DTS Sentinel unit serial number:	SN413079Multiplexer serial number:	ORYXHardware model number:	OX4-SRSoftware version number:	ORYX F/W v4.00 Oryx Data Collector v3.7.2.0data status	okinstallation	princeton_trtdifferential loss correction	single-endedforward channel	channel 3reverse channel	N/Adate	2019/09/11time	15:58:11forward acquisition time	60.00reverse acquisition time	0.00gamma	496.2192k internal	0.2289k external	0.2289temperature offset calibration	0.9985default loss term (dB/km)	0.3790temperature slope calibration	1.0000multiplexer offset coefficient	1.0000multiplexer slope coefficient	1.0000fibre end	0.00T internal ref (°C)	43.02T ext. ref 1 (°C)	1.03T ext. ref 2 (°C)	38.76length (m)	temperature (°C)	Stokes	anti-Stokes-747.200	800.000	0.054	0.170
-746.185	-127.089	0.123	-0.018
-745.171	367.772	0.077	-0.159
-744.156	43.603	-0.141	-0.133
-743.142	25.906	0.118	-0.101
-742.127	371.015	-0.148	0.308
-741.112	123.516	-0.092	0.118
-740.098	323.279	0.064	0.124
-739.083	800.000	0.028	-0.114
-738.069	-148.714	-0.240	0.020
-737.054	-113.212	-0.413	0.083
-736.039	800.000	-0.058	0.198
-735.025	-197.407	-0.145	0.001
-734.010	-200.000	-0.018	-0.262
-732.996	800.000	0.058	-0.248
-731.981	-73.767	-0.210	0.078
-730.966	-56.559	-0.022	0.010
-729.952	158.650	-0.195	-0.277
-728.937	84.846	0.020	-0.023
-727.923	-7.205	-0.311	0.216
-726.908	-106.972	-0.203	-0.046
-725.894	-44.247	-0.181	0.093
-724.879	180.214	-0.095	-0.143
-723.864	-31.986	-0.253	0.145
-722.850	9.837	0.175	0.136
-721.835	800.000	-0.080	0.237
-720.821	-200.000	0.009	0.127
-719.806	-168.964	-0.037	-0.001
-718.791	20.297	0.055	0.045
-717.777	-200.000	0.041	0.243
-716.762	-200.000	-0.008	-0.336
-715.748	-200.000	0.006	0.127
-714.733	294.758	-0.127	0.239
-713.718	-200.000	0.069	-0.328
-712.704	140.424	0.181	-0.245
-711.689	265.577	-0.093	-0.166
-710.675	-200.000	-0.019	0.192
-709.660	29.795	0.258	0.225
-708.645	-200.000	0.000	0.059
-707.631	67.291	-0.365	-0.381
-706.616	5.905	-0.190	-0.144
-705.602	-200.000	0.050	0.236
-704.587	214.367	0.179	-0.290
-703.572	-200.000	-0.053	-0.379
-702.558	800.000	-0.136	0.528
-701.543	-141.678	0.093	0.010
-700.529	-62.161	-0.299	0.128
-699.514	800.000	-0.082	-0.288
-698.499	-200.000	-0.008	-0.189
-697.485	-200.000	-0.074	0.355
-696.470	-200.000	0.022	-0.139
-695.456	-20.311	-0.278	-0.175
-694.441	-101.503	-0.230	0.057
-693.426	-200.000	0.010	0.073
-692.412	-96.414	0.199	-0.054
-691.397	-114.342	0.334	-0.066
-690.383	132.115	0.235	-0.310
-689.368	-200.000	-0.031	-0.297
-688.354	-200.000	0.033	-0.259
-687.339	800.000	0.089	-0.363
-686.324	201.123	0.110	-0.172
-685.310	415.478	-0.020	-0.044
-684.295	-61.146	-0.281	0.121
-683.281	-167.984	-0.325	0.013
-682.266	-200.000	0.090	-0.456
-681.251	257.919	0.027	-0.048
-680.237	-136.655	-0.132	0.016
-679.222	-143.648	-0.059	0.006
-678.208	-71.411	-0.341	-0.131
-677.193	-18.224	-0.041	-0.026
-676.178	65.872	-0.302	0.314
-675.164	684.736	0.125	0.333
-674.149	800.000	0.072	0.270
-673.135	181.622	0.208	-0.313
-672.120	-62.637	-0.224	-0.095
-671.105	288.171	0.057	-0.106
-670.091	-172.863	0.263	0.008
-669.076	-200.000	0.038	-0.335
-668.062	209.601	-0.063	-0.101
-667.047	-200.000	0.052	0.263
-666.032	-98.903	-0.163	-0.042
-665.018	-200.000	-0.013	-0.115
-664.003	191.192	-0.053	0.081
-662.989	65.717	-0.318	0.330
-661.974	-200.000	0.062	-0.457
-660.959	-200.000	0.000	-0.144
-659.945	-41.608	0.235	-0.123
-658.930	320.952	-0.121	-0.234
-657.916	501.388	-0.118	0.277
-656.901	800.000	-0.122	0.479
-655.886	-52.822	0.318	0.150
-654.872	-155.771	0.253	-0.017
-653.857	58.879	-0.173	-0.174
-652.843	-85.747	-0.068	-0.021
-651.828	-10.919	0.250	0.168
-650.814	-200.000	0.000	-0.106
-649.799	12.443	0.098	-0.077
-648.784	-200.000	0.003	0.130
-647.770	-115.651	0.187	0.036
-646.755	114.454	-0.277	-0.344
-645.741	800.000	-0.013	0.044
-644.726	61.590	0.245	-0.249
-643.711	-68.337	-0.257	0.102
-642.697	-103.223	-0.304	0.073
-641.682	-151.954	0.065	-0.005
-640.668	99.172	0.259	-0.305
-639.653	64.250	-0.269	0.277
-638.638	100.804	-0.131	-0.155
-637.624	44.725	0.148	0.139
-636.609	224.895	-0.045	0.075
-635.595	-156.449	0.073	0.005
-634.580	800.000	0.037	0.145
-633.565	-26.406	0.094	-0.056
-632.551	1.281	0.170	-0.125
-631.536	800.000	0.037	-0.125
-630.522	309.142	0.100	-0.191
-629.507	449.848	0.054	0.123
-628.492	744.883	-0.144	0.395
-627.478	-67.789	-0.157	-0.063
-626.463	-200.000	0.000	0.076
-625.449	-200.000	0.017	0.301
-624.434	800.000	0.066	-0.242
-623.419	-56.896	0.124	-0.056
-622.405	-46.946	0.196	-0.098
-621.390	152.519	-0.145	0.202
-620.376	498.847	0.142	-0.335
-619.361	256.959	0.192	-0.337
-618.346	-108.213	-0.257	0.057
-617.332	-200.000	0.037	0.184
-616.317	-68.732	0.196	-0.077
-615.303	149.713	-0.171	0.237
-614.288	-69.695	-0.323	0.126
-613.273	71.506	0.072	-0.076
-612.259	-35.377	0.392	0.217
-611.244	-13.801	-0.421	-0.278
-610.230	-174.921	-0.205	0.006
-609.215	-90.503	0.295	0.087
-608.201	-200.000	-0.007	-0.280
-607.186	-52.185	0.075	0.036
-606.171	370.371	0.077	-0.159
-605.157	579.244	0.067	0.167
-604.142	-53.965	-0.243	-0.113
-603.128	33.395	-0.145	-0.128
-602.113	-14.356	-0.085	-0.056
-601.098	800.000	0.129	0.458
-600.084	131.183	-0.047	0.061
-599.069	73.003	0.183	0.195
-598.055	122.846	-0.121	0.155
-597.040	-87.956	-0.060	-0.018
-596.025	57.311	0.103	-0.102
-595.011	75.430	-0.154	0.166
-593.996	20.980	0.034	-0.028
-592.982	273.099	-0.023	0.041
-591.967	51.777	0.144	-0.140
-590.952	-162.420	0.275	-0.014
-589.938	-127.857	-0.202	0.030
-588.923	-200.000	-0.046	-0.312
-587.909	-59.883	0.491	-0.214
-586.894	-40.514	-0.251	0.133
-585.879	43.595	-0.184	-0.171
-584.865	-107.650	0.414	-0.092
-583.850	-200.000	0.031	0.195
-582.836	-84.075	-0.270	-0.087
-581.821	-42.651	-0.161	-0.084
-580.806	547.381	-0.045	0.110
-579.792	140.208	-0.209	0.281
-578.777	34.931	-0.073	0.065
-577.763	-146.478	0.151	-0.013
-576.748	178.203	-0.103	-0.154
-575.733	19.555	-0.172	-0.141
-574.719	37.144	0.028	0.026
-573.704	82.443	0.150	0.166
-572.690	800.000	-0.032	0.097
-571.675	-200.000	-0.014	0.141
-570.661	-88.285	0.336	0.102
-569.646	130.767	0.062	0.081
-568.631	115.883	0.126	0.157
-567.617	-27.094	0.171	0.102
-566.602	-26.432	-0.098	0.059
-565.588	-200.000	0.025	-0.139
-564.573	-111.257	-0.201	0.042
-563.558	136.116	0.139	-0.185
-562.544	-92.426	-0.190	-0.054
-561.529	-200.000	-0.003	0.351
-560.515	-85.826	0.268	0.084
-559.500	413.322	0.074	-0.161
-558.485	-200.000	0.021	-0.203
-557.471	285.149	-0.047	-0.085
-556.456	149.908	-0.200	-0.276
-555.442	173.751	-0.127	0.187
-554.427	33.209	0.199	0.176
-553.412	-200.000	0.007	0.120
-552.398	577.592	0.151	-0.375
-551.383	282.119	-0.037	-0.068
-550.369	-1.540	-0.062	-0.044
-549.354	-80.196	0.093	0.032
-548.339	236.728	0.148	0.249
-547.325	-46.523	0.225	0.112
-546.310	310.324	-0.112	0.214
-545.296	71.834	0.249	0.263
-544.281	51.878	-0.155	-0.150
-543.266	143.079	-0.086	-0.116
-542.252	295.133	-0.041	-0.076
-541.237	35.144	0.085	0.076
-540.223	145.855	0.125	0.170
-539.208	-144.369	-0.379	-0.036
-538.193	157.328	0.094	0.132
-537.179	70.919	0.102	0.107
-536.164	-149.884	-0.269	0.021
-535.150	-92.422	-0.098	-0.028
-534.135	-73.239	-0.018	0.007
-533.121	-62.637	0.100	-0.042
-532.106	-200.000	-0.061	-0.335
-531.091	87.199	-0.097	0.109
-530.077	56.372	-0.237	-0.234
-529.062	-200.000	-0.040	0.223
-528.048	-96.813	0.072	-0.019
-527.033	-83.964	0.087	-0.028
-526.018	189.159	-0.235	-0.357
-525.004	288.620	-0.118	0.217
-523.989	-200.000	-0.028	0.146
-522.975	-81.053	0.190	0.064
-521.960	-15.974	0.177	-0.115
-520.945	-102.327	-0.255	0.062
-519.931	800.000	-0.043	0.132
-518.916	-51.943	0.274	0.130
-517.902	-79.360	0.167	0.057
-516.887	46.483	-0.166	0.157
-515.872	-178.914	0.221	0.005
-514.858	185.341	-0.121	0.183
-513.843	-101.273	0.215	0.053
-512.829	800.000	-0.111	0.344
-511.814	399.834	0.155	-0.329
-510.799	-200.000	-0.081	-0.000
-509.785	-17.484	0.147	0.094
-508.770	50.787	0.185	-0.178
-507.756	181.817	-0.050	-0.075
-506.741	-161.235	-0.257	-0.014
-505.726	668.661	-0.089	0.233
-504.712	55.093	0.107	0.105
-503.697	-200.000	0.070	0.396
-502.683	195.725	-0.061	-0.094
-501.668	-117.488	-0.340	-0.062
-500.653	97.663	-0.102	-0.119
-499.639	231.309	-0.084	-0.139
-498.624	-200.000	0.037	-0.272
-497.610	10.778	0.356	-0.276
-496.595	800.000	0.093	0.287
-495.581	51.272	-0.373	0.360
-494.566	-200.000	0.019	-0.192
-493.551	-121.318	0.199	0.034
-492.537	-200.000	0.050	-0.319
-491.522	189.681	0.282	-0.429
-490.508	-28.972	0.111	0.065
-489.493	800.000	-0.068	0.211
-488.478	-111.622	0.120	-0.025
-487.464	-90.919	0.175	-0.051
-486.449	-108.567	-0.321	0.070
-485.435	-96.072	-0.222	0.060
-484.420	-17.644	0.128	0.082
-483.405	51.576	0.229	0.221
-482.391	49.737	-0.096	-0.092
-481.376	800.000	0.096	-0.415
-480.362	-127.506	0.129	-0.019
-479.347	-200.000	-0.036	0.410
-478.332	-101.180	0.144	-0.036
-477.318	-102.516	0.406	0.098
-476.303	-68.141	-0.263	0.104
-475.289	-188.708	0.158	0.002
-474.274	-170.474	0.312	0.011
-473.259	-16.107	0.248	-0.160
-472.245	45.435	-0.119	-0.112
-471.230	-200.000	-0.081	-0.411
-470.216	-200.000	0.038	-0.360
-469.201	-182.853	-0.116	0.002
-468.186	142.145	-0.079	0.107
-467.172	800.000	0.053	-0.159
-466.157	-165.069	-0.130	-0.006
-465.143	146.843	0.079	0.108
-464.128	-132.910	0.236	0.030
-463.113	23.785	-0.124	-0.104
-462.099	-200.000	-0.044	0.414
-461.084	-194.085	-0.165	0.001
-460.070	-200.000	0.011	-0.114
-459.055	-2.399	0.104	0.074
-458.040	-50.466	0.254	-0.122
-457.026	375.437	-0.121	0.251
-456.011	800.000	-0.040	0.131
-454.997	334.591	-0.092	-0.181
-453.982	174.155	-0.114	0.167
-452.968	-67.935	-0.234	0.093
-451.953	344.596	-0.148	-0.295
-450.938	-200.000	-0.011	0.095
-449.924	-49.544	-0.273	-0.132
-448.909	41.182	-0.146	-0.134
-447.895	-200.000	0.002	0.101
-446.880	91.855	0.085	-0.097
-445.865	-200.000	-0.017	0.080
-444.851	800.000	-0.051	0.184
-443.836	-72.828	0.219	0.082
-442.822	-138.379	-0.457	0.051
-441.807	-41.870	-0.146	0.076
-440.792	-200.000	0.023	-0.141
-439.778	48.806	0.324	0.308
-438.763	-64.618	-0.417	0.172
-437.749	-2.589	-0.011	0.008
-436.734	-183.243	-0.106	-0.002
-435.719	8.128	0.132	-0.101
-434.705	-144.777	0.364	0.034
-433.690	-103.651	-0.202	-0.048
-432.676	-86.672	-0.247	0.076
-431.661	-20.665	-0.032	-0.020
-430.646	-31.242	0.240	0.137
-429.632	-85.485	0.040	-0.013
-428.617	-200.000	0.027	0.156
-427.603	-137.674	-0.014	-0.002
-426.588	-105.166	0.244	-0.056
-425.573	-200.000	0.022	0.164
-424.559	0.805	0.113	-0.082
-423.544	-200.000	-0.007	0.089
-422.530	68.879	0.156	-0.163
-421.515	-78.201	0.093	-0.032
-420.500	-200.000	-0.021	0.377
-419.486	-200.000	0.047	0.209
-418.471	108.707	-0.228	-0.275
-417.457	-82.820	0.262	0.086
-416.442	147.506	0.131	-0.179
-415.428	83.459	0.279	0.308
-414.413	-99.920	-0.336	0.085
-413.398	175.400	-0.135	0.198
-412.384	-200.000	-0.002	0.158
-411.369	-120.475	-0.225	0.039
-410.355	-200.000	-0.006	0.392
-409.340	-3.229	-0.334	0.235
-408.325	-36.086	-0.207	0.113
-407.311	-154.173	0.105	-0.007
-406.296	-119.952	0.486	-0.085
-405.282	-161.898	-0.274	-0.014
-404.267	-200.000	0.004	0.238
-403.252	-64.806	-0.138	0.056
-402.238	-96.152	-0.566	0.152
-401.223	-90.152	-0.284	0.083
-400.209	-56.475	-0.229	0.103
-399.194	-200.000	-0.041	0.276
-398.179	23.346	-0.167	0.138
-397.165	186.865	0.222	0.335
-396.150	485.924	0.118	0.271
-395.136	-200.000	0.019	0.111
-394.121	-200.000	-0.033	0.330
-393.106	-157.434	0.179	0.011
-392.092	-184.574	-0.306	-0.005
-391.077	170.316	0.284	-0.410
-390.063	-132.186	-0.219	-0.029
-389.048	2.665	-0.079	0.058
-388.033	-200.000	-0.001	-0.262
-387.019	145.733	-0.025	0.034
-386.004	305.218	-0.059	0.111
-384.990	-137.468	-0.199	-0.023
-383.975	-182.941	-0.318	-0.006
-382.960	55.852	0.167	0.164
-381.946	52.785	-0.204	0.197
-380.931	-59.677	0.209	0.090
-379.917	136.062	-0.149	-0.196
-378.902	195.825	-0.199	-0.306
-377.888	314.778	0.079	-0.151
-376.873	-139.541	0.171	-0.018
-375.858	-200.000	0.007	-0.217
-374.844	168.833	0.008	-0.011
-373.829	552.744	-0.101	-0.246
-372.815	-143.371	0.053	0.005
-371.800	491.327	-0.046	-0.107
-370.785	562.901	-0.091	0.222
-369.771	800.000	-0.058	-0.202
-368.756	-2.812	-0.163	-0.115
-367.742	438.729	0.161	-0.355
-366.727	-90.404	-0.175	-0.051
-365.712	-133.813	-0.140	0.018
-364.698	534.782	-0.044	0.105
-363.683	-160.855	-0.208	-0.011
-362.669	16.058	0.302	-0.240
-361.654	800.000	-0.131	0.577
-360.639	-149.909	0.136	0.011
-359.625	-148.857	0.206	0.017
-358.610	-15.025	-0.162	-0.105
-357.596	48.502	0.235	0.222
-356.581	-200.000	-0.028	0.134
-355.566	-73.333	-0.207	-0.077
-354.552	-52.083	-0.152	-0.071
-353.537	-130.789	-0.156	0.021
-352.523	800.000	-0.109	-0.330
-351.508	260.271	-0.037	0.064
-350.493	408.516	-0.132	-0.282
-349.479	-31.867	0.223	0.126
-348.464	208.927	-0.028	-0.044
-347.450	138.561	0.172	-0.227
-346.435	63.335	-0.131	-0.133
-345.420	152.323	0.141	-0.194
-344.406	393.820	0.072	-0.152
-343.391	-121.187	0.569	0.096
-342.377	-56.442	0.151	-0.068
-341.362	-145.938	-0.126	-0.011
-340.348	-200.000	0.008	-0.344
-339.333	-17.541	-0.333	0.211
-338.318	-200.000	0.035	-0.355
-337.304	-54.705	0.169	-0.077
-336.289	69.051	0.119	0.123
-335.275	23.800	0.173	-0.143
-334.260	-60.729	0.114	-0.049
-333.245	-138.545	0.209	-0.023
-332.231	2.821	-0.285	-0.209
-331.216	-200.000	-0.038	0.285
-330.202	-97.196	-0.158	-0.042
-329.187	-200.000	0.016	-0.189
-328.172	-200.000	-0.011	-0.198
-327.158	-142.031	-0.442	0.044
-326.143	800.000	-0.066	0.225
-325.129	480.816	-0.121	0.278
-324.114	-162.800	-0.143	-0.007
-323.099	800.000	0.019	0.076
-322.085	109.036	0.206	0.248
-321.070	32.397	0.120	-0.104
-320.056	-200.000	-0.012	0.250
-319.041	-200.000	-0.046	0.417
-318.026	75.930	-0.255	0.272
-317.012	-87.395	-0.200	-0.061
-315.997	-200.000	0.002	-0.156
-314.983	336.266	0.087	-0.169
-313.968	29.035	-0.209	-0.179
-312.953	-34.424	-0.007	0.004
-311.939	-109.493	0.122	-0.026
-310.924	-25.222	0.105	-0.063
-309.910	-200.000	-0.027	-0.272
-308.895	-115.396	-0.123	-0.023
-307.880	106.227	-0.181	-0.216
-306.866	-86.680	-0.344	-0.106
-305.851	-15.062	-0.116	-0.075
-304.837	-26.922	-0.160	0.094
-303.822	-21.484	0.065	-0.040
-302.807	800.000	-0.074	-0.310
-301.793	-10.403	0.191	0.128
-300.778	-73.726	0.149	-0.055
-299.764	-71.717	0.278	0.104
-298.749	249.758	0.211	0.360
-297.735	217.602	0.168	0.269
-296.720	-200.000	-0.003	-0.054
-295.705	-199.459	0.070	-0.000
-294.691	132.268	0.114	-0.148
-293.676	-116.659	0.183	0.034
-292.662	400.605	0.285	-0.602
-291.647	-41.261	-0.270	-0.140
-290.632	800.000	-0.054	-0.187
-289.618	279.054	-0.150	0.270
-288.603	800.000	0.047	0.138
-287.589	19.570	0.131	0.106
-286.574	-200.000	-0.043	-0.220
-285.559	-167.032	-0.399	0.016
-284.545	-157.452	-0.275	0.017
-283.530	-200.000	0.001	-0.175
-282.516	-200.000	-0.210	-0.000
-281.501	19.228	-0.269	0.218
-280.486	-25.106	-0.096	-0.058
-279.472	3.064	0.073	0.053
-278.457	-200.000	-0.004	-0.289
-277.443	81.725	-0.272	0.296
-276.428	-102.270	0.077	-0.019
-275.413	-141.821	0.252	-0.025
-274.399	331.516	-0.122	0.236
-273.384	521.292	0.054	0.126
-272.370	-10.093	0.107	-0.072
-271.355	800.000	0.035	-0.108
-270.340	-86.499	0.440	-0.136
-269.326	-117.168	-0.233	-0.043
-268.311	153.594	-0.171	-0.235
-267.297	800.000	0.065	-0.205
-266.282	-81.866	0.270	-0.089
-265.267	466.347	0.035	-0.080
-264.253	-200.000	-0.049	-0.272
-263.238	-200.000	-0.069	-0.427
-262.224	800.000	0.096	0.415
-261.209	204.540	0.129	-0.201
-260.195	468.227	0.091	0.205
-259.180	14.197	0.307	0.241
-258.165	111.570	0.146	-0.177
-257.151	-65.148	-0.137	-0.055
-256.136	123.969	0.164	-0.207
-255.122	-0.093	-0.109	0.078
-254.107	-200.000	-0.039	0.221
-253.092	37.478	0.064	0.057
-252.078	134.485	0.100	-0.131
-251.063	-200.000	0.034	0.227
-250.049	-26.889	0.362	0.213
-249.034	221.167	0.051	-0.082
-248.019	395.035	0.023	0.049
-247.005	109.228	-0.244	0.293
-245.990	296.505	0.111	0.204
-244.976	800.000	0.091	-0.297
-243.961	174.054	-0.106	-0.153
-242.946	-69.295	0.180	0.070
-241.932	24.224	-0.256	-0.213
-240.917	800.000	0.097	-0.389
-239.903	645.657	-0.065	0.167
-238.888	303.743	-0.087	-0.162
-237.873	-200.000	0.024	0.172
-236.859	-70.016	-0.075	-0.029
-235.844	177.794	0.052	0.077
-234.830	-26.983	-0.234	-0.137
-233.815	-138.974	-0.050	-0.005
-232.800	223.552	-0.101	-0.164
-231.786	-157.941	0.422	-0.025
-230.771	800.000	0.061	-0.188
-229.757	-200.000	0.030	-0.174
-228.742	-200.000	0.024	-0.351
-227.727	608.391	-0.160	-0.402
-226.713	-25.022	0.039	0.023
-225.698	-72.939	-0.128	0.047
-224.684	-53.680	0.176	0.081
-223.669	3.432	-0.069	-0.050
-222.655	-200.000	0.011	-0.097
-221.640	-199.728	-0.095	0.000
-220.625	-35.360	-0.089	-0.048
-219.611	-22.558	-0.159	0.096
-218.596	18.213	0.045	-0.036
-217.582	26.319	0.238	0.199
-216.567	-83.925	0.296	-0.095
-215.552	-148.105	0.324	-0.027
-214.538	-30.032	0.133	-0.076
-213.523	-200.000	0.043	-0.291
-212.509	-15.883	0.180	0.115
-211.494	203.371	-0.145	0.225
-210.479	331.377	0.064	0.123
-209.465	-151.454	-0.348	-0.026
-208.450	-8.106	-0.157	0.106
-207.436	-200.000	-0.002	-0.159
-206.421	71.077	0.123	0.128
-205.406	-100.860	-0.163	-0.040
-204.392	-200.000	-0.053	-0.345
-203.377	28.369	-0.113	-0.096
-202.363	-187.390	0.050	0.001
-201.348	-109.390	0.285	0.061
-200.333	475.996	0.005	-0.010
-199.319	-13.885	-0.143	-0.093
-198.304	-68.121	-0.389	0.152
-197.290	-200.000	0.028	-0.268
-196.275	-119.727	0.287	0.050
-195.260	315.574	-0.174	-0.329
-194.246	800.000	0.021	0.077
-193.231	-152.897	0.074	0.005
-192.217	65.073	-0.292	0.296
-191.202	145.287	0.152	0.204
-190.187	197.928	-0.172	-0.264
-189.173	65.991	0.095	0.097
-188.158	-45.348	-0.120	0.060
-187.144	800.000	-0.108	0.421
-186.129	24.533	0.136	-0.113
-185.114	800.000	-0.039	0.148
-184.100	-200.000	0.023	0.275
-183.085	48.345	0.083	-0.078
-182.071	800.000	0.075	0.263
-181.056	-94.149	0.441	-0.121
-180.042	6.168	-0.122	0.091
-179.027	-200.000	-0.028	-0.227
-178.012	2.525	-0.098	-0.071
-176.998	272.339	-0.065	0.114
-175.983	-61.187	0.128	0.054
-174.969	169.542	-0.101	0.145
-173.954	14.806	0.303	0.237
-172.939	800.000	0.089	-0.303
-171.925	-200.000	0.007	-0.182
-170.910	-91.030	-0.193	-0.055
-169.896	214.187	-0.163	0.258
-168.881	-40.266	-0.213	-0.111
-167.866	107.887	-0.187	0.223
-166.852	176.597	-0.129	-0.188
-165.837	-200.000	0.026	0.178
-164.823	-152.178	-0.136	-0.010
-163.808	-1.825	0.119	0.084
-162.793	6.263	0.265	0.197
-161.779	-132.982	0.455	-0.058
-160.764	-40.025	-0.164	-0.086
-159.750	252.587	-0.147	0.250
-158.735	-149.102	-0.137	0.011
-157.720	66.662	0.205	-0.209
-156.706	-80.831	0.325	0.108
-155.691	-93.341	-0.064	-0.018
-154.677	-90.357	0.448	0.130
-153.662	-200.000	-0.029	-0.132
-152.647	86.674	0.283	-0.313
-151.633	574.985	0.223	-0.545
-150.618	-200.000	0.056	0.289
-149.604	67.306	0.195	-0.199
-148.589	-103.085	-0.320	0.076
-147.574	15.748	-0.146	-0.115
-146.560	216.918	0.104	0.166
-145.545	-47.688	0.301	0.146
-144.531	-84.406	0.091	-0.029
-143.516	-67.542	-0.175	0.069
-142.502	800.000	0.007	0.021
-141.487	-200.000	-0.009	0.339
-140.472	-200.000	-0.044	0.346
-139.458	-200.000	0.003	-0.234
-138.443	-49.483	-0.182	0.087
-137.429	-102.184	0.136	0.033
-136.414	-104.481	-0.213	-0.049
-135.399	231.163	-0.093	0.152
-134.385	-75.257	0.453	-0.162
-133.370	800.000	0.057	0.172
-132.356	457.664	0.042	-0.094
-131.341	145.323	0.064	-0.085
-130.326	-145.083	-0.132	-0.012
-129.312	670.707	0.126	-0.326
-128.297	800.000	-0.058	0.164
-127.283	-13.714	0.231	-0.150
-126.268	514.158	0.065	0.152
-125.253	408.995	0.027	0.057
-124.239	202.487	-0.118	-0.183
-123.224	-200.000	0.001	-0.130
-122.210	40.760	-0.147	0.132
