DTS Sentinel unit serial number:	SN413079Multiplexer serial number:	ORYXHardware model number:	OX4-SRSoftware version number:	ORYX F/W v4.00 Oryx Data Collector v3.7.2.0data status	okinstallation	princeton_trtdifferential loss correction	single-endedforward channel	channel 3reverse channel	N/Adate	2019/09/13time	03:36:35forward acquisition time	60.00reverse acquisition time	0.00gamma	496.2192k internal	0.2335k external	0.2335temperature offset calibration	1.0138default loss term (dB/km)	0.3790temperature slope calibration	1.0000multiplexer offset coefficient	1.0000multiplexer slope coefficient	1.0000fibre end	0.00T internal ref (°C)	27.27T ext. ref 1 (°C)	4.09T ext. ref 2 (°C)	21.64length (m)	temperature (°C)	Stokes	anti-Stokes-747.200	442.264	-0.109	0.239
-746.185	-200.000	0.015	0.094
-745.171	-200.000	-0.036	0.328
-744.156	111.664	-0.135	-0.164
-743.142	-160.551	-0.215	0.012
-742.127	267.137	0.015	-0.027
-741.112	-169.340	0.015	0.001
-740.098	83.120	0.110	0.120
-739.083	19.218	-0.347	0.280
-738.069	-200.000	0.009	0.507
-737.054	-154.363	-0.278	0.019
-736.039	-104.063	-0.300	-0.070
-735.025	111.299	0.176	0.213
-734.010	77.325	0.088	-0.094
-732.996	60.691	-0.263	-0.262
-731.981	800.000	0.022	-0.089
-730.966	-66.950	0.308	-0.122
-729.952	458.122	-0.051	-0.113
-728.937	-65.797	-0.175	-0.070
-727.923	-143.803	-0.193	-0.018
-726.908	-140.478	-0.049	0.005
-725.894	255.349	0.055	-0.095
-724.879	-200.000	-0.039	-0.306
-723.864	-138.153	-0.427	-0.048
-722.850	-160.556	0.106	-0.006
-721.835	800.000	0.085	-0.247
-720.821	-200.000	-0.039	-0.295
-719.806	18.540	0.211	0.169
-718.791	-200.000	0.030	-0.422
-717.777	131.061	0.140	-0.180
-716.762	-107.714	0.193	0.042
-715.748	800.000	0.019	0.059
-714.733	-108.838	0.355	-0.076
-713.718	-123.184	0.167	0.027
-712.704	463.451	-0.211	-0.472
-711.689	-200.000	0.038	-0.438
-710.675	25.509	-0.119	0.099
-709.660	555.469	-0.046	-0.111
-708.645	-95.915	0.076	0.020
-707.631	78.005	0.026	0.027
-706.616	-189.256	0.247	0.003
-705.602	-174.135	-0.215	0.006
-704.587	149.640	0.064	0.087
-703.572	-42.355	0.220	0.113
-702.558	175.371	0.051	-0.074
-701.543	-162.587	-0.074	-0.004
-700.529	-0.398	-0.100	-0.071
-699.514	-200.000	0.095	0.440
-698.499	-114.837	-0.161	-0.031
-697.485	-49.115	-0.265	-0.127
-696.470	64.913	-0.061	0.062
-695.456	-200.000	-0.039	0.204
-694.441	-200.000	-0.034	0.234
-693.426	800.000	0.037	-0.137
-692.412	216.477	-0.121	0.192
-691.397	-56.864	0.172	-0.076
-690.383	519.150	0.085	-0.199
-689.368	30.778	0.292	0.251
-688.354	-144.078	0.266	0.025
-687.339	564.339	-0.166	-0.403
-686.324	-200.000	0.002	0.116
-685.310	800.000	0.054	-0.195
-684.295	-71.118	-0.224	-0.084
-683.281	-200.000	-0.004	-0.165
-682.266	800.000	0.032	0.089
-681.251	687.707	0.091	-0.239
-680.237	333.948	0.066	0.128
-679.222	98.935	-0.167	0.193
-678.208	-69.834	-0.177	0.068
-677.193	57.113	0.121	-0.119
-676.178	210.628	-0.149	-0.234
-675.164	128.147	0.306	-0.390
-674.149	358.510	0.046	-0.092
-673.135	-41.272	0.427	-0.221
-672.120	108.481	0.232	0.278
-671.105	-200.000	-0.010	-0.319
-670.091	800.000	-0.048	0.165
-669.076	800.000	-0.030	-0.117
-668.062	204.388	-0.087	-0.135
-667.047	362.787	0.107	-0.214
-666.032	-153.450	-0.275	0.019
-665.018	263.745	0.212	-0.369
-664.003	-133.558	-0.261	0.033
-662.989	-117.619	0.070	-0.013
-661.974	6.563	0.282	0.210
-660.959	63.965	-0.355	0.358
-659.945	347.926	-0.033	-0.065
-658.930	-200.000	0.003	-0.082
-657.916	-54.436	-0.578	-0.262
-656.901	-149.754	-0.510	-0.040
-655.886	35.824	0.226	-0.199
-654.872	280.350	-0.124	-0.222
-653.857	233.125	-0.132	0.217
-652.843	-3.661	0.067	-0.047
-651.828	-25.380	0.128	0.076
-650.814	73.913	-0.083	-0.087
-649.799	149.971	-0.205	-0.279
-648.784	-18.384	0.410	-0.257
-647.770	-200.000	-0.017	-0.263
-646.755	33.690	-0.056	-0.049
-645.741	-71.281	-0.115	-0.043
-644.726	27.412	-0.377	0.317
-643.711	-92.571	-0.057	0.016
-642.697	-97.436	0.206	-0.054
-641.682	-200.000	-0.045	-0.274
-640.668	-200.000	-0.001	-0.039
-639.653	74.052	-0.138	-0.145
-638.638	7.392	-0.188	0.141
-637.624	800.000	0.074	0.268
-636.609	-22.125	0.058	0.035
-635.595	704.656	-0.101	0.266
-634.580	210.393	0.007	-0.011
-633.565	-200.000	-0.006	0.125
-632.551	800.000	-0.051	-0.187
-631.536	153.927	-0.253	-0.347
-630.522	40.611	-0.181	-0.163
-629.507	-149.836	0.339	-0.027
-628.492	-140.036	0.114	-0.012
-627.478	-36.969	-0.177	-0.095
-626.463	-200.000	0.003	0.104
-625.449	-107.341	-0.166	-0.037
-624.434	-106.815	0.181	0.040
-623.419	-114.435	-0.244	0.047
-622.405	88.477	-0.217	-0.241
-621.390	143.081	0.197	0.261
-620.376	-27.407	0.251	0.146
-619.361	-113.932	-0.072	-0.014
-618.346	0.501	0.112	-0.080
-617.332	590.625	-0.119	-0.294
-616.317	-140.198	0.108	0.011
-615.303	-16.861	-0.176	0.111
-614.288	-70.703	0.490	0.185
-613.273	-190.449	0.174	0.002
-612.259	14.513	0.259	-0.202
-611.244	-37.808	-0.196	0.104
-610.230	14.484	-0.130	-0.101
-609.215	300.508	0.172	0.317
-608.201	800.000	0.180	0.501
-607.186	-69.339	-0.197	0.076
-606.171	-154.280	0.120	-0.008
-605.157	297.885	-0.139	-0.256
-604.142	768.350	0.093	0.253
-603.128	497.648	0.096	-0.221
-602.113	-200.000	0.003	-0.402
-601.098	185.466	-0.192	0.285
-600.084	-22.206	0.348	0.211
-599.069	-200.000	0.074	0.324
-598.055	-200.000	-0.035	-0.307
-597.040	322.724	0.104	0.199
-596.025	562.872	-0.111	0.268
-595.011	113.048	-0.036	0.044
-593.996	628.746	0.056	0.141
-592.982	800.000	0.070	-0.227
-591.967	-20.939	0.287	-0.176
-590.952	800.000	0.033	0.124
-589.938	62.167	-0.134	0.134
-588.923	132.531	-0.101	-0.131
-587.909	-34.241	-0.287	-0.157
-586.894	-200.000	0.037	-0.274
-585.879	705.903	0.083	-0.218
-584.865	-109.745	-0.111	0.023
-583.850	-84.648	-0.205	-0.064
-582.836	256.911	-0.091	-0.156
-581.821	-200.000	0.001	-0.127
-580.806	487.771	0.101	0.230
-579.792	665.967	-0.046	0.119
-578.777	-182.449	-0.240	0.004
-577.763	-73.795	0.234	0.085
-576.748	-200.000	-0.037	0.192
-575.733	190.574	0.088	0.133
-574.719	60.164	0.154	0.152
-573.704	-115.821	0.043	0.008
-572.690	-96.614	0.380	0.100
-571.675	-89.938	-0.179	-0.052
-570.661	-200.000	0.032	-0.150
-569.646	-200.000	-0.038	0.170
-568.631	143.855	-0.133	-0.177
-567.617	-200.000	-0.025	-0.356
-566.602	-92.518	0.320	-0.090
-565.588	717.419	-0.241	0.638
-564.573	-148.545	0.137	-0.011
-563.558	-200.000	0.033	-0.204
-562.544	95.239	0.096	-0.110
-561.529	98.307	0.105	-0.120
-560.515	29.083	-0.036	0.030
-559.500	-6.633	0.200	-0.136
-558.485	41.136	0.243	0.219
-557.471	134.074	0.127	0.164
-556.456	355.059	0.158	-0.314
-555.442	-200.000	-0.019	-0.198
-554.427	-151.647	-0.049	-0.004
-553.412	-48.721	-0.186	0.089
-552.398	12.756	0.162	-0.125
-551.383	65.571	-0.148	0.149
-550.369	-63.113	0.007	0.003
-549.354	-32.637	-0.301	-0.167
-548.339	-120.651	0.228	0.039
-547.325	291.371	0.238	0.432
-546.310	-131.523	0.238	-0.031
-545.296	-46.733	-0.295	-0.144
-544.281	-200.000	0.010	-0.153
-543.266	11.077	-0.260	-0.198
-542.252	167.205	-0.127	0.180
-541.237	-42.574	0.203	-0.103
-540.223	16.139	0.441	-0.347
-539.208	-200.000	0.047	-0.295
-538.193	-165.169	-0.090	0.004
-537.179	199.471	0.154	-0.235
-536.164	-95.110	-0.276	-0.074
-535.150	211.848	0.196	0.308
-534.135	-84.208	0.112	-0.035
-533.121	-8.073	0.107	0.072
-532.106	-40.312	-0.089	0.046
-531.091	131.750	-0.109	0.140
-530.077	-151.485	-0.255	-0.019
-529.062	311.106	-0.057	-0.106
-528.048	-61.614	-0.258	-0.108
-527.033	150.209	-0.106	-0.144
-526.018	-85.681	0.182	0.056
-525.004	134.051	0.120	0.154
-523.989	-200.000	-0.023	-0.405
-522.975	218.576	0.069	0.110
-521.960	-200.000	-0.013	-0.361
-520.945	201.158	0.031	0.048
-519.931	-97.666	0.405	0.105
-518.916	-23.558	-0.174	-0.104
-517.902	-193.509	0.065	0.001
-516.887	10.556	-0.225	-0.171
-515.872	-72.484	-0.201	0.074
-514.858	-15.161	-0.329	-0.210
-513.843	-200.000	-0.014	-0.378
-512.829	-200.000	-0.031	-0.234
-511.814	800.000	-0.053	0.211
-510.799	309.918	0.103	-0.193
-509.785	-197.923	0.230	-0.001
-508.770	-41.719	-0.164	-0.084
-507.756	800.000	-0.028	-0.110
-506.741	-7.762	-0.203	-0.137
-505.726	-200.000	0.033	-0.250
-504.712	-200.000	-0.083	-0.000
-503.697	-53.448	-0.397	0.181
-502.683	-24.713	-0.310	0.184
-501.668	79.350	-0.073	0.078
-500.653	-28.142	-0.228	-0.131
-499.639	433.824	0.072	-0.156
-498.624	-200.000	0.042	0.247
-497.610	-200.000	-0.025	-0.395
-496.595	207.218	-0.079	-0.122
-495.581	-170.137	-0.331	0.012
-494.566	-81.545	-0.117	0.038
-493.551	800.000	0.079	-0.234
-492.537	-68.389	-0.290	0.112
-491.522	610.914	0.220	-0.548
-490.508	343.391	0.061	-0.118
-489.493	-97.882	0.223	0.057
-488.478	-82.822	0.242	-0.078
-487.464	-37.305	-0.077	-0.041
-486.449	-135.232	-0.283	-0.034
-485.435	173.405	-0.150	0.215
-484.420	-108.139	-0.196	0.042
-483.405	277.522	0.126	0.223
-482.391	30.490	-0.179	0.152
-481.376	22.975	-0.110	-0.090
-480.362	109.652	0.130	0.155
-479.347	-200.000	0.005	0.223
-478.332	79.299	0.179	-0.191
-477.318	198.150	-0.117	0.178
-476.303	409.173	0.209	0.439
-475.289	352.340	0.206	0.407
-474.274	-107.316	-0.334	0.073
-473.259	136.574	-0.111	-0.144
-472.245	800.000	-0.016	-0.048
-471.230	-150.896	-0.148	-0.011
-470.216	-145.957	-0.286	-0.025
-469.201	101.219	-0.107	0.124
-468.186	-200.000	-0.001	0.052
-467.172	-200.000	-0.046	-0.228
-466.157	-200.000	0.119	0.577
-465.143	120.343	-0.059	-0.073
-464.128	-196.184	-0.459	0.003
-463.113	149.220	-0.068	0.092
-462.099	255.163	-0.048	-0.081
-461.084	-72.607	-0.335	0.123
-460.070	128.125	0.158	0.200
-459.055	800.000	-0.073	-0.236
-458.040	-132.637	0.264	-0.034
-457.026	-200.000	-0.068	0.387
-456.011	-47.963	-0.242	-0.117
-454.997	34.166	0.193	0.167
-453.982	-76.351	-0.158	-0.055
-452.968	109.552	-0.183	0.218
-451.953	46.149	0.170	0.157
-450.938	-110.407	0.228	0.047
-449.924	463.519	0.109	-0.242
-448.909	-200.000	0.015	0.118
-447.895	-200.000	0.021	0.169
-446.880	-17.463	0.016	0.010
-445.865	800.000	0.023	0.073
-444.851	145.374	0.266	-0.354
-443.836	-89.222	0.081	-0.024
-442.822	800.000	0.039	0.136
-441.807	-82.712	-0.032	0.010
-440.792	80.515	-0.158	0.169
-439.778	82.714	0.244	-0.263
-438.763	-200.000	0.101	0.506
-437.749	-55.463	0.401	-0.179
-436.734	800.000	-0.060	-0.176
-435.719	622.687	-0.012	0.030
-434.705	-84.623	0.162	0.051
-433.690	140.176	0.092	-0.121
-432.676	342.293	-0.066	-0.128
-431.661	-184.197	0.229	0.004
-430.646	-117.097	-0.063	-0.011
-429.632	18.989	0.091	-0.072
-428.617	180.500	0.127	-0.185
-427.603	-146.426	-0.331	0.029
-426.588	96.608	-0.190	-0.216
-425.573	-155.536	0.196	-0.013
-424.559	65.185	0.141	-0.142
-423.544	200.875	-0.248	0.378
-422.530	257.199	0.118	0.202
-421.515	-200.000	0.039	0.203
-420.500	-110.839	0.144	0.029
-419.486	-38.217	-0.202	-0.106
-418.471	-12.248	-0.093	-0.060
-417.457	-28.069	-0.397	-0.228
-416.442	238.660	-0.084	-0.138
-415.428	-11.711	-0.272	-0.177
-414.413	-200.000	0.015	-0.115
-413.398	-102.107	0.212	0.051
-412.384	84.792	-0.273	-0.296
-411.369	38.693	0.158	-0.140
-410.355	32.991	-0.131	-0.112
-409.340	-200.000	-0.014	-0.066
-408.325	32.121	-0.268	-0.229
-407.311	-200.000	0.045	-0.369
-406.296	60.392	0.160	-0.157
-405.282	196.563	0.049	0.075
-404.267	-200.000	-0.025	0.438
-403.252	81.593	0.217	0.233
-402.238	-37.598	-0.039	0.021
-401.223	172.971	0.104	0.149
-400.209	-200.000	-0.072	0.347
-399.194	800.000	-0.025	-0.090
-398.179	-200.000	0.009	-0.109
-397.165	-54.712	0.037	-0.017
-396.150	182.172	-0.186	0.271
-395.136	-200.000	0.018	-0.603
-394.121	195.849	0.083	0.124
-393.106	280.704	-0.079	0.140
-392.092	-31.611	-0.161	-0.090
-391.077	800.000	-0.062	0.204
-390.063	-13.909	-0.273	0.175
-389.048	57.532	0.031	-0.030
-388.033	-62.514	-0.311	-0.128
-387.019	-85.608	0.154	0.048
-386.004	-42.976	-0.189	-0.095
-384.990	-40.431	0.182	-0.094
-383.975	-66.928	0.123	0.048
-382.960	-22.570	-0.251	0.150
-381.946	-200.000	-0.004	0.251
-380.931	-122.072	-0.143	0.023
-379.917	42.150	0.123	-0.110
-378.902	749.272	-0.034	0.090
-377.888	-95.587	-0.202	-0.054
-376.873	-58.178	-0.075	0.032
-375.858	-200.000	-0.003	0.120
-374.844	480.099	0.039	0.087
-373.829	800.000	0.071	0.291
-372.815	-111.235	0.174	0.035
-371.800	-120.294	0.307	0.052
-370.785	-200.000	0.037	0.406
-369.771	-162.222	-0.215	0.011
-368.756	22.918	-0.266	-0.216
-367.742	601.253	-0.074	-0.181
-366.727	-140.952	-0.224	0.023
-365.712	45.143	0.164	0.149
-364.698	462.545	-0.070	0.155
-363.683	-138.563	-0.132	0.014
-362.669	-155.811	-0.285	0.018
-361.654	-200.000	0.020	-0.186
-360.639	-200.000	0.023	-0.333
-359.625	1.936	0.307	-0.219
-358.610	-128.676	0.109	0.015
-357.596	-200.000	0.038	0.226
-356.581	261.469	-0.088	0.151
-355.566	-101.332	0.409	0.099
-354.552	-87.074	-0.171	-0.051
-353.537	136.484	-0.151	0.195
-352.523	-200.000	0.022	0.195
-351.508	-49.370	-0.181	0.085
-350.493	-200.000	-0.001	-0.102
-349.479	-74.685	-0.122	-0.043
-348.464	-21.958	-0.308	0.185
-347.450	75.182	-0.248	-0.258
-346.435	-43.417	-0.250	-0.125
-345.420	350.643	-0.237	-0.464
-344.406	-200.000	-0.004	0.145
-343.391	34.535	0.177	-0.153
-342.377	61.770	-0.090	-0.088
-341.362	-200.000	-0.004	0.156
-340.348	-200.000	-0.057	0.301
-339.333	76.741	-0.196	0.206
-338.318	-154.639	0.068	0.005
-337.304	24.210	-0.044	0.036
-336.289	-138.629	0.257	-0.028
-335.275	188.597	0.013	0.020
-334.260	-149.196	0.101	-0.008
-333.245	-104.772	-0.185	-0.042
-332.231	39.869	0.258	0.229
-331.216	29.137	-0.288	0.242
-330.202	503.772	0.062	-0.141
-329.187	-37.288	-0.170	0.090
-328.172	-39.844	0.284	0.147
-327.158	100.870	-0.097	-0.112
-326.143	-22.614	-0.251	0.150
-325.129	53.641	-0.189	-0.179
-324.114	-182.506	-0.223	0.004
-323.099	93.565	0.103	0.115
-322.085	800.000	-0.099	0.276
-321.070	643.963	-0.063	0.160
-320.056	-96.242	0.325	0.085
-319.041	8.314	-0.262	0.194
-318.026	-200.000	0.041	-0.196
-317.012	-74.840	0.415	-0.147
-315.997	800.000	-0.079	-0.261
-314.983	460.512	0.096	-0.212
-313.968	800.000	-0.125	-0.376
-312.953	143.834	0.183	-0.240
-311.939	-112.953	0.435	0.085
-310.924	-10.653	-0.167	0.109
-309.910	66.230	0.352	0.354
-308.895	-41.035	0.144	0.074
-307.880	-48.531	0.170	-0.081
-306.866	59.042	0.069	-0.067
-305.851	218.831	0.055	0.087
-304.837	23.588	0.271	-0.220
-303.822	-23.948	-0.122	-0.072
-302.807	11.883	0.037	-0.028
-301.793	800.000	-0.066	-0.203
-300.778	800.000	0.140	0.495
-299.764	512.698	-0.052	-0.120
-298.749	-117.554	0.318	0.057
-297.735	383.575	0.129	0.262
-296.720	10.612	0.162	-0.122
-295.705	-57.871	0.106	-0.046
-294.691	-91.556	0.076	0.021
-293.676	-136.191	-0.236	0.027
-292.662	800.000	-0.183	0.569
-291.647	28.568	-0.072	-0.060
-290.632	800.000	0.050	0.199
-289.618	-89.072	0.024	0.007
-288.603	-94.681	0.326	0.087
-287.589	-200.000	0.013	0.103
-286.574	-200.000	-0.022	0.214
-285.559	68.488	-0.146	0.148
-284.545	435.195	-0.112	0.241
-283.530	13.123	-0.155	-0.119
-282.516	-42.172	0.118	-0.060
-281.501	-32.824	-0.071	-0.039
-280.486	-178.914	0.218	0.005
-279.472	800.000	-0.045	-0.148
-278.457	-121.676	0.288	0.047
-277.443	-14.925	-0.012	0.008
-276.428	800.000	0.048	0.150
-275.413	-146.033	-0.111	0.010
-274.399	28.646	-0.285	-0.238
-273.384	-162.038	-0.243	0.012
-272.370	-77.367	0.194	0.067
-271.355	-102.797	0.109	0.026
-270.340	-60.170	-0.223	-0.094
-269.326	109.816	0.210	-0.248
-268.311	-90.299	-0.289	-0.083
-267.297	580.872	0.039	0.094
-266.282	-37.202	0.119	-0.063
-265.267	690.069	-0.105	0.271
-264.253	409.898	-0.184	0.384
-263.238	-11.009	0.181	0.118
-262.224	375.607	-0.114	-0.230
-261.209	-87.862	-0.346	-0.103
-260.195	41.085	0.277	0.247
-259.180	71.339	0.112	-0.115
-258.165	-114.872	-0.209	-0.039
-257.151	19.629	-0.134	0.107
-256.136	-31.747	0.278	0.153
-255.122	44.116	0.112	-0.101
-254.107	-37.312	-0.111	0.058
-253.092	-200.000	0.017	0.249
-252.078	50.112	-0.360	0.335
-251.063	3.935	0.116	-0.084
-250.049	278.081	-0.157	-0.275
-249.034	44.604	0.105	-0.095
-248.019	-200.000	0.012	-0.065
-247.005	-200.000	-0.001	0.143
-245.990	8.347	-0.174	0.129
-244.976	-58.811	-0.197	-0.084
-243.961	202.130	-0.109	0.165
-242.946	15.892	-0.137	0.106
-241.932	-55.349	0.294	0.130
-240.917	-71.023	0.199	0.074
-239.903	-75.955	0.107	0.037
-238.888	-125.960	0.336	-0.050
-237.873	161.270	-0.132	-0.182
-236.859	30.813	0.197	-0.166
-235.844	170.367	-0.091	0.128
-234.830	-46.983	-0.192	0.092
-233.815	156.616	-0.137	0.186
-232.800	163.031	0.138	-0.190
-231.786	-117.290	0.104	0.019
-230.771	561.693	0.049	-0.116
-229.757	51.053	0.208	-0.195
-228.742	-200.000	0.020	-0.118
-227.727	-44.508	0.048	-0.024
-226.713	-190.006	-0.059	0.001
-225.698	-200.000	-0.004	0.031
-224.684	349.486	-0.139	0.269
-223.669	-73.476	0.316	-0.114
-222.655	30.710	0.107	0.090
-221.640	25.216	0.139	0.113
-220.625	50.296	-0.233	-0.217
-219.611	319.586	0.098	-0.183
-218.596	154.680	-0.215	-0.291
-217.582	-80.393	0.238	-0.078
-216.567	-15.599	-0.149	0.093
-215.552	-200.000	0.042	-0.222
-214.538	277.658	0.137	0.241
-213.523	302.280	-0.096	-0.176
-212.509	208.307	-0.082	0.127
-211.494	63.542	0.264	-0.261
-210.479	-1.466	-0.221	-0.153
-209.465	171.416	0.059	0.083
-208.450	71.379	-0.208	0.213
-207.436	800.000	0.025	0.079
-206.421	-117.137	0.265	-0.047
-205.406	-26.834	0.355	0.204
-204.392	800.000	0.103	-0.434
-203.377	-84.384	0.192	-0.060
-202.363	-169.656	0.215	-0.008
-201.348	800.000	-0.035	-0.136
-200.333	-68.150	0.210	-0.080
-199.319	221.081	-0.164	-0.259
-198.304	800.000	0.058	0.161
-197.290	-108.946	-0.269	-0.057
-196.275	23.802	0.308	0.250
-195.260	125.748	0.230	0.286
-194.246	-51.766	0.162	-0.074
-193.231	64.507	0.061	0.060
-192.217	-0.252	-0.144	0.100
-191.202	-27.001	0.049	0.028
-190.187	-81.173	0.299	0.097
-189.173	-200.000	0.017	0.129
-188.158	-200.000	-0.005	0.030
-187.144	127.227	-0.214	-0.267
-186.129	-49.919	-0.130	0.061
-185.114	-200.000	0.019	-0.089
-184.100	-103.918	-0.111	0.025
-183.085	-152.025	-0.179	-0.013
-182.071	-160.349	0.150	0.008
-181.056	800.000	-0.018	0.058
-180.042	800.000	-0.061	-0.195
-179.027	-5.356	0.389	-0.263
-178.012	12.846	0.031	-0.023
-176.998	413.775	-0.123	0.258
-175.983	800.000	-0.036	0.134
-174.969	-43.394	0.086	0.043
-173.954	92.891	-0.121	-0.135
-172.939	800.000	-0.063	0.262
-171.925	-200.000	-0.017	-0.192
-170.910	162.848	0.201	0.277
-169.896	-8.812	-0.175	0.115
-168.881	-200.000	0.026	0.163
-167.866	0.837	-0.092	0.065
-166.852	-200.000	-0.004	0.126
-165.837	505.000	0.109	-0.248
-164.823	-200.000	0.031	-0.362
-163.808	-20.654	0.233	-0.140
-162.793	14.340	-0.164	-0.125
-161.779	-200.000	-0.022	-0.134
-160.764	-59.878	-0.191	-0.080
-159.750	-173.269	-0.096	0.003
-158.735	-108.315	-0.061	-0.013
-157.720	-80.150	0.306	-0.101
-156.706	-88.386	0.489	-0.143
-155.691	-40.074	0.145	-0.074
-154.677	212.104	-0.077	-0.119
-153.662	-86.417	0.139	0.042
-152.647	-183.915	0.150	0.002
-151.633	105.138	0.169	0.196
-150.618	61.945	0.049	-0.048
-149.604	800.000	-0.045	0.142
-148.589	-60.592	0.011	-0.005
-147.574	-60.283	0.394	-0.165
-146.560	-124.808	-0.207	0.031
-145.545	-73.272	-0.188	0.068
-144.531	-117.548	0.087	0.015
-143.516	-200.000	-0.008	0.382
-142.502	25.984	-0.339	0.277
-141.487	800.000	-0.050	0.148
-140.472	800.000	0.071	0.269
-139.458	55.771	-0.159	0.151
-138.443	355.319	-0.077	-0.150
-137.429	-200.000	-0.005	-0.034
-136.414	37.571	-0.257	-0.224
-135.399	21.447	0.090	0.072
-134.385	-200.000	0.043	0.257
-133.370	-120.382	-0.174	-0.029
-132.356	174.065	-0.066	-0.094
-131.341	562.056	-0.128	-0.303
-130.326	157.788	-0.124	0.169
-129.312	623.531	0.064	-0.158
-128.297	166.276	0.108	0.151
-127.283	800.000	0.060	-0.223
-126.268	23.333	-0.197	0.159
-125.253	-200.000	0.006	0.046
-124.239	-133.410	0.201	0.025
-123.224	0.773	0.055	-0.039
-122.210	-200.000	0.042	-0.337
-121.195	-200.000	0.056	-0.348
