DTS Sentinel unit serial number:	SN413079Multiplexer serial number:	ORYXHardware model number:	OX4-SRSoftware version number:	ORYX F/W v4.00 Oryx Data Collector v3.7.2.0data status	okinstallation	princeton_trtdifferential loss correction	single-endedforward channel	channel 3reverse channel	N/Adate	2019/09/14time	00:08:34forward acquisition time	60.00reverse acquisition time	0.00gamma	496.2192k internal	0.2340k external	0.2340temperature offset calibration	1.0056default loss term (dB/km)	0.3790temperature slope calibration	1.0000multiplexer offset coefficient	1.0000multiplexer slope coefficient	1.0000fibre end	0.00T internal ref (°C)	26.50T ext. ref 1 (°C)	3.17T ext. ref 2 (°C)	21.43length (m)	temperature (°C)	Stokes	anti-Stokes-747.200	-200.000	0.004	-0.192
-746.185	800.000	-0.045	0.143
-745.171	-33.611	0.290	-0.160
-744.156	-156.184	0.199	-0.013
-743.142	800.000	0.082	-0.239
-742.127	242.824	-0.153	0.256
-741.112	26.384	-0.215	-0.180
-740.098	373.945	-0.046	0.094
-739.083	-100.740	-0.302	0.075
-738.069	-92.095	0.413	0.117
-737.054	283.517	-0.104	-0.187
-736.039	800.000	0.092	-0.331
-735.025	54.730	0.173	0.167
-734.010	150.808	0.130	-0.177
-732.996	-135.840	-0.304	0.036
-731.981	-67.342	-0.444	0.175
-730.966	-10.078	0.119	-0.079
-729.952	-94.393	-0.318	-0.087
-728.937	-58.756	-0.437	-0.190
-727.923	-200.000	0.018	0.103
-726.908	-63.756	-0.268	-0.110
-725.894	-111.292	-0.064	-0.013
-724.879	-200.000	-0.025	-0.214
-723.864	-10.769	-0.244	-0.162
-722.850	27.937	-0.292	-0.247
-721.835	113.849	-0.066	-0.080
-720.821	294.635	0.146	-0.268
-719.806	195.891	0.107	0.163
-718.791	69.684	-0.120	-0.124
-717.777	140.659	0.094	-0.124
-716.762	-88.776	-0.190	0.057
-715.748	-61.313	-0.455	-0.192
-714.733	25.875	-0.015	0.013
-713.718	-92.635	-0.248	0.070
-712.704	-121.668	0.176	0.029
-711.689	314.490	0.085	0.161
-710.675	-163.620	-0.067	-0.003
-709.660	63.726	0.191	-0.192
-708.645	-109.712	-0.197	-0.042
-707.631	-38.186	0.188	0.100
-706.616	777.835	-0.092	0.251
-705.602	749.631	-0.088	-0.238
-704.587	-59.593	-0.159	0.068
-703.572	-88.707	-0.328	-0.098
-702.558	32.801	0.176	0.153
-701.543	376.031	0.041	-0.084
-700.529	-200.000	0.019	-0.106
-699.514	-25.225	-0.059	-0.035
-698.499	270.337	-0.102	-0.180
-697.485	-179.873	-0.050	0.001
-696.470	800.000	-0.033	-0.117
-695.456	-36.188	-0.171	0.092
-694.441	35.199	-0.322	0.282
-693.426	-43.002	0.411	-0.209
-692.412	-200.000	-0.014	-0.079
-691.397	-75.851	0.278	-0.098
-690.383	118.994	-0.123	-0.152
-689.368	-151.060	0.156	0.012
-688.354	56.009	-0.071	-0.069
-687.339	35.234	0.277	0.243
-686.324	94.102	0.109	-0.124
-685.310	-54.522	-0.187	0.085
-684.295	-32.766	-0.177	0.099
-683.281	48.621	0.429	0.403
-682.266	484.329	-0.078	-0.176
-681.251	-40.538	0.215	0.111
-680.237	-200.000	-0.002	0.223
-679.222	-18.411	0.317	0.198
-678.208	-200.000	-0.008	0.205
-677.193	-18.507	-0.079	-0.049
-676.178	18.127	0.334	0.266
-675.164	-200.000	0.040	-0.226
-674.149	36.682	-0.142	-0.126
-673.135	-116.079	0.138	-0.026
-672.120	-114.717	-0.364	0.069
-671.105	27.769	0.445	0.375
-670.091	-115.566	-0.453	-0.085
-669.076	17.416	0.096	-0.076
-668.062	-100.417	-0.323	-0.080
-667.047	-15.371	-0.306	0.195
-666.032	610.164	0.068	-0.170
-665.018	-137.436	0.193	0.022
-664.003	-200.000	-0.007	-0.201
-662.989	11.882	0.012	0.009
-661.974	37.393	-0.100	0.089
-660.959	-200.000	-0.026	-0.134
-659.945	0.093	-0.309	-0.220
-658.930	54.293	0.262	0.252
-657.916	287.076	0.172	0.311
-656.901	-58.864	0.088	0.038
-655.886	-83.148	-0.281	-0.090
-654.872	-200.000	0.005	-0.053
-653.857	-118.097	0.114	0.020
-652.843	169.391	-0.112	0.160
-651.828	-34.582	-0.150	0.082
-650.814	-30.290	0.121	0.069
-649.799	-31.580	0.176	-0.099
-648.784	-200.000	0.008	0.217
-647.770	-200.000	0.021	0.209
-646.755	-97.118	0.238	-0.062
-645.741	-200.000	-0.036	0.170
-644.726	-171.490	-0.285	-0.009
-643.711	-200.000	-0.039	0.216
-642.697	7.324	0.176	-0.131
-641.682	-97.882	-0.153	0.039
-640.668	-20.978	0.311	-0.190
-639.653	152.253	-0.161	-0.219
-638.638	118.107	-0.087	-0.107
-637.624	-200.000	0.038	-0.268
-636.609	-114.375	0.117	0.022
-635.595	213.394	0.201	-0.317
-634.580	295.940	-0.137	0.251
-633.565	-64.959	-0.195	-0.079
-632.551	-21.001	0.154	-0.094
-631.536	21.930	-0.119	-0.097
-630.522	58.279	-0.201	0.197
-629.507	56.160	0.124	0.120
-628.492	22.530	-0.164	0.134
-627.478	-118.113	-0.204	-0.036
-626.463	115.502	0.143	-0.174
-625.449	98.656	-0.129	0.148
-624.434	-4.427	-0.368	0.254
-623.419	106.013	-0.146	0.173
-622.405	-73.623	0.235	-0.085
-621.390	128.490	-0.100	-0.127
-620.376	141.504	-0.171	-0.225
-619.361	304.144	0.084	-0.155
-618.346	165.247	-0.282	-0.397
-617.332	-42.870	0.141	0.071
-616.317	-114.744	0.570	0.109
-615.303	-200.000	-0.050	0.319
-614.288	-200.000	-0.041	-0.242
-613.273	-101.561	-0.433	0.105
-612.259	-82.827	-0.109	0.035
-611.244	-200.000	0.037	-0.425
-610.230	38.822	0.084	0.075
-609.215	-16.680	-0.158	-0.100
-608.201	52.246	-0.064	0.061
-607.186	-200.000	-0.058	0.292
-606.171	-7.921	0.114	-0.077
-605.157	-200.000	-0.048	-0.213
-604.142	-164.959	-0.122	-0.005
-603.128	-200.000	-0.042	-0.348
-602.113	-33.572	0.113	-0.062
-601.098	277.738	-0.126	-0.224
-600.084	181.635	0.112	0.164
-599.069	48.518	0.343	-0.320
-598.055	113.695	0.154	0.187
-597.040	-92.239	0.202	0.057
-596.025	30.160	0.155	-0.131
-595.011	453.099	-0.135	-0.297
-593.996	-13.254	-0.277	-0.179
-592.982	-113.820	-0.156	-0.030
-591.967	28.048	0.394	0.331
-590.952	-200.000	-0.006	0.068
-589.938	317.619	-0.122	0.230
-588.923	45.882	0.144	0.132
-587.909	31.585	-0.224	-0.192
-586.894	263.761	0.130	0.225
-585.879	342.332	0.077	-0.150
-584.865	-166.217	-0.055	-0.002
-583.850	-43.838	0.254	-0.127
-582.836	-87.089	-0.284	0.086
-581.821	-200.000	-0.007	-0.263
-580.806	-200.000	-0.017	-0.368
-579.792	-62.566	-0.443	-0.183
-578.777	556.934	0.094	0.227
-577.763	58.222	0.176	0.172
-576.748	240.218	0.083	-0.137
-575.733	800.000	0.040	-0.144
-574.719	42.404	-0.330	0.299
-573.704	800.000	0.034	-0.114
-572.690	80.578	-0.177	0.190
-571.675	442.293	-0.066	-0.145
-570.661	43.801	0.136	-0.124
-569.646	-115.788	-0.334	0.062
-568.631	-79.828	0.249	0.084
-567.617	800.000	-0.061	0.202
-566.602	-27.064	0.338	-0.196
-565.588	-200.000	-0.018	-0.154
-564.573	415.291	-0.129	0.273
-563.558	-200.000	0.015	0.179
-562.544	-200.000	-0.024	0.122
-561.529	-200.000	0.005	0.215
-560.515	781.912	0.040	-0.108
-559.500	800.000	0.126	-0.474
-558.485	-71.521	0.105	0.039
-557.471	-111.033	0.485	0.099
-556.456	-156.579	0.198	-0.012
-555.442	313.962	0.051	-0.095
-554.427	-200.000	0.028	-0.327
-553.412	-12.814	0.240	-0.156
-552.398	209.603	0.196	-0.306
-551.383	-189.012	-0.165	0.002
-550.369	-200.000	0.031	0.384
-549.354	11.331	0.343	0.261
-548.339	800.000	0.015	0.044
-547.325	-3.128	-0.266	-0.184
-546.310	-85.633	-0.219	-0.068
-545.296	50.343	0.174	0.163
-544.281	208.595	0.236	-0.367
-543.266	-137.743	-0.090	-0.010
-542.252	800.000	0.133	0.396
-541.237	800.000	0.014	-0.039
-540.223	-45.336	-0.349	-0.172
-539.208	-200.000	0.058	-0.281
-538.193	176.785	0.164	0.237
-537.179	23.552	-0.198	0.162
-536.164	9.363	-0.314	-0.236
-535.150	16.337	-0.148	0.116
-534.135	37.541	-0.137	-0.121
-533.121	30.231	-0.307	0.261
-532.106	800.000	-0.089	0.270
-531.091	73.809	0.227	0.237
-530.077	167.799	-0.074	-0.104
-529.062	562.564	0.126	-0.304
-528.048	800.000	0.090	0.253
-527.033	41.412	0.088	-0.079
-526.018	-167.611	-0.219	0.009
-525.004	473.513	-0.037	-0.083
-523.989	244.418	0.187	0.312
-522.975	328.065	0.114	0.217
-521.960	-200.000	0.041	-0.226
-520.945	-85.328	-0.335	-0.104
-519.931	800.000	0.047	-0.187
-518.916	-159.442	-0.469	0.026
-517.902	-108.235	-0.116	-0.025
-516.887	-143.857	0.175	-0.016
-515.872	-25.662	0.079	-0.046
-514.858	-137.827	-0.218	-0.024
-513.843	-14.750	-0.286	-0.182
-512.829	130.453	0.055	-0.070
-511.814	319.846	-0.116	0.219
-510.799	-26.058	-0.062	0.036
-509.785	-200.000	0.015	-0.104
-508.770	274.410	-0.201	0.354
-507.756	-178.170	-0.104	0.002
-506.741	26.477	0.129	0.107
-505.726	34.570	0.215	-0.186
-504.712	800.000	0.067	-0.271
-503.697	-10.588	0.135	-0.089
-502.683	800.000	-0.083	0.297
-501.668	-11.354	0.050	0.033
-500.653	12.279	0.104	0.080
-499.639	100.727	0.142	-0.164
-498.624	351.515	0.034	0.066
-497.610	4.128	-0.138	-0.100
-496.595	-200.000	0.008	0.051
-495.581	103.121	-0.173	-0.201
-494.566	-26.434	0.258	-0.150
-493.551	-127.515	0.088	0.013
-492.537	800.000	0.078	0.231
-491.522	-22.197	-0.106	-0.064
-490.508	-200.000	0.034	0.178
-489.493	4.256	0.060	0.043
-488.478	154.519	-0.171	0.233
-487.464	-117.443	-0.090	-0.016
-486.449	-47.319	-0.167	-0.081
-485.435	46.181	-0.133	0.122
-484.420	15.537	-0.040	-0.031
-483.405	-200.000	0.040	0.208
-482.391	-200.000	-0.019	-0.235
-481.376	-200.000	-0.072	0.330
-480.362	800.000	-0.109	-0.379
-479.347	800.000	0.036	-0.103
-478.332	444.048	0.049	-0.107
-477.318	-38.450	-0.121	-0.063
-476.303	-20.245	-0.111	-0.068
-475.289	306.255	-0.148	0.273
-474.274	-116.606	0.097	-0.018
-473.259	263.640	-0.163	-0.281
-472.245	57.913	0.047	0.046
-471.230	-94.553	0.197	0.053
-470.216	219.764	0.173	-0.274
-469.201	-10.993	0.103	0.068
-468.186	-200.000	0.004	0.040
-467.172	-200.000	0.006	-0.112
-466.157	-200.000	-0.031	0.218
-465.143	486.417	0.058	-0.131
-464.128	230.280	0.145	-0.235
-463.113	800.000	-0.045	0.156
-462.099	-200.000	-0.003	-0.058
-461.084	419.393	0.096	-0.203
-460.070	-32.041	-0.080	-0.044
-459.055	-93.095	-0.129	0.036
-458.040	134.119	-0.129	0.166
-457.026	406.692	0.146	-0.305
-456.011	-200.000	0.059	0.347
-454.997	318.668	0.142	0.267
-453.982	-200.000	-0.034	-0.233
-452.968	800.000	0.079	-0.274
-451.953	-25.807	0.082	0.048
-450.938	74.349	-0.441	0.460
-449.924	-113.173	0.031	0.006
-448.909	-114.526	0.241	-0.046
-447.895	-121.469	0.332	-0.055
-446.880	-200.000	-0.036	0.203
-445.865	53.982	-0.077	-0.074
-444.851	-146.265	-0.303	-0.026
-443.836	-115.810	-0.236	0.044
-442.822	-200.000	0.008	0.065
-441.807	238.387	0.237	0.390
-440.792	-158.298	0.163	-0.009
-439.778	-21.839	-0.231	-0.139
-438.763	-39.912	-0.297	0.154
-437.749	19.051	0.076	-0.061
-436.734	257.906	-0.160	-0.272
-435.719	19.664	0.218	-0.174
-434.705	130.198	0.203	0.258
-433.690	-141.308	-0.123	-0.012
-432.676	81.852	0.156	-0.167
-431.661	800.000	-0.099	-0.384
-430.646	217.844	-0.138	0.219
-429.632	-83.840	0.187	-0.059
-428.617	-200.000	-0.071	0.335
-427.603	-2.837	0.199	0.138
-426.588	496.683	-0.095	0.216
-425.573	159.701	-0.091	0.125
-424.559	132.417	-0.236	-0.301
-423.544	744.834	0.064	-0.172
-422.530	711.907	0.063	-0.166
-421.515	36.246	-0.222	-0.193
-420.500	-18.726	0.354	-0.219
-419.486	-76.469	-0.216	-0.075
-418.471	-200.000	0.073	-0.393
-417.457	9.681	-0.216	-0.162
-416.442	-200.000	0.022	-0.310
-415.428	-11.330	-0.349	-0.227
-414.413	86.884	-0.214	0.234
-413.398	75.865	0.122	-0.128
-412.384	121.592	0.100	0.124
-411.369	39.167	-0.135	-0.120
-410.355	-87.581	0.168	0.050
-409.340	-54.871	0.274	0.122
-408.325	-48.754	-0.073	-0.035
-407.311	-200.000	-0.001	-0.197
-406.296	-190.625	0.329	0.003
-405.282	-158.402	-0.063	0.004
-404.267	-25.193	0.264	-0.155
-403.252	-47.032	-0.291	-0.140
-402.238	473.830	-0.087	-0.194
-401.223	32.055	0.233	0.198
-400.209	-170.126	-0.121	0.004
-399.194	-112.371	0.100	-0.020
-398.179	-71.314	-0.113	0.042
-397.165	55.662	0.353	-0.339
-396.150	-97.645	0.509	-0.131
-395.136	-53.929	-0.276	0.124
-394.121	7.012	-0.126	0.093
-393.106	88.747	-0.219	-0.241
-392.092	-200.000	0.040	-0.219
-391.077	302.955	-0.177	0.323
-390.063	-200.000	-0.075	0.446
-389.048	334.120	0.102	-0.195
-388.033	181.626	0.115	-0.167
-387.019	30.689	0.141	0.119
-386.004	-200.000	0.025	-0.132
-384.990	-130.914	-0.041	0.005
-383.975	-154.261	0.061	-0.004
-382.960	-200.000	-0.013	0.088
-381.946	-79.677	0.265	0.088
-380.931	-200.000	-0.043	0.269
-379.917	29.074	0.040	0.034
-378.902	350.391	0.085	-0.166
-377.888	-111.269	-0.105	0.021
-376.873	-66.768	-0.174	0.068
-375.858	302.902	0.091	0.166
-374.844	648.858	0.075	0.190
-373.829	800.000	0.038	0.133
-372.815	-200.000	-0.000	-0.140
-371.800	136.157	0.150	-0.193
-370.785	-156.860	0.287	0.017
-369.771	-183.593	0.502	0.009
-368.756	-200.000	0.007	0.179
-367.742	800.000	0.056	-0.172
-366.727	-200.000	0.010	-0.285
-365.712	505.075	-0.050	-0.114
-364.698	-38.648	-0.073	0.038
-363.683	212.912	-0.035	0.055
-362.669	-155.383	0.265	0.017
-361.654	-1.073	0.082	-0.057
-360.639	-200.000	0.006	-0.176
-359.625	17.485	-0.139	0.109
-358.610	204.827	-0.121	0.185
-357.596	-198.883	0.151	0.001
-356.581	142.490	-0.262	0.344
-355.566	126.864	-0.194	0.243
-354.552	-146.158	0.311	0.027
-353.537	-200.000	-0.258	-0.001
-352.523	-18.904	-0.075	-0.046
-351.508	800.000	-0.055	-0.162
-350.493	-159.901	-0.342	-0.018
-349.479	-60.522	0.217	0.091
-348.464	-134.596	0.061	0.007
-347.450	56.756	-0.316	-0.304
-346.435	643.862	-0.112	0.283
-345.420	-200.000	-0.053	0.233
-344.406	-200.000	0.003	0.035
-343.391	-200.000	-0.024	-0.153
-342.377	24.956	-0.154	-0.126
-341.362	-200.000	0.010	0.052
-340.348	800.000	0.088	0.281
-339.333	800.000	-0.009	-0.026
-338.318	460.987	0.165	-0.363
-337.304	58.953	0.079	-0.077
-336.289	-200.000	0.029	-0.147
-335.275	88.252	-0.061	0.066
-334.260	-9.891	-0.162	-0.106
-333.245	44.223	-0.280	0.253
-332.231	800.000	0.028	0.099
-331.216	-71.764	-0.095	0.035
-330.202	264.524	0.121	0.208
-329.187	3.095	0.152	-0.109
-328.172	-200.000	0.014	-0.204
-327.158	800.000	-0.024	0.077
-326.143	800.000	-0.080	-0.294
-325.129	-69.228	0.117	0.044
-324.114	61.844	-0.052	0.051
-323.099	-200.000	0.070	0.348
-322.085	800.000	-0.105	0.393
-321.070	185.840	-0.084	0.123
-320.056	509.698	-0.053	0.122
-319.041	-7.263	-0.097	-0.065
-318.026	-111.840	0.297	-0.059
-317.012	-61.851	-0.074	0.030
-315.997	-94.665	0.074	0.020
-314.983	-5.527	-0.221	-0.149
-313.968	-105.607	0.153	-0.034
-312.953	-200.000	-0.001	0.221
-311.939	-102.676	0.134	-0.031
-310.924	-200.000	-0.025	-0.211
-309.910	-113.155	-0.139	0.027
-308.895	49.342	0.142	0.131
-307.880	-200.000	0.011	-0.317
-306.866	238.367	-0.156	0.256
-305.851	-124.951	0.125	-0.019
-304.837	118.685	0.122	0.148
-303.822	-65.337	-0.264	-0.105
-302.807	-118.667	-0.108	0.019
-301.793	87.267	0.009	-0.009
-300.778	-124.865	-0.079	0.012
-299.764	2.700	0.127	0.091
-298.749	11.292	0.052	-0.039
-297.735	800.000	0.098	-0.389
-296.720	133.191	-0.136	-0.174
-295.705	-35.867	-0.015	-0.008
-294.691	-73.385	-0.137	-0.049
-293.676	574.363	-0.076	0.183
-292.662	-112.820	-0.175	-0.034
-291.647	195.724	0.062	0.093
-290.632	-97.723	-0.232	-0.059
-289.618	800.000	0.116	0.333
-288.603	21.971	-0.224	0.180
-287.589	-200.000	0.036	0.283
-286.574	79.592	0.134	-0.141
-285.559	-177.536	-0.282	-0.007
-284.545	-134.130	-0.030	0.004
-283.530	-154.217	0.188	0.013
-282.516	-23.258	0.169	0.100
-281.501	67.560	0.242	0.243
-280.486	22.569	0.091	-0.074
-279.472	109.722	-0.044	-0.052
-278.457	166.726	0.110	0.153
-277.443	324.267	0.136	0.256
-276.428	221.230	-0.188	0.298
-275.413	800.000	-0.010	0.030
-274.399	218.482	0.035	-0.055
-273.384	-103.822	-0.134	-0.031
-272.370	-7.615	0.088	0.058
-271.355	-73.596	0.180	0.065
-270.340	150.063	0.321	0.429
-269.326	-200.000	0.001	-0.240
-268.311	-108.118	-0.135	0.029
-267.297	90.628	0.138	-0.152
-266.282	800.000	-0.060	0.206
-265.267	-200.000	-0.038	-0.335
-264.253	-200.000	0.006	-0.243
-263.238	-200.000	0.016	-0.198
-262.224	88.988	0.203	-0.222
-261.209	-152.894	0.259	0.018
-260.195	-175.170	-0.444	0.012
-259.180	-200.000	-0.007	0.095
-258.165	-200.000	-0.046	0.239
-257.151	586.544	-0.107	-0.259
-256.136	232.113	0.114	-0.184
-255.122	104.324	-0.077	-0.090
-254.107	-60.530	-0.009	-0.004
-253.092	-114.842	-0.259	-0.049
-252.078	340.665	0.130	0.249
-251.063	-108.979	0.512	-0.107
-250.049	-91.069	0.570	-0.161
-249.034	250.279	0.113	-0.188
-248.019	-117.274	0.174	-0.031
-247.005	17.451	-0.252	-0.197
-245.990	207.662	0.100	-0.154
-244.976	-200.000	0.017	0.123
-243.961	156.700	-0.173	0.235
-242.946	-200.000	0.005	0.055
-241.932	154.966	-0.035	0.048
-240.917	-24.101	-0.126	-0.074
-239.903	165.313	-0.079	0.110
-238.888	380.445	0.164	0.330
-237.873	-36.199	-0.084	-0.044
-236.859	17.055	0.173	0.134
-235.844	800.000	-0.097	0.284
-234.830	134.063	-0.232	0.295
-233.815	62.806	-0.159	-0.156
-232.800	60.643	-0.237	0.231
-231.786	-200.000	-0.028	0.291
-230.771	800.000	0.059	0.165
-229.757	-200.000	-0.003	0.062
-228.742	-66.914	0.172	-0.067
-227.727	283.202	0.071	0.126
-226.713	-145.558	-0.344	0.030
-225.698	247.269	0.121	0.201
-224.684	800.000	0.057	-0.177
-223.669	-38.555	-0.172	0.089
-222.655	-200.000	0.010	0.105
-221.640	339.480	-0.114	-0.219
-220.625	128.844	-0.142	0.177
-219.611	-150.862	0.242	0.018
-218.596	-28.116	0.091	0.052
-217.582	800.000	-0.095	0.322
-216.567	505.443	-0.151	0.343
-215.552	105.510	-0.073	-0.085
-214.538	48.795	-0.308	-0.284
-213.523	-80.705	0.382	-0.125
-212.509	328.677	0.095	0.179
-211.494	258.271	0.122	-0.205
-210.479	-133.893	-0.132	-0.016
-209.465	-24.628	-0.336	-0.196
-208.450	683.062	0.114	0.291
-207.436	-107.448	-0.297	0.064
-206.421	-200.000	0.021	0.105
-205.406	112.414	0.198	-0.235
-204.392	-119.304	0.161	-0.028
-203.377	-84.060	-0.330	-0.103
-202.363	410.361	-0.107	0.223
-201.348	-102.200	0.107	0.025
-200.333	-16.806	0.021	-0.013
-199.319	258.608	0.112	-0.190
-198.304	71.576	-0.194	-0.198
-197.290	36.990	0.276	0.240
-196.275	800.000	0.069	-0.211
-195.260	9.172	-0.138	-0.102
-194.246	634.425	0.174	-0.433
-193.231	-119.700	0.050	-0.009
-192.217	-63.810	-0.275	-0.111
-191.202	278.900	0.050	-0.087
-190.187	-137.043	-0.081	0.009
-189.173	-115.003	0.144	-0.027
-188.158	-200.000	-0.028	0.224
-187.144	-127.227	0.310	0.044
-186.129	-169.091	-0.428	0.016
-185.114	-109.240	-0.199	0.041
-184.100	-127.386	0.270	-0.039
-183.085	325.729	0.153	-0.286
-182.071	-90.391	0.396	0.113
-181.056	219.288	-0.191	-0.300
-180.042	-200.000	0.000	0.012
-179.027	75.804	-0.081	0.084
-178.012	-200.000	-0.034	0.260
-176.998	158.860	0.036	-0.049
-175.983	11.590	-0.214	-0.161
-174.969	32.859	0.237	-0.201
-173.954	-86.110	0.239	0.072
-172.939	-200.000	-0.007	-0.147
-171.925	-149.191	-0.178	0.014
-170.910	-200.000	0.088	0.435
-169.896	41.330	-0.044	-0.039
-168.881	535.918	-0.066	-0.153
-167.866	-195.645	0.139	-0.001
-166.852	214.639	0.119	0.185
-165.837	-48.978	-0.131	-0.061
-164.823	-25.315	0.416	0.241
-163.808	57.998	-0.267	-0.256
-162.793	18.443	0.148	0.116
-161.779	267.950	0.078	0.134
-160.764	206.320	-0.091	0.139
-159.750	493.463	0.175	0.392
-158.735	-127.025	-0.143	-0.021
-157.720	-200.000	-0.005	0.175
-156.706	800.000	-0.046	0.130
-155.691	-41.474	0.092	0.046
-154.677	800.000	0.084	-0.297
-153.662	-200.000	0.044	0.206
-152.647	20.864	0.152	-0.120
-151.633	117.986	-0.107	0.129
-150.618	-57.043	0.217	-0.094
-149.604	-82.303	-0.171	0.054
-148.589	-200.000	-0.082	0.476
-147.574	-124.774	0.365	-0.055
-146.560	254.608	-0.018	-0.030
-145.545	-110.179	0.320	-0.065
-144.531	72.824	0.292	0.299
-143.516	800.000	-0.127	0.386
-142.502	62.652	-0.401	-0.392
-141.487	-17.281	0.110	-0.068
-140.472	-200.000	0.053	-0.250
-139.458	-200.000	0.051	-0.369
-138.443	44.631	-0.058	-0.052
-137.429	-54.028	0.297	-0.132
-136.414	-116.536	0.101	-0.018
-135.399	-62.072	-0.057	0.023
-134.385	40.498	0.199	-0.175
-133.370	-101.187	0.134	0.032
-132.356	-200.000	0.008	-0.084
-131.341	-200.000	0.028	-0.176
-130.326	-126.422	0.281	-0.041
-129.312	2.600	0.237	0.168
-128.297	73.298	0.307	-0.314
-127.283	19.308	-0.288	0.226
-126.268	-131.063	-0.368	0.048
-125.253	-29.343	0.167	0.093
-124.239	-140.370	0.416	0.042
-123.224	688.655	0.008	-0.021
-122.210	-200.000	-0.044	-0.258
-121.195	-1.881	0.239	0.164
