DTS Sentinel unit serial number:	SN413079Multiplexer serial number:	ORYXHardware model number:	OX4-SRSoftware version number:	ORYX F/W v4.00 Oryx Data Collector v3.7.2.0data status	okinstallation	princeton_trtdifferential loss correction	single-endedforward channel	channel 3reverse channel	N/Adate	2019/09/12time	18:42:04forward acquisition time	15.00reverse acquisition time	0.00gamma	496.2192k internal	0.2318k external	0.2318temperature offset calibration	1.0090default loss term (dB/km)	0.3790temperature slope calibration	1.0000multiplexer offset coefficient	1.0000multiplexer slope coefficient	1.0000fibre end	0.00T internal ref (°C)	33.06T ext. ref 1 (°C)	2.95T ext. ref 2 (°C)	27.64length (m)	temperature (°C)	Stokes	anti-Stokes-747.200	459.517	0.195	0.440
-746.185	671.915	0.088	0.231
-745.171	-200.000	-0.063	-0.398
-744.156	77.538	0.239	0.257
-743.142	-58.384	-0.727	0.320
-742.127	-200.000	-0.012	0.442
-741.112	-170.494	-0.346	-0.012
-740.098	-200.000	0.049	-0.264
-739.083	104.170	-0.138	-0.164
-738.069	347.915	0.083	-0.165
-737.054	231.318	0.087	0.144
-736.039	-119.935	-0.749	-0.130
-735.025	797.239	0.177	-0.493
-734.010	2.308	-0.274	-0.200
-732.996	-102.688	-0.123	-0.030
-731.981	-42.566	-0.218	-0.112
-730.966	-149.114	-0.586	0.048
-729.952	-200.000	-0.255	-1.165
-728.937	282.900	0.219	-0.398
-727.923	-99.119	-0.611	-0.156
-726.908	78.457	0.528	-0.570
-725.894	-200.000	0.030	0.208
-724.879	-112.858	-0.747	-0.150
-723.864	-73.050	0.427	0.159
-722.850	-148.639	-0.180	-0.015
-721.835	-163.749	-0.166	-0.008
-720.821	550.901	-0.335	0.813
-719.806	-40.529	-0.448	0.235
-718.791	-200.000	-0.002	0.076
-717.777	-200.000	0.002	-0.418
-716.762	448.999	0.113	0.252
-715.748	800.000	-0.067	-0.224
-714.733	503.888	0.217	-0.507
-713.718	28.343	-0.406	-0.347
-712.704	89.998	0.185	0.209
-711.689	-200.000	-0.035	-1.075
-710.675	800.000	-0.088	0.372
-709.660	800.000	-0.045	-0.193
-708.645	19.078	0.475	0.385
-707.631	-146.269	-0.005	-0.000
-706.616	-115.207	-0.573	-0.110
-705.602	-131.328	0.293	0.039
-704.587	-80.790	-0.428	-0.144
-703.572	-69.557	-1.011	0.391
-702.558	-66.162	-1.229	0.495
-701.543	-77.273	-0.668	0.235
-700.529	-146.109	-1.040	-0.093
-699.514	-200.000	0.021	-0.206
-698.499	-200.000	0.010	-0.123
-697.485	680.930	0.229	-0.604
-696.470	-200.000	0.070	-0.732
-695.456	-125.695	0.486	0.074
-694.441	-28.398	-0.879	0.512
-693.426	166.005	-0.442	-0.633
-692.412	-200.000	0.021	0.443
-691.397	-127.991	0.512	0.074
-690.383	-200.000	-0.100	0.697
-689.368	172.912	-0.069	0.101
-688.354	-20.557	-0.103	0.064
-687.339	-125.309	0.482	0.074
-686.324	110.059	-0.180	-0.218
-685.310	-44.261	-0.581	0.294
-684.295	177.588	-0.375	-0.552
-683.281	-200.000	0.012	0.345
-682.266	800.000	-0.253	0.962
-681.251	-95.716	-0.572	-0.154
-680.237	116.984	0.103	0.128
-679.222	128.797	-0.224	-0.288
-678.208	-143.269	0.606	-0.059
-677.193	734.123	0.234	-0.632
-676.178	49.463	0.551	-0.524
-675.164	-200.000	0.074	-0.418
-674.149	54.055	0.392	-0.381
-673.135	327.760	0.290	-0.561
-672.120	-200.000	-0.105	-0.545
-671.105	-72.010	-1.092	0.410
-670.091	176.475	-0.535	0.784
-669.076	-67.552	0.583	-0.231
-668.062	-200.000	0.068	0.611
-667.047	-200.000	-0.005	0.417
-666.032	-32.883	-0.244	0.137
-665.018	-26.338	-0.572	-0.338
-664.003	25.201	0.579	0.485
-662.989	270.160	-0.148	-0.263
-661.974	-200.000	-0.107	-0.594
-660.959	346.122	-0.258	-0.512
-659.945	-200.000	-0.125	-0.836
-658.930	-51.268	-0.398	-0.188
-657.916	-30.891	0.465	-0.265
-656.901	-57.451	0.283	0.125
-655.886	-18.582	0.717	0.451
-654.872	-1.112	0.344	-0.245
-653.857	-108.719	1.084	0.234
-652.843	92.568	-0.567	-0.645
-651.828	-6.333	0.513	0.353
-650.814	319.021	-0.240	0.458
-649.799	-125.486	-0.252	-0.039
-648.784	-55.416	0.475	-0.215
-647.770	800.000	-0.088	-0.309
-646.755	27.083	-0.224	0.190
-645.741	-95.920	-0.288	0.077
-644.726	-200.000	0.083	-0.592
-643.711	-117.361	-1.508	-0.276
-642.697	-79.762	-0.250	0.085
-641.682	104.821	-0.284	0.338
-640.668	42.522	0.396	0.363
-639.653	-137.258	0.627	0.072
-638.638	800.000	0.124	0.376
-637.624	-45.222	0.356	0.178
-636.609	-86.472	0.505	-0.156
-635.595	274.508	-0.199	-0.356
-634.580	-200.000	0.051	0.235
-633.565	84.328	0.353	-0.389
-632.551	55.915	-0.411	-0.401
-631.536	67.965	-0.350	-0.360
-630.522	26.989	0.488	-0.412
-629.507	36.163	-0.489	0.434
-628.492	800.000	-0.336	-1.094
-627.478	181.948	-0.420	-0.623
-626.463	17.387	0.239	-0.191
-625.449	28.543	0.908	-0.774
-624.434	-200.000	0.064	0.474
-623.419	0.862	1.124	0.811
-622.405	-83.987	0.467	0.149
-621.390	-200.000	-0.019	-0.245
-620.376	-99.025	-0.388	-0.099
-619.361	-200.000	-0.135	-0.806
-618.346	-200.000	0.174	1.251
-617.332	-10.774	0.453	-0.301
-616.317	35.245	0.281	0.248
-615.303	-155.850	-0.099	-0.006
-614.288	800.000	0.140	0.463
-613.273	-56.043	-0.190	0.085
-612.259	134.941	-0.305	-0.399
-611.244	227.653	-0.189	0.309
-610.230	238.210	-0.592	0.989
-609.215	-200.000	-0.041	-0.329
-608.201	-19.003	0.693	-0.434
-607.186	-95.265	0.428	-0.116
-606.171	181.839	0.186	-0.276
-605.157	157.067	-0.220	-0.307
-604.142	214.755	0.364	0.580
-603.128	-154.698	-0.339	-0.023
-602.113	-101.556	0.487	-0.119
-601.098	-109.426	0.303	-0.065
-600.084	-63.046	-0.550	0.229
-599.069	-123.913	-0.552	-0.088
-598.055	91.199	-0.768	-0.868
-597.040	-200.000	-0.022	-0.421
-596.025	-114.479	-0.754	-0.146
-595.011	382.615	-0.030	-0.062
-593.996	-145.768	0.261	-0.023
-592.982	-81.310	0.655	0.217
-591.967	141.489	0.592	0.789
-590.952	-19.497	0.345	-0.215
-589.938	248.987	-0.526	0.897
-588.923	-200.000	-0.028	0.243
-587.909	-92.153	0.650	-0.185
-586.894	-19.944	-0.867	-0.538
-585.879	800.000	-0.250	0.858
-584.865	114.751	0.429	-0.526
-583.850	-32.161	0.377	-0.212
-582.836	-137.827	0.557	-0.063
-581.821	-200.000	-0.125	0.829
-580.806	-136.430	0.662	-0.077
-579.792	-90.425	-0.383	0.112
-578.777	-100.850	-1.012	0.250
-577.763	-200.000	0.013	0.754
-576.748	-200.000	0.070	-0.445
-575.733	16.379	0.777	-0.616
-574.719	127.755	-0.735	0.939
-573.704	-27.433	-0.861	-0.503
-572.690	13.766	-0.199	0.156
-571.675	-108.270	0.457	0.099
-570.661	-180.871	0.970	-0.020
-569.646	-49.443	-0.646	0.310
-568.631	359.577	-0.464	0.933
-567.617	-163.220	0.191	0.009
-566.602	-113.176	-0.402	-0.080
-565.588	219.424	0.398	0.641
-564.573	-200.000	-0.011	-0.442
-563.558	-200.000	0.063	-0.453
-562.544	-200.000	0.069	0.335
-561.529	-24.709	0.528	-0.315
-560.515	19.957	-0.199	0.161
-559.500	-114.062	-0.692	0.135
-558.485	148.375	-0.371	-0.504
-557.471	-33.472	-0.374	-0.208
-556.456	-24.069	0.266	0.160
-555.442	417.976	-0.285	0.612
-554.427	37.997	-0.271	-0.242
-553.412	-81.158	0.095	-0.032
-552.398	-124.884	-0.812	0.126
-551.383	320.386	-0.191	0.365
-550.369	800.000	-0.259	-0.794
-549.354	15.406	0.207	0.163
-548.339	271.259	-0.219	-0.388
-547.325	-134.894	0.433	0.053
-546.310	-174.685	-0.916	0.026
-545.296	800.000	-0.056	0.222
-544.281	90.159	0.316	0.354
-543.266	-113.644	-0.609	0.119
-542.252	-164.614	0.650	0.030
-541.237	800.000	-0.118	-0.396
-540.223	-60.434	0.790	0.337
-539.208	-69.439	0.280	-0.108
-538.193	-100.415	-0.447	-0.111
-537.179	800.000	-0.047	-0.156
-536.164	296.065	-0.368	-0.676
-535.150	-200.000	0.045	-0.418
-534.135	51.750	0.653	0.624
-533.121	7.429	-0.538	-0.404
-532.106	-135.049	-0.551	0.067
-531.091	-200.000	0.025	0.178
-530.077	75.611	0.359	0.381
-529.062	621.496	0.113	-0.285
-528.048	-200.000	-0.042	0.315
-527.033	800.000	0.137	-0.419
-526.018	800.000	-0.177	0.693
-525.004	31.321	0.312	0.269
-523.989	-200.000	0.005	0.105
-522.975	557.542	0.123	0.297
-521.960	91.211	-0.698	-0.786
-520.945	41.111	0.604	-0.547
-519.931	-94.415	0.340	-0.093
-518.916	-87.312	-0.793	0.241
-517.902	-200.000	0.033	-0.528
-516.887	-107.430	1.008	0.222
-515.872	800.000	-0.094	-0.263
-514.858	591.081	-0.259	-0.640
-513.843	70.971	0.485	0.504
-512.829	-126.768	-0.158	0.023
-511.814	-175.711	0.706	-0.019
-510.799	177.362	0.530	-0.774
-509.785	-112.005	0.608	0.123
-508.770	43.547	-0.284	0.261
-507.756	-3.291	0.362	-0.253
-506.741	-58.505	0.652	-0.284
-505.726	-145.161	0.106	-0.010
-504.712	-84.116	0.516	-0.164
-503.697	-200.000	0.002	0.457
-502.683	247.270	0.435	-0.736
-501.668	-59.257	-0.660	-0.285
-500.653	195.638	-0.374	0.570
-499.639	-15.412	0.255	0.164
-498.624	-52.022	-0.141	-0.066
-497.610	144.936	-0.335	-0.449
-496.595	169.568	0.260	-0.372
-495.581	-65.946	0.482	0.193
-494.566	27.440	0.389	0.328
-493.551	137.930	0.341	-0.448
-492.537	-46.226	-0.562	-0.277
-491.522	-176.453	-0.926	-0.024
-490.508	800.000	0.181	-0.515
-489.493	482.041	0.223	-0.507
-488.478	-200.000	0.044	0.268
-487.464	-200.000	0.037	-0.493
-486.449	-41.278	0.648	-0.334
-485.435	96.823	0.242	-0.278
-484.420	-130.464	-0.828	0.112
-483.405	800.000	0.018	0.056
-482.391	-76.554	-0.372	0.131
-481.376	-8.456	-0.191	-0.129
-480.362	-111.884	0.604	-0.122
-479.347	-90.547	0.441	0.128
-478.332	367.458	0.448	-0.906
-477.318	-119.208	-1.282	0.224
-476.303	178.595	0.220	-0.321
-475.289	-121.840	0.971	0.160
-474.274	-200.000	0.026	-0.688
-473.259	308.778	-0.320	-0.598
-472.245	86.615	-0.463	-0.512
-471.230	-49.745	0.749	-0.357
-470.216	757.663	-0.241	-0.653
-469.201	277.599	-0.532	-0.947
-468.186	686.259	-0.089	0.232
-467.172	-200.000	0.115	-0.814
-466.157	-200.000	0.049	-0.396
-465.143	396.116	-0.254	-0.530
-464.128	-92.913	-0.697	0.195
-463.113	-200.000	-0.047	-0.329
-462.099	156.891	0.650	-0.899
-461.084	3.021	0.113	0.083
-460.070	154.120	-0.532	0.730
-459.055	-50.543	0.323	-0.152
-458.040	-80.316	-0.929	0.311
-457.026	129.767	0.140	0.179
-456.011	-84.031	-0.582	-0.185
-454.997	75.585	0.488	-0.515
-453.982	-200.000	0.103	-0.636
-452.968	-40.529	-0.605	-0.314
-451.953	-117.396	-0.386	0.070
-450.938	-9.097	0.680	0.455
-449.924	63.100	-0.309	0.310
-448.909	-200.000	-0.032	-0.795
-447.895	-200.000	-0.051	0.605
-446.880	-55.194	-0.665	-0.299
-445.865	65.082	0.012	0.012
-444.851	444.996	-0.175	-0.384
-443.836	-97.283	-0.297	-0.077
-442.822	118.960	-0.252	0.311
-441.807	-60.987	0.874	0.369
-440.792	-2.784	-0.631	0.441
-439.778	-2.308	-0.348	-0.244
-438.763	-17.062	-0.499	0.315
-437.749	-200.000	0.101	0.698
-436.734	-163.476	0.683	-0.032
-435.719	61.855	0.336	0.335
-434.705	99.651	-0.434	-0.503
-433.690	145.187	-0.446	0.597
-432.676	-10.416	-0.431	0.286
-431.661	-87.706	0.498	-0.150
-430.646	800.000	0.271	0.971
-429.632	-200.000	-0.032	0.308
-428.617	-200.000	0.095	0.505
-427.603	295.583	0.506	0.926
-426.588	800.000	0.244	-0.817
-425.573	-28.694	-0.731	-0.421
-424.559	-138.816	-0.864	0.094
-423.544	111.881	0.243	0.293
-422.530	4.786	-0.045	-0.033
-421.515	510.260	0.297	-0.691
-420.500	800.000	-0.055	0.163
-419.486	46.699	0.347	-0.322
-418.471	-197.435	-0.751	-0.005
-417.457	-10.522	-0.521	0.345
-416.442	-168.386	-0.519	0.020
-415.428	-5.907	-0.668	0.456
-414.413	-200.000	-0.118	0.554
-413.398	214.013	-0.292	-0.461
-412.384	-120.867	-0.825	0.139
-411.369	467.977	-0.292	-0.655
-410.355	-116.701	0.321	-0.059
-409.340	122.996	0.367	-0.459
-408.325	77.372	-0.507	-0.538
-407.311	-76.351	-0.310	-0.109
-406.296	415.822	-0.162	0.345
-405.282	26.254	0.515	0.430
-404.267	212.222	0.216	0.341
-403.252	-89.260	-1.227	0.361
-402.238	179.504	-0.189	0.276
-401.223	89.980	0.173	0.193
-400.209	233.154	-0.432	0.710
-399.194	297.472	-0.298	-0.546
-398.179	-200.000	-0.013	0.371
-397.165	-51.881	0.361	-0.168
-396.150	296.230	-0.452	0.826
-395.136	-52.360	0.597	0.276
-394.121	-81.695	0.546	0.179
-393.106	-57.585	0.624	-0.273
-392.092	-60.350	0.426	0.181
-391.077	-60.172	-0.883	-0.376
-390.063	47.191	0.140	-0.130
-389.048	800.000	-0.179	0.514
-388.033	120.576	-0.209	0.260
-387.019	-136.645	0.319	-0.037
-386.004	-14.629	-0.463	0.297
-384.990	-90.778	-0.324	-0.093
-383.975	2.270	-1.454	-1.049
-382.960	67.276	0.218	-0.222
-381.946	-95.556	0.558	-0.149
-380.931	-132.549	0.357	0.046
-379.917	176.920	-0.394	0.572
-378.902	30.352	-0.070	-0.060
-377.888	-80.774	0.287	0.095
-376.873	-68.665	0.174	-0.067
-375.858	108.980	-0.182	0.217
-374.844	129.867	-0.403	0.514
-373.829	-3.044	0.365	-0.254
-372.815	-44.954	0.239	0.119
-371.800	800.000	0.127	-0.497
-370.785	-39.720	0.100	-0.052
-369.771	329.984	0.220	-0.422
-368.756	569.480	-0.165	-0.400
-367.742	-32.749	-0.209	0.116
-366.727	-153.149	-0.943	0.066
-365.712	-65.323	1.321	0.530
-364.698	-117.860	0.560	-0.100
-363.683	155.745	-0.350	0.481
-362.669	-200.000	-0.113	0.612
-361.654	-7.887	-0.449	0.302
-360.639	-200.000	-0.007	-0.561
-359.625	-41.761	0.663	-0.339
-358.610	-200.000	0.035	-1.044
-357.596	330.018	0.331	0.635
-356.581	-89.149	-0.175	-0.052
-355.566	-49.846	1.397	-0.661
-354.552	-30.779	0.469	0.265
-353.537	-142.256	-0.300	0.030
-352.523	-200.000	-0.141	0.736
-351.508	45.301	0.588	-0.541
-350.493	437.519	0.432	0.938
-349.479	-200.000	0.049	0.484
-348.464	-200.000	0.779	0.004
-347.450	84.606	0.629	0.686
-346.435	-30.332	0.176	0.100
-345.420	139.818	-0.395	0.518
-344.406	-20.580	0.715	-0.438
-343.391	75.981	0.127	-0.134
-342.377	19.722	-0.738	0.592
-341.362	-76.760	0.332	-0.116
-340.348	-130.227	0.233	-0.032
-339.333	800.000	0.057	-0.166
-338.318	17.890	-0.575	-0.456
-337.304	-101.478	-0.555	0.135
-336.289	-88.726	0.675	-0.200
-335.275	124.499	-0.626	0.785
-334.260	85.939	0.509	-0.557
-333.245	-67.870	0.614	-0.239
-332.231	303.444	-0.240	-0.442
-331.216	-200.000	-0.039	-0.404
-330.202	800.000	-0.046	0.162
-329.187	5.948	0.618	0.456
-328.172	495.160	-0.261	0.597
-327.158	72.501	0.235	0.243
-326.143	3.202	-0.436	0.316
-325.129	-70.077	-0.321	0.121
-324.114	-103.531	0.482	-0.113
-323.099	-200.000	-0.013	-0.309
-322.085	-93.211	-0.702	0.194
-321.070	-103.262	0.185	0.043
-320.056	-125.991	0.423	0.063
-319.041	347.203	0.192	-0.376
-318.026	-24.551	0.550	0.326
-317.012	-26.748	0.200	-0.116
-315.997	107.614	0.315	0.374
-314.983	-103.001	0.546	-0.129
-313.968	127.763	-0.562	0.711
-312.953	145.100	-0.321	-0.427
-311.939	-156.674	-0.754	0.046
-310.924	19.212	0.488	-0.390
-309.910	-124.014	-0.299	0.047
-308.895	-200.000	0.174	1.053
-307.880	-75.900	-0.545	-0.192
-306.866	-63.683	-0.672	-0.274
-305.851	17.683	-0.522	-0.413
-304.837	-44.010	0.426	0.213
-303.822	604.654	-0.257	0.637
-302.807	-200.000	-0.078	-0.385
-301.793	-154.688	0.568	0.038
-300.778	6.557	-0.755	0.558
-299.764	9.538	-0.096	0.072
-298.749	800.000	-0.087	-0.316
-297.735	40.539	-0.262	0.235
-296.720	-94.217	0.842	-0.229
-295.705	-79.824	0.645	0.216
-294.691	-40.433	-0.703	0.363
-293.676	107.841	-0.536	-0.635
-292.662	-200.000	0.000	-0.490
-291.647	158.210	0.093	0.129
-290.632	-200.000	-0.004	0.650
-289.618	-161.103	0.575	0.030
-288.603	255.193	0.329	0.561
-287.589	32.171	0.511	-0.438
-286.574	-80.913	0.299	0.099
-285.559	-200.000	-0.011	0.549
-284.545	-200.000	-0.072	0.410
-283.530	-89.835	0.666	-0.194
-282.516	-80.684	0.645	-0.213
-281.501	38.106	0.495	-0.437
-280.486	-154.996	-0.749	0.049
-279.472	-200.000	-0.064	0.594
-278.457	26.014	0.530	0.439
-277.443	208.124	0.281	-0.437
-276.428	-200.000	-0.094	0.666
-275.413	168.261	-0.056	-0.079
-274.399	1.050	0.786	-0.560
-273.384	-72.132	0.257	-0.095
-272.370	-43.792	-0.490	-0.245
-271.355	41.089	-0.516	-0.463
-270.340	180.097	0.316	-0.460
-269.326	800.000	-0.166	-0.716
-268.311	-147.857	-0.487	-0.040
-267.297	-77.745	0.397	0.136
-266.282	704.223	-0.073	0.190
-265.267	-31.210	0.420	0.235
-264.253	78.090	0.312	-0.330
-263.238	124.613	-0.333	0.416
-262.224	91.398	0.148	-0.165
-261.209	-34.737	-0.652	0.354
-260.195	-30.899	0.429	0.241
-259.180	52.360	0.211	0.200
-258.165	-151.655	-1.059	-0.078
-257.151	92.670	0.342	0.383
-256.136	-119.395	0.855	0.147
-255.122	-13.529	1.063	-0.684
-254.107	291.677	-0.119	0.215
-253.092	-122.092	-1.209	0.197
-252.078	-48.417	0.277	0.132
-251.063	-178.899	-1.270	-0.029
-250.049	61.111	-0.627	-0.618
-249.034	-125.774	0.498	-0.075
-248.019	800.000	0.042	-0.142
-247.005	800.000	-0.175	-0.534
-245.990	21.176	0.401	0.323
-244.976	-200.000	0.036	-0.243
-243.961	648.025	0.305	0.773
-242.946	-50.051	-0.469	0.221
-241.932	-7.122	0.429	-0.289
-240.917	-40.215	-0.349	0.180
-239.903	-200.000	0.949	-0.003
-238.888	-190.650	-0.539	0.006
-237.873	-90.555	0.476	0.137
-236.859	307.910	-0.291	0.538
-235.844	389.717	0.170	-0.350
-234.830	-127.466	-0.860	-0.124
-233.815	-200.000	-0.100	0.548
-232.800	-96.977	-0.063	-0.016
-231.786	-152.121	0.146	-0.011
-230.771	12.670	0.401	-0.307
-229.757	-176.708	-0.220	-0.006
-228.742	800.000	0.036	0.122
-227.727	64.092	-1.026	1.024
-226.713	-200.000	-0.040	0.424
-225.698	-1.739	0.119	0.083
-224.684	-124.511	-0.787	0.121
-223.669	285.668	-0.567	-1.014
-222.655	281.097	0.399	-0.707
-221.640	-13.060	-0.967	0.623
-220.625	-76.664	-0.072	0.025
-219.611	-34.253	-0.357	-0.194
-218.596	-44.457	0.665	-0.330
-217.582	-87.196	-0.834	-0.251
-216.567	-200.000	-0.088	-0.527
-215.552	-175.338	-0.712	0.019
-214.538	16.304	0.345	-0.270
-213.523	-66.371	-0.618	0.244
-212.509	15.765	0.290	0.226
-211.494	-115.063	1.081	-0.203
-210.479	800.000	0.106	0.400
-209.465	-200.000	-0.029	0.486
-208.450	303.497	-0.114	0.210
-207.436	169.615	0.250	0.354
-206.421	800.000	-0.178	-0.686
-205.406	323.207	0.235	0.445
-204.392	-177.000	-0.952	-0.024
-203.377	8.318	0.414	-0.308
-202.363	6.649	0.721	0.532
-201.348	-154.580	0.876	0.058
-200.333	125.975	0.766	-0.958
-199.319	-200.000	0.105	-0.618
-198.304	141.218	0.639	0.838
-197.290	-77.043	0.793	0.274
-196.275	800.000	-0.206	-0.813
-195.260	-200.000	0.060	-0.446
-194.246	-200.000	0.070	-0.803
-193.231	-100.281	0.534	0.131
-192.217	215.084	-0.095	-0.148
-191.202	-36.003	0.700	0.375
-190.187	-101.138	-0.443	-0.107
-189.173	-111.031	-1.190	-0.242
-188.158	680.193	0.201	-0.518
-187.144	291.065	0.537	0.967
-186.129	-12.188	0.517	0.335
-185.114	-152.641	-0.382	0.027
-184.100	626.953	-0.287	0.717
-183.085	243.141	0.289	-0.479
-182.071	54.692	0.459	0.439
-181.056	-34.931	-0.100	0.054
-180.042	800.000	-0.117	0.402
-179.027	405.625	-0.068	0.141
-178.012	-50.964	0.207	-0.096
-176.998	151.207	0.554	-0.746
-175.983	-120.694	0.438	0.073
-174.969	-26.883	-0.532	-0.308
-173.954	-133.295	-0.473	0.059
-172.939	-117.050	-0.749	-0.135
-171.925	-124.793	-0.375	-0.057
-170.910	294.589	0.181	0.327
-169.896	138.061	-0.277	0.359
-168.881	-127.730	0.692	0.099
-167.866	-200.000	-0.045	0.440
-166.852	-107.683	-0.774	0.167
-165.837	-129.840	0.710	-0.097
-164.823	450.355	0.163	0.356
-163.808	58.152	-0.634	-0.614
-162.793	32.563	-0.356	0.304
-161.779	800.000	0.158	0.665
-160.764	-200.000	-0.002	0.394
-159.750	137.651	0.439	0.569
-158.735	-122.795	0.945	0.151
-157.720	800.000	-0.117	-0.430
-156.706	800.000	-0.160	0.580
-155.691	-43.360	-0.382	-0.191
-154.677	21.095	-0.344	-0.276
-153.662	566.301	0.022	-0.052
-152.647	-200.000	0.006	-0.089
-151.633	345.556	-0.189	0.368
-150.618	10.886	0.373	-0.282
-149.604	-75.483	0.092	-0.032
-148.589	453.431	0.205	0.448
-147.574	-11.485	-0.193	0.126
-146.560	800.000	0.112	-0.397
-145.545	-59.481	0.672	0.285
-144.531	46.108	-0.383	-0.351
-143.516	188.345	0.160	-0.236
-142.502	800.000	-0.163	-0.494
-141.487	-77.854	-0.612	0.209
-140.472	119.235	0.113	0.138
-139.458	-200.000	0.165	0.860
-138.443	-200.000	0.126	-0.755
-137.429	-200.000	0.069	-1.118
-136.414	-86.578	0.600	-0.182
-135.399	-200.000	-0.049	-0.644
-134.385	-92.162	-0.601	-0.168
-133.370	-95.616	-0.212	-0.056
-132.356	-168.202	0.398	-0.015
-131.341	-136.923	-0.644	-0.073
-130.326	245.632	-0.025	0.041
-129.312	800.000	0.096	-0.321
-128.297	-200.000	-0.027	0.318
-127.283	-125.191	-0.242	0.037
-126.268	732.040	-0.241	-0.637
-125.253	-105.831	-0.411	-0.092
-124.239	92.030	0.236	0.263
-123.224	-32.994	-0.515	0.282
-122.210	800.000	0.213	0.832
