DTS Sentinel unit serial number:	SN413079Multiplexer serial number:	ORYXHardware model number:	OX4-SRSoftware version number:	ORYX F/W v4.00 Oryx Data Collector v3.7.2.0data status	okinstallation	princeton_trtdifferential loss correction	single-endedforward channel	channel 3reverse channel	N/Adate	2019/09/15time	01:12:35forward acquisition time	60.00reverse acquisition time	0.00gamma	496.2192k internal	0.2320k external	0.2320temperature offset calibration	0.9965default loss term (dB/km)	0.3790temperature slope calibration	1.0000multiplexer offset coefficient	1.0000multiplexer slope coefficient	1.0000fibre end	0.00T internal ref (°C)	31.94T ext. ref 1 (°C)	4.53T ext. ref 2 (°C)	26.86length (m)	temperature (°C)	Stokes	anti-Stokes-747.200	38.524	-0.261	0.235
-746.185	-157.018	0.206	-0.013
-745.171	-200.000	-0.010	0.145
-744.156	267.686	-0.140	0.248
-743.142	174.309	-0.045	0.066
-742.127	-145.892	0.181	-0.016
-741.112	-108.166	0.321	-0.070
-740.098	-64.379	-0.249	0.102
-739.083	-53.749	-0.280	0.129
-738.069	244.865	-0.099	-0.167
-737.054	-34.384	-0.112	-0.062
-736.039	-33.255	-0.334	-0.187
-735.025	415.356	0.095	-0.204
-734.010	61.110	-0.043	0.043
-732.996	-1.769	-0.286	0.204
-731.981	86.767	-0.121	-0.135
-730.966	-99.345	0.143	-0.036
-729.952	-157.586	-0.357	0.022
-728.937	28.547	-0.254	-0.217
-727.923	-92.998	-0.425	0.120
-726.908	-32.532	0.368	-0.207
-725.894	1.149	0.178	-0.129
-724.879	-91.456	0.056	0.016
-723.864	-54.118	-0.191	0.088
-722.850	188.962	-0.221	-0.335
-721.835	-145.169	-0.132	-0.012
-720.821	-102.860	-0.180	0.043
-719.806	-11.059	-0.380	0.253
-718.791	-42.396	-0.396	0.204
-717.777	-200.000	0.057	-0.329
-716.762	-200.000	0.045	-0.277
-715.748	-156.164	-0.169	-0.011
-714.733	-145.542	-0.206	0.019
-713.718	-48.958	0.081	0.039
-712.704	-0.910	-0.175	0.125
-711.689	-62.960	0.273	-0.114
-710.675	108.369	-0.255	-0.308
-709.660	137.134	-0.192	0.254
-708.645	-41.414	-0.075	-0.039
-707.631	162.388	-0.145	-0.205
-706.616	-116.090	-0.268	-0.050
-705.602	16.189	0.152	0.121
-704.587	-109.990	-0.068	-0.014
-703.572	800.000	0.046	-0.137
-702.558	17.089	0.107	0.085
-701.543	188.510	0.101	-0.153
-700.529	-58.381	-0.178	-0.078
-699.514	7.502	0.283	-0.213
-698.499	-102.839	-0.245	0.059
-697.485	-200.000	-0.040	0.271
-696.470	-200.000	-0.025	-0.125
-695.456	32.032	-0.047	-0.041
-694.441	800.000	0.058	-0.247
-693.426	-196.341	-0.203	0.001
-692.412	151.947	0.191	0.263
-691.397	800.000	0.029	0.084
-690.383	-200.000	-0.004	-0.185
-689.368	123.301	0.065	-0.082
-688.354	-83.421	-0.221	-0.072
-687.339	116.466	-0.097	-0.120
-686.324	-96.761	-0.061	0.016
-685.310	-151.411	0.153	0.012
-684.295	800.000	-0.127	-0.500
-683.281	-1.773	-0.256	0.182
-682.266	80.317	0.241	-0.261
-681.251	-171.830	-0.182	-0.006
-680.237	92.380	-0.242	-0.275
-679.222	800.000	-0.052	-0.212
-678.208	-89.319	0.069	0.020
-677.193	-6.697	0.091	0.063
-676.178	-105.308	-0.420	-0.096
-675.164	-54.712	0.445	-0.203
-674.149	331.260	-0.123	0.240
-673.135	-103.280	0.227	-0.054
-672.120	206.350	-0.216	-0.339
-671.105	135.897	0.192	-0.252
-670.091	298.755	-0.124	-0.230
-669.076	-90.348	-0.358	0.105
-668.062	-15.024	-0.055	0.036
-667.047	-44.783	0.242	0.122
-666.032	-200.000	0.030	-0.301
-665.018	-200.000	0.061	0.343
-664.003	102.249	-0.178	0.210
-662.989	-200.000	0.009	0.074
-661.974	62.683	0.102	0.103
-660.959	-100.994	-0.063	0.016
-659.945	330.034	0.207	0.402
-658.930	48.948	-0.394	-0.372
-657.916	-200.000	-0.036	-0.196
-656.901	-25.983	-0.224	-0.133
-655.886	800.000	-0.104	0.358
-654.872	49.246	0.127	-0.120
-653.857	-57.639	0.277	0.122
-652.843	170.535	-0.114	-0.165
-651.828	-200.000	0.031	-0.214
-650.814	16.120	0.048	-0.038
-649.799	99.281	0.077	-0.089
-648.784	-200.000	-0.037	-0.417
-647.770	-107.651	-0.209	-0.046
-646.755	-147.152	-0.239	0.021
-645.741	310.665	-0.072	-0.135
-644.726	-24.739	0.194	0.116
-643.711	-80.982	-0.493	-0.165
-642.697	112.966	0.073	0.089
-641.682	-199.082	-0.293	0.002
-640.668	-114.013	0.142	-0.028
-639.653	232.946	0.125	0.207
-638.638	-0.162	-0.191	0.137
-637.624	-88.405	0.096	-0.029
-636.609	800.000	0.099	0.316
-635.595	55.168	0.170	0.166
-634.580	544.835	-0.067	-0.160
-633.565	-86.472	0.156	0.048
-632.551	-200.000	-0.048	0.271
-631.536	116.013	-0.122	-0.151
-630.522	109.683	-0.092	0.111
-629.507	8.301	0.232	0.176
-628.492	-105.564	0.068	0.016
-627.478	-200.000	0.020	0.240
-626.463	-29.815	0.393	-0.226
-625.449	-22.702	0.273	-0.166
-624.434	-76.953	-0.207	-0.073
-623.419	-200.000	-0.038	0.316
-622.405	-200.000	-0.031	-0.150
-621.390	-200.000	0.000	-0.190
-620.376	469.091	-0.114	0.257
-619.361	17.990	-0.269	0.216
-618.346	-169.549	-0.075	-0.003
-617.332	202.747	0.066	-0.103
-616.317	-200.000	-0.023	-0.172
-615.303	-140.811	-0.433	-0.045
-614.288	-128.811	0.285	0.040
-613.273	-200.000	0.038	0.467
-612.259	-200.000	-0.049	0.223
-611.244	-200.000	-0.014	0.151
-610.230	21.547	-0.185	0.151
-609.215	446.200	-0.103	-0.227
-608.201	303.090	-0.110	-0.204
-607.186	29.889	-0.375	-0.321
-606.171	-119.159	0.166	0.029
-605.157	-200.000	-0.029	0.224
-604.142	800.000	0.047	0.202
-603.128	14.766	-0.252	0.198
-602.113	-106.467	0.130	-0.029
-601.098	252.423	0.099	0.169
-600.084	800.000	0.075	0.219
-599.069	-60.265	0.267	-0.114
-598.055	-89.464	0.232	-0.069
-597.040	800.000	0.095	-0.274
-596.025	-200.000	-0.009	-0.194
-595.011	446.991	-0.086	-0.190
-593.996	-2.779	0.384	-0.270
-592.982	205.050	-0.097	0.151
-591.967	-133.770	-0.272	0.034
-590.952	170.542	-0.099	-0.143
-589.938	54.105	0.054	0.052
-588.923	-28.260	-0.034	-0.020
-587.909	800.000	-0.043	0.132
-586.894	-28.221	-0.183	-0.106
-585.879	-26.471	0.125	-0.073
-584.865	-134.374	0.318	0.039
-583.850	-115.659	-0.238	0.045
-582.836	402.279	0.095	-0.200
-581.821	9.434	-0.252	-0.191
-580.806	44.856	0.231	-0.214
-579.792	-111.876	0.109	0.022
-578.777	-73.143	-0.186	-0.068
-577.763	-5.883	-0.184	-0.127
-576.748	-104.326	0.057	-0.013
-575.733	-194.781	-0.086	-0.001
-574.719	-71.644	-0.315	0.118
-573.704	85.740	-0.009	-0.010
-572.690	-200.000	0.011	0.091
-571.675	800.000	-0.066	0.273
-570.661	-200.000	-0.004	-0.098
-569.646	-22.227	-0.132	0.080
-568.631	153.468	0.237	-0.327
-567.617	-115.207	-0.093	0.018
-566.602	623.528	0.110	0.279
-565.588	-96.722	0.069	-0.018
-564.573	213.253	0.066	0.104
-563.558	-10.908	-0.298	-0.198
-562.544	247.495	0.220	-0.373
-561.529	-112.216	0.095	0.019
-560.515	180.647	-0.072	0.106
-559.500	800.000	0.013	0.041
-558.485	-80.734	0.267	0.089
-557.471	38.094	-0.076	-0.068
-556.456	37.606	-0.172	-0.153
-555.442	110.846	0.080	-0.097
-554.427	152.872	0.210	-0.288
-553.412	-200.000	-0.008	-0.100
-552.398	-65.603	0.021	0.008
-551.383	-200.000	-0.018	0.120
-550.369	41.532	0.182	-0.165
-549.354	243.528	0.029	0.049
-548.339	365.437	0.114	-0.231
-547.325	95.461	0.081	0.093
-546.310	-3.021	0.150	0.105
-545.296	-15.389	0.244	-0.157
-544.281	720.571	0.095	-0.253
-543.266	66.472	-0.189	-0.192
-542.252	296.853	0.092	0.170
-541.237	134.924	0.188	0.245
-540.223	119.869	0.211	-0.263
-539.208	65.576	-0.039	-0.039
-538.193	-95.948	0.062	0.016
-537.179	32.854	-0.122	-0.106
-536.164	-23.658	-0.338	-0.203
-535.150	800.000	0.057	-0.164
-534.135	800.000	0.050	-0.154
-533.121	-134.479	0.303	0.037
-532.106	-88.574	0.157	-0.047
-531.091	195.827	-0.097	-0.148
-530.077	-48.186	-0.325	-0.157
-529.062	-18.708	0.139	-0.087
-528.048	-37.131	-0.227	0.122
-527.033	-162.417	-0.327	0.016
-526.018	102.259	0.115	-0.135
-525.004	-16.001	0.350	-0.224
-523.989	249.366	-0.092	-0.157
-522.975	148.080	-0.129	0.175
-521.960	-124.587	0.037	-0.006
-520.945	87.880	-0.043	0.048
-519.931	66.095	-0.395	-0.402
-518.916	152.507	-0.057	0.078
-517.902	-34.045	-0.142	0.078
-516.887	-200.000	0.026	0.282
-515.872	-34.481	-0.296	0.163
-514.858	800.000	0.067	-0.236
-513.843	148.612	-0.091	0.123
-512.829	-157.257	0.290	0.018
-511.814	-200.000	-0.014	0.196
-510.799	-33.486	0.126	-0.070
-509.785	-200.000	-0.023	-0.342
-508.770	-200.000	0.030	0.194
-507.756	6.336	-0.068	-0.051
-506.741	43.330	0.275	0.251
-505.726	-7.242	-0.312	-0.212
-504.712	-14.914	0.294	-0.189
-503.697	-152.436	-0.109	0.008
-502.683	-126.123	-0.385	0.058
-501.668	-200.000	0.004	-0.033
-500.653	800.000	0.050	-0.149
-499.639	800.000	0.036	-0.126
-498.624	65.193	-0.157	0.158
-497.610	18.451	-0.251	-0.201
-496.595	6.095	0.192	-0.143
-495.581	220.178	0.128	-0.205
-494.566	-200.000	-0.002	0.191
-493.551	800.000	-0.075	0.316
-492.537	310.760	-0.072	-0.135
-491.522	386.205	-0.082	-0.170
-490.508	-191.938	0.236	0.002
-489.493	52.051	-0.072	-0.068
-488.478	-200.000	-0.013	0.133
-487.464	800.000	-0.069	-0.208
-486.449	140.340	0.063	0.084
-485.435	-200.000	0.024	-0.204
-484.420	-200.000	0.009	-0.149
-483.405	-200.000	0.036	0.611
-482.391	800.000	-0.133	0.412
-481.376	800.000	0.050	0.206
-480.362	800.000	-0.058	0.211
-479.347	311.358	-0.199	0.374
-478.332	617.877	-0.113	0.284
-477.318	160.481	0.048	0.068
-476.303	-165.330	0.201	0.009
-475.289	-128.316	-0.243	-0.035
-474.274	-112.379	-0.153	0.031
-473.259	-200.000	-0.031	-0.149
-472.245	-95.029	-0.178	0.048
-471.230	474.513	0.085	-0.191
-470.216	800.000	0.030	-0.128
-469.201	800.000	0.061	0.201
-468.186	800.000	-0.017	-0.048
-467.172	-115.657	0.125	0.023
-466.157	-72.785	0.102	0.037
-465.143	-19.866	0.047	0.029
-464.128	12.473	0.249	0.192
-463.113	-55.918	0.221	0.099
-462.099	198.287	0.084	0.128
-461.084	-200.000	0.027	0.194
-460.070	-200.000	-0.006	-0.079
-459.055	-93.227	-0.098	-0.027
-458.040	-200.000	0.004	-0.356
-457.026	-98.621	0.142	-0.036
-456.011	-10.739	0.231	0.153
-454.997	435.969	0.076	-0.166
-453.982	-200.000	0.004	-0.024
-452.968	234.328	-0.122	-0.201
-451.953	-43.176	-0.078	-0.040
-450.938	-200.000	0.036	0.307
-449.924	-87.240	0.015	-0.005
-448.909	35.747	0.161	0.141
-447.895	-141.366	0.352	-0.036
-446.880	58.861	-0.087	-0.086
-445.865	-200.000	0.004	0.103
-444.851	2.239	0.298	-0.215
-443.836	-50.241	-0.379	0.179
-442.822	50.049	-0.204	-0.193
-441.807	-63.178	-0.117	0.048
-440.792	203.481	0.124	-0.191
-439.778	-55.271	0.245	-0.110
-438.763	800.000	0.101	0.378
-437.749	-107.762	0.123	-0.027
-436.734	5.608	-0.431	0.318
-435.719	-171.479	-0.212	0.007
-434.705	90.299	0.058	-0.065
-433.690	-94.475	0.079	0.021
-432.676	716.822	0.010	0.027
-431.661	-107.274	0.156	-0.034
-430.646	247.483	-0.026	-0.044
-429.632	-129.094	0.095	0.013
-428.617	59.996	-0.301	0.297
-427.603	12.180	0.133	0.102
-426.588	-1.361	0.170	0.120
-425.573	800.000	0.042	0.152
-424.559	-62.720	-0.347	0.144
-423.544	66.656	0.093	0.095
-422.530	277.292	-0.099	-0.177
-421.515	-164.370	0.002	0.000
-420.500	263.487	0.075	-0.130
-419.486	-93.201	-0.246	0.068
-418.471	-10.069	-0.095	-0.063
-417.457	-79.371	0.217	-0.073
-416.442	-172.573	-0.180	-0.006
-415.428	800.000	-0.118	-0.487
-414.413	647.154	-0.091	0.233
-413.398	201.243	-0.046	0.071
-412.384	-160.405	-0.221	0.012
-411.369	0.463	0.112	-0.080
-410.355	507.199	-0.093	0.216
-409.340	264.044	-0.051	0.089
-408.325	-168.467	-0.184	-0.007
-407.311	95.916	0.110	0.126
-406.296	-61.867	-0.133	0.055
-405.282	-200.000	0.039	0.357
-404.267	-185.239	0.406	-0.006
-403.252	-200.000	0.107	0.476
-402.238	153.447	0.067	-0.091
-401.223	-38.147	0.251	-0.133
-400.209	-24.558	-0.229	0.136
-399.194	68.357	-0.154	0.157
-398.179	-32.427	0.032	-0.018
-397.165	800.000	0.037	-0.144
-396.150	148.914	0.143	0.193
-395.136	239.598	-0.148	-0.246
-394.121	-77.196	0.187	0.065
-393.106	-200.000	0.051	-0.420
-392.092	800.000	-0.014	-0.044
-391.077	-76.239	-0.388	-0.137
-390.063	-34.276	0.196	0.107
-389.048	-200.000	-0.015	0.160
-388.033	304.730	0.088	0.163
-387.019	-35.909	-0.251	0.135
-386.004	800.000	0.071	-0.295
-384.990	97.514	-0.010	-0.012
-383.975	594.903	-0.048	0.117
-382.960	-109.644	0.322	0.068
-381.946	800.000	-0.059	-0.163
-380.931	800.000	-0.027	0.093
-379.917	187.794	0.198	0.294
-378.902	-28.635	-0.200	-0.115
-377.888	-58.710	-0.286	0.124
-376.873	-88.794	0.223	-0.066
-375.858	-200.000	-0.008	-0.164
-374.844	601.944	0.105	-0.261
-373.829	-61.931	0.056	-0.023
-372.815	-9.666	0.130	0.086
-371.800	-90.677	-0.242	0.070
-370.785	346.791	-0.078	0.152
-369.771	-18.420	-0.249	-0.155
-368.756	-118.258	0.303	0.054
-367.742	-53.455	0.125	-0.057
-366.727	800.000	-0.052	-0.168
-365.712	-57.231	-0.378	0.166
-364.698	-200.000	-0.021	0.121
-363.683	169.154	0.180	0.257
-362.669	135.213	0.261	0.338
-361.654	-145.162	0.114	-0.010
-360.639	-200.000	0.030	-0.156
-359.625	800.000	-0.077	0.279
-358.610	722.195	0.013	0.034
-357.596	-41.032	-0.249	-0.128
-356.581	126.523	0.056	-0.070
-355.566	-82.064	-0.202	0.066
-354.552	46.257	0.092	-0.085
-353.537	-200.000	-0.062	0.365
-352.523	800.000	0.124	0.473
-351.508	-200.000	0.032	-0.557
-350.493	208.489	-0.097	0.151
-349.479	-74.361	0.261	0.094
-348.464	104.095	-0.223	0.261
-347.450	-54.668	-0.061	0.028
-346.435	-102.725	0.287	0.068
-345.420	-146.731	0.122	0.011
-344.406	800.000	-0.044	-0.163
-343.391	234.565	0.203	-0.333
-342.377	800.000	0.081	0.316
-341.362	-200.000	0.119	-0.549
-340.348	407.326	-0.048	0.102
-339.333	800.000	0.050	-0.169
-338.318	-200.000	-0.021	-0.453
-337.304	-21.403	0.133	0.081
-336.289	25.385	-0.234	0.193
-335.275	9.624	0.144	0.109
-334.260	800.000	0.081	-0.282
-333.245	-137.178	0.233	-0.026
-332.231	193.896	0.025	0.037
-331.216	-14.301	0.342	-0.219
-330.202	245.603	0.059	-0.098
-329.187	14.346	0.302	0.234
-328.172	40.503	-0.285	0.256
-327.158	-36.487	-0.173	0.093
-326.143	74.482	0.133	-0.139
-325.129	361.861	0.076	-0.152
-324.114	138.926	-0.125	-0.164
-323.099	800.000	0.118	-0.400
-322.085	26.607	-0.119	0.099
-321.070	130.263	0.161	0.205
-320.056	234.243	-0.143	0.235
-319.041	-57.483	-0.172	0.075
-318.026	127.810	0.120	-0.152
-317.012	-49.941	0.231	-0.109
-315.997	-118.346	-0.151	-0.027
-314.983	49.455	0.159	0.148
-313.968	-10.006	0.058	0.039
-312.953	759.735	0.032	0.086
-311.939	53.408	0.270	0.257
-310.924	388.882	0.196	-0.404
-309.910	103.576	0.026	-0.030
-308.895	-28.258	-0.059	0.034
-307.880	42.371	0.077	-0.070
-306.866	-44.996	0.199	-0.098
-305.851	98.450	-0.174	-0.200
-304.837	-124.317	0.129	-0.020
-303.822	800.000	0.065	0.181
-302.807	-200.000	0.001	0.306
-301.793	-43.272	-0.275	-0.138
-300.778	102.746	-0.178	0.207
-299.764	-200.000	-0.048	-0.221
-298.749	356.950	0.097	-0.193
-297.735	-65.488	-0.409	-0.163
-296.720	189.860	0.111	0.165
-295.705	130.283	0.040	0.051
-294.691	-171.275	-0.239	0.008
-293.676	800.000	-0.020	0.067
-292.662	-148.439	-0.338	-0.028
-291.647	-61.822	0.068	0.028
-290.632	42.372	0.075	0.067
-289.618	165.172	0.024	0.033
-288.603	-200.000	0.010	0.102
-287.589	25.209	-0.193	-0.159
-286.574	742.231	-0.111	0.296
-285.559	800.000	-0.035	-0.148
-284.545	-128.377	-0.263	-0.037
-283.530	800.000	-0.046	0.154
-282.516	-34.237	-0.151	-0.082
-281.501	-7.507	-0.127	0.085
-280.486	36.974	-0.119	0.105
-279.472	314.395	0.116	-0.216
-278.457	-60.690	-0.066	0.028
-277.443	2.869	-0.126	0.091
-276.428	-200.000	0.067	-0.322
-275.413	5.027	-0.095	0.070
-274.399	202.182	0.126	0.193
-273.384	-171.174	0.206	-0.007
-272.370	172.542	-0.096	-0.137
-271.355	-200.000	-0.044	-0.237
-270.340	800.000	0.067	0.287
-269.326	-200.000	-0.032	-0.370
-268.311	456.482	0.030	-0.065
-267.297	-200.000	0.067	-0.450
-266.282	-94.287	0.506	-0.137
-265.267	30.282	-0.123	0.104
-264.253	-200.000	-0.052	-0.241
-263.238	-102.420	-0.143	-0.034
-262.224	800.000	-0.070	0.224
-261.209	145.723	-0.166	-0.220
-260.195	-200.000	-0.024	-0.129
-259.180	427.477	-0.090	-0.193
-258.165	800.000	-0.053	0.186
-257.151	-132.425	-0.170	0.022
-256.136	15.403	0.175	0.136
-255.122	-117.283	-0.225	0.041
-254.107	87.625	0.118	0.130
-253.092	-200.000	0.040	0.290
-252.078	800.000	-0.061	-0.194
-251.063	14.155	-0.240	0.186
-250.049	-63.595	0.395	0.161
-249.034	-41.900	-0.282	0.143
-248.019	-200.000	0.032	0.217
-247.005	-25.977	-0.193	-0.113
-245.990	349.401	0.121	0.236
-244.976	800.000	-0.078	0.237
-243.961	-66.489	0.227	0.089
-242.946	-121.307	0.110	-0.018
-241.932	239.367	-0.112	-0.185
-240.917	-25.645	-0.192	0.113
-239.903	800.000	0.021	-0.077
-238.888	280.514	-0.179	-0.316
-237.873	309.931	0.161	-0.298
-236.859	-104.402	0.229	-0.052
-235.844	237.389	-0.121	-0.198
-234.830	-38.709	-0.134	0.070
-233.815	-139.411	0.248	0.026
-232.800	276.932	-0.202	-0.356
-231.786	800.000	-0.031	0.120
-230.771	-200.000	0.013	-0.286
-229.757	-101.673	0.241	-0.058
-228.742	111.079	0.228	0.272
-227.727	84.490	-0.205	0.222
-226.713	17.941	-0.153	0.121
-225.698	-200.000	0.028	0.182
-224.684	-134.759	0.184	-0.022
-223.669	-51.453	-0.193	0.089
-222.655	49.392	0.116	-0.108
-221.640	184.118	0.068	0.100
-220.625	115.624	0.119	0.144
-219.611	78.215	-0.060	0.063
-218.596	-57.242	0.206	-0.090
-217.582	-67.032	0.181	0.071
-216.567	366.141	-0.067	-0.134
-215.552	800.000	-0.086	0.274
-214.538	-200.000	-0.010	0.110
-213.523	0.756	-0.140	0.099
-212.509	-132.224	-0.267	0.034
-211.494	800.000	-0.091	0.321
-210.479	-125.312	-0.193	-0.029
-209.465	174.502	-0.080	-0.115
-208.450	204.101	-0.128	0.197
-207.436	-39.466	-0.156	0.081
-206.421	-100.002	0.021	0.005
-205.406	640.251	0.134	-0.336
-204.392	-15.123	0.232	-0.147
-203.377	215.142	0.271	-0.425
-202.363	-59.947	0.132	-0.056
-201.348	-126.239	0.212	-0.031
-200.333	-7.662	-0.097	-0.065
-199.319	258.085	-0.089	0.151
-198.304	313.508	0.102	-0.191
-197.290	38.620	0.162	-0.143
-196.275	53.875	0.212	-0.202
-195.260	118.872	0.096	0.118
-194.246	-47.786	-0.110	-0.053
-193.231	-200.000	0.016	0.081
-192.217	-200.000	0.015	-0.085
-191.202	734.203	-0.008	-0.022
-190.187	-27.474	0.259	-0.149
-189.173	-92.397	0.218	0.061
-188.158	-200.000	-0.031	0.135
-187.144	-48.580	0.168	-0.080
-186.129	-200.000	0.013	0.184
-185.114	-27.663	0.139	-0.080
-184.100	-200.000	0.103	-0.537
-183.085	455.953	-0.066	-0.144
-182.071	25.244	-0.056	0.046
-181.056	126.886	-0.132	0.166
-180.042	-82.213	-0.245	-0.079
-179.027	-58.575	0.124	0.053
-178.012	800.000	0.073	0.207
-176.998	349.582	-0.228	-0.446
-175.983	145.781	-0.059	0.078
-174.969	-62.861	-0.165	0.068
-173.954	-94.184	0.137	-0.037
-172.939	692.497	-0.057	0.148
-171.925	32.866	-0.141	0.121
-170.910	800.000	-0.060	0.201
-169.896	-200.000	-0.014	-0.179
-168.881	314.288	0.167	-0.310
-167.866	20.832	0.255	0.204
-166.852	-120.711	-0.283	0.047
-165.837	144.872	0.036	-0.048
-164.823	663.505	-0.056	-0.143
-163.808	-67.641	0.238	-0.092
-162.793	101.568	-0.209	0.241
-161.779	7.945	-0.144	0.107
-160.764	-83.442	0.235	0.074
-159.750	800.000	-0.063	-0.187
-158.735	-200.000	-0.033	0.353
-157.720	-132.492	-0.024	-0.003
-156.706	143.371	-0.073	0.095
-155.691	538.019	-0.090	0.211
-154.677	506.420	0.056	-0.128
-153.662	-110.933	0.091	0.018
-152.647	-18.527	0.065	0.040
-151.633	-89.778	-0.122	-0.035
-150.618	-145.482	-0.251	-0.022
-149.604	5.095	0.224	0.163
-148.589	-49.502	0.246	0.116
-147.574	-71.837	0.380	0.140
-146.560	-200.000	-0.009	-0.194
-145.545	-184.461	0.254	-0.004
-144.531	-132.816	-0.116	-0.015
-143.516	-135.164	-0.217	0.026
-142.502	19.887	-0.063	-0.051
-141.487	-200.000	-0.048	0.307
-140.472	800.000	0.014	-0.041
-139.458	800.000	0.089	0.259
-138.443	-31.499	-0.256	-0.142
-137.429	-50.840	-0.061	0.028
-136.414	-76.325	-0.235	-0.082
-135.399	-160.165	-0.312	0.017
-134.385	19.239	0.236	0.187
-133.370	-19.627	-0.019	0.012
-132.356	-66.720	-0.032	-0.013
-131.341	296.638	0.091	0.164
-130.326	104.346	0.373	-0.434
-129.312	202.384	0.248	0.378
-128.297	-91.235	-0.142	0.040
-127.283	-53.147	-0.292	-0.132
-126.268	126.277	-0.184	0.230
-125.253	-200.000	-0.020	-0.088
-124.239	82.229	-0.141	-0.151
-123.224	-42.809	-0.459	0.230
-122.210	-105.193	0.313	0.071
-121.195	472.247	0.045	-0.100
