DTS Sentinel unit serial number:	SN413079Multiplexer serial number:	ORYXHardware model number:	OX4-SRSoftware version number:	ORYX F/W v4.00 Oryx Data Collector v3.7.2.0data status	okinstallation	princeton_trtdifferential loss correction	single-endedforward channel	channel 3reverse channel	N/Adate	2019/09/12time	11:42:11forward acquisition time	60.00reverse acquisition time	0.00gamma	496.2192k internal	0.2294k external	0.2294temperature offset calibration	1.0039default loss term (dB/km)	0.3790temperature slope calibration	1.0000multiplexer offset coefficient	1.0000multiplexer slope coefficient	1.0000fibre end	0.00T internal ref (°C)	39.70T ext. ref 1 (°C)	2.00T ext. ref 2 (°C)	37.46length (m)	temperature (°C)	Stokes	anti-Stokes-747.200	69.046	-0.100	-0.105
-746.185	-53.424	0.411	0.192
-745.171	-55.694	-0.128	0.058
-744.156	-96.333	0.084	0.023
-743.142	-200.000	0.007	0.263
-742.127	-169.342	-0.106	0.004
-741.112	-200.000	0.013	-0.280
-740.098	-175.672	-0.135	-0.004
-739.083	544.284	-0.097	-0.236
-738.069	-169.890	-0.102	-0.004
-737.054	26.684	0.241	-0.206
-736.039	8.380	-0.215	-0.165
-735.025	-200.000	-0.057	-0.295
-734.010	-18.900	-0.173	-0.110
-732.996	67.351	0.113	0.118
-731.981	42.493	0.192	0.179
-730.966	-200.000	0.020	0.356
-729.952	-173.294	0.061	0.002
-728.937	198.356	-0.200	-0.312
-727.923	800.000	0.136	0.437
-726.908	41.262	-0.195	0.180
-725.894	-36.061	-0.200	-0.111
-724.879	-200.000	-0.006	0.044
-723.864	800.000	-0.066	-0.203
-722.850	799.624	0.069	-0.194
-721.835	-89.092	-0.139	0.042
-720.821	-200.000	0.017	-0.223
-719.806	-30.130	-0.229	0.133
-718.791	-147.140	0.079	-0.007
-717.777	27.402	0.287	0.246
-716.762	41.235	-0.091	0.084
-715.748	-167.762	0.246	0.010
-714.733	14.630	-0.217	-0.173
-713.718	36.410	-0.311	0.280
-712.704	-2.754	0.197	-0.140
-711.689	800.000	-0.030	0.110
-710.675	232.960	-0.128	-0.215
-709.660	-25.843	-0.131	-0.079
-708.645	97.203	0.116	-0.136
-707.631	800.000	-0.051	0.229
-706.616	800.000	0.044	0.163
-705.602	-52.271	-0.320	0.152
-704.587	233.020	-0.093	-0.156
-703.572	765.959	0.090	-0.249
-702.558	-200.000	-0.031	-0.173
-701.543	20.463	0.121	0.100
-700.529	-194.303	-0.225	0.002
-699.514	-2.608	0.361	-0.258
-698.499	800.000	-0.126	-0.392
-697.485	-9.564	0.173	-0.118
-696.470	-128.789	0.104	-0.015
-695.456	-200.000	0.000	-0.002
-694.441	14.621	0.185	0.147
-693.426	77.661	-0.428	-0.466
-692.412	5.786	-0.418	-0.315
-691.397	49.126	0.378	-0.362
-690.383	-20.327	0.124	-0.078
-689.368	319.785	-0.111	-0.215
-688.354	800.000	-0.016	0.051
-687.339	-133.460	0.061	0.008
-686.324	36.961	0.154	0.139
-685.310	-200.000	-0.058	0.292
-684.295	-200.000	-0.022	-0.105
-683.281	-200.000	0.021	0.145
-682.266	-88.609	0.169	0.051
-681.251	-28.999	-0.311	-0.182
-680.237	-64.931	0.153	-0.063
-679.222	-200.000	0.059	-0.281
-678.208	320.913	-0.022	0.042
-677.193	800.000	-0.037	-0.152
-676.178	-67.580	0.030	-0.012
-675.164	-29.554	-0.395	0.230
-674.149	123.069	-0.151	0.193
-673.135	185.371	-0.234	0.355
-672.120	800.000	0.092	-0.293
-671.105	-1.951	0.142	-0.102
-670.091	250.964	-0.225	-0.389
-669.076	100.786	0.079	0.093
-668.062	-171.205	-0.058	-0.002
-667.047	39.779	0.216	-0.197
-666.032	-200.000	0.027	0.167
-665.018	800.000	-0.118	0.377
-664.003	-200.000	-0.022	-0.215
-662.989	203.877	0.031	-0.048
-661.974	129.914	-0.114	0.149
-660.959	-124.239	0.203	-0.032
-659.945	128.513	0.133	-0.172
-658.930	-200.000	0.027	0.183
-657.916	661.067	0.176	-0.461
-656.901	-50.228	-0.150	-0.072
-655.886	176.563	0.013	-0.020
-654.872	-66.625	-0.096	-0.039
-653.857	-48.098	0.220	0.108
-652.843	-19.824	0.119	0.075
-651.828	-110.762	0.113	0.024
-650.814	0.718	0.165	-0.121
-649.799	-200.000	-0.028	0.185
-648.784	-148.991	0.164	0.013
-647.770	-58.630	-0.269	-0.119
-646.755	386.187	0.084	0.178
-645.741	800.000	-0.133	-0.382
-644.726	240.748	0.025	0.042
-643.711	-29.873	-0.162	-0.094
-642.697	2.900	0.264	-0.195
-641.682	104.374	-0.080	-0.096
-640.668	140.544	0.184	-0.248
-639.653	-130.783	-0.255	0.035
-638.638	102.825	-0.177	0.211
-637.624	17.569	0.054	0.044
-636.609	-1.237	-0.190	0.137
-635.595	36.580	-0.245	-0.220
-634.580	800.000	0.079	-0.237
-633.565	-9.169	-0.125	-0.085
-632.551	-0.721	-0.152	-0.110
-631.536	-19.641	-0.338	-0.213
-630.522	119.132	-0.165	-0.208
-629.507	-114.968	-0.069	-0.013
-628.492	-96.370	-0.163	0.044
-627.478	125.438	0.207	0.266
-626.463	278.311	-0.043	0.078
-625.449	345.328	0.021	-0.043
-624.434	-68.836	-0.330	-0.130
-623.419	-200.000	-0.057	-0.437
-622.405	-66.458	0.070	0.028
-621.390	-26.203	-0.115	-0.069
-620.376	-121.081	-0.239	-0.041
-619.361	-36.594	0.287	-0.157
-618.346	-200.000	-0.013	-0.117
-617.332	308.409	0.099	-0.188
-616.317	-200.000	-0.014	0.198
-615.303	800.000	0.027	0.104
-614.288	3.168	0.206	-0.152
-613.273	800.000	-0.102	-0.420
-612.259	-195.762	-0.490	-0.004
-611.244	-0.153	-0.310	-0.225
-610.230	-30.226	-0.363	-0.210
-609.215	195.416	0.119	-0.184
-608.201	-87.127	0.261	0.081
-607.186	-93.142	-0.349	-0.099
-606.171	800.000	-0.031	-0.114
-605.157	-83.476	-0.238	0.077
-604.142	-21.800	0.231	0.143
-603.128	-183.726	0.321	0.006
-602.113	16.862	0.219	0.177
-601.098	-42.490	0.070	0.036
-600.084	-200.000	0.046	-0.317
-599.069	800.000	-0.119	0.435
-598.055	288.608	0.106	0.194
-597.040	-35.178	0.255	-0.141
-596.025	-200.000	0.049	-0.255
-595.011	24.417	-0.013	-0.011
-593.996	800.000	0.050	0.207
-592.982	172.062	-0.109	-0.159
-591.967	800.000	0.046	0.204
-590.952	-52.346	-0.267	0.126
-589.938	-132.150	0.178	0.023
-588.923	385.677	0.110	0.231
-587.909	46.025	-0.264	-0.249
-586.894	540.549	-0.036	-0.088
-585.879	-133.650	0.252	0.032
-584.865	211.124	-0.076	-0.121
-583.850	-104.209	0.187	0.044
-582.836	689.644	-0.057	-0.152
-581.821	-126.352	-0.202	0.031
-580.806	336.699	-0.106	-0.209
-579.792	170.112	0.164	-0.238
-578.777	-80.217	-0.230	0.078
-577.763	-200.000	0.002	-0.211
-576.748	-51.477	-0.226	-0.107
-575.733	-200.000	0.009	0.375
-574.719	-200.000	0.007	0.183
-573.704	42.214	0.078	-0.072
-572.690	395.386	-0.050	0.106
-571.675	-76.391	-0.117	-0.042
-570.661	-149.803	-0.115	0.009
-569.646	-200.000	0.004	-0.297
-568.631	-20.371	-0.089	-0.056
-567.617	-81.760	-0.224	0.075
-566.602	113.893	-0.134	-0.165
-565.588	15.533	-0.011	-0.009
-564.573	-105.898	0.132	0.030
-563.558	438.381	0.120	0.265
-562.544	-16.307	-0.458	0.295
-561.529	589.454	-0.191	-0.479
-560.515	661.696	-0.078	-0.205
-559.500	102.070	-0.105	-0.125
-558.485	361.201	0.128	0.261
-557.471	117.935	-0.137	0.171
-556.456	165.722	0.264	-0.378
-555.442	-200.000	0.072	0.537
-554.427	-12.882	0.293	-0.193
-553.412	65.675	0.071	-0.073
-552.398	-55.378	-0.146	0.066
-551.383	649.001	-0.108	0.281
-550.369	233.438	0.214	0.357
-549.354	-200.000	-0.047	-0.258
-548.339	-53.984	0.292	-0.135
-547.325	27.572	-0.021	0.018
-546.310	-45.598	0.331	-0.166
-545.296	-36.415	-0.122	0.066
-544.281	-200.000	-0.020	0.199
-543.266	10.428	-0.112	-0.086
-542.252	24.277	-0.195	-0.164
-541.237	-200.000	0.009	0.044
-540.223	8.352	0.230	-0.175
-539.208	-115.652	-0.142	0.027
-538.193	-200.000	0.086	0.400
-537.179	-79.601	0.199	0.068
-536.164	-54.249	-0.151	-0.070
-535.150	800.000	-0.098	0.283
-534.135	-84.574	0.325	0.104
-533.121	800.000	-0.075	-0.323
-532.106	234.101	0.067	-0.112
-531.091	86.256	0.059	0.065
-530.077	-93.223	0.050	-0.014
-529.062	800.000	0.046	-0.188
-528.048	-200.000	-0.011	-0.452
-527.033	8.395	-0.055	-0.042
-526.018	-44.864	-0.298	-0.151
-525.004	54.907	-0.128	-0.126
-523.989	255.147	-0.107	-0.186
-522.975	-200.000	-0.011	-0.119
-521.960	127.903	-0.141	0.182
-520.945	-200.000	-0.024	-0.133
-519.931	375.164	-0.166	-0.344
-518.916	-80.532	0.208	0.070
-517.902	111.480	0.124	-0.152
-516.887	-200.000	-0.006	-0.417
-515.872	-101.493	0.329	-0.081
-514.858	-113.303	0.083	0.017
-513.843	166.918	-0.128	0.183
-512.829	-79.570	-0.344	-0.118
-511.814	-89.098	0.437	0.131
-510.799	96.654	0.062	-0.072
-509.785	-22.456	0.104	-0.064
-508.770	-78.637	0.033	-0.012
-507.756	122.442	0.248	-0.315
-506.741	-200.000	-0.087	-0.399
-505.726	-45.640	-0.105	0.053
-504.712	398.616	0.068	0.145
-503.697	-29.954	0.116	-0.067
-502.683	-118.968	-0.360	-0.064
-501.668	129.618	-0.109	0.142
-500.653	124.487	-0.209	-0.266
-499.639	-101.513	-0.322	-0.079
-498.624	800.000	-0.071	-0.279
-497.610	-71.516	0.034	0.013
-496.595	262.119	0.068	0.119
-495.581	584.733	-0.156	-0.388
-494.566	-200.000	-0.055	-0.251
-493.551	290.013	-0.041	-0.076
-492.537	626.002	0.016	0.040
-491.522	8.395	0.145	-0.110
-490.508	-91.878	0.193	-0.056
-489.493	-200.000	0.032	0.192
-488.478	-78.789	0.189	-0.065
-487.464	-111.006	0.052	0.011
-486.449	6.650	0.083	0.062
-485.435	188.109	0.138	-0.208
-484.420	-200.000	0.028	0.198
-483.405	-30.416	0.024	-0.014
-482.391	-124.666	0.415	0.065
-481.376	-134.225	-0.072	-0.009
-480.362	-200.000	-0.041	-0.275
-479.347	-138.273	-0.331	-0.037
-478.332	94.797	0.130	0.149
-477.318	800.000	0.062	0.196
-476.303	-22.313	0.403	0.247
-475.289	7.612	-0.290	0.219
-474.274	-200.000	0.003	-0.074
-473.259	10.404	0.214	0.165
-472.245	261.682	0.074	0.129
-471.230	168.705	0.056	-0.080
-470.216	-200.000	-0.013	-0.075
-469.201	-200.000	0.129	-0.000
-468.186	800.000	-0.057	-0.187
-467.172	-200.000	-0.017	0.421
-466.157	800.000	-0.060	-0.203
-465.143	-200.000	0.022	0.236
-464.128	59.651	0.189	0.188
-463.113	-141.543	0.178	0.018
-462.099	-87.923	0.155	-0.047
-461.084	-30.516	0.220	-0.126
-460.070	143.431	0.127	-0.171
-459.055	18.539	0.161	-0.130
-458.040	-88.036	0.207	-0.063
-457.026	-58.434	0.125	0.055
-456.011	261.071	0.043	0.075
-454.997	-95.250	0.363	-0.099
-453.982	-200.000	-0.025	0.218
-452.968	-15.033	0.158	0.103
-451.953	-108.355	-0.296	-0.064
-450.938	-81.860	0.238	-0.079
-449.924	-127.398	-0.201	0.030
-448.909	-200.000	0.014	0.195
-447.895	492.684	-0.128	-0.298
-446.880	-200.000	0.020	-0.111
-445.865	108.120	-0.042	-0.050
-444.851	-74.394	-0.106	0.039
-443.836	97.187	0.116	-0.134
-442.822	-145.778	0.189	-0.017
-441.807	95.307	-0.072	0.083
-440.792	-88.715	-0.039	-0.012
-439.778	-92.612	-0.093	-0.026
-438.763	-153.592	0.150	0.010
-437.749	296.087	-0.067	-0.124
-436.734	21.880	0.079	-0.065
-435.719	-200.000	-0.001	0.215
-434.705	263.975	0.097	0.171
-433.690	5.089	0.187	0.139
-432.676	32.454	-0.144	0.126
-431.661	-200.000	0.031	0.317
-430.646	-125.997	0.122	0.018
-429.632	-111.688	-0.204	0.042
-428.617	140.217	-0.085	-0.113
-427.603	-38.761	0.179	0.095
-426.588	-200.000	0.011	-0.239
-425.573	34.736	-0.125	-0.110
-424.559	-200.000	0.023	-0.220
-423.544	97.275	-0.062	-0.072
-422.530	133.734	-0.136	0.177
-421.515	-200.000	-0.030	-0.167
-420.500	60.726	-0.048	0.048
-419.486	124.880	-0.219	-0.278
-418.471	-2.833	0.062	0.044
-417.457	-200.000	-0.015	-0.075
-416.442	-200.000	-0.043	0.269
-415.428	-129.592	0.333	0.046
-414.413	-126.513	0.215	-0.032
-413.398	-72.560	0.325	0.121
-412.384	420.494	-0.073	-0.158
-411.369	-168.959	0.578	-0.022
-410.355	131.350	-0.335	0.435
-409.340	800.000	0.033	-0.140
-408.325	-75.956	0.060	-0.021
-407.311	-129.956	-0.297	-0.041
-406.296	-98.175	-0.157	-0.041
-405.282	169.559	-0.084	-0.121
-404.267	800.000	-0.072	0.277
-403.252	-73.070	0.070	0.026
-402.238	-200.000	-0.018	0.398
-401.223	231.642	-0.094	-0.156
-400.209	239.168	0.091	-0.153
-399.194	85.119	-0.079	-0.087
-398.179	194.281	-0.179	-0.274
-397.165	44.253	-0.267	-0.247
-396.150	800.000	-0.042	-0.164
-395.136	-200.000	0.023	0.331
-394.121	122.846	0.063	0.080
-393.106	-200.000	-0.091	0.407
-392.092	-107.899	-0.130	-0.029
-391.077	-125.558	-0.192	-0.029
-390.063	-73.433	-0.286	-0.105
-389.048	172.674	0.017	0.025
-388.033	203.597	0.068	0.107
-387.019	-123.136	-0.288	-0.046
-386.004	-11.480	-0.205	-0.136
-384.990	-83.919	0.300	-0.096
-383.975	53.634	0.107	0.104
-382.960	88.320	0.148	0.166
-381.946	99.512	0.161	0.188
-380.931	373.008	-0.022	-0.045
-379.917	-6.923	0.097	-0.066
-378.902	365.096	-0.061	-0.124
-377.888	-150.899	-0.130	0.010
-376.873	-12.566	0.167	-0.110
-375.858	-200.000	0.018	0.212
-374.844	-200.000	-0.018	0.135
-373.829	-2.403	-0.206	-0.146
-372.815	-47.706	-0.349	0.171
-371.800	-105.571	0.183	-0.042
-370.785	181.511	0.013	0.020
-369.771	800.000	0.128	0.449
-368.756	-130.977	-0.394	-0.053
-367.742	72.261	0.262	-0.275
-366.727	-200.000	0.014	-0.293
-365.712	391.794	-0.070	0.147
-364.698	-147.891	-0.145	-0.012
-363.683	6.603	-0.376	-0.281
-362.669	1.500	-0.294	0.213
-361.654	-42.040	-0.311	0.161
-360.639	32.035	-0.332	0.288
-359.625	427.326	0.021	0.046
-358.610	148.571	-0.131	-0.178
-357.596	-178.789	0.075	0.002
-356.581	253.408	-0.178	-0.306
-355.566	143.419	0.100	0.134
-354.552	800.000	-0.119	0.419
-353.537	-128.783	0.120	-0.017
-352.523	-112.880	0.066	-0.013
-351.508	701.359	-0.074	0.197
-350.493	-200.000	0.015	-0.380
-349.479	-125.543	0.271	-0.041
-348.464	-200.000	-0.007	-0.031
-347.450	267.676	0.104	-0.184
-346.435	-108.252	0.246	0.053
-345.420	398.709	-0.108	0.227
-344.406	-86.644	0.212	0.065
-343.391	-200.000	-0.013	0.165
-342.377	55.019	0.101	0.098
-341.362	-200.000	0.004	0.125
-340.348	12.987	0.195	0.152
-339.333	227.636	0.016	-0.026
-338.318	-145.691	0.279	-0.025
-337.304	-145.485	-0.073	0.007
-336.289	-106.207	0.064	0.015
-335.275	-0.597	0.231	-0.165
-334.260	30.026	0.274	0.235
-333.245	-107.641	0.231	0.051
-332.231	218.903	-0.048	-0.077
-331.216	-1.787	0.307	0.217
-330.202	-10.912	-0.292	-0.194
-329.187	-134.964	-0.146	0.018
-328.172	26.666	0.103	-0.087
-327.158	98.304	-0.041	-0.048
-326.143	-16.806	0.266	0.169
-325.129	-116.149	0.186	0.035
-324.114	-92.665	0.448	0.126
-323.099	-83.354	0.187	0.060
-322.085	176.861	-0.099	-0.144
-321.070	-29.181	-0.139	0.080
-320.056	-200.000	-0.050	0.305
-319.041	-80.602	-0.323	-0.108
-318.026	103.777	0.137	-0.162
-317.012	17.229	0.264	0.211
-315.997	-115.209	0.278	-0.053
-314.983	-140.486	0.339	0.035
-313.968	755.193	-0.040	0.108
-312.953	-123.311	0.143	-0.023
-311.939	54.955	0.162	0.158
-310.924	376.361	0.139	0.286
-309.910	-13.353	0.144	0.094
-308.895	-27.069	-0.336	-0.197
-307.880	260.357	-0.123	-0.213
-306.866	-200.000	-0.001	0.036
-305.851	31.134	0.135	-0.117
-304.837	-31.130	-0.196	-0.111
-303.822	145.618	0.200	-0.269
-302.807	-63.410	-0.193	0.080
-301.793	-32.620	-0.227	0.127
-300.778	-71.163	0.488	-0.184
-299.764	-98.460	-0.084	0.022
-298.749	-176.247	0.370	0.010
-297.735	-142.951	0.374	-0.036
-296.720	80.550	-0.132	0.143
-295.705	-153.313	0.214	-0.015
-294.691	376.969	0.162	0.332
-293.676	83.166	-0.019	-0.020
-292.662	-51.565	0.088	0.041
-291.647	609.782	0.145	0.363
-290.632	-131.321	0.118	0.016
-289.618	459.447	0.175	-0.392
-288.603	-200.000	-0.001	0.012
-287.589	-6.514	-0.152	0.104
-286.574	-93.508	-0.267	0.074
-285.559	3.297	0.224	0.163
-284.545	-135.235	0.344	0.042
-283.530	109.059	0.159	0.191
-282.516	-142.164	0.111	-0.011
-281.501	72.387	0.351	0.367
-280.486	-105.054	-0.111	0.025
-279.472	31.867	-0.347	0.300
-278.457	-75.313	-0.190	0.068
-277.443	312.930	-0.205	0.386
-276.428	-200.000	0.067	-0.316
-275.413	-67.584	0.193	-0.076
-274.399	-200.000	-0.059	-0.279
-273.384	271.766	-0.194	-0.344
-272.370	-200.000	0.021	-0.409
-271.355	-27.518	-0.245	0.143
-270.340	38.847	-0.040	-0.036
-269.326	313.855	0.036	-0.068
-268.311	37.069	-0.098	0.087
-267.297	69.363	0.114	0.118
-266.282	-15.493	-0.258	0.165
-265.267	-109.220	-0.383	-0.082
-264.253	96.861	-0.117	-0.134
-263.238	-200.000	0.025	-0.306
-262.224	-190.114	-0.060	-0.001
-261.209	-53.026	0.227	0.105
-260.195	465.453	0.026	0.058
-259.180	81.630	0.067	-0.072
-258.165	-57.103	0.153	-0.067
-257.151	-200.000	0.006	-0.135
-256.136	-45.612	-0.134	-0.067
-255.122	800.000	0.069	-0.221
-254.107	-200.000	0.030	0.134
-253.092	341.563	-0.147	0.289
-252.078	110.206	-0.143	0.172
-251.063	-49.558	0.159	0.076
-250.049	132.304	-0.032	-0.041
-249.034	-32.234	-0.226	-0.127
-248.019	-96.918	-0.096	-0.025
-247.005	90.174	0.102	0.114
-245.990	390.383	0.102	0.212
-244.976	800.000	-0.041	0.121
-243.961	-59.408	-0.339	0.146
-242.946	-157.168	0.421	0.026
-241.932	44.299	-0.093	0.085
-240.917	-200.000	-0.172	-0.001
-239.903	-67.778	0.113	0.044
-238.888	-49.602	-0.111	-0.053
-237.873	-43.203	-0.124	-0.063
-236.859	130.757	0.076	0.098
-235.844	38.231	0.158	-0.141
-234.830	-72.083	0.041	0.015
-233.815	-200.000	-0.006	0.299
-232.800	47.313	0.098	0.091
-231.786	73.548	-0.075	-0.079
-230.771	-200.000	0.071	0.548
-229.757	-40.719	-0.141	-0.073
-228.742	277.658	-0.117	-0.209
-227.727	-71.332	-0.305	0.114
-226.713	104.009	-0.340	-0.400
-225.698	-200.000	-0.031	-0.195
-224.684	553.730	-0.032	-0.076
-223.669	800.000	-0.119	-0.415
-222.655	-95.928	-0.044	-0.012
-221.640	158.893	-0.193	-0.269
-220.625	-15.384	-0.328	0.210
-219.611	-200.000	0.027	-0.162
-218.596	800.000	-0.084	-0.276
-217.582	800.000	0.090	0.277
-216.567	-200.000	0.029	-0.146
-215.552	-87.003	0.138	0.042
-214.538	71.291	0.285	0.296
-213.523	17.739	-0.157	-0.125
-212.509	-200.000	0.002	-0.061
-211.494	192.581	-0.076	0.115
-210.479	800.000	-0.045	0.164
-209.465	-200.000	-0.057	-0.310
-208.450	-58.435	0.182	-0.079
-207.436	-200.000	0.346	0.001
-206.421	-200.000	0.004	0.158
-205.406	800.000	-0.036	-0.105
-204.392	-159.242	-0.293	0.016
-203.377	-33.569	-0.061	-0.034
-202.363	8.218	0.266	0.200
-201.348	-200.000	0.057	0.357
-200.333	74.751	0.081	0.085
-199.319	228.712	0.045	-0.073
-198.304	-176.486	-0.477	-0.012
-197.290	-135.180	0.132	0.016
-196.275	284.677	0.112	-0.201
-195.260	18.273	-0.186	0.149
-194.246	-200.000	-0.009	0.062
-193.231	608.239	0.171	0.428
-192.217	-43.867	-0.152	0.077
-191.202	164.465	0.170	-0.240
-190.187	-30.122	0.189	-0.107
-189.173	49.282	0.172	0.161
-188.158	-132.390	0.197	-0.025
-187.144	-200.000	0.051	0.364
-186.129	464.287	0.088	0.197
-185.114	800.000	-0.042	0.152
-184.100	-113.500	-0.416	-0.082
-183.085	-83.789	-0.185	0.059
-182.071	-200.000	0.014	0.374
-181.056	-200.000	0.060	0.278
-180.042	-200.000	0.029	0.327
-179.027	-83.069	-0.276	0.089
-178.012	110.026	0.194	0.233
-176.998	-156.293	0.098	0.006
-175.983	154.082	-0.129	0.177
-174.969	548.830	0.068	0.163
-173.954	-200.000	0.026	0.128
-172.939	92.861	0.099	-0.112
-171.925	-71.262	-0.109	0.041
-170.910	-139.314	-0.205	-0.022
-169.896	-86.009	-0.277	-0.086
-168.881	-200.000	-0.000	0.089
-167.866	-34.126	0.092	-0.051
-166.852	800.000	0.046	-0.187
-165.837	-200.000	-0.020	-0.180
-164.823	-7.509	0.242	0.164
-163.808	9.654	-0.225	0.170
-162.793	-200.000	-0.008	0.171
-161.779	-175.426	-0.137	-0.004
-160.764	-79.884	0.140	-0.047
-159.750	543.974	0.085	-0.204
-158.735	-143.158	-0.124	0.012
-157.720	-21.351	0.143	0.087
-156.706	800.000	-0.085	-0.303
-155.691	70.286	-0.167	0.172
-154.677	392.972	-0.128	0.266
-153.662	-200.000	-0.038	0.168
-152.647	-187.671	0.309	-0.004
-151.633	-200.000	-0.007	-0.109
-150.618	-200.000	-0.006	-0.058
-149.604	669.769	-0.045	0.117
-148.589	-90.937	0.282	-0.081
-147.574	192.830	-0.174	0.262
-146.560	577.410	-0.109	-0.266
-145.545	342.117	0.150	0.293
-144.531	730.514	-0.126	-0.337
-143.516	61.449	0.144	-0.143
-142.502	-200.000	0.033	0.288
-141.487	800.000	0.026	-0.074
-140.472	651.649	-0.050	0.129
-139.458	43.554	-0.336	-0.307
-138.443	-50.488	-0.114	0.054
-137.429	55.288	0.095	0.091
-136.414	17.183	-0.155	0.123
-135.399	-200.000	-0.040	0.252
-134.385	39.806	-0.133	-0.119
-133.370	-74.918	0.341	-0.122
-132.356	536.418	0.069	-0.163
-131.341	-7.743	0.287	0.194
-130.326	497.731	-0.146	-0.337
-129.312	-137.622	0.142	0.016
-128.297	79.828	0.139	-0.149
-127.283	-200.000	0.039	-0.211
-126.268	-200.000	0.059	0.342
-125.253	-200.000	0.008	-0.042
-124.239	800.000	0.015	0.062
-123.224	457.848	0.050	-0.112
-122.210	284.283	-0.022	0.040
-121.195	-200.000	0.000	0.088
