DTS Sentinel unit serial number:	SN413079Multiplexer serial number:	ORYXHardware model number:	OX4-SRSoftware version number:	ORYX F/W v4.00 Oryx Data Collector v3.7.2.0data status	okinstallation	princeton_trtdifferential loss correction	single-endedforward channel	channel 3reverse channel	N/Adate	2019/09/11time	18:46:11forward acquisition time	60.00reverse acquisition time	0.00gamma	496.2192k internal	0.2289k external	0.2289temperature offset calibration	0.9999default loss term (dB/km)	0.3790temperature slope calibration	1.0000multiplexer offset coefficient	1.0000multiplexer slope coefficient	1.0000fibre end	0.00T internal ref (°C)	43.16T ext. ref 1 (°C)	1.22T ext. ref 2 (°C)	35.34length (m)	temperature (°C)	Stokes	anti-Stokes-747.200	-143.815	-0.064	-0.006
-746.185	-93.854	0.133	-0.038
-745.171	188.211	-0.125	-0.191
-744.156	371.519	-0.075	0.156
-743.142	-200.000	0.008	0.303
-742.127	126.231	0.117	0.152
-741.112	-200.000	-0.033	-0.302
-740.098	26.282	0.241	0.207
-739.083	250.570	-0.053	0.091
-738.069	-200.000	-0.026	0.159
-737.054	726.400	-0.035	-0.096
-736.039	12.984	-0.291	-0.231
-735.025	-26.648	0.207	-0.124
-734.010	-200.000	-0.013	-0.171
-732.996	-8.079	0.273	-0.188
-731.981	516.492	0.091	-0.217
-730.966	-200.000	0.002	-0.274
-729.952	-141.786	-0.157	-0.016
-728.937	-110.833	-0.417	-0.088
-727.923	-200.000	0.014	0.166
-726.908	122.951	-0.281	-0.360
-725.894	356.055	0.117	-0.238
-724.879	-176.757	-0.525	0.014
-723.864	-173.142	0.130	-0.004
-722.850	-149.102	0.239	0.020
-721.835	-37.241	-0.192	0.105
-720.821	-83.795	0.233	-0.076
-719.806	-93.321	0.455	-0.129
-718.791	800.000	0.051	-0.223
-717.777	331.859	0.115	-0.227
-716.762	-115.376	0.122	-0.024
-715.748	-200.000	-0.010	-0.441
-714.733	-64.311	-0.203	-0.085
-713.718	-200.000	0.028	-0.282
-712.704	-200.000	-0.387	0.002
-711.689	8.489	-0.131	0.101
-710.675	-125.386	0.389	-0.061
-709.660	-29.035	0.269	-0.158
-708.645	152.266	0.206	-0.288
-707.631	-17.066	-0.123	0.079
-706.616	-200.000	-0.009	0.700
-705.602	228.697	-0.040	0.068
-704.587	-46.212	0.293	0.147
-703.572	-95.783	0.356	0.097
-702.558	-200.000	-0.002	0.286
-701.543	-200.000	0.069	0.396
-700.529	106.343	0.192	0.232
-699.514	-200.000	-0.006	-0.190
-698.499	-64.854	0.391	-0.162
-697.485	-113.975	-0.231	-0.046
-696.470	800.000	-0.016	0.054
-695.456	-107.711	-0.176	0.039
-694.441	337.733	-0.059	-0.117
-693.426	-89.048	0.248	0.075
-692.412	-200.000	0.108	0.552
-691.397	-130.595	-0.355	0.049
-690.383	158.401	0.128	0.182
-689.368	63.720	-0.041	-0.042
-688.354	128.172	-0.048	-0.062
-687.339	33.457	-0.119	0.105
-686.324	13.676	-0.257	-0.204
-685.310	148.832	-0.093	0.129
-684.295	-79.789	-0.196	0.067
-683.281	371.085	0.072	-0.149
-682.266	33.825	0.124	0.111
-681.251	-55.282	0.229	-0.105
-680.237	377.543	-0.079	-0.165
-679.222	-200.000	-0.004	0.208
-678.208	-200.000	-0.000	0.035
-677.193	80.085	-0.128	0.141
-676.178	189.410	0.223	0.342
-675.164	-200.000	-0.008	-0.148
-674.149	354.211	-0.079	0.160
-673.135	285.615	0.136	-0.250
-672.120	186.486	-0.096	-0.146
-671.105	-200.000	0.034	0.221
-670.091	-200.000	-0.002	0.010
-669.076	295.159	-0.148	0.276
-668.062	18.686	-0.431	0.353
-667.047	-45.473	-0.413	-0.209
-666.032	112.832	0.217	0.269
-665.018	161.239	0.113	0.162
-664.003	333.537	-0.226	-0.446
-662.989	233.197	-0.223	-0.375
-661.974	350.469	0.120	-0.242
-660.959	-200.000	-0.030	-0.247
-659.945	-16.110	0.387	-0.251
-658.930	150.219	0.182	-0.252
-657.916	155.189	0.059	0.082
-656.901	-149.698	-0.086	-0.007
-655.886	-200.000	-0.039	0.270
-654.872	153.976	-0.030	-0.042
-653.857	-105.658	-0.085	-0.020
-652.843	86.759	-0.118	-0.134
-651.828	800.000	0.033	-0.118
-650.814	-60.608	0.239	0.103
-649.799	32.254	-0.244	-0.215
-648.784	-200.000	-0.042	-0.211
-647.770	-66.489	0.183	-0.074
-646.755	-113.218	-0.315	0.063
-645.741	-23.006	-0.308	-0.190
-644.726	-44.984	0.083	-0.042
-643.711	-77.585	0.182	0.064
-642.697	0.982	-0.312	0.228
-641.682	439.533	-0.058	0.129
-640.668	-200.000	0.015	-0.394
-639.653	-26.313	0.173	-0.104
-638.638	265.044	-0.044	-0.078
-637.624	-8.696	0.115	0.078
-636.609	36.438	0.214	-0.193
-635.595	-200.000	-0.039	-0.457
-634.580	-121.253	-0.138	-0.024
-633.565	145.475	-0.210	0.287
-632.551	-55.680	0.209	-0.095
-631.536	-27.317	0.128	0.076
-630.522	65.058	-0.108	0.112
-629.507	8.740	-0.328	0.252
-628.492	-45.316	0.024	0.012
-627.478	-105.957	-0.033	0.008
-626.463	-200.000	-0.005	-0.133
-625.449	-200.000	-0.043	0.468
-624.434	-72.702	-0.143	-0.054
-623.419	-200.000	-0.011	-0.111
-622.405	371.304	-0.035	0.072
-621.390	-200.000	0.007	-0.217
-620.376	293.927	0.149	0.278
-619.361	-31.168	0.121	-0.070
-618.346	-65.118	0.426	0.175
-617.332	-200.000	0.033	0.268
-616.317	-49.496	0.251	-0.122
-615.303	-200.000	0.003	-0.280
-614.288	-200.000	-0.026	-0.120
-613.273	675.953	-0.084	-0.223
-612.259	800.000	0.085	-0.347
-611.244	132.316	-0.138	-0.182
-610.230	800.000	0.036	-0.109
-609.215	-200.000	-0.013	-0.087
-608.201	-14.580	-0.397	0.260
-607.186	800.000	-0.038	0.157
-606.171	-120.236	-0.277	-0.048
-605.157	39.188	-0.040	0.037
-604.142	-38.606	0.116	0.063
-603.128	-64.954	0.220	-0.091
-602.113	44.827	0.199	0.186
-601.098	-200.000	0.032	-0.394
-600.084	800.000	-0.038	-0.135
-599.069	0.964	-0.160	-0.117
-598.055	-200.000	0.007	0.133
-597.040	-200.000	-0.015	-0.402
-596.025	-200.000	0.003	0.063
-595.011	138.923	-0.143	-0.191
-593.996	43.162	-0.100	-0.093
-592.982	374.726	-0.128	-0.265
-591.967	-104.573	0.316	-0.074
-590.952	-200.000	-0.039	-0.258
-589.938	-171.340	0.333	-0.011
-588.923	178.977	-0.087	0.130
-587.909	-9.600	0.171	-0.116
-586.894	115.545	0.281	-0.350
-585.879	-5.572	0.442	-0.309
-584.865	-88.853	-0.162	0.049
-583.850	-200.000	-0.018	0.352
-582.836	-200.000	-0.001	0.080
-581.821	-73.656	-0.236	0.088
-580.806	-200.000	-0.001	-0.299
-579.792	800.000	0.055	0.209
-578.777	380.027	0.034	-0.071
-577.763	-13.419	0.140	-0.092
-576.748	61.129	-0.159	-0.160
-575.733	-200.000	0.004	-0.054
-574.719	142.947	0.138	0.186
-573.704	-200.000	0.011	0.238
-572.690	55.464	0.117	0.115
-571.675	-6.584	0.162	-0.112
-570.661	48.742	-0.107	0.102
-569.646	142.224	-0.180	0.243
-568.631	157.969	-0.146	0.205
-567.617	243.688	0.010	-0.017
-566.602	-46.062	0.234	0.117
-565.588	260.464	-0.141	-0.249
-564.573	-105.403	-0.248	0.057
-563.558	-4.459	-0.172	-0.121
-562.544	17.599	0.167	0.135
-561.529	-154.769	0.230	-0.016
-560.515	-21.630	0.274	-0.170
-559.500	356.381	-0.113	-0.230
-558.485	18.200	-0.036	-0.030
-557.471	-200.000	0.012	-0.193
-556.456	-66.903	0.273	-0.110
-555.442	123.251	-0.064	0.081
-554.427	-104.849	-0.068	0.016
-553.412	615.935	-0.111	0.283
-552.398	339.365	-0.057	0.114
-551.383	37.094	0.176	0.158
-550.369	-200.000	0.272	0.000
-549.354	-200.000	-0.006	-0.305
-548.339	352.198	0.122	0.245
-547.325	-111.050	0.215	-0.045
-546.310	-200.000	0.036	-0.189
-545.296	-101.545	-0.131	-0.032
-544.281	130.811	0.148	0.193
-543.266	-200.000	0.052	0.231
-542.252	-59.697	-0.106	0.046
-541.237	95.097	0.112	0.129
-540.223	-22.555	-0.114	-0.070
-539.208	7.443	0.234	0.178
-538.193	-122.514	0.059	0.010
-537.179	-3.882	-0.064	0.045
-536.164	486.539	0.150	0.347
-535.150	-186.793	0.255	0.004
-534.135	-200.000	-0.016	-0.145
-533.121	-90.822	-0.150	-0.044
-532.106	800.000	-0.075	0.215
-531.091	-200.000	0.021	0.123
-530.077	-200.000	-0.011	-0.174
-529.062	800.000	-0.072	0.261
-528.048	193.028	-0.229	-0.352
-527.033	-130.862	0.109	0.015
-526.018	-164.352	0.378	-0.018
-525.004	-200.000	-0.019	-0.295
-523.989	-200.000	-0.056	0.373
-522.975	800.000	0.108	0.315
-521.960	-200.000	-0.012	-0.129
-520.945	26.673	0.052	0.044
-519.931	-6.914	0.174	0.120
-518.916	-103.976	-0.303	0.072
-517.902	-200.000	0.038	0.171
-516.887	7.610	-0.288	0.219
-515.872	65.432	0.144	-0.148
-514.858	-200.000	-0.004	-0.119
-513.843	800.000	-0.057	-0.201
-512.829	173.875	-0.157	0.230
-511.814	-11.844	0.248	-0.165
-510.799	-145.787	-0.055	0.005
-509.785	52.982	-0.442	0.430
-508.770	302.639	-0.065	0.122
-507.756	-82.946	0.040	-0.013
-506.741	-34.963	-0.202	0.112
-505.726	-77.754	-0.347	0.122
-504.712	800.000	-0.063	0.270
-503.697	195.977	0.118	-0.182
-502.683	-76.662	-0.154	-0.055
-501.668	-200.000	0.028	0.277
-500.653	156.108	-0.034	0.048
-499.639	-135.745	0.160	-0.019
-498.624	48.107	-0.292	-0.277
-497.610	70.119	0.142	-0.149
-496.595	-5.728	-0.089	-0.062
-495.581	-104.035	0.314	-0.074
-494.566	800.000	0.085	-0.279
-493.551	48.257	0.121	-0.115
-492.537	-146.103	0.178	-0.016
-491.522	-83.752	0.108	0.035
-490.508	-99.970	-0.249	0.063
-489.493	447.983	0.075	-0.167
-488.478	-131.797	0.316	0.042
-487.464	-200.000	-0.069	-0.479
-486.449	-17.440	-0.355	0.226
-485.435	-200.000	0.047	0.502
-484.420	81.290	0.066	-0.072
-483.405	-11.204	-0.379	-0.254
-482.391	-80.347	-0.254	-0.086
-481.376	-200.000	0.014	0.085
-480.362	-68.663	-0.208	-0.082
-479.347	-200.000	-0.055	-0.296
-478.332	800.000	-0.064	-0.218
-477.318	-200.000	0.008	0.120
-476.303	-146.783	-0.326	0.029
-475.289	-3.084	0.406	0.287
-474.274	80.333	0.236	0.258
-473.259	-89.118	0.099	-0.030
-472.245	800.000	0.011	-0.044
-471.230	-200.000	-0.021	0.147
-470.216	-200.000	0.004	-0.138
-469.201	-17.424	0.059	0.038
-468.186	21.469	-0.356	-0.293
-467.172	-199.842	-0.124	0.001
-466.157	-200.000	0.028	0.160
-465.143	133.819	-0.105	-0.138
-464.128	800.000	0.039	-0.114
-463.113	-200.000	-0.039	0.292
-462.099	-200.000	0.030	0.165
-461.084	145.920	-0.086	0.117
-460.070	-200.000	0.045	-0.214
-459.055	260.570	-0.183	0.320
-458.040	-162.904	-0.360	-0.018
-457.026	-41.213	0.084	0.044
-456.011	107.956	0.238	0.287
-454.997	-114.873	0.277	0.054
-453.982	45.194	0.133	-0.125
-452.968	-101.494	0.169	0.042
-451.953	128.621	0.100	-0.129
-450.938	-200.000	-0.020	0.337
-449.924	-200.000	-0.004	0.312
-448.909	-21.551	-0.203	0.125
-447.895	12.744	0.110	0.086
-446.880	20.006	-0.154	0.126
-445.865	355.368	-0.072	0.145
-444.851	-131.140	0.137	0.018
-443.836	-133.918	0.330	-0.041
-442.822	50.918	-0.202	0.193
-441.807	-61.286	0.108	0.046
-440.792	-200.000	0.002	0.413
-439.778	224.561	-0.046	-0.076
-438.763	-200.000	-0.022	0.283
-437.749	-43.477	-0.196	-0.100
-436.734	800.000	0.060	-0.171
-435.719	-65.257	0.057	-0.023
-434.705	-200.000	-0.023	-0.145
-433.690	800.000	0.045	-0.189
-432.676	-117.654	-0.155	0.028
-431.661	272.403	0.119	-0.212
-430.646	-43.660	-0.348	0.177
-429.632	93.834	-0.179	-0.205
-428.617	46.462	0.148	-0.139
-427.603	157.494	-0.065	-0.090
-426.588	-99.986	-0.160	0.040
-425.573	-61.346	-0.169	0.072
-424.559	-200.000	0.013	-0.072
-423.544	800.000	0.049	-0.186
-422.530	-72.543	-0.285	0.107
-421.515	-134.386	-0.299	-0.037
-420.500	108.463	0.116	0.140
-419.486	-120.514	0.180	0.031
-418.471	286.117	0.021	0.038
-417.457	67.022	-0.170	0.176
-416.442	-83.907	0.272	0.088
-415.428	463.996	0.109	0.247
-414.413	-22.765	0.358	-0.218
-413.398	232.132	0.039	0.065
-412.384	46.204	-0.257	0.240
-411.369	40.757	0.419	0.383
-410.355	-200.000	0.037	-0.231
-409.340	86.657	-0.231	0.258
-408.325	-200.000	0.022	-0.211
-407.311	-200.000	-0.011	0.050
-406.296	-200.000	-0.010	0.128
-405.282	-121.551	0.277	-0.046
-404.267	-39.035	0.041	-0.022
-403.252	-22.886	-0.173	-0.106
-402.238	37.949	0.064	0.058
-401.223	-200.000	-0.038	0.450
-400.209	635.622	0.043	0.109
-399.194	154.428	-0.130	-0.180
-398.179	800.000	-0.065	0.247
-397.165	148.211	0.158	0.215
-396.150	111.488	-0.178	0.217
-395.136	-100.156	-0.361	0.091
-394.121	93.573	-0.324	0.371
-393.106	800.000	0.111	0.376
-392.092	-200.000	0.058	0.282
-391.077	13.999	0.089	0.070
-390.063	-200.000	-0.000	-0.003
-389.048	116.222	0.098	-0.121
-388.033	628.257	-0.075	-0.192
-387.019	-200.000	-0.017	-0.124
-386.004	-45.679	-0.179	-0.089
-384.990	-82.925	-0.240	-0.078
-383.975	-15.586	0.132	-0.085
-382.960	291.157	-0.129	-0.237
-381.946	-195.251	-0.259	0.002
-380.931	-57.779	-0.409	0.181
-379.917	-120.767	-0.150	0.026
-378.902	404.740	0.057	-0.122
-377.888	170.844	-0.183	-0.266
-376.873	-125.430	0.114	0.018
-375.858	-48.178	-0.242	0.118
-374.844	-92.282	-0.205	-0.058
-373.829	18.882	0.250	0.202
-372.815	800.000	0.070	-0.225
-371.800	-200.000	-0.018	-0.334
-370.785	-196.809	0.057	-0.000
-369.771	800.000	0.078	-0.269
-368.756	800.000	0.110	-0.387
-367.742	94.491	0.122	0.140
-366.727	317.321	0.059	-0.113
-365.712	-125.400	0.396	-0.061
-364.698	361.230	-0.104	-0.210
-363.683	81.727	-0.107	-0.117
-362.669	-137.545	0.165	-0.019
-361.654	-66.215	-0.158	0.064
-360.639	-122.219	0.289	-0.048
-359.625	19.624	0.099	0.081
-358.610	136.327	-0.201	-0.264
-357.596	800.000	0.009	-0.039
-356.581	-143.180	-0.217	0.021
-355.566	800.000	0.044	0.179
-354.552	-200.000	0.018	0.281
-353.537	111.773	-0.000	-0.001
-352.523	137.883	-0.079	0.105
-351.508	75.593	-0.190	0.203
-350.493	33.460	-0.191	0.168
-349.479	800.000	0.032	0.136
-348.464	-200.000	0.011	-0.202
-347.450	800.000	-0.081	-0.346
-346.435	-200.000	-0.037	-0.226
-345.420	-97.050	0.230	-0.061
-344.406	-200.000	-0.037	0.213
-343.391	-147.844	0.136	0.011
-342.377	123.418	0.054	0.068
-341.362	-48.510	0.103	-0.050
-340.348	422.261	0.068	0.147
-339.333	81.587	-0.323	0.352
-338.318	-133.043	-0.422	-0.054
-337.304	-200.000	0.026	0.147
-336.289	420.453	0.162	-0.350
-335.275	62.392	0.123	-0.124
-334.260	197.172	0.072	-0.111
-333.245	-200.000	0.015	-0.243
-332.231	624.007	0.040	-0.103
-331.216	141.551	-0.116	0.155
-330.202	-73.396	-0.219	0.081
-329.187	150.235	0.067	-0.092
-328.172	-102.986	0.137	0.033
-327.158	20.339	0.251	0.205
-326.143	-151.881	0.325	-0.024
-325.129	577.651	0.098	-0.241
-324.114	403.685	0.112	-0.237
-323.099	-200.000	0.012	-0.056
-322.085	-186.961	0.069	0.001
-321.070	-2.968	-0.158	0.111
-320.056	188.336	0.067	0.101
-319.041	800.000	-0.084	0.301
-318.026	537.943	0.087	0.209
-317.012	110.149	-0.019	-0.023
-315.997	141.238	0.169	0.225
-314.983	-200.000	-0.025	-0.343
-313.968	287.114	-0.162	-0.295
-312.953	-50.717	-0.166	0.079
-311.939	-140.368	-0.159	-0.017
-310.924	-86.571	-0.270	0.083
-309.910	121.901	-0.062	-0.078
-308.895	-200.000	0.061	-0.382
-307.880	-200.000	0.022	0.168
-306.866	-107.575	-0.306	-0.067
-305.851	-27.161	-0.308	0.181
-304.837	-120.974	0.137	-0.023
-303.822	-200.000	-0.001	0.069
-302.807	-157.606	0.382	0.023
-301.793	438.048	0.061	-0.134
-300.778	28.649	-0.014	-0.012
-299.764	-15.241	-0.295	-0.190
-298.749	-1.260	-0.143	-0.102
-297.735	-159.674	0.028	0.002
-296.720	519.374	0.189	-0.445
-295.705	1.604	0.131	0.095
-294.691	-20.970	0.208	0.128
-293.676	800.000	0.083	-0.281
-292.662	800.000	0.037	-0.116
-291.647	-200.000	-0.004	-0.143
-290.632	158.027	-0.087	0.121
-289.618	800.000	0.034	-0.102
-288.603	-158.115	0.276	-0.016
-287.589	122.311	0.149	-0.188
-286.574	12.348	0.106	0.082
-285.559	140.646	-0.271	-0.360
-284.545	254.076	-0.025	-0.042
-283.530	789.174	-0.048	-0.133
-282.516	184.982	-0.151	-0.226
-281.501	-96.430	0.088	0.023
-280.486	-150.845	-0.268	-0.020
-279.472	158.575	0.069	0.096
-278.457	726.626	0.062	-0.168
-277.443	745.136	0.072	-0.194
-276.428	-123.986	-0.126	-0.020
-275.413	-61.579	-0.396	0.167
-274.399	-184.663	-0.204	0.003
-273.384	-200.000	-0.019	-0.266
-272.370	-200.000	-0.018	0.097
-271.355	800.000	0.122	-0.361
-270.340	-200.000	0.021	0.176
-269.326	-79.837	-0.298	0.101
-268.311	-4.315	-0.176	-0.123
-267.297	800.000	0.001	-0.005
-266.282	-200.000	0.063	-0.283
-265.267	-200.000	0.039	0.241
-264.253	114.728	0.129	-0.158
-263.238	-157.743	-0.108	-0.006
-262.224	-43.598	-0.137	-0.069
-261.209	-51.265	0.243	0.115
-260.195	-160.559	-0.211	0.011
-259.180	-50.409	0.570	0.271
-258.165	11.679	-0.194	0.150
-257.151	800.000	0.062	-0.227
-256.136	-200.000	0.004	0.195
-255.122	-200.000	0.045	0.319
-254.107	65.364	-0.076	-0.077
-253.092	162.831	-0.081	0.115
-252.078	-8.401	0.241	0.163
-251.063	141.872	0.062	0.083
-250.049	800.000	-0.115	-0.459
-249.034	-39.512	0.238	-0.125
-248.019	52.882	0.184	-0.177
-247.005	-29.299	-0.203	0.117
-245.990	-2.945	0.207	0.145
-244.976	-61.785	0.152	-0.064
-243.961	-34.871	-0.228	0.125
-242.946	800.000	-0.080	0.298
-241.932	28.201	-0.254	-0.215
-240.917	-89.414	0.239	0.071
-239.903	156.654	0.178	0.247
-238.888	-200.000	-0.038	0.234
-237.873	-200.000	-0.009	-0.101
-236.859	88.992	0.092	0.103
-235.844	229.090	-0.189	0.309
-234.830	11.765	0.352	0.272
-233.815	-110.838	-0.112	0.023
-232.800	625.678	-0.074	-0.187
-231.786	-111.508	-0.341	-0.070
-230.771	55.252	-0.168	0.163
-229.757	759.448	0.031	-0.086
-228.742	-75.530	0.170	0.061
-227.727	-15.156	-0.174	0.112
-226.713	-31.418	-0.192	-0.108
-225.698	70.159	0.025	0.026
-224.684	-156.253	0.156	-0.010
-223.669	412.258	-0.151	-0.323
-222.655	114.740	0.079	-0.097
-221.640	-145.598	-0.314	0.028
-220.625	26.172	0.329	0.275
-219.611	11.539	0.183	0.141
-218.596	-84.540	-0.214	0.068
-217.582	-156.439	0.208	-0.013
-216.567	293.115	0.167	0.306
-215.552	800.000	0.062	0.265
-214.538	-200.000	-0.023	-0.398
-213.523	800.000	0.089	-0.282
-212.509	-76.346	0.253	0.089
-211.494	-108.690	0.291	-0.063
-210.479	-165.983	0.199	-0.009
-209.465	14.740	0.214	-0.168
-208.450	-23.600	0.196	-0.118
-207.436	-200.000	0.047	0.210
-206.421	693.339	-0.107	-0.281
-205.406	527.627	0.069	0.163
-204.392	32.973	0.045	-0.039
-203.377	12.860	-0.155	-0.121
-202.363	52.107	0.086	0.082
-201.348	414.231	-0.030	0.063
-200.333	-72.461	-0.140	0.052
-199.319	18.596	0.258	0.207
-198.304	-134.967	0.323	-0.039
-197.290	800.000	0.047	0.185
-196.275	330.530	0.042	0.081
-195.260	-200.000	0.006	-0.064
-194.246	124.573	-0.125	0.158
-193.231	109.884	-0.113	-0.136
-192.217	267.785	0.105	0.185
-191.202	157.693	0.108	-0.150
-190.187	800.000	0.060	-0.206
-189.173	192.821	0.125	0.189
-188.158	28.266	0.142	-0.120
-187.144	-95.226	0.181	0.049
-186.129	62.193	-0.213	0.213
-185.114	19.015	-0.142	0.114
-184.100	339.393	0.123	-0.241
-183.085	-70.150	-0.207	-0.079
-182.071	149.644	0.273	0.371
-181.056	288.824	-0.024	-0.043
-180.042	-103.104	-0.397	-0.094
-179.027	4.459	0.144	0.106
-178.012	-140.341	-0.206	-0.022
-176.998	-200.000	0.015	0.274
-175.983	-200.000	-0.039	0.403
-174.969	-3.212	0.355	-0.248
-173.954	-95.953	0.180	-0.048
-172.939	-200.000	-0.010	0.114
-171.925	-96.370	-0.162	-0.043
-170.910	83.073	0.121	-0.132
-169.896	490.773	0.022	0.051
-168.881	247.146	-0.109	-0.185
-167.866	199.193	-0.056	-0.087
-166.852	164.246	0.049	-0.069
-165.837	-200.000	-0.055	-0.317
-164.823	-52.012	-0.038	0.018
-163.808	44.791	-0.230	-0.212
-162.793	270.282	-0.135	0.237
-161.779	53.188	0.165	-0.159
-160.764	28.098	-0.119	-0.101
-159.750	-106.417	-0.139	0.031
-158.735	9.419	0.221	0.167
-157.720	316.435	0.140	-0.264
-156.706	34.636	0.319	-0.279
-155.691	624.510	-0.162	0.410
-154.677	-95.284	-0.137	0.037
-153.662	373.993	-0.080	-0.162
-152.647	-49.159	0.099	-0.047
-151.633	93.346	-0.064	0.073
-150.618	173.185	0.153	0.221
-149.604	507.426	0.114	-0.265
-148.589	-102.491	0.159	-0.038
-147.574	-200.000	0.017	0.126
-146.560	79.256	0.163	0.175
-145.545	-49.378	0.086	0.041
-144.531	800.000	-0.072	0.245
-143.516	800.000	0.072	-0.299
-142.502	-7.203	0.135	0.092
-141.487	-74.269	0.255	0.092
-140.472	418.942	-0.053	-0.114
-139.458	800.000	-0.038	0.135
-138.443	333.655	0.164	-0.317
-137.429	-11.067	0.192	-0.127
-136.414	40.259	-0.120	0.108
-135.399	-153.564	0.160	-0.011
-134.385	-34.183	-0.416	0.229
-133.370	-162.176	-0.075	0.004
-132.356	485.604	0.176	-0.402
-131.341	22.793	-0.086	0.071
-130.326	333.119	0.053	0.102
-129.312	-200.000	-0.024	0.423
-128.297	-200.000	0.007	0.254
-127.283	-83.927	-0.229	0.073
-126.268	99.065	0.179	0.206
-125.253	-43.913	-0.169	-0.085
-124.239	-200.000	0.013	-0.239
-123.224	233.278	-0.172	-0.283
-122.210	-33.100	0.021	0.012
-121.195	-77.283	-0.244	-0.085
