DTS Sentinel unit serial number:	SN413079Multiplexer serial number:	ORYXHardware model number:	OX4-SRSoftware version number:	ORYX F/W v4.00 Oryx Data Collector v3.7.2.0data status	okinstallation	princeton_trtdifferential loss correction	single-endedforward channel	channel 3reverse channel	N/Adate	2019/09/14time	19:12:35forward acquisition time	60.00reverse acquisition time	0.00gamma	496.2192k internal	0.2310k external	0.2310temperature offset calibration	1.0013default loss term (dB/km)	0.3790temperature slope calibration	1.0000multiplexer offset coefficient	1.0000multiplexer slope coefficient	1.0000fibre end	0.00T internal ref (°C)	35.25T ext. ref 1 (°C)	4.85T ext. ref 2 (°C)	29.19length (m)	temperature (°C)	Stokes	anti-Stokes-747.200	-119.737	-0.512	-0.090
-746.185	-200.000	-0.045	-0.337
-745.171	223.405	-0.060	0.099
-744.156	52.496	-0.254	0.247
-743.142	421.974	-0.105	0.230
-742.127	800.000	-0.084	0.276
-741.112	275.155	-0.110	0.197
-740.098	-89.458	-0.215	0.064
-739.083	462.814	0.070	0.159
-738.069	-200.000	-0.018	0.254
-737.054	511.255	-0.141	-0.332
-736.039	-116.136	-0.236	0.044
-735.025	-95.472	-0.249	-0.068
-734.010	345.384	0.034	0.068
-732.996	3.769	-0.116	0.086
-731.981	-4.785	-0.065	-0.045
-730.966	232.634	-0.043	-0.071
-729.952	-200.000	0.000	-0.177
-728.937	-200.000	0.006	-0.045
-727.923	216.689	-0.209	0.338
-726.908	-136.820	0.281	0.033
-725.894	-192.373	-0.151	-0.001
-724.879	-200.000	-0.040	-0.391
-723.864	-77.585	-0.256	0.090
-722.850	-121.727	0.235	0.039
-721.835	257.449	-0.129	0.225
-720.821	239.306	0.053	-0.090
-719.806	257.357	-0.158	-0.275
-718.791	-48.332	-0.338	0.165
-717.777	-103.981	-0.008	0.002
-716.762	-168.295	-0.417	0.016
-715.748	42.279	0.353	0.325
-714.733	-200.000	0.109	-0.485
-713.718	-30.057	-0.161	0.093
-712.704	120.148	-0.111	-0.140
-711.689	-66.036	-0.207	-0.084
-710.675	-55.838	-0.414	-0.188
-709.660	-200.000	-0.010	0.127
-708.645	-200.000	0.002	-0.382
-707.631	-71.191	-0.153	-0.058
-706.616	-104.824	0.278	0.065
-705.602	455.526	0.132	-0.297
-704.587	800.000	-0.083	-0.309
-703.572	-194.580	0.209	0.002
-702.558	-94.112	0.297	-0.083
-701.543	753.312	0.139	-0.381
-700.529	-2.307	-0.133	-0.094
-699.514	108.924	-0.175	-0.212
-698.499	301.124	-0.194	-0.364
-697.485	-200.000	0.048	-0.283
-696.470	-121.056	0.152	0.026
-695.456	-14.880	-0.065	0.043
-694.441	-92.222	-0.191	-0.055
-693.426	113.070	0.298	-0.366
-692.412	51.200	-0.114	0.110
-691.397	356.833	-0.046	-0.092
-690.383	728.744	-0.120	-0.325
-689.368	-51.801	0.102	-0.048
-688.354	69.797	0.010	0.010
-687.339	105.399	-0.279	-0.334
-686.324	-77.825	-0.010	0.003
-685.310	-39.077	-0.126	-0.067
-684.295	-129.889	-0.125	0.017
-683.281	-200.000	0.016	-0.127
-682.266	-47.368	0.090	-0.044
-681.251	616.853	-0.031	0.079
-680.237	-112.154	0.433	0.088
-679.222	10.142	-0.206	-0.159
-678.208	5.161	-0.053	0.040
-677.193	800.000	0.065	-0.183
-676.178	-83.144	0.116	0.038
-675.164	-76.867	0.249	-0.088
-674.149	-72.633	-0.040	-0.015
-673.135	-40.474	-0.395	0.208
-672.120	140.174	-0.152	-0.203
-671.105	-85.153	0.464	-0.147
-670.091	-200.000	0.018	0.387
-669.076	800.000	0.097	-0.284
-668.062	549.861	0.123	0.297
-667.047	-33.630	0.170	0.095
-666.032	-200.000	0.009	-0.056
-665.018	-200.000	0.007	-0.118
-664.003	163.945	-0.165	0.235
-662.989	391.692	0.039	-0.082
-661.974	190.329	-0.072	-0.109
-660.959	-200.000	-0.074	0.333
-659.945	800.000	0.092	-0.279
-658.930	-37.048	0.267	0.145
-657.916	447.938	0.102	-0.226
-656.901	-200.000	-0.011	0.101
-655.886	800.000	0.088	-0.259
-654.872	800.000	-0.031	-0.133
-653.857	40.803	-0.188	-0.171
-652.843	356.371	0.084	-0.169
-651.828	-200.000	0.014	-0.067
-650.814	-200.000	0.009	-0.266
-649.799	-200.000	0.045	-0.242
-648.784	-77.847	0.364	-0.127
-647.770	-96.892	0.177	-0.047
-646.755	-120.963	-0.404	-0.069
-645.741	-200.000	-0.041	-0.288
-644.726	800.000	-0.040	0.129
-643.711	-200.000	-0.033	-0.225
-642.697	-200.000	0.046	0.211
-641.682	167.864	-0.228	0.328
-640.668	-59.994	-0.443	0.191
-639.653	15.990	0.094	-0.075
-638.638	800.000	-0.110	0.322
-637.624	111.610	-0.120	0.146
-636.609	-24.353	0.155	-0.093
-635.595	-200.000	-0.041	-0.282
-634.580	525.856	0.121	-0.289
-633.565	-155.737	-0.450	-0.029
-632.551	25.003	-0.232	-0.195
-631.536	-62.695	-0.406	-0.170
-630.522	-200.000	-0.047	-0.364
-629.507	-188.226	-0.113	0.001
-628.492	167.975	0.176	0.253
-627.478	-47.807	-0.160	-0.078
-626.463	-41.960	0.053	0.028
-625.449	293.514	-0.017	0.031
-624.434	60.274	-0.179	0.179
-623.419	-200.000	-0.039	-0.195
-622.405	85.177	-0.195	0.216
-621.390	-3.193	-0.031	0.022
-620.376	281.337	0.140	-0.253
-619.361	-41.420	-0.169	0.088
-618.346	-195.537	0.475	-0.004
-617.332	138.426	-0.134	-0.178
-616.317	-10.903	0.133	0.089
-615.303	-150.723	0.176	-0.014
-614.288	-88.951	-0.089	-0.027
-613.273	-75.610	-0.118	-0.042
-612.259	-200.000	0.012	-0.252
-611.244	800.000	-0.085	-0.249
-610.230	-67.871	-0.203	0.080
-609.215	115.398	-0.162	-0.200
-608.201	-149.772	-0.166	-0.013
-607.186	-81.108	0.162	0.054
-606.171	800.000	-0.025	-0.069
-605.157	35.783	0.317	-0.281
-604.142	329.769	-0.070	-0.137
-603.128	800.000	0.075	-0.246
-602.113	319.787	-0.163	-0.313
-601.098	-200.000	-0.064	0.326
-600.084	800.000	-0.035	0.104
-599.069	-145.907	0.100	-0.009
-598.055	800.000	0.070	-0.222
-597.040	70.931	0.259	-0.271
-596.025	-172.310	-0.197	-0.006
-595.011	6.325	-0.122	-0.091
-593.996	-200.000	-0.031	0.154
-592.982	-54.474	-0.034	-0.016
-591.967	-71.560	0.204	-0.077
-590.952	-200.000	0.011	-0.181
-589.938	380.970	-0.081	0.167
-588.923	-200.000	0.007	0.060
-587.909	800.000	0.090	0.267
-586.894	36.881	-0.086	0.077
-585.879	613.609	-0.060	-0.152
-584.865	20.990	0.200	0.164
-583.850	-200.000	0.011	0.230
-582.836	163.429	-0.020	0.028
-581.821	-6.746	0.175	0.120
-580.806	-200.000	-0.045	-0.206
-579.792	800.000	0.046	-0.153
-578.777	-90.659	-0.110	-0.032
-577.763	-70.210	0.199	0.076
-576.748	574.895	-0.074	0.183
-575.733	-200.000	0.067	0.369
-574.719	-200.000	0.033	-0.470
-573.704	319.731	0.110	0.210
-572.690	-200.000	0.007	-0.327
-571.675	279.399	0.212	-0.381
-570.661	-41.107	-0.136	-0.071
-569.646	-44.605	0.120	-0.061
-568.631	-200.000	-0.028	0.217
-567.617	65.863	0.249	-0.254
-566.602	258.743	-0.126	-0.219
-565.588	-200.000	0.081	0.365
-564.573	147.968	-0.048	-0.065
-563.558	-24.722	-0.159	-0.095
-562.544	-200.000	-0.027	0.185
-561.529	-166.910	0.231	0.010
-560.515	-60.133	0.242	-0.104
-559.500	199.711	-0.058	-0.090
-558.485	800.000	0.056	-0.216
-557.471	-200.000	0.000	0.247
-556.456	145.921	0.135	0.183
-555.442	800.000	0.104	-0.321
-554.427	2.705	0.093	0.068
-553.412	-143.816	-0.464	-0.044
-552.398	56.250	-0.157	-0.154
-551.383	35.449	0.138	-0.122
-550.369	336.999	0.021	0.041
-549.354	589.468	0.066	-0.163
-548.339	-109.511	0.183	0.039
-547.325	39.005	0.080	-0.072
-546.310	76.755	-0.053	0.056
-545.296	-114.354	0.231	-0.045
-544.281	800.000	0.039	-0.116
-543.266	-14.167	-0.200	0.130
-542.252	-105.506	-0.344	-0.079
-541.237	433.961	-0.034	0.074
-540.223	698.224	-0.165	0.437
-539.208	128.506	-0.055	0.070
-538.193	-114.328	-0.257	-0.050
-537.179	-80.372	0.083	-0.028
-536.164	-44.873	-0.051	0.026
-535.150	-200.000	-0.030	0.200
-534.135	39.707	0.168	-0.151
-533.121	800.000	-0.044	-0.193
-532.106	-63.345	-0.201	-0.083
-531.091	-148.060	-0.242	0.020
-530.077	-80.117	0.323	0.109
-529.062	-200.000	-0.007	-0.097
-528.048	322.826	0.077	0.148
-527.033	616.919	-0.040	-0.100
-526.018	-5.502	0.239	-0.165
-525.004	278.500	-0.135	0.242
-523.989	219.619	0.173	-0.279
-522.975	-200.000	0.039	-0.170
-521.960	-60.963	-0.399	-0.170
-520.945	-116.430	-0.364	0.068
-519.931	-200.000	0.010	-0.228
-518.916	111.643	0.158	-0.191
-517.902	-75.860	-0.341	-0.122
-516.887	-31.884	0.282	-0.159
-515.872	290.149	-0.040	0.073
-514.858	119.034	-0.192	-0.239
-513.843	-182.352	0.200	-0.004
-512.829	105.451	-0.140	0.166
-511.814	-191.740	0.057	0.001
-510.799	-98.534	-0.183	-0.047
-509.785	800.000	-0.028	0.103
-508.770	228.336	-0.149	-0.244
-507.756	347.265	0.166	-0.329
-506.741	800.000	-0.086	-0.313
-505.726	-4.698	0.200	-0.139
-504.712	152.323	0.202	0.277
-503.697	800.000	0.032	0.138
-502.683	-86.965	-0.174	0.053
-501.668	-63.726	-0.163	0.067
-500.653	-73.761	-0.037	0.014
-499.639	105.164	0.031	0.037
-498.624	-1.964	0.096	0.068
-497.610	-83.485	0.151	-0.049
-496.595	-138.940	0.138	-0.015
-495.581	-125.726	-0.226	-0.034
-494.566	-200.000	0.000	0.217
-493.551	83.800	-0.111	-0.122
-492.537	800.000	0.056	-0.184
-491.522	122.302	-0.123	0.155
-490.508	-22.270	-0.245	-0.150
-489.493	-193.411	-0.252	0.002
-488.478	-135.403	-0.446	-0.054
-487.464	-51.021	-0.343	-0.162
-486.449	-200.000	0.023	0.111
-485.435	418.317	-0.119	0.255
-484.420	-101.524	0.194	0.047
-483.405	459.892	-0.112	0.250
-482.391	-87.986	-0.312	0.094
-481.376	-4.777	0.122	0.085
-480.362	-51.706	0.180	-0.084
-479.347	-64.853	0.226	-0.092
-478.332	800.000	0.034	-0.114
-477.318	6.438	-0.024	0.018
-476.303	-200.000	0.017	-0.308
-475.289	-200.000	0.003	0.217
-474.274	59.846	0.280	0.278
-473.259	149.762	0.246	0.335
-472.245	80.995	0.271	0.294
-471.230	-200.000	-0.008	0.236
-470.216	411.848	0.197	0.421
-469.201	-24.355	0.298	0.179
-468.186	85.389	0.197	-0.217
-467.172	-200.000	0.036	-0.257
-466.157	172.793	-0.107	-0.154
-465.143	9.047	-0.157	-0.119
-464.128	-172.615	-0.128	0.004
-463.113	-200.000	-0.013	-0.174
-462.099	800.000	-0.078	0.222
-461.084	706.703	-0.006	0.017
-460.070	-44.206	-0.314	-0.158
-459.055	-200.000	0.013	-0.277
-458.040	71.029	0.122	0.127
-457.026	-200.000	-0.058	-0.341
-456.011	-41.181	-0.197	-0.102
-454.997	139.378	0.156	0.206
-453.982	800.000	-0.082	-0.304
-452.968	-62.231	-0.205	-0.086
-451.953	-5.565	0.229	0.158
-450.938	27.734	-0.224	0.189
-449.924	-200.000	0.030	0.291
-448.909	1.779	-0.153	-0.111
-447.895	707.539	0.043	0.113
-446.880	-40.915	-0.228	-0.119
-445.865	800.000	-0.053	0.183
-444.851	164.424	0.227	0.321
-443.836	-115.351	0.148	-0.028
-442.822	119.357	-0.179	-0.222
-441.807	-101.865	-0.298	-0.072
-440.792	-58.871	0.078	0.034
-439.778	-69.305	0.156	-0.060
-438.763	290.320	0.119	-0.216
-437.749	-132.937	0.354	0.045
-436.734	-95.421	0.112	-0.030
-435.719	-65.694	0.055	0.022
-434.705	-44.943	0.094	0.047
-433.690	-200.000	-0.016	-0.133
-432.676	744.712	0.001	-0.003
-431.661	53.251	-0.119	0.114
-430.646	-72.938	0.116	0.043
-429.632	300.109	-0.118	0.218
-428.617	440.935	-0.154	-0.337
-427.603	-6.913	0.160	-0.109
-426.588	684.710	-0.091	0.238
-425.573	38.961	0.133	-0.120
-424.559	-200.000	-0.071	-0.367
-423.544	-111.813	-0.231	0.047
-422.530	-135.767	-0.453	0.054
-421.515	-137.182	-0.162	-0.019
-420.500	192.349	0.217	0.328
-419.486	-129.197	0.077	0.011
-418.471	-117.365	0.236	0.043
-417.457	2.590	0.183	0.133
-416.442	800.000	0.049	0.174
-415.428	491.314	0.090	0.207
-414.413	-10.428	0.142	-0.095
-413.398	508.543	0.036	-0.083
-412.384	-200.000	-0.018	0.296
-411.369	-85.170	0.147	0.046
-410.355	481.913	-0.104	0.236
-409.340	-83.913	0.141	-0.045
-408.325	251.271	0.074	-0.126
-407.311	386.544	-0.062	-0.128
-406.296	-178.597	-0.143	-0.003
-405.282	118.485	0.342	0.424
-404.267	259.754	-0.126	-0.218
-403.252	24.160	-0.042	-0.035
-402.238	52.924	-0.131	0.125
-401.223	607.395	0.168	0.419
-400.209	-143.526	-0.202	0.019
-399.194	179.208	0.059	-0.086
-398.179	52.985	0.173	0.166
-397.165	-68.046	-0.070	0.027
-396.150	13.542	0.106	0.082
-395.136	333.402	-0.144	-0.278
-394.121	-200.000	-0.029	-0.164
-393.106	-98.994	0.329	0.084
-392.092	578.858	-0.119	0.291
-391.077	800.000	0.180	0.537
-390.063	789.495	0.066	0.182
-389.048	124.428	0.173	-0.217
-388.033	-133.791	0.230	0.029
-387.019	202.230	0.079	0.122
-386.004	-58.159	-0.124	0.054
-384.990	190.014	0.257	-0.387
-383.975	86.821	0.031	0.034
-382.960	2.135	-0.117	-0.085
-381.946	74.165	0.211	0.222
-380.931	78.303	0.031	0.033
-379.917	171.728	0.197	-0.283
-378.902	-59.335	0.307	-0.132
-377.888	-163.720	-0.227	0.011
-376.873	-157.817	0.068	0.004
-375.858	414.973	0.094	-0.201
-374.844	15.231	-0.103	-0.081
-373.829	305.997	-0.224	-0.417
-372.815	-109.388	-0.270	-0.057
-371.800	-6.650	0.097	-0.066
-370.785	236.960	-0.121	0.201
-369.771	-200.000	0.185	-0.001
-368.756	-122.362	-0.263	0.043
-367.742	3.590	0.138	0.100
-366.727	-147.413	0.155	-0.013
-365.712	-115.442	-0.159	0.030
-364.698	800.000	-0.066	0.230
-363.683	-79.984	-0.196	-0.066
-362.669	-22.296	0.316	-0.191
-361.654	197.908	0.120	0.184
-360.639	66.744	-0.028	-0.029
-359.625	-49.245	0.334	0.160
-358.610	-106.983	0.311	0.069
-357.596	84.682	-0.129	0.141
-356.581	-139.986	0.327	0.035
-355.566	318.440	-0.044	-0.083
-354.552	10.483	-0.196	0.149
-353.537	-120.040	-0.147	0.025
-352.523	51.214	0.167	-0.158
-351.508	-200.000	0.035	-0.198
-350.493	-200.000	0.008	-0.039
-349.479	41.971	-0.177	0.161
-348.464	-85.715	0.151	0.047
-347.450	270.913	-0.039	-0.069
-346.435	256.503	0.233	0.400
-345.420	-45.731	0.189	-0.094
-344.406	-200.000	-0.027	0.135
-343.391	116.313	0.227	0.279
-342.377	-43.203	0.187	0.095
-341.362	-200.000	-0.006	0.216
-340.348	306.310	-0.059	0.109
-339.333	800.000	-0.091	0.291
-338.318	800.000	0.057	-0.202
-337.304	457.528	-0.107	0.237
-336.289	-171.208	0.226	0.008
-335.275	-104.322	0.167	-0.039
-334.260	118.653	-0.114	-0.140
-333.245	-200.000	0.014	0.100
-332.231	101.484	0.216	-0.251
-331.216	800.000	-0.064	-0.195
-330.202	37.696	-0.021	0.019
-329.187	-11.124	-0.135	0.089
-328.172	208.354	-0.155	-0.242
-327.158	-76.833	0.053	0.019
-326.143	-60.361	0.330	0.140
-325.129	-109.597	0.162	-0.034
-324.114	800.000	-0.056	-0.163
-323.099	-136.407	-0.232	-0.027
-322.085	-200.000	-0.013	-0.172
-321.070	800.000	-0.039	0.145
-320.056	3.521	0.014	0.010
-319.041	198.526	-0.076	0.116
-318.026	-52.804	-0.423	0.195
-317.012	-200.000	0.025	0.158
-315.997	-56.958	0.246	0.109
-314.983	7.043	-0.100	0.074
-313.968	42.196	0.018	0.017
-312.953	-15.913	0.088	-0.056
-311.939	-68.752	0.099	0.038
-310.924	550.421	0.033	0.079
-309.910	51.101	0.195	0.185
-308.895	-200.000	0.027	0.142
-307.880	-45.322	-0.227	0.112
-306.866	-55.665	0.401	-0.179
-305.851	-200.000	0.055	-0.486
-304.837	-103.656	0.407	0.095
-303.822	-62.109	-0.255	0.106
-302.807	179.629	0.061	-0.089
-301.793	70.240	-0.182	0.187
-300.778	-142.444	0.295	0.029
-299.764	40.401	0.063	-0.057
-298.749	-136.005	0.243	-0.029
-297.735	-64.174	0.136	0.055
-296.720	-34.789	-0.118	-0.064
-295.705	-113.180	-0.138	-0.027
-294.691	-25.336	0.385	0.227
-293.676	-200.000	0.016	-0.136
-292.662	-200.000	0.025	0.383
-291.647	-98.671	0.188	0.048
-290.632	-26.847	0.015	0.009
-289.618	-5.158	0.059	-0.041
-288.603	-200.000	0.016	-0.110
-287.589	-4.147	-0.109	-0.075
-286.574	-127.541	0.129	-0.019
-285.559	95.741	0.074	-0.084
-284.545	265.515	0.098	0.171
-283.530	-154.387	-0.411	0.028
-282.516	299.138	0.183	0.337
-281.501	69.615	0.304	0.313
-280.486	-30.964	-0.334	0.188
-279.472	-179.484	-0.283	-0.006
-278.457	-200.000	-0.042	0.384
-277.443	-47.550	-0.347	-0.168
-276.428	67.937	0.261	-0.267
-275.413	800.000	0.087	0.325
-274.399	-130.972	0.096	-0.013
-273.384	-72.959	0.221	-0.081
-272.370	502.601	-0.051	0.117
-271.355	-200.000	0.021	-0.203
-270.340	-77.732	0.024	0.008
-269.326	-200.000	0.035	0.242
-268.311	102.077	-0.232	0.270
-267.297	-33.434	-0.149	0.082
-266.282	421.142	-0.069	0.147
-265.267	-31.341	0.088	0.050
-264.253	-200.000	-0.030	-0.141
-263.238	-26.014	-0.303	-0.177
-262.224	800.000	-0.013	-0.046
-261.209	-105.434	-0.435	0.099
-260.195	-97.687	-0.091	0.023
-259.180	222.471	0.087	-0.139
-258.165	293.078	-0.031	-0.056
-257.151	225.328	-0.061	-0.098
-256.136	-7.464	-0.051	0.035
-255.122	-30.004	0.159	-0.090
-254.107	162.859	0.113	0.158
-253.092	4.478	-0.261	-0.191
-252.078	126.127	0.165	-0.208
-251.063	-200.000	-0.044	-0.230
-250.049	-132.524	0.243	0.031
-249.034	48.283	-0.208	0.194
-248.019	-142.393	0.318	0.031
-247.005	-200.000	-0.047	-0.308
-245.990	209.584	0.101	-0.158
-244.976	-92.061	-0.142	-0.040
-243.961	-143.280	-0.204	-0.019
-242.946	-200.000	0.003	0.146
-241.932	800.000	-0.091	0.268
-240.917	-167.370	-0.298	0.012
-239.903	-106.990	0.099	-0.022
-238.888	31.068	0.105	-0.090
-237.873	-7.428	-0.331	-0.223
-236.859	-2.331	-0.168	0.118
-235.844	-92.855	0.269	-0.075
-234.830	800.000	-0.067	-0.231
-233.815	-119.131	0.177	-0.031
-232.800	-113.225	-0.300	0.059
-231.786	-200.000	-0.009	0.118
-230.771	-200.000	0.022	0.145
-229.757	161.046	0.125	0.174
-228.742	159.420	0.172	0.239
-227.727	-85.429	-0.064	0.020
-226.713	646.361	-0.111	-0.282
-225.698	121.465	-0.127	0.157
-224.684	800.000	-0.052	-0.184
-223.669	-125.115	-0.273	-0.042
-222.655	336.364	0.136	0.262
-221.640	-20.404	0.189	-0.116
-220.625	-197.756	-0.302	0.002
-219.611	-161.032	0.193	0.010
-218.596	230.926	-0.108	-0.176
-217.582	-91.310	-0.079	-0.022
-216.567	127.790	-0.054	0.068
-215.552	101.855	-0.096	-0.112
-214.538	93.121	0.326	0.366
-213.523	-107.010	0.236	-0.052
-212.509	-14.412	-0.304	-0.195
-211.494	-101.873	-0.353	-0.085
-210.479	-153.033	-0.116	-0.008
-209.465	-161.502	-0.250	-0.013
-208.450	-200.000	0.011	-0.175
-207.436	183.299	-0.121	0.178
-206.421	-86.940	0.255	-0.077
-205.406	-171.409	0.205	0.007
-204.392	-200.000	-0.052	0.402
-203.377	177.902	0.052	0.076
-202.363	565.250	0.149	0.360
-201.348	136.922	-0.083	0.108
-200.333	43.959	-0.158	-0.144
-199.319	238.275	-0.146	-0.242
-198.304	-200.000	0.021	0.196
-197.290	49.122	0.150	-0.140
-196.275	404.892	-0.059	0.124
-195.260	389.731	-0.112	0.230
-194.246	-35.695	0.232	-0.125
-193.231	-200.000	-0.021	-0.222
-192.217	559.349	-0.004	-0.010
-191.202	166.451	0.156	-0.220
-190.187	26.513	-0.226	0.187
-189.173	-200.000	0.001	0.118
-188.158	-5.754	0.359	-0.245
-187.144	-200.000	0.010	-0.326
-186.129	-162.890	-0.276	-0.013
-185.114	-79.797	0.033	-0.011
-184.100	291.536	0.041	0.075
-183.085	37.572	0.090	0.080
-182.071	800.000	-0.023	0.080
-181.056	800.000	-0.095	-0.299
-180.042	-10.210	-0.224	-0.147
-179.027	800.000	-0.041	-0.162
-178.012	78.593	0.105	-0.112
-176.998	800.000	-0.051	0.159
-175.983	-200.000	0.016	0.082
-174.969	800.000	-0.078	0.213
-173.954	-36.330	0.225	-0.121
-172.939	69.048	-0.241	0.246
-171.925	800.000	0.205	-0.585
-170.910	26.078	0.079	0.065
-169.896	95.507	0.148	-0.167
-168.881	-69.487	0.242	-0.092
-167.866	-179.593	-0.414	0.009
-166.852	2.570	-0.225	-0.162
-165.837	12.730	-0.084	-0.064
-164.823	-51.944	0.297	0.137
-163.808	398.127	0.161	0.334
-162.793	-200.000	-0.030	0.192
-161.779	86.525	-0.176	0.192
-160.764	-200.000	-0.040	0.229
-159.750	-29.433	0.095	0.054
-158.735	-200.000	0.002	-0.169
-157.720	142.280	0.127	-0.167
-156.706	-200.000	0.125	0.000
-155.691	-78.079	-0.070	-0.024
-154.677	-200.000	0.014	0.228
-153.662	88.042	-0.138	-0.152
-152.647	64.782	0.035	-0.035
-151.633	-106.388	-0.266	-0.059
-150.618	-200.000	0.022	0.365
-149.604	182.820	-0.027	0.040
-148.589	-14.633	0.374	0.239
-147.574	-200.000	-0.010	0.178
-146.560	-144.049	-0.117	-0.011
-145.545	-62.702	-0.233	0.096
-144.531	246.321	-0.033	-0.055
-143.516	-200.000	-0.014	0.156
-142.502	-200.000	0.002	-0.091
-141.487	394.615	-0.213	0.441
-140.472	-200.000	0.043	-0.254
-139.458	537.466	0.084	0.198
-138.443	-19.418	0.389	-0.239
-137.429	800.000	0.057	0.187
-136.414	-200.000	-0.026	-0.354
-135.399	28.867	0.175	-0.147
-134.385	-50.974	-0.060	-0.028
-133.370	130.780	0.027	-0.034
-132.356	505.499	-0.192	-0.442
-131.341	356.428	-0.029	-0.057
-130.326	-200.000	0.021	0.115
-129.312	-168.493	0.371	-0.014
-128.297	189.164	-0.240	0.357
-127.283	-200.000	0.018	-0.148
-126.268	800.000	0.015	0.052
-125.253	151.860	0.188	-0.253
-124.239	-121.238	0.274	0.045
-123.224	-119.854	0.207	0.035
-122.210	-28.701	0.224	-0.128
