DTS Sentinel unit serial number:	SN413079Multiplexer serial number:	ORYXHardware model number:	OX4-SRSoftware version number:	ORYX F/W v4.00 Oryx Data Collector v3.7.2.0data status	okinstallation	princeton_trtdifferential loss correction	single-endedforward channel	channel 3reverse channel	N/Adate	2019/09/11time	13:38:10forward acquisition time	60.00reverse acquisition time	0.00gamma	496.2192k internal	0.2293k external	0.2293temperature offset calibration	0.9978default loss term (dB/km)	0.3790temperature slope calibration	1.0000multiplexer offset coefficient	1.0000multiplexer slope coefficient	1.0000fibre end	0.00T internal ref (°C)	41.94T ext. ref 1 (°C)	0.84T ext. ref 2 (°C)	35.76length (m)	temperature (°C)	Stokes	anti-Stokes-747.200	-119.810	0.101	-0.018
-746.185	800.000	0.089	0.382
-745.171	800.000	-0.018	0.069
-744.156	103.078	-0.132	-0.158
-743.142	-200.000	0.011	0.125
-742.127	800.000	-0.066	0.282
-741.112	-200.000	0.026	0.315
-740.098	107.743	-0.108	0.131
-739.083	-53.153	0.323	0.152
-738.069	181.402	0.151	0.227
-737.054	107.228	0.218	0.265
-736.039	25.452	-0.218	0.185
-735.025	35.514	0.387	-0.348
-734.010	-84.404	0.215	-0.069
-732.996	52.628	-0.251	-0.245
-731.981	-200.000	-0.020	-0.091
-730.966	307.217	0.250	0.476
-729.952	800.000	-0.063	-0.229
-728.937	627.268	-0.082	-0.213
-727.923	-7.645	-0.281	0.194
-726.908	800.000	0.103	-0.301
-725.894	86.117	0.154	0.173
-724.879	-37.548	0.318	-0.173
-723.864	239.586	0.032	0.055
-722.850	-8.362	0.169	-0.116
-721.835	800.000	0.070	-0.306
-720.821	98.954	-0.111	0.131
-719.806	275.995	0.113	-0.204
-718.791	-200.000	-0.040	-0.202
-717.777	800.000	0.039	-0.119
-716.762	-200.000	-0.000	0.221
-715.748	19.397	-0.064	-0.053
-714.733	-200.000	-0.052	-0.237
-713.718	800.000	0.132	-0.387
-712.704	117.254	0.165	-0.208
-711.689	537.907	-0.125	0.302
-710.675	-152.320	-0.200	-0.015
-709.660	26.776	0.160	0.137
-708.645	-58.798	-0.239	-0.106
-707.631	-200.000	-0.019	0.189
-706.616	-200.000	-0.030	0.237
-705.602	-200.000	0.035	0.184
-704.587	800.000	-0.010	0.040
-703.572	-200.000	0.015	0.140
-702.558	36.481	0.172	0.155
-701.543	-143.575	-0.126	0.012
-700.529	-100.851	0.172	0.043
-699.514	645.680	-0.123	0.321
-698.499	10.742	-0.178	-0.139
-697.485	310.785	-0.070	0.134
-696.470	-200.000	0.028	-0.171
-695.456	-84.489	-0.130	0.042
-694.441	-200.000	0.091	-0.000
-693.426	672.764	-0.087	0.231
-692.412	101.949	0.222	-0.265
-691.397	-85.484	-0.161	-0.051
-690.383	26.704	0.151	-0.129
-689.368	-152.662	-0.194	0.014
-688.354	333.176	0.100	0.197
-687.339	-97.277	-0.141	0.038
-686.324	-188.887	-0.112	-0.001
-685.310	-200.000	-0.028	0.257
-684.295	99.104	0.067	0.079
-683.281	289.713	-0.164	-0.303
-682.266	11.009	0.137	0.107
-681.251	800.000	-0.116	-0.489
-680.237	-200.000	0.004	0.049
-679.222	800.000	0.044	-0.163
-678.208	-54.101	0.097	-0.045
-677.193	-83.168	-0.413	-0.135
-676.178	-200.000	-0.007	-0.122
-675.164	372.355	0.126	0.261
-674.149	190.777	-0.066	0.102
-673.135	161.425	-0.264	-0.377
-672.120	190.172	-0.180	0.276
-671.105	43.912	-0.146	-0.136
-670.091	-33.389	-0.138	-0.078
-669.076	-3.529	0.256	0.182
-668.062	44.232	-0.157	0.147
-667.047	446.558	-0.025	-0.056
-666.032	-141.613	0.184	0.019
-665.018	-139.568	0.236	-0.026
-664.003	-106.455	-0.126	0.029
-662.989	175.780	-0.031	0.046
-661.974	313.005	0.109	-0.209
-660.959	111.909	0.095	-0.117
-659.945	-200.000	-0.005	-0.097
-658.930	115.550	-0.115	-0.143
-657.916	800.000	0.089	-0.375
-656.901	-200.000	0.068	-0.335
-655.886	-193.916	-0.185	0.002
-654.872	-100.899	-0.161	-0.040
-653.857	-131.449	0.179	0.024
-652.843	728.553	0.058	0.159
-651.828	-200.000	0.003	-0.208
-650.814	-126.889	-0.149	-0.022
-649.799	353.854	0.080	0.161
-648.784	-43.318	-0.420	-0.217
-647.770	-120.438	-0.532	0.092
-646.755	161.715	-0.072	0.103
-645.741	-200.000	0.046	-0.318
-644.726	-183.872	-0.115	0.002
-643.711	800.000	0.052	0.181
-642.697	18.823	-0.284	-0.232
-641.682	-57.245	0.174	-0.078
-640.668	-139.236	0.174	-0.019
-639.653	63.493	-0.192	-0.196
-638.638	-31.482	0.175	0.100
-637.624	-200.000	0.073	0.436
-636.609	-158.037	-0.081	-0.005
-635.595	35.732	-0.246	0.221
-634.580	8.502	-0.112	0.086
-633.565	-101.182	-0.173	0.043
-632.551	-200.000	-0.047	-0.418
-631.536	159.347	0.205	-0.291
-630.522	10.502	-0.365	-0.283
-629.507	358.318	0.212	-0.432
-628.492	78.168	-0.082	-0.089
-627.478	-200.000	-0.041	-0.293
-626.463	-62.936	-0.086	-0.036
-625.449	800.000	0.072	0.207
-624.434	-182.479	-0.067	0.001
-623.419	30.309	0.202	-0.176
-622.405	-121.038	0.124	0.021
-621.390	-51.953	-0.211	-0.100
-620.376	-53.317	-0.246	0.115
-619.361	-200.000	-0.049	-0.469
-618.346	22.649	-0.372	-0.310
-617.332	-200.000	-0.062	-0.376
-616.317	6.304	0.087	0.065
-615.303	-1.750	-0.133	-0.095
-614.288	308.957	-0.177	-0.336
-613.273	-159.652	-0.320	-0.018
-612.259	-200.000	-0.027	-0.165
-611.244	126.429	0.237	-0.305
-610.230	42.113	0.312	-0.289
-609.215	-72.717	-0.335	-0.126
-608.201	-118.643	-0.246	-0.044
-607.186	28.973	0.040	-0.035
-606.171	299.829	-0.141	0.264
-605.157	73.508	-0.392	0.418
-604.142	-200.000	-0.010	-0.067
-603.128	-200.000	-0.029	-0.207
-602.113	-160.852	0.236	-0.013
-601.098	800.000	-0.075	0.271
-600.084	56.563	0.154	-0.153
-599.069	16.023	0.117	-0.094
-598.055	-24.143	-0.158	0.096
-597.040	-200.000	-0.004	-0.334
-596.025	-41.912	-0.432	-0.225
-595.011	59.812	-0.215	-0.216
-593.996	27.501	-0.145	0.124
-592.982	-200.000	0.000	0.047
-591.967	800.000	0.058	0.189
-590.952	-200.000	-0.043	0.267
-589.938	-45.161	-0.140	-0.071
-588.923	-121.093	-0.278	-0.047
-587.909	-200.000	-0.023	-0.213
-586.894	-200.000	0.031	-0.161
-585.879	46.654	-0.046	-0.043
-584.865	203.951	-0.065	-0.102
-583.850	632.936	0.096	-0.247
-582.836	227.247	-0.230	-0.380
-581.821	-200.000	-0.039	-0.304
-580.806	-143.979	-0.172	0.016
-579.792	61.420	-0.132	0.133
-578.777	56.031	-0.153	-0.151
-577.763	-28.300	-0.158	0.093
-576.748	111.672	0.235	-0.288
-575.733	380.649	0.082	-0.171
-574.719	-104.184	0.237	0.056
-573.704	-121.620	-0.092	0.015
-572.690	97.604	0.105	0.123
-571.675	89.489	0.304	0.344
-570.661	143.400	0.144	-0.194
-569.646	124.844	-0.119	-0.152
-568.631	58.308	0.265	-0.264
-567.617	-200.000	0.002	-0.396
-566.602	-109.714	-0.041	0.009
-565.588	231.017	0.183	-0.304
-564.573	-104.305	-0.131	0.031
-563.558	300.624	-0.164	0.307
-562.544	-33.358	0.219	-0.123
-561.529	458.025	0.147	-0.331
-560.515	-3.412	0.228	-0.161
-559.500	78.713	-0.212	0.231
-558.485	-54.585	0.169	-0.078
-557.471	82.949	-0.376	-0.416
-556.456	160.274	0.129	-0.183
-555.442	-88.850	-0.280	-0.084
-554.427	317.907	-0.103	-0.198
-553.412	-134.242	0.196	0.025
-552.398	-98.458	-0.257	-0.067
-551.383	299.165	0.081	0.151
-550.369	-34.284	-0.079	0.044
-549.354	-157.492	-0.415	0.025
-548.339	144.608	0.057	0.078
-547.325	800.000	-0.063	0.229
-546.310	476.720	0.128	0.294
-545.296	-103.615	-0.061	-0.015
-544.281	-140.912	-0.082	0.009
-543.266	5.572	-0.326	-0.245
-542.252	-152.811	-0.176	0.013
-541.237	-54.191	0.331	-0.153
-540.223	-200.000	-0.014	0.144
-539.208	-74.289	-0.164	-0.060
-538.193	102.837	0.260	0.309
-537.179	-200.000	-0.039	0.264
-536.164	-132.644	0.230	0.030
-535.150	800.000	-0.078	0.334
-534.135	259.431	-0.126	-0.221
-533.121	272.957	0.069	0.123
-532.106	37.905	0.144	-0.130
-531.091	212.975	0.149	-0.239
-530.077	800.000	0.049	0.173
-529.062	55.274	-0.128	-0.125
-528.048	-34.198	0.044	-0.025
-527.033	41.022	0.033	-0.030
-526.018	41.738	-0.117	0.108
-525.004	-145.411	0.213	0.019
-523.989	800.000	-0.074	0.291
-522.975	-84.647	-0.050	-0.016
-521.960	-168.659	-0.240	-0.009
-520.945	-92.883	-0.138	-0.039
-519.931	219.528	0.040	0.064
-518.916	-200.000	0.013	0.161
-517.902	-52.241	0.083	0.039
-516.887	-13.832	-0.336	-0.221
-515.872	63.110	0.052	-0.053
-514.858	800.000	0.137	-0.436
-513.843	-200.000	0.029	-0.246
-512.829	115.825	-0.187	0.231
-511.814	-8.090	-0.138	0.094
-510.799	-116.835	0.130	-0.024
-509.785	29.387	0.100	0.086
-508.770	291.052	0.166	0.306
-507.756	180.807	0.107	0.159
-506.741	163.598	-0.089	-0.127
-505.726	54.673	0.120	0.117
-504.712	-154.688	-0.030	-0.002
-503.697	-65.069	0.148	-0.060
-502.683	640.147	0.100	0.257
-501.668	-109.324	-0.417	0.090
-500.653	-149.445	0.222	0.018
-499.639	-200.000	0.029	-0.447
-498.624	-87.378	0.359	0.110
-497.610	-153.544	-0.339	-0.024
-496.595	-101.969	-0.147	-0.036
-495.581	-82.626	0.342	0.112
-494.566	62.221	-0.172	-0.174
-493.551	726.930	0.054	-0.147
-492.537	-200.000	-0.042	0.444
-491.522	163.279	0.070	-0.099
-490.508	177.441	0.122	0.180
-489.493	-75.701	0.324	-0.117
-488.478	8.838	-0.126	0.097
-487.464	-200.000	0.009	-0.347
-486.449	-200.000	0.024	0.165
-485.435	-73.713	-0.295	0.109
-484.420	-57.136	0.069	-0.031
-483.405	800.000	-0.072	-0.230
-482.391	296.975	0.159	0.296
-481.376	-158.596	-0.070	-0.004
-480.362	76.071	0.201	0.216
-479.347	-200.000	-0.033	-0.180
-478.332	182.323	0.168	0.251
-477.318	-200.000	0.020	-0.089
-476.303	389.950	-0.081	-0.170
-475.289	105.266	0.136	-0.162
-474.274	71.734	-0.070	0.073
-473.259	65.565	0.033	-0.034
-472.245	-25.036	-0.231	0.138
-471.230	-81.775	-0.205	0.068
-470.216	-115.739	-0.425	0.081
-469.201	-94.621	-0.222	-0.061
-468.186	421.669	0.070	0.152
-467.172	50.463	-0.203	0.194
-466.157	-21.306	0.340	0.210
-465.143	-103.790	0.082	-0.019
-464.128	-56.609	-0.127	-0.057
-463.113	138.533	-0.131	-0.173
-462.099	-200.000	-0.023	-0.221
-461.084	-93.412	0.447	-0.125
-460.070	1.100	-0.231	-0.168
-459.055	-141.776	0.267	0.027
-458.040	75.580	0.063	0.068
-457.026	-200.000	0.058	0.257
-456.011	29.603	0.085	0.073
-454.997	38.837	0.168	-0.152
-453.982	4.322	0.162	0.120
-452.968	-168.805	-0.099	-0.004
-451.953	467.665	0.051	-0.115
-450.938	-142.642	-0.221	0.022
-449.924	76.787	0.102	-0.109
-448.909	137.565	0.105	-0.139
-447.895	-200.000	0.037	0.358
-446.880	-122.057	-0.259	0.043
-445.865	-110.049	-0.293	-0.062
-444.851	70.426	-0.282	-0.294
-443.836	6.579	0.181	-0.136
-442.822	-52.140	-0.284	0.133
-441.807	-19.321	0.108	0.068
-440.792	59.034	0.088	0.087
-439.778	-35.695	0.224	0.123
-438.763	-200.000	0.011	-0.084
-437.749	-83.553	0.321	-0.104
-436.734	-55.106	0.066	-0.030
-435.719	127.496	0.117	0.150
-434.705	96.647	0.147	0.170
-433.690	178.173	-0.082	0.121
-432.676	-200.000	0.023	-0.171
-431.661	-200.000	-0.056	0.349
-430.646	-180.248	-0.331	-0.007
-429.632	314.039	0.241	0.458
-428.617	-119.252	-0.156	-0.027
-427.603	136.138	-0.149	-0.196
-426.588	370.260	0.136	-0.279
-425.573	-200.000	0.011	0.306
-424.559	71.542	0.206	-0.216
-423.544	-145.330	0.178	-0.016
-422.530	-200.000	0.080	0.369
-421.515	-111.652	-0.157	0.032
-420.500	-200.000	-0.018	0.120
-419.486	56.135	-0.018	0.018
-418.471	-200.000	0.020	0.212
-417.457	90.601	-0.214	0.242
-416.442	800.000	-0.090	-0.304
-415.428	-200.000	-0.019	-0.286
-414.413	163.118	-0.002	-0.003
-413.398	317.924	0.171	-0.326
-412.384	-200.000	0.066	0.337
-411.369	1.080	0.313	-0.227
-410.355	-200.000	-0.027	0.299
-409.340	345.739	0.068	0.135
-408.325	-58.110	-0.298	0.131
-407.311	393.307	0.015	0.031
-406.296	194.125	-0.098	0.150
-405.282	-52.107	0.202	0.095
-404.267	664.374	0.060	-0.157
-403.252	-126.356	0.216	0.033
-402.238	-135.609	0.003	-0.000
-401.223	-69.710	0.291	-0.112
-400.209	-26.930	0.136	0.080
-399.194	-9.037	0.102	0.069
-398.179	-200.000	0.010	0.118
-397.165	-103.140	0.146	-0.035
-396.150	-200.000	0.010	-0.150
-395.136	75.331	0.101	0.108
-394.121	22.280	0.190	0.157
-393.106	44.222	0.031	-0.029
-392.092	-200.000	0.044	0.290
-391.077	40.927	0.209	0.191
-390.063	0.447	-0.452	-0.326
-389.048	373.063	0.018	-0.036
-388.033	72.918	0.258	0.272
-387.019	-148.396	0.054	0.005
-386.004	800.000	0.091	0.353
-384.990	62.706	0.123	-0.124
-383.975	-200.000	-0.030	0.327
-382.960	-26.472	0.225	0.133
-381.946	296.153	-0.137	0.254
-380.931	-190.128	-0.151	0.002
-379.917	252.987	-0.058	-0.100
-378.902	71.965	-0.065	0.068
-377.888	800.000	-0.142	0.460
-376.873	-200.000	-0.038	0.217
-375.858	-162.512	-0.160	0.008
-374.844	-153.803	-0.207	0.014
-373.829	133.145	0.091	0.119
-372.815	-68.884	0.142	0.055
-371.800	548.055	-0.116	0.281
-370.785	237.888	0.103	-0.172
-369.771	-34.240	0.272	0.150
-368.756	-200.000	-0.003	0.037
-367.742	-200.000	-0.007	0.132
-366.727	-78.608	-0.215	0.074
-365.712	59.324	0.303	0.301
-364.698	-84.667	-0.160	-0.051
-363.683	-157.026	0.196	-0.012
-362.669	-140.197	0.079	-0.008
-361.654	-121.165	-0.217	-0.037
-360.639	243.973	0.092	-0.155
-359.625	242.847	-0.105	0.177
-358.610	87.688	-0.211	-0.236
-357.596	131.392	0.060	0.077
-356.581	-65.336	0.380	0.154
-355.566	-28.876	-0.197	0.114
-354.552	-152.021	0.088	0.006
-353.537	217.666	-0.128	0.206
-352.523	220.566	-0.096	-0.155
-351.508	-148.342	0.233	-0.019
-350.493	1.528	0.090	0.066
-349.479	-59.128	-0.437	0.190
-348.464	-200.000	-0.022	0.196
-347.450	800.000	0.098	-0.306
-346.435	800.000	-0.106	0.297
-345.420	-130.092	0.292	0.040
-344.406	-200.000	0.004	-0.025
-343.391	519.483	0.146	0.344
-342.377	658.806	0.089	0.231
-341.362	-85.047	0.189	0.060
-340.348	-200.000	-0.048	-0.574
-339.333	11.747	0.205	-0.158
-338.318	45.414	0.203	-0.189
-337.304	504.139	0.071	-0.166
-336.289	-200.000	0.008	-0.072
-335.275	122.609	-0.218	0.274
-334.260	-78.435	0.222	-0.077
-333.245	133.441	-0.135	-0.176
-332.231	342.346	0.030	0.059
-331.216	-106.931	-0.330	0.074
-330.202	-200.000	-0.041	0.226
-329.187	612.154	-0.220	-0.554
-328.172	432.376	0.022	-0.048
-327.158	-94.771	-0.238	0.065
-326.143	-79.778	0.246	-0.083
-325.129	-200.000	0.053	0.395
-324.114	-53.803	-0.255	-0.117
-323.099	800.000	-0.063	0.256
-322.085	4.504	-0.219	-0.162
-321.070	149.899	0.095	-0.130
-320.056	-200.000	-0.011	-0.212
-319.041	129.963	0.360	0.463
-318.026	48.199	0.163	-0.154
-317.012	425.074	0.154	0.335
-315.997	800.000	0.065	0.263
-314.983	-162.337	-0.156	0.008
-313.968	226.993	-0.019	-0.030
-312.953	186.924	-0.090	-0.135
-311.939	-200.000	0.054	0.353
-310.924	202.713	-0.077	0.119
-309.910	17.153	-0.080	0.064
-308.895	43.495	0.100	-0.092
-307.880	-200.000	-0.015	0.168
-306.866	-200.000	0.049	-0.268
-305.851	394.361	-0.074	0.156
-304.837	91.328	-0.154	0.174
-303.822	199.326	-0.293	0.451
-302.807	-65.296	-0.188	0.076
-301.793	714.878	0.046	-0.122
-300.778	58.931	0.164	-0.162
-299.764	800.000	-0.064	-0.242
-298.749	308.320	0.037	-0.070
-297.735	800.000	0.040	0.118
-296.720	-116.549	0.010	-0.002
-295.705	274.583	-0.156	0.278
-294.691	-200.000	-0.056	-0.272
-293.676	762.704	0.036	0.097
-292.662	23.888	-0.054	-0.044
-291.647	1.223	-0.274	-0.198
-290.632	-200.000	-0.004	0.331
-289.618	-89.447	0.097	0.029
-288.603	17.982	0.214	0.171
-287.589	800.000	-0.122	0.340
-286.574	-162.909	0.341	-0.017
-285.559	-83.957	-0.163	-0.052
-284.545	-200.000	-0.046	-0.240
-283.530	-126.094	-0.063	-0.009
-282.516	-16.788	-0.187	0.119
-281.501	-55.741	0.167	0.075
-280.486	60.802	0.207	0.206
-279.472	-200.000	-0.004	0.256
-278.457	-67.142	0.113	-0.045
-277.443	800.000	0.025	0.102
-276.428	151.439	0.051	-0.070
-275.413	-151.191	-0.348	0.026
-274.399	-11.163	0.187	0.124
-273.384	44.467	0.111	-0.102
-272.370	-92.447	0.099	0.028
-271.355	65.414	0.165	0.168
-270.340	-38.561	0.187	0.099
-269.326	800.000	-0.055	0.157
-268.311	800.000	0.059	0.256
-267.297	-11.072	0.115	-0.076
-266.282	-143.487	-0.285	-0.027
-265.267	800.000	-0.026	-0.091
-264.253	20.654	-0.074	-0.060
-263.238	564.111	0.030	-0.072
-262.224	-14.894	-0.345	-0.222
-261.209	17.001	0.484	0.385
-260.195	325.780	-0.069	0.133
-259.180	120.033	0.066	0.082
-258.165	-200.000	-0.048	0.291
-257.151	116.236	-0.041	0.050
-256.136	132.171	-0.123	-0.158
-255.122	-200.000	0.014	-0.257
-254.107	-66.834	0.298	-0.118
-253.092	-165.461	0.174	-0.008
-252.078	327.799	0.060	-0.116
-251.063	-114.454	0.167	-0.032
-250.049	-173.390	0.262	0.008
-249.034	-9.817	0.047	-0.032
-248.019	800.000	-0.026	-0.077
-247.005	-48.448	-0.171	0.083
-245.990	-18.772	0.435	0.272
-244.976	250.398	-0.075	-0.128
-243.961	89.637	0.165	0.184
-242.946	-200.000	0.037	-0.287
-241.932	227.174	0.087	-0.142
-240.917	241.568	0.054	-0.091
-239.903	1.477	0.117	0.085
-238.888	-42.009	0.212	-0.109
-237.873	-120.756	0.041	-0.007
-236.859	-200.000	0.055	-0.309
-235.844	-55.527	0.241	-0.108
-234.830	-200.000	0.010	-0.328
-233.815	800.000	-0.089	-0.334
-232.800	133.638	-0.106	-0.137
-231.786	-141.305	0.297	-0.030
-230.771	493.525	-0.113	0.259
-229.757	-90.257	-0.237	-0.069
-228.742	-79.697	0.220	-0.074
-227.727	-112.426	0.277	-0.056
-226.713	-103.358	-0.286	0.068
-225.698	-69.052	-0.148	-0.057
-224.684	412.763	0.017	0.036
-223.669	-134.461	-0.180	0.022
-222.655	800.000	-0.036	0.119
-221.640	139.920	0.292	-0.385
-220.625	-134.071	-0.192	-0.024
-219.611	-2.247	-0.104	0.073
-218.596	116.903	0.080	0.098
-217.582	4.740	0.032	-0.024
-216.567	678.129	-0.061	-0.160
-215.552	800.000	-0.019	0.066
-214.538	-200.000	0.059	-0.295
-213.523	34.131	-0.105	0.092
-212.509	321.809	-0.037	0.070
-211.494	-104.347	-0.249	0.058
-210.479	324.735	-0.108	-0.206
-209.465	112.035	0.182	0.221
-208.450	-183.124	-0.181	-0.003
-207.436	-58.337	0.216	-0.094
-206.421	-200.000	0.023	-0.183
-205.406	-200.000	0.027	-0.158
-204.392	-122.396	0.056	-0.009
-203.377	78.516	0.101	0.108
-202.363	18.224	-0.257	0.205
-201.348	81.694	-0.074	-0.081
-200.333	-162.449	0.608	-0.030
-199.319	26.460	0.063	0.053
-198.304	-135.258	0.275	0.033
-197.290	151.289	0.202	-0.275
-196.275	800.000	-0.094	-0.369
-195.260	195.562	0.110	0.167
-194.246	-98.710	0.065	-0.017
-193.231	-168.450	-0.094	-0.004
-192.217	737.616	0.005	-0.014
-191.202	-200.000	0.061	-0.382
-190.187	-37.584	0.102	0.055
-189.173	-200.000	0.005	-0.252
-188.158	-90.661	-0.124	-0.036
-187.144	-200.000	-0.015	-0.134
-186.129	-53.403	0.208	0.096
-185.114	-32.225	0.083	-0.046
-184.100	800.000	0.035	0.100
-183.085	91.729	0.079	0.089
-182.071	68.982	0.033	-0.034
-181.056	11.038	-0.105	0.080
-180.042	-48.137	-0.120	0.058
-179.027	-200.000	0.008	-0.085
-178.012	800.000	0.075	0.322
-176.998	47.622	0.400	0.373
-175.983	80.047	0.078	0.084
-174.969	-41.149	-0.381	-0.197
-173.954	-200.000	-0.101	0.457
-172.939	-200.000	-0.014	0.341
-171.925	103.034	-0.179	0.210
-170.910	712.043	-0.028	0.075
-169.896	-98.603	0.263	-0.067
-168.881	800.000	0.035	-0.111
-167.866	30.292	0.174	0.149
-166.852	-91.083	-0.204	0.059
-165.837	-200.000	0.002	-0.170
-164.823	-152.228	0.124	0.009
-163.808	-3.007	0.314	-0.219
-162.793	7.071	-0.154	0.115
-161.779	94.033	0.080	-0.091
-160.764	144.097	0.132	-0.176
-159.750	3.881	-0.212	-0.155
-158.735	4.061	-0.117	-0.086
-157.720	-191.087	-0.335	0.003
-156.706	358.382	-0.091	0.181
-155.691	324.376	-0.118	-0.225
-154.677	800.000	0.049	0.143
-153.662	22.063	0.192	0.157
-152.647	-77.028	-0.313	0.109
-151.633	-200.000	-0.070	-0.392
-150.618	100.779	0.147	-0.171
-149.604	-130.886	-0.098	-0.013
-148.589	7.306	0.159	0.119
-147.574	-103.051	-0.298	-0.071
-146.560	-29.940	-0.257	0.146
-145.545	800.000	0.099	-0.380
-144.531	-70.871	0.104	-0.039
-143.516	-153.596	0.113	-0.008
-142.502	401.746	0.032	0.066
-141.487	-139.951	0.232	0.025
-140.472	32.521	0.069	-0.060
-139.458	-83.522	-0.179	-0.057
-138.443	54.697	-0.204	-0.197
-137.429	800.000	-0.069	-0.236
-136.414	277.199	0.191	-0.339
-135.399	800.000	-0.136	0.375
-134.385	-126.358	-0.119	-0.018
-133.370	102.417	0.140	-0.163
-132.356	800.000	0.085	-0.275
-131.341	3.832	0.205	-0.150
-130.326	43.206	-0.141	0.128
-129.312	-130.024	-0.220	0.030
-128.297	126.485	-0.117	-0.148
-127.283	-81.206	-0.101	-0.033
-126.268	-200.000	-0.009	0.433
-125.253	151.877	0.202	0.275
-124.239	39.140	-0.086	0.076
-123.224	-111.409	-0.220	-0.045
-122.210	141.269	-0.066	0.087
-121.195	800.000	0.057	0.174
-120.180	158.497	-0.079	0.109
