DTS Sentinel unit serial number:	SN413079Multiplexer serial number:	ORYXHardware model number:	OX4-SRSoftware version number:	ORYX F/W v4.00 Oryx Data Collector v3.7.2.0data status	okinstallation	princeton_trtdifferential loss correction	single-endedforward channel	channel 3reverse channel	N/Adate	2019/09/11time	17:42:11forward acquisition time	60.00reverse acquisition time	0.00gamma	496.2192k internal	0.2286k external	0.2286temperature offset calibration	0.9995default loss term (dB/km)	0.3790temperature slope calibration	1.0000multiplexer offset coefficient	1.0000multiplexer slope coefficient	1.0000fibre end	0.00T internal ref (°C)	43.86T ext. ref 1 (°C)	1.08T ext. ref 2 (°C)	38.90length (m)	temperature (°C)	Stokes	anti-Stokes-747.200	-26.534	-0.087	-0.052
-746.185	37.827	-0.130	0.119
-745.171	-67.577	0.241	0.097
-744.156	452.039	0.177	0.400
-743.142	38.870	0.205	0.188
-742.127	800.000	0.117	0.476
-741.112	-181.343	-0.114	-0.002
-740.098	-200.000	0.007	0.417
-739.083	-150.051	0.114	0.009
-738.069	-77.914	0.181	0.064
-737.054	-164.207	-0.275	-0.013
-736.039	46.249	-0.098	-0.093
-735.025	-165.666	0.238	0.011
-734.010	11.126	-0.245	-0.192
-732.996	50.047	-0.157	-0.152
-731.981	-112.029	-0.248	-0.051
-730.966	447.382	-0.122	0.276
-729.952	-139.172	-0.321	-0.036
-728.937	800.000	0.045	-0.154
-727.923	-200.000	0.024	-0.315
-726.908	-55.240	0.151	0.070
-725.894	84.090	-0.335	-0.375
-724.879	20.197	-0.289	0.239
-723.864	-54.646	-0.205	-0.095
-722.850	-169.032	-0.491	-0.019
-721.835	800.000	0.075	-0.287
-720.821	95.346	-0.131	0.153
-719.806	800.000	0.066	-0.263
-718.791	-200.000	-0.017	0.237
-717.777	-75.652	-0.139	-0.050
-716.762	111.483	-0.087	0.107
-715.748	-181.971	0.140	-0.003
-714.733	-200.000	0.042	-0.274
-713.718	800.000	-0.028	-0.117
-712.704	-22.829	-0.242	0.150
-711.689	-200.000	0.055	0.429
-710.675	59.612	-0.153	-0.155
-709.660	25.960	-0.046	-0.040
-708.645	101.765	0.099	0.118
-707.631	30.323	-0.011	-0.010
-706.616	126.327	-0.110	-0.142
-705.602	288.554	0.181	0.336
-704.587	-138.959	0.295	0.033
-703.572	3.344	-0.125	0.093
-702.558	-199.361	-0.260	0.001
-701.543	-113.303	-0.110	0.022
-700.529	-53.351	0.055	-0.026
-699.514	-89.471	-0.093	-0.028
-698.499	-63.853	0.140	0.059
-697.485	-132.150	0.090	0.012
-696.470	-0.152	0.113	0.082
-695.456	-10.745	-0.065	0.044
-694.441	138.654	0.107	-0.143
-693.426	-61.647	-0.088	0.038
-692.412	330.325	-0.064	-0.126
-691.397	-86.227	-0.144	-0.045
-690.383	-200.000	-0.016	0.099
-689.368	-200.000	0.013	-0.060
-688.354	25.301	-0.283	-0.241
-687.339	-54.114	-0.179	-0.083
-686.324	-119.356	0.121	0.022
-685.310	-200.000	-0.059	0.312
-684.295	-115.724	-0.175	0.034
-683.281	0.882	-0.293	0.215
-682.266	535.487	0.014	-0.033
-681.251	142.762	-0.070	0.095
-680.237	-20.049	-0.083	-0.052
-679.222	-118.380	0.205	0.037
-678.208	-99.955	-0.297	0.076
-677.193	636.807	0.124	0.322
-676.178	94.803	-0.233	-0.271
-675.164	-87.863	0.485	-0.149
-674.149	-25.636	0.241	0.146
-673.135	3.574	0.126	-0.094
-672.120	-200.000	-0.019	-0.159
-671.105	121.720	0.073	-0.093
-670.091	782.377	-0.015	-0.041
-669.076	800.000	-0.050	0.172
-668.062	-59.330	-0.076	-0.033
-667.047	-80.411	-0.198	0.068
-666.032	800.000	0.092	0.280
-665.018	11.114	0.125	-0.098
-664.003	-160.410	-0.336	0.018
-662.989	-102.844	-0.202	0.049
-661.974	-200.000	-0.074	0.000
-660.959	-56.273	-0.316	-0.144
-659.945	579.712	-0.018	0.044
-658.930	-200.000	-0.024	-0.245
-657.916	-93.032	-0.188	-0.054
-656.901	-9.875	-0.086	0.058
-655.886	-143.901	-0.204	-0.020
-654.872	-98.553	-0.207	-0.054
-653.857	83.578	0.103	-0.115
-652.843	106.402	0.077	0.093
-651.828	800.000	-0.031	0.090
-650.814	-55.060	-0.221	-0.102
-649.799	-200.000	-0.010	-0.237
-648.784	-102.477	0.038	-0.009
-647.770	-13.967	-0.195	-0.129
-646.755	-160.283	-0.077	0.004
-645.741	-200.000	0.052	-0.455
-644.726	-200.000	-0.001	-0.126
-643.711	-200.000	0.038	0.312
-642.697	-95.342	-0.250	-0.069
-641.682	-200.000	-0.010	-0.275
-640.668	-137.724	-0.069	0.008
-639.653	-200.000	-0.009	-0.076
-638.638	63.512	-0.225	0.230
-637.624	-200.000	0.003	-0.070
-636.609	-82.708	0.261	-0.086
-635.595	208.502	-0.187	-0.298
-634.580	11.161	0.129	0.101
-633.565	494.490	-0.156	0.366
-632.551	-102.159	0.087	0.021
-631.536	-58.642	-0.143	-0.063
-630.522	212.488	-0.029	-0.046
-629.507	50.759	0.151	0.146
-628.492	-141.495	0.107	0.011
-627.478	-6.194	0.100	-0.069
-626.463	-111.666	0.244	-0.050
-625.449	18.780	-0.142	-0.116
-624.434	-20.680	-0.179	0.113
-623.419	-200.000	-0.007	0.096
-622.405	51.392	0.058	-0.056
-621.390	-5.159	-0.172	0.121
-620.376	800.000	-0.089	-0.392
-619.361	-200.000	0.010	-0.095
-618.346	-2.597	-0.214	-0.153
-617.332	-73.219	-0.241	-0.090
-616.317	800.000	0.050	-0.197
-615.303	-161.611	0.058	0.003
-614.288	-200.000	0.072	0.356
-613.273	305.855	0.042	-0.080
-612.259	-87.217	-0.369	0.115
-611.244	195.292	-0.073	-0.113
-610.230	166.672	-0.155	0.224
-609.215	-70.803	-0.087	-0.034
-608.201	-99.642	0.106	-0.027
-607.186	-200.000	0.001	0.183
-606.171	297.798	-0.073	0.137
-605.157	226.836	0.137	0.227
-604.142	53.311	-0.090	0.088
-603.128	35.408	-0.288	0.258
-602.113	-40.690	0.239	0.126
-601.098	69.153	-0.094	0.098
-600.084	-200.000	0.012	-0.192
-599.069	-45.373	0.271	-0.137
-598.055	-200.000	-0.032	0.280
-597.040	800.000	0.045	0.187
-596.025	-40.721	-0.090	-0.048
-595.011	-200.000	0.022	0.423
-593.996	-123.049	0.131	0.021
-592.982	-105.938	0.148	-0.034
-591.967	-200.000	0.023	0.194
-590.952	-8.815	0.228	-0.156
-589.938	-0.001	-0.149	-0.108
-588.923	127.931	-0.045	0.058
-587.909	-22.232	-0.252	-0.156
-586.894	151.254	0.159	-0.221
-585.879	-50.745	0.345	-0.166
-584.865	41.387	-0.046	-0.042
-583.850	-127.279	0.063	0.009
-582.836	276.897	-0.063	0.114
-581.821	-59.314	-0.125	0.055
-580.806	72.794	0.060	-0.063
-579.792	44.687	-0.194	-0.182
-578.777	68.752	-0.427	0.447
-577.763	368.266	0.120	-0.247
-576.748	43.283	0.231	0.215
-575.733	-133.224	-0.287	0.037
-574.719	-200.000	0.032	0.220
-573.704	-181.545	-0.303	0.006
-572.690	-133.030	0.088	0.011
-571.675	-85.041	0.453	-0.145
-570.661	352.127	-0.104	0.209
-569.646	230.634	-0.191	0.319
-568.631	112.948	0.184	0.227
-567.617	0.091	0.256	0.186
-566.602	625.091	0.041	0.105
-565.588	-167.563	0.107	-0.004
-564.573	-200.000	0.011	0.123
-563.558	250.347	-0.162	0.281
-562.544	126.657	-0.127	0.164
-561.529	-28.999	0.079	-0.046
-560.515	-200.000	-0.043	-0.364
-559.500	1.153	-0.065	-0.048
-558.485	67.370	0.120	-0.124
-557.471	77.824	0.260	-0.283
-556.456	-86.920	-0.124	-0.039
-555.442	-102.344	-0.368	-0.090
-554.427	800.000	0.029	-0.087
-553.412	356.535	-0.043	-0.088
-552.398	-84.893	-0.079	-0.025
-551.383	-111.698	0.189	-0.039
-550.369	377.873	0.065	0.135
-549.354	-73.190	0.055	0.021
-548.339	440.457	-0.100	0.223
-547.325	422.533	0.100	-0.218
-546.310	-28.800	-0.205	0.120
-545.296	233.061	-0.039	-0.065
-544.281	73.520	-0.170	0.182
-543.266	-200.000	-0.007	-0.092
-542.252	-95.468	0.360	-0.098
-541.237	2.964	0.166	0.123
-540.223	647.068	-0.013	0.033
-539.208	800.000	-0.033	-0.125
-538.193	20.066	-0.124	-0.102
-537.179	-200.000	0.015	-0.145
-536.164	240.877	0.154	-0.261
-535.150	-92.732	0.157	-0.045
-534.135	176.338	-0.087	-0.128
-533.121	-200.000	-0.014	0.164
-532.106	-56.343	-0.230	0.104
-531.091	-200.000	0.009	0.173
-530.077	64.091	0.105	-0.108
-529.062	-200.000	0.010	-0.112
-528.048	51.871	0.076	-0.074
-527.033	-132.338	0.160	0.021
-526.018	147.578	0.172	-0.236
-525.004	49.884	0.046	-0.045
-523.989	610.709	0.092	-0.233
-522.975	-65.352	-0.163	0.067
-521.960	-110.815	-0.136	-0.029
-520.945	186.538	0.198	0.300
-519.931	-200.000	-0.013	0.120
-518.916	59.906	0.171	-0.172
-517.902	127.209	-0.075	-0.096
-516.887	212.036	-0.067	-0.107
-515.872	-160.300	0.366	-0.020
-514.858	72.233	0.196	0.208
-513.843	800.000	-0.011	0.044
-512.829	244.499	0.142	0.242
-511.814	-30.498	0.307	0.177
-510.799	-95.582	0.136	0.037
-509.785	-73.067	-0.413	-0.154
-508.770	-124.877	0.157	-0.025
-507.756	-163.917	0.195	0.009
-506.741	362.369	0.155	0.316
-505.726	-200.000	0.050	0.256
-504.712	-62.631	-0.081	-0.034
-503.697	65.436	-0.182	-0.187
-502.683	-166.442	-0.367	-0.016
-501.668	-21.373	0.151	-0.094
-500.653	-92.725	0.185	-0.053
-499.639	90.903	-0.293	0.334
-498.624	-200.000	-0.063	0.337
-497.610	-10.918	0.335	0.225
-496.595	16.224	-0.048	-0.039
-495.581	211.768	-0.163	0.261
-494.566	4.574	0.105	-0.078
-493.551	22.988	0.057	0.048
-492.537	-148.924	-0.361	-0.030
-491.522	-180.823	0.098	-0.002
-490.508	89.523	0.211	0.239
-489.493	-99.665	-0.352	0.090
-488.478	322.673	-0.171	0.331
-487.464	-200.000	-0.001	0.034
-486.449	138.516	0.202	-0.270
-485.435	-58.575	0.184	0.081
-484.420	14.728	0.212	-0.169
-483.405	317.096	0.104	0.199
-482.391	-33.904	-0.400	-0.224
-481.376	-40.781	-0.178	0.094
-480.362	-85.957	-0.169	-0.053
-479.347	511.830	-0.049	-0.115
-478.332	362.742	-0.166	0.338
-477.318	-96.600	-0.122	0.033
-476.303	-200.000	0.006	0.116
-475.289	-25.778	0.213	-0.128
-474.274	-118.610	-0.296	0.053
-473.259	-170.040	-0.232	-0.008
-472.245	-114.924	0.253	-0.049
-471.230	172.338	0.232	-0.339
-470.216	189.018	0.043	0.066
-469.201	101.199	0.125	0.147
-468.186	-200.000	-0.017	0.138
-467.172	-200.000	0.024	-0.187
-466.157	-27.966	-0.142	-0.083
-465.143	78.441	-0.192	0.208
-464.128	-200.000	-0.045	0.226
-463.113	395.255	-0.076	0.161
-462.099	400.635	-0.173	-0.368
-461.084	-73.198	0.394	-0.146
-460.070	-200.000	-0.008	-0.063
-459.055	311.192	-0.170	-0.323
-458.040	-149.288	0.160	0.013
-457.026	-5.459	-0.235	-0.164
-456.011	-39.451	0.319	0.169
-454.997	224.058	0.110	0.180
-453.982	-111.307	-0.186	-0.039
-452.968	6.655	-0.122	-0.092
-451.953	-200.000	0.098	-0.440
-450.938	-82.898	0.353	-0.116
-449.924	-200.000	-0.224	-0.001
-448.909	280.081	0.115	-0.208
-447.895	800.000	-0.019	-0.065
-446.880	-200.000	-0.015	-0.303
-445.865	-200.000	0.005	0.430
-444.851	-170.451	-0.103	-0.004
-443.836	-60.166	-0.084	0.036
-442.822	276.589	-0.122	0.220
-441.807	-86.761	0.094	0.029
-440.792	60.544	0.065	-0.065
-439.778	-200.000	-0.021	0.098
-438.763	-200.000	-0.042	0.240
-437.749	800.000	0.032	0.108
-436.734	524.263	-0.049	-0.116
-435.719	-190.313	0.112	-0.001
-434.705	-75.831	-0.025	-0.009
-433.690	79.966	-0.189	-0.206
-432.676	-151.761	0.248	-0.018
-431.661	-62.772	0.310	0.130
-430.646	-93.544	-0.132	0.037
-429.632	-200.000	-0.021	0.110
-428.617	27.409	-0.076	0.065
-427.603	125.134	0.076	0.097
-426.588	-200.000	-0.008	0.319
-425.573	10.509	0.040	0.031
-424.559	-71.954	0.173	0.065
-423.544	209.424	0.076	-0.121
-422.530	-31.904	-0.257	0.146
-421.515	-114.662	0.220	-0.043
-420.500	-5.302	0.056	-0.039
-419.486	-152.854	0.127	0.009
-418.471	-90.533	-0.054	0.016
-417.457	-100.405	-0.293	0.074
-416.442	-70.229	-0.078	-0.030
-415.428	6.864	-0.268	0.203
-414.413	-176.724	0.365	-0.009
-413.398	800.000	-0.130	0.461
-412.384	-115.608	0.267	-0.051
-411.369	-153.339	0.100	-0.007
-410.355	-31.257	0.374	0.214
-409.340	800.000	0.065	0.187
-408.325	365.644	0.055	0.112
-407.311	-200.000	-0.004	-0.130
-406.296	412.884	-0.048	-0.104
-405.282	138.717	0.246	-0.328
-404.267	-200.000	-0.045	-0.227
-403.252	-25.525	0.086	0.052
-402.238	72.437	0.107	-0.113
-401.223	-200.000	-0.058	-0.344
-400.209	-200.000	-0.015	-0.198
-399.194	692.483	-0.136	-0.360
-398.179	800.000	-0.133	-0.450
-397.165	77.564	-0.201	-0.217
-396.150	67.996	-0.109	-0.113
-395.136	-80.175	0.333	-0.113
-394.121	-13.165	-0.112	0.074
-393.106	-71.231	-0.316	0.120
-392.092	57.572	0.140	0.138
-391.077	800.000	-0.089	0.323
-390.063	284.814	-0.095	-0.174
-389.048	-116.532	0.190	0.036
-388.033	-0.060	0.285	-0.205
-387.019	-81.891	0.110	-0.037
-386.004	-152.258	-0.153	0.011
-384.990	800.000	0.054	-0.158
-383.975	83.719	0.088	-0.098
-382.960	5.364	-0.045	0.033
-381.946	-151.557	-0.082	0.006
-380.931	-61.859	0.252	-0.107
-379.917	-200.000	0.046	-0.362
-378.902	147.359	0.119	0.163
-377.888	656.645	0.115	0.300
-376.873	145.460	-0.173	-0.235
-375.858	403.405	0.054	0.116
-374.844	241.877	0.112	0.189
-373.829	-49.495	0.076	-0.037
-372.815	-162.708	-0.375	-0.019
-371.800	-34.869	-0.333	0.184
-370.785	-200.000	0.035	0.327
-369.771	-200.000	0.028	0.237
-368.756	51.559	0.193	0.186
-367.742	-62.028	-0.172	0.072
-366.727	-93.410	-0.065	-0.018
-365.712	329.278	0.132	-0.257
-364.698	216.659	-0.159	-0.255
-363.683	-44.513	-0.220	-0.111
-362.669	800.000	-0.081	-0.254
-361.654	313.154	-0.042	0.080
-360.639	-23.830	0.031	0.019
-359.625	800.000	0.077	0.317
-358.610	161.559	-0.078	0.110
-357.596	800.000	0.042	0.143
-356.581	713.946	-0.017	-0.045
-355.566	21.914	0.189	0.156
-354.552	-103.301	-0.179	0.043
-353.537	25.431	0.260	-0.219
-352.523	129.167	-0.146	-0.188
-351.508	-200.000	0.000	-0.169
-350.493	190.907	0.062	-0.094
-349.479	144.593	0.174	-0.235
-348.464	800.000	0.094	0.265
-347.450	-102.705	0.186	0.045
-346.435	638.237	-0.076	0.194
-345.420	46.420	0.163	-0.152
-344.406	-146.196	0.094	-0.008
-343.391	-144.805	0.043	-0.004
-342.377	-56.071	-0.117	-0.053
-341.362	48.862	0.148	-0.141
-340.348	-200.000	0.041	0.522
-339.333	-170.911	-0.032	0.001
-338.318	-40.930	-0.318	-0.166
-337.304	80.405	-0.112	0.122
-336.289	-62.622	-0.151	0.063
-335.275	-92.009	-0.150	0.043
-334.260	-28.638	-0.102	0.059
-333.245	-76.411	-0.230	0.082
-332.231	12.973	0.185	-0.145
-331.216	800.000	-0.127	-0.372
-330.202	149.768	-0.131	-0.180
-329.187	200.330	-0.011	0.018
-328.172	-143.266	0.068	-0.007
-327.158	-200.000	0.011	0.088
-326.143	322.991	-0.153	0.295
-325.129	-86.012	0.233	0.073
-324.114	156.576	0.127	0.177
-323.099	57.571	-0.393	-0.388
-322.085	800.000	0.049	-0.214
-321.070	800.000	-0.071	0.253
-320.056	-93.250	-0.174	-0.049
-319.041	317.598	-0.054	0.104
-318.026	800.000	0.051	0.197
-317.012	-32.582	0.108	0.061
-315.997	-200.000	-0.007	-0.116
-314.983	800.000	-0.045	-0.182
-313.968	43.104	-0.283	0.261
-312.953	-200.000	0.026	-0.277
-311.939	-200.000	0.031	-0.152
-310.924	-67.731	-0.051	-0.020
-309.910	173.936	-0.072	-0.105
-308.895	-200.000	0.050	-0.309
-307.880	-118.795	0.387	0.069
-306.866	19.449	-0.152	-0.123
-305.851	158.195	-0.127	0.177
-304.837	-200.000	0.030	0.233
-303.822	-28.730	0.115	0.067
-302.807	-200.000	0.051	0.257
-301.793	-200.000	-0.010	0.251
-300.778	101.589	-0.235	-0.276
-299.764	-200.000	-0.030	0.308
-298.749	800.000	0.075	0.255
-297.735	-124.226	0.170	0.027
-296.720	-51.003	-0.199	0.094
-295.705	-79.740	0.221	-0.075
-294.691	43.409	0.079	-0.073
-293.676	157.393	0.202	-0.281
-292.662	-200.000	-0.002	0.065
-291.647	227.036	-0.043	0.070
-290.632	-90.593	-0.140	0.041
-289.618	109.037	-0.065	-0.079
-288.603	-91.605	-0.034	-0.010
-287.589	-125.461	0.190	-0.029
-286.574	576.737	-0.013	-0.033
-285.559	-171.612	0.171	-0.006
-284.545	-59.811	0.282	-0.122
-283.530	-46.969	-0.338	-0.167
-282.516	-46.693	-0.157	0.077
-281.501	102.722	-0.057	0.067
-280.486	-96.129	0.275	0.074
-279.472	-200.000	-0.024	-0.138
-278.457	-200.000	0.003	-0.156
-277.443	511.865	0.032	-0.075
-276.428	-200.000	0.009	-0.301
-275.413	-152.357	-0.085	0.006
-274.399	-117.079	-0.141	-0.026
-273.384	150.796	0.237	-0.324
-272.370	276.942	-0.043	0.077
-271.355	-55.812	-0.165	-0.074
-270.340	24.371	0.064	0.053
-269.326	-114.180	-0.120	-0.023
-268.311	295.623	-0.120	0.222
-267.297	88.193	-0.265	-0.296
-266.282	343.771	-0.174	-0.344
-265.267	-145.020	0.206	-0.019
-264.253	-5.667	-0.271	0.187
-263.238	36.846	0.227	-0.202
-262.224	-200.000	0.008	-0.132
-261.209	-35.995	-0.227	0.124
-260.195	-200.000	-0.026	0.192
-259.180	28.688	-0.199	-0.170
-258.165	-200.000	0.006	-0.335
-257.151	235.863	0.171	-0.284
-256.136	43.103	0.254	-0.233
-255.122	96.788	-0.097	-0.112
-254.107	-72.278	-0.199	-0.074
-253.092	228.483	-0.102	-0.167
-252.078	-17.676	0.200	-0.126
-251.063	-115.162	0.616	0.117
-250.049	-146.401	-0.028	-0.002
-249.034	-170.068	-0.308	-0.011
-248.019	-200.000	0.001	0.087
-247.005	112.873	-0.094	-0.115
-245.990	-200.000	-0.051	-0.234
-244.976	39.249	0.041	0.037
-243.961	378.485	0.116	0.239
-242.946	310.466	-0.078	0.148
-241.932	-88.099	-0.086	-0.026
-240.917	174.072	0.136	0.198
-239.903	391.204	-0.046	-0.097
-238.888	86.204	-0.050	-0.056
-237.873	-137.097	0.281	-0.032
-236.859	-53.206	0.131	-0.060
-235.844	-200.000	0.038	-0.227
-234.830	246.257	0.151	0.256
-233.815	10.460	0.324	-0.248
-232.800	-27.388	0.367	-0.215
-231.786	800.000	0.086	0.325
-230.771	79.650	-0.238	0.257
-229.757	-81.641	-0.257	0.085
-228.742	800.000	-0.091	0.259
-227.727	-76.551	-0.107	0.038
-226.713	52.150	0.081	-0.078
-225.698	682.114	0.117	0.306
-224.684	397.995	-0.056	0.117
-223.669	-200.000	-0.017	0.296
-222.655	-200.000	-0.032	0.357
-221.640	-81.103	-0.254	0.084
-220.625	-108.158	0.062	0.013
-219.611	-200.000	0.017	-0.106
-218.596	378.372	-0.070	-0.143
-217.582	-200.000	0.024	0.138
-216.567	86.698	-0.228	0.253
-215.552	-200.000	0.022	-0.253
-214.538	349.493	-0.122	-0.243
-213.523	-200.000	-0.028	-0.200
-212.509	-92.318	-0.151	-0.043
-211.494	-16.731	0.350	-0.222
-210.479	34.460	-0.086	0.076
-209.465	-75.458	-0.357	0.128
-208.450	44.177	-0.265	-0.244
-207.436	573.359	0.076	-0.186
-206.421	-36.686	0.315	-0.170
-205.406	-200.000	-0.028	-0.427
-204.392	-61.085	0.202	-0.085
-203.377	-189.899	-0.149	0.002
-202.363	-110.744	-0.028	0.006
-201.348	752.378	-0.107	0.291
-200.333	-0.219	0.194	0.138
-199.319	-200.000	-0.015	0.186
-198.304	800.000	-0.037	0.115
-197.290	-200.000	0.006	0.300
-196.275	-85.192	-0.136	0.043
-195.260	-77.450	-0.370	-0.129
-194.246	-12.986	0.250	-0.163
-193.231	-117.474	-0.182	-0.033
-192.217	-200.000	-0.005	0.024
-191.202	-8.867	0.116	0.078
-190.187	37.907	0.303	-0.271
-189.173	362.997	0.161	-0.324
-188.158	75.792	0.139	-0.147
-187.144	-181.427	-0.110	-0.002
-186.129	-133.016	0.218	0.028
-185.114	427.438	-0.203	0.439
-184.100	488.090	-0.078	0.178
-183.085	-89.800	-0.188	-0.055
-182.071	-49.535	-0.089	-0.042
-181.056	-45.392	-0.155	0.077
-180.042	-51.709	-0.232	0.109
-179.027	219.122	-0.078	0.126
-178.012	-43.906	-0.197	-0.099
-176.998	800.000	-0.036	-0.149
-175.983	130.954	-0.145	-0.187
-174.969	-200.000	-0.007	0.036
-173.954	38.558	0.094	-0.084
-172.939	-66.812	-0.122	0.048
-171.925	800.000	0.051	-0.176
-170.910	-106.211	0.139	0.031
-169.896	-200.000	0.063	0.338
-168.881	-15.012	0.421	0.271
-167.866	144.010	-0.112	-0.149
-166.852	261.028	-0.034	0.060
-165.837	30.199	0.245	-0.210
-164.823	-200.000	0.007	0.177
-163.808	-43.356	-0.226	-0.114
-162.793	15.693	0.454	0.358
-161.779	-75.986	0.169	-0.060
-160.764	559.550	-0.124	-0.300
-159.750	-32.109	0.158	-0.089
-158.735	-15.641	0.097	-0.062
-157.720	283.388	0.033	0.059
-156.706	-116.273	-0.074	0.014
-155.691	-200.000	0.010	-0.199
-154.677	240.773	0.092	0.155
-153.662	-200.000	0.056	0.281
-152.647	-33.287	0.374	0.208
-151.633	-24.894	-0.167	-0.100
-150.618	-83.558	-0.118	0.038
-149.604	-18.813	-0.173	0.108
-148.589	645.613	0.126	0.323
-147.574	15.561	-0.125	-0.099
-146.560	-6.479	-0.216	0.148
-145.545	48.747	0.317	-0.298
-144.531	-200.000	-0.082	0.382
-143.516	410.984	-0.078	-0.166
-142.502	65.523	-0.213	0.216
-141.487	-140.505	-0.140	0.015
-140.472	-200.000	0.037	0.181
-139.458	54.287	0.159	-0.153
-138.443	437.095	-0.043	0.093
-137.429	-200.000	0.006	-0.181
-136.414	-101.424	-0.158	-0.039
-135.399	-28.565	-0.134	-0.077
-134.385	-40.894	0.227	0.118
-133.370	-200.000	-0.003	-0.357
-132.356	207.986	0.133	0.208
-131.341	-17.768	0.211	-0.133
-130.326	515.095	-0.157	-0.367
-129.312	800.000	0.080	-0.309
-128.297	-46.585	-0.038	0.018
-127.283	172.491	0.162	0.234
-126.268	94.627	0.108	0.123
-125.253	-136.387	0.286	-0.033
-124.239	800.000	0.189	0.622
-123.224	800.000	-0.075	0.216
-122.210	318.787	-0.087	0.166
