DTS Sentinel unit serial number:	SN413079Multiplexer serial number:	ORYXHardware model number:	OX4-SRSoftware version number:	ORYX F/W v4.00 Oryx Data Collector v3.7.2.0data status	okinstallation	princeton_trtdifferential loss correction	single-endedforward channel	channel 3reverse channel	N/Adate	2019/09/19time	08:32:35forward acquisition time	60.00reverse acquisition time	0.00gamma	496.2192k internal	0.2347k external	0.2347temperature offset calibration	0.9986default loss term (dB/km)	0.3790temperature slope calibration	1.0000multiplexer offset coefficient	1.0000multiplexer slope coefficient	1.0000fibre end	0.00T internal ref (°C)	20.69T ext. ref 1 (°C)	0.56T ext. ref 2 (°C)	16.37length (m)	temperature (°C)	Stokes	anti-Stokes-747.200	-200.000	0.052	-0.000
-746.185	64.594	-0.192	0.194
-745.171	215.525	0.130	-0.207
-744.156	242.983	-0.173	-0.289
-743.142	-138.020	0.491	-0.055
-742.127	-200.000	-0.000	0.125
-741.112	39.938	0.159	0.143
-740.098	-14.765	-0.283	0.181
-739.083	8.820	-0.114	-0.086
-738.069	-54.521	0.143	0.065
-737.054	-163.202	0.267	-0.013
-736.039	25.234	-0.049	-0.040
-735.025	27.405	0.231	0.194
-734.010	105.658	-0.249	-0.295
-732.996	59.203	-0.102	-0.100
-731.981	30.540	0.130	0.111
-730.966	115.061	-0.012	-0.015
-729.952	800.000	0.044	-0.155
-728.937	154.480	-0.122	0.167
-727.923	107.926	0.047	-0.056
-726.908	-200.000	0.010	-0.188
-725.894	16.434	-0.134	0.106
-724.879	525.313	-0.174	-0.408
-723.864	9.717	-0.288	0.218
-722.850	-200.000	-0.036	-0.205
-721.835	301.308	-0.102	-0.188
-720.821	86.796	0.132	0.145
-719.806	3.770	-0.234	0.170
-718.791	577.283	-0.046	0.112
-717.777	-200.000	-0.000	-0.106
-716.762	510.367	0.105	-0.243
-715.748	-169.972	-0.216	-0.008
-714.733	339.235	-0.183	0.357
-713.718	135.917	-0.207	-0.270
-712.704	-200.000	0.041	-0.293
-711.689	-200.000	-0.002	-0.042
-710.675	-200.000	-0.054	-0.306
-709.660	-200.000	-0.012	0.161
-708.645	464.133	0.046	0.102
-707.631	-24.701	-0.267	0.159
-706.616	40.384	-0.256	-0.230
-705.602	-150.657	0.163	-0.012
-704.587	-200.000	-0.024	-0.279
-703.572	800.000	-0.076	0.220
-702.558	-166.988	-0.456	0.019
-701.543	-200.000	-0.072	-0.331
-700.529	728.349	-0.100	-0.268
-699.514	-200.000	0.004	-0.280
-698.499	-97.801	-0.447	-0.115
-697.485	-200.000	0.038	-0.251
-696.470	-165.018	-0.208	0.009
-695.456	-89.100	0.166	-0.049
-694.441	381.396	-0.077	-0.158
-693.426	9.371	0.310	0.234
-692.412	-200.000	0.058	-0.389
-691.397	-155.650	-0.426	0.027
-690.383	228.261	-0.084	0.136
-689.368	-36.572	0.070	0.038
-688.354	-101.833	0.027	-0.006
-687.339	340.448	0.061	0.119
-686.324	-200.000	0.037	0.438
-685.310	-81.678	0.254	-0.083
-684.295	-200.000	-0.018	-0.119
-683.281	-51.580	0.362	-0.168
-682.266	800.000	0.013	-0.046
-681.251	51.554	-0.104	-0.099
-680.237	-124.678	0.158	0.024
-679.222	33.928	0.051	-0.044
-678.208	181.259	0.116	-0.170
-677.193	29.897	0.192	0.163
-676.178	-200.000	0.010	0.132
-675.164	424.030	-0.065	0.139
-674.149	280.439	0.087	-0.155
-673.135	-37.641	-0.241	0.128
-672.120	-109.470	0.153	-0.032
-671.105	800.000	0.084	-0.240
-670.091	-25.864	-0.337	-0.198
-669.076	800.000	0.056	0.195
-668.062	292.069	0.154	-0.280
-667.047	-19.746	0.191	0.118
-666.032	-6.603	0.109	0.074
-665.018	247.818	-0.153	-0.258
-664.003	-104.876	-0.239	0.055
-662.989	558.215	0.032	-0.077
-661.974	-200.000	-0.032	0.270
-660.959	-200.000	-0.004	-0.098
-659.945	-200.000	0.001	-0.137
-658.930	800.000	0.041	-0.147
-657.916	-96.605	0.080	0.021
-656.901	-200.000	0.003	-0.452
-655.886	-41.344	-0.215	-0.110
-654.872	-126.293	-0.178	-0.027
-653.857	800.000	0.088	-0.318
-652.843	19.315	0.212	0.170
-651.828	-200.000	0.033	0.330
-650.814	-11.180	-0.029	0.019
-649.799	-200.000	0.006	0.180
-648.784	-24.333	0.233	0.139
-647.770	-89.115	-0.127	0.037
-646.755	-48.927	-0.162	-0.077
-645.741	322.039	0.113	-0.214
-644.726	-114.961	-0.082	0.016
-643.711	238.690	-0.096	0.159
-642.697	-109.662	-0.122	-0.026
-641.682	-105.205	0.165	-0.038
-640.668	800.000	0.038	-0.138
-639.653	-115.958	0.266	0.049
-638.638	40.712	0.169	0.151
-637.624	-200.000	0.017	-0.291
-636.609	-137.404	0.189	-0.021
-635.595	-19.149	0.194	0.120
-634.580	-111.875	-0.190	-0.038
-633.565	-139.808	-0.293	-0.031
-632.551	-132.780	0.454	0.058
-631.536	238.433	0.135	-0.224
-630.522	-124.402	0.131	-0.020
-629.507	-200.000	0.080	0.419
-628.492	20.151	-0.050	-0.040
-627.478	-78.441	-0.122	-0.042
-626.463	229.273	0.026	-0.042
-625.449	-143.916	-0.126	0.012
-624.434	-200.000	-0.070	-0.440
-623.419	8.003	-0.114	0.085
-622.405	645.143	0.083	-0.211
-621.390	-121.074	-0.144	0.024
-620.376	-58.295	-0.286	-0.124
-619.361	-89.106	0.243	-0.071
-618.346	114.107	0.085	0.103
-617.332	531.134	-0.054	-0.126
-616.317	-159.902	-0.308	0.017
-615.303	-73.159	-0.396	-0.144
-614.288	16.833	0.214	-0.168
-613.273	50.574	0.088	0.083
-612.259	-199.975	-0.238	-0.001
-611.244	201.078	0.092	-0.141
-610.230	70.587	0.162	-0.167
-609.215	14.877	-0.176	-0.137
-608.201	-78.642	-0.119	0.040
-607.186	71.323	0.243	-0.251
-606.171	-200.000	0.004	-0.208
-605.157	-115.802	-0.185	0.034
-604.142	-105.341	0.350	-0.079
-603.128	6.024	-0.163	0.120
-602.113	192.952	0.174	-0.261
-601.098	-145.795	0.148	-0.013
-600.084	-60.974	0.261	0.110
-599.069	-200.000	0.017	-0.153
-598.055	30.357	0.334	-0.284
-597.040	754.582	-0.004	-0.011
-596.025	16.569	0.134	-0.105
-595.011	101.887	-0.141	-0.164
-593.996	-28.624	-0.164	0.094
-592.982	224.381	0.139	-0.224
-591.967	800.000	0.116	0.364
-590.952	15.266	-0.051	0.039
-589.938	-200.000	0.013	0.149
-588.923	69.053	-0.285	0.291
-587.909	246.395	0.029	0.048
-586.894	-147.816	0.183	-0.015
-585.879	-200.000	0.031	0.192
-584.865	148.050	-0.115	-0.154
-583.850	-56.676	-0.257	-0.113
-582.836	-200.000	-0.010	-0.182
-581.821	-200.000	0.017	0.341
-580.806	224.233	-0.157	-0.252
-579.792	-83.379	-0.226	-0.072
-578.777	-82.478	-0.342	0.110
-577.763	-51.136	-0.142	-0.066
-576.748	-33.378	0.166	0.091
-575.733	800.000	-0.040	-0.139
-574.719	-200.000	0.031	0.167
-573.704	-147.165	-0.292	0.025
-572.690	180.750	-0.122	-0.178
-571.675	42.094	0.192	-0.173
-570.661	-200.000	0.006	-0.158
-569.646	-200.000	-0.006	0.194
-568.631	-51.960	0.148	0.068
-567.617	-75.009	-0.273	0.097
-566.602	-90.151	-0.274	-0.079
-565.588	-150.739	0.116	-0.009
-564.573	-62.646	0.127	0.052
-563.558	-200.000	0.007	0.099
-562.544	-144.884	-0.161	-0.015
-561.529	-118.734	0.057	0.010
-560.515	379.325	0.089	-0.181
-559.500	270.527	-0.124	0.216
-558.485	-30.190	-0.287	-0.162
-557.471	232.053	-0.106	0.172
-556.456	800.000	-0.077	0.271
-555.442	346.127	-0.116	-0.227
-554.427	168.938	0.118	-0.167
-553.412	-96.996	-0.213	-0.055
-552.398	-200.000	-0.112	0.614
-551.383	-37.343	-0.060	-0.032
-550.369	215.786	0.140	-0.220
-549.354	525.120	0.212	-0.494
-548.339	-185.616	0.292	-0.004
-547.325	27.070	-0.156	0.130
-546.310	0.247	-0.279	0.197
-545.296	-200.000	0.014	-0.138
-544.281	16.238	0.330	0.258
-543.266	800.000	0.075	-0.244
-542.252	-37.601	-0.458	-0.242
-541.237	-50.102	-0.048	0.022
-540.223	-98.884	0.326	-0.082
-539.208	282.778	0.236	-0.420
-538.193	3.601	-0.158	-0.114
-537.179	90.857	-0.214	-0.238
-536.164	392.159	-0.110	0.226
-535.150	800.000	0.160	-0.486
-534.135	2.756	-0.292	-0.210
-533.121	13.834	0.250	-0.193
-532.106	800.000	-0.100	0.286
-531.091	69.231	-0.049	0.050
-530.077	-65.030	-0.276	0.110
-529.062	169.385	-0.156	0.221
-528.048	-7.620	0.226	0.152
-527.033	1.731	-0.380	0.272
-526.018	-56.831	-0.105	0.046
-525.004	-54.604	0.270	0.121
-523.989	352.773	-0.145	-0.286
-522.975	34.795	-0.029	-0.025
-521.960	-200.000	-0.004	-0.095
-520.945	800.000	-0.054	-0.224
-519.931	296.550	0.063	0.114
-518.916	-200.000	-0.004	0.159
-517.902	767.906	-0.037	-0.099
-516.887	-200.000	0.042	0.292
-515.872	-42.693	0.100	0.050
-514.858	-29.529	0.134	-0.076
-513.843	-200.000	-0.053	0.271
-512.829	-27.274	0.164	-0.095
-511.814	800.000	-0.038	0.135
-510.799	-200.000	-0.003	0.087
-509.785	-113.210	0.366	0.071
-508.770	-84.449	0.252	-0.079
-507.756	800.000	-0.036	0.150
-506.741	-40.843	-0.148	-0.076
-505.726	105.200	0.203	0.238
-504.712	-41.422	-0.154	0.079
-503.697	-200.000	-0.012	0.079
-502.683	-200.000	-0.052	0.244
-501.668	-90.375	0.146	-0.042
-500.653	236.460	-0.193	0.316
-499.639	800.000	0.029	0.123
-498.624	-200.000	-0.055	0.326
-497.610	-100.753	-0.138	-0.034
-496.595	-131.973	-0.281	-0.036
-495.581	-128.616	0.144	0.020
-494.566	626.942	-0.193	-0.482
-493.551	-200.000	-0.009	0.082
-492.537	29.500	0.521	0.438
-491.522	-95.627	-0.250	-0.066
-490.508	-200.000	0.042	0.194
-489.493	129.388	0.018	0.023
-488.478	-200.000	0.023	-0.140
-487.464	800.000	0.037	-0.141
-486.449	-160.756	0.136	0.007
-485.435	60.420	0.057	-0.056
-484.420	106.676	0.074	-0.086
-483.405	-93.776	0.109	-0.030
-482.391	-79.687	-0.148	0.049
-481.376	566.638	0.067	-0.160
-480.362	800.000	-0.069	0.218
-479.347	-45.043	-0.240	0.118
-478.332	181.326	-0.079	-0.114
-477.318	135.585	0.079	0.102
-476.303	-121.624	-0.111	0.018
-475.289	-200.000	-0.053	-0.289
-474.274	-33.646	0.310	-0.169
-473.259	-78.798	-0.257	-0.087
-472.245	166.214	-0.165	0.231
-471.230	-200.000	-0.003	-0.158
-470.216	-3.954	-0.263	0.181
-469.201	-76.425	-0.068	-0.024
-468.186	-111.196	-0.100	-0.020
-467.172	-88.577	-0.373	-0.110
-466.157	41.401	-0.112	-0.100
-465.143	800.000	0.097	0.320
-464.128	53.571	0.239	0.226
-463.113	-84.221	-0.065	0.020
-462.099	-200.000	-0.005	-0.032
-461.084	-200.000	0.081	0.364
-460.070	-118.440	0.041	-0.007
-459.055	694.485	0.087	-0.225
-458.040	41.624	0.110	-0.098
-457.026	-90.586	0.162	0.046
-456.011	130.746	-0.084	0.106
-454.997	124.723	-0.136	0.169
-453.982	-27.058	-0.253	0.146
-452.968	9.293	-0.263	0.197
-451.953	-200.000	0.013	-0.068
-450.938	1.908	0.179	-0.128
-449.924	800.000	0.082	-0.241
-448.909	-200.000	0.057	0.355
-447.895	-200.000	-0.023	0.104
-446.880	-197.787	0.336	-0.002
-445.865	111.320	-0.140	0.167
-444.851	72.623	0.250	0.258
-443.836	-200.000	-0.035	-0.179
-442.822	-143.111	-0.172	-0.016
-441.807	143.565	-0.218	-0.287
-440.792	-106.639	0.339	0.075
-439.778	-119.815	0.133	0.023
-438.763	132.283	0.094	-0.120
-437.749	166.490	-0.166	0.232
-436.734	-93.872	0.192	-0.052
-435.719	207.897	0.164	-0.253
-434.705	800.000	0.043	0.121
-433.690	-86.122	-0.139	0.042
-432.676	-39.849	0.167	-0.086
-431.661	-132.635	0.181	-0.023
-430.646	72.087	-0.344	-0.353
-429.632	-3.757	-0.029	0.020
-428.617	-138.262	0.328	-0.036
-427.603	326.591	-0.055	0.104
-426.588	800.000	0.056	0.154
-425.573	-200.000	0.023	0.140
-424.559	-200.000	0.046	-0.305
-423.544	148.617	-0.045	-0.059
-422.530	-99.708	0.200	0.049
-421.515	-65.605	0.279	0.110
-420.500	95.544	0.128	-0.145
-419.486	-74.335	-0.014	0.005
-418.471	-38.410	0.098	0.051
-417.457	273.425	0.259	-0.452
-416.442	800.000	0.065	-0.214
-415.428	-55.558	0.450	-0.199
-414.413	644.073	-0.134	0.338
-413.398	-20.327	0.040	0.024
-412.384	-200.000	-0.062	-0.314
-411.369	-17.120	-0.207	-0.129
-410.355	-136.238	-0.254	0.029
-409.340	305.281	0.078	0.143
-408.325	-125.525	0.267	0.040
-407.311	78.513	0.040	-0.042
-406.296	-112.259	0.153	0.030
-405.282	-140.842	0.375	-0.038
-404.267	250.663	-0.100	-0.168
-403.252	800.000	-0.060	-0.215
-402.238	9.422	0.325	-0.243
-401.223	123.604	-0.190	-0.235
-400.209	-200.000	0.013	-0.270
-399.194	726.140	-0.129	-0.340
-398.179	-20.269	-0.164	-0.100
-397.165	240.096	0.086	-0.141
-396.150	275.084	0.176	-0.308
-395.136	800.000	0.079	-0.293
-394.121	152.768	0.023	0.032
-393.106	-94.381	-0.245	0.066
-392.092	85.396	-0.224	0.242
-391.077	172.466	0.093	0.132
-390.063	-76.018	0.111	-0.039
-389.048	169.944	0.110	0.155
-388.033	-19.437	0.143	0.087
-387.019	212.246	0.160	0.249
-386.004	-160.916	-0.267	-0.014
-384.990	167.727	0.084	-0.118
-383.975	14.013	0.287	-0.220
-382.960	-98.542	-0.014	0.004
-381.946	268.594	0.069	-0.119
-380.931	405.091	0.080	0.167
-379.917	800.000	-0.025	-0.092
-378.902	-200.000	-0.022	-0.281
-377.888	-108.631	-0.036	-0.008
-376.873	96.117	-0.242	0.273
-375.858	-200.000	-0.031	0.233
-374.844	-79.164	0.299	0.100
-373.829	-23.742	0.194	-0.115
-372.815	-10.459	-0.069	-0.045
-371.800	-119.971	-0.154	-0.026
-370.785	800.000	0.025	0.080
-369.771	-200.000	-0.001	0.188
-368.756	63.284	-0.224	-0.221
-367.742	414.260	0.041	-0.086
-366.727	-45.712	0.243	0.118
-365.712	800.000	0.176	-0.511
-364.698	55.650	-0.054	-0.051
-363.683	177.644	-0.118	0.170
-362.669	127.222	0.283	-0.354
-361.654	239.165	-0.202	0.330
-360.639	-200.000	-0.045	0.437
-359.625	-200.000	0.034	0.154
-358.610	-200.000	0.001	-0.126
-357.596	-169.413	0.117	0.004
-356.581	-40.990	-0.176	-0.090
-355.566	-161.456	0.253	0.013
-354.552	18.565	0.130	0.102
-353.537	-102.720	0.196	-0.046
-352.523	599.156	-0.017	-0.041
-351.508	-76.463	-0.142	0.049
-350.493	-200.000	0.061	-0.301
-349.479	124.713	0.107	-0.132
-348.464	638.252	0.081	-0.202
-347.450	-162.472	-0.123	0.006
-346.435	800.000	-0.080	-0.326
-345.420	-180.602	0.245	0.005
-344.406	510.000	-0.143	-0.327
-343.391	-200.000	-0.009	0.398
-342.377	-36.286	-0.105	0.056
-341.362	108.321	-0.128	0.151
-340.348	-59.641	-0.363	0.153
-339.333	-145.854	-0.259	0.023
-338.318	-153.254	-0.412	-0.028
-337.304	178.609	0.073	0.104
-336.289	-143.001	0.385	0.037
-335.275	-21.954	-0.353	-0.211
-334.260	800.000	-0.049	0.165
-333.245	25.976	0.133	-0.109
-332.231	-101.186	-0.237	-0.057
-331.216	30.795	-0.132	-0.111
-330.202	197.000	-0.234	0.351
-329.187	-200.000	-0.006	-0.131
-328.172	259.296	-0.091	-0.154
-327.158	34.720	-0.439	-0.378
-326.143	510.500	0.024	0.054
-325.129	737.265	-0.070	0.184
-324.114	-52.752	-0.419	-0.190
-323.099	-87.029	0.265	0.079
-322.085	-200.000	0.007	-0.236
-321.070	-200.000	0.003	0.051
-320.056	800.000	-0.054	-0.156
-319.041	-200.000	-0.057	-0.337
-318.026	-200.000	0.041	0.226
-317.012	-85.150	0.418	-0.129
-315.997	94.985	0.268	0.300
-314.983	790.295	-0.147	-0.398
-313.968	531.245	-0.034	-0.079
-312.953	197.522	0.077	-0.116
-311.939	-17.271	0.092	-0.057
-310.924	-57.253	-0.174	0.075
-309.910	-46.834	-0.531	-0.255
-308.895	51.963	0.245	0.230
-307.880	-30.974	0.180	0.100
-306.866	-200.000	-0.034	0.243
-305.851	800.000	0.079	-0.291
-304.837	34.927	0.042	0.036
-303.822	-200.000	0.044	0.240
-302.807	-200.000	-0.019	-0.211
-301.793	20.113	-0.123	0.098
-300.778	749.391	0.073	-0.193
-299.764	-74.415	-0.179	0.063
-298.749	-50.606	0.113	0.052
-297.735	800.000	0.063	-0.250
-296.720	-56.799	0.310	-0.135
-295.705	800.000	0.113	0.333
-294.691	-36.821	0.317	0.167
-293.676	800.000	0.008	0.025
-292.662	348.177	0.022	-0.042
-291.647	-138.721	0.271	-0.029
-290.632	-161.308	0.223	0.011
-289.618	13.262	-0.083	0.063
-288.603	-157.122	-0.264	-0.016
-287.589	-47.970	0.218	0.104
-286.574	292.912	0.206	-0.370
-285.559	113.195	0.007	-0.008
-284.545	800.000	-0.032	0.138
-283.530	205.909	-0.152	0.232
-282.516	-36.012	0.334	-0.177
-281.501	-176.455	-0.233	-0.006
-280.486	800.000	-0.072	-0.225
-279.472	-56.778	0.164	0.071
-278.457	800.000	0.046	0.125
-277.443	-64.555	-0.323	0.129
-276.428	-14.059	-0.222	-0.141
-275.413	699.354	-0.064	-0.166
-274.399	-34.997	-0.500	0.267
-273.384	-200.000	0.013	0.199
-272.370	-200.000	-0.004	-0.024
-271.355	-27.200	0.133	0.076
-270.340	444.702	-0.262	0.564
-269.326	-18.906	0.393	0.240
-268.311	-200.000	-0.034	0.217
-267.297	552.768	-0.132	0.311
-266.282	-63.614	0.029	0.011
-265.267	82.641	0.146	0.155
-264.253	-200.000	0.015	0.091
-263.238	116.682	0.006	0.007
-262.224	-30.670	-0.026	-0.014
-261.209	47.064	0.225	0.205
-260.195	-138.128	0.035	-0.004
-259.180	-92.939	0.099	-0.027
-258.165	2.163	0.103	0.073
-257.151	85.423	-0.141	-0.152
-256.136	-107.042	0.269	-0.058
-255.122	-94.024	-0.210	-0.057
-254.107	114.477	-0.119	0.143
-253.092	231.065	0.172	0.277
-252.078	-1.635	-0.073	0.051
-251.063	800.000	-0.049	0.186
-250.049	-200.000	-0.038	0.319
-249.034	-110.368	0.411	0.084
-248.019	-101.814	-0.215	-0.051
-247.005	-200.000	-0.028	0.222
-245.990	569.192	0.124	0.295
-244.976	345.981	-0.021	0.040
-243.961	-1.461	0.130	0.090
-242.946	-108.536	-0.300	-0.063
-241.932	194.625	0.252	0.375
-240.917	-59.077	-0.167	0.071
-239.903	210.939	0.092	-0.142
-238.888	391.434	-0.033	-0.066
-237.873	58.830	-0.089	-0.086
-236.859	-44.233	0.110	-0.054
-235.844	-30.765	-0.069	0.038
-234.830	-146.387	0.258	-0.022
-233.815	151.718	0.088	0.118
-232.800	476.167	-0.079	-0.176
-231.786	129.017	-0.208	-0.260
-230.771	-200.000	0.023	0.111
-229.757	343.129	0.112	0.216
-228.742	38.716	0.176	-0.153
-227.727	-176.286	0.281	0.007
-226.713	-53.105	-0.110	-0.049
-225.698	-50.965	0.368	-0.169
-224.684	636.726	-0.129	0.320
-223.669	-20.955	0.126	0.075
-222.655	-136.566	0.182	-0.021
-221.640	223.720	0.046	0.073
-220.625	486.817	0.012	-0.027
-219.611	-32.358	0.179	0.098
-218.596	-112.133	-0.202	0.040
-217.582	-146.936	-0.205	-0.017
-216.567	-5.645	0.136	-0.091
-215.552	800.000	0.116	0.327
-214.538	800.000	-0.025	0.101
-213.523	-38.863	0.146	-0.076
-212.509	-43.313	-0.180	0.089
-211.494	-106.012	-0.223	-0.049
-210.479	9.565	0.140	-0.104
-209.465	41.222	0.120	-0.106
-208.450	-19.021	0.056	-0.034
-207.436	-144.354	0.188	0.017
-206.421	-200.000	-0.015	0.207
-205.406	749.321	-0.181	-0.478
-204.392	-13.269	-0.351	0.223
-203.377	-19.772	-0.203	-0.123
-202.363	-200.000	-0.050	0.226
-201.348	-119.514	-0.145	-0.025
-200.333	-56.517	0.168	-0.073
-199.319	12.852	-0.115	0.087
-198.304	72.745	-0.044	-0.045
-197.290	-141.287	-0.124	0.012
-196.275	193.902	0.129	-0.191
-195.260	-29.812	0.110	-0.061
-194.246	245.778	0.064	-0.105
-193.231	61.122	-0.361	0.351
-192.217	-92.492	0.162	-0.045
-191.202	740.713	-0.072	0.189
-190.187	-103.257	-0.282	0.065
-189.173	800.000	-0.131	0.375
-188.158	-56.760	-0.328	-0.142
-187.144	-179.179	-0.174	-0.004
-186.129	340.138	-0.125	-0.238
-185.114	20.021	0.101	0.080
-184.100	156.272	-0.192	0.260
-183.085	501.126	0.098	0.220
-182.071	-132.672	-0.193	0.024
-181.056	150.990	-0.119	-0.158
-180.042	-157.315	0.243	-0.014
-179.027	-7.527	-0.193	-0.128
-178.012	383.028	0.079	-0.159
-176.998	-55.376	-0.343	0.150
-175.983	-200.000	-0.025	0.121
-174.969	-200.000	-0.019	0.095
-173.954	800.000	-0.040	0.116
-172.939	800.000	-0.029	0.099
-171.925	-200.000	0.034	0.287
-170.910	-79.003	-0.250	0.083
-169.896	297.499	-0.086	0.155
-168.881	-200.000	0.000	-0.005
-167.866	-28.719	0.171	0.096
-166.852	-79.177	-0.337	0.112
-165.837	152.354	-0.082	-0.109
-164.823	252.029	-0.090	-0.150
-163.808	-165.039	0.259	0.011
-162.793	468.800	0.060	-0.132
-161.779	-108.003	0.299	0.063
-160.764	648.315	-0.011	0.028
-159.750	800.000	0.061	0.230
-158.735	462.309	0.221	-0.481
-157.720	-133.609	0.214	0.026
-156.706	146.940	0.216	-0.284
-155.691	-55.013	0.189	0.083
-154.677	535.005	0.063	0.146
-153.662	-200.000	0.012	-0.293
-152.647	-200.000	-0.043	-0.199
-151.633	-102.139	-0.305	0.072
-150.618	196.769	-0.152	-0.226
-149.604	92.736	0.183	0.202
-148.589	381.274	0.050	0.101
-147.574	251.868	-0.056	-0.094
-146.560	-55.626	-0.051	-0.022
-145.545	-173.528	-0.151	-0.004
-144.531	-61.234	0.387	0.159
-143.516	66.374	0.179	0.177
-142.502	-47.932	0.036	-0.017
-141.487	99.038	-0.200	0.226
-140.472	800.000	-0.140	-0.441
-139.458	-200.000	0.032	0.167
-138.443	-118.633	0.197	-0.034
-137.429	262.220	-0.088	0.150
-136.414	-88.187	0.080	0.023
-135.399	-200.000	-0.183	-0.001
-134.385	83.879	-0.167	0.178
-133.370	-142.313	-0.069	0.007
-132.356	-200.000	0.034	0.226
-131.341	-200.000	0.043	-0.190
-130.326	-85.733	-0.129	0.039
-129.312	-39.295	0.112	0.058
-128.297	-52.903	-0.240	0.108
-127.283	21.264	0.259	-0.205
-126.268	-48.073	-0.182	0.086
-125.253	599.378	0.141	0.342
-124.239	731.323	-0.101	0.263
-123.224	83.115	-0.042	-0.044
-122.210	307.354	0.081	0.148
