DTS Sentinel unit serial number:	SN413079Multiplexer serial number:	ORYXHardware model number:	OX4-SRSoftware version number:	ORYX F/W v4.00 Oryx Data Collector v3.7.2.0data status	okinstallation	princeton_trtdifferential loss correction	single-endedforward channel	channel 3reverse channel	N/Adate	2019/09/17time	12:20:35forward acquisition time	60.00reverse acquisition time	0.00gamma	496.2192k internal	0.2319k external	0.2319temperature offset calibration	0.9961default loss term (dB/km)	0.3790temperature slope calibration	1.0000multiplexer offset coefficient	1.0000multiplexer slope coefficient	1.0000fibre end	0.00T internal ref (°C)	31.59T ext. ref 1 (°C)	0.43T ext. ref 2 (°C)	28.50length (m)	temperature (°C)	Stokes	anti-Stokes-747.200	800.000	0.056	0.163
-746.185	-20.350	-0.234	0.145
-745.171	-200.000	0.041	-0.293
-744.156	-200.000	-0.024	-0.113
-743.142	-200.000	0.054	0.369
-742.127	800.000	0.141	0.474
-741.112	-65.504	0.105	0.043
-740.098	-200.000	0.022	0.221
-739.083	-139.111	0.288	0.031
-738.069	179.868	0.039	0.057
-737.054	219.008	-0.159	0.258
-736.039	708.946	-0.119	-0.318
-735.025	-155.935	0.011	-0.001
-734.010	369.354	-0.148	-0.303
-732.996	-200.000	-0.000	0.202
-731.981	-111.701	-0.244	-0.050
-730.966	-200.000	0.008	-0.249
-729.952	26.058	0.096	-0.081
-728.937	-200.000	0.013	0.109
-727.923	-54.836	-0.220	-0.100
-726.908	-200.000	0.007	-0.409
-725.894	16.654	-0.224	-0.179
-724.879	-200.000	0.012	-0.109
-723.864	74.599	-0.165	-0.176
-722.850	-126.620	-0.190	0.028
-721.835	-110.069	-0.100	0.021
-720.821	-200.000	-0.014	-0.218
-719.806	16.418	-0.156	-0.125
-718.791	-163.206	-0.073	-0.004
-717.777	147.078	0.188	-0.255
-716.762	10.674	-0.279	-0.215
-715.748	-200.000	0.026	-0.388
-714.733	98.253	0.232	-0.270
-713.718	-105.285	0.187	0.043
-712.704	501.484	0.100	0.233
-711.689	800.000	0.002	-0.007
-710.675	-75.292	-0.303	0.109
-709.660	-114.879	0.320	0.062
-708.645	257.586	0.142	-0.247
-707.631	88.266	0.208	0.233
-706.616	800.000	-0.030	0.086
-705.602	13.874	0.185	0.145
-704.587	-200.000	-0.016	0.195
-703.572	148.712	0.124	-0.169
-702.558	-55.390	0.213	0.097
-701.543	-95.388	-0.283	0.077
-700.529	229.452	0.075	0.124
-699.514	176.594	-0.075	-0.109
-698.499	-108.845	-0.230	0.050
-697.485	312.699	0.031	0.058
-696.470	201.150	-0.010	0.016
-695.456	27.682	0.117	-0.099
-694.441	78.652	0.083	0.089
-693.426	-194.837	-0.208	0.002
-692.412	-77.929	-0.410	0.143
-691.397	-200.000	0.028	0.124
-690.383	75.403	0.217	-0.231
-689.368	158.307	-0.226	0.317
-688.354	-116.211	-0.295	0.055
-687.339	18.834	0.080	0.065
-686.324	37.515	-0.244	-0.218
-685.310	-48.738	-0.147	-0.071
-684.295	445.359	-0.037	0.082
-683.281	63.311	0.175	0.178
-682.266	-45.947	-0.068	0.034
-681.251	-103.479	-0.154	-0.037
-680.237	-17.897	-0.191	0.121
-679.222	-35.637	0.083	0.045
-678.208	162.073	0.233	-0.329
-677.193	12.310	-0.092	-0.072
-676.178	24.449	-0.236	0.197
-675.164	10.009	-0.056	0.043
-674.149	58.479	0.158	-0.157
-673.135	-16.629	0.103	0.066
-672.120	-200.000	0.058	0.330
-671.105	-8.964	-0.165	-0.112
-670.091	509.428	0.040	0.093
-669.076	-200.000	0.011	-0.295
-668.062	800.000	-0.113	0.391
-667.047	-110.521	0.190	0.040
-666.032	-200.000	-0.098	0.440
-665.018	-200.000	-0.039	-0.244
-664.003	428.414	0.152	-0.331
-662.989	-200.000	-0.047	-0.223
-661.974	237.135	-0.074	-0.124
-660.959	-107.595	-0.197	-0.043
-659.945	-101.030	0.348	-0.086
-658.930	300.516	-0.098	-0.182
-657.916	602.997	-0.095	-0.239
-656.901	-95.021	-0.192	-0.052
-655.886	-200.000	-0.039	-0.258
-654.872	355.358	-0.094	-0.188
-653.857	-23.919	0.231	0.139
-652.843	26.325	-0.068	0.058
-651.828	-52.829	-0.079	0.037
-650.814	-200.000	-0.049	0.266
-649.799	22.059	-0.236	0.194
-648.784	491.602	0.035	-0.080
-647.770	89.130	-0.115	0.129
-646.755	800.000	-0.061	0.193
-645.741	800.000	0.072	0.276
-644.726	-92.512	-0.187	-0.053
-643.711	-200.000	-0.007	-0.210
-642.697	800.000	0.043	0.165
-641.682	-200.000	-0.016	0.090
-640.668	-75.373	-0.183	0.066
-639.653	-103.085	0.080	0.019
-638.638	800.000	0.037	0.125
-637.624	-145.745	0.050	0.004
-636.609	105.727	0.043	-0.051
-635.595	238.974	-0.057	0.096
-634.580	0.768	-0.152	0.110
-633.565	212.179	0.009	-0.014
-632.551	-36.298	0.212	0.115
-631.536	124.976	0.205	-0.261
-630.522	-38.143	-0.455	0.243
-629.507	-90.445	0.079	0.023
-628.492	800.000	-0.057	-0.233
-627.478	-69.673	-0.222	0.085
-626.463	189.529	-0.210	-0.316
-625.449	-105.849	0.052	-0.012
-624.434	-200.000	-0.014	0.107
-623.419	800.000	0.105	0.340
-622.405	224.098	0.089	0.144
-621.390	311.888	0.067	-0.127
-620.376	149.343	-0.184	0.251
-619.361	417.595	0.076	0.164
-618.346	-200.000	0.018	-0.153
-617.332	-200.000	0.020	-0.252
-616.317	-169.157	0.219	-0.008
-615.303	-57.761	-0.037	0.016
-614.288	-174.401	-0.215	-0.006
-613.273	-122.720	-0.102	0.017
-612.259	-200.000	-0.015	0.227
-611.244	-200.000	0.065	0.403
-610.230	76.963	0.054	0.057
-609.215	-200.000	-0.035	0.313
-608.201	176.889	0.156	0.228
-607.186	-4.840	0.128	0.089
-606.171	272.869	0.039	-0.070
-605.157	-75.906	-0.276	-0.098
-604.142	122.174	-0.131	-0.164
-603.128	-120.648	0.226	0.038
-602.113	-57.047	-0.237	-0.105
-601.098	245.625	-0.030	0.051
-600.084	800.000	-0.130	-0.486
-599.069	-59.583	-0.113	0.049
-598.055	24.092	0.119	0.099
-597.040	95.896	-0.038	-0.043
-596.025	-134.702	0.107	0.013
-595.011	-72.020	0.175	0.066
-593.996	-200.000	0.002	-0.122
-592.982	369.013	0.105	-0.214
-591.967	-132.545	0.306	0.040
-590.952	50.810	0.046	0.044
-589.938	284.145	0.168	-0.304
-588.923	-200.000	0.029	-0.239
-587.909	-200.000	0.012	-0.141
-586.894	100.560	-0.189	0.220
-585.879	-61.960	-0.385	-0.162
-584.865	342.624	0.094	-0.185
-583.850	800.000	0.045	-0.162
-582.836	58.084	0.036	0.035
-581.821	-72.206	-0.211	-0.079
-580.806	800.000	0.013	-0.044
-579.792	-20.754	0.234	0.144
-578.777	800.000	-0.041	0.144
-577.763	117.626	-0.060	0.074
-576.748	274.704	-0.093	-0.165
-575.733	69.479	0.167	-0.173
-574.719	109.938	-0.180	0.217
-573.704	-126.067	0.275	0.042
-572.690	446.857	0.095	0.210
-571.675	179.751	-0.114	0.168
-570.661	-127.059	-0.310	-0.046
-569.646	-44.073	0.128	0.065
-568.631	48.653	-0.212	-0.199
-567.617	-200.000	0.022	-0.178
-566.602	-121.090	-0.103	0.017
-565.588	100.404	-0.080	-0.093
-564.573	683.260	-0.045	-0.117
-563.558	-73.964	0.137	-0.050
-562.544	-87.222	-0.099	-0.030
-561.529	209.129	0.062	-0.097
-560.515	800.000	0.094	0.283
-559.500	108.263	0.252	-0.301
-558.485	355.678	-0.147	-0.294
-557.471	-89.976	0.250	0.073
-556.456	135.063	-0.113	-0.148
-555.442	-81.848	0.087	-0.028
-554.427	800.000	-0.029	-0.084
-553.412	-100.712	-0.025	-0.006
-552.398	-200.000	0.027	0.416
-551.383	800.000	0.090	0.307
-550.369	-158.836	-0.199	0.011
-549.354	10.760	0.025	-0.019
-548.339	800.000	0.025	-0.083
-547.325	-200.000	-0.002	-0.087
-546.310	23.290	0.245	0.202
-545.296	-48.430	-0.332	0.161
-544.281	-68.111	0.128	-0.050
-543.266	85.256	-0.150	0.165
-542.252	800.000	-0.103	-0.290
-541.237	800.000	0.101	-0.393
-540.223	-19.835	-0.116	-0.072
-539.208	158.104	-0.049	-0.069
-538.193	135.034	-0.064	0.083
-537.179	166.993	0.153	0.218
-536.164	9.510	0.103	0.078
-535.150	-44.811	-0.058	-0.029
-534.135	502.453	0.062	-0.143
-533.121	96.038	0.190	-0.217
-532.106	-200.000	0.005	-0.192
-531.091	-167.515	-0.259	0.010
-530.077	420.874	-0.098	0.210
-529.062	-61.113	0.088	-0.037
-528.048	484.561	0.064	0.147
-527.033	-95.739	0.189	-0.051
-526.018	-152.211	0.164	0.012
-525.004	41.791	-0.208	0.190
-523.989	-46.716	-0.083	0.041
-522.975	-176.121	-0.023	-0.001
-521.960	539.280	-0.088	-0.210
-520.945	800.000	0.024	-0.074
-519.931	1.601	-0.134	0.097
-518.916	-64.262	-0.094	-0.038
-517.902	16.211	-0.131	0.104
-516.887	-200.000	-0.011	-0.281
-515.872	194.812	0.136	0.206
-514.858	-55.600	0.194	-0.087
-513.843	-143.488	-0.183	-0.017
-512.829	401.171	-0.065	-0.136
-511.814	95.265	0.180	0.205
-510.799	-200.000	0.028	0.157
-509.785	384.360	-0.105	-0.216
-508.770	-135.465	0.231	0.028
-507.756	33.471	-0.213	0.185
-506.741	28.719	-0.178	-0.151
-505.726	-53.492	0.155	0.071
-504.712	290.726	0.044	0.081
-503.697	140.090	-0.061	-0.081
-502.683	134.699	-0.134	0.175
-501.668	800.000	0.056	0.218
-500.653	800.000	-0.038	0.141
-499.639	117.599	-0.178	-0.219
-498.624	-50.585	-0.183	-0.087
-497.610	-200.000	0.018	0.116
-496.595	157.030	-0.065	0.090
-495.581	-70.947	-0.447	-0.169
-494.566	800.000	0.053	-0.147
-493.551	-200.000	0.011	-0.066
-492.537	105.947	0.129	-0.153
-491.522	-151.266	0.168	-0.013
-490.508	51.897	-0.206	0.197
-489.493	6.298	-0.042	-0.031
-488.478	-200.000	-0.016	-0.613
-487.464	321.115	-0.048	-0.092
-486.449	87.647	-0.135	-0.150
-485.435	-26.665	-0.172	0.101
-484.420	-24.666	0.088	-0.052
-483.405	233.645	-0.076	0.124
-482.391	-49.557	0.355	0.169
-481.376	58.654	-0.169	-0.167
-480.362	-200.000	0.066	0.412
-479.347	219.246	0.162	0.259
-478.332	258.948	-0.070	0.120
-477.318	331.901	-0.048	0.093
-476.303	67.557	-0.323	-0.330
-475.289	-112.476	-0.119	-0.024
-474.274	800.000	0.050	-0.176
-473.259	421.989	0.033	0.070
-472.245	-200.000	-0.024	-0.121
-471.230	655.389	0.132	-0.339
-470.216	-2.953	0.203	-0.142
-469.201	-200.000	-0.009	0.097
-468.186	130.084	-0.189	0.242
-467.172	-152.608	-0.237	0.017
-466.157	302.271	0.142	0.264
-465.143	-109.634	-0.453	0.096
-464.128	115.006	-0.109	-0.133
-463.113	-200.000	0.025	0.110
-462.099	-101.959	0.198	0.048
-461.084	800.000	0.065	-0.220
-460.070	-200.000	-0.003	-0.131
-459.055	321.997	0.129	0.245
-458.040	343.881	0.089	0.174
-457.026	-32.796	0.129	0.072
-456.011	800.000	-0.047	-0.154
-454.997	114.656	-0.205	0.249
-453.982	19.885	-0.361	0.291
-452.968	800.000	-0.016	-0.071
-451.953	-144.416	0.272	-0.025
-450.938	-200.000	-0.046	-0.390
-449.924	-30.469	0.154	-0.087
-448.909	-103.143	0.281	-0.067
-447.895	-200.000	-0.018	-0.163
-446.880	89.640	-0.134	-0.150
-445.865	-200.000	0.040	-0.227
-444.851	111.910	0.105	-0.126
-443.836	48.059	-0.228	0.213
-442.822	39.144	-0.091	-0.082
-441.807	-3.787	-0.078	-0.054
-440.792	-67.665	-0.089	-0.035
-439.778	800.000	-0.095	0.322
-438.763	-200.000	0.045	0.209
-437.749	-186.228	0.163	0.002
-436.734	211.928	0.138	-0.218
-435.719	-200.000	0.004	0.114
-434.705	800.000	0.107	0.334
-433.690	-118.811	-0.360	0.063
-432.676	-143.631	-0.069	0.007
-431.661	-86.407	0.188	-0.058
-430.646	22.893	0.160	-0.131
-429.632	-59.451	-0.091	0.039
-428.617	-200.000	0.036	-0.558
-427.603	24.429	-0.163	-0.134
-426.588	762.449	0.088	-0.238
-425.573	61.992	-0.065	0.065
-424.559	69.144	-0.186	0.191
-423.544	-153.458	0.235	0.016
-422.530	257.335	0.108	-0.185
-421.515	192.140	0.240	-0.361
-420.500	76.414	-0.229	-0.242
-419.486	-63.423	-0.036	0.015
-418.471	-53.724	0.234	-0.107
-417.457	-200.000	-0.019	0.129
-416.442	239.770	-0.166	0.275
-415.428	-200.000	0.028	0.227
-414.413	-200.000	0.013	-0.094
-413.398	9.691	-0.104	0.079
-412.384	59.259	0.130	0.128
-411.369	600.236	-0.128	0.318
-410.355	-32.106	-0.015	-0.008
-409.340	-72.064	0.277	-0.103
-408.325	-200.000	-0.015	-0.120
-407.311	384.155	-0.184	-0.379
-406.296	-128.705	-0.298	-0.042
-405.282	-10.973	-0.139	0.092
-404.267	-200.000	-0.077	-0.525
-403.252	800.000	0.007	-0.021
-402.238	-174.723	0.410	0.012
-401.223	228.233	0.043	0.070
-400.209	405.634	0.121	-0.254
-399.194	-200.000	-0.019	0.178
-398.179	-5.018	0.270	-0.186
-397.165	-54.268	0.126	-0.057
-396.150	-170.936	0.231	0.008
-395.136	-144.825	0.222	-0.020
-394.121	436.934	0.170	-0.369
-393.106	-82.108	-0.063	0.020
-392.092	42.192	-0.144	-0.131
-391.077	-121.453	-0.496	-0.082
-390.063	-41.827	0.275	-0.141
-389.048	-30.001	0.260	0.148
-388.033	98.882	0.165	-0.190
-387.019	179.489	-0.120	-0.175
-386.004	131.229	0.067	0.086
-384.990	505.113	0.031	-0.073
-383.975	1.816	-0.166	-0.119
-382.960	-147.776	-0.053	-0.004
-381.946	208.496	0.217	-0.339
-380.931	-200.000	0.108	-0.000
-379.917	-39.761	-0.205	-0.107
-378.902	-6.430	0.269	0.183
-377.888	-61.768	-0.205	0.085
-376.873	300.968	-0.142	-0.261
-375.858	182.556	-0.229	-0.337
-374.844	-63.670	0.234	0.095
-373.829	74.624	-0.180	0.188
-372.815	388.599	-0.043	0.088
-371.800	-102.658	0.263	0.063
-370.785	-100.426	0.340	0.084
-369.771	-129.340	0.061	0.008
-368.756	-200.000	-0.038	0.326
-367.742	301.649	0.100	0.184
-366.727	-115.409	-0.134	-0.025
-365.712	-145.067	-0.252	-0.023
-364.698	-77.283	-0.231	-0.080
-363.683	510.734	-0.081	-0.188
-362.669	-116.754	0.206	-0.038
-361.654	-14.661	-0.294	0.188
-360.639	-146.800	0.090	-0.008
-359.625	366.243	-0.077	0.154
-358.610	-52.115	-0.262	-0.121
-357.596	-200.000	0.051	-0.281
-356.581	40.195	0.211	-0.189
-355.566	-200.000	0.016	0.381
-354.552	-110.093	-0.142	0.030
-353.537	250.460	0.066	-0.112
-352.523	-145.677	-0.143	-0.013
-351.508	800.000	0.127	0.353
-350.493	-29.155	0.098	0.056
-349.479	-47.440	0.108	-0.052
-348.464	-141.594	0.018	0.002
-347.450	-18.945	0.182	0.113
-346.435	800.000	-0.051	-0.186
-345.420	197.806	0.138	0.210
-344.406	75.362	-0.112	0.117
-343.391	800.000	0.034	-0.139
-342.377	78.051	0.095	-0.101
-341.362	189.850	-0.254	0.380
-340.348	-200.000	-0.026	0.427
-339.333	-31.207	0.077	-0.043
-338.318	-200.000	0.034	0.166
-337.304	249.490	-0.057	0.096
-336.289	800.000	0.046	-0.138
-335.275	292.535	-0.134	-0.244
-334.260	-50.142	-0.366	-0.172
-333.245	-200.000	0.005	0.089
-332.231	28.586	-0.089	0.075
-331.216	516.123	0.091	0.212
-330.202	-12.690	0.175	-0.114
-329.187	-148.786	0.141	-0.011
-328.172	-17.936	-0.123	0.077
-327.158	301.697	0.157	0.289
-326.143	322.292	0.058	-0.110
-325.129	-200.000	-0.038	0.196
-324.114	-154.524	0.210	0.014
-323.099	800.000	-0.042	0.131
-322.085	-40.216	0.439	0.227
-321.070	141.100	-0.226	0.297
-320.056	-30.588	-0.053	0.030
-319.041	167.954	0.092	-0.130
-318.026	-200.000	-0.024	0.308
-317.012	-97.606	-0.074	0.019
-315.997	800.000	0.054	0.185
-314.983	-200.000	-0.023	0.251
-313.968	231.806	0.004	-0.006
-312.953	-155.384	0.412	-0.027
-311.939	-200.000	-0.009	-0.321
-310.924	-66.159	-0.282	-0.112
-309.910	-96.788	0.185	0.048
-308.895	-95.154	-0.209	-0.056
-307.880	-25.406	0.153	0.090
-306.866	98.029	-0.101	-0.116
-305.851	-200.000	0.014	0.253
-304.837	-65.636	0.405	0.162
-303.822	-0.390	-0.189	-0.133
-302.807	32.739	-0.174	-0.150
-301.793	113.047	-0.185	-0.223
-300.778	423.663	-0.096	-0.205
-299.764	46.160	0.165	-0.152
-298.749	223.086	0.170	0.273
-297.735	-61.805	0.059	0.025
-296.720	-52.810	0.095	0.043
-295.705	800.000	0.067	0.249
-294.691	220.897	0.152	0.243
-293.676	36.764	0.162	-0.142
-292.662	-144.387	-0.063	0.006
-291.647	178.459	0.117	-0.170
-290.632	-41.062	-0.261	-0.134
-289.618	-71.628	-0.051	0.019
-288.603	-115.573	0.210	-0.039
-287.589	111.413	0.139	-0.167
-286.574	117.784	-0.082	0.100
-285.559	-61.712	-0.249	0.104
-284.545	-120.924	-0.432	0.072
-283.530	-93.405	-0.141	-0.039
-282.516	-181.142	0.150	0.003
-281.501	-15.679	0.183	-0.116
-280.486	-200.000	0.012	0.328
-279.472	87.872	0.097	0.106
-278.457	417.194	-0.082	0.174
-277.443	800.000	0.059	-0.175
-276.428	85.956	-0.225	0.246
-275.413	106.375	-0.013	-0.015
-274.399	621.728	0.090	-0.226
-273.384	447.269	-0.057	-0.125
-272.370	800.000	-0.036	-0.099
-271.355	-79.200	0.251	0.085
-270.340	-32.492	-0.226	-0.125
-269.326	40.109	0.082	0.073
-268.311	-25.082	0.408	0.240
-267.297	-200.000	0.037	0.186
-266.282	90.576	-0.115	0.128
-265.267	611.758	-0.078	0.193
-264.253	-174.263	0.180	-0.005
-263.238	664.060	0.077	-0.196
-262.224	29.729	0.111	0.094
-261.209	-167.635	-0.233	-0.009
-260.195	-200.000	0.022	0.312
-259.180	-200.000	-0.021	0.110
-258.165	-111.210	-0.188	0.038
-257.151	-30.988	-0.153	0.086
-256.136	800.000	0.092	0.289
-255.122	-72.814	0.197	0.072
-254.107	-200.000	0.041	-0.234
-253.092	132.959	0.060	-0.077
-252.078	101.907	-0.210	-0.243
-251.063	151.150	0.055	0.074
-250.049	363.911	-0.038	0.075
-249.034	146.965	0.079	0.105
-248.019	792.796	-0.155	-0.422
-247.005	-127.840	0.246	0.035
-245.990	-127.005	-0.225	-0.033
-244.976	-27.793	-0.186	0.107
-243.961	108.524	0.195	0.231
-242.946	-54.937	0.253	-0.113
-241.932	-200.000	0.016	0.073
-240.917	-43.636	-0.167	-0.084
-239.903	-118.796	0.496	0.087
-238.888	107.231	-0.217	-0.255
-237.873	-53.703	0.215	0.097
-236.859	-25.440	0.073	-0.043
-235.844	358.926	0.150	-0.296
-234.830	-58.881	0.212	0.091
-233.815	800.000	0.041	0.115
-232.800	646.880	-0.060	0.152
-231.786	-148.737	0.160	0.013
-230.771	-80.874	-0.444	0.146
-229.757	312.768	-0.185	-0.344
-228.742	301.537	-0.084	-0.154
-227.727	17.064	0.149	0.117
-226.713	43.125	-0.143	0.129
-225.698	82.949	0.157	0.169
-224.684	-34.763	0.129	0.070
-223.669	247.350	0.210	0.351
-222.655	800.000	0.052	-0.178
-221.640	195.415	-0.071	0.107
-220.625	-59.517	0.158	0.067
-219.611	4.621	-0.365	-0.266
-218.596	-113.624	-0.182	-0.035
-217.582	0.580	0.145	0.103
-216.567	-200.000	-0.005	0.030
-215.552	42.447	0.148	0.133
-214.538	116.210	-0.276	0.335
-213.523	23.409	-0.234	-0.190
-212.509	68.286	0.019	-0.019
-211.494	-104.927	0.221	0.050
-210.479	-95.214	-0.368	0.098
-209.465	-115.647	0.311	-0.058
-208.450	55.322	0.082	-0.078
-207.436	-24.494	-0.126	-0.074
-206.421	65.559	0.102	-0.102
-205.406	-200.000	0.005	0.055
-204.392	60.136	0.107	-0.105
-203.377	800.000	0.072	-0.236
-202.363	331.857	0.020	0.039
-201.348	434.287	0.055	0.119
-200.333	-104.810	0.093	0.021
-199.319	-128.963	-0.415	-0.058
-198.304	155.072	0.197	-0.268
-197.290	-115.542	0.404	-0.075
-196.275	-200.000	-0.014	0.157
-195.260	-200.000	0.005	0.038
-194.246	-59.807	-0.293	0.124
-193.231	103.789	0.026	-0.030
-192.217	-200.000	0.029	-0.148
-191.202	-76.223	-0.442	0.154
-190.187	800.000	0.086	-0.273
-189.173	-200.000	0.091	-0.401
-188.158	-79.824	-0.099	-0.033
-187.144	67.435	-0.084	-0.085
-186.129	800.000	-0.051	0.218
-185.114	800.000	-0.033	0.143
-184.100	-104.205	0.314	0.072
-183.085	55.539	0.045	0.043
-182.071	-200.000	0.008	0.151
-181.056	-131.437	0.217	0.028
-180.042	124.075	0.120	-0.149
-179.027	800.000	-0.118	-0.355
-178.012	-134.069	-0.215	0.026
-176.998	-63.401	0.231	0.094
-175.983	800.000	-0.146	-0.513
-174.969	-17.511	0.316	-0.197
-173.954	-32.209	-0.151	0.083
-172.939	-163.991	0.400	0.018
-171.925	168.032	-0.083	-0.116
-170.910	48.933	0.101	0.094
-169.896	-90.208	0.038	0.011
-168.881	103.894	0.237	-0.276
-167.866	-125.166	-0.233	-0.035
-166.852	-15.892	-0.083	0.052
-165.837	27.761	0.105	0.087
-164.823	-200.000	0.001	0.237
-163.808	67.018	-0.264	0.266
-162.793	-131.075	0.163	-0.021
-161.779	800.000	0.053	0.181
-160.764	72.211	-0.179	-0.184
-159.750	225.025	0.056	0.090
-158.735	19.641	-0.175	-0.139
-157.720	-62.785	0.188	-0.077
-156.706	-200.000	-0.004	-0.124
-155.691	-200.000	-0.026	0.355
-154.677	196.445	-0.308	-0.464
-153.662	-101.724	0.309	-0.074
-152.647	-200.000	0.002	0.105
-151.633	-43.146	-0.347	0.174
-150.618	-200.000	0.027	-0.148
-149.604	-17.073	0.139	-0.087
-148.589	-200.000	-0.008	-0.189
-147.574	-196.197	-0.172	0.001
-146.560	-141.820	0.250	-0.025
-145.545	-156.604	0.445	0.027
-144.531	-10.582	0.141	-0.092
-143.516	-149.119	0.299	0.024
-142.502	800.000	-0.019	-0.057
-141.487	248.383	0.125	-0.209
-140.472	-200.000	0.008	0.059
-139.458	159.221	0.109	0.150
-138.443	-42.794	0.110	-0.055
-137.429	-200.000	-0.005	0.058
-136.414	-161.987	-0.232	0.012
-135.399	-3.732	-0.350	0.240
-134.385	26.435	-0.110	0.091
-133.370	420.040	0.125	-0.264
-132.356	101.917	0.031	-0.036
-131.341	-95.488	0.116	0.031
-130.326	-100.480	0.268	0.065
-129.312	-147.370	0.112	0.009
-128.297	-200.000	0.000	0.180
-127.283	-200.000	0.001	-0.178
-126.268	11.015	-0.184	0.139
-125.253	174.001	0.072	0.102
-124.239	-200.000	0.009	0.361
-123.224	-51.151	-0.105	-0.048
-122.210	8.449	-0.061	0.045
-121.195	-200.000	0.002	-0.109
