DTS Sentinel unit serial number:	SN413079Multiplexer serial number:	ORYXHardware model number:	OX4-SRSoftware version number:	ORYX F/W v4.00 Oryx Data Collector v3.7.2.0data status	okinstallation	princeton_trtdifferential loss correction	single-endedforward channel	channel 3reverse channel	N/Adate	2019/09/16time	04:20:35forward acquisition time	60.00reverse acquisition time	0.00gamma	496.2192k internal	0.2335k external	0.2335temperature offset calibration	0.9960default loss term (dB/km)	0.3790temperature slope calibration	1.0000multiplexer offset coefficient	1.0000multiplexer slope coefficient	1.0000fibre end	0.00T internal ref (°C)	27.31T ext. ref 1 (°C)	10.80T ext. ref 2 (°C)	21.38length (m)	temperature (°C)	Stokes	anti-Stokes-747.200	-89.343	-0.170	-0.050
-746.185	-200.000	-0.041	0.235
-745.171	-91.425	-0.300	-0.086
-744.156	-37.216	0.110	0.059
-743.142	157.841	-0.125	0.174
-742.127	-200.000	0.031	0.241
-741.112	-146.050	-0.166	0.015
-740.098	-103.020	-0.268	0.064
-739.083	-200.000	0.011	0.167
-738.069	-126.713	-0.381	-0.057
-737.054	483.366	0.083	0.190
-736.039	6.251	-0.319	0.237
-735.025	304.909	0.114	0.213
-734.010	555.921	0.066	0.159
-732.996	-131.452	-0.335	0.044
-731.981	-55.774	0.127	0.057
-730.966	-48.911	-0.094	0.045
-729.952	-124.571	-0.322	0.050
-728.937	-58.767	-0.137	-0.060
-727.923	-99.096	0.391	0.099
-726.908	-15.794	0.326	0.208
-725.894	-61.058	-0.111	-0.047
-724.879	-200.000	-0.042	-0.212
-723.864	93.911	0.115	-0.131
-722.850	-98.837	-0.193	-0.049
-721.835	107.645	0.242	-0.289
-720.821	2.228	0.260	-0.189
-719.806	-188.173	-0.318	0.004
-718.791	-119.335	-0.298	-0.052
-717.777	557.773	-0.015	-0.037
-716.762	145.739	-0.084	-0.113
-715.748	800.000	0.025	-0.103
-714.733	28.594	0.157	0.133
-713.718	21.573	0.144	0.117
-712.704	472.782	0.091	0.206
-711.689	-200.000	-0.095	-0.486
-710.675	-200.000	-0.014	-0.246
-709.660	-112.269	0.073	0.015
-708.645	45.738	0.104	0.096
-707.631	800.000	-0.062	0.268
-706.616	-73.363	-0.373	0.137
-705.602	-61.742	-0.135	0.057
-704.587	-163.055	-0.301	-0.015
-703.572	-116.270	0.126	0.023
-702.558	-200.000	-0.006	-0.134
-701.543	-123.646	-0.274	0.044
-700.529	112.964	0.030	0.037
-699.514	60.097	-0.255	0.253
-698.499	-41.621	-0.152	-0.078
-697.485	800.000	0.044	0.134
-696.470	-19.717	0.063	-0.039
-695.456	728.927	-0.111	-0.297
-694.441	-200.000	0.033	0.149
-693.426	216.320	0.094	-0.149
-692.412	800.000	0.080	0.323
-691.397	2.063	0.219	-0.159
-690.383	-98.346	-0.316	0.081
-689.368	231.116	-0.038	0.063
-688.354	-150.927	-0.132	-0.010
-687.339	203.453	0.114	0.176
-686.324	-40.222	0.122	-0.064
-685.310	-179.164	0.116	0.003
-684.295	-200.000	-0.022	-0.159
-683.281	-64.813	-0.045	-0.018
-682.266	-179.293	-0.190	-0.004
-681.251	-200.000	-0.003	-0.146
-680.237	-200.000	-0.003	0.349
-679.222	83.119	-0.141	0.154
-678.208	-100.324	0.439	0.109
-677.193	114.061	-0.096	-0.116
-676.178	453.019	-0.032	0.070
-675.164	-127.523	-0.196	0.029
-674.149	800.000	-0.134	0.396
-673.135	319.990	0.169	0.322
-672.120	-5.173	-0.146	0.101
-671.105	260.833	-0.141	-0.244
-670.091	22.272	0.176	-0.144
-669.076	242.839	0.140	0.235
-668.062	-200.000	-0.003	-0.260
-667.047	-125.881	-0.168	0.025
-666.032	-178.945	0.226	0.005
-665.018	-200.000	0.021	-0.122
-664.003	-200.000	-0.016	0.246
-662.989	85.992	-0.129	-0.143
-661.974	118.146	-0.114	-0.140
-660.959	-125.423	-0.369	0.056
-659.945	800.000	-0.092	0.323
-658.930	45.266	0.219	-0.202
-657.916	800.000	-0.064	0.230
-656.901	43.271	0.188	-0.172
-655.886	-200.000	0.021	0.323
-654.872	21.116	-0.039	0.032
-653.857	800.000	0.087	-0.286
-652.843	800.000	0.035	0.122
-651.828	-31.943	0.262	0.147
-650.814	12.701	0.150	0.116
-649.799	331.406	-0.140	-0.270
-648.784	320.529	0.061	-0.115
-647.770	-51.090	-0.074	-0.035
-646.755	83.244	-0.078	0.085
-645.741	12.066	-0.191	-0.147
-644.726	254.699	0.292	-0.500
-643.711	333.689	0.053	0.103
-642.697	-200.000	-0.049	0.380
-641.682	301.929	0.236	0.437
-640.668	800.000	-0.023	-0.082
-639.653	263.593	-0.089	-0.155
-638.638	-54.527	-0.258	-0.117
-637.624	800.000	-0.061	-0.176
-636.609	-181.536	0.217	-0.004
-635.595	1.505	-0.201	0.144
-634.580	-200.000	-0.021	0.314
-633.565	-88.618	0.214	-0.064
-632.551	661.520	-0.114	-0.293
-631.536	-93.957	0.105	-0.029
-630.522	247.565	0.190	0.322
-629.507	353.987	-0.043	-0.085
-628.492	800.000	-0.075	-0.244
-627.478	-200.000	0.032	-0.289
-626.463	800.000	-0.059	-0.178
-625.449	753.969	-0.111	0.300
-624.434	150.060	0.074	0.100
-623.419	-43.605	0.166	0.084
-622.405	-46.197	0.135	0.067
-621.390	651.151	0.077	-0.198
-620.376	-87.147	-0.063	0.019
-619.361	-169.835	0.097	0.003
-618.346	800.000	0.063	-0.219
-617.332	131.474	0.156	-0.200
-616.317	-200.000	-0.018	0.376
-615.303	115.381	0.160	0.195
-614.288	-10.893	-0.235	0.155
-613.273	-159.035	-0.164	-0.009
-612.259	-58.312	-0.229	-0.100
-611.244	800.000	-0.071	0.258
-610.230	2.258	0.059	0.042
-609.215	-43.218	0.185	0.094
-608.201	800.000	-0.023	-0.095
-607.186	43.709	0.095	0.087
-606.171	19.239	-0.121	-0.097
-605.157	-156.471	0.142	-0.009
-604.142	333.893	0.147	0.285
-603.128	-86.057	-0.186	-0.057
-602.113	800.000	0.018	-0.054
-601.098	47.015	-0.109	0.102
-600.084	-117.194	0.098	0.018
-599.069	-0.916	0.322	0.228
-598.055	-59.831	0.156	0.067
-597.040	800.000	-0.026	0.090
-596.025	-98.556	-0.298	0.076
-595.011	-148.491	0.195	-0.016
-593.996	800.000	-0.103	0.367
-592.982	635.809	-0.094	-0.239
-591.967	581.224	0.158	-0.388
-590.952	800.000	0.036	-0.130
-589.938	507.028	0.048	-0.111
-588.923	-200.000	-0.067	-0.399
-587.909	-200.000	-0.007	0.115
-586.894	-97.235	-0.187	-0.049
-585.879	-80.749	0.543	0.180
-584.865	-200.000	-0.038	0.200
-583.850	800.000	0.104	0.386
-582.836	800.000	-0.035	0.105
-581.821	-48.054	0.175	-0.084
-580.806	562.484	0.062	-0.151
-579.792	87.475	0.213	-0.235
-578.777	158.620	-0.172	-0.239
-577.763	104.255	-0.122	-0.143
-576.748	61.593	-0.326	-0.324
-575.733	-192.864	0.155	0.001
-574.719	800.000	0.029	-0.122
-573.704	227.279	-0.178	-0.288
-572.690	364.656	-0.091	-0.182
-571.675	391.063	-0.136	0.282
-570.661	8.932	0.226	0.170
-569.646	54.237	-0.250	0.240
-568.631	13.989	0.132	-0.102
-567.617	-144.217	-0.214	0.020
-566.602	-200.000	-0.023	0.183
-565.588	-142.748	-0.065	0.006
-564.573	-198.006	0.113	0.001
-563.558	399.867	0.058	0.121
-562.544	193.128	0.058	0.088
-561.529	154.321	-0.133	-0.182
-560.515	351.870	0.037	0.073
-559.500	30.856	0.289	-0.247
-558.485	-35.679	0.098	-0.053
-557.471	-48.214	-0.133	0.064
-556.456	112.255	-0.032	0.039
-555.442	-114.845	0.133	0.025
-554.427	232.999	0.041	0.067
-553.412	-96.900	0.066	-0.017
-552.398	-83.378	-0.142	0.045
-551.383	-200.000	-0.035	0.277
-550.369	461.477	-0.086	-0.192
-549.354	-118.465	-0.251	0.044
-548.339	-83.233	0.094	-0.030
-547.325	-62.033	-0.178	0.074
-546.310	-200.000	-0.004	-0.177
-545.296	205.720	-0.144	0.223
-544.281	-140.964	0.151	-0.015
-543.266	-106.334	0.457	-0.102
-542.252	-157.099	-0.028	0.002
-541.237	-132.703	0.398	0.051
-540.223	-148.246	0.302	0.025
-539.208	51.032	0.245	-0.231
-538.193	-134.853	0.162	0.020
-537.179	-148.820	-0.196	-0.016
-536.164	92.493	0.090	-0.101
-535.150	-148.404	0.259	-0.021
-534.135	208.790	-0.099	0.154
-533.121	-95.051	0.096	-0.026
-532.106	800.000	0.053	-0.203
-531.091	800.000	-0.034	0.115
-530.077	-14.105	-0.029	0.018
-529.062	-144.555	0.366	0.034
-528.048	41.626	-0.284	0.256
-527.033	800.000	0.105	0.366
-526.018	800.000	-0.058	-0.248
-525.004	-30.138	-0.122	-0.069
-523.989	-70.835	-0.164	0.061
-522.975	25.089	-0.269	0.223
-521.960	-200.000	-0.012	-0.118
-520.945	-43.536	-0.206	0.104
-519.931	2.897	0.097	-0.070
-518.916	-200.000	-0.024	0.107
-517.902	64.918	0.089	-0.089
-516.887	-103.088	-0.173	-0.041
-515.872	45.867	-0.201	-0.185
-514.858	-200.000	0.009	-0.318
-513.843	733.631	0.098	-0.261
-512.829	377.388	0.188	-0.383
-511.814	490.204	-0.177	0.402
-510.799	184.895	-0.196	0.289
-509.785	48.447	-0.206	-0.192
-508.770	574.265	-0.076	0.185
-507.756	-56.465	-0.106	0.047
-506.741	36.339	0.105	0.092
-505.726	305.800	-0.052	0.095
-504.712	76.945	0.394	0.417
-503.697	108.984	0.037	-0.044
-502.683	45.175	-0.240	-0.220
-501.668	112.238	0.198	0.238
-500.653	800.000	-0.025	-0.096
-499.639	-173.493	-0.299	-0.009
-498.624	90.150	-0.100	0.111
-497.610	-200.000	-0.006	-0.070
-496.595	29.293	0.193	0.163
-495.581	-200.000	0.008	0.100
-494.566	-76.854	-0.163	-0.057
-493.551	-176.833	-0.350	-0.009
-492.537	-158.448	-0.351	0.020
-491.522	-114.409	0.119	-0.023
-490.508	508.613	0.059	-0.137
-489.493	800.000	0.100	-0.359
-488.478	216.041	-0.154	0.243
-487.464	-17.421	-0.063	-0.040
-486.449	277.787	-0.140	0.248
-485.435	-200.000	-0.014	-0.156
-484.420	-74.210	0.233	-0.084
-483.405	-82.834	-0.083	-0.027
-482.391	105.669	0.029	0.034
-481.376	-153.581	0.187	-0.013
-480.362	-124.972	-0.042	-0.006
-479.347	120.659	0.058	-0.072
-478.332	-200.000	-0.022	-0.117
-477.318	-37.350	0.138	0.073
-476.303	31.166	0.221	-0.188
-475.289	-200.000	0.028	-0.152
-474.274	124.510	-0.080	0.101
-473.259	-200.000	-0.032	-0.155
-472.245	4.986	-0.203	-0.148
-471.230	220.173	0.207	-0.330
-470.216	-200.000	0.001	0.043
-469.201	-200.000	0.065	0.552
-468.186	-73.664	0.117	0.042
-467.172	-5.598	-0.194	-0.132
-466.157	-97.731	0.162	-0.042
-465.143	-200.000	0.020	-0.306
-464.128	-80.118	-0.134	-0.045
-463.113	396.255	0.095	-0.198
-462.099	-132.394	-0.270	0.035
-461.084	325.961	0.163	0.309
-460.070	31.255	0.146	-0.125
-459.055	-130.028	0.093	-0.013
-458.040	72.532	-0.153	-0.158
-457.026	-17.618	0.266	0.166
-456.011	-123.076	-0.182	0.029
-454.997	800.000	0.047	0.147
-453.982	326.117	-0.151	-0.287
-452.968	229.356	-0.053	0.086
-451.953	252.203	-0.143	0.242
-450.938	-200.000	0.009	-0.444
-449.924	-30.057	-0.205	-0.116
-448.909	-54.712	-0.211	-0.095
-447.895	-200.000	0.034	-0.319
-446.880	800.000	0.022	0.068
-445.865	-71.805	-0.249	0.092
-444.851	-103.790	-0.249	0.058
-443.836	-88.945	-0.090	-0.026
-442.822	-97.323	0.071	-0.018
-441.807	-93.473	0.386	-0.106
-440.792	16.469	-0.135	0.106
-439.778	431.432	-0.025	0.054
-438.763	-200.000	0.048	0.279
-437.749	800.000	0.056	-0.181
-436.734	-200.000	-0.075	-0.351
-435.719	15.820	-0.242	-0.189
-434.705	-58.590	0.219	0.094
-433.690	-125.866	0.487	0.073
-432.676	157.943	-0.061	0.084
-431.661	-180.129	-0.124	-0.003
-430.646	-200.000	0.011	0.082
-429.632	-176.339	-0.147	-0.004
-428.617	-200.000	0.029	0.171
-427.603	373.139	0.133	-0.268
-426.588	310.998	-0.253	0.469
-425.573	-90.996	0.068	0.019
-424.559	14.401	-0.438	-0.339
-423.544	-200.000	-0.046	-0.205
-422.530	-51.947	0.146	0.067
-421.515	-200.000	-0.043	0.287
-420.500	23.399	-0.220	-0.179
-419.486	-35.767	-0.132	0.071
-418.471	89.855	0.261	0.289
-417.457	21.604	-0.324	-0.261
-416.442	-198.032	0.240	0.001
-415.428	-141.165	-0.307	0.031
-414.413	163.888	-0.094	0.132
-413.398	47.884	0.183	-0.169
-412.384	-200.000	-0.015	-0.132
-411.369	271.872	-0.113	0.197
-410.355	795.988	-0.073	0.200
-409.340	105.267	-0.176	-0.205
-408.325	800.000	0.054	0.197
-407.311	-49.890	-0.279	0.131
-406.296	-28.638	0.456	-0.260
-405.282	-76.802	-0.134	-0.047
-404.267	-147.274	-0.207	-0.017
-403.252	-99.012	-0.311	0.078
-402.238	-146.253	0.338	-0.029
-401.223	88.974	-0.072	0.079
-400.209	-24.979	-0.170	-0.100
-399.194	10.620	0.215	-0.162
-398.179	274.266	-0.116	-0.203
-397.165	32.547	-0.330	0.283
-396.150	512.227	-0.118	0.272
-395.136	-18.670	0.072	-0.045
-394.121	-57.095	-0.416	-0.182
-393.106	-31.639	-0.323	-0.180
-392.092	-4.951	0.243	0.166
-391.077	-12.949	0.180	0.116
-390.063	-163.331	-0.293	-0.014
-389.048	-130.206	0.167	-0.022
-388.033	53.088	-0.259	-0.246
-387.019	370.760	-0.043	-0.087
-386.004	107.038	0.228	0.268
-384.990	425.431	0.128	-0.272
-383.975	41.412	-0.225	-0.201
-382.960	-37.551	0.101	0.053
-381.946	64.991	0.105	0.105
-380.931	-101.474	-0.301	-0.072
-379.917	239.871	-0.020	0.033
-378.902	111.312	-0.079	0.094
-377.888	-21.006	-0.165	-0.100
-376.873	-115.443	-0.203	-0.038
-375.858	23.218	-0.257	0.209
-374.844	-46.683	0.245	0.119
-373.829	42.597	-0.137	0.123
-372.815	-58.068	-0.262	0.113
-371.800	800.000	-0.052	-0.143
-370.785	241.690	0.199	-0.330
-369.771	768.160	-0.044	-0.118
-368.756	-88.551	0.513	-0.151
-367.742	-200.000	-0.040	0.228
-366.727	-123.441	-0.272	-0.043
-365.712	582.431	0.040	-0.097
-364.698	107.468	-0.100	0.118
-363.683	-72.489	0.244	-0.089
-362.669	800.000	-0.090	-0.355
-361.654	199.894	-0.070	-0.106
-360.639	800.000	-0.100	0.277
-359.625	-148.253	0.390	0.032
-358.610	-200.000	-0.034	-0.323
-357.596	-115.048	-0.180	0.034
-356.581	167.843	0.134	-0.188
-355.566	532.306	-0.046	-0.108
-354.552	-200.000	-0.021	-0.157
-353.537	-8.256	0.203	0.135
-352.523	307.332	-0.052	0.096
-351.508	-42.381	0.244	-0.123
-350.493	-200.000	0.004	-0.432
-349.479	800.000	-0.090	0.309
-348.464	99.435	-0.145	0.166
-347.450	800.000	0.056	-0.223
-346.435	-72.180	0.278	0.102
-345.420	-126.946	-0.047	0.007
-344.406	68.054	-0.110	-0.112
-343.391	-153.625	0.145	0.010
-342.377	77.024	-0.097	-0.102
-341.362	-200.000	0.010	-0.096
-340.348	-140.196	0.347	-0.036
-339.333	614.580	0.021	-0.052
-338.318	170.489	-0.165	-0.233
-337.304	800.000	0.046	-0.162
-336.289	766.378	0.018	-0.050
-335.275	52.507	0.227	0.214
-334.260	366.393	-0.084	-0.168
-333.245	149.395	0.089	-0.119
-332.231	-61.819	-0.124	0.052
-331.216	507.200	0.068	0.157
-330.202	-141.639	0.063	-0.006
-329.187	-200.000	0.044	0.406
-328.172	-115.514	0.205	-0.038
-327.158	800.000	-0.111	0.317
-326.143	-19.379	-0.190	0.116
-325.129	-136.022	-0.225	-0.026
-324.114	800.000	0.081	-0.313
-323.099	-8.428	-0.444	-0.295
-322.085	-104.463	0.264	-0.060
-321.070	-145.083	-0.237	0.021
-320.056	-144.453	-0.088	0.008
-319.041	322.079	0.041	0.077
-318.026	238.223	-0.055	-0.090
-317.012	-8.072	-0.119	-0.079
-315.997	-120.196	-0.274	-0.046
-314.983	-79.985	-0.359	-0.119
-313.968	-59.885	0.213	0.090
-312.953	45.319	0.083	0.076
-311.939	-107.500	-0.015	-0.003
-310.924	-21.148	-0.091	0.055
-309.910	237.533	0.210	0.344
-308.895	-86.015	-0.190	0.058
-307.880	-127.901	-0.441	0.063
-306.866	-0.522	-0.166	0.116
-305.851	-132.473	0.289	0.037
-304.837	-200.000	-0.035	-0.178
-303.822	-91.968	0.096	-0.027
-302.807	199.927	-0.147	-0.222
-301.793	-25.469	0.213	-0.124
-300.778	66.749	0.101	0.101
-299.764	-59.014	0.437	-0.186
-298.749	-25.510	-0.163	0.095
-297.735	-8.935	-0.300	0.199
-296.720	-200.000	0.025	0.429
-295.705	800.000	0.045	0.168
-294.691	800.000	-0.013	-0.054
-293.676	121.289	-0.032	0.039
-292.662	387.384	-0.078	-0.158
-291.647	287.206	-0.064	-0.114
-290.632	-174.445	0.180	-0.005
-289.618	-81.568	0.275	-0.089
-288.603	486.180	0.095	0.213
-287.589	73.617	-0.378	0.391
-286.574	-200.000	0.028	0.192
-285.559	800.000	-0.049	0.185
-284.545	800.000	-0.135	-0.409
-283.530	160.657	-0.111	-0.153
-282.516	-45.342	0.151	-0.074
-281.501	132.901	-0.120	-0.153
-280.486	119.050	0.082	0.101
-279.472	438.748	0.068	-0.145
-278.457	151.565	0.174	-0.233
-277.443	60.873	0.130	0.128
-276.428	-130.912	0.121	-0.016
-275.413	589.608	-0.090	0.218
-274.399	147.127	0.223	0.296
-273.384	-200.000	-0.003	-0.158
-272.370	-200.000	-0.031	-0.164
-271.355	148.246	0.244	0.324
-270.340	71.908	-0.293	0.301
-269.326	-200.000	0.006	-0.228
-268.311	-48.786	-0.253	0.120
-267.297	-200.000	-0.031	0.238
-266.282	-200.000	0.010	0.132
-265.267	-43.854	-0.012	0.006
-264.253	575.928	-0.071	0.170
-263.238	-76.436	-0.244	0.085
-262.224	-10.126	-0.203	0.133
-261.209	-108.962	-0.086	0.018
-260.195	-165.644	0.140	-0.006
-259.180	800.000	-0.067	0.230
-258.165	800.000	0.087	-0.282
-257.151	65.235	-0.173	0.172
-256.136	-97.118	0.317	0.082
-255.122	-160.143	-0.301	0.016
-254.107	-108.125	0.163	-0.035
-253.092	-34.729	0.185	-0.100
-252.078	89.483	0.183	0.201
-251.063	800.000	-0.083	0.279
-250.049	34.891	-0.097	0.084
-249.034	286.407	0.054	0.096
-248.019	-163.112	0.314	-0.015
-247.005	-92.670	-0.196	0.054
-245.990	32.748	0.150	-0.127
-244.976	-104.664	0.120	-0.027
-243.961	-200.000	-0.010	0.342
-242.946	-80.352	0.106	0.035
-241.932	-200.000	-0.048	-0.391
-240.917	800.000	-0.038	0.149
-239.903	-200.000	-0.042	0.216
-238.888	-200.000	-0.036	0.255
-237.873	99.391	0.122	-0.139
-236.859	250.011	0.032	0.053
-235.844	-200.000	-0.030	0.178
-234.830	-122.508	0.217	0.035
-233.815	32.472	0.134	-0.114
-232.800	216.856	0.095	0.150
-231.786	-44.631	-0.062	-0.030
-230.771	-88.596	0.306	0.090
-229.757	-76.763	-0.375	0.129
-228.742	-200.000	-0.018	-0.260
-227.727	104.500	-0.278	0.322
-226.713	27.372	0.167	-0.139
-225.698	63.336	-0.071	0.070
-224.684	-200.000	0.002	-0.072
-223.669	800.000	0.024	0.079
-222.655	283.634	0.030	0.054
-221.640	-200.000	-0.050	0.331
-220.625	61.340	-0.212	0.207
-219.611	-15.144	0.198	0.124
-218.596	-31.301	-0.354	0.196
-217.582	800.000	0.077	0.286
-216.567	800.000	0.064	0.175
-215.552	800.000	0.082	-0.352
-214.538	-39.616	0.126	0.065
-213.523	-13.333	-0.080	0.051
-212.509	80.116	-0.212	-0.224
-211.494	577.319	-0.117	0.282
-210.479	60.263	0.160	0.156
-209.465	800.000	-0.051	0.170
-208.450	-200.000	0.006	0.072
-207.436	-126.157	-0.196	-0.029
-206.421	800.000	-0.072	-0.264
-205.406	-200.000	-0.000	-0.277
-204.392	215.832	0.066	0.103
-203.377	298.050	-0.054	0.098
-202.363	-143.466	0.255	-0.024
-201.348	786.432	0.064	0.173
-200.333	-111.386	0.047	0.009
-199.319	438.769	0.079	-0.170
-198.304	623.676	0.150	-0.373
-197.290	-79.378	-0.296	-0.098
-196.275	281.993	0.188	-0.330
-195.260	-200.000	0.004	-0.237
-194.246	-85.114	0.230	0.071
-193.231	778.453	0.105	-0.283
-192.217	-98.492	0.670	0.168
-191.202	-136.847	0.208	-0.024
-190.187	74.243	0.123	0.127
-189.173	-151.001	0.185	0.014
-188.158	-200.000	0.028	-0.122
-187.144	-13.559	0.513	-0.326
-186.129	341.722	0.154	-0.296
-185.114	-23.313	0.230	0.136
-184.100	65.437	-0.162	-0.161
-183.085	-200.000	0.010	-0.102
-182.071	800.000	-0.095	0.260
-181.056	-20.206	-0.194	0.117
-180.042	19.373	-0.161	-0.127
-179.027	-26.760	0.169	-0.097
-178.012	-42.151	0.167	0.084
-176.998	800.000	0.076	-0.224
-175.983	-200.000	0.049	-0.352
-174.969	-200.000	-0.018	-0.109
-173.954	-200.000	-0.038	0.233
-172.939	-164.201	-0.165	0.007
-171.925	85.795	-0.144	0.156
-170.910	-76.089	0.128	-0.044
-169.896	-152.381	-0.276	-0.020
-168.881	-200.000	0.012	-0.232
-167.866	-156.619	-0.143	-0.009
-166.852	141.608	-0.288	0.374
-165.837	800.000	0.048	0.135
-164.823	-73.709	0.128	0.046
-163.808	-18.235	-0.155	0.095
-162.793	-68.936	0.290	-0.110
-161.779	54.634	0.240	-0.227
-160.764	34.260	-0.243	0.208
-159.750	63.361	0.096	-0.094
-158.735	-200.000	0.001	-0.194
-157.720	38.674	0.248	0.217
-156.706	128.322	-0.108	0.135
-155.691	17.235	0.188	0.146
-154.677	-136.447	0.136	0.015
-153.662	117.738	0.184	-0.222
-152.647	-151.818	0.308	0.022
-151.633	-114.490	0.103	0.019
-150.618	92.891	0.309	-0.342
-149.604	-200.000	0.033	0.314
-148.589	800.000	0.095	0.293
-147.574	101.900	0.340	0.389
-146.560	-200.000	0.000	-0.137
-145.545	-163.671	-0.098	-0.005
-144.531	710.424	0.025	-0.065
-143.516	-1.699	-0.134	0.093
-142.502	18.872	0.230	0.181
-141.487	38.609	0.083	-0.073
-140.472	227.185	-0.029	-0.046
-139.458	70.274	0.220	0.223
-138.443	-200.000	0.077	-0.330
-137.429	-17.044	-0.291	0.180
-136.414	-39.782	0.144	-0.074
-135.399	-200.000	0.010	-0.057
-134.385	92.769	-0.043	0.047
-133.370	-51.316	0.087	-0.040
-132.356	324.997	-0.056	-0.104
-131.341	-115.926	0.167	-0.031
-130.326	206.843	0.092	0.141
-129.312	800.000	-0.068	0.226
-128.297	-106.951	-0.097	0.021
-127.283	57.377	-0.052	-0.050
-126.268	-10.207	0.069	0.045
-125.253	-190.129	-0.102	0.001
-124.239	-200.000	0.024	0.240
-123.224	285.870	0.162	-0.286
-122.210	98.676	0.153	0.173
-121.195	-200.000	-0.010	-0.216
