DTS Sentinel unit serial number:	SN413079Multiplexer serial number:	ORYXHardware model number:	OX4-SRSoftware version number:	ORYX F/W v4.00 Oryx Data Collector v3.7.2.0data status	okinstallation	princeton_trtdifferential loss correction	single-endedforward channel	channel 3reverse channel	N/Adate	2019/09/16time	10:56:35forward acquisition time	60.00reverse acquisition time	0.00gamma	496.2192k internal	0.2301k external	0.2301temperature offset calibration	0.9941default loss term (dB/km)	0.3790temperature slope calibration	1.0000multiplexer offset coefficient	1.0000multiplexer slope coefficient	1.0000fibre end	0.00T internal ref (°C)	36.67T ext. ref 1 (°C)	12.74T ext. ref 2 (°C)	34.34length (m)	temperature (°C)	Stokes	anti-Stokes-747.200	26.698	-0.164	-0.140
-746.185	-106.163	0.129	0.030
-745.171	134.962	-0.245	0.324
-744.156	-75.277	-0.249	0.091
-743.142	-138.303	0.254	-0.029
-742.127	-23.244	0.176	-0.108
-741.112	-44.336	0.175	0.089
-740.098	-200.000	0.025	0.123
-739.083	-159.119	-0.208	-0.012
-738.069	-57.610	-0.202	0.090
-737.054	82.370	-0.099	0.109
-736.039	-31.016	0.103	0.060
-735.025	-88.231	0.284	0.087
-734.010	441.135	-0.016	0.035
-732.996	-134.109	-0.277	-0.035
-731.981	23.296	0.157	0.131
-730.966	-200.000	0.007	-0.283
-729.952	-47.162	0.099	-0.049
-728.937	-108.368	-0.104	0.023
-727.923	1.797	0.192	-0.141
-726.908	-86.978	-0.274	-0.085
-725.894	751.747	-0.010	-0.026
-724.879	155.383	-0.148	-0.208
-723.864	800.000	-0.085	-0.317
-722.850	48.968	-0.236	-0.226
-721.835	-27.925	-0.204	-0.121
-720.821	-200.000	0.000	-0.155
-719.806	119.935	-0.275	0.347
-718.791	564.924	0.172	-0.424
-717.777	109.268	-0.290	-0.353
-716.762	-10.038	0.090	-0.061
-715.748	-200.000	-0.029	-0.417
-714.733	-59.701	-0.316	-0.138
-713.718	-83.867	-0.414	-0.134
-712.704	-200.000	-0.007	0.139
-711.689	-200.000	0.004	-0.039
-710.675	-34.756	-0.115	0.064
-709.660	-200.000	-0.008	0.114
-708.645	-62.788	-0.310	0.131
-707.631	-200.000	-0.005	-0.097
-706.616	-4.528	-0.022	0.015
-705.602	-200.000	-0.019	-0.108
-704.587	-177.879	-0.297	-0.007
-703.572	-163.869	0.038	-0.002
-702.558	800.000	-0.033	-0.112
-701.543	38.850	-0.146	-0.133
-700.529	-200.000	0.014	0.201
-699.514	-135.069	0.393	-0.048
-698.499	-110.357	-0.376	-0.080
-697.485	-103.877	-0.332	0.079
-696.470	-200.000	-0.043	-0.364
-695.456	-72.638	-0.156	-0.058
-694.441	94.907	0.190	-0.220
-693.426	800.000	-0.077	-0.272
-692.412	158.961	-0.249	0.352
-691.397	-200.000	0.015	0.142
-690.383	187.726	-0.133	0.201
-689.368	202.763	0.105	-0.166
-688.354	-56.867	-0.236	-0.106
-687.339	67.775	0.214	-0.223
-686.324	-18.189	-0.147	-0.094
-685.310	-200.000	-0.015	-0.091
-684.295	157.988	-0.085	0.120
-683.281	-6.579	0.171	0.118
-682.266	-114.852	-0.297	0.058
-681.251	-163.071	0.151	0.007
-680.237	17.477	-0.157	0.127
-679.222	-96.115	-0.244	0.066
-678.208	800.000	-0.064	-0.210
-677.193	322.261	0.161	-0.313
-676.178	16.221	0.135	0.108
-675.164	-143.619	0.362	-0.035
-674.149	-76.227	-0.207	-0.074
-673.135	-100.245	0.129	-0.033
-672.120	-63.390	0.242	0.101
-671.105	-154.766	-0.105	0.007
-670.091	339.908	0.154	-0.306
-669.076	107.427	-0.128	-0.155
-668.062	-139.799	-0.199	0.021
-667.047	-63.991	0.343	0.143
-666.032	-124.289	-0.189	-0.030
-665.018	-145.788	-0.038	-0.003
-664.003	-141.021	0.315	-0.033
-662.989	-55.811	0.146	-0.066
-661.974	-47.568	0.275	-0.136
-660.959	-200.000	0.010	-0.091
-659.945	800.000	-0.017	-0.070
-658.930	-1.711	0.312	-0.223
-657.916	111.360	-0.089	0.110
-656.901	-175.329	-0.143	0.004
-655.886	-121.265	-0.200	-0.034
-654.872	800.000	0.041	-0.124
-653.857	-79.480	-0.262	-0.090
-652.843	-74.465	0.166	0.061
-651.828	21.450	-0.070	0.058
-650.814	252.009	-0.053	-0.092
-649.799	-5.523	0.501	0.349
-648.784	-62.073	-0.238	0.101
-647.770	-8.631	-0.216	-0.147
-646.755	-38.057	0.159	-0.086
-645.741	375.977	-0.061	0.126
-644.726	-200.000	0.004	-0.087
-643.711	76.798	0.138	-0.149
-642.697	-39.222	0.263	-0.141
-641.682	-200.000	-0.005	-0.341
-640.668	-26.996	-0.205	-0.122
-639.653	69.891	0.152	-0.159
-638.638	315.390	-0.062	-0.119
-637.624	-128.070	0.193	-0.028
-636.609	200.517	-0.130	-0.203
-635.595	-200.000	-0.031	-0.257
-634.580	-9.929	-0.113	-0.076
-633.565	-200.000	0.019	0.260
-632.551	-200.000	-0.021	0.147
-631.536	302.059	-0.122	-0.229
-630.522	243.095	0.083	-0.141
-629.507	-200.000	-0.012	-0.237
-628.492	-136.226	-0.102	0.012
-627.478	-38.405	0.291	-0.156
-626.463	85.937	0.143	-0.160
-625.449	-53.338	-0.281	-0.131
-624.434	181.553	0.112	0.166
-623.419	45.798	0.061	-0.058
-622.405	-41.706	-0.148	-0.077
-621.390	-58.925	0.377	-0.165
-620.376	21.992	-0.218	0.180
-619.361	800.000	-0.072	-0.246
-618.346	15.660	0.091	-0.072
-617.332	-83.067	-0.184	-0.060
-616.317	105.435	-0.210	0.251
-615.303	-200.000	0.000	0.060
-614.288	112.797	0.102	-0.126
-613.273	-153.476	0.325	-0.023
-612.259	-72.004	0.207	0.078
-611.244	-70.214	-0.348	-0.134
-610.230	-148.527	-0.199	0.016
-609.215	-113.071	0.364	0.073
-608.201	-17.458	-0.255	0.163
-607.186	157.850	0.122	0.172
-606.171	-145.499	-0.203	-0.018
-605.157	677.676	-0.138	-0.364
-604.142	-87.640	0.192	-0.059
-603.128	246.792	0.099	0.170
-602.113	-165.624	-0.115	-0.005
-601.098	225.183	0.159	-0.260
-600.084	-6.338	0.198	-0.137
-599.069	800.000	-0.049	0.170
-598.055	336.529	0.109	-0.214
-597.040	191.187	0.173	-0.263
-596.025	55.884	-0.196	-0.193
-595.011	800.000	0.093	-0.337
-593.996	-25.412	-0.228	-0.137
-592.982	-51.072	0.078	0.037
-591.967	-70.534	-0.377	0.145
-590.952	-106.252	0.249	0.056
-589.938	800.000	0.080	-0.281
-588.923	-200.000	0.021	-0.114
-587.909	134.474	-0.160	-0.211
-586.894	71.901	0.220	0.232
-585.879	-200.000	-0.018	-0.081
-584.865	177.838	0.083	-0.123
-583.850	-147.513	-0.396	-0.034
-582.836	-29.339	0.461	0.267
-581.821	800.000	-0.094	-0.265
-580.806	-200.000	0.013	-0.289
-579.792	28.710	-0.193	-0.166
-578.777	-166.565	0.112	-0.005
-577.763	663.963	-0.069	-0.181
-576.748	150.935	-0.039	-0.054
-575.733	-146.697	-0.034	-0.003
-574.719	231.408	-0.235	-0.391
-573.704	-200.000	-0.006	0.141
-572.690	-200.000	0.010	0.089
-571.675	-200.000	-0.025	-0.249
-570.661	-44.377	-0.080	-0.041
-569.646	-4.977	-0.311	-0.217
-568.631	-40.943	-0.294	0.154
-567.617	479.433	0.056	-0.128
-566.602	-11.557	0.135	0.090
-565.588	-200.000	-0.024	0.261
-564.573	122.527	-0.213	0.269
-563.558	-144.106	0.244	0.023
-562.544	-116.747	-0.058	0.011
-561.529	336.083	0.210	-0.412
-560.515	-40.396	-0.087	0.046
-559.500	520.999	0.099	0.234
-558.485	-102.436	0.168	-0.041
-557.471	800.000	-0.033	-0.128
-556.456	86.188	-0.096	0.107
-555.442	138.228	-0.170	-0.226
-554.427	800.000	0.078	0.293
-553.412	-200.000	-0.015	0.236
-552.398	-60.876	0.261	0.112
-551.383	36.660	0.210	-0.188
-550.369	-45.588	-0.213	0.107
-549.354	-200.000	0.018	-0.197
-548.339	-90.305	-0.220	-0.065
-547.325	192.810	-0.087	-0.132
-546.310	-35.219	0.098	-0.054
-545.296	-51.978	-0.075	-0.035
-544.281	789.511	-0.049	-0.136
-543.266	800.000	0.063	-0.260
-542.252	147.062	-0.185	-0.252
-541.237	-200.000	0.001	-0.254
-540.223	79.623	0.197	0.214
-539.208	800.000	-0.013	-0.039
-538.193	-200.000	0.018	-0.218
-537.179	-186.425	-0.295	0.004
-536.164	-147.029	0.059	0.005
-535.150	-96.086	0.147	-0.039
-534.135	-131.372	0.109	0.015
-533.121	398.188	-0.147	0.312
-532.106	187.512	-0.183	-0.276
-531.091	-200.000	0.028	0.134
-530.077	-146.710	-0.054	-0.005
-529.062	14.871	-0.136	0.107
-528.048	729.134	0.081	0.219
-527.033	13.490	-0.074	-0.058
-526.018	99.644	0.263	0.307
-525.004	377.824	0.163	0.338
-523.989	205.414	-0.069	0.108
-522.975	-150.836	-0.285	0.022
-521.960	503.547	-0.054	0.127
-520.945	35.868	-0.519	0.461
-519.931	220.716	0.106	-0.172
-518.916	15.378	-0.298	-0.237
-517.902	485.350	0.141	0.325
-516.887	466.424	0.085	0.193
-515.872	-200.000	-0.022	-0.188
-514.858	194.178	0.056	-0.086
-513.843	280.960	-0.099	-0.179
-512.829	-200.000	0.023	-0.119
-511.814	800.000	0.024	-0.089
-510.799	447.552	-0.078	0.173
-509.785	192.540	-0.121	-0.184
-508.770	-140.168	-0.129	-0.014
-507.756	800.000	-0.068	0.206
-506.741	800.000	0.051	0.208
-505.726	800.000	0.167	-0.627
-504.712	11.528	-0.337	-0.261
-503.697	202.169	0.191	-0.298
-502.683	219.994	0.172	-0.278
-501.668	56.896	0.135	-0.133
-500.653	761.642	-0.081	0.221
-499.639	-18.283	-0.305	-0.192
-498.624	416.403	0.224	-0.482
-497.610	-200.000	0.026	0.194
-496.595	-111.745	0.141	0.029
-495.581	-65.142	0.034	-0.014
-494.566	-33.413	-0.140	0.078
-493.551	-125.327	-0.541	-0.083
-492.537	-30.088	-0.316	0.181
-491.522	-140.644	0.241	-0.025
-490.508	-32.749	-0.261	0.147
-489.493	-200.000	-0.004	-0.295
-488.478	-88.337	-0.274	-0.083
-487.464	-101.447	0.198	0.049
-486.449	206.885	-0.084	0.131
-485.435	219.125	-0.029	0.047
-484.420	-82.718	-0.089	0.029
-483.405	360.601	-0.116	0.235
-482.391	-115.422	0.130	-0.025
-481.376	173.360	0.104	-0.151
-480.362	42.629	-0.190	-0.175
-479.347	-200.000	-0.004	0.063
-478.332	-190.083	0.301	0.003
-477.318	79.118	0.092	0.099
-476.303	-200.000	0.005	0.065
-475.289	-11.849	0.121	0.080
-474.274	458.960	0.057	0.128
-473.259	-152.908	-0.135	-0.010
-472.245	-83.759	-0.344	0.111
-471.230	132.606	-0.152	0.197
-470.216	-81.903	-0.258	0.085
-469.201	800.000	0.024	-0.107
-468.186	-83.578	0.350	0.113
-467.172	5.314	0.270	-0.201
-466.157	299.784	0.099	-0.184
-465.143	-114.987	0.235	0.045
-464.128	-138.509	0.158	0.017
-463.113	431.625	-0.132	0.288
-462.099	-200.000	0.027	-0.202
-461.084	253.445	0.107	0.184
-460.070	-62.367	0.219	-0.092
-459.055	800.000	-0.063	-0.210
-458.040	11.905	0.251	-0.194
-457.026	-22.745	-0.394	0.240
-456.011	-115.971	-0.162	0.030
-454.997	-200.000	-0.005	-0.295
-453.982	-200.000	-0.025	0.109
-452.968	-126.877	0.396	-0.059
-451.953	-44.285	-0.285	0.144
-450.938	-151.362	-0.384	0.029
-449.924	725.498	-0.070	0.188
-448.909	800.000	-0.007	0.032
-447.895	-31.793	0.125	-0.071
-446.880	800.000	-0.064	-0.241
-445.865	-61.973	-0.225	-0.095
-444.851	283.300	0.098	-0.178
-443.836	800.000	0.026	-0.083
-442.822	52.664	-0.186	0.179
-441.807	745.154	-0.129	0.351
-440.792	163.956	-0.265	0.376
-439.778	-102.502	0.337	0.081
-438.763	-200.000	0.018	0.164
-437.749	2.663	-0.180	0.131
-436.734	-200.000	0.031	-0.218
-435.719	-158.805	-0.124	-0.007
-434.705	-200.000	0.001	0.159
-433.690	-200.000	0.020	0.479
-432.676	3.155	0.298	0.218
-431.661	141.970	-0.220	0.294
-430.646	-200.000	0.022	0.174
-429.632	-200.000	0.038	0.386
-428.617	-182.056	0.342	-0.006
-427.603	-96.912	-0.370	-0.098
-426.588	800.000	0.060	0.233
-425.573	-104.243	-0.203	-0.047
-424.559	91.544	-0.057	-0.065
-423.544	43.040	-0.181	-0.166
-422.530	305.532	-0.139	-0.260
-421.515	260.063	0.015	-0.027
-420.500	-129.617	-0.234	0.033
-419.486	-200.000	0.009	-0.093
-418.471	14.137	-0.177	0.138
-417.457	177.570	0.171	0.251
-416.442	166.317	-0.027	0.039
-415.428	165.774	-0.196	-0.280
-414.413	-143.591	-0.273	0.026
-413.398	800.000	-0.070	0.283
-412.384	0.339	-0.179	-0.129
-411.369	800.000	0.047	0.195
-410.355	101.476	0.202	0.237
-409.340	-99.037	0.077	0.020
-408.325	-75.848	-0.374	-0.133
-407.311	-104.583	0.085	-0.020
-406.296	201.263	0.106	0.163
-405.282	27.629	0.119	-0.101
-404.267	29.755	0.316	0.271
-403.252	-142.026	-0.137	-0.014
-402.238	95.119	0.318	0.364
-401.223	-118.150	-0.154	0.028
-400.209	-127.171	0.382	0.056
-399.194	-131.401	-0.116	-0.015
-398.179	-200.000	0.066	-0.328
-397.165	703.955	0.039	-0.103
-396.150	10.770	-0.212	0.163
-395.136	-108.336	0.084	-0.018
-394.121	160.033	0.169	0.236
-393.106	800.000	-0.031	-0.094
-392.092	332.865	-0.168	0.327
-391.077	-68.278	0.140	0.055
-390.063	-200.000	0.080	0.372
-389.048	25.132	0.208	-0.174
-388.033	29.536	0.149	0.127
-387.019	-157.592	-0.321	0.019
-386.004	365.753	0.030	-0.061
-384.990	455.271	-0.163	0.364
-383.975	800.000	-0.114	0.351
-382.960	392.819	-0.240	-0.503
-381.946	-48.668	-0.385	0.186
-380.931	-62.991	0.273	0.113
-379.917	148.269	-0.090	0.122
-378.902	511.783	0.089	0.209
-377.888	535.987	-0.049	0.117
-376.873	800.000	0.024	0.080
-375.858	-32.082	0.237	0.133
-374.844	57.279	0.107	0.105
-373.829	-200.000	0.002	0.056
-372.815	-60.064	-0.120	0.052
-371.800	391.465	-0.082	-0.172
-370.785	5.016	0.192	0.142
-369.771	-86.885	-0.201	0.062
-368.756	645.899	-0.103	-0.264
-367.742	-98.562	0.138	0.036
-366.727	295.115	0.059	0.109
-365.712	135.961	0.177	0.231
-364.698	-50.271	0.262	0.124
-363.683	-71.267	-0.077	-0.029
-362.669	-83.954	-0.212	0.068
-361.654	39.173	0.248	-0.223
-360.639	-45.136	0.123	0.062
-359.625	-40.241	-0.133	-0.069
-358.610	-8.719	0.056	0.038
-357.596	-151.557	0.143	-0.011
-356.581	800.000	0.086	-0.259
-355.566	148.200	-0.216	0.292
-354.552	5.321	0.099	-0.073
-353.537	-200.000	-0.029	-0.140
-352.523	-103.002	0.043	-0.010
-351.508	18.875	-0.119	-0.096
-350.493	71.891	0.304	-0.317
-349.479	800.000	-0.066	-0.205
-348.464	-137.695	-0.084	0.009
-347.450	-16.116	-0.126	-0.080
-346.435	800.000	0.136	-0.424
-345.420	-80.946	-0.292	-0.097
-344.406	35.686	0.045	0.040
-343.391	-103.529	0.246	-0.058
-342.377	-200.000	-0.043	0.451
-341.362	-36.616	-0.102	-0.055
-340.348	104.852	0.208	0.247
-339.333	-10.577	0.095	-0.063
-338.318	-71.793	0.265	0.099
-337.304	112.418	-0.115	0.139
-336.289	-28.156	-0.056	0.032
-335.275	190.576	-0.148	0.223
-334.260	62.824	-0.166	0.166
-333.245	145.124	-0.131	-0.176
-332.231	287.018	0.135	0.244
-331.216	384.921	0.073	-0.150
-330.202	66.366	0.035	-0.036
-329.187	-200.000	0.014	0.149
-328.172	39.947	0.085	-0.076
-327.158	39.778	0.189	0.170
-326.143	-2.911	0.062	-0.043
-325.129	-101.399	0.169	-0.041
-324.114	-66.411	0.154	-0.061
-323.099	-200.000	-0.058	-0.437
-322.085	6.525	-0.346	0.258
-321.070	-200.000	-0.036	0.364
-320.056	284.090	-0.099	0.179
-319.041	-45.377	-0.414	-0.206
-318.026	-87.473	0.231	0.070
-317.012	-9.454	-0.280	-0.187
-315.997	0.340	0.247	0.177
-314.983	-98.426	0.110	-0.028
-313.968	800.000	-0.033	-0.127
-312.953	800.000	-0.027	0.094
-311.939	32.490	-0.170	0.147
-310.924	-200.000	0.036	0.203
-309.910	-156.612	0.388	-0.024
-308.895	-150.251	-0.522	0.040
-307.880	65.699	-0.051	0.052
-306.866	298.727	-0.162	-0.299
-305.851	-200.000	-0.018	-0.135
-304.837	76.433	-0.108	-0.114
-303.822	-64.508	0.250	-0.102
-302.807	-200.000	-0.017	-0.112
-301.793	800.000	-0.039	-0.145
-300.778	-32.973	-0.236	0.131
-299.764	16.639	-0.219	0.173
-298.749	800.000	-0.093	-0.265
-297.735	-21.888	-0.130	-0.080
-296.720	-152.263	0.144	0.010
-295.705	-86.389	-0.270	0.083
-294.691	-3.415	-0.274	0.191
-293.676	-200.000	0.039	-0.179
-292.662	-200.000	-0.048	0.315
-291.647	130.815	0.030	-0.038
-290.632	62.062	-0.070	0.070
-289.618	-200.000	0.051	0.252
-288.603	-155.400	0.485	-0.031
-287.589	-168.240	0.329	0.013
-286.574	42.269	-0.058	-0.053
-285.559	-70.117	-0.287	0.109
-284.545	-140.113	0.096	0.010
-283.530	-200.000	0.050	-0.326
-282.516	764.477	0.033	0.089
-281.501	-128.771	0.331	0.047
-280.486	800.000	-0.026	0.100
-279.472	800.000	0.042	0.168
-278.457	188.396	0.134	-0.201
-277.443	-48.621	0.210	0.101
-276.428	-105.551	-0.187	0.042
-275.413	-53.703	0.252	-0.115
-274.399	-200.000	0.044	-0.282
-273.384	-57.086	-0.044	0.019
-272.370	2.925	-0.263	-0.191
-271.355	81.904	-0.235	0.255
-270.340	-91.455	-0.169	0.048
-269.326	92.035	-0.095	-0.107
-268.311	-29.410	0.079	-0.045
-267.297	-93.229	-0.325	0.090
-266.282	-200.000	-0.017	0.164
-265.267	-91.717	0.268	0.076
-264.253	800.000	0.099	-0.292
-263.238	413.494	0.088	-0.187
-262.224	70.085	0.174	-0.180
-261.209	38.573	0.348	-0.311
-260.195	-200.000	0.009	-0.297
-259.180	-51.424	-0.347	-0.162
-258.165	569.145	-0.100	-0.243
-257.151	-95.146	0.092	-0.025
-256.136	-121.534	0.394	0.065
-255.122	299.730	0.213	0.392
-254.107	800.000	-0.066	-0.228
-253.092	17.197	0.165	0.131
-252.078	552.304	0.121	-0.290
-251.063	5.143	0.153	0.113
-250.049	-83.193	-0.166	-0.053
-249.034	-138.989	0.281	-0.030
-248.019	213.628	0.060	0.095
-247.005	-200.000	0.004	0.031
-245.990	800.000	0.145	0.453
-244.976	648.743	-0.043	0.110
-243.961	33.694	-0.063	-0.054
-242.946	-40.335	0.182	-0.095
-241.932	-37.013	-0.112	-0.060
-240.917	82.599	0.102	0.111
-239.903	27.826	0.067	0.056
-238.888	208.278	-0.063	0.099
-237.873	800.000	0.069	0.226
-236.859	-200.000	0.013	0.514
-235.844	-82.946	-0.232	0.075
-234.830	800.000	0.120	0.389
-233.815	-89.011	0.159	-0.047
-232.800	403.039	-0.085	-0.178
-231.786	204.350	0.190	0.295
-230.771	50.072	0.101	-0.095
-229.757	-83.626	0.087	0.028
-228.742	12.311	0.255	-0.196
-227.727	-48.670	-0.187	-0.090
-226.713	-28.805	0.245	0.141
-225.698	-48.208	0.157	0.076
-224.684	-7.964	-0.263	0.177
-223.669	564.933	0.069	-0.167
-222.655	249.620	0.021	-0.035
-221.640	-130.803	-0.242	-0.032
-220.625	-1.767	0.151	-0.106
-219.611	129.112	-0.052	-0.067
-218.596	-200.000	0.042	0.199
-217.582	280.970	-0.168	0.300
-216.567	-200.000	-0.032	-0.237
-215.552	-106.119	-0.068	0.015
-214.538	-25.514	-0.081	0.048
-213.523	-108.450	0.250	0.054
-212.509	199.159	0.077	-0.119
-211.494	-200.000	0.008	0.134
-210.479	-200.000	0.053	-0.256
-209.465	-200.000	0.015	-0.145
-208.450	335.093	0.063	0.121
-207.436	30.192	-0.032	-0.027
-206.421	180.292	0.166	-0.243
-205.406	513.173	-0.124	0.289
-204.392	-165.657	-0.406	-0.018
-203.377	277.144	-0.124	-0.219
-202.363	298.293	-0.047	0.086
-201.348	352.494	0.128	0.253
-200.333	-200.000	0.032	0.141
-199.319	-200.000	0.012	-0.377
-198.304	-145.882	0.072	-0.006
-197.290	91.442	-0.231	-0.259
-196.275	-200.000	-0.007	-0.162
-195.260	-26.319	-0.101	-0.059
-194.246	-100.037	0.326	0.081
-193.231	50.088	-0.119	0.112
-192.217	-44.881	0.282	-0.140
-191.202	6.861	-0.181	0.134
-190.187	-200.000	0.010	0.117
-189.173	-37.975	-0.308	0.163
-188.158	76.372	-0.082	0.086
-187.144	-94.726	-0.086	0.023
-186.129	-59.781	0.339	-0.145
-185.114	-200.000	0.043	0.230
-184.100	-34.408	0.313	-0.171
-183.085	800.000	0.033	0.124
-182.071	-107.451	0.110	0.024
-181.056	-200.000	0.011	-0.186
-180.042	254.770	-0.137	-0.234
-179.027	310.231	0.127	-0.237
-178.012	466.593	-0.068	0.151
-176.998	-135.626	-0.284	-0.034
-175.983	10.435	0.228	-0.173
-174.969	176.774	-0.201	0.292
-173.954	-6.954	-0.193	-0.131
-172.939	-35.422	-0.063	0.034
-171.925	-65.690	-0.130	0.052
-170.910	-28.219	-0.309	-0.178
-169.896	62.282	0.298	0.296
-168.881	52.265	0.152	-0.145
-167.866	-64.030	0.273	-0.111
-166.852	83.748	0.243	0.264
-165.837	-54.603	-0.259	-0.117
-164.823	-28.719	0.275	0.158
-163.808	800.000	0.066	0.245
-162.793	9.634	0.219	0.165
-161.779	193.954	-0.126	-0.190
-160.764	-0.132	0.253	0.180
-159.750	-200.000	0.018	-0.099
-158.735	-7.630	0.295	0.199
-157.720	31.284	-0.147	-0.126
-156.706	154.273	-0.086	-0.117
-155.691	192.389	0.170	-0.255
-154.677	-200.000	0.048	-0.264
-153.662	-14.918	0.311	0.199
-152.647	800.000	-0.049	0.162
-151.633	52.843	0.128	0.122
-150.618	493.537	0.050	-0.113
-149.604	-200.000	0.015	-0.169
-148.589	-4.596	0.112	-0.077
-147.574	-13.573	-0.462	0.298
-146.560	-85.499	-0.318	0.099
-145.545	83.456	0.258	0.280
-144.531	546.743	0.073	0.173
-143.516	-80.239	0.576	-0.192
-142.502	183.178	-0.143	-0.211
-141.487	800.000	-0.027	-0.107
-140.472	170.903	0.248	0.353
-139.458	509.493	0.076	0.176
-138.443	346.543	-0.103	0.201
-137.429	-96.108	0.133	-0.035
-136.414	-7.775	-0.074	-0.049
-135.399	0.353	0.248	-0.176
-134.385	-200.000	-0.052	0.240
-133.370	8.633	-0.066	-0.049
-132.356	263.149	0.146	0.253
-131.341	-200.000	0.030	-0.231
-130.326	-97.311	-0.060	0.015
-129.312	257.225	0.068	-0.117
-128.297	140.021	0.204	-0.268
-127.283	286.270	-0.087	-0.155
-126.268	144.616	0.049	-0.065
-125.253	-30.094	-0.327	-0.185
-124.239	-200.000	0.083	0.364
-123.224	178.582	-0.147	0.214
-122.210	185.445	-0.113	-0.167
-121.195	161.053	0.224	0.312
