DTS Sentinel unit serial number:	SN413079Multiplexer serial number:	ORYXHardware model number:	OX4-SRSoftware version number:	ORYX F/W v4.00 Oryx Data Collector v3.7.2.0data status	okinstallation	princeton_trtdifferential loss correction	single-endedforward channel	channel 3reverse channel	N/Adate	2019/09/10time	21:54:11forward acquisition time	60.00reverse acquisition time	0.00gamma	496.2192k internal	0.2330k external	0.2330temperature offset calibration	0.9920default loss term (dB/km)	0.3790temperature slope calibration	1.0000multiplexer offset coefficient	1.0000multiplexer slope coefficient	1.0000fibre end	0.00T internal ref (°C)	30.80T ext. ref 1 (°C)	-0.30T ext. ref 2 (°C)	24.01length (m)	temperature (°C)	Stokes	anti-Stokes-747.200	-9.279	-0.180	-0.121
-746.185	800.000	-0.056	0.246
-745.171	800.000	0.035	-0.110
-744.156	-28.660	-0.125	0.072
-743.142	47.646	0.220	0.207
-742.127	-200.000	0.058	0.498
-741.112	-176.054	0.272	-0.007
-740.098	-200.000	0.039	0.266
-739.083	135.898	-0.057	0.075
-738.069	-200.000	-0.021	-0.167
-737.054	258.144	-0.109	0.188
-736.039	-41.828	-0.150	0.077
-735.025	156.889	0.165	-0.229
-734.010	-63.639	-0.050	0.021
-732.996	74.633	-0.105	0.111
-731.981	8.729	0.020	-0.015
-730.966	800.000	-0.063	0.210
-729.952	258.416	0.214	0.371
-728.937	227.798	-0.118	0.193
-727.923	-103.258	0.193	0.046
-726.908	553.717	0.092	0.222
-725.894	7.464	-0.159	0.119
-724.879	-57.209	-0.363	0.161
-723.864	54.089	0.099	0.096
-722.850	-133.065	0.329	-0.042
-721.835	-183.643	-0.223	-0.004
-720.821	800.000	0.120	0.467
-719.806	800.000	-0.119	0.372
-718.791	-200.000	0.008	-0.132
-717.777	-16.640	0.104	-0.066
-716.762	800.000	0.015	-0.052
-715.748	152.998	0.122	-0.167
-714.733	241.172	0.084	0.141
-713.718	18.712	-0.052	-0.042
-712.704	-68.517	-0.090	-0.035
-711.689	-35.629	0.312	-0.170
-710.675	9.416	0.116	-0.089
-709.660	50.862	-0.183	-0.174
-708.645	-114.249	-0.236	-0.046
-707.631	103.858	-0.144	0.170
-706.616	-200.000	-0.001	0.317
-705.602	-19.988	-0.147	-0.091
-704.587	-200.000	-0.019	-0.162
-703.572	-25.781	0.204	0.121
-702.558	-136.796	-0.075	0.009
-701.543	394.840	-0.262	0.548
-700.529	-37.009	-0.222	-0.120
-699.514	-200.000	0.070	0.361
-698.499	800.000	0.073	-0.233
-697.485	-200.000	-0.008	-0.049
-696.470	-123.759	0.094	-0.015
-695.456	73.793	0.139	-0.146
-694.441	17.595	0.218	0.175
-693.426	45.518	-0.136	-0.127
-692.412	323.556	-0.144	-0.276
-691.397	-200.000	0.019	-0.225
-690.383	-137.348	-0.078	-0.009
-689.368	-176.707	0.283	-0.007
-688.354	800.000	-0.001	-0.004
-687.339	424.332	0.105	0.228
-686.324	-200.000	0.005	0.064
-685.310	42.284	-0.290	-0.265
-684.295	-90.748	0.104	-0.030
-683.281	2.310	-0.094	0.068
-682.266	193.149	-0.025	-0.038
-681.251	-154.235	0.035	-0.002
-680.237	-37.609	0.328	0.175
-679.222	86.519	-0.144	-0.160
-678.208	-84.503	0.258	-0.082
-677.193	60.847	0.180	-0.179
-676.178	144.938	-0.184	0.247
-675.164	15.449	0.127	0.100
-674.149	-200.000	0.029	0.164
-673.135	160.317	0.078	0.109
-672.120	-11.850	-0.068	0.045
-671.105	-58.741	-0.343	-0.149
-670.091	800.000	-0.027	0.095
-669.076	17.337	-0.147	0.117
-668.062	-200.000	-0.070	-0.364
-667.047	-64.441	-0.246	-0.100
-666.032	800.000	-0.023	-0.098
-665.018	-143.929	-0.326	0.031
-664.003	800.000	0.092	0.339
-662.989	-44.103	-0.105	-0.053
-661.974	160.907	0.108	0.152
-660.959	25.946	-0.104	0.087
-659.945	-76.644	0.178	-0.063
-658.930	-9.020	0.136	-0.091
-657.916	-200.000	0.005	-0.230
-656.901	1.017	-0.143	0.103
-655.886	226.233	-0.096	-0.156
-654.872	-200.000	-0.013	-0.057
-653.857	-56.821	0.332	-0.147
-652.843	10.839	0.264	0.202
-651.828	157.259	-0.070	0.097
-650.814	800.000	-0.054	-0.231
-649.799	-114.378	-0.294	-0.057
-648.784	-75.083	-0.180	0.065
-647.770	-82.527	-0.071	-0.023
-646.755	-143.088	-0.058	0.006
-645.741	-123.967	-0.146	0.023
-644.726	201.654	0.133	-0.206
-643.711	-80.279	-0.301	-0.101
-642.697	23.094	-0.186	-0.153
-641.682	28.110	-0.446	0.378
-640.668	32.432	-0.237	-0.205
-639.653	-43.292	-0.208	0.105
-638.638	-54.020	0.102	-0.047
-637.624	88.997	0.052	-0.058
-636.609	-156.880	-0.217	0.013
-635.595	-101.386	-0.146	0.036
-634.580	22.340	-0.136	0.111
-633.565	-9.794	-0.169	-0.113
-632.551	11.371	0.247	-0.190
-631.536	298.030	-0.071	0.131
-630.522	-101.668	-0.032	0.008
-629.507	-16.411	-0.144	0.092
-628.492	-152.015	0.347	-0.025
-627.478	42.335	0.341	-0.311
-626.463	59.625	0.181	-0.179
-625.449	148.434	0.149	-0.201
-624.434	-134.106	-0.337	-0.042
-623.419	11.477	0.028	-0.021
-622.405	-200.000	-0.005	-0.127
-621.390	-77.278	0.218	-0.076
-620.376	-168.922	-0.067	-0.003
-619.361	-35.118	0.178	-0.097
-618.346	-86.313	0.086	0.027
-617.332	-200.000	-0.010	0.079
-616.317	800.000	-0.073	-0.307
-615.303	-125.572	-0.277	-0.042
-614.288	332.603	0.154	-0.298
-613.273	800.000	0.118	-0.340
-612.259	79.935	-0.050	0.054
-611.244	196.002	0.036	0.055
-610.230	-23.453	-0.109	-0.066
-609.215	2.857	0.205	0.149
-608.201	59.427	-0.208	0.206
-607.186	95.171	-0.082	0.093
-606.171	180.533	0.050	-0.074
-605.157	-90.701	-0.246	0.071
-604.142	142.507	0.123	0.163
-603.128	-200.000	0.020	0.151
-602.113	334.341	-0.069	-0.134
-601.098	-17.258	-0.147	0.093
-600.084	-53.402	-0.209	-0.096
-599.069	800.000	0.101	0.308
-598.055	-35.705	-0.130	0.071
-597.040	92.319	-0.089	0.101
-596.025	-200.000	0.013	-0.068
-595.011	-3.215	0.398	-0.278
-593.996	544.144	-0.061	0.147
-592.982	800.000	-0.054	-0.208
-591.967	800.000	-0.059	0.192
-590.952	-4.439	0.210	0.145
-589.938	167.226	-0.097	0.139
-588.923	-200.000	-0.382	0.002
-587.909	-200.000	-0.118	0.586
-586.894	-89.198	-0.183	0.054
-585.879	278.498	-0.130	0.232
-584.865	711.759	0.182	0.483
-583.850	779.571	-0.067	0.184
-582.836	-142.665	0.068	-0.007
-581.821	17.645	0.067	0.054
-580.806	-9.183	-0.227	-0.152
-579.792	-200.000	-0.040	0.235
-578.777	-74.405	0.147	0.053
-577.763	-151.597	0.259	0.019
-576.748	-200.000	-0.031	-0.159
-575.733	121.283	-0.060	0.074
-574.719	108.248	0.102	-0.121
-573.704	-200.000	-0.014	0.333
-572.690	-103.693	-0.132	-0.031
-571.675	-200.000	0.063	0.408
-570.661	-200.000	0.027	0.200
-569.646	-200.000	0.028	0.191
-568.631	-200.000	-0.001	0.172
-567.617	234.785	0.133	-0.219
-566.602	514.354	0.003	0.008
-565.588	4.943	-0.137	-0.101
-564.573	-52.651	0.036	0.017
-563.558	-200.000	0.002	-0.014
-562.544	-36.336	-0.245	-0.132
-561.529	800.000	0.065	-0.184
-560.515	544.905	0.030	0.071
-559.500	-5.138	-0.272	0.187
-558.485	-200.000	-0.003	-0.177
-557.471	327.664	0.095	-0.182
-556.456	-118.609	0.159	-0.028
-555.442	251.075	-0.120	0.204
-554.427	-5.995	0.206	0.141
-553.412	-29.461	-0.098	0.056
-552.398	-200.000	0.011	-0.145
-551.383	-84.247	-0.197	-0.062
-550.369	-163.312	-0.096	-0.005
-549.354	-78.746	0.299	0.102
-548.339	-69.642	0.104	-0.040
-547.325	95.925	-0.368	-0.420
-546.310	-88.605	0.194	-0.058
-545.296	-134.119	-0.143	0.018
-544.281	409.007	-0.125	0.263
-543.266	14.291	-0.087	0.067
-542.252	119.655	-0.086	-0.106
-541.237	-126.178	0.226	0.034
-540.223	465.026	0.054	0.121
-539.208	-90.100	-0.193	-0.056
-538.193	177.845	0.060	0.088
-537.179	43.638	0.223	-0.204
-536.164	105.293	0.292	-0.345
-535.150	-45.648	-0.332	-0.164
-534.135	800.000	-0.133	-0.478
-533.121	302.853	-0.079	0.146
-532.106	-98.253	0.117	-0.030
-531.091	-63.083	-0.112	-0.046
-530.077	-10.963	-0.100	0.066
-529.062	-200.000	-0.014	-0.274
-528.048	-94.531	-0.326	0.089
-527.033	76.231	-0.056	-0.059
-526.018	198.798	0.074	0.114
-525.004	-78.985	-0.259	0.088
-523.989	-28.794	-0.165	-0.095
-522.975	370.695	-0.121	-0.245
-521.960	-38.235	0.299	0.158
-520.945	-60.727	0.223	0.094
-519.931	-200.000	0.054	-0.478
-518.916	7.737	-0.253	0.189
-517.902	-57.505	-0.150	-0.066
-516.887	38.645	-0.275	0.245
-515.872	30.478	-0.156	-0.133
-514.858	122.624	-0.124	-0.155
-513.843	-169.960	0.053	-0.002
-512.829	-126.835	0.348	0.051
-511.814	-20.914	-0.179	0.109
-510.799	499.193	-0.123	-0.283
-509.785	-200.000	-0.016	-0.269
-508.770	280.196	-0.149	-0.265
-507.756	260.859	-0.020	-0.035
-506.741	-90.567	-0.074	0.021
-505.726	91.375	0.177	0.199
-504.712	-200.000	0.002	-0.071
-503.697	-90.697	-0.303	0.087
-502.683	2.254	0.141	0.102
-501.668	800.000	-0.068	-0.272
-500.653	-200.000	-0.025	-0.406
-499.639	206.570	0.243	0.378
-498.624	-200.000	-0.010	0.103
-497.610	-200.000	-0.011	-0.135
-496.595	-164.119	-0.229	0.011
-495.581	-130.047	0.422	0.058
-494.566	597.548	0.038	-0.094
-493.551	-12.924	0.092	-0.060
-492.537	-153.700	0.322	0.022
-491.522	26.802	-0.133	-0.111
-490.508	68.899	0.206	0.211
-489.493	-26.835	-0.082	-0.048
-488.478	-22.551	0.102	-0.061
-487.464	38.956	-0.069	-0.062
-486.449	-36.869	-0.130	0.069
-485.435	358.217	0.116	-0.231
-484.420	-200.000	-0.007	-0.060
-483.405	289.590	-0.192	-0.346
-482.391	-129.846	-0.258	0.035
-481.376	-80.350	-0.459	-0.153
-480.362	54.490	0.200	0.192
-479.347	669.553	0.149	-0.384
-478.332	-66.677	-0.080	0.032
-477.318	-14.504	-0.208	0.134
-476.303	187.432	-0.088	-0.131
-475.289	-177.371	0.162	-0.004
-474.274	181.758	0.053	0.078
-473.259	-67.610	0.634	-0.247
-472.245	-161.145	0.333	-0.017
-471.230	-152.550	-0.092	0.007
-470.216	-200.000	0.005	0.062
-469.201	-200.000	-0.031	-0.188
-468.186	-129.710	-0.218	0.030
-467.172	-138.278	0.291	0.032
-466.157	-94.850	-0.099	-0.027
-465.143	10.875	-0.257	0.196
-464.128	8.920	-0.095	0.071
-463.113	116.386	-0.166	0.203
-462.099	90.113	0.117	0.130
-461.084	13.698	0.236	-0.183
-460.070	173.630	0.216	-0.310
-459.055	226.655	-0.066	-0.106
-458.040	275.589	-0.045	0.079
-457.026	603.133	-0.020	-0.049
-456.011	29.470	-0.300	0.254
-454.997	800.000	0.144	-0.491
-453.982	23.516	-0.096	-0.079
-452.968	800.000	0.026	0.098
-451.953	-41.178	-0.134	-0.069
-450.938	9.083	0.159	-0.120
-449.924	-40.511	0.217	-0.112
-448.909	336.497	-0.217	-0.420
-447.895	-18.878	-0.209	0.129
-446.880	-200.000	-0.017	-0.489
-445.865	414.260	0.107	-0.226
-444.851	-87.242	-0.395	0.119
-443.836	-200.000	-0.014	0.496
-442.822	-30.845	-0.187	0.105
-441.807	95.214	-0.086	-0.098
-440.792	73.732	-0.305	-0.318
-439.778	-2.706	0.332	0.231
-438.763	528.321	-0.064	0.151
-437.749	-79.763	0.177	-0.059
-436.734	13.912	0.208	0.161
-435.719	-62.028	0.097	-0.040
-434.705	-200.000	0.001	0.090
-433.690	-123.864	-0.211	0.033
-432.676	-200.000	-0.062	-0.407
-431.661	70.216	0.148	0.152
-430.646	74.602	-0.059	0.062
-429.632	-166.664	-0.065	0.003
-428.617	-31.354	-0.258	0.144
-427.603	363.608	0.088	-0.175
-426.588	-137.066	0.201	-0.023
-425.573	98.882	-0.055	-0.063
-424.559	-64.168	0.111	-0.045
-423.544	275.685	0.152	0.269
-422.530	-200.000	0.022	0.459
-421.515	800.000	-0.006	-0.018
-420.500	393.129	0.085	-0.176
-419.486	-108.306	-0.279	0.060
-418.471	-40.932	-0.150	0.077
-417.457	-140.922	-0.093	0.010
-416.442	84.494	0.078	0.085
-415.428	326.990	0.145	0.276
-414.413	-0.814	0.208	0.147
-413.398	-200.000	0.022	-0.229
-412.384	254.843	0.107	0.182
-411.369	82.042	-0.169	0.182
-410.355	474.076	0.070	-0.156
-409.340	-200.000	0.010	0.322
-408.325	-200.000	0.072	0.373
-407.311	800.000	0.028	-0.081
-406.296	-94.268	0.214	0.058
-405.282	-10.043	0.246	0.163
-404.267	-160.642	0.040	0.002
-403.252	59.229	0.312	0.305
-402.238	-101.603	0.235	-0.057
-401.223	341.624	0.016	0.032
-400.209	24.312	0.102	-0.084
-399.194	800.000	0.043	0.137
-398.179	52.276	0.103	-0.097
-397.165	-200.000	-0.026	-0.289
-396.150	800.000	0.108	-0.337
-395.136	560.861	-0.182	0.437
-394.121	-136.444	-0.132	-0.015
-393.106	559.887	-0.059	0.142
-392.092	800.000	0.045	0.181
-391.077	-200.000	0.020	0.437
-390.063	-47.238	0.242	0.117
-389.048	800.000	-0.037	0.144
-388.033	271.381	0.099	-0.173
-387.019	-156.480	-0.285	-0.018
-386.004	377.782	-0.026	-0.053
-384.990	206.955	0.077	-0.120
-383.975	106.513	0.240	-0.282
-382.960	-62.077	0.303	-0.126
-381.946	283.123	-0.129	0.229
-380.931	33.206	0.115	0.099
-379.917	269.661	0.185	-0.323
-378.902	60.583	-0.074	-0.073
-377.888	427.792	0.094	-0.201
-376.873	131.716	-0.148	0.189
-375.858	-200.000	-0.008	0.288
-374.844	0.850	0.160	0.114
-373.829	127.716	0.124	-0.157
-372.815	-124.970	0.286	-0.044
-371.800	-162.148	0.518	-0.026
-370.785	-200.000	0.030	-0.303
-369.771	128.869	-0.091	0.116
-368.756	327.096	-0.085	0.163
-367.742	281.135	-0.183	0.325
-366.727	-41.850	0.198	0.101
-365.712	-28.815	-0.136	-0.077
-364.698	-16.415	-0.093	-0.059
-363.683	621.668	0.101	0.253
-362.669	-149.385	0.118	-0.009
-361.654	4.302	0.357	-0.259
-360.639	504.222	0.084	-0.194
-359.625	-82.210	-0.040	0.013
-358.610	800.000	-0.121	-0.354
-357.596	-68.751	0.216	0.083
-356.581	124.574	-0.121	-0.151
-355.566	-66.784	-0.166	-0.065
-354.552	150.172	-0.089	0.120
-353.537	160.574	0.064	0.089
-352.523	44.893	-0.205	-0.187
-351.508	-99.071	0.095	-0.024
-350.493	168.732	-0.135	-0.191
-349.479	-41.311	-0.031	0.016
-348.464	-200.000	-0.001	-0.211
-347.450	-116.833	0.199	0.036
-346.435	-11.805	0.120	0.078
-345.420	-200.000	-0.005	0.149
-344.406	85.880	0.060	0.065
-343.391	-200.000	0.005	0.191
-342.377	-132.251	-0.125	0.016
-341.362	-149.442	0.239	-0.019
-340.348	-89.806	0.388	-0.112
-339.333	40.298	-0.059	-0.052
-338.318	-1.238	-0.110	0.077
-337.304	-89.787	-0.161	0.047
-336.289	-18.324	0.137	0.085
-335.275	73.013	-0.198	0.205
-334.260	800.000	-0.135	-0.577
-333.245	-200.000	-0.046	0.227
-332.231	800.000	0.046	0.181
-331.216	-165.113	0.117	-0.005
-330.202	431.947	-0.153	-0.329
-329.187	237.842	0.116	-0.191
-328.172	-15.768	-0.086	0.054
-327.158	-49.025	-0.076	0.036
-326.143	-200.000	-0.040	-0.294
-325.129	74.898	0.085	-0.088
-324.114	26.576	-0.171	0.142
-323.099	-74.629	-0.347	-0.124
-322.085	-80.180	-0.382	0.127
-321.070	800.000	-0.095	-0.330
-320.056	-200.000	0.012	-0.155
-319.041	800.000	-0.031	-0.089
-318.026	-48.658	0.058	-0.028
-317.012	-2.109	0.113	0.079
-315.997	-182.844	-0.141	-0.003
-314.983	-138.878	0.461	0.050
-313.968	-200.000	0.007	0.150
-312.953	-200.000	0.059	0.534
-311.939	-30.156	-0.098	0.055
-310.924	230.978	0.114	0.185
-309.910	-85.950	0.047	0.014
-308.895	-200.000	0.081	0.557
-307.880	-200.000	-0.013	0.108
-306.866	69.919	-0.240	-0.245
-305.851	-80.842	0.205	-0.067
-304.837	450.760	-0.157	0.342
-303.822	800.000	0.111	-0.411
-302.807	-200.000	-0.026	0.120
-301.793	94.948	0.219	-0.246
-300.778	-14.702	-0.444	-0.282
-299.764	51.864	0.145	-0.137
-298.749	800.000	0.099	0.329
-297.735	-200.000	0.012	0.263
-296.720	-200.000	0.010	0.093
-295.705	-41.927	0.298	-0.151
-294.691	147.170	0.229	0.305
-293.676	-179.201	0.450	-0.010
-292.662	-102.603	-0.201	-0.047
-291.647	21.960	0.109	0.088
-290.632	-200.000	-0.032	-0.148
-289.618	182.505	-0.115	-0.167
-288.603	-10.754	-0.059	-0.039
-287.589	8.447	-0.114	0.085
-286.574	-147.309	0.164	0.014
-285.559	-50.829	0.184	0.085
-284.545	-115.005	-0.204	-0.038
-283.530	-200.000	-0.021	-0.128
-282.516	-24.063	0.108	-0.064
-281.501	-101.889	0.203	-0.048
-280.486	50.958	0.143	-0.134
-279.472	-200.000	-0.054	0.444
-278.457	120.343	-0.154	0.189
-277.443	-33.227	0.301	0.165
-276.428	-113.642	0.150	-0.029
-275.413	-200.000	0.049	-0.269
-274.399	51.691	0.165	-0.155
-273.384	-54.900	-0.123	0.055
-272.370	108.004	-0.190	0.224
-271.355	86.980	-0.290	0.317
-270.340	-109.485	-0.007	0.002
-269.326	4.077	0.127	0.092
-268.311	92.829	-0.241	0.269
-267.297	-200.000	0.008	0.123
-266.282	-200.000	-0.008	-0.280
-265.267	108.289	0.393	-0.463
-264.253	-63.349	-0.188	-0.076
-263.238	-200.000	-0.002	-0.054
-262.224	26.416	-0.323	-0.267
-261.209	102.723	-0.221	-0.255
-260.195	800.000	-0.057	0.193
-259.180	-48.570	-0.322	0.153
-258.165	-110.659	0.441	-0.090
-257.151	-98.579	-0.153	-0.039
-256.136	36.318	-0.131	-0.114
-255.122	185.630	0.037	-0.055
-254.107	295.581	-0.044	0.079
-253.092	-5.864	0.232	-0.157
-252.078	-180.849	0.354	-0.007
-251.063	-118.300	0.486	0.085
-250.049	-15.808	-0.143	-0.090
-249.034	800.000	0.050	-0.175
-248.019	-200.000	0.026	0.165
-247.005	-200.000	-0.002	0.064
-245.990	74.216	0.034	-0.036
-244.976	518.239	-0.034	-0.078
-243.961	800.000	-0.050	0.212
-242.946	323.691	-0.179	-0.338
-241.932	-18.570	0.160	-0.099
-240.917	-147.657	0.379	0.031
-239.903	131.320	0.128	0.163
-238.888	-200.000	-0.046	0.301
-237.873	190.178	0.076	0.113
-236.859	584.522	-0.131	-0.318
-235.844	43.980	-0.068	-0.062
-234.830	800.000	-0.052	-0.194
-233.815	800.000	0.094	-0.351
-232.800	-50.660	0.312	-0.145
-231.786	538.567	0.186	0.438
-230.771	80.209	0.226	0.240
-229.757	7.210	-0.192	0.142
-228.742	162.617	-0.228	-0.316
-227.727	91.739	-0.117	0.129
-226.713	-37.250	-0.219	-0.116
-225.698	783.697	0.026	-0.071
-224.684	153.860	-0.167	-0.226
-223.669	108.596	0.213	-0.250
-222.655	184.908	0.019	-0.028
-221.640	-0.153	-0.012	-0.009
-220.625	344.750	-0.103	0.200
-219.611	-131.392	-0.437	0.057
-218.596	-68.376	-0.047	-0.018
-217.582	-73.986	-0.303	0.108
-216.567	-5.241	-0.090	0.061
-215.552	-147.544	0.362	0.030
-214.538	800.000	0.044	-0.137
-213.523	-144.616	0.144	0.013
-212.509	82.253	0.149	-0.160
-211.494	190.120	0.104	0.154
-210.479	-96.039	-0.088	0.023
-209.465	-63.649	0.036	0.015
-208.450	635.458	0.107	0.268
-207.436	-62.787	-0.238	0.097
-206.421	-200.000	0.012	0.372
-205.406	-200.000	0.038	0.341
-204.392	436.987	0.083	0.178
-203.377	570.556	-0.095	0.228
-202.363	258.899	-0.119	-0.202
-201.348	-200.000	-0.045	0.284
-200.333	-42.771	0.092	0.046
-199.319	278.526	-0.021	-0.036
-198.304	-145.220	0.455	-0.041
-197.290	-162.929	-0.413	0.020
-196.275	161.444	0.123	-0.170
-195.260	-200.000	-0.033	0.158
-194.246	-24.355	0.285	0.167
-193.231	800.000	-0.026	0.104
-192.217	-49.354	-0.062	0.029
-191.202	-200.000	-0.011	-0.146
-190.187	307.154	0.069	-0.127
-189.173	-95.798	0.153	-0.040
-188.158	-44.162	-0.226	0.112
-187.144	-200.000	0.025	-0.113
-186.129	-59.502	0.255	0.108
-185.114	-126.433	0.308	0.045
-184.100	-64.970	0.105	-0.042
-183.085	-7.660	0.182	-0.121
-182.071	75.384	-0.097	0.101
-181.056	-200.000	0.009	0.042
-180.042	51.014	0.082	0.077
-179.027	511.065	-0.177	-0.406
-178.012	81.588	-0.072	-0.077
-176.998	19.450	-0.015	0.012
-175.983	193.787	0.090	0.135
-174.969	-126.149	-0.250	0.037
-173.954	-80.101	0.190	0.063
-172.939	435.892	0.096	0.206
-171.925	-94.417	-0.349	-0.094
-170.910	-92.352	-0.138	-0.038
-169.896	122.470	0.285	0.351
-168.881	-109.626	-0.540	-0.112
-167.866	-126.237	0.125	-0.018
-166.852	-121.772	0.227	0.037
-165.837	128.018	0.108	-0.136
-164.823	177.293	0.077	-0.110
-163.808	141.840	-0.063	0.082
-162.793	-200.000	-0.015	0.171
-161.779	-135.170	-0.222	0.026
-160.764	293.010	-0.168	-0.301
-159.750	79.815	0.058	-0.061
-158.735	-200.000	-0.006	-0.108
-157.720	-72.735	0.286	-0.104
-156.706	800.000	-0.069	0.281
-155.691	-44.315	-0.193	0.095
-154.677	-160.370	0.110	0.006
-153.662	-63.059	-0.151	-0.062
-152.647	-200.000	-0.016	0.091
-151.633	-92.086	-0.164	-0.046
-150.618	-14.676	0.249	-0.157
-149.604	15.033	0.331	-0.255
-148.589	-127.952	-0.198	-0.028
-147.574	50.308	-0.160	0.149
-146.560	-105.115	0.267	0.060
-145.545	-200.000	-0.037	0.372
-144.531	-134.380	-0.124	0.015
-143.516	-90.574	0.122	-0.035
-142.502	119.406	0.037	0.045
-141.487	233.626	-0.073	-0.117
-140.472	-144.080	-0.075	-0.007
-139.458	207.227	0.094	-0.144
-138.443	800.000	0.087	0.272
-137.429	155.228	-0.020	-0.027
-136.414	136.880	0.227	-0.292
-135.399	-200.000	0.021	0.145
-134.385	800.000	-0.042	0.175
-133.370	-164.935	-0.182	-0.008
-132.356	184.561	-0.068	-0.099
-131.341	690.843	-0.035	-0.091
-130.326	-200.000	0.031	0.334
-129.312	71.658	0.058	0.059
-128.297	449.101	0.106	-0.230
-127.283	-200.000	0.002	-0.015
-126.268	-30.680	0.262	0.146
-125.253	-45.039	0.140	0.068
-124.239	736.345	-0.043	0.114
-123.224	-140.660	0.293	-0.030
-122.210	-102.239	-0.158	0.037
-121.195	-134.471	-0.198	-0.024
