DTS Sentinel unit serial number:	SN413079Multiplexer serial number:	ORYXHardware model number:	OX4-SRSoftware version number:	ORYX F/W v4.00 Oryx Data Collector v3.7.2.0data status	okinstallation	princeton_trtdifferential loss correction	single-endedforward channel	channel 3reverse channel	N/Adate	2019/09/15time	23:44:35forward acquisition time	60.00reverse acquisition time	0.00gamma	496.2192k internal	0.2335k external	0.2335temperature offset calibration	0.9950default loss term (dB/km)	0.3790temperature slope calibration	1.0000multiplexer offset coefficient	1.0000multiplexer slope coefficient	1.0000fibre end	0.00T internal ref (°C)	28.00T ext. ref 1 (°C)	9.27T ext. ref 2 (°C)	21.84length (m)	temperature (°C)	Stokes	anti-Stokes-747.200	3.396	0.014	-0.010
-746.185	172.991	0.232	0.336
-745.171	-200.000	0.016	0.155
-744.156	39.331	0.204	0.184
-743.142	-200.000	-0.065	0.294
-742.127	-174.721	-0.329	-0.009
-741.112	-200.000	-0.028	0.238
-740.098	-200.000	0.080	0.429
-739.083	-200.000	-0.066	0.375
-738.069	-131.589	-0.373	-0.049
-737.054	800.000	0.039	0.170
-736.039	-4.630	-0.174	-0.120
-735.025	-108.013	0.359	-0.078
-734.010	298.714	-0.183	-0.338
-732.996	-162.200	-0.146	-0.007
-731.981	48.361	-0.197	-0.186
-730.966	146.703	0.232	-0.313
-729.952	152.618	0.049	0.067
-728.937	-161.009	0.015	-0.001
-727.923	26.834	-0.077	0.065
-726.908	106.616	-0.047	-0.056
-725.894	-76.520	0.112	0.039
-724.879	-200.000	0.033	-0.173
-723.864	-0.448	-0.122	0.087
-722.850	139.126	0.059	-0.078
-721.835	-81.378	-0.128	-0.042
-720.821	800.000	0.014	-0.058
-719.806	-173.582	-0.059	0.002
-718.791	-43.960	-0.216	-0.109
-717.777	-41.123	-0.128	0.066
-716.762	-200.000	-0.076	-0.355
-715.748	-200.000	-0.016	-0.311
-714.733	800.000	-0.026	-0.099
-713.718	800.000	0.096	-0.335
-712.704	23.393	-0.157	-0.129
-711.689	-94.168	-0.289	0.079
-710.675	124.744	0.188	-0.238
-709.660	-200.000	-0.097	0.451
-708.645	193.264	0.089	-0.136
-707.631	-23.998	-0.041	-0.025
-706.616	-89.465	-0.141	-0.042
-705.602	800.000	0.028	0.082
-704.587	800.000	-0.029	-0.101
-703.572	446.943	-0.027	-0.060
-702.558	88.680	-0.121	-0.135
-701.543	-66.144	-0.419	0.168
-700.529	25.592	-0.122	0.102
-699.514	-69.679	0.290	-0.111
-698.499	172.122	0.084	0.121
-697.485	218.424	-0.143	0.229
-696.470	334.507	0.180	0.350
-695.456	1.208	-0.049	0.035
-694.441	-200.000	-0.005	0.122
-693.426	-92.501	-0.135	-0.038
-692.412	-101.228	-0.529	0.130
-691.397	-172.044	-0.430	0.014
-690.383	-139.056	-0.225	0.024
-689.368	-12.445	-0.135	-0.088
-688.354	34.066	0.168	-0.147
-687.339	17.181	-0.246	-0.196
-686.324	603.442	0.022	-0.054
-685.310	13.451	0.095	-0.074
-684.295	97.547	-0.376	0.433
-683.281	-200.000	-0.021	0.163
-682.266	-200.000	0.064	0.567
-681.251	-154.077	0.269	-0.018
-680.237	64.851	-0.207	-0.209
-679.222	-32.520	-0.116	0.065
-678.208	-200.000	0.041	-0.324
-677.193	-166.378	-0.159	0.007
-676.178	-175.177	0.360	-0.010
-675.164	-122.720	-0.118	-0.019
-674.149	-40.680	-0.305	-0.158
-673.135	-142.990	-0.222	0.022
-672.120	-200.000	-0.050	-0.233
-671.105	-50.802	-0.110	-0.052
-670.091	-200.000	-0.006	-0.202
-669.076	-60.702	-0.290	0.123
-668.062	-51.530	0.303	-0.142
-667.047	140.381	0.130	0.172
-666.032	352.785	0.083	0.164
-665.018	197.348	0.131	-0.200
-664.003	-69.458	0.303	0.117
-662.989	26.630	-0.217	-0.182
-661.974	-188.416	-0.193	-0.002
-660.959	21.544	0.175	0.142
-659.945	604.165	0.065	-0.162
-658.930	-200.000	-0.015	-0.170
-657.916	-0.291	-0.210	-0.149
-656.901	-93.499	0.160	-0.044
-655.886	-110.442	-0.149	0.031
-654.872	34.172	0.024	0.021
-653.857	275.832	0.111	0.197
-652.843	32.613	-0.252	0.218
-651.828	306.575	0.023	0.042
-650.814	800.000	0.037	0.133
-649.799	-53.825	-0.179	0.082
-648.784	-78.603	-0.035	-0.012
-647.770	164.256	-0.116	0.164
-646.755	-200.000	-0.030	-0.325
-645.741	-146.913	0.299	-0.026
-644.726	259.878	0.132	0.228
-643.711	-85.064	-0.125	0.039
-642.697	-172.351	-0.209	-0.007
-641.682	197.208	-0.083	-0.127
-640.668	-13.321	0.455	-0.296
-639.653	-157.799	0.239	0.014
-638.638	120.968	-0.096	0.120
-637.624	-18.906	0.207	0.129
-636.609	-200.000	-0.088	0.464
-635.595	17.836	-0.159	-0.127
-634.580	-61.160	-0.153	-0.064
-633.565	-70.288	-0.152	-0.058
-632.551	-200.000	0.036	-0.375
-631.536	546.651	-0.100	0.238
-630.522	-57.375	-0.237	-0.104
-629.507	-200.000	-0.015	-0.319
-628.492	800.000	0.014	-0.052
-627.478	-59.564	-0.428	0.184
-626.463	126.289	-0.276	-0.350
-625.449	-173.382	0.330	-0.010
-624.434	76.338	-0.284	0.301
-623.419	800.000	-0.078	-0.332
-622.405	44.578	0.070	0.064
-621.390	144.809	0.098	-0.131
-620.376	-11.169	-0.290	-0.191
-619.361	-37.344	-0.173	-0.092
-618.346	-97.629	-0.206	0.053
-617.332	-87.137	0.209	-0.064
-616.317	73.644	-0.038	0.040
-615.303	244.681	0.167	0.280
-614.288	301.837	-0.034	0.062
-613.273	-200.000	-0.006	-0.237
-612.259	116.766	-0.180	-0.221
-611.244	-200.000	-0.046	-0.269
-610.230	-54.742	0.075	-0.034
-609.215	252.873	0.188	0.320
-608.201	-10.835	0.058	-0.038
-607.186	800.000	0.091	-0.286
-606.171	-99.284	0.213	-0.054
-605.157	-200.000	0.014	0.124
-604.142	-158.454	-0.085	-0.005
-603.128	-63.635	-0.288	0.118
-602.113	-135.875	0.302	0.036
-601.098	335.625	-0.152	0.294
-600.084	19.094	0.045	0.036
-599.069	-94.707	-0.356	0.097
-598.055	-68.326	-0.417	-0.162
-597.040	-148.365	0.130	0.011
-596.025	-200.000	-0.026	-0.113
-595.011	-10.067	-0.273	0.181
-593.996	-200.000	-0.017	-0.197
-592.982	-200.000	0.012	0.261
-591.967	-200.000	0.084	-0.461
-590.952	-42.167	-0.347	-0.177
-589.938	-190.651	-0.237	-0.003
-588.923	461.962	0.095	0.213
-587.909	185.440	0.106	0.158
-586.894	-200.000	0.031	-0.237
-585.879	800.000	0.082	0.280
-584.865	-55.610	0.075	0.033
-583.850	259.305	-0.122	0.211
-582.836	-68.544	-0.318	-0.123
-581.821	27.063	0.277	-0.232
-580.806	-106.455	-0.296	0.066
-579.792	-200.000	-0.002	0.081
-578.777	213.661	-0.098	-0.154
-577.763	8.377	0.258	0.193
-576.748	58.149	-0.065	0.063
-575.733	-200.000	0.044	0.502
-574.719	-49.667	-0.100	0.047
-573.704	-58.259	-0.269	-0.117
-572.690	800.000	-0.084	-0.240
-571.675	-165.851	0.246	-0.011
-570.661	-89.151	-0.147	-0.043
-569.646	97.117	0.150	-0.171
-568.631	-150.343	0.209	-0.016
-567.617	800.000	0.051	-0.184
-566.602	-47.484	-0.373	0.181
-565.588	-40.414	0.298	-0.155
-564.573	298.497	0.073	0.135
-563.558	-134.906	-0.164	0.020
-562.544	-87.966	0.217	-0.065
-561.529	30.354	0.047	-0.040
-560.515	39.256	0.118	-0.105
-559.500	800.000	0.074	-0.242
-558.485	-166.216	-0.266	0.011
-557.471	-109.329	-0.216	-0.046
-556.456	-162.943	-0.081	-0.004
-555.442	-200.000	-0.020	-0.165
-554.427	-200.000	-0.005	0.057
-553.412	181.808	-0.031	0.045
-552.398	309.601	-0.117	0.219
-551.383	201.160	-0.160	0.246
-550.369	-33.437	0.316	-0.174
-549.354	-200.000	0.010	-0.318
-548.339	450.186	0.161	-0.355
-547.325	599.668	-0.096	0.238
-546.310	363.087	-0.006	0.011
-545.296	11.616	-0.060	0.046
-544.281	149.300	-0.194	-0.262
-543.266	108.770	-0.125	-0.149
-542.252	-200.000	-0.068	-0.342
-541.237	-38.789	-0.291	0.153
-540.223	-36.779	0.204	0.109
-539.208	800.000	-0.029	-0.104
-538.193	201.237	-0.095	0.145
-537.179	438.342	0.078	0.170
-536.164	-114.769	0.203	0.039
-535.150	-200.000	-0.039	0.213
-534.135	253.287	0.119	0.202
-533.121	-200.000	-0.030	0.407
-532.106	-200.000	-0.005	0.124
-531.091	-200.000	-0.022	0.212
-530.077	-98.416	-0.226	-0.058
-529.062	84.175	0.160	0.175
-528.048	-22.883	0.163	-0.098
-527.033	-38.497	-0.065	0.034
-526.018	610.291	0.086	-0.213
-525.004	800.000	0.068	-0.226
-523.989	-200.000	0.007	0.052
-522.975	-104.079	-0.094	-0.022
-521.960	274.797	0.058	-0.102
-520.945	-60.962	0.155	0.065
-519.931	1.107	0.046	-0.033
-518.916	484.900	0.126	-0.285
-517.902	-9.294	0.204	-0.136
-516.887	-200.000	-0.048	-0.330
-515.872	-200.000	0.018	-0.164
-514.858	800.000	0.130	-0.436
-513.843	9.765	0.268	0.202
-512.829	-120.668	0.139	-0.023
-511.814	-83.328	-0.382	0.122
-510.799	19.118	0.269	-0.215
-509.785	-200.000	0.036	-0.236
-508.770	800.000	-0.189	0.608
-507.756	45.236	-0.036	-0.033
-506.741	-200.000	0.024	-0.130
-505.726	200.619	0.065	-0.100
-504.712	101.692	0.099	-0.115
-503.697	-53.196	-0.151	-0.069
-502.683	800.000	-0.045	0.157
-501.668	291.578	0.074	0.133
-500.653	800.000	0.153	0.428
-499.639	-98.628	-0.033	0.008
-498.624	800.000	-0.049	0.194
-497.610	-10.528	-0.267	0.176
-496.595	60.105	0.236	-0.232
-495.581	33.528	-0.150	0.129
-494.566	229.257	-0.074	0.121
-493.551	-200.000	-0.002	0.038
-492.537	-200.000	-0.048	-0.216
-491.522	-200.000	-0.023	-0.125
-490.508	-145.496	-0.078	0.007
-489.493	-51.763	-0.123	0.057
-488.478	-34.040	0.165	0.090
-487.464	73.593	-0.297	0.309
-486.449	-16.344	0.005	0.003
-485.435	-85.188	0.427	-0.133
-484.420	50.695	0.115	0.108
-483.405	-89.152	0.031	-0.009
-482.391	65.202	0.136	-0.136
-481.376	627.045	0.055	0.139
-480.362	-67.550	0.111	0.043
-479.347	259.906	0.081	-0.140
-478.332	112.415	0.207	0.249
-477.318	96.878	-0.154	0.175
-476.303	174.305	-0.157	-0.226
-475.289	-200.000	-0.007	-0.045
-474.274	800.000	-0.071	-0.238
-473.259	-200.000	0.009	-0.188
-472.245	-58.458	-0.173	-0.075
-471.230	354.160	0.024	-0.047
-470.216	-3.031	0.070	0.049
-469.201	8.097	-0.047	0.035
-468.186	5.181	0.284	-0.208
-467.172	484.707	0.040	0.091
-466.157	-200.000	-0.039	0.374
-465.143	-90.416	-0.224	0.064
-464.128	335.182	-0.067	-0.129
-463.113	-130.862	0.091	-0.012
-462.099	800.000	0.051	0.195
-461.084	800.000	-0.053	-0.178
-460.070	-135.510	0.100	-0.012
-459.055	-200.000	0.039	-0.304
-458.040	800.000	0.014	-0.046
-457.026	37.353	-0.052	-0.046
-456.011	-200.000	-0.045	-0.260
-454.997	-117.147	0.098	-0.018
-453.982	-200.000	0.009	0.262
-452.968	-33.261	0.138	-0.076
-451.953	-13.228	-0.198	0.128
-450.938	-37.817	0.123	-0.065
-449.924	-140.885	0.217	0.022
-448.909	672.213	0.083	0.213
-447.895	-147.644	0.093	-0.008
-446.880	-27.063	0.174	0.101
-445.865	645.496	-0.168	-0.426
-444.851	-33.777	-0.132	-0.072
-443.836	470.364	-0.069	-0.155
-442.822	-200.000	0.034	0.237
-441.807	-150.217	-0.164	-0.013
-440.792	-200.000	0.013	0.132
-439.778	-65.517	-0.163	0.065
-438.763	800.000	0.128	0.351
-437.749	156.346	-0.099	0.135
-436.734	-122.858	0.563	0.090
-435.719	-124.657	-0.259	0.040
-434.705	-200.000	-0.003	-0.171
-433.690	-200.000	0.011	0.073
-432.676	800.000	0.056	0.172
-431.661	-137.922	-0.237	0.026
-430.646	-200.000	-0.022	-0.294
-429.632	-200.000	-0.046	0.311
-428.617	-87.646	-0.259	-0.078
-427.603	800.000	0.080	-0.248
-426.588	21.357	0.249	-0.201
-425.573	-200.000	-0.046	-0.300
-424.559	-85.148	0.090	0.028
-423.544	720.145	0.086	0.226
-422.530	-200.000	0.003	-0.312
-421.515	458.074	-0.032	0.071
-420.500	177.060	0.111	-0.161
-419.486	800.000	0.105	-0.292
-418.471	323.074	-0.098	-0.186
-417.457	155.617	-0.186	0.254
-416.442	783.570	0.063	-0.171
-415.428	47.292	-0.142	0.131
-414.413	-200.000	-0.003	-0.400
-413.398	-49.323	-0.258	-0.122
-412.384	-200.000	0.025	0.110
-411.369	800.000	0.163	-0.464
-410.355	-79.497	0.064	-0.021
-409.340	-200.000	-0.007	0.050
-408.325	25.863	-0.042	-0.035
-407.311	800.000	-0.024	0.095
-406.296	204.251	-0.134	0.206
-405.282	111.021	0.074	0.088
-404.267	-200.000	0.011	-0.306
-403.252	-85.352	-0.427	-0.132
-402.238	11.152	-0.076	0.058
-401.223	64.956	0.271	-0.272
-400.209	15.363	-0.245	-0.191
-399.194	-195.635	0.206	0.001
-398.179	26.590	-0.174	0.144
-397.165	-110.270	0.264	0.054
-396.150	800.000	0.034	0.124
-395.136	-200.000	-0.046	0.246
-394.121	-7.935	-0.305	0.204
-393.106	-200.000	-0.050	-0.235
-392.092	-82.019	-0.166	-0.054
-391.077	52.558	0.202	-0.191
-390.063	-42.203	0.034	-0.017
-389.048	-200.000	-0.031	-0.230
-388.033	-63.909	-0.040	-0.016
-387.019	432.289	0.030	-0.064
-386.004	-149.166	0.087	0.007
-384.990	8.828	0.164	-0.123
-383.975	-27.528	-0.120	0.069
-382.960	-92.873	-0.250	0.069
-381.946	4.140	0.086	0.063
-380.931	-53.688	-0.081	0.037
-379.917	-200.000	-0.017	0.130
-378.902	67.360	0.279	0.282
-377.888	-177.816	-0.251	-0.006
-376.873	389.300	0.117	-0.240
-375.858	-153.550	0.147	0.010
-374.844	-200.000	-0.049	0.267
-373.829	181.257	-0.098	0.143
-372.815	251.903	0.086	0.145
-371.800	-181.296	-0.142	0.003
-370.785	800.000	-0.047	0.194
-369.771	44.973	0.085	-0.077
-368.756	384.375	0.134	0.273
-367.742	481.126	0.023	-0.051
-366.727	63.540	0.233	0.232
-365.712	800.000	0.178	-0.527
-364.698	597.405	-0.081	-0.199
-363.683	800.000	-0.045	-0.172
-362.669	-24.658	0.236	-0.139
-361.654	-1.862	-0.210	-0.146
-360.639	-171.607	0.118	-0.004
-359.625	18.750	-0.048	0.038
-358.610	-42.399	0.196	-0.099
-357.596	-124.197	0.400	-0.062
-356.581	-105.397	-0.316	0.071
-355.566	-200.000	0.003	-0.300
-354.552	115.674	-0.147	0.178
-353.537	800.000	0.019	0.080
-352.523	-200.000	-0.021	-0.233
-351.508	-106.532	0.307	-0.068
-350.493	582.693	-0.105	-0.255
-349.479	-0.695	-0.203	-0.142
-348.464	-106.013	-0.204	-0.045
-347.450	396.513	0.071	0.146
-346.435	-126.021	-0.328	-0.049
-345.420	800.000	-0.027	-0.098
-344.406	800.000	0.052	-0.200
-343.391	-98.639	0.469	0.118
-342.377	-33.563	0.082	0.045
-341.362	107.284	-0.198	-0.232
-340.348	-21.655	0.238	0.143
-339.333	-42.800	-0.153	-0.077
-338.318	-4.357	-0.130	0.089
-337.304	66.112	0.085	0.085
-336.289	-73.457	-0.092	-0.033
-335.275	-113.195	-0.134	-0.026
-334.260	315.132	-0.040	0.074
-333.245	205.302	-0.284	0.436
-332.231	306.421	-0.026	-0.047
-331.216	3.636	-0.378	0.273
-330.202	-118.519	-0.263	0.046
-329.187	725.541	-0.120	0.316
-328.172	-26.904	0.353	0.204
-327.158	800.000	-0.160	0.457
-326.143	-152.358	0.382	0.027
-325.129	99.324	-0.043	-0.049
-324.114	800.000	0.036	0.143
-323.099	-100.365	0.119	0.029
-322.085	-200.000	-0.011	-0.050
-321.070	113.823	-0.109	-0.130
-320.056	-200.000	-0.006	0.214
-319.041	98.686	-0.306	0.349
-318.026	687.759	-0.045	-0.116
-317.012	800.000	-0.085	0.364
-315.997	-11.547	0.111	0.072
-314.983	-87.214	-0.236	-0.071
-313.968	85.640	0.052	0.056
-312.953	-200.000	0.048	0.521
-311.939	167.917	0.126	-0.177
-310.924	-79.224	0.067	-0.022
-309.910	745.883	0.040	-0.106
-308.895	800.000	-0.058	0.194
-307.880	51.135	-0.115	-0.107
-306.866	800.000	-0.050	-0.201
-305.851	69.726	-0.202	0.206
-304.837	157.069	-0.117	0.160
-303.822	-112.511	0.256	0.050
-302.807	103.200	-0.086	0.100
-301.793	-136.133	-0.268	-0.031
-300.778	329.085	-0.109	0.207
-299.764	339.194	0.110	0.212
-298.749	-7.912	0.413	0.275
-297.735	800.000	-0.076	0.264
-296.720	237.147	-0.086	0.140
-295.705	-1.446	0.127	0.089
-294.691	91.059	0.065	0.072
-293.676	-14.095	0.367	-0.234
-292.662	-72.398	0.150	0.055
-291.647	800.000	-0.052	-0.186
-290.632	93.132	0.130	-0.145
-289.618	-22.237	0.243	-0.145
-288.603	-27.148	-0.380	0.219
-287.589	170.242	-0.118	0.166
-286.574	31.950	0.151	0.128
-285.559	-14.988	0.179	0.113
-284.545	-200.000	0.054	0.379
-283.530	-158.537	0.130	-0.007
-282.516	369.553	-0.112	0.225
-281.501	-200.000	0.002	0.135
-280.486	-35.003	-0.264	-0.142
-279.472	251.664	-0.079	0.133
-278.457	-200.000	-0.013	-0.131
-277.443	90.632	0.086	0.095
-276.428	-112.030	-0.107	-0.021
-275.413	800.000	-0.144	-0.416
-274.399	-200.000	0.076	-0.408
-273.384	129.476	-0.075	-0.094
-272.370	-113.041	0.167	0.033
-271.355	221.060	-0.134	-0.213
-270.340	-24.413	-0.057	0.033
-269.326	-76.268	0.156	-0.054
-268.311	800.000	-0.035	-0.102
-267.297	25.222	-0.163	-0.133
-266.282	-122.755	-0.228	-0.036
-265.267	210.988	0.169	0.262
-264.253	-200.000	-0.004	-0.056
-263.238	112.785	0.119	-0.142
-262.224	134.721	0.221	0.283
-261.209	14.478	0.325	0.250
-260.195	-200.000	-0.027	-0.128
-259.180	-200.000	0.001	-0.042
-258.165	-15.635	0.181	0.114
-257.151	-200.000	-0.014	-0.227
-256.136	-143.973	0.355	0.033
-255.122	-200.000	-0.003	0.137
-254.107	223.531	-0.081	-0.128
-253.092	-48.789	0.362	0.171
-252.078	-152.263	0.021	-0.002
-251.063	61.327	-0.034	-0.033
-250.049	97.092	0.149	-0.168
-249.034	-120.214	-0.303	0.051
-248.019	-200.000	0.008	0.159
-247.005	41.768	-0.258	0.230
-245.990	-200.000	0.022	0.201
-244.976	-177.100	-0.187	0.005
-243.961	71.379	0.424	0.433
-242.946	214.857	-0.139	0.216
-241.932	800.000	0.107	-0.310
-240.917	-78.144	0.286	0.097
-239.903	-55.470	-0.384	-0.169
-238.888	-144.430	0.304	0.028
-237.873	-59.366	0.387	0.164
-236.859	-188.456	-0.133	-0.002
-235.844	122.525	-0.286	-0.352
-234.830	57.524	-0.074	-0.071
-233.815	-192.879	0.594	0.005
-232.800	57.032	0.112	-0.108
-231.786	800.000	-0.061	-0.185
-230.771	-44.771	-0.065	-0.032
-229.757	-119.447	0.326	-0.056
-228.742	-200.000	0.030	-0.153
-227.727	34.594	0.223	-0.192
-226.713	153.989	0.140	-0.189
-225.698	-11.965	-0.087	-0.056
-224.684	-200.000	-0.087	0.456
-223.669	39.060	-0.056	-0.049
-222.655	279.224	0.145	0.255
-221.640	65.796	0.062	0.062
-220.625	-200.000	-0.016	0.289
-219.611	-125.858	0.141	0.021
-218.596	75.855	-0.129	0.135
-217.582	-82.302	0.089	0.029
-216.567	800.000	-0.074	0.293
-215.552	-69.509	0.294	-0.111
-214.538	-37.523	-0.300	-0.157
-213.523	412.480	-0.050	-0.105
-212.509	-200.000	-0.024	-0.115
-211.494	-61.601	-0.477	-0.197
-210.479	-200.000	-0.062	-0.392
-209.465	165.227	0.126	-0.176
-208.450	-90.259	0.159	0.045
-207.436	460.538	0.029	-0.064
-206.421	-96.913	-0.075	-0.019
-205.406	-160.328	0.445	0.024
-204.392	-59.242	-0.254	-0.108
-203.377	-7.610	0.140	-0.093
-202.363	335.755	0.125	-0.238
-201.348	-34.078	0.045	-0.025
-200.333	46.362	-0.417	-0.380
-199.319	54.453	-0.232	-0.220
-198.304	-53.469	0.334	0.150
-197.290	-200.000	-0.025	-0.217
-196.275	800.000	0.052	-0.199
-195.260	681.854	-0.154	0.396
-194.246	800.000	0.013	-0.049
-193.231	-93.733	0.153	0.042
-192.217	800.000	0.069	0.211
-191.202	-133.962	-0.106	0.013
-190.187	-45.096	-0.267	0.131
-189.173	-154.778	0.179	0.012
-188.158	69.893	-0.035	0.035
-187.144	327.804	0.152	0.287
-186.129	-200.000	-0.003	0.060
-185.114	-200.000	-0.010	0.110
-184.100	38.016	-0.109	0.096
-183.085	-31.258	0.187	0.103
-182.071	-50.476	-0.288	-0.134
-181.056	102.723	-0.129	-0.148
-180.042	-200.000	-0.056	-0.400
-179.027	-34.019	-0.197	-0.106
-178.012	800.000	0.068	0.265
-176.998	37.051	0.103	-0.089
-175.983	279.631	-0.166	0.291
-174.969	-200.000	0.015	0.147
-173.954	197.229	0.275	0.412
-172.939	800.000	-0.078	-0.277
-171.925	-91.588	-0.372	-0.104
-170.910	-200.000	0.045	0.289
-169.896	-106.992	0.245	-0.053
-168.881	183.115	0.234	-0.339
-167.866	171.480	-0.245	-0.345
-166.852	800.000	0.057	0.161
-165.837	-200.000	0.022	0.211
-164.823	-186.734	0.137	0.002
-163.808	-136.578	0.336	-0.038
-162.793	-200.000	0.008	0.041
-161.779	-67.249	-0.078	-0.030
-160.764	-65.416	0.095	-0.038
-159.750	-68.219	-0.224	-0.086
-158.735	225.860	-0.049	0.078
-157.720	175.657	0.196	0.279
-156.706	-200.000	0.012	-0.150
-155.691	33.719	0.187	-0.160
-154.677	86.340	-0.131	-0.141
-153.662	-21.950	0.324	0.193
-152.647	754.815	0.122	0.323
-151.633	-54.671	-0.259	0.115
-150.618	-161.100	-0.140	-0.007
-149.604	-200.000	0.007	-0.454
-148.589	-200.000	-0.013	-0.166
-147.574	-83.207	-0.293	0.092
-146.560	-125.670	0.224	-0.033
-145.545	37.558	0.094	0.082
-144.531	-34.854	-0.139	0.074
-143.516	289.270	-0.054	-0.096
-142.502	-76.320	-0.347	0.120
-141.487	80.931	-0.016	-0.017
-140.472	115.849	-0.255	-0.307
-139.458	-200.000	-0.022	0.264
-138.443	-200.000	0.069	-0.316
-137.429	692.782	-0.095	0.245
-136.414	-87.627	0.252	0.075
-135.399	68.784	0.206	0.207
-134.385	-64.271	0.247	-0.099
-133.370	21.275	0.252	-0.201
-132.356	643.561	0.053	0.134
-131.341	-21.095	-0.432	0.259
-130.326	634.219	-0.116	0.289
-129.312	158.535	-0.131	-0.178
-128.297	-50.291	0.021	-0.010
-127.283	-79.885	-0.280	-0.092
-126.268	-200.000	0.025	0.215
-125.253	-112.629	0.319	-0.062
-124.239	-200.000	-0.042	-0.201
-123.224	264.453	0.043	-0.073
-122.210	800.000	0.016	-0.052
