DTS Sentinel unit serial number:	SN413079Multiplexer serial number:	ORYXHardware model number:	OX4-SRSoftware version number:	ORYX F/W v4.00 Oryx Data Collector v3.7.2.0data status	okinstallation	princeton_trtdifferential loss correction	single-endedforward channel	channel 3reverse channel	N/Adate	2019/09/17time	22:52:35forward acquisition time	60.00reverse acquisition time	0.00gamma	496.2192k internal	0.2344k external	0.2344temperature offset calibration	0.9952default loss term (dB/km)	0.3790temperature slope calibration	1.0000multiplexer offset coefficient	1.0000multiplexer slope coefficient	1.0000fibre end	0.00T internal ref (°C)	24.94T ext. ref 1 (°C)	0.17T ext. ref 2 (°C)	18.05length (m)	temperature (°C)	Stokes	anti-Stokes-747.200	315.032	-0.140	-0.264
-746.185	-158.578	-0.205	0.012
-745.171	38.332	-0.208	0.186
-744.156	-129.670	-0.269	-0.037
-743.142	-98.465	0.063	0.016
-742.127	-200.000	0.016	0.341
-741.112	-200.000	0.047	-0.371
-740.098	64.993	-0.138	0.139
-739.083	61.082	0.249	0.247
-738.069	-189.231	-0.094	-0.001
-737.054	143.589	0.205	-0.274
-736.039	-96.355	-0.217	-0.057
-735.025	702.737	-0.080	0.211
-734.010	76.351	0.100	0.106
-732.996	-200.000	-0.034	0.163
-731.981	-119.502	-0.257	0.045
-730.966	644.521	0.178	-0.454
-729.952	-67.206	-0.262	0.103
-728.937	-152.760	-0.042	0.003
-727.923	451.299	-0.180	-0.397
-726.908	119.386	-0.096	0.119
-725.894	449.506	0.078	0.172
-724.879	55.811	0.279	-0.271
-723.864	800.000	0.080	-0.265
-722.850	-15.152	0.107	0.068
-721.835	734.385	0.100	0.267
-720.821	40.939	-0.042	0.038
-719.806	-200.000	0.015	-0.266
-718.791	-144.208	-0.253	0.024
-717.777	168.337	0.032	-0.045
-716.762	102.077	-0.256	-0.299
-715.748	-200.000	0.034	-0.417
-714.733	-200.000	-0.040	0.256
-713.718	800.000	-0.077	0.220
-712.704	70.897	0.238	-0.246
-711.689	350.099	-0.137	0.271
-710.675	800.000	0.035	0.151
-709.660	-148.976	-0.195	0.016
-708.645	-93.955	-0.276	-0.076
-707.631	84.188	-0.245	-0.267
-706.616	-200.000	-0.004	-0.325
-705.602	-67.784	0.408	0.160
-704.587	542.205	-0.118	0.280
-703.572	524.183	-0.088	0.206
-702.558	-200.000	0.010	-0.247
-701.543	-87.228	-0.292	0.089
-700.529	-200.000	0.013	-0.166
-699.514	800.000	-0.045	0.147
-698.499	-147.044	-0.114	-0.010
-697.485	-117.214	-0.209	-0.038
-696.470	486.246	0.112	-0.254
-695.456	97.799	0.133	-0.153
-694.441	-35.989	0.418	-0.226
-693.426	113.225	-0.117	0.142
-692.412	249.727	0.099	0.167
-691.397	-200.000	0.017	0.147
-690.383	-181.493	-0.268	0.005
-689.368	-17.708	-0.119	0.074
-688.354	800.000	-0.077	-0.262
-687.339	138.842	-0.132	0.173
-686.324	-74.911	0.016	0.006
-685.310	-61.370	0.324	-0.136
-684.295	449.443	-0.149	0.328
-683.281	798.745	0.021	0.057
-682.266	-41.536	-0.117	-0.060
-681.251	-8.636	0.226	-0.152
-680.237	-49.695	-0.229	-0.109
-679.222	-160.037	-0.151	-0.008
-678.208	800.000	-0.098	0.284
-677.193	427.616	-0.179	-0.386
-676.178	-3.571	0.348	-0.242
-675.164	62.341	-0.130	0.130
-674.149	189.151	0.136	-0.204
-673.135	-200.000	0.088	0.386
-672.120	153.612	0.056	-0.077
-671.105	-200.000	0.006	-0.294
-670.091	-108.750	-0.148	-0.032
-669.076	-158.123	-0.313	-0.018
-668.062	-81.794	-0.179	0.058
-667.047	-200.000	0.008	0.118
-666.032	-200.000	-0.016	-0.077
-665.018	-43.225	0.070	0.035
-664.003	429.152	-0.078	0.168
-662.989	-15.345	-0.325	-0.207
-661.974	-72.425	0.134	0.049
-660.959	-0.843	-0.060	0.042
-659.945	5.842	0.122	0.090
-658.930	800.000	-0.059	0.191
-657.916	68.225	-0.140	-0.143
-656.901	7.596	-0.158	-0.118
-655.886	24.623	0.233	-0.193
-654.872	-78.144	-0.352	0.121
-653.857	-19.174	-0.123	0.076
-652.843	-71.704	-0.260	-0.097
-651.828	539.528	-0.104	-0.246
-650.814	188.692	0.054	-0.081
-649.799	-144.652	-0.251	0.023
-648.784	-200.000	-0.008	-0.175
-647.770	800.000	-0.028	-0.103
-646.755	-200.000	0.015	-0.298
-645.741	-87.670	0.125	0.038
-644.726	582.849	-0.084	0.204
-643.711	800.000	-0.103	-0.302
-642.697	32.460	-0.182	-0.157
-641.682	-200.000	0.008	-0.065
-640.668	-55.467	-0.104	-0.047
-639.653	-168.770	-0.458	0.017
-638.638	106.886	-0.097	0.115
-637.624	150.035	-0.107	0.145
-636.609	-90.157	-0.286	0.083
-635.595	232.564	0.067	-0.109
-634.580	146.109	-0.138	0.185
-633.565	-26.828	-0.090	-0.053
-632.551	800.000	-0.057	-0.181
-631.536	-84.298	-0.235	0.074
-630.522	-144.039	-0.026	0.002
-629.507	-180.758	0.359	0.007
-628.492	397.590	-0.014	0.030
-627.478	-42.905	0.255	0.129
-626.463	-83.625	0.161	-0.051
-625.449	-200.000	-0.022	-0.113
-624.434	215.512	-0.171	-0.271
-623.419	-159.401	0.200	-0.011
-622.405	106.485	-0.222	-0.262
-621.390	800.000	0.063	0.242
-620.376	-126.075	-0.207	-0.031
-619.361	146.265	0.287	-0.384
-618.346	2.712	-0.124	-0.090
-617.332	12.888	0.225	-0.173
-616.317	23.619	-0.122	-0.100
-615.303	-200.000	-0.036	-0.289
-614.288	208.572	-0.050	-0.078
-613.273	12.519	-0.092	-0.071
-612.259	18.712	0.337	-0.269
-611.244	-56.755	0.113	0.050
-610.230	-90.042	0.097	-0.028
-609.215	686.883	0.153	-0.398
-608.201	-171.106	-0.487	0.016
-607.186	-28.215	0.277	0.160
-606.171	61.817	0.048	0.047
-605.157	42.476	0.218	0.198
-604.142	-200.000	-0.030	0.369
-603.128	72.703	-0.051	-0.053
-602.113	11.398	0.210	-0.160
-601.098	575.032	0.117	0.283
-600.084	164.525	0.227	-0.318
-599.069	300.642	0.026	-0.048
-598.055	-31.055	-0.232	-0.130
-597.040	-98.216	-0.304	-0.078
-596.025	-183.498	0.116	-0.002
-595.011	25.198	-0.201	-0.166
-593.996	-81.269	0.186	-0.061
-592.982	27.878	-0.154	-0.129
-591.967	4.665	0.185	-0.135
-590.952	132.128	0.247	0.317
-589.938	-75.403	-0.309	0.110
-588.923	-200.000	-0.022	-0.104
-587.909	24.516	0.102	0.084
-586.894	-200.000	0.001	0.014
-585.879	-50.645	-0.237	-0.111
-584.865	8.291	0.220	-0.164
-583.850	-76.694	0.141	0.049
-582.836	-42.929	-0.047	-0.024
-581.821	-129.166	0.273	-0.038
-580.806	-116.974	-0.235	0.043
-579.792	-16.520	-0.187	-0.118
-578.777	133.822	0.089	0.114
-577.763	381.853	-0.064	0.130
-576.748	-106.966	-0.200	-0.044
-575.733	-200.000	-0.019	-0.141
-574.719	100.460	-0.150	-0.174
-573.704	89.377	-0.130	0.144
-572.690	-155.461	0.265	-0.017
-571.675	458.409	0.082	-0.181
-570.661	-200.000	-0.016	-0.192
-569.646	-200.000	-0.056	-0.448
-568.631	-101.369	-0.229	-0.055
-567.617	272.501	-0.203	0.355
-566.602	5.502	-0.106	0.077
-565.588	-49.945	-0.025	-0.012
-564.573	109.126	0.231	-0.274
-563.558	227.343	-0.228	-0.368
-562.544	362.226	0.070	-0.139
-561.529	447.997	-0.147	-0.322
-560.515	-139.283	-0.114	-0.012
-559.500	-200.000	-0.019	-0.144
-558.485	298.673	-0.009	0.016
-557.471	-172.362	-0.270	0.009
-556.456	-200.000	0.025	-0.134
-555.442	-200.000	0.013	0.170
-554.427	-97.752	-0.273	0.070
-553.412	-137.059	-0.203	0.023
-552.398	43.936	0.199	-0.181
-551.383	800.000	0.056	-0.171
-550.369	328.851	0.124	0.237
-549.354	-200.000	-0.011	0.070
-548.339	34.486	-0.110	-0.096
-547.325	-200.000	-0.051	0.348
-546.310	-51.682	-0.167	0.077
-545.296	800.000	-0.050	-0.164
-544.281	800.000	-0.058	-0.178
-543.266	-200.000	0.017	-0.303
-542.252	-200.000	-0.012	-0.101
-541.237	-200.000	-0.014	-0.171
-540.223	171.943	0.201	0.287
-539.208	-200.000	0.019	0.267
-538.193	65.389	-0.110	-0.111
-537.179	69.915	0.219	0.224
-536.164	90.824	0.121	0.135
-535.150	12.747	-0.242	0.186
-534.135	654.612	0.069	-0.175
-533.121	538.833	0.119	0.280
-532.106	-200.000	-0.002	-0.013
-531.091	-21.806	0.221	-0.133
-530.077	800.000	0.091	-0.250
-529.062	-200.000	-0.067	-0.300
-528.048	-200.000	-0.018	0.211
-527.033	-77.696	0.250	0.086
-526.018	275.404	-0.094	-0.165
-525.004	-200.000	0.035	-0.162
-523.989	-43.403	-0.161	-0.081
-522.975	88.035	-0.085	-0.094
-521.960	-16.925	-0.213	0.133
-520.945	-18.897	-0.115	0.071
-519.931	49.689	0.133	-0.124
-518.916	-119.246	0.093	-0.016
-517.902	-81.622	-0.178	0.058
-516.887	739.419	0.067	-0.178
-515.872	-133.547	-0.174	-0.022
-514.858	-95.593	-0.292	-0.078
-513.843	-92.913	-0.239	-0.066
-512.829	-149.360	0.183	-0.014
-511.814	-100.632	-0.272	0.067
-510.799	-129.205	0.231	0.032
-509.785	-200.000	-0.005	0.086
-508.770	386.853	0.214	0.439
-507.756	118.910	0.139	0.170
-506.741	9.322	0.231	0.173
-505.726	94.713	-0.158	-0.178
-504.712	-6.644	-0.133	0.090
-503.697	109.397	0.108	0.128
-502.683	21.826	0.262	-0.212
-501.668	360.781	-0.073	0.145
-500.653	800.000	0.055	-0.151
-499.639	-188.092	-0.150	-0.002
-498.624	-80.088	0.185	-0.061
-497.610	800.000	-0.044	0.173
-496.595	134.629	0.067	0.086
-495.581	54.243	0.178	0.169
-494.566	182.131	0.089	0.130
-493.551	-109.422	0.109	0.023
-492.537	735.047	0.137	0.364
-491.522	-200.000	-0.005	-0.230
-490.508	263.472	0.155	-0.268
-489.493	18.510	-0.070	0.055
-488.478	800.000	0.041	0.148
-487.464	6.980	-0.295	-0.218
-486.449	15.750	0.334	0.260
-485.435	116.111	-0.046	-0.056
-484.420	-25.834	0.162	0.095
-483.405	94.534	0.225	0.254
-482.391	-200.000	0.013	0.201
-481.376	-146.856	-0.305	0.026
-480.362	-44.664	0.197	0.097
-479.347	-0.757	-0.278	0.195
-478.332	79.614	-0.127	-0.135
-477.318	-146.991	0.026	0.002
-476.303	-200.000	-0.024	0.312
-475.289	800.000	0.038	-0.122
-474.274	12.877	0.212	0.162
-473.259	-200.000	-0.025	-0.195
-472.245	-55.524	-0.349	0.155
-471.230	-122.022	-0.085	0.014
-470.216	276.159	-0.081	0.143
-469.201	458.801	0.043	-0.094
-468.186	659.731	-0.150	-0.381
-467.172	-169.141	0.201	-0.007
-466.157	308.469	0.067	0.125
-465.143	-154.299	-0.060	-0.004
-464.128	157.063	-0.153	-0.209
-463.113	331.984	0.190	-0.362
-462.099	-94.985	0.270	-0.072
-461.084	800.000	-0.019	-0.066
-460.070	-50.486	0.349	-0.163
-459.055	496.945	-0.103	-0.235
-458.040	-60.854	-0.101	-0.042
-457.026	482.893	-0.046	0.104
-456.011	-200.000	-0.014	0.155
-454.997	-94.018	-0.118	-0.032
-453.982	-200.000	0.008	-0.179
-452.968	-200.000	-0.046	0.204
-451.953	183.676	0.092	-0.135
-450.938	-112.371	-0.384	-0.076
-449.924	-109.260	-0.123	0.026
-448.909	296.581	0.183	0.333
-447.895	453.317	-0.121	-0.265
-446.880	13.026	0.148	-0.113
-445.865	-14.192	-0.178	0.113
-444.851	-24.990	0.106	0.062
-443.836	-200.000	0.036	-0.205
-442.822	-87.824	-0.154	0.046
-441.807	-114.920	-0.038	0.007
-440.792	-200.000	0.013	-0.324
-439.778	-29.999	0.285	-0.160
-438.763	-124.520	0.089	-0.014
-437.749	-86.619	-0.193	-0.058
-436.734	-137.464	-0.232	0.026
-435.719	22.383	0.233	-0.189
-434.705	-48.975	0.075	-0.035
-433.690	-104.542	-0.201	0.046
-432.676	449.648	0.073	-0.160
-431.661	83.083	-0.107	-0.116
-430.646	800.000	0.089	0.298
-429.632	-134.296	-0.233	-0.028
-428.617	339.880	-0.126	-0.243
-427.603	85.967	0.166	0.181
-426.588	366.156	0.320	0.639
-425.573	-200.000	0.044	0.205
-424.559	149.808	0.195	-0.262
-423.544	-185.885	-0.288	-0.004
-422.530	-91.025	-0.250	0.071
-421.515	65.269	-0.035	0.035
-420.500	-143.193	0.275	0.026
-419.486	-21.744	-0.164	-0.099
-418.471	800.000	0.014	0.046
-417.457	800.000	-0.035	-0.127
-416.442	188.875	0.146	-0.216
-415.428	-42.968	-0.298	0.149
-414.413	254.664	0.191	-0.323
-413.398	800.000	-0.144	0.508
-412.384	-200.000	0.014	-0.309
-411.369	-7.000	0.227	-0.152
-410.355	-26.002	0.094	-0.055
-409.340	473.639	-0.045	0.101
-408.325	-181.633	-0.141	0.003
-407.311	-16.935	-0.124	0.077
-406.296	110.471	0.099	0.118
-405.282	-200.000	0.034	-0.263
-404.267	800.000	0.048	-0.145
-403.252	800.000	0.120	-0.343
-402.238	-200.000	0.015	-0.290
-401.223	-105.130	-0.366	-0.083
-400.209	-63.251	0.233	-0.095
-399.194	96.595	-0.142	-0.160
-398.179	-120.986	0.262	-0.043
-397.165	9.054	-0.162	0.121
-396.150	800.000	-0.045	-0.180
-395.136	-69.715	-0.377	-0.142
-394.121	-200.000	-0.019	0.469
-393.106	256.702	0.131	-0.222
-392.092	800.000	-0.042	0.175
-391.077	-129.310	-0.237	0.033
-390.063	181.914	0.128	-0.186
-389.048	-200.000	0.074	0.350
-388.033	-90.396	0.185	0.053
-387.019	-45.154	0.105	-0.051
-386.004	-200.000	0.009	0.119
-384.990	-24.226	-0.163	0.096
-383.975	800.000	0.049	-0.176
-382.960	-103.430	0.216	0.050
-381.946	23.892	0.082	-0.066
-380.931	156.127	-0.130	-0.176
-379.917	-22.101	0.262	-0.157
-378.902	-49.318	-0.249	0.117
-377.888	-103.438	-0.238	0.055
-376.873	51.299	0.105	-0.098
-375.858	-62.895	0.227	-0.092
-374.844	-116.484	-0.371	0.068
-373.829	-200.000	0.001	-0.217
-372.815	-149.584	-0.353	-0.028
-371.800	90.169	-0.227	-0.250
-370.785	-6.313	-0.205	-0.138
-369.771	650.318	-0.126	0.319
-368.756	-136.162	0.209	-0.024
-367.742	-79.594	-0.186	-0.062
-366.727	331.959	-0.055	-0.104
-365.712	0.149	-0.059	-0.041
-364.698	555.486	0.149	0.353
-363.683	48.132	-0.303	0.280
-362.669	-128.100	-0.180	-0.025
-361.654	102.648	-0.225	0.259
-360.639	50.936	0.182	-0.170
-359.625	-200.000	0.040	-0.330
-358.610	-200.000	-0.020	-0.118
-357.596	15.554	0.259	0.200
-356.581	141.598	0.274	0.358
-355.566	-114.834	-0.128	0.024
-354.552	800.000	0.044	-0.136
-353.537	-68.509	-0.028	-0.011
-352.523	-12.826	-0.131	0.084
-351.508	-118.335	0.066	0.012
-350.493	-128.091	0.257	-0.036
-349.479	425.650	0.093	-0.198
-348.464	-200.000	0.034	-0.360
-347.450	-61.913	0.106	0.044
-346.435	23.835	0.043	0.035
-345.420	-44.657	0.262	0.129
-344.406	-13.410	-0.070	-0.044
-343.391	582.005	-0.110	0.267
-342.377	255.420	0.168	0.284
-341.362	-66.783	-0.115	0.045
-340.348	-160.917	-0.110	0.006
-339.333	-79.504	-0.201	0.067
-338.318	-200.000	0.037	-0.321
-337.304	44.840	0.213	-0.193
-336.289	800.000	0.025	-0.085
-335.275	-200.000	0.016	0.078
-334.260	-28.505	-0.194	-0.110
-333.245	264.604	-0.105	0.180
-332.231	-165.543	0.144	-0.006
-331.216	-200.000	0.006	0.095
-330.202	-70.682	0.158	0.059
-329.187	133.949	0.229	0.292
-328.172	227.416	-0.127	-0.204
-327.158	-41.014	0.172	-0.088
-326.143	68.885	0.043	0.044
-325.129	10.951	-0.101	0.076
-324.114	-32.615	-0.099	0.054
-323.099	800.000	-0.071	0.227
-322.085	23.209	0.144	0.116
-321.070	-200.000	-0.102	0.000
-320.056	-41.055	0.156	-0.079
-319.041	0.700	0.202	0.142
-318.026	-13.812	-0.136	-0.086
-317.012	-73.513	-0.174	0.063
-315.997	-38.429	0.337	0.175
-314.983	131.040	0.134	0.169
-313.968	-102.085	-0.119	0.028
-312.953	-148.905	0.161	0.013
-311.939	48.530	0.163	-0.150
-310.924	-178.157	0.193	0.004
-309.910	785.741	-0.052	0.140
-308.895	250.412	0.113	0.190
-307.880	-200.000	-0.296	-0.000
-306.866	-91.664	-0.250	0.070
-305.851	141.529	0.094	0.123
-304.837	40.644	-0.125	0.111
-303.822	143.344	0.094	-0.123
-302.807	-61.265	-0.223	-0.093
-301.793	-31.365	0.178	-0.099
-300.778	-63.780	0.453	0.182
-299.764	132.046	0.097	-0.122
-298.749	-200.000	0.025	-0.155
-297.735	-171.711	-0.342	0.011
-296.720	511.726	-0.070	0.161
-295.705	-137.555	-0.205	-0.023
-294.691	474.330	-0.020	-0.045
-293.676	-78.192	0.184	0.062
-292.662	-160.910	0.318	-0.016
-291.647	800.000	0.102	0.376
-290.632	-133.677	0.180	-0.022
-289.618	178.666	-0.100	0.144
-288.603	-200.000	0.011	0.373
-287.589	43.333	0.328	0.295
-286.574	205.228	0.201	-0.307
-285.559	800.000	0.078	-0.313
-284.545	137.252	-0.097	0.125
-283.530	-103.824	-0.233	0.054
-282.516	-200.000	-0.002	0.226
-281.501	223.014	-0.037	0.059
-280.486	223.217	-0.136	-0.215
-279.472	-127.971	-0.309	0.044
-278.457	73.976	-0.132	0.136
-277.443	-110.433	-0.400	-0.082
-276.428	335.954	0.098	0.186
-275.413	-38.351	0.168	-0.087
-274.399	800.000	0.083	-0.254
-273.384	-112.462	0.235	0.046
-272.370	36.922	-0.141	0.122
-271.355	-61.884	-0.021	-0.009
-270.340	-54.000	-0.355	0.159
-269.326	-128.295	0.282	-0.040
-268.311	32.518	-0.166	-0.141
-267.297	-106.783	0.181	-0.040
-266.282	278.478	-0.018	0.032
-265.267	17.566	-0.052	-0.040
-264.253	73.986	-0.177	-0.183
-263.238	-104.805	0.342	0.077
-262.224	179.760	-0.173	-0.249
-261.209	231.393	0.207	0.334
-260.195	-200.000	-0.021	0.285
-259.180	291.174	-0.150	0.267
-258.165	249.072	0.022	0.036
-257.151	267.434	0.093	0.159
-256.136	-200.000	-0.022	-0.274
-255.122	89.884	-0.143	0.156
-254.107	42.325	-0.162	0.144
-253.092	-200.000	0.007	0.035
-252.078	20.569	0.376	0.298
-251.063	-97.671	0.141	-0.036
-250.049	36.783	0.113	0.098
-249.034	-43.869	-0.274	0.136
-248.019	-87.223	-0.235	0.070
-247.005	54.924	-0.190	-0.180
-245.990	-200.000	0.002	0.197
-244.976	-152.713	0.454	0.032
-243.961	126.033	0.055	0.069
-242.946	800.000	0.039	0.151
-241.932	-200.000	0.049	-0.236
-240.917	-45.100	0.218	-0.106
-239.903	267.084	-0.034	-0.058
-238.888	-135.762	-0.320	-0.037
-237.873	-200.000	0.022	0.149
-236.859	167.085	0.130	-0.181
-235.844	231.087	-0.222	0.357
-234.830	48.432	0.187	0.172
-233.815	-200.000	-0.017	-0.284
-232.800	-200.000	-0.016	-0.242
-231.786	125.439	0.141	0.175
-230.771	-18.792	-0.126	-0.077
-229.757	-200.000	-0.002	-0.070
-228.742	-42.809	0.106	0.053
-227.727	-139.210	-0.215	-0.023
-226.713	-61.600	-0.049	0.020
-225.698	-113.738	-0.331	-0.063
-224.684	-38.438	0.201	0.104
-223.669	-111.917	0.394	0.078
-222.655	-68.699	0.258	0.098
-221.640	-25.051	0.311	0.181
-220.625	312.353	-0.082	0.151
-219.611	-200.000	-0.015	-0.191
-218.596	-64.342	-0.117	-0.047
-217.582	69.198	-0.266	0.268
-216.567	800.000	0.079	-0.253
-215.552	35.855	0.089	-0.077
-214.538	240.410	-0.041	-0.068
-213.523	-66.274	0.193	0.075
-212.509	217.797	-0.033	0.051
-211.494	750.385	0.128	-0.339
-210.479	-38.055	0.101	-0.053
-209.465	86.945	0.108	0.117
-208.450	336.264	0.221	-0.421
-207.436	-200.000	0.002	0.060
-206.421	-28.701	0.379	0.214
-205.406	198.294	-0.113	-0.169
-204.392	24.451	-0.178	-0.144
-203.377	-200.000	-0.018	-0.162
-202.363	-200.000	-0.054	0.233
-201.348	-200.000	0.034	0.283
-200.333	363.488	-0.232	0.458
-199.319	-17.529	0.135	-0.083
-198.304	-55.525	0.132	-0.058
-197.290	-200.000	-0.074	0.339
-196.275	-121.557	-0.023	-0.004
-195.260	147.085	0.016	-0.021
-194.246	-200.000	0.046	0.364
-193.231	430.276	-0.035	0.073
-192.217	757.886	-0.044	-0.117
-191.202	15.093	0.132	-0.101
-190.187	-9.833	-0.026	0.017
-189.173	-59.618	-0.183	0.077
-188.158	84.009	-0.126	-0.135
-187.144	37.091	0.270	0.234
-186.129	-121.230	0.102	-0.017
-185.114	-26.684	0.081	0.047
-184.100	391.543	-0.187	0.381
-183.085	800.000	-0.092	-0.295
-182.071	-67.548	-0.254	0.098
-181.056	-87.585	0.275	0.081
-180.042	8.248	0.190	0.140
-179.027	300.467	-0.154	-0.278
-178.012	183.847	-0.171	0.248
-176.998	52.897	-0.123	-0.115
-175.983	11.447	0.278	-0.209
-174.969	49.669	-0.116	-0.107
-173.954	139.821	0.208	0.269
-172.939	-144.439	-0.397	-0.036
-171.925	53.371	-0.156	-0.147
-170.910	311.126	-0.105	-0.192
-169.896	-200.000	0.352	-0.001
-168.881	9.508	-0.265	0.197
-167.866	-12.772	0.341	-0.218
-166.852	800.000	0.028	0.096
-165.837	119.170	0.250	0.303
-164.823	-200.000	0.050	0.239
-163.808	788.793	-0.091	0.243
-162.793	-59.056	0.206	-0.087
-161.779	589.250	0.064	0.153
-160.764	318.990	0.084	0.156
-159.750	-200.000	0.048	0.305
-158.735	-51.824	0.222	-0.101
-157.720	55.044	0.080	0.076
-156.706	-200.000	0.011	0.115
-155.691	800.000	0.048	0.201
-154.677	-200.000	-0.033	-0.257
-153.662	110.665	-0.150	-0.176
-152.647	556.110	-0.141	0.332
-151.633	202.948	-0.108	-0.163
-150.618	-80.136	0.413	0.135
-149.604	297.492	0.160	-0.288
-148.589	-39.874	0.207	-0.106
-147.574	-113.351	0.242	0.047
-146.560	-200.000	-0.036	0.245
-145.545	-115.218	0.215	0.040
-144.531	-145.176	0.157	-0.014
-143.516	112.038	0.153	0.181
-142.502	-18.940	-0.252	0.153
-141.487	219.124	0.143	0.223
-140.472	97.301	0.212	-0.238
-139.458	30.616	-0.177	-0.148
-138.443	-46.109	0.301	-0.145
-137.429	-147.291	0.178	0.015
-136.414	800.000	-0.070	0.195
-135.399	-200.000	-0.015	-0.075
-134.385	-41.868	0.336	-0.168
-133.370	65.464	-0.163	-0.161
-132.356	117.213	-0.158	-0.189
-131.341	-172.471	0.194	0.006
-130.326	-138.348	0.233	0.025
-129.312	11.117	0.229	0.171
-128.297	393.895	-0.125	0.255
-127.283	-200.000	0.017	0.316
-126.268	-65.965	-0.112	-0.044
-125.253	328.834	0.097	0.181
-124.239	715.132	-0.113	-0.293
-123.224	295.145	-0.049	-0.087
-122.210	-9.857	-0.141	0.092
-121.195	98.971	-0.092	0.103
