DTS Sentinel unit serial number:	SN413079Multiplexer serial number:	ORYXHardware model number:	OX4-SRSoftware version number:	ORYX F/W v4.00 Oryx Data Collector v3.7.2.0data status	okinstallation	princeton_trtdifferential loss correction	single-endedforward channel	channel 3reverse channel	N/Adate	2019/09/11time	19:50:11forward acquisition time	60.00reverse acquisition time	0.00gamma	496.2192k internal	0.2299k external	0.2299temperature offset calibration	1.0017default loss term (dB/km)	0.3790temperature slope calibration	1.0000multiplexer offset coefficient	1.0000multiplexer slope coefficient	1.0000fibre end	0.00T internal ref (°C)	39.30T ext. ref 1 (°C)	1.35T ext. ref 2 (°C)	32.15length (m)	temperature (°C)	Stokes	anti-Stokes-747.200	-170.960	0.109	0.004
-746.185	-138.889	-0.109	-0.012
-745.171	34.050	0.211	-0.188
-744.156	104.097	0.148	-0.177
-743.142	-58.932	-0.157	0.069
-742.127	-125.142	-0.407	0.064
-741.112	-200.000	0.008	-0.153
-740.098	15.247	-0.229	-0.183
-739.083	-200.000	-0.029	0.141
-738.069	701.012	0.089	0.240
-737.054	50.556	0.122	0.118
-736.039	800.000	0.071	0.289
-735.025	616.403	-0.090	0.232
-734.010	-51.429	-0.440	-0.210
-732.996	-39.383	-0.047	0.025
-731.981	-20.725	0.158	0.099
-730.966	151.934	0.111	-0.154
-729.952	748.102	0.072	-0.198
-728.937	-200.000	-0.058	-0.472
-727.923	-80.257	0.184	0.063
-726.908	-25.093	-0.046	-0.028
-725.894	-158.797	0.268	-0.016
-724.879	-112.496	-0.156	0.032
-723.864	154.462	0.008	0.011
-722.850	-76.298	-0.288	-0.103
-721.835	800.000	-0.076	0.260
-720.821	-42.584	-0.300	-0.156
-719.806	113.072	-0.267	0.331
-718.791	358.552	-0.101	-0.205
-717.777	-103.858	0.123	-0.029
-716.762	-200.000	-0.012	0.133
-715.748	102.025	-0.146	0.174
-714.733	310.974	-0.152	-0.290
-713.718	800.000	-0.073	0.246
-712.704	-33.707	-0.171	-0.096
-711.689	387.807	0.079	-0.166
-710.675	11.615	-0.288	-0.225
-709.660	100.697	0.285	0.337
-708.645	-200.000	0.027	0.130
-707.631	83.234	0.086	0.096
-706.616	800.000	0.054	-0.208
-705.602	46.850	-0.126	-0.119
-704.587	800.000	0.083	0.272
-703.572	43.206	0.010	-0.009
-702.558	165.041	0.091	0.132
-701.543	-145.279	0.265	-0.024
-700.529	300.771	0.134	-0.252
-699.514	-104.645	-0.319	0.075
-698.499	257.761	-0.136	-0.238
-697.485	800.000	0.047	0.132
-696.470	-200.000	-0.042	-0.207
-695.456	-81.015	0.160	-0.054
-694.441	-200.000	-0.026	-0.134
-693.426	-83.511	-0.263	0.086
-692.412	83.917	0.162	0.180
-691.397	-38.090	-0.299	0.162
-690.383	-53.981	0.170	-0.079
-689.368	662.558	-0.043	0.112
-688.354	-200.000	-0.076	-0.356
-687.339	-200.000	-0.037	-0.331
-686.324	237.860	-0.064	0.108
-685.310	-200.000	0.000	-0.078
-684.295	477.766	0.148	0.341
-683.281	-123.209	-0.113	0.018
-682.266	-63.157	0.194	0.081
-681.251	800.000	-0.026	-0.104
-680.237	168.967	0.120	-0.174
-679.222	176.129	0.018	0.027
-678.208	-27.430	-0.219	0.129
-677.193	-170.341	0.476	0.017
-676.178	-75.845	-0.161	0.058
-675.164	26.285	-0.167	-0.142
-674.149	-33.103	-0.238	0.134
-673.135	96.107	-0.070	-0.082
-672.120	206.528	0.026	-0.041
-671.105	-9.250	-0.211	-0.144
-670.091	43.413	-0.329	-0.306
-669.076	800.000	0.129	-0.365
-668.062	-188.363	-0.214	-0.003
-667.047	389.711	0.026	-0.056
-666.032	800.000	-0.090	0.304
-665.018	-33.138	0.196	-0.110
-664.003	-51.596	0.224	-0.106
-662.989	78.906	-0.104	-0.113
-661.974	-145.528	0.053	0.005
-660.959	800.000	0.106	-0.383
-659.945	781.793	0.099	-0.277
-658.930	-92.816	0.151	-0.043
-657.916	198.770	0.092	-0.144
-656.901	-200.000	0.037	0.189
-655.886	-66.750	0.149	-0.060
-654.872	49.111	0.166	-0.158
-653.857	-136.745	0.160	0.019
-652.843	-130.622	0.417	-0.057
-651.828	-118.463	-0.507	0.091
-650.814	-200.000	-0.056	-0.380
-649.799	392.232	0.088	-0.185
-648.784	-32.952	-0.218	0.123
-647.770	29.900	-0.235	0.203
-646.755	800.000	-0.076	-0.332
-645.741	-200.000	0.062	-0.370
-644.726	-200.000	0.003	-0.015
-643.711	-43.756	0.245	0.125
-642.697	45.525	-0.227	-0.213
-641.682	91.349	0.153	-0.175
-640.668	-200.000	-0.020	-0.292
-639.653	-114.322	-0.145	-0.028
-638.638	167.727	-0.075	0.109
-637.624	356.150	-0.067	-0.135
-636.609	-128.442	-0.197	-0.028
-635.595	800.000	-0.011	0.047
-634.580	-200.000	0.036	0.347
-633.565	-97.676	0.205	-0.054
-632.551	-102.306	-0.242	-0.059
-631.536	399.270	0.141	0.300
-630.522	800.000	-0.079	0.306
-629.507	-68.705	-0.266	-0.104
-628.492	325.099	0.044	0.086
-627.478	147.702	0.296	0.405
-626.463	800.000	0.032	-0.103
-625.449	-76.710	0.169	0.060
-624.434	254.789	0.082	0.142
-623.419	-60.938	-0.340	0.146
-622.405	-109.014	-0.195	-0.042
-621.390	-200.000	0.042	-0.320
-620.376	177.220	0.301	-0.444
-619.361	50.237	0.243	0.233
-618.346	-117.431	-0.113	-0.021
-617.332	-136.771	-0.178	-0.021
-616.317	-200.000	0.011	0.228
-615.303	116.245	0.277	0.344
-614.288	29.760	0.366	-0.316
-613.273	-23.522	-0.088	-0.053
-612.259	800.000	-0.065	0.212
-611.244	15.602	0.262	-0.209
-610.230	-77.496	-0.383	-0.135
-609.215	106.993	-0.171	0.207
-608.201	147.866	0.239	-0.327
-607.186	-1.584	0.243	0.174
-606.171	-200.000	0.007	0.166
-605.157	0.156	-0.104	0.075
-604.142	559.554	-0.016	0.040
-603.128	-21.551	0.267	-0.165
-602.113	-155.691	0.093	0.006
-601.098	-143.724	0.152	-0.015
-600.084	113.557	-0.066	0.082
-599.069	-143.559	0.044	0.004
-598.055	405.478	-0.116	0.248
-597.040	800.000	-0.039	-0.118
-596.025	-65.887	0.216	-0.088
-595.011	-200.000	-0.062	-0.389
-593.996	56.069	-0.134	-0.132
-592.982	83.029	-0.181	-0.200
-591.967	800.000	-0.029	-0.098
-590.952	-32.823	0.168	0.095
-589.938	-66.353	0.067	0.027
-588.923	266.280	-0.085	0.151
-587.909	59.624	-0.060	-0.060
-586.894	-200.000	0.001	0.168
-585.879	-131.094	-0.192	-0.026
-584.865	-83.018	-0.124	0.040
-583.850	-79.903	-0.145	0.050
-582.836	175.303	-0.045	-0.066
-581.821	34.372	-0.111	-0.098
-580.806	460.043	0.161	-0.365
-579.792	-200.000	-0.224	-0.001
-578.777	352.356	-0.044	0.088
-577.763	-200.000	0.011	-0.459
-576.748	-81.719	-0.024	-0.008
-575.733	-200.000	-0.017	-0.393
-574.719	0.520	-0.124	0.090
-573.704	-39.236	-0.143	0.076
-572.690	118.686	0.171	-0.214
-571.675	50.773	-0.042	0.040
-570.661	-153.880	-0.102	0.007
-569.646	-200.000	-0.015	-0.134
-568.631	493.999	-0.048	-0.112
-567.617	66.716	-0.188	0.194
-566.602	800.000	0.067	-0.274
-565.588	-86.153	0.141	-0.044
-564.573	-200.000	0.005	-0.068
-563.558	48.431	0.056	0.053
-562.544	105.839	-0.007	0.009
-561.529	-200.000	-0.057	0.318
-560.515	361.337	0.072	0.147
-559.500	-58.323	-0.115	0.051
-558.485	-2.508	-0.072	-0.051
-557.471	800.000	-0.006	0.021
-556.456	287.707	0.101	-0.185
-555.442	800.000	-0.102	0.377
-554.427	-61.491	0.095	0.040
-553.412	-200.000	-0.014	-0.115
-552.398	193.999	0.081	-0.124
-551.383	88.006	0.092	-0.103
-550.369	-200.000	0.091	-0.502
-549.354	-131.465	-0.394	-0.053
-548.339	0.515	0.264	0.191
-547.325	-41.516	-0.296	-0.154
-546.310	-60.583	0.248	-0.106
-545.296	-3.082	0.092	0.065
-544.281	505.558	0.179	-0.420
-543.266	467.049	-0.140	0.317
-542.252	-167.353	0.126	0.005
-541.237	610.199	-0.050	0.127
-540.223	-50.937	0.122	-0.058
-539.208	-20.894	-0.335	0.208
-538.193	391.077	0.018	-0.037
-537.179	656.584	-0.039	-0.102
-536.164	-55.616	0.032	0.014
-535.150	-200.000	0.020	-0.178
-534.135	800.000	-0.066	0.244
-533.121	-130.988	-0.391	-0.053
-532.106	-115.078	-0.102	0.020
-531.091	-133.816	0.318	-0.040
-530.077	18.874	0.215	-0.174
-529.062	113.960	0.230	0.283
-528.048	5.037	-0.121	0.090
-527.033	614.961	0.177	0.449
-526.018	-200.000	0.051	0.229
-525.004	48.334	-0.369	0.349
-523.989	-92.457	-0.087	0.025
-522.975	-200.000	0.046	-0.222
-521.960	-87.692	-0.376	0.115
-520.945	12.243	-0.242	-0.189
-519.931	-28.156	-0.245	-0.143
-518.916	94.570	0.275	-0.316
-517.902	-200.000	0.075	-0.362
-516.887	-94.772	0.133	0.037
-515.872	-200.000	-0.003	0.190
-514.858	-200.000	0.001	0.007
-513.843	-152.699	-0.306	-0.022
-512.829	-117.008	0.271	0.050
-511.814	-180.338	0.130	-0.003
-510.799	132.521	-0.136	-0.177
-509.785	242.831	-0.083	-0.140
-508.770	-200.000	0.016	-0.312
-507.756	-17.957	-0.161	0.102
-506.741	-200.000	-0.044	-0.332
-505.726	-94.832	0.264	-0.072
-504.712	-166.206	0.290	0.012
-503.697	-200.000	0.054	0.251
-502.683	-200.000	-0.262	-0.001
-501.668	24.594	0.258	0.216
-500.653	-12.586	0.152	0.100
-499.639	-200.000	-0.042	0.258
-498.624	103.827	-0.057	-0.068
-497.610	-200.000	0.002	0.171
-496.595	800.000	-0.038	0.155
-495.581	-170.317	-0.040	-0.001
-494.566	800.000	0.030	0.094
-493.551	-78.819	-0.118	0.041
-492.537	-177.214	-0.161	-0.004
-491.522	49.581	0.042	0.040
-490.508	534.138	-0.110	0.263
-489.493	-73.330	0.032	0.012
-488.478	-22.282	-0.174	-0.106
-487.464	-71.186	0.128	-0.049
-486.449	-12.368	0.098	0.065
-485.435	-148.322	-0.060	-0.005
-484.420	561.595	0.089	-0.216
-483.405	800.000	-0.095	0.278
-482.391	164.166	0.083	0.119
-481.376	280.933	-0.024	-0.043
-480.362	663.158	-0.198	-0.515
-479.347	-109.186	-0.338	-0.073
-478.332	-105.752	0.468	0.107
-477.318	-195.676	0.254	0.002
-476.303	16.798	0.163	0.130
-475.289	-70.056	0.428	0.165
-474.274	-44.109	0.260	0.132
-473.259	800.000	-0.081	-0.258
-472.245	350.480	-0.106	0.211
-471.230	-97.027	0.211	-0.056
-470.216	556.288	0.171	-0.416
-469.201	370.118	-0.143	-0.293
-468.186	-95.743	-0.356	-0.096
-467.172	-200.000	-0.013	0.129
-466.157	367.025	0.013	-0.027
-465.143	-112.694	0.244	-0.049
-464.128	-200.000	0.062	0.288
-463.113	233.820	0.132	-0.220
-462.099	-117.784	0.186	-0.034
-461.084	800.000	-0.078	-0.226
-460.070	-200.000	-0.005	0.212
-459.055	800.000	0.029	0.098
-458.040	168.868	0.064	-0.092
-457.026	-29.301	-0.191	-0.110
-456.011	17.650	-0.084	0.067
-454.997	-55.188	-0.094	0.043
-453.982	412.015	0.097	-0.208
-452.968	-49.437	0.091	-0.044
-451.953	703.501	0.061	0.163
-450.938	489.830	-0.045	0.105
-449.924	-200.000	0.019	0.191
-448.909	-20.827	0.225	-0.139
-447.895	-200.000	0.145	-0.000
-446.880	-110.260	-0.299	0.063
-445.865	216.089	-0.072	0.115
-444.851	86.381	0.076	0.085
-443.836	502.898	-0.051	-0.118
-442.822	-79.764	-0.107	-0.036
-441.807	205.306	-0.046	-0.072
-440.792	-200.000	-0.039	0.226
-439.778	-200.000	-0.035	-0.466
-438.763	-125.381	-0.153	0.024
-437.749	421.487	-0.067	-0.144
-436.734	-102.604	-0.286	-0.069
-435.719	-81.607	-0.092	0.030
-434.705	-200.000	0.004	-0.071
-433.690	626.432	-0.173	-0.440
-432.676	800.000	0.104	0.297
-431.661	-200.000	-0.007	-0.252
-430.646	234.850	0.205	-0.341
-429.632	-2.382	-0.328	-0.232
-428.617	-200.000	0.013	-0.088
-427.603	329.215	0.110	0.214
-426.588	-18.639	-0.072	-0.045
-425.573	20.820	-0.212	0.173
-424.559	-24.209	0.103	-0.062
-423.544	-127.714	0.298	-0.043
-422.530	-73.149	0.044	0.016
-421.515	-108.006	0.325	0.071
-420.500	-135.776	0.172	0.021
-419.486	98.088	-0.153	0.177
-418.471	-29.319	-0.189	-0.109
-417.457	38.242	0.210	0.188
-416.442	-93.100	-0.255	-0.072
-415.428	88.897	0.123	0.138
-414.413	-78.610	-0.096	-0.033
-413.398	359.558	-0.056	0.112
-412.384	133.474	-0.079	0.103
-411.369	-96.419	0.232	-0.062
-410.355	-200.000	-0.020	0.201
-409.340	-77.347	0.163	0.057
-408.325	92.888	-0.066	-0.076
-407.311	-46.108	-0.069	0.034
-406.296	260.736	-0.084	0.146
-405.282	413.982	-0.043	-0.091
-404.267	301.439	-0.042	-0.078
-403.252	-120.344	-0.113	0.019
-402.238	-10.579	0.114	-0.076
-401.223	-182.743	0.250	0.005
-400.209	162.164	-0.081	-0.115
-399.194	-2.577	0.181	-0.128
-398.179	-73.528	0.086	-0.032
-397.165	800.000	0.090	-0.307
-396.150	-53.399	0.236	-0.109
-395.136	-200.000	0.073	-0.341
-394.121	800.000	0.009	0.037
-393.106	-200.000	-0.008	-0.090
-392.092	-135.272	0.060	0.007
-391.077	28.410	0.214	0.182
-390.063	97.706	0.031	0.036
-389.048	-44.637	-0.200	-0.101
-388.033	160.943	-0.211	-0.297
-387.019	-124.080	-0.110	-0.017
-386.004	543.643	-0.075	0.180
-384.990	158.391	-0.047	0.066
-383.975	117.960	0.287	0.356
-382.960	800.000	0.094	-0.311
-381.946	-200.000	-0.076	-0.338
-380.931	800.000	-0.119	0.425
-379.917	269.201	-0.193	0.341
-378.902	-137.498	-0.087	-0.010
-377.888	800.000	0.046	-0.182
-376.873	-87.224	0.073	0.022
-375.858	-109.951	-0.257	0.054
-374.844	109.602	0.063	-0.076
-373.829	531.435	-0.073	0.173
-372.815	52.754	-0.090	0.086
-371.800	-120.459	0.307	-0.052
-370.785	169.730	0.045	0.065
-369.771	677.847	-0.136	-0.355
-368.756	-134.350	-0.225	-0.028
-367.742	-200.000	-0.013	-0.137
-366.727	-200.000	-0.065	-0.381
-365.712	50.570	-0.215	-0.204
-364.698	-118.285	-0.450	0.080
-363.683	-98.303	-0.245	0.063
-362.669	50.447	0.168	-0.159
-361.654	-113.131	0.065	-0.013
-360.639	-144.152	-0.172	0.016
-359.625	-200.000	0.027	-0.172
-358.610	142.941	0.091	-0.122
-357.596	-200.000	-0.004	0.320
-356.581	361.334	0.164	-0.329
-355.566	-1.479	-0.046	0.032
-354.552	-65.004	0.088	0.036
-353.537	63.318	-0.052	0.052
-352.523	765.728	-0.153	-0.418
-351.508	-200.000	0.001	-0.299
-350.493	-73.495	0.117	-0.043
-349.479	-73.989	0.146	-0.053
-348.464	800.000	-0.073	0.208
-347.450	-145.904	-0.377	0.034
-346.435	299.354	0.062	0.114
-345.420	351.054	0.074	-0.148
-344.406	-200.000	0.060	-0.272
-343.391	-36.867	-0.232	-0.125
-342.377	285.395	-0.036	-0.065
-341.362	34.723	0.186	-0.164
-340.348	-200.000	0.027	0.159
-339.333	128.782	-0.134	-0.172
-338.318	560.989	-0.094	0.227
-337.304	67.779	-0.165	0.169
-336.289	-119.855	0.246	-0.042
-335.275	473.168	-0.139	-0.315
-334.260	-180.448	0.159	-0.003
-333.245	31.068	-0.098	0.084
-332.231	11.554	-0.079	-0.061
-331.216	-101.470	0.202	-0.049
-330.202	-62.470	0.068	0.028
-329.187	-132.633	-0.160	0.021
-328.172	65.225	-0.041	-0.042
-327.158	-51.349	-0.176	0.082
-326.143	305.126	0.108	0.201
-325.129	206.941	0.189	0.296
-324.114	30.446	0.058	0.050
-323.099	-21.510	-0.077	-0.047
-322.085	-200.000	0.018	0.089
-321.070	65.374	0.089	-0.090
-320.056	-54.324	0.312	-0.142
-319.041	-200.000	-0.019	0.217
-318.026	252.832	0.108	0.185
-317.012	51.522	0.115	-0.109
-315.997	800.000	0.115	0.391
-314.983	569.262	-0.183	0.446
-313.968	-200.000	-0.059	0.354
-312.953	85.989	-0.093	0.103
-311.939	10.122	0.091	-0.069
-310.924	-200.000	-0.015	-0.375
-309.910	10.143	0.120	-0.091
-308.895	55.340	0.306	-0.297
-307.880	368.374	0.177	0.359
-306.866	22.182	0.023	-0.019
-305.851	109.328	-0.131	-0.157
-304.837	-73.912	-0.216	0.079
-303.822	103.583	0.205	0.241
-302.807	800.000	-0.036	-0.150
-301.793	207.984	-0.108	-0.169
-300.778	-136.096	0.190	-0.022
-299.764	76.624	-0.155	0.165
-298.749	134.232	0.123	-0.160
-297.735	140.961	0.057	0.075
-296.720	-160.797	-0.074	0.004
-295.705	715.979	0.061	0.162
-294.691	800.000	-0.031	0.098
-293.676	-24.408	-0.301	-0.180
-292.662	-137.171	-0.036	0.004
-291.647	-200.000	-0.016	-0.094
-290.632	594.619	-0.096	-0.239
-289.618	294.099	-0.015	-0.027
-288.603	-200.000	0.004	-0.144
-287.589	65.550	0.261	-0.265
-286.574	-154.820	-0.256	-0.017
-285.559	108.408	0.167	0.200
-284.545	-68.094	-0.192	0.075
-283.530	-101.345	-0.156	0.038
-282.516	800.000	0.087	-0.261
-281.501	-92.394	0.490	-0.138
-280.486	-86.709	0.191	-0.059
-279.472	800.000	-0.071	-0.202
-278.457	-200.000	0.424	0.002
-277.443	309.957	0.220	0.412
-276.428	-33.180	0.282	0.156
-275.413	104.313	-0.112	0.132
-274.399	466.235	-0.078	-0.174
-273.384	-12.486	-0.105	-0.068
-272.370	-89.578	0.263	0.077
-271.355	-200.000	-0.008	-0.216
-270.340	273.853	-0.112	0.198
-269.326	14.018	0.322	0.251
-268.311	-71.870	0.125	0.047
-267.297	318.120	0.035	0.066
-266.282	76.170	-0.036	0.038
-265.267	-147.252	0.152	-0.013
-264.253	89.566	0.166	0.186
-263.238	-22.172	-0.161	0.098
-262.224	173.723	-0.082	-0.119
-261.209	-54.582	0.248	0.112
-260.195	188.136	-0.095	-0.143
-259.180	109.998	0.066	-0.079
-258.165	-7.331	0.076	0.052
-257.151	-96.017	-0.341	-0.091
-256.136	-130.119	-0.218	0.030
-255.122	-200.000	0.017	0.165
-254.107	-49.559	-0.214	-0.102
-253.092	800.000	0.062	-0.179
-252.078	-44.447	0.132	-0.066
-251.063	-79.679	-0.033	-0.011
-250.049	-60.998	-0.402	0.170
-249.034	-200.000	-0.020	-0.381
-248.019	-17.112	0.177	-0.112
-247.005	39.002	-0.343	-0.307
-245.990	-7.941	-0.382	0.258
-244.976	-66.243	-0.215	-0.086
-243.961	161.536	-0.076	-0.106
-242.946	-111.678	0.197	-0.040
-241.932	800.000	0.016	-0.048
-240.917	124.475	-0.206	-0.259
-239.903	10.605	-0.224	-0.171
-238.888	-200.000	-0.030	0.285
-237.873	-200.000	0.020	0.267
-236.859	-43.054	0.168	0.085
-235.844	-163.859	-0.049	0.002
-234.830	800.000	-0.079	-0.233
-233.815	-162.261	-0.263	0.013
-232.800	-200.000	-0.021	0.176
-231.786	-140.956	0.358	0.037
-230.771	-120.004	-0.176	0.030
-229.757	50.928	-0.152	-0.144
-228.742	329.876	0.172	0.330
-227.727	314.492	0.064	0.120
-226.713	-87.240	0.067	-0.020
-225.698	113.985	0.232	0.282
-224.684	800.000	-0.080	-0.342
-223.669	36.314	0.142	-0.126
-222.655	-200.000	0.049	-0.271
-221.640	47.633	-0.184	0.172
-220.625	-200.000	0.025	0.180
-219.611	-89.093	0.305	0.090
-218.596	130.082	0.048	-0.061
-217.582	63.055	0.158	0.158
-216.567	-200.000	0.042	0.356
-215.552	28.524	0.156	0.132
-214.538	12.244	-0.122	-0.094
-213.523	-137.429	-0.218	0.025
-212.509	-200.000	0.004	0.199
-211.494	-61.601	0.274	-0.115
-210.479	-200.000	0.017	0.219
-209.465	-200.000	0.031	-0.296
-208.450	-69.154	0.052	0.020
-207.436	235.619	-0.206	0.339
-206.421	-200.000	0.008	0.132
-205.406	109.194	-0.226	0.270
-204.392	49.649	0.177	0.167
-203.377	4.355	0.072	0.053
-202.363	100.111	-0.115	-0.134
-201.348	593.116	0.069	0.170
-200.333	-83.601	0.301	0.096
-199.319	-91.088	-0.221	0.063
-198.304	533.025	0.067	0.159
-197.290	-17.123	0.359	0.226
-196.275	419.346	-0.024	0.052
-195.260	567.261	-0.068	0.166
-194.246	13.763	0.235	-0.182
-193.231	800.000	-0.053	-0.176
-192.217	-200.000	0.095	-0.543
-191.202	233.388	-0.066	-0.109
-190.187	130.585	-0.153	0.196
-189.173	-200.000	-0.005	0.309
-188.158	-43.175	0.122	0.062
-187.144	100.906	0.162	0.189
-186.129	254.585	0.061	0.104
-185.114	20.208	-0.276	0.222
-184.100	-0.592	-0.236	0.167
-183.085	212.724	0.118	0.187
-182.071	800.000	0.093	0.324
-181.056	-41.623	0.330	0.169
-180.042	13.940	0.305	-0.237
-179.027	39.155	-0.106	0.094
-178.012	-200.000	-0.003	0.285
-176.998	-200.000	-0.015	-0.110
-175.983	800.000	-0.054	0.218
-174.969	-28.690	-0.150	0.086
-173.954	-96.558	-0.203	0.054
-172.939	-200.000	0.022	-0.151
-171.925	-200.000	0.003	-0.165
-170.910	-152.270	-0.124	-0.009
-169.896	-200.000	0.068	0.413
-168.881	800.000	-0.171	0.483
-167.866	133.251	0.047	-0.061
-166.852	-200.000	-0.005	0.047
-165.837	-100.329	-0.333	-0.083
-164.823	60.061	-0.269	-0.265
-163.808	-98.566	-0.161	0.041
-162.793	8.538	0.066	0.049
-161.779	-103.083	-0.198	0.047
-160.764	15.935	0.119	-0.093
-159.750	-30.438	0.371	0.210
-158.735	32.819	0.240	0.207
-157.720	522.436	-0.087	0.204
-156.706	-60.178	-0.146	-0.062
-155.691	800.000	-0.048	0.202
-154.677	-67.020	0.119	-0.047
-153.662	-200.000	0.044	-0.412
-152.647	402.790	-0.121	0.253
-151.633	800.000	-0.015	0.053
-150.618	25.207	0.147	-0.122
-149.604	-150.362	0.289	0.022
-148.589	-50.251	0.186	-0.088
-147.574	-150.527	-0.114	0.009
-146.560	540.085	0.076	0.180
-145.545	-200.000	0.116	-0.506
-144.531	34.036	0.063	0.055
-143.516	34.856	0.064	0.056
-142.502	19.963	0.115	0.092
-141.487	-53.382	-0.092	-0.042
-140.472	-63.602	0.350	-0.143
-139.458	678.676	-0.038	0.100
-138.443	181.961	-0.181	0.265
-137.429	-34.101	-0.049	0.027
-136.414	-126.711	-0.366	-0.054
-135.399	643.569	0.070	-0.177
-134.385	669.545	-0.108	-0.279
-133.370	109.060	-0.169	0.201
-132.356	-20.884	0.122	-0.074
-131.341	774.478	-0.037	-0.102
-130.326	325.232	0.109	-0.208
-129.312	-21.563	0.217	0.132
-128.297	584.300	0.070	-0.172
-127.283	-7.160	0.179	-0.121
-126.268	89.500	-0.225	-0.250
-125.253	-60.791	-0.234	-0.099
-124.239	-21.049	0.144	0.088
-123.224	-200.000	0.098	0.440
-122.210	-200.000	-0.016	-0.437
-121.195	-179.428	-0.266	-0.006
