DTS Sentinel unit serial number:	SN413079Multiplexer serial number:	ORYXHardware model number:	OX4-SRSoftware version number:	ORYX F/W v4.00 Oryx Data Collector v3.7.2.0data status	okinstallation	princeton_trtdifferential loss correction	single-endedforward channel	channel 3reverse channel	N/Adate	2019/09/18time	22:12:35forward acquisition time	60.00reverse acquisition time	0.00gamma	496.2192k internal	0.2345k external	0.2345temperature offset calibration	0.9987default loss term (dB/km)	0.3790temperature slope calibration	1.0000multiplexer offset coefficient	1.0000multiplexer slope coefficient	1.0000fibre end	0.00T internal ref (°C)	24.44T ext. ref 1 (°C)	0.80T ext. ref 2 (°C)	18.15length (m)	temperature (°C)	Stokes	anti-Stokes-747.200	142.713	0.198	-0.263
-746.185	-25.797	-0.265	0.156
-745.171	96.517	0.244	-0.280
-744.156	-68.616	-0.198	0.077
-743.142	-51.522	0.268	-0.125
-742.127	-200.000	0.075	0.381
-741.112	800.000	0.059	0.258
-740.098	282.875	-0.139	0.249
-739.083	-200.000	-0.061	-0.291
-738.069	2.149	-0.234	-0.169
-737.054	-38.559	0.242	0.128
-736.039	-31.829	-0.418	-0.234
-735.025	116.255	0.354	0.433
-734.010	171.982	-0.093	-0.134
-732.996	19.137	0.094	-0.076
-731.981	110.855	-0.174	-0.210
-730.966	-200.000	-0.003	0.168
-729.952	800.000	-0.115	-0.385
-728.937	-200.000	-0.003	0.209
-727.923	-69.574	-0.283	-0.108
-726.908	62.492	0.111	-0.111
-725.894	-34.138	0.208	-0.114
-724.879	62.811	0.127	-0.127
-723.864	-150.285	-0.432	0.033
-722.850	-11.250	0.238	-0.156
-721.835	194.121	0.063	-0.096
-720.821	-200.000	-0.009	0.198
-719.806	31.777	0.251	-0.216
-718.791	800.000	-0.074	-0.293
-717.777	-200.000	0.460	-0.000
-716.762	-41.373	0.152	-0.078
-715.748	-49.295	0.398	-0.190
-714.733	-16.119	-0.049	0.031
-713.718	800.000	0.018	0.051
-712.704	-32.399	0.241	0.134
-711.689	75.816	-0.156	0.165
-710.675	257.133	0.173	-0.297
-709.660	474.186	0.072	0.163
-708.645	167.697	0.141	-0.200
-707.631	251.426	-0.069	0.118
-706.616	-200.000	0.012	-0.200
-705.602	800.000	-0.091	-0.388
-704.587	-78.312	0.339	0.116
-703.572	267.340	-0.101	-0.177
-702.558	-84.868	0.446	-0.140
-701.543	-139.480	0.202	0.022
-700.529	35.218	0.246	0.216
-699.514	118.535	0.112	0.138
-698.499	400.088	0.119	-0.249
-697.485	-200.000	0.002	-0.079
-696.470	-200.000	-0.048	0.467
-695.456	-97.590	0.175	-0.045
-694.441	679.456	0.088	-0.229
-693.426	118.287	-0.243	-0.300
-692.412	173.698	-0.178	-0.256
-691.397	267.700	-0.047	-0.083
-690.383	-189.247	0.440	0.005
-689.368	800.000	0.035	0.098
-688.354	282.312	-0.066	-0.118
-687.339	422.871	0.093	-0.200
-686.324	272.236	0.123	-0.216
-685.310	-200.000	-0.003	-0.403
-684.295	84.378	0.154	0.168
-683.281	-77.721	-0.416	-0.143
-682.266	-200.000	0.010	0.098
-681.251	-99.422	-0.138	-0.035
-680.237	-34.060	-0.330	0.181
-679.222	-103.609	0.141	-0.033
-678.208	289.049	-0.130	0.236
-677.193	140.668	-0.126	0.166
-676.178	-76.985	0.378	-0.132
-675.164	35.059	0.182	-0.159
-674.149	65.005	-0.037	-0.037
-673.135	-197.040	0.032	-0.000
-672.120	-200.000	-0.022	-0.170
-671.105	800.000	-0.088	0.285
-670.091	800.000	-0.030	0.122
-669.076	-173.958	-0.165	0.005
-668.062	-200.000	-0.025	-0.120
-667.047	113.306	0.008	-0.010
-666.032	-61.875	-0.053	0.022
-665.018	-121.665	0.110	0.018
-664.003	124.614	-0.253	-0.317
-662.989	-17.724	-0.279	0.175
-661.974	236.508	-0.177	0.292
-660.959	271.036	-0.068	-0.120
-659.945	-138.229	-0.299	-0.033
-658.930	-130.728	-0.229	0.031
-657.916	-152.637	-0.344	-0.024
-656.901	800.000	0.081	-0.301
-655.886	-79.029	0.053	-0.018
-654.872	349.112	-0.121	0.239
-653.857	24.273	0.369	0.304
-652.843	-170.150	-0.304	-0.011
-651.828	-86.394	-0.166	-0.051
-650.814	170.118	-0.150	0.214
-649.799	800.000	-0.040	-0.168
-648.784	-131.956	-0.110	-0.014
-647.770	-149.116	-0.048	-0.004
-646.755	-76.099	-0.157	0.055
-645.741	208.472	-0.177	0.276
-644.726	-120.875	-0.068	0.011
-643.711	-107.602	-0.213	-0.046
-642.697	800.000	-0.116	0.377
-641.682	-1.163	-0.259	0.182
-640.668	-200.000	0.048	-0.229
-639.653	-38.892	-0.244	0.128
-638.638	139.154	0.228	-0.299
-637.624	26.344	-0.190	-0.158
-636.609	439.593	0.116	0.252
-635.595	-200.000	-0.042	0.447
-634.580	-200.000	0.023	-0.197
-633.565	-62.590	0.434	-0.179
-632.551	67.970	0.210	-0.214
-631.536	-121.998	0.101	-0.017
-630.522	-200.000	0.010	-0.311
-629.507	-107.919	0.025	0.005
-628.492	100.904	-0.021	-0.024
-627.478	800.000	-0.025	-0.095
-626.463	261.897	0.120	-0.208
-625.449	-42.167	0.025	0.013
-624.434	800.000	-0.061	0.262
-623.419	8.921	-0.114	-0.086
-622.405	-57.533	0.550	-0.240
-621.390	-12.799	0.279	-0.181
-620.376	268.681	0.174	-0.304
-619.361	64.969	-0.135	-0.136
-618.346	-62.620	-0.263	-0.108
-617.332	800.000	-0.097	-0.382
-616.317	800.000	-0.057	0.200
-615.303	-38.542	-0.270	-0.142
-614.288	-49.221	-0.128	0.061
-613.273	278.646	0.085	0.150
-612.259	486.646	-0.099	-0.224
-611.244	527.630	-0.106	0.249
-610.230	189.170	0.122	0.182
-609.215	-143.871	0.322	-0.030
-608.201	220.358	0.081	0.129
-607.186	12.214	0.169	0.129
-606.171	72.431	0.403	0.418
-605.157	70.113	-0.125	0.129
-604.142	800.000	-0.044	-0.133
-603.128	115.275	0.123	-0.149
-602.113	33.235	-0.121	-0.105
-601.098	8.136	-0.288	-0.215
-600.084	-61.771	0.230	-0.096
-599.069	-200.000	0.020	0.162
-598.055	-193.640	-0.116	0.001
-597.040	-200.000	-0.042	0.208
-596.025	-200.000	0.025	0.173
-595.011	-92.953	-0.390	-0.108
-593.996	800.000	-0.027	-0.075
-592.982	-66.180	0.118	0.047
-591.967	-40.938	-0.181	0.093
-590.952	-200.000	0.048	-0.212
-589.938	-104.482	-0.186	0.043
-588.923	-145.329	-0.111	-0.010
-587.909	-121.206	0.372	0.062
-586.894	-200.000	-0.007	0.113
-585.879	35.758	-0.186	-0.163
-584.865	-9.153	-0.093	-0.062
-583.850	800.000	-0.076	-0.226
-582.836	-79.838	-0.506	0.169
-581.821	-182.228	-0.149	0.003
-580.806	105.589	0.254	0.299
-579.792	34.742	-0.077	-0.067
-578.777	800.000	0.007	-0.020
-577.763	21.234	-0.063	0.051
-576.748	-91.152	0.362	-0.103
-575.733	-90.609	0.149	0.043
-574.719	-10.277	-0.191	-0.126
-573.704	173.275	-0.204	-0.292
-572.690	800.000	0.032	-0.112
-571.675	-150.487	-0.167	0.013
-570.661	523.771	-0.068	0.159
-569.646	8.809	-0.083	0.062
-568.631	-70.482	0.196	0.074
-567.617	243.428	0.085	-0.141
-566.602	443.361	0.027	0.058
-565.588	-200.000	-0.015	0.180
-564.573	-110.737	0.153	-0.031
-563.558	-200.000	-0.001	-0.175
-562.544	-200.000	0.020	0.120
-561.529	134.246	-0.063	-0.082
-560.515	61.540	0.111	-0.110
-559.500	338.209	0.162	0.313
-558.485	190.403	0.100	-0.149
-557.471	696.384	-0.097	-0.254
-556.456	44.827	-0.377	-0.345
-555.442	-200.000	0.058	-0.410
-554.427	-200.000	-0.073	-0.414
-553.412	217.419	-0.035	0.055
-552.398	-80.454	-0.241	0.080
-551.383	800.000	-0.084	0.273
-550.369	459.242	-0.145	-0.320
-549.354	-38.868	0.233	0.122
-548.339	-64.263	-0.276	0.112
-547.325	-200.000	-0.033	-0.201
-546.310	-32.136	-0.156	0.087
-545.296	337.564	0.092	-0.178
-544.281	99.982	0.228	-0.262
-543.266	311.511	-0.073	-0.136
-542.252	148.179	-0.071	-0.095
-541.237	44.866	-0.101	-0.093
-540.223	24.294	0.218	0.179
-539.208	30.670	-0.207	0.176
-538.193	-11.385	0.307	0.201
-537.179	-76.551	-0.352	-0.123
-536.164	-68.891	-0.262	-0.101
-535.150	711.577	0.025	0.066
-534.135	-200.000	-0.011	0.137
-533.121	-200.000	-0.051	-0.289
-532.106	-9.168	0.248	0.164
-531.091	41.854	0.252	0.227
-530.077	-26.635	-0.059	0.034
-529.062	73.476	0.120	0.124
-528.048	162.838	-0.051	-0.071
-527.033	-12.253	0.160	-0.104
-526.018	-200.000	-0.009	-0.202
-525.004	-200.000	-0.046	-0.314
-523.989	85.990	0.159	-0.174
-522.975	-200.000	-0.027	0.238
-521.960	-200.000	-0.039	0.315
-520.945	29.174	0.267	0.225
-519.931	-161.393	0.240	0.012
-518.916	510.047	0.013	-0.031
-517.902	800.000	-0.035	-0.126
-516.887	-124.994	0.043	0.007
-515.872	-200.000	0.018	-0.092
-514.858	-131.391	-0.337	-0.044
-513.843	139.624	-0.266	-0.348
-512.829	775.249	-0.110	0.299
-511.814	800.000	0.025	0.086
-510.799	-33.581	0.147	-0.081
-509.785	179.811	-0.086	0.125
-508.770	-200.000	0.003	0.161
-507.756	27.496	-0.200	0.167
-506.741	-200.000	0.083	-0.413
-505.726	141.121	0.112	-0.146
-504.712	321.605	0.152	-0.287
-503.697	-138.331	-0.122	-0.013
-502.683	-200.000	-0.019	-0.227
-501.668	-120.525	0.385	0.065
-500.653	796.143	-0.096	-0.261
-499.639	-145.558	0.155	0.014
-498.624	81.873	-0.290	-0.311
-497.610	-20.097	0.199	0.121
-496.595	-30.561	0.195	0.110
-495.581	-42.398	-0.231	0.117
-494.566	-8.370	-0.387	-0.258
-493.551	640.043	0.090	-0.226
-492.537	-146.590	-0.027	0.002
-491.522	-172.710	-0.210	0.007
-490.508	482.149	-0.114	0.257
-489.493	-157.838	0.179	0.011
-488.478	113.651	0.093	-0.111
-487.464	58.931	0.198	0.193
-486.449	1.796	-0.008	0.006
-485.435	-161.580	0.193	-0.010
-484.420	-173.188	0.144	-0.004
-483.405	-71.686	-0.213	-0.079
-482.391	-150.992	-0.084	-0.006
-481.376	-200.000	-0.009	0.236
-480.362	104.511	-0.196	-0.228
-479.347	282.893	0.017	0.031
-478.332	319.441	-0.125	0.235
-477.318	-185.964	-0.193	0.003
-476.303	800.000	0.090	0.309
-475.289	-31.663	0.145	-0.081
-474.274	-82.379	-0.041	0.013
-473.259	-93.820	-0.279	0.076
-472.245	-18.397	0.186	-0.115
-471.230	-119.151	-0.214	-0.037
-470.216	-0.050	0.107	0.076
-469.201	282.181	0.060	-0.106
-468.186	-120.721	0.165	-0.028
-467.172	21.745	0.086	-0.069
-466.157	101.772	0.043	0.050
-465.143	-45.999	-0.166	0.081
-464.128	-64.252	0.182	0.073
-463.113	-37.461	-0.206	-0.109
-462.099	800.000	-0.068	-0.211
-461.084	340.211	-0.060	-0.116
-460.070	-45.011	-0.243	-0.120
-459.055	-83.937	0.165	0.052
-458.040	-45.812	0.217	0.106
-457.026	306.119	0.175	-0.321
-456.011	-182.429	0.231	-0.004
-454.997	-200.000	-0.038	0.265
-453.982	136.586	0.127	0.165
-452.968	-200.000	0.044	-0.214
-451.953	116.263	0.228	0.277
-450.938	-200.000	-0.053	0.375
-449.924	-200.000	0.086	-0.379
-448.909	-200.000	0.021	-0.136
-447.895	800.000	-0.100	0.297
-446.880	800.000	-0.061	0.177
-445.865	16.196	0.244	0.191
-444.851	-79.021	0.172	-0.058
-443.836	104.183	-0.195	0.227
-442.822	800.000	-0.105	-0.421
-441.807	-11.879	0.130	-0.084
-440.792	56.147	0.196	0.188
-439.778	-200.000	-0.021	0.226
-438.763	-200.000	-0.026	0.120
-437.749	-200.000	0.017	0.204
-436.734	17.875	0.249	0.196
-435.719	-7.405	0.203	0.136
-434.705	-94.476	0.186	0.050
-433.690	-80.786	0.241	0.079
-432.676	593.882	0.154	0.375
-431.661	-85.518	-0.202	-0.062
-430.646	198.207	-0.145	-0.220
-429.632	-29.760	0.277	-0.156
-428.617	800.000	0.100	-0.290
-427.603	-182.294	-0.231	0.004
-426.588	-136.171	0.319	-0.037
-425.573	-200.000	0.006	0.091
-424.559	-94.228	-0.138	-0.037
-423.544	800.000	0.075	-0.264
-422.530	-52.033	0.088	0.040
-421.515	-157.402	0.026	-0.002
-420.500	-54.782	-0.055	-0.025
-419.486	-160.995	-0.284	-0.015
-418.471	-200.000	0.017	0.417
-417.457	33.403	0.261	0.224
-416.442	-95.405	0.179	-0.047
-415.428	800.000	-0.042	0.144
-414.413	-61.594	0.298	-0.124
-413.398	104.512	0.162	-0.188
-412.384	-200.000	0.026	0.124
-411.369	800.000	0.028	-0.093
-410.355	-7.129	-0.104	0.070
-409.340	-180.516	-0.150	0.003
-408.325	5.381	-0.076	0.055
-407.311	-42.152	0.172	-0.087
-406.296	-84.452	-0.279	0.087
-405.282	-200.000	-0.051	0.312
-404.267	216.868	-0.134	-0.210
-403.252	800.000	0.128	-0.431
-402.238	405.739	-0.025	0.052
-401.223	-142.253	-0.209	0.020
-400.209	42.992	-0.180	0.162
-399.194	-200.000	-0.126	0.595
-398.179	442.356	-0.152	-0.329
-397.165	-170.453	-0.200	-0.007
-396.150	-58.201	0.205	0.088
-395.136	432.756	-0.088	0.188
-394.121	-200.000	0.008	-0.476
-393.106	-28.099	0.110	0.063
-392.092	112.524	-0.124	0.148
-391.077	-200.000	0.028	0.484
-390.063	-76.799	-0.226	0.078
-389.048	42.780	-0.336	-0.302
-388.033	46.071	-0.137	-0.125
-387.019	28.688	0.043	0.036
-386.004	-62.691	0.283	-0.116
-384.990	74.637	0.027	-0.028
-383.975	85.450	-0.214	-0.231
-382.960	800.000	-0.056	0.168
-381.946	597.318	-0.061	-0.150
-380.931	297.154	0.107	0.195
-379.917	-125.708	0.310	-0.046
-378.902	572.700	-0.053	0.128
-377.888	-200.000	0.018	-0.112
-376.873	-72.099	-0.209	-0.076
-375.858	71.653	-0.078	0.080
-374.844	12.125	0.034	-0.026
-373.829	-75.110	0.182	0.064
-372.815	-153.676	0.263	-0.018
-371.800	82.849	0.186	0.199
-370.785	169.234	-0.156	-0.220
-369.771	-23.975	0.060	-0.035
-368.756	-135.016	-0.307	-0.037
-367.742	512.771	0.092	0.212
-366.727	-200.000	-0.009	-0.042
-365.712	-200.000	-0.070	-0.495
-364.698	175.411	-0.155	-0.221
-363.683	75.584	0.095	0.099
-362.669	89.397	-0.216	-0.237
-361.654	800.000	-0.172	-0.542
-360.639	-16.313	-0.470	-0.294
-359.625	725.321	0.133	0.351
-358.610	640.668	-0.002	-0.006
-357.596	-61.279	-0.169	0.070
-356.581	-200.000	0.017	0.224
-355.566	65.630	0.066	-0.066
-354.552	-22.476	0.117	0.070
-353.537	-200.000	-0.063	0.364
-352.523	-70.792	-0.082	0.030
-351.508	4.006	0.126	0.091
-350.493	-77.352	0.031	-0.011
-349.479	800.000	0.082	-0.335
-348.464	-76.304	0.169	-0.059
-347.450	800.000	-0.022	0.084
-346.435	393.907	-0.080	0.164
-345.420	58.935	0.338	0.328
-344.406	57.067	0.109	-0.104
-343.391	-17.558	0.070	-0.043
-342.377	559.859	-0.123	0.293
-341.362	-76.149	-0.208	0.072
-340.348	55.974	0.097	-0.092
-339.333	-200.000	-0.010	0.185
-338.318	285.606	0.173	-0.306
-337.304	38.346	0.239	-0.210
-336.289	32.842	0.236	0.201
-335.275	-200.000	0.002	0.016
-334.260	-89.747	0.085	0.025
-333.245	570.103	-0.131	0.313
-332.231	-200.000	-0.025	-0.411
-331.216	-33.289	0.121	-0.066
-330.202	-62.318	0.377	0.154
-329.187	211.280	0.146	0.226
-328.172	72.995	-0.182	-0.187
-327.158	800.000	-0.028	-0.115
-326.143	-102.993	0.202	0.047
-325.129	323.445	0.021	0.040
-324.114	800.000	0.090	-0.256
-323.099	-0.252	-0.245	0.171
-322.085	446.933	-0.125	0.270
-321.070	-30.125	0.103	-0.058
-320.056	166.311	-0.244	0.340
-319.041	-67.542	-0.085	-0.033
-318.026	131.330	-0.287	-0.363
-317.012	67.364	0.042	0.042
-315.997	-123.282	-0.081	0.013
-314.983	25.366	-0.113	-0.093
-313.968	-138.656	-0.183	0.020
-312.953	800.000	0.067	-0.219
-311.939	11.681	-0.206	-0.156
-310.924	314.931	-0.070	0.130
-309.910	189.216	-0.353	0.520
-308.895	-59.963	0.234	0.098
-307.880	800.000	0.022	-0.085
-306.866	159.194	-0.007	0.009
-305.851	-8.333	0.212	-0.140
-304.837	-129.285	-0.256	0.035
-303.822	-200.000	-0.024	-0.111
-302.807	-81.815	-0.093	-0.030
-301.793	-155.259	-0.094	0.006
-300.778	34.290	-0.107	0.092
-299.764	-32.961	0.030	0.017
-298.749	800.000	-0.100	-0.432
-297.735	59.821	0.050	0.048
-296.720	42.816	-0.051	-0.046
-295.705	-129.989	0.329	0.044
-294.691	275.375	-0.014	-0.024
-293.676	501.023	-0.053	0.121
-292.662	-31.269	0.090	-0.050
-291.647	277.415	-0.137	0.239
-290.632	255.439	-0.243	0.410
-289.618	307.309	0.096	0.176
-288.603	-45.014	-0.075	0.037
-287.589	-50.380	0.122	-0.056
-286.574	-25.800	-0.073	-0.042
-285.559	-200.000	-0.109	0.641
-284.545	45.232	0.115	-0.104
-283.530	18.861	0.139	0.110
-282.516	-55.038	0.313	-0.139
-281.501	-40.574	-0.360	-0.183
-280.486	160.681	0.236	0.324
-279.472	-15.770	-0.168	-0.105
-278.457	-149.566	-0.160	0.012
-277.443	-154.109	-0.039	0.003
-276.428	-118.691	0.347	0.060
-275.413	219.918	0.146	-0.230
-274.399	633.726	0.056	0.140
-273.384	-137.440	0.052	0.006
-272.370	800.000	-0.044	0.135
-271.355	-200.000	0.031	0.299
-270.340	-200.000	-0.012	-0.077
-269.326	141.340	-0.248	0.322
-268.311	260.590	-0.169	-0.287
-267.297	-200.000	0.000	-0.234
-266.282	-200.000	-0.034	0.176
-265.267	-200.000	0.012	-0.120
-264.253	-200.000	-0.023	-0.198
-263.238	251.740	-0.175	-0.293
-262.224	64.755	-0.235	0.233
-261.209	-37.155	-0.323	-0.170
-260.195	-31.051	0.217	-0.120
-259.180	255.849	0.063	0.106
-258.165	-92.596	0.078	0.021
-257.151	24.314	-0.048	-0.039
-256.136	-133.076	-0.381	-0.047
-255.122	800.000	0.078	0.220
-254.107	-200.000	0.012	-0.151
-253.092	-200.000	0.047	-0.329
-252.078	-200.000	0.001	-0.028
-251.063	-34.749	-0.058	-0.031
-250.049	-40.705	-0.199	-0.101
-249.034	549.348	0.034	-0.080
-248.019	-134.223	0.155	0.019
-247.005	-16.653	0.151	-0.094
-245.990	800.000	0.052	0.215
-244.976	191.043	-0.075	0.110
-243.961	-64.256	-0.268	-0.107
-242.946	-23.725	0.187	0.110
-241.932	-200.000	-0.030	-0.178
-240.917	-200.000	-0.011	0.216
-239.903	88.911	-0.094	0.102
-238.888	-4.760	-0.180	0.122
-237.873	-200.000	-0.029	0.540
-236.859	449.654	-0.058	0.125
-235.844	-78.466	0.022	0.007
-234.830	-193.775	-0.298	0.002
-233.815	-200.000	-0.027	0.194
-232.800	-167.943	0.095	0.004
-231.786	-58.903	0.210	0.089
-230.771	-88.197	-0.209	-0.061
-229.757	150.874	-0.201	0.268
-228.742	264.369	0.267	0.455
-227.727	48.981	0.149	-0.137
-226.713	-162.094	0.243	0.012
-225.698	-126.088	0.331	0.049
-224.684	569.702	-0.061	-0.146
-223.669	42.531	0.170	0.152
-222.655	313.980	0.156	0.288
-221.640	-120.006	0.267	0.045
-220.625	12.503	0.306	-0.231
-219.611	114.395	-0.172	-0.205
-218.596	285.985	-0.141	0.249
-217.582	52.795	-0.273	-0.256
-216.567	563.578	0.106	-0.250
-215.552	439.503	0.084	-0.179
-214.538	-62.514	0.305	-0.124
-213.523	211.846	-0.148	-0.229
-212.509	-71.915	-0.137	-0.050
-211.494	-67.513	0.328	0.126
-210.479	800.000	0.080	-0.276
-209.465	-14.031	0.254	0.161
-208.450	-200.000	0.015	0.309
-207.436	270.131	0.006	0.010
-206.421	-47.375	-0.134	0.064
-205.406	-67.900	-0.328	0.126
-204.392	-69.586	-0.186	-0.070
-203.377	190.001	0.041	0.061
-202.363	186.358	0.076	0.110
-201.348	412.845	0.042	-0.087
-200.333	-113.386	0.226	-0.043
-199.319	-99.152	-0.198	0.049
-198.304	800.000	0.040	0.110
-197.290	-200.000	0.023	-0.140
-196.275	-200.000	0.059	-0.345
-195.260	160.537	-0.032	-0.044
-194.246	62.495	-0.121	0.119
-193.231	208.468	-0.011	0.018
-192.217	800.000	-0.140	-0.420
-191.202	-106.982	0.210	0.046
-190.187	-53.417	0.077	-0.035
-189.173	-189.583	0.210	-0.002
-188.158	35.024	0.192	0.165
-187.144	181.518	0.174	0.250
-186.129	-20.317	-0.137	0.082
-185.114	-38.534	0.257	0.133
-184.100	-103.278	-0.068	0.016
-183.085	45.532	-0.199	-0.180
-182.071	-25.501	0.139	0.080
-181.056	277.398	0.043	-0.076
-180.042	-19.928	0.180	-0.108
-179.027	-98.303	-0.110	0.028
-178.012	-16.079	-0.100	-0.062
-176.998	106.693	-0.129	-0.150
-175.983	109.526	0.290	0.340
-174.969	85.365	-0.106	-0.114
-173.954	125.234	0.140	-0.173
-172.939	800.000	0.019	-0.072
-171.925	52.216	0.210	-0.196
-170.910	12.575	-0.215	0.162
-169.896	468.475	0.072	-0.157
-168.881	731.248	0.034	0.088
-167.866	-40.922	0.016	-0.008
-166.852	226.112	-0.118	-0.187
-165.837	-42.314	-0.256	0.128
-164.823	-200.000	-0.042	-0.227
-163.808	-123.233	-0.291	0.045
-162.793	30.230	-0.045	0.038
-161.779	800.000	0.008	-0.023
-160.764	800.000	0.088	0.370
-159.750	800.000	0.101	0.410
-158.735	42.865	0.028	0.025
-157.720	-129.173	-0.190	0.026
-156.706	86.079	0.222	0.239
-155.691	-200.000	0.011	-0.112
-154.677	-200.000	0.097	-0.454
-153.662	-134.227	0.126	0.015
-152.647	-200.000	0.020	0.093
-151.633	74.070	0.087	0.089
-150.618	-110.621	0.135	-0.027
-149.604	470.568	-0.029	0.064
-148.589	-200.000	0.049	-0.276
-147.574	-179.489	-0.100	-0.002
-146.560	6.025	0.312	0.226
-145.545	-45.070	0.087	0.042
-144.531	5.331	0.314	-0.226
-143.516	142.241	0.251	0.325
-142.502	800.000	0.030	-0.128
-141.487	-23.155	0.245	0.144
-140.472	-75.504	0.183	-0.063
-139.458	264.881	-0.072	-0.123
-138.443	-19.308	0.307	-0.186
-137.429	105.448	-0.299	0.345
-136.414	-143.415	0.272	0.025
-135.399	-200.000	0.010	0.151
-134.385	-200.000	0.013	0.167
-133.370	800.000	-0.087	0.291
-132.356	-81.986	-0.389	0.124
-131.341	36.522	0.032	0.028
-130.326	258.471	0.035	-0.059
-129.312	-200.000	-0.008	0.111
-128.297	353.129	-0.119	-0.231
-127.283	-200.000	0.003	0.033
-126.268	-95.082	-0.395	-0.104
-125.253	-20.211	-0.290	-0.174
-124.239	761.047	-0.094	-0.249
-123.224	27.178	-0.087	0.071
-122.210	800.000	0.068	0.206
-121.195	85.394	0.016	-0.017
