DTS Sentinel unit serial number:	SN413079Multiplexer serial number:	ORYXHardware model number:	OX4-SRSoftware version number:	ORYX F/W v4.00 Oryx Data Collector v3.7.2.0data status	okinstallation	princeton_trtdifferential loss correction	single-endedforward channel	channel 3reverse channel	N/Adate	2019/09/16time	20:28:35forward acquisition time	60.00reverse acquisition time	0.00gamma	496.2192k internal	0.2323k external	0.2323temperature offset calibration	0.9938default loss term (dB/km)	0.3790temperature slope calibration	1.0000multiplexer offset coefficient	1.0000multiplexer slope coefficient	1.0000fibre end	0.00T internal ref (°C)	32.69T ext. ref 1 (°C)	0.09T ext. ref 2 (°C)	26.62length (m)	temperature (°C)	Stokes	anti-Stokes-747.200	110.352	0.114	0.138
-746.185	-45.692	-0.168	-0.084
-745.171	-154.680	0.138	-0.009
-744.156	-140.956	-0.168	-0.017
-743.142	-81.544	-0.073	-0.024
-742.127	55.321	-0.042	-0.041
-741.112	-200.000	-0.066	0.415
-740.098	415.925	0.121	0.262
-739.083	-131.701	-0.408	-0.054
-738.069	387.187	0.153	0.320
-737.054	402.056	0.026	0.055
-736.039	-0.581	-0.201	0.144
-735.025	-55.660	0.276	0.125
-734.010	10.463	-0.260	-0.200
-732.996	190.858	-0.164	-0.249
-731.981	157.547	-0.128	-0.179
-730.966	126.800	-0.061	0.078
-729.952	-200.000	-0.026	-0.291
-728.937	-12.245	0.167	-0.110
-727.923	-50.063	-0.331	-0.158
-726.908	12.322	0.120	0.093
-725.894	183.044	0.044	0.065
-724.879	87.281	-0.073	-0.081
-723.864	-200.000	0.049	-0.235
-722.850	-60.060	-0.392	-0.169
-721.835	-200.000	-0.013	0.125
-720.821	37.576	-0.327	0.293
-719.806	-21.701	-0.161	-0.099
-718.791	-161.768	-0.334	0.017
-717.777	-87.110	0.054	-0.017
-716.762	-87.606	0.116	0.035
-715.748	-154.055	-0.325	-0.022
-714.733	-38.668	-0.034	0.018
-713.718	45.100	0.203	-0.189
-712.704	-72.779	-0.148	0.055
-711.689	14.905	0.252	0.199
-710.675	-9.687	0.336	0.225
-709.660	-166.408	-0.574	0.024
-708.645	-48.671	0.228	0.110
-707.631	-111.306	0.191	0.039
-706.616	624.765	-0.039	-0.099
-705.602	446.062	0.089	0.197
-704.587	-43.763	-0.373	-0.189
-703.572	14.088	-0.220	-0.173
-702.558	-87.515	-0.162	-0.049
-701.543	-106.136	-0.120	-0.027
-700.529	-140.161	0.103	0.011
-699.514	29.844	-0.223	0.192
-698.499	-10.763	-0.094	-0.063
-697.485	88.659	-0.180	-0.202
-696.470	-114.113	-0.166	-0.032
-695.456	248.046	0.150	-0.256
-694.441	283.494	-0.157	-0.285
-693.426	-200.000	0.003	-0.143
-692.412	-117.729	0.040	0.007
-691.397	101.220	-0.059	-0.069
-690.383	341.601	-0.075	-0.148
-689.368	41.324	-0.245	0.223
-688.354	-200.000	-0.020	-0.171
-687.339	230.826	-0.146	0.241
-686.324	43.471	0.147	-0.135
-685.310	90.627	-0.098	0.110
-684.295	800.000	0.037	-0.134
-683.281	-200.000	-0.075	-0.379
-682.266	38.054	-0.151	-0.135
-681.251	658.911	-0.097	0.252
-680.237	-92.687	0.436	-0.123
-679.222	-106.342	0.258	-0.058
-678.208	800.000	0.023	0.090
-677.193	64.515	0.188	-0.191
-676.178	-99.458	-0.279	-0.071
-675.164	-4.675	0.323	0.225
-674.149	-200.000	0.026	-0.268
-673.135	-53.355	0.236	-0.109
-672.120	-200.000	-0.035	0.173
-671.105	643.487	-0.134	-0.345
-670.091	2.425	-0.303	-0.221
-669.076	340.917	-0.157	-0.309
-668.062	149.348	-0.063	0.086
-667.047	-25.150	-0.185	0.111
-666.032	-119.046	0.454	-0.080
-665.018	800.000	0.016	-0.052
-664.003	-167.283	-0.214	0.009
-662.989	132.782	-0.101	0.131
-661.974	-133.467	-0.146	0.018
-660.959	146.615	0.199	0.269
-659.945	-47.453	-0.260	0.127
-658.930	-200.000	0.029	0.157
-657.916	-122.388	0.113	-0.018
-656.901	-37.563	-0.242	-0.130
-655.886	-95.756	0.126	-0.034
-654.872	-94.379	-0.269	-0.074
-653.857	-41.863	-0.194	0.100
-652.843	-48.615	0.129	-0.062
-651.828	64.327	-0.113	0.115
-650.814	-200.000	-0.101	-0.487
-649.799	-200.000	0.006	-0.086
-648.784	175.855	-0.302	-0.441
-647.770	32.597	-0.215	0.187
-646.755	-65.150	-0.344	-0.140
-645.741	52.698	-0.275	0.265
-644.726	6.589	0.152	0.114
-643.711	800.000	-0.079	0.328
-642.697	-200.000	0.036	-0.230
-641.682	800.000	0.024	0.076
-640.668	311.368	-0.090	0.169
-639.653	800.000	0.064	0.222
-638.638	227.243	-0.085	0.139
-637.624	-96.797	0.161	-0.043
-636.609	-89.321	0.228	-0.068
-635.595	447.824	0.087	-0.194
-634.580	-137.760	-0.193	0.022
-633.565	111.987	0.052	0.063
-632.551	24.703	0.237	-0.198
-631.536	800.000	-0.085	-0.248
-630.522	191.866	-0.100	-0.151
-629.507	-200.000	0.011	-0.156
-628.492	181.364	0.167	-0.246
-627.478	-122.146	-0.326	-0.054
-626.463	-194.832	-0.031	0.000
-625.449	-200.000	-0.036	0.257
-624.434	-200.000	-0.003	0.023
-623.419	152.727	-0.126	-0.172
-622.405	173.477	-0.085	-0.123
-621.390	95.044	-0.136	0.155
-620.376	800.000	0.021	0.073
-619.361	-85.760	-0.203	-0.063
-618.346	-186.663	-0.184	0.003
-617.332	800.000	0.069	0.227
-616.317	207.385	0.258	0.405
-615.303	-36.011	-0.192	0.104
-614.288	-70.911	0.119	-0.045
-613.273	433.810	0.133	0.290
-612.259	-172.801	0.129	-0.004
-611.244	-97.323	0.101	-0.026
-610.230	24.503	-0.190	-0.158
-609.215	-170.955	0.262	-0.009
-608.201	-106.133	-0.174	-0.039
-607.186	-17.854	0.312	0.197
-606.171	800.000	0.027	0.095
-605.157	800.000	-0.010	-0.039
-604.142	-200.000	0.030	-0.179
-603.128	-4.217	0.133	-0.092
-602.113	757.379	-0.030	-0.081
-601.098	-121.038	0.238	-0.040
-600.084	-200.000	0.003	0.059
-599.069	98.481	-0.094	-0.109
-598.055	15.476	0.273	-0.215
-597.040	71.092	-0.160	-0.167
-596.025	-200.000	0.012	-0.152
-595.011	-178.037	0.053	0.001
-593.996	-73.050	-0.118	0.044
-592.982	34.880	0.161	-0.142
-591.967	-57.557	-0.175	0.077
-590.952	-200.000	-0.069	-0.419
-589.938	757.375	-0.153	-0.416
-588.923	-200.000	0.013	-0.235
-587.909	88.767	-0.151	0.169
-586.894	-47.976	-0.134	0.065
-585.879	-200.000	-0.017	0.206
-584.865	-139.950	-0.129	-0.014
-583.850	-197.858	-0.254	-0.002
-582.836	-89.799	0.115	-0.034
-581.821	-75.689	-0.034	0.012
-580.806	-200.000	-0.006	-0.084
-579.792	28.553	-0.156	0.133
-578.777	19.565	-0.243	0.196
-577.763	-60.500	-0.159	0.068
-576.748	109.148	-0.078	-0.094
-575.733	-75.418	0.113	-0.040
-574.719	21.692	0.312	-0.255
-573.704	244.713	-0.194	-0.328
-572.690	-102.038	-0.130	-0.031
-571.675	-164.544	-0.178	0.008
-570.661	-175.100	0.024	0.001
-569.646	-56.638	-0.228	0.101
-568.631	375.267	0.044	-0.090
-567.617	-55.705	0.084	-0.038
-566.602	143.335	-0.094	-0.126
-565.588	-2.221	-0.370	-0.261
-564.573	-96.584	0.243	0.064
-563.558	306.753	-0.071	0.132
-562.544	476.526	0.042	-0.096
-561.529	190.137	0.043	0.065
-560.515	-126.947	-0.411	-0.061
-559.500	-34.190	-0.126	0.069
-558.485	-200.000	0.001	-0.096
-557.471	-200.000	0.043	0.207
-556.456	199.192	-0.131	-0.201
-555.442	-177.076	-0.140	0.004
-554.427	-97.377	0.183	-0.048
-553.412	4.314	0.069	-0.050
-552.398	-42.634	-0.056	0.029
-551.383	794.295	-0.194	-0.534
-550.369	800.000	-0.024	0.091
-549.354	-200.000	-0.045	-0.283
-548.339	-200.000	0.036	0.314
-547.325	-200.000	0.010	-0.217
-546.310	-200.000	-0.018	-0.210
-545.296	-72.776	0.211	-0.078
-544.281	692.386	0.037	0.098
-543.266	746.911	-0.044	0.120
-542.252	-81.076	0.088	-0.029
-541.237	280.293	0.110	-0.197
-540.223	717.882	-0.050	0.134
-539.208	-200.000	0.013	0.140
-538.193	-200.000	0.043	0.565
-537.179	421.159	-0.085	0.183
-536.164	-103.804	-0.405	-0.095
-535.150	-142.773	0.175	-0.017
-534.135	268.317	-0.146	0.256
-533.121	-81.799	0.162	-0.053
-532.106	315.651	0.075	-0.141
-531.091	-148.798	0.202	-0.016
-530.077	7.615	-0.132	-0.099
-529.062	182.173	-0.113	-0.166
-528.048	-53.191	-0.181	-0.083
-527.033	663.080	-0.029	0.075
-526.018	800.000	0.082	0.245
-525.004	56.631	-0.094	0.092
-523.989	45.374	0.357	0.329
-522.975	321.520	-0.078	0.149
-521.960	405.155	0.114	0.241
-520.945	-94.968	-0.630	0.171
-519.931	-200.000	0.042	0.190
-518.916	268.670	0.079	0.139
-517.902	-200.000	0.019	-0.105
-516.887	182.000	-0.019	0.028
-515.872	-200.000	0.010	-0.077
-514.858	14.759	-0.071	-0.056
-513.843	-200.000	0.010	0.221
-512.829	-200.000	0.017	-0.198
-511.814	288.489	0.087	-0.157
-510.799	29.837	0.258	0.220
-509.785	2.632	0.057	0.041
-508.770	22.174	0.037	0.030
-507.756	92.850	0.031	0.035
-506.741	-200.000	0.154	-0.001
-505.726	-25.282	-0.062	0.037
-504.712	-200.000	0.031	0.158
-503.697	75.970	-0.013	0.014
-502.683	-151.619	-0.194	0.014
-501.668	-200.000	0.040	0.283
-500.653	-24.068	-0.329	-0.197
-499.639	-3.924	0.071	0.049
-498.624	36.852	-0.081	0.072
-497.610	800.000	0.075	-0.301
-496.595	-142.712	0.546	0.053
-495.581	-14.318	0.307	-0.198
-494.566	-139.972	-0.137	0.014
-493.551	800.000	0.070	0.239
-492.537	-200.000	-0.020	0.217
-491.522	12.561	-0.158	-0.122
-490.508	-92.765	0.385	0.108
-489.493	-91.353	-0.278	0.079
-488.478	595.199	-0.064	0.158
-487.464	86.639	-0.141	0.156
-486.449	-161.859	0.448	-0.023
-485.435	-200.000	-0.030	-0.135
-484.420	800.000	0.062	-0.225
-483.405	-48.049	-0.178	-0.086
-482.391	51.867	0.274	-0.261
-481.376	82.609	-0.146	-0.158
-480.362	-130.081	0.045	0.006
-479.347	-200.000	0.001	-0.238
-478.332	-200.000	-0.011	-0.323
-477.318	347.286	-0.187	-0.367
-476.303	800.000	-0.037	-0.156
-475.289	541.271	-0.053	0.127
-474.274	-72.721	0.017	-0.006
-473.259	111.570	-0.192	-0.232
-472.245	37.017	0.132	0.117
-471.230	-200.000	0.056	-0.272
-470.216	-56.696	-0.060	0.026
-469.201	-104.586	-0.100	-0.023
-468.186	-117.023	-0.382	-0.070
-467.172	-102.580	-0.345	-0.082
-466.157	-109.978	-0.215	0.045
-465.143	200.376	-0.113	-0.173
-464.128	33.960	-0.150	-0.130
-463.113	202.057	-0.053	0.082
-462.099	559.015	0.092	-0.221
-461.084	-200.000	-0.014	0.085
-460.070	330.666	-0.131	0.252
-459.055	146.257	-0.197	0.265
-458.040	-25.103	0.126	-0.074
-457.026	242.348	0.049	0.081
-456.011	-101.857	0.181	-0.044
-454.997	-48.486	0.105	0.051
-453.982	53.609	0.133	0.127
-452.968	-54.662	0.149	-0.067
-451.953	-68.379	0.198	0.077
-450.938	-12.807	0.184	0.120
-449.924	7.240	-0.216	-0.161
-448.909	-120.566	0.177	0.030
-447.895	-200.000	-0.008	-0.191
-446.880	800.000	0.067	-0.195
-445.865	-75.762	-0.074	-0.026
-444.851	800.000	-0.094	-0.332
-443.836	-200.000	0.045	-0.512
-442.822	36.556	-0.076	-0.067
-441.807	22.520	-0.210	-0.171
-440.792	-165.459	-0.570	0.025
-439.778	-200.000	-0.013	0.219
-438.763	-25.160	0.078	0.046
-437.749	205.991	-0.078	-0.121
-436.734	-20.901	0.128	-0.078
-435.719	-34.190	0.408	0.223
-434.705	-155.941	0.050	-0.003
-433.690	10.408	-0.060	0.046
-432.676	-152.006	0.154	-0.011
-431.661	-181.890	0.387	0.007
-430.646	-158.142	-0.192	0.011
-429.632	-137.863	0.042	-0.005
-428.617	-13.994	0.235	-0.151
-427.603	-200.000	-0.013	-0.261
-426.588	7.782	0.288	-0.215
-425.573	-77.185	0.042	-0.015
-424.559	-33.424	-0.136	0.075
-423.544	-200.000	0.084	0.439
-422.530	800.000	-0.045	0.133
-421.515	-44.814	-0.089	-0.044
-420.500	-86.241	0.152	-0.047
-419.486	35.088	0.102	-0.089
-418.471	800.000	-0.089	0.349
-417.457	800.000	-0.110	-0.394
-416.442	87.426	0.070	-0.077
-415.428	155.033	0.126	0.172
-414.413	-200.000	0.024	0.359
-413.398	-107.191	-0.213	0.047
-412.384	13.479	0.195	-0.150
-411.369	240.433	0.077	-0.127
-410.355	800.000	-0.080	-0.256
-409.340	-12.242	0.229	-0.149
-408.325	581.352	0.108	-0.264
-407.311	-122.526	-0.343	0.056
-406.296	22.779	0.243	-0.198
-405.282	158.205	0.243	0.336
-404.267	-200.000	-0.013	0.070
-403.252	-61.534	0.014	-0.006
-402.238	-165.865	-0.213	-0.009
-401.223	-84.912	0.019	-0.006
-400.209	156.327	-0.142	0.195
-399.194	4.657	0.410	0.300
-398.179	-45.922	0.316	-0.155
-397.165	545.318	0.094	-0.223
-396.150	-42.117	-0.167	-0.085
-395.136	-103.693	0.053	-0.012
-394.121	800.000	-0.015	-0.054
-393.106	-8.341	-0.248	-0.166
-392.092	202.960	-0.049	0.076
-391.077	800.000	0.018	0.057
-390.063	102.799	0.126	-0.147
-389.048	-55.776	0.282	0.126
-388.033	-200.000	-0.007	0.051
-387.019	238.694	0.180	0.298
-386.004	-200.000	0.010	-0.064
-384.990	99.431	0.212	-0.244
-383.975	800.000	0.031	-0.109
-382.960	-42.924	0.131	-0.066
-381.946	800.000	0.021	-0.060
-380.931	800.000	0.073	-0.310
-379.917	-165.878	-0.165	0.007
-378.902	-200.000	-0.037	-0.296
-377.888	-200.000	-0.022	-0.239
-376.873	3.451	0.094	-0.068
-375.858	800.000	-0.071	-0.251
-374.844	-113.563	0.217	-0.042
-373.829	-119.117	-0.229	0.040
-372.815	800.000	-0.053	0.180
-371.800	800.000	0.045	0.137
-370.785	-66.979	0.133	0.052
-369.771	82.260	0.086	-0.092
-368.756	-200.000	0.005	0.278
-367.742	-149.797	0.244	-0.019
-366.727	-200.000	0.012	-0.177
-365.712	-95.093	-0.079	-0.021
-364.698	-38.471	-0.287	0.151
-363.683	136.181	-0.046	0.060
-362.669	490.560	-0.118	0.268
-361.654	-92.395	0.137	-0.038
-360.639	407.539	-0.093	-0.196
-359.625	-81.989	-0.180	-0.058
-358.610	-70.786	-0.344	0.129
-357.596	-107.901	-0.063	-0.014
-356.581	120.362	-0.216	0.267
-355.566	-82.912	-0.084	-0.027
-354.552	-144.046	-0.095	0.009
-353.537	551.891	-0.107	0.254
-352.523	-200.000	-0.049	0.354
-351.508	-105.998	0.177	0.040
-350.493	163.558	-0.206	0.287
-349.479	678.119	0.091	-0.235
-348.464	-198.807	0.152	0.001
-347.450	800.000	0.094	0.400
-346.435	800.000	0.094	0.305
-345.420	56.084	-0.097	-0.094
-344.406	71.622	0.028	-0.029
-343.391	45.547	-0.050	-0.046
-342.377	60.147	-0.098	0.096
-341.362	-3.983	0.218	-0.150
-340.348	-12.290	0.214	0.139
-339.333	556.082	-0.134	0.320
-338.318	167.455	0.152	-0.214
-337.304	-200.000	-0.055	-0.260
-336.289	18.017	0.157	-0.125
-335.275	439.267	0.188	0.407
-334.260	-113.499	0.144	-0.028
-333.245	-125.434	0.401	0.061
-332.231	150.480	0.081	0.110
-331.216	-47.529	0.222	0.107
-330.202	-200.000	0.002	0.085
-329.187	-200.000	-0.016	0.146
-328.172	-200.000	0.043	0.215
-327.158	-73.230	0.277	-0.101
-326.143	-157.637	0.303	-0.018
-325.129	-73.833	0.133	-0.048
-324.114	-129.838	0.055	-0.007
-323.099	-101.153	0.186	0.045
-322.085	348.240	0.113	-0.222
-321.070	212.204	-0.076	-0.118
-320.056	-30.979	-0.085	0.047
-319.041	-200.000	0.000	-0.057
-318.026	-134.803	0.313	-0.038
-317.012	-77.919	0.324	-0.111
-315.997	170.709	-0.130	0.185
-314.983	269.810	0.073	0.127
-313.968	508.889	0.031	0.071
-312.953	-65.007	-0.390	0.156
-311.939	111.191	0.398	0.476
-310.924	-52.316	-0.197	-0.091
-309.910	-2.085	0.098	0.068
-308.895	13.222	0.046	-0.036
-307.880	386.588	0.074	-0.152
-306.866	254.020	0.044	0.075
-305.851	-47.492	-0.250	-0.121
-304.837	-80.951	-0.088	0.029
-303.822	-200.000	-0.013	-0.063
-302.807	-49.430	0.057	0.027
-301.793	-97.190	0.062	-0.016
-300.778	-58.544	0.171	-0.074
-299.764	371.126	0.018	0.035
-298.749	169.546	-0.081	-0.115
-297.735	-25.732	0.448	-0.262
-296.720	800.000	0.096	0.308
-295.705	-104.745	-0.220	0.050
-294.691	-135.193	0.411	0.049
-293.676	-132.189	0.107	0.014
-292.662	357.048	-0.021	0.042
-291.647	-11.667	-0.198	-0.129
-290.632	-200.000	-0.018	-0.171
-289.618	189.537	-0.144	0.215
-288.603	138.516	-0.184	-0.240
-287.589	-20.914	-0.286	0.174
-286.574	-200.000	0.014	0.175
-285.559	-97.794	0.099	0.025
-284.545	-1.102	0.207	-0.145
-283.530	-40.894	-0.174	-0.089
-282.516	733.906	0.063	-0.168
-281.501	-86.024	0.420	0.129
-280.486	-200.000	0.034	0.283
-279.472	63.288	0.265	0.264
-278.457	105.498	-0.185	-0.217
-277.443	447.914	0.063	-0.138
-276.428	-51.065	-0.146	-0.068
-275.413	800.000	-0.118	-0.349
-274.399	512.460	-0.127	0.293
-273.384	-70.675	-0.397	0.149
-272.370	-44.940	0.283	0.140
-271.355	-140.905	0.264	0.027
-270.340	800.000	0.144	0.410
-269.326	-61.043	-0.043	0.018
-268.311	-200.000	0.096	-0.483
-267.297	5.541	-0.281	0.206
-266.282	-200.000	0.035	0.495
-265.267	-104.942	-0.077	0.018
-264.253	-200.000	0.047	-0.218
-263.238	347.321	0.193	-0.376
-262.224	-30.016	0.280	0.158
-261.209	99.742	-0.121	-0.139
-260.195	-123.287	-0.215	0.034
-259.180	-107.659	-0.254	0.055
-258.165	-145.471	0.314	-0.028
-257.151	664.979	0.056	0.144
-256.136	310.527	-0.096	0.179
-255.122	466.246	0.116	0.256
-254.107	-23.776	0.161	0.095
-253.092	62.588	-0.110	0.109
-252.078	-147.683	0.222	-0.018
-251.063	-200.000	0.013	0.101
-250.049	-200.000	0.016	0.233
-249.034	-38.784	-0.177	0.092
-248.019	1.361	0.256	0.182
-247.005	-20.720	-0.294	-0.178
-245.990	-22.295	0.267	0.160
-244.976	-163.942	0.432	-0.020
-243.961	186.763	-0.137	0.202
-242.946	-72.304	-0.266	-0.098
-241.932	-99.514	0.221	-0.055
-240.917	383.298	0.125	0.255
-239.903	191.524	0.102	0.152
-238.888	-200.000	-0.406	-0.001
-237.873	800.000	-0.037	-0.110
-236.859	295.396	0.076	0.138
-235.844	-200.000	-0.020	-0.255
-234.830	-157.655	0.257	-0.015
-233.815	-99.565	0.053	-0.013
-232.800	-142.833	0.201	-0.019
-231.786	181.464	-0.077	0.113
-230.771	50.470	-0.135	0.126
-229.757	339.070	-0.087	-0.168
-228.742	42.132	-0.141	0.127
-227.727	800.000	-0.152	0.488
-226.713	32.355	-0.171	0.146
-225.698	371.738	0.122	0.245
-224.684	121.169	-0.172	-0.212
-223.669	-200.000	-0.035	-0.219
-222.655	-165.886	-0.193	-0.008
-221.640	-75.554	0.016	0.006
-220.625	-82.424	-0.141	0.045
-219.611	-200.000	-0.016	0.191
-218.596	-130.521	-0.457	-0.061
-217.582	800.000	-0.028	-0.101
-216.567	-31.948	-0.192	-0.106
-215.552	-106.859	-0.318	0.070
-214.538	-147.749	0.178	-0.015
-213.523	14.927	-0.269	0.208
-212.509	-200.000	0.007	-0.374
-211.494	-37.163	-0.357	0.189
-210.479	-200.000	0.000	-0.232
-209.465	257.754	0.186	-0.316
-208.450	-200.000	-0.010	0.153
-207.436	-73.267	0.076	-0.027
-206.421	-200.000	0.103	0.489
-205.406	65.354	-0.106	0.106
-204.392	-119.230	0.068	0.012
-203.377	-109.838	-0.027	-0.006
-202.363	-90.255	0.446	0.128
-201.348	-113.310	-0.114	-0.022
-200.333	-200.000	-0.009	0.146
-199.319	-200.000	-0.017	0.185
-198.304	51.543	0.170	0.160
-197.290	699.575	-0.148	-0.386
-196.275	800.000	-0.060	0.231
-195.260	-2.704	-0.116	0.080
-194.246	-94.352	0.122	-0.033
-193.231	16.164	-0.111	-0.087
-192.217	-123.350	0.202	-0.032
-191.202	-59.535	-0.152	-0.065
-190.187	-200.000	0.025	-0.109
-189.173	-200.000	-0.032	-0.149
-188.158	740.011	0.020	0.053
-187.144	-55.615	-0.334	-0.148
-186.129	29.286	-0.194	0.163
-185.114	757.328	0.160	-0.427
-184.100	156.023	-0.110	0.149
-183.085	84.564	0.042	-0.045
-182.071	-130.962	-0.171	0.023
-181.056	-163.254	-0.333	-0.016
-180.042	9.962	0.107	-0.080
-179.027	178.884	-0.042	-0.061
-178.012	281.788	0.062	-0.109
-176.998	-200.000	-0.005	0.224
-175.983	-158.057	-0.111	-0.006
-174.969	204.462	0.166	-0.255
-173.954	6.881	0.022	0.016
-172.939	-148.723	-0.075	0.006
-171.925	-200.000	-0.015	0.103
-170.910	-200.000	0.014	-0.263
-169.896	81.233	0.256	-0.274
-168.881	56.689	0.111	-0.107
-167.866	-19.449	0.116	-0.071
-166.852	601.795	-0.180	0.441
-165.837	800.000	0.043	-0.163
-164.823	43.733	0.260	-0.235
-163.808	-130.200	-0.069	0.009
-162.793	546.603	0.053	0.125
-161.779	-102.441	-0.293	-0.069
-160.764	223.217	0.099	-0.157
-159.750	800.000	0.036	0.142
-158.735	-200.000	0.008	0.228
-157.720	-77.303	0.200	-0.069
-156.706	-200.000	0.037	0.195
-155.691	-58.541	-0.176	-0.075
-154.677	-70.549	-0.432	0.161
-153.662	-91.392	0.077	0.022
-152.647	800.000	0.108	-0.420
-151.633	-107.850	-0.118	-0.025
-150.618	43.093	0.150	-0.135
-149.604	-70.223	-0.205	-0.077
-148.589	-200.000	0.029	0.297
-147.574	-200.000	-0.000	0.049
-146.560	119.528	0.043	0.053
-145.545	403.429	-0.171	0.356
-144.531	440.235	-0.090	0.194
-143.516	124.499	0.171	-0.213
-142.502	-200.000	0.005	-0.141
-141.487	-4.762	-0.109	-0.074
-140.472	9.148	-0.053	0.039
-139.458	330.181	0.134	-0.255
-138.443	-176.319	0.326	-0.008
-137.429	82.346	-0.048	0.051
-136.414	-112.711	-0.233	-0.046
-135.399	140.627	-0.051	-0.066
-134.385	-200.000	0.033	-0.283
-133.370	-125.887	0.130	-0.019
-132.356	-200.000	-0.005	0.319
-131.341	-27.857	-0.169	-0.097
-130.326	800.000	-0.016	0.053
-129.312	154.285	0.106	-0.143
-128.297	250.661	-0.047	0.078
-127.283	690.231	-0.141	-0.363
-126.268	-200.000	-0.013	0.177
-125.253	41.263	0.156	-0.139
-124.239	134.578	-0.043	-0.054
-123.224	-118.503	0.227	-0.040
-122.210	800.000	0.005	0.015
