DTS Sentinel unit serial number:	SN413079Multiplexer serial number:	ORYXHardware model number:	OX4-SRSoftware version number:	ORYX F/W v4.00 Oryx Data Collector v3.7.2.0data status	okinstallation	princeton_trtdifferential loss correction	single-endedforward channel	channel 3reverse channel	N/Adate	2019/09/12time	07:58:10forward acquisition time	60.00reverse acquisition time	0.00gamma	496.2192k internal	0.2314k external	0.2314temperature offset calibration	1.0035default loss term (dB/km)	0.3790temperature slope calibration	1.0000multiplexer offset coefficient	1.0000multiplexer slope coefficient	1.0000fibre end	0.00T internal ref (°C)	33.02T ext. ref 1 (°C)	1.64T ext. ref 2 (°C)	29.38length (m)	temperature (°C)	Stokes	anti-Stokes-747.200	-138.425	0.132	0.015
-746.185	55.770	-0.152	0.149
-745.171	-5.371	0.119	0.083
-744.156	800.000	-0.070	0.197
-743.142	122.257	0.250	-0.317
-742.127	118.287	-0.044	-0.055
-741.112	-142.674	-0.101	0.010
-740.098	-6.126	-0.248	0.172
-739.083	-127.672	-0.230	0.034
-738.069	-200.000	-0.020	0.189
-737.054	30.663	0.255	0.221
-736.039	-98.096	0.181	0.047
-735.025	-6.614	0.139	-0.096
-734.010	-29.829	-0.236	-0.136
-732.996	-200.000	0.003	-0.203
-731.981	-200.000	-0.078	-0.366
-730.966	-6.645	0.166	-0.115
-729.952	125.166	-0.140	-0.179
-728.937	-169.017	-0.413	-0.016
-727.923	-200.000	0.010	-0.221
-726.908	598.643	-0.088	-0.220
-725.894	56.489	-0.192	-0.189
-724.879	97.724	0.256	-0.299
-723.864	321.568	0.109	-0.209
-722.850	252.509	-0.118	-0.203
-721.835	383.883	0.044	-0.092
-720.821	166.131	-0.082	-0.117
-719.806	-200.000	-0.059	-0.283
-718.791	-116.413	-0.075	0.014
-717.777	-136.230	0.210	0.025
-716.762	-35.607	0.410	0.225
-715.748	-106.902	-0.368	0.082
-714.733	-146.185	-0.227	-0.020
-713.718	-163.455	-0.187	-0.009
-712.704	491.399	-0.040	0.093
-711.689	-89.487	-0.114	-0.034
-710.675	-200.000	0.073	0.376
-709.660	-110.793	0.224	0.047
-708.645	-12.927	0.096	-0.063
-707.631	220.732	-0.089	0.145
-706.616	-72.690	-0.309	0.115
-705.602	23.670	0.330	0.275
-704.587	-200.000	-0.018	0.155
-703.572	-41.290	0.285	0.148
-702.558	-165.133	0.243	-0.011
-701.543	-10.539	0.261	-0.175
-700.529	-200.000	-0.066	0.302
-699.514	-107.231	-0.172	0.038
-698.499	65.887	0.158	-0.162
-697.485	-200.000	0.024	-0.193
-696.470	-152.512	-0.218	-0.016
-695.456	-128.648	0.271	-0.039
-694.441	91.943	-0.178	-0.203
-693.426	-49.666	-0.117	0.056
-692.412	238.314	0.168	-0.283
-691.397	-124.815	-0.070	-0.011
-690.383	-126.521	-0.420	-0.063
-689.368	57.984	-0.222	-0.220
-688.354	-109.658	-0.283	-0.060
-687.339	-200.000	-0.012	0.248
-686.324	106.100	0.235	-0.282
-685.310	200.332	0.179	0.278
-684.295	11.421	-0.165	-0.128
-683.281	70.728	-0.050	-0.052
-682.266	800.000	-0.099	-0.290
-681.251	-16.683	-0.091	0.058
-680.237	86.262	0.108	0.120
-679.222	800.000	-0.075	0.247
-678.208	120.928	0.182	0.229
-677.193	13.866	-0.123	0.096
-676.178	262.801	0.142	0.248
-675.164	36.734	0.332	0.296
-674.149	-152.259	-0.379	0.028
-673.135	432.817	-0.038	-0.084
-672.120	-119.883	0.020	-0.003
-671.105	24.445	0.270	-0.226
-670.091	-36.285	-0.132	-0.072
-669.076	-40.998	-0.280	-0.146
-668.062	-47.183	-0.139	-0.068
-667.047	287.129	0.197	-0.360
-666.032	-118.622	-0.401	0.072
-665.018	-151.681	0.264	-0.020
-664.003	800.000	0.076	0.253
-662.989	-44.058	0.160	-0.081
-661.974	800.000	0.025	0.071
-660.959	537.572	0.113	0.271
-659.945	-18.525	0.334	-0.210
-658.930	-200.000	0.018	0.229
-657.916	24.008	0.207	0.172
-656.901	107.704	-0.105	0.127
-655.886	-34.136	-0.080	0.045
-654.872	-10.101	-0.125	-0.084
-653.857	296.576	0.046	0.085
-652.843	130.919	0.111	-0.144
-651.828	800.000	-0.031	-0.091
-650.814	81.521	-0.160	-0.175
-649.799	181.737	-0.041	-0.062
-648.784	241.612	0.051	-0.086
-647.770	52.442	0.140	0.135
-646.755	-29.937	0.154	-0.089
-645.741	-130.426	-0.164	0.022
-644.726	36.820	0.226	-0.201
-643.711	-122.105	0.191	0.032
-642.697	-200.000	-0.013	0.275
-641.682	142.826	0.030	0.041
-640.668	-27.283	0.192	0.113
-639.653	800.000	0.025	0.087
-638.638	800.000	0.027	-0.093
-637.624	142.030	0.106	-0.142
-636.609	-85.608	0.224	0.070
-635.595	-140.734	0.036	-0.004
-634.580	-200.000	-0.042	-0.220
-633.565	-52.430	0.132	-0.062
-632.551	800.000	-0.070	-0.214
-631.536	-46.879	-0.405	-0.200
-630.522	-141.806	0.280	-0.028
-629.507	91.084	0.054	0.061
-628.492	-139.097	-0.027	-0.003
-627.478	-200.000	0.025	-0.210
-626.463	124.805	-0.070	0.089
-625.449	800.000	0.126	-0.392
-624.434	404.979	0.088	-0.188
-623.419	-121.803	-0.285	-0.048
-622.405	-140.408	-0.090	-0.009
-621.390	-200.000	0.014	-0.218
-620.376	800.000	-0.079	-0.280
-619.361	800.000	-0.052	0.201
-618.346	129.090	0.052	0.067
-617.332	34.658	-0.105	0.093
-616.317	218.797	0.021	0.034
-615.303	95.971	-0.270	-0.311
-614.288	230.581	-0.053	-0.087
-613.273	-200.000	-0.036	0.196
-612.259	800.000	-0.064	-0.220
-611.244	616.664	0.050	0.126
-610.230	-104.953	-0.061	0.014
-609.215	8.946	0.189	-0.144
-608.201	39.305	-0.167	0.151
-607.186	-107.472	-0.202	-0.045
-606.171	420.242	0.032	0.068
-605.157	144.666	-0.157	0.211
-604.142	-111.773	-0.308	0.063
-603.128	-56.121	0.200	0.090
-602.113	800.000	-0.026	-0.101
-601.098	765.637	-0.072	-0.196
-600.084	1.453	-0.191	0.139
-599.069	7.014	-0.184	-0.139
-598.055	800.000	-0.059	0.219
-597.040	184.555	0.231	0.345
-596.025	-124.684	-0.123	-0.019
-595.011	-62.948	0.305	0.127
-593.996	-132.329	-0.110	-0.014
-592.982	-200.000	0.008	-0.222
-591.967	-163.861	-0.254	-0.012
-590.952	-200.000	0.035	-0.215
-589.938	800.000	-0.098	-0.323
-588.923	-67.781	0.046	-0.018
-587.909	-54.625	-0.256	-0.117
-586.894	-200.000	-0.022	-0.118
-585.879	49.509	0.254	-0.241
-584.865	-104.214	0.165	0.039
-583.850	-155.052	-0.215	-0.014
-582.836	-186.918	-0.049	0.001
-581.821	-200.000	0.007	0.385
-580.806	-200.000	-0.012	0.128
-579.792	-153.178	0.237	-0.017
-578.777	-52.378	-0.253	0.118
-577.763	-23.037	-0.169	0.103
-576.748	230.840	0.160	-0.263
-575.733	-41.847	-0.106	-0.055
-574.719	-7.573	-0.213	-0.145
-573.704	-200.000	-0.006	0.090
-572.690	-78.254	-0.090	-0.031
-571.675	-76.471	0.346	-0.122
-570.661	-55.710	-0.259	0.117
-569.646	37.030	0.100	0.089
-568.631	32.406	0.045	-0.039
-567.617	-135.321	-0.173	-0.021
-566.602	4.767	0.144	0.107
-565.588	128.516	0.019	0.024
-564.573	-13.155	-0.111	0.072
-563.558	124.927	-0.062	0.079
-562.544	419.145	-0.102	0.220
-561.529	-85.768	-0.048	-0.015
-560.515	-46.878	0.088	0.044
-559.500	-200.000	0.003	0.077
-558.485	105.985	-0.070	-0.083
-557.471	-107.129	0.144	0.032
-556.456	-107.285	-0.198	-0.044
-555.442	2.158	-0.060	0.043
-554.427	-54.728	-0.212	0.096
-553.412	159.971	-0.080	0.112
-552.398	-126.727	-0.282	0.042
-551.383	-200.000	-0.028	0.267
-550.369	8.807	0.076	0.058
-549.354	139.478	-0.202	-0.267
-548.339	-116.273	-0.349	0.065
-547.325	800.000	0.030	-0.113
-546.310	-200.000	-0.022	-0.272
-545.296	70.111	-0.246	-0.255
-544.281	-200.000	0.005	-0.088
-543.266	-26.841	0.329	0.193
-542.252	-98.119	0.299	0.077
-541.237	800.000	0.152	-0.421
-540.223	-29.689	-0.219	-0.126
-539.208	-200.000	0.062	-0.282
-538.193	-125.567	-0.457	-0.070
-537.179	-52.865	-0.069	-0.032
-536.164	164.524	0.174	0.247
-535.150	73.616	-0.136	-0.143
-534.135	-16.699	-0.290	0.185
-533.121	775.221	-0.068	0.186
-532.106	-200.000	-0.015	0.167
-531.091	7.427	0.147	0.111
-530.077	-200.000	0.035	-0.308
-529.062	80.714	-0.195	0.212
-528.048	200.499	-0.140	0.216
-527.033	11.523	0.198	0.153
-526.018	15.212	-0.163	0.128
-525.004	-200.000	0.004	0.033
-523.989	428.861	-0.065	0.142
-522.975	86.139	-0.226	-0.250
-521.960	800.000	0.051	-0.148
-520.945	-64.256	-0.088	-0.036
-519.931	-63.006	-0.213	0.088
-518.916	70.736	0.126	0.131
-517.902	-29.912	-0.070	0.040
-516.887	-59.028	0.136	0.059
-515.872	-200.000	-0.020	-0.120
-514.858	-4.237	-0.225	-0.157
-513.843	30.349	-0.027	-0.023
-512.829	202.396	-0.208	0.322
-511.814	299.371	-0.077	0.143
-510.799	-57.538	-0.316	-0.139
-509.785	-200.000	-0.030	-0.440
-508.770	-144.143	-0.097	-0.009
-507.756	76.266	-0.119	0.127
-506.741	8.643	0.073	0.055
-505.726	-83.887	0.243	-0.078
-504.712	-200.000	0.083	-0.708
-503.697	800.000	0.077	-0.306
-502.683	-28.810	0.268	-0.154
-501.668	-200.000	-0.001	-0.308
-500.653	-147.745	0.445	0.037
-499.639	-184.488	0.496	0.008
-498.624	800.000	-0.122	0.376
-497.610	-200.000	-0.021	-0.218
-496.595	800.000	0.124	0.363
-495.581	-180.672	-0.112	0.002
-494.566	-89.164	0.080	0.024
-493.551	-200.000	-0.019	-0.507
-492.537	-200.000	-0.007	-0.198
-491.522	420.310	-0.174	-0.374
-490.508	-200.000	-0.016	0.119
-489.493	2.958	-0.131	0.095
-488.478	223.611	-0.154	-0.250
-487.464	-2.643	0.117	0.082
-486.449	208.790	0.177	0.278
-485.435	-155.631	0.224	0.014
-484.420	-200.000	-0.021	0.190
-483.405	132.476	0.100	-0.130
-482.391	115.167	0.033	-0.041
-481.376	32.549	0.124	0.108
-480.362	-45.872	0.233	-0.115
-479.347	-34.400	-0.205	0.113
-478.332	469.068	0.069	0.156
-477.318	138.518	0.118	-0.156
-476.303	-49.862	0.237	0.113
-475.289	-200.000	-0.111	0.501
-474.274	-18.029	0.296	0.186
-473.259	800.000	0.051	0.149
-472.245	-200.000	-0.035	0.193
-471.230	-200.000	0.020	0.126
-470.216	-200.000	0.033	-0.165
-469.201	-20.937	0.268	-0.165
-468.186	-97.066	-0.364	-0.095
-467.172	-200.000	-0.002	0.176
-466.157	-200.000	-0.009	0.056
-465.143	407.045	-0.045	-0.094
-464.128	-200.000	0.297	-0.001
-463.113	-8.701	0.249	-0.167
-462.099	-200.000	0.017	-0.126
-461.084	47.649	-0.007	-0.006
-460.070	-59.743	-0.140	0.060
-459.055	-200.000	0.002	0.067
-458.040	-195.304	-0.421	0.003
-457.026	134.857	0.238	-0.310
-456.011	-196.196	0.272	-0.002
-454.997	49.066	-0.175	-0.165
-453.982	168.491	-0.081	0.115
-452.968	-200.000	-0.011	0.262
-451.953	-90.096	-0.049	-0.014
-450.938	-200.000	-0.014	0.219
-449.924	364.130	0.114	0.230
-448.909	-16.616	-0.174	-0.110
-447.895	53.597	-0.167	-0.161
-446.880	-46.813	0.203	-0.100
-445.865	158.666	-0.127	-0.177
-444.851	345.948	0.037	0.073
-443.836	800.000	0.094	0.301
-442.822	-102.379	0.294	-0.071
-441.807	-17.515	-0.397	-0.250
-440.792	468.722	0.096	0.215
-439.778	-64.491	0.072	0.029
-438.763	-119.356	-0.392	0.068
-437.749	-36.523	-0.346	0.187
-436.734	67.537	-0.045	-0.046
-435.719	-103.678	0.618	-0.145
-434.705	47.974	-0.240	0.225
-433.690	207.732	-0.043	0.067
-432.676	-200.000	-0.015	0.234
-431.661	-200.000	0.054	0.360
-430.646	729.758	-0.045	-0.121
-429.632	-183.494	0.203	-0.004
-428.617	77.622	0.163	0.174
-427.603	-71.265	0.200	-0.075
-426.588	-200.000	-0.000	-0.182
-425.573	147.361	-0.227	-0.306
-424.559	-29.956	-0.340	-0.194
-423.544	209.008	-0.159	-0.249
-422.530	-200.000	0.024	-0.146
-421.515	-39.238	-0.163	-0.086
-420.500	800.000	0.047	0.170
-419.486	72.409	-0.187	-0.196
-418.471	-63.746	0.236	0.097
-417.457	212.248	0.128	0.202
-416.442	-128.463	0.187	-0.027
-415.428	-82.429	0.141	0.046
-414.413	-200.000	-0.022	-0.319
-413.398	-110.923	-0.171	-0.035
-412.384	-170.376	-0.276	-0.010
-411.369	74.084	-0.114	-0.120
-410.355	69.521	0.180	0.186
-409.340	-138.019	0.267	-0.030
-408.325	-53.151	0.142	0.065
-407.311	38.055	-0.265	0.236
-406.296	-50.890	-0.085	0.040
-405.282	-200.000	0.015	-0.115
-404.267	143.891	-0.136	0.182
-403.252	-120.689	-0.174	-0.029
-402.238	24.180	0.090	-0.074
-401.223	146.499	-0.175	0.236
-400.209	-167.290	0.237	-0.010
-399.194	-200.000	0.018	0.251
-398.179	71.875	-0.134	0.139
-397.165	-92.525	0.270	-0.076
-396.150	283.311	-0.212	-0.381
-395.136	800.000	-0.073	-0.242
-394.121	-32.852	0.216	-0.120
-393.106	-185.741	0.052	0.001
-392.092	-72.754	-0.383	-0.141
-391.077	-200.000	-0.046	0.264
-390.063	502.903	-0.076	-0.176
-389.048	-159.392	0.222	-0.012
-388.033	-200.000	0.003	0.187
-387.019	-40.603	0.161	0.084
-386.004	-200.000	-0.011	0.139
-384.990	290.357	0.167	0.302
-383.975	-77.303	0.203	-0.071
-382.960	-200.000	0.009	-0.083
-381.946	-181.242	0.162	0.003
-380.931	-48.635	0.285	-0.137
-379.917	366.189	-0.074	-0.149
-378.902	-126.722	0.155	-0.023
-377.888	34.907	0.115	0.100
-376.873	-110.708	0.263	-0.054
-375.858	-200.000	-0.001	0.072
-374.844	-67.139	-0.291	-0.114
-373.829	19.905	0.054	0.044
-372.815	20.082	0.056	-0.045
-371.800	-17.288	0.100	-0.063
-370.785	38.597	0.226	0.201
-369.771	-187.206	-0.551	0.008
-368.756	241.002	-0.207	-0.345
-367.742	-200.000	-0.156	0.000
-366.727	-200.000	-0.049	0.301
-365.712	800.000	-0.132	0.396
-364.698	-35.920	-0.282	-0.152
-363.683	-200.000	0.005	-0.162
-362.669	296.023	-0.114	0.209
-361.654	-63.200	0.272	-0.112
-360.639	231.861	0.155	0.254
-359.625	106.785	0.090	-0.107
-358.610	32.022	0.105	-0.090
-357.596	360.946	-0.139	-0.278
-356.581	800.000	0.110	0.365
-355.566	-200.000	-0.016	-0.526
-354.552	-10.367	0.117	-0.077
-353.537	-129.908	0.255	0.035
-352.523	260.380	-0.053	-0.092
-351.508	181.846	-0.138	0.203
-350.493	-119.997	-0.306	-0.052
-349.479	-200.000	0.038	0.308
-348.464	-63.223	-0.084	0.035
-347.450	800.000	0.024	0.080
-346.435	583.560	-0.102	0.251
-345.420	-200.000	-0.005	0.056
-344.406	275.855	0.095	0.169
-343.391	29.702	0.089	-0.076
-342.377	48.451	-0.125	-0.117
-341.362	142.959	0.128	0.170
-340.348	-112.863	0.281	0.056
-339.333	-92.507	0.234	0.066
-338.318	-104.254	0.157	-0.036
-337.304	-75.131	-0.092	-0.033
-336.289	421.971	0.183	-0.393
-335.275	800.000	0.111	0.421
-334.260	49.099	-0.230	-0.215
-333.245	-159.204	0.210	0.012
-332.231	-200.000	0.001	0.172
-331.216	8.534	0.132	-0.099
-330.202	-200.000	-0.177	0.000
-329.187	-200.000	-0.009	0.100
-328.172	-40.812	-0.220	0.113
-327.158	-200.000	-0.018	-0.128
-326.143	-200.000	0.072	-0.326
-325.129	387.754	-0.047	0.097
-324.114	-113.669	-0.114	0.022
-323.099	98.501	-0.210	0.242
-322.085	-75.594	-0.234	0.083
-321.070	333.264	0.207	-0.398
-320.056	496.892	-0.053	0.122
-319.041	274.596	0.114	-0.201
-318.026	135.133	-0.191	0.247
-317.012	-200.000	-0.026	0.147
-315.997	-126.179	-0.194	0.029
-314.983	-100.370	-0.396	0.098
-313.968	252.081	0.178	0.302
-312.953	-200.000	0.025	0.358
-311.939	-34.238	-0.140	0.077
-310.924	800.000	-0.011	0.038
-309.910	-57.477	0.248	0.108
-308.895	92.825	-0.274	-0.309
-307.880	-37.993	0.183	-0.097
-306.866	751.166	0.051	-0.138
-305.851	131.920	0.081	-0.104
-304.837	187.990	-0.053	0.078
-303.822	800.000	0.076	0.248
-302.807	4.148	-0.106	0.077
-301.793	49.775	0.124	0.116
-300.778	-5.217	0.188	-0.129
-299.764	-200.000	0.015	0.189
-298.749	-139.537	-0.293	0.031
-297.735	-58.601	0.073	-0.031
-296.720	-65.226	0.301	-0.121
-295.705	-119.224	0.242	-0.042
-294.691	-121.657	-0.173	0.029
-293.676	179.098	-0.069	0.101
-292.662	-114.185	-0.276	0.053
-291.647	-28.069	-0.075	0.043
-290.632	-200.000	-0.032	-0.343
-289.618	-171.899	0.586	0.019
-288.603	127.934	0.198	0.251
-287.589	183.403	0.122	0.180
-286.574	279.295	-0.049	-0.087
-285.559	118.287	-0.125	0.154
-284.545	-200.000	-0.013	-0.219
-283.530	-156.353	0.210	0.013
-282.516	-200.000	-0.025	0.179
-281.501	-113.849	0.299	-0.058
-280.486	56.384	0.129	0.125
-279.472	96.493	-0.082	-0.093
-278.457	800.000	-0.066	0.253
-277.443	79.723	-0.061	0.065
-276.428	-120.014	0.247	-0.042
-275.413	-145.180	0.126	-0.011
-274.399	-16.515	0.236	0.149
-273.384	800.000	-0.107	-0.361
-272.370	193.812	0.198	0.299
-271.355	266.654	-0.101	-0.175
-270.340	-41.618	-0.148	0.076
-269.326	8.793	-0.233	-0.175
-268.311	566.844	-0.125	0.302
-267.297	-200.000	0.014	0.253
-266.282	42.918	-0.346	-0.314
-265.267	-14.722	0.160	0.102
-264.253	56.608	0.060	0.059
-263.238	-150.325	0.203	0.016
-262.224	505.040	-0.193	-0.445
-261.209	-61.599	-0.216	-0.090
-260.195	-110.701	0.402	0.083
-259.180	127.789	0.090	-0.113
-258.165	800.000	0.021	-0.064
-257.151	192.590	-0.155	0.233
-256.136	-200.000	0.023	0.260
-255.122	-40.250	0.128	-0.066
-254.107	-153.073	-0.294	0.021
-253.092	-200.000	-0.006	-0.050
-252.078	-200.000	-0.005	0.361
-251.063	-200.000	0.014	0.337
-250.049	127.327	0.183	-0.231
-249.034	187.109	-0.081	-0.120
-248.019	-73.887	0.231	-0.083
-247.005	-58.822	0.230	0.099
-245.990	106.107	0.191	0.224
-244.976	91.168	0.114	0.127
-243.961	409.096	0.023	-0.048
-242.946	-79.359	0.288	0.097
-241.932	-9.190	-0.076	0.051
-240.917	170.992	0.048	0.069
-239.903	124.346	-0.138	-0.172
-238.888	800.000	0.057	-0.216
-237.873	-200.000	-0.009	0.352
-236.859	-13.219	-0.105	0.068
-235.844	-76.925	0.289	-0.100
-234.830	8.150	-0.230	-0.172
-233.815	-200.000	-0.019	0.405
-232.800	173.464	-0.083	-0.119
-231.786	266.950	0.127	-0.221
-230.771	240.164	-0.207	0.342
-229.757	-200.000	-0.006	-0.040
-228.742	-5.755	0.121	-0.082
-227.727	-43.180	0.200	0.101
-226.713	800.000	-0.062	-0.219
-225.698	-67.093	0.225	0.088
-224.684	-200.000	0.005	0.067
-223.669	-200.000	0.032	0.184
-222.655	109.169	-0.116	0.138
-221.640	587.378	0.060	0.148
-220.625	12.627	-0.243	0.186
-219.611	800.000	-0.076	-0.240
-218.596	460.637	0.016	-0.035
-217.582	103.765	-0.061	-0.072
-216.567	-111.022	0.055	0.011
-215.552	20.118	-0.198	-0.158
-214.538	-67.255	0.254	0.099
-213.523	-107.669	0.415	-0.090
-212.509	259.834	-0.118	-0.202
-211.494	-156.683	-0.202	0.012
-210.479	-61.819	0.221	0.092
-209.465	-83.590	0.251	0.080
-208.450	-153.257	0.110	0.008
-207.436	-200.000	0.002	0.534
-206.421	800.000	0.024	0.074
-205.406	-200.000	-0.007	0.061
-204.392	-66.876	-0.283	-0.111
-203.377	-200.000	-0.024	0.114
-202.363	134.643	0.087	-0.113
-201.348	-46.439	-0.097	-0.047
-200.333	-200.000	0.024	0.141
-199.319	74.128	0.238	0.248
-198.304	567.677	0.118	-0.284
-197.290	137.587	-0.159	-0.207
-196.275	-164.685	-0.194	-0.009
-195.260	-1.233	-0.118	0.083
-194.246	-39.296	-0.123	-0.064
-193.231	800.000	-0.071	-0.198
-192.217	-66.975	-0.245	0.096
-191.202	750.001	0.152	-0.408
-190.187	800.000	-0.101	-0.389
-189.173	-65.107	-0.031	-0.012
-188.158	7.348	0.208	0.154
-187.144	502.246	-0.047	0.107
-186.129	-200.000	-0.023	0.191
-185.114	20.019	-0.129	0.103
-184.100	23.657	-0.229	-0.187
-183.085	65.616	0.402	0.404
-182.071	-200.000	-0.005	-0.054
-181.056	12.248	-0.212	-0.162
-180.042	67.496	-0.111	0.112
-179.027	-110.712	0.077	-0.016
-178.012	-39.695	0.121	0.063
-176.998	-200.000	0.044	0.363
-175.983	-65.583	-0.309	0.123
-174.969	139.916	-0.196	-0.256
-173.954	-200.000	0.040	-0.200
-172.939	-200.000	0.151	-0.001
-171.925	-200.000	0.004	-0.164
-170.910	187.932	0.091	0.134
-169.896	-200.000	0.078	-0.412
-168.881	316.446	-0.042	-0.079
-167.866	213.871	0.131	0.206
-166.852	800.000	0.066	0.222
-165.837	260.378	0.049	0.084
-164.823	-16.811	-0.058	-0.036
-163.808	-80.900	-0.273	-0.090
-162.793	486.446	0.013	-0.029
-161.779	800.000	-0.047	0.179
-160.764	-200.000	0.006	-0.224
-159.750	-34.824	0.256	-0.138
-158.735	-76.103	0.132	0.046
-157.720	197.717	0.178	-0.270
-156.706	-200.000	0.015	-0.241
-155.691	105.328	-0.330	-0.387
-154.677	800.000	0.071	-0.275
-153.662	800.000	-0.110	-0.316
-152.647	-89.549	0.224	0.065
-151.633	-200.000	0.008	0.108
-150.618	58.511	0.170	0.166
-149.604	-42.261	0.303	0.154
-148.589	800.000	-0.023	0.080
-147.574	7.351	0.258	-0.191
-146.560	276.802	0.124	-0.219
-145.545	201.478	0.091	-0.139
-144.531	-65.884	-0.564	-0.223
-143.516	-21.624	0.149	0.090
-142.502	-96.767	0.189	0.049
-141.487	800.000	-0.115	0.332
-140.472	-150.074	-0.199	-0.015
-139.458	-200.000	-0.018	0.128
-138.443	72.915	0.256	0.265
-137.429	123.081	-0.297	-0.368
-136.414	-80.423	0.133	0.044
-135.399	121.283	-0.141	-0.174
-134.385	509.537	0.072	-0.165
-133.370	50.118	0.160	0.150
-132.356	25.418	0.257	0.212
-131.341	-155.304	-0.428	-0.028
-130.326	-181.033	0.154	0.003
-129.312	32.035	0.140	0.120
-128.297	-115.875	-0.271	-0.050
-127.283	-200.000	0.015	0.281
-126.268	623.218	-0.121	0.301
-125.253	-146.849	0.376	0.032
-124.239	86.268	-0.191	-0.208
-123.224	347.628	0.035	0.068
-122.210	800.000	0.029	-0.107
