DTS Sentinel unit serial number:	SN413079Multiplexer serial number:	ORYXHardware model number:	OX4-SRSoftware version number:	ORYX F/W v4.00 Oryx Data Collector v3.7.2.0data status	okinstallation	princeton_trtdifferential loss correction	single-endedforward channel	channel 3reverse channel	N/Adate	2019/09/13time	23:40:34forward acquisition time	60.00reverse acquisition time	0.00gamma	496.2192k internal	0.2340k external	0.2340temperature offset calibration	1.0060default loss term (dB/km)	0.3790temperature slope calibration	1.0000multiplexer offset coefficient	1.0000multiplexer slope coefficient	1.0000fibre end	0.00T internal ref (°C)	26.69T ext. ref 1 (°C)	3.18T ext. ref 2 (°C)	21.00length (m)	temperature (°C)	Stokes	anti-Stokes-747.200	290.772	0.164	0.300
-746.185	244.035	-0.038	0.063
-745.171	800.000	0.061	0.258
-744.156	215.196	0.125	-0.198
-743.142	172.357	0.019	-0.027
-742.127	174.638	-0.414	0.601
-741.112	-200.000	0.004	-0.367
-740.098	184.208	0.175	0.260
-739.083	-50.219	-0.068	0.032
-738.069	-181.941	-0.101	0.002
-737.054	-183.565	-0.588	-0.010
-736.039	-200.000	0.044	-0.423
-735.025	17.105	-0.219	-0.174
-734.010	559.975	0.126	-0.305
-732.996	168.265	0.113	-0.161
-731.981	800.000	0.048	0.182
-730.966	-200.000	0.000	0.073
-729.952	-108.024	0.186	-0.040
-728.937	-94.234	-0.249	0.068
-727.923	-68.640	-0.069	-0.027
-726.908	559.558	0.031	0.074
-725.894	-200.000	0.047	-0.254
-724.879	47.074	-0.224	0.208
-723.864	800.000	-0.033	0.095
-722.850	-200.000	-0.010	0.101
-721.835	-41.485	-0.189	0.097
-720.821	-12.339	-0.125	0.082
-719.806	-139.549	-0.205	-0.022
-718.791	-200.000	-0.058	0.302
-717.777	90.891	-0.220	0.247
-716.762	-94.955	-0.173	-0.047
-715.748	-200.000	0.030	0.142
-714.733	-173.888	-0.339	0.010
-713.718	-194.747	-0.094	0.001
-712.704	-75.588	-0.085	0.030
-711.689	87.167	0.188	-0.208
-710.675	-101.393	-0.164	-0.040
-709.660	-30.106	-0.328	-0.187
-708.645	23.227	-0.243	-0.200
-707.631	800.000	0.089	0.263
-706.616	-54.626	-0.193	0.087
-705.602	-3.601	-0.161	0.112
-704.587	800.000	-0.057	0.216
-703.572	-96.375	-0.263	-0.070
-702.558	800.000	0.061	0.210
-701.543	198.577	0.084	0.128
-700.529	-139.146	0.501	-0.054
-699.514	161.029	0.087	-0.122
-698.499	-70.704	0.277	-0.105
-697.485	-55.827	-0.107	0.048
-696.470	800.000	0.006	-0.022
-695.456	45.113	-0.099	0.091
-694.441	135.900	-0.132	0.172
-693.426	-85.009	-0.143	0.045
-692.412	199.906	0.136	0.209
-691.397	398.438	0.169	-0.354
-690.383	-200.000	0.020	-0.102
-689.368	-120.920	-0.199	-0.034
-688.354	46.726	-0.280	-0.260
-687.339	-65.161	-0.211	-0.085
-686.324	-82.847	0.249	0.080
-685.310	445.057	-0.225	0.493
-684.295	-200.000	-0.032	-0.186
-683.281	-150.750	-0.068	-0.005
-682.266	71.982	0.092	-0.096
-681.251	-56.997	-0.156	0.069
-680.237	-200.000	-0.010	-0.390
-679.222	118.961	-0.238	0.294
-678.208	-69.629	-0.123	-0.047
-677.193	35.828	-0.271	0.239
-676.178	-95.308	0.279	0.075
-675.164	41.888	0.308	-0.279
-674.149	-11.846	0.184	-0.121
-673.135	-15.142	-0.150	-0.096
-672.120	-4.035	-0.106	-0.073
-671.105	-21.846	0.029	0.017
-670.091	61.482	-0.087	0.086
-669.076	-109.719	0.218	-0.046
-668.062	168.998	-0.162	-0.231
-667.047	156.709	0.092	0.127
-666.032	800.000	0.051	0.202
-665.018	133.125	-0.227	-0.293
-664.003	-20.037	0.126	-0.078
-662.989	-200.000	-0.050	0.237
-661.974	-182.231	-0.313	-0.006
-660.959	-72.001	0.181	-0.067
-659.945	262.257	-0.077	0.134
-658.930	-164.880	-0.305	0.014
-657.916	-200.000	0.013	-0.124
-656.901	800.000	-0.025	-0.069
-655.886	-200.000	-0.031	-0.511
-654.872	140.396	-0.222	-0.293
-653.857	800.000	-0.028	-0.120
-652.843	-41.663	-0.154	-0.079
-651.828	371.474	-0.155	-0.315
-650.814	0.252	-0.115	-0.082
-649.799	464.058	0.048	-0.107
-648.784	162.810	-0.092	0.129
-647.770	-58.578	-0.319	0.138
-646.755	-156.577	0.433	-0.027
-645.741	-200.000	-0.016	0.104
-644.726	342.237	-0.220	0.430
-643.711	-200.000	-0.033	-0.144
-642.697	800.000	-0.130	-0.380
-641.682	410.044	0.083	-0.176
-640.668	-200.000	0.004	0.190
-639.653	-200.000	-0.010	0.193
-638.638	-55.927	0.345	0.154
-637.624	447.065	-0.098	0.215
-636.609	800.000	-0.079	-0.250
-635.595	-108.828	0.120	-0.026
-634.580	206.106	-0.093	0.145
-633.565	800.000	0.098	-0.287
-632.551	27.535	0.279	0.234
-631.536	-30.805	-0.238	0.135
-630.522	800.000	-0.130	0.366
-629.507	-0.171	0.095	0.067
-628.492	-200.000	0.004	-0.146
-627.478	800.000	0.046	-0.129
-626.463	23.808	-0.207	0.170
-625.449	-200.000	0.021	-0.134
-624.434	-132.620	-0.330	-0.042
-623.419	-64.891	0.238	0.096
-622.405	-115.938	-0.186	-0.035
-621.390	212.687	0.055	-0.087
-620.376	186.516	0.168	-0.249
-619.361	65.201	-0.132	0.133
-618.346	28.421	-0.083	-0.070
-617.332	67.939	-0.249	-0.254
-616.317	12.099	0.241	-0.185
-615.303	-127.116	-0.350	-0.051
-614.288	285.221	0.144	-0.259
-613.273	67.672	-0.104	-0.106
-612.259	800.000	0.082	-0.274
-611.244	-114.258	0.168	-0.032
-610.230	108.672	0.141	0.168
-609.215	295.129	0.076	-0.139
-608.201	502.116	-0.097	-0.224
-607.186	-33.951	-0.520	-0.285
-606.171	-200.000	0.004	-0.200
-605.157	-120.819	-0.143	0.024
-604.142	162.280	-0.141	0.197
-603.128	-200.000	0.014	-0.267
-602.113	79.891	-0.206	-0.221
-601.098	-79.268	-0.068	-0.023
-600.084	-85.988	0.267	-0.082
-599.069	800.000	0.062	-0.223
-598.055	32.535	0.190	-0.164
-597.040	7.325	0.046	-0.034
-596.025	521.774	0.066	0.153
-595.011	-200.000	-0.020	-0.138
-593.996	-122.511	-0.227	-0.037
-592.982	109.050	0.128	0.153
-591.967	-200.000	-0.003	-0.126
-590.952	80.691	0.031	-0.033
-589.938	-44.432	0.205	-0.102
-588.923	211.921	-0.083	0.131
-587.909	421.949	-0.172	-0.368
-586.894	-99.478	0.224	-0.056
-585.879	84.990	-0.071	0.078
-584.865	-140.627	-0.146	0.015
-583.850	-24.172	-0.313	-0.186
-582.836	-30.705	0.196	0.111
-581.821	-118.231	-0.344	-0.061
-580.806	8.170	-0.007	0.005
-579.792	800.000	0.016	-0.056
-578.777	341.844	-0.052	0.101
-577.763	16.934	0.283	-0.223
-576.748	-101.467	-0.006	-0.002
-575.733	610.750	-0.165	-0.410
-574.719	22.935	0.085	-0.069
-573.704	595.006	-0.058	-0.144
-572.690	800.000	0.031	-0.096
-571.675	-200.000	0.003	0.204
-570.661	47.236	0.370	0.343
-569.646	30.132	0.188	0.160
-568.631	479.350	0.045	-0.102
-567.617	104.028	0.141	-0.166
-566.602	-200.000	0.008	0.147
-565.588	-34.472	0.203	0.111
-564.573	-119.572	0.127	-0.022
-563.558	-108.749	-0.258	0.055
-562.544	-95.808	0.149	0.040
-561.529	688.124	0.054	-0.141
-560.515	-169.233	0.211	-0.008
-559.500	129.648	0.062	-0.079
-558.485	-28.997	-0.275	-0.157
-557.471	-19.533	0.137	-0.085
-556.456	800.000	0.031	0.126
-555.442	110.046	-0.237	-0.284
-554.427	-107.797	-0.174	-0.038
-553.412	155.122	0.350	-0.480
-552.398	21.811	0.134	-0.108
-551.383	25.676	0.237	-0.197
-550.369	-187.360	-0.292	-0.004
-549.354	190.352	-0.151	-0.225
-548.339	-143.179	-0.261	-0.025
-547.325	45.541	0.159	-0.147
-546.310	-35.433	-0.219	-0.118
-545.296	-80.925	0.289	0.095
-544.281	104.996	-0.159	-0.186
-543.266	-101.225	0.360	0.088
-542.252	4.058	0.189	0.138
-541.237	-177.831	-0.074	0.002
-540.223	60.566	0.077	-0.076
-539.208	800.000	-0.041	0.136
-538.193	-154.792	-0.346	-0.023
-537.179	-91.601	0.048	-0.013
-536.164	800.000	-0.060	-0.189
-535.150	430.058	0.179	0.386
-534.135	277.245	0.136	0.240
-533.121	66.030	-0.240	-0.242
-532.106	-121.015	-0.132	0.022
-531.091	541.387	0.085	0.201
-530.077	182.804	0.137	-0.201
-529.062	-98.049	-0.039	-0.010
-528.048	-25.075	0.166	-0.098
-527.033	440.790	-0.124	-0.270
-526.018	-21.542	-0.064	-0.039
-525.004	362.185	-0.121	0.241
-523.989	-200.000	-0.055	-0.265
-522.975	699.404	-0.062	0.163
-521.960	39.050	-0.335	-0.298
-520.945	22.089	0.280	0.227
-519.931	-200.000	-0.029	0.315
-518.916	-28.924	-0.197	0.112
-517.902	13.942	-0.090	0.070
-516.887	363.368	0.082	0.164
-515.872	-36.256	0.115	-0.061
-514.858	-30.766	-0.202	-0.114
-513.843	-200.000	-0.057	-0.284
-512.829	-102.660	-0.353	-0.084
-511.814	-200.000	0.004	0.029
-510.799	-8.940	-0.183	-0.122
-509.785	397.454	-0.086	0.179
-508.770	-135.369	0.210	0.025
-507.756	-131.356	-0.151	0.020
-506.741	451.787	-0.051	-0.111
-505.726	-77.928	0.322	0.110
-504.712	-62.644	0.232	-0.096
-503.697	235.561	0.140	-0.230
-502.683	800.000	-0.137	-0.455
-501.668	-18.176	0.183	-0.114
-500.653	-31.531	0.346	0.193
-499.639	559.285	-0.023	0.056
-498.624	3.174	0.212	0.153
-497.610	800.000	-0.095	-0.358
-496.595	347.639	0.118	0.230
-495.581	-200.000	0.024	0.148
-494.566	383.545	-0.060	-0.123
-493.551	-140.318	0.113	-0.012
-492.537	-128.473	-0.081	-0.011
-491.522	29.687	0.160	-0.136
-490.508	70.765	0.138	-0.141
-489.493	115.335	0.123	0.149
-488.478	800.000	0.081	-0.315
-487.464	124.265	0.238	-0.297
-486.449	315.629	-0.139	-0.260
-485.435	219.092	0.105	0.166
-484.420	800.000	-0.030	-0.102
-483.405	-51.490	0.322	-0.149
-482.391	-128.746	-0.349	0.049
-481.376	137.324	-0.109	0.142
-480.362	-200.000	-0.007	0.306
-479.347	-200.000	-0.026	-0.175
-478.332	-104.126	-0.096	-0.022
-477.318	436.961	-0.051	-0.110
-476.303	600.715	-0.069	0.169
-475.289	-26.599	0.200	0.116
-474.274	800.000	-0.028	0.112
-473.259	-4.113	-0.190	-0.131
-472.245	-138.623	-0.187	-0.020
-471.230	-200.000	0.049	0.000
-470.216	-77.664	0.408	0.140
-469.201	112.155	-0.101	0.121
-468.186	800.000	-0.144	-0.530
-467.172	328.990	0.155	-0.295
-466.157	169.695	-0.261	-0.370
-465.143	-164.869	-0.292	0.013
-464.128	59.353	0.331	-0.323
-463.113	102.623	-0.125	0.145
-462.099	17.797	0.175	0.138
-461.084	-28.123	0.266	0.152
-460.070	-131.208	-0.135	0.018
-459.055	800.000	0.032	0.118
-458.040	81.913	-0.175	-0.188
-457.026	225.007	0.043	-0.069
-456.011	-200.000	-0.025	0.337
-454.997	8.882	-0.151	-0.113
-453.982	45.815	-0.220	0.202
-452.968	800.000	-0.059	-0.177
-451.953	-88.449	0.045	-0.013
-450.938	-200.000	0.041	0.406
-449.924	-179.402	-0.102	-0.002
-448.909	-200.000	0.085	0.617
-447.895	458.614	0.085	0.188
-446.880	800.000	-0.022	0.073
-445.865	-118.561	0.269	0.047
-444.851	-3.843	0.319	0.219
-443.836	800.000	0.015	-0.053
-442.822	49.641	-0.259	0.242
-441.807	5.420	0.006	-0.004
-440.792	-200.000	0.000	0.081
-439.778	17.636	-0.152	-0.119
-438.763	-98.715	-0.011	-0.003
-437.749	66.441	-0.159	-0.160
-436.734	47.418	0.132	0.122
-435.719	800.000	-0.049	-0.143
-434.705	45.565	-0.082	0.075
-433.690	-85.841	-0.216	-0.066
-432.676	210.828	0.144	-0.225
-431.661	-150.120	-0.068	-0.005
-430.646	800.000	-0.061	-0.178
-429.632	-160.979	-0.288	0.015
-428.617	436.394	0.016	0.034
-427.603	-200.000	0.006	-0.082
-426.588	319.518	0.050	-0.093
-425.573	106.351	-0.187	0.219
-424.559	-200.000	0.000	-0.220
-423.544	-110.543	0.090	0.018
-422.530	111.030	-0.163	0.195
-421.515	-105.858	-0.235	-0.053
-420.500	-200.000	-0.011	-0.120
-419.486	-104.258	-0.152	0.035
-418.471	167.204	-0.066	0.093
-417.457	-11.791	-0.280	-0.182
-416.442	-20.356	-0.279	0.170
-415.428	-200.000	-0.046	0.204
-414.413	-73.615	-0.033	-0.012
-413.398	-0.167	-0.168	0.118
-412.384	61.544	0.132	-0.130
-411.369	800.000	-0.046	0.156
-410.355	-82.721	-0.221	-0.071
-409.340	170.635	-0.069	-0.098
-408.325	-200.000	0.039	0.265
-407.311	-149.998	0.064	-0.005
-406.296	90.882	-0.264	0.293
-405.282	111.565	0.038	0.045
-404.267	-200.000	-0.054	0.388
-403.252	-38.601	0.176	0.092
-402.238	108.763	-0.149	-0.177
-401.223	162.556	0.089	-0.123
-400.209	-123.745	0.357	-0.056
-399.194	-66.197	-0.157	-0.062
-398.179	-52.191	0.182	-0.084
-397.165	34.871	0.114	0.099
-396.150	-106.628	0.163	-0.036
-395.136	800.000	0.011	0.046
-394.121	-152.765	-0.160	0.011
-393.106	-200.000	0.037	0.212
-392.092	-200.000	-0.026	-0.281
-391.077	-114.493	-0.154	-0.029
-390.063	97.021	0.233	-0.264
-389.048	-144.049	-0.163	-0.015
-388.033	-134.118	0.072	0.009
-387.019	538.151	-0.084	-0.197
-386.004	-200.000	-0.007	0.104
-384.990	-10.835	-0.138	-0.090
-383.975	-131.014	-0.188	0.025
-382.960	-25.407	0.184	0.108
-381.946	-200.000	0.037	0.184
-380.931	-59.022	-0.155	0.066
-379.917	169.759	-0.128	-0.181
-378.902	800.000	-0.031	-0.115
-377.888	236.210	-0.115	0.187
-376.873	800.000	0.035	0.122
-375.858	126.029	-0.101	-0.126
-374.844	195.614	0.187	-0.281
-373.829	-65.899	0.061	-0.024
-372.815	-200.000	0.001	0.155
-371.800	387.961	-0.100	0.205
-370.785	-46.200	0.132	0.064
-369.771	44.186	-0.410	-0.371
-368.756	800.000	-0.067	0.279
-367.742	800.000	0.125	-0.342
-366.727	78.203	0.182	-0.192
-365.712	-2.195	-0.177	0.123
-364.698	800.000	-0.123	0.387
-363.683	31.129	-0.086	-0.073
-362.669	800.000	0.058	-0.160
-361.654	310.325	-0.015	0.028
-360.639	165.866	-0.093	-0.131
-359.625	46.697	0.354	0.325
-358.610	-39.650	-0.076	0.039
-357.596	800.000	-0.032	0.110
-356.581	118.516	0.207	-0.252
-355.566	800.000	-0.043	-0.121
-354.552	-115.041	-0.359	-0.067
-353.537	-121.008	-0.248	0.041
-352.523	21.625	-0.364	-0.293
-351.508	800.000	-0.111	-0.467
-350.493	-177.530	0.252	-0.006
-349.479	1.784	0.160	0.114
-348.464	800.000	0.074	-0.213
-347.450	-158.947	-0.221	0.012
-346.435	107.452	-0.149	-0.175
-345.420	-32.137	0.184	0.102
-344.406	48.428	0.005	0.004
-343.391	-89.868	-0.023	-0.007
-342.377	-80.194	-0.386	-0.128
-341.362	350.309	0.096	0.187
-340.348	201.432	0.167	-0.254
-339.333	167.518	-0.070	-0.098
-338.318	-48.689	-0.033	0.016
-337.304	-126.709	0.205	0.030
-336.289	150.248	0.030	0.040
-335.275	-112.756	0.156	0.031
-334.260	-200.000	-0.005	0.124
-333.245	-170.358	-0.186	-0.006
-332.231	-136.007	0.400	0.046
-331.216	7.211	0.211	-0.156
-330.202	-200.000	0.017	0.086
-329.187	-104.402	0.186	-0.042
-328.172	-61.831	-0.122	0.051
-327.158	-30.819	-0.113	0.063
-326.143	-5.375	0.202	0.137
-325.129	259.320	0.235	-0.400
-324.114	-188.861	0.149	-0.002
-323.099	315.184	0.131	0.244
-322.085	79.792	0.134	0.142
-321.070	-21.395	0.115	0.069
-320.056	277.171	-0.197	0.345
-319.041	-4.274	-0.199	-0.136
-318.026	254.807	-0.113	0.190
-317.012	-200.000	-0.077	-0.426
-315.997	-180.600	-0.351	0.007
-314.983	800.000	-0.043	0.130
-313.968	-200.000	-0.022	0.119
-312.953	238.683	0.227	0.371
-311.939	35.798	-0.197	-0.170
-310.924	-75.986	0.402	0.140
-309.910	71.410	-0.047	-0.048
-308.895	-200.000	0.040	-0.248
-307.880	319.834	0.073	-0.136
-306.866	-117.641	0.377	0.067
-305.851	800.000	0.104	-0.322
-304.837	-95.093	0.223	-0.059
-303.822	-17.865	0.469	0.290
-302.807	-26.393	-0.249	0.144
-301.793	-200.000	0.014	0.136
-300.778	414.565	-0.049	0.104
-299.764	-200.000	0.012	0.175
-298.749	-200.000	-0.013	0.211
-297.735	79.361	0.404	-0.426
-296.720	796.515	-0.098	0.267
-295.705	179.766	-0.303	-0.438
-294.691	-185.243	-0.268	0.004
-293.676	-200.000	-0.058	0.264
-292.662	707.823	0.085	-0.222
-291.647	-72.256	0.323	0.118
-290.632	44.687	-0.193	-0.175
-289.618	49.479	0.194	-0.180
-288.603	-200.000	0.029	-0.287
-287.589	-83.514	0.088	-0.028
-286.574	800.000	0.066	0.256
-285.559	314.557	-0.183	0.340
-284.545	4.587	-0.340	0.246
-283.530	241.433	0.127	0.209
-282.516	-200.000	0.009	0.204
-281.501	6.173	0.220	-0.161
-280.486	271.678	0.138	-0.240
-279.472	-156.175	0.349	-0.022
-278.457	-79.192	0.222	-0.074
-277.443	-108.212	-0.155	-0.033
-276.428	-45.823	-0.243	-0.118
-275.413	-142.230	-0.180	0.017
-274.399	83.471	0.074	-0.079
-273.384	245.865	-0.194	-0.322
-272.370	128.660	0.103	-0.129
-271.355	153.190	0.124	0.167
-270.340	109.872	-0.102	0.120
-269.326	256.424	0.179	0.303
-268.311	210.566	-0.119	0.183
-267.297	-105.794	0.169	0.038
-266.282	-88.742	0.309	0.090
-265.267	39.851	0.098	0.087
-264.253	166.648	-0.137	-0.191
-263.238	338.867	-0.088	0.168
-262.224	-64.707	-0.093	0.037
-261.209	-200.000	0.011	0.280
-260.195	412.647	0.121	0.254
-259.180	-46.775	0.098	0.047
-258.165	38.365	-0.182	0.159
-257.151	37.784	0.089	0.077
-256.136	99.036	-0.045	0.052
-255.122	-20.770	0.201	0.121
-254.107	-68.251	0.228	-0.087
-253.092	-23.462	0.162	-0.096
-252.078	-20.392	-0.393	0.238
-251.063	-125.226	0.389	0.059
-250.049	691.152	-0.125	0.322
-249.034	70.573	0.092	0.093
-248.019	315.374	-0.097	-0.180
-247.005	552.779	0.067	-0.158
-245.990	-75.875	-0.327	0.114
-244.976	-15.662	-0.200	-0.126
-243.961	127.283	0.258	0.322
-242.946	-12.660	0.110	-0.070
-241.932	-131.955	0.176	0.023
-240.917	800.000	-0.104	0.382
-239.903	264.163	0.085	0.145
-238.888	-63.226	-0.314	0.127
-237.873	201.056	0.062	-0.094
-236.859	-200.000	-0.057	-0.331
-235.844	-162.274	0.107	-0.005
-234.830	-118.159	-0.113	0.020
-233.815	135.915	-0.233	0.298
-232.800	-48.486	-0.282	0.133
-231.786	354.998	-0.083	-0.161
-230.771	800.000	-0.110	0.337
-229.757	331.466	-0.144	0.274
-228.742	-22.325	-0.064	-0.038
-227.727	800.000	-0.024	0.073
-226.713	-7.505	-0.117	-0.078
-225.698	15.805	-0.196	0.152
-224.684	177.092	0.145	0.207
-223.669	-200.000	0.022	0.297
-222.655	800.000	-0.021	-0.072
-221.640	-200.000	-0.015	0.080
-220.625	527.592	0.113	-0.261
-219.611	217.129	-0.065	0.102
-218.596	-118.185	0.140	0.024
-217.582	596.417	0.134	-0.326
-216.567	112.868	-0.078	0.092
-215.552	687.237	-0.124	0.317
-214.538	-38.549	0.209	-0.109
-213.523	-175.872	0.166	-0.004
-212.509	491.324	-0.046	0.103
-211.494	-132.660	-0.342	-0.043
-210.479	-200.000	-0.059	0.315
-209.465	256.038	0.058	-0.097
-208.450	-51.704	0.109	0.050
-207.436	-104.506	-0.129	0.029
-206.421	-89.657	0.286	0.082
-205.406	52.361	0.196	-0.184
-204.392	-56.230	0.251	0.110
-203.377	-68.258	-0.097	-0.037
-202.363	508.963	0.070	-0.161
-201.348	28.077	-0.203	-0.168
-200.333	-54.273	0.169	-0.075
-199.319	384.313	-0.113	-0.228
-198.304	48.275	-0.269	0.247
-197.290	15.538	0.065	-0.050
-196.275	-42.492	0.189	0.094
-195.260	179.089	-0.073	0.104
-194.246	800.000	0.079	0.298
-193.231	73.865	0.136	0.140
-192.217	-5.277	-0.261	-0.176
-191.202	21.317	0.129	0.103
-190.187	-76.341	-0.267	-0.092
-189.173	369.774	-0.003	0.005
-188.158	-200.000	-0.060	0.307
-187.144	507.372	0.055	-0.125
-186.129	800.000	-0.072	0.235
-185.114	-200.000	0.060	0.316
-184.100	69.107	-0.095	-0.096
-183.085	-62.175	0.363	-0.149
-182.071	37.606	-0.208	0.181
-181.056	-161.211	0.034	0.002
-180.042	-153.072	0.174	-0.012
-179.027	-12.959	0.105	0.067
-178.012	-200.000	0.026	0.438
-176.998	-150.587	0.427	0.032
-175.983	56.758	-0.179	0.171
-174.969	-19.598	0.224	-0.136
-173.954	477.270	-0.096	-0.214
-172.939	-149.905	-0.173	0.013
-171.925	-12.584	-0.144	0.092
-170.910	193.576	0.122	0.181
-169.896	-81.460	0.397	0.128
-168.881	-200.000	0.058	0.272
-167.866	-5.599	0.162	0.109
-166.852	78.298	0.221	-0.231
-165.837	279.289	-0.027	-0.047
-164.823	-200.000	-0.008	-0.184
-163.808	68.760	0.138	0.138
-162.793	80.964	0.179	0.189
-161.779	-108.962	-0.170	0.036
-160.764	-78.041	-0.179	-0.061
-159.750	-200.000	-0.005	-0.151
-158.735	239.883	0.098	-0.160
-157.720	800.000	-0.065	0.270
-156.706	800.000	-0.026	-0.080
-155.691	-200.000	-0.010	-0.075
-154.677	62.643	0.106	-0.104
-153.662	-139.580	0.135	0.014
-152.647	28.075	-0.299	-0.247
-151.633	158.749	-0.114	0.156
-150.618	369.243	0.090	0.178
-149.604	-90.518	0.119	0.034
-148.589	-171.901	0.054	0.002
-147.574	-92.349	0.286	0.079
-146.560	144.600	0.196	0.256
-145.545	-38.322	0.039	-0.020
-144.531	9.617	0.253	0.188
-143.516	202.869	0.176	-0.267
-142.502	465.815	0.055	0.121
-141.487	-67.244	0.270	0.104
-140.472	-65.624	-0.297	-0.116
-139.458	163.063	0.187	-0.257
-138.443	-200.000	-0.021	0.266
-137.429	96.185	-0.164	-0.184
-136.414	536.661	0.106	0.247
-135.399	-200.000	-0.035	0.238
-134.385	-200.000	0.013	-0.071
-133.370	-200.000	-0.005	-0.066
-132.356	165.423	-0.156	0.216
-131.341	470.791	-0.162	0.358
-130.326	-200.000	-0.021	0.143
-129.312	560.494	0.035	-0.084
-128.297	54.984	-0.079	0.075
-127.283	-59.381	-0.140	-0.059
-126.268	44.833	0.229	-0.207
-125.253	140.823	0.083	0.108
-124.239	170.709	-0.132	-0.185
-123.224	-106.683	-0.437	0.095
-122.210	33.063	-0.048	-0.041
-121.195	-31.351	0.210	-0.116
