DTS Sentinel unit serial number:	SN413079Multiplexer serial number:	ORYXHardware model number:	OX4-SRSoftware version number:	ORYX F/W v4.00 Oryx Data Collector v3.7.2.0data status	okinstallation	princeton_trtdifferential loss correction	single-endedforward channel	channel 3reverse channel	N/Adate	2019/09/14time	22:24:34forward acquisition time	60.00reverse acquisition time	0.00gamma	496.2192k internal	0.2318k external	0.2318temperature offset calibration	0.9994default loss term (dB/km)	0.3790temperature slope calibration	1.0000multiplexer offset coefficient	1.0000multiplexer slope coefficient	1.0000fibre end	0.00T internal ref (°C)	32.56T ext. ref 1 (°C)	4.70T ext. ref 2 (°C)	27.54length (m)	temperature (°C)	Stokes	anti-Stokes-747.200	-161.494	0.281	-0.015
-746.185	-62.926	-0.305	-0.128
-745.171	-108.916	0.256	-0.055
-744.156	407.015	-0.100	0.213
-743.142	40.157	-0.150	-0.137
-742.127	-108.993	-0.341	0.074
-741.112	41.125	0.072	0.066
-740.098	3.036	-0.393	0.289
-739.083	131.901	0.072	-0.094
-738.069	-139.447	-0.353	-0.038
-737.054	800.000	-0.064	0.246
-736.039	-200.000	-0.024	0.217
-735.025	-97.622	0.102	0.027
-734.010	-66.516	-0.223	-0.090
-732.996	11.454	-0.132	-0.102
-731.981	169.843	0.203	0.294
-730.966	761.525	0.039	-0.106
-729.952	-14.968	-0.210	0.136
-728.937	158.932	-0.027	-0.037
-727.923	173.602	-0.059	-0.086
-726.908	342.602	0.123	-0.244
-725.894	95.732	0.081	0.094
-724.879	199.525	-0.064	-0.100
-723.864	-36.916	-0.060	0.032
-722.850	-200.000	0.051	-0.452
-721.835	532.592	-0.122	0.293
-720.821	-35.555	-0.075	0.041
-719.806	800.000	-0.039	-0.147
-718.791	-53.497	-0.294	0.136
-717.777	157.815	-0.223	-0.313
-716.762	-109.590	0.328	0.070
-715.748	-60.711	0.324	0.139
-714.733	800.000	0.058	0.198
-713.718	6.768	-0.118	-0.089
-712.704	123.344	0.073	0.092
-711.689	700.058	-0.040	0.107
-710.675	285.025	-0.131	-0.238
-709.660	31.708	-0.181	-0.158
-708.645	800.000	-0.005	-0.016
-707.631	100.394	0.053	0.062
-706.616	65.082	0.319	0.326
-705.602	233.377	0.073	-0.121
-704.587	800.000	0.088	-0.297
-703.572	800.000	0.019	-0.083
-702.558	788.710	0.097	0.269
-701.543	-47.946	-0.193	0.094
-700.529	-85.639	-0.318	-0.100
-699.514	-200.000	-0.023	-0.132
-698.499	-83.987	0.152	0.049
-697.485	-28.814	0.117	0.068
-696.470	45.243	-0.155	-0.144
-695.456	-20.063	-0.327	-0.204
-694.441	-171.698	-0.235	-0.008
-693.426	527.203	0.053	0.127
-692.412	-58.119	-0.126	-0.056
-691.397	2.907	-0.132	-0.097
-690.383	800.000	0.033	-0.132
-689.368	136.813	-0.175	0.230
-688.354	287.919	0.120	0.219
-687.339	157.285	-0.066	-0.092
-686.324	32.594	0.245	0.214
-685.310	70.208	-0.076	0.079
-684.295	260.652	-0.159	-0.278
-683.281	653.384	0.040	0.104
-682.266	-200.000	0.035	-0.234
-681.251	-7.685	-0.035	0.024
-680.237	2.918	-0.185	-0.135
-679.222	76.468	-0.292	0.313
-678.208	800.000	0.041	-0.183
-677.193	694.660	0.073	-0.194
-676.178	-115.934	-0.484	-0.091
-675.164	191.581	0.190	-0.289
-674.149	86.258	0.070	-0.078
-673.135	800.000	-0.053	-0.214
-672.120	44.077	0.227	-0.210
-671.105	-98.430	0.150	0.039
-670.091	5.284	-0.065	0.049
-669.076	-75.518	0.063	0.023
-668.062	-161.677	0.208	0.011
-667.047	55.705	-0.261	0.255
-666.032	800.000	-0.025	-0.071
-665.018	559.956	-0.150	-0.365
-664.003	-200.000	-0.007	0.241
-662.989	38.284	-0.055	-0.049
-661.974	-40.553	-0.222	0.116
-660.959	20.962	0.125	-0.102
-659.945	4.475	-0.277	-0.205
-658.930	-17.974	-0.281	-0.178
-657.916	-29.160	0.093	-0.054
-656.901	-82.387	0.138	0.045
-655.886	88.828	0.129	-0.144
-654.872	800.000	0.071	-0.203
-653.857	149.816	-0.067	0.092
-652.843	-123.941	0.122	-0.019
-651.828	-125.313	0.214	0.033
-650.814	-64.479	0.116	0.048
-649.799	-147.754	-0.259	0.022
-648.784	-200.000	0.029	-0.165
-647.770	-57.333	0.021	-0.009
-646.755	800.000	-0.186	0.538
-645.741	-200.000	-0.012	-0.141
-644.726	800.000	0.028	0.109
-643.711	-53.066	-0.192	-0.089
-642.697	-41.000	0.194	-0.101
-641.682	-200.000	-0.022	0.153
-640.668	-154.168	0.269	-0.018
-639.653	-200.000	0.008	0.094
-638.638	-59.451	0.148	-0.064
-637.624	203.895	-0.118	-0.184
-636.609	16.430	-0.198	-0.157
-635.595	-200.000	0.010	-0.088
-634.580	-31.385	0.087	0.049
-633.565	148.871	-0.098	-0.134
-632.551	-200.000	0.009	0.080
-631.536	10.500	0.035	-0.027
-630.522	-39.489	-0.232	-0.122
-629.507	413.957	0.102	0.219
-628.492	133.688	0.226	-0.295
-627.478	-79.078	-0.163	0.056
-626.463	-200.000	-0.020	-0.140
-625.449	72.851	-0.060	0.063
-624.434	-200.000	0.069	-0.388
-623.419	-61.849	-0.164	-0.069
-622.405	77.965	-0.128	0.137
-621.390	-22.706	0.359	-0.219
-620.376	-66.985	-0.126	-0.050
-619.361	-19.868	-0.152	-0.095
-618.346	112.204	0.160	-0.195
-617.332	-200.000	0.005	0.115
-616.317	-103.454	0.146	-0.035
-615.303	-200.000	0.025	-0.121
-614.288	97.580	-0.143	0.166
-613.273	-95.426	0.223	0.060
-612.259	153.415	-0.107	-0.147
-611.244	-200.000	-0.020	0.182
-610.230	149.296	-0.140	-0.191
-609.215	-50.334	0.267	0.127
-608.201	-200.000	0.007	-0.055
-607.186	48.040	-0.130	0.123
-606.171	-31.245	-0.205	0.116
-605.157	-128.657	-0.232	-0.033
-604.142	40.834	-0.090	0.082
-603.128	-200.000	-0.014	-0.135
-602.113	63.953	0.042	0.043
-601.098	-200.000	-0.027	0.139
-600.084	-200.000	-0.031	-0.139
-599.069	-200.000	0.009	0.093
-598.055	800.000	-0.010	-0.032
-597.040	-148.547	-0.296	0.024
-596.025	138.420	-0.086	0.114
-595.011	-200.000	-0.021	0.360
-593.996	-200.000	-0.029	0.190
-592.982	200.965	0.158	0.244
-591.967	-120.309	0.242	-0.042
-590.952	-0.367	-0.215	0.154
-589.938	14.925	0.084	-0.066
-588.923	-151.788	-0.031	0.002
-587.909	24.845	-0.058	-0.049
-586.894	298.004	0.188	0.347
-585.879	572.510	0.112	-0.274
-584.865	-4.737	0.238	0.165
-583.850	-138.554	-0.201	-0.022
-582.836	186.031	0.100	-0.150
-581.821	-152.794	-0.243	-0.017
-580.806	593.614	-0.109	-0.272
-579.792	-14.986	-0.047	0.030
-578.777	-31.359	-0.274	-0.155
-577.763	-200.000	0.057	-0.262
-576.748	-200.000	-0.015	-0.106
-575.733	-48.843	0.189	0.091
-574.719	24.905	0.246	-0.205
-573.704	-142.997	0.339	0.033
-572.690	-200.000	-0.042	0.291
-571.675	736.112	0.118	-0.319
-570.661	-200.000	-0.019	-0.108
-569.646	173.443	-0.147	-0.212
-568.631	-121.190	-0.170	0.029
-567.617	60.597	-0.212	0.211
-566.602	319.075	0.125	-0.238
-565.588	114.457	-0.048	0.059
-564.573	-2.292	0.259	-0.183
-563.558	136.166	-0.173	0.227
-562.544	69.862	-0.239	-0.248
-561.529	212.995	-0.126	0.201
-560.515	-18.687	-0.210	-0.131
-559.500	-200.000	0.036	-0.364
-558.485	-129.241	-0.228	0.032
-557.471	383.126	0.041	0.085
-556.456	800.000	0.109	0.312
-555.442	-200.000	0.000	0.241
-554.427	-124.688	-0.225	-0.035
-553.412	-77.056	-0.336	-0.118
-552.398	-200.000	0.007	0.087
-551.383	208.751	-0.089	0.141
-550.369	-117.480	-0.270	-0.049
-549.354	-200.000	-0.052	-0.283
-548.339	-124.910	-0.020	0.003
-547.325	-26.980	-0.149	0.087
-546.310	12.227	0.249	0.193
-545.296	2.314	-0.179	0.130
-544.281	1.113	-0.120	0.087
-543.266	-200.000	0.010	0.209
-542.252	-200.000	-0.005	-0.087
-541.237	-14.681	-0.126	-0.081
-540.223	-57.315	-0.276	0.122
-539.208	272.128	-0.116	0.205
-538.193	48.522	0.133	-0.125
-537.179	543.522	0.020	-0.048
-536.164	276.270	0.224	0.400
-535.150	800.000	-0.042	-0.147
-534.135	800.000	-0.065	0.209
-533.121	-49.062	0.236	0.113
-532.106	171.905	0.003	-0.004
-531.091	38.196	-0.146	0.131
-530.077	-104.533	-0.170	0.039
-529.062	800.000	-0.111	-0.311
-528.048	-56.437	-0.332	-0.148
-527.033	-31.734	0.188	-0.106
-526.018	-200.000	-0.002	-0.063
-525.004	-200.000	0.013	0.119
-523.989	252.753	-0.093	0.159
-522.975	-126.590	-0.138	0.020
-521.960	350.895	-0.084	-0.166
-520.945	62.723	0.152	0.152
-519.931	-77.858	-0.123	0.043
-518.916	-200.000	-0.017	-0.374
-517.902	93.594	-0.110	0.125
-516.887	-11.320	-0.090	0.059
-515.872	220.718	0.180	-0.289
-514.858	-200.000	-0.013	0.123
-513.843	142.726	0.151	0.201
-512.829	-64.215	-0.030	-0.012
-511.814	16.006	-0.165	-0.130
-510.799	800.000	0.060	-0.167
-509.785	700.912	-0.102	-0.269
-508.770	159.805	-0.135	0.188
-507.756	51.633	-0.017	-0.016
-506.741	-200.000	0.030	-0.151
-505.726	-97.766	0.122	0.032
-504.712	-60.002	-0.201	-0.086
-503.697	-200.000	0.056	0.350
-502.683	-185.587	0.216	0.003
-501.668	-170.842	0.271	-0.009
-500.653	465.168	-0.067	0.150
-499.639	-138.836	0.033	0.004
-498.624	15.643	-0.232	-0.183
-497.610	217.394	-0.075	-0.120
-496.595	-200.000	-0.010	0.053
-495.581	800.000	-0.037	0.152
-494.566	366.815	-0.110	0.223
-493.551	47.920	-0.216	0.202
-492.537	173.360	0.157	0.227
-491.522	88.638	0.097	-0.109
-490.508	-200.000	0.055	0.330
-489.493	-200.000	-0.048	-0.214
-488.478	-69.281	0.200	-0.077
-487.464	371.781	-0.081	-0.164
-486.449	-130.753	-0.119	-0.016
-485.435	504.490	-0.078	0.180
-484.420	87.753	-0.031	0.034
-483.405	293.980	-0.196	0.359
-482.391	276.690	0.063	0.112
-481.376	117.263	0.020	-0.025
-480.362	800.000	-0.105	0.300
-479.347	-154.748	0.364	0.024
-478.332	176.999	-0.178	-0.259
-477.318	-200.000	-0.005	-0.328
-476.303	800.000	0.086	-0.275
-475.289	-44.201	-0.263	0.132
-474.274	-101.770	0.210	0.051
-473.259	-114.522	-0.242	0.047
-472.245	265.366	-0.162	-0.282
-471.230	13.275	0.260	-0.201
-470.216	-151.643	-0.046	0.003
-469.201	143.476	-0.184	-0.245
-468.186	-9.079	-0.103	0.069
-467.172	278.505	-0.176	-0.314
-466.157	800.000	-0.058	-0.236
-465.143	-200.000	-0.044	0.307
-464.128	-134.137	0.161	0.020
-463.113	-146.130	0.211	0.019
-462.099	204.828	-0.027	0.042
-461.084	-85.960	0.069	0.021
-460.070	-63.699	0.071	-0.029
-459.055	-104.919	0.154	-0.035
-458.040	-34.078	0.134	-0.074
-457.026	-45.725	-0.022	-0.011
-456.011	-55.627	-0.341	-0.153
-454.997	-166.071	0.224	0.010
-453.982	-85.789	-0.130	-0.040
-452.968	-180.295	-0.310	-0.006
-451.953	790.958	0.043	0.119
-450.938	-141.412	0.030	-0.003
-449.924	277.514	0.075	-0.133
-448.909	-19.047	-0.087	-0.054
-447.895	-173.349	-0.385	-0.012
-446.880	-200.000	-0.034	0.193
-445.865	607.477	-0.043	0.108
-444.851	130.099	-0.022	0.029
-443.836	42.319	-0.056	0.051
-442.822	-200.000	0.038	-0.192
-441.807	87.202	0.223	-0.247
-440.792	58.876	0.213	-0.209
-439.778	-40.801	0.248	0.128
-438.763	11.860	-0.226	0.174
-437.749	800.000	0.051	-0.218
-436.734	9.117	0.211	-0.159
-435.719	-30.049	-0.282	-0.160
-434.705	-124.878	-0.264	0.041
-433.690	152.445	-0.097	-0.132
-432.676	-17.988	-0.030	-0.019
-431.661	-8.177	-0.044	0.030
-430.646	450.057	-0.054	-0.120
-429.632	-200.000	-0.009	0.363
-428.617	800.000	-0.027	-0.074
-427.603	-22.284	-0.230	0.139
-426.588	51.771	0.182	-0.173
-425.573	266.681	-0.127	0.222
-424.559	26.875	0.044	0.037
-423.544	-200.000	-0.024	-0.238
-422.530	124.825	0.171	-0.216
-421.515	60.696	-0.131	-0.130
-420.500	295.747	-0.034	0.062
-419.486	-34.491	-0.040	-0.022
-418.471	-114.369	0.120	-0.023
-417.457	800.000	-0.039	0.169
-416.442	294.500	0.117	-0.214
-415.428	352.397	-0.154	0.306
-414.413	800.000	-0.021	-0.070
-413.398	69.764	-0.203	0.209
-412.384	12.189	-0.219	0.168
-411.369	-154.607	-0.103	0.007
-410.355	-86.720	0.159	0.049
-409.340	-200.000	0.050	0.418
-408.325	411.278	0.053	0.112
-407.311	-78.436	0.198	0.068
-406.296	-119.001	0.383	0.067
-405.282	-200.000	0.027	-0.134
-404.267	20.573	0.412	-0.333
-403.252	51.236	-0.197	-0.187
-402.238	-99.854	-0.284	-0.071
-401.223	-83.969	0.214	-0.068
-400.209	-148.405	0.160	0.013
-399.194	-55.697	-0.216	-0.097
-398.179	-200.000	-0.087	-0.524
-397.165	-44.692	-0.223	-0.111
-396.150	110.493	-0.436	-0.523
-395.136	223.096	0.238	-0.383
-394.121	-200.000	-0.008	0.136
-393.106	135.698	0.138	0.180
-392.092	-176.396	0.070	0.002
-391.077	-110.598	0.608	0.126
-390.063	79.921	0.212	-0.227
-389.048	-32.378	-0.275	0.153
-388.033	-157.709	-0.312	0.019
-387.019	-200.000	-0.022	-0.117
-386.004	-200.000	-0.000	-0.224
-384.990	800.000	0.049	0.168
-383.975	614.372	-0.116	0.290
-382.960	-71.263	0.320	-0.120
-381.946	-104.281	-0.057	0.013
-380.931	-200.000	-0.022	-0.233
-379.917	-200.000	-0.008	-0.067
-378.902	-200.000	-0.010	0.322
-377.888	-46.715	-0.276	-0.135
-376.873	-200.000	-0.005	0.161
-375.858	-50.879	-0.382	0.179
-374.844	693.131	0.039	-0.102
-373.829	30.479	0.227	0.194
-372.815	-119.872	0.320	0.055
-371.800	800.000	-0.133	0.368
-370.785	473.204	0.076	-0.170
-369.771	75.202	0.205	0.216
-368.756	-200.000	0.022	-0.115
-367.742	-72.657	0.082	0.030
-366.727	412.300	-0.092	0.195
-365.712	-60.881	-0.347	0.146
-364.698	-131.434	-0.151	0.020
-363.683	155.972	0.020	-0.028
-362.669	11.732	0.154	-0.118
-361.654	163.506	0.130	-0.182
-360.639	593.122	0.038	0.093
-359.625	7.519	0.105	-0.078
-358.610	-69.929	-0.261	0.099
-357.596	-90.332	-0.238	0.069
-356.581	-200.000	0.008	0.680
-355.566	187.846	0.072	-0.107
-354.552	-137.380	-0.089	0.010
-353.537	241.732	0.117	0.195
-352.523	-132.461	0.542	-0.070
-351.508	559.203	-0.138	-0.332
-350.493	-138.225	0.208	-0.023
-349.479	-106.168	0.456	0.102
-348.464	-64.519	0.192	-0.078
-347.450	230.954	-0.132	0.216
-346.435	5.552	0.206	-0.151
-345.420	-125.688	-0.410	-0.062
-344.406	-200.000	-0.017	-0.147
-343.391	543.185	0.133	0.315
-342.377	-200.000	-0.008	-0.213
-341.362	80.556	-0.130	0.139
-340.348	-200.000	-0.006	0.066
-339.333	171.711	0.109	0.156
-338.318	-7.349	-0.073	0.049
-337.304	-95.288	0.207	-0.056
-336.289	-60.073	-0.214	-0.091
-335.275	-200.000	-0.003	-0.283
-334.260	-36.267	-0.069	-0.037
-333.245	-200.000	-0.004	-0.118
-332.231	-135.402	-0.121	-0.014
-331.216	219.506	-0.098	0.156
-330.202	-59.029	-0.198	0.085
-329.187	-96.719	0.272	-0.071
-328.172	-96.165	-0.174	-0.046
-327.158	-95.531	0.230	-0.061
-326.143	-106.898	0.313	-0.069
-325.129	4.530	0.184	-0.134
-324.114	268.282	0.121	0.211
-323.099	-78.364	0.315	0.108
-322.085	-109.705	-0.156	-0.033
-321.070	157.206	-0.052	0.072
-320.056	-85.656	0.257	-0.079
-319.041	-200.000	0.019	-0.149
-318.026	73.592	-0.135	-0.140
-317.012	-55.503	0.214	0.095
-315.997	-16.186	-0.253	-0.160
-314.983	-152.830	-0.215	0.015
-313.968	-200.000	0.025	-0.247
-312.953	-101.748	0.392	0.094
-311.939	-146.284	0.297	-0.026
-310.924	-180.986	0.265	-0.005
-309.910	-6.240	0.156	0.106
-308.895	-92.367	-0.213	-0.060
-307.880	-43.845	0.094	-0.047
-306.866	64.910	0.096	-0.096
-305.851	35.986	-0.148	0.129
-304.837	301.754	-0.127	-0.234
-303.822	-140.317	-0.268	0.028
-302.807	-29.484	-0.080	-0.046
-301.793	800.000	0.080	-0.246
-300.778	407.331	0.098	0.206
-299.764	800.000	-0.044	-0.146
-298.749	-200.000	-0.020	-0.142
-297.735	-14.909	-0.253	0.161
-296.720	118.874	-0.336	0.412
-295.705	216.290	0.137	-0.216
-294.691	-200.000	-0.032	-0.318
-293.676	309.892	-0.134	0.249
-292.662	-10.141	-0.123	0.081
-291.647	-187.376	0.378	0.005
-290.632	-17.298	-0.029	0.018
-289.618	127.050	0.154	-0.194
-288.603	100.436	-0.081	-0.094
-287.589	138.799	-0.077	-0.100
-286.574	-200.000	-0.017	0.276
-285.559	-77.132	-0.152	-0.053
-284.545	-200.000	-0.003	-0.222
-283.530	800.000	-0.018	-0.077
-282.516	800.000	0.106	0.425
-281.501	483.054	0.167	-0.376
-280.486	800.000	0.040	-0.125
-279.472	-94.596	0.323	0.087
-278.457	-31.176	0.017	0.009
-277.443	-115.326	-0.319	0.060
-276.428	-50.474	0.132	0.062
-275.413	-195.305	-0.157	-0.001
-274.399	-200.000	0.025	0.138
-273.384	89.514	-0.155	0.171
-272.370	-170.271	-0.495	-0.017
-271.355	-200.000	-0.034	-0.367
-270.340	137.196	0.109	0.142
-269.326	-105.671	-0.286	0.064
-268.311	115.638	-0.220	-0.267
-267.297	475.884	-0.068	-0.152
-266.282	201.418	0.134	-0.206
-265.267	17.389	0.084	-0.066
-264.253	-101.030	0.212	-0.052
-263.238	-200.000	0.049	0.440
-262.224	-200.000	0.017	0.243
-261.209	-142.509	0.282	0.027
-260.195	312.691	-0.230	0.430
-259.180	-200.000	0.019	0.288
-258.165	-200.000	0.023	-0.319
-257.151	88.947	0.110	-0.122
-256.136	-12.060	-0.118	-0.077
-255.122	800.000	0.059	-0.189
-254.107	-158.109	0.375	0.022
-253.092	-136.004	0.066	0.008
-252.078	-7.032	-0.144	0.097
-251.063	-200.000	0.049	0.299
-250.049	123.425	-0.171	0.213
-249.034	-75.334	-0.082	0.029
-248.019	364.998	0.053	0.106
-247.005	-160.527	0.254	-0.013
-245.990	-16.112	-0.281	-0.177
-244.976	-154.591	0.171	0.011
-243.961	399.700	0.131	0.272
-242.946	-68.161	-0.140	-0.054
-241.932	-200.000	0.018	-0.470
-240.917	47.855	0.236	0.219
-239.903	-200.000	-0.042	0.299
-238.888	7.401	0.134	0.099
-237.873	-150.766	0.283	-0.021
-236.859	800.000	-0.022	-0.066
-235.844	-69.075	0.341	0.130
-234.830	-20.696	-0.151	-0.092
-233.815	-200.000	-0.035	0.307
-232.800	-44.261	0.084	-0.042
-231.786	-200.000	-0.000	0.036
-230.771	-127.097	-0.313	-0.046
-229.757	210.639	0.123	-0.192
-228.742	-88.109	-0.231	0.069
-227.727	-200.000	-0.086	-0.400
-226.713	33.193	0.360	0.310
-225.698	-52.208	-0.191	-0.088
-224.684	-149.137	0.082	-0.007
-223.669	-39.480	0.116	-0.060
-222.655	-73.877	-0.221	-0.080
-221.640	-109.873	-0.374	0.078
-220.625	183.154	-0.299	0.438
-219.611	-200.000	0.019	0.187
-218.596	404.096	0.067	0.140
-217.582	800.000	0.047	-0.174
-216.567	67.090	0.333	0.337
-215.552	-200.000	0.048	-0.444
-214.538	-166.600	-0.169	-0.007
-213.523	196.499	-0.090	0.135
-212.509	533.451	0.063	-0.148
-211.494	-107.555	-0.358	0.078
-210.479	352.602	0.190	-0.373
-209.465	-113.605	-0.197	-0.038
-208.450	-66.852	0.196	0.077
-207.436	-43.627	-0.268	0.134
-206.421	97.871	-0.057	0.065
-205.406	160.481	0.293	0.405
-204.392	-101.347	-0.204	0.049
-203.377	-5.363	0.140	-0.095
-202.363	122.715	0.086	0.106
-201.348	440.068	0.041	-0.090
-200.333	207.889	-0.198	-0.307
-199.319	-132.923	0.288	-0.036
-198.304	285.729	0.081	0.144
-197.290	112.909	-0.024	0.029
-196.275	202.704	0.104	0.159
-195.260	-200.000	-0.007	0.098
-194.246	-67.098	-0.069	-0.027
-193.231	-200.000	0.017	0.077
-192.217	-200.000	0.007	-0.061
-191.202	-192.243	0.075	-0.001
-190.187	-200.000	-0.016	-0.136
-189.173	-140.924	0.079	0.008
-188.158	800.000	0.031	-0.100
-187.144	-200.000	0.041	-0.407
-186.129	191.718	0.205	0.306
-185.114	-200.000	0.012	0.389
-184.100	-52.391	-0.156	-0.071
-183.085	6.958	0.255	0.188
-182.071	277.454	-0.047	-0.083
-181.056	-200.000	-0.070	-0.439
-180.042	800.000	0.091	0.284
-179.027	-67.590	0.233	-0.090
-178.012	39.739	0.203	-0.180
-176.998	22.050	-0.134	-0.109
-175.983	-181.431	0.177	0.003
-174.969	124.774	0.082	-0.102
-173.954	-200.000	-0.024	-0.264
-172.939	-200.000	0.039	0.259
-171.925	-192.510	0.308	0.003
-170.910	78.647	0.180	0.190
-169.896	-200.000	0.017	-0.309
-168.881	-121.777	0.096	0.016
-167.866	-42.713	-0.121	-0.061
-166.852	800.000	-0.012	-0.038
-165.837	46.461	0.113	0.104
-164.823	-53.378	0.177	0.080
-163.808	225.440	-0.060	0.096
-162.793	-72.031	0.151	0.055
-161.779	800.000	0.067	0.214
-160.764	-46.057	0.322	-0.157
-159.750	466.512	0.097	0.215
-158.735	-200.000	0.026	0.162
-157.720	223.559	0.032	0.051
-156.706	-200.000	0.016	-0.404
-155.691	74.322	0.091	-0.095
-154.677	-40.162	-0.169	0.087
-153.662	125.207	0.218	0.272
-152.647	-100.581	0.576	0.141
-151.633	-200.000	0.028	0.245
-150.618	-88.469	0.034	0.010
-149.604	575.192	0.108	0.261
-148.589	156.218	0.192	0.262
-147.574	800.000	-0.079	0.285
-146.560	177.349	-0.288	-0.415
-145.545	-81.595	0.100	-0.032
-144.531	361.922	-0.105	0.208
-143.516	-89.371	0.061	0.018
-142.502	-172.386	-0.348	-0.011
-141.487	334.679	0.088	-0.168
-140.472	11.683	0.262	-0.199
-139.458	-73.214	0.120	-0.044
-138.443	-200.000	0.002	-0.290
-137.429	212.337	0.115	-0.179
-136.414	-134.673	-0.084	0.010
-135.399	47.749	0.148	0.137
-134.385	800.000	-0.020	0.079
-133.370	-72.790	0.102	-0.037
-132.356	219.554	0.042	-0.066
-131.341	123.929	0.248	-0.308
-130.326	-42.064	0.192	0.097
-129.312	-34.280	0.149	-0.081
-128.297	7.142	0.134	-0.099
-127.283	515.947	-0.038	0.087
-126.268	345.394	-0.123	0.238
-125.253	-200.000	0.046	-0.224
-124.239	-106.351	0.061	0.014
-123.224	-200.000	-0.013	0.078
-122.210	-200.000	-0.010	0.336
