DTS Sentinel unit serial number:	SN413079Multiplexer serial number:	ORYXHardware model number:	OX4-SRSoftware version number:	ORYX F/W v4.00 Oryx Data Collector v3.7.2.0data status	okinstallation	princeton_trtdifferential loss correction	single-endedforward channel	channel 3reverse channel	N/Adate	2019/09/14time	00:24:34forward acquisition time	60.00reverse acquisition time	0.00gamma	496.2192k internal	0.2341k external	0.2341temperature offset calibration	1.0056default loss term (dB/km)	0.3790temperature slope calibration	1.0000multiplexer offset coefficient	1.0000multiplexer slope coefficient	1.0000fibre end	0.00T internal ref (°C)	26.50T ext. ref 1 (°C)	3.17T ext. ref 2 (°C)	21.31length (m)	temperature (°C)	Stokes	anti-Stokes-747.200	-127.131	0.196	0.029
-746.185	60.035	-0.306	0.303
-745.171	15.141	-0.086	0.068
-744.156	-78.350	0.168	-0.058
-743.142	1.930	0.063	0.046
-742.127	-167.136	0.072	0.003
-741.112	273.845	0.111	-0.197
-740.098	-49.351	-0.302	0.144
-739.083	-200.000	0.053	-0.387
-738.069	-88.090	-0.479	0.144
-737.054	136.339	-0.056	0.073
-736.039	437.275	0.176	-0.384
-735.025	-200.000	0.107	0.607
-734.010	-56.210	0.219	0.098
-732.996	75.411	0.107	0.113
-731.981	34.250	-0.227	0.199
-730.966	-33.862	0.321	0.177
-729.952	-64.807	0.207	0.084
-728.937	56.396	-0.296	-0.288
-727.923	85.542	-0.261	-0.287
-726.908	49.083	-0.167	-0.157
-725.894	121.474	-0.251	0.314
-724.879	-14.553	-0.130	0.084
-723.864	310.578	0.115	-0.215
-722.850	-129.264	-0.182	-0.025
-721.835	8.230	0.121	-0.091
-720.821	-94.683	0.351	-0.095
-719.806	62.598	0.184	0.184
-718.791	60.245	-0.099	-0.098
-717.777	-154.426	-0.358	-0.024
-716.762	800.000	0.047	-0.174
-715.748	-12.879	-0.044	0.028
-714.733	-200.000	0.014	-0.137
-713.718	-46.188	-0.159	0.079
-712.704	-52.408	0.193	-0.089
-711.689	-200.000	-0.026	-0.416
-710.675	-96.077	-0.055	-0.015
-709.660	194.015	-0.117	-0.177
-708.645	-89.166	-0.179	0.053
-707.631	-51.257	0.053	-0.025
-706.616	800.000	-0.081	-0.282
-705.602	54.707	-0.124	-0.120
-704.587	-99.196	-0.122	-0.031
-703.572	-85.097	-0.202	0.063
-702.558	-185.289	-0.055	-0.001
-701.543	85.302	-0.084	0.092
-700.529	-45.426	0.103	0.051
-699.514	129.676	0.104	-0.133
-698.499	106.761	-0.035	-0.042
-697.485	-147.934	-0.296	-0.025
-696.470	-200.000	-0.015	-0.490
-695.456	79.564	0.110	-0.118
-694.441	-116.144	0.209	0.039
-693.426	-183.515	-0.222	0.004
-692.412	-200.000	-0.014	-0.116
-691.397	202.308	-0.071	-0.109
-690.383	-8.646	0.182	-0.122
-689.368	74.445	-0.422	-0.443
-688.354	800.000	-0.043	0.164
-687.339	-195.061	0.354	-0.003
-686.324	800.000	0.048	-0.177
-685.310	-180.293	0.332	0.007
-684.295	134.133	0.017	-0.023
-683.281	0.261	0.180	-0.129
-682.266	-84.809	-0.058	0.018
-681.251	-53.195	-0.235	-0.108
-680.237	-35.793	0.081	0.044
-679.222	-71.278	-0.283	0.106
-678.208	187.522	-0.199	-0.297
-677.193	162.077	-0.130	0.182
-676.178	-200.000	-0.011	0.072
-675.164	-200.000	-0.015	-0.145
-674.149	800.000	-0.087	-0.351
-673.135	-0.063	-0.136	0.097
-672.120	219.074	-0.208	-0.332
-671.105	723.664	0.123	-0.327
-670.091	492.620	0.118	-0.271
-669.076	81.242	-0.091	-0.098
-668.062	800.000	-0.044	-0.139
-667.047	-200.000	0.026	0.122
-666.032	800.000	0.047	0.131
-665.018	58.738	0.137	0.135
-664.003	-200.000	0.011	-0.093
-662.989	759.942	0.038	-0.102
-661.974	-138.791	0.105	0.011
-660.959	-4.364	-0.112	-0.077
-659.945	282.055	0.154	-0.276
-658.930	-38.717	-0.157	0.083
-657.916	81.362	0.080	-0.086
-656.901	170.592	-0.206	-0.294
-655.886	235.280	-0.117	-0.193
-654.872	-98.712	0.238	-0.061
-653.857	-99.538	0.209	0.052
-652.843	-200.000	-0.031	0.261
-651.828	-95.732	-0.120	0.032
-650.814	508.344	-0.039	0.091
-649.799	-200.000	-0.006	0.199
-648.784	-77.641	0.019	0.006
-647.770	-107.508	0.179	0.039
-646.755	-109.453	-0.178	-0.038
-645.741	792.785	-0.103	-0.282
-644.726	-97.374	-0.069	-0.018
-643.711	19.728	0.151	-0.122
-642.697	-119.285	0.120	0.021
-641.682	184.815	-0.067	0.099
-640.668	-200.000	-0.015	0.169
-639.653	619.209	0.161	-0.405
-638.638	74.470	0.125	-0.131
-637.624	37.761	0.151	-0.133
-636.609	-20.989	-0.111	-0.068
-635.595	152.693	-0.251	-0.343
-634.580	-200.000	-0.021	-0.229
-633.565	-200.000	-0.023	-0.198
-632.551	199.509	0.107	-0.164
-631.536	97.777	0.117	0.134
-630.522	600.599	-0.046	0.113
-629.507	-200.000	-0.012	0.129
-628.492	-168.152	0.219	-0.008
-627.478	728.149	0.068	0.180
-626.463	599.276	-0.068	0.169
-625.449	476.669	0.089	-0.200
-624.434	-200.000	0.028	-0.250
-623.419	538.786	0.098	0.233
-622.405	427.201	-0.074	-0.159
-621.390	-76.767	-0.231	0.081
-620.376	530.970	-0.095	0.225
-619.361	-200.000	0.020	0.118
-618.346	63.758	0.257	-0.257
-617.332	202.794	-0.128	-0.197
-616.317	-115.339	0.132	-0.025
-615.303	-59.412	0.198	-0.085
-614.288	-60.297	-0.337	0.143
-613.273	712.042	-0.065	-0.173
-612.259	-200.000	-0.041	0.211
-611.244	-200.000	0.036	-0.322
-610.230	135.165	0.188	0.244
-609.215	-200.000	0.016	0.388
-608.201	-69.149	-0.248	0.095
-607.186	-23.920	-0.121	0.072
-606.171	-124.289	-0.092	-0.014
-605.157	163.237	-0.098	0.137
-604.142	7.312	-0.132	0.098
-603.128	800.000	-0.060	-0.246
-602.113	22.345	-0.166	-0.136
-601.098	-200.000	-0.055	-0.450
-600.084	-111.495	0.067	0.014
-599.069	74.394	-0.132	0.138
-598.055	-166.373	0.139	-0.006
-597.040	206.696	-0.084	0.130
-596.025	-200.000	-0.030	0.190
-595.011	291.123	0.086	0.155
-593.996	-14.552	0.069	0.044
-592.982	-97.700	0.165	-0.043
-591.967	-200.000	-0.050	-0.263
-590.952	262.613	0.085	-0.148
-589.938	33.756	-0.014	0.012
-588.923	770.840	0.063	0.172
-587.909	15.645	0.161	0.126
-586.894	46.918	0.148	0.137
-585.879	105.772	0.119	-0.141
-584.865	-60.066	-0.120	-0.051
-583.850	800.000	0.056	-0.242
-582.836	386.395	-0.114	-0.234
-581.821	-110.321	-0.259	0.054
-580.806	-35.916	0.337	-0.182
-579.792	-143.449	0.176	-0.017
-578.777	40.659	0.262	0.235
-577.763	746.002	0.075	-0.202
-576.748	-56.732	-0.515	-0.227
-575.733	170.629	-0.101	-0.144
-574.719	166.088	-0.093	0.131
-573.704	-118.802	0.050	0.009
-572.690	-200.000	0.024	0.351
-571.675	-200.000	-0.005	0.021
-570.661	-200.000	0.036	-0.301
-569.646	-41.755	0.250	0.128
-568.631	70.887	0.320	-0.329
-567.617	179.177	-0.048	-0.070
-566.602	-162.761	-0.345	0.017
-565.588	97.640	0.072	0.083
-564.573	-84.224	-0.165	-0.052
-563.558	-165.398	0.266	-0.012
-562.544	93.533	-0.174	-0.196
-561.529	289.192	-0.121	0.218
-560.515	520.074	0.036	0.084
-559.500	800.000	0.041	0.150
-558.485	313.879	-0.172	-0.323
-557.471	800.000	-0.087	-0.291
-556.456	0.928	-0.430	-0.306
-555.442	28.242	-0.049	0.041
-554.427	194.754	0.092	-0.138
-553.412	20.083	-0.102	-0.082
-552.398	18.753	-0.325	-0.259
-551.383	346.123	0.147	0.288
-550.369	20.928	0.124	0.100
-549.354	-200.000	0.006	0.211
-548.339	800.000	0.017	-0.061
-547.325	298.720	0.039	-0.071
-546.310	-194.967	-0.180	0.001
-545.296	-150.066	0.263	-0.020
-544.281	-96.877	0.118	-0.031
-543.266	188.182	-0.175	-0.261
-542.252	-160.710	0.228	0.012
-541.237	173.514	-0.080	-0.115
-540.223	104.021	-0.103	0.120
-539.208	-79.774	-0.318	0.107
-538.193	110.264	0.211	0.252
-537.179	113.139	-0.282	0.340
-536.164	-162.240	0.041	-0.002
-535.150	-22.167	-0.217	0.131
-534.135	-166.730	-0.306	-0.013
-533.121	-78.435	0.262	0.089
-532.106	7.615	-0.153	0.114
-531.091	-30.908	0.355	0.199
-530.077	-11.559	-0.326	0.213
-529.062	-200.000	0.041	-0.286
-528.048	-200.000	-0.019	0.132
-527.033	193.024	-0.058	-0.087
-526.018	-80.897	-0.157	-0.052
-525.004	-166.263	0.130	0.005
-523.989	-200.000	-0.022	0.131
-522.975	43.941	-0.309	0.281
-521.960	216.341	0.095	0.151
-520.945	-63.231	0.189	0.078
-519.931	663.197	-0.096	-0.246
-518.916	104.512	-0.148	0.173
-517.902	387.464	-0.085	0.175
-516.887	10.325	0.074	0.056
-515.872	-189.626	-0.437	-0.005
-514.858	64.807	0.300	0.301
-513.843	-10.317	-0.051	-0.033
-512.829	66.369	-0.186	0.188
-511.814	-32.454	0.333	0.184
-510.799	69.953	-0.126	-0.129
-509.785	-200.000	-0.045	-0.270
-508.770	-118.369	0.333	0.059
-507.756	741.240	-0.050	-0.134
-506.741	-106.019	0.160	0.036
-505.726	-200.000	-0.038	0.261
-504.712	113.014	0.069	0.083
-503.697	800.000	-0.100	0.419
-502.683	-167.836	0.200	0.008
-501.668	-19.454	-0.226	-0.139
-500.653	537.985	-0.105	0.247
-499.639	90.139	0.071	-0.079
-498.624	-200.000	-0.040	-0.544
-497.610	-200.000	0.065	-0.340
-496.595	-122.458	-0.370	0.060
-495.581	-121.946	-0.087	-0.014
-494.566	123.274	-0.101	-0.125
-493.551	154.153	-0.180	0.246
-492.537	-37.824	0.360	0.190
-491.522	237.825	0.164	-0.270
-490.508	383.369	0.048	-0.098
-489.493	800.000	-0.062	-0.180
-488.478	-23.157	-0.386	-0.231
-487.464	54.996	-0.108	-0.104
-486.449	-200.000	0.002	-0.081
-485.435	-200.000	0.039	0.213
-484.420	-28.959	0.196	0.112
-483.405	117.114	-0.137	-0.167
-482.391	49.515	0.071	-0.066
-481.376	-41.214	0.042	0.021
-480.362	76.007	-0.197	0.206
-479.347	129.806	0.168	0.213
-478.332	-188.314	0.128	0.002
-477.318	-200.000	-0.024	-0.222
-476.303	-141.664	-0.361	0.036
-475.289	76.598	0.306	-0.322
-474.274	-113.898	0.230	-0.044
-473.259	103.058	-0.161	0.187
-472.245	-5.482	0.336	-0.229
-471.230	-137.118	-0.438	0.050
-470.216	419.267	-0.190	-0.404
-469.201	-200.000	0.001	-0.027
-468.186	129.455	-0.195	0.247
-467.172	-21.270	0.229	-0.139
-466.157	77.165	0.354	-0.373
-465.143	-39.277	0.446	-0.232
-464.128	-200.000	0.008	0.040
-463.113	-37.642	-0.064	0.034
-462.099	-121.957	-0.197	0.032
-461.084	-28.890	-0.297	0.169
-460.070	19.878	-0.158	0.126
-459.055	800.000	-0.085	0.265
-458.040	325.727	-0.070	0.132
-457.026	140.081	0.394	-0.515
-456.011	126.007	0.122	-0.153
-454.997	-200.000	0.035	0.448
-453.982	116.850	-0.033	-0.040
-452.968	319.130	0.109	0.206
-451.953	-74.658	-0.086	0.031
-450.938	800.000	-0.059	-0.176
-449.924	-183.861	0.630	-0.011
-448.909	-173.202	0.195	-0.006
-447.895	-47.042	0.287	-0.139
-446.880	800.000	-0.036	-0.101
-445.865	91.576	0.028	-0.031
-444.851	469.277	0.177	-0.393
-443.836	11.027	-0.283	-0.215
-442.822	157.032	-0.109	-0.149
-441.807	72.903	-0.161	0.167
-440.792	-161.744	-0.155	-0.008
-439.778	223.040	-0.075	0.120
-438.763	19.052	0.140	0.111
-437.749	800.000	-0.058	0.210
-436.734	-166.328	-0.257	0.011
-435.719	-200.000	0.007	0.035
-434.705	-200.000	0.067	0.530
-433.690	-200.000	0.007	0.170
-432.676	179.187	0.245	-0.355
-431.661	101.178	-0.104	-0.120
-430.646	-83.189	-0.039	-0.012
-429.632	7.659	-0.125	-0.093
-428.617	373.646	0.125	-0.252
-427.603	-102.477	-0.129	-0.031
-426.588	-95.513	0.258	-0.069
-425.573	-4.402	0.089	0.061
-424.559	-200.000	0.010	0.064
-423.544	792.410	0.048	0.132
-422.530	350.487	0.194	-0.380
-421.515	211.730	-0.026	0.041
-420.500	-137.172	-0.372	0.042
-419.486	-96.979	0.044	-0.011
-418.471	-87.195	0.173	0.052
-417.457	-19.024	-0.084	-0.051
-416.442	142.091	-0.273	-0.359
-415.428	-184.259	0.216	0.004
-414.413	-92.197	-0.293	0.082
-413.398	110.973	0.079	0.094
-412.384	-52.723	0.060	0.027
-411.369	-200.000	0.061	-0.429
-410.355	53.531	0.079	-0.075
-409.340	-51.897	-0.307	-0.141
-408.325	-76.311	0.261	0.091
-407.311	176.893	0.070	-0.101
-406.296	-200.000	-0.005	-0.060
-405.282	-61.531	0.078	-0.032
-404.267	-77.213	-0.350	-0.121
-403.252	-48.223	-0.094	-0.045
-402.238	-200.000	-0.005	-0.247
-401.223	168.936	0.045	-0.063
-400.209	139.271	0.149	0.194
-399.194	106.045	-0.164	0.192
-398.179	32.817	-0.189	0.162
-397.165	-17.137	-0.142	-0.088
-396.150	800.000	-0.111	0.389
-395.136	-18.464	-0.163	0.100
-394.121	27.391	0.121	0.100
-393.106	305.017	-0.117	0.214
-392.092	-200.000	-0.026	0.125
-391.077	800.000	-0.106	-0.318
-390.063	66.790	0.164	-0.165
-389.048	-150.942	-0.030	-0.002
-388.033	-61.387	0.293	0.122
-387.019	-99.251	-0.103	0.026
-386.004	-73.760	-0.296	-0.107
-384.990	486.107	0.075	0.170
-383.975	-31.975	0.240	-0.133
-382.960	800.000	0.108	-0.305
-381.946	-200.000	-0.023	0.198
-380.931	-82.100	0.274	0.088
-379.917	-55.901	-0.392	-0.173
-378.902	-59.391	0.060	0.026
-377.888	466.216	-0.007	0.015
-376.873	-200.000	0.018	0.115
-375.858	69.883	-0.193	-0.196
-374.844	-66.978	0.076	0.029
-373.829	-20.986	0.260	0.157
-372.815	800.000	0.104	-0.357
-371.800	169.524	0.118	-0.167
-370.785	-200.000	0.012	0.201
-369.771	15.787	-0.219	-0.170
-368.756	187.284	-0.072	0.106
-367.742	-15.130	0.317	-0.201
-366.727	800.000	-0.043	0.154
-365.712	-88.956	0.176	0.051
-364.698	-9.154	0.128	-0.085
-363.683	-200.000	0.065	0.283
-362.669	167.280	-0.204	0.286
-361.654	109.223	0.196	0.232
-360.639	-83.302	0.149	0.047
-359.625	-64.822	0.373	0.149
-358.610	-200.000	0.021	-0.249
-357.596	-200.000	-0.045	-0.369
-356.581	326.824	0.078	0.147
-355.566	-84.143	-0.083	-0.026
-354.552	-200.000	-0.005	0.045
-353.537	186.961	0.044	-0.065
-352.523	-200.000	-0.060	0.276
-351.508	272.951	0.127	0.222
-350.493	-200.000	0.007	-0.139
-349.479	241.747	0.135	-0.222
-348.464	-32.570	0.159	-0.087
-347.450	-61.381	-0.106	-0.044
-346.435	-22.707	-0.069	-0.041
-345.420	-2.654	0.065	-0.045
-344.406	45.434	0.252	-0.229
-343.391	-200.000	-0.014	0.230
-342.377	800.000	0.048	0.151
-341.362	-81.602	0.254	0.082
-340.348	158.163	-0.066	0.090
-339.333	41.815	-0.274	0.245
-338.318	-109.595	0.233	-0.049
-337.304	288.764	-0.043	-0.077
-336.289	-200.000	0.005	0.097
-335.275	-105.937	-0.285	0.063
-334.260	393.467	-0.094	-0.193
-333.245	-59.725	-0.151	0.064
-332.231	563.537	0.136	0.325
-331.216	800.000	-0.070	0.191
-330.202	-126.508	0.277	-0.041
-329.187	-110.818	-0.443	-0.090
-328.172	-200.000	-0.021	-0.284
-327.158	800.000	-0.099	0.327
-326.143	800.000	0.104	-0.292
-325.129	35.593	0.351	-0.304
-324.114	95.784	0.207	-0.233
-323.099	105.682	0.050	-0.058
-322.085	800.000	-0.073	-0.306
-321.070	725.073	0.064	0.168
-320.056	-141.179	0.183	-0.018
-319.041	-10.880	-0.202	-0.131
-318.026	-112.067	0.221	-0.044
-317.012	-92.202	0.180	-0.050
-315.997	-146.464	0.106	-0.009
-314.983	38.874	0.129	-0.114
-313.968	-86.230	-0.365	0.111
-312.953	-200.000	-0.020	0.098
-311.939	-200.000	0.035	-0.172
-310.924	-184.101	-0.120	0.002
-309.910	248.072	0.091	0.152
-308.895	-46.031	-0.315	0.153
-307.880	-17.059	-0.136	0.085
-306.866	-200.000	0.027	0.201
-305.851	101.130	0.109	-0.125
-304.837	681.068	-0.126	0.323
-303.822	-35.733	0.065	-0.035
-302.807	-107.112	-0.189	-0.041
-301.793	7.762	-0.215	0.159
-300.778	-200.000	0.344	0.000
-299.764	-127.701	0.133	0.019
-298.749	-200.000	-0.014	-0.186
-297.735	364.953	-0.050	0.099
-296.720	588.748	0.140	0.339
-295.705	-200.000	-0.004	0.021
-294.691	-9.210	-0.195	0.129
-293.676	32.528	-0.186	0.158
-292.662	-200.000	-0.026	0.179
-291.647	124.567	-0.102	0.126
-290.632	-200.000	0.006	-0.218
-289.618	160.899	-0.127	0.175
-288.603	-200.000	0.044	0.194
-287.589	-105.962	0.257	0.057
-286.574	-143.665	0.223	0.021
-285.559	-36.564	-0.279	0.148
-284.545	214.987	-0.049	0.076
-283.530	-72.736	-0.171	-0.062
-282.516	-119.331	-0.311	0.053
-281.501	180.315	0.100	-0.145
-280.486	178.467	0.063	-0.091
-279.472	800.000	-0.057	-0.240
-278.457	-200.000	-0.007	0.219
-277.443	-5.344	-0.204	0.138
-276.428	-28.125	-0.097	0.055
-275.413	-152.930	0.118	-0.008
-274.399	-150.828	0.125	-0.009
-273.384	35.427	0.383	0.331
-272.370	-200.000	0.008	-0.208
-271.355	-118.728	0.188	-0.033
-270.340	173.060	0.051	-0.072
-269.326	-113.535	-0.151	0.029
-268.311	162.968	-0.060	-0.083
-267.297	-200.000	0.039	-0.344
-266.282	-57.173	0.150	0.065
-265.267	800.000	-0.034	-0.141
-264.253	800.000	0.073	-0.232
-263.238	156.501	-0.107	-0.146
-262.224	-76.663	-0.285	0.098
-261.209	-39.273	-0.041	-0.021
-260.195	-200.000	-0.001	-0.204
-259.180	275.306	-0.068	0.119
-258.165	-80.581	-0.213	-0.070
-257.151	155.803	0.056	-0.076
-256.136	-200.000	0.006	0.171
-255.122	195.576	-0.030	0.045
-254.107	-5.474	-0.256	0.173
-253.092	609.300	-0.117	0.287
-252.078	800.000	-0.023	0.067
-251.063	97.293	-0.236	0.266
-250.049	-31.496	0.201	0.111
-249.034	65.649	0.230	-0.229
-248.019	-8.510	-0.153	-0.101
-247.005	707.395	0.032	0.083
-245.990	-81.286	0.204	0.066
-244.976	-85.295	0.004	0.001
-243.961	-134.871	0.472	-0.056
-242.946	330.574	-0.156	0.296
-241.932	-200.000	0.049	-0.223
-240.917	-93.508	0.294	-0.080
-239.903	800.000	0.091	0.276
-238.888	-176.704	0.054	-0.001
-237.873	800.000	-0.043	0.150
-236.859	134.106	0.126	0.160
-235.844	143.147	0.288	-0.377
-234.830	-200.000	-0.012	0.078
-233.815	-21.228	0.366	0.220
-232.800	-135.335	-0.226	-0.027
-231.786	-200.000	0.002	-0.042
-230.771	-200.000	0.048	-0.330
-229.757	800.000	0.048	-0.176
-228.742	-105.381	-0.248	0.055
-227.727	234.608	0.197	0.319
-226.713	508.145	-0.156	0.355
-225.698	-125.560	-0.066	0.010
-224.684	800.000	0.093	0.270
-223.669	-200.000	0.050	-0.277
-222.655	8.314	0.140	0.104
-221.640	323.440	0.050	-0.094
-220.625	258.459	-0.230	-0.389
-219.611	-70.670	0.106	0.039
-218.596	800.000	-0.087	-0.246
-217.582	5.181	-0.223	-0.161
-216.567	355.376	-0.058	-0.114
-215.552	-112.886	-0.303	0.059
-214.538	800.000	-0.110	0.401
-213.523	118.688	-0.324	0.393
-212.509	800.000	-0.070	-0.275
-211.494	-87.547	-0.288	-0.086
-210.479	187.003	0.094	-0.137
-209.465	-90.349	0.317	-0.090
-208.450	-41.097	0.140	0.071
-207.436	800.000	-0.071	0.202
-206.421	-6.511	0.256	0.171
-205.406	2.840	0.325	0.232
-204.392	-120.397	-0.052	0.009
-203.377	-189.011	0.129	0.002
-202.363	648.336	-0.071	-0.179
-201.348	-10.509	0.187	0.121
-200.333	-87.916	-0.024	-0.007
-199.319	-200.000	0.004	0.034
-198.304	-82.841	0.257	-0.081
-197.290	-200.000	-0.013	0.068
-196.275	40.255	-0.120	0.106
-195.260	-200.000	0.018	0.253
-194.246	-24.291	0.237	0.139
-193.231	-151.492	0.172	0.012
-192.217	-200.000	0.006	-0.400
-191.202	-200.000	-0.028	0.319
-190.187	-20.600	-0.186	0.112
-189.173	-81.275	0.218	-0.070
-188.158	-167.066	-0.164	-0.007
-187.144	138.349	-0.070	-0.090
-186.129	-123.981	-0.097	0.015
-185.114	110.050	0.154	-0.181
-184.100	301.017	0.072	0.130
-183.085	-200.000	0.033	0.236
-182.071	800.000	-0.072	-0.261
-181.056	-120.365	0.325	-0.054
-180.042	216.626	-0.063	-0.098
-179.027	59.557	-0.131	-0.127
-178.012	-200.000	-0.348	0.001
-176.998	113.735	-0.087	-0.104
-175.983	800.000	0.028	0.097
-174.969	-44.991	0.139	0.068
-173.954	-127.654	-0.218	0.031
-172.939	18.812	0.201	0.158
-171.925	-28.160	0.243	0.137
-170.910	322.962	-0.082	0.153
-169.896	-17.268	-0.194	-0.120
-168.881	-32.048	-0.361	0.198
-167.866	-79.551	-0.321	-0.106
-166.852	-137.356	-0.091	0.010
-165.837	-74.638	0.213	0.075
-164.823	-142.024	-0.174	-0.017
-163.808	-200.000	-0.025	0.131
-162.793	213.625	-0.055	-0.085
-161.779	-200.000	-0.001	-0.168
-160.764	-200.000	0.007	0.109
-159.750	800.000	0.025	-0.077
-158.735	-114.784	0.189	0.035
-157.720	-46.711	0.048	0.023
-156.706	-122.693	0.170	-0.027
-155.691	3.028	0.097	-0.069
-154.677	-200.000	-0.035	0.247
-153.662	-3.842	-0.375	0.255
-152.647	384.954	0.054	-0.110
-151.633	800.000	0.084	-0.276
-150.618	-36.004	0.208	-0.110
-149.604	-53.508	0.240	0.108
-148.589	-148.044	0.281	0.023
-147.574	70.265	-0.050	-0.051
-146.560	800.000	0.116	0.399
-145.545	-95.505	0.227	0.060
-144.531	111.819	0.183	0.216
-143.516	17.672	-0.094	-0.073
-142.502	-200.000	0.004	-0.033
-141.487	-107.186	0.274	-0.059
-140.472	-200.000	-0.003	-0.483
-139.458	-200.000	0.009	-0.122
-138.443	-200.000	0.024	0.233
-137.429	-104.619	0.210	0.047
-136.414	-80.718	0.113	0.037
-135.399	-11.143	0.387	0.250
-134.385	181.594	-0.020	0.028
-133.370	800.000	-0.071	-0.242
-132.356	148.436	-0.045	0.059
-131.341	-200.000	0.025	0.120
-130.326	-6.700	-0.129	-0.086
-129.312	-200.000	-0.013	-0.234
-128.297	123.731	0.139	0.170
-127.283	-200.000	0.023	0.139
-126.268	538.006	-0.065	-0.150
-125.253	-86.778	0.090	-0.027
-124.239	93.135	0.324	-0.359
-123.224	2.580	0.345	-0.245
-122.210	-48.412	-0.128	0.060
-121.195	-200.000	-0.003	-0.138
