DTS Sentinel unit serial number:	SN413079Multiplexer serial number:	ORYXHardware model number:	OX4-SRSoftware version number:	ORYX F/W v4.00 Oryx Data Collector v3.7.2.0data status	okinstallation	princeton_trtdifferential loss correction	single-endedforward channel	channel 3reverse channel	N/Adate	2019/09/16time	06:16:35forward acquisition time	60.00reverse acquisition time	0.00gamma	496.2192k internal	0.2335k external	0.2335temperature offset calibration	0.9960default loss term (dB/km)	0.3790temperature slope calibration	1.0000multiplexer offset coefficient	1.0000multiplexer slope coefficient	1.0000fibre end	0.00T internal ref (°C)	27.44T ext. ref 1 (°C)	11.31T ext. ref 2 (°C)	21.71length (m)	temperature (°C)	Stokes	anti-Stokes-747.200	169.033	0.148	-0.213
-746.185	-200.000	0.010	0.280
-745.171	-200.000	0.019	0.129
-744.156	-111.374	0.194	-0.040
-743.142	-26.504	-0.188	-0.111
-742.127	-200.000	0.012	0.188
-741.112	3.703	-0.050	0.037
-740.098	264.973	-0.298	0.521
-739.083	-177.700	0.212	-0.005
-738.069	-40.240	-0.183	0.096
-737.054	-87.626	-0.322	-0.098
-736.039	-131.236	0.242	0.032
-735.025	27.151	0.287	0.242
-734.010	-136.978	-0.297	-0.034
-732.996	-200.000	0.063	-0.303
-731.981	-110.079	-0.239	0.050
-730.966	741.953	-0.048	0.130
-729.952	-55.233	-0.402	-0.182
-728.937	-200.000	-0.016	-0.173
-727.923	194.165	0.050	-0.076
-726.908	-69.739	-0.290	0.111
-725.894	99.116	-0.062	-0.072
-724.879	590.456	0.102	-0.252
-723.864	200.257	0.227	0.350
-722.850	-24.928	-0.083	0.050
-721.835	-200.000	0.034	-0.362
-720.821	800.000	-0.103	-0.448
-719.806	-179.414	-0.380	-0.008
-718.791	-200.000	-0.026	-0.241
-717.777	800.000	0.041	-0.168
-716.762	273.310	-0.087	-0.154
-715.748	-200.000	0.007	-0.067
-714.733	344.659	-0.027	0.054
-713.718	-27.146	-0.393	-0.230
-712.704	-200.000	0.330	0.002
-711.689	800.000	-0.143	-0.431
-710.675	-49.463	-0.214	-0.102
-709.660	-85.550	0.283	-0.088
-708.645	-200.000	0.027	-0.261
-707.631	-188.144	0.434	-0.006
-706.616	117.801	-0.158	0.196
-705.602	-113.955	0.262	-0.051
-704.587	-200.000	-0.035	-0.220
-703.572	141.359	-0.060	0.080
-702.558	506.659	-0.235	-0.548
-701.543	110.753	0.229	0.277
-700.529	-43.261	-0.161	0.082
-699.514	7.858	0.216	0.162
-698.499	-69.834	-0.214	0.082
-697.485	-200.000	-0.027	-0.187
-696.470	-37.422	-0.031	0.016
-695.456	164.621	0.053	-0.075
-694.441	384.349	-0.135	-0.278
-693.426	-200.000	-0.001	-0.097
-692.412	-9.430	0.136	0.091
-691.397	203.380	0.177	0.274
-690.383	800.000	0.059	-0.247
-689.368	800.000	-0.091	0.354
-688.354	182.953	-0.240	0.355
-687.339	160.673	0.062	-0.087
-686.324	269.469	0.080	0.141
-685.310	137.550	-0.128	0.168
-684.295	-200.000	-0.064	-0.284
-683.281	90.680	-0.018	0.020
-682.266	78.587	-0.203	-0.217
-681.251	800.000	-0.054	-0.219
-680.237	-151.987	-0.293	0.021
-679.222	292.716	0.097	0.177
-678.208	26.455	-0.092	0.077
-677.193	-76.679	-0.086	-0.030
-676.178	-200.000	0.008	-0.312
-675.164	-36.413	-0.230	-0.124
-674.149	123.693	-0.126	-0.159
-673.135	-200.000	-0.001	0.094
-672.120	-131.035	-0.150	-0.020
-671.105	99.860	0.077	-0.089
-670.091	-28.503	-0.335	0.194
-669.076	-200.000	-0.005	0.024
-668.062	-200.000	0.005	-0.033
-667.047	-95.584	0.107	0.029
-666.032	12.021	-0.144	-0.111
-665.018	4.761	0.256	0.188
-664.003	482.202	0.045	0.103
-662.989	-145.858	-0.511	-0.045
-661.974	-50.067	-0.217	-0.103
-660.959	-70.727	0.338	0.128
-659.945	4.435	-0.240	0.176
-658.930	86.113	0.078	-0.086
-657.916	172.477	-0.197	0.283
-656.901	-65.331	-0.197	-0.079
-655.886	471.133	0.085	0.192
-654.872	800.000	-0.071	-0.237
-653.857	200.866	0.078	-0.120
-652.843	-62.715	-0.200	0.083
-651.828	444.649	0.071	0.157
-650.814	91.489	0.127	-0.143
-649.799	-135.358	-0.147	-0.018
-648.784	125.013	0.011	0.014
-647.770	-109.896	0.271	-0.057
-646.755	19.296	-0.197	-0.159
-645.741	0.531	0.089	0.063
-644.726	-50.287	0.120	-0.057
-643.711	511.604	-0.101	-0.235
-642.697	30.923	0.053	0.046
-641.682	33.448	0.216	-0.188
-640.668	-200.000	0.009	-0.156
-639.653	-50.160	-0.173	-0.082
-638.638	800.000	0.035	-0.141
-637.624	685.987	-0.026	-0.068
-636.609	-200.000	-0.074	0.456
-635.595	-100.963	0.189	0.046
-634.580	115.537	0.236	0.289
-633.565	25.989	0.082	0.069
-632.551	800.000	-0.047	0.190
-631.536	-6.899	-0.093	0.064
-630.522	38.794	-0.261	-0.233
-629.507	49.824	-0.185	-0.175
-628.492	-72.335	0.112	-0.042
-627.478	-200.000	0.031	-0.413
-626.463	51.849	-0.192	0.183
-625.449	640.934	0.097	-0.247
-624.434	54.481	0.196	0.189
-623.419	-200.000	0.042	-0.253
-622.405	117.085	-0.027	-0.033
-621.390	-135.095	0.279	0.034
-620.376	-99.936	-0.328	-0.082
-619.361	-126.622	-0.140	-0.021
-618.346	181.359	-0.097	-0.142
-617.332	-200.000	-0.003	-0.218
-616.317	-59.494	-0.159	0.068
-615.303	-200.000	0.005	-0.168
-614.288	0.817	-0.130	0.093
-613.273	362.571	0.119	-0.239
-612.259	40.556	-0.216	-0.195
-611.244	139.044	-0.164	-0.215
-610.230	11.508	-0.137	0.105
-609.215	-78.861	0.205	-0.070
-608.201	-200.000	0.002	0.011
-607.186	-63.973	0.518	0.212
-606.171	122.814	-0.147	-0.184
-605.157	-51.204	-0.155	0.072
-604.142	-108.132	-0.247	-0.053
-603.128	11.319	-0.211	-0.161
-602.113	-200.000	-0.013	0.117
-601.098	-200.000	0.039	0.323
-600.084	182.092	-0.115	-0.169
-599.069	123.886	-0.207	0.260
-598.055	-200.000	-0.010	-0.250
-597.040	-200.000	0.001	-0.108
-596.025	453.414	-0.165	-0.366
-595.011	136.908	-0.129	-0.168
-593.996	-162.080	-0.214	0.011
-592.982	30.947	0.104	-0.089
-591.967	-87.548	-0.322	0.097
-590.952	243.401	0.045	0.075
-589.938	18.289	0.196	-0.156
-588.923	-36.413	0.137	0.074
-587.909	120.694	0.122	-0.151
-586.894	800.000	0.067	0.208
-585.879	39.780	-0.120	-0.107
-584.865	-48.053	-0.169	-0.081
-583.850	800.000	-0.045	0.129
-582.836	144.709	-0.155	0.206
-581.821	105.278	-0.189	0.223
-580.806	-33.835	-0.306	-0.168
-579.792	-200.000	0.004	0.056
-578.777	-200.000	0.042	-0.511
-577.763	-92.969	0.225	-0.063
-576.748	-18.780	-0.115	0.071
-575.733	199.292	0.045	0.069
-574.719	-4.972	-0.110	-0.076
-573.704	800.000	-0.041	0.155
-572.690	-83.598	-0.172	-0.055
-571.675	319.961	-0.037	-0.070
-570.661	-77.824	0.070	-0.024
-569.646	-200.000	0.056	-0.401
-568.631	-39.202	0.148	-0.077
-567.617	317.897	0.115	0.218
-566.602	129.404	-0.236	0.300
-565.588	-28.293	0.332	-0.191
-564.573	379.834	-0.135	-0.277
-563.558	718.460	0.045	0.119
-562.544	-49.232	0.263	0.125
-561.529	367.584	0.073	0.148
-560.515	-200.000	0.000	0.347
-559.500	109.840	0.121	-0.145
-558.485	-34.347	0.210	0.115
-557.471	-46.066	-0.409	0.201
-556.456	20.400	0.448	0.361
-555.442	92.734	-0.224	0.252
-554.427	-81.966	0.162	-0.053
-553.412	-39.329	-0.278	-0.145
-552.398	74.922	-0.081	0.085
-551.383	-42.706	-0.156	0.079
-550.369	45.375	0.136	-0.125
-549.354	-108.387	-0.084	0.018
-548.339	16.294	0.091	-0.072
-547.325	147.663	0.032	-0.043
-546.310	354.944	0.038	-0.076
-545.296	800.000	0.030	0.104
-544.281	800.000	-0.083	0.315
-543.266	-198.899	0.012	0.000
-542.252	-76.803	-0.231	0.081
-541.237	-180.768	0.216	-0.004
-540.223	473.195	-0.023	-0.053
-539.208	-81.779	0.141	-0.046
-538.193	-97.776	-0.052	-0.013
-537.179	29.313	-0.246	-0.208
-536.164	-42.297	-0.071	-0.036
-535.150	-200.000	-0.017	-0.250
-534.135	-75.411	-0.401	-0.142
-533.121	0.603	0.211	0.150
-532.106	-168.535	-0.297	0.011
-531.091	133.319	0.097	0.125
-530.077	-200.000	-0.000	-0.058
-529.062	80.187	-0.124	-0.133
-528.048	88.044	-0.286	-0.316
-527.033	800.000	-0.053	0.149
-526.018	-7.568	0.086	0.058
-525.004	-124.805	0.179	-0.028
-523.989	-86.392	0.124	-0.038
-522.975	57.158	-0.174	0.169
-521.960	-104.672	-0.331	-0.076
-520.945	-92.400	-0.086	0.024
-519.931	800.000	0.065	0.268
-518.916	-200.000	0.017	-0.104
-517.902	-200.000	0.001	-0.213
-516.887	-60.007	0.345	-0.147
-515.872	-200.000	-0.117	-0.000
-514.858	-11.762	0.127	-0.083
-513.843	800.000	0.008	-0.026
-512.829	138.136	-0.230	0.300
-511.814	-200.000	-0.108	-0.558
-510.799	97.029	-0.146	0.167
-509.785	165.207	0.212	0.299
-508.770	-30.889	0.257	-0.144
-507.756	-68.654	0.146	0.056
-506.741	-76.232	0.165	-0.058
-505.726	579.779	0.124	0.303
-504.712	-63.345	0.214	0.088
-503.697	-200.000	-0.028	-0.384
-502.683	800.000	-0.092	0.261
-501.668	703.997	-0.058	-0.151
-500.653	800.000	-0.130	0.390
-499.639	-200.000	0.076	0.425
-498.624	430.633	0.082	-0.177
-497.610	57.525	0.061	-0.059
-496.595	-160.719	0.173	0.009
-495.581	-27.278	0.184	-0.107
-494.566	278.401	0.205	-0.364
-493.551	-64.002	0.280	-0.114
-492.537	134.449	-0.153	-0.197
-491.522	-200.000	0.007	-0.135
-490.508	-35.724	0.117	-0.063
-489.493	-200.000	-0.008	-0.410
-488.478	-89.535	0.170	0.050
-487.464	-151.415	0.230	-0.017
-486.449	-86.157	-0.418	-0.128
-485.435	46.611	-0.121	0.112
-484.420	-186.773	-0.111	0.002
-483.405	471.989	-0.083	-0.186
-482.391	-44.629	0.200	-0.099
-481.376	-200.000	0.033	0.448
-480.362	-200.000	-0.003	0.177
-479.347	-40.211	-0.023	-0.012
-478.332	-142.971	-0.255	0.025
-477.318	-44.488	-0.273	0.136
-476.303	-168.915	0.070	-0.003
-475.289	-200.000	0.007	-0.206
-474.274	-67.730	0.065	0.025
-473.259	307.998	0.159	-0.295
-472.245	-200.000	0.061	-0.421
-471.230	-12.352	-0.245	-0.159
-470.216	-200.000	-0.014	0.356
-469.201	-200.000	-0.028	-0.245
-468.186	-200.000	0.001	0.082
-467.172	-81.997	-0.094	0.030
-466.157	264.910	-0.109	-0.188
-465.143	800.000	0.034	0.107
-464.128	-122.389	-0.123	-0.020
-463.113	-65.177	-0.021	0.008
-462.099	-124.650	0.192	0.030
-461.084	32.135	0.108	-0.093
-460.070	800.000	-0.065	0.233
-459.055	-200.000	-0.047	0.494
-458.040	106.665	-0.119	0.141
-457.026	583.100	0.107	-0.260
-456.011	40.982	-0.196	-0.176
-454.997	-146.068	-0.184	-0.016
-453.982	-104.376	0.280	-0.064
-452.968	-35.115	-0.290	-0.157
-451.953	-175.355	0.477	-0.013
-450.938	-200.000	-0.020	0.175
-449.924	131.992	-0.097	0.124
-448.909	800.000	0.074	0.219
-447.895	487.875	-0.035	0.079
-446.880	-200.000	-0.010	-0.119
-445.865	-150.486	0.131	0.010
-444.851	-147.950	0.227	0.019
-443.836	-39.334	-0.069	-0.036
-442.822	-110.246	-0.036	0.007
-441.807	-56.562	-0.469	-0.206
-440.792	194.842	-0.083	0.125
-439.778	-51.085	0.074	-0.035
-438.763	285.862	-0.173	0.311
-437.749	-124.344	0.457	0.071
-436.734	-200.000	0.014	0.086
-435.719	-200.000	0.016	-0.148
-434.705	39.148	0.096	-0.085
-433.690	-200.000	-0.013	-0.214
-432.676	188.625	0.109	0.161
-431.661	-87.807	0.347	-0.104
-430.646	2.687	-0.176	-0.127
-429.632	800.000	-0.036	0.113
-428.617	-132.168	0.360	0.046
-427.603	800.000	-0.054	0.175
-426.588	95.878	-0.195	0.221
-425.573	-177.335	0.464	-0.011
-424.559	-127.428	-0.288	-0.042
-423.544	-146.825	-0.160	-0.014
-422.530	439.141	-0.093	-0.201
-421.515	800.000	-0.149	-0.561
-420.500	442.164	0.119	0.258
-419.486	-101.816	0.294	-0.071
-418.471	-59.364	-0.214	-0.091
-417.457	64.557	0.070	-0.070
-416.442	-200.000	0.016	-0.381
-415.428	-200.000	-0.003	0.215
-414.413	153.653	-0.095	0.129
-413.398	37.031	0.068	-0.060
-412.384	53.983	0.324	-0.309
-411.369	-2.297	0.350	-0.244
-410.355	173.108	0.071	0.102
-409.340	310.699	-0.117	-0.218
-408.325	-200.000	-0.009	0.041
-407.311	-200.000	0.059	-0.291
-406.296	669.306	0.026	0.066
-405.282	-17.178	-0.335	0.210
-404.267	-91.676	-0.216	-0.061
-403.252	647.163	0.053	0.136
-402.238	-200.000	-0.013	0.411
-401.223	-155.745	-0.195	0.012
-400.209	9.911	0.268	-0.201
-399.194	-191.663	0.338	0.003
-398.179	-136.964	0.498	-0.057
-397.165	779.671	-0.152	0.411
-396.150	9.955	0.037	-0.028
-395.136	-200.000	0.042	0.249
-394.121	601.346	-0.057	0.141
-393.106	800.000	-0.016	-0.061
-392.092	-200.000	0.016	-0.092
-391.077	-200.000	-0.045	0.199
-390.063	10.660	0.306	0.231
-389.048	298.107	0.086	0.157
-388.033	315.183	-0.095	0.178
-387.019	789.001	0.059	-0.159
-386.004	-41.792	-0.316	0.160
-384.990	-79.964	-0.097	0.032
-383.975	309.370	0.019	0.035
-382.960	-44.884	-0.040	-0.020
-381.946	499.924	-0.045	-0.102
-380.931	104.587	0.106	0.123
-379.917	-88.187	0.385	-0.114
-378.902	-138.373	-0.374	0.041
-377.888	-145.151	0.176	-0.016
-376.873	426.146	-0.046	-0.098
-375.858	-99.460	-0.103	-0.026
-374.844	34.903	0.090	-0.078
-373.829	-200.000	0.042	0.218
-372.815	66.425	0.093	-0.094
-371.800	-95.666	0.277	0.073
-370.785	117.808	0.249	0.303
-369.771	382.382	-0.101	-0.205
-368.756	188.964	0.095	-0.141
-367.742	-17.991	-0.226	-0.140
-366.727	800.000	-0.140	0.429
-365.712	307.702	0.184	0.340
-364.698	-200.000	-0.021	-0.162
-363.683	35.753	-0.164	0.143
-362.669	-80.239	0.185	-0.061
-361.654	-142.321	0.369	0.036
-360.639	374.421	0.137	-0.276
-359.625	69.961	0.130	-0.133
-358.610	-17.645	-0.272	0.169
-357.596	5.035	-0.213	-0.155
-356.581	726.507	0.037	-0.099
-355.566	119.052	0.116	0.142
-354.552	-108.558	-0.194	-0.041
-353.537	168.518	0.094	-0.132
-352.523	-26.407	0.112	0.065
-351.508	33.074	-0.135	0.116
-350.493	-19.121	-0.076	0.047
-349.479	-200.000	0.090	-0.526
-348.464	75.958	-0.058	-0.060
-347.450	-161.438	0.171	-0.009
-346.435	-14.973	0.183	0.116
-345.420	-180.713	-0.178	0.004
-344.406	41.635	0.377	-0.338
-343.391	-83.963	-0.288	-0.090
-342.377	229.704	-0.185	-0.299
-341.362	-21.326	0.234	-0.141
-340.348	24.066	0.202	0.165
-339.333	-200.000	0.011	-0.166
-338.318	2.663	0.216	-0.155
-337.304	602.012	0.051	0.126
-336.289	-200.000	0.014	-0.066
-335.275	77.476	0.292	0.308
-334.260	-98.689	-0.407	-0.103
-333.245	-200.000	-0.036	-0.159
-332.231	-4.144	-0.067	-0.046
-331.216	-34.887	-0.156	-0.084
-330.202	47.589	0.175	0.162
-329.187	-200.000	0.016	0.120
-328.172	4.725	-0.142	0.103
-327.158	721.419	-0.076	0.201
-326.143	254.677	0.116	0.196
-325.129	3.398	0.346	-0.249
-324.114	-0.995	-0.271	0.189
-323.099	-130.831	0.199	-0.026
-322.085	258.318	-0.036	0.061
-321.070	-200.000	-0.006	-0.031
-320.056	800.000	0.076	0.260
-319.041	-40.258	0.065	-0.033
-318.026	-40.663	0.195	0.100
-317.012	-14.054	0.145	0.092
-315.997	16.017	-0.064	-0.049
-314.983	-29.568	0.104	0.059
-313.968	457.013	-0.169	-0.371
-312.953	-12.620	0.170	-0.109
-311.939	-159.309	-0.170	-0.009
-310.924	51.051	0.196	-0.183
-309.910	-11.829	0.135	0.088
-308.895	275.196	-0.145	0.253
-307.880	-72.564	0.376	0.137
-306.866	-46.383	-0.108	0.052
-305.851	-124.772	0.201	-0.031
-304.837	97.198	0.213	0.241
-303.822	790.284	-0.105	0.284
-302.807	-30.149	0.264	-0.148
-301.793	-200.000	0.039	-0.272
-300.778	-200.000	0.007	0.107
-299.764	146.239	-0.114	-0.151
-298.749	-200.000	0.020	0.098
-297.735	-21.967	-0.359	0.215
-296.720	301.058	-0.208	-0.379
-295.705	-41.060	0.227	-0.116
-294.691	-102.354	0.373	-0.088
-293.676	388.043	0.061	-0.125
-292.662	34.561	0.274	0.236
-291.647	-200.000	-0.002	-0.179
-290.632	-81.738	-0.062	0.020
-289.618	-200.000	0.012	-0.347
-288.603	29.174	-0.267	-0.224
-287.589	-200.000	-0.041	-0.437
-286.574	-64.332	0.043	-0.017
-285.559	-64.040	0.090	0.036
-284.545	-89.545	-0.148	0.043
-283.530	-36.719	0.298	0.158
-282.516	-200.000	-0.078	0.353
-281.501	800.000	0.022	-0.096
-280.486	68.319	0.157	-0.159
-279.472	-86.027	-0.082	-0.025
-278.457	800.000	-0.094	0.324
-277.443	24.186	-0.254	0.207
-276.428	157.320	0.141	0.192
-275.413	276.090	0.058	0.102
-274.399	570.977	-0.031	0.074
-273.384	-44.685	-0.176	0.087
-272.370	625.918	0.047	-0.117
-271.355	-200.000	0.011	0.185
-270.340	-61.518	-0.202	-0.084
-269.326	-71.337	-0.161	-0.059
-268.311	-61.483	-0.242	0.100
-267.297	141.054	-0.077	-0.101
-266.282	257.612	-0.123	-0.209
-265.267	-200.000	0.015	0.112
-264.253	-48.905	0.021	-0.010
-263.238	-77.633	0.208	-0.071
-262.224	800.000	-0.035	-0.143
-261.209	-72.326	0.255	-0.093
-260.195	-37.569	0.192	0.101
-259.180	800.000	-0.104	0.362
-258.165	-130.843	0.147	0.019
-257.151	-41.802	0.288	0.146
-256.136	333.900	0.111	-0.212
-255.122	-200.000	0.007	0.062
-254.107	10.203	-0.181	0.136
-253.092	-117.174	-0.061	0.011
-252.078	124.807	-0.108	0.134
-251.063	-91.924	-0.027	-0.008
-250.049	-200.000	-0.033	0.421
-249.034	150.630	-0.057	-0.077
-248.019	204.474	-0.132	0.202
-247.005	-37.945	-0.243	0.127
-245.990	-200.000	-0.048	-0.318
-244.976	-200.000	-0.012	-0.068
-243.961	57.128	-0.164	-0.158
-242.946	-116.113	-0.216	0.040
-241.932	335.527	-0.243	0.464
-240.917	-52.689	0.079	-0.036
-239.903	35.180	-0.090	-0.078
-238.888	800.000	0.091	-0.329
-237.873	332.966	0.128	-0.245
-236.859	32.940	-0.109	-0.093
-235.844	596.231	-0.058	-0.143
-234.830	-200.000	-0.016	-0.218
-233.815	100.598	0.188	0.215
-232.800	-41.366	-0.178	-0.090
-231.786	-200.000	0.003	0.143
-230.771	-134.527	0.215	-0.026
-229.757	800.000	0.078	0.324
-228.742	-95.503	-0.171	0.045
-227.727	-200.000	0.004	-0.101
-226.713	-164.777	-0.290	0.013
-225.698	-133.386	0.449	0.056
-224.684	-35.102	0.171	0.092
-223.669	-200.000	0.039	0.310
-222.655	-200.000	0.008	0.312
-221.640	-83.284	-0.285	0.090
-220.625	16.936	0.021	-0.016
-219.611	39.186	-0.135	-0.118
-218.596	7.836	0.035	0.026
-217.582	-200.000	0.006	0.089
-216.567	159.776	0.160	0.219
-215.552	93.536	-0.158	-0.176
-214.538	-108.058	-0.064	-0.014
-213.523	-188.516	-0.197	0.002
-212.509	-47.483	-0.232	0.111
-211.494	800.000	-0.058	0.212
-210.479	167.692	0.128	0.178
-209.465	-141.875	-0.367	0.036
-208.450	135.397	-0.171	-0.219
-207.436	-68.235	-0.277	-0.106
-206.421	626.593	0.061	0.153
-205.406	-47.608	0.294	-0.140
-204.392	800.000	0.069	0.274
-203.377	-150.798	-0.113	-0.008
-202.363	-200.000	-0.021	-0.173
-201.348	198.426	-0.027	-0.040
-200.333	241.649	-0.111	-0.182
-199.319	-200.000	-0.053	0.256
-198.304	104.408	-0.138	0.160
-197.290	0.400	-0.126	-0.089
-196.275	-85.304	-0.245	0.075
-195.260	39.202	-0.126	0.111
-194.246	641.888	0.074	0.186
-193.231	-124.335	-0.270	-0.042
-192.217	92.869	0.110	-0.122
-191.202	-6.910	0.228	-0.152
-190.187	-200.000	-0.010	0.052
-189.173	-130.167	0.216	0.029
-188.158	800.000	0.126	0.461
-187.144	-6.438	-0.101	-0.068
-186.129	466.638	0.053	0.117
-185.114	12.197	0.183	0.138
-184.100	526.416	0.155	0.360
-183.085	10.997	0.231	0.173
-182.071	-71.632	0.082	0.030
-181.056	70.207	-0.189	0.192
-180.042	-107.902	0.372	-0.080
-179.027	-62.563	-0.226	-0.092
-178.012	800.000	0.075	-0.303
-176.998	16.688	-0.210	-0.163
-175.983	-200.000	-0.002	0.087
-174.969	-200.000	0.019	0.191
-173.954	14.963	0.169	-0.130
-172.939	-111.529	0.137	0.027
-171.925	-48.727	-0.190	-0.090
-170.910	-38.357	-0.204	-0.106
-169.896	476.109	0.052	0.114
-168.881	-9.225	0.172	0.113
-167.866	19.877	0.022	-0.017
-166.852	74.869	0.102	-0.105
-165.837	405.098	0.064	-0.132
-164.823	277.430	-0.104	0.183
-163.808	-73.092	-0.239	-0.086
-162.793	-60.681	-0.329	0.137
-161.779	286.299	0.103	0.183
-160.764	125.498	-0.037	-0.046
-159.750	43.895	-0.090	-0.081
-158.735	-200.000	-0.046	0.266
-157.720	-200.000	-0.011	0.160
-156.706	-200.000	-0.022	-0.160
-155.691	-200.000	-0.016	-0.200
-154.677	-136.352	-0.276	-0.032
-153.662	248.658	0.123	-0.204
-152.647	170.815	0.143	0.202
-151.633	676.827	-0.024	-0.061
-150.618	72.746	-0.107	-0.110
-149.604	-24.174	0.285	0.167
-148.589	226.026	0.124	-0.197
-147.574	115.989	-0.168	-0.202
-146.560	184.451	0.155	-0.226
-145.545	800.000	-0.065	0.238
-144.531	-17.973	-0.096	-0.059
-143.516	-0.480	-0.149	0.104
-142.502	40.423	0.311	0.275
-141.487	800.000	-0.133	0.400
-140.472	-71.095	0.202	-0.074
-139.458	-40.929	0.164	-0.083
-138.443	184.418	0.145	-0.211
-137.429	290.367	0.079	-0.140
-136.414	-112.230	-0.235	0.046
-135.399	-200.000	0.006	0.045
-134.385	-200.000	0.033	-0.207
-133.370	-93.739	0.124	-0.034
-132.356	77.262	0.197	0.205
-131.341	-200.000	0.022	0.099
-130.326	330.999	0.125	-0.237
-129.312	-200.000	0.024	0.152
-128.297	16.490	0.062	-0.048
-127.283	56.499	0.322	-0.307
-126.268	284.817	-0.062	-0.109
-125.253	44.734	-0.136	-0.123
-124.239	413.723	0.120	0.250
-123.224	-142.622	0.177	0.017
-122.210	800.000	-0.060	-0.178
-121.195	104.426	0.111	0.129
