DTS Sentinel unit serial number:	SN413079Multiplexer serial number:	ORYXHardware model number:	OX4-SRSoftware version number:	ORYX F/W v4.00 Oryx Data Collector v3.7.2.0data status	okinstallation	princeton_trtdifferential loss correction	single-endedforward channel	channel 3reverse channel	N/Adate	2019/09/18time	09:00:35forward acquisition time	60.00reverse acquisition time	0.00gamma	496.2192k internal	0.2339k external	0.2339temperature offset calibration	0.9945default loss term (dB/km)	0.3790temperature slope calibration	1.0000multiplexer offset coefficient	1.0000multiplexer slope coefficient	1.0000fibre end	0.00T internal ref (°C)	25.06T ext. ref 1 (°C)	0.24T ext. ref 2 (°C)	21.82length (m)	temperature (°C)	Stokes	anti-Stokes-747.200	-20.101	-0.166	-0.103
-746.185	133.990	0.172	0.223
-745.171	59.360	0.111	-0.109
-744.156	-200.000	-0.007	-0.073
-743.142	0.540	0.132	0.094
-742.127	-23.442	-0.163	0.098
-741.112	22.208	0.163	0.134
-740.098	-118.052	-0.186	0.033
-739.083	-63.356	-0.261	0.108
-738.069	532.963	0.169	0.401
-737.054	507.769	-0.090	-0.209
-736.039	-150.555	-0.042	0.003
-735.025	-200.000	0.027	0.137
-734.010	270.928	-0.148	-0.261
-732.996	-200.000	-0.041	-0.207
-731.981	-122.610	0.057	-0.009
-730.966	152.706	0.193	-0.264
-729.952	386.874	-0.049	-0.102
-728.937	800.000	-0.040	0.153
-727.923	20.337	-0.211	0.170
-726.908	-18.426	-0.194	-0.122
-725.894	-200.000	0.020	-0.291
-724.879	-200.000	-0.023	-0.124
-723.864	-200.000	-0.022	-0.170
-722.850	-31.251	0.182	0.103
-721.835	-200.000	-0.013	-0.250
-720.821	-200.000	-0.024	-0.382
-719.806	-52.437	0.408	-0.189
-718.791	-200.000	0.011	-0.079
-717.777	800.000	-0.061	0.217
-716.762	-97.338	-0.082	0.021
-715.748	-94.018	0.220	0.061
-714.733	-168.265	-0.253	0.010
-713.718	100.062	0.339	0.394
-712.704	-200.000	0.016	0.229
-711.689	-200.000	0.008	0.361
-710.675	-72.494	-0.283	0.105
-709.660	-188.350	-0.438	-0.006
-708.645	186.440	-0.176	-0.262
-707.631	-152.183	0.260	-0.019
-706.616	-64.477	-0.343	0.140
-705.602	-139.703	0.356	0.038
-704.587	52.120	0.016	-0.015
-703.572	-200.000	0.009	-0.326
-702.558	-53.466	0.281	-0.129
-701.543	466.530	-0.091	0.204
-700.529	-89.631	0.063	-0.018
-699.514	-44.807	0.284	0.142
-698.499	-37.308	-0.369	0.197
-697.485	112.961	0.031	0.038
-696.470	563.502	0.037	0.090
-695.456	-71.332	0.203	-0.076
-694.441	21.926	0.027	-0.022
-693.426	336.516	0.054	0.104
-692.412	75.549	-0.273	-0.289
-691.397	-200.000	0.242	-0.001
-690.383	341.213	-0.075	-0.147
-689.368	-200.000	-0.021	0.230
-688.354	345.410	-0.155	-0.305
-687.339	0.472	-0.157	-0.113
-686.324	476.124	-0.209	-0.473
-685.310	-87.785	-0.357	-0.108
-684.295	150.186	-0.191	-0.260
-683.281	800.000	0.035	-0.144
-682.266	56.710	-0.173	-0.168
-681.251	800.000	0.017	0.064
-680.237	134.249	-0.192	-0.249
-679.222	800.000	-0.070	0.198
-678.208	-136.085	-0.148	0.017
-677.193	70.537	-0.105	-0.109
-676.178	233.318	0.150	-0.247
-675.164	-92.833	-0.170	0.048
-674.149	-200.000	0.015	-0.087
-673.135	180.683	-0.127	-0.186
-672.120	40.568	0.101	0.091
-671.105	-32.642	-0.192	-0.107
-670.091	-111.803	0.350	0.071
-669.076	19.077	-0.209	0.168
-668.062	16.369	-0.141	-0.111
-667.047	71.962	0.308	0.320
-666.032	101.007	-0.292	-0.339
-665.018	-200.000	-0.049	-0.335
-664.003	-132.976	-0.265	0.034
-662.989	-41.824	0.090	-0.046
-661.974	-120.793	-0.060	-0.010
-660.959	-200.000	-0.064	-0.308
-659.945	-81.496	-0.319	0.105
-658.930	13.701	-0.039	0.031
-657.916	-140.131	0.088	0.009
-656.901	73.166	-0.298	-0.311
-655.886	64.002	-0.201	0.202
-654.872	-8.849	0.057	-0.038
-653.857	-200.000	0.004	-0.051
-652.843	800.000	-0.034	-0.136
-651.828	-72.087	0.154	-0.057
-650.814	-47.968	-0.132	0.064
-649.799	-183.244	-0.447	-0.008
-648.784	230.782	-0.126	-0.206
-647.770	-138.110	-0.166	0.018
-646.755	312.084	0.079	0.148
-645.741	325.836	-0.224	0.429
-644.726	-118.292	-0.261	-0.046
-643.711	-82.184	0.353	-0.115
-642.697	800.000	-0.079	0.298
-641.682	197.058	-0.167	-0.254
-640.668	-50.074	0.165	0.078
-639.653	298.644	-0.130	0.239
-638.638	6.625	0.094	0.070
-637.624	-97.917	-0.362	-0.093
-636.609	-121.517	0.061	0.010
-635.595	200.414	-0.118	-0.181
-634.580	-72.877	-0.268	0.099
-633.565	-200.000	0.038	-0.324
-632.551	-43.473	0.197	-0.100
-631.536	24.381	-0.063	-0.052
-630.522	1.148	0.156	0.112
-629.507	620.219	-0.096	-0.242
-628.492	164.359	-0.297	-0.418
-627.478	-113.391	0.079	0.015
-626.463	-200.000	-0.049	0.252
-625.449	162.892	-0.138	0.194
-624.434	-200.000	-0.025	0.252
-623.419	800.000	-0.046	0.151
-622.405	200.390	-0.083	-0.128
-621.390	-4.545	0.046	-0.032
-620.376	-49.127	-0.083	-0.039
-619.361	159.795	0.189	-0.263
-618.346	-200.000	-0.010	-0.325
-617.332	613.058	-0.023	-0.057
-616.317	-85.639	-0.167	0.052
-615.303	800.000	-0.036	-0.150
-614.288	-74.333	-0.152	0.055
-613.273	-45.105	0.274	-0.136
-612.259	56.921	-0.073	-0.070
-611.244	800.000	-0.119	-0.425
-610.230	-90.788	0.390	0.112
-609.215	259.758	-0.050	-0.085
-608.201	800.000	-0.099	-0.331
-607.186	-30.027	-0.035	-0.020
-606.171	-159.498	0.079	0.004
-605.157	252.254	0.127	0.216
-604.142	-200.000	-0.020	0.157
-603.128	-200.000	0.003	0.231
-602.113	-17.869	-0.090	-0.056
-601.098	799.659	0.106	0.292
-600.084	800.000	0.031	0.090
-599.069	-91.088	-0.378	0.108
-598.055	-146.099	0.170	0.015
-597.040	337.875	-0.072	0.140
-596.025	-159.474	0.226	0.013
-595.011	-109.176	0.283	-0.060
-593.996	-15.295	0.089	-0.057
-592.982	-123.312	-0.140	-0.022
-591.967	28.971	0.135	-0.114
-590.952	-96.200	0.132	-0.035
-589.938	3.330	0.389	-0.283
-588.923	52.014	-0.230	-0.219
-587.909	-81.301	0.436	0.144
-586.894	-152.208	0.321	0.023
-585.879	37.788	-0.054	-0.048
-584.865	-125.785	-0.065	0.010
-583.850	100.449	0.114	0.132
-582.836	625.468	-0.077	-0.193
-581.821	-16.926	-0.280	0.176
-580.806	-116.317	0.126	0.023
-579.792	-153.931	0.271	-0.018
-578.777	-5.029	0.033	-0.023
-577.763	359.845	-0.148	-0.295
-576.748	-160.408	-0.191	-0.010
-575.733	-43.067	-0.213	-0.108
-574.719	-136.573	-0.599	0.069
-573.704	322.153	0.222	-0.422
-572.690	-14.556	-0.107	0.068
-571.675	-52.844	0.375	0.172
-570.661	-48.948	-0.466	0.222
-569.646	-152.702	-0.269	0.019
-568.631	-39.916	0.173	0.090
-567.617	23.515	0.124	0.102
-566.602	65.274	-0.095	-0.096
-565.588	-200.000	-0.030	0.144
-564.573	208.115	0.067	-0.104
-563.558	-58.159	-0.147	-0.064
-562.544	-126.690	-0.342	0.050
-561.529	131.306	0.155	0.198
-560.515	512.251	0.049	0.113
-559.500	42.305	-0.063	-0.057
-558.485	-35.085	-0.148	0.080
-557.471	-200.000	-0.014	-0.243
-556.456	53.186	0.325	-0.310
-555.442	-101.953	-0.226	-0.054
-554.427	-200.000	-0.001	0.176
-553.412	-105.949	-0.085	0.019
-552.398	-200.000	0.055	-0.315
-551.383	-55.713	0.162	0.072
-550.369	-136.149	0.486	-0.057
-549.354	-11.849	-0.336	0.220
-548.339	800.000	0.047	0.198
-547.325	-200.000	0.010	-0.304
-546.310	23.521	0.135	0.110
-545.296	-158.997	0.180	0.010
-544.281	364.876	0.110	-0.220
-543.266	-160.319	0.460	-0.025
-542.252	194.253	0.020	0.030
-541.237	138.172	-0.124	-0.162
-540.223	-58.111	-0.326	-0.142
-539.208	-149.658	0.232	0.018
-538.193	-121.355	-0.244	-0.040
-537.179	800.000	0.096	-0.413
-536.164	800.000	-0.032	0.098
-535.150	-200.000	-0.042	0.487
-534.135	-65.667	0.028	-0.011
-533.121	307.984	-0.196	0.364
-532.106	124.654	0.239	0.299
-531.091	-200.000	0.001	0.076
-530.077	-95.569	-0.079	-0.021
-529.062	800.000	0.033	0.097
-528.048	-133.347	-0.152	0.019
-527.033	-110.695	-0.184	0.038
-526.018	800.000	0.130	0.365
-525.004	-200.000	0.024	-0.110
-523.989	534.278	-0.059	-0.140
-522.975	-43.600	0.071	-0.035
-521.960	-77.335	-0.227	-0.078
-520.945	-149.447	0.577	0.045
-519.931	66.840	-0.130	-0.131
-518.916	146.542	-0.113	0.151
-517.902	16.031	0.081	0.063
-516.887	300.465	-0.119	-0.218
-515.872	-68.566	0.072	-0.028
-514.858	800.000	-0.087	0.348
-513.843	153.390	0.070	-0.095
-512.829	269.811	-0.160	-0.280
-511.814	800.000	0.048	-0.173
-510.799	800.000	-0.100	-0.308
-509.785	-176.542	0.051	-0.001
-508.770	-121.993	-0.226	-0.037
-507.756	-200.000	0.011	0.188
-506.741	-69.441	-0.246	0.094
-505.726	-68.779	-0.319	0.123
-504.712	95.413	0.156	0.177
-503.697	-29.645	-0.460	-0.261
-502.683	92.560	0.137	0.154
-501.668	-53.255	0.319	-0.145
-500.653	-180.392	-0.404	-0.008
-499.639	-61.835	0.115	0.048
-498.624	121.608	0.289	0.358
-497.610	183.191	0.212	0.310
-496.595	-64.120	-0.106	0.043
-495.581	599.343	0.021	-0.051
-494.566	64.183	-0.063	0.063
-493.551	472.775	0.082	0.183
-492.537	392.695	-0.076	-0.157
-491.522	79.823	0.212	0.226
-490.508	126.527	-0.030	-0.037
-489.493	517.979	-0.017	-0.040
-488.478	-48.309	0.298	-0.143
-487.464	-200.000	-0.004	-0.040
-486.449	3.230	0.286	-0.207
-485.435	-200.000	-0.031	0.165
-484.420	-78.112	-0.312	0.106
-483.405	-200.000	-0.004	-0.333
-482.391	-79.729	-0.185	-0.062
-481.376	-200.000	-0.001	-0.039
-480.362	-200.000	0.039	-0.326
-479.347	-109.783	0.184	0.038
-478.332	-200.000	0.006	0.096
-477.318	-179.794	0.512	-0.011
-476.303	52.081	0.073	-0.069
-475.289	725.827	0.178	-0.472
-474.274	-37.142	0.237	-0.126
-473.259	-200.000	0.044	0.282
-472.245	-84.288	0.359	0.113
-471.230	-64.761	-0.356	-0.143
-470.216	-70.613	-0.324	-0.121
-469.201	-72.251	-0.176	-0.065
-468.186	-147.329	0.382	0.032
-467.172	-54.830	0.264	-0.118
-466.157	259.250	0.188	-0.321
-465.143	-63.408	-0.326	0.133
-464.128	137.413	0.191	0.249
-463.113	105.978	0.149	0.175
-462.099	-72.828	0.326	0.119
-461.084	-107.906	-0.039	0.008
-460.070	-200.000	0.049	0.280
-459.055	800.000	0.037	-0.119
-458.040	313.801	-0.043	-0.079
-457.026	-39.283	-0.365	-0.190
-456.011	-152.505	0.270	-0.019
-454.997	490.556	0.109	0.246
-453.982	-80.027	0.334	-0.111
-452.968	-200.000	-0.016	-0.355
-451.953	67.578	-0.221	0.224
-450.938	18.994	0.228	0.181
-449.924	-81.669	0.357	-0.116
-448.909	179.943	-0.268	-0.389
-447.895	135.918	0.268	-0.346
-446.880	-79.733	0.321	-0.107
-445.865	202.918	-0.150	-0.230
-444.851	356.938	-0.058	0.115
-443.836	-200.000	0.029	-0.224
-442.822	77.926	0.127	0.134
-441.807	148.226	-0.203	0.272
-440.792	685.170	0.129	0.333
-439.778	-200.000	-0.080	-0.445
-438.763	800.000	0.067	0.201
-437.749	473.563	0.162	-0.361
-436.734	-136.002	0.107	-0.012
-435.719	-40.283	0.212	0.109
-434.705	-101.235	-0.310	0.075
-433.690	-42.185	-0.544	0.276
-432.676	420.776	0.163	-0.345
-431.661	-200.000	-0.010	-0.233
-430.646	800.000	-0.074	0.253
-429.632	93.400	0.151	0.170
-428.617	-163.699	-0.093	0.004
-427.603	118.444	-0.130	-0.159
-426.588	-200.000	-0.020	-0.088
-425.573	74.153	-0.150	-0.156
-424.559	279.056	0.129	0.227
-423.544	84.712	0.319	0.345
-422.530	-81.310	-0.279	0.091
-421.515	-28.048	0.089	-0.051
-420.500	-75.820	0.406	-0.142
-419.486	800.000	-0.016	-0.066
-418.471	-200.000	-0.020	0.429
-417.457	-89.017	-0.029	0.009
-416.442	24.193	0.224	-0.183
-415.428	-142.221	0.279	-0.027
-414.413	-200.000	-0.030	0.207
-413.398	-200.000	-0.022	0.165
-412.384	84.696	0.304	0.330
-411.369	800.000	0.019	0.066
-410.355	-101.842	-0.277	-0.066
-409.340	-152.407	-0.174	0.012
-408.325	-200.000	-0.041	0.224
-407.311	104.331	-0.218	0.253
-406.296	800.000	-0.005	-0.017
-405.282	-33.514	-0.213	0.117
-404.267	-8.691	0.037	-0.024
-403.252	352.183	-0.105	-0.205
-402.238	-131.348	-0.185	0.024
-401.223	4.486	0.087	0.063
-400.209	234.570	-0.081	0.133
-399.194	-11.474	-0.436	0.284
-398.179	662.115	-0.096	-0.246
-397.165	-108.742	-0.133	-0.028
-396.150	800.000	-0.067	-0.195
-395.136	-25.107	-0.059	-0.035
-394.121	-86.497	0.172	0.052
-393.106	-56.965	-0.321	-0.140
-392.092	87.471	-0.075	0.082
-391.077	604.620	-0.118	-0.292
-390.063	-200.000	0.026	0.192
-389.048	-200.000	0.051	0.431
-388.033	-73.423	-0.245	-0.088
-387.019	254.590	0.157	-0.266
-386.004	-200.000	-0.013	0.244
-384.990	800.000	0.074	0.212
-383.975	-200.000	0.066	0.304
-382.960	-179.492	-0.155	0.003
-381.946	31.530	-0.352	-0.300
-380.931	-200.000	-0.055	-0.368
-379.917	-46.461	-0.227	0.110
-378.902	-139.164	-0.234	-0.025
-377.888	204.508	0.154	0.236
-376.873	-200.000	0.029	0.000
-375.858	-80.793	-0.284	0.093
-374.844	132.383	-0.334	0.426
-373.829	212.440	-0.130	-0.202
-372.815	-200.000	0.016	-0.080
-371.800	-82.984	0.189	0.060
-370.785	81.318	0.129	-0.138
-369.771	-44.213	-0.199	-0.098
-368.756	-17.737	-0.303	-0.188
-367.742	373.576	0.153	0.308
-366.727	58.884	0.236	0.229
-365.712	20.333	-0.240	-0.192
-364.698	-83.705	-0.287	-0.091
-363.683	-200.000	0.076	-0.347
-362.669	-200.000	0.003	-0.166
-361.654	135.381	0.289	-0.372
-360.639	-200.000	-0.011	-0.286
-359.625	-50.818	-0.117	0.054
-358.610	-200.000	-0.005	0.230
-357.596	175.461	0.147	0.211
-356.581	1.058	0.251	0.178
-355.566	800.000	-0.022	-0.092
-354.552	-14.537	0.142	-0.090
-353.537	-200.000	0.006	0.033
-352.523	-125.387	-0.195	0.029
-351.508	-44.781	0.409	0.201
-350.493	-152.131	-0.039	0.003
-349.479	-128.490	-0.102	0.014
-348.464	22.921	0.194	0.157
-347.450	800.000	0.076	0.287
-346.435	-110.937	-0.200	-0.041
-345.420	-21.573	-0.237	0.143
-344.406	-30.732	0.327	0.183
-343.391	36.754	-0.260	-0.226
-342.377	26.017	0.200	-0.165
-341.362	80.818	0.064	-0.069
-340.348	-92.190	0.037	0.010
-339.333	-200.000	-0.023	-0.238
-338.318	-162.250	0.168	0.008
-337.304	34.704	0.183	-0.158
-336.289	800.000	-0.094	0.286
-335.275	134.526	-0.112	-0.144
-334.260	286.903	-0.230	0.411
-333.245	134.487	0.247	-0.317
-332.231	-21.951	0.238	0.143
-331.216	256.753	0.210	-0.357
-330.202	-200.000	-0.001	-0.156
-329.187	-17.596	0.076	0.047
-328.172	-200.000	0.036	0.235
-327.158	184.378	-0.164	-0.239
-326.143	101.566	-0.203	-0.234
-325.129	543.518	0.060	-0.140
-324.114	-43.963	-0.116	-0.057
-323.099	-116.084	-0.096	0.018
-322.085	-59.506	0.338	0.143
-321.070	174.983	-0.185	0.264
-320.056	-114.177	-0.149	0.028
-319.041	107.311	0.079	0.093
-318.026	515.476	-0.057	-0.131
-317.012	62.777	0.127	0.126
-315.997	60.191	0.116	0.113
-314.983	-81.952	-0.040	0.013
-313.968	-48.201	0.280	0.133
-312.953	193.138	-0.161	-0.239
-311.939	-174.495	0.329	0.009
-310.924	294.614	-0.200	0.360
-309.910	800.000	-0.044	0.144
-308.895	160.752	-0.113	0.156
-307.880	529.593	-0.223	0.519
-306.866	-200.000	0.014	-0.187
-305.851	-200.000	-0.057	-0.280
-304.837	-86.438	0.174	-0.053
-303.822	188.471	0.123	-0.181
-302.807	418.056	-0.079	0.166
-301.793	-200.000	-0.065	0.379
-300.778	800.000	-0.022	0.063
-299.764	168.317	0.120	0.168
-298.749	-139.326	0.235	-0.025
-297.735	-59.739	0.399	0.168
-296.720	108.354	-0.297	-0.349
-295.705	-151.509	0.436	0.032
-294.691	800.000	-0.070	-0.252
-293.676	32.236	-0.078	0.067
-292.662	-111.995	0.221	-0.044
-291.647	-200.000	-0.068	-0.319
-290.632	-76.867	0.149	0.051
-289.618	800.000	-0.085	-0.262
-288.603	-200.000	-0.015	0.104
-287.589	281.729	-0.059	-0.104
-286.574	-85.031	0.125	0.039
-285.559	-77.113	-0.237	0.081
-284.545	-69.062	0.065	-0.025
-283.530	-101.890	-0.089	-0.021
-282.516	-125.363	0.109	-0.016
-281.501	-200.000	-0.031	0.314
-280.486	-57.688	0.175	0.076
-279.472	-200.000	-0.029	0.190
-278.457	-200.000	0.013	0.187
-277.443	284.196	-0.132	-0.234
-276.428	-81.890	-0.146	-0.047
-275.413	-93.128	0.184	-0.050
-274.399	526.728	0.050	-0.117
-273.384	-200.000	0.028	0.141
-272.370	102.691	-0.117	0.135
-271.355	595.938	0.202	-0.492
-270.340	-100.483	-0.173	0.042
-269.326	-7.764	0.175	0.116
-268.311	651.471	0.044	-0.111
-267.297	800.000	0.048	0.164
-266.282	160.447	0.277	0.380
-265.267	37.221	-0.350	0.305
-264.253	-110.439	-0.248	-0.051
-263.238	-76.405	-0.166	0.057
-262.224	-200.000	0.004	0.029
-261.209	800.000	-0.058	0.175
-260.195	554.486	0.160	-0.379
-259.180	438.185	-0.078	-0.166
-258.165	-32.666	-0.158	-0.086
-257.151	-97.994	-0.175	-0.044
-256.136	-47.397	-0.097	0.046
-255.122	-131.237	-0.213	-0.028
-254.107	652.947	0.103	0.261
-253.092	-200.000	0.284	0.001
-252.078	800.000	-0.112	-0.309
-251.063	800.000	-0.062	-0.180
-250.049	-9.198	0.166	0.109
-249.034	150.666	0.175	-0.234
-248.019	171.364	0.146	-0.206
-247.005	-50.257	-0.161	0.075
-245.990	259.142	-0.194	0.329
-244.976	671.477	0.087	-0.223
-243.961	-15.750	0.223	-0.140
-242.946	-200.000	-0.047	-0.226
-241.932	-140.161	0.323	-0.033
-240.917	144.794	-0.155	-0.204
-239.903	-191.219	0.487	0.005
-238.888	-105.977	-0.374	0.083
-237.873	-58.967	0.382	0.162
-236.859	656.067	-0.055	0.139
-235.844	-200.000	0.016	0.225
-234.830	-113.130	0.235	-0.046
-233.815	800.000	0.050	-0.215
-232.800	59.038	-0.136	0.131
-231.786	-99.906	0.381	0.094
-230.771	121.329	-0.268	-0.328
-229.757	-82.542	0.103	-0.033
-228.742	515.592	-0.074	0.169
-227.727	-74.530	-0.198	0.070
-226.713	-200.000	-0.012	-0.065
-225.698	800.000	-0.104	-0.297
-224.684	-43.697	0.105	0.052
-223.669	464.303	0.046	-0.102
-222.655	224.477	-0.181	-0.288
-221.640	574.574	-0.046	0.110
-220.625	-80.973	0.285	0.093
-219.611	-200.000	-0.041	0.283
-218.596	34.609	0.117	0.100
-217.582	138.208	-0.177	0.228
-216.567	463.895	0.130	0.286
-215.552	-200.000	0.040	0.243
-214.538	14.404	0.117	-0.090
-213.523	-47.888	-0.191	0.091
-212.509	-18.126	0.116	0.071
-211.494	-39.053	0.184	0.095
-210.479	-156.550	-0.245	0.015
-209.465	-200.000	-0.026	0.248
-208.450	-162.734	-0.186	-0.009
-207.436	-154.454	-0.068	0.004
-206.421	296.520	-0.172	-0.309
-205.406	68.185	-0.070	-0.070
-204.392	-99.839	-0.344	-0.085
-203.377	221.111	0.100	-0.158
-202.363	-200.000	-0.034	-0.361
-201.348	320.652	0.126	-0.235
-200.333	-10.018	0.198	-0.129
-199.319	-107.840	-0.148	-0.032
-198.304	8.577	0.244	-0.181
-197.290	-200.000	0.004	0.030
-196.275	-200.000	-0.002	0.244
-195.260	-200.000	-0.014	-0.200
-194.246	-200.000	-0.010	-0.122
-193.231	800.000	-0.041	-0.132
-192.217	-162.186	-0.360	-0.018
-191.202	800.000	-0.040	-0.109
-190.187	111.107	-0.087	-0.103
-189.173	-122.670	0.134	0.021
-188.158	329.657	-0.036	-0.069
-187.144	-200.000	0.024	0.164
-186.129	1.694	0.257	0.182
-185.114	-200.000	0.026	0.271
-184.100	-108.954	-0.366	-0.077
-183.085	-131.563	-0.143	-0.019
-182.071	360.440	-0.162	0.319
-181.056	524.572	-0.113	0.260
-180.042	-200.000	-0.017	0.323
-179.027	-200.000	-0.013	-0.066
-178.012	-200.000	-0.001	0.095
-176.998	291.893	-0.071	0.127
-175.983	-200.000	-0.002	0.089
-174.969	70.610	-0.171	0.173
-173.954	12.590	0.097	-0.073
-172.939	-200.000	0.033	-0.365
-171.925	-31.896	-0.148	0.081
-170.910	69.602	-0.154	-0.156
-169.896	48.324	-0.195	0.179
-168.881	-113.141	0.149	-0.029
-167.866	148.079	0.034	0.045
-166.852	434.707	0.117	-0.249
-165.837	-121.403	-0.335	-0.055
-164.823	-170.438	0.289	-0.010
-163.808	547.872	-0.082	0.191
-162.793	-77.978	-0.131	0.044
-161.779	21.003	0.219	-0.174
-160.764	377.320	0.035	0.070
-159.750	69.763	0.102	-0.103
-158.735	-30.134	0.344	-0.192
-157.720	-200.000	0.011	-0.142
-156.706	-5.603	0.056	-0.037
-155.691	-80.755	0.214	-0.070
-154.677	-62.246	-0.073	-0.030
-153.662	-158.854	-0.157	-0.009
-152.647	800.000	0.055	0.175
-151.633	491.672	0.102	0.230
-150.618	-200.000	-0.010	0.139
-149.604	422.497	0.156	0.329
-148.589	-200.000	0.058	-0.253
-147.574	-142.126	0.207	0.020
-146.560	126.764	-0.096	0.120
-145.545	-143.663	0.423	-0.039
-144.531	201.328	-0.084	0.127
-143.516	-78.259	0.012	-0.004
-142.502	800.000	0.127	-0.462
-141.487	-1.723	-0.249	-0.172
-140.472	-55.187	0.201	0.089
-139.458	-134.644	-0.132	-0.016
-138.443	39.729	0.105	-0.092
-137.429	-4.992	0.203	0.137
-136.414	800.000	0.033	0.132
-135.399	-200.000	0.001	0.240
-134.385	5.528	-0.270	-0.195
-133.370	800.000	-0.034	0.093
-132.356	86.558	-0.161	0.174
-131.341	800.000	-0.098	-0.376
-130.326	-63.311	-0.092	-0.037
-129.312	266.141	-0.205	-0.351
-128.297	-68.787	0.169	-0.064
-127.283	77.015	0.053	-0.055
-126.268	594.311	-0.207	-0.500
-125.253	340.519	0.127	0.243
-124.239	110.127	-0.085	-0.100
-123.224	800.000	-0.022	0.070
