DTS Sentinel unit serial number:	SN413079Multiplexer serial number:	ORYXHardware model number:	OX4-SRSoftware version number:	ORYX F/W v4.00 Oryx Data Collector v3.7.2.0data status	okinstallation	princeton_trtdifferential loss correction	single-endedforward channel	channel 3reverse channel	N/Adate	2019/09/14time	14:16:35forward acquisition time	60.00reverse acquisition time	0.00gamma	496.2192k internal	0.2292k external	0.2292temperature offset calibration	1.0068default loss term (dB/km)	0.3790temperature slope calibration	1.0000multiplexer offset coefficient	1.0000multiplexer slope coefficient	1.0000fibre end	0.00T internal ref (°C)	38.72T ext. ref 1 (°C)	5.09T ext. ref 2 (°C)	36.46length (m)	temperature (°C)	Stokes	anti-Stokes-747.200	393.785	0.019	0.041
-746.185	-42.128	-0.202	0.106
-745.171	-124.640	0.181	0.029
-744.156	406.132	0.171	0.370
-743.142	426.099	0.064	-0.141
-742.127	-77.589	-0.194	0.069
-741.112	800.000	0.057	-0.210
-740.098	86.850	0.254	0.287
-739.083	800.000	-0.073	0.215
-738.069	0.285	0.198	0.145
-737.054	522.604	0.063	0.151
-736.039	-200.000	-0.040	-0.185
-735.025	-64.283	0.323	-0.135
-734.010	-109.947	-0.285	-0.061
-732.996	100.783	-0.360	-0.428
-731.981	800.000	0.094	-0.289
-730.966	321.745	0.117	-0.228
-729.952	80.688	0.049	-0.054
-728.937	-161.490	-0.295	-0.016
-727.923	126.027	-0.081	0.105
-726.908	-200.000	-0.036	-0.210
-725.894	-56.094	0.141	0.064
-724.879	-52.500	-0.239	0.113
-723.864	-19.789	-0.146	-0.092
-722.850	-200.000	-0.006	0.250
-721.835	14.980	-0.189	0.151
-720.821	-133.266	-0.259	-0.033
-719.806	-200.000	-0.006	-0.215
-718.791	-74.110	-0.172	-0.064
-717.777	-200.000	0.023	-0.578
-716.762	-200.000	0.015	-0.226
-715.748	-200.000	0.025	-0.181
-714.733	159.547	0.090	-0.127
-713.718	136.819	0.217	0.289
-712.704	800.000	-0.050	-0.148
-711.689	-16.690	0.069	-0.045
-710.675	-10.215	0.098	0.066
-709.660	79.778	0.169	0.186
-708.645	82.555	0.082	0.091
-707.631	800.000	0.055	-0.217
-706.616	190.372	-0.033	-0.051
-705.602	-6.223	-0.114	-0.080
-704.587	-200.000	-0.001	0.167
-703.572	800.000	-0.115	-0.376
-702.558	-200.000	0.057	-0.401
-701.543	-32.466	0.110	0.063
-700.529	182.645	0.307	-0.462
-699.514	355.967	-0.074	-0.151
-698.499	-117.975	-0.146	-0.027
-697.485	335.461	-0.108	-0.214
-696.470	67.228	-0.208	-0.216
-695.456	-96.738	0.053	-0.014
-694.441	462.810	0.029	0.066
-693.426	-20.905	0.192	-0.120
-692.412	-135.277	0.368	0.045
-691.397	-2.180	-0.218	-0.156
-690.383	-101.649	0.299	0.074
-689.368	124.939	0.284	0.365
-688.354	-200.000	0.034	-0.391
-687.339	-155.625	-0.469	0.031
-686.324	-200.000	0.028	-0.174
-685.310	206.003	-0.064	-0.101
-684.295	-128.781	0.093	0.013
-683.281	-200.000	-0.016	-0.262
-682.266	-59.688	-0.511	-0.224
-681.251	663.640	-0.063	-0.167
-680.237	178.939	-0.143	0.213
-679.222	-116.939	0.266	0.050
-678.208	52.953	0.223	-0.218
-677.193	-47.045	0.249	-0.124
-676.178	57.483	-0.136	0.136
-675.164	-79.128	0.086	-0.030
-674.149	-17.130	-0.073	0.047
-673.135	149.626	-0.176	0.244
-672.120	-40.522	-0.155	-0.082
-671.105	73.148	0.036	-0.038
-670.091	339.901	-0.100	0.198
-669.076	32.533	-0.158	-0.139
-668.062	800.000	0.026	0.111
-667.047	-200.000	-0.073	-0.333
-666.032	6.199	0.074	0.056
-665.018	800.000	0.071	-0.280
-664.003	34.386	0.112	-0.100
-662.989	-200.000	-0.044	-0.301
-661.974	800.000	-0.018	0.070
-660.959	-200.000	0.021	-0.344
-659.945	-25.618	-0.363	0.218
-658.930	672.604	-0.019	0.051
-657.916	800.000	0.033	0.142
-656.901	42.965	-0.072	-0.067
-655.886	234.762	0.012	0.021
-654.872	-70.555	0.227	-0.088
-653.857	27.710	0.049	0.042
-652.843	-196.487	-0.183	-0.001
-651.828	166.045	-0.198	-0.286
-650.814	1.358	0.250	0.183
-649.799	-94.022	-0.121	0.034
-648.784	-24.407	-0.172	-0.105
-647.770	800.000	0.048	0.148
-646.755	800.000	-0.077	0.263
-645.741	63.211	0.075	0.077
-644.726	-154.359	0.114	0.008
-643.711	292.157	0.187	0.348
-642.697	-43.061	-0.072	-0.037
-641.682	-85.478	-0.222	-0.071
-640.668	248.313	-0.094	-0.162
-639.653	418.938	-0.205	-0.447
-638.638	111.335	0.215	-0.264
-637.624	166.641	-0.167	-0.242
-636.609	-128.841	-0.282	0.040
-635.595	-54.086	-0.120	0.056
-634.580	262.355	-0.075	-0.133
-633.565	-180.532	-0.096	-0.002
-632.551	23.821	-0.126	0.106
-631.536	-57.076	-0.378	0.170
-630.522	280.160	0.068	0.125
-629.507	724.956	-0.082	-0.224
-628.492	-76.910	-0.231	0.082
-627.478	85.154	0.190	0.213
-626.463	800.000	0.082	0.251
-625.449	452.814	0.083	-0.187
-624.434	55.482	-0.088	-0.086
-623.419	-200.000	0.054	0.252
-622.405	-200.000	0.059	0.420
-621.390	184.026	0.038	0.058
-620.376	11.890	-0.096	-0.075
-619.361	-131.733	0.195	-0.026
-618.346	198.480	-0.218	-0.339
-617.332	800.000	-0.037	-0.111
-616.317	300.841	-0.124	0.232
-615.303	-200.000	0.009	-0.051
-614.288	-200.000	-0.064	-0.376
-613.273	141.018	-0.206	-0.277
-612.259	14.332	-0.062	0.049
-611.244	-48.352	0.219	-0.107
-610.230	18.040	-0.203	0.165
-609.215	258.050	-0.261	-0.457
-608.201	66.699	-0.357	0.370
-607.186	210.404	-0.144	0.231
-606.171	-62.734	0.205	-0.086
-605.157	295.752	-0.128	-0.240
-604.142	-13.862	-0.196	0.129
-603.128	800.000	0.080	0.268
-602.113	-7.270	-0.235	0.162
-601.098	-67.255	-0.355	-0.142
-600.084	95.097	0.120	0.139
-599.069	77.179	0.066	-0.071
-598.055	59.776	0.127	0.128
-597.040	122.180	0.053	-0.067
-596.025	325.073	-0.163	-0.317
-595.011	800.000	0.057	-0.163
-593.996	373.436	0.069	-0.143
-592.982	437.692	-0.074	-0.164
-591.967	-153.285	-0.208	-0.015
-590.952	1.915	0.257	0.189
-589.938	-149.977	-0.227	0.018
-588.923	238.032	-0.014	0.024
-587.909	800.000	-0.031	-0.130
-586.894	0.438	0.123	-0.089
-585.879	190.050	0.035	-0.053
-584.865	-30.869	0.173	0.099
-583.850	200.067	-0.144	0.224
-582.836	-135.843	-0.186	-0.022
-581.821	-200.000	-0.208	-0.001
-580.806	800.000	0.037	0.111
-579.792	-68.386	0.428	-0.169
-578.777	217.523	-0.191	0.309
-577.763	-200.000	-0.041	-0.628
-576.748	291.301	0.067	0.125
-575.733	768.497	0.160	-0.443
-574.719	87.247	-0.274	-0.308
-573.704	337.809	0.103	-0.203
-572.690	-22.297	0.194	-0.120
-571.675	-38.810	0.168	-0.090
-570.661	-50.017	-0.103	0.050
-569.646	40.579	-0.297	0.272
-568.631	-157.862	0.087	0.005
-567.617	-165.792	-0.452	-0.020
-566.602	-99.600	-0.397	0.101
-565.588	123.522	0.037	0.047
-564.573	203.594	0.091	0.144
-563.558	-200.000	0.058	0.297
-562.544	800.000	0.020	-0.082
-561.529	-7.667	-0.224	-0.154
-560.515	-138.098	-0.291	0.033
-559.500	-46.410	-0.148	0.074
-558.485	800.000	0.068	-0.274
-557.471	-200.000	-0.010	-0.069
-556.456	55.635	-0.116	-0.114
-555.442	20.273	-0.154	-0.126
-554.427	118.421	0.176	0.221
-553.412	800.000	0.039	-0.136
-552.398	-42.102	0.163	0.085
-551.383	-28.104	0.282	-0.166
-550.369	168.532	0.262	-0.380
-549.354	-19.935	-0.281	-0.176
-548.339	-190.198	-0.312	-0.003
-547.325	160.994	-0.328	-0.466
-546.310	181.252	0.068	0.102
-545.296	800.000	-0.012	0.039
-544.281	-200.000	-0.027	0.349
-543.266	-200.000	0.003	-0.107
-542.252	56.453	0.163	-0.161
-541.237	-177.442	0.110	-0.003
-540.223	-74.828	-0.083	0.030
-539.208	-76.773	-0.331	-0.118
-538.193	445.621	-0.130	0.289
-537.179	17.324	0.217	-0.175
-536.164	-61.457	0.173	0.074
-535.150	-12.317	-0.083	0.055
-534.135	99.946	-0.040	0.047
-533.121	-8.887	0.175	0.119
-532.106	28.374	0.084	-0.072
-531.091	-200.000	0.015	0.090
-530.077	-106.369	0.032	0.007
-529.062	800.000	0.059	-0.202
-528.048	800.000	0.022	-0.096
-527.033	21.843	0.319	0.264
-526.018	-119.641	0.267	0.047
-525.004	8.668	-0.098	-0.075
-523.989	800.000	-0.024	0.069
-522.975	331.485	0.238	0.465
-521.960	-159.719	-0.142	0.008
-520.945	161.428	0.148	0.210
-519.931	71.625	0.148	0.156
-518.916	-200.000	0.015	0.197
-517.902	4.293	-0.066	0.049
-516.887	-49.175	0.061	-0.030
-515.872	156.403	0.157	0.220
-514.858	-46.468	0.238	-0.119
-513.843	-97.459	-0.295	0.078
-512.829	-200.000	-0.090	-0.436
-511.814	-148.635	0.146	0.012
-510.799	-200.000	-0.030	0.248
-509.785	198.658	-0.104	0.161
-508.770	170.604	0.052	-0.076
-507.756	800.000	-0.034	0.112
-506.741	-43.137	0.382	-0.197
-505.726	800.000	-0.112	0.318
-504.712	431.886	-0.050	-0.111
-503.697	166.772	-0.290	0.417
-502.683	-200.000	-0.041	-0.216
-501.668	-160.251	-0.204	0.011
-500.653	117.034	-0.184	-0.229
-499.639	-200.000	-0.039	0.183
-498.624	26.287	-0.199	-0.169
-497.610	358.850	-0.063	-0.128
-496.595	-127.764	-0.108	0.016
-495.581	34.242	-0.410	0.363
-494.566	800.000	-0.071	0.223
-493.551	159.160	0.162	-0.228
-492.537	-200.000	-0.111	-0.553
-491.522	-80.583	0.329	-0.111
-490.508	-200.000	0.031	0.277
-489.493	70.208	0.080	-0.084
-488.478	46.277	-0.079	0.074
-487.464	-200.000	-0.045	-0.257
-486.449	-147.866	-0.283	-0.024
-485.435	800.000	0.094	0.362
-484.420	57.284	0.135	0.134
-483.405	-103.118	-0.275	0.066
-482.391	-115.040	-0.098	-0.019
-481.376	-78.032	0.156	-0.054
-480.362	-98.866	0.435	0.112
-479.347	129.885	-0.162	0.210
-478.332	-129.232	-0.309	-0.044
-477.318	213.473	0.123	-0.197
-476.303	14.417	-0.170	-0.134
-475.289	-132.814	0.151	0.019
-474.274	-58.992	0.240	0.105
-473.259	509.597	0.016	-0.039
-472.245	800.000	0.064	0.201
-471.230	-102.287	0.248	0.060
-470.216	800.000	0.095	0.329
-469.201	-73.264	-0.190	0.070
-468.186	69.529	0.059	-0.062
-467.172	-200.000	-0.006	-0.409
-466.157	-200.000	0.000	-0.128
-465.143	-148.183	-0.263	-0.022
-464.128	-55.179	0.237	0.108
-463.113	148.718	-0.202	-0.277
-462.099	296.866	-0.157	-0.292
-461.084	182.545	-0.190	0.283
-460.070	800.000	-0.063	0.221
-459.055	-200.000	-0.048	0.422
-458.040	-6.444	-0.070	0.048
-457.026	-146.402	0.229	-0.020
-456.011	81.130	-0.037	-0.040
-454.997	-123.986	0.284	-0.045
-453.982	-200.000	0.018	-0.156
-452.968	517.550	-0.098	0.231
-451.953	-71.332	0.304	0.115
-450.938	-200.000	-0.015	0.075
-449.924	-164.426	-0.207	-0.010
-448.909	-200.000	-0.093	-0.441
-447.895	-29.275	0.193	0.112
-446.880	0.759	0.093	0.067
-445.865	-168.681	0.377	-0.014
-444.851	-200.000	-0.080	0.536
-443.836	-200.000	-0.051	0.294
-442.822	0.155	0.293	-0.211
-441.807	-89.903	0.233	0.069
-440.792	800.000	0.037	-0.125
-439.778	156.690	-0.105	-0.147
-438.763	-93.891	0.092	-0.026
-437.749	-200.000	-0.062	-0.390
-436.734	-200.000	-0.046	0.421
-435.719	597.095	-0.038	0.096
-434.705	66.617	0.115	-0.119
-433.690	187.271	0.095	0.143
-432.676	-11.269	0.318	-0.212
-431.661	578.751	0.086	-0.212
-430.646	-200.000	0.027	-0.198
-429.632	-30.744	-0.299	-0.171
-428.617	685.897	0.097	-0.256
-427.603	121.484	0.047	0.060
-426.588	-200.000	0.021	-0.392
-425.573	458.790	-0.090	0.203
-424.559	800.000	0.064	-0.186
-423.544	-79.959	-0.150	0.051
-422.530	192.120	-0.150	-0.228
-421.515	2.754	-0.408	0.299
-420.500	-200.000	0.017	-0.161
-419.486	243.336	-0.111	0.187
-418.471	-92.544	0.196	-0.056
-417.457	342.853	-0.132	0.261
-416.442	25.927	-0.301	-0.254
-415.428	-200.000	0.041	0.433
-414.413	-200.000	0.059	0.292
-413.398	800.000	-0.055	-0.155
-412.384	33.204	0.230	0.202
-411.369	301.248	0.196	-0.365
-410.355	-38.136	-0.144	0.077
-409.340	47.649	0.111	-0.105
-408.325	-26.107	0.291	-0.173
-407.311	-77.521	0.181	-0.063
-406.296	-157.973	0.290	-0.017
-405.282	800.000	0.136	0.467
-404.267	-200.000	0.008	-0.149
-403.252	-200.000	-0.010	0.114
-402.238	-200.000	-0.007	0.392
-401.223	800.000	-0.049	-0.138
-400.209	-200.000	-0.030	-0.167
-399.194	-200.000	-0.286	-0.001
-398.179	-200.000	0.266	-0.000
-397.165	800.000	-0.112	-0.317
-396.150	-78.358	0.202	-0.070
-395.136	6.082	0.263	0.197
-394.121	-200.000	-0.005	0.164
-393.106	-3.903	-0.203	-0.142
-392.092	-97.552	-0.222	0.058
-391.077	209.190	-0.074	0.117
-390.063	-200.000	0.043	0.228
-389.048	352.125	-0.101	-0.203
-388.033	467.150	0.066	-0.149
-387.019	-115.310	0.359	0.068
-386.004	-18.490	-0.110	-0.069
-384.990	-79.748	-0.438	0.149
-383.975	-106.924	0.309	-0.069
-382.960	-156.953	0.186	-0.012
-381.946	-147.423	-0.372	0.032
-380.931	-36.931	-0.208	-0.113
-379.917	252.187	-0.140	-0.241
-378.902	-128.843	0.345	0.049
-377.888	800.000	0.027	-0.120
-376.873	384.505	0.033	0.069
-375.858	496.253	0.061	0.142
-374.844	-160.266	0.118	0.006
-373.829	-83.017	-0.157	-0.051
-372.815	-167.312	-0.027	0.001
-371.800	-44.463	0.336	-0.170
-370.785	-18.135	0.236	0.149
-369.771	-200.000	0.017	-0.092
-368.756	-155.967	0.073	0.005
-367.742	-38.466	0.091	-0.048
-366.727	48.626	0.232	0.219
-365.712	-119.363	-0.194	0.034
-364.698	-200.000	-0.041	0.363
-363.683	-65.847	0.321	-0.129
-362.669	723.016	0.048	-0.129
-361.654	228.821	0.103	-0.170
-360.639	194.532	0.166	-0.254
-359.625	170.736	0.068	0.099
-358.610	176.304	0.034	0.051
-357.596	357.464	-0.052	-0.106
-356.581	-72.661	0.293	-0.109
-355.566	249.081	0.295	-0.504
-354.552	-200.000	-0.031	0.182
-353.537	800.000	-0.071	0.251
-352.523	728.216	-0.076	0.203
-351.508	-24.199	0.099	0.060
-350.493	567.578	0.090	-0.220
-349.479	-54.448	0.498	-0.228
-348.464	15.084	-0.059	-0.047
-347.450	25.851	0.143	0.120
-346.435	-200.000	0.032	0.420
-345.420	800.000	-0.032	-0.090
-344.406	-128.025	0.258	0.037
-343.391	672.281	-0.085	0.222
-342.377	795.926	0.109	0.301
-341.362	196.912	0.019	-0.029
-340.348	-135.614	0.214	-0.026
-339.333	97.514	0.240	-0.278
-338.318	-20.135	0.045	0.028
-337.304	493.473	-0.068	-0.157
-336.289	46.225	0.145	-0.135
-335.275	-96.413	0.339	-0.090
-334.260	-68.689	-0.264	-0.103
-333.245	-1.008	-0.281	-0.200
-332.231	-124.092	0.391	0.062
-331.216	-120.581	-0.181	-0.031
-330.202	358.120	0.063	-0.127
-329.187	66.455	-0.341	0.349
-328.172	495.500	0.076	0.177
-327.158	24.977	0.207	0.173
-326.143	-1.956	-0.243	-0.172
-325.129	24.639	-0.103	0.086
-324.114	-142.827	0.234	-0.023
-323.099	88.108	-0.319	0.356
-322.085	-127.611	-0.330	0.048
-321.070	-200.000	-0.035	0.442
-320.056	221.789	-0.107	-0.173
-319.041	-147.876	0.486	0.041
-318.026	150.087	0.089	0.122
-317.012	598.763	0.158	0.394
-315.997	-172.486	-0.225	0.007
-314.983	-138.102	0.180	0.020
-313.968	423.855	0.189	-0.410
-312.953	-81.904	-0.243	0.080
-311.939	75.043	-0.286	-0.303
-310.924	800.000	0.058	0.175
-309.910	-32.548	-0.168	-0.094
-308.895	-72.463	-0.142	-0.053
-307.880	-98.625	-0.241	0.062
-306.866	-200.000	-0.038	-0.270
-305.851	-70.354	0.137	0.052
-304.837	800.000	-0.051	-0.189
-303.822	84.792	0.216	0.238
-302.807	306.559	0.241	-0.451
-301.793	-64.108	0.029	0.012
-300.778	-73.179	-0.230	-0.085
-299.764	364.970	-0.054	0.109
-298.749	-153.973	0.252	0.017
-297.735	-59.076	-0.169	-0.074
-296.720	-43.408	0.102	0.052
-295.705	-157.655	-0.281	-0.017
-294.691	-62.941	-0.243	0.101
-293.676	-45.189	0.210	0.105
-292.662	-98.625	0.329	-0.085
-291.647	-122.053	-0.169	-0.028
-290.632	-18.780	-0.242	0.151
-289.618	-123.429	-0.245	0.039
-288.603	-125.392	0.018	-0.003
-287.589	-200.000	0.048	-0.219
-286.574	510.978	0.066	-0.155
-285.559	-200.000	0.042	0.192
-284.545	-200.000	0.002	0.360
-283.530	12.627	-0.090	-0.070
-282.516	159.970	0.040	0.057
-281.501	-124.541	-0.155	-0.024
-280.486	800.000	-0.047	-0.176
-279.472	33.241	-0.337	0.294
-278.457	34.077	-0.188	-0.165
-277.443	405.561	0.198	-0.420
-276.428	-100.918	0.142	0.035
-275.413	-200.000	-0.011	0.367
-274.399	-56.391	0.191	0.085
-273.384	-200.000	0.018	0.246
-272.370	-63.087	-0.328	-0.136
-271.355	685.603	0.032	0.083
-270.340	-73.780	0.195	-0.071
-269.326	-19.656	0.100	0.062
-268.311	-91.535	0.308	-0.088
-267.297	-200.000	-0.002	0.192
-266.282	6.854	-0.316	0.236
-265.267	-52.097	0.085	-0.040
-264.253	75.598	0.076	-0.081
-263.238	-53.563	-0.416	-0.191
-262.224	-200.000	-0.010	-0.115
-261.209	800.000	-0.059	-0.185
-260.195	542.349	0.044	-0.105
-259.180	571.766	0.140	0.343
-258.165	177.010	0.084	-0.123
-257.151	800.000	0.134	0.408
-256.136	-200.000	0.024	0.205
-255.122	3.019	0.177	0.129
-254.107	800.000	-0.047	-0.151
-253.092	133.895	0.278	0.361
-252.078	-200.000	0.026	0.147
-251.063	47.187	0.239	0.223
-250.049	-5.586	0.150	0.103
-249.034	-75.671	-0.081	0.029
-248.019	-107.140	-0.278	-0.062
-247.005	133.770	-0.156	0.203
-245.990	16.133	-0.336	-0.266
-244.976	101.039	-0.136	-0.159
-243.961	800.000	-0.051	0.215
-242.946	800.000	0.110	-0.306
-241.932	-115.393	-0.314	0.059
-240.917	81.559	0.312	-0.338
-239.903	-84.614	0.451	-0.143
-238.888	-119.767	0.273	-0.047
-237.873	800.000	-0.066	-0.252
-236.859	146.326	-0.249	-0.335
-235.844	111.894	-0.162	-0.196
-234.830	-95.094	0.131	-0.035
-233.815	-30.075	-0.221	0.126
-232.800	65.655	0.146	-0.148
-231.786	-82.300	0.029	0.010
-230.771	-165.215	0.216	-0.010
-229.757	-1.111	-0.113	0.080
-228.742	-91.866	-0.077	0.022
-227.727	-200.000	-0.028	-0.289
-226.713	-15.137	-0.062	-0.040
-225.698	-142.793	-0.320	-0.031
-224.684	19.082	0.173	0.139
-223.669	-200.000	-0.019	0.118
-222.655	416.964	0.199	-0.426
-221.640	-171.237	-0.147	0.005
-220.625	-200.000	0.018	0.147
-219.611	157.656	-0.213	0.295
-218.596	68.890	-0.296	0.305
-217.582	-87.365	0.188	-0.057
-216.567	56.701	-0.156	-0.152
-215.552	225.419	-0.163	-0.264
-214.538	519.132	0.012	-0.028
-213.523	76.653	-0.153	0.163
-212.509	220.276	-0.083	-0.134
-211.494	-31.348	-0.185	-0.104
-210.479	739.861	0.054	-0.145
-209.465	63.776	0.229	0.231
-208.450	-179.786	0.093	-0.002
-207.436	-160.641	-0.287	0.015
-206.421	-62.776	0.100	0.042
-205.406	-136.135	0.150	0.018
-204.392	68.089	0.098	-0.100
-203.377	16.391	0.102	0.081
-202.363	800.000	0.031	-0.117
-201.348	800.000	0.082	0.300
-200.333	-189.437	0.172	-0.002
-199.319	210.912	-0.183	-0.288
-198.304	-44.723	0.210	0.105
-197.290	-3.957	-0.460	0.320
-196.275	800.000	0.118	0.335
-195.260	51.698	-0.159	0.152
-194.246	-200.000	0.013	0.087
-193.231	-200.000	-0.042	-0.439
-192.217	656.329	0.048	0.124
-191.202	0.760	-0.060	-0.043
-190.187	249.206	0.224	-0.380
-189.173	-86.291	0.153	0.047
-188.158	-46.425	0.076	-0.038
-187.144	-48.651	-0.298	0.143
-186.129	-175.759	0.207	0.006
-185.114	104.726	-0.126	0.149
-184.100	-200.000	0.027	0.242
-183.085	-20.821	0.207	-0.127
-182.071	107.482	0.098	-0.116
-181.056	393.939	0.061	0.126
-180.042	-21.649	-0.156	-0.095
-179.027	-64.548	0.169	0.069
-178.012	117.058	-0.106	-0.130
-176.998	181.270	-0.117	-0.173
-175.983	-181.755	-0.196	0.004
-174.969	-131.306	0.533	0.071
-173.954	129.709	0.074	-0.095
-172.939	31.488	0.157	0.135
-171.925	668.694	-0.036	0.094
-170.910	-200.000	0.006	-0.196
-169.896	-127.248	0.115	-0.017
-168.881	27.815	0.213	-0.179
-167.866	-47.372	-0.260	-0.127
-166.852	-58.826	0.324	0.140
-165.837	-76.197	-0.140	0.049
-164.823	800.000	0.032	0.113
-163.808	-200.000	0.022	-0.187
-162.793	0.729	-0.446	-0.319
-161.779	-148.597	0.192	0.016
-160.764	143.549	-0.152	0.203
-159.750	800.000	0.085	0.356
-158.735	-39.672	-0.070	0.037
-157.720	800.000	0.061	0.192
-156.706	-44.185	0.138	0.069
-155.691	800.000	-0.092	-0.316
-154.677	800.000	0.081	0.259
-153.662	-98.831	0.063	0.016
-152.647	-139.408	0.265	-0.028
-151.633	128.491	0.029	-0.037
-150.618	-0.526	0.169	-0.120
-149.604	-21.072	-0.470	0.288
-148.589	61.063	0.118	-0.117
-147.574	-99.017	0.212	0.054
-146.560	-19.865	-0.186	0.115
-145.545	75.824	-0.182	-0.192
-144.531	-51.180	-0.281	0.132
-143.516	100.088	0.129	-0.149
-142.502	-200.000	-0.016	-0.098
-141.487	-200.000	0.024	0.265
-140.472	-200.000	-0.015	-0.145
-139.458	125.299	-0.173	-0.219
-138.443	-200.000	-0.031	0.332
-137.429	800.000	0.074	0.233
-136.414	622.657	-0.079	-0.199
-135.399	-200.000	-0.027	0.150
-134.385	-200.000	-0.025	0.291
-133.370	90.326	0.176	-0.197
-132.356	621.247	-0.041	0.102
-131.341	-165.352	0.343	0.015
-130.326	-8.547	0.302	0.203
-129.312	-200.000	0.020	-0.265
-128.297	-21.317	0.060	-0.037
-127.283	-110.269	-0.204	0.043
-126.268	-106.508	0.199	0.044
-125.253	-26.056	-0.180	0.106
-124.239	-200.000	0.007	0.083
-123.224	-200.000	-0.005	0.306
-122.210	207.116	-0.033	-0.052
-121.195	744.184	0.098	-0.264
-120.180	29.141	-0.207	0.176
