DTS Sentinel unit serial number:	SN413079Multiplexer serial number:	ORYXHardware model number:	OX4-SRSoftware version number:	ORYX F/W v4.00 Oryx Data Collector v3.7.2.0data status	okinstallation	princeton_trtdifferential loss correction	single-endedforward channel	channel 3reverse channel	N/Adate	2019/09/17time	03:36:35forward acquisition time	60.00reverse acquisition time	0.00gamma	496.2192k internal	0.2323k external	0.2323temperature offset calibration	0.9942default loss term (dB/km)	0.3790temperature slope calibration	1.0000multiplexer offset coefficient	1.0000multiplexer slope coefficient	1.0000fibre end	0.00T internal ref (°C)	30.00T ext. ref 1 (°C)	0.13T ext. ref 2 (°C)	24.58length (m)	temperature (°C)	Stokes	anti-Stokes-747.200	243.467	0.079	-0.135
-746.185	-200.000	-0.042	0.427
-745.171	-111.928	0.212	0.043
-744.156	630.486	0.094	0.239
-743.142	-119.915	-0.471	0.082
-742.127	-125.463	-0.313	0.048
-741.112	70.615	-0.131	-0.137
-740.098	800.000	-0.059	0.225
-739.083	76.466	-0.160	-0.171
-738.069	64.129	-0.239	0.243
-737.054	54.799	-0.165	-0.160
-736.039	-53.715	0.158	0.073
-735.025	216.599	0.209	0.335
-734.010	-200.000	0.018	-0.143
-732.996	384.200	-0.061	-0.127
-731.981	14.294	0.235	0.185
-730.966	-62.431	0.082	0.034
-729.952	-200.000	-0.023	0.288
-728.937	-76.924	0.039	0.014
-727.923	-101.328	-0.196	-0.048
-726.908	-64.767	-0.198	-0.081
-725.894	75.548	0.057	0.061
-724.879	54.502	0.025	-0.025
-723.864	-74.012	0.282	-0.103
-722.850	800.000	0.125	-0.393
-721.835	17.955	0.169	0.136
-720.821	-100.056	-0.147	-0.037
-719.806	-200.000	-0.014	-0.293
-718.791	800.000	-0.063	-0.188
-717.777	-12.245	0.114	0.075
-716.762	-200.000	0.030	0.289
-715.748	387.840	0.040	-0.083
-714.733	-49.280	-0.183	0.088
-713.718	238.250	-0.036	0.061
-712.704	-200.000	-0.038	-0.279
-711.689	-200.000	-0.036	0.697
-710.675	-72.671	0.149	-0.055
-709.660	2.125	-0.120	-0.087
-708.645	138.312	-0.230	-0.304
-707.631	44.954	0.177	0.164
-706.616	-47.478	0.062	-0.031
-705.602	43.963	-0.039	0.036
-704.587	-59.304	-0.112	0.049
-703.572	27.114	-0.361	0.305
-702.558	-118.371	-0.410	-0.073
-701.543	-27.135	-0.297	0.174
-700.529	-141.593	0.185	-0.019
-699.514	-58.339	-0.191	-0.084
-698.499	-118.314	0.193	-0.035
-697.485	-116.681	0.524	0.097
-696.470	792.368	0.032	0.089
-695.456	-65.731	-0.064	-0.026
-694.441	-5.890	-0.061	0.042
-693.426	-93.977	0.054	-0.015
-692.412	-42.087	-0.354	-0.183
-691.397	-200.000	-0.035	-0.190
-690.383	-15.542	-0.156	0.100
-689.368	-151.095	-0.157	0.012
-688.354	289.059	0.167	0.305
-687.339	-200.000	-0.033	0.171
-686.324	27.865	-0.258	-0.219
-685.310	692.970	-0.015	0.039
-684.295	105.970	0.144	-0.172
-683.281	118.406	0.107	-0.133
-682.266	-32.573	-0.061	-0.034
-681.251	-148.317	-0.181	-0.015
-680.237	554.075	-0.104	-0.251
-679.222	-124.809	0.340	-0.053
-678.208	183.175	-0.122	-0.181
-677.193	9.254	-0.176	-0.134
-676.178	4.664	-0.198	0.147
-675.164	-88.079	-0.259	0.078
-674.149	322.177	-0.082	0.157
-673.135	-84.917	-0.204	0.065
-672.120	-200.000	-0.004	0.164
-671.105	-34.428	0.141	-0.078
-670.091	-99.045	-0.172	0.044
-669.076	-166.848	0.154	0.006
-668.062	418.544	0.108	0.232
-667.047	800.000	0.039	-0.114
-666.032	-200.000	0.008	-0.189
-665.018	-161.412	0.346	0.018
-664.003	-106.802	-0.145	-0.032
-662.989	-161.047	0.392	0.021
-661.974	-200.000	-0.003	-0.080
-660.959	171.852	0.099	-0.143
-659.945	576.318	-0.091	-0.223
-658.930	186.666	-0.073	-0.110
-657.916	-92.540	0.231	-0.065
-656.901	-149.308	-0.124	0.010
-655.886	46.558	0.231	0.216
-654.872	-97.060	0.331	0.087
-653.857	-200.000	0.012	-0.118
-652.843	-6.388	0.035	-0.024
-651.828	103.828	-0.097	-0.115
-650.814	-200.000	-0.059	0.496
-649.799	-4.196	-0.224	-0.156
-648.784	-90.270	-0.352	-0.103
-647.770	-51.875	-0.175	0.082
-646.755	800.000	-0.036	-0.144
-645.741	-71.077	0.187	-0.071
-644.726	-31.473	-0.179	0.101
-643.711	-124.182	0.068	0.011
-642.697	507.438	0.052	-0.122
-641.682	800.000	-0.028	0.079
-640.668	0.890	-0.371	-0.268
-639.653	800.000	-0.034	-0.095
-638.638	-122.699	-0.024	0.004
-637.624	90.797	0.298	0.336
-636.609	-71.386	0.031	-0.012
-635.595	-200.000	0.013	0.285
-634.580	-200.000	-0.050	0.300
-633.565	-67.704	-0.170	0.067
-632.551	-79.174	-0.346	-0.118
-631.536	575.005	-0.076	0.186
-630.522	619.334	-0.053	0.134
-629.507	211.933	-0.139	-0.220
-628.492	-200.000	-0.013	-0.189
-627.478	-121.802	0.122	-0.020
-626.463	800.000	0.095	0.326
-625.449	-13.068	-0.116	-0.076
-624.434	-111.573	-0.141	0.029
-623.419	321.903	0.121	-0.232
-622.405	204.961	-0.198	-0.308
-621.390	797.193	0.093	-0.258
-620.376	199.556	0.190	-0.293
-619.361	-200.000	-0.006	-0.194
-618.346	-104.582	-0.304	0.071
-617.332	-200.000	-0.023	-0.183
-616.317	16.928	-0.127	-0.101
-615.303	297.143	-0.067	0.124
-614.288	106.081	-0.061	-0.072
-613.273	2.822	-0.337	0.246
-612.259	251.576	0.108	0.185
-611.244	-85.701	-0.241	0.075
-610.230	205.687	0.096	-0.151
-609.215	563.410	-0.077	0.189
-608.201	28.083	-0.040	-0.034
-607.186	800.000	-0.042	0.134
-606.171	-48.760	0.100	-0.048
-605.157	-33.801	-0.144	0.080
-604.142	31.240	-0.123	0.106
-603.128	-165.235	-0.209	0.009
-602.113	402.951	0.098	-0.207
-601.098	173.002	0.048	0.070
-600.084	-153.634	-0.335	0.023
-599.069	40.257	-0.099	-0.089
-598.055	-143.943	0.168	0.016
-597.040	560.866	0.111	0.269
-596.025	-74.696	0.359	-0.130
-595.011	800.000	0.062	-0.243
-593.996	5.634	0.144	0.107
-592.982	621.929	0.121	0.306
-591.967	181.300	-0.175	-0.259
-590.952	130.049	0.100	0.129
-589.938	-59.598	-0.391	0.169
-588.923	283.687	0.190	-0.344
-587.909	800.000	0.079	-0.319
-586.894	-99.048	0.192	-0.049
-585.879	-115.009	0.401	0.076
-584.865	800.000	-0.028	0.095
-583.850	32.031	-0.268	0.232
-582.836	-60.507	0.145	-0.062
-581.821	181.557	-0.130	-0.192
-580.806	58.143	-0.111	-0.109
-579.792	-33.432	0.272	0.151
-578.777	-200.000	0.001	0.118
-577.763	-59.692	-0.167	0.072
-576.748	-114.259	-0.047	0.009
-575.733	272.283	0.035	0.061
-574.719	140.003	0.132	-0.175
-573.704	369.394	-0.146	-0.297
-572.690	-111.383	0.124	-0.025
-571.675	33.629	-0.159	0.139
-570.661	-18.068	-0.278	0.175
-569.646	-200.000	-0.044	-0.338
-568.631	-184.465	0.323	-0.005
-567.617	-115.725	0.333	-0.063
-566.602	138.496	-0.003	-0.004
-565.588	-68.831	-0.158	0.061
-564.573	262.635	0.059	0.102
-563.558	-200.000	-0.028	0.317
-562.544	-200.000	-0.078	0.375
-561.529	311.909	0.049	-0.091
-560.515	83.774	-0.110	0.120
-559.500	-41.009	-0.113	-0.058
-558.485	800.000	-0.100	0.337
-557.471	-200.000	0.038	0.176
-556.456	152.680	0.073	-0.100
-555.442	354.297	-0.232	0.462
-554.427	6.587	0.251	0.187
-553.412	-101.950	0.147	0.036
-552.398	254.464	-0.150	0.257
-551.383	-200.000	0.017	0.217
-550.369	290.431	-0.023	-0.043
-549.354	-130.769	-0.172	-0.023
-548.339	-200.000	0.016	0.566
-547.325	81.473	0.185	-0.200
-546.310	99.451	-0.174	0.202
-545.296	-123.385	-0.274	-0.044
-544.281	-200.000	-0.002	0.148
-543.266	-42.057	0.204	0.105
-542.252	-200.000	0.004	0.418
-541.237	-19.473	0.080	-0.050
-540.223	800.000	0.087	0.288
-539.208	-200.000	0.030	0.373
-538.193	8.033	0.204	-0.153
-537.179	1.355	0.206	0.149
-536.164	-139.402	0.139	-0.015
-535.150	-36.084	0.475	-0.257
-534.135	-61.177	0.266	-0.112
-533.121	120.498	0.226	-0.281
-532.106	800.000	0.161	0.527
-531.091	-159.925	0.187	-0.010
-530.077	37.488	0.155	-0.138
-529.062	-27.978	-0.080	0.046
-528.048	-100.585	-0.098	0.024
-527.033	-143.969	0.337	-0.032
-526.018	115.621	0.119	0.145
-525.004	19.912	0.233	-0.188
-523.989	-34.882	0.225	-0.123
-522.975	67.934	-0.078	-0.080
-521.960	77.062	-0.216	-0.229
-520.945	-152.767	-0.296	-0.021
-519.931	-57.262	-0.239	-0.105
-518.916	337.909	0.042	-0.081
-517.902	7.512	-0.210	0.157
-516.887	0.209	-0.163	0.116
-515.872	564.633	-0.095	0.232
-514.858	-31.632	-0.096	0.054
-513.843	-82.098	-0.218	-0.071
-512.829	98.249	-0.176	-0.203
-511.814	-102.236	0.255	-0.061
-510.799	95.063	0.134	0.153
-509.785	-68.574	0.085	-0.033
-508.770	-22.368	0.119	0.072
-507.756	800.000	-0.038	-0.127
-506.741	-69.864	0.131	-0.050
-505.726	-200.000	0.037	0.329
-504.712	-162.909	0.241	0.012
-503.697	699.146	-0.059	-0.155
-502.683	72.445	0.228	-0.238
-501.668	-101.782	-0.399	-0.097
-500.653	0.690	-0.240	0.172
-499.639	219.242	-0.146	0.233
-498.624	-25.770	-0.171	-0.101
-497.610	-76.444	-0.074	-0.026
-496.595	73.827	-0.124	0.131
-495.581	352.609	-0.038	-0.075
-494.566	-200.000	0.062	0.303
-493.551	141.167	0.140	-0.186
-492.537	-200.000	-0.023	0.229
-491.522	-180.991	0.351	0.007
-490.508	800.000	-0.007	-0.028
-489.493	506.212	-0.129	0.298
-488.478	-200.000	0.050	-0.243
-487.464	-19.515	0.175	-0.108
-486.449	71.529	-0.096	-0.099
-485.435	-99.309	0.206	-0.052
-484.420	91.377	-0.163	-0.183
-483.405	-200.000	-0.019	0.207
-482.391	161.912	-0.018	-0.026
-481.376	-130.113	0.230	-0.031
-480.362	800.000	0.009	-0.030
-479.347	98.348	0.063	0.073
-478.332	66.613	-0.284	0.289
-477.318	-99.856	0.214	-0.053
-476.303	800.000	-0.016	0.054
-475.289	160.362	-0.216	-0.301
-474.274	94.279	0.177	-0.200
-473.259	-97.378	0.246	-0.064
-472.245	-96.859	0.113	0.030
-471.230	238.329	-0.019	0.032
-470.216	-200.000	-0.043	0.292
-469.201	255.683	-0.154	-0.265
-468.186	-156.242	0.307	-0.019
-467.172	800.000	-0.095	-0.378
-466.157	-40.793	0.253	-0.131
-465.143	81.400	0.131	0.141
-464.128	636.845	-0.101	0.257
-463.113	-55.096	-0.122	-0.055
-462.099	94.958	-0.231	0.262
-461.084	99.369	0.117	-0.135
-460.070	745.656	0.071	-0.191
-459.055	-200.000	0.021	0.177
-458.040	800.000	-0.071	0.209
-457.026	509.221	0.181	-0.420
-456.011	-14.079	0.167	-0.108
-454.997	155.221	-0.033	-0.045
-453.982	604.971	-0.050	0.123
-452.968	-150.804	0.412	-0.031
-451.953	-0.448	-0.119	-0.084
-450.938	-200.000	-0.015	-0.109
-449.924	800.000	0.081	0.260
-448.909	114.439	-0.010	0.012
-447.895	-13.526	0.307	0.199
-446.880	-43.147	0.050	0.025
-445.865	-110.935	0.284	0.058
-444.851	-141.831	0.145	-0.014
-443.836	-0.521	0.073	-0.052
-442.822	193.695	0.168	0.253
-441.807	-200.000	-0.033	-0.270
-440.792	630.711	-0.039	0.100
-439.778	-200.000	-0.026	0.391
-438.763	120.216	-0.033	0.041
-437.749	50.140	-0.225	-0.212
-436.734	-86.539	-0.186	-0.057
-435.719	-105.105	-0.451	0.103
-434.705	800.000	0.058	-0.209
-433.690	360.876	-0.072	-0.145
-432.676	-200.000	-0.026	-0.153
-431.661	204.532	0.108	0.168
-430.646	766.637	-0.089	0.241
-429.632	-200.000	0.032	0.235
-428.617	-200.000	-0.049	-0.295
-427.603	375.119	-0.142	0.288
-426.588	77.169	0.154	0.163
-425.573	12.368	-0.099	-0.076
-424.559	454.593	-0.094	0.207
-423.544	-200.000	0.004	-0.382
-422.530	-200.000	0.031	-0.256
-421.515	449.747	0.036	-0.079
-420.500	-175.536	-0.244	-0.007
-419.486	800.000	0.023	-0.092
-418.471	564.060	-0.124	0.298
-417.457	-46.772	0.370	0.181
-416.442	-166.667	0.217	-0.009
-415.428	-114.235	-0.400	0.077
-414.413	-100.734	-0.322	-0.079
-413.398	-200.000	0.009	0.165
-412.384	-141.952	-0.350	-0.035
-411.369	-200.000	0.021	0.169
-410.355	303.253	-0.034	0.063
-409.340	-200.000	0.015	0.207
-408.325	-200.000	-0.034	0.360
-407.311	392.271	0.081	-0.168
-406.296	0.682	-0.280	0.200
-405.282	-200.000	-0.021	-0.123
-404.267	-26.169	0.283	0.166
-403.252	271.849	-0.044	-0.077
-402.238	-46.813	-0.119	-0.058
-401.223	-200.000	0.011	-0.323
-400.209	33.432	0.278	0.240
-399.194	-31.433	-0.140	0.078
-398.179	-200.000	0.033	-0.149
-397.165	58.143	-0.140	-0.136
-396.150	9.887	0.074	-0.056
-395.136	-70.626	0.037	0.014
-394.121	648.382	0.050	0.128
-393.106	-200.000	-0.032	-0.301
-392.092	800.000	-0.092	-0.285
-391.077	338.272	-0.130	-0.251
-390.063	-132.777	-0.093	0.012
-389.048	-200.000	0.033	-0.144
-388.033	-14.597	0.190	-0.122
-387.019	-109.477	-0.462	0.097
-386.004	-129.868	0.207	-0.028
-384.990	-80.495	-0.038	0.012
-383.975	-31.523	-0.168	0.094
-382.960	359.351	0.046	-0.091
-381.946	-102.393	0.142	-0.034
-380.931	434.798	-0.091	0.196
-379.917	612.319	-0.062	0.153
-378.902	-108.633	-0.401	0.086
-377.888	-21.427	-0.066	0.040
-376.873	729.907	-0.055	0.147
-375.858	-200.000	-0.038	-0.195
-374.844	-118.444	0.047	-0.008
-373.829	-33.921	-0.051	-0.028
-372.815	-8.217	0.236	-0.158
-371.800	-26.646	0.193	0.112
-370.785	199.010	-0.096	-0.147
-369.771	127.903	-0.099	-0.126
-368.756	31.038	0.238	0.203
-367.742	-50.717	-0.122	-0.057
-366.727	7.495	-0.282	0.210
-365.712	77.944	-0.286	-0.303
-364.698	86.269	0.290	-0.318
-363.683	800.000	-0.054	0.228
-362.669	-55.041	0.137	-0.062
-361.654	85.720	-0.094	-0.103
-360.639	800.000	-0.085	-0.318
-359.625	13.167	-0.158	-0.122
-358.610	25.233	-0.148	-0.122
-357.596	-152.725	-0.137	0.010
-356.581	-200.000	-0.046	0.312
-355.566	48.513	-0.221	0.206
-354.552	-3.442	0.145	-0.100
-353.537	-37.991	0.125	-0.066
-352.523	371.385	-0.134	-0.271
-351.508	-200.000	-0.023	-0.237
-350.493	25.886	-0.339	0.281
-349.479	56.948	-0.060	0.058
-348.464	-124.056	-0.159	-0.025
-347.450	136.033	0.315	-0.408
-346.435	-75.645	-0.314	-0.111
-345.420	220.384	0.059	0.094
-344.406	-200.000	0.015	-0.097
-343.391	-104.000	-0.124	0.029
-342.377	800.000	0.029	-0.100
-341.362	-97.224	-0.262	0.068
-340.348	82.514	0.198	-0.214
-339.333	-82.907	-0.223	0.072
-338.318	-68.633	0.341	-0.131
-337.304	-138.081	-0.267	0.029
-336.289	-200.000	-0.031	0.209
-335.275	278.853	-0.054	-0.095
-334.260	-200.000	-0.011	-0.388
-333.245	15.220	-0.109	0.085
-332.231	502.474	-0.065	0.150
-331.216	185.411	0.078	0.114
-330.202	69.382	0.131	-0.134
-329.187	-48.398	0.206	-0.099
-328.172	307.591	-0.148	-0.274
-327.158	-200.000	0.019	-0.138
-326.143	-76.869	0.082	0.029
-325.129	146.429	-0.265	-0.353
-324.114	-200.000	0.016	-0.111
-323.099	-5.133	-0.105	0.072
-322.085	-200.000	0.005	-0.085
-321.070	-71.978	0.222	-0.082
-320.056	-90.357	0.312	-0.090
-319.041	-47.684	0.353	0.170
-318.026	-116.022	0.145	-0.027
-317.012	-48.347	0.388	0.186
-315.997	-31.332	0.151	0.085
-314.983	-200.000	-0.076	-0.378
-313.968	-122.453	0.170	-0.027
-312.953	43.395	-0.084	0.076
-311.939	-200.000	0.028	0.335
-310.924	301.264	0.238	-0.437
-309.910	-113.749	0.070	0.014
-308.895	174.519	-0.118	0.170
-307.880	-164.107	0.291	0.013
-306.866	-33.217	0.233	-0.128
-305.851	-134.477	-0.071	0.009
-304.837	-81.887	-0.191	-0.062
-303.822	340.864	-0.105	-0.204
-302.807	39.292	0.244	0.216
-301.793	552.184	-0.047	-0.112
-300.778	243.489	-0.067	0.111
-299.764	96.029	0.203	0.230
-298.749	485.254	-0.063	0.143
-297.735	52.392	0.151	0.143
-296.720	-200.000	0.041	0.205
-295.705	126.378	0.215	0.271
-294.691	800.000	-0.053	0.158
-293.676	-200.000	-0.019	-0.257
-292.662	403.493	-0.058	-0.122
-291.647	195.000	0.112	0.169
-290.632	-200.000	-0.084	0.427
-289.618	-200.000	-0.010	-0.177
-288.603	-59.231	0.110	-0.047
-287.589	302.338	0.066	0.122
-286.574	-200.000	0.002	0.371
-285.559	493.338	-0.085	-0.193
-284.545	-76.652	-0.396	-0.138
-283.530	-200.000	0.026	0.242
-282.516	800.000	0.069	0.198
-281.501	-129.762	0.165	-0.023
-280.486	-200.000	0.016	-0.201
-279.472	-200.000	0.007	-0.104
-278.457	104.951	0.105	0.123
-277.443	-4.821	0.162	-0.111
-276.428	238.040	0.145	-0.239
-275.413	1.460	-0.133	0.095
-274.399	-23.440	0.250	0.149
-273.384	-200.000	0.026	-0.229
-272.370	496.889	-0.090	-0.206
-271.355	-17.276	-0.024	0.015
-270.340	-200.000	0.033	-0.162
-269.326	605.662	-0.056	0.139
-268.311	-144.137	-0.273	0.025
-267.297	24.448	0.177	0.145
-266.282	54.959	0.141	0.135
-265.267	-13.641	-0.103	-0.066
-264.253	-125.469	-0.190	0.029
-263.238	392.952	0.083	0.170
-262.224	34.842	-0.165	0.143
-261.209	26.759	0.228	0.189
-260.195	154.545	0.200	-0.272
-259.180	-200.000	-0.022	-0.143
-258.165	-102.976	0.151	-0.035
-257.151	-105.202	0.270	-0.061
-256.136	-153.233	0.288	-0.020
-255.122	800.000	-0.036	0.111
-254.107	-200.000	-0.013	-0.129
-253.092	-83.550	0.263	-0.083
-252.078	-155.984	-0.280	0.018
-251.063	17.530	-0.138	-0.109
-250.049	800.000	0.077	-0.214
-249.034	92.550	0.069	0.077
-248.019	-82.255	-0.048	-0.016
-247.005	4.092	0.209	0.152
-245.990	-163.240	0.261	0.012
-244.976	364.691	-0.196	-0.392
-243.961	-79.189	-0.210	-0.071
-242.946	-200.000	-0.056	0.243
-241.932	157.352	0.115	0.157
-240.917	-59.094	-0.368	-0.157
-239.903	24.721	0.203	0.166
-238.888	-157.214	-0.045	0.003
-237.873	-103.873	0.188	-0.043
-236.859	-200.000	0.014	0.203
-235.844	218.672	-0.177	0.280
-234.830	-69.560	-0.025	-0.010
-233.815	-80.593	-0.195	0.064
-232.800	-22.923	-0.207	0.124
-231.786	-116.441	0.052	-0.009
-230.771	-147.527	0.144	-0.012
-229.757	428.032	-0.160	-0.341
-228.742	162.468	0.172	0.238
-227.727	-79.265	-0.172	-0.058
-226.713	-63.431	0.360	0.146
-225.698	1.111	0.201	-0.143
-224.684	800.000	0.046	0.179
-223.669	800.000	0.036	0.124
-222.655	31.223	-0.042	0.036
-221.640	-58.451	-0.254	-0.109
-220.625	-200.000	-0.003	-0.080
-219.611	800.000	-0.077	-0.319
-218.596	-28.178	0.094	-0.054
-217.582	348.347	0.002	0.004
-216.567	-139.228	-0.123	0.013
-215.552	-64.689	0.366	-0.147
-214.538	-93.207	-0.351	-0.097
-213.523	-93.210	0.134	0.037
-212.509	76.162	0.306	0.321
-211.494	258.207	-0.113	-0.192
-210.479	-84.167	-0.212	0.067
-209.465	123.628	-0.117	-0.145
-208.450	-28.798	-0.225	0.128
-207.436	262.233	0.100	-0.171
-206.421	-200.000	0.007	0.244
-205.406	789.532	0.096	-0.262
-204.392	31.161	-0.192	0.163
-203.377	313.015	-0.058	0.108
-202.363	9.692	0.076	-0.057
-201.348	540.705	-0.079	0.187
-200.333	-144.185	-0.151	0.014
-199.319	-147.121	0.024	0.002
-198.304	-184.817	0.039	0.001
-197.290	83.534	0.165	-0.178
-196.275	-62.778	-0.241	-0.099
-195.260	800.000	-0.003	-0.014
-194.246	-200.000	-0.039	-0.192
-193.231	-5.829	-0.082	0.056
-192.217	4.199	-0.221	-0.160
-191.202	-200.000	0.044	-0.252
-190.187	-166.155	0.173	-0.007
-189.173	-8.306	-0.253	-0.168
-188.158	77.672	0.071	-0.075
-187.144	143.274	-0.164	-0.216
-186.129	-200.000	-0.072	-0.324
-185.114	-106.939	-0.229	-0.050
-184.100	800.000	-0.034	0.103
-183.085	-68.180	0.274	-0.105
-182.071	20.548	0.062	-0.050
-181.056	299.547	0.217	0.395
-180.042	-64.875	0.432	-0.173
-179.027	-127.762	0.067	-0.010
-178.012	106.328	-0.213	0.249
-176.998	132.377	-0.050	-0.064
-175.983	-98.487	0.219	0.055
-174.969	-139.115	0.417	0.044
-173.954	203.544	-0.180	0.275
-172.939	149.169	0.044	-0.059
-171.925	133.818	-0.061	-0.077
-170.910	-15.785	0.366	0.230
-169.896	-20.371	0.283	-0.172
-168.881	-200.000	-0.004	-0.386
-167.866	-5.324	0.170	0.116
-166.852	-200.000	0.033	0.242
-165.837	116.268	-0.151	0.182
-164.823	7.247	0.074	-0.054
-163.808	270.723	0.056	0.098
-162.793	-99.424	-0.382	0.095
-161.779	366.489	0.043	0.087
-160.764	-98.343	-0.423	-0.107
-159.750	-71.899	-0.212	0.078
-158.735	800.000	0.033	-0.141
-157.720	-186.933	0.097	-0.001
-156.706	97.310	-0.217	-0.246
-155.691	800.000	-0.041	-0.126
-154.677	-166.665	0.118	-0.005
-153.662	66.624	-0.141	-0.142
-152.647	121.327	-0.203	-0.249
-151.633	-109.445	0.337	0.070
-150.618	420.343	0.103	0.218
-149.604	-89.849	0.294	0.085
-148.589	-200.000	0.032	0.189
-147.574	5.977	0.293	-0.214
-146.560	418.443	0.109	-0.229
-145.545	-142.398	-0.292	0.028
-144.531	45.483	-0.101	0.092
-143.516	176.553	0.208	0.299
-142.502	-137.803	-0.263	0.029
-141.487	87.181	-0.151	0.164
-140.472	-130.398	-0.152	-0.020
-139.458	-124.358	0.284	-0.044
-138.443	160.491	0.144	-0.198
-137.429	733.921	-0.152	0.401
-136.414	-36.476	0.229	-0.122
-135.399	-100.624	0.226	0.055
-134.385	98.991	-0.166	0.189
-133.370	-154.212	0.138	0.009
-132.356	-56.780	-0.017	0.008
-131.341	157.065	-0.082	-0.112
-130.326	133.677	-0.087	0.111
-129.312	800.000	0.117	0.324
-128.297	167.532	-0.040	0.056
-127.283	-5.875	0.068	-0.046
-126.268	-78.428	-0.137	-0.046
-125.253	-63.355	0.041	0.016
-124.239	800.000	-0.038	0.134
-123.224	-105.188	0.428	-0.096
-122.210	226.037	0.105	0.167
-121.195	-41.766	0.398	0.202
