DTS Sentinel unit serial number:	SN413079Multiplexer serial number:	ORYXHardware model number:	OX4-SRSoftware version number:	ORYX F/W v4.00 Oryx Data Collector v3.7.2.0data status	okinstallation	princeton_trtdifferential loss correction	single-endedforward channel	channel 3reverse channel	N/Adate	2019/09/11time	11:26:11forward acquisition time	60.00reverse acquisition time	0.00gamma	496.2192k internal	0.2294k external	0.2294temperature offset calibration	0.9947default loss term (dB/km)	0.3790temperature slope calibration	1.0000multiplexer offset coefficient	1.0000multiplexer slope coefficient	1.0000fibre end	0.00T internal ref (°C)	37.89T ext. ref 1 (°C)	0.19T ext. ref 2 (°C)	35.65length (m)	temperature (°C)	Stokes	anti-Stokes-747.200	-9.055	0.253	-0.173
-746.185	247.609	-0.107	0.184
-745.171	800.000	-0.081	-0.272
-744.156	-165.215	-0.281	0.013
-743.142	119.322	-0.143	-0.181
-742.127	83.413	-0.121	-0.134
-741.112	-200.000	-0.014	-0.084
-740.098	800.000	-0.077	0.238
-739.083	473.262	-0.064	-0.148
-738.069	-200.000	0.241	0.000
-737.054	-54.938	0.261	0.120
-736.039	800.000	0.107	-0.475
-735.025	-16.170	-0.092	-0.060
-734.010	213.204	-0.187	-0.301
-732.996	-200.000	-0.042	-0.273
-731.981	455.313	0.039	0.089
-730.966	-200.000	0.015	-0.366
-729.952	800.000	-0.020	-0.064
-728.937	-131.065	-0.334	-0.046
-727.923	-29.831	-0.167	0.098
-726.908	76.100	0.089	0.096
-725.894	-79.255	-0.148	0.051
-724.879	-47.699	-0.373	-0.185
-723.864	-200.000	0.003	0.032
-722.850	-30.747	-0.231	-0.133
-721.835	-200.000	0.036	0.208
-720.821	-200.000	-0.006	0.233
-719.806	-200.000	0.026	-0.174
-718.791	800.000	-0.070	-0.220
-717.777	-42.666	-0.099	0.052
-716.762	239.076	-0.136	-0.230
-715.748	-85.011	-0.274	0.088
-714.733	303.179	-0.178	0.337
-713.718	109.218	0.124	-0.151
-712.704	-27.452	-0.076	-0.045
-711.689	219.152	-0.196	0.321
-710.675	-200.000	0.013	0.227
-709.660	396.419	-0.154	-0.329
-708.645	-200.000	0.006	-0.127
-707.631	125.086	0.246	-0.316
-706.616	-200.000	-0.026	-0.233
-705.602	-126.190	0.384	-0.059
-704.587	-7.274	0.099	-0.068
-703.572	32.544	-0.169	-0.150
-702.558	-97.141	-0.349	-0.093
-701.543	-119.788	0.359	0.063
-700.529	767.478	0.094	0.262
-699.514	-68.538	-0.259	-0.102
-698.499	-137.752	-0.093	-0.011
-697.485	3.723	-0.201	-0.150
-696.470	-2.090	0.049	0.035
-695.456	535.051	0.099	0.240
-694.441	80.360	0.150	0.165
-693.426	433.385	0.164	-0.363
-692.412	700.622	-0.038	-0.103
-691.397	22.867	-0.237	0.198
-690.383	370.016	0.097	0.200
-689.368	505.747	-0.214	-0.506
-688.354	3.523	-0.307	0.228
-687.339	387.131	0.050	-0.105
-686.324	653.231	-0.053	-0.139
-685.310	303.749	-0.064	-0.121
-684.295	34.130	-0.247	0.220
-683.281	72.323	-0.087	-0.092
-682.266	-17.990	-0.112	-0.072
-681.251	-47.722	0.079	-0.039
-680.237	-98.534	-0.144	-0.038
-679.222	86.624	0.145	0.163
-678.208	13.924	-0.155	-0.123
-677.193	-200.000	-0.006	-0.215
-676.178	20.878	-0.057	-0.047
-675.164	-200.000	0.003	0.046
-674.149	44.801	0.162	0.152
-673.135	-46.394	-0.016	-0.008
-672.120	123.129	-0.193	-0.246
-671.105	-200.000	0.037	-0.193
-670.091	-200.000	0.005	-0.033
-669.076	-53.509	0.176	0.082
-668.062	-147.442	-0.325	0.028
-667.047	-30.509	-0.329	0.190
-666.032	-200.000	-0.050	-0.446
-665.018	-200.000	-0.029	0.185
-664.003	-91.585	0.207	-0.060
-662.989	-200.000	-0.010	-0.272
-661.974	18.263	-0.195	-0.159
-660.959	-13.145	-0.039	0.026
-659.945	-157.008	-0.327	-0.020
-658.930	-126.666	0.148	-0.022
-657.916	48.439	-0.068	-0.065
-656.901	20.827	0.163	-0.134
-655.886	-53.995	0.251	-0.116
-654.872	-18.400	0.245	-0.156
-653.857	-111.126	0.542	0.113
-652.843	7.158	0.251	-0.191
-651.828	-83.512	0.196	0.064
-650.814	-42.973	0.025	0.013
-649.799	1.090	-0.035	0.026
-648.784	293.600	0.041	0.075
-647.770	-200.000	0.004	-0.106
-646.755	136.933	-0.262	0.349
-645.741	738.005	-0.030	0.083
-644.726	-200.000	-0.012	-0.070
-643.711	800.000	-0.068	-0.279
-642.697	-105.475	0.114	0.026
-641.682	105.495	0.085	-0.103
-640.668	800.000	-0.043	0.184
-639.653	188.441	-0.150	-0.229
-638.638	-105.586	-0.212	0.049
-637.624	-200.000	-0.021	-0.121
-636.609	501.151	-0.047	0.111
-635.595	-200.000	-0.005	-0.127
-634.580	-138.544	-0.184	-0.021
-633.565	10.400	0.277	0.215
-632.551	78.111	0.242	-0.263
-631.536	-104.461	0.207	-0.049
-630.522	79.959	-0.101	0.110
-629.507	-200.000	0.005	-0.246
-628.492	800.000	-0.077	-0.279
-627.478	-15.140	-0.170	0.111
-626.463	-90.765	-0.099	0.029
-625.449	-60.571	-0.418	0.181
-624.434	75.260	-0.153	0.165
-623.419	68.968	-0.132	0.138
-622.405	17.609	0.077	0.062
-621.390	85.525	0.257	-0.287
-620.376	-86.746	-0.078	0.024
-619.361	-46.903	0.191	-0.095
-618.346	35.330	0.102	0.091
-617.332	57.511	0.027	0.027
-616.317	800.000	-0.073	0.248
-615.303	800.000	0.060	-0.171
-614.288	44.775	-0.182	-0.170
-613.273	-131.803	-0.123	-0.016
-612.259	41.787	-0.270	-0.249
-611.244	-163.825	-0.306	-0.015
-610.230	-200.000	0.014	-0.075
-609.215	-49.335	0.494	0.240
-608.201	-66.080	0.229	0.093
-607.186	47.338	0.351	0.333
-606.171	46.218	-0.142	0.134
-605.157	130.937	-0.212	0.277
-604.142	100.172	0.081	0.096
-603.128	26.133	0.152	-0.129
-602.113	32.569	0.053	0.046
-601.098	-200.000	-0.039	0.200
-600.084	800.000	0.026	0.109
-599.069	-73.595	0.311	-0.115
-598.055	-200.000	0.002	-0.029
-597.040	343.013	0.010	-0.020
-596.025	-200.000	0.022	0.193
-595.011	800.000	0.055	-0.226
-593.996	-22.246	0.269	0.166
-592.982	-181.040	0.220	-0.004
-591.967	-7.121	-0.060	-0.041
-590.952	-91.196	-0.203	-0.059
-589.938	-67.732	0.121	-0.048
-588.923	-51.987	0.104	-0.049
-587.909	-10.908	0.087	-0.058
-586.894	32.397	-0.089	0.078
-585.879	215.435	-0.081	-0.130
-584.865	656.572	0.035	-0.090
-583.850	74.809	-0.208	-0.222
-582.836	14.671	0.029	-0.023
-581.821	-200.000	0.025	-0.138
-580.806	-45.780	-0.287	-0.144
-579.792	679.735	0.150	-0.397
-578.777	60.780	-0.120	-0.121
-577.763	76.548	-0.213	-0.229
-576.748	-200.000	0.111	0.516
-575.733	389.849	-0.048	-0.101
-574.719	46.133	-0.214	0.202
-573.704	-52.651	0.120	0.056
-572.690	703.926	-0.092	-0.248
-571.675	-90.750	-0.094	-0.027
-570.661	-110.260	0.374	-0.079
-569.646	150.190	0.051	-0.070
-568.631	-20.768	0.317	-0.197
-567.617	74.474	-0.135	-0.144
-566.602	369.488	0.149	-0.307
-565.588	25.582	-0.076	-0.064
-564.573	118.762	-0.100	-0.125
-563.558	-200.000	0.032	-0.367
-562.544	31.045	-0.296	-0.258
-561.529	794.275	0.086	0.240
-560.515	-200.000	0.006	0.269
-559.500	-122.883	0.376	0.062
-558.485	-200.000	-0.015	0.171
-557.471	49.517	0.255	-0.244
-556.456	-200.000	-0.026	-0.224
-555.442	243.065	0.022	-0.037
-554.427	248.639	0.159	0.273
-553.412	-200.000	0.001	-0.254
-552.398	-127.345	0.156	-0.023
-551.383	246.097	-0.052	0.089
-550.369	-95.355	-0.279	0.076
-549.354	-98.125	-0.154	-0.040
-548.339	738.328	-0.059	-0.162
-547.325	800.000	0.092	-0.320
-546.310	-200.000	0.002	-0.068
-545.296	-200.000	0.014	0.079
-544.281	-61.505	0.142	0.061
-543.266	800.000	0.077	0.324
-542.252	-200.000	0.040	-0.347
-541.237	7.617	0.244	0.186
-540.223	-67.899	0.267	0.106
-539.208	49.882	0.171	-0.164
-538.193	-55.834	-0.121	0.055
-537.179	-34.403	-0.118	-0.065
-536.164	20.826	-0.282	0.231
-535.150	-2.596	-0.289	-0.205
-534.135	-39.050	0.308	0.164
-533.121	-172.616	-0.095	-0.003
-532.106	-132.953	0.257	-0.033
-531.091	-135.130	-0.207	-0.025
-530.077	21.559	-0.095	-0.078
-529.062	272.364	0.153	0.274
-528.048	430.725	-0.044	-0.096
-527.033	-146.671	0.453	-0.040
-526.018	7.668	-0.329	-0.249
-525.004	31.981	-0.198	-0.173
-523.989	800.000	-0.082	0.262
-522.975	362.559	0.170	-0.346
-521.960	-75.940	-0.400	0.144
-520.945	-200.000	0.010	-0.126
-519.931	101.531	-0.219	0.258
-518.916	124.596	0.225	-0.287
-517.902	-147.916	0.316	-0.027
-516.887	-149.930	0.235	0.019
-515.872	-10.200	0.109	-0.073
-514.858	448.304	-0.061	0.136
-513.843	446.809	0.152	-0.339
-512.829	297.158	-0.150	0.280
-511.814	-82.822	-0.444	0.145
-510.799	35.622	-0.036	0.032
-509.785	75.902	-0.124	-0.133
-508.770	450.300	0.055	0.123
-507.756	-62.251	-0.289	0.122
-506.741	-173.857	0.048	0.001
-505.726	-39.713	0.096	0.051
-504.712	50.590	-0.165	0.158
-503.697	-115.101	0.182	0.035
-502.683	29.190	-0.127	-0.110
-501.668	-32.901	-0.268	-0.151
-500.653	85.106	0.164	-0.182
-499.639	-193.015	-0.248	-0.002
-498.624	237.212	-0.133	-0.223
-497.610	-141.231	0.391	-0.040
-496.595	88.064	0.138	0.155
-495.581	-80.141	0.195	-0.066
-494.566	-39.643	0.290	-0.154
-493.551	800.000	-0.086	0.293
-492.537	-124.850	0.214	0.033
-491.522	333.512	-0.215	0.421
-490.508	-6.728	-0.350	-0.241
-489.493	-25.406	-0.051	0.031
-488.478	44.912	-0.041	0.039
-487.464	173.625	0.189	0.276
-486.449	800.000	0.015	-0.058
-485.435	-200.000	-0.003	-0.093
-484.420	-86.268	-0.279	0.087
-483.405	-30.200	-0.128	-0.074
-482.391	800.000	-0.022	0.088
-481.376	-91.535	0.193	-0.056
-480.362	800.000	0.029	0.094
-479.347	-200.000	-0.038	-0.265
-478.332	-200.000	-0.006	0.184
-477.318	800.000	-0.081	0.247
-476.303	-162.285	0.357	-0.018
-475.289	-123.381	0.215	-0.035
-474.274	516.944	-0.176	0.415
-473.259	-78.794	0.040	-0.014
-472.245	82.851	0.311	-0.342
-471.230	-92.527	0.346	-0.098
-470.216	-134.437	0.332	-0.041
-469.201	38.520	0.165	-0.149
-468.186	142.991	-0.192	-0.259
-467.172	-200.000	-0.032	0.180
-466.157	163.522	0.108	0.153
-465.143	275.560	0.073	0.131
-464.128	-51.418	-0.269	0.127
-463.113	455.298	0.065	0.145
-462.099	-93.684	-0.191	-0.053
-461.084	-73.407	-0.149	0.055
-460.070	-200.000	-0.002	0.035
-459.055	-100.970	-0.147	0.036
-458.040	-89.034	0.287	0.086
-457.026	-59.958	0.255	-0.110
-456.011	-126.803	-0.139	-0.021
-454.997	-21.234	-0.166	0.102
-453.982	-75.831	-0.217	-0.078
-452.968	727.972	-0.140	0.378
-451.953	127.990	0.275	0.354
-450.938	-200.000	0.006	-0.236
-449.924	9.476	0.097	0.074
-448.909	110.962	0.188	-0.229
-447.895	40.309	0.176	-0.160
-446.880	-47.321	0.247	0.121
-445.865	-82.230	0.373	0.123
-444.851	-200.000	0.024	-0.242
-443.836	-84.484	0.239	-0.076
-442.822	-82.324	0.080	-0.026
-441.807	-142.488	0.197	0.020
-440.792	570.156	-0.038	-0.094
-439.778	27.877	0.215	0.183
-438.763	-52.591	0.195	-0.091
-437.749	-85.678	-0.389	0.122
-436.734	-33.349	0.158	0.088
-435.719	800.000	-0.081	0.308
-434.705	204.121	-0.079	0.123
-433.690	-66.102	-0.158	0.064
-432.676	-135.290	-0.208	0.025
-431.661	-50.458	0.170	0.081
-430.646	800.000	0.109	-0.338
-429.632	-45.920	0.180	-0.089
-428.617	28.919	-0.218	0.187
-427.603	128.070	-0.216	-0.277
-426.588	-127.626	-0.101	-0.015
-425.573	-36.737	0.050	0.027
-424.559	-200.000	0.052	-0.373
-423.544	-129.643	-0.302	0.042
-422.530	-200.000	0.005	-0.263
-421.515	-55.830	0.148	-0.067
-420.500	89.891	-0.128	-0.144
-419.486	306.641	0.081	0.152
-418.471	-200.000	-0.003	-0.127
-417.457	89.418	-0.131	0.147
-416.442	-198.316	-0.106	-0.001
-415.428	14.283	-0.171	0.135
-414.413	460.538	0.141	-0.318
-413.398	-200.000	-0.015	-0.131
-412.384	-67.149	-0.480	0.191
-411.369	-50.908	0.019	-0.009
-410.355	-179.588	0.439	-0.010
-409.340	-48.975	0.032	0.016
-408.325	-11.775	0.051	0.034
-407.311	-200.000	-0.016	-0.103
-406.296	10.809	-0.062	0.047
-405.282	-91.046	0.099	0.029
-404.267	-53.374	0.168	0.078
-403.252	84.435	-0.202	-0.223
-402.238	-58.152	-0.237	0.104
-401.223	-138.857	0.249	-0.027
-400.209	-180.456	-0.112	0.002
-399.194	-157.154	0.362	0.022
-398.179	21.265	-0.112	-0.092
-397.165	-114.133	0.106	-0.021
-396.150	84.081	-0.161	0.177
-395.136	-103.118	0.271	-0.065
-394.121	62.248	0.248	-0.250
-393.106	-200.000	-0.005	-0.191
-392.092	-77.709	-0.201	0.070
-391.077	174.404	-0.028	-0.041
-390.063	254.603	-0.120	0.207
-389.048	800.000	0.033	-0.120
-388.033	47.974	0.192	-0.181
-387.019	-51.565	0.073	-0.034
-386.004	-82.830	-0.149	0.049
-384.990	-200.000	-0.006	-0.159
-383.975	-154.881	0.181	-0.012
-382.960	-34.301	0.445	-0.246
-381.946	-0.188	0.102	-0.073
-380.931	-128.899	-0.104	-0.015
-379.917	715.820	-0.039	0.104
-378.902	-91.290	-0.302	0.087
-377.888	800.000	-0.014	0.051
-376.873	-200.000	-0.026	0.146
-375.858	633.429	-0.128	0.326
-374.844	-194.534	-0.100	-0.001
-373.829	701.109	0.080	-0.213
-372.815	114.112	-0.057	0.070
-371.800	33.713	-0.195	-0.171
-370.785	82.872	-0.211	0.231
-369.771	189.731	-0.076	-0.115
-368.756	94.048	0.130	-0.149
-367.742	-200.000	0.061	-0.449
-366.727	-23.451	0.213	-0.129
-365.712	-59.941	0.222	-0.096
-364.698	-163.016	-0.117	0.006
-363.683	318.800	0.214	0.409
-362.669	-164.348	0.223	-0.010
-361.654	-200.000	0.012	0.197
-360.639	541.234	0.091	0.219
-359.625	-200.000	0.011	-0.145
-358.610	-90.578	-0.139	0.040
-357.596	-51.782	0.092	0.043
-356.581	-39.814	-0.144	-0.076
-355.566	79.679	-0.213	-0.230
-354.552	-86.288	0.073	-0.023
-353.537	-200.000	-0.008	-0.135
-352.523	-100.220	0.331	-0.083
-351.508	-154.335	0.249	0.017
-350.493	59.335	0.076	-0.075
-349.479	134.746	0.201	-0.263
-348.464	-200.000	-0.002	0.016
-347.450	273.810	-0.251	-0.447
-346.435	-127.524	-0.211	0.031
-345.420	-137.849	0.142	0.016
-344.406	680.949	0.062	-0.163
-343.391	-15.357	-0.102	0.066
-342.377	421.401	-0.102	0.220
-341.362	-108.878	-0.078	-0.017
-340.348	-103.111	0.355	-0.085
-339.333	-97.269	0.379	0.099
-338.318	-52.374	0.321	0.150
-337.304	-2.450	-0.255	0.180
-336.289	-77.906	-0.189	0.065
-335.275	800.000	-0.060	0.167
-334.260	-113.329	-0.252	0.050
-333.245	-123.611	-0.096	0.015
-332.231	603.881	0.071	0.177
-331.216	-191.766	0.197	-0.002
-330.202	800.000	-0.056	0.225
-329.187	-4.796	-0.182	-0.126
-328.172	-104.296	0.205	-0.048
-327.158	-31.102	-0.383	0.217
-326.143	-18.299	-0.248	-0.156
-325.129	-200.000	-0.056	-0.288
-324.114	446.468	-0.039	-0.085
-323.099	-30.530	0.249	0.142
-322.085	155.769	-0.107	-0.148
-321.070	-106.047	0.249	0.056
-320.056	-200.000	0.031	-0.195
-319.041	-163.508	0.066	-0.003
-318.026	41.825	0.256	-0.233
-317.012	-95.824	-0.240	0.064
-315.997	17.511	-0.132	0.106
-314.983	800.000	0.093	-0.292
-313.968	303.072	-0.142	0.264
-312.953	142.104	-0.103	-0.137
-311.939	77.361	0.292	-0.312
-310.924	-168.958	-0.417	0.016
-309.910	800.000	0.089	0.266
-308.895	69.256	-0.081	0.084
-307.880	-86.861	-0.525	0.161
-306.866	-14.130	0.031	-0.020
-305.851	-69.978	0.117	-0.045
-304.837	-46.481	0.320	-0.158
-303.822	-30.331	-0.145	0.083
-302.807	-200.000	-0.006	0.168
-301.793	-84.294	0.139	-0.044
-300.778	125.533	0.066	-0.084
-299.764	-58.466	-0.331	0.145
-298.749	135.512	0.062	0.081
-297.735	209.142	-0.145	0.228
-296.720	800.000	0.075	0.254
-295.705	12.459	0.254	0.196
-294.691	-131.367	0.087	-0.012
-293.676	-79.704	-0.155	-0.053
-292.662	231.783	0.087	0.143
-291.647	-200.000	0.034	-0.328
-290.632	-200.000	0.028	0.221
-289.618	-127.714	-0.509	0.074
-288.603	-135.929	-0.233	0.028
-287.589	344.449	0.208	-0.409
-286.574	207.510	0.080	0.125
-285.559	-99.232	0.060	-0.015
-284.545	-55.277	-0.243	-0.110
-283.530	-44.237	-0.126	-0.063
-282.516	-200.000	0.039	-0.229
-281.501	-17.016	0.223	0.142
-280.486	-105.336	-0.251	0.057
-279.472	95.359	-0.042	0.048
-278.457	140.400	0.070	0.092
-277.443	224.118	-0.264	0.429
-276.428	64.209	0.068	0.069
-275.413	800.000	-0.080	-0.237
-274.399	249.158	-0.042	0.072
-273.384	169.555	-0.132	-0.189
-272.370	-66.267	0.444	-0.177
-271.355	-38.787	0.139	-0.074
-270.340	-112.104	-0.308	0.062
-269.326	-125.662	-0.211	-0.032
-268.311	265.921	-0.135	0.236
-267.297	-144.913	0.167	-0.015
-266.282	242.000	-0.049	0.082
-265.267	-200.000	-0.079	0.422
-264.253	3.329	-0.262	-0.191
-263.238	127.742	0.046	-0.058
-262.224	-77.257	-0.250	0.087
-261.209	-31.255	0.227	0.128
-260.195	590.361	-0.108	0.266
-259.180	15.813	-0.125	0.099
-258.165	-89.414	0.259	0.076
-257.151	-125.690	0.084	0.013
-256.136	-200.000	0.050	0.284
-255.122	44.625	-0.050	0.046
-254.107	-130.649	0.020	0.003
-253.092	-200.000	-0.053	-0.272
-252.078	-149.382	-0.225	-0.018
-251.063	29.196	0.201	0.171
-250.049	-29.904	0.312	-0.179
-249.034	799.437	-0.150	-0.415
-248.019	800.000	-0.062	-0.259
-247.005	-200.000	-0.030	-0.156
-245.990	-15.150	0.235	0.151
-244.976	-69.177	-0.145	-0.056
-243.961	138.288	0.198	0.260
-242.946	222.028	-0.175	0.282
-241.932	800.000	-0.047	0.140
-240.917	-1.809	0.094	0.066
-239.903	800.000	-0.073	-0.249
-238.888	-110.637	-0.320	0.066
-237.873	38.701	-0.389	-0.348
-236.859	248.456	0.070	0.119
-235.844	-110.359	0.401	-0.084
-234.830	-71.338	0.287	0.108
-233.815	-116.782	-0.083	-0.015
-232.800	-200.000	-0.061	-0.318
-231.786	5.901	-0.144	0.107
-230.771	-30.014	0.201	-0.115
-229.757	-200.000	0.021	-0.145
-228.742	-54.173	-0.146	-0.067
-227.727	-9.241	0.178	-0.119
-226.713	274.059	-0.212	0.376
-225.698	-200.000	0.021	0.274
-224.684	290.736	-0.230	0.420
-223.669	83.480	0.105	0.114
-222.655	154.071	-0.071	0.097
-221.640	253.640	0.089	0.152
-220.625	314.275	-0.075	0.142
-219.611	-165.798	0.413	-0.018
-218.596	800.000	0.052	-0.214
-217.582	-170.000	0.192	-0.007
-216.567	-200.000	-0.015	0.298
-215.552	280.292	0.086	0.153
-214.538	-200.000	-0.006	-0.044
-213.523	-90.444	0.159	-0.046
-212.509	-8.284	-0.219	-0.148
-211.494	-169.099	-0.168	-0.006
-210.479	-200.000	0.040	-0.191
-209.465	20.272	-0.338	0.273
-208.450	286.655	-0.190	0.344
-207.436	-10.488	-0.135	0.090
-206.421	-100.833	-0.649	0.160
-205.406	-5.761	0.145	0.100
-204.392	-66.840	-0.112	-0.044
-203.377	-22.081	-0.152	0.093
-202.363	86.806	0.037	-0.040
-201.348	288.591	0.113	-0.206
-200.333	-74.745	-0.052	-0.019
-199.319	597.643	-0.138	0.342
-198.304	-200.000	-0.050	-0.393
-197.290	800.000	0.070	0.206
-196.275	167.372	0.103	0.146
-195.260	-127.295	0.125	0.018
-194.246	800.000	0.060	0.200
-193.231	684.764	-0.006	0.016
-192.217	785.270	0.046	-0.126
-191.202	800.000	0.037	-0.111
-190.187	46.903	-0.132	0.123
-189.173	-47.443	-0.296	0.144
-188.158	-29.824	0.251	0.143
-187.144	24.433	-0.176	0.145
-186.129	102.456	-0.071	-0.083
-185.114	459.287	-0.051	0.113
-184.100	800.000	-0.053	0.149
-183.085	-200.000	0.017	-0.198
-182.071	494.177	-0.062	-0.143
-181.056	5.194	0.191	-0.141
-180.042	11.468	0.111	0.085
-179.027	345.240	-0.097	-0.191
-178.012	254.104	0.135	0.230
-176.998	800.000	0.013	-0.047
-175.983	29.040	-0.116	-0.098
-174.969	-200.000	-0.009	-0.093
-173.954	-200.000	0.021	-0.226
-172.939	-200.000	0.025	-0.176
-171.925	146.279	-0.131	-0.175
-170.910	800.000	-0.024	-0.069
-169.896	304.974	0.103	0.192
-168.881	107.043	0.136	0.161
-167.866	165.005	-0.204	-0.288
-166.852	67.511	-0.029	-0.029
-165.837	-66.793	0.342	-0.135
-164.823	800.000	0.053	0.149
-163.808	16.188	0.249	0.196
-162.793	31.504	-0.128	0.110
-161.779	10.445	0.050	-0.038
-160.764	-200.000	0.003	0.089
-159.750	-200.000	0.025	-0.138
-158.735	52.392	0.087	0.083
-157.720	132.842	0.118	0.152
-156.706	305.545	-0.061	0.113
-155.691	38.143	-0.090	-0.080
-154.677	-156.569	-0.339	0.021
-153.662	-200.000	-0.014	0.090
-152.647	-46.337	-0.241	-0.118
-151.633	169.861	-0.112	0.161
-150.618	800.000	0.057	0.168
-149.604	718.766	-0.107	0.285
-148.589	-200.000	0.042	-0.206
-147.574	-62.077	0.149	-0.062
-146.560	-6.511	0.041	-0.028
-145.545	-42.417	-0.318	-0.162
-144.531	-200.000	-0.010	-0.104
-143.516	-200.000	0.029	-0.283
-142.502	-13.752	-0.045	-0.029
-141.487	361.026	0.077	0.155
-140.472	111.868	-0.044	-0.053
-139.458	10.210	-0.335	-0.255
-138.443	-200.000	-0.094	0.474
-137.429	-123.660	0.543	0.086
-136.414	-21.270	0.097	-0.059
-135.399	-200.000	0.056	-0.298
-134.385	800.000	-0.030	0.109
-133.370	136.374	-0.139	0.181
-132.356	101.018	-0.086	-0.100
-131.341	-93.043	-0.123	-0.034
-130.326	-20.574	-0.205	-0.126
-129.312	-76.919	-0.067	0.024
-128.297	-45.264	-0.328	-0.162
-127.283	-62.043	-0.166	-0.069
-126.268	-154.129	0.256	0.017
-125.253	-200.000	-0.014	-0.293
-124.239	-200.000	-0.027	-0.251
-123.224	-200.000	0.028	-0.203
-122.210	123.259	-0.031	0.039
-121.195	-8.428	0.185	-0.124
