DTS Sentinel unit serial number:	SN413079Multiplexer serial number:	ORYXHardware model number:	OX4-SRSoftware version number:	ORYX F/W v4.00 Oryx Data Collector v3.7.2.0data status	okinstallation	princeton_trtdifferential loss correction	single-endedforward channel	channel 3reverse channel	N/Adate	2019/09/10time	17:22:10forward acquisition time	60.00reverse acquisition time	0.00gamma	496.2192k internal	0.2298k external	0.2298temperature offset calibration	0.9911default loss term (dB/km)	0.3790temperature slope calibration	1.0000multiplexer offset coefficient	1.0000multiplexer slope coefficient	1.0000fibre end	0.00T internal ref (°C)	37.62T ext. ref 1 (°C)	-0.37T ext. ref 2 (°C)	32.30length (m)	temperature (°C)	Stokes	anti-Stokes-747.200	701.847	-0.090	0.241
-746.185	-118.503	-0.191	0.035
-745.171	-200.000	-0.024	0.248
-744.156	49.223	0.202	0.194
-743.142	-40.011	-0.096	0.051
-742.127	657.096	0.103	0.271
-741.112	-109.574	0.225	0.049
-740.098	59.014	0.149	0.149
-739.083	800.000	-0.072	0.231
-738.069	6.503	-0.094	0.071
-737.054	-85.627	0.114	0.036
-736.039	-200.000	-0.064	0.371
-735.025	273.503	-0.024	-0.043
-734.010	239.604	-0.164	-0.279
-732.996	-161.800	-0.596	0.031
-731.981	-200.000	0.019	-0.203
-730.966	292.861	-0.209	-0.389
-729.952	-72.137	-0.101	0.038
-728.937	-113.154	0.278	-0.056
-727.923	558.236	0.129	0.317
-726.908	-200.000	-0.030	-0.240
-725.894	800.000	-0.082	-0.265
-724.879	53.270	-0.229	-0.224
-723.864	187.498	0.091	-0.139
-722.850	-18.682	-0.012	-0.008
-721.835	-6.953	-0.061	-0.042
-720.821	-90.710	-0.125	-0.037
-719.806	-87.010	-0.264	-0.082
-718.791	32.382	0.160	0.141
-717.777	-60.182	-0.277	-0.120
-716.762	603.562	-0.020	0.052
-715.748	293.598	-0.154	-0.287
-714.733	154.091	0.014	-0.019
-713.718	-44.600	0.227	-0.116
-712.704	-26.289	-0.189	-0.113
-711.689	-10.530	0.151	-0.102
-710.675	116.945	-0.265	-0.332
-709.660	532.748	0.143	-0.344
-708.645	-200.000	-0.011	-0.156
-707.631	-200.000	-0.009	0.042
-706.616	-200.000	0.032	0.241
-705.602	-2.220	0.098	0.070
-704.587	-18.833	0.127	-0.081
-703.572	-67.548	-0.095	0.038
-702.558	247.946	-0.146	-0.252
-701.543	-200.000	-0.041	0.216
-700.529	-32.243	0.147	-0.084
-699.514	-95.683	0.229	-0.062
-698.499	-8.376	-0.225	-0.154
-697.485	-34.830	0.333	-0.185
-696.470	800.000	0.063	-0.219
-695.456	-109.765	-0.287	-0.062
-694.441	40.187	-0.187	-0.172
-693.426	-4.480	-0.024	-0.017
-692.412	181.187	-0.139	-0.208
-691.397	198.440	-0.168	0.261
-690.383	-200.000	0.031	0.194
-689.368	37.700	0.135	-0.122
-688.354	800.000	0.140	-0.523
-687.339	617.595	0.103	-0.264
-686.324	81.556	0.168	0.185
-685.310	-22.886	-0.301	0.185
-684.295	92.123	-0.024	0.027
-683.281	213.714	0.127	-0.205
-682.266	-98.372	-0.209	0.055
-681.251	-56.584	-0.272	0.123
-680.237	-76.632	-0.030	0.011
-679.222	-200.000	0.008	0.270
-678.208	344.382	0.166	-0.331
-677.193	800.000	-0.045	-0.174
-676.178	-46.669	0.038	0.019
-675.164	280.126	-0.184	-0.336
-674.149	-200.000	-0.031	-0.221
-673.135	323.253	-0.045	0.087
-672.120	-43.294	0.109	-0.056
-671.105	-200.000	-0.034	-0.255
-670.091	-200.000	-0.010	0.102
-669.076	-14.539	0.021	0.014
-668.062	-96.059	0.257	0.070
-667.047	-102.546	-0.098	-0.024
-666.032	800.000	0.063	-0.184
-665.018	-150.831	-0.065	-0.005
-664.003	-200.000	-0.029	-0.322
-662.989	-63.068	-0.102	-0.043
-661.974	103.246	-0.071	-0.084
-660.959	79.910	0.046	0.050
-659.945	235.833	0.071	-0.120
-658.930	-154.307	-0.126	-0.009
-657.916	-140.015	-0.186	-0.020
-656.901	598.283	0.033	0.082
-655.886	-200.000	-0.008	-0.300
-654.872	-59.813	-0.146	0.063
-653.857	-113.650	-0.146	0.029
-652.843	-200.000	0.001	-0.067
-651.828	-79.296	0.205	0.071
-650.814	-200.000	0.004	0.173
-649.799	-77.934	-0.389	-0.137
-648.784	800.000	0.100	0.301
-647.770	191.196	-0.086	-0.131
-646.755	11.010	-0.106	0.083
-645.741	-178.350	0.229	-0.005
-644.726	800.000	0.059	-0.207
-643.711	343.708	-0.015	-0.031
-642.697	-200.000	-0.036	-0.166
-641.682	-32.373	0.144	-0.082
-640.668	-200.000	0.022	-0.354
-639.653	495.843	0.146	-0.340
-638.638	-11.739	0.069	-0.046
-637.624	-16.155	-0.134	-0.087
-636.609	-4.255	-0.153	-0.108
-635.595	123.115	0.271	-0.345
-634.580	-200.000	0.001	0.216
-633.565	425.381	-0.154	0.337
-632.551	60.691	0.287	-0.289
-631.536	-200.000	-0.075	-0.423
-630.522	157.454	0.225	-0.317
-629.507	-200.000	0.011	-0.075
-628.492	-200.000	-0.020	-0.177
-627.478	56.175	-0.134	-0.133
-626.463	-42.943	-0.099	0.051
-625.449	800.000	0.073	-0.228
-624.434	-31.651	0.321	-0.183
-623.419	-200.000	0.027	0.338
-622.405	65.248	0.109	-0.112
-621.390	-36.551	0.143	-0.078
-620.376	-43.007	-0.417	0.215
-619.361	-200.000	0.009	0.174
-618.346	242.418	-0.204	-0.347
-617.332	231.843	-0.100	-0.167
-616.317	-50.738	0.368	-0.176
-615.303	-125.130	0.218	0.034
-614.288	-200.000	0.004	0.148
-613.273	-99.916	0.294	-0.075
-612.259	24.903	-0.133	-0.112
-611.244	-95.011	0.195	0.054
-610.230	468.125	0.059	-0.135
-609.215	-46.215	0.317	0.158
-608.201	-200.000	0.021	-0.226
-607.186	800.000	0.069	0.208
-606.171	310.866	-0.059	-0.112
-605.157	-42.391	-0.330	0.171
-604.142	-165.051	-0.227	0.010
-603.128	-157.226	0.088	0.005
-602.113	-18.015	-0.419	-0.267
-601.098	406.605	-0.049	-0.105
-600.084	1.795	-0.295	-0.215
-599.069	-135.883	-0.161	0.019
-598.055	184.691	-0.086	-0.129
-597.040	-100.985	0.223	-0.056
-596.025	386.097	-0.117	-0.246
-595.011	693.978	-0.090	0.240
-593.996	-104.337	0.471	0.111
-592.982	-40.419	0.125	-0.066
-591.967	-81.604	0.238	-0.079
-590.952	0.946	-0.316	-0.230
-589.938	163.414	-0.262	-0.374
-588.923	-57.770	-0.098	0.043
-587.909	-86.610	0.214	-0.066
-586.894	800.000	-0.084	-0.259
-585.879	-8.735	0.078	-0.053
-584.865	2.087	0.248	-0.181
-583.850	65.922	0.399	-0.410
-582.836	5.210	-0.132	0.099
-581.821	-200.000	-0.002	-0.278
-580.806	507.699	-0.012	0.029
-579.792	-32.026	-0.219	0.125
-578.777	-200.000	0.031	0.214
-577.763	-83.325	-0.337	-0.110
-576.748	-89.322	-0.123	0.037
-575.733	-123.153	0.353	-0.057
-574.719	594.098	-0.091	-0.228
-573.704	-48.213	0.292	-0.143
-572.690	-80.039	0.201	-0.068
-571.675	-1.549	-0.262	0.187
-570.661	42.839	-0.184	0.170
-569.646	780.371	0.090	0.251
-568.631	-156.761	0.331	-0.021
-567.617	238.707	-0.025	0.042
-566.602	50.535	-0.375	-0.360
-565.588	-40.579	0.091	0.048
-564.573	-14.050	0.098	-0.064
-563.558	-200.000	0.004	0.258
-562.544	-30.863	-0.283	0.162
-561.529	-23.745	-0.013	-0.008
-560.515	-72.871	-0.309	0.115
-559.500	-12.010	0.319	0.212
-558.485	-23.675	0.092	-0.056
-557.471	-116.085	0.181	0.034
-556.456	517.558	-0.100	0.237
-555.442	-52.177	-0.450	-0.211
-554.427	-106.259	0.322	-0.073
-553.412	-56.904	-0.073	-0.033
-552.398	-200.000	0.025	0.216
-551.383	-11.998	-0.033	-0.022
-550.369	-10.491	0.261	-0.175
-549.354	-200.000	-0.011	0.363
-548.339	-33.078	-0.091	0.051
-547.325	-185.722	0.127	-0.002
-546.310	92.709	0.140	0.160
-545.296	-79.867	-0.315	-0.107
-544.281	644.660	0.170	0.439
-543.266	800.000	-0.054	-0.180
-542.252	-50.870	-0.143	-0.068
-541.237	-151.035	0.117	-0.009
-540.223	-200.000	-0.018	0.285
-539.208	-125.854	0.154	-0.024
-538.193	83.066	-0.167	0.184
-537.179	-108.441	-0.282	-0.062
-536.164	800.000	-0.068	0.213
-535.150	-200.000	-0.034	0.334
-534.135	334.188	-0.136	0.266
-533.121	-200.000	0.020	-0.099
-532.106	-16.945	-0.155	0.099
-531.091	111.261	-0.098	0.120
-530.077	800.000	0.046	-0.137
-529.062	-70.329	0.361	0.139
-528.048	643.694	-0.101	-0.261
-527.033	56.944	0.108	-0.107
-526.018	800.000	-0.055	-0.198
-525.004	311.967	-0.045	-0.086
-523.989	-26.678	0.237	-0.141
-522.975	-188.268	0.185	0.002
-521.960	-167.261	0.186	0.008
-520.945	173.731	-0.126	0.184
-519.931	-18.218	0.111	-0.070
-518.916	25.825	-0.314	0.265
-517.902	800.000	0.093	0.397
-516.887	350.257	0.075	-0.150
-515.872	374.018	-0.083	0.170
-514.858	424.380	-0.122	0.266
-513.843	-43.766	-0.177	-0.090
-512.829	-26.138	0.136	-0.081
-511.814	-13.953	-0.095	-0.062
-510.799	-84.786	0.039	-0.012
-509.785	-42.661	-0.290	-0.149
-508.770	-64.169	-0.091	0.037
-507.756	25.271	0.052	0.044
-506.741	-82.568	-0.082	0.027
-505.726	237.246	0.019	-0.031
-504.712	109.597	0.129	0.157
-503.697	-92.768	-0.420	0.119
-502.683	211.776	-0.100	-0.159
-501.668	88.799	-0.183	-0.206
-500.653	-200.000	-0.008	0.157
-499.639	-200.000	0.701	-0.001
-498.624	213.373	0.120	-0.192
-497.610	216.261	0.018	0.029
-496.595	-1.175	-0.273	-0.195
-495.581	-200.000	-0.045	-0.279
-494.566	800.000	-0.056	-0.217
-493.551	-73.609	-0.352	0.130
-492.537	800.000	-0.116	0.356
-491.522	-162.835	0.185	0.009
-490.508	800.000	-0.031	0.120
-489.493	118.137	0.187	-0.232
-488.478	-71.180	-0.223	0.085
-487.464	13.108	0.135	0.105
-486.449	158.760	-0.060	0.084
-485.435	-200.000	0.020	0.101
-484.420	-134.029	0.055	-0.007
-483.405	4.828	0.145	-0.108
-482.391	-166.227	0.073	0.003
-481.376	-177.870	-0.353	-0.009
-480.362	-16.738	0.106	-0.068
-479.347	-141.620	0.071	-0.007
-478.332	155.401	-0.124	-0.172
-477.318	-200.000	-0.036	0.346
-476.303	-67.047	-0.209	-0.083
-475.289	100.756	-0.151	-0.177
-474.274	-105.814	-0.203	-0.046
-473.259	-174.841	0.113	-0.003
-472.245	-138.727	-0.210	-0.023
-471.230	-200.000	-0.016	0.153
-470.216	393.726	-0.098	-0.207
-469.201	144.887	0.032	0.043
-468.186	-102.929	0.363	-0.087
-467.172	585.357	0.136	0.339
-466.157	-123.524	-0.198	0.032
-465.143	-200.000	-0.017	0.306
-464.128	-200.000	0.024	0.125
-463.113	-200.000	-0.016	0.294
-462.099	-132.206	-0.042	-0.005
-461.084	-145.426	0.353	0.032
-460.070	-105.476	-0.339	-0.078
-459.055	-129.435	-0.055	0.008
-458.040	-121.174	0.254	-0.043
-457.026	-200.000	0.001	-0.149
-456.011	-198.118	-0.101	-0.001
-454.997	-200.000	0.012	0.277
-453.982	28.637	0.050	-0.043
-452.968	-49.642	-0.226	-0.109
-451.953	164.207	-0.193	-0.275
-450.938	-117.242	-0.200	-0.037
-449.924	-200.000	0.044	-0.301
-448.909	-66.844	0.297	-0.119
-447.895	172.357	0.241	0.350
-446.880	359.580	0.058	-0.118
-445.865	-200.000	0.000	0.169
-444.851	-137.011	-0.461	0.053
-443.836	-73.960	-0.186	-0.068
-442.822	-200.000	0.021	0.369
-441.807	-14.294	0.240	0.156
-440.792	800.000	0.053	0.193
-439.778	306.061	0.062	-0.117
-438.763	800.000	0.037	0.119
-437.749	9.505	-0.146	0.112
-436.734	-31.506	0.325	-0.184
-435.719	281.964	-0.095	-0.173
-434.705	-89.145	0.208	-0.062
-433.690	-71.600	-0.116	0.044
-432.676	36.877	-0.181	0.161
-431.661	-3.206	0.136	-0.096
-430.646	97.639	0.079	0.092
-429.632	-200.000	0.024	0.239
-428.617	-113.711	0.084	0.017
-427.603	-157.867	-0.047	0.003
-426.588	-200.000	-0.004	-0.340
-425.573	-96.311	-0.085	0.023
-424.559	-200.000	0.016	-0.106
-423.544	-138.630	-0.259	-0.029
-422.530	17.586	-0.180	-0.144
-421.515	-116.054	0.340	-0.064
-420.500	-48.309	0.237	-0.115
-419.486	-106.241	0.309	0.070
-418.471	-110.250	-0.399	-0.084
-417.457	-200.000	-0.036	0.220
-416.442	183.881	-0.143	0.213
-415.428	-113.642	0.100	-0.020
-414.413	-46.165	-0.232	-0.115
-413.398	94.311	0.082	-0.094
-412.384	346.773	-0.093	-0.184
-411.369	-116.586	-0.039	0.007
-410.355	-178.438	0.230	0.005
-409.340	-158.790	-0.067	0.004
-408.325	-94.079	0.104	0.029
-407.311	90.523	-0.137	0.154
-406.296	517.482	-0.064	0.152
-405.282	304.801	-0.149	-0.278
-404.267	-43.354	-0.149	-0.076
-403.252	33.065	-0.200	0.174
-402.238	800.000	-0.023	0.077
-401.223	-11.697	0.329	-0.218
-400.209	-120.536	-0.161	0.027
-399.194	556.656	-0.101	0.245
-398.179	-25.273	-0.275	-0.164
-397.165	652.378	0.111	0.287
-396.150	-200.000	0.024	-0.120
-395.136	-200.000	-0.035	0.236
-394.121	-59.327	0.192	0.083
-393.106	-200.000	0.028	-0.173
-392.092	42.604	0.209	-0.191
-391.077	243.044	0.019	0.032
-390.063	-200.000	-0.033	0.311
-389.048	-200.000	0.003	0.084
-388.033	-8.412	-0.344	-0.233
-387.019	739.917	-0.067	-0.180
-386.004	201.543	0.113	0.175
-384.990	125.981	0.090	-0.115
-383.975	89.796	0.108	-0.122
-382.960	-43.430	0.235	-0.120
-381.946	-70.173	0.095	0.036
-380.931	-123.476	-0.102	-0.016
-379.917	-51.856	-0.126	0.059
-378.902	-86.888	0.291	-0.089
-377.888	-200.000	-0.038	-0.168
-376.873	-94.386	-0.167	0.046
-375.858	59.812	0.175	0.174
-374.844	12.853	0.122	-0.095
-373.829	239.771	0.060	0.100
-372.815	-200.000	0.048	-0.252
-371.800	15.040	0.205	-0.161
-370.785	-168.577	-0.449	-0.017
-369.771	-152.679	-0.212	0.015
-368.756	245.711	-0.083	-0.140
-367.742	554.325	-0.169	-0.408
-366.727	-19.161	0.202	0.126
-365.712	-37.484	0.245	-0.131
-364.698	-8.387	0.260	0.176
-363.683	-30.020	-0.084	-0.048
-362.669	-171.403	-0.402	-0.013
-361.654	118.095	-0.293	0.364
-360.639	119.990	0.203	0.254
-359.625	44.954	0.155	-0.144
-358.610	207.918	-0.153	0.240
-357.596	800.000	-0.079	0.219
-356.581	317.026	0.055	0.105
-355.566	26.443	0.163	-0.137
-354.552	-200.000	-0.044	0.196
-353.537	203.368	0.134	0.208
-352.523	-142.181	0.405	-0.040
-351.508	800.000	0.119	-0.354
-350.493	-151.505	-0.169	-0.013
-349.479	103.986	-0.182	0.215
-348.464	157.965	0.095	0.132
-347.450	208.484	-0.075	-0.117
-346.435	131.239	-0.317	0.409
-345.420	218.813	0.121	0.194
-344.406	-128.950	-0.170	-0.024
-343.391	108.612	0.097	-0.116
-342.377	25.173	0.147	-0.122
-341.362	-97.202	-0.062	0.016
-340.348	434.696	-0.127	-0.277
-339.333	95.627	-0.252	-0.289
-338.318	36.810	-0.123	0.109
-337.304	216.185	-0.147	0.234
-336.289	253.202	0.177	-0.303
-335.275	324.829	-0.061	0.117
-334.260	-27.632	0.108	-0.063
-333.245	-72.423	0.282	0.105
-332.231	-162.195	-0.071	0.004
-331.216	-120.351	0.235	-0.040
-330.202	145.417	-0.078	0.105
-329.187	210.231	-0.040	0.064
-328.172	800.000	0.127	-0.377
-327.158	800.000	0.083	0.318
-326.143	800.000	0.056	-0.221
-325.129	115.615	-0.234	0.287
-324.114	638.868	0.059	-0.152
-323.099	142.325	0.085	0.113
-322.085	702.421	-0.113	-0.299
-321.070	-180.105	-0.193	-0.004
-320.056	-172.687	0.052	-0.002
-319.041	-23.751	-0.188	0.113
-318.026	-119.590	-0.091	-0.016
-317.012	-200.000	-0.023	0.238
-315.997	-75.748	0.280	0.100
-314.983	-200.000	0.086	-0.399
-313.968	-22.098	0.440	-0.268
-312.953	216.234	0.037	0.059
-311.939	-180.000	-0.188	-0.004
-310.924	42.844	0.164	-0.150
-309.910	-71.412	-0.078	-0.029
-308.895	26.089	-0.175	0.146
-307.880	138.882	0.101	0.134
-306.866	-13.372	0.461	0.300
-305.851	-104.252	0.119	-0.028
-304.837	7.999	-0.144	0.108
-303.822	-53.451	0.250	0.115
-302.807	-82.762	0.324	-0.105
-301.793	-46.642	-0.080	0.039
-300.778	-200.000	0.014	-0.129
-299.764	-84.031	0.048	0.015
-298.749	-200.000	-0.013	-0.156
-297.735	-200.000	-0.005	-0.037
-296.720	-200.000	-0.030	-0.285
-295.705	65.045	0.168	-0.170
-294.691	-41.988	-0.092	0.047
-293.676	-200.000	0.040	0.410
-292.662	-200.000	0.038	-0.219
-291.647	-64.642	0.185	-0.075
-290.632	-63.221	0.120	-0.049
-289.618	113.264	0.088	-0.107
-288.603	184.815	0.160	-0.238
-287.589	-200.000	0.007	0.153
-286.574	-129.116	-0.226	-0.032
-285.559	745.424	-0.100	0.270
-284.545	-145.514	0.267	0.024
-283.530	-200.000	0.054	0.384
-282.516	113.490	0.211	0.257
-281.501	122.341	0.127	0.160
-280.486	-19.629	-0.151	0.094
-279.472	148.291	-0.131	0.177
-278.457	-138.371	0.074	0.008
-277.443	-200.000	0.018	0.093
-276.428	15.746	0.073	-0.057
-275.413	-3.038	0.202	0.141
-274.399	-122.164	0.199	-0.033
-273.384	-200.000	-0.028	0.361
-272.370	53.262	-0.115	-0.111
-271.355	-111.572	-0.205	0.042
-270.340	6.906	-0.088	-0.065
-269.326	-94.402	0.183	0.050
-268.311	-200.000	-0.035	-0.185
-267.297	-103.291	0.041	0.010
-266.282	-200.000	-0.026	0.242
-265.267	422.377	-0.077	0.165
-264.253	-200.000	-0.031	0.141
-263.238	200.010	0.082	0.126
-262.224	-200.000	0.024	-0.293
-261.209	-92.235	-0.066	-0.019
-260.195	23.495	0.236	-0.195
-259.180	-148.946	-0.352	0.028
-258.165	134.171	0.080	0.103
-257.151	41.115	-0.134	0.121
-256.136	8.544	-0.140	0.105
-255.122	-200.000	0.007	-0.133
-254.107	87.453	-0.196	-0.217
-253.092	602.114	-0.052	-0.128
-252.078	-200.000	0.287	-0.001
-251.063	182.245	0.237	0.350
-250.049	54.597	0.153	0.148
-249.034	109.114	0.220	0.264
-248.019	106.120	-0.381	-0.452
-247.005	-131.959	-0.143	0.019
-245.990	54.256	0.085	0.082
-244.976	487.946	0.114	0.261
-243.961	-15.793	0.241	0.154
-242.946	-50.901	0.148	0.069
-241.932	-200.000	-0.032	-0.155
-240.917	227.087	-0.095	-0.155
-239.903	-122.633	0.283	0.046
-238.888	-78.336	0.063	0.022
-237.873	-62.780	0.239	0.099
-236.859	800.000	-0.040	-0.170
-235.844	68.556	-0.085	-0.087
-234.830	-200.000	-0.001	0.442
-233.815	3.028	0.191	-0.139
-232.800	-200.000	0.001	0.015
-231.786	11.995	-0.058	0.045
-230.771	123.033	0.155	0.195
-229.757	-167.475	-0.465	-0.019
-228.742	-61.207	-0.133	0.056
-227.727	-129.360	-0.203	-0.028
-226.713	-65.034	-0.139	-0.056
-225.698	-59.636	-0.493	0.211
-224.684	410.710	-0.158	0.335
-223.669	-200.000	-0.084	0.000
-222.655	-135.812	0.090	0.011
-221.640	-14.931	0.269	-0.172
-220.625	-200.000	-0.015	0.128
-219.611	-125.948	-0.033	-0.005
-218.596	-75.759	-0.202	-0.071
-217.582	3.047	0.139	-0.101
-216.567	800.000	0.133	-0.374
-215.552	-16.134	-0.243	0.154
-214.538	37.836	0.309	-0.275
-213.523	-200.000	-0.000	-0.316
-212.509	-9.225	0.149	-0.100
-211.494	-200.000	-0.035	0.374
-210.479	-200.000	-0.002	-0.067
-209.465	-92.123	-0.231	0.065
-208.450	-48.437	-0.095	-0.046
-207.436	-27.887	-0.278	-0.161
-206.421	605.021	-0.099	-0.247
-205.406	-141.053	-0.326	-0.033
-204.392	-48.330	-0.223	0.108
-203.377	129.254	-0.121	0.155
-202.363	-0.721	-0.185	0.131
-201.348	-150.477	-0.129	-0.010
-200.333	26.906	-0.164	0.137
-199.319	98.208	0.065	-0.075
-198.304	-78.008	0.478	-0.165
-197.290	213.516	0.090	0.142
-196.275	-71.445	0.095	0.035
-195.260	-154.721	0.229	0.015
-194.246	285.887	-0.103	-0.186
-193.231	-35.131	-0.117	0.064
-192.217	115.732	0.198	0.242
-191.202	-45.985	0.520	-0.256
-190.187	-200.000	-0.049	0.226
-189.173	22.299	0.178	-0.145
-188.158	546.249	-0.048	0.114
-187.144	-200.000	-0.038	-0.289
-186.129	3.624	-0.146	-0.107
-185.114	-69.971	-0.058	-0.022
-184.100	67.025	0.170	-0.172
-183.085	201.014	0.085	0.130
-182.071	800.000	-0.038	0.128
-181.056	-15.401	0.065	-0.041
-180.042	2.565	-0.051	0.037
-179.027	-19.570	-0.274	0.169
-178.012	-131.243	-0.335	0.044
-176.998	-114.202	0.163	0.031
-175.983	-200.000	0.008	0.083
-174.969	-17.323	0.099	0.062
-173.954	800.000	0.052	0.173
-172.939	12.906	0.134	-0.104
-171.925	-88.889	-0.148	0.044
-170.910	-94.932	0.409	-0.111
-169.896	33.301	0.226	0.196
-168.881	-86.347	0.147	0.045
-167.866	-66.474	0.016	-0.006
-166.852	-200.000	0.003	-0.091
-165.837	-27.303	-0.341	-0.198
-164.823	-17.575	0.192	0.120
-163.808	110.434	-0.023	-0.028
-162.793	577.709	-0.137	0.335
-161.779	226.142	-0.106	0.172
-160.764	800.000	-0.080	0.237
-159.750	228.517	-0.007	0.012
-158.735	110.667	-0.180	-0.215
-157.720	99.731	0.050	-0.057
-156.706	-183.340	-0.377	0.007
-155.691	304.414	0.162	-0.301
-154.677	63.995	-0.047	-0.047
-153.662	800.000	0.007	-0.027
-152.647	-82.556	-0.198	-0.064
-151.633	-200.000	0.016	0.175
-150.618	-200.000	-0.068	-0.344
-149.604	409.771	0.121	-0.255
-148.589	-33.675	0.183	-0.101
-147.574	-200.000	0.017	-0.237
-146.560	-19.006	0.113	-0.070
-145.545	800.000	-0.089	-0.261
-144.531	-30.464	0.084	0.048
-143.516	-156.085	-0.155	0.010
-142.502	397.739	-0.061	0.127
-141.487	-200.000	0.039	0.246
-140.472	271.088	0.162	-0.284
-139.458	216.100	0.089	0.141
-138.443	55.681	0.169	0.163
-137.429	-93.712	-0.239	-0.066
-136.414	-161.362	-0.173	0.009
-135.399	-71.354	0.359	0.134
-134.385	-157.990	0.253	0.015
-133.370	236.372	0.155	0.255
-132.356	154.763	0.170	-0.232
-131.341	341.340	-0.020	0.038
-130.326	-200.000	0.043	-0.193
-129.312	45.697	-0.248	0.228
-128.297	-150.498	-0.032	0.002
-127.283	-137.584	-0.025	0.003
-126.268	192.976	-0.125	0.188
-125.253	-87.682	-0.274	-0.082
-124.239	-135.429	0.344	-0.041
-123.224	-200.000	0.034	-0.327
