DTS Sentinel unit serial number:	SN413079Multiplexer serial number:	ORYXHardware model number:	OX4-SRSoftware version number:	ORYX F/W v4.00 Oryx Data Collector v3.7.2.0data status	okinstallation	princeton_trtdifferential loss correction	single-endedforward channel	channel 3reverse channel	N/Adate	2019/09/12time	18:53:04forward acquisition time	15.00reverse acquisition time	0.00gamma	496.2192k internal	0.2319k external	0.2319temperature offset calibration	1.0096default loss term (dB/km)	0.3790temperature slope calibration	1.0000multiplexer offset coefficient	1.0000multiplexer slope coefficient	1.0000fibre end	0.00T internal ref (°C)	32.87T ext. ref 1 (°C)	2.98T ext. ref 2 (°C)	27.39length (m)	temperature (°C)	Stokes	anti-Stokes-747.200	-28.983	-0.368	0.214
-746.185	800.000	0.115	0.354
-745.171	800.000	-0.101	0.297
-744.156	460.092	-0.092	0.208
-743.142	44.254	-0.258	-0.240
-742.127	-70.257	-0.703	-0.270
-741.112	800.000	0.183	0.693
-740.098	-123.014	0.531	-0.086
-739.083	227.233	-0.238	-0.392
-738.069	480.383	0.181	-0.416
-737.054	36.821	0.369	0.330
-736.039	117.146	-0.256	-0.318
-735.025	-20.444	0.156	0.097
-734.010	800.000	0.070	0.262
-732.996	-200.000	-0.073	0.463
-731.981	230.861	0.222	0.367
-730.966	-107.689	0.263	0.058
-729.952	178.494	0.218	-0.322
-728.937	-79.246	0.404	-0.138
-727.923	800.000	0.102	-0.301
-726.908	593.588	0.154	-0.385
-725.894	800.000	0.209	-0.639
-724.879	800.000	0.241	0.677
-723.864	-153.221	0.332	-0.023
-722.850	-72.517	-1.161	-0.433
-721.835	65.520	0.324	-0.332
-720.821	310.933	-0.477	0.904
-719.806	800.000	-0.167	-0.723
-718.791	138.942	-0.328	0.435
-717.777	-67.733	-0.529	-0.209
-716.762	-200.000	-0.005	0.049
-715.748	5.467	-0.121	0.090
-714.733	-103.989	0.556	0.131
-713.718	-200.000	0.068	-0.379
-712.704	31.115	-0.063	0.055
-711.689	-104.300	-0.264	-0.062
-710.675	509.348	-0.102	0.239
-709.660	648.445	0.060	-0.156
-708.645	800.000	-0.095	0.398
-707.631	92.138	-0.491	-0.558
-706.616	44.363	-0.975	-0.904
-705.602	-79.258	0.690	-0.236
-704.587	-200.000	0.056	-0.258
-703.572	10.951	-0.247	0.191
-702.558	20.653	0.583	-0.477
-701.543	800.000	0.102	-0.289
-700.529	528.547	-0.167	-0.399
-699.514	-40.886	0.208	0.109
-698.499	702.567	0.091	0.242
-697.485	800.000	-0.113	0.332
-696.470	-107.447	-0.269	-0.059
-695.456	-200.000	0.134	-0.893
-694.441	-200.000	-0.031	-0.663
-693.426	-94.791	0.298	-0.082
-692.412	24.942	-0.183	-0.153
-691.397	-27.207	-0.351	-0.206
-690.383	-200.000	0.009	-0.462
-689.368	-18.861	-0.709	0.446
-688.354	-120.056	-0.233	0.040
-687.339	186.083	-0.411	-0.617
-686.324	73.509	-0.328	-0.346
-685.310	-150.863	0.531	0.041
-684.295	-143.970	0.106	-0.010
-683.281	-62.667	-0.313	0.131
-682.266	120.169	-0.238	0.298
-681.251	-9.714	0.686	-0.461
-680.237	464.816	0.459	-1.037
-679.222	-55.856	0.676	0.305
-678.208	319.044	-0.212	-0.406
-677.193	800.000	-0.255	-0.778
-676.178	209.025	0.255	-0.403
-675.164	-113.496	0.893	0.176
-674.149	223.264	0.099	0.161
-673.135	-200.000	-0.012	-0.101
-672.120	-20.898	0.151	-0.094
-671.105	171.916	0.328	0.475
-670.091	-61.900	-0.402	-0.170
-669.076	33.554	-0.369	-0.323
-668.062	246.665	-0.365	-0.621
-667.047	-200.000	-0.028	-0.516
-666.032	-70.033	-0.115	0.044
-665.018	-9.858	0.367	-0.247
-664.003	29.415	-0.615	-0.527
-662.989	-78.267	0.116	-0.040
-661.974	800.000	-0.066	-0.289
-660.959	259.966	0.130	0.226
-659.945	712.763	0.150	-0.402
-658.930	800.000	-0.056	-0.211
-657.916	15.385	-0.182	-0.144
-656.901	-119.550	0.928	-0.162
-655.886	-106.433	-0.373	-0.084
-654.872	-140.862	-0.296	0.031
-653.857	-61.340	0.481	0.204
-652.843	800.000	-0.102	-0.317
-651.828	-50.944	0.307	0.145
-650.814	-169.892	0.973	0.035
-649.799	158.053	0.230	0.322
-648.784	-42.679	-0.443	0.227
-647.770	800.000	-0.130	0.490
-646.755	-200.000	0.044	-0.258
-645.741	596.342	0.430	-1.072
-644.726	350.267	0.221	-0.440
-643.711	-200.000	-0.064	-0.353
-642.697	-125.301	-1.848	0.285
-641.682	-124.839	-0.770	-0.120
-640.668	460.621	-0.320	-0.719
-639.653	800.000	0.068	-0.257
-638.638	126.193	0.064	-0.081
-637.624	152.611	-0.204	0.280
-636.609	16.248	-0.075	-0.060
-635.595	304.417	0.107	-0.199
-634.580	126.632	0.152	-0.194
-633.565	273.637	0.195	0.347
-632.551	-13.182	-0.498	-0.326
-631.536	109.236	0.550	-0.664
-630.522	800.000	0.317	-1.124
-629.507	-57.935	-0.163	-0.072
-628.492	-10.923	-0.663	0.441
-627.478	234.193	-0.412	0.684
-626.463	800.000	-0.318	-0.893
-625.449	-33.951	0.348	-0.193
-624.434	15.643	0.197	-0.156
-623.419	-2.073	-0.930	-0.658
-622.405	-3.472	0.405	-0.283
-621.390	379.450	-0.075	-0.155
-620.376	23.047	0.669	0.552
-619.361	33.881	0.700	-0.614
-618.346	-22.943	0.436	0.265
-617.332	-124.809	0.500	0.078
-616.317	-94.972	-0.526	-0.143
-615.303	189.071	0.207	0.312
-614.288	95.485	0.011	0.012
-613.273	-182.347	-0.686	0.013
-612.259	-200.000	0.005	0.205
-611.244	-46.023	-0.262	-0.130
-610.230	-92.752	-0.729	-0.205
-609.215	-200.000	-0.121	-0.772
-608.201	-200.000	0.045	-0.202
-607.186	-46.143	0.678	-0.336
-606.171	-5.467	0.765	-0.528
-605.157	57.185	0.475	-0.466
-604.142	-10.574	-0.250	0.166
-603.128	-200.000	-0.001	-0.909
-602.113	-136.909	-0.519	0.060
-601.098	-136.805	-0.592	-0.069
-600.084	-79.613	-0.426	-0.145
-599.069	-106.560	0.607	0.136
-598.055	800.000	0.210	-0.604
-597.040	800.000	0.111	-0.313
-596.025	-41.439	-0.549	0.284
-595.011	-33.531	0.778	-0.432
-593.996	3.630	0.535	0.392
-592.982	-61.510	-0.683	0.289
-591.967	-127.666	0.568	0.083
-590.952	-200.000	0.024	-0.551
-589.938	-200.000	0.000	0.408
-588.923	-166.371	-0.337	0.014
-587.909	239.652	-0.344	-0.576
-586.894	115.306	0.193	-0.237
-585.879	-172.899	-0.597	0.019
-584.865	209.415	0.347	-0.546
-583.850	-200.000	-0.017	-0.372
-582.836	34.144	0.254	-0.223
-581.821	-151.473	0.184	0.014
-580.806	121.698	0.676	0.847
-579.792	-32.733	0.158	-0.089
-578.777	85.432	0.259	-0.286
-577.763	-200.000	-0.140	-1.004
-576.748	316.709	0.168	0.319
-575.733	131.113	-0.429	-0.553
-574.719	800.000	-0.164	-0.463
-573.704	1.738	-0.159	0.115
-572.690	76.176	-0.287	0.306
-571.675	-127.598	0.515	0.075
-570.661	436.607	-0.258	-0.565
-569.646	-93.994	-0.432	-0.119
-568.631	-40.169	-0.323	-0.169
-567.617	-116.494	-0.555	-0.103
-566.602	-102.792	0.378	0.090
-565.588	129.250	0.190	-0.244
-564.573	75.505	-0.096	-0.102
-563.558	-200.000	0.044	0.285
-562.544	-200.000	0.088	-0.498
-561.529	-152.824	-0.573	-0.041
-560.515	-200.000	0.067	0.529
-559.500	-152.323	-0.599	0.043
-558.485	112.030	0.613	-0.744
-557.471	-134.952	-0.308	-0.037
-556.456	800.000	0.062	-0.229
-555.442	-78.157	0.165	-0.057
-554.427	-12.607	0.432	-0.283
-553.412	-200.000	0.020	0.673
-552.398	800.000	-0.147	-0.462
-551.383	-135.294	0.330	0.040
-550.369	437.415	-0.137	0.299
-549.354	-38.548	0.529	-0.280
-548.339	-35.850	-0.177	0.096
-547.325	-71.490	0.822	-0.309
-546.310	134.143	0.354	0.461
-545.296	28.317	-0.351	0.297
-544.281	800.000	0.129	0.536
-543.266	793.583	0.297	0.821
-542.252	800.000	-0.081	-0.313
-541.237	800.000	-0.278	-0.865
-540.223	74.239	0.520	0.548
-539.208	-149.514	-1.009	0.080
-538.193	-102.525	0.432	-0.104
-537.179	-21.133	-0.623	-0.382
-536.164	-100.274	-0.782	0.195
-535.150	-25.767	0.275	0.163
-534.135	43.030	0.434	-0.397
-533.121	-108.349	-0.526	0.114
-532.106	-101.069	0.391	0.096
-531.091	436.564	-0.113	0.247
-530.077	77.738	0.463	-0.495
-529.062	114.374	0.266	0.325
-528.048	800.000	-0.095	0.336
-527.033	-118.179	-0.232	0.041
-526.018	-113.425	-0.346	-0.068
-525.004	-159.436	0.736	0.041
-523.989	-11.689	0.184	-0.121
-522.975	252.300	-0.101	-0.172
-521.960	-200.000	0.032	0.182
-520.945	-200.000	0.109	0.494
-519.931	-77.731	0.440	0.153
-518.916	-47.926	-1.083	-0.526
-517.902	308.215	0.233	-0.436
-516.887	800.000	-0.091	-0.274
-515.872	38.405	-0.326	-0.291
-514.858	-60.914	0.626	-0.266
-513.843	-45.259	0.763	0.380
-512.829	-83.440	0.559	-0.180
-511.814	-82.817	-0.389	0.126
-510.799	-69.363	0.353	-0.136
-509.785	-15.820	0.278	-0.177
-508.770	-77.839	1.167	-0.404
-507.756	800.000	-0.193	-0.569
-506.741	800.000	-0.115	0.445
-505.726	800.000	0.164	-0.700
-504.712	800.000	0.276	-0.786
-503.697	-169.059	-0.610	0.023
-502.683	83.295	-0.338	0.369
-501.668	-169.340	-0.621	0.023
-500.653	800.000	-0.070	0.235
-499.639	-58.030	0.538	0.235
-498.624	-138.166	0.966	-0.107
-497.610	-99.450	0.691	0.174
-496.595	-49.308	-0.684	0.327
-495.581	140.051	0.351	-0.464
-494.566	29.003	-0.665	0.565
-493.551	112.356	-0.310	0.376
-492.537	102.335	0.457	0.535
-491.522	324.823	-0.283	-0.542
-490.508	-68.498	0.575	0.223
-489.493	88.871	0.297	0.331
-488.478	196.369	-0.427	0.651
-487.464	291.954	-0.291	0.530
-486.449	-174.002	-0.633	-0.019
-485.435	-97.438	0.603	-0.157
-484.420	46.763	0.697	0.648
-483.405	465.343	-0.134	-0.300
-482.391	-200.000	-0.030	0.846
-481.376	145.136	0.704	-0.943
-480.362	800.000	0.087	-0.318
-479.347	221.685	0.034	0.054
-478.332	20.023	-0.536	-0.433
-477.318	-35.242	-0.536	0.292
-476.303	408.484	-0.434	0.920
-475.289	183.995	-0.142	0.211
-474.274	-70.229	-0.477	-0.182
-473.259	636.584	-0.324	0.823
-472.245	-173.539	-0.147	-0.004
-471.230	-101.071	-0.368	-0.090
-470.216	395.167	-0.382	0.796
-469.201	800.000	0.112	0.359
-468.186	-200.000	-0.083	0.457
-467.172	41.147	-0.318	0.288
-466.157	-63.441	0.842	-0.347
-465.143	-112.195	0.438	-0.088
-464.128	18.579	0.077	0.062
-463.113	262.649	0.211	0.366
-462.099	800.000	-0.144	0.487
-461.084	115.022	-0.196	0.240
-460.070	-200.000	-0.024	-0.508
-459.055	41.379	-0.580	-0.525
-458.040	-200.000	-0.141	1.191
-457.026	27.936	0.550	0.464
-456.011	-139.258	-0.917	0.099
-454.997	-200.000	-0.084	-0.548
-453.982	-68.737	0.737	-0.285
-452.968	220.563	0.332	-0.533
-451.953	300.352	-0.527	-0.972
-450.938	15.990	-0.524	-0.413
-449.924	-163.505	0.297	-0.014
-448.909	48.648	-0.317	0.297
-447.895	-35.951	0.310	-0.168
-446.880	-42.722	-0.442	0.225
-445.865	-49.700	-0.378	-0.180
-444.851	267.675	-0.339	0.594
-443.836	82.102	0.165	0.178
-442.822	-200.000	-0.052	1.165
-441.807	465.373	0.068	0.152
-440.792	774.670	0.070	0.191
-439.778	-119.516	-0.369	0.064
-438.763	-44.841	-0.494	0.246
-437.749	800.000	0.103	-0.304
-436.734	99.465	-0.146	-0.169
-435.719	-80.553	0.308	0.103
-434.705	-115.888	-0.773	0.144
-433.690	-32.556	-0.192	0.107
-432.676	-200.000	0.063	0.674
-431.661	-200.000	0.025	-1.009
-430.646	71.883	-0.688	-0.715
-429.632	-200.000	0.104	-0.593
-428.617	800.000	-0.166	-0.554
-427.603	68.403	-0.219	0.225
-426.588	-109.340	-0.765	0.162
-425.573	-105.870	0.159	-0.036
-424.559	-95.877	-0.554	-0.148
-423.544	1.615	-0.453	-0.326
-422.530	-200.000	0.032	-0.352
-421.515	-167.903	-0.246	-0.010
-420.500	-200.000	0.130	0.623
-419.486	-200.000	0.052	-0.374
-418.471	18.963	0.570	0.456
-417.457	-191.835	0.508	-0.005
-416.442	-36.969	0.456	-0.244
-415.428	94.305	-0.275	0.312
-414.413	-74.934	0.351	-0.126
-413.398	190.570	0.523	-0.784
-412.384	516.324	-0.097	-0.227
-411.369	67.729	0.556	-0.567
-410.355	-200.000	-0.000	0.366
-409.340	800.000	0.159	0.521
-408.325	-184.036	0.581	-0.010
-407.311	800.000	-0.112	0.444
-406.296	187.087	-0.747	-1.112
-405.282	14.723	0.651	0.508
-404.267	26.387	-0.409	0.341
-403.252	29.568	0.535	-0.455
-402.238	-115.720	-0.286	-0.054
-401.223	174.233	-0.198	0.286
-400.209	35.246	0.324	0.284
-399.194	-28.824	-0.201	-0.115
-398.179	800.000	0.187	-0.719
-397.165	-66.850	0.203	-0.080
-396.150	-108.034	0.421	-0.091
-395.136	-51.460	0.517	-0.241
-394.121	-91.762	0.375	-0.106
-393.106	140.970	-0.397	-0.524
-392.092	70.864	0.363	-0.376
-391.077	-51.958	0.530	0.246
-390.063	682.137	-0.148	-0.386
-389.048	81.794	-0.403	-0.435
-388.033	-166.218	-1.136	-0.048
-387.019	-61.751	0.546	0.228
-386.004	-200.000	0.024	-0.141
-384.990	-136.337	-0.559	-0.065
-383.975	-35.929	-0.558	0.301
-382.960	-138.757	-0.098	-0.011
-381.946	-104.899	0.606	0.139
-380.931	-45.472	0.024	0.012
-379.917	-72.962	0.609	-0.223
-378.902	-56.232	0.068	0.030
-377.888	800.000	0.124	-0.424
-376.873	-200.000	0.848	-0.003
-375.858	800.000	-0.114	0.423
-374.844	157.479	0.776	1.071
-373.829	514.383	-0.150	-0.349
-372.815	-200.000	-0.024	-0.272
-371.800	-142.227	-0.449	-0.044
-370.785	221.450	0.082	0.131
-369.771	-26.490	-0.612	0.358
-368.756	-106.032	0.589	-0.132
-367.742	375.686	0.149	-0.304
-366.727	-200.000	-0.024	-0.283
-365.712	-53.232	-1.063	0.486
-364.698	-127.066	-0.576	-0.084
-363.683	65.357	0.326	-0.329
-362.669	-51.276	0.440	0.206
-361.654	302.662	-0.557	1.028
-360.639	-134.562	-0.472	-0.057
-359.625	-104.414	-0.197	-0.045
-358.610	-80.415	-0.264	-0.088
-357.596	54.810	0.369	0.354
-356.581	77.027	-0.727	0.770
-355.566	182.333	0.213	0.313
-354.552	800.000	0.094	-0.301
-353.537	-56.006	-0.513	0.228
-352.523	-200.000	-0.029	-0.730
-351.508	800.000	0.161	0.681
-350.493	97.480	-0.352	0.403
-349.479	117.524	-0.093	-0.114
-348.464	331.882	0.371	0.713
-347.450	596.238	0.075	0.186
-346.435	-200.000	-0.016	-0.101
-345.420	800.000	0.195	-0.631
-344.406	28.562	0.840	-0.708
-343.391	-155.104	0.263	-0.017
-342.377	-200.000	-0.031	0.532
-341.362	-3.529	0.565	-0.391
-340.348	-45.913	-0.568	-0.279
-339.333	251.886	-0.156	0.265
-338.318	270.877	0.210	0.369
-337.304	-141.842	-0.521	-0.052
-336.289	-200.000	0.030	-0.182
-335.275	154.380	-0.418	0.572
-334.260	13.470	-0.543	0.420
-333.245	-200.000	-0.060	0.611
-332.231	-52.349	-0.913	-0.421
-331.216	606.901	-0.202	0.502
-330.202	151.944	0.220	0.299
-329.187	-12.982	0.241	0.156
-328.172	138.442	0.377	-0.492
-327.158	-29.457	-0.578	-0.329
-326.143	-163.676	-0.600	-0.028
-325.129	-34.285	-0.880	-0.481
-324.114	-107.202	-0.924	-0.203
-323.099	-49.293	0.295	-0.140
-322.085	-25.246	-0.281	-0.166
-321.070	240.790	-0.169	0.281
-320.056	-154.002	0.794	-0.054
-319.041	21.796	0.680	0.551
-318.026	800.000	-0.239	0.782
-317.012	-77.824	-0.377	-0.129
-315.997	-38.967	-0.806	-0.422
-314.983	-2.051	-0.363	0.254
-313.968	-133.821	0.669	-0.083
-312.953	-27.542	1.043	0.603
-311.939	800.000	0.170	0.486
-310.924	213.983	0.289	-0.454
-309.910	574.176	-0.066	-0.159
-308.895	-66.605	0.390	-0.154
-307.880	49.479	0.328	-0.307
-306.866	-200.000	-0.011	-1.127
-305.851	800.000	0.162	-0.490
-304.837	-200.000	0.033	-0.734
-303.822	800.000	-0.138	0.413
-302.807	69.649	-0.453	0.464
-301.793	-67.160	0.868	-0.340
-300.778	-159.091	0.263	0.015
-299.764	-200.000	-0.011	0.382
-298.749	76.016	-0.420	0.442
-297.735	-19.986	0.269	0.165
-296.720	413.649	-0.047	0.099
-295.705	-40.931	-0.565	0.291
-294.691	800.000	0.033	0.133
-293.676	-200.000	-0.008	-0.566
-292.662	3.447	0.428	-0.310
-291.647	-73.702	-0.692	-0.250
-290.632	-50.883	0.259	0.121
-289.618	384.756	-0.319	0.654
-288.603	518.061	-0.235	0.546
-287.589	800.000	0.181	0.544
-286.574	352.924	-0.141	0.278
-285.559	-38.694	-0.275	-0.144
-284.545	-200.000	-0.053	0.326
-283.530	-200.000	0.632	0.002
-282.516	-200.000	0.081	0.911
-281.501	-160.605	0.153	-0.008
-280.486	19.467	-0.405	0.324
-279.472	-92.351	0.575	0.161
-278.457	90.637	-0.432	0.481
-277.443	800.000	0.229	-0.776
-276.428	-200.000	0.022	-0.322
-275.413	-24.807	-0.183	0.108
-274.399	800.000	-0.190	-0.595
-273.384	383.760	0.373	0.763
-272.370	11.421	0.016	-0.012
-271.355	15.073	-0.362	0.282
-270.340	-97.024	0.218	-0.057
-269.326	-200.000	-0.026	1.004
-268.311	800.000	-0.088	-0.370
-267.297	-200.000	-0.090	-0.419
-266.282	-200.000	-0.042	-0.918
-265.267	-119.378	-0.492	0.085
-264.253	-200.000	0.033	-0.458
-263.238	-30.696	-0.328	0.184
-262.224	-157.186	-0.812	-0.049
-261.209	390.258	0.101	-0.207
-260.195	-148.787	-0.705	0.057
-259.180	-200.000	-0.005	0.196
-258.165	472.328	0.149	0.332
-257.151	800.000	0.119	0.495
-256.136	-200.000	-0.005	-0.439
-255.122	200.497	-0.464	0.708
-254.107	99.732	0.442	-0.508
-253.092	-31.403	-0.484	-0.270
-252.078	95.159	-0.257	-0.291
-251.063	-200.000	-0.030	0.725
-250.049	-107.889	0.573	-0.124
-249.034	-75.643	-0.814	-0.287
-248.019	153.816	0.402	0.547
-247.005	-140.975	0.616	0.063
-245.990	-122.304	-0.440	-0.071
-244.976	800.000	0.162	0.504
-243.961	-200.000	0.007	-0.571
-242.946	-200.000	0.170	-0.754
-241.932	-2.266	0.196	-0.136
-240.917	502.121	-0.213	-0.487
-239.903	-136.936	-0.626	-0.071
-238.888	800.000	-0.155	-0.452
-237.873	695.889	0.329	0.858
-236.859	-200.000	-0.008	0.893
-235.844	59.381	0.810	0.792
-234.830	35.743	-0.064	0.056
-233.815	-19.068	-0.748	0.461
-232.800	510.683	-0.118	-0.273
-231.786	-69.352	0.077	0.029
-230.771	101.939	-0.138	-0.160
-229.757	311.334	0.284	-0.528
-228.742	-27.238	0.940	0.543
-227.727	36.248	-0.380	0.332
-226.713	-200.000	-0.047	-0.565
-225.698	-122.561	0.306	0.049
-224.684	215.849	-0.281	0.443
-223.669	-158.552	1.335	0.076
-222.655	397.389	-0.303	0.628
-221.640	-78.167	-0.695	0.237
-220.625	381.396	-0.026	-0.053
-219.611	-85.624	0.186	0.057
-218.596	-0.177	0.680	0.479
-217.582	800.000	0.199	0.821
-216.567	-10.543	0.585	0.384
-215.552	-200.000	-0.010	0.135
-214.538	-200.000	0.051	0.289
-213.523	115.558	-0.136	-0.165
-212.509	-200.000	0.006	-0.144
-211.494	-43.539	0.829	-0.414
-210.479	-141.775	0.511	-0.051
-209.465	-120.596	-0.508	0.085
-208.450	-54.478	-0.939	-0.422
-207.436	-200.000	-0.042	-0.308
-206.421	82.551	-0.146	-0.157
-205.406	-121.545	-0.774	-0.127
-204.392	-200.000	0.124	0.616
-203.377	181.953	-0.552	0.805
-202.363	154.109	-0.533	-0.724
-201.348	-200.000	0.095	0.474
-200.333	-200.000	-0.066	-0.290
-199.319	-200.000	0.030	0.940
-198.304	-124.794	-0.222	0.034
-197.290	606.934	-0.073	-0.180
-196.275	46.878	0.415	0.382
-195.260	-43.839	0.482	0.240
-194.246	523.158	0.340	0.791
-193.231	110.784	-0.338	0.403
-192.217	-146.955	0.639	0.054
-191.202	-130.104	0.383	-0.052
-190.187	276.368	0.513	-0.901
-189.173	-200.000	0.003	0.543
-188.158	-108.146	-0.303	0.065
-187.144	54.916	0.374	0.358
-186.129	121.770	0.622	-0.768
-185.114	714.546	0.221	0.579
-184.100	-200.000	-0.025	-0.122
-183.085	-19.800	0.312	0.191
-182.071	800.000	0.263	0.970
-181.056	177.638	-0.184	-0.266
-180.042	800.000	0.176	-0.501
-179.027	-200.000	0.012	-0.488
-178.012	-200.000	-0.019	0.149
-176.998	73.982	-0.231	0.240
-175.983	-36.140	0.302	-0.162
-174.969	-51.038	-0.396	0.184
-173.954	-81.701	0.391	0.127
-172.939	800.000	0.148	-0.439
-171.925	-136.144	-0.218	-0.025
-170.910	51.419	-0.628	-0.590
-169.896	-104.226	0.755	-0.173
-168.881	800.000	0.091	0.332
-167.866	-12.164	-0.453	-0.293
-166.852	-11.682	0.296	-0.193
-165.837	-51.474	0.752	0.348
-164.823	-164.304	0.324	0.015
-163.808	224.536	0.600	0.960
-162.793	-200.000	0.017	0.819
-161.779	26.910	-0.141	-0.117
-160.764	-200.000	0.057	0.338
-159.750	-43.442	-0.343	-0.171
-158.735	-107.114	0.435	-0.095
-157.720	-36.689	0.868	0.461
-156.706	73.880	0.266	-0.276
-155.691	390.491	-0.468	-0.959
-154.677	399.386	0.167	-0.347
-153.662	-128.466	0.357	0.050
-152.647	422.629	0.215	0.457
-151.633	-200.000	0.121	-0.526
-150.618	-65.851	0.589	0.233
-149.604	-200.000	-0.061	-0.280
-148.589	-20.753	-0.281	-0.171
-147.574	-200.000	0.074	-0.471
-146.560	80.530	-0.361	-0.384
-145.545	-200.000	0.076	-0.561
-144.531	800.000	0.066	0.188
-143.516	502.866	-0.212	0.484
-142.502	408.650	-0.562	1.175
-141.487	-105.578	0.309	0.069
-140.472	168.142	-0.230	0.323
-139.458	-89.631	-0.487	0.141
-138.443	188.071	-0.122	-0.181
-137.429	40.897	0.311	0.277
-136.414	-2.818	-0.392	0.271
-135.399	-200.000	0.052	0.468
-134.385	499.827	0.348	-0.792
-133.370	-7.143	-0.791	0.530
-132.356	-200.000	-0.002	-0.258
-131.341	800.000	0.144	0.416
-130.326	83.895	-0.158	0.170
-129.312	-62.575	0.562	-0.231
-128.297	-58.237	0.296	0.127
-127.283	-48.762	-0.310	0.147
-126.268	529.144	-0.345	0.805
-125.253	-81.098	-0.386	0.126
-124.239	2.540	0.178	0.127
-123.224	16.338	-0.251	-0.196
-122.210	-73.881	0.687	-0.246
