DTS Sentinel unit serial number:	SN413079Multiplexer serial number:	ORYXHardware model number:	OX4-SRSoftware version number:	ORYX F/W v4.00 Oryx Data Collector v3.7.2.0data status	okinstallation	princeton_trtdifferential loss correction	single-endedforward channel	channel 3reverse channel	N/Adate	2019/09/12time	20:10:04forward acquisition time	15.00reverse acquisition time	0.00gamma	496.2192k internal	0.2324k external	0.2324temperature offset calibration	1.0112default loss term (dB/km)	0.3790temperature slope calibration	1.0000multiplexer offset coefficient	1.0000multiplexer slope coefficient	1.0000fibre end	0.00T internal ref (°C)	31.62T ext. ref 1 (°C)	3.40T ext. ref 2 (°C)	26.19length (m)	temperature (°C)	Stokes	anti-Stokes-747.200	325.792	-0.253	-0.488
-746.185	-200.000	-0.026	0.416
-745.171	-77.931	-0.417	-0.145
-744.156	-84.013	-0.613	-0.197
-743.142	200.471	-0.333	-0.516
-742.127	-78.797	-0.772	0.266
-741.112	-114.299	-0.654	-0.127
-740.098	-200.000	-0.134	0.857
-739.083	-200.000	0.074	0.379
-738.069	-110.666	-0.733	0.153
-737.054	-97.799	0.679	0.177
-736.039	800.000	-0.215	0.605
-735.025	-200.000	0.013	0.547
-734.010	800.000	-0.164	-0.630
-732.996	740.738	0.329	-0.892
-731.981	800.000	0.423	-1.415
-730.966	-200.000	0.050	-1.009
-729.952	-35.426	-0.292	0.160
-728.937	-200.000	0.054	-0.724
-727.923	-200.000	0.053	0.562
-726.908	28.722	-0.196	0.167
-725.894	325.601	0.241	-0.466
-724.879	234.057	0.183	0.304
-723.864	800.000	-0.145	-0.618
-722.850	-148.954	0.313	0.025
-721.835	94.150	0.172	0.197
-720.821	-200.000	-0.008	-0.731
-719.806	308.523	-0.314	0.590
-718.791	-17.410	-0.225	-0.143
-717.777	-171.309	-0.243	-0.008
-716.762	-200.000	0.017	0.868
-715.748	-200.000	0.171	-0.792
-714.733	89.322	0.852	-0.957
-713.718	289.681	0.179	-0.327
-712.704	800.000	0.161	-0.510
-711.689	-200.000	-0.069	-0.524
-710.675	-130.644	0.823	0.112
-709.660	-157.263	0.793	-0.048
-708.645	54.459	-0.357	-0.347
-707.631	791.196	-0.126	-0.348
-706.616	800.000	0.085	0.346
-705.602	-39.378	0.390	-0.206
-704.587	800.000	-0.148	-0.632
-703.572	77.567	-0.419	-0.450
-702.558	-200.000	-0.016	0.181
-701.543	-63.076	0.792	0.330
-700.529	130.609	-0.126	0.162
-699.514	-200.000	-0.065	-0.747
-698.499	698.461	0.133	-0.351
-697.485	-63.478	0.292	-0.121
-696.470	-56.563	0.661	-0.295
-695.456	-200.000	0.016	0.498
-694.441	-200.000	0.131	-1.115
-693.426	-79.039	-0.404	-0.138
-692.412	-163.809	0.214	-0.010
-691.397	345.832	0.245	-0.485
-690.383	-55.622	-0.718	-0.324
-689.368	-146.873	1.047	0.091
-688.354	34.778	0.284	0.250
-687.339	26.834	-0.217	-0.183
-686.324	800.000	-0.193	-0.584
-685.310	-101.266	0.273	-0.067
-684.295	-111.404	-0.466	-0.096
-683.281	800.000	-0.219	-0.710
-682.266	195.205	0.155	0.237
-681.251	-200.000	0.056	0.607
-680.237	-73.857	0.649	-0.238
-679.222	-200.000	-0.081	-0.482
-678.208	-68.428	0.369	0.144
-677.193	-33.672	-0.532	-0.295
-676.178	-115.899	0.465	0.087
-675.164	800.000	-0.148	-0.639
-674.149	-74.481	-0.856	0.311
-673.135	-84.407	-0.533	-0.170
-672.120	-47.930	-0.438	-0.213
-671.105	-200.000	-0.075	-0.789
-670.091	-200.000	-0.046	0.265
-669.076	84.430	0.288	0.318
-668.062	-101.381	-0.138	0.034
-667.047	259.244	-0.231	0.402
-666.032	88.057	0.183	-0.204
-665.018	-154.238	-0.521	0.035
-664.003	-109.908	1.192	-0.251
-662.989	-200.000	-0.088	0.839
-661.974	10.427	0.205	0.157
-660.959	-55.769	-0.500	0.225
-659.945	120.995	-0.111	-0.139
-658.930	800.000	0.083	-0.273
-657.916	-156.863	-0.063	0.004
-656.901	280.159	-0.092	-0.166
-655.886	477.226	-0.253	0.576
-654.872	-39.010	0.824	0.436
-653.857	-200.000	0.029	0.184
-652.843	-82.709	0.371	0.121
-651.828	-44.767	0.610	-0.306
-650.814	-124.698	-0.566	0.088
-649.799	67.230	0.216	0.222
-648.784	-171.929	0.327	-0.011
-647.770	118.522	-0.264	0.327
-646.755	39.950	-0.359	0.325
-645.741	-101.975	-0.535	-0.130
-644.726	168.170	-0.323	-0.462
-643.711	-62.139	0.811	-0.340
-642.697	-104.285	-0.617	0.144
-641.682	145.806	0.142	-0.191
-640.668	-110.424	0.758	-0.158
-639.653	-71.510	0.499	0.188
-638.638	-15.202	0.274	0.176
-637.624	-200.000	0.093	0.766
-636.609	-23.804	-0.638	-0.384
-635.595	-16.165	0.330	-0.211
-634.580	35.810	-0.213	-0.188
-633.565	339.509	0.266	0.522
-632.551	240.923	0.438	-0.735
-631.536	-98.842	-0.527	-0.135
-630.522	800.000	0.190	-0.560
-629.507	16.298	0.133	-0.105
-628.492	483.497	0.154	-0.353
-627.478	7.208	0.154	-0.116
-626.463	-62.996	-0.413	-0.172
-625.449	466.493	0.184	0.415
-624.434	268.588	0.332	-0.585
-623.419	84.285	-0.469	0.515
-622.405	-134.306	-0.396	0.049
-621.390	-146.908	-0.253	-0.022
-620.376	-61.306	0.910	-0.385
-619.361	263.860	0.479	-0.837
-618.346	-1.270	0.482	-0.342
-617.332	-47.273	0.389	-0.190
-616.317	-200.000	0.076	0.425
-615.303	33.778	-0.385	-0.336
-614.288	-200.000	-0.004	-0.748
-613.273	118.951	0.188	0.233
-612.259	73.882	0.354	-0.373
-611.244	800.000	-0.238	0.758
-610.230	163.899	0.524	0.741
-609.215	-64.686	0.586	0.238
-608.201	89.905	-0.316	0.354
-607.186	13.859	-0.880	0.687
-606.171	-168.045	0.493	-0.019
-605.157	-18.022	-0.740	0.465
-604.142	-167.655	-0.377	0.015
-603.128	-200.000	0.110	-0.942
-602.113	62.185	-0.241	-0.241
-601.098	800.000	-0.042	0.174
-600.084	-200.000	-0.046	-0.216
-599.069	-54.376	-0.307	-0.140
-598.055	800.000	0.210	0.626
-597.040	112.272	-0.288	-0.350
-596.025	-0.064	-0.119	0.085
-595.011	-110.608	0.332	-0.069
-593.996	39.955	-0.579	0.521
-592.982	-60.726	-0.161	0.069
-591.967	576.845	0.404	0.991
-590.952	515.452	-0.165	-0.387
-589.938	247.512	-0.047	0.079
-588.923	-200.000	0.185	-1.271
-587.909	-16.284	0.860	0.548
-586.894	-200.000	-0.037	0.301
-585.879	-31.319	-0.856	0.484
-584.865	144.805	-0.498	0.668
-583.850	-87.549	-0.510	-0.155
-582.836	-138.510	0.253	-0.028
-581.821	-22.201	0.548	0.333
-580.806	-42.016	-0.970	-0.498
-579.792	-87.382	0.507	0.154
-578.777	298.354	-0.174	-0.320
-577.763	800.000	0.123	-0.368
-576.748	164.477	0.116	-0.164
-575.733	-200.000	0.055	0.650
-574.719	-200.000	-0.067	-0.915
-573.704	-109.462	-0.350	-0.074
-572.690	800.000	-0.146	0.571
-571.675	453.683	-0.267	0.592
-570.661	-200.000	0.033	-0.671
-569.646	-10.657	-0.736	-0.488
-568.631	800.000	-0.148	-0.461
-567.617	-51.134	0.138	0.065
-566.602	235.392	0.205	0.339
-565.588	-176.359	-0.865	0.023
-564.573	-187.371	-0.317	-0.004
-563.558	-67.392	0.219	-0.086
-562.544	800.000	0.128	-0.377
-561.529	-200.000	-0.048	0.475
-560.515	15.307	0.367	0.288
-559.500	-200.000	0.104	-0.902
-558.485	38.682	0.374	-0.334
-557.471	113.686	-0.362	-0.440
-556.456	-200.000	-0.071	-0.330
-555.442	-151.726	-0.415	0.031
-554.427	-200.000	0.006	0.616
-553.412	-19.956	0.531	0.329
-552.398	-186.276	-0.268	0.004
-551.383	38.109	-0.381	-0.340
-550.369	-42.811	0.453	-0.230
-549.354	-122.654	0.666	-0.108
-548.339	-163.980	0.303	-0.014
-547.325	256.220	-0.195	-0.335
-546.310	-48.659	-0.669	0.322
-545.296	1.771	-0.450	0.325
-544.281	-54.662	-0.470	-0.213
-543.266	211.346	0.465	0.733
-542.252	-2.291	-0.572	-0.402
-541.237	106.857	0.107	0.127
-540.223	-200.000	-0.080	-0.360
-539.208	-96.440	-0.356	-0.094
-538.193	293.220	0.267	-0.488
-537.179	214.633	-0.348	-0.553
-536.164	-78.634	-0.794	0.272
-535.150	-110.472	0.506	0.105
-534.135	179.738	0.336	0.493
-533.121	61.184	-0.439	0.437
-532.106	-0.515	0.298	-0.212
-531.091	487.133	-0.153	-0.349
-530.077	-111.828	-0.260	-0.053
-529.062	-30.120	0.442	-0.251
-528.048	225.077	0.216	-0.349
-527.033	-200.000	-0.132	-0.825
-526.018	356.207	0.333	-0.665
-525.004	800.000	0.140	0.433
-523.989	21.678	0.471	-0.384
-522.975	45.966	-0.181	0.168
-521.960	-33.238	0.376	-0.208
-520.945	-200.000	0.191	-0.839
-519.931	-101.408	-0.363	0.088
-518.916	99.875	0.441	-0.512
-517.902	69.998	0.226	0.233
-516.887	-200.000	0.111	-0.671
-515.872	-57.448	0.097	-0.042
-514.858	800.000	-0.074	-0.212
-513.843	-25.030	-0.345	0.204
-512.829	-200.000	0.006	-0.223
-511.814	800.000	-0.145	0.402
-510.799	-3.982	-0.493	0.342
-509.785	137.733	-0.503	-0.659
-508.770	333.127	0.383	-0.741
-507.756	85.955	0.382	-0.420
-506.741	59.831	0.620	-0.613
-505.726	86.593	0.158	0.174
-504.712	448.931	0.180	-0.397
-503.697	800.000	-0.320	0.942
-502.683	800.000	0.085	-0.275
-501.668	12.341	-0.113	-0.087
-500.653	-20.990	0.323	-0.198
-499.639	-200.000	0.016	0.356
-498.624	461.458	-0.162	0.361
-497.610	-200.000	0.038	-0.664
-496.595	-10.651	-0.380	0.251
-495.581	-200.000	0.005	0.794
-494.566	-200.000	-0.007	0.678
-493.551	800.000	0.126	0.357
-492.537	13.119	0.620	-0.480
-491.522	-200.000	0.023	1.189
-490.508	20.368	-0.310	-0.250
-489.493	599.302	-0.180	0.446
-488.478	800.000	0.093	-0.406
-487.464	50.025	0.378	-0.356
-486.449	146.580	-0.254	0.340
-485.435	800.000	0.169	0.604
-484.420	52.532	0.698	0.666
-483.405	38.006	0.393	0.350
-482.391	-101.299	0.304	-0.074
-481.376	-37.250	0.265	-0.142
-480.362	800.000	-0.111	0.355
-479.347	-120.790	-0.992	0.167
-478.332	-9.580	-0.208	-0.138
-477.318	-152.307	-0.413	0.030
-476.303	-47.609	0.636	-0.308
-475.289	553.825	-0.048	0.115
-474.274	56.427	-0.829	-0.805
-473.259	36.279	-0.356	-0.314
-472.245	1.647	-0.333	-0.239
-471.230	800.000	0.194	0.674
-470.216	-99.866	0.509	0.127
-469.201	11.133	0.307	-0.235
-468.186	-67.219	-0.101	0.040
-467.172	95.528	0.525	-0.598
-466.157	398.257	-0.336	0.703
-465.143	-28.360	0.301	-0.173
-464.128	758.253	-0.373	-1.009
-463.113	394.741	0.125	-0.261
-462.099	158.104	0.377	0.522
-461.084	-96.118	-0.294	0.078
-460.070	-200.000	-0.102	-0.493
-459.055	-64.781	-0.227	-0.092
-458.040	-200.000	-0.112	-0.690
-457.026	-32.494	-1.072	-0.596
-456.011	76.497	-0.180	-0.191
-454.997	-120.009	0.756	0.129
-453.982	-200.000	-0.024	-0.313
-452.968	65.998	-0.564	0.571
-451.953	-40.539	0.060	-0.031
-450.938	-48.224	0.202	0.097
-449.924	800.000	-0.112	0.464
-448.909	800.000	0.141	0.466
-447.895	-200.000	0.016	0.673
-446.880	190.581	-0.165	0.248
-445.865	-200.000	0.121	0.640
-444.851	-200.000	-0.090	-0.747
-443.836	-200.000	0.034	-0.481
-442.822	-200.000	0.141	-0.883
-441.807	-200.000	0.052	-0.511
-440.792	14.997	0.497	-0.388
-439.778	-200.000	0.088	-1.015
-438.763	-32.459	0.183	-0.102
-437.749	224.986	0.314	0.507
-436.734	137.112	-0.071	-0.092
-435.719	270.244	-0.268	-0.470
-434.705	-200.000	-0.134	1.264
-433.690	216.501	0.385	-0.611
-432.676	-12.751	0.260	-0.169
-431.661	66.546	0.252	-0.256
-430.646	-200.000	-0.025	-0.441
-429.632	243.723	-0.287	-0.479
-428.617	171.583	-0.115	0.164
-427.603	800.000	-0.110	0.314
-426.588	164.204	0.070	-0.098
-425.573	303.040	-0.215	0.397
-424.559	236.984	-0.248	-0.410
-423.544	27.332	-0.398	0.333
-422.530	-67.173	-0.348	0.137
-421.515	-200.000	-0.066	-0.342
-420.500	-138.694	-0.596	0.065
-419.486	-107.799	0.523	0.114
-418.471	24.139	0.451	0.371
-417.457	-1.668	-0.542	0.381
-416.442	-105.914	-0.442	0.099
-415.428	-14.444	-0.053	0.034
-414.413	-108.503	-0.383	0.082
-413.398	94.798	-0.609	-0.691
-412.384	295.339	0.171	0.311
-411.369	800.000	-0.085	0.236
-410.355	-0.307	0.444	0.315
-409.340	800.000	0.215	-0.846
-408.325	-63.159	0.641	-0.263
-407.311	800.000	0.087	0.336
-406.296	-200.000	0.041	0.242
-405.282	-200.000	-0.045	-1.116
-404.267	-145.058	-0.864	-0.078
-403.252	-143.465	-1.117	0.106
-402.238	800.000	-0.137	0.436
-401.223	410.508	0.485	-1.024
-400.209	223.321	0.158	-0.253
-399.194	800.000	-0.189	-0.641
-398.179	70.153	0.381	0.392
-397.165	196.394	-0.140	0.212
-396.150	481.543	-0.268	0.607
-395.136	61.659	-0.314	0.311
-394.121	-49.136	0.550	-0.262
-393.106	-200.000	0.149	-0.758
-392.092	-53.907	-0.637	-0.289
-391.077	745.470	0.285	0.765
-390.063	187.078	-0.199	-0.295
-389.048	-21.141	-0.430	0.262
-388.033	-200.000	-0.057	0.330
-387.019	-126.615	-0.361	-0.053
-386.004	-3.871	0.389	-0.269
-384.990	758.593	0.293	0.791
-383.975	-45.627	-0.154	-0.076
-382.960	13.595	-0.342	-0.264
-381.946	443.924	0.291	-0.635
-380.931	157.429	0.524	0.722
-379.917	-151.805	0.612	-0.045
-378.902	519.744	-0.072	0.167
-377.888	165.257	0.184	-0.259
-376.873	15.239	0.629	0.491
-375.858	-200.000	0.119	0.735
-374.844	47.842	-0.426	0.396
-373.829	326.335	0.092	0.175
-372.815	-200.000	0.069	-0.745
-371.800	183.846	0.382	-0.562
-370.785	194.114	-0.341	-0.514
-369.771	133.943	0.154	-0.199
-368.756	800.000	-0.033	0.119
-367.742	800.000	-0.219	-0.734
-366.727	551.116	-0.160	-0.383
-365.712	-21.262	-0.256	-0.156
-364.698	-200.000	-0.015	0.417
-363.683	227.831	-0.289	0.468
-362.669	-200.000	0.246	1.257
-361.654	-20.118	-0.043	-0.027
-360.639	800.000	-0.125	-0.444
-359.625	-84.078	0.349	0.110
-358.610	800.000	0.163	-0.619
-357.596	448.177	-0.315	-0.690
-356.581	-151.467	0.598	-0.044
-355.566	-50.447	-0.479	-0.225
-354.552	-62.494	0.789	-0.326
-353.537	-88.067	0.292	0.087
-352.523	-67.892	0.550	-0.214
-351.508	73.739	-0.756	-0.788
-350.493	612.781	0.385	0.957
-349.479	-200.000	-0.022	0.326
-348.464	15.285	0.393	-0.307
-347.450	-39.858	0.586	-0.304
-346.435	179.698	0.736	1.072
-345.420	53.824	-0.595	-0.568
-344.406	334.819	-0.317	0.611
-343.391	-133.839	-0.831	-0.103
-342.377	800.000	-0.113	0.371
-341.362	36.522	0.448	0.393
-340.348	-104.176	-0.545	0.126
-339.333	115.411	0.165	-0.201
-338.318	12.391	0.825	-0.632
-337.304	-63.331	0.379	0.155
-336.289	7.643	-0.470	0.350
-335.275	-200.000	0.031	0.222
-334.260	-52.725	0.425	-0.195
-333.245	-200.000	0.118	0.845
-332.231	-70.377	-0.723	-0.272
-331.216	-51.167	0.710	0.330
-330.202	-127.865	-0.548	-0.078
-329.187	299.273	-0.284	0.520
-328.172	181.968	-0.500	0.731
-327.158	252.768	-0.512	-0.868
-326.143	800.000	0.115	-0.353
-325.129	138.515	-0.663	0.864
-324.114	800.000	0.291	1.037
-323.099	-175.445	0.222	0.006
-322.085	800.000	-0.259	0.859
-321.070	190.229	-0.082	0.122
-320.056	133.408	-0.336	-0.432
-319.041	-59.267	0.135	0.058
-318.026	800.000	-0.116	0.497
-317.012	13.321	0.316	-0.243
-315.997	385.849	-0.162	-0.332
-314.983	298.414	0.324	0.591
-313.968	-200.000	0.012	0.769
-312.953	53.385	0.084	0.080
-311.939	108.933	0.484	-0.575
-310.924	800.000	-0.128	0.386
-309.910	218.517	0.258	0.408
-308.895	-116.932	-0.169	-0.031
-307.880	95.480	-0.390	-0.442
-306.866	-46.762	0.775	0.377
-305.851	-200.000	-0.167	-0.917
-304.837	429.795	-0.383	-0.822
-303.822	125.018	-0.555	0.694
-302.807	-200.000	0.008	-0.368
-301.793	-4.335	-0.288	-0.198
-300.778	172.608	-0.231	-0.330
-299.764	-47.964	-0.486	0.233
-298.749	-147.419	-0.659	0.055
-297.735	-68.542	0.320	-0.123
-296.720	-150.213	0.305	-0.023
-295.705	-56.684	0.186	0.082
-294.691	-24.269	0.199	-0.118
-293.676	9.311	-0.158	-0.119
-292.662	-67.175	0.351	0.137
-291.647	-155.932	-0.738	0.046
-290.632	-31.440	-0.787	-0.439
-289.618	-49.333	-0.242	0.114
-288.603	-132.425	0.204	0.026
-287.589	301.358	0.270	0.494
-286.574	-58.860	0.390	0.167
-285.559	70.348	0.347	-0.356
-284.545	800.000	0.241	-0.770
-283.530	-200.000	-0.398	-0.001
-282.516	5.859	0.167	0.123
-281.501	291.314	-0.377	-0.681
-280.486	800.000	0.169	-0.533
-279.472	-61.442	-0.695	0.290
-278.457	800.000	-0.164	-0.674
-277.443	-158.775	0.078	0.004
-276.428	123.624	0.139	-0.173
-275.413	121.294	0.165	-0.204
-274.399	82.283	-0.520	0.559
-273.384	-119.671	0.437	-0.075
-272.370	1.742	0.234	0.167
-271.355	119.484	0.415	-0.509
-270.340	19.625	0.606	0.483
-269.326	202.640	-0.625	0.957
-268.311	-131.605	-0.323	-0.042
-267.297	-41.590	0.157	-0.080
-266.282	-108.717	-0.225	0.048
-265.267	800.000	-0.089	0.322
-264.253	-200.000	-0.016	0.274
-263.238	-33.294	-1.079	0.592
-262.224	-0.697	-0.708	0.497
-261.209	-145.436	0.116	-0.010
-260.195	37.264	-0.549	0.481
-259.180	513.830	0.488	1.127
-258.165	0.198	0.654	0.462
-257.151	-95.195	0.364	-0.097
-256.136	-107.964	-0.707	-0.152
-255.122	54.371	-0.338	0.323
-254.107	0.645	-0.859	0.609
-253.092	-200.000	-0.022	0.759
-252.078	161.528	0.299	-0.414
-251.063	-93.909	-0.449	-0.122
-250.049	800.000	0.113	0.317
-249.034	22.975	0.589	-0.478
-248.019	-6.493	0.204	-0.138
-247.005	167.971	-0.216	0.305
-245.990	89.883	-0.567	0.627
-244.976	366.889	0.233	0.466
-243.961	-157.922	0.184	-0.011
-242.946	96.741	-0.091	-0.103
-241.932	89.474	0.527	0.582
-240.917	-200.000	-0.026	-0.246
-239.903	235.522	-0.255	0.417
-238.888	26.627	0.476	-0.394
-237.873	206.058	0.566	0.872
-236.859	-91.574	-0.597	0.168
-235.844	37.315	0.809	0.709
-234.830	-200.000	0.047	0.533
-233.815	524.295	0.096	0.223
-232.800	71.551	-0.571	-0.587
-231.786	800.000	0.173	-0.647
-230.771	68.084	-0.250	-0.253
-229.757	329.795	0.194	-0.370
-228.742	-200.000	0.127	1.295
-227.727	330.392	0.185	0.352
-226.713	-17.841	-0.464	-0.288
-225.698	37.275	0.476	0.417
-224.684	800.000	0.090	-0.317
-223.669	164.212	-0.547	-0.762
-222.655	-50.786	0.063	-0.029
-221.640	-60.722	0.456	0.191
-220.625	436.684	0.175	-0.376
-219.611	-80.874	-0.510	-0.167
-218.596	-200.000	-0.097	-0.851
-217.582	-30.142	0.309	0.174
-216.567	-124.936	0.368	-0.056
-215.552	9.055	0.111	0.083
-214.538	-200.000	0.027	-0.192
-213.523	186.462	-0.461	-0.679
-212.509	-200.000	-0.114	0.883
-211.494	743.710	0.121	0.323
-210.479	-42.858	-0.623	0.313
-209.465	75.499	-0.413	-0.431
-208.450	-200.000	-0.044	0.698
-207.436	800.000	-0.282	-0.894
-206.421	25.041	0.489	-0.401
-205.406	168.375	-0.116	0.163
-204.392	-35.312	0.809	0.435
-203.377	425.077	0.037	-0.078
-202.363	-200.000	0.052	0.636
-201.348	210.736	-0.063	0.098
-200.333	-54.202	-0.414	-0.186
-199.319	-71.047	0.200	0.074
-198.304	33.137	0.487	0.417
-197.290	428.784	-0.206	-0.439
-196.275	-11.633	0.492	-0.320
-195.260	-64.488	-0.251	-0.101
-194.246	800.000	-0.248	1.009
-193.231	-78.294	0.629	-0.213
-192.217	678.364	0.149	0.382
-191.202	119.447	0.140	-0.171
-190.187	-127.035	-0.447	-0.065
-189.173	-173.664	0.448	-0.013
-188.158	68.747	0.520	-0.528
-187.144	0.843	-0.370	0.262
-186.129	52.131	0.352	-0.331
-185.114	-200.000	-0.132	0.746
-184.100	122.181	-0.626	0.772
-183.085	350.321	0.297	-0.579
-182.071	800.000	0.132	-0.523
-181.056	800.000	-0.241	0.796
-180.042	2.977	-0.259	-0.186
-179.027	-200.000	0.035	0.327
-178.012	-21.706	0.661	0.398
-176.998	-108.594	0.394	-0.084
-175.983	-200.000	-0.002	0.654
-174.969	-136.934	0.570	-0.065
-173.954	103.069	-0.417	0.482
-172.939	800.000	-0.158	0.667
-171.925	-150.979	0.067	-0.005
-170.910	-200.000	0.097	-0.866
-169.896	-23.675	1.036	-0.613
-168.881	204.003	0.183	-0.280
-167.866	63.283	0.313	-0.309
-166.852	46.736	-0.094	-0.086
-165.837	5.222	0.521	-0.379
-164.823	198.415	0.371	-0.560
-163.808	38.974	-0.693	0.611
-162.793	-174.692	0.592	-0.017
-161.779	-131.859	-0.664	-0.086
-160.764	33.096	0.057	-0.049
-159.750	449.448	0.200	0.436
-158.735	-77.389	-0.817	-0.280
-157.720	-75.940	0.572	-0.200
-156.706	-103.044	-0.130	-0.030
-155.691	-65.255	1.069	-0.425
-154.677	0.130	0.830	0.584
-153.662	-101.913	0.406	0.097
-152.647	754.148	0.082	-0.219
-151.633	-121.450	-0.601	-0.099
-150.618	327.897	-0.199	-0.377
-149.604	46.035	-0.509	0.465
-148.589	6.839	0.295	0.217
-147.574	-12.586	-0.426	0.274
-146.560	-200.000	-0.057	-0.346
-145.545	-17.437	-0.181	0.113
-144.531	-153.397	0.242	-0.017
-143.516	-82.542	-0.825	-0.264
-142.502	-126.948	-0.698	-0.101
-141.487	158.376	0.066	-0.091
-140.472	-118.716	0.165	-0.029
-139.458	163.594	0.095	-0.132
-138.443	-200.000	0.003	0.057
-137.429	-83.809	-0.666	0.209
-136.414	116.518	-0.636	0.769
-135.399	494.664	-0.307	0.695
-134.385	413.963	0.314	0.659
-133.370	-79.997	0.581	-0.192
-132.356	-85.199	-0.411	0.127
-131.341	-59.975	-0.458	0.193
-130.326	263.912	0.252	0.431
-129.312	-200.000	0.028	-0.238
-128.297	-200.000	-0.093	0.405
-127.283	-200.000	0.020	-0.677
-126.268	-106.697	0.439	-0.096
-125.253	-90.203	0.251	-0.072
-124.239	-176.785	0.339	0.008
-123.224	203.942	-0.359	0.548
-122.210	-45.429	-0.565	-0.276
-121.195	-200.000	0.073	0.445
