DTS Sentinel unit serial number:	SN413079Multiplexer serial number:	ORYXHardware model number:	OX4-SRSoftware version number:	ORYX F/W v4.00 Oryx Data Collector v3.7.2.0data status	okinstallation	princeton_trtdifferential loss correction	single-endedforward channel	channel 3reverse channel	N/Adate	2019/09/12time	03:30:11forward acquisition time	60.00reverse acquisition time	0.00gamma	496.2192k internal	0.2321k external	0.2321temperature offset calibration	1.0065default loss term (dB/km)	0.3790temperature slope calibration	1.0000multiplexer offset coefficient	1.0000multiplexer slope coefficient	1.0000fibre end	0.00T internal ref (°C)	32.19T ext. ref 1 (°C)	2.12T ext. ref 2 (°C)	27.31length (m)	temperature (°C)	Stokes	anti-Stokes-747.200	-39.516	0.285	-0.151
-746.185	767.644	-0.080	0.220
-745.171	-94.052	-0.129	-0.036
-744.156	800.000	-0.041	-0.122
-743.142	800.000	0.007	-0.029
-742.127	-58.833	-0.203	0.089
-741.112	800.000	-0.021	0.082
-740.098	336.600	-0.078	-0.153
-739.083	260.133	0.127	0.222
-738.069	-200.000	-0.049	0.249
-737.054	-56.616	-0.125	-0.056
-736.039	-74.958	-0.336	-0.122
-735.025	-179.453	0.239	0.005
-734.010	-57.384	-0.326	0.145
-732.996	51.914	0.116	-0.112
-731.981	457.035	0.169	-0.380
-730.966	-107.333	-0.343	-0.076
-729.952	-28.251	0.085	-0.050
-728.937	245.005	-0.118	-0.200
-727.923	800.000	0.104	-0.396
-726.908	-30.586	-0.396	0.227
-725.894	151.038	-0.144	-0.198
-724.879	-63.243	-0.163	0.068
-723.864	-15.341	0.336	-0.217
-722.850	-200.000	-0.055	-0.298
-721.835	96.373	-0.097	-0.112
-720.821	800.000	-0.039	-0.152
-719.806	174.940	0.122	0.179
-718.791	47.232	-0.104	0.098
-717.777	-200.000	-0.017	-0.180
-716.762	127.262	0.158	-0.202
-715.748	-200.000	-0.009	0.139
-714.733	-85.060	-0.344	-0.109
-713.718	286.474	-0.121	0.221
-712.704	56.438	0.207	-0.203
-711.689	-82.833	-0.145	-0.047
-710.675	-129.164	0.049	0.007
-709.660	33.770	0.011	-0.009
-708.645	-99.750	-0.238	-0.060
-707.631	54.704	0.137	-0.134
-706.616	-15.692	0.104	-0.067
-705.602	-83.000	-0.198	-0.064
-704.587	161.884	0.074	0.105
-703.572	-19.465	-0.420	-0.263
-702.558	254.546	0.159	-0.274
-701.543	-145.449	-0.303	-0.027
-700.529	-107.234	0.178	0.040
-699.514	141.062	-0.165	-0.220
-698.499	800.000	-0.063	-0.233
-697.485	800.000	0.063	-0.194
-696.470	330.541	0.051	0.099
-695.456	28.477	-0.169	-0.144
-694.441	-133.223	0.424	0.054
-693.426	179.110	-0.104	0.153
-692.412	-117.084	-0.075	0.014
-691.397	-119.154	0.121	-0.021
-690.383	-200.000	-0.010	-0.143
-689.368	124.557	-0.155	-0.196
-688.354	-200.000	0.025	-0.295
-687.339	133.910	-0.180	-0.235
-686.324	-15.605	0.388	0.250
-685.310	60.720	0.157	-0.157
-684.295	800.000	-0.108	-0.371
-683.281	-55.912	-0.319	0.144
-682.266	-200.000	-0.014	-0.158
-681.251	-200.000	-0.012	-0.124
-680.237	94.770	-0.071	0.081
-679.222	210.051	-0.233	0.368
-678.208	321.420	0.024	-0.045
-677.193	261.400	-0.071	-0.124
-676.178	-66.565	-0.096	0.038
-675.164	-73.096	-0.209	-0.077
-674.149	-69.307	-0.247	-0.096
-673.135	55.159	0.070	0.068
-672.120	-175.529	-0.174	-0.005
-671.105	-128.579	0.291	0.042
-670.091	-131.936	0.147	-0.019
-669.076	-33.058	-0.314	-0.176
-668.062	378.335	-0.161	-0.333
-667.047	-200.000	0.069	-0.399
-666.032	9.457	0.172	0.131
-665.018	-24.637	0.159	-0.096
-664.003	-111.287	-0.216	-0.044
-662.989	-74.272	0.120	-0.044
-661.974	80.723	-0.240	0.260
-660.959	224.801	-0.209	-0.340
-659.945	800.000	0.105	-0.339
-658.930	-70.825	0.013	-0.005
-657.916	-175.619	0.130	0.004
-656.901	226.578	0.166	-0.271
-655.886	-73.493	-0.398	-0.146
-654.872	-4.944	0.106	-0.073
-653.857	-30.623	-0.293	-0.167
-652.843	170.098	-0.128	-0.184
-651.828	161.367	0.089	0.125
-650.814	56.664	-0.199	-0.195
-649.799	169.121	-0.096	-0.138
-648.784	-136.019	0.064	0.008
-647.770	88.403	0.121	-0.135
-646.755	800.000	-0.074	0.308
-645.741	-200.000	0.009	-0.129
-644.726	-145.901	-0.206	-0.018
-643.711	-84.724	0.032	0.010
-642.697	-46.076	-0.267	0.132
-641.682	-168.953	-0.087	-0.003
-640.668	214.436	-0.207	-0.330
-639.653	158.495	-0.015	0.021
-638.638	-103.119	-0.255	0.061
-637.624	165.421	-0.169	0.240
-636.609	800.000	-0.123	-0.466
-635.595	-110.329	0.232	-0.049
-634.580	199.802	0.084	0.129
-633.565	33.101	0.039	-0.034
-632.551	184.863	-0.063	-0.095
-631.536	291.088	0.112	-0.206
-630.522	74.665	0.411	0.435
-629.507	-200.000	-0.005	0.138
-628.492	-146.316	-0.157	-0.014
-627.478	-154.950	-0.237	0.016
-626.463	-16.535	0.025	0.016
-625.449	-200.000	0.015	0.109
-624.434	-130.709	-0.117	0.016
-623.419	-200.000	-0.034	0.165
-622.405	-200.000	0.001	0.042
-621.390	-200.000	-0.071	-0.326
-620.376	389.032	0.118	0.246
-619.361	800.000	-0.118	0.378
-618.346	445.648	0.089	0.196
-617.332	-42.154	-0.296	-0.152
-616.317	-117.760	-0.358	-0.065
-615.303	800.000	-0.080	0.290
-614.288	135.937	0.110	0.144
-613.273	-101.484	0.251	0.061
-612.259	-149.402	0.111	0.009
-611.244	562.842	0.209	-0.509
-610.230	49.047	0.209	-0.198
-609.215	-37.432	0.402	-0.215
-608.201	800.000	-0.034	0.147
-607.186	-200.000	0.041	0.218
-606.171	-132.962	0.093	0.012
-605.157	190.722	0.128	0.194
-604.142	-65.461	-0.249	-0.100
-603.128	135.539	-0.094	0.123
-602.113	496.394	-0.150	0.346
-601.098	578.311	-0.069	0.169
-600.084	135.252	0.099	-0.129
-599.069	-200.000	0.004	-0.189
-598.055	-51.793	0.179	-0.084
-597.040	-30.957	-0.300	-0.170
-596.025	129.677	0.121	-0.156
-595.011	-200.000	-0.039	0.180
-593.996	107.878	0.098	-0.118
-592.982	-9.217	-0.278	0.187
-591.967	-16.348	0.138	0.088
-590.952	-30.582	-0.104	0.059
-589.938	-200.000	0.055	-0.327
-588.923	262.729	-0.065	0.113
-587.909	-200.000	0.062	0.329
-586.894	488.779	0.107	0.246
-585.879	312.626	0.169	-0.319
-584.865	-69.577	0.137	-0.053
-583.850	-83.191	-0.016	-0.005
-582.836	-91.551	-0.159	0.046
-581.821	800.000	-0.040	0.144
-580.806	-26.167	0.308	0.182
-579.792	-185.639	-0.242	0.004
-578.777	179.924	0.119	0.176
-577.763	504.257	-0.086	-0.200
-576.748	-153.190	0.368	-0.026
-575.733	148.192	-0.069	0.093
-574.719	59.926	0.200	0.198
-573.704	332.955	-0.171	0.332
-572.690	-87.128	0.245	0.075
-571.675	164.412	-0.050	0.070
-570.661	101.052	-0.096	0.113
-569.646	89.068	0.281	-0.314
-568.631	-118.897	-0.447	-0.079
-567.617	173.319	-0.146	-0.211
-566.602	496.018	0.147	-0.339
-565.588	-26.190	0.082	0.049
-564.573	-57.390	0.133	0.058
-563.558	485.518	-0.189	0.431
-562.544	717.405	-0.076	-0.202
-561.529	661.115	0.089	-0.230
-560.515	-200.000	-0.019	-0.309
-559.500	91.462	-0.117	0.132
-558.485	-200.000	-0.020	0.129
-557.471	-125.343	-0.273	0.042
-556.456	-173.454	-0.082	0.002
-555.442	193.567	-0.137	0.209
-554.427	-122.491	0.318	0.052
-553.412	-25.539	-0.145	-0.086
-552.398	-200.000	0.016	-0.099
-551.383	-47.896	0.094	0.046
-550.369	-152.029	-0.166	0.012
-549.354	-36.286	-0.233	-0.126
-548.339	120.867	-0.030	-0.037
-547.325	78.967	0.157	0.169
-546.310	-90.752	0.189	-0.055
-545.296	-47.028	0.300	-0.147
-544.281	599.636	-0.135	0.336
-543.266	800.000	-0.050	0.143
-542.252	-87.177	0.197	-0.060
-541.237	-200.000	-0.031	-0.287
-540.223	-200.000	0.038	0.172
-539.208	-200.000	0.002	0.175
-538.193	147.667	0.059	-0.079
-537.179	463.267	0.078	-0.174
-536.164	26.493	0.122	-0.102
-535.150	800.000	0.042	-0.123
-534.135	142.985	-0.058	-0.077
-533.121	800.000	0.067	-0.202
-532.106	-76.774	-0.255	-0.090
-531.091	109.599	0.144	-0.173
-530.077	-16.915	0.221	-0.140
-529.062	-200.000	-0.022	0.298
-528.048	-27.538	0.100	0.058
-527.033	800.000	-0.104	0.413
-526.018	513.094	0.065	0.152
-525.004	124.780	-0.280	-0.354
-523.989	-37.978	-0.278	0.148
-522.975	-59.616	-0.224	-0.096
-521.960	-80.082	-0.188	-0.063
-520.945	-114.684	-0.051	0.010
-519.931	-52.872	-0.243	-0.112
-518.916	-31.391	0.444	-0.250
-517.902	-200.000	-0.028	-0.306
-516.887	141.281	0.096	0.127
-515.872	-200.000	0.039	-0.286
-514.858	-200.000	0.001	-0.200
-513.843	-200.000	-0.013	0.172
-512.829	-200.000	-0.011	0.116
-511.814	278.359	-0.111	-0.198
-510.799	-67.127	0.245	0.097
-509.785	17.105	0.145	-0.115
-508.770	58.302	-0.109	0.107
-507.756	160.677	-0.233	0.326
-506.741	-150.801	0.333	0.025
-505.726	250.093	-0.064	-0.109
-504.712	-200.000	-0.070	0.376
-503.697	-114.482	-0.268	0.051
-502.683	800.000	-0.111	-0.354
-501.668	-200.000	-0.013	-0.057
-500.653	26.428	-0.157	0.131
-499.639	706.938	-0.038	-0.100
-498.624	-200.000	-0.070	-0.368
-497.610	-194.519	0.183	0.001
-496.595	63.717	0.095	-0.095
-495.581	489.188	0.047	-0.107
-494.566	-79.564	0.342	0.116
-493.551	-93.244	0.225	0.063
-492.537	-200.000	-0.024	0.392
-491.522	-74.669	-0.176	0.063
-490.508	-0.275	0.158	0.113
-489.493	-85.657	0.179	-0.056
-488.478	-105.248	0.214	0.049
-487.464	328.056	-0.134	0.257
-486.449	-161.786	0.059	-0.003
-485.435	800.000	-0.043	0.151
-484.420	19.240	-0.261	-0.210
-483.405	800.000	-0.054	0.161
-482.391	-133.301	-0.298	-0.038
-481.376	-4.733	0.077	-0.053
-480.362	748.941	-0.029	-0.079
-479.347	109.743	-0.061	0.073
-478.332	-80.477	0.282	0.094
-477.318	-161.331	-0.166	0.009
-476.303	-88.228	-0.399	-0.119
-475.289	-27.794	0.161	0.093
-474.274	-86.812	0.189	-0.058
-473.259	-98.849	0.093	-0.024
-472.245	210.758	-0.141	-0.221
-471.230	169.768	-0.158	0.226
-470.216	18.016	-0.116	-0.092
-469.201	-70.537	0.337	-0.127
-468.186	105.814	0.151	-0.178
-467.172	631.960	-0.037	0.093
-466.157	-168.866	0.236	0.009
-465.143	451.962	0.085	0.189
-464.128	-122.167	0.121	-0.020
-463.113	800.000	0.054	0.185
-462.099	800.000	0.072	0.268
-461.084	-115.428	-0.132	0.025
-460.070	800.000	0.087	0.251
-459.055	-122.508	0.230	-0.037
-458.040	800.000	0.070	0.222
-457.026	-174.550	-0.276	-0.008
-456.011	-48.651	0.263	-0.126
-454.997	130.000	-0.100	0.128
-453.982	-135.926	0.124	0.015
-452.968	23.344	0.142	0.117
-451.953	-104.459	-0.314	-0.072
-450.938	-150.642	-0.218	0.017
-449.924	800.000	0.030	-0.094
-448.909	-32.056	-0.219	0.122
-447.895	82.576	0.043	0.047
-446.880	52.786	0.165	-0.157
-445.865	136.632	-0.135	-0.176
-444.851	-118.066	0.146	0.026
-443.836	-88.220	-0.171	-0.051
-442.822	-200.000	0.025	-0.228
-441.807	54.274	-0.151	0.145
-440.792	-200.000	-0.024	-0.313
-439.778	-83.075	-0.318	0.102
-438.763	-200.000	0.017	-0.328
-437.749	-70.008	0.231	-0.088
-436.734	4.553	0.073	-0.053
-435.719	778.097	-0.040	0.110
-434.705	583.105	-0.053	0.130
-433.690	800.000	-0.029	-0.118
-432.676	143.357	-0.254	-0.338
-431.661	24.485	-0.208	0.172
-430.646	177.411	0.113	0.164
-429.632	123.603	0.157	-0.196
-428.617	-140.286	0.311	0.032
-427.603	-102.075	-0.258	-0.062
-426.588	-65.130	-0.294	-0.118
-425.573	-65.558	0.235	-0.094
-424.559	-200.000	0.031	-0.240
-423.544	800.000	-0.027	-0.116
-422.530	-18.836	0.130	-0.081
-421.515	-70.215	0.181	-0.069
-420.500	-114.377	0.422	-0.081
-419.486	664.852	0.103	0.264
-418.471	-110.551	0.039	-0.008
-417.457	-156.107	-0.343	0.022
-416.442	47.361	-0.112	0.104
-415.428	-49.609	-0.261	0.124
-414.413	-16.565	-0.195	-0.123
-413.398	545.622	0.128	0.305
-412.384	-125.903	0.029	-0.004
-411.369	77.760	0.194	0.206
-410.355	-53.260	-0.342	-0.156
-409.340	-151.359	0.116	-0.009
-408.325	-200.000	-0.036	-0.185
-407.311	53.306	-0.259	0.248
-406.296	-47.333	0.070	-0.034
-405.282	43.960	0.203	0.186
-404.267	73.467	-0.170	-0.177
-403.252	495.609	0.031	-0.072
-402.238	-151.556	-0.136	0.010
-401.223	-68.149	-0.204	0.079
-400.209	269.873	0.196	0.344
-399.194	240.240	-0.068	-0.113
-398.179	321.938	-0.198	0.376
-397.165	135.661	-0.055	-0.071
-396.150	147.594	0.044	0.059
-395.136	470.196	0.131	0.293
-394.121	800.000	0.043	0.182
-393.106	172.873	-0.136	-0.195
-392.092	800.000	0.066	0.224
-391.077	84.055	0.281	0.306
-390.063	63.031	0.152	-0.152
-389.048	-200.000	-0.051	0.394
-388.033	200.428	-0.153	-0.235
-387.019	47.630	-0.219	-0.204
-386.004	-200.000	-0.246	-0.000
-384.990	8.391	0.090	-0.068
-383.975	-200.000	-0.043	-0.303
-382.960	-200.000	0.020	-0.191
-381.946	44.408	-0.148	0.136
-380.931	244.829	-0.071	0.119
-379.917	261.320	-0.075	0.129
-378.902	467.657	-0.016	-0.035
-377.888	28.307	-0.033	-0.028
-376.873	800.000	0.075	-0.273
-375.858	309.969	-0.048	-0.090
-374.844	-87.097	0.117	0.036
-373.829	-200.000	-0.081	0.385
-372.815	276.685	0.117	0.207
-371.800	-158.795	0.253	-0.014
-370.785	-77.562	-0.193	0.067
-369.771	-200.000	0.013	-0.098
-368.756	-91.654	0.144	0.041
-367.742	187.354	0.289	0.429
-366.727	-121.720	0.105	0.017
-365.712	-131.421	0.083	-0.011
-364.698	534.730	0.074	0.176
-363.683	-22.931	0.157	-0.095
-362.669	-60.774	-0.240	0.101
-361.654	1.741	0.163	0.117
-360.639	199.075	-0.174	-0.266
-359.625	800.000	-0.012	0.051
-358.610	800.000	-0.075	-0.234
-357.596	800.000	-0.102	0.283
-356.581	120.213	0.193	0.238
-355.566	230.764	0.182	-0.297
-354.552	-66.262	-0.219	-0.087
-353.537	-133.559	-0.401	0.050
-352.523	688.893	0.095	0.248
-351.508	-200.000	0.011	0.099
-350.493	-20.306	-0.303	-0.186
-349.479	-78.774	0.414	-0.141
-348.464	800.000	0.011	-0.039
-347.450	-115.791	0.054	0.010
-346.435	-166.950	-0.096	-0.004
-345.420	-89.110	0.149	-0.044
-344.406	75.682	0.177	0.186
-343.391	-82.706	-0.101	-0.033
-342.377	119.162	-0.060	0.073
-341.362	-200.000	-0.055	-0.262
-340.348	-39.098	0.355	-0.186
-339.333	800.000	0.050	0.198
-338.318	230.508	0.217	0.353
-337.304	800.000	-0.062	0.213
-336.289	-131.912	-0.133	0.017
-335.275	-200.000	0.017	-0.259
-334.260	114.573	-0.156	-0.189
-333.245	-93.301	-0.210	0.058
-332.231	87.673	0.101	0.111
-331.216	151.425	-0.092	-0.125
-330.202	-125.011	0.516	-0.079
-329.187	-136.959	-0.118	0.013
-328.172	-200.000	-0.024	-0.238
-327.158	279.239	0.156	-0.276
-326.143	-118.381	0.047	0.008
-325.129	-25.910	0.478	0.280
-324.114	-0.360	0.153	-0.108
-323.099	179.199	-0.340	-0.495
-322.085	136.177	0.157	0.204
-321.070	-66.391	0.220	0.087
-320.056	510.866	0.058	0.134
-319.041	-156.662	-0.055	0.003
-318.026	800.000	0.053	0.189
-317.012	-200.000	-0.021	0.342
-315.997	-158.330	-0.232	-0.013
-314.983	-200.000	-0.045	-0.322
-313.968	-159.989	-0.061	-0.003
-312.953	104.751	0.085	0.100
-311.939	800.000	0.094	-0.271
-310.924	36.363	-0.325	-0.285
-309.910	94.280	0.259	0.293
-308.895	31.930	-0.172	0.147
-307.880	-148.026	-0.284	0.023
-306.866	19.335	0.371	-0.296
-305.851	93.682	-0.233	-0.263
-304.837	-200.000	-0.029	0.252
-303.822	-22.363	0.232	-0.139
-302.807	594.834	0.041	-0.100
-301.793	-97.712	-0.164	-0.042
-300.778	-154.553	-0.135	-0.009
-299.764	-148.081	0.382	0.031
-298.749	-174.377	0.082	0.002
-297.735	-16.808	-0.129	0.081
-296.720	-200.000	-0.020	0.150
-295.705	33.226	-0.187	-0.161
-294.691	-200.000	-0.025	-0.236
-293.676	-142.307	0.469	-0.046
-292.662	66.605	0.045	-0.046
-291.647	800.000	0.097	-0.293
-290.632	-118.074	-0.153	0.027
-289.618	286.456	-0.271	-0.486
-288.603	-109.393	-0.054	0.011
-287.589	800.000	0.125	0.398
-286.574	56.100	-0.125	-0.120
-285.559	-7.512	-0.324	-0.218
-284.545	-142.212	0.105	0.010
-283.530	528.727	-0.157	-0.367
-282.516	-106.870	-0.246	-0.054
-281.501	-134.835	-0.285	0.034
-280.486	-165.464	-0.174	0.008
-279.472	-200.000	0.029	-0.148
-278.457	-76.673	-0.118	0.041
-277.443	-122.018	-0.203	0.033
-276.428	-200.000	0.004	0.055
-275.413	-157.477	-0.070	-0.004
-274.399	514.566	-0.089	-0.205
-273.384	118.728	0.158	-0.193
-272.370	-91.537	-0.230	0.065
-271.355	-200.000	-0.008	0.222
-270.340	-14.056	0.098	0.062
-269.326	-136.856	0.147	0.017
-268.311	-200.000	-0.032	-0.145
-267.297	-200.000	-0.051	0.246
-266.282	-65.282	0.196	0.078
-265.267	9.661	0.071	-0.053
-264.253	-200.000	0.003	0.267
-263.238	137.616	-0.123	0.160
-262.224	-86.470	-0.150	-0.046
-261.209	-200.000	0.053	0.306
-260.195	13.909	-0.062	0.048
-259.180	-21.127	-0.190	-0.115
-258.165	113.617	0.135	-0.163
-257.151	219.204	0.150	-0.237
-256.136	191.959	-0.071	-0.106
-255.122	-146.698	-0.069	0.006
-254.107	-200.000	-0.004	0.244
-253.092	-53.964	-0.220	-0.099
-252.078	-25.942	0.104	-0.061
-251.063	-200.000	-0.056	0.301
-250.049	-200.000	-0.018	0.093
-249.034	140.633	0.128	-0.168
-248.019	-200.000	-0.009	-0.194
-247.005	-141.722	-0.184	0.018
-245.990	-66.202	0.408	0.161
-244.976	355.722	0.019	-0.038
-243.961	-5.320	0.195	0.133
-242.946	-200.000	-0.029	-0.235
-241.932	-200.000	-0.017	-0.141
-240.917	-80.271	0.017	0.006
-239.903	-26.290	0.288	0.168
-238.888	-200.000	0.034	-0.167
-237.873	-192.424	-0.259	-0.002
-236.859	800.000	0.046	0.135
-235.844	-200.000	0.035	-0.296
-234.830	28.619	0.193	-0.162
-233.815	-79.997	-0.255	-0.085
-232.800	-200.000	-0.014	-0.250
-231.786	-186.729	-0.162	-0.002
-230.771	622.490	-0.072	-0.178
-229.757	325.785	0.187	-0.355
-228.742	128.762	0.203	-0.256
-227.727	-200.000	0.002	0.082
-226.713	-94.498	0.094	-0.025
-225.698	-131.369	-0.085	-0.011
-224.684	171.984	0.145	-0.206
-223.669	51.763	-0.192	0.181
-222.655	800.000	-0.050	0.138
-221.640	187.749	0.140	0.207
-220.625	-200.000	0.104	0.459
-219.611	-200.000	0.034	0.307
-218.596	760.970	0.032	-0.085
-217.582	110.972	-0.036	-0.043
-216.567	204.372	-0.158	0.242
-215.552	-68.529	0.136	0.052
-214.538	476.848	0.081	0.181
-213.523	124.140	0.276	-0.344
-212.509	-152.935	0.288	0.020
-211.494	-13.966	0.240	0.153
-210.479	800.000	-0.060	0.226
-209.465	-102.923	-0.166	-0.039
-208.450	49.533	0.078	0.073
-207.436	-108.855	0.113	0.024
-206.421	27.922	-0.114	-0.095
-205.406	-148.290	-0.255	0.021
-204.392	199.535	0.084	-0.128
-203.377	-72.407	0.225	-0.082
-202.363	-18.424	-0.223	-0.138
-201.348	800.000	-0.093	0.359
-200.333	20.985	0.122	0.098
-199.319	436.368	0.038	0.082
-198.304	102.445	0.170	0.197
-197.290	233.444	-0.069	-0.112
-196.275	800.000	-0.061	0.194
-195.260	-200.000	-0.040	0.282
-194.246	312.088	-0.077	-0.144
-193.231	-113.469	-0.364	0.071
-192.217	439.258	0.079	-0.170
-191.202	-26.696	-0.119	-0.069
-190.187	-109.439	-0.020	-0.004
-189.173	304.719	0.075	0.137
-188.158	224.942	-0.155	-0.249
-187.144	215.301	-0.166	-0.261
-186.129	-137.464	-0.181	0.020
-185.114	229.286	-0.058	-0.094
-184.100	-74.536	0.268	-0.096
-183.085	117.772	0.145	-0.177
-182.071	469.910	-0.124	0.276
-181.056	218.015	0.201	-0.317
-180.042	295.901	-0.203	0.367
-179.027	-200.000	0.030	0.297
-178.012	602.734	0.081	-0.199
-176.998	263.721	-0.065	0.112
-175.983	197.246	0.201	0.303
-174.969	800.000	0.036	0.146
-173.954	43.844	0.218	-0.198
-172.939	345.244	0.092	0.178
-171.925	-126.672	-0.251	-0.037
-170.910	559.199	0.068	-0.161
-169.896	264.024	0.097	0.167
-168.881	-43.681	0.069	-0.035
-167.866	53.621	-0.292	-0.277
-166.852	800.000	0.046	0.187
-165.837	205.711	-0.054	-0.083
-164.823	-129.219	0.313	0.043
-163.808	-116.849	-0.224	-0.041
-162.793	-175.164	0.110	-0.003
-161.779	800.000	0.131	-0.430
-160.764	-28.266	-0.204	-0.116
-159.750	729.877	0.043	0.113
-158.735	297.621	-0.091	-0.166
-157.720	-121.994	-0.021	0.003
-156.706	-54.344	-0.124	0.056
-155.691	-200.000	0.012	0.184
-154.677	13.594	0.151	-0.116
-153.662	-55.673	0.240	-0.106
-152.647	455.427	-0.102	-0.224
-151.633	800.000	0.056	-0.166
-150.618	-200.000	-0.055	-0.317
-149.604	-95.673	-0.134	0.035
-148.589	-162.967	0.128	-0.006
-147.574	-43.036	0.289	-0.145
-146.560	-200.000	0.041	-0.317
-145.545	-107.138	0.385	0.084
-144.531	8.926	-0.153	-0.114
-143.516	800.000	-0.062	-0.207
-142.502	-200.000	-0.023	-0.250
-141.487	-29.816	0.347	-0.195
-140.472	-200.000	0.025	0.139
-139.458	10.590	-0.059	0.044
-138.443	-27.726	0.067	-0.038
-137.429	76.371	-0.076	-0.079
-136.414	-33.380	0.125	0.068
-135.399	389.365	-0.159	0.325
-134.385	-200.000	-0.071	0.335
-133.370	228.968	-0.037	-0.059
-132.356	-51.927	0.092	-0.042
-131.341	463.563	0.127	-0.279
-130.326	-45.178	-0.124	0.061
-129.312	548.044	0.076	-0.179
-128.297	90.543	-0.192	-0.212
-127.283	413.922	0.070	0.147
-126.268	-46.330	0.120	0.058
-125.253	-200.000	-0.010	-0.269
-124.239	-200.000	0.008	-0.156
-123.224	-200.000	-0.059	0.258
