DTS Sentinel unit serial number:	SN413079Multiplexer serial number:	ORYXHardware model number:	OX4-SRSoftware version number:	ORYX F/W v4.00 Oryx Data Collector v3.7.2.0data status	okinstallation	princeton_trtdifferential loss correction	single-endedforward channel	channel 3reverse channel	N/Adate	2019/09/19time	03:56:35forward acquisition time	60.00reverse acquisition time	0.00gamma	496.2192k internal	0.2347k external	0.2347temperature offset calibration	0.9992default loss term (dB/km)	0.3790temperature slope calibration	1.0000multiplexer offset coefficient	1.0000multiplexer slope coefficient	1.0000fibre end	0.00T internal ref (°C)	20.44T ext. ref 1 (°C)	0.63T ext. ref 2 (°C)	14.20length (m)	temperature (°C)	Stokes	anti-Stokes-747.200	189.365	0.144	-0.215
-746.185	800.000	0.046	0.163
-745.171	-200.000	-0.027	0.355
-744.156	-200.000	0.056	0.407
-743.142	454.726	-0.111	0.247
-742.127	41.108	-0.305	0.275
-741.112	51.772	-0.082	-0.078
-740.098	-0.962	-0.492	0.348
-739.083	94.328	0.096	-0.109
-738.069	21.194	-0.259	0.210
-737.054	49.998	0.145	-0.137
-736.039	208.379	0.172	0.269
-735.025	-139.529	-0.049	0.005
-734.010	-20.581	-0.443	-0.272
-732.996	-6.554	0.127	0.087
-731.981	-200.000	-0.023	-0.149
-730.966	-54.989	-0.091	-0.041
-729.952	-119.196	-0.086	0.015
-728.937	-73.721	0.124	0.045
-727.923	-160.911	-0.041	-0.002
-726.908	113.817	-0.119	-0.145
-725.894	-200.000	-0.007	0.104
-724.879	-200.000	0.062	-0.273
-723.864	511.765	-0.064	0.149
-722.850	129.931	-0.130	0.165
-721.835	-81.853	-0.459	-0.150
-720.821	-51.921	-0.140	-0.065
-719.806	-32.174	-0.051	-0.029
-718.791	-29.265	-0.298	0.170
-717.777	767.594	-0.053	-0.143
-716.762	145.109	0.258	0.344
-715.748	-110.940	0.107	-0.022
-714.733	151.517	-0.087	0.118
-713.718	131.931	0.131	0.168
-712.704	-67.133	-0.208	0.082
-711.689	-150.118	-0.172	-0.013
-710.675	86.958	0.122	0.135
-709.660	-36.099	0.228	0.123
-708.645	-200.000	-0.007	0.129
-707.631	335.871	-0.104	-0.200
-706.616	-200.000	-0.028	0.192
-705.602	-188.044	-0.307	-0.004
-704.587	800.000	-0.120	0.371
-703.572	-200.000	-0.017	-0.331
-702.558	-17.484	-0.298	-0.187
-701.543	-68.688	0.206	0.080
-700.529	-154.062	0.046	-0.003
-699.514	-200.000	0.008	-0.117
-698.499	-1.049	0.009	-0.006
-697.485	-62.433	-0.192	-0.080
-696.470	371.478	-0.098	0.198
-695.456	-200.000	-0.140	0.000
-694.441	84.945	-0.231	0.252
-693.426	-200.000	0.008	-0.145
-692.412	-107.006	-0.296	0.065
-691.397	-44.859	0.080	0.040
-690.383	-200.000	0.063	-0.423
-689.368	-134.869	0.402	-0.049
-688.354	-73.301	-0.294	0.107
-687.339	-200.000	-0.041	-0.230
-686.324	-73.828	-0.065	0.024
-685.310	-200.000	-0.009	0.118
-684.295	-72.320	0.060	0.022
-683.281	-123.136	0.286	0.046
-682.266	-200.000	0.031	0.401
-681.251	196.826	-0.071	-0.108
-680.237	-64.611	-0.101	-0.041
-679.222	-76.139	-0.263	-0.093
-678.208	-111.918	0.191	0.038
-677.193	148.342	-0.185	-0.249
-676.178	-151.822	-0.051	-0.004
-675.164	-105.958	-0.288	-0.065
-674.149	-119.857	-0.229	-0.039
-673.135	347.857	0.079	-0.156
-672.120	-106.217	0.134	-0.030
-671.105	226.315	-0.059	0.095
-670.091	-94.059	0.117	-0.032
-669.076	-159.479	0.039	0.002
-668.062	29.075	0.232	-0.196
-667.047	800.000	-0.054	0.226
-666.032	-98.362	-0.205	-0.052
-665.018	2.478	0.061	0.044
-664.003	208.890	-0.084	-0.132
-662.989	-38.649	-0.105	0.055
-661.974	104.344	0.187	-0.219
-660.959	800.000	-0.061	-0.192
-659.945	-37.633	-0.158	-0.084
-658.930	-200.000	0.018	-0.146
-657.916	-200.000	0.011	0.106
-656.901	-17.458	-0.132	-0.083
-655.886	-112.216	0.065	0.013
-654.872	-79.092	-0.521	-0.176
-653.857	-99.562	0.082	-0.020
-652.843	-200.000	-0.020	0.314
-651.828	76.606	-0.210	0.221
-650.814	234.451	-0.142	0.233
-649.799	-85.622	0.287	0.089
-648.784	115.469	-0.153	0.186
-647.770	368.250	0.051	0.102
-646.755	-111.792	0.226	-0.046
-645.741	800.000	-0.063	-0.229
-644.726	-63.281	0.110	-0.045
-643.711	88.402	0.167	-0.185
-642.697	430.825	-0.050	0.108
-641.682	55.061	0.065	0.063
-640.668	-22.482	0.140	0.084
-639.653	-70.562	-0.482	-0.181
-638.638	-130.845	-0.182	-0.024
-637.624	-178.957	0.290	-0.007
-636.609	-200.000	0.056	0.445
-635.595	-8.896	0.177	0.118
-634.580	800.000	-0.051	0.150
-633.565	-136.350	-0.055	0.006
-632.551	-53.404	-0.152	0.069
-631.536	-80.578	-0.064	-0.021
-630.522	618.642	0.062	0.155
-629.507	800.000	0.073	-0.250
-628.492	-111.081	-0.140	0.029
-627.478	-30.469	-0.370	-0.209
-626.463	-84.240	0.357	0.112
-625.449	39.246	-0.234	0.208
-624.434	283.507	0.054	0.097
-623.419	68.232	-0.157	-0.160
-622.405	176.882	-0.046	-0.067
-621.390	-200.000	-0.009	-0.152
-620.376	-200.000	-0.001	-0.086
-619.361	-93.578	0.055	0.015
-618.346	-200.000	-0.065	-0.299
-617.332	-65.002	-0.150	0.060
-616.317	628.539	0.066	-0.166
-615.303	800.000	-0.049	-0.166
-614.288	-200.000	0.004	-0.040
-613.273	800.000	0.060	0.220
-612.259	-74.813	0.220	-0.079
-611.244	800.000	-0.040	-0.138
-610.230	373.149	-0.057	0.115
-609.215	-31.066	-0.247	0.138
-608.201	625.526	-0.130	0.325
-607.186	666.017	0.045	-0.116
-606.171	-139.246	-0.160	0.017
-605.157	149.257	-0.033	0.045
-604.142	86.943	-0.183	0.201
-603.128	9.546	0.090	-0.068
-602.113	658.558	0.076	0.196
-601.098	-200.000	0.022	0.226
-600.084	-86.219	0.270	0.083
-599.069	800.000	0.071	0.307
-598.055	-3.961	-0.154	0.106
-597.040	155.066	0.083	0.114
-596.025	219.534	0.068	-0.108
-595.011	223.319	-0.234	0.375
-593.996	-200.000	0.243	-0.000
-592.982	-200.000	-0.041	-0.190
-591.967	-72.166	-0.199	-0.073
-590.952	28.332	0.264	-0.222
-589.938	124.146	0.027	-0.034
-588.923	-200.000	0.049	0.288
-587.909	254.566	0.065	-0.110
-586.894	-163.628	0.222	0.010
-585.879	-84.427	-0.052	-0.016
-584.865	800.000	-0.062	0.192
-583.850	-42.274	-0.226	-0.114
-582.836	492.949	-0.112	0.254
-581.821	498.240	0.096	0.220
-580.806	127.987	-0.141	0.178
-579.792	193.624	-0.130	-0.195
-578.777	39.890	0.024	0.022
-577.763	-200.000	0.044	0.255
-576.748	-86.595	-0.346	0.105
-575.733	-120.374	0.185	-0.031
-574.719	-6.444	-0.372	-0.252
-573.704	595.999	0.059	-0.144
-572.690	-200.000	0.003	-0.286
-571.675	44.271	-0.199	-0.182
-570.661	705.478	0.180	-0.472
-569.646	448.379	0.008	0.018
-568.631	-200.000	-0.039	-0.236
-567.617	227.638	0.034	0.056
-566.602	-3.556	0.088	-0.061
-565.588	58.028	-0.363	0.353
-564.573	-200.000	-0.021	0.151
-563.558	293.803	-0.027	0.050
-562.544	-81.589	0.111	-0.036
-561.529	320.615	0.092	-0.174
-560.515	800.000	-0.025	-0.068
-559.500	154.039	-0.084	-0.114
-558.485	7.704	-0.051	-0.038
-557.471	-53.111	-0.197	-0.090
-556.456	-34.380	0.381	-0.207
-555.442	-200.000	-0.038	-0.187
-554.427	149.394	-0.051	-0.069
-553.412	800.000	-0.034	0.132
-552.398	7.903	0.146	0.109
-551.383	-23.538	0.170	-0.101
-550.369	134.690	0.156	0.201
-549.354	400.016	0.074	-0.155
-548.339	274.408	0.027	0.047
-547.325	31.762	0.243	0.207
-546.310	-142.331	-0.466	0.046
-545.296	-200.000	-0.024	0.111
-544.281	-52.666	-0.211	-0.097
-543.266	28.997	-0.253	-0.213
-542.252	800.000	0.117	0.339
-541.237	-161.583	-0.352	0.018
-540.223	492.017	-0.101	0.229
-539.208	23.473	-0.259	-0.212
-538.193	141.468	-0.059	0.078
-537.179	-39.026	-0.119	0.062
-536.164	-200.000	0.021	-0.138
-535.150	-169.376	0.064	-0.002
-534.135	123.085	-0.117	0.145
-533.121	800.000	-0.027	-0.108
-532.106	169.247	-0.105	-0.148
-531.091	165.987	-0.078	0.109
-530.077	-200.000	0.069	0.304
-529.062	55.109	0.212	0.203
-528.048	105.435	0.192	-0.225
-527.033	-42.003	-0.071	-0.036
-526.018	800.000	0.056	-0.232
-525.004	-200.000	0.054	-0.246
-523.989	253.405	0.137	0.232
-522.975	800.000	-0.026	-0.093
-521.960	29.999	0.214	-0.181
-520.945	72.236	0.142	0.147
-519.931	-173.342	0.152	-0.005
-518.916	623.456	-0.098	0.244
-517.902	-102.498	-0.275	0.065
-516.887	-62.359	-0.239	-0.099
-515.872	43.091	-0.031	-0.028
-514.858	-87.271	0.329	-0.099
-513.843	-200.000	0.025	0.305
-512.829	42.775	0.181	0.164
-511.814	-200.000	0.071	-0.322
-510.799	-40.285	-0.460	-0.237
-509.785	-200.000	0.026	0.141
-508.770	-139.299	0.065	0.007
-507.756	-26.606	0.146	-0.085
-506.741	-200.000	-0.001	-0.169
-505.726	-64.088	-0.169	0.068
-504.712	-26.815	0.170	-0.098
-503.697	-86.979	-0.431	-0.130
-502.683	-150.097	0.258	0.020
-501.668	333.198	0.109	0.209
-500.653	63.129	-0.120	0.119
-499.639	90.261	0.136	-0.150
-498.624	150.687	0.194	-0.261
-497.610	-72.903	0.338	-0.123
-496.595	800.000	0.035	0.110
-495.581	-200.000	-0.006	0.299
-494.566	-94.800	-0.237	0.064
-493.551	-68.150	0.199	0.077
-492.537	135.155	-0.147	-0.189
-491.522	-156.461	0.243	-0.015
-490.508	7.888	0.245	-0.181
-489.493	-200.000	0.002	0.199
-488.478	800.000	0.100	-0.309
-487.464	-99.401	-0.136	-0.034
-486.449	-27.102	0.102	-0.059
-485.435	-200.000	0.007	-0.346
-484.420	-54.362	-0.176	0.079
-483.405	7.355	0.194	0.143
-482.391	-72.718	0.031	0.011
-481.376	-200.000	0.023	-0.208
-480.362	-36.215	-0.294	0.157
-479.347	-200.000	-0.035	-0.175
-478.332	128.409	0.063	0.080
-477.318	48.334	0.184	-0.170
-476.303	800.000	-0.025	0.086
-475.289	-74.127	-0.251	0.090
-474.274	-200.000	0.041	-0.336
-473.259	-85.578	0.430	0.132
-472.245	134.930	-0.117	-0.150
-471.230	15.550	0.034	0.027
-470.216	-65.377	-0.128	0.051
-469.201	251.499	0.138	-0.232
-468.186	13.035	-0.017	-0.013
-467.172	26.583	-0.125	-0.103
-466.157	-8.550	0.115	-0.076
-465.143	-14.473	0.262	0.166
-464.128	79.094	-0.241	0.255
-463.113	244.750	0.066	-0.110
-462.099	-200.000	-0.016	-0.253
-461.084	-92.283	0.018	0.005
-460.070	-79.374	-0.384	0.129
-459.055	43.241	0.126	-0.114
-458.040	-14.847	0.263	0.167
-457.026	-200.000	0.065	0.366
-456.011	-34.484	0.287	-0.156
-454.997	97.075	-0.114	0.129
-453.982	394.847	-0.050	0.103
-452.968	36.620	0.148	0.129
-451.953	800.000	0.032	0.130
-450.938	6.330	-0.075	0.055
-449.924	-171.424	-0.309	-0.010
-448.909	-31.321	0.402	-0.223
-447.895	177.429	-0.029	0.041
-446.880	-81.389	-0.242	-0.079
-445.865	-88.245	-0.306	0.091
-444.851	570.010	-0.061	0.147
-443.836	6.056	0.051	0.037
-442.822	177.871	-0.201	0.290
-441.807	-92.242	-0.207	-0.058
-440.792	-22.442	-0.299	-0.178
-439.778	-168.088	-0.126	-0.005
-438.763	-200.000	0.026	0.113
-437.749	-12.173	0.416	0.269
-436.734	-126.200	-0.163	0.024
-435.719	747.128	0.004	-0.011
-434.705	197.550	-0.053	-0.081
-433.690	-143.440	0.062	0.006
-432.676	800.000	0.110	0.311
-431.661	-93.066	0.285	-0.079
-430.646	10.411	-0.092	0.069
-429.632	-120.515	-0.123	-0.021
-428.617	104.746	-0.221	0.257
-427.603	-200.000	-0.009	-0.066
-426.588	-124.209	0.421	0.065
-425.573	92.661	0.199	0.222
-424.559	-200.000	0.006	0.171
-423.544	800.000	-0.115	-0.322
-422.530	-78.469	0.290	0.098
-421.515	-110.330	0.254	-0.052
-420.500	680.019	-0.116	-0.299
-419.486	-181.183	-0.208	0.004
-418.471	98.861	0.113	-0.129
-417.457	-200.000	-0.014	-0.079
-416.442	-129.339	-0.355	-0.049
-415.428	-171.438	-0.296	-0.010
-414.413	2.279	0.355	0.254
-413.398	-140.602	-0.175	0.018
-412.384	64.325	-0.045	0.044
-411.369	-51.683	-0.200	0.092
-410.355	-71.578	0.235	0.087
-409.340	101.968	-0.121	0.139
-408.325	-159.905	0.388	0.021
-407.311	41.980	0.214	0.192
-406.296	78.022	0.195	-0.205
-405.282	71.137	0.143	-0.146
-404.267	-68.190	0.034	-0.013
-403.252	96.710	0.079	-0.089
-402.238	-88.312	-0.321	-0.095
-401.223	-200.000	-0.049	0.352
-400.209	219.528	0.016	-0.026
-399.194	-200.000	-0.004	-0.281
-398.179	53.776	0.050	0.047
-397.165	-50.778	-0.154	-0.071
-396.150	201.790	-0.224	0.341
-395.136	10.675	-0.118	-0.088
-394.121	-88.181	-0.207	-0.061
-393.106	-51.536	-0.246	-0.113
-392.092	-200.000	0.046	-0.205
-391.077	20.808	-0.029	-0.023
-390.063	-200.000	0.012	-0.102
-389.048	800.000	0.095	-0.379
-388.033	800.000	-0.153	0.447
-387.019	-43.244	0.111	-0.055
-386.004	-83.651	0.306	-0.096
-384.990	-200.000	-0.020	0.331
-383.975	-200.000	0.026	0.325
-382.960	-54.943	0.069	0.031
-381.946	-69.917	0.217	-0.082
-380.931	-32.410	0.380	0.209
-379.917	295.200	0.024	0.043
-378.902	48.039	0.123	-0.113
-377.888	188.754	-0.083	-0.122
-376.873	132.604	0.111	-0.141
-375.858	191.575	0.249	-0.369
-374.844	-200.000	0.013	-0.193
-373.829	-144.354	-0.146	0.013
-372.815	37.315	-0.129	-0.113
-371.800	50.580	-0.124	0.116
-370.785	-52.299	0.200	-0.091
-369.771	8.714	-0.097	-0.072
-368.756	726.982	0.098	-0.257
-367.742	-40.250	-0.361	-0.185
-366.727	-0.986	0.204	0.142
-365.712	108.579	-0.108	-0.127
-364.698	-200.000	-0.007	-0.040
-363.683	-92.196	-0.321	0.089
-362.669	-6.704	-0.333	-0.223
-361.654	-123.555	-0.078	0.012
-360.639	218.476	0.137	-0.216
-359.625	-150.603	0.225	-0.017
-358.610	-200.000	0.017	0.131
-357.596	-200.000	-0.060	-0.288
-356.581	-43.992	-0.197	-0.097
-355.566	800.000	-0.054	-0.178
-354.552	-200.000	0.012	0.094
-353.537	108.432	0.229	0.269
-352.523	350.380	0.064	-0.124
-351.508	-200.000	-0.082	0.378
-350.493	178.400	0.203	-0.292
-349.479	74.356	0.078	-0.081
-348.464	-45.534	0.083	0.040
-347.450	521.610	-0.054	-0.124
-346.435	-91.248	0.579	-0.163
-345.420	-75.700	-0.238	-0.083
-344.406	-200.000	-0.007	0.196
-343.391	-71.617	0.200	-0.073
-342.377	305.614	0.189	-0.345
-341.362	-24.488	-0.074	-0.043
-340.348	-200.000	0.020	0.233
-339.333	123.746	0.268	-0.331
-338.318	156.998	-0.119	0.162
-337.304	37.361	-0.120	0.105
-336.289	-5.432	-0.087	0.059
-335.275	800.000	-0.046	0.181
-334.260	214.605	0.082	-0.128
-333.245	20.350	-0.163	0.129
-332.231	559.943	-0.057	0.137
-331.216	800.000	0.019	-0.056
-330.202	69.434	0.105	-0.106
-329.187	-29.071	0.235	0.133
-328.172	289.761	-0.093	-0.165
-327.158	-39.294	-0.228	-0.118
-326.143	-200.000	0.055	-0.367
-325.129	-200.000	0.044	-0.203
-324.114	800.000	0.050	-0.184
-323.099	592.863	-0.077	-0.187
-322.085	-37.021	0.170	0.089
-321.070	21.890	0.136	-0.109
-320.056	642.134	0.121	0.302
-319.041	263.217	-0.038	-0.064
-318.026	800.000	0.048	-0.201
-317.012	-200.000	-0.001	-0.083
-315.997	-200.000	0.000	0.190
-314.983	-200.000	-0.028	0.324
-313.968	-88.376	-0.156	0.046
-312.953	242.951	0.060	-0.099
-311.939	-177.276	0.234	0.006
-310.924	634.313	0.214	0.534
-309.910	31.302	-0.202	0.170
-308.895	800.000	-0.022	0.065
-307.880	-200.000	-0.037	0.293
-306.866	-200.000	0.002	0.146
-305.851	-100.053	0.265	-0.065
-304.837	127.868	0.201	-0.251
-303.822	-124.741	-0.188	-0.029
-302.807	-200.000	-0.024	-0.127
-301.793	-36.798	0.236	0.125
-300.778	-11.545	0.216	-0.139
-299.764	142.557	-0.112	-0.147
-298.749	-188.701	-0.260	0.003
-297.735	151.484	0.247	0.330
-296.720	373.166	0.091	-0.183
-295.705	800.000	0.081	0.282
-294.691	84.141	-0.299	-0.321
-293.676	-2.542	-0.015	-0.011
-292.662	-200.000	0.016	-0.069
-291.647	427.881	0.074	0.157
-290.632	-154.723	-0.367	0.024
-289.618	255.669	-0.085	-0.143
-288.603	800.000	0.103	0.400
-287.589	-122.417	-0.288	0.046
-286.574	376.374	0.054	0.108
-285.559	800.000	0.071	-0.198
-284.545	-200.000	-0.011	-0.165
-283.530	628.709	0.110	-0.273
-282.516	-138.345	-0.276	0.030
-281.501	-60.079	-0.093	0.039
-280.486	-153.758	-0.097	0.007
-279.472	37.776	-0.132	0.115
-278.457	62.257	-0.201	0.197
-277.443	-200.000	0.014	-0.140
-276.428	-133.129	0.222	0.028
-275.413	-46.184	0.104	-0.050
-274.399	-200.000	0.059	-0.455
-273.384	557.475	-0.028	-0.066
-272.370	104.138	-0.093	0.107
-271.355	75.379	-0.175	-0.181
-270.340	-37.850	0.081	-0.042
-269.326	-78.545	-0.152	0.051
-268.311	399.477	0.067	-0.138
-267.297	-200.000	-0.019	0.097
-266.282	-200.000	-0.059	0.290
-265.267	-107.886	-0.213	0.045
-264.253	32.774	-0.065	0.055
-263.238	-31.054	-0.202	-0.112
-262.224	121.273	0.244	-0.298
-261.209	-72.143	-0.139	0.051
-260.195	212.636	-0.087	-0.135
-259.180	-16.569	0.303	0.188
-258.165	547.110	-0.030	0.069
-257.151	121.441	0.065	0.080
-256.136	-103.853	-0.327	-0.075
-255.122	301.380	-0.011	-0.019
-254.107	-200.000	0.013	-0.307
-253.092	-122.833	0.287	-0.045
-252.078	-106.681	-0.242	0.053
-251.063	718.508	0.037	0.097
-250.049	142.624	0.121	0.158
-249.034	800.000	0.084	0.266
-248.019	-182.393	0.122	-0.002
-247.005	-11.800	-0.100	-0.064
-245.990	-200.000	0.022	-0.160
-244.976	-200.000	-0.002	-0.176
-243.961	-36.006	0.218	0.115
-242.946	283.351	-0.154	0.270
-241.932	800.000	0.077	-0.269
-240.917	-146.096	0.209	0.018
-239.903	800.000	-0.037	-0.147
-238.888	-153.660	0.437	0.029
-237.873	-107.247	-0.219	0.047
-236.859	141.935	0.156	0.202
-235.844	-200.000	0.032	-0.146
-234.830	-200.000	0.015	0.247
-233.815	-21.591	-0.091	-0.054
-232.800	82.938	0.240	0.256
-231.786	-46.290	-0.042	-0.020
-230.771	800.000	-0.124	-0.359
-229.757	-200.000	-0.045	-0.196
-228.742	-200.000	0.005	-0.252
-227.727	209.894	-0.068	0.104
-226.713	-27.583	0.253	0.144
-225.698	-89.950	-0.189	0.054
-224.684	-111.923	-0.281	-0.055
-223.669	-27.840	-0.196	0.111
-222.655	-193.209	0.113	-0.001
-221.640	109.823	-0.089	-0.105
-220.625	-39.210	0.160	0.082
-219.611	-200.000	0.020	0.134
-218.596	-60.026	-0.213	0.089
-217.582	-83.738	0.322	0.101
-216.567	800.000	-0.080	-0.237
-215.552	-200.000	-0.238	0.000
-214.538	-162.295	0.267	-0.013
-213.523	203.258	0.156	0.236
-212.509	173.677	-0.085	0.121
-211.494	-95.430	0.106	-0.028
-210.479	800.000	-0.073	-0.268
-209.465	-8.208	0.131	-0.086
-208.450	800.000	0.033	0.121
-207.436	-2.803	0.093	-0.064
-206.421	324.819	0.053	0.099
-205.406	-109.592	-0.138	0.029
-204.392	162.170	0.223	0.306
-203.377	169.926	0.115	-0.161
-202.363	21.659	-0.063	-0.050
-201.348	-200.000	0.047	0.509
-200.333	31.148	-0.111	-0.094
-199.319	-200.000	-0.033	-0.162
-198.304	126.441	0.180	-0.223
-197.290	441.069	0.112	0.240
-196.275	-21.367	-0.144	-0.086
-195.260	-14.097	0.148	-0.094
-194.246	56.296	-0.137	0.130
-193.231	-186.968	-0.196	-0.003
-192.217	-200.000	-0.003	0.015
-191.202	-58.318	-0.172	0.073
-190.187	-200.000	0.015	-0.229
-189.173	-200.000	0.004	-0.025
-188.158	160.146	0.130	0.178
-187.144	382.638	-0.028	0.056
-186.129	-200.000	-0.020	-0.138
-185.114	-140.257	-0.537	0.055
-184.100	262.062	-0.223	-0.378
-183.085	-79.378	-0.115	0.038
-182.071	-158.114	-0.400	0.023
-181.056	-83.863	0.087	0.027
-180.042	101.636	-0.199	0.227
-179.027	35.953	0.102	0.087
-178.012	-19.003	-0.128	0.078
-176.998	72.702	0.089	-0.090
-175.983	66.927	0.147	0.146
-174.969	-200.000	0.015	-0.311
-173.954	800.000	-0.076	-0.213
-172.939	202.744	0.169	0.254
-171.925	10.198	0.071	0.053
-170.910	-183.176	0.369	-0.006
-169.896	6.332	-0.139	0.101
-168.881	-15.159	0.240	0.150
-167.866	120.790	0.151	0.183
-166.852	-97.272	0.450	-0.115
-165.837	-200.000	-0.021	0.107
-164.823	-200.000	-0.087	-0.429
-163.808	800.000	-0.019	0.054
-162.793	132.037	0.127	0.160
-161.779	-101.029	-0.261	0.063
-160.764	-129.242	-0.435	-0.059
-159.750	-22.204	-0.056	0.033
-158.735	-161.496	-0.171	-0.009
-157.720	-19.583	-0.067	-0.041
-156.706	28.821	0.171	0.142
-155.691	350.314	-0.100	0.194
-154.677	-52.737	-0.239	0.108
-153.662	-7.132	0.248	0.164
-152.647	244.488	-0.086	0.140
-151.633	-200.000	0.047	-0.268
-150.618	-48.618	0.275	0.129
-149.604	-200.000	0.000	0.264
-148.589	-200.000	-0.002	-0.240
-147.574	-95.132	-0.220	0.058
-146.560	-164.357	-0.226	0.010
-145.545	298.644	0.053	0.095
-144.531	111.362	-0.021	-0.024
-143.516	-85.864	0.098	0.030
-142.502	-46.600	-0.075	0.036
-141.487	-31.924	-0.311	0.170
-140.472	-109.897	-0.303	0.062
-139.458	39.590	0.045	0.039
-138.443	316.427	0.057	0.106
-137.429	627.792	-0.056	-0.139
-136.414	-129.152	-0.123	0.017
-135.399	3.811	0.116	-0.083
-134.385	46.448	-0.234	-0.211
-133.370	126.451	0.079	0.098
-132.356	-200.000	0.057	-0.277
-131.341	-93.568	-0.108	-0.029
-130.326	212.364	-0.015	0.024
-129.312	47.566	0.096	0.088
-128.297	-60.084	0.086	-0.036
-127.283	-50.962	-0.204	-0.093
-126.268	-45.189	0.144	0.070
-125.253	-200.000	-0.071	-0.354
-124.239	-200.000	-0.017	-0.310
-123.224	800.000	-0.122	-0.395
-122.210	-200.000	0.006	-0.078
