DTS Sentinel unit serial number:	SN413079Multiplexer serial number:	ORYXHardware model number:	OX4-SRSoftware version number:	ORYX F/W v4.00 Oryx Data Collector v3.7.2.0data status	okinstallation	princeton_trtdifferential loss correction	single-endedforward channel	channel 3reverse channel	N/Adate	2019/09/12time	14:14:11forward acquisition time	60.00reverse acquisition time	0.00gamma	496.2192k internal	0.2294k external	0.2294temperature offset calibration	1.0053default loss term (dB/km)	0.3790temperature slope calibration	1.0000multiplexer offset coefficient	1.0000multiplexer slope coefficient	1.0000fibre end	0.00T internal ref (°C)	40.30T ext. ref 1 (°C)	2.25T ext. ref 2 (°C)	35.55length (m)	temperature (°C)	Stokes	anti-Stokes-747.200	-200.000	-0.069	0.411
-746.185	617.868	0.154	0.396
-745.171	-118.508	0.243	-0.044
-744.156	37.374	-0.167	0.152
-743.142	800.000	-0.066	-0.261
-742.127	-122.529	0.304	0.051
-741.112	-41.280	-0.118	-0.062
-740.098	138.441	-0.218	0.292
-739.083	800.000	0.061	0.175
-738.069	-65.273	-0.186	-0.077
-737.054	-59.654	-0.068	0.030
-736.039	-170.060	-0.309	0.011
-735.025	-200.000	0.008	0.296
-734.010	-26.750	-0.119	0.071
-732.996	312.125	-0.199	-0.382
-731.981	57.450	-0.065	-0.065
-730.966	-200.000	-0.030	0.232
-729.952	106.073	-0.083	-0.100
-728.937	76.660	0.244	-0.264
-727.923	-200.000	-0.007	-0.278
-726.908	-34.603	-0.123	-0.069
-725.894	26.589	-0.136	-0.116
-724.879	-20.592	-0.173	-0.108
-723.864	-200.000	-0.067	-0.351
-722.850	-42.245	-0.141	-0.074
-721.835	314.429	0.182	-0.350
-720.821	800.000	-0.051	-0.170
-719.806	255.857	-0.225	-0.395
-718.791	73.027	0.167	-0.178
-717.777	800.000	-0.038	-0.142
-716.762	-93.602	-0.190	-0.054
-715.748	-23.492	-0.256	-0.157
-714.733	-94.920	-0.067	0.018
-713.718	-54.700	0.038	-0.017
-712.704	-122.287	-0.266	0.044
-711.689	-200.000	-0.149	0.673
-710.675	-40.114	0.182	0.097
-709.660	-61.924	0.239	-0.102
-708.645	-90.928	0.213	-0.062
-707.631	-200.000	0.025	-0.176
-706.616	198.987	-0.223	0.349
-705.602	154.193	0.215	0.302
-704.587	-73.044	0.008	-0.003
-703.572	330.910	0.096	-0.188
-702.558	-36.945	0.252	0.138
-701.543	800.000	-0.071	-0.270
-700.529	-123.097	-0.274	-0.045
-699.514	-0.395	0.246	0.179
-698.499	240.302	-0.160	0.272
-697.485	800.000	0.066	-0.226
-696.470	800.000	-0.075	-0.286
-695.456	328.847	0.204	-0.400
-694.441	-88.987	-0.177	-0.054
-693.426	-200.000	-0.030	0.367
-692.412	-169.290	0.340	0.013
-691.397	-128.909	0.208	-0.030
-690.383	-73.616	0.194	-0.072
-689.368	213.562	-0.082	-0.133
-688.354	157.534	-0.330	-0.467
-687.339	141.516	-0.099	-0.134
-686.324	-12.060	-0.088	0.059
-685.310	-200.000	-0.000	-0.187
-684.295	-31.438	0.178	-0.102
-683.281	-200.000	-0.011	0.141
-682.266	-97.583	0.229	-0.061
-681.251	1.885	-0.172	-0.127
-680.237	-12.688	0.269	-0.179
-679.222	-61.650	-0.200	0.086
-678.208	-200.000	0.021	-0.180
-677.193	21.205	0.063	0.053
-676.178	-121.382	-0.327	0.056
-675.164	-200.000	-0.003	0.118
-674.149	-200.000	0.060	-0.287
-673.135	-95.490	0.257	0.070
-672.120	337.446	0.137	0.271
-671.105	204.875	-0.184	0.291
-670.091	-37.762	0.120	0.065
-669.076	732.888	0.165	-0.450
-668.062	800.000	-0.080	0.305
-667.047	-6.127	0.168	0.117
-666.032	385.196	-0.090	0.190
-665.018	-18.704	0.089	0.057
-664.003	800.000	-0.079	0.293
-662.989	-101.921	0.153	0.038
-661.974	-200.000	-0.025	-0.322
-660.959	124.822	-0.030	0.038
-659.945	-46.347	-0.478	0.239
-658.930	92.617	0.091	-0.105
-657.916	-106.597	-0.309	-0.070
-656.901	39.023	-0.083	-0.076
-655.886	-200.000	0.001	0.114
-654.872	-10.074	-0.333	-0.225
-653.857	-126.974	-0.333	0.050
-652.843	800.000	-0.177	-0.516
-651.828	-200.000	-0.055	-0.249
-650.814	304.607	0.120	-0.227
-649.799	-10.944	-0.264	0.178
-648.784	-38.191	0.266	0.144
-647.770	388.532	-0.055	0.116
-646.755	72.660	-0.152	0.162
-645.741	-59.224	-0.217	-0.095
-644.726	139.322	0.123	-0.164
-643.711	231.485	-0.114	-0.191
-642.697	-110.303	-0.444	-0.094
-641.682	376.165	-0.072	-0.149
-640.668	-200.000	0.007	-0.053
-639.653	141.337	0.115	0.156
-638.638	-51.708	0.375	0.178
-637.624	-131.872	0.241	-0.032
-636.609	28.241	-0.373	-0.321
-635.595	249.676	0.061	0.105
-634.580	-14.703	-0.273	0.179
-633.565	-144.450	-0.137	0.013
-632.551	383.881	0.155	-0.326
-631.536	678.142	0.137	-0.362
-630.522	-155.302	-0.218	-0.014
-629.507	-93.567	-0.194	0.055
-628.492	-109.177	-0.068	-0.015
-627.478	156.520	0.122	-0.172
-626.463	-200.000	0.008	0.237
-625.449	-82.066	-0.264	-0.088
-624.434	800.000	-0.050	0.182
-623.419	800.000	0.030	0.097
-622.405	-200.000	-0.096	0.538
-621.390	800.000	0.062	-0.266
-620.376	108.417	-0.165	-0.201
-619.361	-94.351	0.160	-0.044
-618.346	-193.334	-0.195	0.002
-617.332	800.000	0.034	-0.147
-616.317	80.603	0.116	0.127
-615.303	-111.596	0.178	-0.037
-614.288	-200.000	0.035	0.255
-613.273	800.000	0.060	0.236
-612.259	126.296	0.145	-0.187
-611.244	800.000	0.036	0.158
-610.230	-60.456	-0.341	-0.147
-609.215	800.000	0.049	-0.169
-608.201	-96.513	-0.283	0.076
-607.186	293.633	0.202	0.375
-606.171	34.469	0.297	0.263
-605.157	-67.882	-0.430	-0.171
-604.142	-187.587	0.052	0.001
-603.128	8.718	0.132	0.101
-602.113	-24.887	-0.188	-0.114
-601.098	-11.794	0.058	-0.039
-600.084	194.545	-0.259	-0.399
-599.069	52.570	-0.184	-0.179
-598.055	-58.836	0.164	0.072
-597.040	-25.226	0.081	-0.049
-596.025	-129.241	-0.204	0.029
-595.011	-200.000	-0.029	0.194
-593.996	-106.332	-0.185	0.042
-592.982	-200.000	0.029	0.237
-591.967	224.120	-0.022	0.036
-590.952	-39.247	-0.096	-0.051
-589.938	-145.674	0.133	-0.012
-588.923	434.840	0.062	-0.137
-587.909	-87.884	-0.124	0.038
-586.894	60.134	0.063	-0.064
-585.879	-41.634	0.115	-0.060
-584.865	4.967	0.211	-0.158
-583.850	509.069	-0.103	0.242
-582.836	-8.706	0.035	-0.024
-581.821	-200.000	-0.009	-0.053
-580.806	7.876	-0.344	-0.262
-579.792	800.000	-0.011	-0.040
-578.777	-133.480	-0.200	-0.025
-577.763	27.328	0.227	-0.194
-576.748	72.587	-0.251	-0.266
-575.733	-200.000	-0.008	0.093
-574.719	-200.000	-0.022	0.112
-573.704	-16.540	0.173	0.111
-572.690	-25.070	-0.276	-0.167
-571.675	-161.224	-0.203	-0.011
-570.661	492.552	0.189	0.439
-569.646	-8.480	0.188	-0.128
-568.631	77.189	-0.090	-0.097
-567.617	6.113	0.086	0.064
-566.602	23.452	0.290	0.242
-565.588	-43.011	-0.183	0.094
-564.573	10.702	-0.234	0.181
-563.558	-68.365	-0.083	-0.033
-562.544	-122.816	-0.213	-0.035
-561.529	223.724	0.022	-0.036
-560.515	189.400	-0.133	0.203
-559.500	-200.000	-0.007	-0.228
-558.485	-138.322	-0.080	0.009
-557.471	131.895	0.097	-0.127
-556.456	-200.000	-0.034	-0.280
-555.442	-116.816	-0.106	-0.020
-554.427	800.000	-0.142	0.405
-553.412	378.124	-0.083	-0.171
-552.398	-179.186	-0.372	-0.008
-551.383	-14.725	0.250	-0.163
-550.369	-79.353	-0.151	0.052
-549.354	-111.376	-0.363	0.075
-548.339	800.000	0.027	-0.111
-547.325	326.043	0.201	0.390
-546.310	108.290	0.084	0.102
-545.296	-34.331	0.317	0.176
-544.281	101.240	0.239	0.282
-543.266	-200.000	0.118	0.550
-542.252	-25.052	-0.129	0.077
-541.237	57.187	-0.113	-0.111
-540.223	786.471	-0.023	-0.064
-539.208	-120.798	-0.166	0.028
-538.193	51.020	-0.299	-0.287
-537.179	6.004	-0.085	-0.064
-536.164	-127.263	0.030	-0.004
-535.150	-24.056	0.067	0.041
-534.135	1.750	0.156	-0.114
-533.121	-147.177	0.356	-0.031
-532.106	-15.377	0.090	0.058
-531.091	-147.064	0.140	0.012
-530.077	-100.120	0.107	-0.027
-529.062	-16.451	-0.125	0.081
-528.048	100.185	-0.236	-0.278
-527.033	-117.376	-0.341	-0.063
-526.018	-124.112	-0.248	0.040
-525.004	-107.915	0.306	-0.067
-523.989	370.094	0.042	-0.087
-522.975	-200.000	0.018	0.183
-521.960	154.005	-0.285	0.396
-520.945	602.575	0.069	-0.174
-519.931	-77.776	0.372	0.130
-518.916	-13.938	-0.169	-0.111
-517.902	3.917	-0.249	0.185
-516.887	267.411	0.025	-0.044
-515.872	-61.733	0.282	-0.120
-514.858	9.471	-0.149	0.115
-513.843	-76.749	0.129	-0.046
-512.829	-101.840	0.115	-0.028
-511.814	-123.704	-0.249	-0.040
-510.799	-200.000	-0.018	0.243
-509.785	-34.114	-0.219	0.122
-508.770	98.000	-0.300	0.350
-507.756	-64.053	0.309	-0.128
-506.741	-200.000	0.014	-0.115
-505.726	578.839	0.124	-0.307
-504.712	-200.000	0.031	0.407
-503.697	423.196	0.128	-0.278
-502.683	-200.000	-0.018	0.135
-501.668	-200.000	-0.041	0.199
-500.653	-119.346	-0.347	0.061
-499.639	21.457	0.222	0.183
-498.624	-77.503	0.146	0.051
-497.610	-187.613	0.280	0.004
-496.595	276.720	0.019	0.034
-495.581	-200.000	-0.057	-0.289
-494.566	-17.472	0.308	-0.196
-493.551	-177.966	-0.217	0.005
-492.537	564.550	0.103	0.253
-491.522	606.955	-0.037	0.095
-490.508	-111.837	0.053	-0.011
-489.493	312.067	0.168	-0.319
-488.478	-200.000	-0.007	-0.116
-487.464	-12.948	0.148	-0.097
-486.449	-79.372	-0.297	0.102
-485.435	73.801	-0.257	-0.273
-484.420	-29.747	-0.166	-0.096
-483.405	-94.050	0.418	-0.116
-482.391	-86.513	-0.162	-0.050
-481.376	-120.884	-0.097	-0.017
-480.362	-134.834	0.273	-0.033
-479.347	-129.163	0.203	0.029
-478.332	-70.968	-0.219	-0.083
-477.318	-129.976	0.291	0.040
-476.303	-200.000	-0.015	0.139
-475.289	-200.000	0.009	-0.146
-474.274	193.083	0.196	0.299
-473.259	-36.814	0.280	-0.152
-472.245	286.374	-0.076	-0.139
-471.230	800.000	0.116	-0.323
-470.216	-200.000	0.041	0.249
-469.201	783.766	-0.061	0.170
-468.186	-200.000	0.075	-0.355
-467.172	800.000	-0.062	0.211
-466.157	-134.072	0.139	0.017
-465.143	800.000	0.087	0.275
-464.128	-200.000	0.013	0.254
-463.113	-200.000	-0.033	0.284
-462.099	214.762	0.168	-0.270
-461.084	85.605	-0.072	0.080
-460.070	-57.109	-0.255	-0.114
-459.055	-200.000	0.016	-0.131
-458.040	-200.000	0.016	-0.082
-457.026	-75.535	-0.109	0.039
-456.011	-200.000	-0.090	-0.459
-454.997	131.855	0.085	0.110
-453.982	800.000	0.123	-0.393
-452.968	-57.622	-0.313	0.139
-451.953	800.000	0.106	0.308
-450.938	-142.771	0.265	-0.026
-449.924	2.553	-0.316	-0.231
-448.909	161.525	-0.083	0.117
-447.895	610.879	0.114	-0.287
-446.880	-200.000	-0.008	-0.058
-445.865	-200.000	0.005	-0.184
-444.851	800.000	0.094	0.344
-443.836	23.630	-0.131	0.109
-442.822	20.770	-0.108	0.089
-441.807	133.658	-0.112	0.146
-440.792	77.611	-0.133	-0.143
-439.778	131.380	0.019	-0.025
-438.763	168.628	-0.099	-0.142
-437.749	8.151	0.041	0.031
-436.734	-65.579	0.266	0.108
-435.719	337.413	0.077	0.150
-434.705	452.966	-0.073	-0.163
-433.690	-17.702	-0.061	0.039
-432.676	114.531	0.226	0.278
-431.661	-200.000	-0.002	0.102
-430.646	-134.235	0.235	-0.029
-429.632	72.503	0.145	-0.153
-428.617	-163.802	0.369	-0.017
-427.603	-200.000	-0.012	0.210
-426.588	-200.000	0.280	0.000
-425.573	-65.237	0.303	0.123
-424.559	-73.056	0.067	0.025
-423.544	-170.046	-0.162	-0.006
-422.530	-200.000	-0.008	0.066
-421.515	-200.000	-0.014	0.175
-420.500	-12.606	-0.164	0.108
-419.486	-95.863	0.204	-0.055
-418.471	-120.611	0.202	-0.035
-417.457	-139.177	0.233	-0.025
-416.442	-200.000	-0.013	0.143
-415.428	327.021	-0.092	0.179
-414.413	-200.000	0.046	0.354
-413.398	321.849	0.146	0.281
-412.384	280.405	0.226	0.408
-411.369	-159.198	-0.127	0.007
-410.355	-200.000	0.008	-0.126
-409.340	-89.697	-0.099	0.029
-408.325	-125.632	-0.188	0.029
-407.311	800.000	0.018	0.077
-406.296	800.000	0.101	0.344
-405.282	-149.364	0.226	-0.018
-404.267	80.919	-0.254	0.276
-403.252	-71.671	0.165	-0.062
-402.238	-200.000	-0.003	-0.020
-401.223	800.000	0.124	-0.390
-400.209	-66.173	0.228	-0.092
-399.194	-16.150	-0.247	0.158
-398.179	41.308	-0.276	-0.252
-397.165	800.000	-0.086	0.303
-396.150	-200.000	-0.007	0.039
-395.136	37.572	0.113	-0.101
-394.121	16.232	-0.250	-0.199
-393.106	48.003	-0.285	-0.268
-392.092	14.775	0.143	-0.112
-391.077	-37.325	0.119	-0.064
-390.063	-200.000	0.004	0.072
-389.048	-183.308	-0.477	0.008
-388.033	-114.540	-0.214	0.041
-387.019	-200.000	0.009	-0.118
-386.004	-110.475	0.200	-0.042
-384.990	23.879	-0.131	0.109
-383.975	43.919	-0.122	-0.113
-382.960	-3.054	-0.269	0.189
-381.946	796.272	0.056	-0.155
-380.931	800.000	-0.063	-0.209
-379.917	37.228	-0.049	0.044
-378.902	-132.034	-0.106	0.014
-377.888	-200.000	0.041	-0.278
-376.873	-191.435	0.413	-0.004
-375.858	338.155	0.172	-0.338
-374.844	175.075	0.088	-0.129
-373.829	122.086	-0.160	-0.202
-372.815	-66.459	-0.205	0.082
-371.800	800.000	-0.016	0.049
-370.785	-143.042	-0.179	0.017
-369.771	-42.545	-0.165	-0.085
-368.756	-44.806	0.268	-0.135
-367.742	-73.355	-0.177	-0.065
-366.727	203.349	0.070	-0.109
-365.712	-88.175	0.102	-0.031
-364.698	-200.000	-0.008	0.232
-363.683	-200.000	0.045	-0.248
-362.669	29.233	-0.238	0.203
-361.654	-200.000	-0.011	0.240
-360.639	-75.230	0.114	0.041
-359.625	253.113	-0.100	0.172
-358.610	657.584	0.012	0.032
-357.596	-117.876	-0.225	0.041
-356.581	-77.123	-0.206	-0.072
-355.566	230.194	0.173	-0.284
-354.552	800.000	0.130	-0.483
-353.537	800.000	0.051	0.168
-352.523	72.230	-0.110	-0.115
-351.508	-103.169	0.075	-0.018
-350.493	212.926	0.082	-0.131
-349.479	-43.231	-0.244	0.124
-348.464	93.013	-0.274	-0.311
-347.450	-87.187	-0.168	0.051
-346.435	-200.000	0.074	-0.344
-345.420	80.001	-0.202	-0.219
-344.406	226.872	-0.203	-0.331
-343.391	-48.849	-0.185	0.090
-342.377	-146.348	-0.167	-0.015
-341.362	-27.711	-0.114	0.067
-340.348	-200.000	-0.008	-0.132
-339.333	4.580	-0.060	0.045
-338.318	-200.000	-0.005	-0.132
-337.304	-102.473	0.158	-0.038
-336.289	-61.160	0.226	-0.096
-335.275	-164.451	-0.096	-0.004
-334.260	-47.583	-0.404	-0.197
-333.245	-139.301	-0.057	0.006
-332.231	-51.757	0.156	0.073
-331.216	-52.517	-0.128	-0.059
-330.202	172.112	0.192	0.278
-329.187	-200.000	-0.050	-0.315
-328.172	155.134	-0.045	0.062
-327.158	-91.473	0.406	-0.117
-326.143	415.952	0.074	0.159
-325.129	61.763	0.129	0.129
-324.114	-14.984	0.169	0.109
-323.099	-174.300	0.134	0.004
-322.085	13.952	0.223	-0.175
-321.070	197.909	-0.124	-0.191
-320.056	-120.966	-0.084	0.014
-319.041	-76.677	-0.117	-0.041
-318.026	202.702	0.066	0.102
-317.012	-65.848	0.040	0.016
-315.997	153.792	0.152	0.210
-314.983	-48.521	-0.161	-0.078
-313.968	-98.675	0.215	-0.055
-312.953	-6.884	0.144	-0.098
-311.939	-9.452	-0.244	0.164
-310.924	800.000	-0.052	-0.174
-309.910	800.000	-0.096	-0.367
-308.895	-98.410	0.171	0.044
-307.880	-69.420	-0.200	0.077
-306.866	412.853	0.188	-0.401
-305.851	-200.000	0.035	0.288
-304.837	-165.108	-0.191	0.009
-303.822	95.174	0.071	0.082
-302.807	275.962	0.068	-0.121
-301.793	-15.921	0.074	0.047
-300.778	-137.703	-0.390	-0.044
-299.764	-142.148	0.058	0.006
-298.749	269.666	-0.099	-0.175
-297.735	-92.429	-0.155	-0.044
-296.720	-72.144	-0.206	-0.077
-295.705	800.000	-0.133	-0.485
-294.691	800.000	0.042	-0.144
-293.676	-200.000	-0.011	0.053
-292.662	-130.261	-0.144	-0.020
-291.647	-146.096	-0.228	-0.020
-290.632	262.982	-0.104	0.182
-289.618	800.000	0.046	0.148
-288.603	10.437	-0.169	0.129
-287.589	211.936	-0.088	-0.139
-286.574	-136.458	-0.231	0.027
-285.559	599.411	0.076	-0.190
-284.545	114.161	-0.162	0.198
-283.530	-35.336	-0.060	-0.033
-282.516	-133.380	0.162	-0.020
-281.501	252.844	0.061	0.105
-280.486	13.138	-0.023	0.018
-279.472	-94.381	0.425	0.116
-278.457	93.646	0.340	0.386
-277.443	86.829	0.133	0.148
-276.428	83.124	0.152	-0.166
-275.413	26.871	0.275	0.232
-274.399	-149.279	0.096	-0.008
-273.384	59.172	-0.098	-0.097
-272.370	-16.340	-0.144	0.092
-271.355	-200.000	0.021	0.244
-270.340	-126.394	0.426	-0.064
-269.326	-70.894	-0.233	-0.088
-268.311	-200.000	-0.019	0.431
-267.297	-14.763	0.076	0.049
-266.282	-171.781	-0.139	-0.005
-265.267	-83.194	0.097	0.031
-264.253	-200.000	-0.031	0.168
-263.238	-16.759	-0.031	-0.020
-262.224	-0.509	0.169	0.120
-261.209	152.204	0.216	0.296
-260.195	-161.819	-0.362	0.018
-259.180	-40.133	0.138	0.072
-258.165	19.503	0.122	0.098
-257.151	178.530	-0.176	0.258
-256.136	800.000	-0.106	-0.428
-255.122	-14.518	-0.343	-0.221
-254.107	800.000	0.120	-0.503
-253.092	-13.895	0.122	0.079
-252.078	164.393	0.192	-0.272
-251.063	-5.872	0.104	0.071
-250.049	-157.062	0.304	0.019
-249.034	113.734	0.149	-0.182
-248.019	82.507	-0.181	-0.197
-247.005	-163.585	0.350	0.017
-245.990	-31.991	-0.236	0.132
-244.976	-200.000	0.000	0.198
-243.961	-157.402	0.266	0.016
-242.946	-150.492	0.080	-0.006
-241.932	56.013	-0.332	0.323
-240.917	-120.681	0.246	0.042
-239.903	-97.745	-0.162	0.042
-238.888	-71.569	0.281	0.105
-237.873	-135.116	0.307	-0.037
-236.859	-151.037	0.203	-0.015
-235.844	-57.609	0.346	0.152
-234.830	-30.165	-0.069	-0.039
-233.815	31.979	0.245	-0.212
-232.800	34.320	-0.170	-0.149
-231.786	-146.393	-0.342	-0.030
-230.771	-21.137	0.191	-0.117
-229.757	-200.000	-0.003	-0.063
-228.742	-159.644	0.232	0.013
-227.727	-159.315	0.180	0.010
-226.713	-70.241	0.270	0.103
-225.698	800.000	-0.025	-0.085
-224.684	-136.396	-0.200	-0.023
-223.669	142.719	0.244	0.325
-222.655	-200.000	0.010	-0.160
-221.640	90.983	0.142	-0.159
-220.625	-69.238	-0.127	0.049
-219.611	-79.511	-0.109	0.037
-218.596	-200.000	0.040	-0.413
-217.582	115.009	-0.154	-0.189
-216.567	-200.000	-0.098	-0.492
-215.552	43.654	0.030	-0.028
-214.538	58.856	-0.284	0.280
-213.523	25.358	0.136	-0.113
-212.509	97.137	-0.045	0.051
-211.494	150.582	0.080	0.109
-210.479	11.371	0.269	0.206
-209.465	40.057	0.067	0.061
-208.450	51.794	0.257	0.245
-207.436	-61.324	0.268	-0.113
-206.421	-184.514	-0.143	0.002
-205.406	101.040	0.085	0.099
-204.392	83.195	0.285	-0.311
-203.377	184.445	-0.083	0.124
-202.363	-63.701	0.165	-0.068
-201.348	800.000	-0.043	0.139
-200.333	109.275	0.078	0.093
-199.319	181.185	-0.130	0.192
-198.304	-200.000	-0.002	0.129
-197.290	6.939	-0.248	0.185
-196.275	108.847	0.279	0.334
-195.260	-79.934	0.387	0.130
-194.246	-154.240	0.192	-0.013
-193.231	-11.397	-0.180	-0.118
-192.217	229.024	-0.093	0.151
-191.202	356.023	0.095	-0.190
-190.187	670.830	-0.058	-0.152
-189.173	800.000	0.076	-0.227
-188.158	-94.037	-0.220	-0.060
-187.144	-49.290	0.292	0.139
-186.129	-5.350	-0.125	0.086
-185.114	40.107	-0.331	0.298
-184.100	-110.166	0.239	0.050
-183.085	256.554	0.165	0.284
-182.071	-200.000	-0.008	0.059
-181.056	45.538	-0.223	0.206
-180.042	82.953	-0.193	0.210
-179.027	315.172	0.158	-0.298
-178.012	-75.474	0.126	-0.045
-176.998	-103.878	-0.092	0.021
-175.983	324.583	-0.105	0.201
-174.969	-23.707	-0.108	0.064
-173.954	-149.367	-0.060	-0.005
-172.939	95.532	0.199	0.227
-171.925	-73.786	0.282	-0.102
-170.910	212.635	0.104	0.164
-169.896	13.625	-0.204	-0.159
-168.881	-93.557	0.122	-0.034
-167.866	-136.495	0.252	0.029
-166.852	784.146	0.029	0.079
-165.837	-156.633	-0.282	0.017
-164.823	180.622	-0.034	0.049
-163.808	363.342	-0.106	-0.213
-162.793	-127.529	-0.329	0.048
-161.779	-144.682	-0.329	0.030
-160.764	182.036	0.131	-0.193
-159.750	-37.504	0.169	-0.090
-158.735	118.924	0.058	0.072
-157.720	-200.000	-0.003	-0.303
-156.706	502.448	0.049	0.114
-155.691	-26.453	-0.193	0.113
-154.677	-60.681	-0.093	0.040
-153.662	800.000	0.132	-0.436
-152.647	-27.291	-0.054	0.031
-151.633	300.846	-0.117	-0.216
-150.618	-200.000	-0.051	0.356
-149.604	-2.700	0.228	-0.159
-148.589	-200.000	-0.034	0.205
-147.574	46.050	-0.199	-0.184
-146.560	-97.902	-0.153	0.039
-145.545	-200.000	0.000	-0.122
-144.531	171.589	0.156	0.224
-143.516	72.551	-0.159	0.165
-142.502	-50.687	-0.088	-0.041
-141.487	502.524	-0.171	0.395
-140.472	175.954	0.042	0.061
-139.458	800.000	-0.106	-0.364
-138.443	800.000	0.074	0.257
-137.429	-200.000	0.102	0.000
-136.414	800.000	-0.100	0.277
-135.399	16.772	-0.201	-0.159
-134.385	800.000	0.069	0.232
-133.370	-200.000	0.085	-0.400
-132.356	-22.472	0.374	0.226
-131.341	-97.093	-0.235	0.061
-130.326	-120.674	-0.048	0.008
-129.312	-9.051	-0.006	0.004
-128.297	-35.379	-0.360	0.195
-127.283	8.580	0.070	-0.052
-126.268	-200.000	0.019	-0.155
-125.253	-56.107	0.049	-0.022
-124.239	36.596	-0.217	-0.191
-123.224	-38.399	-0.277	-0.147
-122.210	-200.000	-0.042	0.272
