DTS Sentinel unit serial number:	SN413079Multiplexer serial number:	ORYXHardware model number:	OX4-SRSoftware version number:	ORYX F/W v4.00 Oryx Data Collector v3.7.2.0data status	okinstallation	princeton_trtdifferential loss correction	single-endedforward channel	channel 3reverse channel	N/Adate	2019/09/15time	21:44:34forward acquisition time	60.00reverse acquisition time	0.00gamma	496.2192k internal	0.2329k external	0.2329temperature offset calibration	0.9939default loss term (dB/km)	0.3790temperature slope calibration	1.0000multiplexer offset coefficient	1.0000multiplexer slope coefficient	1.0000fibre end	0.00T internal ref (°C)	30.30T ext. ref 1 (°C)	8.41T ext. ref 2 (°C)	23.41length (m)	temperature (°C)	Stokes	anti-Stokes-747.200	-67.331	-0.164	0.065
-746.185	129.880	0.076	0.098
-745.171	76.126	-0.079	0.085
-744.156	800.000	-0.055	-0.190
-743.142	-200.000	0.038	-0.254
-742.127	9.153	-0.347	0.264
-741.112	546.894	-0.022	0.052
-740.098	574.502	0.068	0.167
-739.083	-200.000	-0.008	-0.126
-738.069	-188.014	0.389	-0.005
-737.054	-200.000	-0.031	0.275
-736.039	-183.427	-0.433	-0.008
-735.025	-200.000	-0.007	-0.130
-734.010	-21.586	-0.386	-0.237
-732.996	3.117	-0.184	-0.135
-731.981	331.894	0.073	0.142
-730.966	-200.000	-0.014	0.229
-729.952	-56.599	-0.201	-0.090
-728.937	800.000	-0.066	-0.189
-727.923	510.277	0.058	-0.136
-726.908	-200.000	0.059	0.267
-725.894	69.792	0.124	-0.128
-724.879	47.020	-0.195	-0.183
-723.864	-95.765	-0.153	-0.041
-722.850	-120.088	-0.242	-0.042
-721.835	-42.229	0.055	-0.028
-720.821	126.105	-0.255	-0.324
-719.806	800.000	0.048	-0.167
-718.791	107.184	-0.148	-0.176
-717.777	800.000	-0.122	0.360
-716.762	-87.728	-0.115	-0.035
-715.748	800.000	-0.071	-0.245
-714.733	122.846	-0.110	-0.139
-713.718	-23.045	0.194	-0.117
-712.704	-200.000	0.066	-0.359
-711.689	145.944	-0.150	0.203
-710.675	-193.882	-0.349	-0.003
-709.660	800.000	-0.135	-0.521
-708.645	-44.294	0.060	-0.030
-707.631	-136.149	-0.128	-0.015
-706.616	800.000	-0.103	-0.290
-705.602	117.683	0.120	-0.148
-704.587	-200.000	-0.009	-0.153
-703.572	-123.423	-0.331	-0.053
-702.558	151.635	0.029	-0.039
-701.543	70.869	-0.095	-0.099
-700.529	-129.207	0.086	-0.012
-699.514	800.000	0.102	-0.345
-698.499	161.609	-0.164	-0.231
-697.485	29.311	-0.142	-0.121
-696.470	50.645	-0.130	0.124
-695.456	-102.776	-0.296	0.071
-694.441	46.045	0.287	0.267
-693.426	-68.906	0.187	-0.073
-692.412	-200.000	0.039	0.225
-691.397	123.739	-0.234	0.295
-690.383	-18.915	0.076	-0.047
-689.368	32.987	-0.216	-0.188
-688.354	-200.000	-0.028	-0.154
-687.339	-67.637	0.116	0.046
-686.324	-71.093	0.347	-0.131
-685.310	-200.000	0.022	-0.220
-684.295	319.032	0.099	0.188
-683.281	-200.000	0.062	0.339
-682.266	-90.420	-0.274	0.080
-681.251	278.592	0.131	-0.234
-680.237	-13.595	0.203	-0.132
-679.222	-127.025	-0.398	0.059
-678.208	52.106	-0.300	-0.287
-677.193	-45.501	-0.209	-0.104
-676.178	-88.232	0.154	0.046
-675.164	-77.428	0.216	-0.075
-674.149	-159.287	0.085	0.005
-673.135	-164.059	0.143	0.007
-672.120	141.174	0.192	-0.255
-671.105	-76.065	0.102	-0.036
-670.091	800.000	0.042	0.131
-669.076	70.356	-0.201	0.209
-668.062	-18.465	0.280	0.176
-667.047	-200.000	0.043	0.353
-666.032	-200.000	-0.006	-0.125
-665.018	61.960	-0.078	0.078
-664.003	-200.000	-0.010	0.155
-662.989	-105.598	0.122	0.028
-661.974	-176.312	-0.273	0.007
-660.959	-200.000	-0.007	-0.196
-659.945	-148.197	-0.195	0.016
-658.930	-79.519	-0.210	-0.071
-657.916	-113.418	0.467	-0.092
-656.901	98.972	0.160	0.185
-655.886	33.276	-0.250	0.218
-654.872	30.916	0.166	-0.143
-653.857	-200.000	0.006	-0.129
-652.843	24.074	0.189	0.156
-651.828	0.642	-0.157	0.113
-650.814	80.474	-0.250	0.270
-649.799	423.096	-0.033	-0.070
-648.784	800.000	-0.058	-0.198
-647.770	34.857	-0.076	0.067
-646.755	-172.383	0.316	-0.010
-645.741	-200.000	0.005	0.300
-644.726	-200.000	-0.009	0.212
-643.711	167.996	0.069	0.098
-642.697	-147.513	-0.352	-0.030
-641.682	-142.991	-0.288	-0.028
-640.668	18.496	-0.414	0.332
-639.653	-200.000	-0.079	-0.352
-638.638	-83.592	-0.189	-0.061
-637.624	199.475	-0.020	-0.031
-636.609	100.824	-0.115	0.134
-635.595	14.964	0.108	0.085
-634.580	-13.040	-0.167	-0.109
-633.565	57.377	0.180	0.176
-632.551	93.156	-0.224	-0.254
-631.536	524.150	0.071	0.167
-630.522	-129.780	0.316	0.044
-629.507	59.374	0.167	-0.165
-628.492	-200.000	-0.000	0.246
-627.478	-85.820	0.232	-0.072
-626.463	46.205	0.074	0.069
-625.449	800.000	-0.074	0.235
-624.434	-58.430	0.164	0.072
-623.419	152.577	-0.124	-0.169
-622.405	-200.000	0.013	0.211
-621.390	451.362	0.070	0.154
-620.376	-82.471	0.194	0.063
-619.361	-70.439	-0.231	-0.088
-618.346	199.208	-0.061	-0.094
-617.332	800.000	-0.060	-0.169
-616.317	800.000	0.037	-0.104
-615.303	-120.202	0.451	-0.077
-614.288	455.482	0.023	0.052
-613.273	-113.170	0.215	0.042
-612.259	701.818	0.043	0.114
-611.244	143.215	0.178	-0.238
-610.230	210.356	-0.104	0.163
-609.215	435.233	-0.067	-0.147
-608.201	-80.349	0.283	0.095
-607.186	-73.958	0.039	-0.014
-606.171	53.582	-0.086	-0.083
-605.157	75.939	-0.197	-0.209
-604.142	-125.216	-0.271	-0.042
-603.128	-11.678	0.193	0.127
-602.113	786.627	0.112	0.307
-601.098	-200.000	-0.029	0.235
-600.084	-68.918	-0.340	0.131
-599.069	-199.660	0.284	-0.001
-598.055	312.347	-0.098	-0.184
-597.040	-200.000	-0.043	-0.278
-596.025	98.043	0.114	0.131
-595.011	234.635	0.120	-0.199
-593.996	-200.000	0.072	-0.430
-592.982	347.741	-0.158	-0.312
-591.967	-148.884	-0.288	0.023
-590.952	-87.374	0.275	-0.083
-589.938	-157.400	0.130	0.008
-588.923	163.511	-0.196	-0.276
-587.909	800.000	0.069	-0.247
-586.894	-29.456	-0.233	0.133
-585.879	-200.000	0.023	0.373
-584.865	146.558	-0.184	0.248
-583.850	-200.000	0.022	0.190
-582.836	218.647	0.135	-0.215
-581.821	-200.000	-0.062	0.282
-580.806	-200.000	0.018	-0.126
-579.792	800.000	-0.083	-0.261
-578.777	25.154	-0.140	0.116
-577.763	800.000	-0.010	-0.041
-576.748	54.830	-0.408	-0.394
-575.733	-200.000	0.004	-0.034
-574.719	44.665	-0.130	-0.119
-573.704	-21.170	0.099	-0.061
-572.690	800.000	-0.054	0.229
-571.675	-49.253	0.300	-0.144
-570.661	21.681	-0.208	-0.169
-569.646	-200.000	-0.011	0.200
-568.631	0.972	-0.055	0.039
-567.617	-76.881	-0.274	0.096
-566.602	-17.715	-0.102	-0.064
-565.588	-61.504	-0.432	-0.182
-564.573	-157.235	0.017	-0.001
-563.558	-124.693	-0.139	0.021
-562.544	-200.000	-0.078	0.464
-561.529	116.406	-0.102	-0.125
-560.515	-13.521	-0.163	-0.105
-559.500	-64.771	0.108	-0.044
-558.485	-200.000	-0.015	0.284
-557.471	-45.621	0.140	0.069
-556.456	174.027	-0.179	0.258
-555.442	103.090	0.135	-0.158
-554.427	-160.114	0.295	0.016
-553.412	-89.151	-0.254	-0.075
-552.398	800.000	-0.056	0.200
-551.383	-97.542	0.212	0.055
-550.369	800.000	-0.072	0.275
-549.354	-52.006	-0.043	0.020
-548.339	-200.000	0.009	0.244
-547.325	57.509	-0.130	0.127
-546.310	-200.000	0.012	0.223
-545.296	-155.968	0.253	-0.016
-544.281	-120.306	0.136	-0.023
-543.266	-13.489	0.084	-0.054
-542.252	100.216	0.037	-0.043
-541.237	-200.000	-0.040	0.183
-540.223	-113.405	0.322	0.063
-539.208	-124.334	-0.204	0.032
-538.193	-15.538	-0.274	-0.175
-537.179	406.954	-0.098	0.206
-536.164	318.356	0.147	-0.278
-535.150	-200.000	0.035	-0.212
-534.135	-157.327	0.439	-0.027
-533.121	-8.709	-0.261	-0.175
-532.106	800.000	-0.063	-0.191
-531.091	-200.000	-0.028	-0.307
-530.077	-62.138	0.307	-0.128
-529.062	260.988	-0.203	-0.350
-528.048	-153.741	0.141	0.010
-527.033	-21.007	-0.255	0.156
-526.018	-129.657	0.176	0.024
-525.004	-94.988	-0.389	-0.105
-523.989	-200.000	0.028	-0.000
-522.975	800.000	-0.044	-0.148
-521.960	-112.641	-0.019	0.004
-520.945	-30.022	-0.072	0.041
-519.931	-160.918	-0.158	0.008
-518.916	-136.090	-0.327	-0.038
-517.902	-18.739	-0.119	-0.074
-516.887	-200.000	0.005	0.032
-515.872	253.983	0.070	-0.119
-514.858	-200.000	0.030	0.183
-513.843	-8.796	-0.110	0.074
-512.829	-60.134	-0.090	-0.038
-511.814	-47.635	-0.293	0.142
-510.799	71.939	0.137	-0.143
-509.785	-200.000	0.033	-0.171
-508.770	4.638	-0.061	-0.045
-507.756	-200.000	0.004	0.139
-506.741	-200.000	-0.010	0.249
-505.726	92.503	-0.115	0.129
-504.712	178.596	-0.033	0.047
-503.697	197.809	-0.116	-0.177
-502.683	-64.734	-0.053	0.021
-501.668	-177.467	-0.393	-0.010
-500.653	184.363	-0.118	-0.175
-499.639	8.002	0.237	0.177
-498.624	-10.580	-0.279	-0.184
-497.610	800.000	0.094	0.275
-496.595	43.068	0.113	0.103
-495.581	173.153	-0.098	0.140
-494.566	-136.443	-0.112	0.013
-493.551	-200.000	-0.044	0.385
-492.537	-107.041	0.293	0.064
-491.522	-127.600	-0.123	0.018
-490.508	636.919	0.056	-0.143
-489.493	-66.163	-0.184	0.073
-488.478	-64.379	-0.201	0.082
-487.464	-140.163	0.129	-0.013
-486.449	579.796	0.165	0.404
-485.435	-200.000	-0.147	-0.661
-484.420	-139.447	-0.211	0.023
-483.405	-1.994	0.072	0.051
-482.391	170.470	-0.121	-0.173
-481.376	-200.000	0.004	0.089
-480.362	-112.853	0.357	-0.071
-479.347	28.109	0.261	-0.220
-478.332	800.000	0.020	0.085
-477.318	2.775	-0.337	-0.244
-476.303	-126.119	-0.279	0.042
-475.289	528.251	0.095	0.223
-474.274	-34.769	0.040	0.022
-473.259	9.263	0.098	-0.074
-472.245	672.918	0.056	-0.144
-471.230	-146.125	0.438	0.038
-470.216	368.735	-0.077	-0.156
-469.201	336.375	0.133	-0.257
-468.186	41.192	-0.165	0.149
-467.172	356.155	0.170	-0.337
-466.157	-133.314	-0.248	0.031
-465.143	29.226	-0.123	-0.104
-464.128	-31.886	-0.143	-0.080
-463.113	800.000	-0.020	0.071
-462.099	-200.000	-0.033	-0.182
-461.084	8.208	-0.129	-0.097
-460.070	152.764	0.087	0.119
-459.055	800.000	-0.028	-0.095
-458.040	-200.000	-0.046	0.211
-457.026	644.073	0.056	0.143
-456.011	-79.290	0.566	-0.191
-454.997	-152.098	0.127	0.009
-453.982	-80.154	0.117	-0.039
-452.968	-117.072	0.165	-0.030
-451.953	-200.000	-0.023	-0.205
-450.938	-104.106	-0.133	-0.031
-449.924	-74.463	0.277	0.099
-448.909	109.792	0.178	-0.213
-447.895	800.000	0.172	-0.520
-446.880	800.000	-0.066	0.241
-445.865	-200.000	0.067	-0.375
-444.851	35.199	0.402	-0.351
-443.836	-1.849	0.265	-0.186
-442.822	-50.936	-0.177	-0.083
-441.807	219.028	0.013	0.021
-440.792	800.000	0.043	-0.153
-439.778	21.029	0.137	-0.111
-438.763	15.372	0.077	-0.060
-437.749	800.000	0.073	-0.315
-436.734	-180.504	0.143	-0.003
-435.719	-200.000	-0.006	-0.174
-434.705	800.000	-0.044	0.164
-433.690	301.104	-0.060	0.111
-432.676	-11.738	-0.152	-0.099
-431.661	32.791	-0.051	0.044
-430.646	107.267	-0.062	0.073
-429.632	-200.000	0.007	-0.252
-428.617	609.051	0.073	-0.182
-427.603	468.500	0.072	0.160
-426.588	-55.546	-0.126	0.056
-425.573	-54.708	-0.168	-0.076
-424.559	800.000	0.011	0.037
-423.544	-200.000	0.015	0.267
-422.530	357.901	0.109	-0.216
-421.515	-200.000	-0.003	0.184
-420.500	-200.000	0.014	-0.443
-419.486	-200.000	0.013	-0.098
-418.471	272.819	0.018	0.031
-417.457	180.813	-0.136	-0.199
-416.442	278.420	-0.211	0.373
-415.428	-200.000	0.025	0.122
-414.413	-0.878	0.191	-0.134
-413.398	426.970	-0.150	0.321
-412.384	451.402	0.016	0.036
-411.369	387.079	0.113	0.233
-410.355	-43.060	-0.048	0.024
-409.340	2.443	0.140	-0.101
-408.325	-111.804	-0.141	-0.028
-407.311	11.397	0.120	-0.092
-406.296	136.375	0.128	-0.166
-405.282	-115.742	0.283	0.053
-404.267	-136.471	-0.107	0.012
-403.252	125.601	0.077	0.097
-402.238	247.088	0.138	0.231
-401.223	-57.101	0.244	0.107
-400.209	445.129	-0.024	-0.052
-399.194	423.738	-0.078	-0.167
-398.179	110.595	-0.161	-0.193
-397.165	-47.500	0.099	0.048
-396.150	-20.352	-0.238	0.146
-395.136	738.193	0.075	0.199
-394.121	-43.066	0.258	0.130
-393.106	-91.548	-0.347	0.098
-392.092	56.675	-0.103	-0.100
-391.077	-101.669	-0.315	-0.076
-390.063	386.147	0.103	-0.211
-389.048	19.882	0.212	0.170
-388.033	58.258	-0.073	-0.071
-387.019	800.000	0.030	-0.101
-386.004	-200.000	-0.024	0.124
-384.990	303.680	-0.139	0.256
-383.975	16.435	0.203	0.159
-382.960	373.983	-0.043	-0.086
-381.946	19.426	-0.127	-0.101
-380.931	109.252	-0.098	0.116
-379.917	43.035	0.159	0.144
-378.902	-73.372	-0.386	0.140
-377.888	-43.715	0.067	-0.033
-376.873	63.446	0.063	0.062
-375.858	-200.000	-0.005	0.378
-374.844	-200.000	0.024	0.192
-373.829	8.772	0.090	0.068
-372.815	-6.593	-0.305	-0.206
-371.800	-51.435	-0.122	0.057
-370.785	131.974	0.212	0.271
-369.771	39.500	-0.158	-0.141
-368.756	-45.118	-0.123	0.061
-367.742	-54.518	-0.244	0.110
-366.727	-200.000	0.037	0.315
-365.712	398.856	0.116	-0.241
-364.698	89.262	0.235	-0.259
-363.683	-60.580	0.024	0.010
-362.669	-21.686	-0.399	0.241
-361.654	287.074	-0.104	-0.186
-360.639	800.000	0.138	0.396
-359.625	149.875	-0.138	0.186
-358.610	-200.000	-0.013	0.081
-357.596	-6.557	-0.241	-0.163
-356.581	800.000	-0.016	0.061
-355.566	-200.000	0.062	0.327
-354.552	-200.000	-0.012	-0.256
-353.537	-41.787	0.118	-0.060
-352.523	800.000	-0.110	0.312
-351.508	-200.000	0.060	-0.366
-350.493	-176.847	0.148	-0.004
-349.479	109.895	-0.039	0.047
-348.464	408.233	-0.052	-0.108
-347.450	142.714	0.145	0.191
-346.435	-129.084	0.211	-0.029
-345.420	-10.374	0.287	0.189
-344.406	418.988	-0.115	-0.244
-343.391	20.695	0.285	0.229
-342.377	-120.136	-0.190	-0.032
-341.362	-148.938	-0.204	0.016
-340.348	428.563	-0.093	-0.199
-339.333	-101.063	-0.369	-0.090
-338.318	-130.715	-0.102	0.014
-337.304	1.273	0.232	0.166
-336.289	-41.081	0.109	-0.056
-335.275	189.735	-0.163	-0.242
-334.260	-174.333	0.227	0.007
-333.245	-200.000	-0.038	-0.205
-332.231	-28.994	0.195	0.111
-331.216	120.623	0.205	-0.253
-330.202	85.989	0.213	-0.233
-329.187	75.024	0.094	0.098
-328.172	-130.531	0.234	0.031
-327.158	-154.758	0.395	-0.026
-326.143	-132.734	-0.317	0.040
-325.129	-30.265	-0.106	0.059
-324.114	145.356	0.205	-0.272
-323.099	63.225	0.160	-0.159
-322.085	2.589	0.109	-0.078
-321.070	49.788	-0.170	-0.159
-320.056	-163.321	-0.270	-0.013
-319.041	-0.391	-0.084	-0.059
-318.026	415.406	-0.084	-0.177
-317.012	-39.662	0.216	-0.112
-315.997	48.531	0.098	0.091
-314.983	363.180	-0.069	-0.138
-313.968	-200.000	-0.002	-0.363
-312.953	-200.000	0.042	-0.288
-311.939	-139.148	0.084	0.009
-310.924	-113.963	-0.143	0.027
-309.910	800.000	-0.078	0.286
-308.895	-200.000	0.018	0.212
-307.880	-61.087	-0.268	0.112
-306.866	352.579	0.118	0.232
-305.851	-164.656	-0.196	-0.009
-304.837	-119.885	0.277	0.047
-303.822	-13.263	-0.158	0.102
-302.807	-104.236	0.181	0.042
-301.793	628.507	-0.058	0.145
-300.778	61.802	-0.169	-0.167
-299.764	-200.000	0.043	-0.313
-298.749	800.000	-0.109	0.428
-297.735	-45.236	0.202	0.099
-296.720	-200.000	-0.018	0.246
-295.705	-24.078	0.227	0.134
-294.691	-121.024	-0.328	0.054
-293.676	800.000	0.057	0.161
-292.662	77.432	0.222	-0.234
-291.647	-58.368	0.172	-0.074
-290.632	27.240	0.200	-0.166
-289.618	80.490	0.084	0.090
-288.603	83.348	-0.302	0.325
-287.589	-29.778	0.320	-0.180
-286.574	-53.992	0.124	0.056
-285.559	-200.000	-0.006	-0.167
-284.545	-159.414	0.123	-0.007
-283.530	-51.392	0.282	-0.131
-282.516	-35.330	-0.331	0.178
-281.501	-200.000	0.065	-0.311
-280.486	480.364	-0.146	-0.328
-279.472	800.000	-0.065	0.259
-278.457	-8.388	-0.030	0.020
-277.443	56.976	0.051	-0.050
-276.428	-200.000	-0.017	0.248
-275.413	800.000	-0.049	0.134
-274.399	-31.204	-0.186	0.104
-273.384	-128.154	0.356	0.050
-272.370	721.340	-0.063	-0.165
-271.355	-162.463	-0.170	-0.008
-270.340	330.788	-0.095	-0.181
-269.326	-200.000	-0.011	0.200
-268.311	131.272	0.051	-0.065
-267.297	-109.066	0.202	-0.043
-266.282	-200.000	-0.037	-0.232
-265.267	-100.941	-0.588	-0.143
-264.253	117.549	-0.162	0.197
-263.238	-84.717	0.154	-0.048
-262.224	-200.000	0.009	-0.199
-261.209	419.439	0.232	-0.491
-260.195	158.701	-0.028	0.039
-259.180	167.121	0.065	0.091
-258.165	672.862	-0.045	-0.114
-257.151	-120.003	0.272	0.046
-256.136	173.887	0.142	-0.202
-255.122	152.428	-0.259	0.350
-254.107	-134.503	-0.329	0.040
-253.092	-200.000	-0.002	-0.343
-252.078	-117.795	-0.149	0.026
-251.063	-200.000	0.021	-0.315
-250.049	-155.053	-0.157	-0.010
-249.034	-200.000	-0.059	0.321
-248.019	179.134	0.083	0.120
-247.005	-28.210	-0.128	0.073
-245.990	-73.681	0.175	0.063
-244.976	-33.911	0.295	-0.160
-243.961	-200.000	-0.052	-0.318
-242.946	44.492	-0.057	-0.051
-241.932	800.000	0.079	0.295
-240.917	-100.472	-0.223	-0.054
-239.903	505.650	-0.091	0.208
-238.888	151.926	-0.108	0.145
-237.873	-4.896	0.164	-0.111
-236.859	-148.769	0.470	0.038
-235.844	-200.000	-0.010	0.230
-234.830	54.998	-0.261	0.249
-233.815	-93.865	-0.245	-0.067
-232.800	42.387	0.345	0.309
-231.786	-120.374	-0.165	0.028
-230.771	279.505	0.037	-0.065
-229.757	800.000	-0.030	0.112
-228.742	-54.731	0.123	0.055
-227.727	-200.000	0.005	-0.206
-226.713	1.394	-0.234	-0.166
-225.698	-200.000	0.025	0.139
-224.684	144.717	-0.019	-0.026
-223.669	-70.952	-0.132	-0.049
-222.655	-47.762	0.334	-0.160
-221.640	675.999	-0.069	0.178
-220.625	111.349	-0.072	0.086
-219.611	530.181	0.038	-0.089
-218.596	-200.000	0.030	0.170
-217.582	155.873	-0.270	0.367
-216.567	-200.000	0.000	-0.012
-215.552	48.649	0.133	0.123
-214.538	317.257	0.021	0.039
-213.523	-152.399	0.326	-0.023
-212.509	-110.571	-0.098	0.020
-211.494	131.736	-0.125	-0.159
-210.479	20.202	-0.233	-0.185
-209.465	78.254	0.211	-0.222
-208.450	-200.000	0.014	-0.304
-207.436	-84.966	-0.225	0.070
-206.421	214.272	-0.099	0.155
-205.406	800.000	-0.095	-0.267
-204.392	12.519	0.289	0.220
-203.377	-77.206	0.375	0.129
-202.363	195.639	-0.286	0.429
-201.348	-200.000	0.084	0.405
-200.333	43.028	0.182	0.164
-199.319	35.048	0.124	0.107
-198.304	34.198	0.124	0.107
-197.290	12.562	-0.055	-0.042
-196.275	-90.825	0.007	-0.002
-195.260	-26.790	0.376	0.217
-194.246	-108.979	0.234	0.049
-193.231	268.260	-0.147	0.254
-192.217	-200.000	0.030	0.134
-191.202	-114.371	-0.352	0.067
-190.187	-200.000	-0.013	-0.192
-189.173	-160.591	0.353	0.019
-188.158	-103.345	0.276	0.064
-187.144	138.060	-0.224	-0.290
-186.129	-127.009	0.044	-0.006
-185.114	207.735	0.087	0.134
-184.100	-53.167	0.274	-0.124
-183.085	-76.795	-0.258	-0.089
-182.071	800.000	-0.058	-0.250
-181.056	-110.536	0.169	0.034
-180.042	-200.000	-0.030	-0.349
-179.027	-111.676	0.192	0.038
-178.012	234.728	-0.137	0.223
-176.998	800.000	0.048	0.206
-175.983	370.432	-0.178	0.355
-174.969	19.996	-0.141	0.112
-173.954	-41.787	0.372	0.188
-172.939	-96.345	0.381	0.099
-171.925	-155.327	0.164	0.011
-170.910	-67.544	-0.270	0.104
-169.896	-95.946	-0.146	-0.038
-168.881	354.371	-0.078	-0.153
-167.866	-67.539	-0.094	-0.036
-166.852	95.075	0.219	0.245
-165.837	-200.000	0.025	-0.181
-164.823	-200.000	0.007	0.171
-163.808	-67.272	0.374	-0.145
-162.793	-10.434	0.134	-0.087
-161.779	-25.948	-0.274	-0.159
-160.764	96.207	-0.196	0.221
-159.750	-68.344	0.259	0.099
-158.735	-200.000	0.003	-0.021
-157.720	150.150	0.121	-0.162
-156.706	24.792	-0.047	-0.039
-155.691	194.286	-0.235	-0.350
-154.677	-189.715	-0.300	-0.003
-153.662	-23.156	0.204	0.121
-152.647	-185.069	0.156	0.002
-151.633	-125.774	-0.273	0.041
-150.618	-91.672	-0.265	-0.074
-149.604	-79.548	-0.331	0.110
-148.589	675.770	-0.047	0.120
-147.574	-72.803	0.176	0.064
-146.560	-200.000	-0.014	-0.269
-145.545	3.104	0.188	-0.134
-144.531	-92.547	-0.234	0.065
-143.516	-200.000	-0.014	-0.402
-142.502	-54.824	-0.222	0.099
-141.487	-200.000	-0.042	-0.218
-140.472	-75.808	-0.179	-0.062
-139.458	-85.616	-0.153	-0.047
-138.443	-66.285	-0.145	-0.057
-137.429	-78.423	-0.218	-0.074
-136.414	517.056	-0.067	0.153
-135.399	8.695	-0.280	0.208
-134.385	-97.483	-0.085	0.022
-133.370	-43.372	-0.248	-0.124
-132.356	800.000	-0.083	-0.271
-131.341	-27.814	0.210	-0.120
-130.326	-105.756	-0.132	-0.029
-129.312	-108.862	0.110	-0.023
-128.297	65.183	0.150	0.149
-127.283	43.379	0.045	0.040
-126.268	-41.946	0.299	0.151
-125.253	-200.000	-0.028	0.273
-124.239	-77.250	-0.234	-0.080
-123.224	453.613	-0.157	-0.341
-122.210	10.688	0.173	-0.130
