DTS Sentinel unit serial number:	SN413079Multiplexer serial number:	ORYXHardware model number:	OX4-SRSoftware version number:	ORYX F/W v4.00 Oryx Data Collector v3.7.2.0data status	okinstallation	princeton_trtdifferential loss correction	single-endedforward channel	channel 3reverse channel	N/Adate	2019/09/16time	15:24:35forward acquisition time	60.00reverse acquisition time	0.00gamma	496.2192k internal	0.2292k external	0.2292temperature offset calibration	0.9944default loss term (dB/km)	0.3790temperature slope calibration	1.0000multiplexer offset coefficient	1.0000multiplexer slope coefficient	1.0000fibre end	0.00T internal ref (°C)	41.06T ext. ref 1 (°C)	14.64T ext. ref 2 (°C)	37.56length (m)	temperature (°C)	Stokes	anti-Stokes-747.200	25.047	-0.243	0.207
-746.185	8.946	-0.140	0.108
-745.171	800.000	0.070	-0.280
-744.156	54.233	-0.204	-0.201
-743.142	80.498	-0.020	-0.022
-742.127	800.000	0.146	0.496
-741.112	800.000	-0.043	0.159
-740.098	199.456	-0.226	0.354
-739.083	137.054	0.162	0.217
-738.069	-200.000	-0.032	0.392
-737.054	11.931	-0.191	-0.150
-736.039	-89.626	0.616	-0.185
-735.025	32.731	0.134	0.118
-734.010	-200.000	-0.006	-0.366
-732.996	800.000	0.065	-0.257
-731.981	148.702	0.058	0.081
-730.966	-200.000	-0.011	-0.053
-729.952	-29.429	0.156	0.092
-728.937	149.032	-0.126	-0.175
-727.923	-130.071	0.103	0.014
-726.908	287.317	0.164	-0.303
-725.894	520.875	-0.163	-0.392
-724.879	35.567	-0.170	-0.152
-723.864	800.000	0.041	0.137
-722.850	-86.905	-0.093	-0.029
-721.835	-112.526	0.270	0.055
-720.821	510.068	-0.046	-0.110
-719.806	-12.805	0.102	-0.068
-718.791	-120.477	-0.191	-0.033
-717.777	-108.176	-0.184	-0.041
-716.762	-148.784	0.126	0.010
-715.748	-11.238	-0.114	0.077
-714.733	155.371	0.138	-0.194
-713.718	-99.973	-0.113	0.029
-712.704	800.000	-0.111	-0.337
-711.689	781.777	0.094	-0.263
-710.675	12.668	-0.228	-0.180
-709.660	215.433	-0.249	-0.404
-708.645	-200.000	0.010	0.383
-707.631	-200.000	-0.035	0.333
-706.616	-159.646	0.235	-0.013
-705.602	-59.260	0.435	-0.191
-704.587	141.855	0.327	-0.443
-703.572	800.000	-0.007	-0.027
-702.558	131.761	0.198	-0.260
-701.543	-86.537	0.212	0.067
-700.529	-200.000	-0.057	-0.254
-699.514	128.140	0.061	-0.079
-698.499	-97.495	0.242	0.064
-697.485	-133.857	0.378	0.048
-696.470	54.118	0.253	0.249
-695.456	-70.759	0.142	-0.055
-694.441	-111.513	-0.367	-0.076
-693.426	-46.410	-0.292	0.147
-692.412	-102.887	0.229	-0.056
-691.397	-148.292	0.159	0.013
-690.383	-48.079	-0.077	-0.038
-689.368	-83.634	-0.273	-0.089
-688.354	-148.023	-0.222	-0.019
-687.339	147.847	0.124	-0.170
-686.324	800.000	-0.059	0.249
-685.310	-200.000	0.040	-0.260
-684.295	800.000	0.080	0.230
-683.281	123.419	0.208	0.267
-682.266	-137.755	0.152	-0.017
-681.251	-47.600	0.302	-0.150
-680.237	-54.589	0.322	0.149
-679.222	-200.000	0.000	-0.204
-678.208	-200.000	0.004	0.120
-677.193	-28.169	-0.126	0.075
-676.178	-93.847	-0.329	0.092
-675.164	267.673	0.045	-0.080
-674.149	380.192	-0.106	-0.222
-673.135	16.525	0.203	0.164
-672.120	28.288	0.102	0.088
-671.105	82.057	-0.100	0.111
-670.091	-31.139	0.275	-0.158
-669.076	81.443	0.138	-0.153
-668.062	342.146	-0.179	-0.358
-667.047	472.862	-0.146	-0.336
-666.032	-113.249	0.153	-0.031
-665.018	800.000	-0.031	0.089
-664.003	176.128	-0.108	0.161
-662.989	-200.000	0.018	0.189
-661.974	-71.280	0.130	0.050
-660.959	-79.615	-0.326	0.112
-659.945	-153.519	-0.240	0.017
-658.930	800.000	-0.063	0.229
-657.916	-200.000	-0.002	-0.202
-656.901	-27.503	0.326	0.193
-655.886	-121.584	-0.288	0.049
-654.872	-200.000	-0.080	-0.500
-653.857	238.026	0.044	-0.074
-652.843	165.439	-0.088	-0.127
-651.828	-85.768	-0.219	0.069
-650.814	-200.000	-0.003	-0.049
-649.799	279.037	-0.209	0.381
-648.784	-171.314	0.096	0.003
-647.770	-91.826	0.201	-0.058
-646.755	-200.000	-0.050	0.402
-645.741	-121.208	-0.209	0.036
-644.726	-200.000	0.005	-0.219
-643.711	-33.518	0.117	-0.066
-642.697	420.808	-0.115	0.252
-641.682	-110.279	0.236	0.050
-640.668	68.765	-0.056	0.059
-639.653	-200.000	-0.030	0.221
-638.638	14.440	-0.246	-0.196
-637.624	-157.249	0.170	-0.010
-636.609	-12.254	-0.103	-0.069
-635.595	409.689	-0.135	0.292
-634.580	-200.000	-0.024	0.158
-633.565	-72.012	0.227	0.086
-632.551	-200.000	-0.012	-0.238
-631.536	246.116	-0.148	-0.254
-630.522	574.774	0.043	-0.107
-629.507	-116.507	-0.184	0.035
-628.492	-138.749	-0.137	-0.015
-627.478	26.043	-0.085	0.072
-626.463	-50.942	0.285	0.136
-625.449	34.538	0.090	-0.080
-624.434	334.757	0.200	-0.395
-623.419	-38.668	-0.219	0.118
-622.405	47.357	0.158	0.150
-621.390	-73.204	0.159	0.059
-620.376	-200.000	-0.035	0.336
-619.361	61.005	0.129	0.131
-618.346	-29.423	-0.291	-0.170
-617.332	693.614	0.102	-0.273
-616.317	-69.315	-0.111	-0.043
-615.303	-159.453	0.163	0.009
-614.288	-79.585	-0.298	-0.102
-613.273	255.528	0.028	0.049
-612.259	5.934	-0.303	0.228
-611.244	75.125	0.098	0.105
-610.230	-82.399	-0.194	-0.064
-609.215	-131.679	0.230	-0.031
-608.201	-200.000	-0.008	0.186
-607.186	-152.598	0.369	-0.027
-606.171	228.171	0.037	-0.061
-605.157	-39.877	-0.114	0.060
-604.142	800.000	0.065	-0.191
-603.128	556.685	0.118	-0.290
-602.113	29.506	0.163	0.141
-601.098	-200.000	-0.004	-0.204
-600.084	-144.427	0.173	-0.016
-599.069	249.141	0.126	0.217
-598.055	93.718	-0.038	0.044
-597.040	-59.721	-0.126	0.055
-596.025	-200.000	-0.003	0.260
-595.011	-67.277	0.100	-0.040
-593.996	87.315	0.087	-0.098
-592.982	-200.000	0.027	-0.172
-591.967	1.050	0.375	0.274
-590.952	-33.193	0.202	-0.114
-589.938	3.736	0.088	0.065
-588.923	800.000	0.062	-0.267
-587.909	800.000	0.067	-0.235
-586.894	158.229	-0.071	0.100
-585.879	-200.000	-0.001	-0.185
-584.865	-92.694	-0.244	0.069
-583.850	-60.257	0.327	-0.142
-582.836	-200.000	-0.019	-0.093
-581.821	-8.514	-0.246	-0.168
-580.806	459.564	-0.030	-0.068
-579.792	-3.810	-0.102	-0.072
-578.777	232.537	-0.125	0.208
-577.763	0.278	0.141	0.102
-576.748	3.297	-0.240	0.177
-575.733	800.000	0.034	0.121
-574.719	-121.804	-0.504	-0.085
-573.704	-26.358	-0.242	-0.145
-572.690	89.060	-0.202	-0.228
-571.675	107.768	-0.095	0.115
-570.661	-53.455	0.196	-0.091
-569.646	5.910	-0.183	-0.138
-568.631	-146.649	-0.249	-0.022
-567.617	-200.000	0.052	-0.378
-566.602	779.952	0.038	-0.106
-565.588	-200.000	0.006	-0.233
-564.573	64.687	0.103	0.106
-563.558	-117.686	-0.212	-0.039
-562.544	620.724	-0.043	-0.110
-561.529	-120.246	0.032	0.005
-560.515	-61.903	0.118	0.050
-559.500	-101.397	-0.089	-0.022
-558.485	-200.000	-0.012	0.197
-557.471	-36.085	-0.123	-0.068
-556.456	-200.000	0.031	0.270
-555.442	-70.299	-0.070	-0.027
-554.427	-137.891	0.152	0.017
-553.412	800.000	0.071	-0.281
-552.398	61.275	-0.072	-0.072
-551.383	292.899	-0.135	0.249
-550.369	-200.000	0.008	-0.192
-549.354	51.013	-0.138	-0.133
-548.339	-68.852	-0.398	0.156
-547.325	-121.905	0.242	-0.040
-546.310	-200.000	-0.062	-0.324
-545.296	800.000	-0.059	0.178
-544.281	-200.000	-0.006	0.209
-543.266	224.002	0.199	-0.327
-542.252	-83.498	-0.096	-0.031
-541.237	800.000	-0.025	-0.072
-540.223	-200.000	-0.062	0.449
-539.208	-200.000	-0.004	-0.204
-538.193	800.000	0.050	-0.153
-537.179	-87.661	-0.406	-0.124
-536.164	652.483	-0.013	-0.035
-535.150	209.425	-0.150	0.239
-534.135	158.996	-0.077	-0.109
-533.121	512.079	0.028	-0.065
-532.106	13.650	-0.331	-0.261
-531.091	-200.000	-0.024	0.205
-530.077	-200.000	0.020	-0.144
-529.062	800.000	-0.063	0.186
-528.048	-118.809	0.403	-0.072
-527.033	90.919	-0.031	-0.035
-526.018	800.000	-0.083	-0.332
-525.004	1.501	0.109	-0.080
-523.989	-122.724	-0.226	0.037
-522.975	-92.832	0.342	0.097
-521.960	-200.000	0.019	0.159
-520.945	-99.810	0.107	-0.027
-519.931	-161.197	0.383	0.020
-518.916	-200.000	0.054	-0.258
-517.902	800.000	-0.049	-0.165
-516.887	126.883	0.192	-0.247
-515.872	114.238	0.046	0.057
-514.858	292.237	0.068	-0.126
-513.843	157.127	-0.263	0.369
-512.829	-200.000	0.026	-0.179
-511.814	419.052	0.060	-0.131
-510.799	-200.000	-0.008	0.202
-509.785	-200.000	0.052	0.367
-508.770	-71.284	0.067	-0.025
-507.756	-33.257	0.148	-0.083
-506.741	-33.570	0.181	0.101
-505.726	299.301	-0.114	-0.212
-504.712	-200.000	-0.012	-0.086
-503.697	-0.979	-0.195	0.140
-502.683	800.000	-0.048	-0.176
-501.668	800.000	0.020	-0.075
-500.653	-58.771	-0.196	-0.086
-499.639	177.180	-0.065	0.095
-498.624	-3.350	0.102	-0.072
-497.610	800.000	0.097	-0.342
-496.595	-182.260	0.219	-0.004
-495.581	-108.427	-0.149	-0.033
-494.566	314.658	0.054	0.103
-493.551	-143.262	-0.195	-0.019
-492.537	-200.000	0.001	0.144
-491.522	-74.750	0.142	-0.052
-490.508	133.917	0.351	0.461
-489.493	-130.982	0.200	-0.027
-488.478	438.858	-0.086	0.191
-487.464	-200.000	0.004	0.218
-486.449	-137.884	-0.199	-0.023
-485.435	640.894	-0.112	-0.289
-484.420	-125.075	-0.215	0.033
-483.405	-200.000	-0.002	0.337
-482.391	-200.000	-0.045	-0.261
-481.376	-200.000	-0.003	-0.212
-480.362	800.000	0.121	-0.452
-479.347	-60.036	0.222	0.096
-478.332	165.265	-0.161	-0.230
-477.318	637.326	-0.138	-0.355
-476.303	-159.916	-0.425	0.024
-475.289	-200.000	0.010	-0.108
-474.274	-55.284	-0.197	-0.090
-473.259	-161.550	-0.178	0.009
-472.245	-200.000	0.013	-0.235
-471.230	35.528	0.179	0.159
-470.216	28.632	0.101	0.087
-469.201	103.321	-0.004	-0.004
-468.186	-25.871	0.167	0.100
-467.172	-81.044	0.357	0.120
-466.157	-114.354	-0.355	-0.069
-465.143	88.763	0.089	-0.101
-464.128	-35.288	-0.058	-0.032
-463.113	-200.000	-0.040	-0.643
-462.099	-132.584	0.236	-0.031
-461.084	800.000	-0.009	-0.036
-460.070	-200.000	-0.014	0.179
-459.055	-55.105	-0.066	0.030
-458.040	-61.256	-0.222	-0.095
-457.026	-200.000	0.022	0.172
-456.011	770.723	-0.103	-0.283
-454.997	-200.000	-0.009	0.306
-453.982	800.000	0.057	-0.210
-452.968	104.779	0.054	-0.064
-451.953	-200.000	-0.015	0.107
-450.938	528.533	-0.106	0.254
-449.924	350.673	-0.142	0.284
-448.909	-57.908	0.073	-0.032
-447.895	-138.888	-0.059	-0.007
-446.880	611.017	-0.114	0.289
-445.865	-200.000	-0.039	0.526
-444.851	-59.483	0.136	0.059
-443.836	299.438	0.048	0.089
-442.822	27.623	-0.188	0.160
-441.807	-34.971	-0.364	-0.201
-440.792	173.135	-0.188	-0.274
-439.778	-91.786	-0.199	-0.057
-438.763	-41.366	-0.168	0.087
-437.749	-43.541	-0.260	0.133
-436.734	587.115	0.090	-0.224
-435.719	-68.300	-0.312	0.123
-434.705	-200.000	-0.069	-0.315
-433.690	-77.854	-0.321	-0.112
-432.676	-30.287	-0.182	0.105
-431.661	146.663	-0.098	-0.133
-430.646	218.330	-0.066	-0.106
-429.632	-200.000	-0.005	-0.282
-428.617	-79.785	-0.203	0.069
-427.603	127.034	-0.069	-0.089
-426.588	-200.000	0.019	-0.210
-425.573	-200.000	-0.013	-0.073
-424.559	0.395	-0.122	0.088
-423.544	44.535	-0.343	0.318
-422.530	-103.439	0.177	0.042
-421.515	9.499	0.142	-0.109
-420.500	-111.200	-0.232	0.048
-419.486	647.291	0.110	-0.283
-418.471	-67.290	0.070	-0.028
-417.457	158.046	-0.292	-0.409
-416.442	56.524	0.052	-0.051
-415.428	-8.352	0.064	-0.044
-414.413	229.055	-0.161	0.266
-413.398	-101.684	-0.055	0.014
-412.384	-16.688	-0.091	-0.058
-411.369	-22.091	-0.235	-0.144
-410.355	277.333	-0.073	-0.131
-409.340	-108.304	0.313	0.068
-408.325	3.766	0.219	-0.161
-407.311	163.507	-0.152	-0.216
-406.296	-68.243	-0.282	-0.111
-405.282	315.855	-0.066	0.126
-404.267	-43.341	-0.120	0.061
-403.252	800.000	-0.043	0.132
-402.238	-65.418	0.237	0.096
-401.223	175.588	-0.057	0.084
-400.209	-2.729	0.329	-0.233
-399.194	68.801	0.281	0.291
-398.179	-95.683	0.129	-0.035
-397.165	-200.000	0.064	0.300
-396.150	71.874	0.169	-0.177
-395.136	646.910	0.127	-0.327
-394.121	-87.174	0.385	-0.118
-393.106	-200.000	-0.015	-0.082
-392.092	-113.783	-0.228	-0.045
-391.077	-132.420	0.187	0.024
-390.063	21.548	-0.042	-0.034
-389.048	98.937	-0.163	-0.190
-388.033	-200.000	-0.021	-0.305
-387.019	-200.000	0.006	-0.100
-386.004	-145.622	-0.254	-0.023
-384.990	-167.979	0.345	-0.014
-383.975	-200.000	-0.026	-0.225
-382.960	155.861	-0.084	0.117
-381.946	534.170	0.144	0.345
-380.931	206.719	-0.099	0.156
-379.917	-162.385	-0.540	0.027
-378.902	-93.527	0.411	-0.115
-377.888	622.841	0.119	-0.302
-376.873	-30.510	0.100	0.057
-375.858	-200.000	-0.021	0.265
-374.844	-121.379	0.250	-0.042
-373.829	133.794	0.036	-0.047
-372.815	-25.811	-0.303	-0.180
-371.800	-55.345	-0.232	0.105
-370.785	178.259	-0.108	0.159
-369.771	-144.890	0.443	-0.041
-368.756	179.300	0.097	-0.143
-367.742	-14.304	0.303	-0.197
-366.727	-146.340	-0.390	-0.034
-365.712	2.924	0.190	-0.139
-364.698	-128.772	0.392	-0.056
-363.683	23.132	0.162	-0.134
-362.669	800.000	-0.057	0.208
-361.654	-119.397	-0.449	0.079
-360.639	800.000	-0.014	0.046
-359.625	-136.816	-0.122	0.014
-358.610	611.114	0.104	0.262
-357.596	168.339	-0.118	0.169
-356.581	800.000	0.083	-0.249
-355.566	-200.000	0.001	0.223
-354.552	-106.929	0.322	0.072
-353.537	36.402	0.132	0.117
-352.523	-200.000	-0.016	0.357
-351.508	727.177	0.119	0.321
-350.493	-148.016	0.188	0.016
-349.479	-200.000	-0.009	-0.071
-348.464	-43.726	0.196	0.100
-347.450	62.064	0.228	0.230
-346.435	-148.541	-0.306	0.025
-345.420	-126.059	0.359	0.054
-344.406	-25.472	0.122	-0.072
-343.391	-200.000	0.004	-0.191
-342.377	329.360	-0.057	0.110
-341.362	-60.511	0.297	0.127
-340.348	-126.008	0.178	-0.027
-339.333	-120.323	-0.219	0.038
-338.318	73.344	-0.054	0.057
-337.304	-181.958	0.393	-0.008
-336.289	-200.000	0.049	0.339
-335.275	109.293	-0.087	0.105
-334.260	147.148	0.085	-0.116
-333.245	-2.505	0.151	-0.107
-332.231	-18.633	0.249	-0.156
-331.216	178.994	0.067	-0.099
-330.202	46.984	-0.246	0.231
-329.187	109.803	-0.082	0.099
-328.172	-200.000	0.034	0.229
-327.158	-54.542	-0.245	0.112
-326.143	-112.447	0.191	0.038
-325.129	-111.570	0.469	0.096
-324.114	-48.643	0.162	0.079
-323.099	-133.451	0.106	0.013
-322.085	176.766	0.160	-0.235
-321.070	800.000	-0.087	-0.259
-320.056	-105.500	0.195	0.045
-319.041	48.217	0.159	0.150
-318.026	-82.286	0.203	0.066
-317.012	191.102	0.179	-0.272
-315.997	-91.696	0.120	0.034
-314.983	102.074	-0.163	0.192
-313.968	-74.173	0.177	-0.064
-312.953	-161.314	0.132	0.007
-311.939	125.682	-0.376	0.477
-310.924	773.771	-0.066	0.181
-309.910	-200.000	-0.002	-0.022
-308.895	-200.000	0.025	-0.445
-307.880	-137.093	-0.200	-0.023
-306.866	-200.000	0.025	-0.225
-305.851	-124.054	-0.166	-0.026
-304.837	123.527	0.041	0.052
-303.822	-95.314	0.105	0.028
-302.807	113.503	0.108	-0.132
-301.793	542.566	-0.103	0.247
-300.778	542.966	-0.116	-0.279
-299.764	-200.000	-0.002	-0.011
-298.749	212.910	-0.149	0.236
-297.735	800.000	-0.160	0.475
-296.720	800.000	0.104	0.347
-295.705	218.459	-0.150	0.241
-294.691	-200.000	-0.019	-0.233
-293.676	-53.212	0.242	-0.112
-292.662	-110.295	-0.214	0.045
-291.647	58.567	0.294	-0.291
-290.632	-158.946	0.439	0.025
-289.618	738.711	0.093	-0.251
-288.603	376.056	-0.112	0.230
-287.589	40.429	0.115	-0.104
-286.574	-200.000	-0.006	-0.226
-285.559	-200.000	0.026	-0.463
-284.545	120.962	-0.333	0.417
-283.530	-141.712	0.057	0.006
-282.516	-156.489	0.214	0.013
-281.501	-200.000	0.020	0.350
-280.486	800.000	-0.089	0.255
-279.472	23.860	0.072	0.060
-278.457	603.725	0.062	0.154
-277.443	101.959	-0.172	0.202
-276.428	35.987	0.137	0.121
-275.413	-200.000	0.005	-0.199
-274.399	-99.462	-0.239	0.061
-273.384	110.105	-0.068	0.082
-272.370	800.000	0.106	0.345
-271.355	45.209	0.096	0.089
-270.340	-92.929	0.374	-0.105
-269.326	-97.147	0.261	-0.069
-268.311	-200.000	0.001	-0.121
-267.297	139.169	0.123	-0.162
-266.282	408.348	0.073	0.155
-265.267	800.000	0.062	0.173
-264.253	-9.506	-0.111	-0.075
-263.238	-25.083	-0.146	-0.087
-262.224	64.974	-0.094	0.095
-261.209	800.000	-0.084	0.286
-260.195	210.366	-0.197	0.310
-259.180	26.181	0.290	-0.243
-258.165	-200.000	0.007	0.272
-257.151	800.000	-0.059	0.222
-256.136	-103.549	0.018	0.004
-255.122	-86.872	0.177	-0.054
-254.107	142.442	0.183	-0.243
-253.092	-200.000	-0.020	0.208
-252.078	-120.818	0.193	-0.033
-251.063	800.000	0.026	0.080
-250.049	-200.000	-0.020	-0.122
-249.034	213.682	-0.149	-0.237
-248.019	-59.406	-0.404	0.174
-247.005	32.721	-0.069	-0.060
-245.990	-50.916	-0.062	-0.029
-244.976	-53.877	-0.289	-0.132
-243.961	800.000	0.055	0.226
-242.946	160.843	0.170	0.238
-241.932	-104.443	-0.333	0.077
-240.917	-78.924	0.210	-0.072
-239.903	27.305	-0.067	0.057
-238.888	-134.743	0.156	-0.019
-237.873	47.524	0.086	0.081
-236.859	-66.894	0.126	0.050
-235.844	800.000	-0.049	-0.151
-234.830	198.379	0.110	0.169
-233.815	-200.000	0.001	-0.026
-232.800	-42.987	0.168	-0.086
-231.786	-200.000	-0.040	-0.296
-230.771	-107.741	-0.207	-0.045
-229.757	737.453	-0.050	-0.135
-228.742	-50.863	-0.225	-0.106
-227.727	-154.983	0.107	-0.007
-226.713	-200.000	0.036	0.263
-225.698	243.271	0.050	0.085
-224.684	-118.276	0.180	0.032
-223.669	29.542	-0.167	-0.142
-222.655	-35.197	-0.184	-0.101
-221.640	45.499	0.156	-0.145
-220.625	-200.000	0.022	0.152
-219.611	103.096	0.056	0.066
-218.596	-22.729	-0.044	-0.027
-217.582	-94.648	-0.305	-0.083
-216.567	-152.626	-0.155	-0.011
-215.552	-135.676	-0.134	-0.016
-214.538	-200.000	0.030	-0.178
-213.523	-200.000	-0.000	-0.141
-212.509	-149.687	-0.291	0.023
-211.494	-50.194	-0.121	-0.057
-210.479	5.770	0.208	-0.155
-209.465	170.853	0.027	0.038
-208.450	-71.958	-0.052	0.019
-207.436	689.824	0.046	0.121
-206.421	-62.261	0.198	-0.082
-205.406	46.857	-0.387	0.360
-204.392	-177.262	0.316	-0.008
-203.377	-200.000	-0.007	-0.035
-202.363	-42.289	-0.067	0.034
-201.348	644.487	-0.062	0.159
-200.333	-200.000	-0.026	0.146
-199.319	-41.495	-0.203	0.105
-198.304	217.648	-0.192	-0.306
-197.290	-160.337	0.112	-0.006
-196.275	-84.785	-0.063	0.020
-195.260	661.916	-0.019	-0.050
-194.246	-154.520	-0.175	0.012
-193.231	-200.000	-0.019	-0.103
-192.217	-20.821	0.202	-0.124
-191.202	363.214	0.093	0.187
-190.187	585.610	0.053	-0.129
-189.173	13.928	0.143	0.112
-188.158	-69.986	-0.040	-0.015
-187.144	800.000	-0.038	0.157
-186.129	-184.370	-0.108	-0.002
-185.114	800.000	0.043	-0.164
-184.100	711.820	0.082	0.218
-183.085	800.000	-0.037	-0.110
-182.071	-200.000	0.006	0.427
-181.056	-90.108	-0.085	-0.025
-180.042	0.792	0.160	0.114
-179.027	-147.455	0.088	0.007
-178.012	-129.577	-0.238	0.033
-176.998	-200.000	0.015	-0.120
-175.983	-200.000	0.057	-0.297
-174.969	9.286	-0.142	-0.107
-173.954	-60.456	-0.328	-0.139
-172.939	422.997	0.136	-0.291
-171.925	-73.279	0.234	0.086
-170.910	49.085	-0.118	-0.111
-169.896	21.621	-0.203	0.166
-168.881	13.966	0.248	0.193
-167.866	123.688	0.180	0.226
-166.852	-200.000	0.047	0.235
-165.837	-127.520	0.051	0.007
-164.823	155.361	0.071	-0.098
-163.808	-200.000	-0.005	0.072
-162.793	-8.175	-0.251	0.169
-161.779	-130.441	-0.549	0.074
-160.764	-50.497	0.101	0.048
-159.750	43.632	0.076	0.070
-158.735	-40.965	-0.213	-0.110
-157.720	456.886	0.080	-0.179
-156.706	137.021	0.120	0.157
-155.691	-73.147	0.309	-0.113
-154.677	-117.374	0.088	0.016
-153.662	-200.000	0.060	0.280
-152.647	800.000	0.147	-0.409
-151.633	-27.975	0.345	0.200
-150.618	-200.000	0.032	-0.467
-149.604	-157.166	0.425	-0.026
-148.589	21.178	0.214	-0.173
-147.574	745.068	-0.145	-0.391
-146.560	76.095	-0.310	-0.329
-145.545	-15.175	-0.156	0.100
-144.531	26.422	0.109	-0.091
-143.516	-200.000	0.006	-0.160
-142.502	-75.258	-0.177	-0.063
-141.487	350.760	-0.164	-0.323
-140.472	314.674	-0.067	0.127
-139.458	-200.000	-0.006	-0.105
-138.443	289.854	-0.029	-0.053
-137.429	255.247	-0.100	0.172
-136.414	129.904	-0.177	-0.226
-135.399	581.364	0.041	0.100
-134.385	-200.000	0.027	-0.389
-133.370	253.444	0.107	-0.183
-132.356	-92.516	0.219	-0.061
-131.341	-200.000	-0.001	0.182
-130.326	299.683	0.065	-0.120
-129.312	-200.000	-0.005	0.095
-128.297	269.051	-0.165	0.290
-127.283	165.182	0.205	0.289
-126.268	-8.215	0.051	0.034
-125.253	-93.754	0.402	-0.111
-124.239	-35.563	0.188	-0.102
-123.224	-56.672	-0.265	-0.117
