DTS Sentinel unit serial number:	SN413079Multiplexer serial number:	ORYXHardware model number:	OX4-SRSoftware version number:	ORYX F/W v4.00 Oryx Data Collector v3.7.2.0data status	okinstallation	princeton_trtdifferential loss correction	single-endedforward channel	channel 3reverse channel	N/Adate	2019/09/12time	19:53:04forward acquisition time	15.00reverse acquisition time	0.00gamma	496.2192k internal	0.2323k external	0.2323temperature offset calibration	1.0112default loss term (dB/km)	0.3790temperature slope calibration	1.0000multiplexer offset coefficient	1.0000multiplexer slope coefficient	1.0000fibre end	0.00T internal ref (°C)	31.87T ext. ref 1 (°C)	3.49T ext. ref 2 (°C)	26.52length (m)	temperature (°C)	Stokes	anti-Stokes-747.200	-2.495	-0.542	0.384
-746.185	8.946	0.333	-0.254
-745.171	-42.642	0.198	-0.102
-744.156	9.703	0.266	0.204
-743.142	-200.000	-0.007	0.567
-742.127	-200.000	0.138	0.727
-741.112	-95.227	-0.957	-0.260
-740.098	171.241	-0.359	0.520
-739.083	-47.354	-0.664	0.326
-738.069	800.000	0.128	0.377
-737.054	327.887	0.267	0.517
-736.039	-92.657	0.430	-0.122
-735.025	434.319	-0.403	0.885
-734.010	-56.174	-0.692	-0.311
-732.996	-60.773	0.368	-0.157
-731.981	262.287	-0.438	-0.768
-730.966	16.741	-0.786	-0.628
-729.952	-105.387	-0.574	-0.132
-728.937	185.849	-0.582	-0.873
-727.923	800.000	-0.150	-0.507
-726.908	436.649	0.339	-0.746
-725.894	-200.000	0.054	-0.716
-724.879	326.870	-0.035	-0.068
-723.864	-200.000	-0.087	-0.427
-722.850	57.392	-0.637	0.628
-721.835	-81.604	-0.666	-0.221
-720.821	800.000	-0.264	-0.917
-719.806	800.000	-0.361	-1.011
-718.791	-42.905	-0.338	0.173
-717.777	-94.174	0.261	-0.072
-716.762	-200.000	-0.059	-0.808
-715.748	-5.418	0.272	0.188
-714.733	-30.120	-0.688	0.395
-713.718	499.430	0.244	-0.567
-712.704	-200.000	-0.021	-0.334
-711.689	59.441	0.209	-0.208
-710.675	126.146	-0.176	0.224
-709.660	-200.000	0.077	0.772
-708.645	-107.606	-1.015	0.224
-707.631	505.201	0.158	0.370
-706.616	37.931	0.530	-0.475
-705.602	123.734	-0.730	-0.923
-704.587	-200.000	0.080	-0.890
-703.572	-200.000	0.037	-0.902
-702.558	401.360	-0.339	0.717
-701.543	-200.000	0.076	0.624
-700.529	-160.258	0.921	0.050
-699.514	58.443	-0.208	0.205
-698.499	-43.856	0.136	-0.069
-697.485	-106.139	-0.765	0.173
-696.470	-4.798	-0.014	-0.010
-695.456	-200.000	-0.115	-0.717
-694.441	36.845	-0.290	-0.258
-693.426	96.037	-0.216	-0.249
-692.412	563.307	-0.215	-0.525
-691.397	-58.326	0.242	0.106
-690.383	38.632	0.341	0.307
-689.368	-83.177	0.485	0.157
-688.354	556.392	-0.199	-0.483
-687.339	11.538	-0.170	0.132
-686.324	-200.000	0.081	-0.863
-685.310	-77.483	0.533	0.186
-684.295	34.164	0.580	-0.509
-683.281	-97.829	0.070	-0.018
-682.266	-87.860	-1.014	0.308
-681.251	-34.840	-0.641	0.353
-680.237	36.794	0.328	-0.292
-679.222	-78.269	0.307	0.106
-678.208	76.093	0.555	0.591
-677.193	-23.959	-0.709	0.427
-676.178	-200.000	-0.149	0.928
-675.164	-34.663	-0.227	0.125
-674.149	800.000	-0.183	-0.678
-673.135	39.991	-0.133	0.120
-672.120	155.439	0.461	-0.640
-671.105	553.261	0.345	0.835
-670.091	-111.732	0.187	-0.038
-669.076	-15.668	0.705	0.453
-668.062	28.453	-0.503	0.428
-667.047	42.156	0.397	0.363
-666.032	800.000	-0.145	-0.473
-665.018	-119.173	1.165	-0.205
-664.003	-91.884	0.548	0.156
-662.989	534.799	-0.220	-0.525
-661.974	-112.147	0.630	0.128
-660.959	15.194	-0.423	0.334
-659.945	-23.749	-0.473	0.285
-658.930	55.648	-0.732	-0.714
-657.916	57.801	-0.103	0.101
-656.901	-6.762	-0.579	0.396
-655.886	148.291	0.273	-0.371
-654.872	-69.750	0.778	-0.299
-653.857	-44.816	0.376	0.189
-652.843	23.061	-0.941	0.777
-651.828	29.326	0.705	0.602
-650.814	800.000	-0.141	-0.567
-649.799	-51.490	0.242	0.114
-648.784	-11.131	-0.146	-0.097
-647.770	-57.451	-0.141	0.062
-646.755	-43.912	-0.241	-0.122
-645.741	1.467	-0.634	0.459
-644.726	-19.637	-0.561	-0.349
-643.711	-200.000	-0.233	1.221
-642.697	53.034	0.279	0.269
-641.682	-183.761	0.414	0.007
-640.668	-66.683	-0.557	-0.222
-639.653	34.648	-0.623	-0.547
-638.638	-200.000	0.044	-0.397
-637.624	203.267	0.378	-0.588
-636.609	800.000	0.293	-0.890
-635.595	-61.159	1.080	-0.458
-634.580	117.102	0.675	0.834
-633.565	-81.203	0.388	-0.129
-632.551	497.718	0.263	-0.608
-631.536	800.000	0.263	0.872
-630.522	-164.159	0.332	-0.015
-629.507	-90.404	0.220	-0.064
-628.492	6.504	0.358	0.267
-627.478	-108.714	-0.330	-0.071
-626.463	47.415	0.817	0.765
-625.449	-95.686	-0.498	0.134
-624.434	-147.387	0.464	0.040
-623.419	103.262	0.270	0.319
-622.405	296.507	0.453	0.834
-621.390	-171.755	-0.782	0.026
-620.376	276.246	-0.210	0.375
-619.361	800.000	-0.145	0.469
-618.346	135.538	-0.949	1.241
-617.332	632.397	0.046	-0.118
-616.317	240.679	-0.605	-1.015
-615.303	-112.209	-0.761	-0.153
-614.288	-200.000	-0.047	0.375
-613.273	-23.005	-0.165	0.100
-612.259	-111.789	0.138	-0.028
-611.244	800.000	-0.088	-0.298
-610.230	-181.883	-0.991	-0.019
-609.215	198.336	-0.428	0.658
-608.201	-200.000	0.007	-0.322
-607.186	800.000	-0.145	0.455
-606.171	-200.000	0.003	0.677
-605.157	-30.317	-0.754	-0.430
-604.142	-67.772	-0.901	0.354
-603.128	393.081	-0.082	-0.171
-602.113	-200.000	0.034	0.192
-601.098	-200.000	0.061	-0.335
-600.084	-120.119	-0.513	-0.088
-599.069	-8.295	0.196	-0.133
-598.055	-200.000	-0.028	0.359
-597.040	154.940	0.457	-0.631
-596.025	-154.896	-1.117	-0.074
-595.011	-175.655	-0.468	0.013
-593.996	-8.902	0.291	0.196
-592.982	15.911	-0.093	-0.073
-591.967	19.615	0.437	0.353
-590.952	800.000	-0.199	-0.763
-589.938	471.780	-0.267	-0.603
-588.923	234.283	0.218	0.361
-587.909	-135.937	0.942	-0.111
-586.894	-200.000	0.036	0.829
-585.879	-47.974	0.397	-0.193
-584.865	-105.891	0.410	-0.093
-583.850	-34.006	-0.618	-0.341
-582.836	800.000	0.029	-0.093
-581.821	18.018	-0.667	0.533
-580.806	800.000	-0.304	0.867
-579.792	227.590	-0.560	0.915
-578.777	68.388	-0.224	-0.230
-577.763	-200.000	-0.002	0.029
-576.748	-200.000	-0.105	0.904
-575.733	-48.831	-0.216	0.104
-574.719	-162.737	0.683	0.034
-573.704	-200.000	0.044	0.308
-572.690	245.661	-0.206	0.348
-571.675	-200.000	-0.053	0.423
-570.661	-131.250	-0.708	-0.094
-569.646	384.190	0.273	-0.564
-568.631	-66.667	-0.669	0.266
-567.617	-79.767	-0.515	0.174
-566.602	-67.381	0.709	-0.279
-565.588	622.404	0.186	-0.470
-564.573	-200.000	0.105	0.494
-563.558	4.992	0.270	0.199
-562.544	-144.563	-0.388	-0.036
-561.529	-23.570	0.303	-0.182
-560.515	155.629	0.216	-0.299
-559.500	-200.000	-0.084	0.401
-558.485	-103.523	-1.092	0.257
-557.471	166.061	0.176	0.250
-556.456	-152.750	-0.416	0.030
-555.442	800.000	0.225	-0.988
-554.427	32.192	-0.063	-0.055
-553.412	800.000	0.089	0.283
-552.398	-86.238	-0.465	-0.144
-551.383	128.285	0.201	-0.256
-550.369	447.888	-0.261	0.577
-549.354	-200.000	-0.076	-0.447
-548.339	-82.481	0.212	0.069
-547.325	-177.306	-0.422	-0.010
-546.310	-29.999	0.302	0.172
-545.296	263.055	0.371	0.645
-544.281	-8.722	-0.498	-0.335
-543.266	558.716	0.113	-0.273
-542.252	29.076	-0.761	0.647
-541.237	21.710	-0.452	-0.369
-540.223	126.355	-0.037	0.047
-539.208	693.927	0.031	0.083
-538.193	16.188	-0.710	0.561
-537.179	-143.127	0.178	-0.017
-536.164	98.931	0.734	0.849
-535.150	-139.153	0.611	0.066
-534.135	348.603	-0.431	-0.852
-533.121	-135.149	0.058	0.007
-532.106	-200.000	0.000	0.198
-531.091	-99.366	-0.188	-0.047
-530.077	102.104	0.264	0.309
-529.062	-144.743	-0.261	-0.024
-528.048	16.635	0.647	0.512
-527.033	-88.662	0.646	-0.192
-526.018	-109.426	0.207	-0.044
-525.004	-200.000	-0.084	-0.547
-523.989	-43.548	-0.724	0.366
-522.975	-124.725	-0.703	0.109
-521.960	-200.000	0.168	-0.795
-520.945	738.834	-0.253	0.679
-519.931	202.176	0.507	0.783
-518.916	-42.516	-0.693	0.354
-517.902	-55.648	0.565	-0.253
-516.887	197.810	0.719	-1.100
-515.872	-38.505	-0.740	-0.392
-514.858	-94.761	-0.375	-0.102
-513.843	180.705	-0.161	0.237
-512.829	559.140	0.202	0.489
-511.814	-116.242	0.310	0.057
-510.799	51.142	-0.614	0.583
-509.785	121.202	0.421	-0.525
-508.770	143.730	0.159	-0.213
-507.756	761.335	-0.043	0.115
-506.741	-125.858	-0.824	-0.124
-505.726	800.000	0.293	-1.051
-504.712	-52.255	-0.495	0.230
-503.697	242.330	0.098	0.164
-502.683	-2.769	0.593	0.415
-501.668	-139.604	0.231	0.025
-500.653	126.493	-0.382	0.484
-499.639	-64.432	-0.651	0.265
-498.624	-145.681	0.181	-0.016
-497.610	800.000	0.157	0.551
-496.595	-52.361	-0.495	-0.229
-495.581	-126.473	0.795	0.118
-494.566	-95.226	0.306	-0.082
-493.551	-119.823	0.714	-0.123
-492.537	-200.000	0.025	0.409
-491.522	358.590	-0.268	-0.536
-490.508	202.386	0.173	-0.267
-489.493	32.220	-0.183	-0.158
-488.478	-33.489	0.437	0.242
-487.464	-200.000	0.042	0.259
-486.449	-110.594	0.236	0.049
-485.435	-200.000	-0.098	-0.716
-484.420	-25.877	0.363	-0.213
-483.405	12.679	-0.387	-0.298
-482.391	-7.011	-0.411	-0.279
-481.376	-21.270	0.596	-0.364
-480.362	-113.420	-0.098	0.019
-479.347	-40.518	0.130	-0.068
-478.332	-99.956	0.298	-0.074
-477.318	144.087	-0.110	0.147
-476.303	-200.000	-0.102	-0.551
-475.289	-86.233	0.486	-0.150
-474.274	306.904	0.245	0.456
-473.259	-27.820	0.969	-0.562
-472.245	800.000	0.075	-0.235
-471.230	786.113	-0.166	-0.454
-470.216	64.591	0.454	-0.457
-469.201	-18.202	0.242	0.151
-468.186	-200.000	0.040	-0.256
-467.172	-91.817	0.516	0.146
-466.157	392.996	0.293	-0.609
-465.143	350.583	0.231	0.457
-464.128	-145.504	-0.303	0.027
-463.113	-19.591	-0.388	-0.240
-462.099	-36.266	-0.246	-0.132
-461.084	-85.075	-1.009	0.316
-460.070	162.526	0.132	-0.185
-459.055	366.940	0.102	-0.206
-458.040	-200.000	0.046	0.327
-457.026	119.747	-0.207	-0.256
-456.011	-82.950	-0.881	-0.284
-454.997	-169.867	1.401	-0.050
-453.982	-200.000	-0.032	0.368
-452.968	-200.000	-0.129	0.609
-451.953	-4.779	0.561	-0.387
-450.938	51.732	-0.145	0.138
-449.924	-88.616	0.103	0.031
-448.909	-120.018	-0.264	-0.045
-447.895	-142.613	0.491	0.048
-446.880	-91.931	0.293	-0.083
-445.865	-132.911	-1.510	-0.192
-444.851	55.965	0.291	-0.282
-443.836	-200.000	-0.011	-0.222
-442.822	-200.000	-0.057	-0.402
-441.807	800.000	0.369	-1.052
-440.792	800.000	0.087	-0.347
-439.778	-82.540	-0.341	0.110
-438.763	287.511	0.117	0.211
-437.749	255.695	-0.213	0.365
-436.734	-136.808	0.474	0.054
-435.719	-70.081	0.530	0.201
-434.705	800.000	0.082	0.260
-433.690	800.000	0.173	-0.661
-432.676	800.000	0.085	-0.320
-431.661	467.767	0.381	0.852
-430.646	13.486	-0.258	-0.200
-429.632	-167.821	-0.126	-0.005
-428.617	-29.185	-0.792	-0.453
-427.603	72.891	0.263	-0.274
-426.588	800.000	0.100	0.282
-425.573	298.712	0.096	-0.176
-424.559	-77.524	0.704	-0.243
-423.544	62.821	-0.311	0.310
-422.530	-200.000	0.100	-1.077
-421.515	-200.000	0.050	0.264
-420.500	-140.808	-1.115	0.115
-419.486	-200.000	0.088	-0.815
-418.471	-122.867	0.436	0.070
-417.457	-44.315	-0.650	0.325
-416.442	728.315	-0.150	-0.398
-415.428	-160.133	0.807	-0.044
-414.413	261.086	-0.512	0.883
-413.398	-75.869	0.432	-0.152
-412.384	-36.240	-0.504	0.271
-411.369	418.058	-0.149	0.317
-410.355	687.508	-0.322	0.839
-409.340	-200.000	0.003	0.236
-408.325	749.436	0.288	0.774
-407.311	21.254	0.740	0.599
-406.296	-3.324	-0.277	0.192
-405.282	232.958	-0.158	0.259
-404.267	-111.652	1.406	0.284
-403.252	72.641	-0.073	0.076
-402.238	-136.532	0.332	0.038
-401.223	149.990	-0.678	0.916
-400.209	291.113	0.241	0.437
-399.194	72.373	-0.327	0.339
-398.179	512.122	0.137	-0.317
-397.165	-200.000	0.052	-0.553
-396.150	93.778	-0.294	0.332
-395.136	338.211	-0.434	-0.841
-394.121	-81.528	-0.266	-0.087
-393.106	-52.567	0.165	-0.076
-392.092	800.000	-0.069	0.226
-391.077	-69.138	-0.356	0.136
-390.063	-136.459	0.355	-0.041
-389.048	87.570	-0.183	-0.202
-388.033	-104.454	0.335	-0.077
-387.019	731.247	0.385	1.026
-386.004	420.767	0.105	-0.225
-384.990	800.000	0.089	-0.300
-383.975	100.490	0.211	0.244
-382.960	74.995	0.344	0.361
-381.946	-200.000	0.162	1.744
-380.931	-200.000	-0.039	-0.333
-379.917	800.000	0.229	-0.842
-378.902	96.216	0.334	-0.380
-377.888	-160.952	0.901	-0.047
-376.873	-135.188	-1.209	-0.145
-375.858	-170.898	0.353	0.012
-374.844	94.286	-0.441	-0.498
-373.829	141.833	0.279	-0.368
-372.815	-114.987	-0.588	0.111
-371.800	65.748	-0.221	0.223
-370.785	45.302	0.526	0.483
-369.771	-90.207	0.191	0.055
-368.756	74.429	-0.793	-0.830
-367.742	800.000	-0.133	-0.499
-366.727	-117.326	-0.645	0.116
-365.712	-200.000	0.011	0.411
-364.698	800.000	0.152	-0.656
-363.683	-121.031	-0.148	0.025
-362.669	-200.000	0.084	0.430
-361.654	-200.000	-0.041	0.265
-360.639	-200.000	-0.151	-0.741
-359.625	-62.330	0.105	-0.044
-358.610	98.938	-0.400	0.459
-357.596	272.603	0.442	-0.776
-356.581	-120.787	1.079	-0.181
-355.566	800.000	-0.241	0.710
-354.552	-200.000	0.047	-0.351
-353.537	-79.329	-0.557	-0.188
-352.523	-200.000	-0.193	0.853
-351.508	763.454	-0.066	-0.178
-350.493	-118.596	-0.443	0.078
-349.479	800.000	-0.030	0.097
-348.464	45.407	0.217	-0.199
-347.450	-82.050	0.404	-0.131
-346.435	61.540	-0.419	-0.415
-345.420	-127.759	-0.796	0.114
-344.406	-51.282	-0.796	-0.370
-343.391	355.689	0.401	0.794
-342.377	-40.427	0.602	-0.311
-341.362	-95.968	0.239	-0.063
-340.348	-39.648	-0.386	-0.201
-339.333	17.888	0.493	0.390
-338.318	-102.358	0.402	-0.096
-337.304	-89.350	0.803	0.235
-336.289	396.803	0.269	-0.559
-335.275	78.474	-0.761	-0.809
-334.260	-34.914	0.437	-0.237
-333.245	-19.026	-1.165	0.720
-332.231	-200.000	-0.068	-0.915
-331.216	-181.021	-0.618	-0.012
-330.202	800.000	0.032	-0.111
-329.187	282.084	0.394	-0.702
-328.172	800.000	0.189	-0.714
-327.158	48.207	-0.398	0.370
-326.143	-200.000	-0.036	-0.261
-325.129	159.160	0.144	-0.199
-324.114	-200.000	-0.003	0.161
-323.099	-200.000	-0.019	-0.722
-322.085	-200.000	0.077	-0.398
-321.070	-129.419	0.919	0.127
-320.056	546.281	-0.340	0.808
-319.041	-200.000	-0.058	-0.606
-318.026	-43.384	-0.478	0.240
-317.012	-200.000	-0.093	0.482
-315.997	100.325	-0.138	0.159
-314.983	-53.103	-0.698	-0.319
-313.968	-19.754	-0.031	-0.019
-312.953	-63.852	0.351	0.143
-311.939	193.509	0.101	0.152
-310.924	36.986	-0.315	0.276
-309.910	62.022	0.630	0.623
-308.895	-56.115	-0.118	-0.052
-307.880	91.072	0.210	0.234
-306.866	-200.000	0.067	-0.324
-305.851	42.927	-0.417	0.377
-304.837	47.717	-0.259	0.240
-303.822	347.025	0.117	0.230
-302.807	800.000	0.254	0.755
-301.793	-200.000	-0.084	-0.697
-300.778	800.000	0.149	-0.476
-299.764	-200.000	0.092	1.001
-298.749	-200.000	-0.013	0.486
-297.735	-200.000	-0.064	1.138
-296.720	-200.000	0.060	-0.332
-295.705	-200.000	0.067	-0.346
-294.691	-0.931	-0.453	-0.318
-293.676	-110.643	0.213	-0.044
-292.662	-30.892	0.343	-0.192
-291.647	-200.000	-0.003	-0.412
-290.632	-64.988	0.367	-0.147
-289.618	339.281	0.375	-0.724
-288.603	81.639	0.653	0.701
-287.589	800.000	-0.078	0.280
-286.574	-84.526	0.270	-0.085
-285.559	35.498	0.328	0.286
-284.545	662.654	0.565	-1.445
-283.530	-41.428	0.539	0.275
-282.516	-17.540	-0.116	-0.072
-281.501	66.364	0.194	0.196
-280.486	800.000	-0.049	0.143
-279.472	-200.000	0.004	-0.177
-278.457	113.584	-0.363	-0.437
-277.443	334.751	0.457	-0.878
-276.428	-164.580	-0.761	0.034
-275.413	-200.000	0.096	0.653
-274.399	381.659	-0.214	-0.436
-273.384	-200.000	-0.030	-0.428
-272.370	-200.000	-0.076	-0.549
-271.355	-18.383	0.743	0.460
-270.340	255.778	-0.502	-0.853
-269.326	-129.102	-0.651	-0.090
-268.311	-108.826	0.340	0.072
-267.297	715.269	0.108	0.284
-266.282	-93.442	-0.170	0.047
-265.267	-160.296	-0.249	0.013
-264.253	-33.862	-0.439	0.240
-263.238	-200.000	0.031	-0.421
-262.224	552.226	0.328	-0.781
-261.209	-41.947	0.583	-0.296
-260.195	-200.000	0.062	0.404
-259.180	189.804	0.248	-0.369
-258.165	800.000	0.041	0.167
-257.151	95.680	0.545	-0.616
-256.136	52.699	-0.267	-0.253
-255.122	800.000	-0.110	-0.357
-254.107	167.657	0.423	-0.596
-253.092	-200.000	-0.106	-0.844
-252.078	-47.990	-0.125	-0.060
-251.063	-99.283	-0.232	-0.058
-250.049	-123.416	0.437	0.069
-249.034	-75.095	-0.802	-0.284
-248.019	133.017	0.511	0.654
-247.005	-200.000	-0.186	0.826
-245.990	152.985	-0.285	0.386
-244.976	-95.835	0.850	0.225
-243.961	-116.991	0.454	-0.082
-242.946	95.522	-0.320	0.361
-241.932	238.980	-0.268	-0.442
-240.917	-48.847	0.263	-0.125
-239.903	343.416	-0.604	1.173
-238.888	-200.000	0.057	0.395
-237.873	-46.986	0.875	-0.423
-236.859	32.346	-0.972	-0.831
-235.844	15.225	0.616	-0.479
-234.830	-62.448	-0.667	-0.274
-233.815	-64.315	-0.391	-0.158
-232.800	-200.000	-0.070	-0.320
-231.786	21.068	-0.437	-0.351
-230.771	7.161	0.047	0.035
-229.757	39.206	0.466	-0.413
-228.742	-144.713	-0.507	-0.046
-227.727	-70.107	-0.653	0.246
-226.713	-16.044	0.403	0.254
-225.698	-159.718	-0.323	0.018
-224.684	-57.405	0.826	0.359
-223.669	79.622	-0.159	0.168
-222.655	800.000	0.296	-1.181
-221.640	88.899	0.258	0.284
-220.625	34.557	0.270	-0.234
-219.611	-128.557	0.445	-0.062
-218.596	314.042	0.407	0.757
-217.582	354.723	-0.310	-0.609
-216.567	209.927	-0.443	-0.687
-215.552	556.503	-0.140	-0.334
-214.538	-200.000	-0.019	0.192
-213.523	75.577	-0.319	0.334
-212.509	218.335	-0.501	0.791
-211.494	800.000	-0.141	0.473
-210.479	-200.000	0.044	-0.765
-209.465	-200.000	0.109	-0.991
-208.450	398.820	0.418	-0.865
-207.436	-200.000	0.044	-0.392
-206.421	-43.007	0.587	-0.295
-205.406	-59.106	0.770	-0.329
-204.392	-200.000	-0.125	0.738
-203.377	-200.000	-0.002	0.075
-202.363	-135.173	-0.415	0.049
-201.348	48.164	-0.172	-0.159
-200.333	-93.236	0.213	0.058
-199.319	-83.351	0.557	-0.177
-198.304	34.090	-0.228	0.196
-197.290	257.582	-0.492	0.837
-196.275	-200.000	-0.022	-0.186
-195.260	800.000	0.360	-1.194
-194.246	-63.246	0.654	0.266
-193.231	60.187	0.167	0.163
-192.217	73.773	-0.100	0.103
-191.202	24.913	-0.400	0.328
-190.187	-156.159	0.196	0.012
-189.173	-200.000	-0.027	-0.831
-188.158	-9.701	-1.044	0.687
-187.144	306.919	-0.635	1.168
-186.129	800.000	-0.172	0.611
-185.114	295.507	0.135	0.244
-184.100	-27.453	0.375	0.215
-183.085	-104.484	-0.849	-0.194
-182.071	-200.000	-0.023	0.748
-181.056	581.722	-0.162	0.393
-180.042	105.600	0.280	0.327
-179.027	7.731	-0.234	-0.173
-178.012	61.851	-0.115	-0.113
-176.998	-77.173	0.431	0.148
-175.983	241.222	-0.092	0.151
-174.969	-1.196	-0.556	0.388
-173.954	40.954	-0.398	-0.354
-172.939	-131.833	0.680	0.088
-171.925	651.228	0.212	0.537
-170.910	-146.088	-0.571	-0.050
-169.896	12.180	0.286	0.218
-168.881	-182.927	0.785	-0.014
-167.866	-200.000	0.012	-0.073
-166.852	-200.000	-0.019	0.103
-165.837	168.890	-0.227	0.320
-164.823	-64.458	0.356	0.143
-163.808	-139.571	0.594	-0.063
-162.793	-0.508	-0.522	-0.366
-161.779	-94.083	0.253	-0.068
-160.764	30.224	0.130	0.110
-159.750	95.402	0.548	0.617
-158.735	800.000	0.006	-0.022
-157.720	52.430	0.452	0.426
-156.706	800.000	0.211	-0.835
-155.691	316.991	0.213	0.398
-154.677	-80.603	-0.600	0.197
-153.662	800.000	0.187	-0.558
-152.647	-137.901	0.260	-0.029
-151.633	-56.246	0.654	-0.287
-150.618	45.513	-0.361	-0.329
-149.604	-67.102	-0.251	0.098
-148.589	40.767	0.095	0.085
-147.574	-4.753	-0.230	0.157
-146.560	-119.172	-0.400	-0.069
-145.545	-187.120	1.201	0.016
-144.531	-200.000	0.045	-0.648
-143.516	800.000	-0.268	-0.815
-142.502	56.004	0.290	0.277
-141.487	157.746	-0.512	0.699
-140.472	800.000	0.302	0.925
-139.458	-28.257	0.433	-0.247
-138.443	188.941	-0.255	0.377
-137.429	107.513	-0.340	-0.399
-136.414	-3.865	0.143	0.098
-135.399	75.597	0.497	-0.518
-134.385	-200.000	0.115	-0.739
-133.370	-73.043	-0.374	-0.136
-132.356	-118.133	0.713	0.125
-131.341	34.167	0.210	0.180
-130.326	-101.479	0.915	0.220
-129.312	343.659	0.294	0.568
-128.297	-19.133	-0.223	0.137
-127.283	-82.943	-0.075	-0.024
-126.268	243.893	0.132	-0.219
-125.253	-200.000	0.265	1.233
-124.239	-200.000	-0.048	-0.260
-123.224	728.148	-0.270	-0.710
-122.210	123.681	0.141	0.174
-121.195	-148.572	-0.145	0.012
