DTS Sentinel unit serial number:	SN413079Multiplexer serial number:	ORYXHardware model number:	OX4-SRSoftware version number:	ORYX F/W v4.00 Oryx Data Collector v3.7.2.0data status	okinstallation	princeton_trtdifferential loss correction	single-endedforward channel	channel 3reverse channel	N/Adate	2019/09/12time	00:38:11forward acquisition time	60.00reverse acquisition time	0.00gamma	496.2192k internal	0.2318k external	0.2318temperature offset calibration	1.0067default loss term (dB/km)	0.3790temperature slope calibration	1.0000multiplexer offset coefficient	1.0000multiplexer slope coefficient	1.0000fibre end	0.00T internal ref (°C)	33.33T ext. ref 1 (°C)	2.06T ext. ref 2 (°C)	27.92length (m)	temperature (°C)	Stokes	anti-Stokes-747.200	-200.000	-0.020	-0.345
-746.185	53.550	-0.085	-0.082
-745.171	-200.000	0.035	0.176
-744.156	6.424	0.101	0.076
-743.142	236.192	-0.014	0.024
-742.127	325.846	0.072	0.139
-741.112	144.664	0.144	0.195
-740.098	-127.604	-0.320	0.047
-739.083	800.000	-0.041	-0.159
-738.069	235.515	0.078	0.130
-737.054	-200.000	0.007	-0.112
-736.039	6.291	-0.188	-0.141
-735.025	144.738	-0.076	0.103
-734.010	-50.351	-0.220	0.105
-732.996	-63.528	0.078	0.032
-731.981	156.748	-0.116	0.162
-730.966	-200.000	0.024	-0.140
-729.952	800.000	0.025	-0.099
-728.937	-77.700	-0.074	0.026
-727.923	-151.320	-0.349	-0.026
-726.908	47.530	-0.090	-0.085
-725.894	426.052	-0.131	-0.285
-724.879	-68.942	-0.068	-0.026
-723.864	37.541	-0.064	-0.058
-722.850	-193.518	0.287	0.003
-721.835	-200.000	-0.014	-0.213
-720.821	-54.570	0.229	0.105
-719.806	224.945	0.170	0.278
-718.791	149.796	-0.125	0.171
-717.777	-27.853	0.286	0.168
-716.762	-67.641	-0.143	0.057
-715.748	-48.750	-0.561	0.272
-714.733	-14.777	0.101	-0.066
-713.718	13.079	0.294	0.230
-712.704	-180.537	-0.099	0.002
-711.689	-159.450	-0.169	-0.010
-710.675	429.067	0.259	0.566
-709.660	389.975	0.119	0.249
-708.645	276.475	-0.121	-0.218
-707.631	9.278	0.225	-0.172
-706.616	-200.000	0.045	-0.232
-705.602	399.567	-0.075	-0.160
-704.587	800.000	0.078	-0.318
-703.572	800.000	0.111	0.464
-702.558	-39.685	-0.215	-0.114
-701.543	-167.629	-0.077	0.003
-700.529	-82.412	-0.041	0.013
-699.514	-93.390	-0.208	0.058
-698.499	-200.000	0.017	0.343
-697.485	-70.135	-0.142	0.055
-696.470	-112.667	-0.305	-0.061
-695.456	-112.349	0.140	0.028
-694.441	800.000	-0.020	0.068
-693.426	-16.143	0.186	-0.120
-692.412	-200.000	-0.033	-0.249
-691.397	-200.000	-0.012	-0.068
-690.383	282.937	-0.111	0.201
-689.368	49.246	0.239	0.227
-688.354	-129.592	-0.349	-0.049
-687.339	-135.244	-0.288	-0.035
-686.324	-200.000	0.002	0.011
-685.310	-35.054	0.030	-0.017
-684.295	-176.673	0.281	0.007
-683.281	197.537	0.111	-0.171
-682.266	220.330	0.197	0.320
-681.251	-37.305	0.220	0.119
-680.237	800.000	0.072	-0.243
-679.222	147.384	0.089	0.121
-678.208	-82.475	-0.063	-0.021
-677.193	-42.616	-0.191	-0.098
-676.178	-200.000	-0.015	0.127
-675.164	-200.000	-0.004	0.093
-674.149	97.336	0.120	0.139
-673.135	70.596	-0.189	0.197
-672.120	7.767	0.167	0.127
-671.105	63.696	-0.149	-0.151
-670.091	453.984	0.125	0.280
-669.076	350.967	0.068	0.135
-668.062	462.816	-0.070	0.158
-667.047	800.000	-0.030	0.125
-666.032	15.608	-0.314	-0.249
-665.018	-200.000	0.047	-0.225
-664.003	117.572	0.163	-0.202
-662.989	40.093	0.211	-0.192
-661.974	800.000	0.073	0.210
-660.959	600.735	-0.125	0.313
-659.945	525.579	0.040	0.095
-658.930	-105.624	0.225	-0.051
-657.916	3.685	-0.140	0.103
-656.901	17.454	-0.297	0.238
-655.886	-146.571	0.054	0.005
-654.872	184.085	-0.254	-0.379
-653.857	800.000	-0.046	-0.200
-652.843	800.000	0.036	0.101
-651.828	800.000	0.124	0.346
-650.814	-81.944	-0.078	0.026
-649.799	-99.323	-0.236	0.060
-648.784	-153.002	-0.160	0.011
-647.770	800.000	0.069	0.222
-646.755	-92.481	-0.150	0.043
-645.741	179.596	-0.064	0.094
-644.726	-69.367	-0.302	-0.117
-643.711	-4.555	0.296	-0.206
-642.697	-6.839	-0.027	-0.019
-641.682	-200.000	-0.043	0.233
-640.668	57.955	-0.297	-0.293
-639.653	-200.000	0.017	-0.179
-638.638	86.781	-0.321	0.357
-637.624	-8.665	-0.123	0.083
-636.609	-45.054	-0.244	0.122
-635.595	-200.000	0.001	-0.053
-634.580	73.895	0.228	-0.241
-633.565	-99.454	0.105	-0.027
-632.551	11.032	0.140	0.108
-631.536	-200.000	-0.046	-0.357
-630.522	-71.114	-0.443	-0.168
-629.507	16.700	-0.211	0.168
-628.492	72.285	-0.075	0.078
-627.478	-46.287	-0.302	0.150
-626.463	-115.098	-0.172	-0.033
-625.449	591.956	-0.108	0.269
-624.434	-142.784	-0.311	0.031
-623.419	658.149	-0.077	0.198
-622.405	326.483	-0.098	0.189
-621.390	-58.334	-0.282	0.123
-620.376	12.717	-0.357	0.278
-619.361	800.000	-0.047	0.190
-618.346	-200.000	-0.002	-0.192
-617.332	145.309	0.208	-0.280
-616.317	479.861	0.141	0.322
-615.303	-200.000	-0.017	0.272
-614.288	7.906	-0.090	-0.068
-613.273	158.007	0.108	0.150
-612.259	173.529	0.125	0.182
-611.244	-200.000	-0.017	-0.186
-610.230	-23.958	0.314	0.189
-609.215	-36.460	0.147	-0.079
-608.201	97.742	-0.122	-0.141
-607.186	800.000	-0.114	-0.323
-606.171	-6.513	-0.122	-0.083
-605.157	153.171	-0.122	-0.168
-604.142	559.111	-0.129	-0.313
-603.128	-36.372	-0.021	0.011
-602.113	-118.369	0.200	0.036
-601.098	-137.871	0.288	-0.032
-600.084	-86.376	-0.086	0.027
-599.069	-53.643	-0.174	0.080
-598.055	-125.833	-0.146	0.022
-597.040	-93.321	-0.330	-0.092
-596.025	-200.000	-0.007	-0.084
-595.011	-117.351	0.287	0.052
-593.996	800.000	0.023	0.089
-592.982	800.000	-0.057	-0.166
-591.967	-200.000	0.058	0.316
-590.952	186.051	0.113	0.169
-589.938	-165.511	-0.265	-0.012
-588.923	69.799	-0.242	-0.251
-587.909	-145.330	0.295	-0.027
-586.894	135.801	0.129	-0.169
-585.879	213.236	-0.034	0.054
-584.865	327.044	-0.168	0.323
-583.850	-200.000	-0.021	-0.093
-582.836	-200.000	0.016	-0.252
-581.821	800.000	0.072	0.211
-580.806	-138.530	-0.084	-0.009
-579.792	800.000	-0.031	0.102
-578.777	-200.000	0.009	0.282
-577.763	-126.000	-0.202	0.031
-576.748	-6.663	0.212	-0.145
-575.733	-115.088	-0.227	-0.043
-574.719	-121.348	0.126	0.021
-573.704	-161.723	-0.237	0.012
-572.690	29.009	-0.132	-0.113
-571.675	-84.773	0.300	-0.095
-570.661	-54.663	0.386	-0.176
-569.646	140.713	0.250	-0.331
-568.631	3.085	0.062	-0.045
-567.617	89.067	-0.274	0.307
-566.602	-119.343	0.202	0.035
-565.588	-200.000	-0.001	0.189
-564.573	800.000	0.064	0.208
-563.558	533.821	-0.023	0.056
-562.544	-81.824	0.116	-0.038
-561.529	103.276	0.105	0.124
-560.515	-11.458	-0.069	-0.046
-559.500	800.000	-0.016	-0.071
-558.485	-67.715	-0.202	0.080
-557.471	800.000	0.101	-0.372
-556.456	800.000	0.076	0.291
-555.442	-104.139	0.055	0.013
-554.427	782.530	0.049	0.136
-553.412	-200.000	0.044	0.386
-552.398	656.495	-0.031	0.079
-551.383	-2.703	-0.150	-0.106
-550.369	800.000	-0.092	0.330
-549.354	-58.013	-0.199	0.087
-548.339	-136.874	-0.046	0.005
-547.325	222.150	-0.066	0.107
-546.310	81.167	0.076	0.083
-545.296	-16.512	-0.151	0.096
-544.281	-76.234	-0.222	0.079
-543.266	679.819	0.030	-0.080
-542.252	-149.132	0.278	0.022
-541.237	444.119	0.102	0.225
-540.223	-82.791	-0.423	-0.137
-539.208	-34.491	0.152	-0.084
-538.193	800.000	0.108	-0.334
-537.179	127.953	-0.238	0.303
-536.164	800.000	0.089	-0.281
-535.150	262.925	-0.060	-0.105
-534.135	1.540	0.108	-0.078
-533.121	-151.054	-0.434	0.033
-532.106	-200.000	-0.019	0.156
-531.091	170.682	-0.049	0.070
-530.077	68.143	0.108	-0.110
-529.062	-200.000	-0.005	-0.091
-528.048	-186.942	-0.140	-0.002
-527.033	-1.280	0.140	-0.099
-526.018	327.477	-0.162	-0.311
-525.004	-92.569	0.158	0.044
-523.989	-136.970	0.108	0.012
-522.975	2.183	-0.093	-0.067
-521.960	125.034	-0.188	0.237
-520.945	25.904	-0.156	0.131
-519.931	8.299	0.112	-0.084
-518.916	-200.000	0.043	0.258
-517.902	390.402	-0.111	0.232
-516.887	90.411	0.324	-0.363
-515.872	216.469	-0.081	0.129
-514.858	146.076	-0.027	-0.036
-513.843	10.422	-0.191	-0.146
-512.829	-139.465	-0.085	-0.009
-511.814	-200.000	-0.004	-0.023
-510.799	-93.553	0.297	0.082
-509.785	-122.779	-0.154	0.025
-508.770	-33.268	0.242	0.135
-507.756	800.000	-0.164	-0.456
-506.741	-31.526	0.055	0.031
-505.726	800.000	0.131	0.451
-504.712	-55.102	0.004	0.002
-503.697	157.335	0.124	0.173
-502.683	42.507	-0.023	-0.021
-501.668	-200.000	-0.025	-0.441
-500.653	580.892	0.072	-0.178
-499.639	-130.367	-0.373	0.051
-498.624	-127.098	0.218	0.032
-497.610	-74.751	-0.127	0.046
-496.595	-72.002	0.079	-0.029
-495.581	-174.088	0.188	-0.006
-494.566	-164.999	0.323	-0.014
-493.551	800.000	0.066	0.196
-492.537	-200.000	-0.009	-0.046
-491.522	-129.263	0.188	-0.026
-490.508	-61.993	-0.311	-0.130
-489.493	109.415	0.075	-0.090
-488.478	-140.676	-0.183	0.019
-487.464	-124.046	0.204	0.032
-486.449	-94.481	-0.016	0.004
-485.435	-109.791	-0.120	0.025
-484.420	-200.000	-0.016	0.482
-483.405	-126.667	0.150	0.022
-482.391	301.127	0.087	0.160
-481.376	136.648	0.021	0.027
-480.362	-104.471	0.113	-0.026
-479.347	146.174	0.066	-0.089
-478.332	41.946	-0.321	-0.291
-477.318	-94.600	-0.246	0.067
-476.303	88.225	-0.374	0.416
-475.289	-43.041	-0.158	-0.080
-474.274	-200.000	0.030	-0.135
-473.259	800.000	0.048	-0.143
-472.245	-67.319	-0.134	-0.053
-471.230	-149.375	-0.217	-0.017
-470.216	-200.000	-0.068	-0.344
-469.201	238.352	0.113	0.189
-468.186	-200.000	0.038	0.223
-467.172	-200.000	0.042	-0.204
-466.157	-169.144	0.161	-0.006
-465.143	90.721	-0.110	0.123
-464.128	307.483	-0.018	0.033
-463.113	135.422	0.089	0.116
-462.099	20.968	-0.021	0.017
-461.084	-91.817	0.130	-0.037
-460.070	-200.000	-0.033	-0.148
-459.055	800.000	-0.113	-0.335
-458.040	22.123	0.206	-0.169
-457.026	-2.447	-0.132	-0.092
-456.011	91.504	-0.154	0.173
-454.997	800.000	0.076	0.247
-453.982	-41.274	0.284	-0.146
-452.968	-93.849	-0.087	0.024
-451.953	292.838	-0.043	0.078
-450.938	-76.825	-0.431	-0.151
-449.924	327.721	0.111	-0.212
-448.909	-89.427	0.317	-0.093
-447.895	-176.916	0.060	-0.002
-446.880	430.037	0.089	0.192
-445.865	-57.568	0.247	-0.109
-444.851	800.000	-0.119	-0.394
-443.836	125.869	-0.267	-0.337
-442.822	72.873	0.180	-0.188
-441.807	102.209	-0.137	-0.160
-440.792	61.989	0.069	0.069
-439.778	800.000	-0.017	0.057
-438.763	-31.814	-0.111	0.062
-437.749	496.842	0.054	0.123
-436.734	800.000	-0.090	0.266
-435.719	-164.044	-0.217	0.010
-434.705	-50.819	0.269	-0.126
-433.690	326.210	-0.156	-0.299
-432.676	-200.000	0.007	-0.047
-431.661	-200.000	0.023	0.288
-430.646	-79.784	0.035	0.012
-429.632	-66.506	-0.189	-0.075
-428.617	-200.000	0.029	-0.160
-427.603	-85.569	0.342	-0.106
-426.588	-200.000	0.007	0.068
-425.573	-200.000	0.031	-0.352
-424.559	-60.484	0.437	-0.186
-423.544	-25.393	-0.242	0.143
-422.530	-200.000	0.000	-0.088
-421.515	800.000	-0.058	-0.194
-420.500	348.032	-0.120	0.236
-419.486	214.303	0.081	-0.128
-418.471	-3.414	-0.178	-0.124
-417.457	10.636	0.261	0.199
-416.442	639.201	-0.054	0.138
-415.428	-49.276	-0.114	-0.055
-414.413	800.000	-0.067	0.186
-413.398	47.165	-0.146	0.136
-412.384	749.537	-0.037	-0.101
-411.369	-19.913	0.137	-0.085
-410.355	33.535	-0.146	0.127
-409.340	26.817	-0.282	0.236
-408.325	85.327	0.189	-0.208
-407.311	-200.000	-0.286	0.000
-406.296	-5.152	-0.146	-0.101
-405.282	51.448	0.077	0.073
-404.267	43.837	0.310	0.283
-403.252	-138.583	-0.139	-0.015
-402.238	37.826	-0.281	-0.249
-401.223	418.117	-0.091	-0.195
-400.209	-111.036	0.336	0.069
-399.194	-200.000	-0.017	-0.178
-398.179	-4.586	0.139	0.096
-397.165	800.000	0.051	-0.211
-396.150	-184.554	-0.222	-0.004
-395.136	-4.320	0.271	-0.188
-394.121	-98.987	-0.161	-0.041
-393.106	-200.000	-0.026	0.138
-392.092	-86.601	0.305	-0.093
-391.077	325.193	0.096	-0.182
-390.063	-48.639	-0.248	0.119
-389.048	409.916	-0.009	-0.018
-388.033	-134.060	-0.151	0.019
-387.019	-168.597	0.447	-0.017
-386.004	-200.000	-0.029	-0.380
-384.990	800.000	0.134	0.375
-383.975	-200.000	-0.038	-0.238
-382.960	-21.064	0.139	-0.085
-381.946	-153.074	-0.097	0.007
-380.931	-22.903	-0.178	-0.107
-379.917	-50.946	-0.290	0.136
-378.902	-45.365	0.300	-0.148
-377.888	800.000	0.027	-0.085
-376.873	-123.123	0.330	0.053
-375.858	-16.494	0.236	0.149
-374.844	550.463	0.056	-0.133
-373.829	-98.338	0.157	0.040
-372.815	23.477	0.429	0.352
-371.800	800.000	-0.036	-0.135
-370.785	-200.000	-0.007	0.393
-369.771	121.907	-0.126	0.157
-368.756	154.775	0.250	-0.343
-367.742	800.000	0.055	-0.193
-366.727	18.569	-0.247	-0.197
-365.712	-200.000	0.024	0.130
-364.698	91.509	-0.216	-0.242
-363.683	120.191	-0.128	-0.158
-362.669	-200.000	-0.007	-0.151
-361.654	-109.841	0.038	0.008
-360.639	-200.000	0.010	-0.092
-359.625	-121.874	-0.123	0.020
-358.610	-200.000	0.017	-0.207
-357.596	80.787	0.193	0.208
-356.581	800.000	0.014	0.060
-355.566	-80.743	0.185	0.061
-354.552	96.596	0.168	-0.192
-353.537	-13.060	0.200	-0.129
-352.523	-74.520	-0.245	0.088
-351.508	150.966	-0.151	-0.204
-350.493	-77.728	0.432	-0.149
-349.479	56.991	-0.056	0.054
-348.464	-39.221	-0.345	-0.180
-347.450	176.392	0.133	-0.192
-346.435	71.240	0.218	-0.225
-345.420	209.741	0.173	0.270
-344.406	70.722	-0.179	-0.184
-343.391	725.356	0.099	0.262
-342.377	800.000	-0.029	-0.079
-341.362	800.000	0.058	0.180
-340.348	226.612	-0.047	0.076
-339.333	-115.202	0.199	-0.038
-338.318	-91.497	-0.419	-0.119
-337.304	-144.632	0.245	0.023
-336.289	38.540	0.173	0.154
-335.275	800.000	-0.039	-0.161
-334.260	-21.025	-0.160	-0.097
-333.245	-200.000	-0.033	0.192
-332.231	397.425	-0.171	0.355
-331.216	800.000	0.059	-0.177
-330.202	-28.295	-0.172	0.099
-329.187	21.650	-0.329	-0.266
-328.172	-49.103	-0.277	0.132
-327.158	650.881	0.024	0.061
-326.143	102.877	-0.092	0.107
-325.129	-200.000	0.051	-0.358
-324.114	800.000	-0.047	0.143
-323.099	800.000	-0.093	-0.328
-322.085	242.661	0.121	-0.201
-321.070	-51.935	0.054	-0.025
-320.056	-64.527	0.424	0.171
-319.041	800.000	0.020	-0.089
-318.026	47.281	-0.092	-0.086
-317.012	-32.614	-0.336	0.186
-315.997	104.619	-0.125	-0.147
-314.983	71.460	0.029	0.030
-313.968	-134.513	0.253	-0.031
-312.953	192.781	-0.178	-0.268
-311.939	800.000	0.032	0.096
-310.924	275.104	-0.192	-0.338
-309.910	-200.000	0.009	0.088
-308.895	164.024	-0.145	0.203
-307.880	-6.961	-0.187	0.127
-306.866	800.000	-0.076	-0.317
-305.851	800.000	-0.082	0.270
-304.837	-32.323	-0.225	-0.125
-303.822	-26.652	-0.110	0.064
-302.807	204.265	0.163	0.251
-301.793	-74.070	0.121	0.043
-300.778	441.667	0.042	0.092
-299.764	84.957	-0.239	0.260
-298.749	155.873	0.073	-0.100
-297.735	54.393	0.088	-0.084
-296.720	-20.987	-0.342	0.208
-295.705	-70.780	0.100	0.038
-294.691	-200.000	-0.085	0.483
-293.676	31.632	-0.099	0.084
-292.662	39.730	-0.202	0.180
-291.647	800.000	-0.022	0.071
-290.632	-200.000	-0.066	-0.358
-289.618	-128.202	-0.569	0.081
-288.603	326.957	0.100	0.190
-287.589	-60.567	0.157	-0.066
-286.574	800.000	-0.058	-0.200
-285.559	-200.000	-0.004	0.026
-284.545	302.111	-0.100	0.183
-283.530	84.458	-0.158	0.172
-282.516	-200.000	-0.066	0.393
-281.501	-33.746	-0.150	-0.082
-280.486	645.868	0.107	0.271
-279.472	505.758	0.167	-0.385
-278.457	-116.590	0.241	0.044
-277.443	-200.000	0.046	-0.279
-276.428	189.616	-0.151	0.225
-275.413	127.037	0.098	-0.124
-274.399	174.332	0.262	-0.376
-273.384	63.335	-0.122	0.122
-272.370	283.964	-0.252	-0.450
-271.355	-36.712	-0.235	0.125
-270.340	-59.068	0.266	-0.114
-269.326	157.432	-0.082	-0.112
-268.311	203.493	0.086	0.133
-267.297	-114.519	0.110	0.021
-266.282	-53.247	0.205	0.094
-265.267	688.777	0.029	-0.074
-264.253	-200.000	0.022	0.174
-263.238	-98.516	0.199	0.050
-262.224	173.629	-0.226	-0.324
-261.209	-44.467	0.204	-0.101
-260.195	235.283	-0.064	-0.105
-259.180	225.122	0.091	-0.146
-258.165	-200.000	-0.028	0.137
-257.151	-67.744	0.414	0.161
-256.136	40.175	-0.241	0.215
-255.122	-125.400	-0.163	-0.025
-254.107	145.804	0.072	-0.096
-253.092	189.349	-0.108	-0.160
-252.078	800.000	0.040	0.118
-251.063	-162.379	0.267	0.013
-250.049	240.791	0.057	-0.094
-249.034	-43.836	0.137	0.068
-248.019	800.000	-0.064	0.242
-247.005	-84.666	0.216	-0.067
-245.990	-122.020	-0.018	0.003
-244.976	-200.000	-0.007	0.105
-243.961	622.754	0.092	-0.231
-242.946	474.715	-0.103	-0.230
-241.932	-37.660	0.237	0.125
-240.917	-200.000	-0.032	-0.186
-239.903	19.154	0.126	-0.100
-238.888	800.000	0.007	0.024
-237.873	-78.495	-0.115	0.039
-236.859	123.571	-0.095	0.119
-235.844	-156.611	0.195	0.012
-234.830	1.376	0.105	0.075
-233.815	-58.354	-0.091	-0.039
-232.800	800.000	-0.049	-0.153
-231.786	172.353	0.305	-0.435
-230.771	-146.929	0.550	0.047
-229.757	-48.983	-0.179	-0.085
-228.742	-200.000	0.017	-0.120
-227.727	-112.818	0.224	-0.044
-226.713	-89.771	0.216	0.063
-225.698	-134.514	0.294	-0.036
-224.684	24.476	0.279	0.229
-223.669	30.805	0.153	0.130
-222.655	-200.000	0.050	0.385
-221.640	77.862	-0.289	-0.305
-220.625	-200.000	-0.005	-0.071
-219.611	-24.029	-0.179	0.106
-218.596	-200.000	0.044	0.226
-217.582	-76.861	0.278	-0.096
-216.567	437.395	-0.164	-0.355
-215.552	-133.679	0.276	-0.034
-214.538	-200.000	0.047	-0.325
-213.523	-46.819	0.221	-0.107
-212.509	-153.067	-0.072	0.005
-211.494	7.780	-0.150	0.112
-210.479	-190.892	0.238	0.002
-209.465	-55.265	0.042	-0.019
-208.450	-161.223	0.201	0.010
-207.436	415.274	-0.129	0.273
-206.421	157.672	-0.026	-0.036
-205.406	-40.366	-0.221	0.114
-204.392	114.089	-0.157	-0.189
-203.377	12.123	-0.037	0.028
-202.363	-98.128	0.198	-0.051
-201.348	135.869	-0.067	0.087
-200.333	-137.100	0.174	0.020
-199.319	117.013	0.094	-0.114
-198.304	-60.182	0.357	0.151
-197.290	-190.795	-0.182	0.002
-196.275	494.222	-0.134	0.305
-195.260	-200.000	0.042	0.191
-194.246	-108.760	0.104	0.022
-193.231	-113.326	-0.194	0.038
-192.217	-200.000	-0.016	0.295
-191.202	-126.424	-0.108	-0.016
-190.187	-132.843	0.107	0.013
-189.173	-80.894	-0.093	0.030
-188.158	-26.538	0.206	-0.120
-187.144	-22.188	-0.184	0.111
-186.129	-47.450	-0.085	0.041
-185.114	-99.834	0.171	-0.042
-184.100	80.368	-0.029	0.031
-183.085	-64.045	0.307	-0.124
-182.071	-200.000	0.031	-0.177
-181.056	106.622	0.194	0.228
-180.042	127.821	0.054	0.068
-179.027	-200.000	-0.016	-0.286
-178.012	-67.367	-0.028	-0.011
-176.998	-47.541	-0.155	0.074
-175.983	-120.744	0.206	0.034
-174.969	227.288	0.107	0.172
-173.954	-200.000	-0.014	0.102
-172.939	-0.004	-0.080	0.057
-171.925	-90.073	0.204	-0.059
-170.910	-29.439	-0.038	-0.021
-169.896	800.000	-0.053	-0.149
-168.881	17.925	0.086	0.068
-167.866	800.000	-0.121	0.411
-166.852	-103.634	-0.042	-0.010
-165.837	-31.817	0.277	0.154
-164.823	181.529	0.155	0.226
-163.808	-61.350	0.169	0.070
-162.793	608.085	0.135	0.333
-161.779	24.876	-0.169	-0.139
-160.764	165.753	-0.082	-0.114
-159.750	-141.467	0.125	-0.013
-158.735	-28.901	0.451	0.256
-157.720	92.192	-0.171	-0.190
-156.706	-40.516	0.362	0.186
-155.691	161.101	0.151	0.208
-154.677	724.864	0.049	-0.130
-153.662	-96.075	-0.265	0.070
-152.647	-102.692	-0.194	0.046
-151.633	-81.827	0.031	0.010
-150.618	800.000	0.051	-0.162
-149.604	-184.380	0.236	0.004
-148.589	-200.000	0.017	-0.090
-147.574	29.912	0.125	0.105
-146.560	75.581	-0.180	-0.188
-145.545	800.000	-0.117	-0.328
-144.531	4.178	-0.259	-0.187
-143.516	115.745	-0.133	0.160
-142.502	800.000	0.052	-0.213
-141.487	800.000	0.083	-0.298
-140.472	211.392	0.096	-0.149
-139.458	-62.960	-0.416	-0.170
-138.443	-71.609	0.258	0.095
-137.429	-200.000	-0.006	-0.063
-136.414	-124.687	0.143	-0.022
-135.399	6.694	-0.101	0.075
-134.385	-42.643	0.301	-0.151
-133.370	332.352	-0.092	-0.176
-132.356	-16.355	0.090	0.056
-131.341	54.565	-0.134	0.128
-130.326	800.000	0.055	0.151
-129.312	43.614	-0.342	0.309
-128.297	-10.239	-0.417	-0.273
-127.283	-57.527	-0.161	-0.070
-126.268	45.071	0.180	-0.164
-125.253	17.131	0.013	0.010
-124.239	-24.801	0.034	-0.020
-123.224	-140.447	-0.445	-0.046
-122.210	-188.494	0.195	-0.002
-121.195	-200.000	-0.007	0.066
-120.180	800.000	0.023	-0.092
