DTS Sentinel unit serial number:	SN413079Multiplexer serial number:	ORYXHardware model number:	OX4-SRSoftware version number:	ORYX F/W v4.00 Oryx Data Collector v3.7.2.0data status	okinstallation	princeton_trtdifferential loss correction	single-endedforward channel	channel 3reverse channel	N/Adate	2019/09/13time	15:24:34forward acquisition time	60.00reverse acquisition time	0.00gamma	496.2192k internal	0.2304k external	0.2304temperature offset calibration	1.0144default loss term (dB/km)	0.3790temperature slope calibration	1.0000multiplexer offset coefficient	1.0000multiplexer slope coefficient	1.0000fibre end	0.00T internal ref (°C)	35.28T ext. ref 1 (°C)	4.73T ext. ref 2 (°C)	29.34length (m)	temperature (°C)	Stokes	anti-Stokes-747.200	13.117	-0.058	0.046
-746.185	213.385	0.151	0.244
-745.171	-66.196	0.379	0.154
-744.156	-150.714	-0.069	0.005
-743.142	800.000	-0.055	-0.179
-742.127	587.259	-0.069	0.174
-741.112	722.689	0.097	0.264
-740.098	800.000	0.062	0.193
-739.083	292.585	0.021	0.039
-738.069	-200.000	-0.084	0.433
-737.054	-200.000	0.015	0.177
-736.039	-104.613	-0.281	0.066
-735.025	-200.000	0.071	-0.321
-734.010	-88.797	-0.542	-0.164
-732.996	-200.000	-0.010	-0.168
-731.981	800.000	-0.127	-0.545
-730.966	36.085	-0.277	0.248
-729.952	800.000	-0.093	-0.327
-728.937	681.651	-0.228	-0.605
-727.923	800.000	0.055	-0.186
-726.908	-74.004	-0.270	-0.100
-725.894	-47.398	-0.214	-0.106
-724.879	121.901	0.071	0.090
-723.864	598.186	-0.038	0.096
-722.850	-200.000	0.004	0.093
-721.835	-152.774	-0.398	0.029
-720.821	202.780	-0.104	0.163
-719.806	800.000	0.118	0.358
-718.791	-200.000	0.002	-0.152
-717.777	-96.986	-0.162	-0.043
-716.762	-114.815	-0.357	-0.069
-715.748	-40.542	-0.089	0.047
-714.733	28.757	0.377	0.325
-713.718	-89.466	-0.282	0.084
-712.704	-154.068	0.351	-0.024
-711.689	760.739	-0.057	-0.157
-710.675	-93.727	-0.316	0.089
-709.660	-92.714	0.339	0.097
-708.645	299.459	0.198	0.371
-707.631	-123.599	-0.130	-0.021
-706.616	800.000	-0.066	-0.207
-705.602	-116.215	-0.134	0.025
-704.587	-115.746	-0.210	0.040
-703.572	-2.421	-0.085	0.061
-702.558	800.000	-0.070	0.283
-701.543	-159.623	-0.119	0.007
-700.529	800.000	-0.079	-0.233
-699.514	-109.461	0.155	-0.033
-698.499	289.723	0.236	-0.435
-697.485	-122.709	0.024	0.004
-696.470	222.822	-0.194	0.317
-695.456	-200.000	-0.077	-0.386
-694.441	123.322	-0.142	0.181
-693.426	-200.000	0.007	-0.095
-692.412	-200.000	-0.033	-0.178
-691.397	-200.000	0.069	-0.544
-690.383	323.069	-0.084	-0.162
-689.368	639.103	0.077	0.199
-688.354	-182.154	-0.309	0.006
-687.339	225.454	0.151	-0.248
-686.324	232.167	-0.044	0.073
-685.310	-200.000	-0.009	0.140
-684.295	3.879	-0.160	-0.119
-683.281	800.000	-0.139	-0.454
-682.266	800.000	0.044	0.186
-681.251	-200.000	-0.005	-0.363
-680.237	486.619	-0.082	-0.190
-679.222	63.358	0.435	0.443
-678.208	-200.000	-0.017	0.145
-677.193	-4.223	-0.080	0.056
-676.178	-82.453	0.147	0.049
-675.164	-200.000	-0.016	-0.115
-674.149	-120.576	0.353	-0.061
-673.135	-18.090	0.108	-0.069
-672.120	-63.855	-0.346	-0.144
-671.105	69.465	-0.086	0.090
-670.091	235.422	0.143	-0.240
-669.076	-200.000	-0.002	0.238
-668.062	143.288	-0.063	0.085
-667.047	672.876	0.007	-0.019
-666.032	-34.567	-0.170	-0.094
-665.018	800.000	0.063	0.256
-664.003	441.558	-0.093	-0.206
-662.989	-200.000	-0.008	0.328
-661.974	0.034	0.148	0.107
-660.959	27.734	0.070	0.059
-659.945	-94.354	-0.090	0.025
-658.930	132.777	0.031	-0.041
-657.916	-160.690	-0.406	0.022
-656.901	139.479	-0.088	-0.117
-655.886	-200.000	0.018	-0.085
-654.872	-146.680	0.076	0.007
-653.857	179.505	-0.097	0.145
-652.843	-106.066	0.129	0.029
-651.828	26.695	-0.109	0.092
-650.814	-144.755	-0.239	0.022
-649.799	800.000	0.074	0.210
-648.784	-200.000	0.006	-0.133
-647.770	-104.184	-0.112	-0.026
-646.755	91.071	-0.202	0.229
-645.741	-54.818	-0.126	0.058
-644.726	-200.000	-0.085	0.450
-643.711	284.685	-0.156	-0.285
-642.697	-200.000	0.023	0.199
-641.682	-88.824	-0.378	0.114
-640.668	-53.351	0.089	0.041
-639.653	-49.162	0.391	0.190
-638.638	-200.000	0.011	-0.070
-637.624	-165.986	0.062	-0.003
-636.609	-200.000	0.022	0.172
-635.595	46.118	-0.285	-0.268
-634.580	-64.713	-0.418	-0.172
-633.565	-200.000	0.040	-0.316
-632.551	-115.945	0.327	-0.062
-631.536	-168.478	-0.370	0.014
-630.522	-200.000	-0.025	-0.149
-629.507	-104.804	0.072	-0.017
-628.492	-200.000	-0.030	0.166
-627.478	380.780	-0.096	-0.200
-626.463	-62.981	-0.403	-0.169
-625.449	15.040	-0.265	0.211
-624.434	148.051	-0.346	0.473
-623.419	288.274	-0.126	0.230
-622.405	120.104	-0.096	-0.121
-621.390	318.832	0.078	0.150
-620.376	158.376	-0.184	-0.258
-619.361	99.879	0.159	0.186
-618.346	-146.289	-0.269	0.024
-617.332	-200.000	0.068	-0.309
-616.317	-190.774	-0.042	0.000
-615.303	-88.834	-0.445	-0.134
-614.288	180.377	0.275	-0.409
-613.273	337.844	0.058	-0.115
-612.259	-200.000	0.007	-0.098
-611.244	-48.499	0.197	0.096
-610.230	-25.870	-0.140	-0.083
-609.215	800.000	-0.028	0.087
-608.201	509.101	-0.052	0.123
-607.186	450.315	0.049	-0.109
-606.171	-200.000	0.007	0.237
-605.157	-200.000	0.043	-0.274
-604.142	208.578	-0.142	-0.225
-603.128	-150.370	0.156	-0.012
-602.113	-149.597	-0.308	0.025
-601.098	-6.593	0.345	0.238
-600.084	154.793	-0.190	-0.264
-599.069	93.108	0.075	0.086
-598.055	-9.334	0.289	0.195
-597.040	800.000	0.079	0.230
-596.025	-1.876	0.179	-0.128
-595.011	-200.000	0.072	-0.556
-593.996	-171.733	-0.085	0.003
-592.982	-43.971	0.190	-0.097
-591.967	-9.831	0.182	0.122
-590.952	800.000	0.025	-0.075
-589.938	-67.898	0.215	-0.085
-588.923	-8.528	-0.213	-0.145
-587.909	-95.707	0.227	0.061
-586.894	-49.920	0.188	-0.090
-585.879	-138.013	0.275	0.031
-584.865	246.929	0.094	-0.161
-583.850	-200.000	0.001	0.145
-582.836	67.231	-0.184	-0.190
-581.821	-200.000	0.038	-0.169
-580.806	-77.101	0.146	0.052
-579.792	-123.611	0.438	0.070
-578.777	54.026	0.139	-0.136
-577.763	-200.000	-0.006	-0.038
-576.748	-75.372	-0.115	0.041
-575.733	-200.000	0.012	0.070
-574.719	-200.000	0.001	-0.149
-573.704	25.153	0.132	-0.111
-572.690	-200.000	-0.001	0.144
-571.675	800.000	0.080	0.225
-570.661	-200.000	0.010	-0.163
-569.646	9.453	-0.161	0.123
-568.631	-200.000	-0.050	-0.269
-567.617	246.928	0.085	-0.144
-566.602	86.215	-0.083	-0.092
-565.588	504.238	-0.067	-0.157
-564.573	-80.057	-0.175	0.059
-563.558	19.020	-0.226	-0.183
-562.544	110.129	0.170	0.206
-561.529	-138.380	-0.362	0.040
-560.515	800.000	0.103	0.364
-559.500	102.380	-0.173	-0.205
-558.485	-120.847	-0.118	-0.020
-557.471	-93.063	0.109	0.031
-556.456	119.989	-0.136	0.170
-555.442	-64.601	-0.172	-0.071
-554.427	-94.253	0.232	0.064
-553.412	800.000	-0.065	0.236
-552.398	-93.739	0.343	-0.096
-551.383	43.742	0.358	0.331
-550.369	-136.119	-0.392	0.046
-549.354	-114.052	-0.040	-0.008
-548.339	-119.750	0.203	-0.035
-547.325	-114.528	-0.254	0.049
-546.310	262.443	-0.072	-0.126
-545.296	-79.129	0.126	-0.043
-544.281	-134.816	0.075	-0.009
-543.266	800.000	0.082	-0.256
-542.252	571.704	0.176	-0.434
-541.237	-200.000	0.033	0.371
-540.223	-120.765	0.183	-0.031
-539.208	-105.367	-0.186	-0.043
-538.193	72.272	-0.259	0.272
-537.179	-25.038	0.223	0.133
-536.164	397.381	-0.213	-0.449
-535.150	27.709	-0.038	0.033
-534.135	-152.990	-0.225	0.016
-533.121	800.000	-0.061	0.264
-532.106	64.695	0.256	0.260
-531.091	132.856	0.098	0.128
-530.077	-137.156	-0.058	-0.007
-529.062	-111.191	0.228	-0.047
-528.048	-200.000	0.026	0.192
-527.033	-200.000	0.016	0.121
-526.018	523.150	-0.084	0.199
-525.004	-55.538	0.190	-0.086
-523.989	800.000	-0.065	-0.253
-522.975	-200.000	-0.027	-0.144
-521.960	800.000	-0.073	-0.320
-520.945	-117.128	-0.282	0.052
-519.931	365.961	-0.194	0.394
-518.916	28.346	0.237	-0.202
-517.902	-50.191	0.299	-0.143
-516.887	17.021	0.077	-0.062
-515.872	-174.680	0.227	0.006
-514.858	-200.000	0.024	-0.149
-513.843	475.184	0.166	0.379
-512.829	11.100	-0.079	0.061
-511.814	436.098	-0.077	-0.170
-510.799	-56.778	-0.305	0.136
-509.785	-107.819	0.308	-0.068
-508.770	800.000	-0.083	-0.253
-507.756	52.985	-0.199	-0.192
-506.741	288.301	-0.057	-0.104
-505.726	-64.754	0.117	0.048
-504.712	103.872	0.118	-0.140
-503.697	-109.546	-0.203	0.043
-502.683	-181.812	-0.207	0.004
-501.668	-59.113	0.168	-0.073
-500.653	90.452	0.298	-0.336
-499.639	527.063	-0.147	0.349
-498.624	800.000	-0.071	0.254
-497.610	-62.591	0.216	-0.090
-496.595	-124.968	-0.256	-0.040
-495.581	156.988	-0.043	0.060
-494.566	-171.560	-0.049	0.002
-493.551	-102.473	-0.191	-0.046
-492.537	-200.000	0.004	-0.108
-491.522	-99.687	-0.041	0.010
-490.508	800.000	0.099	-0.305
-489.493	-63.453	0.050	-0.021
-488.478	-35.299	-0.020	-0.011
-487.464	7.243	0.122	0.092
-486.449	453.971	-0.081	0.181
-485.435	52.773	-0.125	-0.120
-484.420	-16.204	0.260	-0.167
-483.405	25.365	0.140	-0.117
-482.391	-171.616	0.276	0.009
-481.376	800.000	0.044	-0.159
-480.362	-10.169	0.177	0.118
-479.347	-200.000	-0.014	-0.148
-478.332	-183.485	0.076	-0.001
-477.318	-82.899	-0.032	-0.010
-476.303	800.000	0.029	0.090
-475.289	-48.101	-0.215	-0.104
-474.274	-77.264	-0.061	0.022
-473.259	17.904	0.226	-0.181
-472.245	-200.000	0.032	-0.380
-471.230	86.202	0.141	-0.157
-470.216	122.856	0.098	0.123
-469.201	94.115	0.118	-0.134
-468.186	171.112	-0.055	0.079
-467.172	-40.718	0.026	0.013
-466.157	-55.078	-0.249	0.113
-465.143	800.000	-0.045	-0.138
-464.128	114.609	-0.076	-0.093
-463.113	173.673	0.191	-0.278
-462.099	-65.645	0.388	-0.156
-461.084	226.339	0.187	0.305
-460.070	195.748	-0.126	0.193
-459.055	-14.839	-0.194	0.125
-458.040	-134.324	0.249	0.031
-457.026	289.020	-0.101	0.184
-456.011	-200.000	-0.025	-0.115
-454.997	-115.989	-0.190	0.036
-453.982	-108.624	-0.229	0.050
-452.968	-67.959	0.099	-0.039
-451.953	-36.022	-0.093	-0.051
-450.938	164.389	-0.196	0.279
-449.924	85.265	0.292	0.323
-448.909	-74.202	-0.053	-0.019
-447.895	412.471	-0.090	-0.191
-446.880	800.000	0.012	-0.049
-445.865	19.484	-0.278	-0.225
-444.851	309.241	-0.037	-0.069
-443.836	800.000	0.009	0.028
-442.822	800.000	-0.019	-0.058
-441.807	-106.039	-0.070	-0.016
-440.792	-137.763	0.105	-0.012
-439.778	-200.000	0.038	-0.264
-438.763	87.804	-0.232	-0.258
-437.749	-18.215	0.029	-0.018
-436.734	299.316	0.143	0.265
-435.719	-134.677	-0.438	-0.054
-434.705	-103.352	-0.101	0.024
-433.690	-75.412	0.255	-0.091
-432.676	-69.389	0.309	-0.119
-431.661	-187.829	-0.249	0.003
-430.646	-104.177	0.289	0.068
-429.632	800.000	-0.050	0.214
-428.617	800.000	-0.057	-0.181
-427.603	93.709	0.070	-0.080
-426.588	136.045	0.198	-0.259
-425.573	-30.024	0.147	-0.084
-424.559	-166.602	-0.352	-0.015
-423.544	-11.274	0.197	-0.131
-422.530	-200.000	0.017	-0.166
-421.515	-151.253	-0.389	-0.029
-420.500	193.952	-0.124	-0.189
-419.486	-116.556	-0.098	0.018
-418.471	56.841	0.243	0.238
-417.457	-123.944	0.037	-0.006
-416.442	-96.438	0.142	-0.038
-415.428	532.429	0.050	0.118
-414.413	288.058	0.152	0.276
-413.398	64.755	-0.173	0.175
-412.384	-174.724	0.087	0.002
-411.369	-2.309	-0.055	0.039
-410.355	8.504	-0.205	-0.155
-409.340	161.340	-0.136	-0.190
-408.325	-200.000	-0.005	-0.240
-407.311	-194.464	0.240	-0.002
-406.296	-200.000	-0.012	0.463
-405.282	-200.000	0.003	-0.130
-404.267	-200.000	-0.018	0.142
-403.252	-17.617	-0.092	0.058
-402.238	-28.662	0.390	0.225
-401.223	-54.575	0.234	0.106
-400.209	-61.655	-0.408	0.172
-399.194	-78.192	-0.403	0.139
-398.179	800.000	-0.108	-0.381
-397.165	-200.000	0.026	-0.139
-396.150	74.380	-0.037	0.039
-395.136	174.814	0.089	-0.129
-394.121	-200.000	-0.028	0.141
-393.106	-200.000	-0.018	0.176
-392.092	-134.022	-0.029	-0.004
-391.077	800.000	0.109	-0.331
-390.063	98.189	0.085	-0.098
-389.048	-200.000	-0.013	-0.102
-388.033	-53.056	-0.188	0.087
-387.019	264.132	-0.085	-0.149
-386.004	618.072	-0.059	-0.150
-384.990	-4.352	0.110	-0.076
-383.975	137.793	-0.168	0.220
-382.960	-28.928	-0.148	0.086
-381.946	55.003	0.210	0.204
-380.931	221.125	0.278	0.448
-379.917	-159.687	-0.132	-0.007
-378.902	-116.902	0.109	0.020
-377.888	-200.000	0.093	0.506
-376.873	15.085	-0.122	0.096
-375.858	58.749	0.150	0.148
-374.844	-200.000	-0.125	0.000
-373.829	-184.510	-0.339	-0.006
-372.815	81.665	-0.082	-0.089
-371.800	-200.000	-0.150	0.000
-370.785	-44.131	0.263	-0.132
-369.771	236.305	-0.097	0.161
-368.756	68.020	0.189	0.194
-367.742	-88.004	0.241	0.072
-366.727	-200.000	-0.054	0.264
-365.712	197.357	-0.025	0.039
-364.698	643.740	0.103	-0.263
-363.683	800.000	-0.046	-0.134
-362.669	172.997	0.253	0.366
-361.654	800.000	-0.045	-0.156
-360.639	4.231	-0.118	-0.086
-359.625	-51.627	0.162	0.076
-358.610	386.908	0.071	0.148
-357.596	316.819	0.114	-0.216
-356.581	-200.000	-0.034	0.195
-355.566	800.000	-0.072	-0.253
-354.552	-11.689	0.027	-0.018
-353.537	-137.515	-0.189	-0.021
-352.523	-112.616	0.385	0.077
-351.508	-174.390	-0.181	-0.005
-350.493	800.000	0.131	0.370
-349.479	-15.430	-0.411	0.263
-348.464	-114.580	0.065	0.012
-347.450	44.368	0.026	-0.024
-346.435	8.606	-0.178	-0.134
-345.420	-60.011	0.341	0.146
-344.406	-96.161	0.346	0.092
-343.391	-98.467	0.105	0.027
-342.377	-200.000	0.001	0.117
-341.362	-200.000	-0.013	0.278
-340.348	344.366	0.059	0.115
-339.333	-174.787	0.117	-0.003
-338.318	-78.813	0.147	-0.050
-337.304	52.241	-0.174	0.166
-336.289	318.949	-0.121	-0.230
-335.275	-1.714	0.234	0.165
-334.260	-200.000	-0.019	-0.321
-333.245	-52.082	0.278	-0.129
-332.231	800.000	-0.098	-0.417
-331.216	-200.000	-0.001	0.327
-330.202	-200.000	-0.031	0.158
-329.187	360.144	0.146	0.293
-328.172	9.917	-0.246	-0.187
-327.158	-183.398	0.257	-0.004
-326.143	279.015	0.058	-0.104
-325.129	-46.303	-0.043	0.021
-324.114	197.392	-0.168	0.257
-323.099	-1.413	-0.142	-0.100
-322.085	121.904	0.094	-0.117
-321.070	232.742	-0.124	0.204
-320.056	127.770	0.103	0.131
-319.041	-100.742	-0.067	0.017
-318.026	230.822	0.113	-0.185
-317.012	125.359	-0.138	-0.174
-315.997	-108.675	-0.037	-0.008
-314.983	-153.265	0.169	0.012
-313.968	-36.059	0.115	-0.062
-312.953	-117.047	-0.479	-0.088
-311.939	-33.584	-0.110	-0.061
-310.924	405.299	0.146	0.308
-309.910	76.439	0.197	0.209
-308.895	-62.233	-0.416	0.173
-307.880	94.551	-0.283	0.322
-306.866	-138.361	0.251	0.028
-305.851	-200.000	0.019	0.152
-304.837	331.161	0.117	-0.225
-303.822	8.091	0.331	0.248
-302.807	65.511	-0.175	-0.178
-301.793	465.210	0.224	-0.501
-300.778	59.792	0.093	-0.092
-299.764	-171.236	-0.185	0.006
-298.749	-127.159	0.273	0.040
-297.735	92.433	-0.086	0.097
-296.720	-200.000	-0.010	-0.170
-295.705	-64.517	-0.218	-0.089
-294.691	213.878	0.100	-0.159
-293.676	-70.423	0.092	-0.035
-292.662	-105.219	-0.182	0.042
-291.647	-41.504	0.090	-0.047
-290.632	-33.191	0.092	-0.051
-289.618	-56.665	-0.099	0.044
-288.603	-103.685	0.150	-0.035
-287.589	800.000	-0.023	-0.096
-286.574	800.000	-0.028	-0.105
-285.559	-135.166	-0.288	-0.035
-284.545	-164.388	-0.377	-0.017
-283.530	-200.000	-0.059	0.366
-282.516	-53.245	-0.057	-0.026
-281.501	-200.000	0.020	0.301
-280.486	7.723	0.054	0.040
-279.472	-62.196	0.165	0.069
-278.457	121.481	0.087	-0.108
-277.443	-200.000	0.009	0.311
-276.428	-200.000	0.038	-0.263
-275.413	800.000	-0.045	-0.166
-274.399	800.000	-0.015	-0.052
-273.384	-146.910	0.066	0.006
-272.370	-152.755	0.087	0.006
-271.355	382.965	0.087	-0.178
-270.340	118.572	0.228	-0.281
-269.326	-200.000	0.011	0.163
-268.311	800.000	-0.027	-0.094
-267.297	-200.000	0.001	-0.170
-266.282	-92.800	-0.148	0.041
-265.267	37.481	0.125	0.111
-264.253	615.171	0.043	-0.107
-263.238	190.311	0.032	-0.048
-262.224	-126.264	0.163	-0.024
-261.209	148.354	0.244	0.329
-260.195	-200.000	0.053	0.259
-259.180	609.633	0.105	-0.263
-258.165	-112.324	0.077	-0.015
-257.151	64.614	-0.087	-0.088
-256.136	-169.930	-0.229	-0.008
-255.122	7.336	-0.115	0.086
-254.107	-66.021	-0.209	0.083
-253.092	46.766	0.052	0.048
-252.078	1.949	-0.023	-0.016
-251.063	126.776	-0.115	-0.145
-250.049	-7.759	0.174	-0.118
-249.034	-96.377	-0.061	-0.016
-248.019	-50.272	-0.102	-0.048
-247.005	-99.741	0.196	0.049
-245.990	-35.877	-0.174	0.094
-244.976	-200.000	0.046	0.227
-243.961	12.615	0.105	0.081
-242.946	14.904	-0.314	0.245
-241.932	-200.000	-0.059	0.271
-240.917	-200.000	0.052	-0.257
-239.903	-112.186	-0.319	0.064
-238.888	-81.169	-0.038	0.013
-237.873	506.474	0.043	0.100
-236.859	-137.016	0.241	-0.028
-235.844	174.276	-0.185	-0.267
-234.830	262.682	0.029	-0.049
-233.815	113.312	-0.104	-0.126
-232.800	800.000	-0.023	0.078
-231.786	364.748	0.073	-0.147
-230.771	-133.480	-0.108	0.013
-229.757	-76.681	0.091	0.032
-228.742	-39.747	-0.251	-0.131
-227.727	-200.000	0.060	0.442
-226.713	-60.087	-0.228	-0.097
-225.698	86.392	-0.181	-0.199
-224.684	-200.000	-0.006	-0.061
-223.669	-83.844	-0.469	-0.149
-222.655	-199.100	0.082	-0.000
-221.640	-105.654	-0.421	0.095
-220.625	137.954	0.139	-0.182
-219.611	6.988	0.102	-0.076
-218.596	-200.000	-0.017	-0.384
-217.582	38.357	-0.163	0.144
-216.567	-6.555	0.248	-0.168
-215.552	-96.953	0.182	0.048
-214.538	32.868	0.268	0.232
-213.523	4.035	0.115	-0.084
-212.509	800.000	-0.029	0.110
-211.494	-104.448	-0.172	0.040
-210.479	800.000	0.055	-0.242
-209.465	2.849	0.080	0.058
-208.450	-200.000	-0.048	0.415
-207.436	-200.000	0.018	-0.251
-206.421	-200.000	-0.002	0.218
-205.406	800.000	0.034	0.146
-204.392	-5.651	0.076	0.052
-203.377	-61.551	-0.051	-0.022
-202.363	-74.395	-0.237	-0.085
-201.348	800.000	0.050	-0.203
-200.333	184.156	-0.067	0.099
-199.319	-200.000	0.017	0.197
-198.304	24.852	0.125	-0.104
-197.290	-200.000	-0.012	0.107
-196.275	-95.361	-0.054	-0.015
-195.260	-200.000	0.072	-0.344
-194.246	-47.139	0.186	-0.090
-193.231	-200.000	0.047	0.297
-192.217	-200.000	0.352	-0.001
-191.202	572.965	-0.042	0.102
-190.187	-55.079	-0.194	-0.087
-189.173	-109.656	0.051	0.011
-188.158	-85.145	-0.034	-0.011
-187.144	800.000	0.037	0.107
-186.129	-25.756	-0.101	0.059
-185.114	-200.000	-0.049	-0.248
-184.100	-78.738	-0.226	-0.077
-183.085	-41.130	0.097	-0.050
-182.071	-9.293	-0.306	-0.204
-181.056	-108.621	0.249	0.053
-180.042	45.757	-0.192	0.177
-179.027	15.250	0.252	-0.197
-178.012	106.271	0.222	-0.262
-176.998	42.076	0.176	-0.159
-175.983	800.000	-0.027	-0.075
-174.969	-15.425	-0.276	0.176
-173.954	593.707	-0.055	-0.135
-172.939	59.177	0.076	0.075
-171.925	-16.087	0.292	0.185
-170.910	-200.000	0.045	0.211
-169.896	7.316	-0.081	0.060
-168.881	-200.000	-0.011	0.304
-167.866	301.723	-0.046	0.084
-166.852	-85.167	0.221	-0.069
-165.837	800.000	0.085	0.339
-164.823	800.000	0.063	0.246
-163.808	295.710	0.051	-0.092
-162.793	588.280	0.090	0.221
-161.779	-116.050	0.199	0.037
-160.764	-135.377	-0.204	0.024
-159.750	-200.000	0.010	-0.332
-158.735	-50.720	0.135	0.063
-157.720	-200.000	0.019	0.296
-156.706	107.444	0.232	0.274
-155.691	-164.574	-0.325	-0.015
-154.677	-200.000	-0.001	-0.077
-153.662	90.714	-0.115	-0.129
-152.647	-25.944	-0.175	-0.102
-151.633	-68.969	-0.142	0.054
-150.618	-51.519	0.066	-0.031
-149.604	461.785	-0.038	-0.083
-148.589	-83.346	-0.483	-0.154
-147.574	-24.641	0.128	-0.075
-146.560	-28.575	0.115	0.066
-145.545	41.160	0.192	-0.173
-144.531	52.428	0.200	-0.190
-143.516	-68.181	0.405	-0.157
-142.502	62.734	0.101	-0.100
-141.487	207.306	-0.258	0.400
-140.472	-67.566	-0.166	-0.065
-139.458	-200.000	-0.016	0.179
-138.443	-22.718	-0.289	0.174
-137.429	-91.266	0.396	-0.113
-136.414	205.913	-0.244	0.377
-135.399	-71.750	0.162	0.060
-134.385	-200.000	-0.038	-0.520
-133.370	-57.682	0.100	-0.044
-132.356	-79.874	0.301	0.101
-131.341	-128.021	-0.147	-0.021
-130.326	264.601	-0.163	-0.283
-129.312	-103.525	0.141	-0.033
-128.297	234.061	0.080	0.131
-127.283	-79.788	-0.134	-0.045
-126.268	260.505	0.113	0.195
-125.253	-200.000	-0.009	-0.277
-124.239	-147.967	0.060	-0.005
-123.224	-200.000	0.008	-0.277
-122.210	207.141	-0.121	-0.187
