DTS Sentinel unit serial number:	SN413079Multiplexer serial number:	ORYXHardware model number:	OX4-SRSoftware version number:	ORYX F/W v4.00 Oryx Data Collector v3.7.2.0data status	okinstallation	princeton_trtdifferential loss correction	single-endedforward channel	channel 3reverse channel	N/Adate	2019/09/12time	18:34:04forward acquisition time	15.00reverse acquisition time	0.00gamma	496.2192k internal	0.2317k external	0.2317temperature offset calibration	1.0093default loss term (dB/km)	0.3790temperature slope calibration	1.0000multiplexer offset coefficient	1.0000multiplexer slope coefficient	1.0000fibre end	0.00T internal ref (°C)	33.19T ext. ref 1 (°C)	2.96T ext. ref 2 (°C)	27.75length (m)	temperature (°C)	Stokes	anti-Stokes-747.200	147.054	0.200	0.272
-746.185	310.128	-0.246	0.466
-745.171	-133.924	0.379	-0.048
-744.156	-101.362	-0.118	-0.029
-743.142	-6.350	-0.077	-0.053
-742.127	-78.206	0.480	-0.167
-741.112	22.208	0.371	0.306
-740.098	107.413	-0.369	-0.444
-739.083	-14.683	-0.737	-0.479
-738.069	-146.377	-1.497	0.132
-737.054	-5.121	-0.246	0.171
-736.039	391.079	0.231	-0.486
-735.025	161.400	0.209	0.296
-734.010	800.000	0.138	-0.438
-732.996	-11.938	-0.695	-0.461
-731.981	255.653	-0.297	0.514
-730.966	56.568	-0.179	0.176
-729.952	329.598	0.106	-0.206
-728.937	-200.000	-0.097	-0.580
-727.923	245.578	-0.293	-0.498
-726.908	-119.963	-0.517	0.090
-725.894	-165.216	0.428	0.019
-724.879	150.172	0.036	0.049
-723.864	-85.922	0.311	-0.097
-722.850	-42.467	-0.509	0.262
-721.835	-94.809	-0.513	-0.141
-720.821	-118.940	-0.821	-0.146
-719.806	218.300	-0.577	-0.932
-718.791	312.900	0.526	-1.000
-717.777	-200.000	-0.098	-1.005
-716.762	507.233	0.446	-1.047
-715.748	-16.212	-0.366	-0.235
-714.733	212.961	-0.377	0.602
-713.718	405.482	0.051	-0.108
-712.704	-67.392	-0.731	-0.291
-711.689	-200.000	-0.050	-0.939
-710.675	-121.132	-0.210	0.036
-709.660	-22.327	-0.590	-0.362
-708.645	-103.875	0.353	-0.083
-707.631	11.407	0.192	-0.149
-706.616	-200.000	0.159	0.845
-705.602	119.808	-0.153	0.192
-704.587	800.000	-0.146	0.419
-703.572	289.841	-0.561	-1.029
-702.558	-35.074	0.550	0.303
-701.543	690.725	0.082	0.217
-700.529	-99.516	0.812	0.206
-699.514	166.771	0.254	-0.364
-698.499	91.707	0.466	-0.529
-697.485	-50.106	0.526	-0.252
-696.470	6.062	-0.292	-0.219
-695.456	17.676	-0.750	0.603
-694.441	800.000	-0.172	-0.611
-693.426	-40.815	-0.304	0.159
-692.412	-200.000	-0.054	-1.011
-691.397	296.182	0.368	-0.681
-690.383	155.285	0.456	0.635
-689.368	-58.184	-0.984	0.433
-688.354	800.000	0.045	0.161
-687.339	-67.569	0.334	-0.132
-686.324	64.461	0.500	0.509
-685.310	47.660	-0.520	0.490
-684.295	800.000	-0.222	-0.703
-683.281	-73.365	-0.119	0.044
-682.266	8.370	-0.474	0.360
-681.251	100.212	0.469	-0.549
-680.237	-200.000	0.061	-1.221
-679.222	-82.618	0.568	-0.186
-678.208	-200.000	0.063	0.561
-677.193	800.000	0.158	0.555
-676.178	800.000	-0.120	0.514
-675.164	65.609	0.292	0.299
-674.149	800.000	0.266	-0.909
-673.135	800.000	0.175	0.547
-672.120	98.329	-0.643	-0.748
-671.105	-200.000	-0.063	-0.563
-670.091	-200.000	-0.061	-0.552
-669.076	-19.405	-0.643	-0.402
-668.062	-55.919	0.626	0.282
-667.047	800.000	0.163	0.559
-666.032	635.848	0.429	-1.099
-665.018	264.015	0.321	-0.564
-664.003	16.089	-0.332	-0.264
-662.989	-64.273	-0.519	-0.213
-661.974	206.689	-0.268	0.421
-660.959	-81.915	-0.657	0.217
-659.945	683.348	-0.224	-0.590
-658.930	-200.000	-0.035	0.424
-657.916	-200.000	0.000	0.185
-656.901	-10.038	0.624	-0.418
-655.886	-104.068	0.552	-0.130
-654.872	47.664	0.318	-0.300
-653.857	-200.000	0.078	0.452
-652.843	44.062	-0.608	-0.562
-651.828	449.533	-0.209	0.465
-650.814	800.000	-0.149	0.526
-649.799	674.690	-0.325	-0.850
-648.784	800.000	-0.226	0.647
-647.770	-77.950	0.506	-0.176
-646.755	800.000	0.130	-0.390
-645.741	-169.922	0.356	0.013
-644.726	-200.000	0.029	-0.309
-643.711	-34.554	0.132	-0.073
-642.697	-79.565	-0.656	0.223
-641.682	236.984	0.212	-0.355
-640.668	800.000	-0.240	-0.877
-639.653	-200.000	0.251	-1.285
-638.638	231.334	-0.208	-0.344
-637.624	82.759	-0.877	0.960
-636.609	-2.176	0.393	0.278
-635.595	800.000	0.096	0.397
-634.580	59.809	-0.646	0.643
-633.565	131.981	-0.517	0.671
-632.551	-56.440	-0.060	0.027
-631.536	-116.588	-0.427	-0.079
-630.522	-22.492	-0.487	-0.297
-629.507	-200.000	0.032	-0.706
-628.492	-200.000	-0.039	-0.898
-627.478	289.466	0.332	-0.607
-626.463	182.363	-0.461	-0.684
-625.449	154.440	0.251	0.347
-624.434	59.496	-0.191	0.189
-623.419	-46.142	-0.300	0.149
-622.405	-70.205	-0.222	0.085
-621.390	-159.649	0.580	-0.032
-620.376	-129.466	0.314	-0.044
-619.361	-200.000	0.131	-0.608
-618.346	800.000	0.174	-0.610
-617.332	78.501	-0.670	-0.721
-616.317	538.477	0.148	-0.353
-615.303	-57.794	0.491	0.216
-614.288	-200.000	0.067	0.357
-613.273	502.957	0.290	0.675
-612.259	800.000	-0.177	-0.645
-611.244	800.000	-0.152	-0.444
-610.230	-78.659	-0.340	-0.117
-609.215	-6.119	0.547	0.376
-608.201	-200.000	-0.022	0.465
-607.186	-127.098	-0.610	-0.090
-606.171	-123.813	-0.546	-0.087
-605.157	800.000	-0.133	0.537
-604.142	-174.796	-0.369	-0.010
-603.128	229.065	0.091	-0.150
-602.113	-127.413	0.349	0.051
-601.098	-114.982	0.435	-0.083
-600.084	-142.515	0.321	0.032
-599.069	-96.420	0.592	-0.158
-598.055	800.000	0.333	-1.157
-597.040	-200.000	-0.095	-1.343
-596.025	-114.708	-0.124	0.024
-595.011	-78.385	-0.423	-0.146
-593.996	-200.000	-0.103	1.258
-592.982	41.079	0.260	-0.236
-591.967	48.306	0.492	0.463
-590.952	175.449	-0.081	-0.118
-589.938	418.894	0.169	0.364
-588.923	-35.187	-0.268	0.147
-587.909	-200.000	0.014	-0.473
-586.894	306.879	-0.398	0.746
-585.879	-200.000	0.019	-0.882
-584.865	-44.061	-0.191	0.096
-583.850	82.077	-0.458	0.499
-582.836	24.135	0.098	0.081
-581.821	-51.065	-0.303	-0.143
-580.806	-200.000	0.034	-0.220
-579.792	11.070	0.191	-0.147
-578.777	76.263	-0.366	-0.389
-577.763	-75.129	0.351	-0.126
-576.748	155.947	0.101	-0.140
-575.733	-196.641	0.036	0.000
-574.719	800.000	0.023	0.064
-573.704	-150.890	0.672	0.051
-572.690	-71.175	-0.162	-0.061
-571.675	800.000	0.185	-0.625
-570.661	31.938	0.326	0.283
-569.646	58.211	-0.098	-0.096
-568.631	505.324	0.194	0.452
-567.617	21.688	0.584	0.478
-566.602	102.013	0.327	0.384
-565.588	-200.000	-0.008	-0.123
-564.573	-200.000	0.106	-0.711
-563.558	800.000	0.196	-0.815
-562.544	-8.889	0.425	0.286
-561.529	160.027	0.179	0.251
-560.515	263.465	-0.233	0.408
-559.500	800.000	0.209	-0.796
-558.485	-155.800	0.279	0.018
-557.471	-0.497	0.623	0.445
-556.456	-142.789	-0.134	0.013
-555.442	800.000	-0.142	0.449
-554.427	-200.000	-0.006	0.323
-553.412	-53.277	0.512	-0.236
-552.398	-55.252	-0.756	0.341
-551.383	800.000	0.110	0.381
-550.369	410.774	0.299	-0.637
-549.354	-47.101	-0.411	-0.202
-548.339	800.000	-0.164	0.466
-547.325	334.290	0.171	-0.333
-546.310	-27.719	0.513	0.299
-545.296	-4.599	-0.462	0.320
-544.281	-90.842	0.356	-0.103
-543.266	-122.545	-1.063	-0.174
-542.252	240.830	0.401	-0.671
-541.237	-75.042	-0.064	-0.023
-540.223	-128.521	-0.814	-0.116
-539.208	29.569	-0.245	0.210
-538.193	-128.068	-0.652	-0.094
-537.179	252.221	0.144	-0.246
-536.164	163.668	0.039	0.055
-535.150	-187.055	0.306	-0.004
-534.135	-38.970	0.183	0.097
-533.121	43.020	-0.271	-0.248
-532.106	-200.000	0.081	-0.405
-531.091	368.076	-0.165	-0.334
-530.077	6.733	0.391	0.292
-529.062	-59.653	0.385	-0.166
-528.048	-110.363	-0.719	0.150
-527.033	800.000	-0.088	0.352
-526.018	-200.000	-0.082	-0.500
-525.004	-23.526	0.252	0.152
-523.989	-200.000	-0.007	0.564
-522.975	-200.000	-0.044	0.928
-521.960	800.000	0.102	-0.382
-520.945	-200.000	0.040	0.242
-519.931	-159.938	0.453	-0.025
-518.916	-200.000	0.001	-0.863
-517.902	-200.000	-0.034	0.189
-516.887	-8.250	0.420	-0.284
-515.872	-200.000	0.022	-0.295
-514.858	163.382	-0.391	-0.552
-513.843	-64.032	0.874	0.358
-512.829	-200.000	-0.053	0.515
-511.814	42.530	-0.305	-0.279
-510.799	800.000	-0.091	-0.270
-509.785	-163.480	-1.062	0.051
-508.770	316.397	0.122	-0.232
-507.756	-14.312	0.395	0.255
-506.741	-200.000	0.128	0.956
-505.726	-200.000	0.070	-0.658
-504.712	38.918	0.239	-0.214
-503.697	-107.007	-0.126	0.028
-502.683	130.262	-0.367	-0.471
-501.668	233.290	-0.075	-0.124
-500.653	638.041	-0.275	0.702
-499.639	-200.000	-0.014	0.725
-498.624	-14.725	0.720	0.464
-497.610	-200.000	-0.032	0.506
-496.595	-162.445	-0.247	0.012
-495.581	496.593	-0.357	-0.823
-494.566	-146.120	0.647	0.057
-493.551	151.357	-0.369	-0.504
-492.537	138.069	0.186	0.244
-491.522	-64.169	0.195	-0.080
-490.508	-116.571	0.233	-0.043
-489.493	-61.656	0.390	-0.164
-488.478	-162.753	-0.507	-0.025
-487.464	341.940	0.359	0.703
-486.449	-89.761	-0.060	0.018
-485.435	-200.000	-0.017	0.806
-484.420	342.346	0.090	0.176
-483.405	80.296	0.854	-0.921
-482.391	800.000	0.305	-0.913
-481.376	134.179	-0.432	0.561
-480.362	333.964	-0.108	-0.210
-479.347	104.855	0.342	0.404
-478.332	800.000	0.118	0.483
-477.318	-169.531	-1.215	-0.044
-476.303	-200.000	0.036	-0.164
-475.289	-200.000	-0.181	1.275
-474.274	23.853	0.287	0.237
-473.259	-200.000	-0.085	0.391
-472.245	135.717	0.424	0.553
-471.230	-164.355	0.162	-0.007
-470.216	2.115	-0.545	-0.394
-469.201	-82.941	0.572	0.185
-468.186	21.667	0.616	0.502
-467.172	22.703	0.489	-0.401
-466.157	-50.735	-0.434	0.205
-465.143	-112.371	-1.013	0.203
-464.128	6.102	0.155	-0.115
-463.113	-8.758	0.431	0.289
-462.099	-24.518	0.345	0.206
-461.084	107.703	-0.071	0.084
-460.070	-200.000	-0.057	-0.256
-459.055	126.501	0.182	-0.231
-458.040	112.117	0.168	0.204
-457.026	-200.000	0.059	-0.716
-456.011	-73.097	0.130	-0.048
-454.997	20.120	-0.388	0.314
-453.982	-90.324	-0.656	0.191
-452.968	464.983	-0.205	-0.460
-451.953	-200.000	-0.117	-0.949
-450.938	3.681	-0.399	-0.291
-449.924	-168.537	0.325	0.012
-448.909	-41.261	-0.529	-0.273
-447.895	-144.409	-0.358	0.033
-446.880	-40.985	-0.081	-0.042
-445.865	-45.189	-0.317	-0.158
-444.851	66.026	-0.513	-0.521
-443.836	-61.947	0.241	-0.101
-442.822	-13.975	-0.754	0.487
-441.807	-200.000	0.133	0.596
-440.792	732.186	-0.290	-0.775
-439.778	447.261	0.391	-0.861
-438.763	-200.000	-0.016	0.815
-437.749	-81.991	0.236	-0.077
-436.734	-200.000	0.110	-0.533
-435.719	-18.350	-0.865	0.541
-434.705	37.801	-0.520	0.462
-433.690	15.137	-0.327	-0.257
-432.676	-200.000	0.055	0.703
-431.661	-137.242	-1.586	0.180
-430.646	-200.000	0.154	0.845
-429.632	-77.143	0.237	-0.082
-428.617	72.159	-0.299	-0.312
-427.603	93.754	-0.379	0.429
-426.588	-70.065	0.493	-0.188
-425.573	-152.374	0.501	-0.036
-424.559	-34.640	0.742	0.406
-423.544	800.000	0.090	-0.298
-422.530	216.157	-0.161	-0.256
-421.515	20.717	-0.163	0.132
-420.500	-34.729	0.411	0.224
-419.486	-200.000	-0.163	0.787
-418.471	3.219	-0.347	-0.252
-417.457	19.884	0.683	-0.550
-416.442	-70.990	0.210	0.079
-415.428	-55.430	-0.446	0.200
-414.413	206.947	0.242	0.376
-413.398	-24.527	0.690	0.411
-412.384	95.647	0.147	0.168
-411.369	175.122	0.475	-0.687
-410.355	-105.913	-0.216	0.049
-409.340	157.595	1.031	-1.426
-408.325	45.484	-0.210	-0.193
-407.311	-200.000	0.003	0.473
-406.296	-200.000	-0.034	-0.555
-405.282	243.409	-0.145	0.243
-404.267	-123.786	0.666	-0.105
-403.252	70.733	-0.304	-0.314
-402.238	800.000	0.222	-0.721
-401.223	800.000	0.054	0.180
-400.209	333.955	-0.125	0.242
-399.194	512.905	-0.152	-0.353
-398.179	-59.406	-0.330	0.142
-397.165	153.602	0.601	0.823
-396.150	-48.668	-0.179	0.086
-395.136	-63.056	0.197	0.081
-394.121	-47.636	1.483	0.719
-393.106	-124.729	-0.524	0.081
-392.092	221.377	-0.370	0.594
-391.077	-149.996	-0.398	-0.031
-390.063	800.000	0.091	0.290
-389.048	-136.675	0.844	-0.097
-388.033	800.000	0.141	-0.425
-387.019	33.944	-0.301	-0.262
-386.004	-48.286	-0.980	0.472
-384.990	800.000	0.049	-0.166
-383.975	-200.000	0.043	-0.336
-382.960	212.049	0.127	-0.200
-381.946	74.571	-0.493	-0.517
-380.931	-85.246	-0.690	0.215
-379.917	160.258	-0.286	0.398
-378.902	-109.114	0.751	0.159
-377.888	-68.288	-0.334	-0.130
-376.873	-137.303	-0.532	-0.060
-375.858	-200.000	-0.083	0.488
-374.844	-177.237	-0.798	0.020
-373.829	740.695	0.216	-0.580
-372.815	220.043	0.338	-0.541
-371.800	800.000	0.147	0.410
-370.785	28.531	-0.627	0.529
-369.771	-97.926	-0.675	0.174
-368.756	800.000	-0.183	-0.621
-367.742	800.000	0.110	-0.392
-366.727	451.366	-0.299	0.659
-365.712	526.868	-0.019	0.045
-364.698	-69.493	-0.442	0.169
-363.683	-75.212	-0.329	0.117
-362.669	122.859	-0.538	-0.672
-361.654	800.000	0.125	-0.416
-360.639	-61.877	0.261	0.109
-359.625	-144.742	0.646	-0.059
-358.610	-200.000	0.233	-1.037
-357.596	-200.000	0.204	-1.071
-356.581	-82.482	-0.836	0.271
-355.566	120.202	-0.198	0.245
-354.552	-5.819	0.565	-0.385
-353.537	-105.295	-0.972	0.221
-352.523	-24.891	0.418	-0.247
-351.508	800.000	0.175	0.653
-350.493	-200.000	0.012	-0.202
-349.479	368.261	-0.163	-0.328
-348.464	25.882	-0.586	-0.487
-347.450	-200.000	-0.010	-0.636
-346.435	-58.754	0.583	0.252
-345.420	45.694	0.188	0.174
-344.406	322.738	-0.225	-0.427
-343.391	239.774	-0.154	0.255
-342.377	31.348	0.200	0.171
-341.362	800.000	-0.103	0.369
-340.348	77.645	0.427	0.453
-339.333	-22.888	0.674	-0.405
-338.318	800.000	0.163	-0.688
-337.304	-29.883	0.328	0.186
-336.289	141.996	0.407	0.537
-335.275	60.815	-0.265	-0.262
-334.260	-200.000	0.071	0.651
-333.245	19.863	-0.255	0.205
-332.231	181.388	0.159	0.233
-331.216	-26.695	-0.379	-0.221
-330.202	173.987	0.296	0.425
-329.187	117.755	0.097	-0.119
-328.172	-24.835	-0.288	-0.171
-327.158	217.677	0.300	0.476
-326.143	-200.000	0.078	0.369
-325.129	-200.000	-0.105	-0.516
-324.114	83.995	0.932	-1.014
-323.099	-200.000	-0.008	-0.366
-322.085	-56.875	-0.723	0.318
-321.070	-24.508	0.313	0.185
-320.056	330.451	0.447	-0.858
-319.041	-161.692	0.230	-0.012
-318.026	-200.000	-0.174	0.810
-317.012	800.000	-0.061	0.200
-315.997	-33.504	-0.610	0.336
-314.983	-200.000	-0.050	0.220
-313.968	800.000	-0.192	-0.634
-312.953	-156.750	-0.147	-0.009
-311.939	563.087	-0.215	0.517
-310.924	-27.710	0.536	0.310
-309.910	-150.479	0.545	0.042
-308.895	-44.563	0.494	-0.246
-307.880	-98.588	-0.483	0.123
-306.866	100.278	0.604	-0.697
-305.851	-165.261	0.503	-0.022
-304.837	69.258	-0.582	0.596
-303.822	-200.000	-0.067	0.474
-302.807	-200.000	-0.061	0.650
-301.793	339.045	-0.187	-0.362
-300.778	-14.352	0.969	0.621
-299.764	-150.272	0.369	0.028
-298.749	43.297	-0.108	0.098
-297.735	-2.734	0.167	-0.116
-296.720	-200.000	0.047	0.520
-295.705	367.629	0.474	-0.952
-294.691	28.101	0.229	-0.192
-293.676	-200.000	0.056	-0.346
-292.662	-137.530	0.397	0.045
-291.647	-61.426	0.422	0.177
-290.632	509.658	0.049	0.113
-289.618	-200.000	0.173	0.852
-288.603	-24.745	-0.386	0.228
-287.589	95.925	0.668	-0.758
-286.574	-200.000	0.083	-0.494
-285.559	13.927	-0.578	0.447
-284.545	-17.274	0.291	0.182
-283.530	0.733	-0.647	-0.461
-282.516	-200.000	0.028	-0.422
-281.501	-79.714	-0.317	-0.106
-280.486	800.000	0.399	1.346
-279.472	-75.014	-0.398	-0.142
-278.457	330.311	-0.131	-0.251
-277.443	-7.749	-0.613	0.411
-276.428	-166.686	-0.201	0.008
-275.413	356.080	0.154	0.305
-274.399	-200.000	-0.088	-0.428
-273.384	262.137	-0.294	0.507
-272.370	-200.000	-0.138	0.812
-271.355	-200.000	-0.024	0.198
-270.340	800.000	0.094	-0.327
-269.326	-200.000	-0.073	-0.422
-268.311	128.453	0.589	-0.745
-267.297	103.136	-0.536	0.625
-266.282	-84.013	-0.494	0.156
-265.267	736.486	0.517	1.378
-264.253	56.377	0.401	0.387
-263.238	-200.000	-0.044	0.409
-262.224	-58.612	-0.272	0.117
-261.209	-47.159	-0.835	0.404
-260.195	129.554	0.245	0.311
-259.180	-64.278	-0.676	0.273
-258.165	49.380	-0.247	0.231
-257.151	-200.000	0.001	0.327
-256.136	-200.000	-0.056	-0.668
-255.122	60.534	0.192	0.189
-254.107	224.451	-0.149	0.239
-253.092	-2.450	-0.429	-0.298
-252.078	363.386	0.217	0.433
-251.063	213.775	-0.427	-0.670
-250.049	800.000	-0.093	-0.360
-249.034	156.577	-0.221	0.303
-248.019	-81.719	0.589	-0.192
-247.005	-100.230	-0.334	0.082
-245.990	-5.024	-0.424	0.290
-244.976	1.751	0.493	0.353
-243.961	800.000	0.105	0.308
-242.946	-37.686	0.608	0.322
-241.932	800.000	-0.137	0.442
-240.917	548.809	-0.148	0.352
-239.903	167.504	0.554	-0.782
-238.888	-14.159	0.310	-0.199
-237.873	85.691	0.405	-0.442
-236.859	-200.000	-0.038	-0.573
-235.844	-30.460	-0.420	0.236
-234.830	299.185	-0.488	0.892
-233.815	204.099	-0.165	-0.254
-232.800	-102.625	0.448	0.106
-231.786	-131.249	-0.940	0.124
-230.771	279.046	-0.344	0.609
-229.757	-92.781	0.619	0.172
-228.742	-200.000	-0.173	0.926
-227.727	-161.205	0.487	0.025
-226.713	199.188	-0.377	-0.573
-225.698	350.844	-0.399	0.784
-224.684	379.490	0.406	0.824
-223.669	110.427	-0.501	0.598
-222.655	-8.257	-0.161	0.107
-221.640	10.698	0.180	0.136
-220.625	-120.035	-0.524	-0.089
-219.611	52.643	-0.218	-0.207
-218.596	-72.249	-0.651	0.239
-217.582	465.503	0.202	-0.447
-216.567	-14.557	-0.380	-0.242
-215.552	308.340	-0.318	0.588
-214.538	-86.175	0.613	-0.188
-213.523	800.000	0.130	-0.505
-212.509	-106.615	0.476	-0.105
-211.494	-45.073	-0.230	-0.113
-210.479	-94.989	0.636	0.170
-209.465	-52.925	0.532	-0.243
-208.450	-163.314	0.714	0.034
-207.436	45.409	-0.866	-0.792
-206.421	800.000	-0.213	0.727
-205.406	-73.665	-0.176	-0.063
-204.392	237.639	0.501	0.824
-203.377	-200.000	-0.087	-0.382
-202.363	422.754	0.128	-0.272
-201.348	-95.024	-0.510	-0.137
-200.333	72.585	-0.320	0.330
-199.319	-71.266	-0.579	-0.215
-198.304	800.000	0.170	-0.668
-197.290	95.117	0.551	0.622
-196.275	-68.222	0.069	-0.026
-195.260	-122.229	1.334	0.216
-194.246	800.000	0.066	0.188
-193.231	329.663	0.352	0.671
-192.217	113.902	0.302	0.363
-191.202	792.275	-0.155	-0.423
-190.187	86.249	-0.464	-0.506
-189.173	800.000	-0.036	0.122
-188.158	66.766	-0.433	0.436
-187.144	304.653	0.225	0.413
-186.129	-200.000	0.052	0.359
-185.114	800.000	0.182	-0.621
-184.100	-52.618	-0.681	-0.312
-183.085	7.208	0.311	-0.230
-182.071	295.828	0.256	0.464
-181.056	-30.553	-0.394	-0.221
-180.042	6.339	0.411	0.302
-179.027	-200.000	-0.142	-0.906
-178.012	561.640	0.132	-0.315
-176.998	78.757	-0.869	-0.921
-175.983	-82.665	0.940	-0.301
-174.969	-200.000	-0.004	0.807
-173.954	420.483	-0.158	0.336
-172.939	-200.000	0.131	0.788
-171.925	67.045	0.455	-0.459
-170.910	-135.584	-0.422	-0.050
-169.896	-23.489	0.578	0.344
-168.881	-161.136	0.392	-0.020
-167.866	-121.663	0.581	0.095
-166.852	576.381	0.115	0.279
-165.837	-3.941	-0.305	-0.209
-164.823	136.020	0.440	-0.567
-163.808	-200.000	0.104	-0.968
-162.793	103.450	-0.385	-0.447
-161.779	40.734	0.197	-0.176
-160.764	107.996	-0.620	0.731
-159.750	133.230	0.238	-0.304
-158.735	-42.906	-0.262	0.132
-157.720	-33.675	-0.433	-0.236
-156.706	-18.872	0.702	0.432
-155.691	-81.964	-0.551	-0.178
-154.677	90.768	0.987	-1.094
-153.662	415.303	0.278	-0.585
-152.647	-16.490	-0.623	-0.391
-151.633	-15.244	0.142	-0.090
-150.618	-66.770	-0.845	-0.331
-149.604	-200.000	0.005	0.557
-148.589	54.893	-0.293	-0.280
-147.574	-200.000	0.122	-0.673
-146.560	275.230	-0.408	0.716
-145.545	-126.543	0.856	-0.126
-144.531	-15.876	-0.491	-0.309
-143.516	-74.045	0.251	-0.090
-142.502	-2.464	0.213	0.148
-141.487	24.387	0.112	0.092
-140.472	517.242	-0.370	0.856
-139.458	-117.917	0.983	0.174
-138.443	120.731	0.611	0.750
-137.429	-200.000	0.102	-0.706
-136.414	800.000	-0.168	0.555
-135.399	-184.215	-1.132	-0.019
-134.385	-200.000	-0.018	-0.478
-133.370	134.405	-0.320	-0.410
-132.356	-187.127	0.451	-0.006
-131.341	121.670	0.168	-0.207
-130.326	-18.867	0.652	0.401
-129.312	130.751	-0.362	-0.459
-128.297	433.607	-0.198	-0.425
-127.283	24.387	-0.297	0.243
-126.268	-200.000	-0.026	0.496
-125.253	117.786	-0.212	0.258
-124.239	-57.061	0.429	0.187
-123.224	179.635	0.189	0.274
-122.210	421.799	-0.147	0.311
-121.195	96.640	0.272	0.307
-120.180	800.000	0.129	0.548
