DTS Sentinel unit serial number:	SN413079Multiplexer serial number:	ORYXHardware model number:	OX4-SRSoftware version number:	ORYX F/W v4.00 Oryx Data Collector v3.7.2.0data status	okinstallation	princeton_trtdifferential loss correction	single-endedforward channel	channel 3reverse channel	N/Adate	2019/09/18time	11:08:35forward acquisition time	60.00reverse acquisition time	0.00gamma	496.2192k internal	0.2326k external	0.2326temperature offset calibration	0.9956default loss term (dB/km)	0.3790temperature slope calibration	1.0000multiplexer offset coefficient	1.0000multiplexer slope coefficient	1.0000fibre end	0.00T internal ref (°C)	29.56T ext. ref 1 (°C)	0.40T ext. ref 2 (°C)	26.42length (m)	temperature (°C)	Stokes	anti-Stokes-747.200	-32.187	0.033	0.019
-746.185	391.458	0.126	0.264
-745.171	-125.088	0.278	0.043
-744.156	-56.497	-0.456	-0.204
-743.142	-18.205	-0.064	0.040
-742.127	0.432	-0.425	0.306
-741.112	-200.000	-0.001	0.276
-740.098	-107.340	-0.202	0.045
-739.083	-170.958	0.057	-0.002
-738.069	800.000	-0.023	0.092
-737.054	97.901	-0.136	-0.157
-736.039	-62.533	0.351	0.147
-735.025	-71.956	0.330	-0.124
-734.010	48.714	-0.162	-0.153
-732.996	-70.227	0.293	-0.112
-731.981	625.734	-0.049	-0.124
-730.966	574.640	0.066	-0.163
-729.952	672.756	-0.148	-0.387
-728.937	-110.524	-0.152	0.032
-727.923	-46.127	-0.318	-0.158
-726.908	-118.680	-0.054	0.010
-725.894	-200.000	-0.013	0.131
-724.879	-120.544	0.088	0.015
-723.864	9.910	-0.348	0.266
-722.850	60.836	-0.079	0.079
-721.835	-32.086	-0.165	-0.093
-720.821	125.467	0.026	-0.033
-719.806	800.000	-0.039	-0.116
-718.791	-23.109	0.262	-0.159
-717.777	90.781	-0.155	-0.175
-716.762	554.043	0.049	-0.118
-715.748	92.688	-0.118	-0.134
-714.733	-16.739	0.332	-0.212
-713.718	147.815	0.062	-0.084
-712.704	105.012	-0.189	-0.225
-711.689	-60.346	0.280	-0.120
-710.675	23.464	0.063	-0.052
-709.660	0.469	0.360	-0.259
-708.645	92.394	-0.224	-0.254
-707.631	-105.333	-0.197	0.045
-706.616	158.878	0.163	0.228
-705.602	530.403	0.101	0.241
-704.587	-128.541	0.286	0.041
-703.572	-134.082	-0.122	-0.015
-702.558	-68.061	-0.266	-0.104
-701.543	130.413	0.039	-0.050
-700.529	535.270	0.093	-0.221
-699.514	-40.612	-0.152	-0.080
-698.499	-88.795	0.173	0.052
-697.485	-200.000	0.004	-0.291
-696.470	-200.000	0.024	-0.264
-695.456	-97.308	-0.286	-0.075
-694.441	271.629	-0.201	-0.356
-693.426	165.553	0.183	-0.261
-692.412	-200.000	-0.020	0.127
-691.397	19.983	-0.149	0.121
-690.383	-200.000	0.037	0.191
-689.368	74.974	-0.076	0.080
-688.354	325.390	-0.122	-0.235
-687.339	138.066	-0.078	-0.104
-686.324	-79.279	-0.335	0.114
-685.310	-54.010	-0.281	-0.129
-684.295	141.012	-0.181	-0.241
-683.281	61.562	0.032	-0.032
-682.266	-189.808	-0.497	-0.006
-681.251	-200.000	-0.002	-0.143
-680.237	-150.760	-0.061	-0.005
-679.222	18.738	-0.056	0.045
-678.208	800.000	-0.095	-0.309
-677.193	-63.162	-0.184	-0.076
-676.178	55.949	-0.088	0.086
-675.164	-114.490	0.185	0.036
-674.149	800.000	-0.102	-0.369
-673.135	-100.756	0.282	0.070
-672.120	370.734	0.124	0.252
-671.105	-30.348	-0.136	-0.078
-670.091	210.196	0.103	0.163
-669.076	-200.000	-0.002	-0.041
-668.062	-200.000	-0.044	0.312
-667.047	-200.000	-0.011	-0.052
-666.032	-0.486	0.081	-0.058
-665.018	-132.315	-0.227	0.030
-664.003	-71.815	-0.382	-0.143
-662.989	51.877	0.235	0.225
-661.974	-137.906	-0.221	-0.025
-660.959	-200.000	0.065	0.296
-659.945	-69.122	-0.366	0.142
-658.930	35.172	0.114	0.101
-657.916	40.543	-0.382	-0.346
-656.901	-68.818	0.333	-0.129
-655.886	-111.720	0.157	-0.032
-654.872	75.616	-0.105	-0.112
-653.857	800.000	-0.075	0.238
-652.843	-200.000	0.039	-0.206
-651.828	114.140	-0.142	0.174
-650.814	-200.000	0.051	-0.327
-649.799	800.000	-0.048	-0.134
-648.784	571.654	0.052	-0.126
-647.770	-156.307	-0.214	0.013
-646.755	547.733	-0.062	-0.150
-645.741	-200.000	-0.007	-0.132
-644.726	205.597	0.095	-0.148
-643.711	11.431	0.226	-0.174
-642.697	95.651	0.074	0.085
-641.682	124.619	-0.101	-0.128
-640.668	-87.038	-0.152	0.047
-639.653	11.042	-0.203	0.156
-638.638	-193.241	-0.168	0.001
-637.624	740.508	-0.081	-0.220
-636.609	154.620	-0.163	0.225
-635.595	-97.745	0.034	-0.009
-634.580	594.885	0.104	0.259
-633.565	-108.198	-0.085	0.019
-632.551	87.841	-0.191	0.213
-631.536	66.178	-0.120	0.122
-630.522	215.622	-0.057	0.091
-629.507	-88.259	0.208	0.062
-628.492	-28.888	-0.062	0.035
-627.478	260.733	0.164	0.285
-626.463	237.308	-0.148	0.246
-625.449	342.514	0.020	-0.039
-624.434	800.000	-0.032	0.113
-623.419	-84.838	0.171	0.054
-622.405	-200.000	0.073	0.364
-621.390	398.070	-0.055	0.114
-620.376	124.145	-0.112	-0.142
-619.361	800.000	0.073	-0.224
-618.346	120.328	0.199	-0.248
-617.332	-34.508	0.087	-0.048
-616.317	-200.000	-0.039	0.367
-615.303	-3.637	-0.060	0.042
-614.288	-200.000	0.010	0.127
-613.273	-200.000	0.027	0.225
-612.259	170.897	-0.102	0.147
-611.244	-200.000	-0.018	0.302
-610.230	-200.000	-0.003	-0.025
-609.215	-87.112	-0.197	0.060
-608.201	-10.307	-0.198	0.132
-607.186	-23.058	0.529	-0.320
-606.171	455.001	-0.084	0.187
-605.157	-61.810	0.344	0.145
-604.142	-101.828	-0.119	-0.029
-603.128	281.848	0.108	-0.195
-602.113	-200.000	-0.024	-0.145
-601.098	-200.000	0.019	-0.118
-600.084	179.323	0.077	-0.112
-599.069	-200.000	-0.004	-0.045
-598.055	-200.000	-0.065	0.365
-597.040	721.566	0.052	-0.138
-596.025	-57.131	0.102	-0.045
-595.011	458.500	0.106	0.237
-593.996	29.637	-0.157	0.134
-592.982	193.912	-0.127	-0.192
-591.967	82.221	0.186	0.202
-590.952	110.874	0.138	-0.167
-589.938	-14.328	0.098	0.064
-588.923	126.234	0.059	0.075
-587.909	800.000	-0.114	0.394
-586.894	109.570	-0.034	-0.041
-585.879	217.355	0.156	-0.250
-584.865	262.346	-0.056	0.098
-583.850	800.000	-0.063	0.209
-582.836	-26.768	-0.285	0.167
-581.821	76.049	-0.309	-0.327
-580.806	794.535	0.122	-0.336
-579.792	-143.329	0.342	0.033
-578.777	-200.000	-0.037	-0.176
-577.763	352.587	0.084	0.167
-576.748	-200.000	-0.011	-0.125
-575.733	-200.000	-0.034	-0.242
-574.719	-38.442	-0.157	-0.083
-573.704	-90.540	0.148	0.043
-572.690	-113.061	0.308	0.061
-571.675	-24.513	0.135	-0.081
-570.661	314.695	-0.035	-0.066
-569.646	800.000	0.063	-0.270
-568.631	800.000	0.026	-0.072
-567.617	-32.425	0.308	-0.172
-566.602	-200.000	0.003	-0.195
-565.588	-175.223	0.091	0.003
-564.573	-36.132	0.101	0.054
-563.558	187.129	0.100	0.149
-562.544	716.918	0.042	0.111
-561.529	460.015	-0.098	0.219
-560.515	445.184	-0.057	-0.125
-559.500	282.424	0.099	-0.179
-558.485	800.000	-0.085	-0.321
-557.471	101.990	0.126	0.147
-556.456	-115.707	-0.134	0.025
-555.442	-85.866	0.244	0.076
-554.427	-200.000	0.026	0.255
-553.412	399.282	0.039	0.082
-552.398	-200.000	-0.012	0.221
-551.383	771.679	-0.085	0.231
-550.369	-87.844	-0.184	0.056
-549.354	-200.000	-0.057	0.402
-548.339	800.000	0.089	0.319
-547.325	608.238	0.087	-0.217
-546.310	-19.836	0.238	0.147
-545.296	421.554	-0.078	-0.168
-544.281	422.823	0.031	-0.067
-543.266	-200.000	-0.009	-0.187
-542.252	-4.495	0.207	-0.143
-541.237	-200.000	-0.108	-0.479
-540.223	800.000	-0.042	0.159
-539.208	800.000	0.041	-0.142
-538.193	-103.727	-0.147	0.035
-537.179	-1.099	-0.163	0.115
-536.164	-200.000	-0.008	-0.238
-535.150	586.813	-0.109	-0.270
-534.135	148.820	0.176	-0.238
-533.121	2.324	-0.347	-0.251
-532.106	-200.000	-0.039	-0.181
-531.091	-164.604	0.282	0.013
-530.077	-200.000	-0.064	0.405
-529.062	800.000	0.090	0.391
-528.048	-200.000	-0.074	-0.352
-527.033	303.584	0.176	-0.326
-526.018	-123.292	-0.424	-0.068
-525.004	-200.000	-0.020	0.243
-523.989	-200.000	-0.027	0.124
-522.975	0.652	-0.206	0.147
-521.960	-200.000	0.025	0.215
-520.945	103.664	0.235	0.276
-519.931	189.451	0.093	0.140
-518.916	-20.471	-0.067	0.041
-517.902	107.808	-0.135	-0.161
-516.887	739.038	0.049	0.132
-515.872	-200.000	0.008	-0.196
-514.858	-123.037	0.418	0.067
-513.843	-200.000	-0.054	-0.245
-512.829	-200.000	-0.016	-0.142
-511.814	-24.102	-0.110	0.066
-510.799	800.000	-0.048	0.173
-509.785	-141.586	-0.061	0.006
-508.770	-80.415	-0.288	-0.096
-507.756	72.595	-0.113	-0.118
-506.741	-4.980	-0.095	-0.065
-505.726	5.216	-0.403	-0.297
-504.712	336.610	-0.226	-0.438
-503.697	81.704	-0.138	0.149
-502.683	-46.572	-0.031	0.015
-501.668	-200.000	-0.005	0.128
-500.653	359.062	0.173	-0.345
-499.639	-113.224	-0.218	-0.043
-498.624	89.045	0.174	-0.193
-497.610	-23.572	-0.080	-0.048
-496.595	253.886	0.154	0.264
-495.581	-96.985	-0.349	-0.091
-494.566	800.000	0.110	-0.431
-493.551	-73.282	0.057	0.021
-492.537	699.577	-0.136	0.357
-491.522	36.970	0.056	0.050
-490.508	-152.870	-0.317	0.022
-489.493	-200.000	-0.022	-0.108
-488.478	446.326	0.117	-0.258
-487.464	-24.431	0.081	0.048
-486.449	36.637	0.143	0.126
-485.435	-200.000	0.024	-0.124
-484.420	148.163	0.166	-0.224
-483.405	-126.768	-0.046	-0.007
-482.391	130.273	-0.115	0.147
-481.376	800.000	0.098	-0.360
-480.362	-197.876	-0.174	0.001
-479.347	800.000	-0.072	-0.215
-478.332	189.729	-0.187	-0.279
-477.318	-200.000	-0.009	-0.292
-476.303	91.436	-0.034	-0.038
-475.289	800.000	-0.030	0.094
-474.274	435.329	0.081	0.177
-473.259	-139.002	0.306	0.033
-472.245	23.158	-0.281	-0.230
-471.230	452.129	0.091	0.200
-470.216	-56.082	0.042	0.019
-469.201	-111.129	0.297	0.061
-468.186	-92.153	0.211	0.060
-467.172	-53.790	0.283	0.129
-466.157	-0.493	-0.087	0.062
-465.143	119.681	-0.048	0.060
-464.128	271.647	0.168	0.295
-463.113	-156.753	0.014	0.001
-462.099	261.650	-0.125	0.216
-461.084	-61.829	-0.139	0.058
-460.070	31.326	-0.262	-0.225
-459.055	-107.894	-0.191	0.042
-458.040	23.887	0.290	0.238
-457.026	-200.000	-0.035	0.218
-456.011	-150.022	-0.390	-0.030
-454.997	203.387	0.198	0.305
-453.982	11.303	0.284	0.217
-452.968	-200.000	-0.066	-0.299
-451.953	-114.587	0.291	-0.056
-450.938	-10.525	0.158	0.104
-449.924	-200.000	0.033	-0.190
-448.909	-200.000	0.017	0.251
-447.895	-200.000	0.038	-0.496
-446.880	137.093	-0.184	0.240
-445.865	-156.195	0.282	-0.018
-444.851	800.000	0.045	-0.146
-443.836	529.771	0.148	0.348
-442.822	115.247	-0.150	0.183
-441.807	-200.000	0.011	-0.243
-440.792	64.478	0.090	0.090
-439.778	514.676	-0.191	-0.445
-438.763	19.595	0.040	-0.032
-437.749	-121.622	-0.191	-0.031
-436.734	13.724	0.332	0.257
-435.719	277.692	-0.070	-0.124
-434.705	-195.146	0.143	-0.001
-433.690	-63.277	0.206	-0.084
-432.676	-116.866	0.148	-0.027
-431.661	-115.320	-0.230	-0.043
-430.646	-65.912	0.195	0.078
-429.632	86.758	-0.295	-0.324
-428.617	542.395	-0.096	-0.228
-427.603	-40.873	0.141	0.072
-426.588	-53.595	0.193	0.088
-425.573	-5.770	0.290	0.198
-424.559	136.440	0.203	-0.264
-423.544	9.008	-0.215	-0.162
-422.530	-161.451	-0.271	0.014
-421.515	-6.561	0.212	0.144
-420.500	-200.000	-0.018	-0.118
-419.486	92.169	0.220	0.246
-418.471	55.290	0.284	0.273
-417.457	82.715	0.165	-0.179
-416.442	-148.928	0.185	-0.015
-415.428	109.322	0.128	-0.152
-414.413	-200.000	-0.014	-0.157
-413.398	100.460	-0.174	-0.201
-412.384	139.522	0.030	0.040
-411.369	167.716	0.114	-0.162
-410.355	-170.936	-0.322	0.011
-409.340	-112.872	0.108	-0.021
-408.325	-23.117	0.023	0.014
-407.311	118.834	0.375	-0.462
-406.296	229.701	-0.136	-0.221
-405.282	-200.000	0.037	-0.207
-404.267	104.038	-0.137	-0.161
-403.252	117.933	0.185	0.226
-402.238	192.760	0.146	0.220
-401.223	-18.285	0.068	-0.042
-400.209	800.000	-0.111	0.372
-399.194	-111.308	-0.026	0.005
-398.179	497.959	0.071	-0.162
-397.165	-200.000	-0.002	-0.301
-396.150	-200.000	0.016	-0.206
-395.136	-200.000	0.030	-0.145
-394.121	154.360	-0.166	0.226
-393.106	-102.745	-0.155	0.037
-392.092	-15.278	0.080	-0.051
-391.077	-0.082	-0.085	0.060
-390.063	-187.226	0.179	-0.002
-389.048	-200.000	-0.011	0.101
-388.033	125.409	0.030	-0.038
-387.019	-200.000	0.001	-0.077
-386.004	-200.000	-0.055	0.415
-384.990	25.248	-0.327	0.270
-383.975	-38.777	0.089	0.047
-382.960	-6.356	0.221	-0.150
-381.946	-26.748	-0.083	-0.048
-380.931	147.809	0.137	-0.184
-379.917	800.000	-0.031	-0.126
-378.902	-4.151	-0.048	0.033
-377.888	-144.280	0.123	0.011
-376.873	-75.530	-0.111	0.039
-375.858	-200.000	0.082	-0.370
-374.844	689.307	0.073	-0.191
-373.829	202.512	-0.038	-0.058
-372.815	218.405	0.079	0.125
-371.800	-145.074	-0.117	-0.011
-370.785	-179.501	-0.170	-0.004
-369.771	-153.514	0.239	0.016
-368.756	152.913	-0.096	-0.131
-367.742	-200.000	-0.019	-0.193
-366.727	800.000	0.053	-0.194
-365.712	-115.045	0.298	-0.056
-364.698	-40.458	-0.036	0.018
-363.683	-2.429	0.053	0.037
-362.669	-185.501	-0.147	0.002
-361.654	61.539	-0.230	-0.227
-360.639	-6.962	-0.123	0.083
-359.625	-121.091	-0.175	0.029
-358.610	69.256	0.083	0.085
-357.596	800.000	0.083	-0.242
-356.581	-200.000	0.009	-0.055
-355.566	-10.717	0.078	-0.051
-354.552	86.187	-0.221	-0.241
-353.537	273.530	0.110	-0.193
-352.523	241.838	0.112	-0.186
-351.508	800.000	0.061	-0.187
-350.493	-82.250	-0.393	-0.127
-349.479	-200.000	-0.074	0.396
-348.464	-40.817	-0.036	0.018
-347.450	22.093	0.039	0.031
-346.435	219.108	0.041	0.065
-345.420	-200.000	0.103	0.462
-344.406	-87.143	-0.081	-0.025
-343.391	-200.000	-0.009	-0.039
-342.377	-128.977	-0.165	0.023
-341.362	800.000	0.080	0.227
-340.348	-131.891	-0.160	-0.021
-339.333	59.229	-0.075	0.073
-338.318	-86.385	0.255	-0.078
-337.304	262.686	0.090	0.155
-336.289	-140.555	-0.294	0.030
-335.275	-89.577	-0.171	-0.050
-334.260	133.400	-0.167	-0.214
-333.245	800.000	0.038	0.122
-332.231	62.843	0.230	0.229
-331.216	-200.000	0.005	-0.220
-330.202	-200.000	-0.038	0.284
-329.187	-200.000	-0.033	0.334
-328.172	-42.776	-0.258	-0.130
-327.158	62.129	-0.207	0.205
-326.143	500.748	-0.073	-0.167
-325.129	28.484	-0.320	0.268
-324.114	-200.000	0.056	0.245
-323.099	-86.221	-0.262	0.080
-322.085	-146.603	0.055	0.005
-321.070	-59.651	0.235	-0.100
-320.056	-98.426	-0.193	-0.049
-319.041	-124.768	0.091	0.014
-318.026	232.577	-0.071	0.115
-317.012	37.159	-0.055	0.049
-315.997	-200.000	-0.008	-0.266
-314.983	-118.344	0.151	0.027
-313.968	164.628	0.122	-0.171
-312.953	-200.000	-0.043	-0.218
-311.939	-200.000	-0.009	0.104
-310.924	-200.000	-0.012	-0.122
-309.910	800.000	0.162	-0.583
-308.895	114.475	0.269	0.325
-307.880	-200.000	0.004	-0.146
-306.866	169.866	-0.091	0.129
-305.851	223.958	-0.018	-0.030
-304.837	-76.314	-0.228	0.080
-303.822	-200.000	0.001	0.106
-302.807	-200.000	0.037	0.317
-301.793	-110.617	-0.015	-0.003
-300.778	-81.671	0.119	-0.039
-299.764	-111.451	0.414	-0.084
-298.749	800.000	0.070	0.266
-297.735	800.000	0.047	-0.191
-296.720	2.665	-0.035	0.026
-295.705	-191.888	0.245	-0.002
-294.691	125.487	-0.051	0.064
-293.676	24.754	-0.151	-0.124
-292.662	-170.567	-0.486	0.017
-291.647	-200.000	-0.012	-0.139
-290.632	217.914	0.260	-0.411
-289.618	-124.554	-0.014	-0.002
-288.603	800.000	0.024	-0.101
-287.589	21.961	-0.135	0.109
-286.574	-111.927	0.388	-0.078
-285.559	800.000	-0.022	-0.089
-284.545	-200.000	-0.038	0.370
-283.530	179.126	-0.071	0.103
-282.516	230.416	0.078	-0.127
-281.501	356.441	-0.087	-0.172
-280.486	800.000	-0.084	-0.237
-279.472	-28.022	0.213	0.122
-278.457	-0.260	-0.206	-0.145
-277.443	-96.111	0.069	0.018
-276.428	800.000	-0.091	-0.271
-275.413	185.549	-0.174	-0.255
-274.399	-141.965	0.270	-0.027
-273.384	-200.000	0.018	0.281
-272.370	800.000	0.076	0.241
-271.355	136.991	-0.275	0.356
-270.340	-200.000	0.015	0.506
-269.326	200.853	-0.127	-0.193
-268.311	3.152	-0.363	-0.261
-267.297	-84.852	0.164	-0.051
-266.282	-30.091	-0.205	0.116
-265.267	-155.384	-0.141	-0.009
-264.253	407.931	0.161	-0.338
-263.238	591.591	-0.046	0.113
-262.224	-140.139	-0.217	0.023
-261.209	711.292	-0.077	0.202
-260.195	201.286	-0.108	-0.164
-259.180	196.452	0.177	-0.267
-258.165	91.466	0.126	-0.141
-257.151	-89.360	0.238	-0.070
-256.136	-122.093	0.187	0.030
-255.122	578.741	-0.053	0.129
-254.107	-200.000	0.011	0.158
-253.092	181.018	0.084	-0.122
-252.078	217.285	-0.094	0.148
-251.063	-200.000	-0.013	-0.184
-250.049	753.072	-0.132	-0.354
-249.034	-142.908	0.119	-0.011
-248.019	-200.000	0.066	0.323
-247.005	800.000	0.148	-0.489
-245.990	507.313	0.147	-0.336
-244.976	-200.000	0.035	0.158
-243.961	272.420	0.040	-0.069
-242.946	58.705	0.239	-0.232
-241.932	-36.739	-0.272	-0.145
-240.917	-7.795	-0.185	0.123
-239.903	-74.998	0.735	-0.260
-238.888	-200.000	0.012	-0.275
-237.873	-130.940	0.120	0.016
-236.859	-200.000	-0.026	0.158
-235.844	330.849	-0.176	0.335
-234.830	-200.000	-0.011	0.316
-233.815	78.083	-0.265	0.280
-232.800	-200.000	0.034	0.211
-231.786	-39.946	0.105	0.054
-230.771	234.728	-0.101	-0.164
-229.757	-48.301	0.148	-0.070
-228.742	63.210	-0.132	-0.131
-227.727	595.560	-0.103	-0.253
-226.713	514.292	-0.082	0.190
-225.698	-61.072	-0.342	0.143
-224.684	500.732	-0.022	0.051
-223.669	-28.689	-0.163	0.093
-222.655	-200.000	-0.014	0.179
-221.640	-83.661	-0.070	0.022
-220.625	605.740	-0.132	0.324
-219.611	800.000	0.019	0.078
-218.596	-39.732	0.202	0.104
-217.582	-200.000	0.015	0.112
-216.567	188.014	0.175	-0.258
-215.552	800.000	0.048	-0.187
-214.538	-122.666	0.235	0.038
-213.523	-200.000	0.013	-0.113
-212.509	19.989	-0.264	0.210
-211.494	274.349	-0.118	0.206
-210.479	-200.000	0.043	0.207
-209.465	118.776	0.030	-0.036
-208.450	-200.000	-0.008	0.082
-207.436	-12.248	-0.223	0.144
-206.421	-13.957	0.244	0.156
-205.406	-52.538	-0.207	-0.094
-204.392	80.204	0.248	-0.263
-203.377	70.317	0.275	0.280
-202.363	385.673	0.050	-0.101
-201.348	-92.084	0.471	-0.132
-200.333	355.558	-0.108	0.213
-199.319	-200.000	-0.019	0.231
-198.304	95.788	-0.063	-0.071
-197.290	800.000	-0.040	0.168
-196.275	-59.301	-0.181	-0.077
-195.260	198.437	-0.362	-0.547
-194.246	136.807	0.080	0.103
-193.231	584.580	-0.079	-0.192
-192.217	-200.000	0.050	-0.263
-191.202	57.821	-0.116	-0.112
-190.187	390.487	-0.285	0.585
-189.173	-157.814	0.456	0.027
-188.158	800.000	-0.025	-0.089
-187.144	-36.654	0.179	0.095
-186.129	800.000	0.076	0.264
-185.114	48.090	-0.146	0.135
-184.100	-120.912	-0.597	-0.099
-183.085	800.000	-0.064	0.220
-182.071	-200.000	-0.028	0.199
-181.056	-123.637	-0.172	0.027
-180.042	71.185	-0.184	0.189
-179.027	194.233	-0.024	0.035
-178.012	22.283	-0.020	0.016
-176.998	-5.396	-0.270	-0.183
-175.983	800.000	0.118	0.360
-174.969	-64.428	-0.157	0.063
-173.954	-66.955	0.070	-0.027
-172.939	250.043	-0.088	0.147
-171.925	800.000	0.074	0.204
-170.910	-140.478	0.221	0.023
-169.896	-142.387	0.161	0.016
-168.881	181.044	0.122	-0.177
-167.866	-77.203	0.267	-0.092
-166.852	-72.174	-0.105	-0.038
-165.837	-123.880	-0.316	0.049
-164.823	86.820	-0.082	0.089
-163.808	109.120	-0.277	0.327
-162.793	-44.695	-0.129	-0.063
-161.779	-200.000	0.062	0.299
-160.764	-51.523	0.190	0.088
-159.750	46.045	0.229	-0.209
-158.735	344.799	-0.059	-0.114
-157.720	101.919	-0.208	0.239
-156.706	-124.948	-0.188	0.028
-155.691	688.743	0.086	0.221
-154.677	-200.000	-0.022	-0.317
-153.662	-122.132	0.135	-0.022
-152.647	310.143	0.149	0.275
-151.633	653.553	0.060	0.150
-150.618	165.909	-0.163	0.228
-149.604	226.081	-0.148	-0.236
-148.589	-200.000	0.020	0.259
-147.574	-200.000	0.007	0.117
-146.560	-113.897	-0.431	0.083
-145.545	51.379	0.198	-0.185
-144.531	55.334	-0.097	-0.093
-143.516	150.566	0.167	-0.224
-142.502	135.143	-0.227	0.291
-141.487	294.113	-0.086	0.156
-140.472	-200.000	-0.034	0.267
-139.458	-48.251	-0.390	-0.185
-138.443	-34.087	0.146	0.079
-137.429	215.265	0.223	0.348
-136.414	-92.501	0.237	0.066
-135.399	800.000	0.046	-0.147
-134.385	800.000	0.055	0.158
-133.370	-200.000	0.010	0.142
-132.356	-200.000	0.011	0.187
-131.341	-72.932	-0.114	-0.041
-130.326	400.307	0.063	0.130
-129.312	-121.980	-0.216	0.035
-128.297	-200.000	0.004	-0.027
-127.283	100.178	-0.103	-0.118
-126.268	3.543	-0.107	-0.077
-125.253	-150.743	0.064	0.005
-124.239	-82.734	-0.334	-0.106
-123.224	44.792	-0.127	-0.115
-122.210	237.182	-0.059	0.095
