DTS Sentinel unit serial number:	SN413079Multiplexer serial number:	ORYXHardware model number:	OX4-SRSoftware version number:	ORYX F/W v4.00 Oryx Data Collector v3.7.2.0data status	okinstallation	princeton_trtdifferential loss correction	single-endedforward channel	channel 3reverse channel	N/Adate	2019/09/19time	14:32:35forward acquisition time	60.00reverse acquisition time	0.00gamma	496.2192k internal	0.2319k external	0.2319temperature offset calibration	1.0001default loss term (dB/km)	0.3790temperature slope calibration	1.0000multiplexer offset coefficient	1.0000multiplexer slope coefficient	1.0000fibre end	0.00T internal ref (°C)	32.25T ext. ref 1 (°C)	1.06T ext. ref 2 (°C)	29.31length (m)	temperature (°C)	Stokes	anti-Stokes-747.200	25.722	0.056	0.048
-746.185	5.153	-0.240	0.179
-745.171	-33.738	-0.099	0.055
-744.156	-133.465	-0.249	0.032
-743.142	256.656	-0.043	-0.075
-742.127	115.748	-0.154	-0.191
-741.112	-64.756	-0.148	-0.061
-740.098	-183.397	-0.236	0.004
-739.083	-26.566	-0.313	0.185
-738.069	92.457	0.328	0.374
-737.054	-200.000	-0.000	-0.250
-736.039	184.515	-0.207	0.310
-735.025	-27.921	-0.198	0.116
-734.010	-199.130	-0.164	0.001
-732.996	-200.000	0.014	-0.119
-731.981	179.458	-0.107	-0.158
-730.966	257.944	-0.173	-0.301
-729.952	-200.000	-0.007	-0.148
-728.937	-28.902	-0.083	0.048
-727.923	229.992	-0.248	0.410
-726.908	800.000	-0.038	0.147
-725.894	-200.000	-0.048	-0.231
-724.879	-200.000	0.016	-0.275
-723.864	346.008	0.135	0.267
-722.850	-15.187	-0.292	0.189
-721.835	-11.407	0.344	0.229
-720.821	0.385	-0.180	-0.130
-719.806	-200.000	0.003	-0.127
-718.791	-71.849	-0.237	0.089
-717.777	-35.856	0.079	0.043
-716.762	-200.000	0.004	0.402
-715.748	18.318	-0.054	0.043
-714.733	-61.979	0.331	0.140
-713.718	122.981	-0.161	-0.203
-712.704	27.883	0.155	0.132
-711.689	-200.000	-0.010	-0.085
-710.675	-138.781	0.123	0.014
-709.660	-200.000	-0.048	-0.257
-708.645	-105.846	-0.051	-0.012
-707.631	148.927	-0.102	0.140
-706.616	-200.000	0.034	0.360
-705.602	-200.000	0.021	0.189
-704.587	-42.569	0.234	0.120
-703.572	317.127	-0.099	-0.188
-702.558	132.783	0.144	-0.187
-701.543	-200.000	-0.028	0.160
-700.529	-200.000	0.045	0.317
-699.514	105.873	0.063	-0.076
-698.499	-73.868	-0.502	-0.184
-697.485	394.362	0.155	-0.326
-696.470	197.385	0.057	-0.088
-695.456	463.521	-0.068	-0.153
-694.441	-164.319	-0.274	-0.013
-693.426	-200.000	-0.023	0.106
-692.412	-133.981	-0.267	0.033
-691.397	-40.802	0.203	-0.106
-690.383	-74.964	0.150	0.054
-689.368	36.621	-0.023	-0.021
-688.354	-57.973	-0.202	-0.089
-687.339	800.000	0.042	-0.170
-686.324	745.268	0.049	-0.134
-685.310	-200.000	0.065	0.348
-684.295	-22.580	0.090	0.055
-683.281	-77.440	-0.171	-0.060
-682.266	-90.881	-0.117	-0.034
-681.251	218.569	0.195	-0.314
-680.237	-14.876	0.316	0.205
-679.222	-159.423	0.071	0.004
-678.208	232.895	0.061	-0.101
-677.193	-19.357	0.160	0.100
-676.178	-20.029	0.246	0.153
-675.164	-155.445	-0.150	-0.010
-674.149	800.000	0.025	-0.086
-673.135	186.198	-0.172	0.258
-672.120	-200.000	-0.047	-0.344
-671.105	-130.015	-0.230	0.032
-670.091	800.000	0.036	0.131
-669.076	505.671	0.164	-0.383
-668.062	800.000	0.090	-0.387
-667.047	51.198	0.144	-0.138
-666.032	800.000	-0.092	-0.307
-665.018	-61.795	0.431	-0.182
-664.003	800.000	-0.033	-0.101
-662.989	-132.305	-0.104	0.014
-661.974	-200.000	-0.004	-0.239
-660.959	84.549	0.171	-0.189
-659.945	-138.790	-0.148	0.016
-658.930	-70.860	-0.367	-0.140
-657.916	-200.000	-0.045	0.231
-656.901	101.919	0.129	-0.152
-655.886	300.234	0.184	0.343
-654.872	184.147	-0.218	0.325
-653.857	-70.041	0.312	0.120
-652.843	-122.578	0.105	-0.017
-651.828	189.987	-0.131	0.199
-650.814	-44.480	-0.295	-0.149
-649.799	-200.000	0.035	0.182
-648.784	800.000	0.045	0.140
-647.770	99.969	0.211	-0.246
-646.755	-56.459	-0.141	-0.063
-645.741	-200.000	-0.016	0.324
-644.726	-80.628	-0.140	0.047
-643.711	-125.805	0.196	-0.030
-642.697	-48.008	-0.094	-0.046
-641.682	-96.111	0.223	0.060
-640.668	-48.090	0.212	0.103
-639.653	-200.000	0.042	0.208
-638.638	-126.833	-0.310	-0.046
-637.624	69.494	0.156	0.162
-636.609	-50.007	-0.126	-0.060
-635.595	-151.097	0.179	0.014
-634.580	-39.539	0.100	0.053
-633.565	669.628	0.053	-0.139
-632.551	19.458	-0.125	-0.101
-631.536	800.000	-0.034	-0.129
-630.522	-200.000	0.009	0.063
-629.507	19.140	-0.097	-0.078
-628.492	1.420	0.435	0.315
-627.478	-156.035	0.276	-0.018
-626.463	-200.000	-0.054	-0.447
-625.449	-29.838	-0.175	-0.100
-624.434	800.000	-0.107	-0.440
-623.419	-200.000	-0.014	0.110
-622.405	12.504	-0.235	0.182
-621.390	-200.000	0.009	-0.094
-620.376	-140.450	0.316	-0.033
-619.361	-200.000	-0.176	0.001
-618.346	-55.494	-0.098	-0.044
-617.332	-88.584	-0.268	0.080
-616.317	-60.764	0.138	0.059
-615.303	800.000	0.083	0.307
-614.288	-200.000	-0.007	-0.167
-613.273	-200.000	0.010	-0.200
-612.259	-47.286	-0.106	-0.052
-611.244	97.026	0.104	0.120
-610.230	449.824	0.073	0.161
-609.215	-200.000	-0.004	-0.163
-608.201	55.368	0.094	-0.092
-607.186	-39.972	-0.046	-0.024
-606.171	96.085	-0.074	-0.085
-605.157	-200.000	-0.041	-0.194
-604.142	-11.162	-0.268	-0.177
-603.128	161.355	-0.063	-0.089
-602.113	-86.399	0.447	-0.138
-601.098	456.790	-0.046	-0.102
-600.084	698.514	-0.096	-0.255
-599.069	800.000	-0.108	0.417
-598.055	-180.320	-0.212	-0.004
-597.040	222.921	-0.127	-0.206
-596.025	-200.000	-0.006	-0.075
-595.011	45.514	-0.189	-0.176
-593.996	27.475	0.145	-0.123
-592.982	134.838	-0.106	-0.139
-591.967	656.531	0.080	0.206
-590.952	45.752	-0.259	-0.241
-589.938	61.976	0.144	-0.144
-588.923	102.225	-0.168	0.197
-587.909	18.604	0.257	0.206
-586.894	-70.227	-0.321	-0.123
-585.879	26.214	-0.244	-0.205
-584.865	-12.061	-0.237	0.156
-583.850	-61.438	-0.188	0.080
-582.836	-144.682	-0.251	0.023
-581.821	-46.182	-0.355	0.176
-580.806	-115.529	-0.067	-0.013
-579.792	800.000	-0.074	-0.230
-578.777	6.724	0.037	0.028
-577.763	-200.000	-0.003	0.120
-576.748	-79.426	0.240	0.082
-575.733	-159.661	-0.088	0.005
-574.719	-200.000	0.059	-0.527
-573.704	-200.000	-0.035	0.206
-572.690	339.613	0.069	0.135
-571.675	-26.756	0.320	-0.188
-570.661	-17.510	0.178	-0.112
-569.646	-168.248	-0.199	-0.008
-568.631	-141.585	0.089	-0.009
-567.617	385.162	-0.126	-0.261
-566.602	587.824	0.090	-0.222
-565.588	-25.173	0.237	-0.141
-564.573	-106.773	-0.317	-0.071
-563.558	800.000	-0.069	-0.193
-562.544	800.000	-0.035	0.121
-561.529	-200.000	-0.078	0.486
-560.515	-46.275	0.249	0.123
-559.500	-200.000	0.031	-0.338
-558.485	320.153	-0.165	0.315
-557.471	-200.000	0.036	0.279
-556.456	-70.143	-0.414	0.158
-555.442	474.960	0.073	0.166
-554.427	9.499	-0.232	-0.176
-553.412	-200.000	0.007	-0.114
-552.398	-22.865	0.032	0.019
-551.383	-123.500	0.272	0.043
-550.369	-200.000	-0.015	0.149
-549.354	3.760	-0.138	-0.102
-548.339	-79.810	0.176	0.060
-547.325	-200.000	-0.005	0.249
-546.310	800.000	0.048	0.160
-545.296	800.000	-0.058	0.180
-544.281	462.369	0.125	-0.280
-543.266	328.446	-0.232	0.447
-542.252	150.404	0.165	0.225
-541.237	40.227	-0.287	0.259
-540.223	800.000	0.021	0.086
-539.208	-98.983	-0.072	0.018
-538.193	-145.361	-0.175	-0.016
-537.179	26.140	-0.143	-0.120
-536.164	-200.000	0.013	-0.401
-535.150	760.237	0.157	-0.426
-534.135	701.230	0.133	-0.353
-533.121	26.987	0.237	-0.199
-532.106	253.333	0.166	-0.284
-531.091	-150.142	0.095	0.007
-530.077	373.025	0.166	-0.339
-529.062	-122.497	0.076	-0.012
-528.048	-72.975	-0.281	0.104
-527.033	49.634	-0.100	0.094
-526.018	-138.288	0.302	0.033
-525.004	-200.000	0.025	-0.272
-523.989	-200.000	0.018	0.080
-522.975	-200.000	0.003	0.301
-521.960	800.000	-0.075	0.214
-520.945	305.083	-0.260	-0.484
-519.931	-107.119	0.100	-0.022
-518.916	-64.003	0.170	-0.070
-517.902	-119.838	-0.152	0.026
-516.887	-118.467	-0.141	-0.025
-515.872	90.559	-0.084	0.095
-514.858	-22.757	-0.193	-0.117
-513.843	-60.606	-0.231	0.098
-512.829	800.000	-0.077	0.248
-511.814	-34.099	-0.111	-0.061
-510.799	71.312	-0.162	-0.169
-509.785	-35.287	0.212	0.116
-508.770	60.809	-0.102	-0.101
-507.756	800.000	-0.058	-0.234
-506.741	-0.513	-0.249	-0.177
-505.726	37.173	-0.131	0.116
-504.712	800.000	-0.086	-0.290
-503.697	-80.958	0.280	0.093
-502.683	52.081	-0.404	0.386
-501.668	-0.557	-0.389	0.277
-500.653	-133.558	0.267	0.034
-499.639	-107.174	0.178	0.039
-498.624	-200.000	0.028	0.153
-497.610	55.043	0.050	0.048
-496.595	-157.187	0.085	0.005
-495.581	98.173	-0.236	-0.272
-494.566	-130.805	0.248	-0.033
-493.551	-21.385	-0.092	-0.056
-492.537	-122.915	-0.147	-0.024
-491.522	76.549	-0.042	0.045
-490.508	581.540	0.094	-0.231
-489.493	800.000	0.073	0.237
-488.478	-16.185	-0.201	-0.128
-487.464	-50.718	-0.137	-0.064
-486.449	93.120	0.190	0.215
-485.435	-4.804	0.163	0.113
-484.420	724.808	0.012	0.032
-483.405	800.000	-0.087	0.338
-482.391	-93.620	0.456	0.126
-481.376	-123.178	-0.278	0.045
-480.362	-200.000	-0.065	-0.414
-479.347	-200.000	-0.006	-0.373
-478.332	254.216	0.098	-0.168
-477.318	322.947	-0.357	0.681
-476.303	5.189	0.131	-0.096
-475.289	-57.960	-0.274	0.120
-474.274	-46.221	-0.190	-0.093
-473.259	55.704	0.111	-0.108
-472.245	-200.000	-0.020	0.126
-471.230	462.769	-0.077	-0.173
-470.216	-200.000	0.032	0.162
-469.201	-115.724	-0.211	-0.040
-468.186	800.000	0.083	0.282
-467.172	-200.000	0.025	0.225
-466.157	-50.170	-0.026	0.012
-465.143	-200.000	0.008	0.282
-464.128	-99.856	-0.312	-0.078
-463.113	-200.000	-0.002	0.271
-462.099	737.267	0.047	-0.127
-461.084	-200.000	0.002	-0.097
-460.070	-28.173	0.086	0.050
-459.055	56.430	0.187	-0.182
-458.040	-131.166	0.196	-0.026
-457.026	-113.514	-0.055	0.011
-456.011	474.170	-0.075	0.169
-454.997	49.418	0.160	-0.151
-453.982	174.350	0.058	-0.084
-452.968	-143.002	0.399	0.039
-451.953	-67.341	0.241	0.095
-450.938	800.000	-0.098	0.364
-449.924	800.000	-0.052	-0.210
-448.909	244.257	0.055	0.093
-447.895	207.186	-0.051	0.079
-446.880	22.547	0.163	-0.133
-445.865	-39.806	0.130	-0.068
-444.851	-58.199	0.179	-0.078
-443.836	163.840	0.078	-0.110
-442.822	17.828	0.191	0.152
-441.807	-200.000	0.002	-0.100
-440.792	-68.165	-0.265	0.103
-439.778	-141.549	0.312	-0.031
-438.763	-21.163	0.072	-0.044
-437.749	28.154	0.328	-0.277
-436.734	-200.000	-0.013	-0.350
-435.719	131.454	-0.165	-0.212
-434.705	800.000	0.034	-0.112
-433.690	800.000	0.099	-0.379
-432.676	-180.841	-0.275	-0.006
-431.661	-81.695	0.307	-0.101
-430.646	-79.611	0.384	-0.130
-429.632	-200.000	-0.059	0.297
-428.617	-67.868	0.125	0.049
-427.603	-87.522	0.025	0.008
-426.588	214.042	0.082	-0.130
-425.573	4.844	-0.119	0.087
-424.559	-200.000	0.018	-0.116
-423.544	-50.179	-0.388	-0.183
-422.530	-85.789	0.436	0.135
-421.515	800.000	0.031	0.133
-420.500	88.714	0.279	-0.310
-419.486	147.056	-0.113	0.151
-418.471	9.007	-0.370	-0.279
-417.457	-200.000	0.012	-0.119
-416.442	89.055	0.139	0.155
-415.428	800.000	0.026	-0.095
-414.413	-200.000	-0.027	-0.208
-413.398	-177.109	-0.160	-0.004
-412.384	626.743	0.143	-0.361
-411.369	-200.000	0.016	-0.254
-410.355	-132.887	-0.227	-0.029
-409.340	5.092	-0.195	0.143
-408.325	-66.003	0.447	-0.178
-407.311	-24.914	-0.243	0.144
-406.296	-200.000	-0.007	0.032
-405.282	800.000	-0.057	0.205
-404.267	800.000	0.049	-0.150
-403.252	16.336	-0.102	-0.080
-402.238	432.735	0.084	-0.183
-401.223	13.532	-0.183	0.142
-400.209	-30.141	-0.124	-0.070
-399.194	-200.000	0.040	-0.347
-398.179	7.851	-0.421	-0.315
-397.165	-145.509	-0.233	-0.021
-396.150	406.957	-0.047	0.098
-395.136	739.364	0.035	-0.095
-394.121	-120.778	0.233	-0.039
-393.106	74.553	0.088	0.092
-392.092	-120.192	0.350	-0.060
-391.077	3.199	-0.211	0.153
-390.063	-200.000	0.083	-0.368
-389.048	-200.000	0.000	-0.121
-388.033	-146.421	-0.023	0.002
-387.019	-81.473	0.048	-0.016
-386.004	203.847	-0.059	0.092
-384.990	309.813	0.180	0.336
-383.975	-80.031	-0.165	0.055
-382.960	800.000	-0.094	0.284
-381.946	134.252	0.237	0.307
-380.931	238.964	-0.040	0.066
-379.917	-200.000	0.029	-0.192
-378.902	-46.917	-0.535	0.261
-377.888	-109.274	0.020	0.004
-376.873	-92.128	0.387	-0.109
-375.858	288.693	0.037	-0.066
-374.844	248.444	-0.106	-0.178
-373.829	42.166	-0.203	-0.184
-372.815	-200.000	-0.052	0.322
-371.800	590.327	0.100	0.246
-370.785	3.699	-0.176	0.128
-369.771	-15.364	0.058	0.037
-368.756	-147.101	-0.141	-0.012
-367.742	287.781	0.045	0.080
-366.727	-200.000	-0.000	-0.245
-365.712	539.221	-0.022	-0.051
-364.698	-0.693	-0.035	0.025
-363.683	-140.931	-0.337	-0.035
-362.669	-47.661	0.175	-0.085
-361.654	-149.822	0.383	0.030
-360.639	40.660	-0.287	0.258
-359.625	-200.000	-0.029	0.238
-358.610	-200.000	0.001	-0.013
-357.596	-200.000	0.019	-0.089
-356.581	194.944	0.195	0.295
-355.566	-150.994	-0.159	-0.012
-354.552	-23.219	0.240	0.144
-353.537	-32.868	-0.171	0.094
-352.523	101.795	-0.182	0.212
-351.508	319.414	0.170	0.322
-350.493	-200.000	0.069	0.308
-349.479	-123.658	0.273	0.043
-348.464	610.540	-0.033	0.082
-347.450	-127.605	-0.304	-0.044
-346.435	-152.020	0.487	0.035
-345.420	-2.247	-0.192	0.134
-344.406	-127.751	0.123	0.018
-343.391	307.324	0.251	-0.466
-342.377	-200.000	-0.055	-0.298
-341.362	227.250	-0.069	0.111
-340.348	800.000	0.096	-0.353
-339.333	379.184	0.115	-0.234
-338.318	-127.558	0.208	-0.030
-337.304	800.000	-0.022	0.074
-336.289	-200.000	0.034	-0.267
-335.275	254.358	0.145	-0.246
-334.260	-200.000	0.015	0.067
-333.245	-200.000	0.061	-0.284
-332.231	308.699	0.073	-0.136
-331.216	-42.457	-0.158	0.080
-330.202	47.915	0.069	-0.065
-329.187	-200.000	0.012	-0.385
-328.172	800.000	-0.051	0.201
-327.158	101.328	-0.128	0.149
-326.143	68.437	0.296	-0.302
-325.129	-20.010	-0.154	-0.094
-324.114	161.495	-0.061	0.085
-323.099	-200.000	0.001	0.158
-322.085	-110.816	0.111	-0.023
-321.070	-73.899	0.187	-0.067
-320.056	-200.000	0.023	0.118
-319.041	-40.572	-0.345	-0.178
-318.026	-124.334	0.266	0.041
-317.012	9.664	0.219	-0.165
-315.997	-147.183	0.280	-0.024
-314.983	-134.796	0.324	0.039
-313.968	129.351	-0.161	-0.204
-312.953	-3.415	-0.265	0.183
-311.939	58.639	-0.071	0.069
-310.924	-103.061	0.216	0.051
-309.910	164.011	0.226	-0.317
-308.895	-1.857	-0.269	0.189
-307.880	-29.559	0.154	0.087
-306.866	-200.000	0.035	0.317
-305.851	420.683	0.086	0.184
-304.837	-23.222	-0.229	-0.137
-303.822	-200.000	-0.010	0.059
-302.807	197.114	-0.092	0.139
-301.793	94.926	0.289	-0.327
-300.778	135.839	-0.138	0.179
-299.764	-200.000	0.005	0.114
-298.749	-32.795	0.278	-0.153
-297.735	-150.562	-0.215	-0.016
-296.720	-104.335	0.145	-0.033
-295.705	-53.191	0.035	-0.016
-294.691	458.481	-0.082	0.182
-293.676	800.000	0.072	-0.217
-292.662	-200.000	-0.016	-0.217
-291.647	563.786	-0.030	0.073
-290.632	-200.000	-0.043	0.279
-289.618	-17.092	-0.246	-0.154
-288.603	800.000	-0.042	-0.165
-287.589	-110.750	-0.299	0.061
-286.574	33.120	-0.172	-0.148
-285.559	-132.334	0.184	0.024
-284.545	165.093	-0.064	0.090
-283.530	38.564	0.202	-0.179
-282.516	-2.586	-0.087	0.060
-281.501	800.000	0.048	-0.138
-280.486	303.732	0.026	0.048
-279.472	155.309	0.130	-0.178
-278.457	163.546	0.058	-0.081
-277.443	-104.028	0.401	0.093
-276.428	800.000	-0.062	0.190
-275.413	800.000	-0.056	0.186
-274.399	63.026	0.233	-0.232
-273.384	-1.439	0.056	0.039
-272.370	800.000	-0.096	0.294
-271.355	-200.000	0.003	0.079
-270.340	84.245	0.105	0.113
-269.326	-55.804	0.210	0.093
-268.311	800.000	0.111	0.399
-267.297	-26.049	-0.229	0.134
-266.282	-200.000	0.045	-0.307
-265.267	800.000	0.083	-0.346
-264.253	-157.351	-0.202	0.012
-263.238	76.502	0.236	0.249
-262.224	800.000	0.046	0.173
-261.209	224.793	0.065	-0.104
-260.195	290.068	-0.029	0.053
-259.180	-200.000	-0.056	-0.255
-258.165	-80.875	-0.414	-0.136
-257.151	-1.234	-0.313	-0.220
-256.136	-200.000	-0.018	0.098
-255.122	800.000	0.101	0.427
-254.107	800.000	0.075	-0.260
-253.092	-80.998	-0.245	0.081
-252.078	660.262	0.096	-0.245
-251.063	-61.126	-0.093	-0.039
-250.049	-130.577	-0.390	0.052
-249.034	-200.000	-0.026	0.154
-248.019	19.782	-0.145	0.116
-247.005	-120.078	-0.088	-0.015
-245.990	-87.325	0.133	0.040
-244.976	-200.000	-0.076	0.413
-243.961	-154.391	0.206	0.014
-242.946	-164.163	0.496	-0.023
-241.932	190.327	-0.142	0.212
-240.917	-61.647	-0.345	0.144
-239.903	-162.932	0.415	-0.020
-238.888	104.745	0.245	-0.287
-237.873	-45.589	0.069	0.034
-236.859	200.555	-0.130	0.198
-235.844	-8.359	-0.095	0.063
-234.830	-22.132	0.076	0.046
-233.815	800.000	-0.040	-0.122
-232.800	-200.000	0.051	0.446
-231.786	256.884	0.127	-0.216
-230.771	172.204	0.015	0.022
-229.757	-104.454	-0.253	-0.058
-228.742	687.117	-0.106	-0.275
-227.727	-200.000	-0.023	0.203
-226.713	-192.596	0.259	-0.002
-225.698	-200.000	0.009	0.310
-224.684	156.782	0.038	-0.052
-223.669	800.000	-0.066	0.260
-222.655	-39.994	0.036	0.019
-221.640	-200.000	-0.029	-0.169
-220.625	98.655	0.217	0.248
-219.611	800.000	-0.076	0.283
-218.596	-200.000	0.034	0.158
-217.582	22.670	0.019	-0.015
-216.567	10.151	-0.138	-0.104
-215.552	42.588	0.106	0.095
-214.538	-4.004	0.130	-0.089
-213.523	-74.250	0.142	-0.051
-212.509	-58.879	-0.198	-0.085
-211.494	89.906	0.055	-0.061
-210.479	800.000	-0.107	0.374
-209.465	-200.000	0.044	-0.414
-208.450	-200.000	0.007	0.059
-207.436	46.311	-0.280	0.257
-206.421	145.020	-0.143	-0.190
-205.406	164.755	0.186	-0.261
-204.392	800.000	0.048	-0.190
-203.377	-35.287	0.453	-0.244
-202.363	-197.069	-0.256	0.002
-201.348	-11.039	0.102	0.067
-200.333	-200.000	0.002	0.142
-199.319	195.387	0.098	0.147
-198.304	-79.312	-0.282	0.095
-197.290	-200.000	0.005	0.152
-196.275	351.049	-0.059	0.116
-195.260	-200.000	0.058	0.381
-194.246	65.192	-0.340	0.340
-193.231	90.793	0.093	-0.103
-192.217	-37.160	0.130	0.069
-191.202	48.376	0.093	0.086
-190.187	-200.000	-0.121	0.000
-189.173	20.397	-0.019	-0.016
-188.158	-72.973	-0.310	-0.113
-187.144	-45.507	-0.473	-0.232
-186.129	198.101	0.094	-0.142
-185.114	-56.193	-0.022	0.010
-184.100	-20.299	-0.254	-0.155
-183.085	-200.000	0.032	-0.401
-182.071	10.307	0.128	-0.096
-181.056	-137.328	0.156	0.018
-180.042	-57.150	0.176	-0.077
-179.027	193.701	-0.176	0.264
-178.012	-60.361	0.292	-0.123
-176.998	104.671	-0.191	0.223
-175.983	-200.000	0.003	-0.314
-174.969	-34.821	0.246	-0.133
-173.954	302.229	0.196	0.358
-172.939	19.350	0.149	-0.118
-171.925	685.969	-0.183	0.473
-170.910	7.047	0.037	-0.027
-169.896	-135.121	-0.269	0.032
-168.881	324.919	-0.160	0.302
-167.866	705.427	-0.065	-0.169
-166.852	173.480	0.056	-0.080
-165.837	-200.000	-0.017	0.238
-164.823	-30.115	0.056	-0.031
-163.808	-200.000	0.007	-0.225
-162.793	293.146	-0.215	0.388
-161.779	-200.000	0.040	0.276
-160.764	800.000	-0.036	-0.104
-159.750	112.173	-0.287	0.343
-158.735	-16.545	0.250	0.156
-157.720	63.218	0.175	0.173
-156.706	-111.357	0.173	-0.035
-155.691	-35.391	-0.075	-0.040
-154.677	626.105	0.139	0.346
-153.662	-99.124	0.467	0.117
-152.647	19.613	-0.217	-0.172
-151.633	-170.692	0.048	0.002
-150.618	-95.498	0.234	0.062
-149.604	800.000	-0.010	-0.031
-148.589	236.609	0.116	0.189
-147.574	80.046	-0.095	0.100
-146.560	-168.647	0.152	0.006
-145.545	165.483	-0.136	-0.190
-144.531	367.655	-0.143	-0.285
-143.516	154.393	0.128	0.174
-142.502	-200.000	-0.037	-0.164
-141.487	182.368	0.169	0.247
-140.472	-200.000	-0.059	0.357
-139.458	36.229	-0.079	0.069
-138.443	-95.141	0.297	-0.079
-137.429	-89.558	0.133	-0.038
-136.414	268.079	0.080	-0.138
-135.399	-87.803	0.325	0.097
-134.385	-200.000	-0.008	-0.221
-133.370	535.518	0.186	-0.435
-132.356	74.575	-0.230	-0.238
-131.341	-94.771	0.124	-0.033
-130.326	-77.664	0.137	-0.047
-129.312	-162.831	-0.302	0.015
-128.297	800.000	-0.046	-0.141
-127.283	65.116	0.197	-0.197
-126.268	-130.200	-0.215	0.029
-125.253	14.539	0.284	0.219
-124.239	-66.007	-0.116	0.046
-123.224	-200.000	-0.014	0.467
-122.210	-106.860	-0.355	0.078
-121.195	-200.000	0.002	-0.199
