DTS Sentinel unit serial number:	SN413079Multiplexer serial number:	ORYXHardware model number:	OX4-SRSoftware version number:	ORYX F/W v4.00 Oryx Data Collector v3.7.2.0data status	okinstallation	princeton_trtdifferential loss correction	single-endedforward channel	channel 3reverse channel	N/Adate	2019/09/15time	12:56:35forward acquisition time	60.00reverse acquisition time	0.00gamma	496.2192k internal	0.2296k external	0.2296temperature offset calibration	0.9960default loss term (dB/km)	0.3790temperature slope calibration	1.0000multiplexer offset coefficient	1.0000multiplexer slope coefficient	1.0000fibre end	0.00T internal ref (°C)	36.30T ext. ref 1 (°C)	5.01T ext. ref 2 (°C)	34.22length (m)	temperature (°C)	Stokes	anti-Stokes-747.200	-155.662	0.084	0.005
-746.185	109.297	-0.057	-0.070
-745.171	800.000	-0.070	0.210
-744.156	-200.000	-0.037	-0.167
-743.142	-89.708	-0.348	-0.104
-742.127	-38.156	-0.165	0.089
-741.112	226.453	-0.100	0.166
-740.098	-137.699	0.023	-0.003
-739.083	467.157	-0.127	-0.292
-738.069	55.795	0.046	0.046
-737.054	55.344	-0.098	-0.097
-736.039	800.000	0.086	-0.254
-735.025	87.544	0.062	-0.070
-734.010	-89.190	0.046	-0.014
-732.996	-200.000	-0.018	-0.119
-731.981	-200.000	0.014	-0.482
-730.966	-134.476	-0.106	0.013
-729.952	-198.826	-0.589	0.003
-728.937	82.738	-0.146	0.162
-727.923	143.955	-0.304	-0.414
-726.908	15.647	-0.253	-0.203
-725.894	-134.864	-0.364	0.045
-724.879	-61.379	-0.336	-0.144
-723.864	338.440	0.053	0.105
-722.850	298.117	-0.131	0.246
-721.835	-20.739	-0.161	0.101
-720.821	-123.605	-0.205	-0.033
-719.806	156.349	0.163	-0.229
-718.791	-200.000	0.004	-0.147
-717.777	339.428	-0.083	-0.165
-716.762	311.795	0.167	0.320
-715.748	456.388	0.078	-0.177
-714.733	800.000	-0.100	0.355
-713.718	507.994	-0.099	0.235
-712.704	140.757	0.028	0.038
-711.689	314.960	0.175	0.337
-710.675	661.850	0.044	-0.115
-709.660	-76.560	0.167	-0.060
-708.645	-154.560	-0.409	-0.028
-707.631	407.137	0.106	-0.229
-706.616	-200.000	-0.014	0.146
-705.602	472.300	0.146	-0.336
-704.587	506.244	0.125	0.295
-703.572	-124.916	0.222	-0.035
-702.558	-115.517	0.137	-0.026
-701.543	277.992	0.064	-0.116
-700.529	-182.650	0.248	-0.005
-699.514	488.003	-0.171	-0.398
-698.499	311.824	-0.094	0.180
-697.485	8.040	0.225	0.172
-696.470	-158.114	-0.307	0.018
-695.456	-137.502	0.225	-0.026
-694.441	362.652	0.138	-0.283
-693.426	-106.574	0.098	-0.022
-692.412	73.694	-0.139	-0.148
-691.397	245.166	-0.229	-0.393
-690.383	800.000	-0.032	-0.119
-689.368	-200.000	-0.004	-0.328
-688.354	-200.000	-0.041	-0.240
-687.339	89.333	-0.201	-0.228
-686.324	283.527	-0.095	0.174
-685.310	206.029	-0.173	-0.275
-684.295	297.125	0.044	-0.083
-683.281	32.026	0.056	0.049
-682.266	-76.142	0.120	0.043
-681.251	369.841	0.078	-0.160
-680.237	-200.000	-0.024	-0.486
-679.222	-96.321	0.050	-0.014
-678.208	-86.265	0.303	-0.095
-677.193	195.448	0.125	0.194
-676.178	398.535	0.125	0.266
-675.164	-125.761	0.153	-0.024
-674.149	156.506	0.194	-0.274
-673.135	61.071	0.139	0.140
-672.120	54.983	0.116	0.114
-671.105	-99.926	-0.080	-0.020
-670.091	-146.512	-0.137	-0.012
-669.076	7.667	-0.235	0.179
-668.062	-101.444	-0.119	0.030
-667.047	188.334	-0.058	-0.089
-666.032	521.221	-0.120	0.287
-665.018	-200.000	-0.001	0.488
-664.003	-200.000	0.024	0.188
-662.989	111.669	-0.204	0.251
-661.974	696.896	0.102	0.272
-660.959	4.103	-0.235	0.175
-659.945	800.000	0.043	0.153
-658.930	-200.000	-0.041	-0.206
-657.916	-156.190	0.398	0.025
-656.901	218.256	0.055	0.090
-655.886	126.133	-0.122	0.157
-654.872	100.487	-0.233	0.276
-653.857	506.050	0.015	0.034
-652.843	-45.070	0.133	-0.067
-651.828	70.084	0.130	-0.137
-650.814	-200.000	0.031	-0.149
-649.799	469.065	0.091	0.209
-648.784	800.000	-0.079	-0.246
-647.770	-127.332	-0.143	-0.021
-646.755	112.054	-0.270	0.333
-645.741	573.394	0.064	0.160
-644.726	-200.000	0.008	-0.205
-643.711	127.494	0.272	-0.352
-642.697	-56.292	0.154	0.070
-641.682	110.258	-0.179	0.219
-640.668	-60.216	0.237	-0.103
-639.653	-157.763	-0.118	0.007
-638.638	800.000	0.113	-0.365
-637.624	-200.000	-0.027	0.384
-636.609	-200.000	0.000	0.130
-635.595	800.000	-0.017	-0.053
-634.580	-200.000	0.008	-0.193
-633.565	114.334	-0.132	-0.163
-632.551	-85.538	0.243	0.077
-631.536	-200.000	0.009	-0.057
-630.522	36.682	-0.050	-0.045
-629.507	-148.943	-0.177	0.015
-628.492	-200.000	0.045	-0.207
-627.478	-64.662	-0.298	-0.123
-626.463	-174.796	0.189	-0.005
-625.449	-123.372	-0.059	-0.009
-624.434	-40.386	-0.143	0.075
-623.419	337.432	0.108	-0.213
-622.405	-200.000	-0.012	0.075
-621.390	800.000	0.025	-0.073
-620.376	800.000	-0.061	0.214
-619.361	-96.570	0.124	-0.033
-618.346	-200.000	0.048	0.286
-617.332	-94.428	-0.280	0.078
-616.317	-118.790	0.092	0.017
-615.303	118.113	0.102	0.128
-614.288	-0.884	-0.117	0.084
-613.273	-33.681	0.379	0.213
-612.259	-120.803	0.312	0.053
-611.244	-36.373	0.207	0.113
-610.230	14.922	-0.173	-0.137
-609.215	285.397	-0.098	-0.179
-608.201	-133.211	-0.163	0.021
-607.186	9.030	0.197	-0.151
-606.171	-200.000	0.014	-0.128
-605.157	-200.000	-0.018	-0.149
-604.142	-200.000	0.007	-0.219
-603.128	-200.000	0.058	-0.361
-602.113	800.000	-0.157	0.490
-601.098	288.291	0.151	-0.277
-600.084	55.586	-0.075	-0.074
-599.069	800.000	-0.030	-0.119
-598.055	-92.763	0.280	-0.080
-597.040	28.563	0.137	0.117
-596.025	-200.000	-0.041	0.377
-595.011	-52.704	0.164	-0.077
-593.996	-27.446	0.148	-0.088
-592.982	-22.737	0.160	-0.098
-591.967	-53.989	0.074	-0.034
-590.952	5.584	-0.166	-0.125
-589.938	524.988	0.069	-0.164
-588.923	-44.090	0.027	0.014
-587.909	42.950	-0.114	-0.106
-586.894	-124.548	-0.270	-0.043
-585.879	209.475	-0.233	0.370
-584.865	18.681	0.127	-0.103
-583.850	197.381	0.141	-0.218
-582.836	572.028	0.131	0.325
-581.821	437.927	0.080	-0.177
-580.806	164.765	0.135	0.193
-579.792	54.846	0.238	0.233
-578.777	309.605	-0.052	-0.098
-577.763	480.727	0.148	0.342
-576.748	-200.000	-0.006	-0.287
-575.733	-200.000	0.016	0.246
-574.719	222.848	0.222	-0.364
-573.704	-32.958	0.016	0.009
-572.690	233.375	0.127	0.212
-571.675	127.954	-0.243	-0.313
-570.661	125.694	0.231	-0.296
-569.646	-52.746	0.166	0.078
-568.631	-82.379	0.254	0.084
-567.617	259.575	-0.094	0.164
-566.602	-157.562	-0.051	0.003
-565.588	77.685	-0.181	-0.196
-564.573	257.207	-0.105	0.183
-563.558	-200.000	0.015	-0.205
-562.544	-45.768	-0.418	0.209
-561.529	452.165	0.081	-0.182
-560.515	9.322	0.120	-0.092
-559.500	55.198	-0.054	-0.053
-558.485	-79.233	0.143	-0.049
-557.471	-200.000	-0.049	-0.249
-556.456	-68.363	0.189	0.074
-555.442	-96.076	-0.409	0.110
-554.427	70.161	0.124	0.130
-553.412	-26.220	-0.408	-0.243
-552.398	-200.000	0.042	-0.203
-551.383	-200.000	-0.058	-0.479
-550.369	293.441	0.066	0.123
-549.354	17.743	-0.265	-0.214
-548.339	-6.910	0.039	-0.027
-547.325	28.505	-0.099	-0.085
-546.310	-96.972	-0.369	0.098
-545.296	221.956	0.051	0.083
-544.281	-71.676	-0.299	-0.113
-543.266	26.401	0.095	0.081
-542.252	84.773	-0.120	-0.133
-541.237	-200.000	0.028	-0.257
-540.223	13.580	0.091	-0.072
-539.208	-1.942	0.024	-0.017
-538.193	-200.000	-0.224	-0.001
-537.179	-200.000	0.026	-0.420
-536.164	197.413	-0.125	-0.194
-535.150	-198.957	0.144	0.001
-534.135	-151.794	0.205	0.015
-533.121	-140.978	0.099	-0.010
-532.106	43.099	0.379	-0.350
-531.091	800.000	0.040	-0.153
-530.077	173.026	-0.215	0.314
-529.062	108.333	-0.030	0.036
-528.048	65.477	0.073	0.075
-527.033	800.000	0.027	-0.105
-526.018	-116.123	-0.120	0.023
-525.004	475.936	0.054	0.124
-523.989	-89.842	0.145	0.043
-522.975	-158.711	-0.208	-0.012
-521.960	-200.000	0.028	0.476
-520.945	-200.000	-0.042	0.391
-519.931	51.580	0.205	-0.198
-518.916	-43.702	-0.219	0.112
-517.902	229.343	-0.150	-0.249
-516.887	-200.000	-0.001	0.240
-515.872	800.000	0.063	-0.217
-514.858	-103.495	-0.271	-0.064
-513.843	150.322	-0.103	-0.141
-512.829	208.160	-0.130	-0.206
-511.814	125.550	-0.037	-0.048
-510.799	-2.715	0.036	0.026
-509.785	-200.000	-0.008	-0.079
-508.770	-200.000	-0.017	0.190
-507.756	94.106	0.118	0.136
-506.741	-200.000	0.072	0.343
-505.726	-133.839	0.127	0.016
-504.712	58.327	0.083	0.082
-503.697	800.000	-0.107	-0.362
-502.683	800.000	0.130	-0.451
-501.668	-200.000	0.023	-0.105
-500.653	-38.773	0.119	0.064
-499.639	-200.000	-0.008	-0.120
-498.624	-38.832	0.167	-0.089
-497.610	-129.271	-0.304	-0.043
-496.595	-72.588	-0.100	0.037
-495.581	54.113	-0.178	0.173
-494.566	49.618	-0.196	-0.187
-493.551	38.577	0.200	0.180
-492.537	-36.191	-0.202	-0.110
-491.522	-200.000	0.006	-0.242
-490.508	-63.693	-0.173	0.072
-489.493	201.810	-0.130	-0.203
-488.478	29.493	0.207	-0.178
-487.464	-82.173	0.316	0.104
-486.449	-200.000	0.011	-0.189
-485.435	36.674	-0.126	-0.113
-484.420	-142.595	-0.137	-0.014
-483.405	-126.599	0.060	0.009
-482.391	-39.209	-0.078	0.042
-481.376	237.945	0.179	0.301
-480.362	-68.907	0.334	0.131
-479.347	-200.000	-0.016	-0.127
-478.332	-78.758	0.090	-0.031
-477.318	285.322	-0.131	-0.240
-476.303	780.521	0.058	0.160
-475.289	800.000	0.033	0.132
-474.274	-67.805	-0.329	0.130
-473.259	38.834	0.305	0.275
-472.245	69.016	0.183	-0.190
-471.230	203.029	0.108	-0.169
-470.216	63.059	-0.033	0.033
-469.201	-200.000	-0.051	0.295
-468.186	-108.021	0.233	-0.051
-467.172	20.061	-0.074	-0.060
-466.157	-200.000	-0.036	0.197
-465.143	0.750	0.249	0.180
-464.128	-56.560	-0.201	0.090
-463.113	-5.443	0.135	0.094
-462.099	-200.000	0.016	0.099
-461.084	385.360	-0.073	0.152
-460.070	-106.874	0.319	0.071
-459.055	-41.006	-0.158	-0.082
-458.040	115.576	-0.219	-0.270
-457.026	136.691	0.139	0.184
-456.011	-58.831	-0.340	0.148
-454.997	708.102	0.066	0.175
-453.982	427.464	0.085	-0.186
-452.968	-125.602	0.144	-0.022
-451.953	800.000	-0.057	0.238
-450.938	-97.804	0.384	0.100
-449.924	-126.809	0.174	0.026
-448.909	25.987	-0.225	-0.190
-447.895	-20.586	0.221	-0.137
-446.880	-137.368	0.175	-0.020
-445.865	-26.748	-0.231	0.136
-444.851	-200.000	-0.035	-0.190
-443.836	38.526	0.235	-0.212
-442.822	304.612	-0.042	0.079
-441.807	800.000	-0.130	0.543
-440.792	56.100	0.138	-0.135
-439.778	63.550	0.109	0.111
-438.763	-90.423	0.181	0.053
-437.749	-135.847	0.273	0.033
-436.734	-40.521	-0.302	-0.158
-435.719	-97.566	-0.309	-0.081
-434.705	-200.000	-0.013	-0.204
-433.690	-200.000	-0.006	-0.212
-432.676	76.432	-0.132	0.141
-431.661	75.314	-0.173	0.184
-430.646	80.602	-0.237	0.258
-429.632	-34.885	-0.263	-0.145
-428.617	251.213	-0.063	-0.107
-427.603	-158.996	-0.292	-0.017
-426.588	6.183	-0.255	0.191
-425.573	-152.589	0.077	-0.006
-424.559	467.939	-0.059	0.134
-423.544	508.501	-0.098	0.230
-422.530	-77.687	0.410	0.143
-421.515	256.835	0.137	0.237
-420.500	502.942	-0.034	0.079
-419.486	-151.154	0.097	-0.007
-418.471	106.354	-0.206	0.246
-417.457	-200.000	0.069	0.310
-416.442	-111.309	-0.170	-0.035
-415.428	216.907	-0.100	-0.160
-414.413	73.451	0.190	-0.200
-413.398	800.000	-0.051	-0.219
-412.384	671.709	0.113	-0.296
-411.369	446.288	-0.010	-0.023
-410.355	-200.000	0.035	0.244
-409.340	-115.439	-0.172	-0.033
-408.325	35.059	-0.166	-0.147
-407.311	172.642	0.085	0.124
-406.296	-123.326	0.211	-0.034
-405.282	-51.875	0.074	0.035
-404.267	-90.970	0.212	-0.062
-403.252	35.365	0.056	-0.050
-402.238	244.809	0.058	0.099
-401.223	138.106	0.181	0.239
-400.209	31.605	0.150	-0.130
-399.194	145.983	0.062	0.084
-398.179	-67.530	-0.152	-0.060
-397.165	629.827	-0.069	0.177
-396.150	7.170	0.226	0.170
-395.136	19.264	0.128	0.103
-394.121	-77.717	-0.113	0.039
-393.106	-136.814	-0.172	0.020
-392.092	800.000	-0.015	-0.061
-391.077	87.515	0.263	-0.293
-390.063	-61.035	0.111	0.047
-389.048	-41.469	-0.265	-0.137
-388.033	769.639	0.156	-0.429
-387.019	800.000	0.111	-0.315
-386.004	223.855	-0.064	-0.104
-384.990	297.636	-0.114	-0.211
-383.975	578.697	0.257	-0.634
-382.960	-200.000	0.056	0.302
-381.946	19.008	-0.148	0.120
-380.931	114.570	0.207	-0.254
-379.917	-200.000	-0.025	-0.136
-378.902	-166.368	0.222	0.009
-377.888	-95.985	-0.246	-0.066
-376.873	69.249	-0.032	0.033
-375.858	800.000	0.069	0.199
-374.844	800.000	-0.105	0.349
-373.829	800.000	-0.061	-0.172
-372.815	-200.000	0.018	-0.105
-371.800	373.719	-0.032	0.065
-370.785	-200.000	0.027	-0.288
-369.771	41.320	-0.176	-0.160
-368.756	-4.755	0.179	0.124
-367.742	-1.782	0.097	-0.069
-366.727	-200.000	0.420	-0.000
-365.712	66.254	0.169	0.172
-364.698	26.420	0.160	0.135
-363.683	31.137	-0.202	-0.175
-362.669	-200.000	-0.008	-0.044
-361.654	-23.715	-0.214	0.129
-360.639	800.000	-0.063	0.223
-359.625	-200.000	0.004	0.284
-358.610	53.608	-0.144	-0.139
-357.596	-102.338	-0.137	-0.033
-356.581	-18.735	-0.255	-0.160
-355.566	-138.654	0.211	0.023
-354.552	0.427	0.220	0.158
-353.537	548.994	-0.095	-0.230
-352.523	-200.000	0.013	0.101
-351.508	72.176	0.082	0.086
-350.493	-113.255	-0.388	-0.077
-349.479	-90.363	0.195	-0.057
-348.464	99.628	-0.102	-0.118
-347.450	52.145	0.157	0.151
-346.435	-22.436	-0.288	-0.175
-345.420	-112.769	0.079	0.016
-344.406	-200.000	0.018	0.427
-343.391	704.604	-0.192	0.508
-342.377	-200.000	-0.002	0.076
-341.362	-200.000	0.080	0.394
-340.348	-144.891	0.392	0.036
-339.333	-200.000	-0.045	0.327
-338.318	-200.000	-0.050	0.379
-337.304	173.630	-0.262	0.380
-336.289	-62.118	0.190	0.080
-335.275	167.772	0.037	-0.053
-334.260	-21.644	-0.196	-0.120
-333.245	-200.000	0.064	-0.308
-332.231	336.655	0.126	-0.247
-331.216	30.383	0.176	-0.151
-330.202	486.967	0.046	-0.105
-329.187	386.940	-0.102	0.212
-328.172	800.000	-0.037	-0.136
-327.158	488.085	-0.092	0.211
-326.143	-42.565	-0.105	0.054
-325.129	800.000	-0.099	0.359
-324.114	212.244	0.039	0.062
-323.099	-92.079	-0.131	0.037
-322.085	-200.000	0.047	-0.281
-321.070	-116.247	0.337	0.063
-320.056	-57.269	-0.381	0.168
-319.041	27.475	0.216	0.183
-318.026	-200.000	-0.030	-0.183
-317.012	32.636	-0.087	-0.075
-315.997	-200.000	-0.003	0.180
-314.983	-200.000	0.045	0.243
-313.968	233.667	0.161	-0.267
-312.953	668.391	-0.105	-0.272
-311.939	800.000	-0.032	-0.114
-310.924	-200.000	0.007	-0.052
-309.910	-21.548	0.139	0.085
-308.895	-200.000	-0.020	0.341
-307.880	659.344	-0.033	-0.085
-306.866	800.000	0.068	-0.281
-305.851	-52.406	-0.248	-0.115
-304.837	-200.000	0.067	0.346
-303.822	-47.176	0.426	-0.208
-302.807	593.146	-0.135	-0.334
-301.793	-87.511	-0.192	0.058
-300.778	-187.506	0.187	0.003
-299.764	800.000	-0.077	0.307
-298.749	-61.524	-0.068	0.029
-297.735	800.000	-0.039	-0.110
-296.720	800.000	-0.114	-0.473
-295.705	-101.391	0.333	-0.082
-294.691	800.000	0.079	0.273
-293.676	-44.548	0.199	0.100
-292.662	149.552	-0.175	0.238
-291.647	578.003	0.232	0.569
-290.632	-42.857	0.086	0.044
-289.618	-143.984	0.271	0.026
-288.603	105.476	-0.113	0.134
-287.589	116.528	0.110	0.136
-286.574	61.272	0.193	0.193
-285.559	-1.731	0.297	0.210
-284.545	142.522	0.166	0.221
-283.530	16.944	0.211	0.168
-282.516	8.625	0.140	0.106
-281.501	141.629	0.117	0.156
-280.486	15.478	-0.147	0.116
-279.472	48.985	0.280	-0.263
-278.457	-200.000	-0.008	0.422
-277.443	200.657	-0.020	-0.030
-276.428	-82.423	0.313	0.102
-275.413	-102.489	-0.281	-0.067
-274.399	111.067	-0.072	0.087
-273.384	29.933	-0.106	0.090
-272.370	-125.483	-0.086	0.013
-271.355	19.348	-0.381	0.307
-270.340	-97.147	0.050	0.013
-269.326	124.685	0.258	0.326
-268.311	160.625	-0.107	0.150
-267.297	771.279	-0.068	-0.187
-266.282	800.000	0.075	0.297
-265.267	-16.320	0.108	0.069
-264.253	324.146	-0.114	-0.218
-263.238	27.097	0.158	0.133
-262.224	800.000	-0.060	0.236
-261.209	123.214	0.277	0.348
-260.195	-82.130	-0.155	-0.051
-259.180	-200.000	0.002	0.025
-258.165	-200.000	0.002	0.016
-257.151	128.871	0.174	-0.223
-256.136	144.709	-0.152	0.203
-255.122	655.250	-0.073	0.187
-254.107	197.557	-0.043	-0.066
-253.092	778.284	0.104	0.284
-252.078	22.475	-0.048	-0.040
-251.063	-200.000	0.055	0.360
-250.049	-125.903	-0.570	-0.086
-249.034	-89.103	0.266	0.079
-248.019	-200.000	0.001	0.067
-247.005	-29.140	-0.179	-0.103
-245.990	131.317	-0.142	0.183
-244.976	-200.000	0.029	0.131
-243.961	800.000	0.055	-0.166
-242.946	-22.053	-0.184	0.112
-241.932	-8.035	0.214	-0.145
-240.917	160.922	-0.162	-0.227
-239.903	-82.702	0.422	-0.137
-238.888	88.614	0.129	-0.144
-237.873	196.304	-0.052	-0.079
-236.859	-200.000	-0.025	-0.323
-235.844	159.797	0.090	0.125
-234.830	-82.883	-0.174	-0.056
-233.815	-6.275	-0.092	-0.063
-232.800	-102.532	-0.230	-0.055
-231.786	-99.473	0.088	-0.022
-230.771	800.000	-0.146	-0.421
-229.757	97.063	0.173	-0.199
-228.742	733.295	0.093	-0.249
-227.727	-68.511	-0.165	0.064
-226.713	-200.000	0.026	0.161
-225.698	-102.365	0.212	0.051
-224.684	-4.135	-0.079	0.054
-223.669	74.571	0.011	-0.011
-222.655	-28.409	0.040	-0.023
-221.640	153.757	0.093	0.127
-220.625	325.056	0.088	-0.169
-219.611	-142.248	-0.144	-0.014
-218.596	-93.396	-0.120	0.033
-217.582	-200.000	-0.082	-0.462
-216.567	-200.000	0.001	0.220
-215.552	265.500	-0.017	-0.030
-214.538	-167.228	-0.548	-0.022
-213.523	255.656	0.173	0.296
-212.509	800.000	-0.024	-0.084
-211.494	4.837	-0.081	-0.060
-210.479	406.271	-0.128	0.270
-209.465	206.924	-0.206	0.322
-208.450	-164.196	0.288	-0.013
-207.436	201.534	0.159	-0.246
-206.421	-116.883	-0.204	-0.037
-205.406	-38.988	-0.378	-0.199
-204.392	-3.674	-0.156	-0.109
-203.377	800.000	-0.097	-0.358
-202.363	-200.000	-0.042	0.238
-201.348	68.211	-0.165	-0.169
-200.333	800.000	0.032	0.097
-199.319	-200.000	-0.005	-0.139
-198.304	-9.317	0.152	-0.102
-197.290	-15.587	-0.224	-0.143
-196.275	-172.619	-0.313	0.010
-195.260	-200.000	-0.009	0.063
-194.246	127.774	-0.071	-0.090
-193.231	105.933	-0.234	0.276
-192.217	-131.127	0.133	-0.018
-191.202	-23.077	0.194	0.117
-190.187	800.000	-0.036	-0.148
-189.173	-200.000	-0.011	-0.123
-188.158	-6.051	0.079	-0.054
-187.144	-54.534	-0.164	-0.074
-186.129	-60.419	-0.411	0.175
-185.114	800.000	-0.099	-0.318
-184.100	-52.501	0.171	-0.079
-183.085	196.274	0.105	-0.159
-182.071	715.174	-0.117	-0.310
-181.056	-141.812	-0.270	-0.027
-180.042	-52.222	0.093	0.043
-179.027	0.015	-0.167	0.119
-178.012	-134.509	0.017	-0.002
-176.998	17.895	-0.232	0.185
-175.983	221.347	-0.167	-0.268
-174.969	-3.809	0.241	-0.167
-173.954	-87.401	0.198	0.060
-172.939	1.438	0.188	-0.135
-171.925	-145.139	0.094	0.009
-170.910	448.818	0.109	0.240
-169.896	800.000	0.063	-0.232
-168.881	-50.661	-0.476	-0.224
-167.866	800.000	0.058	-0.170
-166.852	14.343	0.256	0.200
-165.837	-200.000	0.018	-0.240
-164.823	506.332	-0.112	-0.259
-163.808	-200.000	0.032	-0.152
-162.793	41.242	0.154	0.139
-161.779	497.605	0.053	0.122
-160.764	-200.000	0.022	-0.126
-159.750	-97.130	0.391	0.102
-158.735	-88.867	-0.111	0.033
-157.720	-127.083	-0.339	-0.050
-156.706	-73.477	-0.080	-0.029
-155.691	53.981	0.208	0.200
-154.677	-91.281	-0.340	-0.097
-153.662	-200.000	-0.060	-0.310
-152.647	-174.778	-0.195	-0.005
-151.633	6.472	-0.396	0.294
-150.618	-133.328	0.099	0.012
-149.604	49.436	-0.216	0.203
-148.589	800.000	-0.091	-0.276
-147.574	28.757	-0.362	-0.306
-146.560	-39.649	-0.169	0.089
-145.545	-200.000	0.068	0.300
-144.531	324.815	0.120	-0.228
-143.516	379.569	0.062	-0.127
-142.502	-200.000	-0.009	0.055
-141.487	-200.000	-0.006	-0.094
-140.472	-39.092	-0.180	-0.094
-139.458	-26.591	-0.147	0.086
-138.443	204.220	0.158	-0.245
-137.429	-109.279	0.339	-0.072
-136.414	436.088	-0.059	0.128
-135.399	-200.000	0.007	-0.106
-134.385	-200.000	-0.007	0.201
-133.370	166.467	-0.243	0.343
-132.356	243.548	-0.170	0.285
-131.341	623.172	-0.077	0.193
-130.326	-11.265	0.181	-0.119
-129.312	188.855	0.111	-0.166
-128.297	800.000	0.048	-0.201
-127.283	800.000	0.093	-0.366
-126.268	-111.023	0.259	-0.053
-125.253	57.873	0.124	0.122
-124.239	800.000	0.081	0.237
-123.224	800.000	0.044	0.162
-122.210	82.838	0.160	-0.173
-121.195	-24.668	-0.292	0.173
