DTS Sentinel unit serial number:	SN413079Multiplexer serial number:	ORYXHardware model number:	OX4-SRSoftware version number:	ORYX F/W v4.00 Oryx Data Collector v3.7.2.0data status	okinstallation	princeton_trtdifferential loss correction	single-endedforward channel	channel 3reverse channel	N/Adate	2019/09/18time	14:04:34forward acquisition time	60.00reverse acquisition time	0.00gamma	496.2192k internal	0.2311k external	0.2311temperature offset calibration	0.9977default loss term (dB/km)	0.3790temperature slope calibration	1.0000multiplexer offset coefficient	1.0000multiplexer slope coefficient	1.0000fibre end	0.00T internal ref (°C)	34.44T ext. ref 1 (°C)	0.67T ext. ref 2 (°C)	28.79length (m)	temperature (°C)	Stokes	anti-Stokes-747.200	-35.227	0.186	0.103
-746.185	-157.060	0.252	-0.016
-745.171	-14.308	0.263	0.172
-744.156	699.057	0.071	0.191
-743.142	-177.303	0.222	-0.006
-742.127	-80.160	-0.161	0.055
-741.112	-200.000	-0.013	0.063
-740.098	-7.204	-0.356	0.245
-739.083	800.000	-0.089	0.335
-738.069	82.630	-0.078	-0.086
-737.054	-104.743	0.105	0.025
-736.039	-180.409	-0.329	0.007
-735.025	24.496	0.117	-0.098
-734.010	35.212	-0.022	0.020
-732.996	-138.962	-0.173	-0.019
-731.981	-149.969	-0.239	-0.019
-730.966	61.297	0.211	0.213
-729.952	-3.470	0.173	-0.122
-728.937	563.353	-0.140	-0.345
-727.923	198.179	0.100	0.155
-726.908	-69.677	-0.196	-0.076
-725.894	-200.000	0.001	0.067
-724.879	-11.281	-0.178	0.119
-723.864	0.954	0.320	0.232
-722.850	-50.466	-0.329	-0.158
-721.835	-134.484	-0.191	0.024
-720.821	-8.206	-0.199	0.136
-719.806	74.961	-0.072	0.077
-718.791	-19.827	-0.031	0.020
-717.777	-98.666	0.303	0.078
-716.762	800.000	0.018	0.056
-715.748	-84.591	-0.090	-0.029
-714.733	-200.000	-0.032	0.193
-713.718	-125.151	-0.181	-0.028
-712.704	-110.362	-0.355	-0.075
-711.689	406.769	0.133	-0.286
-710.675	-39.800	0.210	0.111
-709.660	117.090	-0.105	0.131
-708.645	-65.840	-0.157	-0.064
-707.631	-200.000	-0.005	-0.192
-706.616	800.000	0.067	0.193
-705.602	66.805	-0.115	-0.119
-704.587	-16.684	-0.273	-0.175
-703.572	-131.399	0.264	-0.035
-702.558	-23.781	0.045	-0.027
-701.543	-139.192	0.423	0.046
-700.529	-200.000	0.019	-0.210
-699.514	-200.000	-0.005	-0.077
-698.499	118.748	0.126	-0.158
-697.485	800.000	0.048	-0.134
-696.470	-66.755	0.357	-0.143
-695.456	-7.986	-0.504	0.344
-694.441	-60.711	0.207	-0.089
-693.426	-199.808	0.210	-0.001
-692.412	196.662	0.144	-0.222
-691.397	128.441	-0.094	-0.122
-690.383	80.939	-0.045	0.049
-689.368	-200.000	0.008	-0.091
-688.354	-132.170	0.143	-0.019
-687.339	-35.523	0.174	0.096
-686.324	-135.102	-0.117	0.014
-685.310	27.440	0.334	-0.285
-684.295	-104.225	0.270	0.063
-683.281	-200.000	-0.035	-0.234
-682.266	-106.525	-0.176	-0.040
-681.251	-49.687	0.073	0.035
-680.237	60.531	-0.254	-0.255
-679.222	-200.000	-0.008	-0.095
-678.208	-4.302	0.228	0.159
-677.193	-23.682	0.041	-0.025
-676.178	255.460	0.159	-0.276
-675.164	-200.000	-0.024	-0.157
-674.149	-200.000	-0.026	0.167
-673.135	-147.699	-0.172	0.015
-672.120	378.242	-0.024	0.051
-671.105	800.000	0.040	-0.148
-670.091	-165.603	0.079	0.003
-669.076	-107.883	-0.167	-0.037
-668.062	-93.388	-0.275	0.077
-667.047	-56.511	0.298	-0.134
-666.032	-98.063	-0.054	0.014
-665.018	800.000	0.040	-0.174
-664.003	-77.363	-0.235	-0.083
-662.989	-16.571	0.306	-0.196
-661.974	-124.098	0.122	0.019
-660.959	-200.000	0.012	0.089
-659.945	572.439	0.071	0.175
-658.930	76.617	0.148	-0.158
-657.916	-200.000	-0.029	-0.246
-656.901	348.832	0.094	0.188
-655.886	-143.691	0.094	0.009
-654.872	-200.000	-0.002	0.537
-653.857	-136.553	-0.292	0.034
-652.843	-97.767	-0.204	-0.053
-651.828	38.835	-0.187	-0.169
-650.814	563.079	-0.108	0.265
-649.799	112.238	0.333	0.408
-648.784	-5.105	0.366	0.255
-647.770	-142.830	0.289	0.028
-646.755	481.380	0.140	0.322
-645.741	46.203	0.233	0.218
-644.726	-200.000	-0.002	0.397
-643.711	31.482	-0.343	-0.298
-642.697	-56.274	-0.449	0.202
-641.682	-200.000	-0.001	-0.064
-640.668	25.405	-0.098	-0.082
-639.653	-127.098	0.269	0.040
-638.638	-200.000	0.018	-0.134
-637.624	340.070	0.078	-0.155
-636.609	-151.283	0.075	-0.006
-635.595	-79.626	-0.541	-0.184
-634.580	-200.000	-0.032	-0.241
-633.565	-137.331	-0.046	-0.005
-632.551	9.466	0.113	-0.087
-631.536	52.635	0.190	0.184
-630.522	-123.056	-0.431	-0.070
-629.507	241.209	-0.255	-0.431
-628.492	-1.770	-0.169	-0.120
-627.478	-171.961	0.106	0.003
-626.463	282.271	-0.127	0.231
-625.449	506.646	-0.087	0.203
-624.434	-200.000	-0.035	-0.155
-623.419	72.819	-0.078	-0.083
-622.405	-91.702	0.162	-0.047
-621.390	107.239	0.082	0.098
-620.376	648.102	0.039	0.101
-619.361	402.547	0.032	0.067
-618.346	-93.054	0.162	-0.046
-617.332	-200.000	0.007	-0.098
-616.317	273.661	-0.099	-0.177
-615.303	-200.000	0.014	-0.371
-614.288	800.000	0.090	-0.258
-613.273	59.022	-0.045	0.044
-612.259	-23.226	-0.248	0.151
-611.244	-58.712	-0.179	-0.078
-610.230	-50.482	-0.218	0.104
-609.215	451.580	0.084	0.187
-608.201	-26.194	-0.157	0.093
-607.186	326.509	0.044	0.086
-606.171	-108.174	0.401	-0.088
-605.157	51.582	-0.159	0.152
-604.142	-200.000	0.054	0.322
-603.128	-38.692	-0.344	0.183
-602.113	11.761	0.161	-0.125
-601.098	-110.324	-0.261	0.055
-600.084	800.000	-0.049	0.210
-599.069	773.062	-0.059	0.163
-598.055	108.345	0.102	0.123
-597.040	-114.268	0.452	0.088
-596.025	-117.000	0.063	-0.012
-595.011	142.811	-0.120	-0.161
-593.996	578.989	-0.042	-0.105
-592.982	108.561	-0.182	-0.219
-591.967	414.989	-0.024	0.051
-590.952	295.609	0.097	0.180
-589.938	-56.533	0.172	-0.077
-588.923	-200.000	0.014	-0.336
-587.909	125.146	-0.094	-0.119
-586.894	22.073	0.138	0.113
-585.879	-47.529	0.257	-0.126
-584.865	-11.368	-0.087	-0.057
-583.850	800.000	-0.083	0.360
-582.836	220.977	-0.149	0.241
-581.821	-87.340	-0.372	0.114
-580.806	110.209	-0.041	-0.050
-579.792	185.932	0.227	-0.340
-578.777	-133.892	-0.304	-0.038
-577.763	800.000	-0.059	-0.181
-576.748	45.130	-0.069	-0.064
-575.733	-63.379	0.251	0.104
-574.719	-98.267	0.220	0.057
-573.704	-72.086	0.140	0.052
-572.690	-54.644	-0.119	0.054
-571.675	-200.000	-0.003	0.294
-570.661	52.284	-0.155	-0.149
-569.646	-72.004	0.318	-0.119
-568.631	-116.745	0.183	-0.034
-567.617	591.949	-0.077	0.191
-566.602	-174.165	0.230	-0.007
-565.588	-150.464	-0.144	-0.011
-564.573	-81.122	-0.237	0.079
-563.558	800.000	0.068	0.204
-562.544	213.465	0.087	0.139
-561.529	-200.000	0.001	0.105
-560.515	187.062	-0.170	0.255
-559.500	132.990	-0.002	-0.002
-558.485	800.000	0.105	-0.301
-557.471	-51.886	-0.377	-0.177
-556.456	-200.000	0.007	-0.121
-555.442	-200.000	0.022	-0.157
-554.427	-200.000	0.018	-0.187
-553.412	-200.000	0.019	0.134
-552.398	-81.278	-0.114	-0.038
-551.383	87.493	-0.163	0.181
-550.369	800.000	0.041	0.117
-549.354	-200.000	-0.026	0.265
-548.339	-200.000	-0.006	0.048
-547.325	-200.000	0.042	0.334
-546.310	-200.000	-0.016	-0.146
-545.296	427.982	-0.157	0.343
-544.281	217.318	-0.265	0.426
-543.266	-7.283	-0.236	0.161
-542.252	187.214	-0.178	0.268
-541.237	18.374	0.239	-0.192
-540.223	-23.815	0.102	0.061
-539.208	415.625	-0.048	-0.102
-538.193	-22.111	0.112	-0.069
-537.179	-200.000	-0.035	-0.185
-536.164	47.884	-0.177	0.167
-535.150	-86.800	-0.415	-0.128
-534.135	800.000	-0.133	0.407
-533.121	800.000	0.060	0.217
-532.106	-65.911	-0.141	0.057
-531.091	59.109	0.077	0.076
-530.077	16.498	0.297	0.236
-529.062	-75.139	0.466	-0.168
-528.048	-200.000	-0.026	-0.281
-527.033	-21.841	0.417	0.255
-526.018	800.000	0.019	0.078
-525.004	-83.782	-0.271	-0.087
-523.989	-200.000	-0.020	0.269
-522.975	148.922	0.144	-0.196
-521.960	-60.583	0.293	0.125
-520.945	-200.000	-0.064	0.327
-519.931	-10.962	0.258	0.171
-518.916	-98.791	-0.259	0.066
-517.902	197.535	-0.207	0.318
-516.887	231.529	-0.183	-0.301
-515.872	213.402	-0.140	-0.222
-514.858	-72.705	0.243	-0.090
-513.843	-48.234	-0.186	-0.090
-512.829	48.996	-0.288	-0.272
-511.814	-70.978	-0.123	-0.047
-510.799	800.000	0.153	0.434
-509.785	-69.874	-0.465	0.178
-508.770	-161.552	-0.146	0.008
-507.756	341.836	0.057	-0.111
-506.741	-27.241	-0.134	0.078
-505.726	-20.318	-0.061	-0.038
-504.712	-66.682	-0.243	-0.097
-503.697	-125.780	-0.186	-0.028
-502.683	-63.867	-0.039	-0.016
-501.668	-108.408	-0.067	-0.015
-500.653	706.160	0.059	-0.158
-499.639	83.706	-0.150	0.165
-498.624	17.960	-0.056	-0.045
-497.610	-6.632	-0.311	-0.213
-496.595	319.720	0.117	-0.223
-495.581	-63.389	-0.045	0.019
-494.566	-15.921	0.041	-0.026
-493.551	257.965	0.141	0.245
-492.537	-7.012	-0.094	0.064
-491.522	-187.696	0.084	0.001
-490.508	-63.164	-0.335	0.139
-489.493	-200.000	-0.029	-0.238
-488.478	-70.522	0.144	-0.055
-487.464	75.671	-0.226	-0.240
-486.449	-90.816	-0.261	-0.076
-485.435	-200.000	0.018	0.425
-484.420	44.429	-0.106	-0.098
-483.405	81.151	0.075	-0.081
-482.391	-61.657	0.180	0.076
-481.376	11.031	-0.315	0.242
-480.362	-83.718	-0.234	-0.075
-479.347	-200.000	0.018	-0.296
-478.332	-200.000	-0.020	0.257
-477.318	268.910	0.072	-0.126
-476.303	-62.396	0.237	-0.099
-475.289	4.705	0.357	0.263
-474.274	165.253	0.083	-0.117
-473.259	-50.603	-0.012	-0.006
-472.245	-190.462	0.017	-0.000
-471.230	637.529	0.074	0.189
-470.216	-136.830	0.285	0.033
-469.201	-177.090	-0.221	-0.006
-468.186	-107.478	-0.336	0.074
-467.172	71.663	0.061	-0.064
-466.157	758.538	-0.058	0.157
-465.143	800.000	-0.021	0.075
-464.128	768.842	-0.040	0.109
-463.113	175.528	0.186	-0.271
-462.099	-43.022	0.208	0.106
-461.084	-117.420	0.262	0.048
-460.070	-200.000	-0.003	0.155
-459.055	63.735	0.104	-0.105
-458.040	113.613	-0.129	-0.157
-457.026	-62.641	0.326	0.136
-456.011	493.462	0.063	0.145
-454.997	-52.372	-0.320	-0.149
-453.982	21.455	-0.304	-0.248
-452.968	-168.939	0.085	-0.003
-451.953	128.363	0.128	-0.164
-450.938	74.359	-0.326	-0.344
-449.924	11.895	0.281	0.216
-448.909	-101.949	-0.326	0.079
-447.895	-8.609	0.143	-0.097
-446.880	11.250	0.171	-0.131
-445.865	-200.000	0.011	-0.114
-444.851	800.000	0.087	0.249
-443.836	-74.167	0.118	-0.043
-442.822	404.318	-0.117	0.248
-441.807	247.260	0.198	-0.335
-440.792	332.042	0.006	-0.012
-439.778	103.628	-0.238	0.280
-438.763	-37.475	-0.056	0.030
-437.749	800.000	-0.025	-0.092
-436.734	-200.000	0.007	-0.266
-435.719	76.063	-0.240	0.255
-434.705	-127.987	0.386	-0.056
-433.690	25.893	0.166	-0.139
-432.676	103.305	-0.081	-0.095
-431.661	-116.330	0.177	0.033
-430.646	-200.000	0.008	0.120
-429.632	-200.000	-0.001	-0.114
-428.617	800.000	0.154	-0.502
-427.603	240.215	-0.106	0.177
-426.588	22.477	-0.287	-0.235
-425.573	162.364	0.211	0.296
-424.559	-2.940	-0.067	-0.047
-423.544	3.765	-0.106	0.078
-422.530	308.110	-0.074	0.138
-421.515	-150.959	0.077	-0.006
-420.500	-32.568	0.120	0.067
-419.486	800.000	-0.069	-0.293
-418.471	-4.866	0.221	-0.153
-417.457	-19.625	0.229	-0.142
-416.442	-49.249	0.152	0.073
-415.428	224.778	-0.131	-0.213
-414.413	-70.368	-0.416	-0.158
-413.398	-111.993	0.397	-0.080
-412.384	150.172	0.082	-0.112
-411.369	233.999	-0.143	-0.236
-410.355	-19.742	0.103	-0.064
-409.340	800.000	0.147	-0.461
-408.325	186.451	-0.193	-0.288
-407.311	-200.000	-0.063	-0.298
-406.296	-113.432	0.133	-0.026
-405.282	-25.878	-0.155	0.091
-404.267	-200.000	-0.046	-0.537
-403.252	-41.445	0.271	-0.140
-402.238	6.505	-0.127	-0.095
-401.223	-61.309	-0.052	-0.022
-400.209	73.910	0.158	-0.166
-399.194	-20.328	0.257	0.159
-398.179	224.999	-0.042	0.067
-397.165	-162.767	0.301	-0.015
-396.150	220.017	-0.142	-0.228
-395.136	800.000	0.038	0.159
-394.121	-200.000	0.047	0.273
-393.106	-122.733	0.149	-0.024
-392.092	139.900	-0.055	0.073
-391.077	-200.000	0.007	-0.296
-390.063	-2.674	0.138	-0.097
-389.048	-153.206	0.271	0.019
-388.033	129.599	0.058	-0.074
-387.019	-200.000	-0.015	-0.086
-386.004	308.562	0.107	0.201
-384.990	-187.760	0.257	0.003
-383.975	-200.000	0.020	-0.102
-382.960	-59.030	-0.088	0.038
-381.946	-31.709	0.080	-0.045
-380.931	-157.305	0.243	-0.015
-379.917	-200.000	0.063	-0.293
-378.902	-200.000	0.066	-0.548
-377.888	368.366	0.098	-0.198
-376.873	157.312	-0.109	0.151
-375.858	-72.535	0.315	-0.116
-374.844	-200.000	0.009	0.128
-373.829	-16.630	-0.153	-0.097
-372.815	276.750	-0.066	0.118
-371.800	-18.455	0.192	-0.120
-370.785	-147.817	0.386	0.032
-369.771	90.685	-0.159	0.178
-368.756	209.474	0.076	-0.120
-367.742	97.201	0.062	-0.071
-366.727	-85.017	0.074	-0.023
-365.712	-107.236	-0.103	-0.023
-364.698	283.903	0.065	-0.116
-363.683	73.314	-0.160	0.167
-362.669	-11.533	-0.217	0.143
-361.654	-119.586	0.201	0.035
-360.639	-158.811	-0.151	-0.009
-359.625	133.099	-0.072	-0.093
-358.610	157.639	0.074	0.103
-357.596	-1.900	0.090	0.063
-356.581	160.875	0.093	-0.129
-355.566	-100.627	0.149	0.037
-354.552	-200.000	-0.008	0.076
-353.537	12.417	-0.076	-0.059
-352.523	722.417	-0.065	-0.174
-351.508	-29.534	-0.081	0.046
-350.493	-123.585	0.153	-0.024
-349.479	-163.795	0.233	0.011
-348.464	364.826	-0.094	0.189
-347.450	174.137	0.121	0.175
-346.435	-27.039	-0.116	0.068
-345.420	264.314	-0.090	0.156
-344.406	-200.000	0.015	-0.194
-343.391	128.105	0.140	-0.178
-342.377	582.712	-0.051	-0.126
-341.362	694.050	-0.037	-0.097
-340.348	-200.000	-0.011	0.312
-339.333	34.799	-0.095	-0.083
-338.318	-200.000	-0.057	-0.410
-337.304	800.000	0.019	-0.072
-336.289	-38.210	-0.305	-0.162
-335.275	-118.261	0.197	-0.035
-334.260	8.317	-0.103	-0.077
-333.245	459.820	-0.084	0.186
-332.231	287.840	0.078	-0.142
-331.216	-61.969	0.251	-0.105
-330.202	-64.039	0.165	-0.067
-329.187	622.881	-0.218	0.548
-328.172	366.741	-0.152	0.307
-327.158	463.405	0.022	-0.049
-326.143	6.108	-0.120	-0.089
-325.129	615.133	0.146	-0.366
-324.114	-105.943	0.287	0.065
-323.099	800.000	-0.057	0.217
-322.085	412.657	-0.042	0.090
-321.070	-131.134	-0.053	0.007
-320.056	186.399	-0.117	0.174
-319.041	-90.403	0.284	0.082
-318.026	502.777	0.031	-0.071
-317.012	-151.488	-0.127	0.009
-315.997	259.319	0.081	0.139
-314.983	128.105	-0.182	-0.232
-313.968	-200.000	-0.009	-0.437
-312.953	-118.315	0.442	0.078
-311.939	125.245	0.168	0.211
-310.924	560.522	-0.131	-0.317
-309.910	-72.018	-0.303	0.112
-308.895	-177.670	0.573	0.014
-307.880	479.912	0.048	0.108
-306.866	-200.000	-0.004	0.149
-305.851	-167.455	0.196	0.008
-304.837	-22.434	-0.213	0.129
-303.822	-99.349	-0.148	0.037
-302.807	53.077	-0.315	0.301
-301.793	800.000	-0.024	-0.078
-300.778	113.569	0.137	-0.166
-299.764	-18.217	0.381	-0.238
-298.749	293.070	0.153	-0.278
-297.735	40.280	0.230	0.206
-296.720	-200.000	-0.011	0.240
-295.705	579.562	-0.150	-0.366
-294.691	-200.000	-0.005	0.141
-293.676	-200.000	0.043	0.354
-292.662	-200.000	0.005	-0.110
-291.647	-41.765	-0.294	0.151
-290.632	23.730	0.144	-0.118
-289.618	-78.159	-0.288	-0.099
-288.603	31.041	0.206	0.176
-287.589	-126.861	-0.140	-0.021
-286.574	-44.101	-0.061	-0.031
-285.559	-93.930	-0.307	0.084
-284.545	800.000	0.093	0.384
-283.530	528.223	0.020	0.047
-282.516	-200.000	0.016	-0.242
-281.501	95.633	-0.159	0.181
-280.486	-181.803	-0.400	-0.008
-279.472	680.379	0.103	0.269
-278.457	-46.001	0.259	0.127
-277.443	-31.170	0.257	-0.145
-276.428	-74.356	-0.030	-0.011
-275.413	-200.000	0.015	0.166
-274.399	328.220	-0.140	0.268
-273.384	-200.000	0.043	0.252
-272.370	144.656	0.112	-0.149
-271.355	-200.000	-0.013	0.335
-270.340	107.914	-0.050	-0.059
-269.326	-177.011	0.271	0.007
-268.311	-49.555	0.162	0.077
-267.297	202.129	-0.054	0.083
-266.282	-45.358	0.165	-0.082
-265.267	800.000	0.117	0.332
-264.253	-200.000	0.081	0.441
-263.238	-200.000	-0.020	0.355
-262.224	-200.000	0.017	-0.099
-261.209	185.181	-0.317	-0.468
-260.195	1.075	0.191	-0.136
-259.180	-200.000	0.053	-0.353
-258.165	-200.000	0.004	0.236
-257.151	643.797	-0.129	-0.327
-256.136	13.220	0.150	-0.116
-255.122	244.938	0.152	0.255
-254.107	139.678	-0.308	-0.404
-253.092	520.340	-0.120	0.281
-252.078	211.292	0.089	0.140
-251.063	220.770	-0.214	0.342
-250.049	800.000	-0.031	-0.085
-249.034	800.000	-0.032	-0.118
-248.019	-31.154	0.393	0.221
-247.005	297.553	-0.021	-0.038
-245.990	-76.360	-0.127	-0.045
-244.976	-103.406	0.102	0.024
-243.961	-103.510	-0.329	-0.077
-242.946	-200.000	-0.059	-0.273
-241.932	-135.448	-0.248	-0.029
-240.917	800.000	-0.123	-0.422
-239.903	15.106	0.327	0.255
-238.888	-2.330	-0.120	-0.083
-237.873	55.007	-0.061	-0.059
-236.859	-200.000	-0.023	-0.247
-235.844	-65.626	-0.352	0.140
-234.830	429.645	-0.117	-0.252
-233.815	-200.000	-0.026	-0.246
-232.800	227.510	-0.169	-0.273
-231.786	-12.598	-0.214	0.139
-230.771	327.960	-0.023	0.045
-229.757	800.000	-0.073	-0.266
-228.742	-200.000	-0.043	-0.221
-227.727	150.502	0.199	0.269
-226.713	-76.477	0.197	-0.069
-225.698	181.605	-0.099	-0.145
-224.684	-76.175	0.204	0.071
-223.669	18.353	0.272	0.216
-222.655	26.974	0.269	-0.224
-221.640	309.434	0.131	0.243
-220.625	-200.000	-0.023	0.304
-219.611	-115.514	-0.164	0.031
-218.596	-19.306	-0.325	0.200
-217.582	-200.000	-0.016	0.102
-216.567	800.000	-0.053	0.231
-215.552	243.486	-0.071	-0.119
-214.538	-14.341	0.204	0.131
-213.523	195.237	0.116	0.176
-212.509	311.164	-0.101	0.189
-211.494	-57.900	0.135	-0.059
-210.479	-119.760	-0.237	0.041
-209.465	-125.548	0.311	0.047
-208.450	-74.995	0.180	0.064
-207.436	-12.562	0.129	0.084
-206.421	-45.056	-0.206	-0.102
-205.406	-200.000	0.005	0.047
-204.392	-115.467	0.279	-0.052
-203.377	218.628	0.146	0.232
-202.363	-200.000	0.013	-0.088
-201.348	266.272	0.099	-0.171
-200.333	800.000	-0.027	0.106
-199.319	52.594	-0.058	0.055
-198.304	-200.000	-0.015	0.131
-197.290	21.606	0.164	-0.133
-196.275	-8.689	-0.402	0.268
-195.260	-200.000	-0.024	-0.185
-194.246	130.743	0.078	-0.100
-193.231	-20.969	0.170	0.103
-192.217	-114.192	0.316	-0.061
-191.202	22.870	0.114	0.093
-190.187	56.985	0.203	-0.196
-189.173	244.061	-0.116	-0.194
-188.158	-200.000	-0.018	-0.399
-187.144	53.183	0.199	0.189
-186.129	125.306	0.179	-0.224
-185.114	109.728	-0.156	0.185
-184.100	706.051	0.088	-0.230
-183.085	-83.038	-0.503	-0.161
-182.071	163.957	-0.178	0.249
-181.056	-200.000	0.016	-0.380
-180.042	-89.755	0.121	-0.035
-179.027	800.000	-0.042	0.117
-178.012	212.255	0.113	0.178
-176.998	-200.000	0.008	-0.118
-175.983	-53.403	0.125	0.057
-174.969	-157.875	0.148	-0.009
-173.954	-13.367	-0.077	-0.050
-172.939	800.000	-0.032	-0.115
-171.925	-59.545	-0.347	0.148
-170.910	-200.000	0.021	0.243
-169.896	-11.783	0.120	0.078
-168.881	95.838	-0.146	-0.165
-167.866	28.786	-0.110	-0.093
-166.852	361.322	-0.188	-0.374
-165.837	434.327	-0.073	-0.158
-164.823	145.794	-0.004	-0.005
-163.808	800.000	0.125	0.507
-162.793	-93.300	-0.404	0.111
-161.779	463.480	-0.117	-0.260
-160.764	-12.366	0.043	-0.028
-159.750	800.000	0.044	-0.183
-158.735	-61.836	0.064	0.027
-157.720	318.316	-0.028	-0.052
-156.706	800.000	-0.019	-0.072
-155.691	-88.747	-0.211	-0.062
-154.677	800.000	-0.087	0.279
-153.662	-67.813	0.119	-0.046
-152.647	-95.663	0.167	-0.044
-151.633	-133.555	-0.340	0.042
-150.618	288.333	-0.040	0.071
-149.604	69.440	0.318	0.325
-148.589	-31.843	-0.196	-0.109
-147.574	-184.888	-0.059	-0.001
-146.560	-85.468	0.211	-0.065
-145.545	-107.679	0.256	0.055
-144.531	-190.863	0.050	-0.001
-143.516	-200.000	0.047	-0.263
-142.502	132.780	0.153	-0.195
-141.487	28.153	-0.176	0.148
-140.472	138.369	-0.068	-0.088
-139.458	383.109	-0.044	0.090
-138.443	-200.000	0.017	0.191
-137.429	-154.713	0.183	-0.012
-136.414	496.752	-0.043	0.099
-135.399	179.168	0.091	-0.132
-134.385	479.892	0.099	0.223
-133.370	-117.859	0.243	-0.043
-132.356	-18.139	-0.276	0.171
-131.341	-44.602	0.363	-0.180
-130.326	174.364	-0.060	0.086
-129.312	-32.110	0.135	0.075
-128.297	249.079	-0.168	0.283
-127.283	-142.536	0.150	-0.015
-126.268	-101.440	0.320	-0.077
-125.253	-200.000	0.015	0.237
-124.239	256.805	-0.149	-0.254
-123.224	-200.000	0.006	-0.114
-122.210	1.605	-0.233	0.166
