DTS Sentinel unit serial number:	SN413079Multiplexer serial number:	ORYXHardware model number:	OX4-SRSoftware version number:	ORYX F/W v4.00 Oryx Data Collector v3.7.2.0data status	okinstallation	princeton_trtdifferential loss correction	single-endedforward channel	channel 3reverse channel	N/Adate	2019/09/14time	09:36:34forward acquisition time	60.00reverse acquisition time	0.00gamma	496.2192k internal	0.2319k external	0.2319temperature offset calibration	1.0056default loss term (dB/km)	0.3790temperature slope calibration	1.0000multiplexer offset coefficient	1.0000multiplexer slope coefficient	1.0000fibre end	0.00T internal ref (°C)	31.77T ext. ref 1 (°C)	3.87T ext. ref 2 (°C)	29.92length (m)	temperature (°C)	Stokes	anti-Stokes-747.200	-200.000	-0.020	0.334
-746.185	372.209	-0.077	0.158
-745.171	429.756	0.162	-0.355
-744.156	202.450	0.108	0.168
-743.142	665.481	0.041	0.106
-742.127	-200.000	0.016	0.332
-741.112	-200.000	-0.018	-0.182
-740.098	-22.580	-0.354	0.217
-739.083	-102.639	0.802	0.194
-738.069	30.324	-0.134	0.116
-737.054	53.478	0.151	-0.147
-736.039	800.000	-0.042	0.138
-735.025	161.744	0.087	0.123
-734.010	-73.759	-0.388	-0.143
-732.996	168.208	-0.035	0.050
-731.981	-64.104	0.275	-0.113
-730.966	-134.113	-0.143	0.018
-729.952	-165.428	-0.203	-0.009
-728.937	191.660	-0.045	-0.069
-727.923	-96.258	-0.178	0.048
-726.908	-36.168	0.200	0.109
-725.894	-143.731	-0.077	-0.007
-724.879	228.026	-0.092	-0.152
-723.864	-85.061	-0.294	-0.093
-722.850	136.539	-0.082	-0.108
-721.835	86.466	-0.128	0.143
-720.821	376.174	-0.043	0.088
-719.806	360.149	0.152	0.307
-718.791	281.693	0.136	-0.247
-717.777	-73.946	-0.137	-0.050
-716.762	-135.076	0.302	-0.037
-715.748	-200.000	-0.017	0.217
-714.733	-30.935	-0.185	0.106
-713.718	-6.363	0.093	0.064
-712.704	557.164	-0.159	-0.387
-711.689	-130.632	-0.231	-0.032
-710.675	217.580	-0.077	-0.123
-709.660	-68.087	-0.150	-0.059
-708.645	112.798	0.089	0.109
-707.631	-55.843	-0.292	0.132
-706.616	580.713	0.182	0.452
-705.602	-65.095	-0.060	-0.024
-704.587	400.441	-0.074	0.156
-703.572	-71.407	-0.249	0.094
-702.558	-98.866	-0.293	-0.075
-701.543	151.059	0.117	-0.161
-700.529	-56.755	0.260	-0.116
-699.514	43.646	0.293	-0.271
-698.499	-200.000	-0.045	-0.411
-697.485	-158.575	0.333	0.019
-696.470	1.962	-0.186	-0.136
-695.456	132.759	0.092	0.120
-694.441	-73.884	-0.113	-0.041
-693.426	135.428	-0.108	-0.142
-692.412	-91.044	0.210	0.061
-691.397	51.787	-0.102	-0.098
-690.383	-88.923	-0.162	-0.048
-689.368	590.239	-0.112	0.279
-688.354	351.733	-0.247	-0.494
-687.339	15.442	-0.186	0.148
-686.324	800.000	0.027	-0.083
-685.310	-97.699	-0.095	-0.025
-684.295	-200.000	-0.030	-0.184
-683.281	-69.026	-0.330	-0.128
-682.266	-136.737	-0.279	0.032
-681.251	800.000	0.041	-0.149
-680.237	-200.000	0.018	0.270
-679.222	407.339	-0.089	-0.190
-678.208	800.000	-0.087	-0.278
-677.193	186.635	-0.153	-0.231
-676.178	73.625	0.066	-0.070
-675.164	61.965	-0.080	0.080
-674.149	446.191	0.099	0.219
-673.135	-84.930	0.272	-0.086
-672.120	-128.894	0.095	0.014
-671.105	166.521	0.130	-0.185
-670.091	-38.688	-0.199	-0.106
-669.076	-173.255	-0.166	0.005
-668.062	26.324	-0.319	-0.269
-667.047	800.000	0.088	-0.273
-666.032	-200.000	0.003	-0.110
-665.018	459.709	0.119	-0.267
-664.003	-85.124	0.116	-0.037
-662.989	-88.110	-0.162	0.049
-661.974	-200.000	-0.025	0.265
-660.959	-147.694	-0.192	-0.016
-659.945	563.119	0.182	-0.443
-658.930	-176.679	-0.383	0.010
-657.916	310.605	0.119	-0.226
-656.901	-168.520	-0.060	0.002
-655.886	54.737	0.176	-0.171
-654.872	-21.871	-0.202	0.124
-653.857	45.079	0.231	-0.214
-652.843	800.000	-0.008	0.033
-651.828	-73.365	-0.255	-0.094
-650.814	-200.000	-0.010	-0.084
-649.799	-200.000	0.058	0.291
-648.784	196.793	0.056	-0.086
-647.770	155.976	0.092	-0.128
-646.755	-50.016	-0.192	0.092
-645.741	800.000	0.064	0.238
-644.726	-200.000	0.070	-0.369
-643.711	-95.231	-0.441	0.120
-642.697	131.163	0.065	-0.084
-641.682	-3.734	-0.133	-0.093
-640.668	-12.806	0.128	-0.084
-639.653	-36.978	0.228	-0.123
-638.638	-200.000	0.007	0.330
-637.624	-56.821	0.436	0.194
-636.609	24.167	0.187	0.155
-635.595	-63.375	-0.222	-0.092
-634.580	-150.980	0.143	-0.011
-633.565	25.034	0.174	-0.145
-632.551	-54.631	0.131	0.060
-631.536	140.091	-0.131	-0.174
-630.522	800.000	0.025	-0.091
-629.507	-190.367	0.068	0.001
-628.492	192.331	-0.167	-0.254
-627.478	-38.306	-0.422	-0.225
-626.463	-17.687	-0.211	-0.134
-625.449	274.164	0.122	-0.217
-624.434	-42.303	-0.117	-0.060
-623.419	-200.000	-0.129	-0.678
-622.405	233.304	-0.118	-0.196
-621.390	25.281	0.256	-0.214
-620.376	-200.000	0.044	-0.337
-619.361	-200.000	0.008	-0.069
-618.346	255.672	-0.079	0.137
-617.332	-152.365	0.143	-0.010
-616.317	-2.238	0.339	-0.239
-615.303	-200.000	0.011	0.147
-614.288	-200.000	0.030	0.148
-613.273	-200.000	-0.003	0.034
-612.259	800.000	0.060	-0.205
-611.244	-200.000	-0.006	0.038
-610.230	245.976	-0.094	-0.160
-609.215	-158.289	0.270	-0.016
-608.201	-198.203	-0.188	-0.001
-607.186	127.511	0.070	-0.089
-606.171	583.124	0.093	-0.229
-605.157	-200.000	-0.037	-0.175
-604.142	-20.472	-0.225	0.139
-603.128	800.000	0.133	0.383
-602.113	-121.583	0.359	-0.060
-601.098	-36.082	-0.367	0.200
-600.084	161.921	0.249	-0.351
-599.069	-200.000	-0.019	-0.202
-598.055	-35.046	0.068	-0.037
-597.040	-19.571	0.142	-0.089
-596.025	231.168	-0.107	-0.176
-595.011	126.285	0.076	0.097
-593.996	-147.088	-0.473	-0.041
-592.982	39.516	0.142	0.128
-591.967	-129.495	0.091	-0.013
-590.952	-73.972	0.188	0.069
-589.938	451.209	-0.044	0.098
-588.923	-36.709	0.087	-0.047
-587.909	-124.820	-0.275	0.043
-586.894	64.628	-0.250	0.254
-585.879	-19.474	-0.186	0.116
-584.865	-42.712	-0.270	0.138
-583.850	-14.257	-0.203	-0.131
-582.836	290.942	0.162	-0.296
-581.821	-200.000	-0.011	-0.140
-580.806	-100.098	0.179	0.045
-579.792	-30.993	0.050	0.028
-578.777	-200.000	-0.028	0.250
-577.763	-200.000	-0.014	-0.073
-576.748	165.877	0.179	0.254
-575.733	-200.000	-0.002	-0.216
-574.719	-1.343	-0.037	-0.026
-573.704	-200.000	0.013	-0.113
-572.690	186.164	0.151	-0.226
-571.675	-63.558	-0.217	-0.089
-570.661	-78.338	-0.107	0.037
-569.646	-175.505	-0.122	0.003
-568.631	20.155	-0.028	0.023
-567.617	-200.000	-0.003	-0.088
-566.602	149.943	-0.057	-0.078
-565.588	-98.657	0.169	-0.043
-564.573	146.031	0.224	0.302
-563.558	800.000	0.048	-0.178
-562.544	-35.112	0.052	-0.029
-561.529	-76.472	-0.075	0.027
-560.515	800.000	-0.030	-0.132
-559.500	-145.612	0.073	-0.007
-558.485	-75.031	-0.111	0.040
-557.471	800.000	0.110	0.365
-556.456	211.841	-0.036	0.057
-555.442	-200.000	-0.001	0.024
-554.427	204.730	-0.176	0.275
-553.412	-200.000	-0.025	0.192
-552.398	800.000	-0.041	-0.161
-551.383	415.393	0.049	-0.105
-550.369	-104.403	-0.180	0.042
-549.354	-11.685	0.148	-0.097
-548.339	-113.505	-0.337	0.066
-547.325	800.000	0.072	0.201
-546.310	-102.237	0.237	0.057
-545.296	229.762	-0.105	-0.173
-544.281	-142.139	-0.109	0.011
-543.266	-60.672	-0.182	-0.077
-542.252	6.790	-0.145	-0.109
-541.237	-68.679	0.089	-0.034
-540.223	-102.597	0.229	-0.055
-539.208	32.267	-0.068	0.059
-538.193	55.335	-0.145	0.140
-537.179	-108.643	0.117	-0.025
-536.164	80.877	-0.306	-0.331
-535.150	-94.194	-0.192	-0.053
-534.135	-62.222	0.320	-0.134
-533.121	75.754	-0.133	0.141
-532.106	-67.610	-0.137	-0.054
-531.091	-0.514	-0.210	-0.149
-530.077	19.034	0.124	0.100
-529.062	-200.000	0.006	-0.181
-528.048	-185.185	-0.513	-0.008
-527.033	108.029	0.040	-0.048
-526.018	790.412	-0.117	-0.324
-525.004	800.000	-0.040	0.156
-523.989	-45.640	0.205	0.102
-522.975	-39.655	-0.103	-0.054
-521.960	-153.124	0.175	0.012
-520.945	-200.000	0.024	-0.219
-519.931	153.170	-0.105	0.144
-518.916	521.750	0.073	0.171
-517.902	-63.019	-0.338	-0.140
-516.887	800.000	-0.087	-0.326
-515.872	-200.000	-0.020	-0.242
-514.858	-200.000	0.015	0.135
-513.843	-52.584	0.121	0.056
-512.829	10.042	0.248	-0.189
-511.814	-186.334	-0.255	-0.004
-510.799	-130.694	-0.147	-0.020
-509.785	-200.000	-0.025	-0.429
-508.770	-18.250	0.095	-0.060
-507.756	68.990	0.087	-0.089
-506.741	334.953	0.048	-0.092
-505.726	-60.065	0.173	-0.074
-504.712	-99.047	-0.173	0.044
-503.697	-150.426	0.181	-0.014
-502.683	-57.999	0.047	-0.021
-501.668	-112.383	0.191	-0.038
-500.653	-125.434	-0.263	0.040
-499.639	162.924	0.229	-0.322
-498.624	-102.211	-0.290	0.070
-497.610	-200.000	-0.063	-0.316
-496.595	-126.469	0.140	-0.021
-495.581	-200.000	-0.022	-0.129
-494.566	39.021	0.074	-0.066
-493.551	-200.000	0.006	0.397
-492.537	-173.767	-0.132	-0.004
-491.522	-22.612	0.101	-0.061
-490.508	445.462	-0.100	0.219
-489.493	-30.000	-0.139	-0.079
-488.478	62.791	-0.154	0.154
-487.464	-112.087	-0.372	-0.075
-486.449	-54.060	-0.404	-0.184
-485.435	60.772	0.158	-0.157
-484.420	-131.806	0.089	-0.012
-483.405	67.106	0.155	0.158
-482.391	164.590	0.026	-0.037
-481.376	-168.286	-0.380	0.015
-480.362	-200.000	-0.109	0.001
-479.347	51.768	-0.196	0.186
-478.332	284.436	-0.085	-0.153
-477.318	-200.000	0.046	0.238
-476.303	-179.254	-0.197	0.004
-475.289	417.952	0.139	-0.298
-474.274	-46.909	-0.066	-0.032
-473.259	-12.695	-0.125	-0.081
-472.245	-200.000	-0.014	-0.176
-471.230	-200.000	0.012	-0.083
-470.216	800.000	-0.110	-0.409
-469.201	-200.000	0.029	-0.151
-468.186	19.114	-0.242	-0.194
-467.172	79.526	-0.039	-0.042
-466.157	386.789	-0.120	-0.248
-465.143	127.289	0.182	0.231
-464.128	-128.264	0.386	-0.055
-463.113	800.000	0.054	-0.228
-462.099	-70.185	-0.125	0.048
-461.084	800.000	-0.052	-0.157
-460.070	46.161	0.257	-0.238
-459.055	279.040	-0.005	0.009
-458.040	-54.699	0.112	0.051
-457.026	221.922	-0.107	0.173
-456.011	-154.842	-0.273	0.018
-454.997	1.029	-0.267	-0.192
-453.982	-200.000	0.033	-0.193
-452.968	-7.178	-0.274	0.186
-451.953	30.792	-0.143	-0.122
-450.938	-109.506	0.190	-0.040
-449.924	800.000	0.054	-0.161
-448.909	62.096	0.199	-0.198
-447.895	-200.000	-0.008	-0.088
-446.880	-200.000	0.016	-0.421
-445.865	800.000	-0.016	-0.046
-444.851	800.000	-0.077	0.240
-443.836	-200.000	-0.016	-0.149
-442.822	549.821	-0.034	0.081
-441.807	-200.000	0.024	0.232
-440.792	180.238	0.346	0.507
-439.778	395.298	0.186	0.387
-438.763	-200.000	0.033	0.208
-437.749	-200.000	-0.030	0.441
-436.734	-39.301	0.233	0.122
-435.719	-136.446	-0.041	-0.005
-434.705	576.337	-0.100	-0.243
-433.690	-200.000	-0.059	0.503
-432.676	-200.000	-0.015	0.174
-431.661	141.731	-0.007	0.010
-430.646	-90.591	0.132	-0.038
-429.632	-87.663	0.081	-0.025
-428.617	-200.000	0.004	0.026
-427.603	4.819	-0.109	0.080
-426.588	-200.000	0.001	0.017
-425.573	30.543	0.049	0.042
-424.559	-200.000	0.036	0.232
-423.544	-114.945	-0.201	0.038
-422.530	-32.299	0.114	0.063
-421.515	-143.849	-0.281	-0.026
-420.500	800.000	0.067	0.220
-419.486	61.778	0.173	-0.172
-418.471	196.777	-0.166	0.253
-417.457	735.927	0.122	0.328
-416.442	10.911	-0.273	-0.208
-415.428	-98.916	0.044	-0.011
-414.413	-148.596	0.206	-0.017
-413.398	-200.000	0.009	-0.187
-412.384	-78.034	0.247	-0.085
-411.369	-151.154	0.377	0.028
-410.355	-46.367	-0.169	0.083
-409.340	800.000	0.027	0.079
-408.325	-145.777	0.200	-0.018
-407.311	33.927	0.091	-0.079
-406.296	101.567	-0.303	0.353
-405.282	31.585	-0.158	-0.136
-404.267	288.477	-0.110	-0.199
-403.252	61.438	-0.143	-0.142
-402.238	800.000	-0.028	0.103
-401.223	52.949	0.201	0.192
-400.209	-26.116	-0.079	0.046
-399.194	-29.405	0.229	-0.131
-398.179	237.079	0.122	0.202
-397.165	800.000	0.019	0.059
-396.150	-156.159	-0.106	0.007
-395.136	800.000	-0.084	-0.285
-394.121	-134.760	0.180	0.022
-393.106	800.000	-0.042	-0.159
-392.092	-97.869	0.197	-0.051
-391.077	584.098	-0.105	-0.257
-390.063	-71.365	-0.020	-0.007
-389.048	145.677	-0.033	-0.044
-388.033	306.844	0.094	-0.175
-387.019	224.728	0.215	-0.347
-386.004	-22.559	-0.147	-0.089
-384.990	-92.702	0.241	0.067
-383.975	-200.000	0.066	0.515
-382.960	281.310	-0.043	-0.076
-381.946	-200.000	0.041	0.193
-380.931	12.723	-0.229	0.177
-379.917	-157.262	-0.273	0.016
-378.902	800.000	-0.088	0.297
-377.888	104.140	-0.211	-0.248
-376.873	184.683	-0.118	-0.174
-375.858	-200.000	0.036	0.263
-374.844	-200.000	0.006	0.088
-373.829	-16.255	0.152	-0.096
-372.815	-32.139	0.083	-0.046
-371.800	-118.590	0.316	0.056
-370.785	41.424	0.218	0.197
-369.771	800.000	0.037	-0.111
-368.756	18.394	-0.286	-0.227
-367.742	-47.115	0.067	0.032
-366.727	-139.789	0.190	0.020
-365.712	31.351	-0.077	0.066
-364.698	-200.000	-0.048	0.324
-363.683	135.395	-0.231	0.300
-362.669	379.441	-0.148	-0.301
-361.654	-45.550	0.165	0.081
-360.639	465.157	-0.058	0.129
-359.625	166.263	-0.119	0.168
-358.610	93.407	-0.291	0.329
-357.596	800.000	-0.100	0.304
-356.581	-141.518	0.216	0.022
-355.566	22.630	-0.095	0.078
-354.552	-43.689	0.081	-0.041
-353.537	-96.061	0.146	0.039
-352.523	38.273	0.149	-0.132
-351.508	-39.695	0.251	-0.131
-350.493	-117.584	-0.348	-0.063
-349.479	772.490	0.053	-0.145
-348.464	-0.523	0.070	0.050
-347.450	157.183	0.103	-0.143
-346.435	122.636	-0.108	0.135
-345.420	-105.405	0.245	0.056
-344.406	-23.863	-0.450	-0.268
-343.391	229.488	-0.097	0.157
-342.377	112.795	0.133	0.160
-341.362	-118.907	-0.124	-0.022
-340.348	-110.627	0.346	-0.071
-339.333	-133.349	0.421	0.053
-338.318	800.000	-0.046	0.142
-337.304	491.034	0.045	0.102
-336.289	96.479	0.028	0.032
-335.275	747.747	-0.071	0.192
-334.260	-187.237	0.379	0.005
-333.245	-18.240	0.220	-0.137
-332.231	800.000	0.058	0.198
-331.216	-139.601	-0.520	0.055
-330.202	-29.862	0.173	0.098
-329.187	-200.000	-0.004	0.117
-328.172	662.031	0.041	0.106
-327.158	182.913	0.179	-0.264
-326.143	98.708	0.129	-0.148
-325.129	-35.884	-0.348	-0.187
-324.114	101.003	-0.053	0.061
-323.099	-177.772	0.142	-0.003
-322.085	800.000	-0.061	-0.247
-321.070	66.330	0.034	-0.034
-320.056	37.947	-0.231	-0.205
-319.041	9.137	-0.175	-0.132
-318.026	-200.000	0.051	0.238
-317.012	-129.886	-0.311	0.042
-315.997	38.672	-0.041	-0.036
-314.983	149.211	-0.186	0.250
-313.968	-53.573	0.341	0.155
-312.953	-23.281	0.339	-0.203
-311.939	-108.867	-0.263	-0.056
-310.924	-92.464	-0.503	-0.141
-309.910	103.503	-0.058	-0.067
-308.895	246.492	-0.078	0.130
-307.880	179.536	-0.097	0.142
-306.866	370.801	0.055	0.111
-305.851	179.717	-0.148	0.216
-304.837	800.000	-0.026	-0.106
-303.822	101.638	0.190	0.220
-302.807	-200.000	-0.017	0.214
-301.793	-45.268	-0.159	0.078
-300.778	14.253	0.223	-0.172
-299.764	68.333	-0.142	-0.145
-298.749	298.198	-0.079	-0.144
-297.735	-87.653	0.207	-0.062
-296.720	-200.000	-0.046	-0.234
-295.705	800.000	0.076	-0.216
-294.691	-119.794	-0.207	0.035
-293.676	358.916	0.094	-0.187
-292.662	-3.248	0.103	0.071
-291.647	-66.784	0.065	-0.026
-290.632	-200.000	-0.008	0.074
-289.618	-200.000	-0.010	0.172
-288.603	-200.000	0.022	0.166
-287.589	-200.000	-0.030	-0.358
-286.574	-200.000	-0.061	-0.449
-285.559	94.955	-0.149	-0.169
-284.545	-173.720	-0.365	-0.011
-283.530	-12.089	0.299	-0.194
-282.516	800.000	-0.047	-0.165
-281.501	-200.000	0.058	0.368
-280.486	82.638	-0.147	-0.158
-279.472	-61.921	-0.135	-0.056
-278.457	43.480	0.097	0.089
-277.443	-91.738	0.097	0.027
-276.428	-200.000	-0.017	0.077
-275.413	-82.551	0.230	-0.074
-274.399	-200.000	-0.052	0.285
-273.384	122.425	0.152	0.189
-272.370	-1.539	-0.122	0.086
-271.355	-113.294	0.032	-0.006
-270.340	339.795	-0.134	-0.259
-269.326	191.905	-0.089	-0.133
-268.311	-200.000	0.025	-0.162
-267.297	32.834	0.145	0.124
-266.282	-57.049	-0.180	-0.079
-265.267	-97.606	-0.350	0.090
-264.253	-200.000	0.025	0.146
-263.238	800.000	-0.057	0.182
-262.224	478.590	-0.093	0.210
-261.209	0.008	0.308	0.218
-260.195	-200.000	-0.017	-0.102
-259.180	-200.000	-0.025	0.560
-258.165	-31.116	0.108	-0.061
-257.151	176.079	0.151	-0.217
-256.136	161.215	-0.051	-0.070
-255.122	800.000	-0.067	0.204
-254.107	-200.000	-0.023	-0.226
-253.092	-32.647	0.044	-0.025
-252.078	-100.494	0.051	0.013
-251.063	-20.083	-0.208	0.127
-250.049	11.844	0.197	-0.150
-249.034	800.000	-0.091	-0.292
-248.019	-200.000	0.015	-0.169
-247.005	-138.247	0.074	0.008
-245.990	800.000	0.089	-0.349
-244.976	-55.912	0.237	-0.105
-243.961	88.959	0.069	0.076
-242.946	133.290	-0.227	0.290
-241.932	800.000	0.084	0.345
-240.917	186.960	0.043	-0.064
-239.903	800.000	-0.063	0.245
-238.888	-7.694	0.130	0.087
-237.873	124.243	-0.093	-0.116
-236.859	34.550	0.088	-0.076
-235.844	-4.604	0.163	-0.112
-234.830	-122.536	0.316	-0.051
-233.815	-62.198	0.083	0.034
-232.800	-200.000	0.010	0.169
-231.786	-200.000	0.030	-0.272
-230.771	-200.000	-0.078	0.444
-229.757	-115.002	-0.279	0.053
-228.742	-19.837	0.170	0.104
-227.727	-133.326	-0.236	0.030
-226.713	107.526	0.207	0.244
-225.698	-200.000	-0.006	0.088
-224.684	-200.000	0.007	0.212
-223.669	-165.899	0.342	-0.015
-222.655	800.000	0.044	0.126
-221.640	-200.000	-0.001	0.303
-220.625	-160.084	0.252	0.014
-219.611	-114.281	0.220	0.042
-218.596	-200.000	0.009	0.152
-217.582	-2.206	0.342	0.238
-216.567	330.265	-0.057	0.109
-215.552	269.922	-0.129	-0.225
-214.538	383.575	-0.099	0.203
-213.523	54.159	-0.183	0.174
-212.509	-157.871	-0.080	-0.005
-211.494	-164.619	-0.149	0.007
-210.479	452.313	0.108	-0.238
-209.465	1.472	0.049	0.035
-208.450	237.384	0.185	0.304
-207.436	-65.407	0.162	-0.065
-206.421	-95.754	0.085	0.022
-205.406	-84.704	-0.323	0.101
-204.392	361.602	-0.198	0.392
-203.377	-69.166	-0.054	-0.021
-202.363	-54.137	0.247	0.111
-201.348	262.644	-0.101	0.173
-200.333	-200.000	-0.018	0.125
-199.319	-178.753	0.183	-0.004
-198.304	116.939	0.104	0.127
-197.290	-75.550	0.166	-0.058
-196.275	-141.283	-0.167	-0.017
-195.260	-200.000	0.070	-0.327
-194.246	184.645	0.008	-0.012
-193.231	-0.214	-0.270	0.190
-192.217	283.440	-0.101	-0.180
-191.202	-200.000	0.019	0.128
-190.187	-42.460	0.443	0.224
-189.173	42.771	-0.097	0.088
-188.158	124.716	0.259	0.323
-187.144	-148.940	0.299	0.024
-186.129	-84.010	0.333	0.105
-185.114	126.893	-0.089	-0.112
-184.100	555.549	-0.059	-0.140
-183.085	-33.176	0.268	-0.147
-182.071	692.987	-0.105	0.271
-181.056	53.620	-0.028	-0.027
-180.042	380.479	0.113	0.229
-179.027	-149.770	0.214	0.017
-178.012	-71.047	0.104	-0.039
-176.998	-72.001	0.122	-0.045
-175.983	77.406	-0.099	0.104
-174.969	3.184	-0.191	-0.137
-173.954	-35.784	-0.218	0.117
-172.939	-200.000	-0.018	-0.126
-171.925	-200.000	-0.032	-0.323
-170.910	-44.254	-0.234	-0.116
-169.896	31.579	-0.088	0.075
-168.881	94.857	-0.204	0.230
-167.866	-200.000	0.026	-0.229
-166.852	-28.145	0.473	-0.270
-165.837	43.360	-0.225	0.203
-164.823	-23.588	0.170	0.101
-163.808	-86.024	-0.324	0.099
-162.793	244.799	0.129	0.215
-161.779	-155.089	0.139	0.009
-160.764	-200.000	0.039	0.223
-159.750	-200.000	-0.039	-0.196
-158.735	800.000	0.008	-0.029
-157.720	-86.992	-0.209	-0.063
-156.706	-113.461	0.128	0.025
-155.691	144.262	0.298	0.393
-154.677	314.265	0.157	0.292
-153.662	404.305	-0.109	-0.227
-152.647	-121.172	-0.102	0.017
-151.633	4.793	0.188	-0.136
-150.618	135.180	0.037	0.048
-149.604	-200.000	-0.017	0.255
-148.589	-47.305	0.382	-0.184
-147.574	52.331	0.083	0.078
-146.560	-200.000	-0.061	-0.348
-145.545	-200.000	-0.017	-0.170
-144.531	-36.249	-0.157	-0.084
-143.516	-200.000	0.002	0.176
-142.502	97.644	-0.160	-0.182
-141.487	-200.000	0.018	0.244
-140.472	283.746	0.097	-0.173
-139.458	800.000	-0.046	0.200
-138.443	800.000	0.042	-0.138
-137.429	87.067	-0.129	0.141
-136.414	-200.000	-0.014	-0.199
-135.399	-89.181	0.070	0.020
-134.385	27.460	0.260	0.216
-133.370	-37.155	0.082	0.043
-132.356	-39.018	0.065	-0.034
-131.341	-200.000	-0.071	0.379
-130.326	-63.306	-0.267	0.108
-129.312	175.005	0.023	0.033
-128.297	-200.000	0.006	0.109
-127.283	335.467	-0.204	0.391
-126.268	-122.006	0.307	0.050
-125.253	-200.000	0.016	0.182
-124.239	-200.000	-0.007	0.113
-123.224	-98.548	-0.364	-0.092
-122.210	75.387	-0.079	-0.083
