DTS Sentinel unit serial number:	SN413079Multiplexer serial number:	ORYXHardware model number:	OX4-SRSoftware version number:	ORYX F/W v4.00 Oryx Data Collector v3.7.2.0data status	okinstallation	princeton_trtdifferential loss correction	single-endedforward channel	channel 3reverse channel	N/Adate	2019/09/16time	12:48:35forward acquisition time	60.00reverse acquisition time	0.00gamma	496.2192k internal	0.2295k external	0.2295temperature offset calibration	0.9949default loss term (dB/km)	0.3790temperature slope calibration	1.0000multiplexer offset coefficient	1.0000multiplexer slope coefficient	1.0000fibre end	0.00T internal ref (°C)	40.25T ext. ref 1 (°C)	13.50T ext. ref 2 (°C)	37.23length (m)	temperature (°C)	Stokes	anti-Stokes-747.200	-200.000	0.015	-0.104
-746.185	50.422	0.133	0.128
-745.171	516.801	0.104	-0.249
-744.156	86.348	0.189	0.213
-743.142	196.678	0.077	0.121
-742.127	399.154	-0.032	0.068
-741.112	-93.502	0.076	0.021
-740.098	313.917	0.140	0.269
-739.083	-56.189	-0.279	0.127
-738.069	155.612	0.238	0.335
-737.054	47.475	0.177	-0.169
-736.039	138.939	-0.119	0.160
-735.025	-82.360	0.257	0.085
-734.010	157.305	-0.151	-0.213
-732.996	239.712	-0.079	-0.135
-731.981	111.943	-0.263	0.325
-730.966	-200.000	0.033	-0.304
-729.952	107.030	0.181	0.220
-728.937	-56.649	0.073	-0.033
-727.923	-158.504	-0.131	0.008
-726.908	-200.000	0.034	-0.225
-725.894	-107.978	-0.362	-0.080
-724.879	-40.271	-0.403	-0.214
-723.864	-64.476	0.166	-0.069
-722.850	-0.229	-0.179	-0.130
-721.835	373.746	-0.087	-0.180
-720.821	-78.454	-0.199	0.070
-719.806	257.529	0.040	0.071
-718.791	-200.000	-0.029	-0.177
-717.777	-40.697	-0.239	-0.127
-716.762	-69.290	-0.356	0.140
-715.748	800.000	-0.054	-0.210
-714.733	-114.049	-0.236	-0.047
-713.718	-133.615	0.244	0.031
-712.704	34.669	-0.105	-0.094
-711.689	-59.626	0.165	-0.072
-710.675	21.678	-0.284	0.236
-709.660	102.561	0.179	-0.214
-708.645	-103.086	-0.191	-0.046
-707.631	-200.000	-0.037	0.357
-706.616	56.707	0.103	-0.102
-705.602	9.928	-0.399	-0.309
-704.587	-80.748	0.132	0.045
-703.572	19.148	0.383	-0.313
-702.558	-42.475	-0.239	0.124
-701.543	-200.000	0.077	0.411
-700.529	19.208	0.154	-0.126
-699.514	-200.000	-0.001	-0.301
-698.499	0.987	0.147	-0.107
-697.485	-131.801	-0.071	0.010
-696.470	-200.000	0.005	-0.430
-695.456	-111.976	0.251	-0.052
-694.441	-200.000	0.005	-0.104
-693.426	-141.345	0.237	0.025
-692.412	-200.000	0.014	-0.247
-691.397	279.910	-0.070	-0.127
-690.383	-200.000	0.027	0.124
-689.368	18.939	0.056	-0.046
-688.354	-133.368	0.151	-0.019
-687.339	652.306	-0.069	-0.180
-686.324	107.063	-0.101	-0.122
-685.310	-44.633	-0.283	0.144
-684.295	-131.830	0.185	0.025
-683.281	-82.276	-0.220	-0.073
-682.266	43.182	-0.134	-0.125
-681.251	-200.000	0.025	0.126
-680.237	398.887	0.058	0.125
-679.222	-44.875	-0.255	-0.130
-678.208	275.443	0.085	0.154
-677.193	257.717	0.076	-0.133
-676.178	-52.741	0.229	-0.108
-675.164	-129.015	-0.351	-0.050
-674.149	724.759	0.030	-0.080
-673.135	800.000	0.046	0.173
-672.120	-163.907	0.267	-0.013
-671.105	107.490	-0.030	-0.036
-670.091	800.000	-0.084	-0.244
-669.076	-58.889	-0.309	-0.136
-668.062	-200.000	0.004	-0.031
-667.047	-128.543	-0.186	0.027
-666.032	-110.610	0.304	-0.064
-665.018	114.721	-0.128	0.159
-664.003	-200.000	0.001	-0.102
-662.989	171.698	-0.195	-0.285
-661.974	376.762	0.221	-0.460
-660.959	90.495	-0.050	0.057
-659.945	58.657	0.132	-0.132
-658.930	75.241	0.121	-0.130
-657.916	350.352	-0.074	0.150
-656.901	-91.845	-0.281	0.081
-655.886	800.000	-0.003	-0.008
-654.872	48.584	-0.246	0.234
-653.857	0.922	-0.019	0.014
-652.843	-0.132	-0.180	-0.130
-651.828	204.483	0.174	-0.275
-650.814	-74.185	-0.188	0.069
-649.799	425.953	0.113	-0.247
-648.784	331.304	0.059	-0.116
-647.770	-111.619	0.291	0.060
-646.755	-170.868	-0.452	0.016
-645.741	-150.541	0.126	0.010
-644.726	-22.189	0.327	0.202
-643.711	721.106	-0.102	-0.275
-642.697	66.424	-0.137	0.142
-641.682	172.140	0.158	-0.232
-640.668	15.222	-0.164	-0.131
-639.653	210.885	0.138	-0.220
-638.638	-110.869	-0.250	0.052
-637.624	-120.185	0.194	0.034
-636.609	-200.000	-0.029	-0.156
-635.595	-89.642	-0.333	-0.099
-634.580	113.600	0.204	-0.253
-633.565	709.495	0.022	-0.059
-632.551	-143.728	-0.169	-0.016
-631.536	51.107	-0.261	0.252
-630.522	201.732	0.066	-0.104
-629.507	-44.549	-0.180	0.092
-628.492	-200.000	0.003	0.136
-627.478	3.442	-0.136	0.101
-626.463	194.813	-0.188	-0.291
-625.449	-20.826	-0.133	-0.083
-624.434	800.000	-0.043	-0.152
-623.419	633.243	-0.033	-0.086
-622.405	-200.000	0.000	0.151
-621.390	-190.094	-0.043	0.000
-620.376	-106.496	-0.457	0.104
-619.361	-200.000	-0.016	-0.114
-618.346	63.221	-0.161	0.164
-617.332	800.000	-0.046	-0.144
-616.317	422.832	-0.006	0.013
-615.303	428.566	0.126	0.276
-614.288	-200.000	-0.011	-0.168
-613.273	-0.904	-0.079	-0.057
-612.259	800.000	0.121	0.355
-611.244	-32.139	-0.245	0.139
-610.230	-159.881	-0.244	-0.014
-609.215	-200.000	0.035	-0.163
-608.201	-107.126	-0.331	-0.074
-607.186	17.017	-0.165	-0.133
-606.171	156.150	-0.167	0.234
-605.157	232.131	-0.042	0.069
-604.142	-117.827	0.156	0.029
-603.128	75.834	0.236	0.254
-602.113	38.687	0.131	0.119
-601.098	161.247	0.060	0.085
-600.084	-113.314	-0.426	-0.085
-599.069	-78.989	0.253	0.087
-598.055	-56.922	-0.221	0.099
-597.040	-119.044	0.144	0.026
-596.025	691.866	-0.111	-0.296
-595.011	0.148	0.358	-0.259
-593.996	-200.000	0.014	-0.251
-592.982	800.000	-0.076	-0.290
-591.967	-78.349	0.243	-0.085
-590.952	-88.425	0.149	-0.045
-589.938	-8.877	-0.048	0.033
-588.923	-110.950	-0.295	-0.062
-587.909	312.177	-0.198	0.378
-586.894	336.550	0.123	-0.242
-585.879	-67.389	0.172	-0.069
-584.865	-88.442	-0.203	0.061
-583.850	800.000	-0.124	-0.356
-582.836	-159.764	0.081	-0.005
-581.821	-24.831	0.149	-0.090
-580.806	230.059	0.039	-0.064
-579.792	212.021	-0.144	-0.231
-578.777	-94.600	0.281	-0.078
-577.763	-200.000	-0.007	0.098
-576.748	270.143	-0.071	0.127
-575.733	-112.693	0.152	0.031
-574.719	310.682	0.103	0.196
-573.704	-45.239	0.224	-0.113
-572.690	441.066	0.048	-0.107
-571.675	-19.994	0.298	-0.187
-570.661	-182.776	-0.200	-0.004
-569.646	64.110	0.080	-0.082
-568.631	499.428	0.182	-0.426
-567.617	225.387	0.076	-0.125
-566.602	181.512	-0.206	0.308
-565.588	36.728	-0.221	0.199
-564.573	800.000	0.106	0.360
-563.558	-5.103	-0.329	-0.230
-562.544	-200.000	-0.027	0.317
-561.529	172.544	0.245	0.358
-560.515	360.126	0.133	0.269
-559.500	-127.213	-0.158	-0.023
-558.485	84.767	0.241	-0.268
-557.471	-84.509	0.191	-0.061
-556.456	609.832	0.052	-0.131
-555.442	104.515	0.100	0.119
-554.427	62.450	0.079	0.080
-553.412	-16.504	0.381	-0.245
-552.398	-83.037	0.248	0.081
-551.383	159.646	-0.160	0.226
-550.369	-73.650	-0.473	-0.175
-549.354	-147.656	-0.193	-0.016
-548.339	-142.989	-0.061	0.006
-547.325	-127.346	-0.035	-0.005
-546.310	206.928	-0.060	0.095
-545.296	-200.000	-0.029	0.142
-544.281	-44.828	0.196	-0.099
-543.266	160.346	-0.161	0.227
-542.252	-134.050	-0.304	-0.038
-541.237	-76.736	-0.183	-0.065
-540.223	29.032	-0.081	-0.070
-539.208	216.330	-0.054	0.087
-538.193	9.590	-0.166	0.127
-537.179	-200.000	0.048	0.275
-536.164	800.000	-0.055	-0.201
-535.150	-59.136	-0.113	-0.049
-534.135	83.861	-0.014	-0.015
-533.121	358.952	0.087	-0.177
-532.106	213.166	0.163	0.262
-531.091	800.000	0.080	0.297
-530.077	40.178	-0.369	0.337
-529.062	140.578	-0.166	-0.222
-528.048	-83.766	0.083	-0.027
-527.033	634.576	0.118	-0.302
-526.018	-44.129	-0.483	0.246
-525.004	204.990	-0.107	-0.168
-523.989	-200.000	0.001	0.149
-522.975	-69.379	0.369	0.143
-521.960	-200.000	-0.001	-0.227
-520.945	311.070	-0.124	-0.236
-519.931	109.084	0.252	-0.306
-518.916	-200.000	-0.090	0.000
-517.902	-200.000	-0.017	-0.400
-516.887	148.149	0.140	0.192
-515.872	800.000	0.033	0.135
-514.858	-43.449	0.146	-0.075
-513.843	-23.189	-0.238	-0.145
-512.829	663.657	-0.077	0.201
-511.814	211.945	-0.129	0.205
-510.799	637.860	-0.080	0.206
-509.785	-7.775	-0.402	0.275
-508.770	-86.393	-0.401	-0.125
-507.756	800.000	0.068	-0.264
-506.741	362.865	-0.036	0.074
-505.726	164.461	0.096	0.138
-504.712	734.622	-0.058	0.156
-503.697	-200.000	0.018	0.094
-502.683	59.952	0.060	0.060
-501.668	-127.686	0.249	-0.036
-500.653	-200.000	0.018	0.189
-499.639	-65.949	0.210	-0.085
-498.624	800.000	0.068	0.237
-497.610	-106.265	0.322	-0.073
-496.595	-182.751	0.103	-0.002
-495.581	-117.266	0.182	0.033
-494.566	-148.597	0.112	0.009
-493.551	268.485	-0.080	0.141
-492.537	-109.041	-0.052	0.011
-491.522	727.317	0.082	-0.221
-490.508	59.210	0.125	0.125
-489.493	-55.004	-0.079	0.036
-488.478	-200.000	-0.108	0.500
-487.464	176.254	-0.041	-0.061
-486.449	-200.000	0.020	-0.128
-485.435	50.030	0.275	-0.263
-484.420	-28.264	0.363	-0.212
-483.405	-85.282	-0.324	0.102
-482.391	-170.494	-0.235	-0.008
-481.376	532.313	0.060	0.143
-480.362	-29.837	0.202	-0.117
-479.347	-139.341	-0.168	-0.018
-478.332	-77.971	-0.132	-0.046
-477.318	50.759	0.153	-0.147
-476.303	-75.370	-0.153	-0.055
-475.289	112.192	0.167	0.204
-474.274	239.419	0.098	0.164
-473.259	154.041	-0.239	-0.332
-472.245	-14.272	0.204	-0.133
-471.230	82.211	0.013	-0.015
-470.216	-200.000	-0.039	-0.230
-469.201	-134.410	-0.452	-0.056
-468.186	-200.000	0.020	0.328
-467.172	-99.013	-0.236	0.061
-466.157	-57.021	-0.287	-0.128
-465.143	79.941	-0.240	-0.261
-464.128	-153.322	0.116	0.008
-463.113	465.753	-0.099	-0.224
-462.099	-200.000	0.017	0.368
-461.084	-56.660	0.374	0.167
-460.070	154.854	0.083	-0.116
-459.055	-156.225	-0.089	0.006
-458.040	-116.508	-0.133	0.025
-457.026	38.324	0.169	-0.152
-456.011	-140.938	-0.307	-0.032
-454.997	598.249	-0.074	-0.186
-453.982	536.941	0.095	-0.229
-452.968	140.139	0.049	0.065
-451.953	612.810	-0.045	-0.113
-450.938	340.528	0.029	-0.057
-449.924	342.148	0.106	-0.210
-448.909	631.976	0.035	-0.091
-447.895	-56.169	-0.110	-0.050
-446.880	240.271	0.045	-0.076
-445.865	223.973	-0.112	-0.182
-444.851	-80.300	-0.199	-0.067
-443.836	-102.464	0.146	0.035
-442.822	-83.406	0.193	-0.062
-441.807	-170.306	0.250	-0.009
-440.792	384.614	0.240	-0.500
-439.778	-11.502	0.342	0.227
-438.763	800.000	-0.051	0.184
-437.749	-44.529	-0.166	-0.084
-436.734	-154.106	-0.101	-0.007
-435.719	-200.000	-0.023	-0.231
-434.705	800.000	-0.065	0.184
-433.690	528.068	-0.185	0.440
-432.676	800.000	0.013	0.040
-431.661	-69.028	0.327	0.127
-430.646	-95.762	0.139	0.037
-429.632	529.809	-0.040	0.096
-428.617	-89.539	-0.124	0.037
-427.603	86.342	-0.196	-0.218
-426.588	-168.381	0.244	-0.009
-425.573	-130.147	-0.287	0.040
-424.559	-172.747	-0.295	-0.009
-423.544	-138.288	0.069	0.008
-422.530	-200.000	-0.024	0.234
-421.515	-117.712	-0.424	-0.077
-420.500	-200.000	0.030	-0.134
-419.486	-200.000	0.021	0.239
-418.471	-46.928	-0.094	0.046
-417.457	117.795	0.103	0.128
-416.442	-133.072	-0.199	0.025
-415.428	41.434	-0.110	-0.100
-414.413	-152.874	0.176	-0.013
-413.398	145.519	0.117	0.158
-412.384	-78.878	-0.067	-0.023
-411.369	411.510	0.100	0.215
-410.355	46.697	-0.377	0.354
-409.340	-200.000	0.000	-0.084
-408.325	543.681	0.146	-0.353
-407.311	-200.000	-0.316	0.000
-406.296	-70.167	0.102	0.039
-405.282	263.031	0.043	0.075
-404.267	-167.701	0.268	0.011
-403.252	-18.337	0.132	0.083
-402.238	-132.431	0.367	0.048
-401.223	800.000	-0.038	-0.147
-400.209	40.665	0.267	-0.243
-399.194	16.934	0.182	-0.145
-398.179	59.933	-0.011	-0.011
-397.165	-200.000	-0.002	-0.159
-396.150	85.361	0.109	-0.121
-395.136	-90.763	-0.200	0.058
-394.121	80.428	-0.319	-0.346
-393.106	135.170	-0.170	-0.223
-392.092	-120.585	-0.487	-0.083
-391.077	84.795	0.137	-0.152
-390.063	-90.078	0.204	-0.060
-389.048	-153.186	-0.055	0.004
-388.033	211.299	-0.061	-0.097
-387.019	-187.361	-0.276	0.004
-386.004	10.778	-0.193	0.148
-384.990	393.875	-0.071	0.149
-383.975	39.818	0.187	0.169
-382.960	138.042	-0.108	0.142
-381.946	0.116	0.167	0.120
-380.931	36.178	-0.146	-0.130
-379.917	-103.796	0.272	-0.064
-378.902	-111.046	0.194	-0.040
-377.888	-200.000	-0.043	0.269
-376.873	86.428	-0.126	0.140
-375.858	-39.301	0.185	-0.098
-374.844	-200.000	0.007	-0.279
-373.829	364.364	-0.150	-0.304
-372.815	-43.615	0.220	0.112
-371.800	83.078	-0.093	0.102
-370.785	-53.785	-0.091	0.042
-369.771	-38.320	-0.198	0.106
-368.756	-200.000	0.014	0.153
-367.742	17.687	0.133	-0.106
-366.727	-200.000	0.014	-0.247
-365.712	-48.740	-0.288	-0.139
-364.698	-97.283	-0.179	0.047
-363.683	166.038	-0.066	-0.094
-362.669	40.007	-0.142	0.128
-361.654	-125.553	0.368	0.056
-360.639	490.628	-0.125	-0.287
-359.625	32.446	0.143	-0.125
-358.610	-41.882	0.029	-0.015
-357.596	86.805	-0.142	-0.158
-356.581	-33.826	-0.051	-0.028
-355.566	-179.010	0.070	-0.002
-354.552	-200.000	-0.016	0.162
-353.537	36.591	-0.129	-0.114
-352.523	-53.631	0.338	0.156
-351.508	332.872	-0.081	0.157
-350.493	93.847	-0.134	-0.153
-349.479	63.764	-0.140	-0.141
-348.464	40.120	-0.099	-0.089
-347.450	800.000	0.025	0.099
-346.435	281.717	0.194	-0.349
-345.420	-6.739	-0.117	0.080
-344.406	-94.055	0.347	0.096
-343.391	-90.493	0.129	-0.038
-342.377	-200.000	-0.013	0.265
-341.362	-200.000	-0.001	0.099
-340.348	-200.000	0.035	-0.254
-339.333	293.688	-0.210	0.385
-338.318	30.610	0.232	0.200
-337.304	-105.013	-0.177	0.041
-336.289	-200.000	0.014	0.173
-335.275	-106.886	-0.245	0.055
-334.260	-200.000	0.001	-0.081
-333.245	-110.597	-0.388	-0.081
-332.231	71.159	-0.219	-0.229
-331.216	-56.527	0.257	-0.115
-330.202	-48.922	-0.271	-0.131
-329.187	-200.000	-0.020	-0.218
-328.172	211.592	0.174	0.275
-327.158	-200.000	0.003	0.175
-326.143	-145.939	0.109	0.010
-325.129	345.303	-0.150	0.297
-324.114	336.006	-0.052	-0.102
-323.099	-200.000	-0.009	-0.099
-322.085	-62.157	-0.182	0.076
-321.070	-200.000	0.000	-0.124
-320.056	65.331	-0.171	-0.174
-319.041	-161.116	-0.361	-0.019
-318.026	25.957	0.128	-0.107
-317.012	31.334	-0.315	0.272
-315.997	-200.000	-0.009	0.097
-314.983	-150.099	0.259	0.020
-313.968	0.095	-0.166	0.119
-312.953	-133.509	0.345	0.044
-311.939	134.934	-0.144	-0.188
-310.924	-4.562	0.351	-0.244
-309.910	22.309	-0.033	-0.027
-308.895	163.300	-0.121	0.170
-307.880	-68.405	0.200	0.078
-306.866	-99.098	0.363	-0.092
-305.851	-56.998	0.074	-0.033
-304.837	23.238	-0.250	0.206
-303.822	-200.000	-0.051	0.307
-302.807	-200.000	0.037	0.267
-301.793	667.860	0.175	-0.456
-300.778	-93.568	0.123	-0.034
-299.764	239.490	-0.143	-0.239
-298.749	7.612	-0.138	-0.104
-297.735	-37.133	0.195	-0.105
-296.720	270.415	0.181	0.319
-295.705	800.000	-0.119	-0.333
-294.691	-60.241	-0.411	0.176
-293.676	727.085	0.005	0.012
-292.662	-200.000	0.010	-0.264
-291.647	-200.000	-0.008	-0.163
-290.632	597.441	0.098	-0.245
-289.618	2.032	0.193	0.140
-288.603	-14.863	0.223	0.144
-287.589	-67.480	0.162	0.064
-286.574	-39.524	0.286	-0.150
-285.559	-200.000	-0.032	0.206
-284.545	-200.000	0.014	-0.064
-283.530	104.306	0.077	-0.091
-282.516	-200.000	0.016	-0.161
-281.501	-73.015	0.120	0.044
-280.486	-200.000	0.015	0.085
-279.472	-69.468	-0.327	0.126
-278.457	-85.094	-0.133	0.042
-277.443	547.486	-0.107	-0.258
-276.428	-116.224	-0.119	-0.022
-275.413	161.310	-0.038	0.053
-274.399	19.996	0.034	-0.027
-273.384	-200.000	-0.039	0.202
-272.370	220.457	0.087	0.139
-271.355	-74.166	0.157	0.057
-270.340	800.000	0.046	-0.140
-269.326	-200.000	-0.041	0.404
-268.311	-48.687	0.246	-0.119
-267.297	85.482	0.060	0.066
-266.282	21.948	0.028	0.023
-265.267	800.000	-0.044	0.182
-264.253	-129.030	0.100	-0.014
-263.238	-190.582	0.375	0.004
-262.224	-39.771	0.132	-0.069
-261.209	3.161	-0.228	-0.166
-260.195	800.000	-0.028	0.117
-259.180	607.414	-0.102	0.256
-258.165	281.957	0.128	0.231
-257.151	29.148	-0.203	-0.173
-256.136	-109.478	-0.378	0.080
-255.122	-200.000	0.037	-0.302
-254.107	-200.000	0.004	-0.263
-253.092	-20.025	-0.191	-0.118
-252.078	-68.900	0.205	-0.080
-251.063	-200.000	-0.005	-0.157
-250.049	67.108	0.183	0.187
-249.034	280.624	0.065	0.117
-248.019	-29.461	0.031	0.018
-247.005	-200.000	-0.014	0.505
-245.990	-200.000	-0.005	0.280
-244.976	91.176	0.432	-0.486
-243.961	-82.828	0.069	0.022
-242.946	463.325	0.055	-0.123
-241.932	66.366	0.210	0.214
-240.917	458.687	-0.008	0.018
-239.903	800.000	-0.056	-0.197
-238.888	765.572	-0.089	0.243
-237.873	430.315	-0.118	0.255
-236.859	-9.299	0.164	-0.110
-235.844	-11.523	0.213	-0.141
-234.830	261.602	-0.110	0.190
-233.815	2.356	0.055	0.040
-232.800	-142.190	0.209	-0.021
-231.786	142.584	-0.156	0.207
-230.771	-76.770	0.377	0.132
-229.757	122.892	0.254	0.319
-228.742	130.605	0.102	-0.130
-227.727	104.538	-0.154	0.182
-226.713	-200.000	0.018	0.354
-225.698	130.823	0.144	-0.185
-224.684	-64.493	0.068	0.028
-223.669	-66.604	0.254	0.101
-222.655	-82.360	0.289	0.094
-221.640	800.000	0.025	0.085
-220.625	106.137	0.103	-0.123
-219.611	-124.600	0.202	0.031
-218.596	-81.410	-0.132	0.044
-217.582	-48.900	-0.058	0.028
-216.567	19.416	-0.123	-0.099
-215.552	800.000	-0.071	0.290
-214.538	151.859	-0.107	0.146
-213.523	-107.156	-0.283	0.063
-212.509	-57.257	0.098	0.043
-211.494	-39.895	-0.070	0.037
-210.479	-61.759	0.347	0.146
-209.465	741.193	-0.115	0.309
-208.450	-128.605	0.353	-0.050
-207.436	-133.562	-0.271	-0.034
-206.421	-162.215	-0.149	0.007
-205.406	-47.173	-0.146	-0.071
-204.392	592.881	-0.014	-0.036
-203.377	-200.000	0.030	0.144
-202.363	486.577	-0.053	0.122
-201.348	487.955	-0.068	-0.154
-200.333	-35.461	0.218	-0.119
-199.319	-52.961	0.065	-0.030
-198.304	66.833	0.312	-0.318
-197.290	42.537	-0.152	0.139
-196.275	44.851	-0.155	-0.142
-195.260	22.300	0.180	0.147
-194.246	27.821	0.106	-0.090
-193.231	394.727	0.084	-0.176
-192.217	508.373	0.069	0.160
-191.202	95.054	0.161	0.184
-190.187	-200.000	-0.018	0.301
-189.173	566.460	-0.063	-0.153
-188.158	68.507	-0.108	-0.111
-187.144	521.061	-0.177	0.414
-186.129	90.982	0.117	0.131
-185.114	-36.833	0.467	0.250
-184.100	-200.000	0.038	0.295
-183.085	3.214	-0.158	0.115
-182.071	81.529	0.230	-0.249
-181.056	656.724	0.109	-0.279
-180.042	-135.543	0.124	-0.015
-179.027	-81.963	-0.164	0.054
-178.012	-200.000	-0.020	0.351
-176.998	35.222	-0.179	0.157
-175.983	800.000	-0.030	-0.098
-174.969	-21.103	-0.204	-0.125
-173.954	-139.047	-0.037	-0.004
-172.939	-200.000	0.016	-0.274
-171.925	-200.000	0.011	0.305
-170.910	212.310	-0.159	0.251
-169.896	-79.481	0.301	0.102
-168.881	628.867	0.062	0.158
-167.866	-200.000	-0.002	-0.227
-166.852	800.000	0.023	0.072
-165.837	115.514	-0.151	-0.184
-164.823	-200.000	-0.060	-0.301
-163.808	-24.087	-0.248	-0.148
-162.793	247.189	-0.140	0.236
-161.779	-68.773	-0.074	-0.029
-160.764	659.614	0.101	-0.260
-159.750	456.556	0.050	0.110
-158.735	-32.522	0.340	-0.189
-157.720	-200.000	-0.018	-0.093
-156.706	277.734	-0.177	-0.315
-155.691	41.346	0.398	-0.360
-154.677	245.169	-0.071	-0.120
-153.662	-33.139	0.215	0.119
-152.647	108.867	0.215	0.257
-151.633	628.242	0.037	-0.094
-150.618	-64.817	0.134	-0.054
-149.604	668.335	0.071	0.183
-148.589	-94.292	0.241	-0.066
-147.574	-34.344	0.091	0.050
-146.560	-106.574	-0.351	-0.078
-145.545	3.727	0.103	-0.075
-144.531	217.113	0.097	-0.155
-143.516	-164.987	-0.148	0.007
-142.502	238.098	0.066	-0.109
-141.487	-94.293	-0.486	0.133
-140.472	800.000	0.068	0.231
-139.458	-112.971	-0.098	-0.019
-138.443	-130.335	0.113	-0.015
-137.429	800.000	-0.073	0.241
-136.414	-69.584	0.281	0.108
-135.399	-28.805	0.233	-0.134
-134.385	-92.167	0.236	-0.066
-133.370	146.212	-0.133	0.178
-132.356	-20.561	0.220	-0.135
-131.341	-111.702	0.093	0.019
-130.326	70.179	0.146	0.151
-129.312	222.700	-0.096	0.154
-128.297	-130.591	0.201	0.027
-127.283	118.576	0.140	0.172
-126.268	-134.809	-0.550	0.067
-125.253	287.118	0.109	0.196
-124.239	-0.246	-0.272	0.193
-123.224	-34.247	0.312	0.171
-122.210	-56.624	0.125	0.055
-121.195	800.000	-0.011	0.031
