DTS Sentinel unit serial number:	SN413079Multiplexer serial number:	ORYXHardware model number:	OX4-SRSoftware version number:	ORYX F/W v4.00 Oryx Data Collector v3.7.2.0data status	okinstallation	princeton_trtdifferential loss correction	single-endedforward channel	channel 3reverse channel	N/Adate	2019/09/14time	04:56:35forward acquisition time	60.00reverse acquisition time	0.00gamma	496.2192k internal	0.2338k external	0.2338temperature offset calibration	1.0054default loss term (dB/km)	0.3790temperature slope calibration	1.0000multiplexer offset coefficient	1.0000multiplexer slope coefficient	1.0000fibre end	0.00T internal ref (°C)	26.87T ext. ref 1 (°C)	3.36T ext. ref 2 (°C)	22.00length (m)	temperature (°C)	Stokes	anti-Stokes-747.200	65.416	-0.094	0.095
-746.185	800.000	0.109	0.370
-745.171	376.100	-0.055	0.112
-744.156	-139.145	-0.112	0.012
-743.142	-200.000	-0.015	-0.165
-742.127	-200.000	0.070	0.373
-741.112	-149.010	0.253	-0.020
-740.098	-151.497	-0.258	-0.019
-739.083	208.405	0.194	0.304
-738.069	-141.733	-0.324	0.033
-737.054	-164.599	0.124	0.006
-736.039	-84.210	-0.170	-0.054
-735.025	-63.853	-0.073	0.030
-734.010	-200.000	-0.007	-0.314
-732.996	-107.688	-0.153	-0.034
-731.981	-118.972	0.262	-0.046
-730.966	648.759	-0.116	-0.297
-729.952	-200.000	0.009	-0.358
-728.937	68.776	-0.068	-0.070
-727.923	-200.000	-0.036	-0.169
-726.908	-59.065	0.076	-0.033
-725.894	-29.957	-0.252	-0.144
-724.879	-49.859	-0.076	-0.036
-723.864	-135.727	-0.298	-0.035
-722.850	-71.864	-0.233	0.087
-721.835	-37.793	-0.053	-0.028
-720.821	800.000	0.107	0.462
-719.806	-82.923	0.274	-0.089
-718.791	245.992	0.044	-0.075
-717.777	-200.000	0.019	-0.366
-716.762	33.764	-0.220	-0.192
-715.748	115.823	0.142	0.174
-714.733	580.961	-0.059	-0.146
-713.718	655.095	0.014	0.036
-712.704	236.221	0.142	-0.236
-711.689	800.000	-0.053	-0.152
-710.675	800.000	-0.020	-0.085
-709.660	-98.026	0.220	-0.057
-708.645	430.059	0.073	0.158
-707.631	561.675	0.115	-0.279
-706.616	35.212	-0.209	0.183
-705.602	-8.385	0.064	-0.043
-704.587	800.000	-0.103	-0.433
-703.572	383.777	-0.073	-0.151
-702.558	133.512	0.237	0.307
-701.543	800.000	-0.098	0.295
-700.529	-200.000	0.020	-0.172
-699.514	-8.932	0.283	0.190
-698.499	-7.989	0.096	-0.065
-697.485	-128.441	0.192	-0.027
-696.470	-154.879	0.164	0.011
-695.456	-118.942	0.080	-0.014
-694.441	-44.477	0.071	-0.036
-693.426	-121.893	-0.391	-0.065
-692.412	101.284	-0.110	0.128
-691.397	-200.000	0.003	-0.151
-690.383	748.489	-0.074	-0.200
-689.368	-200.000	0.032	-0.153
-688.354	157.041	0.011	0.015
-687.339	-109.856	-0.207	0.044
-686.324	665.527	0.098	-0.252
-685.310	-30.217	0.046	0.026
-684.295	-163.944	-0.610	-0.028
-683.281	65.015	0.150	0.151
-682.266	-148.065	-0.018	-0.001
-681.251	-12.241	0.191	-0.125
-680.237	-119.216	0.223	-0.039
-679.222	111.306	-0.142	0.172
-678.208	-4.074	0.108	-0.075
-677.193	120.168	-0.062	-0.077
-676.178	800.000	0.016	-0.054
-675.164	-61.077	0.265	-0.112
-674.149	164.647	0.120	-0.169
-673.135	-27.232	-0.086	0.050
-672.120	-177.706	-0.209	0.005
-671.105	-38.869	0.158	-0.083
-670.091	128.497	0.076	0.097
-669.076	-24.514	-0.350	-0.209
-668.062	362.405	-0.043	-0.086
-667.047	800.000	-0.063	0.270
-666.032	521.030	0.085	-0.200
-665.018	221.193	-0.203	0.326
-664.003	503.555	-0.068	0.157
-662.989	133.736	0.031	0.040
-661.974	220.321	0.089	-0.142
-660.959	16.028	-0.239	0.188
-659.945	-80.952	0.201	0.067
-658.930	-125.678	-0.119	-0.018
-657.916	71.646	0.125	-0.130
-656.901	74.632	0.120	-0.126
-655.886	-115.014	-0.241	0.046
-654.872	-153.289	0.064	-0.004
-653.857	-200.000	0.007	0.199
-652.843	88.544	-0.093	-0.103
-651.828	49.780	-0.148	-0.139
-650.814	484.934	-0.050	-0.113
-649.799	-200.000	-0.010	-0.075
-648.784	-200.000	-0.017	0.275
-647.770	-168.695	0.208	0.008
-646.755	185.891	0.126	0.188
-645.741	81.526	-0.107	-0.116
-644.726	159.766	-0.420	0.584
-643.711	71.619	-0.315	0.327
-642.697	-83.259	0.242	0.078
-641.682	-200.000	0.020	0.230
-640.668	85.924	-0.339	0.373
-639.653	-200.000	0.008	-0.162
-638.638	-166.945	-0.129	0.005
-637.624	-15.401	0.216	0.138
-636.609	257.963	-0.144	-0.248
-635.595	-200.000	0.040	-0.236
-634.580	28.694	-0.109	0.092
-633.565	-77.334	0.109	-0.038
-632.551	-200.000	0.034	0.247
-631.536	800.000	-0.046	-0.167
-630.522	340.460	-0.131	-0.255
-629.507	-200.000	0.001	0.225
-628.492	-97.993	0.225	-0.058
-627.478	239.788	0.024	0.039
-626.463	-200.000	-0.014	0.108
-625.449	-109.461	-0.120	0.025
-624.434	-200.000	-0.006	0.191
-623.419	45.815	0.120	-0.111
-622.405	-26.568	-0.088	-0.052
-621.390	800.000	0.063	0.244
-620.376	-126.614	-0.119	0.018
-619.361	67.841	0.115	0.117
-618.346	-13.118	-0.397	0.258
-617.332	131.889	0.183	-0.235
-616.317	174.501	0.064	-0.093
-615.303	209.494	0.096	0.150
-614.288	-200.000	-0.097	-0.436
-613.273	800.000	0.090	0.278
-612.259	147.326	0.147	0.197
-611.244	452.657	-0.161	-0.355
-610.230	800.000	0.043	-0.138
-609.215	800.000	-0.082	-0.346
-608.201	8.194	-0.296	0.222
-607.186	269.663	-0.157	-0.276
-606.171	-79.472	0.253	0.085
-605.157	344.490	0.023	0.045
-604.142	156.842	-0.110	0.152
-603.128	22.932	-0.386	-0.316
-602.113	-200.000	-0.004	0.031
-601.098	-37.631	0.150	-0.080
-600.084	-200.000	0.023	-0.162
-599.069	-144.684	-0.470	-0.043
-598.055	26.743	0.147	0.123
-597.040	145.285	-0.028	0.038
-596.025	-200.000	-0.001	0.293
-595.011	800.000	-0.045	0.163
-593.996	87.179	0.219	-0.242
-592.982	-194.421	-0.146	-0.001
-591.967	284.576	0.062	0.112
-590.952	-57.019	-0.153	-0.067
-589.938	65.159	-0.270	0.273
-588.923	-192.029	-0.168	-0.002
-587.909	-95.237	0.075	-0.020
-586.894	-200.000	-0.004	-0.275
-585.879	-200.000	0.072	-0.344
-584.865	383.679	-0.136	0.279
-583.850	-154.616	-0.342	-0.023
-582.836	267.996	0.042	0.074
-581.821	-200.000	0.051	0.266
-580.806	124.481	0.359	0.450
-579.792	-177.895	0.098	0.002
-578.777	122.869	-0.194	-0.242
-577.763	563.634	-0.042	-0.100
-576.748	434.345	-0.072	0.156
-575.733	-90.800	-0.218	0.063
-574.719	115.635	0.108	-0.131
-573.704	800.000	0.045	0.123
-572.690	668.325	0.087	0.225
-571.675	34.293	0.115	-0.100
-570.661	-40.976	-0.362	-0.187
-569.646	67.021	0.185	0.188
-568.631	-200.000	-0.021	0.282
-567.617	85.358	0.209	0.228
-566.602	800.000	-0.088	0.359
-565.588	29.793	0.108	-0.092
-564.573	132.041	0.058	0.074
-563.558	26.496	0.337	0.281
-562.544	-84.073	0.135	-0.043
-561.529	238.604	-0.079	-0.131
-560.515	-124.910	0.197	-0.030
-559.500	-32.541	-0.121	0.067
-558.485	101.034	-0.160	-0.186
-557.471	-2.058	0.322	0.225
-556.456	76.558	-0.128	-0.136
-555.442	19.543	-0.100	-0.080
-554.427	-71.674	-0.079	-0.029
-553.412	-156.713	-0.284	0.017
-552.398	547.453	0.084	-0.201
-551.383	-6.949	0.121	0.082
-550.369	79.526	-0.285	0.304
-549.354	-147.597	0.132	-0.011
-548.339	-200.000	-0.023	0.112
-547.325	-200.000	-0.009	0.275
-546.310	171.671	0.257	-0.368
-545.296	99.607	-0.139	-0.160
-544.281	124.448	0.070	0.087
-543.266	-200.000	0.017	-0.233
-542.252	-64.171	0.311	0.126
-541.237	559.039	0.130	0.313
-540.223	-3.372	-0.160	-0.111
-539.208	-83.058	0.083	0.027
-538.193	49.862	0.224	0.210
-537.179	327.771	-0.040	-0.076
-536.164	-200.000	-0.011	0.094
-535.150	-105.390	0.223	0.051
-534.135	109.499	0.133	-0.158
-533.121	-115.786	0.194	0.036
-532.106	365.410	0.018	0.037
-531.091	-200.000	-0.013	-0.215
-530.077	233.941	-0.147	-0.242
-529.062	-115.577	0.251	-0.047
-528.048	209.781	0.175	-0.273
-527.033	-81.200	0.313	-0.103
-526.018	-146.372	-0.324	-0.028
-525.004	800.000	0.062	-0.202
-523.989	-38.281	0.137	-0.072
-522.975	61.744	-0.054	-0.053
-521.960	-102.230	0.202	0.048
-520.945	800.000	0.057	0.194
-519.931	800.000	-0.075	0.279
-518.916	-14.927	-0.123	-0.079
-517.902	127.475	-0.094	0.119
-516.887	800.000	-0.076	-0.252
-515.872	-15.092	-0.153	0.097
-514.858	-122.247	0.125	-0.020
-513.843	-200.000	0.003	-0.107
-512.829	-26.045	0.184	-0.108
-511.814	7.503	-0.213	0.158
-510.799	-45.927	-0.360	0.177
-509.785	-200.000	-0.010	0.374
-508.770	51.834	-0.076	-0.072
-507.756	-200.000	0.016	-0.112
-506.741	-116.501	0.243	-0.045
-505.726	800.000	-0.065	-0.251
-504.712	77.509	0.212	-0.224
-503.697	-200.000	0.059	-0.282
-502.683	800.000	0.060	0.211
-501.668	119.879	0.013	-0.016
-500.653	-137.292	0.090	0.010
-499.639	251.447	-0.117	-0.198
-498.624	-100.966	0.329	-0.080
-497.610	18.256	0.100	0.080
-496.595	17.359	0.352	0.278
-495.581	-179.941	0.203	0.004
-494.566	-27.321	0.176	0.102
-493.551	-90.163	0.098	0.028
-492.537	-57.836	0.160	0.069
-491.522	-200.000	0.015	-0.079
-490.508	800.000	0.042	0.180
-489.493	-98.764	-0.255	-0.064
-488.478	47.476	0.111	-0.102
-487.464	800.000	0.028	0.114
-486.449	800.000	0.039	-0.113
-485.435	-181.215	-0.278	-0.005
-484.420	-92.604	-0.098	0.027
-483.405	-200.000	0.255	0.000
-482.391	19.865	-0.249	0.199
-481.376	23.332	0.283	0.231
-480.362	-200.000	-0.022	-0.223
-479.347	524.172	0.054	-0.126
-478.332	134.902	-0.143	-0.185
-477.318	-166.405	0.274	-0.011
-476.303	800.000	0.067	-0.236
-475.289	-93.629	-0.555	0.152
-474.274	115.959	0.208	-0.253
-473.259	800.000	0.035	0.115
-472.245	77.633	0.198	0.209
-471.230	208.359	-0.019	0.030
-470.216	-26.080	0.111	-0.065
-469.201	-200.000	0.052	0.263
-468.186	-153.409	-0.140	-0.010
-467.172	76.223	0.123	0.129
-466.157	-200.000	0.022	0.220
-465.143	18.823	-0.203	0.162
-464.128	-158.961	-0.217	-0.012
-463.113	-200.000	-0.021	-0.204
-462.099	-36.676	0.240	-0.128
-461.084	-116.550	-0.340	-0.062
-460.070	17.744	0.177	0.140
-459.055	-92.256	0.047	0.013
-458.040	104.495	-0.254	-0.297
-457.026	-33.925	-0.143	-0.078
-456.011	800.000	-0.091	-0.358
-454.997	-6.345	-0.192	0.130
-453.982	-25.056	-0.301	0.177
-452.968	180.479	-0.109	0.159
-451.953	-25.124	-0.033	0.020
-450.938	-99.376	0.342	0.086
-449.924	-200.000	-0.081	0.362
-448.909	-116.549	-0.597	-0.109
-447.895	300.790	0.272	-0.499
-446.880	-61.278	0.102	0.042
-445.865	-200.000	0.012	-0.337
-444.851	-200.000	-0.027	-0.427
-443.836	48.953	0.250	-0.233
-442.822	57.249	-0.102	0.099
-441.807	250.004	-0.071	0.120
-440.792	85.673	0.078	-0.085
-439.778	198.525	-0.053	-0.081
-438.763	800.000	-0.031	-0.104
-437.749	-53.774	-0.369	0.167
-436.734	112.159	-0.022	0.026
-435.719	-41.980	0.124	0.063
-434.705	147.854	-0.033	0.044
-433.690	127.585	-0.154	-0.194
-432.676	-200.000	0.041	0.229
-431.661	13.371	-0.256	0.197
-430.646	-200.000	-0.016	0.211
-429.632	-200.000	-0.194	-0.000
-428.617	315.907	-0.024	-0.044
-427.603	-200.000	0.051	-0.248
-426.588	-91.019	-0.168	-0.048
-425.573	269.765	-0.143	0.248
-424.559	-46.779	0.225	0.109
-423.544	-5.026	-0.153	-0.105
-422.530	137.692	-0.099	-0.128
-421.515	800.000	-0.104	-0.308
-420.500	-78.975	-0.207	0.070
-419.486	78.846	0.013	0.014
-418.471	-200.000	-0.056	-0.253
-417.457	800.000	-0.020	-0.082
-416.442	800.000	-0.079	0.222
-415.428	67.973	-0.164	0.166
-414.413	88.286	0.122	-0.134
-413.398	24.290	-0.200	-0.164
-412.384	-9.080	0.195	-0.129
-411.369	318.275	0.110	-0.207
-410.355	-192.185	0.268	0.003
-409.340	244.475	-0.101	0.168
-408.325	25.327	0.080	0.066
-407.311	800.000	0.069	-0.237
-406.296	-31.643	0.240	0.134
-405.282	45.353	-0.139	0.127
-404.267	-200.000	0.018	0.217
-403.252	23.731	0.378	-0.309
-402.238	-88.224	-0.291	0.086
-401.223	-10.968	0.060	-0.039
-400.209	-200.000	0.012	0.329
-399.194	-42.073	-0.088	-0.045
-398.179	58.164	-0.065	0.064
-397.165	0.546	0.244	0.172
-396.150	-200.000	0.031	0.228
-395.136	-128.587	-0.162	0.023
-394.121	-38.158	-0.338	0.177
-393.106	-131.365	-0.182	-0.024
-392.092	329.482	0.072	-0.137
-391.077	108.673	0.183	-0.216
-390.063	-200.000	-0.052	0.226
-389.048	-93.082	0.151	0.042
-388.033	-103.818	0.337	0.078
-387.019	800.000	-0.117	0.355
-386.004	-200.000	-0.021	0.092
-384.990	268.946	-0.185	0.322
-383.975	-200.000	0.033	0.237
-382.960	185.616	0.048	-0.070
-381.946	-200.000	0.016	0.105
-380.931	51.686	0.054	0.051
-379.917	617.179	-0.054	-0.134
-378.902	-200.000	0.038	0.204
-377.888	112.202	0.339	0.405
-376.873	60.718	0.218	0.214
-375.858	-168.038	-0.166	0.006
-374.844	-200.000	0.006	-0.095
-373.829	-79.262	0.192	0.064
-372.815	58.291	-0.049	0.048
-371.800	-179.408	0.348	0.008
-370.785	41.185	0.197	0.176
-369.771	-200.000	0.036	0.383
-368.756	-27.460	-0.202	0.116
-367.742	158.475	-0.107	-0.147
-366.727	800.000	-0.099	-0.276
-365.712	125.235	0.191	0.239
-364.698	-86.316	-0.190	0.058
-363.683	800.000	-0.096	-0.287
-362.669	-30.267	-0.207	0.116
-361.654	558.921	-0.110	0.263
-360.639	-28.007	-0.116	-0.066
-359.625	350.455	0.103	-0.202
-358.610	-150.380	-0.267	0.020
-357.596	184.492	-0.172	-0.251
-356.581	201.183	-0.157	-0.239
-355.566	-120.551	-0.184	-0.031
-354.552	124.748	-0.061	-0.076
-353.537	101.594	0.144	-0.165
-352.523	800.000	-0.082	-0.243
-351.508	172.799	0.050	0.072
-350.493	800.000	-0.037	-0.114
-349.479	-75.761	-0.062	-0.022
-348.464	-74.156	0.203	0.073
-347.450	-102.729	0.299	-0.070
-346.435	-91.138	-0.327	0.093
-345.420	-48.204	-0.165	-0.079
-344.406	141.188	0.136	-0.178
-343.391	-40.296	0.221	0.114
-342.377	47.527	-0.232	-0.214
-341.362	-134.131	-0.109	-0.013
-340.348	158.887	-0.113	-0.155
-339.333	679.385	0.067	-0.173
-338.318	412.787	0.191	0.401
-337.304	-200.000	-0.022	-0.174
-336.289	-96.149	-0.359	-0.094
-335.275	-200.000	0.065	0.351
-334.260	268.445	0.081	0.140
-333.245	-74.193	-0.164	-0.059
-332.231	-119.266	0.273	0.047
-331.216	-70.431	0.125	0.047
-330.202	517.842	0.089	0.205
-329.187	70.303	0.207	-0.211
-328.172	-101.276	0.358	0.086
-327.158	-96.322	0.077	0.020
-326.143	100.284	0.051	0.059
-325.129	104.925	0.133	-0.155
-324.114	-42.038	0.293	0.148
-323.099	132.526	-0.151	-0.192
-322.085	64.434	0.072	0.071
-321.070	130.884	0.046	0.059
-320.056	32.564	-0.183	-0.156
-319.041	-158.838	0.245	0.014
-318.026	192.983	-0.119	0.178
-317.012	-114.659	-0.373	0.070
-315.997	-200.000	0.094	0.419
-314.983	155.462	-0.198	0.269
-313.968	800.000	0.121	-0.330
-312.953	-50.572	0.441	-0.205
-311.939	-75.978	0.169	-0.059
-310.924	-28.210	-0.206	0.118
-309.910	-85.825	-0.276	-0.084
-308.895	431.782	0.129	0.277
-307.880	101.694	-0.054	0.062
-306.866	-200.000	-0.027	0.236
-305.851	-125.813	0.349	0.052
-304.837	76.430	-0.159	-0.166
-303.822	-28.579	-0.307	0.175
-302.807	281.118	0.098	0.174
-301.793	800.000	-0.094	-0.287
-300.778	-140.980	0.302	0.031
-299.764	-64.026	-0.243	-0.098
-298.749	88.077	-0.255	-0.279
-297.735	-200.000	-0.028	-0.246
-296.720	311.251	-0.241	-0.445
-295.705	-131.364	-0.174	-0.023
-294.691	79.516	-0.143	0.151
-293.676	-29.233	-0.048	-0.027
-292.662	312.342	0.114	-0.211
-291.647	58.192	0.303	-0.293
-290.632	-41.520	0.182	0.092
-289.618	-144.718	0.270	0.024
-288.603	-48.139	-0.184	-0.088
-287.589	42.965	-0.094	-0.085
-286.574	67.052	-0.259	0.260
-285.559	-44.482	0.344	0.170
-284.545	403.600	-0.104	-0.216
-283.530	211.593	0.167	0.260
-282.516	445.218	0.092	-0.200
-281.501	-91.882	-0.145	-0.041
-280.486	-142.986	0.207	-0.020
-279.472	-94.190	0.151	-0.041
-278.457	173.618	-0.098	-0.139
-277.443	800.000	0.061	0.204
-276.428	121.459	-0.081	-0.100
-275.413	260.881	-0.121	-0.207
-274.399	-103.672	0.098	0.023
-273.384	-88.480	0.241	0.071
-272.370	205.708	0.230	0.353
-271.355	300.443	0.107	0.195
-270.340	800.000	-0.062	0.198
-269.326	-35.900	0.138	-0.073
-268.311	-3.834	0.235	-0.161
-267.297	-8.833	0.238	0.157
-266.282	139.461	-0.179	-0.232
-265.267	103.191	-0.170	-0.196
-264.253	-83.608	-0.141	0.045
-263.238	-200.000	0.025	0.210
-262.224	166.908	-0.122	0.171
-261.209	433.282	0.142	-0.304
-260.195	57.467	0.288	-0.277
-259.180	195.684	0.094	0.141
-258.165	443.553	-0.063	0.136
-257.151	18.587	-0.060	-0.047
-256.136	624.070	0.048	-0.118
-255.122	-137.918	-0.477	-0.052
-254.107	256.991	0.072	0.122
-253.092	172.553	0.161	-0.228
-252.078	-87.099	0.115	0.034
-251.063	-159.143	0.263	-0.015
-250.049	-0.069	0.258	-0.181
-249.034	331.491	-0.120	-0.227
-248.019	-154.728	-0.063	-0.004
-247.005	-126.151	-0.370	-0.055
-245.990	-35.670	-0.139	0.074
-244.976	12.195	-0.059	-0.045
-243.961	-147.920	-0.134	-0.011
-242.946	278.932	-0.028	0.050
-241.932	-200.000	-0.029	0.279
-240.917	129.558	0.148	-0.186
-239.903	-25.046	0.159	-0.093
-238.888	-7.410	0.183	0.122
-237.873	537.435	0.031	-0.072
-236.859	462.533	-0.038	0.084
-235.844	-35.681	0.305	0.163
-234.830	-200.000	0.010	-0.174
-233.815	197.262	0.182	-0.274
-232.800	421.330	0.043	-0.091
-231.786	-120.265	0.056	-0.009
-230.771	21.115	-0.351	0.280
-229.757	-200.000	-0.041	-0.215
-228.742	-69.065	-0.320	-0.121
-227.727	20.574	-0.180	0.143
-226.713	-116.305	0.129	0.024
-225.698	-66.791	-0.201	0.078
-224.684	-19.921	0.114	0.069
-223.669	369.647	0.040	0.079
-222.655	-17.560	0.170	0.105
-221.640	-63.315	-0.067	-0.027
-220.625	86.136	0.150	0.162
-219.611	-130.564	0.094	0.012
-218.596	127.587	-0.098	-0.122
-217.582	-39.299	-0.183	-0.094
-216.567	-85.315	-0.265	-0.081
-215.552	273.570	-0.084	0.146
-214.538	-200.000	0.002	0.054
-213.523	800.000	0.086	-0.355
-212.509	94.885	-0.066	0.074
-211.494	-42.909	0.120	0.060
-210.479	-200.000	-0.017	0.165
-209.465	-200.000	-0.111	-0.496
-208.450	9.261	-0.248	-0.185
-207.436	-200.000	0.025	-0.201
-206.421	800.000	0.061	-0.194
-205.406	-13.531	0.180	-0.114
-204.392	4.399	-0.051	-0.037
-203.377	14.247	-0.114	-0.088
-202.363	7.207	-0.037	-0.027
-201.348	-13.737	-0.169	-0.107
-200.333	440.619	-0.082	0.175
-199.319	-200.000	0.014	-0.287
-198.304	85.309	0.094	0.101
-197.290	-200.000	-0.287	0.000
-196.275	-200.000	0.025	-0.254
-195.260	-57.397	-0.121	0.052
-194.246	448.630	0.040	-0.086
-193.231	-103.371	0.122	-0.028
-192.217	-25.030	-0.104	0.061
-191.202	800.000	0.056	0.158
-190.187	-200.000	-0.070	-0.345
-189.173	-200.000	-0.003	-0.244
-188.158	-59.724	0.124	0.052
-187.144	125.615	-0.118	0.146
-186.129	800.000	0.008	-0.029
-185.114	-46.579	0.286	0.138
-184.100	800.000	-0.036	0.116
-183.085	38.339	0.216	-0.189
-182.071	-83.916	-0.173	-0.054
-181.056	19.793	0.096	-0.076
-180.042	-152.686	0.113	-0.008
-179.027	100.054	-0.068	-0.078
-178.012	-82.348	0.327	-0.105
-176.998	-11.821	-0.076	-0.049
-175.983	-42.748	-0.335	-0.167
-174.969	-54.620	0.283	0.126
-173.954	63.876	0.411	0.406
-172.939	-14.092	-0.091	0.057
-171.925	496.294	0.068	-0.154
-170.910	-200.000	0.037	0.223
-169.896	-36.804	-0.230	-0.121
-168.881	-54.405	0.086	-0.038
-167.866	-143.090	-0.241	0.023
-166.852	800.000	0.042	-0.126
-165.837	52.338	0.136	0.127
-164.823	36.074	-0.166	0.143
-163.808	-21.260	-0.203	0.121
-162.793	244.006	0.170	-0.280
-161.779	-55.938	-0.166	-0.072
-160.764	-179.056	0.289	-0.006
-159.750	96.584	0.163	-0.183
-158.735	16.703	0.067	-0.052
-157.720	75.202	0.139	-0.144
-156.706	387.441	-0.169	-0.343
-155.691	380.713	-0.016	0.033
-154.677	79.488	0.209	0.220
-153.662	-155.966	-0.352	0.022
-152.647	-137.570	-0.254	0.028
-151.633	35.115	0.168	-0.145
-150.618	654.880	-0.072	-0.182
-149.604	-200.000	0.004	-0.084
-148.589	-78.739	0.136	0.045
-147.574	800.000	-0.073	-0.229
-146.560	122.664	-0.153	0.187
-145.545	-71.875	-0.233	0.085
-144.531	800.000	-0.043	0.164
-143.516	-200.000	0.002	0.219
-142.502	-200.000	-0.028	0.221
-141.487	800.000	-0.071	-0.232
-140.472	-23.902	-0.363	0.213
-139.458	-37.740	-0.348	-0.181
-138.443	-200.000	0.016	0.122
-137.429	631.312	0.082	0.204
-136.414	-200.000	0.043	0.278
-135.399	44.721	-0.065	0.058
-134.385	468.446	0.080	-0.176
-133.370	-200.000	-0.027	-0.245
-132.356	-200.000	-0.058	-0.645
-131.341	800.000	-0.022	-0.087
-130.326	-104.694	0.271	-0.061
-129.312	-37.490	-0.071	0.037
-128.297	24.552	0.359	0.291
-127.283	334.275	0.122	0.231
-126.268	800.000	0.094	-0.272
-125.253	72.492	0.063	-0.064
-124.239	-200.000	0.001	0.214
-123.224	183.062	0.190	0.275
-122.210	-78.174	-0.050	-0.017
-121.195	144.405	0.045	0.058
