DTS Sentinel unit serial number:	SN413079Multiplexer serial number:	ORYXHardware model number:	OX4-SRSoftware version number:	ORYX F/W v4.00 Oryx Data Collector v3.7.2.0data status	okinstallation	princeton_trtdifferential loss correction	single-endedforward channel	channel 3reverse channel	N/Adate	2019/09/17time	08:36:34forward acquisition time	60.00reverse acquisition time	0.00gamma	496.2192k internal	0.2331k external	0.2331temperature offset calibration	0.9940default loss term (dB/km)	0.3790temperature slope calibration	1.0000multiplexer offset coefficient	1.0000multiplexer slope coefficient	1.0000fibre end	0.00T internal ref (°C)	27.62T ext. ref 1 (°C)	0.13T ext. ref 2 (°C)	23.21length (m)	temperature (°C)	Stokes	anti-Stokes-747.200	-33.285	-0.174	-0.097
-746.185	29.903	-0.334	0.286
-745.171	-200.000	0.002	-0.016
-744.156	-84.795	-0.203	0.064
-743.142	-200.000	-0.049	-0.267
-742.127	302.088	0.136	0.252
-741.112	-200.000	0.018	0.082
-740.098	89.893	-0.276	0.310
-739.083	16.382	-0.114	0.091
-738.069	-200.000	-0.014	-0.146
-737.054	-103.258	0.115	-0.027
-736.039	24.982	-0.149	-0.124
-735.025	28.270	-0.096	-0.081
-734.010	548.723	0.050	-0.119
-732.996	-23.601	-0.151	0.091
-731.981	42.868	0.114	0.104
-730.966	800.000	-0.039	0.156
-729.952	-200.000	0.023	0.139
-728.937	217.448	-0.087	-0.139
-727.923	-132.232	0.018	0.002
-726.908	-21.703	-0.307	0.188
-725.894	-141.266	-0.205	0.021
-724.879	800.000	-0.130	-0.434
-723.864	169.950	-0.049	0.071
-722.850	-200.000	0.008	0.264
-721.835	-10.406	0.461	0.307
-720.821	291.264	0.073	-0.133
-719.806	100.011	-0.191	0.222
-718.791	757.415	0.040	-0.110
-717.777	241.161	-0.090	0.150
-716.762	-137.100	-0.126	0.014
-715.748	179.362	-0.052	-0.076
-714.733	91.585	-0.066	-0.075
-713.718	-45.023	0.142	0.071
-712.704	160.160	0.072	-0.100
-711.689	800.000	0.131	0.406
-710.675	539.725	0.159	-0.379
-709.660	137.814	-0.200	-0.264
-708.645	171.636	-0.225	-0.325
-707.631	800.000	-0.059	0.237
-706.616	-200.000	0.040	-0.251
-705.602	-200.000	-0.009	0.165
-704.587	-200.000	0.013	0.264
-703.572	-12.035	-0.080	-0.053
-702.558	-4.454	-0.227	0.157
-701.543	129.685	-0.309	0.397
-700.529	-37.374	-0.410	-0.220
-699.514	-146.852	0.052	0.005
-698.499	4.847	-0.493	0.364
-697.485	-13.392	0.162	0.105
-696.470	271.052	-0.037	0.065
-695.456	-200.000	0.058	0.359
-694.441	-118.910	-0.046	-0.008
-693.426	-157.334	0.104	0.006
-692.412	-23.755	0.178	-0.107
-691.397	-36.937	0.366	-0.197
-690.383	800.000	-0.029	0.123
-689.368	-200.000	-0.021	-0.139
-688.354	800.000	-0.025	0.078
-687.339	119.224	-0.059	-0.073
-686.324	-155.986	-0.154	-0.010
-685.310	-32.890	0.345	-0.193
-684.295	-146.089	-0.216	-0.019
-683.281	-144.987	-0.211	0.019
-682.266	50.863	-0.064	-0.061
-681.251	-39.972	-0.306	0.160
-680.237	-72.847	-0.155	0.057
-679.222	46.030	0.341	-0.317
-678.208	-61.938	-0.369	-0.155
-677.193	-200.000	-0.042	-0.257
-676.178	800.000	-0.027	0.101
-675.164	446.038	-0.111	0.245
-674.149	-141.401	0.100	0.010
-673.135	-200.000	0.023	0.380
-672.120	-36.475	-0.204	0.110
-671.105	325.541	0.123	-0.237
-670.091	97.763	-0.148	-0.171
-669.076	-200.000	-0.001	-0.135
-668.062	-165.339	-0.374	-0.017
-667.047	-200.000	-0.074	-0.520
-666.032	-10.072	0.099	0.066
-665.018	-200.000	0.010	-0.094
-664.003	-149.566	-0.144	-0.011
-662.989	-97.196	-0.340	0.089
-661.974	800.000	-0.045	-0.145
-660.959	207.972	0.053	0.083
-659.945	-152.817	-0.311	-0.022
-658.930	-88.627	-0.355	0.106
-657.916	205.947	0.040	-0.063
-656.901	-89.792	0.020	0.006
-655.886	800.000	-0.036	0.123
-654.872	15.970	0.032	-0.025
-653.857	-93.610	-0.115	-0.032
-652.843	81.948	0.188	-0.204
-651.828	-47.086	-0.303	0.148
-650.814	-144.139	-0.303	-0.028
-649.799	800.000	0.041	0.127
-648.784	800.000	0.064	0.265
-647.770	24.591	0.060	0.050
-646.755	67.055	-0.294	-0.300
-645.741	800.000	-0.109	0.425
-644.726	800.000	0.046	0.172
-643.711	800.000	0.036	-0.127
-642.697	-149.226	-0.095	0.008
-641.682	-15.408	0.294	-0.188
-640.668	-63.226	-0.234	-0.097
-639.653	-164.118	0.196	-0.009
-638.638	-162.874	-0.287	0.014
-637.624	262.047	0.173	0.301
-636.609	-189.222	-0.043	0.001
-635.595	125.429	-0.106	-0.134
-634.580	-143.015	0.244	0.024
-633.565	589.811	-0.034	0.084
-632.551	-127.854	-0.060	0.009
-631.536	242.089	-0.145	-0.243
-630.522	-83.178	-0.325	0.105
-629.507	62.526	0.302	0.303
-628.492	23.832	-0.231	-0.191
-627.478	54.077	0.229	-0.220
-626.463	-19.005	0.185	-0.115
-625.449	-71.642	-0.084	0.031
-624.434	2.348	-0.156	-0.113
-623.419	-70.607	0.293	-0.111
-622.405	29.846	0.262	0.223
-621.390	800.000	0.151	0.485
-620.376	800.000	0.046	-0.202
-619.361	-107.055	-0.137	-0.030
-618.346	-200.000	0.011	0.175
-617.332	134.782	-0.138	-0.179
-616.317	800.000	-0.080	-0.328
-615.303	-118.319	-0.293	0.052
-614.288	104.789	-0.255	0.301
-613.273	800.000	0.091	0.301
-612.259	-9.122	0.272	-0.182
-611.244	-86.152	0.174	0.054
-610.230	356.255	0.277	0.552
-609.215	-44.625	-0.076	-0.038
-608.201	800.000	0.059	-0.195
-607.186	35.319	0.152	-0.134
-606.171	-137.482	0.077	0.009
-605.157	337.471	0.101	-0.197
-604.142	-200.000	-0.014	0.269
-603.128	-136.505	-0.138	-0.016
-602.113	-200.000	0.010	-0.434
-601.098	800.000	-0.058	-0.207
-600.084	257.567	-0.063	-0.109
-599.069	89.560	-0.176	0.197
-598.055	338.580	-0.077	-0.150
-597.040	-200.000	0.013	-0.380
-596.025	9.234	-0.341	0.258
-595.011	-54.396	-0.269	0.122
-593.996	132.306	0.122	0.157
-592.982	-23.680	-0.110	-0.066
-591.967	-26.956	-0.112	0.065
-590.952	705.075	0.052	0.137
-589.938	-200.000	-0.006	-0.077
-588.923	-200.000	-0.025	-0.128
-587.909	-200.000	0.007	-0.231
-586.894	-156.534	-0.187	-0.012
-585.879	800.000	0.070	-0.259
-584.865	60.138	0.183	0.181
-583.850	-200.000	-0.009	0.044
-582.836	187.538	0.091	0.135
-581.821	59.939	-0.101	0.100
-580.806	91.228	0.154	0.173
-579.792	321.649	-0.076	0.145
-578.777	-98.669	-0.117	-0.030
-577.763	-32.104	0.183	-0.102
-576.748	800.000	-0.094	0.358
-575.733	39.899	-0.101	0.090
-574.719	-200.000	-0.001	0.156
-573.704	-23.255	0.158	-0.095
-572.690	334.096	0.041	-0.079
-571.675	-200.000	0.043	-0.207
-570.661	167.603	-0.203	-0.288
-569.646	219.876	-0.194	-0.311
-568.631	217.135	0.155	0.247
-567.617	264.227	-0.134	-0.233
-566.602	-119.955	0.258	-0.044
-565.588	251.096	-0.012	-0.021
-564.573	138.535	0.204	-0.267
-563.558	48.174	0.201	-0.188
-562.544	79.377	0.068	-0.073
-561.529	-14.913	-0.109	-0.070
-560.515	-200.000	0.199	-0.001
-559.500	-165.576	0.377	0.016
-558.485	763.684	-0.035	-0.095
-557.471	-200.000	0.003	0.059
-556.456	-159.246	0.201	-0.011
-555.442	-200.000	-0.010	-0.095
-554.427	312.233	-0.242	0.454
-553.412	-84.686	-0.136	0.043
-552.398	-200.000	0.018	0.132
-551.383	-75.337	-0.101	0.036
-550.369	32.926	-0.269	0.232
-549.354	-142.240	0.143	-0.014
-548.339	-200.000	0.081	0.490
-547.325	-59.339	-0.307	-0.132
-546.310	-115.986	-0.285	-0.053
-545.296	291.163	0.186	0.337
-544.281	267.905	-0.074	-0.130
-543.266	-200.000	0.012	0.236
-542.252	33.447	-0.105	-0.091
-541.237	419.735	-0.100	-0.215
-540.223	800.000	-0.048	-0.147
-539.208	-64.125	0.270	0.110
-538.193	-20.276	-0.114	0.070
-537.179	487.197	-0.125	-0.285
-536.164	-200.000	-0.016	0.069
-535.150	-82.078	0.112	0.037
-534.135	-200.000	0.017	-0.080
-533.121	170.577	0.057	0.081
-532.106	-125.623	-0.253	0.038
-531.091	-200.000	-0.033	0.182
-530.077	387.183	-0.030	-0.061
-529.062	2.946	-0.164	0.119
-528.048	-105.008	0.143	-0.033
-527.033	5.598	-0.208	-0.154
-526.018	-200.000	-0.021	-0.379
-525.004	-19.579	0.278	0.172
-523.989	33.525	-0.197	-0.171
-522.975	-93.862	-0.172	-0.047
-521.960	-148.853	0.130	0.010
-520.945	224.403	0.109	0.177
-519.931	-174.467	-0.291	-0.008
-518.916	297.246	0.079	0.145
-517.902	-115.063	-0.189	0.036
-516.887	-88.814	0.243	0.072
-515.872	-200.000	-0.061	-0.459
-514.858	-81.342	0.121	0.040
-513.843	497.381	-0.096	0.221
-512.829	800.000	0.126	-0.424
-511.814	166.033	0.071	-0.100
-510.799	-3.385	0.167	0.116
-509.785	-23.960	-0.142	-0.085
-508.770	81.914	0.139	0.150
-507.756	-200.000	0.018	0.087
-506.741	23.742	0.178	-0.146
-505.726	-67.967	-0.188	0.073
-504.712	-169.621	-0.473	0.017
-503.697	-200.000	-0.024	-0.396
-502.683	-87.049	0.228	0.069
-501.668	-47.571	-0.079	0.038
-500.653	144.486	0.208	0.277
-499.639	57.857	0.186	0.182
-498.624	-200.000	0.006	0.175
-497.610	-144.263	0.308	-0.029
-496.595	492.285	-0.150	0.344
-495.581	429.616	0.034	0.073
-494.566	123.022	-0.239	-0.298
-493.551	-200.000	0.005	-0.027
-492.537	708.810	-0.115	0.304
-491.522	-200.000	0.036	0.275
-490.508	-135.211	0.198	-0.024
-489.493	-82.443	-0.077	0.025
-488.478	-124.579	0.107	-0.017
-487.464	-61.483	-0.220	-0.092
-486.449	69.271	-0.172	-0.176
-485.435	44.006	0.047	-0.043
-484.420	328.970	-0.096	0.183
-483.405	800.000	-0.100	0.438
-482.391	86.096	0.111	0.121
-481.376	-79.571	0.044	0.015
-480.362	800.000	-0.024	0.074
-479.347	-200.000	-0.018	-0.194
-478.332	800.000	-0.016	0.066
-477.318	-200.000	0.013	0.270
-476.303	-83.162	-0.185	-0.059
-475.289	36.134	0.200	0.176
-474.274	800.000	-0.027	-0.113
-473.259	-64.920	0.235	0.094
-472.245	28.291	0.117	0.099
-471.230	-200.000	0.024	0.189
-470.216	800.000	0.029	0.111
-469.201	-200.000	-0.017	-0.142
-468.186	361.337	0.198	-0.395
-467.172	-62.976	-0.299	-0.123
-466.157	-200.000	0.021	0.159
-465.143	-145.084	0.140	-0.013
-464.128	-62.759	-0.254	-0.105
-463.113	392.332	0.242	-0.502
-462.099	36.667	0.107	0.094
-461.084	430.437	-0.069	0.149
-460.070	-13.325	0.206	-0.133
-459.055	-107.295	0.226	-0.049
-458.040	-109.598	0.334	0.070
-457.026	-101.731	0.074	0.018
-456.011	178.440	0.137	-0.199
-454.997	800.000	0.095	-0.388
-453.982	800.000	-0.040	-0.160
-452.968	-110.789	-0.116	0.024
-451.953	800.000	-0.040	0.115
-450.938	30.680	0.211	0.180
-449.924	-60.893	0.097	-0.041
-448.909	-185.886	0.093	-0.001
-447.895	800.000	-0.108	0.321
-446.880	610.840	-0.068	0.169
-445.865	-111.011	-0.356	-0.073
-444.851	253.893	-0.153	-0.260
-443.836	-147.738	-0.259	-0.022
-442.822	48.465	-0.349	-0.325
-441.807	-174.903	0.199	0.006
-440.792	100.895	0.038	-0.043
-439.778	-20.492	0.246	-0.151
-438.763	57.954	0.083	0.081
-437.749	380.127	0.023	-0.048
-436.734	29.515	-0.134	0.113
-435.719	800.000	-0.035	0.147
-434.705	-200.000	0.009	0.457
-433.690	-48.499	0.224	-0.107
-432.676	-101.042	-0.145	0.035
-431.661	-76.010	-0.167	0.059
-430.646	14.339	-0.385	0.299
-429.632	-118.921	0.355	0.062
-428.617	-104.802	-0.161	-0.037
-427.603	695.293	-0.021	0.055
-426.588	507.666	0.085	-0.195
-425.573	88.656	-0.083	-0.092
-424.559	800.000	0.033	-0.110
-423.544	399.429	-0.096	-0.199
-422.530	-200.000	-0.079	0.423
-421.515	-38.628	0.130	0.068
-420.500	41.651	-0.068	0.061
-419.486	-98.808	0.296	0.075
-418.471	-125.273	0.086	0.013
-417.457	146.223	-0.124	0.166
-416.442	-88.442	-0.145	0.043
-415.428	-53.737	0.268	-0.122
-414.413	-42.270	-0.150	0.076
-413.398	388.819	0.083	0.171
-412.384	600.119	-0.092	-0.228
-411.369	309.252	0.053	-0.098
-410.355	-200.000	-0.036	-0.177
-409.340	34.405	0.115	0.099
-408.325	-83.815	0.273	0.086
-407.311	-133.492	-0.267	0.033
-406.296	507.673	-0.085	-0.197
-405.282	-200.000	-0.027	-0.196
-404.267	28.746	-0.127	0.107
-403.252	-8.238	0.327	-0.219
-402.238	172.401	-0.155	0.222
-401.223	800.000	-0.092	-0.376
-400.209	6.893	0.228	-0.169
-399.194	104.108	-0.034	0.040
-398.179	86.619	0.276	0.302
-397.165	800.000	-0.042	0.141
-396.150	173.552	0.077	-0.110
-395.136	-115.141	0.063	0.012
-394.121	213.629	0.103	-0.162
-393.106	354.548	-0.043	-0.085
-392.092	62.722	-0.134	0.133
-391.077	52.704	-0.156	-0.148
-390.063	-182.618	0.121	0.002
-389.048	216.584	-0.158	0.249
-388.033	-149.648	0.103	-0.008
-387.019	17.090	-0.183	0.144
-386.004	-139.213	0.412	-0.044
-384.990	-0.427	0.223	-0.157
-383.975	-117.164	-0.043	-0.008
-382.960	800.000	-0.063	-0.254
-381.946	29.769	0.075	0.064
-380.931	-200.000	0.002	0.073
-379.917	-33.026	0.063	0.035
-378.902	-31.038	-0.113	-0.063
-377.888	800.000	-0.014	0.046
-376.873	-137.517	0.183	-0.021
-375.858	-116.460	-0.105	0.019
-374.844	-200.000	-0.044	0.405
-373.829	150.302	0.120	0.161
-372.815	-44.617	0.108	0.053
-371.800	-200.000	0.056	-0.273
-370.785	-200.000	0.012	0.062
-369.771	-200.000	0.015	-0.076
-368.756	-200.000	-0.038	-0.303
-367.742	412.916	0.005	0.010
-366.727	-131.817	-0.229	-0.030
-365.712	-200.000	-0.048	-0.242
-364.698	43.855	0.304	-0.277
-363.683	446.030	-0.088	-0.192
-362.669	-45.959	-0.112	-0.055
-361.654	134.353	0.219	-0.281
-360.639	-56.722	-0.215	0.094
-359.625	-200.000	0.010	-0.101
-358.610	255.858	-0.090	0.152
-357.596	-58.388	-0.246	0.106
-356.581	-11.654	-0.047	-0.030
-355.566	89.108	-0.193	0.213
-354.552	-77.563	0.216	-0.074
-353.537	-153.184	-0.100	0.007
-352.523	-86.436	-0.215	0.065
-351.508	43.868	-0.272	-0.247
-350.493	-173.340	-0.096	0.003
-349.479	-29.942	0.120	-0.068
-348.464	800.000	-0.043	0.142
-347.450	88.948	-0.170	-0.187
-346.435	307.435	0.153	0.283
-345.420	-62.931	0.080	-0.033
-344.406	23.922	0.170	0.139
-343.391	232.828	-0.143	0.233
-342.377	231.677	-0.067	0.109
-341.362	32.985	-0.107	-0.092
-340.348	65.046	-0.135	0.135
-339.333	-200.000	0.053	0.263
-338.318	-101.769	-0.078	0.019
-337.304	34.541	0.300	0.260
-336.289	50.261	0.048	0.045
-335.275	-171.200	-0.219	-0.007
-334.260	-200.000	-0.012	0.097
-333.245	-117.902	0.161	-0.029
-332.231	-88.657	-0.056	-0.017
-331.216	800.000	0.012	0.046
-330.202	-200.000	0.003	-0.203
-329.187	-200.000	-0.020	-0.090
-328.172	-200.000	0.032	-0.189
-327.158	13.774	-0.169	-0.130
-326.143	197.327	-0.113	0.170
-325.129	335.512	0.088	-0.170
-324.114	-74.543	0.137	-0.049
-323.099	800.000	-0.059	-0.177
-322.085	720.739	0.100	0.264
-321.070	800.000	-0.039	-0.111
-320.056	-200.000	-0.028	0.142
-319.041	-131.215	0.150	-0.020
-318.026	84.479	0.169	0.182
-317.012	-121.745	-0.209	0.034
-315.997	-200.000	-0.001	-0.168
-314.983	460.645	0.029	0.065
-313.968	713.836	-0.117	-0.307
-312.953	-200.000	0.004	0.063
-311.939	176.813	-0.135	-0.195
-310.924	-66.131	0.150	-0.059
-309.910	177.731	0.045	0.065
-308.895	-10.618	-0.186	0.122
-307.880	113.179	-0.222	-0.267
-306.866	-200.000	-0.010	-0.134
-305.851	78.372	0.027	0.028
-304.837	-82.287	0.185	0.059
-303.822	-200.000	-0.051	0.241
-302.807	147.014	0.226	0.300
-301.793	91.168	-0.027	0.029
-300.778	-112.685	-0.070	0.014
-299.764	-65.373	0.021	-0.008
-298.749	800.000	0.006	-0.019
-297.735	206.813	-0.238	0.366
-296.720	-200.000	-0.011	-0.049
-295.705	137.601	-0.176	0.227
-294.691	514.103	0.146	0.336
-293.676	800.000	-0.072	-0.281
-292.662	-38.980	0.191	-0.100
-291.647	-2.072	-0.134	0.093
-290.632	-200.000	-0.003	-0.112
-289.618	-112.357	-0.151	-0.030
-288.603	-0.430	-0.227	0.160
-287.589	-200.000	0.023	-0.160
-286.574	-14.690	0.181	-0.115
-285.559	-200.000	-0.022	0.111
-284.545	-75.741	-0.150	0.053
-283.530	-200.000	-0.057	-0.277
-282.516	-165.537	-0.125	-0.005
-281.501	-91.179	0.296	0.084
-280.486	66.230	-0.079	-0.079
-279.472	-14.711	0.244	0.155
-278.457	263.189	-0.091	-0.156
-277.443	39.747	-0.146	0.129
-276.428	99.964	-0.144	-0.165
-275.413	376.874	0.065	0.131
-274.399	194.070	0.170	-0.255
-273.384	648.359	0.071	0.179
-272.370	-128.280	-0.272	-0.038
-271.355	34.101	-0.142	0.122
-270.340	41.352	0.049	0.043
-269.326	295.323	0.082	-0.148
-268.311	62.642	0.217	-0.215
-267.297	-200.000	0.004	-0.037
-266.282	0.265	0.114	0.080
-265.267	431.643	0.068	-0.145
-264.253	-11.293	-0.373	-0.243
-263.238	21.891	0.118	-0.095
-262.224	-55.893	-0.256	0.113
-261.209	400.993	-0.031	0.063
-260.195	648.807	0.096	-0.241
-259.180	-91.981	-0.370	0.103
-258.165	339.673	-0.189	0.363
-257.151	103.681	0.107	0.124
-256.136	135.984	0.177	0.228
-255.122	374.822	-0.118	-0.238
-254.107	189.575	0.046	-0.068
-253.092	541.245	-0.039	-0.091
-252.078	356.572	-0.209	-0.412
-251.063	-8.918	-0.220	-0.146
-250.049	-200.000	0.008	0.098
-249.034	87.386	0.142	-0.155
-248.019	-200.000	0.003	-0.149
-247.005	188.921	-0.063	-0.093
-245.990	800.000	0.039	-0.154
-244.976	-73.551	-0.351	-0.126
-243.961	5.932	-0.207	0.152
-242.946	17.488	0.058	-0.046
-241.932	-108.767	0.283	-0.060
-240.917	313.999	0.053	-0.098
-239.903	-200.000	-0.001	0.152
-238.888	-200.000	0.021	0.313
-237.873	242.738	-0.025	-0.041
-236.859	-200.000	-0.009	0.099
-235.844	190.542	-0.075	-0.111
-234.830	159.000	0.238	-0.326
-233.815	-86.433	-0.292	-0.088
-232.800	96.495	0.153	-0.173
-231.786	-200.000	-0.003	-0.046
-230.771	-200.000	-0.004	-0.207
-229.757	201.386	0.077	0.117
-228.742	800.000	-0.045	-0.126
-227.727	-56.003	-0.060	-0.026
-226.713	-77.446	-0.091	0.031
-225.698	397.046	0.195	-0.402
-224.684	164.964	0.045	0.062
-223.669	-50.932	0.268	0.124
-222.655	-72.858	0.142	-0.052
-221.640	17.395	-0.214	-0.168
-220.625	85.520	-0.080	0.086
-219.611	-50.626	0.071	-0.033
-218.596	-110.392	0.164	-0.034
-217.582	-149.870	0.041	-0.003
-216.567	800.000	-0.098	0.281
-215.552	-200.000	0.023	-0.122
-214.538	-7.984	-0.044	-0.029
-213.523	72.901	-0.057	0.059
-212.509	-132.509	-0.422	0.053
-211.494	107.367	0.197	0.231
-210.479	800.000	-0.108	0.348
-209.465	-29.162	0.212	0.120
-208.450	-96.711	-0.181	-0.047
-207.436	195.486	-0.184	0.276
-206.421	140.169	0.095	-0.123
-205.406	-49.842	-0.111	0.052
-204.392	-135.668	-0.220	0.026
-203.377	52.694	-0.102	-0.096
-202.363	-80.696	0.187	-0.061
-201.348	24.334	0.135	-0.110
-200.333	203.748	-0.077	-0.118
-199.319	32.410	-0.022	-0.019
-198.304	-43.529	-0.179	-0.089
-197.290	-200.000	0.024	-0.252
-196.275	-200.000	-0.008	0.188
-195.260	21.492	-0.144	0.115
-194.246	6.919	0.122	-0.090
-193.231	-200.000	-0.057	-0.354
-192.217	3.452	0.188	-0.135
-191.202	91.844	0.145	-0.161
-190.187	-200.000	0.004	-0.106
-189.173	800.000	-0.084	-0.284
-188.158	-200.000	0.076	-0.465
-187.144	-77.652	0.076	0.026
-186.129	231.842	-0.147	0.237
-185.114	42.457	0.027	0.024
-184.100	146.006	0.073	0.096
-183.085	800.000	0.067	0.283
-182.071	-56.027	-0.280	0.123
-181.056	142.128	-0.143	0.186
-180.042	-200.000	0.021	0.119
-179.027	-118.916	-0.089	-0.015
-178.012	-200.000	0.007	0.130
-176.998	101.936	0.297	0.341
-175.983	273.378	-0.056	-0.097
-174.969	800.000	0.034	-0.111
-173.954	-60.135	-0.077	-0.032
-172.939	800.000	-0.058	-0.164
-171.925	-61.992	0.131	0.054
-170.910	120.961	0.142	0.174
-169.896	-134.817	0.353	0.042
-168.881	24.682	-0.122	-0.099
-167.866	-72.986	0.398	0.144
-166.852	378.268	0.147	0.296
-165.837	452.829	0.133	0.289
-164.823	-186.166	0.178	-0.003
-163.808	800.000	0.078	-0.221
-162.793	-107.149	0.167	0.036
-161.779	-45.260	0.151	0.074
-160.764	800.000	0.138	0.381
-159.750	-25.208	0.366	-0.213
-158.735	-200.000	-0.023	-0.232
-157.720	-107.210	0.112	0.024
-156.706	-200.000	0.010	0.145
-155.691	-17.746	-0.283	-0.175
-154.677	143.889	0.161	-0.212
-153.662	704.972	-0.029	0.076
-152.647	138.170	0.150	0.194
-151.633	-200.000	-0.006	0.105
-150.618	-200.000	0.012	0.245
-149.604	800.000	-0.051	-0.153
-148.589	-200.000	-0.003	-0.098
-147.574	251.070	-0.152	0.254
-146.560	224.611	-0.074	-0.117
-145.545	-143.581	-0.091	0.009
-144.531	98.683	-0.153	-0.173
-143.516	624.761	0.029	0.073
-142.502	800.000	-0.102	0.278
-141.487	243.546	-0.115	0.190
-140.472	-8.079	0.303	0.200
-139.458	-200.000	0.012	0.129
-138.443	543.216	-0.087	0.205
-137.429	18.837	-0.140	-0.110
-136.414	-155.093	0.389	0.025
-135.399	-41.863	-0.183	-0.092
-134.385	-40.084	0.421	-0.216
-133.370	800.000	-0.055	-0.161
-132.356	-200.000	0.004	-0.032
-131.341	91.483	-0.078	0.086
-130.326	-67.678	0.046	-0.018
-129.312	-131.112	0.256	-0.033
-128.297	-135.247	0.117	-0.014
-127.283	-51.423	0.277	0.127
-126.268	-179.426	-0.396	0.009
-125.253	622.194	0.070	0.172
-124.239	-4.425	0.202	-0.137
-123.224	90.780	-0.156	-0.172
-122.210	251.425	-0.064	-0.107
