DTS Sentinel unit serial number:	SN413079Multiplexer serial number:	ORYXHardware model number:	OX4-SRSoftware version number:	ORYX F/W v4.00 Oryx Data Collector v3.7.2.0data status	okinstallation	princeton_trtdifferential loss correction	single-endedforward channel	channel 3reverse channel	N/Adate	2019/09/19time	03:00:35forward acquisition time	60.00reverse acquisition time	0.00gamma	496.2192k internal	0.2348k external	0.2348temperature offset calibration	0.9993default loss term (dB/km)	0.3790temperature slope calibration	1.0000multiplexer offset coefficient	1.0000multiplexer slope coefficient	1.0000fibre end	0.00T internal ref (°C)	20.86T ext. ref 1 (°C)	0.66T ext. ref 2 (°C)	14.60length (m)	temperature (°C)	Stokes	anti-Stokes-747.200	-29.170	-0.069	-0.039
-746.185	-200.000	0.072	0.838
-745.171	-142.042	0.138	0.014
-744.156	-107.925	-0.306	0.066
-743.142	-200.000	0.007	0.160
-742.127	-200.000	0.039	0.255
-741.112	-200.000	0.048	0.220
-740.098	-200.000	-0.022	-0.288
-739.083	-145.468	-0.186	-0.017
-738.069	92.282	-0.191	0.215
-737.054	22.071	-0.179	0.146
-736.039	-200.000	-0.006	-0.271
-735.025	-200.000	-0.014	0.280
-734.010	-137.751	-0.311	0.035
-732.996	-49.697	0.065	-0.031
-731.981	-14.428	0.236	0.152
-730.966	102.475	0.087	-0.102
-729.952	-200.000	0.003	0.215
-728.937	-200.000	0.014	-0.077
-727.923	9.694	0.134	-0.101
-726.908	-91.925	-0.111	-0.031
-725.894	-200.000	-0.041	-0.301
-724.879	113.576	0.150	-0.182
-723.864	-200.000	0.010	-0.194
-722.850	-51.943	0.146	0.068
-721.835	-144.948	-0.192	-0.018
-720.821	15.973	0.191	-0.150
-719.806	-182.808	-0.554	-0.010
-718.791	-116.842	0.469	0.086
-717.777	-200.000	-0.010	-0.151
-716.762	-95.362	0.029	0.008
-715.748	21.110	0.177	-0.143
-714.733	-44.666	-0.084	0.042
-713.718	15.271	-0.194	0.151
-712.704	-128.060	-0.154	0.022
-711.689	-200.000	0.012	-0.059
-710.675	-200.000	-0.261	-0.001
-709.660	-69.258	0.278	0.107
-708.645	80.382	-0.033	0.036
-707.631	-77.089	0.332	0.116
-706.616	-103.533	0.305	-0.072
-705.602	-200.000	0.035	0.242
-704.587	-200.000	-0.037	0.179
-703.572	42.706	-0.088	-0.080
-702.558	-31.267	0.340	0.191
-701.543	34.258	-0.122	0.106
-700.529	-67.561	0.212	-0.083
-699.514	800.000	0.081	-0.224
-698.499	33.091	-0.153	-0.133
-697.485	-6.965	-0.063	0.043
-696.470	800.000	-0.046	-0.173
-695.456	-200.000	-0.022	-0.195
-694.441	401.880	-0.086	-0.181
-693.426	72.182	-0.162	-0.168
-692.412	665.092	0.052	-0.135
-691.397	-19.307	-0.225	-0.139
-690.383	-106.242	-0.126	0.028
-689.368	303.846	-0.099	-0.184
-688.354	-40.749	0.160	0.083
-687.339	-200.000	-0.060	-0.339
-686.324	45.503	-0.170	-0.156
-685.310	90.269	-0.026	-0.029
-684.295	-19.848	-0.216	0.133
-683.281	800.000	-0.058	-0.217
-682.266	-89.312	0.432	0.127
-681.251	-45.198	0.294	0.145
-680.237	147.793	-0.175	0.235
-679.222	-11.467	-0.170	-0.111
-678.208	800.000	0.101	-0.340
-677.193	800.000	0.029	-0.117
-676.178	-175.076	0.243	0.007
-675.164	800.000	-0.037	-0.157
-674.149	-200.000	-0.001	0.048
-673.135	409.357	0.086	-0.182
-672.120	33.330	-0.079	-0.068
-671.105	-136.067	-0.342	0.040
-670.091	-26.865	-0.230	0.134
-669.076	354.461	-0.128	-0.254
-668.062	-48.746	0.092	-0.044
-667.047	26.366	-0.392	0.327
-666.032	425.494	-0.100	0.215
-665.018	210.632	0.206	0.322
-664.003	800.000	-0.124	0.420
-662.989	70.312	-0.101	-0.104
-661.974	-200.000	-0.022	-0.178
-660.959	-200.000	-0.020	-0.094
-659.945	-200.000	0.034	-0.187
-658.930	-6.594	-0.323	-0.219
-657.916	800.000	0.020	0.057
-656.901	-63.421	-0.142	-0.058
-655.886	800.000	-0.023	-0.071
-654.872	273.135	-0.136	0.239
-653.857	-200.000	-0.015	0.311
-652.843	-200.000	0.013	-0.078
-651.828	90.500	0.210	0.234
-650.814	-200.000	0.010	-0.180
-649.799	32.919	0.226	-0.194
-648.784	-47.660	0.271	-0.131
-647.770	-113.900	-0.280	0.054
-646.755	56.266	0.190	-0.184
-645.741	-200.000	-0.002	0.180
-644.726	-115.688	-0.125	-0.023
-643.711	-134.110	-0.296	0.036
-642.697	669.871	-0.120	-0.309
-641.682	-200.000	0.072	-0.416
-640.668	143.549	-0.148	0.197
-639.653	17.434	0.192	-0.152
-638.638	-67.402	-0.538	-0.210
-637.624	-112.874	-0.112	0.022
-636.609	800.000	0.041	0.139
-635.595	5.580	0.148	0.109
-634.580	800.000	-0.090	-0.256
-633.565	-45.190	-0.137	-0.068
-632.551	400.146	-0.327	0.682
-631.536	-116.684	0.256	0.047
-630.522	357.735	0.137	-0.272
-629.507	150.415	-0.107	-0.144
-628.492	386.299	0.129	0.266
-627.478	800.000	-0.028	0.101
-626.463	800.000	-0.057	0.159
-625.449	361.228	-0.123	-0.244
-624.434	331.045	-0.204	-0.391
-623.419	-182.852	0.237	-0.004
-622.405	-162.165	-0.349	-0.017
-621.390	-116.531	0.262	-0.048
-620.376	-200.000	-0.045	-0.348
-619.361	-39.203	-0.412	0.215
-618.346	-27.853	0.255	0.147
-617.332	276.506	-0.207	-0.365
-616.317	-82.659	0.343	-0.110
-615.303	414.001	0.155	-0.328
-614.288	800.000	0.039	-0.110
-613.273	508.634	-0.083	0.192
-612.259	800.000	0.042	0.163
-611.244	43.757	0.245	-0.223
-610.230	-111.628	-0.080	-0.016
-609.215	-147.903	-0.194	-0.016
-608.201	644.833	-0.051	0.128
-607.186	8.590	-0.212	0.158
-606.171	-35.637	-0.246	0.133
-605.157	204.979	0.130	-0.201
-604.142	800.000	-0.124	-0.383
-603.128	173.882	0.103	-0.148
-602.113	800.000	-0.065	-0.234
-601.098	-58.154	0.222	0.096
-600.084	-52.723	0.287	-0.131
-599.069	-183.450	0.186	-0.003
-598.055	-99.825	-0.219	-0.054
-597.040	-30.179	-0.230	-0.130
-596.025	356.860	0.070	0.138
-595.011	800.000	-0.218	-0.653
-593.996	-91.861	-0.224	-0.063
-592.982	-200.000	-0.048	0.323
-591.967	-159.224	-0.029	0.002
-590.952	-88.430	-0.147	0.044
-589.938	-100.810	0.196	0.048
-588.923	-140.173	-0.159	-0.017
-587.909	24.139	-0.071	0.058
-586.894	-123.807	0.227	-0.036
-585.879	-200.000	0.039	0.320
-584.865	-200.000	-0.011	-0.056
-583.850	41.653	-0.156	0.140
-582.836	-200.000	0.025	0.123
-581.821	562.371	0.260	0.626
-580.806	-155.117	-0.365	-0.024
-579.792	-101.035	-0.184	-0.045
-578.777	48.245	-0.031	-0.029
-577.763	-200.000	-0.001	0.482
-576.748	-22.373	-0.239	-0.143
-575.733	-20.700	0.409	0.249
-574.719	-71.427	0.077	-0.029
-573.704	430.579	0.071	0.152
-572.690	-41.738	-0.190	0.097
-571.675	-50.688	0.091	-0.043
-570.661	-138.807	-0.396	-0.043
-569.646	358.904	-0.136	-0.269
-568.631	463.026	0.076	0.169
-567.617	-11.809	-0.048	-0.031
-566.602	54.691	-0.334	-0.320
-565.588	-200.000	-0.014	-0.149
-564.573	-132.404	0.154	-0.020
-563.558	-200.000	0.007	0.055
-562.544	-200.000	0.001	0.033
-561.529	21.482	0.158	0.127
-560.515	154.056	0.177	0.241
-559.500	800.000	-0.071	0.274
-558.485	-38.307	0.079	-0.041
-557.471	175.565	-0.117	0.168
-556.456	-200.000	0.024	0.142
-555.442	-200.000	-0.004	-0.150
-554.427	-108.159	-0.291	0.063
-553.412	-200.000	0.041	0.204
-552.398	-97.724	0.220	-0.056
-551.383	305.146	0.110	0.203
-550.369	-92.647	0.232	-0.064
-549.354	-200.000	-0.087	0.418
-548.339	800.000	0.043	0.127
-547.325	-89.931	-0.094	0.027
-546.310	-200.000	-0.025	-0.223
-545.296	-94.357	0.152	-0.041
-544.281	6.327	-0.064	0.047
-543.266	-153.030	0.179	-0.012
-542.252	-125.518	0.173	-0.026
-541.237	-140.300	-0.335	0.035
-540.223	-64.802	0.103	0.041
-539.208	-63.873	-0.217	-0.088
-538.193	800.000	-0.055	0.183
-537.179	-16.817	-0.224	0.140
-536.164	-200.000	-0.010	-0.328
-535.150	-103.508	0.090	0.021
-534.135	-144.350	-0.151	-0.014
-533.121	141.424	-0.245	0.321
-532.106	578.292	-0.080	-0.194
-531.091	-154.729	-0.355	-0.023
-530.077	152.775	0.226	-0.305
-529.062	-51.381	0.143	0.066
-528.048	92.084	-0.069	0.077
-527.033	800.000	0.059	0.208
-526.018	-200.000	-0.003	-0.320
-525.004	-8.878	0.272	-0.180
-523.989	5.958	0.191	0.140
-522.975	-200.000	-0.015	-0.205
-521.960	156.322	0.117	0.160
-520.945	-159.088	0.188	0.011
-519.931	-88.985	-0.064	-0.019
-518.916	-102.685	0.164	0.039
-517.902	-64.149	0.216	0.087
-516.887	153.821	0.081	0.109
-515.872	-81.051	0.169	0.055
-514.858	73.433	0.208	0.216
-513.843	-140.270	0.406	-0.042
-512.829	24.955	-0.179	-0.147
-511.814	107.422	0.084	-0.099
-510.799	-59.417	0.386	-0.164
-509.785	19.895	-0.101	-0.081
-508.770	-200.000	-0.012	0.321
-507.756	85.220	-0.196	0.213
-506.741	260.489	0.150	-0.256
-505.726	-135.174	-0.215	0.026
-504.712	-149.816	0.047	0.004
-503.697	-11.408	0.209	-0.136
-502.683	417.352	0.059	-0.124
-501.668	-200.000	0.020	0.180
-500.653	102.596	-0.187	-0.217
-499.639	79.414	-0.046	-0.049
-498.624	-19.873	0.193	0.118
-497.610	-200.000	-0.031	0.212
-496.595	-200.000	-0.040	0.404
-495.581	681.829	-0.070	-0.180
-494.566	-200.000	0.008	0.056
-493.551	19.472	-0.130	0.103
-492.537	17.788	-0.132	0.104
-491.522	-93.185	-0.300	0.083
-490.508	171.290	0.261	0.370
-489.493	-39.661	-0.153	0.079
-488.478	-39.981	-0.052	0.027
-487.464	-120.071	0.196	0.033
-486.449	284.194	-0.109	-0.193
-485.435	-104.367	-0.316	-0.072
-484.420	-78.935	-0.311	0.105
-483.405	148.739	0.181	0.242
-482.391	-200.000	-0.001	0.090
-481.376	378.918	-0.038	-0.077
-480.362	-200.000	-0.048	0.251
-479.347	-200.000	0.000	-0.082
-478.332	79.710	0.162	0.172
-477.318	49.213	0.094	-0.087
-476.303	-200.000	0.009	-0.073
-475.289	5.336	-0.144	-0.105
-474.274	52.766	0.275	0.259
-473.259	124.321	-0.051	0.064
-472.245	118.254	-0.049	-0.060
-471.230	249.987	-0.141	0.237
-470.216	-52.465	0.196	0.089
-469.201	207.138	-0.189	0.291
-468.186	67.925	-0.065	-0.066
-467.172	800.000	-0.008	0.026
-466.157	239.644	-0.110	-0.181
-465.143	-200.000	0.038	0.326
-464.128	35.787	-0.126	0.110
-463.113	119.403	0.178	0.218
-462.099	-79.183	0.203	-0.068
-461.084	-200.000	0.038	0.238
-460.070	-47.130	0.483	0.233
-459.055	-39.032	-0.124	0.064
-458.040	37.991	0.138	0.121
-457.026	232.772	0.179	-0.290
-456.011	-4.901	-0.087	0.059
-454.997	-25.514	-0.067	0.039
-453.982	-160.107	-0.234	0.013
-452.968	-200.000	-0.021	0.129
-451.953	-71.047	0.061	0.023
-450.938	428.988	-0.150	-0.320
-449.924	-73.993	-0.366	0.131
-448.909	92.538	-0.311	-0.346
-447.895	122.114	0.256	0.316
-446.880	133.170	0.137	-0.175
-445.865	184.465	-0.246	-0.360
-444.851	-200.000	0.011	0.103
-443.836	-200.000	-0.012	-0.239
-442.822	-200.000	-0.116	-0.527
-441.807	-1.756	-0.222	0.154
-440.792	47.903	0.103	0.095
-439.778	-100.347	0.267	-0.065
-438.763	-3.224	-0.346	0.238
-437.749	-127.798	-0.119	0.017
-436.734	800.000	-0.097	-0.328
-435.719	358.622	-0.127	0.250
-434.705	-23.755	-0.117	-0.069
-433.690	-20.065	-0.189	-0.115
-432.676	-200.000	0.044	0.482
-431.661	-200.000	0.027	-0.149
-430.646	-200.000	0.002	-0.089
-429.632	261.290	0.037	0.063
-428.617	800.000	0.055	0.189
-427.603	-113.439	0.391	0.076
-426.588	-56.381	-0.156	0.068
-425.573	-154.096	0.122	-0.008
-424.559	124.773	0.122	-0.152
-423.544	-8.909	0.076	-0.050
-422.530	-1.092	0.332	-0.232
-421.515	-200.000	0.025	-0.253
-420.500	-25.371	-0.140	0.082
-419.486	-23.921	-0.180	-0.106
-418.471	-166.478	0.217	0.009
-417.457	-200.000	-0.025	-0.285
-416.442	-200.000	0.044	0.292
-415.428	-77.637	0.350	0.119
-414.413	-116.601	-0.151	-0.027
-413.398	-200.000	0.051	0.322
-412.384	-200.000	-0.031	0.174
-411.369	95.419	-0.132	0.148
-410.355	-200.000	0.029	0.140
-409.340	-98.658	0.405	-0.102
-408.325	-68.355	0.115	-0.044
-407.311	800.000	-0.031	0.092
-406.296	53.127	-0.155	0.146
-405.282	31.437	0.277	0.235
-404.267	81.921	0.088	0.094
-403.252	-99.437	-0.181	-0.045
-402.238	7.222	-0.190	-0.140
-401.223	800.000	-0.037	-0.150
-400.209	657.255	-0.136	-0.344
-399.194	-200.000	0.003	0.046
-398.179	-200.000	0.045	-0.363
-397.165	-128.918	0.182	-0.025
-396.150	319.864	0.078	0.146
-395.136	-131.497	-0.145	0.019
-394.121	265.884	-0.079	0.136
-393.106	30.973	0.217	-0.183
-392.092	13.716	0.168	0.128
-391.077	344.197	-0.122	-0.237
-390.063	800.000	0.107	-0.304
-389.048	-200.000	0.004	0.031
-388.033	112.845	0.117	0.139
-387.019	-77.696	-0.499	0.170
-386.004	-76.623	-0.236	0.082
-384.990	-142.863	0.214	-0.021
-383.975	-97.549	-0.121	0.031
-382.960	684.807	-0.035	0.090
-381.946	-171.233	-0.249	-0.008
-380.931	344.813	0.101	0.196
-379.917	273.996	0.098	0.170
-378.902	-4.532	-0.082	-0.056
-377.888	-200.000	-0.029	0.405
-376.873	-152.619	0.042	0.003
-375.858	43.846	0.144	0.129
-374.844	800.000	0.094	-0.265
-373.829	-150.427	-0.336	-0.025
-372.815	213.732	0.166	-0.258
-371.800	6.628	0.174	-0.128
-370.785	-132.630	-0.444	-0.056
-369.771	248.337	-0.067	0.112
-368.756	108.609	0.156	-0.183
-367.742	-200.000	-0.058	0.413
-366.727	135.794	0.099	0.127
-365.712	566.672	-0.086	0.205
-364.698	800.000	-0.023	-0.089
-363.683	-200.000	-0.019	-0.358
-362.669	289.744	0.095	-0.170
-361.654	800.000	0.046	-0.188
-360.639	230.909	0.144	-0.233
-359.625	202.961	-0.129	-0.196
-358.610	29.801	0.123	-0.103
-357.596	12.140	-0.185	0.140
-356.581	-33.960	-0.411	0.222
-355.566	-103.334	0.176	-0.041
-354.552	18.510	-0.189	0.148
-353.537	145.868	0.053	0.069
-352.523	-200.000	0.011	-0.052
-351.508	35.960	0.044	0.038
-350.493	-200.000	-0.003	-0.036
-349.479	-3.204	0.149	0.102
-348.464	123.329	-0.129	-0.159
-347.450	-21.465	0.221	-0.132
-346.435	-131.015	-0.744	0.098
-345.420	694.066	0.048	0.125
-344.406	29.044	0.213	-0.177
-343.391	-91.598	-0.124	0.035
-342.377	646.238	0.096	0.242
-341.362	46.932	0.180	0.165
-340.348	-84.323	-0.197	-0.061
-339.333	-105.392	-0.155	0.035
-338.318	-93.207	0.269	-0.073
-337.304	-102.570	0.177	-0.042
-336.289	284.759	0.170	0.301
-335.275	20.665	0.223	-0.177
-334.260	-83.311	0.195	-0.061
-333.245	-9.367	0.386	-0.254
-332.231	101.961	0.044	-0.050
-331.216	800.000	-0.075	0.260
-330.202	800.000	0.017	-0.067
-329.187	-200.000	0.013	-0.116
-328.172	-200.000	-0.034	0.201
-327.158	87.374	0.118	-0.128
-326.143	800.000	0.075	-0.242
-325.129	576.716	0.098	-0.235
-324.114	-200.000	0.058	0.415
-323.099	-130.255	0.263	-0.035
-322.085	49.615	-0.150	-0.139
-321.070	-52.204	0.174	-0.079
-320.056	770.875	-0.222	-0.595
-319.041	743.910	0.089	0.236
-318.026	85.819	0.181	0.195
-317.012	124.679	0.182	0.225
-315.997	-118.413	-0.353	-0.062
-314.983	-200.000	-0.040	-0.199
-313.968	800.000	-0.081	-0.221
-312.953	-127.608	-0.108	0.015
-311.939	208.597	-0.067	-0.104
-310.924	-119.080	0.402	0.069
-309.910	-200.000	-0.001	-0.264
-308.895	-86.768	0.366	-0.110
-307.880	-52.655	-0.140	0.063
-306.866	-109.340	-0.233	0.048
-305.851	289.716	0.262	-0.467
-304.837	800.000	0.013	0.041
-303.822	-200.000	0.017	0.128
-302.807	355.511	-0.112	-0.219
-301.793	-200.000	0.011	0.122
-300.778	-85.813	-0.390	-0.119
-299.764	-200.000	0.078	-0.457
-298.749	25.278	0.134	0.109
-297.735	448.569	0.129	0.279
-296.720	-140.739	-0.213	-0.022
-295.705	-200.000	-0.017	0.146
-294.691	200.376	-0.203	0.306
-293.676	415.189	0.183	-0.382
-292.662	-77.627	0.372	-0.126
-291.647	-151.349	-0.060	0.004
-290.632	93.766	-0.143	-0.159
-289.618	-40.148	-0.332	0.170
-288.603	-91.208	-0.115	0.032
-287.589	-48.366	0.282	-0.134
-286.574	10.963	0.111	-0.083
-285.559	-88.312	-0.215	-0.063
-284.545	453.204	-0.041	-0.089
-283.530	472.037	0.187	-0.412
-282.516	-94.937	0.072	0.019
-281.501	93.547	-0.233	0.259
-280.486	-84.291	-0.079	0.025
-279.472	334.194	0.093	0.177
-278.457	76.457	0.184	-0.191
-277.443	-150.720	-0.241	-0.018
-276.428	-200.000	-0.029	0.380
-275.413	-107.651	0.232	0.050
-274.399	9.646	0.160	-0.119
-273.384	82.486	-0.086	0.091
-272.370	-29.220	0.202	0.113
-271.355	-130.265	-0.325	-0.043
-270.340	-80.902	-0.400	0.130
-269.326	353.091	-0.139	0.270
-268.311	800.000	0.055	0.209
-267.297	-200.000	0.001	-0.173
-266.282	-3.005	0.131	-0.089
-265.267	-93.266	-0.164	-0.045
-264.253	-157.613	0.204	0.012
-263.238	54.183	0.152	0.143
-262.224	800.000	0.083	-0.279
-261.209	507.064	-0.128	-0.291
-260.195	9.818	-0.103	0.077
-259.180	-200.000	-0.006	-0.222
-258.165	-155.428	0.259	-0.016
-257.151	-200.000	0.004	-0.206
-256.136	800.000	-0.027	0.086
-255.122	-41.879	0.332	0.167
-254.107	188.308	-0.232	-0.340
-253.092	-17.843	0.102	0.063
-252.078	-200.000	-0.007	-0.179
-251.063	130.523	-0.011	-0.014
-250.049	-200.000	0.081	0.427
-249.034	109.331	-0.181	0.212
-248.019	215.664	-0.020	0.031
-247.005	-147.220	0.289	0.024
-245.990	-124.812	0.166	0.025
-244.976	-200.000	-0.009	0.114
-243.961	-32.336	0.225	-0.123
-242.946	-85.604	-0.268	-0.081
-241.932	-200.000	-0.002	-0.103
-240.917	49.289	0.377	-0.347
-239.903	-56.424	0.089	-0.039
-238.888	800.000	0.054	-0.229
-237.873	588.844	-0.077	-0.186
-236.859	-97.499	0.177	0.045
-235.844	99.366	-0.206	-0.233
-234.830	-200.000	0.031	0.235
-233.815	6.032	0.240	0.174
-232.800	147.500	0.048	-0.063
-231.786	470.124	-0.125	0.275
-230.771	698.365	-0.086	-0.222
-229.757	-200.000	-0.032	0.201
-228.742	102.127	-0.191	0.218
-227.727	800.000	0.086	-0.296
-226.713	124.723	-0.247	-0.304
-225.698	-200.000	0.010	-0.178
-224.684	-200.000	0.002	-0.259
-223.669	-39.866	0.224	-0.114
-222.655	342.511	0.101	0.194
-221.640	-166.207	0.267	0.011
-220.625	-49.903	0.094	0.044
-219.611	-58.683	-0.248	0.105
-218.596	239.582	-0.105	0.171
-217.582	-76.085	-0.176	-0.061
-216.567	-200.000	-0.026	-0.148
-215.552	-200.000	0.030	-0.201
-214.538	-53.620	-0.083	-0.037
-213.523	-85.040	0.280	-0.086
-212.509	120.519	0.186	-0.226
-211.494	-200.000	-0.047	0.239
-210.479	143.647	0.093	-0.121
-209.465	36.664	-0.183	-0.159
-208.450	-1.804	0.179	0.123
-207.436	-10.621	0.111	-0.072
-206.421	-26.475	0.096	-0.055
-205.406	146.326	0.126	0.165
-204.392	-125.082	-0.156	-0.023
-203.377	800.000	-0.047	0.189
-202.363	48.837	-0.183	0.168
-201.348	135.225	0.202	-0.257
-200.333	10.210	-0.044	-0.033
-199.319	-154.205	0.111	-0.007
-198.304	-200.000	0.043	-0.192
-197.290	-200.000	0.001	-0.010
-196.275	-20.095	0.091	0.055
-195.260	-200.000	-0.023	0.272
-194.246	-200.000	0.041	-0.196
-193.231	-200.000	-0.051	0.343
-192.217	263.909	-0.039	0.066
-191.202	31.861	-0.227	0.191
-190.187	-182.468	-0.246	0.004
-189.173	800.000	-0.069	0.232
-188.158	122.758	-0.188	0.231
-187.144	-200.000	-0.007	0.063
-186.129	-39.819	-0.161	0.082
-185.114	-131.084	-0.133	0.017
-184.100	-152.998	-0.034	0.002
-183.085	-200.000	0.023	-0.159
-182.071	352.213	-0.117	0.227
-181.056	189.313	-0.094	-0.137
-180.042	28.051	0.300	-0.248
-179.027	-125.892	-0.184	-0.027
-178.012	331.763	0.055	0.103
-176.998	-58.860	0.586	0.248
-175.983	-8.094	-0.194	-0.128
-174.969	-200.000	-0.027	0.200
-173.954	517.929	0.059	-0.134
-172.939	-162.593	-0.112	0.005
-171.925	-58.194	0.396	0.168
-170.910	142.309	-0.174	0.226
-169.896	17.677	-0.229	0.178
-168.881	-200.000	0.045	-0.191
-167.866	-121.098	0.459	-0.075
-166.852	5.227	-0.161	-0.116
-165.837	-200.000	-0.023	-0.205
-164.823	372.359	0.167	-0.332
-163.808	-106.777	-0.093	0.020
-162.793	-200.000	0.079	0.398
-161.779	800.000	-0.073	-0.198
-160.764	264.971	-0.213	-0.363
-159.750	800.000	-0.093	-0.349
-158.735	-200.000	0.020	0.380
-157.720	-23.679	-0.083	-0.049
-156.706	-55.617	-0.236	-0.103
-155.691	-41.822	0.172	-0.086
-154.677	-148.910	0.108	0.009
-153.662	44.884	0.235	0.212
-152.647	194.942	-0.368	0.546
-151.633	800.000	-0.042	-0.119
-150.618	118.188	-0.158	-0.190
-149.604	800.000	0.128	0.390
-148.589	-200.000	0.000	0.451
-147.574	-111.810	0.202	0.040
-146.560	-31.463	0.196	-0.108
-145.545	-19.041	0.124	0.075
-144.531	139.356	-0.258	-0.332
-143.516	-200.000	0.030	-0.142
-142.502	259.362	0.096	0.162
-141.487	-200.000	-0.047	0.232
-140.472	-17.641	0.032	0.019
-139.458	540.682	0.090	-0.209
-138.443	289.803	-0.050	-0.088
-137.429	152.726	0.022	0.030
-136.414	-56.097	-0.114	-0.049
-135.399	58.408	0.210	0.201
-134.385	-123.191	0.227	0.036
-133.370	-60.337	0.186	-0.077
-132.356	800.000	0.074	-0.256
-131.341	800.000	0.042	-0.169
-130.326	-70.058	0.495	0.184
-129.312	800.000	0.055	-0.206
-128.297	-125.582	0.284	0.042
-127.283	-121.516	-0.235	-0.038
-126.268	-200.000	-0.002	-0.097
-125.253	-200.000	-0.033	0.178
-124.239	23.846	0.400	-0.321
-123.224	-90.874	-0.242	0.068
-122.210	145.383	0.114	0.148
