DTS Sentinel unit serial number:	SN413079Multiplexer serial number:	ORYXHardware model number:	OX4-SRSoftware version number:	ORYX F/W v4.00 Oryx Data Collector v3.7.2.0data status	okinstallation	princeton_trtdifferential loss correction	single-endedforward channel	channel 3reverse channel	N/Adate	2019/09/16time	16:40:35forward acquisition time	60.00reverse acquisition time	0.00gamma	496.2192k internal	0.2295k external	0.2295temperature offset calibration	0.9949default loss term (dB/km)	0.3790temperature slope calibration	1.0000multiplexer offset coefficient	1.0000multiplexer slope coefficient	1.0000fibre end	0.00T internal ref (°C)	39.86T ext. ref 1 (°C)	15.14T ext. ref 2 (°C)	33.81length (m)	temperature (°C)	Stokes	anti-Stokes-747.200	-63.472	0.299	-0.126
-746.185	-53.098	-0.151	0.071
-745.171	62.375	-0.105	0.107
-744.156	675.803	-0.057	-0.151
-743.142	-200.000	0.012	-0.117
-742.127	26.336	0.086	-0.073
-741.112	-169.365	-0.297	0.011
-740.098	449.904	-0.173	0.391
-739.083	42.382	0.133	0.123
-738.069	284.031	0.076	0.140
-737.054	109.425	-0.356	-0.436
-736.039	-40.825	-0.492	-0.260
-735.025	-92.018	-0.396	0.115
-734.010	-112.150	-0.019	-0.004
-732.996	43.609	-0.140	-0.131
-731.981	38.458	0.301	0.274
-730.966	-63.780	0.188	0.079
-729.952	-200.000	-0.003	0.207
-728.937	-200.000	-0.008	-0.183
-727.923	-18.917	0.343	0.218
-726.908	-200.000	-0.022	-0.102
-725.894	-193.549	-0.260	-0.002
-724.879	110.848	0.141	0.173
-723.864	256.317	-0.231	0.405
-722.850	800.000	-0.058	-0.191
-721.835	800.000	0.088	0.387
-720.821	-200.000	-0.059	-0.323
-719.806	52.866	-0.166	-0.162
-718.791	264.682	-0.052	-0.092
-717.777	-200.000	0.045	-0.273
-716.762	800.000	-0.071	0.283
-715.748	-72.588	-0.223	-0.084
-714.733	-42.445	0.028	0.015
-713.718	-152.767	-0.261	-0.019
-712.704	105.926	-0.084	-0.101
-711.689	-65.330	-0.348	0.143
-710.675	44.868	-0.078	-0.073
-709.660	250.945	0.103	0.179
-708.645	-125.325	-0.177	-0.028
-707.631	-69.837	-0.239	0.093
-706.616	153.098	0.280	0.391
-705.602	32.355	-0.440	-0.388
-704.587	-68.126	0.200	-0.080
-703.572	400.340	-0.108	0.232
-702.558	-163.955	0.200	0.010
-701.543	-200.000	-0.009	0.054
-700.529	142.032	-0.185	-0.250
-699.514	125.784	0.155	0.199
-698.499	-200.000	-0.024	-0.140
-697.485	-7.978	0.120	-0.083
-696.470	-200.000	0.011	-0.075
-695.456	-200.000	0.052	0.342
-694.441	-91.589	0.141	0.041
-693.426	-36.031	-0.089	0.049
-692.412	800.000	-0.006	0.027
-691.397	-169.336	0.275	0.010
-690.383	-200.000	-0.010	-0.126
-689.368	93.692	-0.226	-0.261
-688.354	800.000	-0.073	-0.238
-687.339	-3.115	0.225	0.160
-686.324	-23.117	-0.094	-0.058
-685.310	-147.066	-0.324	0.028
-684.295	-200.000	0.026	-0.642
-683.281	137.232	-0.208	-0.278
-682.266	-200.000	-0.066	-0.526
-681.251	-56.688	0.049	0.022
-680.237	506.980	-0.060	0.142
-679.222	-180.809	-0.148	0.003
-678.208	107.243	0.115	0.140
-677.193	677.001	0.102	0.271
-676.178	51.224	0.202	0.196
-675.164	-4.705	-0.174	-0.122
-674.149	300.758	-0.162	-0.304
-673.135	120.250	0.203	0.256
-672.120	-123.955	-0.379	-0.061
-671.105	78.145	-0.181	0.197
-670.091	385.034	0.060	0.127
-669.076	-105.350	-0.257	0.060
-668.062	-157.016	-0.181	-0.011
-667.047	-33.103	-0.142	-0.080
-666.032	-18.660	-0.170	0.108
-665.018	800.000	-0.050	0.144
-664.003	49.139	-0.228	0.219
-662.989	-144.544	-0.278	0.026
-661.974	-200.000	-0.038	0.263
-660.959	133.330	0.073	0.096
-659.945	174.344	0.200	0.295
-658.930	-11.987	0.115	-0.077
-657.916	-200.000	-0.036	-0.406
-656.901	-133.251	-0.348	-0.045
-655.886	-135.505	0.423	0.051
-654.872	345.156	-0.097	-0.193
-653.857	578.184	-0.062	-0.155
-652.843	-200.000	0.017	-0.093
-651.828	122.681	0.053	-0.067
-650.814	267.548	-0.215	0.384
-649.799	93.566	0.172	0.198
-648.784	800.000	0.039	-0.130
-647.770	-200.000	0.042	-0.243
-646.755	-85.033	-0.116	-0.037
-645.741	-105.582	-0.348	0.080
-644.726	194.681	0.144	-0.222
-643.711	-79.148	0.434	-0.150
-642.697	-200.000	-0.009	-0.238
-641.682	163.454	-0.161	0.231
-640.668	242.500	0.122	-0.207
-639.653	-24.865	0.119	0.072
-638.638	53.087	0.186	0.181
-637.624	800.000	-0.042	-0.176
-636.609	-115.959	0.244	0.046
-635.595	159.584	-0.089	-0.126
-634.580	122.431	0.227	-0.288
-633.565	-8.732	0.250	0.171
-632.551	800.000	-0.132	-0.384
-631.536	166.030	-0.075	-0.108
-630.522	-175.755	0.280	0.008
-629.507	160.668	-0.115	-0.163
-628.492	-200.000	0.072	-0.432
-627.478	-7.538	-0.379	-0.261
-626.463	800.000	0.026	-0.072
-625.449	800.000	-0.063	0.227
-624.434	402.664	-0.068	-0.146
-623.419	0.797	-0.107	0.078
-622.405	-57.996	0.016	0.007
-621.390	-106.513	0.257	-0.058
-620.376	157.746	0.071	-0.101
-619.361	-153.957	-0.043	-0.003
-618.346	87.350	-0.163	-0.184
-617.332	800.000	0.052	-0.211
-616.317	-30.939	-0.209	0.120
-615.303	-110.128	0.298	0.063
-614.288	-200.000	-0.010	-0.079
-613.273	-54.720	-0.005	-0.002
-612.259	-125.364	-0.479	-0.074
-611.244	86.208	0.195	-0.218
-610.230	258.249	-0.162	-0.283
-609.215	-19.441	-0.083	-0.053
-608.201	227.543	0.172	-0.284
-607.186	22.340	0.026	0.021
-606.171	-60.022	0.203	0.088
-605.157	-110.646	-0.040	-0.008
-604.142	73.199	-0.136	0.145
-603.128	657.437	-0.067	-0.176
-602.113	86.675	0.010	-0.011
-601.098	128.710	0.138	0.179
-600.084	-104.007	-0.282	0.067
-599.069	-126.968	0.091	0.014
-598.055	14.348	0.084	0.067
-597.040	55.852	0.239	0.235
-596.025	32.107	0.179	-0.157
-595.011	195.835	0.031	-0.048
-593.996	-96.181	0.102	-0.028
-592.982	-17.980	0.135	0.086
-591.967	-59.649	-0.149	-0.065
-590.952	336.096	-0.141	0.279
-589.938	-57.346	-0.123	-0.055
-588.923	97.377	-0.200	-0.233
-587.909	-108.986	-0.156	-0.034
-586.894	-98.438	-0.178	0.046
-585.879	69.794	-0.204	0.213
-584.865	800.000	-0.053	0.161
-583.850	-200.000	-0.002	0.435
-582.836	173.280	-0.238	-0.349
-581.821	-31.786	0.110	0.062
-580.806	111.010	0.078	-0.096
-579.792	19.152	-0.093	0.076
-578.777	-36.623	0.149	-0.081
-577.763	-200.000	0.004	0.120
-576.748	-144.124	-0.194	0.018
-575.733	-21.610	0.167	0.103
-574.719	-107.163	0.079	-0.018
-573.704	800.000	-0.016	0.057
-572.690	-115.084	0.219	0.042
-571.675	88.201	0.150	0.169
-570.661	-48.133	-0.060	-0.029
-569.646	-22.465	-0.117	0.072
-568.631	271.504	0.145	0.260
-567.617	-200.000	0.036	0.216
-566.602	125.031	-0.292	-0.373
-565.588	-200.000	0.006	-0.041
-564.573	-20.478	0.476	0.297
-563.558	48.115	0.134	-0.127
-562.544	-16.193	0.092	0.059
-561.529	-55.103	-0.202	0.092
-560.515	-200.000	0.017	-0.117
-559.500	780.148	0.066	0.183
-558.485	6.937	-0.229	0.173
-557.471	-200.000	0.011	-0.147
-556.456	-157.545	-0.127	0.008
-555.442	-200.000	-0.009	-0.106
-554.427	-200.000	-0.010	0.135
-553.412	-59.561	0.072	-0.031
-552.398	616.766	-0.101	-0.258
-551.383	96.627	-0.153	-0.178
-550.369	137.766	0.091	0.121
-549.354	800.000	-0.113	-0.330
-548.339	496.778	-0.039	-0.091
-547.325	7.383	-0.293	0.222
-546.310	104.675	-0.194	0.232
-545.296	-200.000	0.081	0.750
-544.281	-147.960	0.151	0.013
-543.266	143.968	0.276	-0.373
-542.252	-111.526	0.234	0.048
-541.237	186.962	-0.174	0.263
-540.223	-36.887	-0.116	0.063
-539.208	800.000	0.021	-0.074
-538.193	-200.000	0.014	-0.133
-537.179	-89.760	-0.230	-0.068
-536.164	-2.319	-0.237	0.169
-535.150	-200.000	0.022	0.135
-534.135	43.880	0.016	-0.015
-533.121	-47.282	0.156	0.077
-532.106	162.786	-0.066	-0.094
-531.091	320.206	0.070	0.134
-530.077	800.000	-0.098	0.351
-529.062	-200.000	-0.022	-0.111
-528.048	-200.000	-0.016	-0.143
-527.033	107.354	-0.384	0.463
-526.018	-119.955	-0.391	0.068
-525.004	-77.183	0.351	0.124
-523.989	-24.141	-0.301	0.182
-522.975	238.547	0.203	-0.342
-521.960	590.934	-0.127	0.317
-520.945	-67.873	-0.159	0.063
-519.931	-200.000	-0.009	0.222
-518.916	192.381	0.172	-0.263
-517.902	49.345	0.229	-0.218
-516.887	-37.712	-0.047	-0.026
-515.872	-59.356	-0.300	0.131
-514.858	-200.000	0.101	0.500
-513.843	33.780	0.125	0.111
-512.829	608.819	-0.063	0.159
-511.814	-98.093	0.204	0.053
-510.799	28.262	-0.380	0.325
-509.785	800.000	0.077	0.310
-508.770	532.446	-0.186	-0.445
-507.756	-200.000	0.062	0.419
-506.741	-200.000	-0.009	-0.392
-505.726	-41.360	0.126	0.066
-504.712	-200.000	0.009	-0.272
-503.697	6.980	0.126	-0.095
-502.683	-166.913	-0.051	-0.002
-501.668	-200.000	-0.102	-0.456
-500.653	685.138	0.046	0.122
-499.639	-29.990	0.220	0.127
-498.624	208.244	-0.108	0.170
-497.610	-200.000	0.014	-0.186
-496.595	14.047	-0.208	-0.164
-495.581	-73.365	-0.329	-0.122
-494.566	-200.000	0.009	-0.126
-493.551	294.419	-0.135	0.249
-492.537	-62.762	0.106	0.044
-491.522	57.282	0.117	-0.116
-490.508	486.697	-0.125	-0.288
-489.493	250.367	-0.256	0.441
-488.478	92.028	0.195	0.222
-487.464	-45.773	-0.225	-0.112
-486.449	-100.495	0.397	-0.099
-485.435	2.475	0.135	-0.099
-484.420	39.676	0.242	0.220
-483.405	-130.649	-0.228	0.031
-482.391	-163.243	-0.259	0.013
-481.376	194.196	0.155	-0.238
-480.362	-64.781	0.197	0.081
-479.347	-147.466	0.165	-0.014
-478.332	-183.463	0.234	0.004
-477.318	-68.878	-0.415	0.162
-476.303	-200.000	-0.039	-0.300
-475.289	388.312	0.051	0.107
-474.274	229.434	0.313	-0.517
-473.259	252.351	-0.176	-0.303
-472.245	201.869	-0.196	0.306
-471.230	228.002	-0.136	-0.225
-470.216	-58.399	0.170	0.075
-469.201	70.797	-0.157	0.164
-468.186	-130.338	-0.228	0.031
-467.172	-8.804	-0.186	-0.126
-466.157	26.798	-0.155	-0.131
-465.143	243.048	0.031	-0.053
-464.128	13.659	0.161	0.126
-463.113	11.182	-0.118	0.091
-462.099	85.611	0.080	-0.089
-461.084	-81.271	0.205	-0.068
-460.070	-200.000	0.009	0.064
-459.055	-109.474	-0.089	-0.019
-458.040	41.316	-0.112	0.103
-457.026	-200.000	-0.012	0.210
-456.011	800.000	0.080	0.291
-454.997	105.309	0.259	-0.310
-453.982	-144.064	-0.087	0.008
-452.968	111.861	-0.072	-0.087
-451.953	14.771	0.054	0.042
-450.938	-183.604	-0.172	0.003
-449.924	-200.000	-0.043	0.345
-448.909	-200.000	-0.015	0.200
-447.895	35.185	-0.237	0.210
-446.880	-97.728	-0.096	0.025
-445.865	-90.741	0.027	0.008
-444.851	-200.000	-0.012	0.191
-443.836	-76.790	-0.195	0.069
-442.822	800.000	0.054	0.217
-441.807	732.829	-0.057	-0.154
-440.792	-145.810	0.261	-0.023
-439.778	-45.664	0.267	0.133
-438.763	-117.590	0.212	-0.039
-437.749	-92.027	-0.165	0.047
-436.734	-11.399	-0.113	-0.075
-435.719	258.315	0.208	-0.362
-434.705	1.683	-0.117	-0.085
-433.690	188.234	-0.169	0.255
-432.676	-200.000	0.004	0.255
-431.661	202.963	0.090	0.140
-430.646	-122.629	-0.250	0.041
-429.632	-158.953	0.371	-0.021
-428.617	-33.203	-0.205	-0.115
-427.603	-133.378	0.288	-0.037
-426.588	-200.000	0.004	0.098
-425.573	800.000	-0.033	-0.143
-424.559	800.000	-0.055	0.172
-423.544	112.548	0.082	-0.101
-422.530	319.527	0.084	-0.160
-421.515	534.126	-0.069	-0.164
-420.500	227.369	-0.170	0.279
-419.486	-200.000	-0.016	-0.078
-418.471	-200.000	0.006	0.183
-417.457	175.075	-0.028	0.041
-416.442	-114.369	0.076	0.015
-415.428	-131.762	-0.410	0.054
-414.413	371.657	0.071	-0.145
-413.398	12.209	-0.262	-0.204
-412.384	259.896	-0.192	-0.335
-411.369	-103.382	-0.064	0.015
-410.355	-200.000	-0.008	-0.077
-409.340	173.057	0.109	-0.158
-408.325	800.000	0.090	0.289
-407.311	800.000	0.030	0.123
-406.296	-200.000	-0.004	0.108
-405.282	178.742	0.024	-0.036
-404.267	18.400	-0.308	-0.248
-403.252	440.424	0.136	-0.299
-402.238	-200.000	0.019	-0.167
-401.223	76.704	0.123	0.132
-400.209	143.261	0.015	-0.021
-399.194	-26.332	-0.191	-0.113
-398.179	333.955	-0.213	0.416
-397.165	326.050	-0.056	0.109
-396.150	-144.279	-0.211	-0.020
-395.136	204.130	0.138	0.216
-394.121	800.000	0.079	0.260
-393.106	-110.151	0.232	-0.049
-392.092	-126.968	-0.081	-0.012
-391.077	-21.215	-0.004	0.003
-390.063	263.728	-0.138	0.242
-389.048	120.921	0.209	0.262
-388.033	-29.399	-0.246	-0.142
-387.019	-121.274	0.211	0.036
-386.004	-62.324	0.124	-0.052
-384.990	-22.066	-0.265	0.162
-383.975	-77.030	0.137	-0.048
-382.960	-200.000	-0.042	-0.196
-381.946	-56.915	-0.047	-0.021
-380.931	212.397	0.089	0.141
-379.917	74.551	-0.183	0.194
-378.902	-44.271	-0.212	0.107
-377.888	-87.672	-0.203	0.062
-376.873	286.496	0.040	0.074
-375.858	202.404	0.152	0.236
-374.844	80.092	-0.199	-0.215
-373.829	25.483	0.055	0.046
-372.815	235.853	0.105	-0.175
-371.800	-200.000	-0.001	0.198
-370.785	32.493	-0.135	0.118
-369.771	800.000	-0.033	-0.126
-368.756	683.943	-0.037	0.097
-367.742	-0.377	0.144	0.103
-366.727	-115.773	-0.131	-0.025
-365.712	-26.942	-0.007	0.004
-364.698	-59.550	-0.178	0.077
-363.683	-97.070	0.156	-0.041
-362.669	-200.000	0.031	0.197
-361.654	560.545	0.063	0.154
-360.639	3.584	0.173	-0.127
-359.625	-140.208	0.305	0.032
-358.610	165.477	-0.301	0.429
-357.596	-64.287	-0.190	-0.078
-356.581	-200.000	-0.038	0.264
-355.566	81.398	0.108	-0.118
-354.552	65.553	-0.130	-0.132
-353.537	-92.111	0.183	0.052
-352.523	-92.024	-0.194	-0.055
-351.508	800.000	-0.093	-0.344
-350.493	746.257	0.075	-0.203
-349.479	-41.538	0.380	-0.197
-348.464	-9.229	-0.206	0.139
-347.450	51.860	-0.264	-0.253
-346.435	116.349	0.161	-0.198
-345.420	124.105	-0.010	0.012
-344.406	-199.473	0.096	-0.001
-343.391	-60.695	-0.391	-0.167
-342.377	414.619	0.147	0.315
-341.362	629.314	0.097	0.248
-340.348	-167.702	0.151	0.006
-339.333	267.747	-0.090	-0.158
-338.318	441.246	0.064	-0.141
-337.304	-200.000	0.021	0.103
-336.289	47.979	-0.069	0.065
-335.275	-81.305	-0.324	-0.108
-334.260	87.196	-0.267	0.297
-333.245	161.037	0.330	-0.465
-332.231	-174.306	0.197	0.006
-331.216	-29.328	0.049	-0.028
-330.202	800.000	0.054	-0.157
-329.187	-200.000	0.054	0.445
-328.172	-99.662	-0.258	-0.065
-327.158	-117.008	-0.207	-0.038
-326.143	587.013	-0.008	0.019
-325.129	-123.623	-0.134	0.021
-324.114	-59.710	0.210	0.090
-323.099	-200.000	-0.042	0.322
-322.085	-58.532	0.148	-0.064
-321.070	91.068	0.042	-0.048
-320.056	61.726	-0.273	-0.273
-319.041	-105.027	-0.223	0.051
-318.026	-39.521	0.126	-0.067
-317.012	-58.257	0.490	0.214
-315.997	-200.000	-0.003	0.179
-314.983	28.548	0.111	0.095
-313.968	-79.567	-0.002	0.001
-312.953	-127.819	0.311	-0.045
-311.939	-50.059	-0.232	0.111
-310.924	137.479	0.168	0.221
-309.910	-53.951	0.081	0.037
-308.895	-175.915	-0.243	-0.007
-307.880	48.456	0.239	0.225
-306.866	-88.226	0.255	0.077
-305.851	-124.872	0.108	0.017
-304.837	-200.000	0.037	0.270
-303.822	-200.000	0.014	-0.121
-302.807	11.721	-0.178	-0.137
-301.793	-54.756	-0.190	0.086
-300.778	800.000	0.036	0.136
-299.764	-60.587	-0.197	0.084
-298.749	-200.000	-0.026	-0.363
-297.735	-103.645	-0.186	0.044
-296.720	635.098	-0.046	-0.117
-295.705	-125.523	0.166	0.025
-294.691	307.133	0.210	-0.393
-293.676	800.000	0.071	-0.201
-292.662	800.000	-0.049	-0.169
-291.647	-11.515	-0.255	0.168
-290.632	-200.000	0.008	-0.445
-289.618	800.000	-0.061	-0.230
-288.603	85.750	-0.073	-0.081
-287.589	-23.515	-0.198	0.119
-286.574	800.000	0.048	0.192
-285.559	58.364	0.037	0.037
-284.545	800.000	0.087	0.252
-283.530	-120.540	-0.028	0.005
-282.516	439.821	-0.088	0.192
-281.501	-166.779	0.234	-0.010
-280.486	42.316	-0.228	-0.208
-279.472	39.370	-0.135	0.121
-278.457	64.262	-0.244	-0.246
-277.443	-48.984	0.082	0.039
-276.428	-200.000	0.022	0.099
-275.413	-200.000	0.014	0.345
-274.399	-167.225	0.186	-0.008
-273.384	-71.978	-0.394	-0.147
-272.370	-56.092	0.334	-0.149
-271.355	416.659	0.055	0.118
-270.340	-200.000	0.006	0.067
-269.326	128.277	0.100	-0.128
-268.311	800.000	0.067	-0.214
-267.297	-22.117	0.138	-0.084
-266.282	198.763	-0.102	0.157
-265.267	22.663	-0.118	0.097
-264.253	204.433	0.209	-0.325
-263.238	107.792	-0.116	0.138
-262.224	401.344	-0.103	-0.217
-261.209	68.505	-0.235	0.241
-260.195	800.000	-0.110	-0.448
-259.180	31.850	0.156	-0.134
-258.165	251.692	-0.190	0.324
-257.151	-3.047	0.014	-0.010
-256.136	-200.000	0.037	0.188
-255.122	646.339	-0.024	-0.062
-254.107	11.826	0.345	-0.265
-253.092	-100.467	-0.150	0.037
-252.078	-127.436	-0.111	-0.016
-251.063	257.702	-0.065	0.112
-250.049	338.981	-0.073	-0.143
-249.034	-200.000	0.030	-0.213
-248.019	78.540	-0.065	-0.070
-247.005	800.000	0.026	-0.114
-245.990	-52.969	0.171	0.079
-244.976	118.925	-0.095	0.118
-243.961	-171.496	0.120	-0.004
-242.946	-11.699	-0.096	0.063
-241.932	-20.211	-0.207	0.128
-240.917	800.000	0.073	-0.208
-239.903	-200.000	0.026	0.259
-238.888	800.000	-0.045	-0.188
-237.873	-200.000	-0.075	-0.374
-236.859	-172.312	0.276	0.009
-235.844	800.000	0.027	0.101
-234.830	-85.004	0.024	-0.007
-233.815	-24.941	-0.205	0.122
-232.800	0.998	0.244	0.176
-231.786	653.303	0.074	0.189
-230.771	-200.000	-0.023	0.151
-229.757	295.559	0.070	-0.128
-228.742	98.132	0.176	0.203
-227.727	-200.000	-0.056	-0.319
-226.713	-29.630	0.313	-0.179
-225.698	800.000	-0.220	0.624
-224.684	800.000	0.102	0.309
-223.669	-70.117	0.256	0.098
-222.655	-200.000	0.013	-0.177
-221.640	158.234	-0.134	-0.187
-220.625	-200.000	-0.047	-0.266
-219.611	63.406	-0.078	-0.078
-218.596	-15.289	0.184	-0.118
-217.582	433.175	0.207	0.451
-216.567	-200.000	-0.016	0.189
-215.552	77.283	0.174	0.185
-214.538	-59.343	0.082	-0.035
-213.523	134.725	0.047	-0.061
-212.509	-24.361	-0.084	0.050
-211.494	-46.228	0.276	-0.136
-210.479	274.727	0.056	0.100
-209.465	28.907	-0.128	0.108
-208.450	-114.645	0.342	0.066
-207.436	-74.592	-0.044	0.016
-206.421	-138.340	0.249	-0.028
-205.406	-200.000	-0.037	-0.167
-204.392	216.043	-0.105	-0.167
-203.377	-52.810	0.351	0.162
-202.363	-92.962	-0.386	0.108
-201.348	681.155	0.161	0.419
-200.333	800.000	-0.057	0.189
-199.319	66.351	0.095	0.097
-198.304	187.437	0.125	0.187
-197.290	-20.762	0.460	-0.283
-196.275	800.000	0.045	0.127
-195.260	800.000	-0.006	0.018
-194.246	-90.588	0.199	-0.058
-193.231	-16.718	0.059	-0.038
-192.217	-200.000	-0.051	-0.293
-191.202	255.026	0.126	-0.216
-190.187	235.975	0.046	-0.076
-189.173	-200.000	-0.031	0.139
-188.158	-37.740	0.332	-0.177
-187.144	123.215	-0.174	-0.218
-186.129	30.508	-0.138	-0.118
-185.114	-103.467	0.313	0.074
-184.100	800.000	0.037	-0.157
-183.085	25.870	-0.121	0.101
-182.071	800.000	-0.024	-0.068
-181.056	184.294	-0.197	-0.291
-180.042	-200.000	-0.024	-0.173
-179.027	764.697	-0.137	-0.371
-178.012	371.596	-0.154	-0.313
-176.998	-124.396	0.116	0.018
-175.983	-73.422	-0.122	-0.045
-174.969	247.952	-0.124	-0.209
-173.954	164.274	0.024	0.033
-172.939	-176.238	0.250	0.007
-171.925	-200.000	-0.011	0.104
-170.910	10.358	0.052	0.039
-169.896	80.966	0.223	-0.240
-168.881	-200.000	-0.028	-0.388
-167.866	800.000	0.064	-0.201
-166.852	39.901	0.115	-0.103
-165.837	800.000	-0.061	0.170
-164.823	110.364	-0.148	-0.178
-163.808	-62.202	0.068	-0.028
-162.793	620.722	0.104	-0.262
-161.779	-200.000	-0.027	0.325
-160.764	-167.983	0.171	0.007
-159.750	-44.242	0.106	-0.053
-158.735	800.000	0.034	-0.132
-157.720	-71.968	0.114	-0.042
-156.706	-96.832	0.150	-0.039
-155.691	53.787	-0.224	-0.215
-154.677	162.286	0.193	0.270
-153.662	-200.000	0.011	0.137
-152.647	335.250	0.009	0.017
-151.633	-159.697	-0.257	-0.014
-150.618	42.880	0.065	0.059
-149.604	-200.000	0.040	0.258
-148.589	-90.717	0.192	0.055
-147.574	50.563	0.105	-0.099
-146.560	-200.000	0.045	-0.217
-145.545	133.868	0.043	0.055
-144.531	-37.914	0.381	0.202
-143.516	-28.277	-0.377	-0.217
-142.502	-38.394	0.252	-0.133
-141.487	439.775	0.100	-0.217
-140.472	-149.191	-0.154	-0.012
-139.458	-200.000	0.022	-0.201
-138.443	-200.000	-0.460	-0.001
-137.429	763.202	0.109	-0.295
-136.414	800.000	-0.020	-0.087
-135.399	-200.000	0.010	0.219
-134.385	-173.578	0.224	0.007
-133.370	161.519	-0.114	-0.160
-132.356	-18.571	0.394	0.245
-131.341	-82.411	-0.130	0.042
-130.326	-200.000	0.042	0.309
-129.312	-84.494	-0.182	-0.057
-128.297	-93.577	0.096	0.027
-127.283	-111.067	0.105	0.021
-126.268	-37.423	-0.123	-0.066
-125.253	21.636	-0.105	0.085
-124.239	0.970	0.188	-0.134
-123.224	77.640	-0.155	0.164
-122.210	-200.000	-0.016	0.073
-121.195	362.337	-0.093	-0.186
