DTS Sentinel unit serial number:	SN413079Multiplexer serial number:	ORYXHardware model number:	OX4-SRSoftware version number:	ORYX F/W v4.00 Oryx Data Collector v3.7.2.0data status	okinstallation	princeton_trtdifferential loss correction	single-endedforward channel	channel 3reverse channel	N/Adate	2019/09/15time	04:28:35forward acquisition time	60.00reverse acquisition time	0.00gamma	496.2192k internal	0.2323k external	0.2323temperature offset calibration	0.9970default loss term (dB/km)	0.3790temperature slope calibration	1.0000multiplexer offset coefficient	1.0000multiplexer slope coefficient	1.0000fibre end	0.00T internal ref (°C)	30.87T ext. ref 1 (°C)	4.65T ext. ref 2 (°C)	25.51length (m)	temperature (°C)	Stokes	anti-Stokes-747.200	-122.662	0.180	-0.030
-746.185	-117.987	-0.301	0.054
-745.171	-31.738	0.392	0.222
-744.156	18.824	0.140	0.113
-743.142	-200.000	-0.067	0.436
-742.127	-63.696	-0.282	0.117
-741.112	800.000	-0.106	-0.340
-740.098	-200.000	-0.007	-0.099
-739.083	82.943	-0.271	-0.298
-738.069	175.564	0.194	0.284
-737.054	-42.549	-0.141	0.073
-736.039	369.271	-0.139	-0.285
-735.025	289.729	0.232	-0.424
-734.010	242.420	-0.188	-0.317
-732.996	43.723	0.104	0.096
-731.981	-103.379	-0.308	-0.073
-730.966	-37.825	-0.085	-0.046
-729.952	800.000	0.067	0.252
-728.937	-136.914	-0.388	-0.045
-727.923	-200.000	0.032	-0.261
-726.908	-200.000	-0.044	-0.245
-725.894	196.723	0.130	0.200
-724.879	85.008	0.105	0.117
-723.864	-65.379	0.483	-0.196
-722.850	649.416	-0.024	-0.063
-721.835	800.000	0.209	-0.585
-720.821	-4.947	0.027	-0.019
-719.806	-42.736	-0.129	-0.066
-718.791	-101.978	-0.408	0.099
-717.777	-200.000	0.008	-0.103
-716.762	-200.000	-0.001	0.227
-715.748	-105.882	-0.211	0.048
-714.733	-22.602	0.048	-0.030
-713.718	-149.525	0.216	0.017
-712.704	-175.439	-0.140	0.004
-711.689	-200.000	-0.001	-0.174
-710.675	-186.481	0.102	0.001
-709.660	-200.000	-0.005	0.087
-708.645	-0.705	-0.239	0.171
-707.631	-200.000	0.014	0.169
-706.616	-173.415	0.306	-0.009
-705.602	677.182	0.177	0.463
-704.587	170.198	0.072	-0.104
-703.572	-191.465	0.209	0.002
-702.558	-66.402	-0.148	0.059
-701.543	-23.720	-0.231	-0.140
-700.529	437.306	-0.049	0.109
-699.514	-67.888	0.153	0.060
-698.499	-1.558	0.175	-0.124
-697.485	-144.173	0.303	-0.029
-696.470	93.309	0.124	0.142
-695.456	800.000	0.059	-0.189
-694.441	-200.000	-0.030	-0.232
-693.426	-101.484	0.218	-0.053
-692.412	-156.446	0.453	0.028
-691.397	800.000	-0.086	-0.293
-690.383	-79.684	-0.197	0.067
-689.368	23.718	-0.264	0.219
-688.354	79.023	-0.093	0.100
-687.339	-132.803	0.337	0.043
-686.324	-200.000	0.067	-0.365
-685.310	-200.000	0.002	0.396
-684.295	-4.022	-0.354	0.248
-683.281	149.149	0.088	-0.120
-682.266	54.116	0.107	-0.104
-681.251	-200.000	0.018	-0.202
-680.237	94.305	-0.230	-0.262
-679.222	-107.408	-0.146	-0.032
-678.208	160.321	-0.242	-0.340
-677.193	350.089	-0.038	-0.077
-676.178	288.518	0.200	-0.364
-675.164	280.799	-0.269	-0.484
-674.149	8.776	0.060	0.046
-673.135	-78.204	0.114	-0.040
-672.120	-200.000	-0.006	-0.266
-671.105	800.000	0.117	0.346
-670.091	-200.000	-0.001	0.259
-669.076	-200.000	0.032	0.220
-668.062	-200.000	-0.078	0.356
-667.047	484.123	-0.052	-0.120
-666.032	63.877	-0.291	0.295
-665.018	-148.310	-0.144	-0.012
-664.003	427.343	0.149	-0.323
-662.989	777.730	-0.084	-0.232
-661.974	-156.765	0.203	-0.013
-660.959	-200.000	-0.032	-0.336
-659.945	800.000	0.086	-0.306
-658.930	130.646	0.123	0.159
-657.916	129.661	-0.079	0.101
-656.901	-84.717	0.135	0.043
-655.886	136.754	-0.074	0.097
-654.872	-29.954	-0.256	0.147
-653.857	240.333	-0.059	-0.100
-652.843	68.524	0.144	0.149
-651.828	-122.104	-0.059	0.010
-650.814	-200.000	0.013	-0.130
-649.799	-120.800	0.282	-0.048
-648.784	-58.784	-0.098	0.042
-647.770	34.519	-0.072	-0.063
-646.755	68.408	-0.085	0.088
-645.741	156.559	0.138	-0.192
-644.726	-43.216	-0.137	0.070
-643.711	-177.536	-0.344	0.008
-642.697	-148.231	-0.094	-0.008
-641.682	800.000	0.067	-0.207
-640.668	-127.129	0.380	-0.056
-639.653	280.154	0.215	0.386
-638.638	-107.825	-0.345	-0.076
-637.624	-59.090	-0.151	-0.065
-636.609	-200.000	0.006	-0.066
-635.595	-15.124	-0.186	0.120
-634.580	-200.000	0.020	-0.152
-633.565	310.686	-0.073	-0.137
-632.551	183.344	-0.074	-0.110
-631.536	800.000	0.061	0.195
-630.522	100.922	-0.092	-0.108
-629.507	-200.000	-0.028	0.176
-628.492	7.803	0.475	0.357
-627.478	-50.751	0.100	0.047
-626.463	397.883	-0.028	0.058
-625.449	-132.095	-0.161	0.021
-624.434	-172.302	0.108	0.003
-623.419	33.187	0.256	-0.223
-622.405	-34.553	-0.215	0.119
-621.390	-200.000	-0.030	0.144
-620.376	60.254	0.044	-0.044
-619.361	-107.050	0.289	0.064
-618.346	-48.578	0.127	0.061
-617.332	-107.824	-0.211	0.046
-616.317	48.649	-0.071	-0.067
-615.303	-157.096	0.186	0.011
-614.288	25.781	-0.067	-0.056
-613.273	287.268	0.061	-0.111
-612.259	120.171	0.291	-0.362
-611.244	137.496	-0.107	-0.141
-610.230	-94.664	-0.095	0.026
-609.215	-200.000	-0.086	-0.388
-608.201	-115.010	-0.146	0.028
-607.186	343.438	-0.071	-0.139
-606.171	85.244	-0.016	0.017
-605.157	-200.000	0.016	-0.122
-604.142	-17.255	-0.092	-0.059
-603.128	53.064	0.308	0.296
-602.113	-106.235	-0.332	-0.075
-601.098	800.000	0.099	0.275
-600.084	205.150	-0.146	0.227
-599.069	-19.024	0.192	0.120
-598.055	-34.532	-0.232	-0.127
-597.040	-10.378	0.143	0.095
-596.025	-139.403	-0.362	-0.039
-595.011	66.848	0.286	-0.292
-593.996	-200.000	0.041	-0.291
-592.982	78.354	0.203	-0.218
-591.967	-107.226	-0.224	0.050
-590.952	-84.427	-0.187	0.059
-589.938	-20.703	0.215	-0.132
-588.923	800.000	-0.037	0.135
-587.909	-115.045	0.336	-0.064
-586.894	-126.923	0.157	-0.023
-585.879	704.708	0.045	-0.119
-584.865	634.502	-0.021	0.053
-583.850	39.620	-0.306	-0.275
-582.836	800.000	-0.044	-0.121
-581.821	-72.572	0.037	-0.014
-580.806	222.748	0.106	-0.171
-579.792	240.119	-0.161	-0.269
-578.777	-7.295	-0.123	-0.083
-577.763	-13.843	0.013	-0.009
-576.748	373.530	-0.068	0.139
-575.733	157.234	-0.146	-0.203
-574.719	-173.143	-0.261	-0.008
-573.704	-156.729	-0.099	0.006
-572.690	-158.570	-0.305	-0.018
-571.675	-200.000	-0.001	0.108
-570.661	33.149	0.146	0.127
-569.646	-11.805	-0.047	0.031
-568.631	622.794	-0.202	0.510
-567.617	-200.000	0.045	0.223
-566.602	-132.555	-0.226	-0.029
-565.588	15.607	0.139	0.109
-564.573	800.000	0.064	0.228
-563.558	-200.000	-0.023	0.138
-562.544	233.801	-0.084	-0.139
-561.529	-200.000	-0.027	-0.164
-560.515	-58.147	0.147	-0.064
-559.500	-121.519	0.258	0.043
-558.485	-53.048	0.101	-0.047
-557.471	318.739	-0.200	0.380
-556.456	-200.000	-0.016	0.079
-555.442	-86.783	-0.277	-0.085
-554.427	64.724	0.193	0.195
-553.412	-24.905	-0.327	0.195
-552.398	-122.094	-0.202	-0.033
-551.383	14.500	-0.477	0.373
-550.369	0.647	0.181	0.130
-549.354	-130.990	-0.095	0.013
-548.339	-111.814	0.231	-0.047
-547.325	-104.200	-0.752	-0.175
-546.310	-20.210	-0.096	0.059
-545.296	-162.323	0.105	0.005
-544.281	-54.994	0.133	-0.060
-543.266	-176.293	0.151	-0.004
-542.252	800.000	0.046	-0.163
-541.237	-97.833	0.136	0.035
-540.223	-88.088	-0.447	-0.134
-539.208	218.937	0.066	-0.106
-538.193	-145.498	-0.162	-0.015
-537.179	527.901	0.007	0.016
-536.164	-183.204	0.277	0.005
-535.150	143.011	0.136	-0.181
-534.135	45.902	0.277	0.257
-533.121	109.192	0.100	0.120
-532.106	-200.000	0.017	-0.124
-531.091	12.862	0.196	-0.152
-530.077	201.812	0.167	0.257
-529.062	763.346	0.093	0.253
-528.048	-57.411	-0.340	0.149
-527.033	443.674	0.122	0.269
-526.018	-44.727	0.388	0.194
-525.004	-161.363	0.319	0.017
-523.989	-91.029	-0.078	-0.023
-522.975	-1.224	-0.250	0.177
-521.960	800.000	0.046	0.203
-520.945	-200.000	0.019	0.088
-519.931	281.400	0.024	-0.043
-518.916	-86.367	-0.117	0.036
-517.902	26.679	-0.133	0.112
-516.887	-11.506	0.087	0.057
-515.872	400.350	-0.060	-0.125
-514.858	800.000	-0.020	0.080
-513.843	-22.426	-0.298	0.181
-512.829	20.522	-0.189	0.153
-511.814	-139.344	-0.305	0.033
-510.799	605.282	-0.144	0.360
-509.785	-45.861	-0.158	0.078
-508.770	-200.000	-0.020	-0.173
-507.756	-104.702	0.239	-0.055
-506.741	-45.210	-0.107	-0.053
-505.726	-41.207	0.030	0.016
-504.712	-200.000	-0.016	-0.184
-503.697	-97.326	-0.237	0.062
-502.683	795.342	0.029	-0.081
-501.668	-200.000	0.043	0.319
-500.653	-40.365	-0.311	-0.162
-499.639	258.223	0.073	0.125
-498.624	97.549	-0.190	-0.218
-497.610	126.379	0.151	-0.191
-496.595	-102.010	-0.207	-0.050
-495.581	708.441	-0.017	-0.044
-494.566	-11.349	-0.168	0.110
-493.551	-24.697	-0.271	0.161
-492.537	365.210	0.073	-0.147
-491.522	185.482	-0.221	0.328
-490.508	-65.742	-0.216	-0.087
-489.493	80.271	-0.233	-0.251
-488.478	-94.527	0.306	0.083
-487.464	-200.000	0.027	-0.197
-486.449	-150.390	-0.166	0.013
-485.435	6.457	-0.230	0.171
-484.420	134.312	-0.188	0.243
-483.405	0.337	0.163	0.117
-482.391	-144.607	0.191	-0.018
-481.376	74.947	0.249	-0.262
-480.362	-21.289	0.169	0.103
-479.347	245.618	-0.193	-0.325
-478.332	85.332	0.121	0.132
-477.318	565.109	-0.136	0.330
-476.303	169.139	-0.096	0.137
-475.289	-112.847	0.113	-0.022
-474.274	-200.000	0.010	0.238
-473.259	-14.028	-0.205	0.132
-472.245	360.589	-0.040	0.079
-471.230	65.590	0.071	0.072
-470.216	121.228	0.259	-0.322
-469.201	-200.000	0.006	0.178
-468.186	-187.114	0.278	-0.004
-467.172	-107.658	0.300	-0.066
-466.157	-200.000	0.005	-0.144
-465.143	583.646	-0.003	-0.008
-464.128	-136.881	0.244	-0.028
-463.113	-77.672	-0.221	0.077
-462.099	-38.793	-0.384	0.202
-461.084	-127.616	-0.223	-0.032
-460.070	-71.961	-0.159	-0.059
-459.055	-17.872	-0.097	-0.061
-458.040	669.893	0.015	-0.039
-457.026	52.570	0.151	-0.144
-456.011	10.472	-0.118	0.090
-454.997	-14.658	-0.034	-0.022
-453.982	548.909	0.057	-0.136
-452.968	-109.567	-0.250	-0.053
-451.953	-103.522	0.462	0.108
-450.938	230.824	-0.090	-0.147
-449.924	800.000	0.053	-0.208
-448.909	28.280	0.275	-0.231
-447.895	-87.402	0.159	-0.048
-446.880	270.029	0.172	-0.302
-445.865	20.806	-0.349	0.283
-444.851	16.289	0.080	0.063
-443.836	-55.306	0.278	-0.125
-442.822	18.070	0.029	-0.023
-441.807	-34.897	0.118	0.064
-440.792	-100.024	-0.414	0.103
-439.778	-200.000	-0.026	-0.180
-438.763	114.240	0.125	-0.152
-437.749	-100.699	0.273	0.067
-436.734	-200.000	0.033	-0.242
-435.719	327.505	0.119	-0.227
-434.705	-33.354	0.375	0.207
-433.690	-85.788	-0.178	-0.055
-432.676	63.375	-0.131	-0.131
-431.661	800.000	-0.062	-0.261
-430.646	8.570	-0.199	0.149
-429.632	204.265	-0.079	-0.122
-428.617	-200.000	-0.020	0.231
-427.603	-148.321	0.129	0.011
-426.588	-200.000	-0.029	0.166
-425.573	-200.000	0.001	0.044
-424.559	483.561	0.043	-0.097
-423.544	-200.000	0.041	0.418
-422.530	213.070	-0.100	-0.158
-421.515	193.974	0.079	-0.120
-420.500	-7.380	-0.114	-0.077
-419.486	-160.764	-0.283	-0.015
-418.471	-81.461	-0.305	0.100
-417.457	-78.648	0.172	-0.059
-416.442	728.286	0.046	-0.121
-415.428	800.000	0.034	-0.118
-414.413	-89.720	-0.200	0.058
-413.398	-117.785	0.249	-0.045
-412.384	800.000	-0.062	0.220
-411.369	-200.000	-0.051	0.313
-410.355	38.542	-0.309	-0.275
-409.340	-129.486	-0.196	0.027
-408.325	129.473	-0.018	-0.022
-407.311	-52.280	0.221	-0.102
-406.296	683.592	-0.058	-0.151
-405.282	754.389	-0.006	-0.017
-404.267	800.000	-0.036	0.118
-403.252	-152.167	-0.561	0.041
-402.238	-7.530	-0.251	-0.169
-401.223	-200.000	0.008	-0.100
-400.209	-200.000	-0.023	-0.178
-399.194	378.845	-0.055	-0.112
-398.179	-79.367	0.248	0.084
-397.165	-200.000	-0.085	-0.507
-396.150	-200.000	0.002	0.040
-395.136	43.954	-0.228	-0.208
-394.121	301.580	-0.096	-0.177
-393.106	27.973	-0.214	-0.180
-392.092	79.976	-0.211	-0.226
-391.077	30.173	-0.291	-0.248
-390.063	-159.581	-0.040	0.002
-389.048	119.728	0.048	-0.059
-388.033	26.004	0.184	-0.153
-387.019	302.074	0.061	0.113
-386.004	-81.975	-0.206	0.067
-384.990	91.429	0.210	-0.235
-383.975	-127.851	0.088	0.013
-382.960	-34.780	0.206	0.112
-381.946	-109.984	0.128	0.027
-380.931	-200.000	-0.005	-0.036
-379.917	-34.929	0.313	-0.170
-378.902	-118.351	0.099	-0.017
-377.888	-48.306	0.072	0.035
-376.873	749.908	0.065	0.175
-375.858	-9.994	-0.205	0.136
-374.844	-78.653	-0.179	0.061
-373.829	3.459	0.177	-0.128
-372.815	-200.000	0.010	0.150
-371.800	-200.000	0.005	-0.350
-370.785	-21.046	0.069	0.042
-369.771	127.407	0.120	0.151
-368.756	800.000	0.128	0.459
-367.742	582.779	0.127	0.311
-366.727	-200.000	0.029	0.219
-365.712	550.314	0.196	0.467
-364.698	-200.000	0.013	0.190
-363.683	-200.000	-0.026	0.318
-362.669	800.000	-0.106	-0.453
-361.654	182.071	-0.124	-0.182
-360.639	-65.790	0.222	-0.088
-359.625	-48.344	0.444	-0.213
-358.610	196.246	-0.143	-0.217
-357.596	-200.000	0.021	0.263
-356.581	-200.000	-0.034	0.191
-355.566	178.099	-0.223	0.324
-354.552	154.611	0.259	0.354
-353.537	-200.000	0.077	0.487
-352.523	-71.429	0.210	0.078
-351.508	-108.762	-0.238	-0.051
-350.493	7.778	-0.060	0.045
-349.479	705.907	0.096	0.253
-348.464	-118.348	-0.399	-0.070
-347.450	86.595	0.079	-0.087
-346.435	82.246	0.061	-0.066
-345.420	31.824	0.146	-0.125
-344.406	-93.282	0.132	0.037
-343.391	-153.645	-0.392	-0.027
-342.377	54.596	0.168	0.161
-341.362	-200.000	-0.045	0.414
-340.348	139.267	0.142	0.185
-339.333	39.374	0.129	-0.114
-338.318	11.476	0.130	-0.099
-337.304	51.640	-0.048	0.045
-336.289	399.416	0.068	-0.142
-335.275	-174.046	-0.204	-0.006
-334.260	-4.672	0.181	0.124
-333.245	-200.000	-0.011	-0.185
-332.231	-200.000	-0.019	0.184
-331.216	575.459	0.043	-0.104
-330.202	156.799	0.256	0.351
-329.187	414.857	-0.020	-0.043
-328.172	-110.013	-0.176	-0.037
-327.158	742.622	-0.086	-0.228
-326.143	308.669	-0.020	0.038
-325.129	-182.547	-0.351	-0.006
-324.114	28.395	-0.139	-0.116
-323.099	800.000	-0.021	-0.083
-322.085	-200.000	-0.016	-0.080
-321.070	-122.206	0.388	0.063
-320.056	-42.239	0.162	0.082
-319.041	65.417	-0.100	0.100
-318.026	800.000	0.079	0.272
-317.012	-57.385	0.067	0.029
-315.997	55.609	-0.042	-0.041
-314.983	50.324	-0.199	-0.186
-313.968	800.000	-0.054	-0.177
-312.953	-200.000	0.019	-0.274
-311.939	-200.000	0.002	-0.142
-310.924	128.259	-0.208	-0.263
-309.910	381.973	-0.094	0.193
-308.895	713.117	0.100	0.264
-307.880	-60.230	0.246	0.104
-306.866	293.914	0.050	-0.090
-305.851	-68.238	-0.111	-0.043
-304.837	-84.304	0.257	-0.081
-303.822	-126.330	-0.065	-0.010
-302.807	800.000	-0.045	0.181
-301.793	-84.952	-0.181	-0.056
-300.778	355.236	-0.071	0.140
-299.764	-200.000	0.005	-0.084
-298.749	-200.000	0.023	-0.347
-297.735	800.000	-0.035	-0.131
-296.720	-145.970	-0.076	0.007
-295.705	-104.195	-0.210	0.048
-294.691	-79.029	0.449	0.151
-293.676	-142.534	0.312	-0.030
-292.662	-200.000	-0.004	0.175
-291.647	-200.000	-0.005	0.061
-290.632	-77.717	-0.268	0.092
-289.618	-1.668	-0.117	0.082
-288.603	427.692	0.135	0.288
-287.589	357.105	0.131	0.259
-286.574	-84.875	-0.188	0.058
-285.559	254.494	-0.174	0.295
-284.545	-113.082	0.214	0.042
-283.530	156.005	0.166	0.227
-282.516	800.000	0.128	0.416
-281.501	-200.000	0.003	-0.323
-280.486	441.437	-0.103	-0.223
-279.472	182.472	0.278	0.406
-278.457	-152.237	-0.424	0.030
-277.443	-159.765	0.276	-0.015
-276.428	800.000	-0.046	0.167
-275.413	-200.000	0.035	0.212
-274.399	1.421	0.326	-0.232
-273.384	279.592	-0.086	0.152
-272.370	-200.000	0.011	-0.099
-271.355	800.000	-0.031	-0.131
-270.340	358.972	0.115	-0.228
-269.326	-58.478	-0.188	0.081
-268.311	-138.411	0.158	-0.017
-267.297	-111.190	0.190	0.039
-266.282	-16.482	-0.259	0.163
-265.267	374.450	-0.034	0.069
-264.253	800.000	0.017	-0.054
-263.238	182.420	0.230	0.335
-262.224	293.532	-0.030	0.055
-261.209	800.000	0.061	0.227
-260.195	108.060	-0.111	0.131
-259.180	119.953	-0.239	0.293
-258.165	14.009	0.157	0.121
-257.151	-56.433	-0.130	0.057
-256.136	800.000	0.079	-0.281
-255.122	-121.539	0.288	0.047
-254.107	217.669	-0.132	-0.208
-253.092	-114.336	-0.087	0.017
-252.078	-200.000	-0.041	0.314
-251.063	413.089	0.112	-0.235
-250.049	-187.764	-0.092	-0.001
-249.034	170.617	0.181	-0.257
-248.019	315.883	0.077	-0.143
-247.005	-40.094	-0.119	-0.061
-245.990	419.209	-0.108	-0.229
-244.976	8.744	0.277	-0.207
-243.961	-1.642	0.102	0.071
-242.946	355.853	0.099	-0.196
-241.932	27.498	0.120	-0.100
-240.917	-95.038	-0.313	-0.084
-239.903	-200.000	0.016	0.100
-238.888	389.174	0.116	-0.238
-237.873	397.360	-0.123	0.255
-236.859	286.768	0.132	0.236
-235.844	-22.369	0.163	-0.098
-234.830	70.352	-0.076	0.078
-233.815	192.950	0.225	-0.337
-232.800	176.069	-0.213	-0.307
-231.786	-131.764	0.237	-0.031
-230.771	-39.679	0.189	0.098
-229.757	-113.436	0.159	-0.031
-228.742	525.715	-0.104	-0.241
-227.727	4.925	-0.144	-0.105
-226.713	-68.789	-0.122	0.047
-225.698	623.013	0.076	0.190
-224.684	380.962	0.072	-0.146
-223.669	247.019	-0.188	-0.314
-222.655	205.485	-0.089	0.137
-221.640	-31.782	0.186	0.103
-220.625	39.754	-0.090	-0.080
-219.611	-44.070	0.270	0.134
-218.596	-166.016	0.164	-0.007
-217.582	-200.000	0.006	-0.148
-216.567	-168.288	-0.153	0.006
-215.552	-200.000	-0.001	-0.035
-214.538	4.778	0.217	0.158
-213.523	-200.000	0.007	-0.032
-212.509	-80.093	0.207	0.069
-211.494	45.027	0.126	0.114
-210.479	48.381	0.178	0.165
-209.465	-48.119	0.284	0.136
-208.450	-31.900	-0.114	-0.063
-207.436	-200.000	-0.034	0.184
-206.421	67.150	0.072	0.073
-205.406	48.013	-0.159	-0.147
-204.392	348.038	0.125	-0.244
-203.377	-56.235	0.308	-0.135
-202.363	749.393	0.081	0.217
-201.348	-200.000	0.153	-0.001
-200.333	185.474	-0.110	-0.161
-199.319	799.266	0.167	-0.455
-198.304	-105.938	0.034	-0.008
-197.290	86.173	0.185	-0.202
-196.275	800.000	-0.107	-0.301
-195.260	-158.267	0.134	0.008
-194.246	-123.424	-0.133	0.021
-193.231	168.932	-0.072	-0.101
-192.217	-200.000	0.057	-0.292
-191.202	-200.000	-0.024	-0.216
-190.187	380.315	-0.184	-0.373
-189.173	-200.000	0.012	-0.362
-188.158	-147.550	0.186	-0.016
-187.144	-200.000	-0.012	-0.054
-186.129	-200.000	0.033	-0.372
-185.114	391.450	-0.143	-0.293
-184.100	1.001	0.320	0.227
-183.085	201.398	-0.094	0.143
-182.071	-149.031	0.345	-0.027
-181.056	-13.814	-0.131	-0.084
-180.042	-92.398	-0.432	-0.120
-179.027	436.197	-0.044	0.095
-178.012	-87.084	0.123	-0.037
-176.998	-163.789	0.045	-0.002
-175.983	318.297	0.106	-0.199
-174.969	35.986	-0.100	0.087
-173.954	-24.378	-0.098	-0.058
-172.939	-104.778	-0.052	0.012
-171.925	-101.723	0.111	-0.026
-170.910	760.133	0.034	0.092
-169.896	-111.959	0.095	0.019
-168.881	211.462	-0.109	0.169
-167.866	-14.037	0.172	0.109
-166.852	-200.000	0.029	0.212
-165.837	353.588	-0.095	0.186
-164.823	-16.633	-0.090	-0.057
-163.808	302.209	0.220	0.402
-162.793	-200.000	0.021	0.138
-161.779	800.000	0.034	-0.096
-160.764	165.828	-0.349	-0.488
-159.750	-146.994	-0.189	-0.016
-158.735	-68.152	0.166	0.064
-157.720	540.292	0.125	-0.293
-156.706	141.261	0.207	-0.270
-155.691	-200.000	-0.018	0.096
-154.677	-86.652	-0.418	0.126
-153.662	-88.012	-0.192	-0.057
-152.647	-27.413	0.333	0.191
-151.633	20.318	0.104	-0.083
-150.618	-3.024	-0.144	-0.099
-149.604	457.416	0.020	-0.044
-148.589	130.302	0.237	0.300
-147.574	32.205	0.029	0.025
-146.560	-200.000	-0.061	0.316
-145.545	357.723	0.073	0.143
-144.531	571.033	0.063	0.151
-143.516	90.213	-0.050	0.055
-142.502	-45.518	-0.218	-0.106
-141.487	220.443	0.027	0.042
-140.472	548.207	-0.095	-0.224
-139.458	-78.320	-0.285	0.096
-138.443	800.000	-0.047	-0.155
-137.429	755.788	-0.027	0.073
-136.414	-1.386	-0.248	0.172
-135.399	-133.786	-0.436	0.054
-134.385	534.530	0.105	0.246
-133.370	-93.398	0.209	0.057
-132.356	191.222	0.227	0.336
-131.341	-155.481	-0.164	0.010
-130.326	-110.879	0.185	0.038
-129.312	147.604	0.197	0.262
-128.297	-126.151	-0.126	-0.019
-127.283	29.289	0.443	-0.371
-126.268	800.000	-0.043	-0.134
-125.253	-92.730	-0.138	-0.038
-124.239	3.824	-0.036	0.026
-123.224	104.825	0.099	0.115
-122.210	-79.756	0.153	0.051
