DTS Sentinel unit serial number:	SN413079Multiplexer serial number:	ORYXHardware model number:	OX4-SRSoftware version number:	ORYX F/W v4.00 Oryx Data Collector v3.7.2.0data status	okinstallation	princeton_trtdifferential loss correction	single-endedforward channel	channel 3reverse channel	N/Adate	2019/09/14time	02:44:35forward acquisition time	60.00reverse acquisition time	0.00gamma	496.2192k internal	0.2339k external	0.2339temperature offset calibration	1.0052default loss term (dB/km)	0.3790temperature slope calibration	1.0000multiplexer offset coefficient	1.0000multiplexer slope coefficient	1.0000fibre end	0.00T internal ref (°C)	26.55T ext. ref 1 (°C)	3.22T ext. ref 2 (°C)	21.61length (m)	temperature (°C)	Stokes	anti-Stokes-747.200	-73.783	-0.115	0.042
-746.185	-68.330	-0.120	-0.047
-745.171	775.412	-0.028	0.076
-744.156	-109.802	-0.203	0.043
-743.142	695.079	-0.021	0.056
-742.127	-5.373	0.127	-0.088
-741.112	55.913	0.325	0.316
-740.098	148.293	0.097	-0.131
-739.083	18.398	-0.113	-0.090
-738.069	677.121	0.098	0.256
-737.054	359.717	-0.060	-0.119
-736.039	-50.604	-0.143	0.067
-735.025	-63.733	0.153	0.063
-734.010	233.832	-0.109	-0.180
-732.996	785.427	-0.036	0.098
-731.981	-23.465	-0.180	-0.108
-730.966	-200.000	0.009	-0.291
-729.952	-200.000	-0.040	-0.373
-728.937	800.000	-0.045	0.129
-727.923	444.083	0.164	0.360
-726.908	-117.212	-0.284	-0.052
-725.894	800.000	-0.050	-0.153
-724.879	-44.010	-0.154	0.078
-723.864	163.408	0.090	-0.127
-722.850	-200.000	-0.020	-0.282
-721.835	146.752	-0.133	-0.179
-720.821	-181.301	0.057	0.001
-719.806	474.235	0.129	-0.290
-718.791	-106.330	0.251	-0.056
-717.777	713.867	0.095	0.253
-716.762	-97.222	0.398	0.104
-715.748	-88.930	0.157	-0.047
-714.733	229.051	0.123	0.200
-713.718	-200.000	0.036	-0.213
-712.704	-62.559	0.083	-0.034
-711.689	-48.091	-0.199	-0.096
-710.675	-139.038	0.187	0.020
-709.660	-64.982	-0.240	-0.097
-708.645	32.845	-0.046	0.040
-707.631	-153.545	0.175	-0.012
-706.616	-138.581	0.244	0.027
-705.602	246.072	0.096	-0.162
-704.587	-200.000	0.032	-0.308
-703.572	-200.000	0.002	0.056
-702.558	-185.869	0.074	-0.001
-701.543	-161.712	0.227	0.012
-700.529	800.000	-0.065	0.191
-699.514	2.833	0.086	0.063
-698.499	-37.767	-0.394	-0.210
-697.485	-103.268	-0.052	0.012
-696.470	800.000	-0.088	0.273
-695.456	-57.088	0.231	-0.102
-694.441	-2.401	0.229	0.160
-693.426	363.248	0.155	-0.311
-692.412	113.595	0.291	-0.354
-691.397	97.326	-0.129	-0.148
-690.383	346.620	-0.027	-0.054
-689.368	-184.710	-0.441	-0.007
-688.354	137.488	0.130	0.170
-687.339	387.701	-0.103	0.214
-686.324	27.567	-0.223	-0.187
-685.310	-135.111	-0.320	-0.039
-684.295	800.000	0.049	-0.175
-683.281	94.479	-0.089	0.101
-682.266	-117.686	-0.156	-0.028
-681.251	800.000	0.030	0.121
-680.237	228.620	0.229	-0.373
-679.222	-48.703	-0.197	-0.095
-678.208	-124.992	-0.202	0.031
-677.193	15.724	0.139	0.109
-676.178	55.151	-0.072	-0.070
-675.164	50.589	-0.174	-0.164
-674.149	748.747	-0.041	0.111
-673.135	-200.000	0.022	0.104
-672.120	86.028	-0.194	-0.214
-671.105	800.000	0.097	-0.341
-670.091	-200.000	0.012	-0.146
-669.076	86.058	-0.270	-0.297
-668.062	-73.760	0.148	-0.054
-667.047	-200.000	-0.061	0.384
-666.032	-110.118	0.326	-0.068
-665.018	267.521	0.036	-0.063
-664.003	214.516	-0.206	0.326
-662.989	-158.825	0.124	-0.007
-661.974	800.000	0.072	0.231
-660.959	-164.144	-0.432	-0.020
-659.945	-91.906	-0.177	-0.050
-658.930	-200.000	0.002	-0.192
-657.916	-2.438	0.080	-0.056
-656.901	191.465	-0.118	0.177
-655.886	-61.637	0.276	0.116
-654.872	13.148	0.099	0.076
-653.857	13.520	-0.038	0.030
-652.843	-131.861	-0.141	0.018
-651.828	-200.000	0.008	0.125
-650.814	-200.000	-0.054	0.281
-649.799	-6.925	-0.191	0.130
-648.784	190.264	-0.038	0.057
-647.770	-200.000	-0.024	0.126
-646.755	-200.000	-0.021	-0.211
-645.741	-43.318	0.217	0.110
-644.726	-180.986	-0.187	0.004
-643.711	90.943	0.142	-0.159
-642.697	40.147	-0.150	-0.134
-641.682	-0.948	-0.028	-0.020
-640.668	800.000	0.057	0.182
-639.653	-64.241	0.146	-0.060
-638.638	-89.763	0.427	0.125
-637.624	-87.170	-0.114	-0.034
-636.609	-178.166	-0.130	-0.003
-635.595	-100.375	0.236	0.059
-634.580	800.000	-0.042	0.168
-633.565	-53.619	-0.186	0.085
-632.551	302.590	0.092	-0.170
-631.536	193.176	0.045	0.067
-630.522	-107.419	-0.172	-0.038
-629.507	51.872	0.179	0.170
-628.492	-163.381	0.178	0.008
-627.478	-200.000	-0.030	-0.143
-626.463	-200.000	-0.002	0.191
-625.449	85.206	-0.053	-0.058
-624.434	166.906	0.197	-0.279
-623.419	-99.061	0.285	-0.072
-622.405	253.086	-0.136	-0.231
-621.390	-79.401	0.518	-0.175
-620.376	108.912	-0.036	0.043
-619.361	-95.493	-0.124	0.033
-618.346	-200.000	0.024	-0.239
-617.332	-26.848	0.129	-0.075
-616.317	336.186	-0.083	0.162
-615.303	-142.085	-0.496	-0.049
-614.288	800.000	-0.037	0.147
-613.273	-200.000	-0.063	0.371
-612.259	-60.547	-0.300	-0.127
-611.244	-119.825	0.097	-0.017
-610.230	304.296	-0.122	0.226
-609.215	-123.650	-0.084	-0.013
-608.201	-90.725	-0.406	0.117
-607.186	-94.361	-0.161	-0.044
-606.171	196.433	-0.147	0.223
-605.157	39.548	-0.172	0.154
-604.142	-200.000	-0.026	-0.236
-603.128	-59.716	-0.249	0.106
-602.113	-84.712	-0.259	0.081
-601.098	148.248	0.228	0.306
-600.084	-44.607	-0.046	-0.023
-599.069	186.292	0.131	-0.194
-598.055	191.595	-0.104	-0.156
-597.040	158.545	-0.169	-0.234
-596.025	201.917	0.065	-0.100
-595.011	-86.307	0.252	0.077
-593.996	-200.000	-0.057	-0.368
-592.982	-200.000	0.011	0.194
-591.967	-154.113	-0.245	-0.017
-590.952	73.011	-0.146	0.152
-589.938	-147.606	-0.246	0.021
-588.923	-51.573	-0.153	0.071
-587.909	-25.128	0.192	0.113
-586.894	-74.341	0.054	0.020
-585.879	382.304	-0.070	-0.143
-584.865	104.004	0.207	0.243
-583.850	-200.000	0.011	-0.137
-582.836	-78.649	0.225	-0.077
-581.821	-99.735	-0.292	0.073
-580.806	304.350	-0.073	0.136
-579.792	-123.218	0.165	0.026
-578.777	-130.903	-0.131	-0.017
-577.763	123.549	0.223	-0.279
-576.748	57.490	-0.068	-0.066
-575.733	800.000	0.131	0.419
-574.719	553.713	-0.122	0.292
-573.704	-91.325	-0.423	-0.121
-572.690	78.601	-0.155	-0.165
-571.675	782.680	0.037	-0.100
-570.661	135.480	-0.359	0.466
-569.646	-200.000	-0.012	-0.088
-568.631	44.078	0.321	0.293
-567.617	49.851	0.081	0.076
-566.602	-80.060	0.064	-0.021
-565.588	172.851	-0.088	-0.126
-564.573	50.176	0.174	-0.164
-563.558	60.041	0.167	-0.165
-562.544	37.780	-0.152	0.134
-561.529	779.077	0.068	0.186
-560.515	-111.099	0.431	0.088
-559.500	800.000	0.075	0.277
-558.485	-66.275	-0.342	0.136
-557.471	-200.000	0.018	-0.133
-556.456	-200.000	0.042	-0.290
-555.442	7.355	-0.366	-0.272
-554.427	113.173	0.011	-0.013
-553.412	-200.000	0.017	0.259
-552.398	-121.262	0.386	0.064
-551.383	49.232	0.323	-0.302
-550.369	75.336	0.261	-0.274
-549.354	-90.459	-0.175	0.051
-548.339	800.000	0.052	-0.146
-547.325	-149.296	-0.326	-0.026
-546.310	-101.421	-0.166	-0.040
-545.296	-200.000	0.001	-0.040
-544.281	97.217	-0.138	0.157
-543.266	-154.256	-0.385	0.026
-542.252	-17.560	-0.073	0.046
-541.237	344.227	-0.054	0.105
-540.223	361.215	-0.042	-0.084
-539.208	12.957	-0.033	-0.026
-538.193	-166.042	-0.240	0.010
-537.179	469.240	-0.122	-0.273
-536.164	-29.070	-0.163	-0.093
-535.150	-138.448	0.269	0.029
-534.135	800.000	-0.073	0.224
-533.121	-70.038	0.213	0.081
-532.106	3.035	-0.186	0.135
-531.091	-200.000	0.026	0.335
-530.077	-200.000	0.007	-0.211
-529.062	-190.892	-0.132	0.001
-528.048	83.756	0.087	-0.095
-527.033	-136.462	-0.211	0.024
-526.018	-147.462	-0.302	-0.025
-525.004	271.023	-0.079	0.139
-523.989	-179.071	-0.109	-0.002
-522.975	-71.886	-0.341	0.126
-521.960	58.214	-0.100	-0.097
-520.945	88.798	-0.121	-0.134
-519.931	-90.783	-0.015	0.004
-518.916	800.000	0.083	-0.289
-517.902	-14.955	-0.168	0.107
-516.887	800.000	0.039	-0.132
-515.872	331.264	-0.178	0.342
-514.858	153.519	0.067	-0.091
-513.843	-200.000	-0.008	0.336
-512.829	800.000	-0.104	-0.345
-511.814	-200.000	-0.016	0.144
-510.799	159.695	0.201	-0.278
-509.785	-97.960	0.057	0.015
-508.770	255.434	0.203	-0.346
-507.756	-39.742	-0.237	-0.123
-506.741	-7.562	0.243	-0.164
-505.726	211.425	-0.177	-0.277
-504.712	-130.089	-0.278	-0.038
-503.697	800.000	0.062	-0.191
-502.683	54.643	0.106	-0.101
-501.668	45.203	-0.164	0.150
-500.653	179.206	0.201	-0.292
-499.639	-37.320	0.064	0.034
-498.624	178.403	0.199	0.289
-497.610	198.101	-0.185	-0.280
-496.595	-136.525	-0.113	-0.013
-495.581	-44.058	0.102	-0.051
-494.566	391.282	-0.069	-0.142
-493.551	-82.467	-0.278	-0.090
-492.537	-125.746	0.128	-0.019
-491.522	-40.986	-0.080	-0.041
-490.508	-113.640	0.467	0.091
-489.493	-200.000	0.004	0.142
-488.478	797.005	0.047	0.128
-487.464	284.458	0.057	0.101
-486.449	199.530	-0.072	-0.110
-485.435	-0.064	-0.087	0.061
-484.420	-159.421	0.229	-0.013
-483.405	-30.038	0.296	0.167
-482.391	-200.000	0.017	-0.242
-481.376	-200.000	-0.031	0.205
-480.362	-200.000	0.018	0.117
-479.347	138.633	-0.106	-0.138
-478.332	-0.130	-0.175	0.124
-477.318	17.813	-0.086	0.068
-476.303	59.262	0.137	-0.134
-475.289	-23.914	-0.063	0.037
-474.274	-200.000	0.000	-0.059
-473.259	-145.516	-0.116	0.010
-472.245	-61.462	-0.140	-0.058
-471.230	-16.245	0.219	-0.138
-470.216	31.014	0.129	-0.110
-469.201	-57.223	-0.063	0.027
-468.186	-29.344	-0.218	-0.124
-467.172	800.000	0.063	-0.177
-466.157	-92.594	-0.389	0.108
-465.143	-200.000	0.036	0.188
-464.128	245.492	0.130	0.217
-463.113	800.000	-0.056	-0.198
-462.099	-200.000	-0.019	-0.335
-461.084	626.231	-0.075	0.188
-460.070	172.521	0.158	-0.225
-459.055	475.815	0.131	0.294
-458.040	-137.666	-0.110	-0.012
-457.026	59.799	-0.142	-0.139
-456.011	-200.000	0.030	-0.138
-454.997	800.000	0.037	-0.128
-453.982	100.867	-0.079	-0.091
-452.968	12.814	0.192	0.147
-451.953	230.110	-0.161	0.261
-450.938	137.724	-0.370	0.480
-449.924	-193.098	0.096	-0.001
-448.909	-189.927	0.086	-0.001
-447.895	406.592	-0.119	-0.249
-446.880	-41.837	-0.181	0.092
-445.865	48.990	-0.176	0.164
-444.851	55.418	-0.117	-0.112
-443.836	-96.410	-0.391	0.103
-442.822	-107.815	-0.203	0.044
-441.807	3.924	-0.307	-0.222
-440.792	-200.000	-0.013	0.197
-439.778	-177.931	0.148	-0.004
-438.763	-175.819	-0.288	0.008
-437.749	55.030	-0.055	-0.052
-436.734	108.694	-0.133	-0.157
-435.719	-49.902	-0.212	0.100
-434.705	512.155	-0.232	-0.535
-433.690	-10.992	0.255	-0.166
-432.676	71.296	-0.201	-0.207
-431.661	800.000	-0.052	-0.152
-430.646	405.300	-0.095	-0.199
-429.632	-132.506	-0.427	-0.054
-428.617	-181.489	-0.388	0.007
-427.603	-106.957	0.280	0.061
-426.588	-200.000	-0.019	-0.092
-425.573	299.454	0.020	-0.036
-424.559	-14.519	-0.121	0.077
-423.544	415.732	-0.029	-0.061
-422.530	-200.000	-0.015	-0.064
-421.515	542.655	0.045	0.106
-420.500	418.879	-0.122	0.258
-419.486	99.077	0.135	0.154
-418.471	617.193	-0.123	0.306
-417.457	-13.060	-0.062	-0.040
-416.442	-200.000	0.023	-0.127
-415.428	19.763	0.236	0.189
-414.413	-34.045	0.226	0.123
-413.398	-200.000	0.000	0.102
-412.384	501.484	0.087	-0.200
-411.369	90.446	0.248	0.275
-410.355	800.000	-0.030	0.093
-409.340	317.690	0.085	0.159
-408.325	-12.092	0.314	-0.204
-407.311	115.622	-0.231	0.280
-406.296	-78.822	0.135	0.045
-405.282	-200.000	-0.034	0.196
-404.267	-75.817	-0.436	0.153
-403.252	-200.000	-0.002	0.301
-402.238	-94.156	-0.304	-0.083
-401.223	-200.000	-0.068	0.312
-400.209	800.000	0.014	-0.058
-399.194	206.949	-0.116	-0.179
-398.179	-200.000	0.010	0.254
-397.165	725.784	0.053	0.140
-396.150	174.838	0.103	-0.147
-395.136	-200.000	-0.018	-0.113
-394.121	-21.040	0.245	-0.148
-393.106	-135.460	0.235	0.028
-392.092	-150.971	0.154	-0.011
-391.077	455.932	-0.196	-0.430
-390.063	-112.826	-0.057	-0.011
-389.048	800.000	-0.007	-0.023
-388.033	108.393	-0.131	0.155
-387.019	157.628	0.095	0.130
-386.004	62.170	0.166	-0.164
-384.990	764.302	-0.063	0.169
-383.975	183.563	0.207	0.303
-382.960	17.241	0.268	-0.210
-381.946	95.311	0.115	-0.129
-380.931	800.000	0.095	0.291
-379.917	436.102	0.140	-0.301
-378.902	160.976	-0.111	-0.153
-377.888	482.641	0.042	0.095
-376.873	80.332	0.245	-0.261
-375.858	-129.088	0.126	-0.017
-374.844	-200.000	-0.029	0.188
-373.829	8.829	0.233	0.174
-372.815	800.000	-0.124	0.526
-371.800	-200.000	0.021	-0.129
-370.785	-75.242	0.130	-0.046
-369.771	56.350	0.278	-0.267
-368.756	-74.548	0.188	0.067
-367.742	392.915	0.010	-0.020
-366.727	-200.000	-0.042	0.261
-365.712	470.989	-0.120	-0.267
-364.698	547.910	0.023	-0.054
-363.683	-74.312	-0.092	-0.033
-362.669	4.989	0.100	-0.073
-361.654	800.000	-0.046	0.131
-360.639	88.107	-0.114	0.125
-359.625	-134.850	0.221	0.026
-358.610	166.955	0.169	0.236
-357.596	303.314	-0.064	0.118
-356.581	12.073	0.325	-0.247
-355.566	-11.155	0.079	-0.051
-354.552	-94.278	0.186	0.050
-353.537	-139.524	0.115	0.012
-352.523	-48.795	0.037	-0.018
-351.508	800.000	0.023	-0.093
-350.493	23.728	0.234	-0.191
-349.479	-146.392	0.124	-0.011
-348.464	-191.660	-0.252	-0.002
-347.450	-42.627	0.095	-0.048
-346.435	-200.000	-0.052	0.327
-345.420	-69.649	-0.100	0.038
-344.406	-200.000	0.051	0.241
-343.391	59.866	-0.125	-0.122
-342.377	-25.694	-0.188	0.110
-341.362	-200.000	0.004	0.299
-340.348	118.975	-0.178	-0.217
-339.333	-124.160	-0.163	-0.025
-338.318	800.000	0.082	0.290
-337.304	-200.000	-0.023	-0.123
-336.289	-44.600	0.134	-0.066
-335.275	-200.000	-0.021	-0.232
-334.260	362.416	0.159	-0.316
-333.245	-200.000	0.040	-0.338
-332.231	-200.000	-0.024	-0.378
-331.216	-18.737	0.065	-0.040
-330.202	145.655	0.170	-0.225
-329.187	-200.000	0.042	-0.236
-328.172	30.621	-0.044	-0.037
-327.158	250.597	0.042	-0.070
-326.143	39.788	0.150	-0.133
-325.129	56.729	0.331	-0.318
-324.114	-75.497	0.093	0.033
-323.099	60.632	0.078	0.077
-322.085	93.127	0.139	0.155
-321.070	4.123	-0.338	0.244
-320.056	-90.014	-0.225	0.065
-319.041	800.000	-0.020	0.058
-318.026	-53.215	-0.454	0.206
-317.012	217.018	0.141	0.221
-315.997	-100.723	0.166	-0.040
-314.983	-57.159	-0.051	0.022
-313.968	229.057	0.155	0.250
-312.953	-102.107	0.125	0.030
-311.939	800.000	0.042	-0.155
-310.924	643.252	-0.079	-0.198
-309.910	800.000	-0.037	0.135
-308.895	-42.859	0.465	-0.233
-307.880	58.526	0.222	0.215
-306.866	448.780	-0.068	-0.148
-305.851	-89.316	-0.217	0.063
-304.837	-200.000	0.030	0.180
-303.822	498.549	0.115	-0.262
-302.807	-200.000	-0.029	-0.329
-301.793	271.109	-0.037	-0.063
-300.778	-142.679	-0.169	-0.016
-299.764	-200.000	0.062	-0.295
-298.749	115.242	0.173	0.209
-297.735	-200.000	-0.005	-0.065
-296.720	-90.905	-0.165	-0.047
-295.705	-127.966	-0.283	0.040
-294.691	-62.692	0.191	-0.078
-293.676	-200.000	-0.075	-0.357
-292.662	305.649	-0.082	-0.150
-291.647	-16.997	-0.123	0.077
-290.632	-187.296	-0.261	-0.003
-289.618	-4.982	0.070	0.047
-288.603	-164.039	-0.346	0.016
-287.589	49.986	0.102	0.094
-286.574	3.117	0.262	0.188
-285.559	612.936	-0.130	0.322
-284.545	-200.000	-0.016	-0.275
-283.530	-49.171	0.095	-0.045
-282.516	800.000	0.054	-0.216
-281.501	800.000	-0.111	-0.335
-280.486	77.404	-0.108	-0.113
-279.472	800.000	-0.060	0.220
-278.457	800.000	-0.033	-0.111
-277.443	-146.770	-0.314	0.027
-276.428	-167.647	0.188	-0.007
-275.413	9.484	-0.366	0.273
-274.399	708.639	-0.074	-0.192
-273.384	-28.863	-0.343	0.194
-272.370	546.396	-0.041	0.096
-271.355	-107.534	0.173	0.037
-270.340	222.402	0.076	0.120
-269.326	-79.438	0.300	-0.100
-268.311	232.597	0.226	-0.365
-267.297	-109.417	-0.219	-0.046
-266.282	-142.156	0.327	0.032
-265.267	-169.690	-0.053	-0.002
-264.253	-200.000	0.003	0.019
-263.238	800.000	-0.078	0.276
-262.224	36.715	-0.240	0.208
-261.209	-183.332	0.486	0.008
-260.195	-200.000	0.039	0.543
-259.180	-200.000	-0.001	0.094
-258.165	-3.905	0.223	-0.152
-257.151	-95.809	0.059	-0.016
-256.136	800.000	-0.023	-0.076
-255.122	-62.147	-0.155	-0.064
-254.107	174.788	0.162	0.231
-253.092	8.849	0.209	0.155
-252.078	8.105	0.241	0.178
-251.063	-15.821	-0.242	-0.152
-250.049	-178.588	-0.225	-0.005
-249.034	-109.625	-0.069	-0.014
-248.019	-200.000	-0.048	0.287
-247.005	-42.431	-0.275	0.138
-245.990	-19.068	0.052	-0.032
-244.976	311.261	0.159	0.294
-243.961	-44.763	0.226	0.111
-242.946	-200.000	-0.002	-0.184
-241.932	19.603	0.085	-0.067
-240.917	-162.481	0.289	-0.014
-239.903	-200.000	-0.016	-0.073
-238.888	800.000	0.049	-0.149
-237.873	800.000	0.056	-0.193
-236.859	-59.571	0.172	0.073
-235.844	-144.678	0.197	0.018
-234.830	464.767	0.051	-0.112
-233.815	800.000	0.057	0.199
-232.800	-61.119	0.335	-0.139
-231.786	-200.000	0.003	0.364
-230.771	41.971	0.242	0.216
-229.757	-92.438	0.374	0.103
-228.742	235.236	0.193	0.313
-227.727	86.585	0.092	-0.099
-226.713	145.256	0.232	-0.306
-225.698	463.340	0.016	-0.034
-224.684	489.016	-0.116	0.261
-223.669	160.005	0.068	0.094
-222.655	800.000	-0.025	0.086
-221.640	-42.380	-0.133	0.067
-220.625	38.565	-0.133	-0.116
-219.611	162.059	0.051	0.071
-218.596	40.263	-0.043	-0.038
-217.582	-200.000	0.084	0.410
-216.567	18.239	0.205	0.161
-215.552	354.726	-0.122	-0.239
-214.538	-126.531	0.524	0.076
-213.523	2.553	-0.164	-0.117
-212.509	112.998	-0.134	-0.160
-211.494	800.000	-0.106	0.378
-210.479	800.000	0.044	0.131
-209.465	77.015	0.086	0.090
-208.450	-120.509	0.313	-0.052
-207.436	-33.349	-0.238	0.130
-206.421	-200.000	-0.016	0.244
-205.406	143.889	-0.180	-0.236
-204.392	-200.000	0.001	-0.210
-203.377	239.234	-0.141	-0.231
-202.363	55.730	-0.117	0.111
-201.348	800.000	0.014	0.052
-200.333	800.000	-0.076	0.210
-199.319	82.049	0.104	-0.111
-198.304	34.546	-0.182	0.156
-197.290	-200.000	0.006	0.032
-196.275	-200.000	0.029	0.221
-195.260	124.963	0.107	-0.132
-194.246	134.623	0.124	0.158
-193.231	97.921	-0.127	0.144
-192.217	800.000	0.042	-0.173
-191.202	-38.681	0.240	-0.124
-190.187	-166.540	0.171	0.007
-189.173	-62.601	0.337	-0.137
-188.158	149.529	0.039	-0.052
-187.144	493.085	0.107	0.240
-186.129	-200.000	-0.006	-0.089
-185.114	329.229	-0.200	-0.376
-184.100	800.000	0.052	0.221
-183.085	-155.604	0.215	-0.014
-182.071	-158.836	-0.223	0.013
-181.056	-28.437	-0.142	0.081
-180.042	454.359	-0.095	0.205
-179.027	416.470	-0.052	0.108
-178.012	16.689	0.149	-0.116
-176.998	281.780	0.304	-0.534
-175.983	-109.465	-0.105	0.022
-174.969	416.187	0.109	-0.227
-173.954	-200.000	-0.038	-0.573
-172.939	-200.000	0.011	0.051
-171.925	-48.784	0.268	0.126
-170.910	-137.572	0.108	0.012
-169.896	507.849	0.081	-0.185
-168.881	-97.256	0.238	-0.061
-167.866	-77.701	0.297	-0.101
-166.852	145.519	0.048	-0.063
-165.837	14.271	0.373	0.285
-164.823	-200.000	-0.025	-0.182
-163.808	58.134	-0.119	-0.115
-162.793	-200.000	-0.003	-0.364
-161.779	74.572	-0.035	-0.036
-160.764	91.870	-0.116	-0.128
-159.750	15.090	-0.170	-0.131
-158.735	-200.000	0.037	-0.212
-157.720	33.323	-0.113	0.096
-156.706	-200.000	-0.054	0.327
-155.691	553.265	0.046	0.108
-154.677	297.701	-0.100	0.180
-153.662	-7.256	0.260	0.173
-152.647	52.665	-0.175	0.164
-151.633	-47.648	-0.297	-0.141
-150.618	-11.684	-0.406	0.261
-149.604	768.924	0.100	-0.266
-148.589	-200.000	0.029	0.244
-147.574	445.969	-0.123	-0.264
-146.560	-200.000	-0.046	-0.296
-145.545	-137.978	0.313	-0.034
-144.531	-131.151	0.052	0.007
-143.516	-71.465	0.230	-0.084
-142.502	-117.862	0.729	-0.128
-141.487	230.661	0.079	-0.127
-140.472	-96.558	-0.147	-0.038
-139.458	-200.000	-0.007	0.254
-138.443	800.000	-0.076	0.255
-137.429	283.092	-0.138	0.243
-136.414	110.783	-0.135	-0.159
-135.399	-15.346	-0.493	-0.309
-134.385	-200.000	0.056	-0.365
-133.370	-12.141	-0.268	-0.172
-132.356	182.480	-0.200	0.289
-131.341	-88.199	0.156	0.046
-130.326	-5.570	-0.427	0.287
-129.312	-39.588	-0.330	0.169
-128.297	14.431	0.179	-0.137
-127.283	238.329	-0.080	-0.130
-126.268	-200.000	0.039	-0.259
-125.253	-200.000	-0.014	0.102
-124.239	590.778	0.143	-0.346
-123.224	-109.079	0.208	-0.043
-122.210	-200.000	0.004	0.052
