DTS Sentinel unit serial number:	SN413079Multiplexer serial number:	ORYXHardware model number:	OX4-SRSoftware version number:	ORYX F/W v4.00 Oryx Data Collector v3.7.2.0data status	okinstallation	princeton_trtdifferential loss correction	single-endedforward channel	channel 3reverse channel	N/Adate	2019/09/14time	02:08:34forward acquisition time	60.00reverse acquisition time	0.00gamma	496.2192k internal	0.2339k external	0.2339temperature offset calibration	1.0052default loss term (dB/km)	0.3790temperature slope calibration	1.0000multiplexer offset coefficient	1.0000multiplexer slope coefficient	1.0000fibre end	0.00T internal ref (°C)	26.50T ext. ref 1 (°C)	3.22T ext. ref 2 (°C)	21.48length (m)	temperature (°C)	Stokes	anti-Stokes-747.200	18.861	-0.316	0.254
-746.185	-29.701	-0.129	0.074
-745.171	-200.000	-0.002	-0.163
-744.156	-130.335	0.246	0.033
-743.142	-92.477	-0.446	-0.126
-742.127	122.893	-0.124	-0.155
-741.112	-130.898	-0.020	0.003
-740.098	599.847	-0.115	0.286
-739.083	343.024	-0.133	0.261
-738.069	-104.521	0.196	0.045
-737.054	2.172	-0.040	0.029
-736.039	-4.063	-0.164	-0.114
-735.025	-123.703	0.305	0.048
-734.010	43.604	-0.119	0.109
-732.996	18.738	-0.321	-0.258
-731.981	-200.000	0.024	0.193
-730.966	431.092	-0.176	0.381
-729.952	229.024	-0.112	-0.183
-728.937	-38.746	0.056	-0.030
-727.923	-46.424	-0.245	0.121
-726.908	-16.843	-0.261	-0.165
-725.894	800.000	0.051	-0.151
-724.879	-104.864	0.214	0.049
-723.864	433.098	-0.094	0.205
-722.850	-58.112	0.236	0.103
-721.835	-200.000	-0.039	0.454
-720.821	-60.849	-0.253	-0.107
-719.806	-35.499	-0.124	-0.067
-718.791	124.454	-0.012	0.015
-717.777	800.000	0.044	0.133
-716.762	90.822	0.112	0.125
-715.748	-111.886	-0.231	0.047
-714.733	57.841	-0.036	0.035
-713.718	25.168	-0.183	0.152
-712.704	-200.000	-0.021	-0.204
-711.689	430.925	-0.044	0.096
-710.675	149.984	0.147	0.199
-709.660	45.793	0.225	0.208
-708.645	-200.000	-0.012	0.274
-707.631	276.942	0.019	0.034
-706.616	-71.863	0.303	-0.113
-705.602	-200.000	-0.010	0.401
-704.587	-14.926	0.226	0.145
-703.572	378.112	-0.081	-0.165
-702.558	48.822	-0.164	0.154
-701.543	202.108	0.115	-0.178
-700.529	181.401	-0.260	0.383
-699.514	-74.440	0.235	-0.085
-698.499	-41.138	0.250	0.129
-697.485	-12.608	-0.245	0.160
-696.470	23.216	0.067	-0.055
-695.456	-86.453	-0.082	0.025
-694.441	142.906	0.118	-0.157
-693.426	359.138	0.094	-0.187
-692.412	-3.454	-0.206	0.143
-691.397	-200.000	0.024	0.203
-690.383	800.000	0.016	0.056
-689.368	80.206	-0.223	-0.240
-688.354	68.823	0.112	-0.115
-687.339	-200.000	-0.009	-0.068
-686.324	-82.990	-0.220	0.071
-685.310	-89.032	0.049	0.014
-684.295	-38.121	-0.362	-0.192
-683.281	-49.288	-0.118	-0.057
-682.266	-130.736	-0.276	0.037
-681.251	-148.442	0.376	0.031
-680.237	-114.524	-0.137	0.026
-679.222	-69.792	0.147	0.056
-678.208	-200.000	0.032	-0.222
-677.193	-53.103	0.135	0.062
-676.178	480.503	0.076	0.173
-675.164	140.496	-0.072	-0.095
-674.149	-191.203	0.304	-0.003
-673.135	174.447	0.207	0.300
-672.120	-110.328	0.443	-0.092
-671.105	-200.000	-0.053	-0.356
-670.091	-200.000	0.027	-0.145
-669.076	720.939	-0.153	-0.407
-668.062	-200.000	-0.011	0.109
-667.047	259.586	-0.097	-0.168
-666.032	78.214	0.215	0.230
-665.018	140.110	-0.146	0.192
-664.003	-200.000	-0.021	-0.155
-662.989	-200.000	-0.019	0.309
-661.974	74.835	-0.120	-0.126
-660.959	0.512	-0.138	-0.099
-659.945	-200.000	0.038	-0.177
-658.930	-165.104	0.292	-0.013
-657.916	-3.533	-0.105	0.073
-656.901	284.241	0.035	-0.063
-655.886	-142.435	0.205	0.020
-654.872	-200.000	0.031	-0.234
-653.857	-60.373	0.378	-0.161
-652.843	106.170	-0.158	-0.187
-651.828	-99.733	-0.229	-0.057
-650.814	511.413	0.077	0.180
-649.799	-63.523	0.311	-0.128
-648.784	-200.000	0.021	0.274
-647.770	19.317	0.156	-0.125
-646.755	-78.666	-0.184	-0.063
-645.741	-200.000	0.106	-0.000
-644.726	-118.401	0.241	0.043
-643.711	-200.000	0.018	0.318
-642.697	-40.444	0.119	0.062
-641.682	-200.000	-0.009	0.438
-640.668	-200.000	-0.008	-0.176
-639.653	-123.635	-0.211	-0.033
-638.638	70.692	-0.307	0.317
-637.624	-200.000	-0.006	-0.160
-636.609	105.354	0.078	-0.092
-635.595	800.000	0.037	-0.155
-634.580	71.685	-0.108	0.112
-633.565	169.687	-0.261	-0.372
-632.551	-72.950	0.172	-0.063
-631.536	800.000	-0.028	0.109
-630.522	-200.000	0.018	0.098
-629.507	239.995	0.113	-0.189
-628.492	69.322	0.176	-0.181
-627.478	-200.000	-0.055	-0.315
-626.463	-114.643	0.236	0.045
-625.449	800.000	0.026	0.094
-624.434	-87.210	-0.213	0.064
-623.419	-200.000	0.052	0.502
-622.405	-96.848	0.101	0.026
-621.390	654.083	0.025	0.063
-620.376	-26.140	-0.244	-0.143
-619.361	-28.019	-0.176	-0.102
-618.346	-25.327	0.156	0.092
-617.332	-39.453	-0.100	0.052
-616.317	427.117	-0.040	0.087
-615.303	800.000	0.031	0.134
-614.288	-159.128	0.235	-0.013
-613.273	117.461	-0.255	-0.312
-612.259	405.159	-0.043	-0.091
-611.244	56.724	0.131	-0.127
-610.230	-165.822	-0.184	-0.008
-609.215	-164.469	-0.072	0.003
-608.201	130.562	-0.035	0.045
-607.186	800.000	0.047	0.183
-606.171	356.026	0.059	-0.117
-605.157	66.742	0.144	-0.147
-604.142	59.132	-0.274	-0.269
-603.128	-187.093	0.379	0.005
-602.113	-149.569	0.176	-0.014
-601.098	-110.623	-0.348	0.072
-600.084	649.398	-0.143	-0.364
-599.069	-48.610	0.181	-0.087
-598.055	99.525	-0.207	-0.239
-597.040	118.495	0.135	-0.167
-596.025	450.691	0.136	-0.299
-595.011	103.496	0.174	-0.204
-593.996	-9.983	-0.336	-0.223
-592.982	-200.000	0.009	-0.061
-591.967	-50.123	0.241	0.114
-590.952	-99.237	0.367	0.093
-589.938	-200.000	-0.017	0.118
-588.923	248.024	0.284	-0.479
-587.909	-36.860	0.221	-0.118
-586.894	-118.710	-0.319	0.056
-585.879	-33.552	0.080	-0.044
-584.865	-60.420	0.038	-0.016
-583.850	800.000	0.042	-0.140
-582.836	-65.121	0.222	0.089
-581.821	126.308	-0.089	0.112
-580.806	-200.000	0.002	-0.149
-579.792	-39.335	0.103	-0.054
-578.777	-199.185	0.252	-0.001
-577.763	-150.866	0.447	0.034
-576.748	-68.346	-0.110	0.042
-575.733	86.247	-0.259	0.285
-574.719	81.830	0.259	-0.280
-573.704	-5.020	-0.105	0.072
-572.690	377.491	-0.150	0.306
-571.675	-46.913	0.144	0.070
-570.661	-72.904	-0.175	-0.064
-569.646	-124.817	0.106	0.016
-568.631	-200.000	0.023	-0.315
-567.617	-200.000	-0.014	0.407
-566.602	702.303	0.082	0.215
-565.588	202.510	0.130	0.200
-564.573	639.045	0.078	-0.197
-563.558	-200.000	-0.040	0.181
-562.544	-200.000	0.012	0.152
-561.529	800.000	-0.050	0.153
-560.515	-54.610	-0.253	0.114
-559.500	-200.000	-0.007	0.378
-558.485	16.729	0.149	-0.117
-557.471	-200.000	0.009	-0.064
-556.456	57.399	-0.068	0.066
-555.442	-97.169	0.123	-0.032
-554.427	19.698	-0.148	-0.118
-553.412	3.830	0.178	0.130
-552.398	-125.941	-0.238	0.036
-551.383	-37.357	-0.099	-0.053
-550.369	304.805	-0.209	0.387
-549.354	516.130	-0.058	0.135
-548.339	-118.276	0.178	-0.032
-547.325	14.871	0.144	-0.112
-546.310	-102.986	-0.281	-0.066
-545.296	-25.230	-0.325	0.192
-544.281	278.151	-0.069	0.122
-543.266	800.000	0.078	-0.227
-542.252	321.617	-0.075	0.143
-541.237	653.798	-0.083	0.211
-540.223	277.198	0.062	0.109
-539.208	-11.613	0.026	0.017
-538.193	-136.600	-0.175	-0.020
-537.179	196.340	-0.175	-0.266
-536.164	-46.028	-0.207	0.101
-535.150	-8.570	-0.161	-0.107
-534.135	284.843	0.093	-0.166
-533.121	221.447	-0.090	0.144
-532.106	-200.000	-0.021	0.163
-531.091	125.859	-0.141	0.177
-530.077	187.983	0.046	-0.068
-529.062	60.635	0.267	0.263
-528.048	38.829	0.133	-0.118
-527.033	779.698	-0.098	-0.268
-526.018	52.077	0.125	0.119
-525.004	-200.000	-0.020	0.366
-523.989	10.107	-0.040	-0.030
-522.975	800.000	-0.065	0.282
-521.960	709.330	-0.084	0.220
-520.945	-200.000	-0.010	0.189
-519.931	-139.752	-0.209	0.022
-518.916	-25.567	-0.128	0.075
-517.902	-200.000	-0.019	0.174
-516.887	7.258	0.237	0.176
-515.872	-99.299	0.251	-0.063
-514.858	-200.000	0.038	-0.211
-513.843	-200.000	0.045	-0.534
-512.829	800.000	-0.088	-0.243
-511.814	52.332	-0.122	0.116
-510.799	427.221	0.093	0.198
-509.785	159.921	-0.300	0.416
-508.770	-105.444	-0.393	-0.089
-507.756	-115.209	0.417	-0.078
-506.741	277.271	0.107	0.189
-505.726	-200.000	-0.080	-0.579
-504.712	-158.511	-0.269	-0.015
-503.697	132.554	0.150	0.192
-502.683	-57.714	0.335	-0.146
-501.668	800.000	-0.071	0.272
-500.653	-129.699	-0.198	0.027
-499.639	-48.971	0.244	0.116
-498.624	-200.000	-0.004	-0.181
-497.610	-88.662	-0.078	0.023
-496.595	140.455	0.124	-0.163
-495.581	271.195	0.094	0.164
-494.566	63.842	-0.114	0.114
-493.551	-65.073	-0.370	0.148
-492.537	12.493	0.186	0.143
-491.522	4.114	-0.245	-0.178
-490.508	-61.734	0.161	-0.067
-489.493	-40.815	-0.113	-0.058
-488.478	185.526	0.109	-0.161
-487.464	133.721	-0.223	-0.287
-486.449	774.220	-0.038	0.102
-485.435	-110.809	0.136	0.028
-484.420	-109.212	0.213	-0.045
-483.405	-200.000	0.009	0.182
-482.391	-177.539	0.286	0.007
-481.376	-75.083	0.063	-0.022
-480.362	-200.000	-0.277	-0.001
-479.347	-24.993	0.111	-0.065
-478.332	647.316	0.107	0.271
-477.318	800.000	-0.054	-0.174
-476.303	79.432	-0.128	0.136
-475.289	-200.000	-0.002	0.297
-474.274	330.536	-0.075	0.143
-473.259	-200.000	-0.028	-0.288
-472.245	-83.171	-0.306	0.098
-471.230	-200.000	-0.025	0.163
-470.216	67.460	0.109	-0.110
-469.201	-188.876	0.159	0.002
-468.186	-65.686	0.129	0.051
-467.172	-40.935	0.214	-0.110
-466.157	-200.000	0.009	0.051
-465.143	133.653	-0.197	-0.253
-464.128	35.711	-0.060	-0.052
-463.113	-200.000	-0.036	0.215
-462.099	800.000	0.118	0.328
-461.084	-103.319	-0.376	-0.088
-460.070	-64.027	-0.024	0.010
-459.055	23.203	0.177	0.144
-458.040	223.205	-0.089	0.142
-457.026	81.175	-0.159	0.170
-456.011	226.627	0.081	0.131
-454.997	525.528	0.119	0.277
-453.982	36.349	-0.180	-0.158
-452.968	-123.136	-0.268	0.043
-451.953	-49.077	-0.112	-0.053
-450.938	-200.000	0.023	0.102
-449.924	44.510	-0.138	-0.126
-448.909	-200.000	0.072	0.526
-447.895	57.874	0.245	0.238
-446.880	-123.693	-0.080	-0.013
-445.865	20.514	0.210	0.168
-444.851	-76.678	0.333	0.116
-443.836	-192.649	-0.184	-0.002
-442.822	338.987	0.087	0.168
-441.807	267.214	0.042	0.072
-440.792	121.103	-0.105	0.129
-439.778	-117.488	-0.081	-0.014
-438.763	769.471	0.059	0.159
-437.749	-5.046	0.052	0.035
-436.734	-40.661	0.154	0.079
-435.719	140.463	-0.203	0.265
-434.705	26.468	-0.102	-0.084
-433.690	75.900	0.120	-0.125
-432.676	-118.545	-0.045	-0.008
-431.661	164.354	0.038	-0.053
-430.646	-92.867	0.294	0.081
-429.632	-200.000	-0.032	-0.259
-428.617	-200.000	0.000	0.146
-427.603	-108.078	-0.275	0.059
-426.588	-56.954	0.180	0.079
-425.573	9.633	0.424	0.318
-424.559	800.000	-0.060	-0.182
-423.544	70.983	-0.080	-0.082
-422.530	-171.291	0.098	-0.003
-421.515	800.000	0.195	-0.609
-420.500	-200.000	0.015	-0.240
-419.486	8.792	0.302	-0.226
-418.471	-64.137	-0.180	-0.073
-417.457	21.621	-0.036	-0.029
-416.442	-5.638	-0.296	-0.201
-415.428	298.495	-0.100	0.182
-414.413	-200.000	0.010	0.170
-413.398	605.444	0.114	0.281
-412.384	-73.975	-0.091	-0.033
-411.369	90.539	-0.155	0.172
-410.355	-200.000	0.025	0.280
-409.340	800.000	-0.062	0.206
-408.325	-168.654	0.319	0.012
-407.311	800.000	-0.034	0.095
-406.296	170.091	0.036	-0.051
-405.282	34.005	-0.170	-0.146
-404.267	42.416	0.202	0.182
-403.252	800.000	0.047	-0.155
-402.238	800.000	0.069	-0.241
-401.223	298.176	0.077	-0.139
-400.209	114.211	0.165	0.198
-399.194	504.766	-0.041	-0.093
-398.179	376.421	0.199	-0.403
-397.165	-200.000	-0.044	-0.261
-396.150	800.000	-0.041	-0.164
-395.136	800.000	-0.007	-0.020
-394.121	53.072	-0.145	0.137
-393.106	-200.000	0.027	-0.133
-392.092	104.227	0.030	0.035
-391.077	-116.781	-0.279	0.051
-390.063	-153.403	0.140	-0.010
-389.048	320.993	-0.120	-0.225
-388.033	800.000	-0.115	0.319
-387.019	405.397	0.059	0.122
-386.004	238.657	-0.201	-0.330
-384.990	16.177	-0.182	-0.142
-383.975	-61.430	-0.414	-0.172
-382.960	371.208	-0.051	-0.102
-381.946	86.332	-0.260	0.284
-380.931	18.729	0.163	0.129
-379.917	99.569	-0.196	0.224
-378.902	800.000	-0.150	0.588
-377.888	190.987	0.088	0.130
-376.873	-47.268	0.282	-0.136
-375.858	800.000	0.139	-0.534
-374.844	-200.000	-0.006	0.044
-373.829	232.323	-0.231	-0.374
-372.815	9.237	0.179	-0.134
-371.800	-23.997	0.245	-0.145
-370.785	-76.988	-0.213	-0.074
-369.771	516.983	0.030	0.069
-368.756	800.000	0.090	0.303
-367.742	800.000	-0.017	-0.058
-366.727	-146.788	0.187	-0.016
-365.712	-114.711	0.239	-0.045
-364.698	-60.620	-0.125	-0.053
-363.683	82.850	-0.149	-0.160
-362.669	-16.885	-0.073	0.045
-361.654	-34.010	-0.205	0.111
-360.639	295.605	0.175	0.317
-359.625	-200.000	0.009	0.138
-358.610	-143.317	-0.280	0.026
-357.596	-197.975	-0.253	-0.001
-356.581	55.855	0.149	0.142
-355.566	800.000	-0.071	0.198
-354.552	-183.575	0.058	0.001
-353.537	-118.319	-0.210	-0.037
-352.523	-135.130	-0.196	-0.023
-351.508	-108.411	-0.343	-0.073
-350.493	800.000	0.118	0.374
-349.479	-71.076	-0.068	0.025
-348.464	53.558	-0.194	-0.184
-347.450	-69.644	-0.459	-0.173
-346.435	-133.305	0.339	-0.042
-345.420	23.874	-0.174	0.142
-344.406	-200.000	-0.029	0.221
-343.391	40.811	-0.075	-0.067
-342.377	-110.190	-0.571	-0.118
-341.362	800.000	-0.078	-0.287
-340.348	37.894	-0.286	0.251
-339.333	-93.211	0.206	-0.057
-338.318	800.000	0.071	0.274
-337.304	87.131	-0.202	0.221
-336.289	-50.373	0.227	-0.106
-335.275	-60.576	-0.152	-0.063
-334.260	800.000	0.138	0.402
-333.245	-200.000	0.050	-0.300
-332.231	800.000	-0.081	-0.252
-331.216	204.111	-0.072	-0.110
-330.202	128.945	0.123	-0.155
-329.187	134.639	-0.167	-0.214
-328.172	800.000	-0.084	-0.292
-327.158	132.930	-0.172	-0.219
-326.143	145.532	0.162	-0.214
-325.129	-143.385	-0.218	-0.021
-324.114	-174.202	-0.038	-0.001
-323.099	134.233	0.025	0.032
-322.085	0.985	-0.465	0.329
-321.070	55.812	0.072	-0.069
-320.056	800.000	-0.028	0.108
-319.041	27.458	0.370	0.307
-318.026	479.280	0.067	0.149
-317.012	217.633	0.226	0.356
-315.997	-80.109	-0.362	-0.120
-314.983	-55.519	0.085	0.038
-313.968	255.127	0.136	0.229
-312.953	-23.546	0.135	0.080
-311.939	-79.874	0.304	-0.101
-310.924	-58.622	0.540	-0.231
-309.910	800.000	0.095	-0.293
-308.895	134.986	-0.086	-0.110
-307.880	88.808	0.218	-0.239
-306.866	-200.000	-0.106	-0.000
-305.851	518.996	0.079	-0.183
-304.837	88.408	-0.163	0.178
-303.822	365.808	-0.146	-0.289
-302.807	266.995	-0.087	0.150
-301.793	-115.131	0.074	0.014
-300.778	-200.000	-0.035	-0.244
-299.764	-101.797	0.100	-0.024
-298.749	-173.220	0.301	-0.009
-297.735	58.150	0.183	0.176
-296.720	497.078	0.034	0.077
-295.705	50.465	0.223	-0.208
-294.691	-200.000	-0.031	0.139
-293.676	190.620	-0.121	-0.179
-292.662	-50.110	-0.164	0.077
-291.647	132.008	-0.053	-0.067
-290.632	-166.959	0.206	-0.008
-289.618	-58.352	-0.199	-0.085
-288.603	156.944	0.104	-0.142
-287.589	-200.000	-0.046	0.215
-286.574	-200.000	-0.049	0.268
-285.559	-105.176	-0.105	-0.024
-284.545	147.621	-0.199	-0.264
-283.530	800.000	-0.039	0.161
-282.516	108.672	0.101	-0.119
-281.501	665.428	-0.037	0.094
-280.486	-170.651	-0.322	0.011
-279.472	-36.272	-0.149	-0.079
-278.457	-200.000	-0.024	-0.159
-277.443	-30.028	0.079	0.044
-276.428	-178.701	-0.145	-0.003
-275.413	167.252	0.190	-0.265
-274.399	-35.368	-0.204	-0.109
-273.384	-99.734	-0.179	-0.044
-272.370	618.423	-0.036	-0.090
-271.355	268.462	0.111	0.191
-270.340	-85.414	0.027	0.008
-269.326	-172.411	0.542	-0.017
-268.311	800.000	0.007	-0.021
-267.297	-133.036	-0.281	0.035
-266.282	75.355	0.114	-0.119
-265.267	-71.274	-0.201	-0.074
-264.253	-97.655	-0.275	0.070
-263.238	800.000	0.051	-0.174
-262.224	594.392	-0.070	0.171
-261.209	427.166	0.096	0.204
-260.195	-87.239	0.059	-0.018
-259.180	-35.507	-0.387	0.207
-258.165	8.110	0.259	0.191
-257.151	-98.231	-0.180	-0.046
-256.136	72.311	0.110	0.112
-255.122	-36.663	-0.288	0.153
-254.107	-200.000	-0.020	-0.108
-253.092	800.000	-0.099	-0.278
-252.078	509.354	0.201	0.459
-251.063	-200.000	-0.019	0.262
-250.049	235.227	0.035	-0.057
-249.034	233.073	0.094	-0.151
-248.019	-151.005	0.320	-0.024
-247.005	-200.000	-0.044	0.203
-245.990	88.437	-0.180	-0.197
-244.976	-200.000	0.039	-0.390
-243.961	-200.000	-0.062	-0.305
-242.946	-122.884	-0.303	0.048
-241.932	-200.000	-0.053	0.321
-240.917	-100.696	-0.289	0.070
-239.903	27.308	0.105	-0.087
-238.888	409.277	0.056	0.116
-237.873	-188.563	-0.497	0.006
-236.859	61.129	0.095	0.093
-235.844	357.163	0.044	0.086
-234.830	-200.000	-0.012	0.096
-233.815	157.060	0.141	-0.191
-232.800	-200.000	0.016	0.197
-231.786	800.000	-0.215	0.589
-230.771	-54.911	0.329	0.146
-229.757	-61.350	0.341	-0.141
-228.742	-54.066	0.326	-0.146
-227.727	-200.000	-0.027	-0.118
-226.713	392.844	-0.067	-0.137
-225.698	-200.000	0.029	0.314
-224.684	800.000	-0.111	-0.359
-223.669	-187.165	0.220	0.003
-222.655	49.307	-0.115	-0.106
-221.640	-160.300	0.260	-0.014
-220.625	-20.634	0.263	-0.159
-219.611	-21.894	0.362	0.216
-218.596	89.436	-0.221	-0.242
-217.582	120.596	0.106	-0.129
-216.567	800.000	-0.052	-0.214
-215.552	7.056	0.276	-0.202
-214.538	300.301	-0.144	-0.261
-213.523	536.396	0.134	-0.312
-212.509	-91.657	-0.367	0.103
-211.494	198.976	0.084	-0.126
-210.479	115.982	0.142	-0.170
-209.465	-200.000	0.009	0.147
-208.450	40.344	0.273	-0.241
-207.436	-13.401	0.176	0.112
-206.421	-33.110	-0.229	0.125
-205.406	350.161	0.062	0.120
-204.392	170.931	0.018	-0.025
-203.377	-181.214	-0.373	-0.007
-202.363	363.117	0.159	-0.313
-201.348	-113.832	0.079	-0.015
-200.333	-110.223	0.574	0.117
-199.319	-85.706	0.260	0.079
-198.304	-47.165	0.231	0.111
-197.290	174.624	-0.211	-0.299
-196.275	292.875	-0.124	-0.222
-195.260	-86.610	-0.188	-0.057
-194.246	-81.624	0.167	-0.054
-193.231	-90.341	-0.255	0.073
-192.217	283.986	-0.170	-0.299
-191.202	318.076	0.093	-0.174
-190.187	594.283	-0.052	-0.126
-189.173	-137.173	0.272	-0.030
-188.158	611.738	0.126	-0.310
-187.144	-117.406	0.188	-0.033
-186.129	-55.629	-0.315	-0.139
-185.114	-3.968	-0.307	-0.209
-184.100	11.071	0.214	0.160
-183.085	-69.568	0.099	0.037
-182.071	-200.000	-0.025	-0.242
-181.056	-5.200	0.113	0.076
-180.042	-177.741	-0.108	-0.003
-179.027	-72.078	-0.292	0.106
-178.012	-32.298	-0.077	0.042
-176.998	-140.173	-0.245	-0.025
-175.983	-144.285	0.101	-0.009
-174.969	309.184	0.104	-0.191
-173.954	-48.254	-0.146	0.069
-172.939	-200.000	0.025	0.187
-171.925	800.000	-0.095	0.297
-170.910	-200.000	0.038	0.217
-169.896	2.160	0.149	-0.105
-168.881	724.370	0.090	0.234
-167.866	-79.274	0.286	0.095
-166.852	-33.600	0.057	-0.031
-165.837	-43.257	0.201	-0.100
-164.823	-200.000	-0.036	-0.254
-163.808	134.142	-0.030	-0.038
-162.793	34.790	0.100	-0.086
-161.779	-76.371	-0.177	-0.061
-160.764	71.266	0.242	0.246
-159.750	297.217	-0.044	0.079
-158.735	-20.191	0.158	-0.096
-157.720	252.531	-0.127	-0.212
-156.706	-200.000	0.036	0.326
-155.691	800.000	0.045	-0.135
-154.677	-200.000	0.000	-0.134
-153.662	31.029	0.414	0.348
-152.647	168.657	-0.102	-0.142
-151.633	400.637	0.163	-0.336
-150.618	-60.105	0.256	0.107
-149.604	-40.311	0.227	0.116
-148.589	800.000	0.015	0.058
-147.574	207.066	0.089	-0.135
-146.560	380.305	0.073	-0.147
-145.545	-180.263	-0.250	0.005
-144.531	448.405	-0.148	-0.319
-143.516	-109.142	0.206	-0.043
-142.502	-114.301	-0.050	0.009
-141.487	184.278	-0.119	0.172
-140.472	789.444	-0.055	-0.148
-139.458	-124.297	0.189	0.029
-138.443	651.734	-0.050	0.125
-137.429	-149.673	-0.036	0.003
-136.414	-34.863	0.183	-0.098
-135.399	-153.313	0.092	-0.006
-134.385	526.872	-0.082	-0.190
-133.370	-92.768	-0.083	0.023
-132.356	320.805	0.061	0.114
-131.341	48.270	-0.197	0.181
-130.326	-12.133	-0.314	-0.201
-129.312	-67.337	-0.523	0.201
-128.297	-48.018	0.152	0.072
-127.283	-85.396	-0.202	0.062
-126.268	-200.000	-0.010	0.270
-125.253	309.120	0.109	-0.199
-124.239	-114.103	0.341	0.065
-123.224	-200.000	-0.051	0.248
-122.210	495.054	-0.097	-0.219
-121.195	165.963	-0.201	-0.278
