DTS Sentinel unit serial number:	SN413079Multiplexer serial number:	ORYXHardware model number:	OX4-SRSoftware version number:	ORYX F/W v4.00 Oryx Data Collector v3.7.2.0data status	okinstallation	princeton_trtdifferential loss correction	single-endedforward channel	channel 3reverse channel	N/Adate	2019/09/17time	16:28:35forward acquisition time	60.00reverse acquisition time	0.00gamma	496.2192k internal	0.2291k external	0.2291temperature offset calibration	0.9954default loss term (dB/km)	0.3790temperature slope calibration	1.0000multiplexer offset coefficient	1.0000multiplexer slope coefficient	1.0000fibre end	0.00T internal ref (°C)	41.48T ext. ref 1 (°C)	0.37T ext. ref 2 (°C)	38.50length (m)	temperature (°C)	Stokes	anti-Stokes-747.200	76.644	0.057	0.062
-746.185	111.146	-0.285	0.352
-745.171	-108.185	-0.108	0.024
-744.156	78.004	0.261	0.285
-743.142	-200.000	0.036	0.266
-742.127	0.947	0.055	0.040
-741.112	-23.410	-0.190	-0.117
-740.098	-47.922	-0.223	0.110
-739.083	-44.346	0.369	0.189
-738.069	-123.124	0.048	-0.008
-737.054	-31.707	-0.131	-0.075
-736.039	-170.180	-0.410	0.015
-735.025	-145.425	0.244	0.023
-734.010	779.257	-0.021	0.058
-732.996	17.582	-0.135	-0.110
-731.981	-59.794	-0.111	-0.049
-730.966	258.219	-0.226	-0.398
-729.952	-200.000	0.009	-0.166
-728.937	-48.519	-0.444	-0.219
-727.923	-92.514	-0.366	-0.105
-726.908	-85.017	-0.036	-0.012
-725.894	-89.708	-0.295	0.089
-724.879	102.552	-0.187	-0.224
-723.864	-126.342	-0.029	-0.004
-722.850	-128.773	-0.141	-0.020
-721.835	-15.110	-0.146	-0.096
-720.821	-39.328	-0.230	0.123
-719.806	800.000	0.098	-0.300
-718.791	72.847	-0.171	-0.183
-717.777	356.684	-0.056	0.113
-716.762	229.462	0.089	-0.148
-715.748	-117.719	-0.191	0.035
-714.733	-20.608	-0.222	0.140
-713.718	-107.861	0.265	-0.059
-712.704	-163.171	0.226	0.011
-711.689	151.782	-0.097	-0.135
-710.675	-177.141	0.105	-0.003
-709.660	-66.502	-0.172	-0.070
-708.645	91.364	-0.205	-0.236
-707.631	-84.597	-0.207	-0.067
-706.616	-200.000	-0.028	0.230
-705.602	-167.643	0.059	0.002
-704.587	51.855	0.093	0.091
-703.572	-52.250	0.221	-0.105
-702.558	-200.000	-0.020	-0.143
-701.543	-200.000	-0.010	-0.347
-700.529	-31.358	0.201	0.115
-699.514	627.238	0.075	-0.194
-698.499	74.281	-0.186	0.200
-697.485	-50.124	-0.197	0.096
-696.470	-45.377	0.380	0.193
-695.456	-89.577	-0.202	0.061
-694.441	21.908	-0.144	0.120
-693.426	-21.961	0.168	0.104
-692.412	130.643	0.242	0.317
-691.397	-152.102	-0.122	0.009
-690.383	71.872	-0.410	-0.436
-689.368	118.079	0.070	0.089
-688.354	301.213	-0.113	0.212
-687.339	134.346	-0.071	-0.094
-686.324	4.317	0.151	-0.113
-685.310	-46.912	0.083	-0.041
-684.295	-200.000	0.021	-0.303
-683.281	134.748	0.090	0.120
-682.266	209.893	0.010	0.016
-681.251	127.436	0.110	-0.142
-680.237	78.216	0.087	0.095
-679.222	85.535	0.157	0.176
-678.208	-193.477	0.219	-0.002
-677.193	602.758	-0.038	-0.096
-676.178	192.375	0.248	-0.383
-675.164	97.272	0.124	-0.145
-674.149	-200.000	-0.030	0.137
-673.135	69.721	-0.205	-0.216
-672.120	126.122	-0.238	-0.307
-671.105	142.845	-0.210	0.285
-670.091	-200.000	0.000	0.046
-669.076	-200.000	-0.012	-0.337
-668.062	106.472	0.174	-0.211
-667.047	33.839	-0.108	-0.096
-666.032	-128.969	-0.176	-0.025
-665.018	-87.826	-0.157	0.048
-664.003	-146.784	-0.208	0.018
-662.989	-200.000	0.028	-0.436
-661.974	-200.000	-0.002	0.269
-660.959	-21.320	0.134	-0.084
-659.945	296.424	-0.139	-0.260
-658.930	-44.840	0.419	-0.213
-657.916	22.014	-0.131	-0.109
-656.901	-70.009	-0.459	0.179
-655.886	95.377	-0.022	0.026
-654.872	-19.587	-0.073	-0.046
-653.857	800.000	0.042	-0.130
-652.843	116.042	-0.229	-0.286
-651.828	-168.198	-0.274	0.011
-650.814	800.000	-0.023	-0.068
-649.799	-122.640	-0.257	-0.043
-648.784	131.868	0.162	-0.213
-647.770	-27.523	0.298	-0.177
-646.755	465.435	0.159	0.362
-645.741	-47.642	0.194	0.096
-644.726	-200.000	-0.037	-0.279
-643.711	403.975	-0.064	-0.137
-642.697	-200.000	0.011	0.276
-641.682	800.000	-0.069	0.199
-640.668	198.909	-0.131	0.205
-639.653	-25.518	-0.084	0.050
-638.638	800.000	0.092	0.273
-637.624	-69.542	0.195	0.076
-636.609	-72.731	-0.234	0.088
-635.595	-137.890	-0.282	0.032
-634.580	210.869	0.159	-0.254
-633.565	146.218	-0.101	-0.139
-632.551	-63.247	0.195	-0.082
-631.536	147.501	-0.168	0.231
-630.522	102.424	0.025	0.030
-629.507	800.000	-0.135	0.396
-628.492	187.719	0.141	0.215
-627.478	800.000	-0.092	0.290
-626.463	800.000	-0.064	0.210
-625.449	-62.369	-0.320	0.136
-624.434	-124.708	-0.202	0.032
-623.419	800.000	-0.096	-0.344
-622.405	203.550	-0.194	-0.306
-621.390	145.137	0.155	0.211
-620.376	-68.795	-0.079	0.031
-619.361	-101.817	-0.236	0.058
-618.346	-146.406	0.089	0.008
-617.332	727.114	-0.093	-0.252
-616.317	592.052	0.053	0.134
-615.303	765.330	0.128	-0.354
-614.288	218.981	-0.143	-0.232
-613.273	-50.068	-0.148	0.071
-612.259	-91.623	-0.084	-0.024
-611.244	-200.000	-0.006	0.281
-610.230	119.973	-0.246	0.310
-609.215	-200.000	0.014	-0.076
-608.201	800.000	-0.093	-0.270
-607.186	431.385	0.092	0.203
-606.171	-200.000	-0.074	0.354
-605.157	286.330	-0.183	0.337
-604.142	800.000	-0.074	0.212
-603.128	-30.576	-0.230	0.133
-602.113	180.041	-0.159	-0.238
-601.098	470.573	0.022	-0.050
-600.084	-109.685	-0.198	-0.042
-599.069	-47.230	0.190	0.094
-598.055	232.250	0.075	-0.126
-597.040	74.870	-0.135	0.145
-596.025	251.379	0.074	0.128
-595.011	70.409	-0.231	0.243
-593.996	-200.000	-0.024	0.214
-592.982	800.000	-0.048	0.183
-591.967	-60.686	-0.123	-0.053
-590.952	3.334	0.293	0.217
-589.938	601.705	-0.121	-0.306
-588.923	37.648	0.193	0.175
-587.909	-121.691	0.033	0.006
-586.894	-200.000	0.003	0.174
-585.879	800.000	-0.021	0.074
-584.865	800.000	0.072	-0.205
-583.850	-200.000	0.010	-0.176
-582.836	800.000	0.078	0.269
-581.821	-77.761	0.201	-0.071
-580.806	-200.000	0.000	0.122
-579.792	-32.021	0.161	0.092
-578.777	-200.000	-0.024	-0.262
-577.763	527.034	0.095	-0.227
-576.748	-103.256	-0.339	-0.082
-575.733	-48.785	0.193	-0.094
-574.719	-149.415	0.193	-0.016
-573.704	9.025	0.203	0.156
-572.690	310.122	-0.010	-0.019
-571.675	-108.558	-0.276	-0.060
-570.661	-200.000	-0.022	0.237
-569.646	-200.000	0.003	-0.341
-568.631	-36.827	0.065	0.035
-567.617	-161.576	-0.310	0.016
-566.602	36.656	0.231	0.208
-565.588	212.207	-0.154	-0.247
-564.573	-34.912	0.074	0.041
-563.558	-137.536	0.082	0.009
-562.544	-70.728	0.055	0.021
-561.529	76.369	0.133	0.143
-560.515	-66.296	-0.107	-0.043
-559.500	-200.000	0.004	-0.156
-558.485	-175.736	0.228	0.006
-557.471	-200.000	0.016	-0.157
-556.456	-78.212	0.228	0.080
-555.442	-164.115	-0.326	0.015
-554.427	-100.779	0.121	0.030
-553.412	-176.980	-0.175	0.004
-552.398	-200.000	0.001	0.046
-551.383	167.569	0.138	0.199
-550.369	159.588	0.294	-0.415
-549.354	17.474	0.030	0.024
-548.339	-110.375	0.244	-0.052
-547.325	-200.000	-0.008	0.060
-546.310	800.000	0.053	-0.226
-545.296	402.017	-0.154	0.329
-544.281	116.410	0.143	-0.178
-543.266	-200.000	0.014	-0.136
-542.252	114.132	-0.133	0.165
-541.237	-53.021	-0.186	-0.087
-540.223	143.466	-0.046	-0.062
-539.208	312.250	0.102	0.195
-538.193	-93.533	-0.133	0.038
-537.179	-200.000	0.023	-0.162
-536.164	324.428	-0.180	-0.348
-535.150	800.000	-0.043	-0.137
-534.135	83.866	-0.286	-0.317
-533.121	-31.447	0.089	0.051
-532.106	-8.852	0.183	0.125
-531.091	121.535	-0.138	0.175
-530.077	340.996	0.195	-0.386
-529.062	800.000	0.101	-0.365
-528.048	-200.000	0.013	-0.449
-527.033	-121.681	0.161	-0.027
-526.018	31.224	-0.117	0.102
-525.004	-58.135	-0.503	-0.223
-523.989	800.000	0.043	-0.178
-522.975	800.000	-0.040	-0.176
-521.960	-126.427	-0.093	0.014
-520.945	800.000	0.111	0.341
-519.931	128.722	-0.098	0.127
-518.916	-126.096	-0.243	-0.037
-517.902	5.768	0.077	0.058
-516.887	79.116	-0.191	0.207
-515.872	-130.425	0.187	-0.026
-514.858	603.685	0.025	0.064
-513.843	4.231	0.052	0.039
-512.829	-200.000	0.027	0.281
-511.814	-200.000	-0.056	-0.307
-510.799	31.626	0.062	-0.054
-509.785	-96.300	-0.053	-0.014
-508.770	481.243	-0.107	0.246
-507.756	18.251	0.137	0.111
-506.741	-78.256	0.184	0.064
-505.726	162.355	-0.169	0.240
-504.712	-166.382	-0.302	-0.013
-503.697	-200.000	0.021	-0.283
-502.683	-38.898	-0.062	0.033
-501.668	-101.376	0.092	-0.023
-500.653	23.831	0.043	-0.036
-499.639	-86.935	-0.096	0.030
-498.624	-178.584	0.315	-0.007
-497.610	75.424	0.247	-0.264
-496.595	68.727	0.123	0.128
-495.581	-144.880	-0.029	-0.003
-494.566	-200.000	0.067	-0.466
-493.551	-200.000	-0.042	0.255
-492.537	6.984	-0.124	0.093
-491.522	-200.000	-0.002	-0.073
-490.508	-200.000	0.011	0.171
-489.493	-67.907	0.216	-0.086
-488.478	-200.000	-0.007	-0.049
-487.464	-54.455	-0.293	0.135
-486.449	274.968	0.054	0.097
-485.435	-197.216	-0.183	0.001
-484.420	800.000	-0.062	-0.214
-483.405	463.938	-0.051	0.116
-482.391	-134.006	-0.146	0.018
-481.376	-140.623	0.257	-0.027
-480.362	-37.709	-0.154	0.083
-479.347	429.817	0.036	-0.079
-478.332	130.746	0.121	0.157
-477.318	-91.765	-0.311	0.090
-476.303	241.083	-0.193	0.327
-475.289	-200.000	-0.016	0.119
-474.274	-175.855	0.136	-0.004
-473.259	84.932	-0.028	0.031
-472.245	-200.000	-0.011	-0.134
-471.230	-200.000	-0.004	-0.394
-470.216	223.266	0.066	0.109
-469.201	134.792	-0.173	-0.228
-468.186	173.110	-0.179	0.261
-467.172	588.241	-0.112	-0.281
-466.157	120.880	-0.100	-0.126
-465.143	-131.326	-0.092	0.012
-464.128	228.255	-0.085	-0.140
-463.113	35.391	-0.126	0.112
-462.099	147.887	-0.107	-0.146
-461.084	-23.467	-0.047	0.029
-460.070	-36.969	0.196	0.106
-459.055	800.000	-0.120	-0.411
-458.040	11.980	0.069	-0.054
-457.026	-163.934	0.443	0.021
-456.011	610.766	0.078	-0.197
-454.997	371.128	-0.136	-0.279
-453.982	418.882	-0.052	0.113
-452.968	-200.000	0.014	0.115
-451.953	800.000	-0.096	-0.288
-450.938	-145.504	-0.064	-0.006
-449.924	-106.107	0.285	-0.065
-448.909	103.801	0.137	0.163
-447.895	-107.342	-0.214	-0.048
-446.880	-27.829	-0.195	-0.114
-445.865	283.170	-0.188	-0.342
-444.851	-200.000	-0.035	-0.297
-443.836	76.842	0.097	-0.104
-442.822	146.296	0.074	0.101
-441.807	69.050	-0.131	0.136
-440.792	-104.849	-0.165	-0.038
-439.778	-112.884	0.178	0.036
-438.763	800.000	0.056	0.207
-437.749	-99.535	-0.212	0.054
-436.734	-116.777	-0.046	-0.008
-435.719	-200.000	0.012	0.186
-434.705	7.103	-0.381	-0.287
-433.690	-173.097	-0.116	0.004
-432.676	-11.102	-0.264	0.176
-431.661	272.879	0.082	0.147
-430.646	-43.748	0.233	-0.119
-429.632	-200.000	-0.044	-0.482
-428.617	800.000	0.083	-0.237
-427.603	50.763	-0.227	0.218
-426.588	488.822	-0.028	-0.064
-425.573	117.513	-0.206	-0.256
-424.559	800.000	0.071	-0.299
-423.544	800.000	-0.112	0.441
-422.530	727.039	-0.053	-0.144
-421.515	11.048	0.091	0.070
-420.500	-196.722	-0.176	0.001
-419.486	-63.207	0.257	-0.107
-418.471	70.201	0.135	-0.141
-417.457	800.000	-0.041	0.116
-416.442	348.238	0.058	0.115
-415.428	-200.000	0.012	-0.216
-414.413	57.196	-0.047	0.046
-413.398	800.000	-0.025	-0.092
-412.384	71.453	-0.104	-0.109
-411.369	-120.273	-0.165	-0.028
-410.355	-200.000	0.050	-0.304
-409.340	143.364	0.196	-0.264
-408.325	-115.000	-0.299	-0.057
-407.311	88.258	-0.114	-0.128
-406.296	800.000	-0.030	0.095
-405.282	-200.000	-0.062	-0.000
-404.267	120.452	0.087	0.109
-403.252	-127.498	0.090	0.013
-402.238	-200.000	-0.022	-0.147
-401.223	169.018	0.161	-0.232
-400.209	-16.724	-0.269	-0.172
-399.194	83.942	-0.025	0.028
-398.179	39.816	-0.175	-0.159
-397.165	287.254	0.060	-0.110
-396.150	-66.019	0.523	-0.211
-395.136	462.139	0.147	-0.332
-394.121	240.877	0.047	-0.080
-393.106	-121.804	0.073	-0.012
-392.092	-200.000	0.035	0.437
-391.077	800.000	0.047	-0.203
-390.063	-125.020	-0.253	0.039
-389.048	-16.614	-0.224	0.144
-388.033	-200.000	0.017	-0.182
-387.019	-200.000	0.025	-0.225
-386.004	-47.335	-0.125	-0.061
-384.990	800.000	-0.071	-0.200
-383.975	-200.000	-0.022	-0.326
-382.960	-200.000	0.011	0.454
-381.946	219.591	0.113	0.183
-380.931	699.042	-0.035	0.094
-379.917	6.139	-0.270	0.202
-378.902	800.000	-0.090	0.297
-377.888	-200.000	-0.017	-0.094
-376.873	120.607	0.201	0.252
-375.858	-200.000	0.057	0.254
-374.844	-200.000	-0.086	0.465
-373.829	-7.693	0.050	-0.034
-372.815	135.651	-0.152	-0.200
-371.800	-143.944	0.209	-0.020
-370.785	-109.003	-0.238	-0.051
-369.771	283.039	0.090	-0.162
-368.756	800.000	0.023	0.072
-367.742	114.958	0.116	0.143
-366.727	-63.232	0.204	-0.085
-365.712	202.465	-0.144	0.225
-364.698	-63.959	-0.264	-0.109
-363.683	-162.980	0.267	-0.013
-362.669	-89.823	0.164	-0.048
-361.654	-200.000	0.047	0.441
-360.639	-119.041	-0.195	0.034
-359.625	439.694	-0.091	-0.201
-358.610	-139.509	-0.246	0.027
-357.596	-200.000	0.020	-0.230
-356.581	94.176	0.249	-0.286
-355.566	-61.068	0.113	0.048
-354.552	-200.000	-0.051	0.465
-353.537	66.979	0.196	0.201
-352.523	-84.387	-0.199	0.063
-351.508	-200.000	0.002	-0.108
-350.493	-200.000	0.016	0.188
-349.479	800.000	-0.056	-0.199
-348.464	-0.743	0.150	-0.107
-347.450	-22.556	-0.162	-0.099
-346.435	10.731	-0.379	0.292
-345.420	-80.616	0.282	-0.095
-344.406	-200.000	0.061	0.404
-343.391	66.893	0.179	0.184
-342.377	-55.275	0.127	0.058
-341.362	26.081	-0.265	0.223
-340.348	401.320	-0.066	-0.140
-339.333	-17.616	-0.396	0.251
-338.318	177.041	0.170	-0.250
-337.304	-200.000	0.045	0.395
-336.289	44.451	0.293	-0.271
-335.275	-200.000	-0.018	0.103
-334.260	295.050	0.059	-0.110
-333.245	-2.753	-0.050	0.035
-332.231	-41.496	0.034	0.017
-331.216	438.236	-0.104	-0.228
-330.202	101.720	-0.118	-0.139
-329.187	66.518	0.208	-0.213
-328.172	800.000	0.059	0.208
-327.158	-37.323	-0.167	0.090
-326.143	-164.694	0.545	0.025
-325.129	382.644	0.076	0.157
-324.114	-133.055	-0.041	0.005
-323.099	-90.144	-0.172	0.050
-322.085	-200.000	-0.015	0.199
-321.070	266.358	-0.079	0.139
-320.056	176.347	0.041	-0.059
-319.041	-85.470	-0.094	0.029
-318.026	-71.893	0.183	-0.069
-317.012	-113.960	0.406	-0.079
-315.997	307.318	0.153	0.288
-314.983	107.486	-0.229	0.274
-313.968	-200.000	0.027	-0.208
-312.953	-155.343	0.177	-0.012
-311.939	-200.000	0.007	-0.076
-310.924	-200.000	0.008	-0.139
-309.910	112.948	0.081	0.099
-308.895	-1.791	0.077	-0.055
-307.880	-87.828	-0.246	0.075
-306.866	145.551	-0.260	-0.350
-305.851	339.795	0.079	-0.155
-304.837	-27.114	-0.077	-0.045
-303.822	-200.000	-0.023	-0.301
-302.807	-141.208	0.426	0.044
-301.793	-200.000	-0.009	0.188
-300.778	-200.000	-0.007	-0.071
-299.764	-129.812	0.218	0.030
-298.749	-38.843	0.071	-0.038
-297.735	800.000	-0.048	-0.171
-296.720	-64.398	-0.093	0.038
-295.705	157.675	0.183	0.255
-294.691	-200.000	-0.040	0.377
-293.676	800.000	0.058	0.202
-292.662	-30.565	-0.294	0.167
-291.647	629.160	0.059	-0.149
-290.632	-33.868	0.248	-0.137
-289.618	-116.225	-0.132	0.025
-288.603	-35.730	0.159	0.087
-287.589	611.717	-0.080	-0.202
-286.574	121.458	0.217	0.272
-285.559	-157.552	0.111	0.007
-284.545	21.716	0.293	0.240
-283.530	-159.689	0.202	-0.011
-282.516	-58.486	-0.053	-0.023
-281.501	27.220	-0.272	0.229
-280.486	800.000	0.062	0.190
-279.472	-178.486	0.479	0.011
-278.457	-41.420	-0.200	-0.103
-277.443	194.975	-0.123	-0.187
-276.428	280.695	0.123	-0.220
-275.413	46.186	-0.086	0.080
-274.399	-143.551	-0.331	-0.032
-273.384	800.000	-0.019	-0.067
-272.370	800.000	0.038	-0.116
-271.355	-200.000	-0.443	0.002
-270.340	-168.878	-0.161	-0.006
-269.326	-200.000	-0.054	0.385
-268.311	-200.000	0.030	0.222
-267.297	47.436	-0.051	0.047
-266.282	-200.000	0.039	-0.548
-265.267	-132.188	0.163	0.021
-264.253	800.000	-0.024	-0.082
-263.238	204.525	0.070	0.109
-262.224	-55.194	-0.511	0.231
-261.209	4.179	0.313	0.230
-260.195	-25.304	-0.455	0.270
-259.180	-64.770	-0.143	0.058
-258.165	-59.785	0.095	0.041
-257.151	-74.240	-0.182	-0.066
-256.136	-200.000	0.020	0.338
-255.122	-133.169	-0.063	-0.008
-254.107	800.000	0.062	-0.236
-253.092	-3.953	-0.127	-0.089
-252.078	-35.359	0.109	0.060
-251.063	39.268	0.104	-0.093
-250.049	-200.000	0.030	-0.187
-249.034	-200.000	0.043	0.281
-248.019	-200.000	-0.004	-0.228
-247.005	126.774	-0.156	-0.198
-245.990	56.613	-0.172	0.168
-244.976	-99.947	0.039	-0.010
-243.961	94.292	0.047	-0.053
-242.946	-200.000	0.019	-0.111
-241.932	789.660	0.119	-0.329
-240.917	-85.998	0.347	-0.108
-239.903	292.357	-0.122	-0.224
-238.888	800.000	0.032	0.112
-237.873	21.305	-0.021	-0.017
-236.859	800.000	-0.083	0.231
-235.844	126.301	0.159	-0.202
-234.830	-200.000	-0.002	-0.154
-233.815	-99.585	0.263	-0.066
-232.800	211.213	-0.106	-0.167
-231.786	258.148	-0.084	0.146
-230.771	-200.000	-0.015	-0.157
-229.757	-113.324	0.207	-0.041
-228.742	95.384	0.064	-0.074
-227.727	202.040	0.056	-0.086
-226.713	-200.000	-0.003	-0.067
-225.698	309.062	0.105	-0.197
-224.684	-170.368	0.081	0.003
-223.669	800.000	0.022	-0.081
-222.655	-169.593	0.080	-0.003
-221.640	136.915	-0.047	0.061
-220.625	-105.088	0.398	-0.091
-219.611	-200.000	-0.036	0.279
-218.596	10.330	0.263	0.201
-217.582	-200.000	-0.013	0.202
-216.567	-108.925	0.291	0.062
-215.552	-200.000	-0.170	0.000
-214.538	800.000	-0.143	-0.456
-213.523	800.000	-0.014	0.048
-212.509	800.000	-0.079	-0.275
-211.494	-77.411	-0.375	0.131
-210.479	-160.770	-0.052	-0.003
-209.465	-200.000	0.013	0.153
-208.450	-138.082	0.046	0.005
-207.436	-88.045	0.161	0.048
-206.421	376.061	0.129	0.263
-205.406	-200.000	0.052	0.341
-204.392	179.612	0.092	0.134
-203.377	321.709	0.126	0.241
-202.363	-99.389	-0.127	0.032
-201.348	-62.158	-0.234	-0.098
-200.333	-200.000	0.033	-0.161
-199.319	-167.349	0.272	-0.011
-198.304	-38.958	0.179	-0.095
-197.290	168.472	0.098	0.140
-196.275	-42.254	-0.212	-0.109
-195.260	454.277	0.041	-0.090
-194.246	-12.622	0.095	0.062
-193.231	-200.000	0.006	0.308
-192.217	782.999	-0.048	0.131
-191.202	-115.245	0.364	-0.069
-190.187	-71.389	-0.318	-0.119
-189.173	-41.270	-0.168	-0.087
-188.158	187.481	0.140	-0.209
-187.144	127.715	-0.071	0.090
-186.129	396.688	0.129	0.270
-185.114	-200.000	-0.006	0.138
-184.100	125.218	0.045	0.057
-183.085	-200.000	0.009	0.295
-182.071	195.560	-0.291	-0.444
-181.056	800.000	-0.011	-0.049
-180.042	119.790	-0.164	0.203
-179.027	-200.000	-0.080	0.468
-178.012	-153.834	-0.150	0.010
-176.998	16.959	0.230	-0.183
-175.983	-96.911	0.096	0.025
-174.969	-55.827	-0.119	-0.053
-173.954	24.638	-0.110	0.091
-172.939	115.459	-0.118	0.145
-171.925	363.392	-0.126	0.254
-170.910	-200.000	-0.002	-0.296
-169.896	-135.007	0.148	-0.018
-168.881	124.637	0.207	-0.261
-167.866	220.163	-0.030	0.048
-166.852	-115.464	0.325	0.061
-165.837	-30.712	0.151	-0.085
-164.823	25.761	0.224	-0.187
-163.808	38.691	0.179	-0.160
-162.793	-48.830	-0.266	-0.128
-161.779	-200.000	-0.051	-0.268
-160.764	-66.607	0.253	-0.100
-159.750	160.180	0.253	0.353
-158.735	105.865	0.112	-0.133
-157.720	50.539	0.107	-0.101
-156.706	-63.346	0.289	0.119
-155.691	-141.112	0.208	-0.021
-154.677	428.464	0.082	0.177
-153.662	40.614	0.154	0.139
-152.647	-39.397	0.135	-0.071
-151.633	-194.888	0.293	0.002
-150.618	220.859	-0.063	-0.101
-149.604	79.508	-0.151	-0.162
-148.589	-45.177	-0.194	-0.096
-147.574	-185.459	0.182	-0.003
-146.560	320.229	-0.194	0.369
-145.545	13.968	0.191	0.148
-144.531	-200.000	0.007	0.061
-143.516	-200.000	-0.052	-0.282
-142.502	800.000	0.047	0.152
-141.487	412.403	-0.055	-0.116
-140.472	-11.032	-0.191	0.126
-139.458	493.250	0.123	0.281
-138.443	-200.000	-0.027	-0.122
-137.429	-152.588	0.500	0.036
-136.414	-200.000	0.016	-0.457
-135.399	-79.635	-0.316	-0.107
-134.385	125.914	-0.130	-0.165
-133.370	-200.000	-0.026	0.329
-132.356	-1.387	0.303	0.214
-131.341	-30.136	-0.279	0.158
-130.326	130.836	0.088	-0.113
-129.312	90.550	0.150	-0.167
-128.297	800.000	-0.033	-0.116
-127.283	456.918	0.071	0.157
-126.268	222.747	0.125	0.202
-125.253	-31.250	-0.353	0.199
-124.239	50.516	-0.123	0.116
-123.224	-200.000	-0.019	0.126
-122.210	-200.000	-0.022	0.237
