DTS Sentinel unit serial number:	SN413079Multiplexer serial number:	ORYXHardware model number:	OX4-SRSoftware version number:	ORYX F/W v4.00 Oryx Data Collector v3.7.2.0data status	okinstallation	princeton_trtdifferential loss correction	single-endedforward channel	channel 3reverse channel	N/Adate	2019/09/14time	22:56:35forward acquisition time	60.00reverse acquisition time	0.00gamma	496.2192k internal	0.2319k external	0.2319temperature offset calibration	0.9984default loss term (dB/km)	0.3790temperature slope calibration	1.0000multiplexer offset coefficient	1.0000multiplexer slope coefficient	1.0000fibre end	0.00T internal ref (°C)	32.44T ext. ref 1 (°C)	4.66T ext. ref 2 (°C)	27.47length (m)	temperature (°C)	Stokes	anti-Stokes-747.200	800.000	-0.052	-0.217
-746.185	-200.000	-0.017	0.488
-745.171	800.000	-0.120	0.400
-744.156	102.862	0.169	0.200
-743.142	-8.654	-0.027	0.018
-742.127	482.369	0.101	-0.231
-741.112	-200.000	0.002	-0.017
-740.098	-200.000	0.038	0.457
-739.083	-26.855	0.251	0.149
-738.069	118.409	0.201	0.251
-737.054	-10.410	-0.107	-0.072
-736.039	-200.000	-0.009	0.103
-735.025	-171.598	0.374	0.013
-734.010	55.208	-0.362	-0.354
-732.996	-200.000	0.046	0.236
-731.981	-171.916	-0.146	-0.005
-730.966	29.406	0.167	-0.143
-729.952	92.762	-0.080	-0.092
-728.937	-200.000	0.040	-0.458
-727.923	60.451	0.149	0.149
-726.908	-34.112	0.111	-0.062
-725.894	-200.000	0.034	0.409
-724.879	800.000	-0.099	0.377
-723.864	-97.490	-0.181	-0.048
-722.850	-200.000	-0.030	0.159
-721.835	-181.744	-0.233	0.005
-720.821	-131.724	0.522	-0.069
-719.806	469.329	0.064	-0.145
-718.791	-104.570	-0.373	0.087
-717.777	-138.933	0.079	-0.009
-716.762	-39.668	-0.143	0.076
-715.748	141.859	0.140	0.188
-714.733	-92.986	0.315	0.089
-713.718	-69.516	-0.115	-0.045
-712.704	489.741	-0.210	0.485
-711.689	41.690	-0.279	0.256
-710.675	-165.928	-0.193	0.008
-709.660	800.000	0.056	0.165
-708.645	334.713	-0.073	0.143
-707.631	-200.000	0.037	0.241
-706.616	800.000	-0.033	-0.100
-705.602	-200.000	0.005	-0.365
-704.587	-80.975	0.123	0.041
-703.572	-121.780	-0.404	-0.067
-702.558	-19.920	0.136	-0.085
-701.543	-87.024	-0.158	0.049
-700.529	156.193	-0.191	-0.266
-699.514	-108.094	0.094	-0.021
-698.499	163.128	-0.088	-0.124
-697.485	-3.251	-0.121	-0.085
-696.470	-200.000	0.005	-0.135
-695.456	-117.835	-0.136	0.025
-694.441	-36.538	-0.084	-0.045
-693.426	800.000	0.032	0.103
-692.412	-82.740	-0.121	-0.040
-691.397	41.287	0.065	-0.059
-690.383	-80.655	-0.217	-0.073
-689.368	-1.976	-0.110	-0.078
-688.354	-34.433	-0.258	-0.143
-687.339	231.367	0.107	-0.178
-686.324	-23.229	0.075	-0.045
-685.310	-200.000	-0.037	-0.294
-684.295	-119.728	-0.115	0.020
-683.281	335.485	-0.082	-0.161
-682.266	800.000	-0.119	0.336
-681.251	130.831	-0.083	-0.108
-680.237	138.141	-0.110	-0.146
-679.222	-123.146	-0.136	-0.022
-678.208	-68.813	-0.281	-0.110
-677.193	800.000	-0.086	-0.311
-676.178	-129.927	-0.241	0.033
-675.164	-157.915	0.267	0.016
-674.149	-20.005	-0.161	-0.100
-673.135	-183.266	-0.113	0.002
-672.120	-4.358	0.308	0.215
-671.105	37.634	0.123	-0.111
-670.091	117.812	0.076	-0.094
-669.076	-200.000	0.012	-0.213
-668.062	454.203	-0.121	-0.270
-667.047	-200.000	-0.046	-0.282
-666.032	-200.000	-0.035	0.268
-665.018	-118.043	0.238	-0.043
-664.003	2.870	0.195	0.143
-662.989	128.530	-0.049	-0.063
-661.974	94.246	-0.142	0.163
-660.959	62.809	0.035	0.035
-659.945	449.707	-0.112	0.248
-658.930	-88.934	-0.284	-0.085
-657.916	-200.000	-0.007	0.048
-656.901	367.126	0.045	0.091
-655.886	589.822	-0.029	0.071
-654.872	-200.000	0.026	0.182
-653.857	-63.602	0.184	-0.076
-652.843	800.000	0.057	0.161
-651.828	173.212	-0.025	-0.036
-650.814	147.844	-0.182	-0.247
-649.799	243.176	0.013	-0.022
-648.784	800.000	0.109	-0.328
-647.770	82.648	-0.150	0.164
-646.755	118.617	0.110	-0.137
-645.741	144.926	-0.037	-0.050
-644.726	800.000	0.068	-0.236
-643.711	72.974	-0.068	0.071
-642.697	-169.823	0.113	0.004
-641.682	-32.884	0.406	-0.227
-640.668	784.109	-0.059	-0.164
-639.653	-57.712	-0.074	-0.033
-638.638	-15.265	-0.328	0.212
-637.624	83.858	-0.158	-0.174
-636.609	800.000	-0.070	-0.228
-635.595	-128.810	-0.243	0.034
-634.580	-200.000	0.021	-0.156
-633.565	800.000	-0.032	0.115
-632.551	-111.806	0.072	0.015
-631.536	-86.407	0.037	0.011
-630.522	363.748	-0.156	0.315
-629.507	-200.000	-0.055	0.330
-628.492	-200.000	0.002	0.238
-627.478	-110.873	-0.152	0.031
-626.463	310.972	0.138	0.261
-625.449	691.781	0.013	-0.034
-624.434	38.484	-0.087	0.078
-623.419	639.097	-0.054	-0.139
-622.405	97.537	0.161	-0.186
-621.390	386.946	0.178	0.371
-620.376	86.297	0.118	-0.131
-619.361	-145.056	-0.216	0.020
-618.346	-50.320	0.348	0.166
-617.332	-38.209	-0.303	-0.162
-616.317	197.521	-0.098	-0.151
-615.303	800.000	-0.023	-0.098
-614.288	189.945	0.108	-0.164
-613.273	800.000	-0.074	-0.208
-612.259	-141.994	-0.282	-0.028
-611.244	704.300	-0.070	-0.187
-610.230	262.557	-0.133	-0.232
-609.215	327.706	-0.103	-0.199
-608.201	181.162	-0.046	-0.068
-607.186	48.859	-0.119	-0.112
-606.171	-200.000	-0.073	-0.484
-605.157	-56.177	0.334	0.150
-604.142	46.019	0.121	0.113
-603.128	-35.842	0.305	-0.166
-602.113	54.589	0.079	-0.077
-601.098	-2.179	0.210	-0.148
-600.084	-33.773	-0.234	-0.130
-599.069	286.107	-0.033	-0.060
-598.055	-200.000	-0.001	0.134
-597.040	86.580	0.081	-0.090
-596.025	479.615	0.180	0.411
-595.011	-200.000	-0.003	0.371
-593.996	437.004	-0.101	-0.221
-592.982	800.000	-0.092	0.271
-591.967	71.383	0.024	-0.025
-590.952	3.005	-0.270	-0.197
-589.938	-200.000	-0.093	-0.000
-588.923	-85.458	0.174	0.054
-587.909	-19.700	0.286	0.178
-586.894	122.115	0.089	-0.112
-585.879	0.462	-0.293	-0.211
-584.865	-30.238	0.325	-0.186
-583.850	-156.123	0.347	-0.022
-582.836	-200.000	-0.557	0.001
-581.821	594.089	-0.089	0.221
-580.806	28.644	0.327	0.278
-579.792	-37.793	-0.162	0.087
-578.777	-200.000	0.019	0.144
-577.763	152.899	-0.118	0.163
-576.748	-116.969	-0.102	-0.019
-575.733	390.460	0.121	-0.253
-574.719	233.332	0.058	0.096
-573.704	-8.054	0.372	0.252
-572.690	67.179	-0.092	-0.094
-571.675	766.270	-0.067	0.182
-570.661	91.069	-0.314	0.354
-569.646	-58.787	0.280	0.122
-568.631	31.492	0.130	0.112
-567.617	175.129	0.100	0.146
-566.602	78.196	0.073	-0.079
-565.588	800.000	0.106	-0.309
-564.573	-200.000	0.063	-0.437
-563.558	-194.735	0.067	0.001
-562.544	120.059	-0.172	0.215
-561.529	-134.380	-0.123	-0.015
-560.515	-200.000	-0.013	-0.251
-559.500	-200.000	-0.051	-0.251
-558.485	-129.847	-0.136	0.019
-557.471	127.544	0.100	0.127
-556.456	-13.668	-0.160	0.104
-555.442	67.438	0.153	-0.157
-554.427	-130.837	0.183	0.025
-553.412	-200.000	-0.028	0.437
-552.398	-132.013	-0.111	-0.014
-551.383	-109.641	-0.236	0.050
-550.369	702.243	-0.019	-0.050
-549.354	-90.962	-0.108	0.031
-548.339	8.009	0.184	-0.139
-547.325	-200.000	-0.006	0.043
-546.310	247.320	-0.071	-0.121
-545.296	-200.000	-0.012	0.385
-544.281	-45.380	-0.271	0.135
-543.266	-124.610	-0.236	-0.037
-542.252	56.911	0.118	0.115
-541.237	256.173	0.117	0.202
-540.223	-200.000	0.012	0.135
-539.208	98.035	0.214	0.247
-538.193	-139.693	-0.006	0.001
-537.179	-72.470	-0.210	0.078
-536.164	800.000	0.043	0.172
-535.150	-185.219	0.109	-0.002
-534.135	800.000	-0.034	0.119
-533.121	-162.527	0.145	0.007
-532.106	32.059	-0.218	-0.189
-531.091	195.893	-0.172	-0.262
-530.077	204.006	-0.095	0.147
-529.062	-200.000	-0.035	0.236
-528.048	31.163	-0.051	-0.044
-527.033	31.253	-0.164	0.141
-526.018	789.715	-0.099	0.272
-525.004	-113.978	0.207	0.040
-523.989	-10.962	-0.116	0.077
-522.975	-200.000	-0.004	0.369
-521.960	-1.897	-0.195	-0.138
-520.945	-63.520	0.231	0.095
-519.931	77.213	-0.151	-0.161
-518.916	41.044	0.160	0.145
-517.902	-123.168	-0.144	0.023
-516.887	-200.000	0.018	-0.135
-515.872	800.000	0.067	0.262
-514.858	-200.000	0.029	0.272
-513.843	-72.058	-0.134	-0.050
-512.829	-59.752	0.360	0.155
-511.814	-200.000	-0.026	-0.417
-510.799	-5.972	-0.151	-0.103
-509.785	3.361	-0.272	0.199
-508.770	-200.000	-0.001	0.172
-507.756	-141.232	0.268	0.027
-506.741	-96.919	-0.351	0.092
-505.726	-46.146	0.191	-0.094
-504.712	-140.856	-0.258	0.027
-503.697	-140.495	0.196	-0.020
-502.683	1.466	-0.269	-0.194
-501.668	27.530	0.128	-0.108
-500.653	-56.931	-0.182	0.081
-499.639	-200.000	0.011	-0.122
-498.624	-58.680	-0.253	0.110
-497.610	-200.000	0.045	0.354
-496.595	211.927	0.104	0.164
-495.581	-182.917	0.235	0.004
-494.566	800.000	0.093	-0.329
-493.551	-42.139	-0.287	-0.147
-492.537	-200.000	-0.007	0.071
-491.522	2.112	0.397	0.287
-490.508	30.630	0.108	-0.092
-489.493	-200.000	-0.011	-0.160
-488.478	211.086	-0.073	0.115
-487.464	-140.644	-0.335	0.035
-486.449	-200.000	-0.005	-0.239
-485.435	-101.744	-0.135	0.033
-484.420	-107.990	0.223	-0.049
-483.405	71.237	0.098	0.102
-482.391	56.316	0.149	-0.145
-481.376	800.000	-0.074	0.252
-480.362	-136.049	0.152	-0.018
-479.347	679.202	-0.160	0.417
-478.332	-17.869	-0.154	-0.096
-477.318	286.268	0.055	-0.099
-476.303	-59.129	-0.139	0.060
-475.289	-200.000	-0.033	-0.146
-474.274	-30.656	-0.120	-0.068
-473.259	696.091	0.105	0.276
-472.245	415.010	-0.055	0.118
-471.230	178.996	-0.125	0.183
-470.216	-24.765	-0.176	0.105
-469.201	24.242	0.200	0.165
-468.186	133.451	0.318	-0.412
-467.172	-200.000	-0.064	-0.319
-466.157	1.854	-0.379	-0.274
-465.143	800.000	0.116	-0.474
-464.128	510.320	-0.120	-0.278
-463.113	17.265	0.285	-0.227
-462.099	371.233	-0.169	0.344
-461.084	542.642	0.102	0.243
-460.070	-141.216	0.277	0.028
-459.055	766.869	-0.018	0.048
-458.040	800.000	0.098	0.348
-457.026	-200.000	-0.002	0.062
-456.011	800.000	-0.047	-0.174
-454.997	-78.063	-0.310	0.107
-453.982	-131.153	0.278	-0.037
-452.968	-13.300	0.076	-0.049
-451.953	-200.000	0.008	-0.229
-450.938	-200.000	0.004	-0.095
-449.924	48.091	-0.213	0.199
-448.909	-149.803	-0.094	-0.007
-447.895	46.500	-0.153	-0.142
-446.880	-200.000	0.033	-0.316
-445.865	-200.000	0.006	-0.282
-444.851	560.989	-0.109	-0.264
-443.836	800.000	-0.077	0.216
-442.822	-33.037	-0.242	0.134
-441.807	-161.411	0.271	-0.014
-440.792	-200.000	0.005	0.262
-439.778	-4.841	0.115	0.080
-438.763	167.202	-0.237	-0.336
-437.749	-200.000	-0.004	-0.120
-436.734	27.480	0.221	0.186
-435.719	-8.187	-0.221	0.149
-434.705	-157.565	0.231	0.014
-433.690	108.870	0.088	0.105
-432.676	566.946	-0.143	-0.346
-431.661	-35.664	-0.100	0.054
-430.646	41.918	0.045	0.041
-429.632	155.910	0.092	-0.127
-428.617	-37.167	-0.180	0.096
-427.603	-200.000	0.093	-0.407
-426.588	-144.569	-0.097	0.009
-425.573	-121.665	0.087	0.014
-424.559	800.000	0.072	-0.271
-423.544	-149.256	0.146	0.012
-422.530	-85.715	-0.190	0.059
-421.515	-0.243	-0.069	0.049
-420.500	-47.720	-0.102	0.050
-419.486	-144.197	0.114	0.011
-418.471	47.346	0.257	-0.239
-417.457	-37.486	-0.205	-0.109
-416.442	22.534	0.191	0.156
-415.428	-25.878	-0.255	0.150
-414.413	47.249	-0.053	0.049
-413.398	35.896	0.160	0.141
-412.384	2.075	0.080	-0.058
-411.369	681.143	-0.132	-0.343
-410.355	182.225	0.104	0.153
-409.340	450.209	-0.082	-0.180
-408.325	-86.146	0.084	-0.026
-407.311	558.509	0.077	-0.186
-406.296	-200.000	-0.255	0.001
-405.282	12.809	-0.035	0.027
-404.267	-200.000	0.043	-0.219
-403.252	-106.507	0.066	0.015
-402.238	180.003	0.125	0.182
-401.223	-35.752	-0.162	-0.088
-400.209	252.940	0.184	0.314
-399.194	37.211	0.331	0.293
-398.179	201.173	-0.074	-0.114
-397.165	-84.151	0.021	-0.007
-396.150	391.637	0.137	0.285
-395.136	247.151	0.023	0.038
-394.121	316.784	0.239	-0.450
-393.106	86.557	-0.084	0.092
-392.092	-200.000	0.004	-0.306
-391.077	31.013	-0.323	0.277
-390.063	-24.553	0.257	0.153
-389.048	-38.031	-0.205	-0.108
-388.033	-135.400	-0.268	0.032
-387.019	-65.359	0.333	-0.134
-386.004	-145.637	0.164	-0.015
-384.990	-59.892	0.040	0.017
-383.975	279.232	0.211	-0.375
-382.960	54.216	-0.320	-0.307
-381.946	800.000	0.072	-0.228
-380.931	-44.308	-0.288	0.144
-379.917	141.850	0.010	-0.013
-378.902	-200.000	0.007	0.079
-377.888	-200.000	-0.027	0.355
-376.873	522.454	-0.020	0.046
-375.858	-48.375	-0.112	0.054
-374.844	-162.209	-0.269	-0.013
-373.829	-92.629	-0.124	-0.035
-372.815	-154.223	0.182	-0.012
-371.800	335.037	-0.066	0.127
-370.785	-200.000	-0.028	-0.203
-369.771	-187.769	0.163	0.002
-368.756	800.000	0.033	0.106
-367.742	26.802	0.117	-0.098
-366.727	582.271	-0.097	-0.237
-365.712	-200.000	-0.022	-0.123
-364.698	87.347	0.359	-0.396
-363.683	-137.908	-0.391	0.044
-362.669	-149.741	0.149	0.012
-361.654	800.000	-0.038	-0.119
-360.639	69.686	-0.196	-0.201
-359.625	-49.242	0.364	0.173
-358.610	335.535	-0.094	0.181
-357.596	-134.338	0.074	0.009
-356.581	79.018	0.108	-0.116
-355.566	-142.949	0.186	0.018
-354.552	8.500	-0.151	0.113
-353.537	-200.000	0.041	0.214
-352.523	-56.011	0.232	0.103
-351.508	437.132	0.048	0.103
-350.493	-160.955	0.115	-0.006
-349.479	25.251	0.275	-0.227
-348.464	-60.359	0.086	-0.037
-347.450	-200.000	0.038	-0.256
-346.435	237.420	-0.063	0.104
-345.420	386.693	-0.134	-0.276
-344.406	465.330	-0.144	0.321
-343.391	16.362	0.276	0.217
-342.377	-46.890	-0.235	0.115
-341.362	-72.103	-0.084	0.031
-340.348	-58.906	-0.017	-0.007
-339.333	-10.739	0.106	0.070
-338.318	105.555	-0.098	0.115
-337.304	-200.000	0.025	-0.139
-336.289	-24.234	-0.170	-0.101
-335.275	534.745	0.021	0.050
-334.260	-37.782	-0.016	0.009
-333.245	188.141	-0.085	0.127
-332.231	-0.844	0.329	0.232
-331.216	31.001	0.120	0.102
-330.202	800.000	0.085	0.361
-329.187	-20.749	-0.342	0.209
-328.172	800.000	-0.057	0.159
-327.158	-200.000	-0.003	0.082
-326.143	13.155	0.138	-0.107
-325.129	3.346	0.166	-0.120
-324.114	-117.148	0.193	-0.035
-323.099	75.279	-0.028	-0.029
-322.085	-200.000	0.016	0.238
-321.070	30.782	-0.077	-0.065
-320.056	-62.057	-0.298	0.124
-319.041	261.656	0.017	-0.030
-318.026	-119.932	-0.066	0.011
-317.012	-200.000	0.000	0.006
-315.997	-200.000	-0.048	-0.385
-314.983	-89.831	-0.296	-0.086
-313.968	800.000	-0.008	0.023
-312.953	-200.000	0.004	0.143
-311.939	-104.856	-0.068	-0.016
-310.924	746.802	0.168	-0.451
-309.910	91.098	-0.246	-0.275
-308.895	-77.148	0.082	-0.028
-307.880	-200.000	0.052	0.339
-306.866	-200.000	0.010	0.237
-305.851	-87.216	0.082	0.025
-304.837	-74.109	-0.302	0.109
-303.822	800.000	0.054	-0.228
-302.807	745.422	-0.157	0.421
-301.793	-200.000	0.044	0.364
-300.778	160.800	0.077	0.107
-299.764	-200.000	0.251	-0.001
-298.749	-200.000	-0.016	0.147
-297.735	56.149	-0.112	-0.108
-296.720	-131.826	0.206	0.027
-295.705	267.399	0.025	-0.044
-294.691	-8.639	0.291	-0.194
-293.676	800.000	-0.081	0.254
-292.662	630.205	-0.120	-0.301
-291.647	-200.000	0.038	0.202
-290.632	-156.251	0.215	-0.013
-289.618	800.000	0.091	-0.258
-288.603	-139.241	-0.362	-0.039
-287.589	-200.000	0.016	-0.209
-286.574	269.070	0.061	-0.106
-285.559	-200.000	-0.012	-0.220
-284.545	-197.921	-0.259	0.002
-283.530	155.459	-0.145	0.199
-282.516	-29.266	0.255	-0.145
-281.501	-58.061	-0.095	0.041
-280.486	-47.124	0.162	-0.079
-279.472	-129.269	0.393	-0.054
-278.457	219.948	-0.211	0.336
-277.443	232.061	-0.116	0.189
-276.428	-90.654	0.301	-0.086
-275.413	245.734	0.058	-0.097
-274.399	-200.000	0.132	0.000
-273.384	-200.000	-0.004	-0.096
-272.370	697.385	0.095	0.249
-271.355	156.916	0.089	0.122
-270.340	-200.000	0.111	0.000
-269.326	474.770	0.122	-0.273
-268.311	-150.474	0.443	-0.034
-267.297	-137.952	-0.161	0.018
-266.282	-129.323	-0.154	0.021
-265.267	-145.929	-0.257	0.023
-264.253	-117.381	0.158	0.028
-263.238	-200.000	-0.006	0.168
-262.224	-132.846	-0.113	0.014
-261.209	54.615	-0.139	0.133
-260.195	-100.661	0.180	-0.044
-259.180	-200.000	0.021	-0.120
-258.165	377.801	0.150	-0.305
-257.151	-200.000	-0.004	0.037
-256.136	800.000	-0.026	-0.081
-255.122	182.839	-0.120	-0.176
-254.107	124.274	0.181	-0.226
-253.092	-129.664	-0.157	0.021
-252.078	-108.011	-0.205	0.044
-251.063	-124.194	-0.127	-0.020
-250.049	-133.467	0.260	0.032
-249.034	800.000	0.062	-0.224
-248.019	-118.857	0.124	-0.022
-247.005	-200.000	0.011	-0.175
-245.990	800.000	0.030	-0.097
-244.976	-200.000	0.024	-0.188
-243.961	7.238	0.255	-0.189
-242.946	285.921	0.184	-0.330
-241.932	-91.145	0.086	0.024
-240.917	64.211	-0.119	-0.119
-239.903	-200.000	0.076	-0.379
-238.888	-178.056	0.293	-0.007
-237.873	252.304	-0.134	-0.227
-236.859	31.742	-0.158	0.135
-235.844	-124.282	0.305	-0.047
-234.830	-200.000	0.000	0.127
-233.815	82.367	-0.228	0.245
-232.800	-200.000	-0.002	0.126
-231.786	-75.537	-0.346	0.122
-230.771	-67.610	0.076	0.030
-229.757	106.993	0.077	0.091
-228.742	800.000	-0.090	-0.313
-227.727	35.539	0.214	0.186
-226.713	-192.848	0.238	-0.002
-225.698	-200.000	-0.013	0.188
-224.684	-80.169	0.070	0.023
-223.669	-153.500	-0.083	0.006
-222.655	-129.676	-0.075	0.010
-221.640	248.093	0.099	-0.167
-220.625	-5.262	-0.216	0.147
-219.611	-200.000	-0.095	0.425
-218.596	-174.210	-0.018	0.001
-217.582	800.000	0.098	0.301
-216.567	800.000	0.042	0.174
-215.552	297.869	-0.137	0.249
-214.538	-200.000	0.050	-0.308
-213.523	-200.000	-0.015	-0.140
-212.509	321.753	-0.031	0.058
-211.494	-84.715	0.214	0.067
-210.479	89.780	-0.131	0.145
-209.465	-16.792	0.072	0.045
-208.450	-200.000	-0.039	-0.207
-207.436	187.068	0.026	-0.038
-206.421	234.500	0.081	0.132
-205.406	207.602	0.176	-0.271
-204.392	-103.539	0.177	0.041
-203.377	-128.286	-0.312	-0.044
-202.363	718.400	0.020	-0.052
-201.348	-200.000	0.046	0.213
-200.333	-39.671	-0.112	0.058
-199.319	-48.831	0.059	0.028
-198.304	-36.129	0.242	0.129
-197.290	-87.483	-0.268	-0.080
-196.275	-75.388	0.340	-0.120
-195.260	-120.516	-0.164	-0.028
-194.246	-200.000	-0.000	0.290
-193.231	-200.000	0.062	0.276
-192.217	126.980	0.122	-0.153
-191.202	369.720	-0.174	0.349
-190.187	-39.499	0.191	-0.099
-189.173	392.749	-0.111	-0.228
-188.158	-147.459	-0.068	-0.006
-187.144	-87.635	0.191	0.057
-186.129	14.420	0.362	0.279
-185.114	-200.000	0.033	0.221
-184.100	-200.000	0.008	-0.040
-183.085	-35.356	-0.279	0.150
-182.071	-200.000	0.005	-0.048
-181.056	800.000	0.026	0.112
-180.042	-83.710	0.332	-0.105
-179.027	319.990	-0.044	-0.082
-178.012	301.632	-0.046	0.083
-176.998	52.537	-0.148	0.140
-175.983	631.199	0.060	0.149
-174.969	-90.853	0.149	0.042
-173.954	-90.696	0.155	0.044
-172.939	800.000	-0.052	0.146
-171.925	331.657	0.093	-0.178
-170.910	-200.000	-0.048	-0.278
-169.896	67.810	0.040	-0.040
-168.881	-51.878	-0.130	0.060
-167.866	-188.805	-0.105	0.001
-166.852	-175.962	0.138	0.004
-165.837	-200.000	0.026	0.293
-164.823	760.757	-0.135	-0.362
-163.808	-113.619	-0.651	-0.126
-162.793	-96.896	-0.278	0.072
-161.779	-144.410	-0.169	0.016
-160.764	-133.524	-0.111	0.014
-159.750	800.000	-0.063	-0.179
-158.735	-79.861	0.506	-0.168
-157.720	-200.000	-0.010	0.061
-156.706	140.676	-0.137	-0.179
-155.691	-49.445	-0.110	0.052
-154.677	-0.601	-0.379	-0.266
-153.662	221.062	-0.043	-0.068
-152.647	-136.830	-0.305	-0.035
-151.633	-200.000	0.054	-0.242
-150.618	43.981	0.256	0.232
-149.604	80.380	-0.122	0.130
-148.589	800.000	-0.047	-0.161
-147.574	405.000	-0.075	0.157
-146.560	259.190	0.074	-0.127
-145.545	-152.350	-0.307	0.022
-144.531	-33.789	-0.259	0.141
-143.516	-9.865	0.425	0.279
-142.502	-113.012	-0.459	0.090
-141.487	130.697	0.223	-0.282
-140.472	-75.109	0.146	0.052
-139.458	-89.428	-0.123	-0.036
-138.443	49.882	-0.124	0.115
-137.429	-92.637	-0.050	0.014
-136.414	476.950	0.097	0.216
-135.399	-200.000	0.022	0.104
-134.385	-85.155	-0.406	-0.126
-133.370	144.063	0.149	0.197
-132.356	-49.777	-0.498	0.234
-131.341	-99.665	0.124	0.031
-130.326	106.912	0.204	0.239
-129.312	800.000	0.018	-0.067
-128.297	652.014	-0.170	0.430
-127.283	178.345	0.143	0.207
-126.268	-34.317	0.087	-0.047
-125.253	-173.187	-0.125	-0.004
-124.239	-60.540	0.217	-0.091
-123.224	-58.777	-0.048	-0.020
-122.210	398.040	-0.099	0.204
