DTS Sentinel unit serial number:	SN413079Multiplexer serial number:	ORYXHardware model number:	OX4-SRSoftware version number:	ORYX F/W v4.00 Oryx Data Collector v3.7.2.0data status	okinstallation	princeton_trtdifferential loss correction	single-endedforward channel	channel 3reverse channel	N/Adate	2019/09/15time	23:56:35forward acquisition time	60.00reverse acquisition time	0.00gamma	496.2192k internal	0.2336k external	0.2336temperature offset calibration	0.9951default loss term (dB/km)	0.3790temperature slope calibration	1.0000multiplexer offset coefficient	1.0000multiplexer slope coefficient	1.0000fibre end	0.00T internal ref (°C)	27.89T ext. ref 1 (°C)	9.35T ext. ref 2 (°C)	21.81length (m)	temperature (°C)	Stokes	anti-Stokes-747.200	-181.197	-0.263	-0.005
-746.185	65.303	-0.171	0.174
-745.171	-200.000	0.109	-0.534
-744.156	-45.191	-0.398	0.199
-743.142	-179.996	-0.032	0.001
-742.127	-121.608	-0.382	0.064
-741.112	332.298	0.057	-0.111
-740.098	-127.726	-0.327	0.047
-739.083	-186.790	0.049	0.001
-738.069	-87.840	-0.262	0.079
-737.054	-200.000	0.025	0.300
-736.039	665.693	0.060	-0.155
-735.025	37.633	0.067	-0.060
-734.010	746.667	-0.071	0.191
-732.996	-99.381	0.146	0.037
-731.981	167.318	-0.119	0.169
-730.966	80.473	-0.062	-0.067
-729.952	-164.113	-0.417	-0.019
-728.937	-129.569	-0.219	0.030
-727.923	-65.388	-0.133	-0.054
-726.908	517.543	0.054	0.127
-725.894	-200.000	-0.024	-0.353
-724.879	294.984	-0.028	-0.052
-723.864	-19.501	0.263	0.163
-722.850	-200.000	-0.060	0.324
-721.835	38.843	0.007	-0.007
-720.821	-200.000	-0.047	-0.213
-719.806	106.805	-0.202	-0.240
-718.791	408.863	0.078	-0.166
-717.777	800.000	-0.006	0.018
-716.762	-57.250	0.157	0.069
-715.748	373.988	-0.055	-0.112
-714.733	307.185	-0.006	-0.011
-713.718	800.000	0.160	-0.467
-712.704	89.782	-0.272	-0.305
-711.689	-200.000	0.039	0.213
-710.675	-200.000	0.129	0.000
-709.660	-162.932	0.303	-0.015
-708.645	660.235	-0.061	0.156
-707.631	377.177	-0.075	-0.153
-706.616	-200.000	0.055	-0.278
-705.602	6.844	0.160	0.120
-704.587	-200.000	-0.021	-0.124
-703.572	-200.000	-0.055	-0.251
-702.558	-52.572	0.269	0.125
-701.543	-105.771	-0.369	-0.084
-700.529	679.099	-0.073	-0.192
-699.514	40.496	-0.113	0.102
-698.499	-200.000	-0.052	0.236
-697.485	-25.940	-0.181	-0.107
-696.470	431.917	0.252	-0.547
-695.456	95.285	0.050	-0.057
-694.441	269.040	-0.097	0.171
-693.426	152.719	0.069	0.095
-692.412	569.308	-0.071	0.174
-691.397	61.341	0.189	0.188
-690.383	32.053	-0.048	-0.041
-689.368	-200.000	0.013	-0.061
-688.354	36.568	-0.220	-0.194
-687.339	-200.000	0.027	-0.133
-686.324	-26.859	-0.086	-0.050
-685.310	-178.632	-0.164	-0.004
-684.295	45.903	0.132	0.122
-683.281	131.057	0.136	-0.175
-682.266	-11.807	-0.197	0.130
-681.251	-146.960	-0.091	0.008
-680.237	-200.000	-0.004	-0.055
-679.222	-68.162	-0.211	0.082
-678.208	-171.706	0.209	-0.007
-677.193	96.131	0.040	0.046
-676.178	-100.233	0.277	0.069
-675.164	-10.654	-0.127	0.084
-674.149	-14.007	-0.188	0.122
-673.135	800.000	0.057	0.164
-672.120	-81.416	-0.229	-0.075
-671.105	223.690	0.020	0.032
-670.091	96.577	-0.186	-0.214
-669.076	99.629	-0.317	0.368
-668.062	163.566	0.134	-0.188
-667.047	-200.000	0.013	0.140
-666.032	-200.000	0.042	-0.215
-665.018	89.443	-0.116	0.130
-664.003	-192.247	-0.119	0.001
-662.989	169.998	0.117	-0.167
-661.974	78.836	-0.152	-0.163
-660.959	-116.116	-0.118	-0.022
-659.945	-200.000	0.014	0.103
-658.930	94.790	0.195	0.222
-657.916	228.492	0.221	0.361
-656.901	-79.519	-0.128	0.043
-655.886	512.370	0.026	-0.062
-654.872	205.382	-0.154	-0.239
-653.857	141.015	0.161	-0.214
-652.843	33.084	0.096	-0.084
-651.828	74.500	-0.239	-0.252
-650.814	81.862	0.131	-0.142
-649.799	800.000	-0.052	-0.223
-648.784	436.875	0.090	-0.195
-647.770	239.367	-0.102	-0.170
-646.755	509.094	-0.120	0.279
-645.741	-39.666	-0.275	0.144
-644.726	375.491	0.065	-0.132
-643.711	223.740	-0.156	-0.251
-642.697	800.000	0.057	-0.198
-641.682	39.167	0.331	0.296
-640.668	30.206	0.125	0.106
-639.653	5.158	-0.157	-0.115
-638.638	-103.188	0.284	-0.067
-637.624	-126.437	0.415	0.062
-636.609	-200.000	0.001	0.007
-635.595	-36.580	-0.097	0.052
-634.580	-200.000	0.022	0.386
-633.565	-154.447	-0.220	-0.015
-632.551	-134.708	-0.254	0.031
-631.536	-80.642	0.034	-0.011
-630.522	-53.728	-0.220	0.100
-629.507	800.000	0.045	0.147
-628.492	101.906	0.091	0.106
-627.478	91.489	0.035	-0.039
-626.463	-49.351	0.345	-0.164
-625.449	-31.543	0.128	-0.072
-624.434	-200.000	0.092	-0.444
-623.419	-109.837	0.098	0.021
-622.405	800.000	0.095	-0.275
-621.390	44.132	-0.033	0.031
-620.376	-154.986	-0.385	0.025
-619.361	55.318	0.022	0.021
-618.346	172.913	0.109	-0.157
-617.332	-57.196	-0.169	0.075
-616.317	-79.027	-0.106	-0.036
-615.303	-200.000	-0.030	-0.202
-614.288	8.310	-0.236	0.177
-613.273	419.631	0.078	0.168
-612.259	664.651	-0.045	0.116
-611.244	438.449	-0.203	0.442
-610.230	-200.000	-0.052	-0.328
-609.215	194.431	0.071	-0.108
-608.201	-26.381	-0.045	-0.026
-607.186	-53.436	-0.142	-0.065
-606.171	166.239	0.099	-0.140
-605.157	409.696	0.044	0.093
-604.142	-36.510	0.095	-0.051
-603.128	-145.829	0.263	0.023
-602.113	-200.000	0.051	0.339
-601.098	-8.686	0.250	0.167
-600.084	-16.101	-0.084	0.053
-599.069	-30.860	0.074	-0.042
-598.055	-29.626	-0.179	-0.102
-597.040	552.231	-0.147	0.353
-596.025	131.263	-0.134	0.172
-595.011	-200.000	-0.028	0.234
-593.996	39.283	0.215	0.192
-592.982	-9.324	0.327	0.218
-591.967	513.788	-0.103	0.239
-590.952	-58.922	0.339	-0.146
-589.938	-200.000	-0.068	-0.333
-588.923	800.000	-0.094	0.398
-587.909	-78.616	0.180	-0.061
-586.894	-139.229	0.172	-0.018
-585.879	158.036	0.039	-0.054
-584.865	800.000	-0.061	0.195
-583.850	-126.646	0.095	-0.014
-582.836	-141.495	0.124	0.013
-581.821	-200.000	-0.018	0.232
-580.806	800.000	0.033	-0.110
-579.792	-183.787	0.128	0.002
-578.777	-22.683	-0.109	-0.066
-577.763	-159.955	0.094	-0.005
-576.748	134.288	-0.228	-0.295
-575.733	-32.404	-0.023	-0.013
-574.719	-44.900	0.368	0.183
-573.704	-200.000	-0.028	0.153
-572.690	-122.902	-0.285	0.046
-571.675	38.373	-0.231	-0.205
-570.661	-68.191	0.273	-0.106
-569.646	432.849	0.138	0.298
-568.631	33.742	0.222	0.192
-567.617	-105.156	-0.218	0.050
-566.602	87.624	-0.164	0.181
-565.588	-200.000	0.005	-0.029
-564.573	-200.000	-0.009	0.105
-563.558	-92.044	0.255	0.072
-562.544	800.000	-0.072	0.211
-561.529	48.984	-0.135	0.126
-560.515	-200.000	0.043	-0.193
-559.500	12.038	-0.263	0.201
-558.485	16.930	-0.193	-0.153
-557.471	-62.718	-0.092	-0.038
-556.456	510.686	0.074	-0.172
-555.442	676.177	-0.026	-0.067
-554.427	3.500	-0.287	-0.209
-553.412	606.383	0.076	-0.188
-552.398	-200.000	0.003	0.160
-551.383	6.760	-0.267	-0.198
-550.369	-78.838	-0.099	-0.034
-549.354	-130.287	-0.227	-0.031
-548.339	488.844	0.011	-0.026
-547.325	-184.885	-0.325	0.005
-546.310	800.000	0.028	0.091
-545.296	74.465	-0.209	-0.219
-544.281	-88.914	0.239	0.071
-543.266	-128.552	0.208	-0.029
-542.252	800.000	-0.056	0.236
-541.237	800.000	-0.059	0.163
-540.223	218.664	-0.079	0.125
-539.208	-175.738	0.202	-0.005
-538.193	434.794	-0.158	-0.343
-537.179	800.000	0.090	-0.284
-536.164	-200.000	0.035	0.196
-535.150	-142.109	-0.244	0.024
-534.135	-61.443	-0.368	-0.154
-533.121	14.865	0.271	0.211
-532.106	278.779	-0.088	-0.157
-531.091	-65.801	-0.209	-0.083
-530.077	198.344	-0.070	0.107
-529.062	-200.000	0.002	0.450
-528.048	-84.480	-0.147	-0.046
-527.033	560.797	0.039	-0.093
-526.018	73.689	0.129	-0.135
-525.004	30.547	0.184	-0.157
-523.989	503.225	-0.081	0.187
-522.975	-200.000	0.003	0.189
-521.960	133.963	0.273	-0.352
-520.945	-200.000	0.012	-0.354
-519.931	-143.550	0.170	0.016
-518.916	-79.000	-0.380	0.129
-517.902	379.642	-0.135	0.274
-516.887	-84.912	0.338	0.106
-515.872	800.000	-0.017	0.057
-514.858	7.114	-0.116	-0.086
-513.843	-92.744	0.187	-0.052
-512.829	-73.339	-0.272	0.099
-511.814	-200.000	0.451	0.001
-510.799	58.369	-0.123	0.120
-509.785	800.000	0.012	-0.045
-508.770	161.837	0.128	0.179
-507.756	-129.309	-0.180	-0.025
-506.741	-32.941	0.266	-0.147
-505.726	-114.040	-0.165	0.032
-504.712	800.000	0.045	-0.173
-503.697	-29.423	-0.140	0.080
-502.683	416.608	-0.115	-0.244
-501.668	-75.134	0.311	-0.111
-500.653	31.636	0.117	-0.100
-499.639	-80.740	-0.282	0.093
-498.624	-182.386	0.148	-0.003
-497.610	-131.670	-0.212	0.028
-496.595	-21.443	-0.296	-0.180
-495.581	-0.366	0.382	0.270
-494.566	-200.000	0.007	-0.282
-493.551	2.731	-0.326	-0.235
-492.537	-167.579	-0.410	-0.016
-491.522	-123.174	0.262	0.042
-490.508	110.713	-0.150	-0.179
-489.493	741.333	-0.010	-0.026
-488.478	800.000	-0.058	0.233
-487.464	-76.093	0.364	0.128
-486.449	-60.945	-0.237	-0.100
-485.435	475.469	0.028	-0.063
-484.420	800.000	0.099	-0.290
-483.405	239.600	-0.263	-0.435
-482.391	-109.785	-0.316	-0.066
-481.376	-200.000	0.060	0.301
-480.362	-29.404	-0.262	-0.149
-479.347	-200.000	0.029	0.181
-478.332	90.537	-0.205	0.228
-477.318	65.910	-0.153	-0.154
-476.303	-72.724	0.144	-0.053
-475.289	61.565	-0.089	0.088
-474.274	230.713	0.162	-0.264
-473.259	17.205	-0.087	0.069
-472.245	223.365	-0.265	0.425
-471.230	-200.000	0.007	0.209
-470.216	145.121	0.149	0.198
-469.201	136.682	0.183	-0.238
-468.186	-200.000	-0.037	0.166
-467.172	535.957	-0.095	0.223
-466.157	-151.624	-0.545	-0.040
-465.143	-10.792	0.332	0.218
-464.128	-178.081	-0.103	-0.002
-463.113	800.000	0.097	-0.271
-462.099	304.098	0.020	-0.038
-461.084	-148.930	0.347	-0.028
-460.070	-10.866	-0.367	0.241
-459.055	-200.000	0.018	-0.336
-458.040	-139.425	0.338	-0.036
-457.026	74.870	-0.040	0.041
-456.011	800.000	0.042	-0.154
-454.997	-88.850	-0.303	0.089
-453.982	-190.723	-0.160	-0.002
-452.968	169.952	-0.103	-0.146
-451.953	104.765	0.136	-0.159
-450.938	-137.933	0.072	0.008
-449.924	351.187	0.065	0.128
-448.909	0.525	0.055	-0.039
-447.895	-87.419	0.134	0.040
-446.880	97.647	0.123	0.141
-445.865	544.510	0.080	-0.190
-444.851	-134.298	0.313	0.038
-443.836	-18.448	0.210	-0.130
-442.822	-200.000	0.044	-0.194
-441.807	72.791	0.106	-0.110
-440.792	-115.807	0.125	0.023
-439.778	136.709	0.149	0.193
-438.763	70.690	-0.073	0.075
-437.749	-41.745	0.117	0.059
-436.734	477.234	-0.097	-0.217
-435.719	-37.161	0.059	0.031
-434.705	-200.000	0.043	-0.260
-433.690	-128.014	0.139	0.020
-432.676	176.334	-0.081	-0.117
-431.661	-70.669	-0.021	-0.008
-430.646	52.308	-0.033	-0.031
-429.632	-200.000	0.006	0.362
-428.617	570.606	-0.095	0.228
-427.603	77.665	-0.127	0.134
-426.588	-29.322	-0.187	0.106
-425.573	-200.000	-0.011	-0.104
-424.559	-150.069	0.255	0.020
-423.544	577.431	0.084	0.204
-422.530	-200.000	-0.007	0.181
-421.515	-29.744	0.289	-0.163
-420.500	115.502	0.108	0.131
-419.486	286.367	0.049	-0.088
-418.471	-26.961	0.004	-0.002
-417.457	-85.008	0.050	0.016
-416.442	-200.000	0.026	-0.181
-415.428	-120.701	0.339	-0.057
-414.413	158.337	0.028	-0.038
-413.398	-130.218	-0.297	0.040
-412.384	-110.611	-0.259	0.053
-411.369	-200.000	-0.003	0.166
-410.355	-24.032	-0.209	-0.124
-409.340	23.322	0.086	0.070
-408.325	-57.867	-0.321	0.139
-407.311	-13.507	-0.073	0.047
-406.296	-163.846	0.209	-0.010
-405.282	-15.473	-0.050	0.032
-404.267	-69.823	-0.339	-0.128
-403.252	475.617	-0.095	-0.213
-402.238	-92.041	0.181	-0.051
-401.223	-200.000	0.011	-0.073
-400.209	36.384	0.016	-0.014
-399.194	137.501	0.081	-0.105
-398.179	407.538	0.211	-0.443
-397.165	-86.752	0.155	-0.047
-396.150	3.804	0.219	0.158
-395.136	111.043	0.031	-0.037
-394.121	-71.496	-0.160	0.059
-393.106	259.138	-0.115	-0.197
-392.092	9.480	0.132	0.099
-391.077	-64.172	-0.108	-0.044
-390.063	-73.252	-0.206	-0.075
-389.048	-87.258	0.279	-0.084
-388.033	127.507	-0.095	-0.119
-387.019	-71.344	-0.116	-0.043
-386.004	-49.551	0.261	-0.123
-384.990	73.461	-0.162	0.168
-383.975	-142.109	-0.266	-0.026
-382.960	800.000	-0.007	-0.027
-381.946	368.003	-0.105	-0.211
-380.931	34.980	0.232	-0.201
-379.917	800.000	0.097	-0.269
-378.902	-200.000	0.001	-0.155
-377.888	522.648	0.063	0.146
-376.873	-200.000	-0.010	0.059
-375.858	-200.000	0.018	-0.266
-374.844	80.085	-0.249	0.265
-373.829	-200.000	0.098	0.464
-372.815	-46.192	0.117	0.057
-371.800	559.929	0.090	-0.215
-370.785	-97.230	0.183	-0.047
-369.771	171.825	-0.018	0.026
-368.756	16.485	0.287	0.225
-367.742	497.486	-0.085	0.193
-366.727	24.842	-0.196	-0.161
-365.712	142.013	0.166	-0.217
-364.698	-154.771	0.243	0.016
-363.683	379.179	-0.185	-0.375
-362.669	180.911	-0.231	0.336
-361.654	251.564	-0.206	-0.347
-360.639	316.083	-0.160	0.299
-359.625	800.000	-0.096	0.384
-358.610	-24.882	0.220	0.129
-357.596	800.000	0.064	-0.216
-356.581	345.769	-0.218	0.424
-355.566	122.877	0.165	0.204
-354.552	-65.757	0.196	0.078
-353.537	-200.000	0.017	-0.077
-352.523	-174.710	-0.199	0.006
-351.508	21.798	-0.185	0.149
-350.493	-99.918	-0.061	-0.015
-349.479	-46.853	-0.080	-0.038
-348.464	314.410	0.143	-0.266
-347.450	-12.302	-0.154	-0.099
-346.435	241.612	-0.046	0.076
-345.420	117.065	0.048	-0.058
-344.406	20.285	-0.252	-0.201
-343.391	-112.563	0.211	-0.042
-342.377	800.000	-0.013	0.042
-341.362	800.000	0.094	0.376
-340.348	337.240	-0.110	0.211
-339.333	-49.224	-0.135	-0.064
-338.318	800.000	0.025	-0.078
-337.304	-149.086	-0.233	0.018
-336.289	800.000	0.026	0.110
-335.275	-123.274	-0.174	-0.027
-334.260	800.000	0.016	0.060
-333.245	-102.331	-0.166	-0.039
-332.231	-1.990	0.351	-0.244
-331.216	-84.334	-0.080	0.025
-330.202	86.467	0.313	-0.341
-329.187	-19.049	0.153	-0.094
-328.172	2.970	-0.348	0.250
-327.158	519.879	-0.127	-0.293
-326.143	69.588	-0.050	-0.051
-325.129	800.000	-0.048	0.142
-324.114	208.701	-0.157	0.243
-323.099	-82.447	-0.200	0.064
-322.085	-139.775	0.418	0.044
-321.070	130.114	0.045	0.057
-320.056	-23.754	-0.117	0.069
-319.041	-200.000	-0.036	0.281
-318.026	-88.646	-0.106	-0.031
-317.012	-200.000	-0.051	-0.266
-315.997	-74.649	0.164	-0.058
-314.983	-127.190	-0.270	-0.039
-313.968	-145.418	0.189	0.017
-312.953	-106.070	-0.087	-0.019
-311.939	-101.246	0.429	-0.103
-310.924	-200.000	-0.015	0.098
-309.910	378.729	-0.091	0.183
-308.895	26.423	-0.018	-0.015
-307.880	-151.066	0.316	-0.023
-306.866	9.181	0.225	-0.168
-305.851	-37.737	0.059	-0.031
-304.837	73.099	-0.229	0.236
-303.822	800.000	-0.076	0.284
-302.807	-200.000	0.060	-0.271
-301.793	-200.000	0.045	-0.229
-300.778	263.998	-0.148	0.255
-299.764	-200.000	-0.002	-0.038
-298.749	-200.000	0.038	0.240
-297.735	-37.728	-0.121	-0.063
-296.720	-200.000	0.050	0.332
-295.705	-200.000	0.017	-0.249
-294.691	-112.674	0.270	-0.053
-293.676	553.166	-0.056	-0.132
-292.662	117.236	-0.136	-0.165
-291.647	-86.977	-0.223	0.067
-290.632	1.376	-0.097	-0.069
-289.618	-127.688	-0.162	-0.023
-288.603	-200.000	0.026	0.317
-287.589	53.540	-0.069	0.065
-286.574	16.807	-0.179	0.140
-285.559	207.242	-0.271	-0.417
-284.545	-148.892	0.300	-0.024
-283.530	-15.365	-0.120	0.076
-282.516	-71.612	-0.408	-0.150
-281.501	-177.740	0.321	0.008
-280.486	-18.078	0.352	0.218
-279.472	-111.762	-0.205	0.041
-278.457	20.668	-0.042	0.034
-277.443	20.877	-0.061	-0.049
-276.428	243.665	-0.078	-0.129
-275.413	-115.337	-0.113	-0.021
-274.399	-200.000	0.070	0.411
-273.384	33.650	-0.362	-0.311
-272.370	-128.138	-0.235	0.033
-271.355	-96.240	0.218	0.057
-270.340	431.776	0.076	0.163
-269.326	800.000	0.110	-0.395
-268.311	142.237	0.222	-0.291
-267.297	-200.000	-0.013	0.134
-266.282	113.032	-0.089	0.107
-265.267	-10.819	0.069	0.045
-264.253	104.801	0.146	-0.170
-263.238	-200.000	-0.013	0.078
-262.224	-200.000	-0.055	-0.314
-261.209	800.000	-0.020	0.082
-260.195	22.715	0.083	-0.067
-259.180	-115.458	0.108	0.020
-258.165	-22.278	-0.091	-0.054
-257.151	-64.798	0.138	0.055
-256.136	237.329	0.025	0.041
-255.122	-109.358	-0.543	0.113
-254.107	-200.000	0.002	-0.370
-253.092	-167.690	0.454	0.018
-252.078	-200.000	0.051	-0.341
-251.063	1.757	-0.207	0.147
-250.049	5.601	-0.241	0.176
-249.034	113.019	0.145	-0.173
-248.019	-200.000	0.011	-0.087
-247.005	-200.000	-0.025	0.274
-245.990	-107.608	0.298	0.064
-244.976	800.000	-0.063	0.264
-243.961	-85.926	-0.102	-0.031
-242.946	220.787	0.109	0.172
-241.932	34.043	-0.053	0.045
-240.917	-200.000	0.003	-0.031
-239.903	-62.659	0.158	0.065
-238.888	-124.071	0.183	0.028
-237.873	800.000	-0.029	0.105
-236.859	139.557	0.036	-0.047
-235.844	-122.094	-0.061	0.010
-234.830	-81.403	-0.113	0.037
-233.815	-200.000	-0.012	0.319
-232.800	-200.000	-0.027	0.238
-231.786	-162.509	-0.051	0.002
-230.771	755.579	-0.068	0.180
-229.757	-78.230	-0.243	-0.082
-228.742	-69.079	-0.089	0.034
-227.727	-62.416	-0.351	-0.143
-226.713	800.000	0.062	-0.181
-225.698	-54.084	-0.118	0.053
-224.684	-75.072	0.089	-0.031
-223.669	31.979	0.145	-0.123
-222.655	-33.989	-0.111	0.060
-221.640	-200.000	-0.010	-0.110
-220.625	-12.121	-0.037	-0.024
-219.611	-200.000	-0.034	-0.315
-218.596	-78.486	0.115	0.039
-217.582	800.000	0.155	-0.516
-216.567	800.000	-0.039	-0.111
-215.552	800.000	0.034	0.112
-214.538	-11.970	-0.225	0.145
-213.523	800.000	0.056	0.239
-212.509	800.000	-0.053	0.222
-211.494	-82.546	0.241	0.077
-210.479	-73.305	0.395	0.142
-209.465	-164.426	0.011	-0.001
-208.450	311.558	0.046	-0.085
-207.436	-119.749	-0.135	0.023
-206.421	-200.000	-0.061	0.332
-205.406	-42.024	-0.083	0.042
-204.392	24.429	-0.075	-0.061
-203.377	-98.514	-0.060	-0.015
-202.363	203.119	0.084	0.128
-201.348	162.647	-0.075	-0.104
-200.333	9.348	0.118	-0.087
-199.319	-140.275	-0.162	-0.017
-198.304	157.717	0.221	-0.300
-197.290	305.472	-0.082	0.149
-196.275	-200.000	0.008	-0.047
-195.260	153.313	-0.027	-0.036
-194.246	259.730	0.080	0.135
-193.231	-200.000	-0.003	-0.251
-192.217	800.000	0.048	-0.168
-191.202	-45.364	0.264	0.129
-190.187	12.809	0.345	-0.262
-189.173	800.000	0.073	-0.264
-188.158	146.425	0.082	-0.108
-187.144	112.784	0.265	-0.315
-186.129	-112.968	-0.097	-0.019
-185.114	800.000	-0.040	-0.141
-184.100	91.279	-0.134	0.148
-183.085	172.921	0.046	-0.066
-182.071	249.833	0.076	0.127
-181.056	-16.751	0.100	0.062
-180.042	236.976	0.093	-0.152
-179.027	-59.535	-0.142	0.060
-178.012	281.234	0.104	-0.183
-176.998	-200.000	-0.039	0.215
-175.983	-200.000	0.012	-0.214
-174.969	800.000	0.136	0.405
-173.954	-166.178	0.230	0.010
-172.939	-200.000	-0.009	0.146
-171.925	-200.000	0.024	-0.197
-170.910	118.350	0.090	-0.109
-169.896	800.000	-0.046	-0.195
-168.881	800.000	-0.085	-0.347
-167.866	-60.313	0.048	-0.020
-166.852	532.308	0.111	0.257
-165.837	-69.251	-0.035	0.013
-164.823	14.818	0.097	-0.075
-163.808	-125.968	-0.182	0.027
-162.793	-73.936	-0.248	0.088
-161.779	-58.716	-0.290	0.123
-160.764	-10.966	-0.294	-0.190
-159.750	229.430	0.186	0.298
-158.735	-169.036	0.120	0.004
-157.720	82.231	-0.129	-0.137
-156.706	141.332	0.126	0.163
-155.691	-27.442	0.345	0.197
-154.677	5.708	0.347	0.252
-153.662	-180.120	-0.126	0.003
-152.647	-102.124	0.367	0.087
-151.633	-7.674	0.270	-0.179
-150.618	-200.000	0.024	0.274
-149.604	45.533	-0.177	-0.160
-148.589	7.038	-0.294	0.215
-147.574	-200.000	-0.025	0.152
-146.560	-17.455	0.220	0.136
-145.545	-11.632	0.036	-0.023
-144.531	-62.545	0.200	0.081
-143.516	648.698	0.062	0.155
-142.502	-80.529	0.242	-0.079
-141.487	47.532	-0.208	-0.191
-140.472	-200.000	0.008	0.380
-139.458	-153.851	0.189	-0.013
-138.443	-200.000	-0.005	-0.506
-137.429	-56.703	-0.686	0.298
-136.414	427.844	0.142	0.302
-135.399	56.983	0.145	-0.138
-134.385	11.007	0.085	0.064
-133.370	-39.861	0.186	-0.095
-132.356	-20.457	-0.130	-0.078
-131.341	72.564	0.189	-0.194
-130.326	-168.733	-0.030	-0.001
-129.312	800.000	0.068	-0.222
-128.297	-102.604	0.399	-0.093
-127.283	-15.751	-0.154	0.096
-126.268	-95.847	-0.075	-0.019
-125.253	-200.000	-0.030	-0.242
-124.239	-122.475	-0.031	-0.005
-123.224	-96.129	-0.248	-0.065
-122.210	169.241	-0.075	-0.105
-121.195	192.480	-0.026	0.038
