DTS Sentinel unit serial number:	SN413079Multiplexer serial number:	ORYXHardware model number:	OX4-SRSoftware version number:	ORYX F/W v4.00 Oryx Data Collector v3.7.2.0data status	okinstallation	princeton_trtdifferential loss correction	single-endedforward channel	channel 3reverse channel	N/Adate	2019/09/15time	10:20:35forward acquisition time	60.00reverse acquisition time	0.00gamma	496.2192k internal	0.2307k external	0.2307temperature offset calibration	0.9975default loss term (dB/km)	0.3790temperature slope calibration	1.0000multiplexer offset coefficient	1.0000multiplexer slope coefficient	1.0000fibre end	0.00T internal ref (°C)	34.25T ext. ref 1 (°C)	5.03T ext. ref 2 (°C)	29.31length (m)	temperature (°C)	Stokes	anti-Stokes-747.200	-53.642	0.171	0.080
-746.185	800.000	-0.074	0.245
-745.171	800.000	0.088	0.252
-744.156	-200.000	-0.002	0.027
-743.142	-52.172	0.131	-0.062
-742.127	-25.595	0.290	0.174
-741.112	201.810	-0.210	0.328
-740.098	-54.535	0.288	-0.132
-739.083	-110.219	0.206	-0.044
-738.069	800.000	0.098	0.431
-737.054	-120.594	0.159	-0.027
-736.039	-32.228	-0.091	-0.051
-735.025	24.021	-0.230	0.193
-734.010	-140.789	-0.280	0.029
-732.996	224.395	-0.073	0.119
-731.981	22.320	0.185	-0.154
-730.966	-200.000	0.018	0.343
-729.952	-129.836	-0.072	0.010
-728.937	-32.511	-0.170	-0.097
-727.923	5.545	-0.150	0.113
-726.908	-72.137	-0.145	0.055
-725.894	32.568	-0.081	-0.071
-724.879	-120.203	-0.374	0.065
-723.864	106.529	-0.170	-0.204
-722.850	-200.000	0.060	-0.474
-721.835	-200.000	-0.031	-0.199
-720.821	188.934	-0.189	-0.287
-719.806	-103.856	-0.384	-0.091
-718.791	-106.965	0.054	0.012
-717.777	-86.940	0.083	0.026
-716.762	-164.221	-0.222	0.010
-715.748	-200.000	0.032	0.216
-714.733	10.795	-0.151	0.117
-713.718	-112.958	-0.311	0.063
-712.704	-132.596	-0.370	0.048
-711.689	-131.662	0.033	0.004
-710.675	-61.631	-0.246	-0.105
-709.660	12.138	0.202	-0.158
-708.645	-200.000	0.027	-0.167
-707.631	428.959	-0.141	-0.310
-706.616	800.000	0.042	-0.145
-705.602	-200.000	0.016	0.263
-704.587	-9.194	-0.084	0.057
-703.572	-200.000	0.001	-0.135
-702.558	105.410	-0.147	0.176
-701.543	-66.992	0.241	-0.097
-700.529	-107.297	0.163	0.036
-699.514	206.397	0.159	-0.252
-698.499	34.873	-0.163	-0.145
-697.485	281.522	-0.086	-0.155
-696.470	1.981	-0.170	-0.125
-695.456	-200.000	0.027	-0.263
-694.441	800.000	0.068	-0.203
-693.426	-200.000	-0.031	-0.423
-692.412	-122.427	-0.286	-0.047
-691.397	-200.000	-0.021	0.413
-690.383	-168.017	0.184	-0.007
-689.368	-66.200	0.258	-0.104
-688.354	451.600	-0.077	0.173
-687.339	800.000	-0.049	-0.192
-686.324	-200.000	0.082	-0.372
-685.310	570.969	-0.022	-0.053
-684.295	-32.997	-0.396	-0.223
-683.281	-200.000	-0.000	-0.327
-682.266	800.000	-0.039	-0.140
-681.251	-63.320	0.392	-0.164
-680.237	216.868	0.088	0.143
-679.222	-40.500	-0.033	-0.017
-678.208	632.048	-0.092	0.236
-677.193	-200.000	-0.014	0.087
-676.178	106.084	0.148	0.177
-675.164	800.000	0.072	-0.297
-674.149	-42.720	-0.086	-0.045
-673.135	786.940	-0.068	-0.188
-672.120	-94.994	-0.307	0.084
-671.105	2.321	-0.159	0.116
-670.091	-43.626	0.106	-0.054
-669.076	-54.573	0.220	-0.101
-668.062	124.621	-0.138	0.176
-667.047	109.020	0.117	-0.142
-666.032	-11.312	-0.185	0.123
-665.018	800.000	-0.029	-0.113
-664.003	205.667	0.101	0.160
-662.989	-200.000	-0.033	-0.238
-661.974	42.599	-0.238	0.220
-660.959	73.444	0.126	0.133
-659.945	-63.885	0.132	0.055
-658.930	-181.975	-0.120	-0.002
-657.916	-122.257	-0.148	-0.025
-656.901	800.000	0.076	-0.229
-655.886	-5.928	-0.062	0.043
-654.872	-80.132	-0.337	-0.115
-653.857	-200.000	0.031	0.253
-652.843	430.794	-0.076	-0.166
-651.828	-200.000	-0.050	0.334
-650.814	228.749	-0.028	-0.046
-649.799	-127.610	-0.202	-0.030
-648.784	229.602	0.160	-0.265
-647.770	128.413	-0.178	0.229
-646.755	-60.045	-0.248	-0.107
-645.741	348.108	0.199	-0.398
-644.726	-65.348	-0.104	-0.042
-643.711	80.868	0.084	0.092
-642.697	-136.314	-0.368	0.043
-641.682	-200.000	-0.005	0.075
-640.668	326.272	-0.051	-0.099
-639.653	224.058	-0.136	0.223
-638.638	61.490	-0.313	-0.316
-637.624	-200.000	0.010	-0.154
-636.609	406.327	0.029	0.062
-635.595	-113.296	0.351	-0.070
-634.580	-200.000	0.024	-0.320
-633.565	401.652	-0.024	-0.051
-632.551	26.800	0.163	0.138
-631.536	10.765	0.219	-0.169
-630.522	-67.280	0.075	0.030
-629.507	1.380	-0.325	-0.237
-628.492	-178.508	-0.415	0.010
-627.478	506.784	-0.042	0.099
-626.463	-157.421	0.143	-0.009
-625.449	-200.000	0.078	0.443
-624.434	-107.914	0.027	0.006
-623.419	-200.000	-0.005	-0.253
-622.405	567.507	0.096	-0.237
-621.390	242.901	-0.166	0.282
-620.376	609.282	0.052	-0.132
-619.361	-165.899	-0.208	0.009
-618.346	-86.922	-0.420	0.130
-617.332	123.870	-0.074	0.094
-616.317	0.014	-0.131	0.094
-615.303	-200.000	0.077	0.453
-614.288	-66.457	0.280	0.112
-613.273	164.490	0.166	-0.236
-612.259	-42.917	-0.184	0.094
-611.244	-80.034	0.402	0.136
-610.230	-200.000	0.070	0.343
-609.215	-104.960	-0.042	0.010
-608.201	800.000	-0.016	-0.059
-607.186	-185.272	0.324	-0.005
-606.171	145.477	0.103	0.139
-605.157	765.405	0.055	-0.151
-604.142	-125.189	0.199	-0.031
-603.128	-32.445	-0.185	-0.104
-602.113	-123.265	-0.299	-0.048
-601.098	800.000	0.034	-0.110
-600.084	60.128	-0.331	0.331
-599.069	-200.000	-0.040	-0.207
-598.055	-138.174	0.095	-0.011
-597.040	15.120	0.089	0.070
-596.025	154.763	0.083	-0.116
-595.011	-64.335	0.190	-0.078
-593.996	-13.881	-0.178	-0.116
-592.982	555.775	-0.136	-0.331
-591.967	-93.348	0.263	-0.074
-590.952	-45.615	0.446	0.223
-589.938	-148.524	-0.254	0.021
-588.923	-200.000	0.017	0.263
-587.909	132.058	0.090	0.117
-586.894	247.207	-0.108	-0.184
-585.879	-157.591	0.092	0.006
-584.865	-128.759	0.176	0.025
-583.850	-68.889	0.363	0.142
-582.836	280.810	0.133	0.241
-581.821	26.841	0.116	-0.098
-580.806	-29.905	0.277	-0.159
-579.792	800.000	-0.061	0.186
-578.777	26.452	-0.072	-0.060
-577.763	-200.000	-0.017	0.207
-576.748	14.931	0.141	0.112
-575.733	145.889	0.122	0.165
-574.719	86.998	0.163	-0.181
-573.704	-68.044	-0.283	-0.112
-572.690	220.688	0.199	-0.323
-571.675	-200.000	0.048	-0.231
-570.661	800.000	0.109	-0.458
-569.646	2.501	0.057	-0.041
-568.631	-157.810	-0.163	0.010
-567.617	-200.000	-0.001	0.069
-566.602	-2.780	-0.101	-0.072
-565.588	47.602	0.126	-0.119
-564.573	-189.265	-0.276	-0.003
-563.558	-114.491	0.258	-0.050
-562.544	800.000	-0.150	0.532
-561.529	-200.000	0.008	0.160
-560.515	724.254	0.052	0.141
-559.500	800.000	0.041	0.138
-558.485	-37.523	0.191	-0.103
-557.471	200.915	0.034	0.053
-556.456	800.000	-0.079	-0.303
-555.442	415.149	-0.172	0.370
-554.427	347.136	-0.129	0.256
-553.412	248.863	-0.227	0.389
-552.398	553.152	0.044	-0.107
-551.383	14.790	0.112	-0.089
-550.369	-98.624	-0.255	-0.066
-549.354	-200.000	0.000	-0.225
-548.339	800.000	0.044	-0.150
-547.325	-95.668	-0.186	-0.050
-546.310	478.718	0.028	-0.064
-545.296	-200.000	0.006	0.073
-544.281	-200.000	-0.000	0.134
-543.266	-200.000	-0.008	-0.275
-542.252	15.447	-0.200	0.158
-541.237	-200.000	-0.021	-0.263
-540.223	-15.179	-0.133	0.086
-539.208	800.000	-0.137	0.467
-538.193	106.600	0.128	-0.154
-537.179	-151.949	0.404	-0.030
-536.164	17.397	-0.210	0.168
-535.150	-102.578	-0.193	-0.047
-534.135	800.000	0.035	-0.114
-533.121	-148.643	-0.335	-0.028
-532.106	800.000	-0.090	-0.285
-531.091	-200.000	-0.002	0.158
-530.077	-200.000	-0.019	0.109
-529.062	-200.000	0.024	0.139
-528.048	352.932	-0.098	0.196
-527.033	-130.675	-0.197	-0.027
-526.018	-5.914	-0.206	-0.142
-525.004	205.230	0.135	-0.211
-523.989	-200.000	-0.023	0.145
-522.975	-11.513	0.030	0.020
-521.960	208.765	-0.074	-0.117
-520.945	-200.000	0.104	-0.000
-519.931	24.026	0.170	0.141
-518.916	-125.768	-0.126	-0.019
-517.902	-136.100	-0.211	0.025
-516.887	-42.474	-0.117	0.060
-515.872	-102.582	0.212	0.051
-514.858	-106.097	0.107	0.024
-513.843	800.000	0.054	0.231
-512.829	-65.854	0.039	-0.016
-511.814	-200.000	-0.037	-0.225
-510.799	649.132	0.087	0.225
-509.785	162.603	0.354	0.500
-508.770	-109.539	-0.166	0.035
-507.756	800.000	-0.051	0.161
-506.741	612.224	0.021	0.053
-505.726	96.479	-0.162	-0.187
-504.712	41.395	0.212	0.193
-503.697	266.872	-0.048	-0.085
-502.683	114.725	0.110	0.136
-501.668	508.756	0.172	0.402
-500.653	-183.929	0.224	-0.004
-499.639	85.240	0.080	-0.089
-498.624	800.000	-0.035	-0.148
-497.610	-200.000	0.045	-0.402
-496.595	-130.788	0.231	0.031
-495.581	-30.604	-0.135	-0.077
-494.566	100.622	-0.090	0.106
-493.551	-78.544	-0.447	-0.154
-492.537	-34.450	-0.257	0.142
-491.522	638.566	-0.075	-0.192
-490.508	286.456	0.117	0.213
-489.493	101.329	0.305	0.358
-488.478	-127.758	-0.340	-0.049
-487.464	-79.943	-0.261	-0.088
-486.449	-27.551	-0.072	-0.042
-485.435	2.846	-0.175	-0.128
-484.420	800.000	0.145	0.489
-483.405	709.372	0.213	0.567
-482.391	-118.423	0.199	-0.036
-481.376	-59.018	-0.107	0.046
-480.362	500.460	-0.158	0.366
-479.347	-50.416	-0.184	-0.088
-478.332	-116.984	-0.104	-0.019
-477.318	800.000	-0.061	-0.209
-476.303	-143.250	0.229	0.022
-475.289	50.683	-0.071	-0.068
-474.274	-16.938	0.112	-0.071
-473.259	-190.543	-0.271	0.003
-472.245	-9.483	0.301	0.202
-471.230	800.000	0.086	0.275
-470.216	178.658	0.228	0.336
-469.201	383.404	0.070	-0.144
-468.186	124.699	0.159	-0.201
-467.172	308.266	-0.067	-0.126
-466.157	-112.517	0.102	0.020
-465.143	20.260	-0.093	0.076
-464.128	414.034	0.016	-0.034
-463.113	90.967	-0.308	-0.347
-462.099	-89.589	0.200	0.059
-461.084	239.038	-0.110	-0.185
-460.070	-119.553	-0.240	-0.042
-459.055	-134.944	-0.314	0.038
-458.040	235.338	-0.059	-0.098
-457.026	343.998	0.175	0.346
-456.011	800.000	0.115	-0.366
-454.997	-139.307	-0.305	0.033
-453.982	178.831	0.155	0.228
-452.968	-41.852	-0.141	-0.072
-451.953	-200.000	0.012	-0.267
-450.938	-21.718	0.392	0.240
-449.924	-10.185	0.383	-0.255
-448.909	-115.580	0.247	-0.047
-447.895	-27.246	0.130	-0.076
-446.880	-155.134	0.262	0.017
-445.865	-177.240	0.461	0.011
-444.851	800.000	-0.076	-0.267
-443.836	-77.521	-0.278	-0.097
-442.822	-87.489	0.152	-0.046
-441.807	800.000	-0.035	-0.153
-440.792	-101.331	-0.195	-0.048
-439.778	93.333	-0.072	0.082
-438.763	-156.028	0.411	-0.026
-437.749	-87.856	0.180	-0.054
-436.734	-200.000	-0.024	-0.221
-435.719	-120.493	-0.295	-0.050
-434.705	-25.088	0.277	-0.165
-433.690	60.871	-0.154	-0.153
-432.676	-200.000	-0.002	-0.203
-431.661	52.119	-0.121	0.116
-430.646	-62.848	0.231	-0.096
-429.632	-200.000	0.030	0.138
-428.617	-172.034	-0.282	0.009
-427.603	-82.631	0.008	-0.002
-426.588	-200.000	0.077	-0.344
-425.573	-157.514	-0.245	0.015
-424.559	267.500	-0.091	-0.160
-423.544	-89.887	0.477	-0.140
-422.530	324.144	0.109	-0.210
-421.515	3.013	-0.170	-0.124
-420.500	43.970	-0.366	-0.337
-419.486	-137.166	-0.464	0.053
-418.471	756.192	-0.080	0.216
-417.457	-152.521	-0.242	0.017
-416.442	-200.000	-0.053	0.397
-415.428	103.353	0.108	-0.128
-414.413	205.075	-0.160	0.249
-413.398	109.270	0.258	0.310
-412.384	-200.000	0.006	-0.034
-411.369	-200.000	0.339	0.001
-410.355	-80.248	0.128	-0.043
-409.340	-99.362	-0.411	0.104
-408.325	-171.736	-0.233	0.008
-407.311	-51.973	-0.253	0.118
-406.296	800.000	0.053	0.225
-405.282	-83.572	0.121	-0.039
-404.267	405.177	0.128	0.270
-403.252	800.000	-0.054	0.156
-402.238	-22.164	0.148	0.090
-401.223	463.136	-0.068	0.152
-400.209	121.232	-0.188	-0.235
-399.194	-200.000	0.033	0.152
-398.179	-102.791	-0.211	0.050
-397.165	203.306	0.152	0.236
-396.150	-200.000	0.047	0.227
-395.136	499.660	0.126	-0.291
-394.121	-200.000	-0.022	-0.209
-393.106	46.668	-0.201	0.187
-392.092	2.652	0.040	0.029
-391.077	285.060	-0.018	-0.033
-390.063	-200.000	-0.016	-0.196
-389.048	12.169	-0.233	-0.180
-388.033	-149.542	0.143	-0.011
-387.019	-168.894	-0.191	0.007
-386.004	-64.902	0.016	0.007
-384.990	-112.626	0.372	-0.074
-383.975	-97.450	0.377	-0.098
-382.960	-143.942	-0.229	0.022
-381.946	-40.378	-0.220	0.115
-380.931	42.889	0.028	0.026
-379.917	-200.000	0.023	-0.211
-378.902	-200.000	0.047	-0.215
-377.888	-84.030	-0.199	0.063
-376.873	-200.000	0.003	-0.303
-375.858	36.774	-0.205	-0.182
-374.844	697.962	-0.126	0.331
-373.829	176.548	0.170	-0.248
-372.815	-12.423	0.200	0.131
-371.800	12.132	-0.103	-0.079
-370.785	218.977	0.117	-0.187
-369.771	185.933	-0.154	0.229
-368.756	-108.320	0.234	0.051
-367.742	800.000	0.034	0.145
-366.727	70.479	0.122	-0.127
-365.712	-14.809	0.086	-0.055
-364.698	592.407	-0.110	-0.273
-363.683	-170.189	0.273	-0.010
-362.669	-162.302	-0.376	0.019
-361.654	15.719	0.127	0.100
-360.639	177.713	-0.102	-0.149
-359.625	27.621	-0.098	0.082
-358.610	-200.000	0.002	0.227
-357.596	-200.000	-0.076	-0.380
-356.581	184.795	0.057	0.085
-355.566	-200.000	0.074	-0.448
-354.552	-90.911	0.189	0.055
-353.537	157.038	0.120	-0.166
-352.523	800.000	-0.035	-0.134
-351.508	-48.230	-0.235	0.114
-350.493	-4.643	-0.061	-0.042
-349.479	546.837	-0.030	0.073
-348.464	-11.475	0.290	-0.191
-347.450	-17.441	-0.063	0.039
-346.435	800.000	-0.134	-0.427
-345.420	281.253	-0.095	-0.170
-344.406	-13.863	-0.240	0.156
-343.391	52.800	-0.239	0.229
-342.377	-141.938	0.238	0.024
-341.362	-200.000	-0.027	0.184
-340.348	-79.886	-0.081	0.027
-339.333	-9.045	-0.323	0.217
-338.318	-74.985	0.064	0.023
-337.304	-194.379	-0.114	-0.001
-336.289	-85.701	-0.222	-0.069
-335.275	-150.492	-0.111	-0.008
-334.260	800.000	0.057	0.226
-333.245	-144.245	-0.088	-0.008
-332.231	-144.304	0.167	-0.016
-331.216	-200.000	-0.020	-0.247
-330.202	-200.000	-0.016	0.234
-329.187	87.802	0.143	0.159
-328.172	676.211	0.060	0.155
-327.158	8.840	-0.400	0.302
-326.143	52.050	0.188	0.179
-325.129	-175.251	0.168	-0.005
-324.114	55.805	-0.057	-0.055
-323.099	-59.927	-0.244	0.104
-322.085	-109.795	-0.182	0.038
-321.070	-200.000	-0.017	0.218
-320.056	-95.808	-0.356	-0.095
-319.041	323.418	-0.064	0.122
-318.026	75.899	0.216	-0.229
-317.012	-79.440	-0.281	-0.095
-315.997	-108.547	-0.181	0.039
-314.983	-154.311	0.318	-0.021
-313.968	-95.680	-0.318	0.085
-312.953	518.291	0.095	-0.222
-311.939	795.996	-0.027	-0.075
-310.924	-81.978	0.148	0.049
-309.910	201.774	-0.197	0.303
-308.895	-22.818	0.081	-0.049
-307.880	376.282	0.121	0.247
-306.866	47.086	0.105	0.097
-305.851	-28.842	0.196	-0.113
-304.837	800.000	0.058	-0.253
-303.822	797.590	-0.075	0.207
-302.807	-200.000	0.015	-0.155
-301.793	-152.765	-0.266	0.019
-300.778	-200.000	0.071	-0.501
-299.764	37.392	-0.046	0.041
-298.749	52.482	0.339	-0.323
-297.735	300.240	-0.099	-0.183
-296.720	57.563	-0.308	-0.301
-295.705	575.916	0.155	-0.378
-294.691	-142.109	-0.089	0.009
-293.676	-200.000	-0.003	0.172
-292.662	-124.852	0.294	-0.045
-291.647	-48.174	-0.408	-0.197
-290.632	-200.000	0.025	0.143
-289.618	83.043	0.073	0.079
-288.603	10.868	0.125	0.095
-287.589	-94.337	-0.139	0.038
-286.574	10.291	-0.155	-0.118
-285.559	-200.000	-0.031	-0.181
-284.545	78.960	-0.208	0.222
-283.530	-200.000	-0.004	0.442
-282.516	-101.262	0.433	-0.106
-281.501	-87.602	0.240	-0.072
-280.486	-111.050	0.046	-0.010
-279.472	290.269	0.084	-0.152
-278.457	109.481	0.348	-0.416
-277.443	115.568	-0.225	-0.275
-276.428	108.445	-0.172	0.206
-275.413	-200.000	-0.029	-0.219
-274.399	111.488	0.091	0.109
-273.384	158.212	0.091	-0.126
-272.370	63.301	0.176	-0.176
-271.355	385.566	0.165	-0.339
-270.340	141.331	0.105	-0.139
-269.326	-200.000	0.048	-0.224
-268.311	800.000	0.105	-0.311
-267.297	800.000	-0.100	-0.278
-266.282	449.232	-0.132	0.290
-265.267	-200.000	-0.018	0.137
-264.253	-46.045	-0.115	-0.056
-263.238	-27.742	0.146	-0.085
-262.224	-115.533	-0.265	0.050
-261.209	-37.580	0.172	-0.092
-260.195	-38.109	0.337	0.178
-259.180	800.000	-0.077	0.280
-258.165	50.478	0.145	0.137
-257.151	-146.414	0.210	0.018
-256.136	-83.716	-0.224	0.071
-255.122	143.422	0.028	0.038
-254.107	800.000	-0.139	0.433
-253.092	-155.056	-0.303	-0.020
-252.078	-75.322	0.267	0.095
-251.063	800.000	0.068	0.212
-250.049	-200.000	-0.008	-0.052
-249.034	-130.827	-0.227	-0.030
-248.019	-3.203	-0.186	0.129
-247.005	-200.000	-0.026	-0.212
-245.990	128.521	0.062	-0.079
-244.976	-110.777	0.352	0.072
-243.961	-24.347	0.347	-0.206
-242.946	78.869	0.150	-0.160
-241.932	-143.938	-0.152	0.014
-240.917	-152.916	0.125	0.009
-239.903	667.905	-0.060	0.154
-238.888	-45.555	0.162	-0.080
-237.873	-76.122	-0.402	0.141
-236.859	71.802	-0.249	0.258
-235.844	-81.107	-0.223	0.074
-234.830	-17.276	0.096	-0.060
-233.815	-36.184	-0.252	-0.136
-232.800	-200.000	-0.075	-0.374
-231.786	28.695	0.145	0.122
-230.771	-65.795	0.092	0.037
-229.757	169.963	-0.176	-0.250
-228.742	51.999	-0.017	-0.016
-227.727	28.482	0.128	0.108
-226.713	109.879	0.055	0.066
-225.698	35.449	0.289	0.253
-224.684	-37.475	-0.248	-0.132
-223.669	46.215	0.161	0.149
-222.655	-19.654	-0.088	0.054
-221.640	-90.545	0.103	0.030
-220.625	-107.993	-0.510	0.110
-219.611	103.976	0.018	-0.021
-218.596	800.000	0.034	0.115
-217.582	80.653	-0.167	0.179
-216.567	603.647	0.059	-0.145
-215.552	800.000	0.078	0.274
-214.538	800.000	0.011	-0.043
-213.523	156.995	-0.125	0.172
-212.509	436.385	0.226	0.490
-211.494	-131.181	-0.385	0.051
-210.479	-123.479	-0.088	-0.014
-209.465	216.741	0.157	-0.249
-208.450	89.028	0.054	0.060
-207.436	569.949	0.102	0.247
-206.421	108.525	-0.098	-0.116
-205.406	-37.694	0.134	0.071
-204.392	-22.225	0.014	0.009
-203.377	146.000	0.150	-0.200
-202.363	-200.000	0.025	-0.318
-201.348	470.990	-0.151	0.338
-200.333	-118.386	0.375	0.066
-199.319	-161.642	-0.169	-0.009
-198.304	-200.000	-0.001	0.006
-197.290	409.615	0.130	-0.274
-196.275	-117.081	-0.244	-0.044
-195.260	800.000	0.064	0.229
-194.246	-200.000	-0.037	-0.165
-193.231	-167.941	0.152	0.006
-192.217	-116.228	-0.163	-0.030
-191.202	558.550	0.076	0.182
-190.187	800.000	0.079	0.218
-189.173	426.207	0.160	0.343
-188.158	78.433	0.207	-0.220
-187.144	105.996	-0.115	0.136
-186.129	-117.947	0.145	-0.026
-185.114	-74.066	-0.156	-0.056
-184.100	-144.242	-0.282	0.026
-183.085	144.249	-0.053	0.070
-182.071	-62.142	0.162	-0.067
-181.056	7.542	0.379	0.282
-180.042	-14.415	0.123	0.079
-179.027	124.145	0.142	0.177
-178.012	91.647	0.075	-0.084
-176.998	59.533	-0.161	0.158
-175.983	-45.347	0.271	0.134
-174.969	-200.000	-0.047	-0.211
-173.954	-200.000	-0.030	0.129
-172.939	415.318	-0.031	0.066
-171.925	-56.866	0.185	0.081
-170.910	334.037	0.178	-0.343
-169.896	150.609	0.337	-0.455
-168.881	-200.000	-0.020	-0.173
-167.866	-134.079	0.080	0.010
-166.852	-57.161	0.457	-0.200
-165.837	-200.000	-0.004	0.234
-164.823	56.812	0.126	-0.122
-163.808	-200.000	-0.027	-0.288
-162.793	-200.000	0.039	-0.323
-161.779	800.000	-0.034	-0.141
-160.764	-200.000	0.044	0.677
-159.750	175.885	-0.043	-0.062
-158.735	-56.176	-0.196	-0.087
-157.720	-200.000	-0.010	-0.176
-156.706	81.413	0.090	-0.097
-155.691	-39.124	-0.171	0.089
-154.677	16.544	-0.115	0.091
-153.662	-98.669	0.366	-0.093
-152.647	153.689	-0.141	0.192
-151.633	43.282	-0.306	0.277
-150.618	-35.652	-0.210	0.113
-149.604	466.840	0.090	0.201
-148.589	800.000	0.107	0.373
-147.574	800.000	0.042	0.177
-146.560	-60.554	-0.192	-0.081
-145.545	-152.419	-0.344	-0.025
-144.531	5.033	-0.129	-0.094
-143.516	-72.971	0.125	-0.046
-142.502	800.000	0.086	-0.327
-141.487	45.935	-0.078	0.072
-140.472	-68.202	0.304	0.117
-139.458	0.570	0.218	0.155
-138.443	-40.818	-0.360	-0.185
-137.429	54.414	0.083	0.080
-136.414	36.804	-0.211	-0.185
-135.399	-104.407	-0.133	-0.031
-134.385	-38.272	0.129	-0.068
-133.370	-41.610	0.398	0.203
-132.356	-115.337	-0.041	-0.008
-131.341	-194.376	-0.233	-0.002
-130.326	-200.000	-0.029	-0.169
-129.312	99.780	0.068	-0.078
-128.297	-200.000	0.010	0.138
-127.283	89.942	0.141	-0.157
-126.268	40.999	-0.225	0.201
-125.253	-200.000	0.002	-0.191
-124.239	241.330	-0.061	0.101
-123.224	800.000	-0.031	-0.115
-122.210	-87.061	-0.147	0.044
