DTS Sentinel unit serial number:	SN413079Multiplexer serial number:	ORYXHardware model number:	OX4-SRSoftware version number:	ORYX F/W v4.00 Oryx Data Collector v3.7.2.0data status	okinstallation	princeton_trtdifferential loss correction	single-endedforward channel	channel 3reverse channel	N/Adate	2019/09/15time	08:28:35forward acquisition time	60.00reverse acquisition time	0.00gamma	496.2192k internal	0.2321k external	0.2321temperature offset calibration	0.9980default loss term (dB/km)	0.3790temperature slope calibration	1.0000multiplexer offset coefficient	1.0000multiplexer slope coefficient	1.0000fibre end	0.00T internal ref (°C)	31.56T ext. ref 1 (°C)	4.98T ext. ref 2 (°C)	28.50length (m)	temperature (°C)	Stokes	anti-Stokes-747.200	-200.000	-0.030	0.216
-746.185	-200.000	-0.029	0.282
-745.171	-10.863	0.228	0.153
-744.156	354.197	0.280	0.563
-743.142	-106.724	-0.313	0.070
-742.127	245.283	0.084	-0.143
-741.112	-73.276	0.304	0.112
-740.098	-200.000	-0.115	0.520
-739.083	-122.434	0.190	-0.031
-738.069	-127.792	0.157	0.023
-737.054	-122.561	0.116	-0.019
-736.039	34.676	-0.195	-0.172
-735.025	-176.137	-0.226	-0.006
-734.010	-200.000	-0.097	-0.437
-732.996	281.179	-0.145	-0.262
-731.981	800.000	-0.013	-0.049
-730.966	-84.761	0.164	0.052
-729.952	193.594	-0.079	-0.120
-728.937	7.860	0.213	-0.162
-727.923	800.000	0.045	0.169
-726.908	732.201	-0.101	0.273
-725.894	-52.589	-0.517	0.241
-724.879	-22.778	-0.042	-0.025
-723.864	800.000	0.078	-0.336
-722.850	-62.639	-0.062	-0.026
-721.835	-76.046	0.350	0.125
-720.821	-30.405	0.215	0.123
-719.806	-191.540	0.317	-0.003
-718.791	-146.593	-0.150	0.013
-717.777	-200.000	0.010	0.064
-716.762	-123.238	0.207	0.033
-715.748	-200.000	0.008	0.151
-714.733	-200.000	-0.033	0.209
-713.718	-103.394	-0.152	0.036
-712.704	38.147	0.229	0.205
-711.689	-77.759	0.158	0.055
-710.675	601.570	0.128	-0.321
-709.660	116.938	0.041	-0.051
-708.645	202.935	-0.163	0.254
-707.631	-200.000	-0.013	-0.234
-706.616	30.386	-0.194	-0.167
-705.602	-200.000	-0.023	0.206
-704.587	-131.608	-0.252	-0.033
-703.572	-65.372	-0.119	-0.048
-702.558	91.622	-0.225	0.255
-701.543	-98.139	0.325	-0.084
-700.529	106.195	-0.113	-0.135
-699.514	-40.783	0.078	0.041
-698.499	-200.000	0.018	0.097
-697.485	-173.446	-0.075	0.002
-696.470	21.394	-0.134	0.110
-695.456	-200.000	-0.013	0.173
-694.441	-200.000	-0.039	-0.318
-693.426	-200.000	0.003	-0.208
-692.412	700.637	-0.124	0.328
-691.397	-30.350	-0.204	0.117
-690.383	99.518	0.079	-0.093
-689.368	209.969	-0.201	-0.318
-688.354	386.680	0.183	0.380
-687.339	800.000	-0.045	-0.190
-686.324	601.467	-0.054	0.135
-685.310	57.101	-0.077	-0.076
-684.295	214.380	-0.291	0.465
-683.281	-107.432	-0.412	0.091
-682.266	-200.000	0.009	0.197
-681.251	21.528	0.017	0.014
-680.237	496.824	0.101	0.235
-679.222	275.931	0.070	0.125
-678.208	133.695	0.156	0.203
-677.193	-83.936	-0.186	0.060
-676.178	609.209	-0.086	-0.217
-675.164	743.582	-0.036	0.097
-674.149	-78.074	0.060	0.021
-673.135	-90.731	0.147	-0.043
-672.120	-118.829	0.208	0.037
-671.105	-104.742	-0.205	0.048
-670.091	-12.991	-0.144	-0.095
-669.076	-200.000	-0.060	-0.289
-668.062	-27.925	-0.142	0.083
-667.047	-113.549	-0.383	-0.075
-666.032	-200.000	0.024	0.146
-665.018	-184.821	-0.244	0.004
-664.003	433.216	-0.091	-0.200
-662.989	47.361	0.265	0.249
-661.974	-131.070	-0.258	-0.035
-660.959	-10.809	0.118	-0.079
-659.945	-34.387	0.232	-0.128
-658.930	353.009	-0.083	-0.165
-657.916	-200.000	0.018	-0.092
-656.901	222.096	0.110	-0.178
-655.886	-162.023	0.104	-0.005
-654.872	-36.997	-0.248	-0.134
-653.857	-137.612	-0.236	0.027
-652.843	-5.559	-0.172	0.119
-651.828	211.862	0.142	0.225
-650.814	477.102	-0.083	0.190
-649.799	317.250	-0.145	-0.277
-648.784	-147.233	0.184	-0.016
-647.770	485.436	0.097	-0.222
-646.755	-84.313	-0.208	-0.066
-645.741	-75.625	0.365	0.131
-644.726	-200.000	0.028	-0.210
-643.711	-86.901	0.035	-0.011
-642.697	84.294	-0.144	0.159
-641.682	180.861	0.108	-0.159
-640.668	-200.000	0.019	-0.172
-639.653	180.812	0.339	-0.501
-638.638	-67.122	0.211	0.084
-637.624	-102.932	-0.105	0.025
-636.609	16.310	0.039	0.031
-635.595	-48.011	-0.370	0.180
-634.580	47.513	-0.125	0.117
-633.565	-41.875	-0.129	0.067
-632.551	275.735	-0.073	0.131
-631.536	-186.875	0.259	-0.004
-630.522	800.000	-0.053	-0.153
-629.507	-133.832	0.131	0.016
-628.492	-200.000	0.004	0.076
-627.478	-17.964	0.205	0.130
-626.463	39.675	-0.016	-0.014
-625.449	3.919	0.439	0.322
-624.434	2.123	0.239	0.173
-623.419	-80.292	0.266	-0.090
-622.405	436.511	-0.148	0.323
-621.390	-200.000	-0.008	-0.155
-620.376	-22.365	-0.081	-0.049
-619.361	-72.678	0.291	0.108
-618.346	141.738	-0.084	0.112
-617.332	59.774	-0.179	0.178
-616.317	-50.931	0.096	-0.045
-615.303	12.536	-0.154	0.119
-614.288	-200.000	0.004	0.344
-613.273	447.492	0.081	-0.180
-612.259	-121.587	-0.315	0.053
-611.244	-51.546	0.226	-0.106
-610.230	23.984	-0.147	-0.122
-609.215	-164.347	-0.314	-0.014
-608.201	-200.000	0.022	-0.362
-607.186	52.131	0.058	-0.056
-606.171	-200.000	-0.086	-0.458
-605.157	-6.365	0.335	0.230
-604.142	-35.907	0.200	-0.109
-603.128	-107.025	-0.252	0.056
-602.113	119.343	-0.066	-0.082
-601.098	390.241	0.028	-0.057
-600.084	-30.307	-0.347	0.198
-599.069	-200.000	0.036	0.171
-598.055	443.566	-0.111	0.244
-597.040	77.962	0.072	-0.077
-596.025	176.080	-0.090	-0.131
-595.011	493.197	0.032	-0.074
-593.996	-116.478	-0.128	-0.024
-592.982	-136.945	-0.258	0.030
-591.967	89.124	0.084	0.094
-590.952	-9.839	-0.029	0.020
-589.938	800.000	0.035	-0.117
-588.923	-87.994	-0.171	-0.052
-587.909	-200.000	-0.035	0.272
-586.894	213.808	-0.240	-0.381
-585.879	-149.660	0.136	-0.011
-584.865	-125.646	-0.062	0.009
-583.850	59.064	-0.152	0.150
-582.836	64.379	0.157	-0.159
-581.821	-47.888	0.277	0.135
-580.806	25.872	-0.188	-0.158
-579.792	132.534	-0.131	-0.169
-578.777	-168.182	0.383	0.015
-577.763	800.000	0.089	-0.264
-576.748	137.485	-0.257	0.338
-575.733	-200.000	-0.011	-0.255
-574.719	-27.433	0.239	0.140
-573.704	68.330	0.075	0.077
-572.690	-188.463	-0.124	0.002
-571.675	-62.531	-0.203	-0.085
-570.661	-27.936	0.334	-0.194
-569.646	133.888	-0.138	-0.179
-568.631	-200.000	0.055	-0.306
-567.617	-200.000	0.013	-0.337
-566.602	-200.000	-0.045	-0.238
-565.588	169.417	-0.098	-0.141
-564.573	-86.460	0.141	0.043
-563.558	-69.040	0.045	-0.018
-562.544	-70.611	-0.175	0.066
-561.529	-26.380	0.210	0.124
-560.515	37.809	0.247	-0.220
-559.500	-104.687	0.032	-0.007
-558.485	10.903	-0.213	0.163
-557.471	-20.154	0.293	0.181
-556.456	-200.000	-0.020	-0.137
-555.442	-200.000	0.047	0.355
-554.427	2.700	0.018	-0.013
-553.412	-53.830	-0.416	0.190
-552.398	-200.000	-0.014	0.143
-551.383	67.560	-0.183	-0.188
-550.369	-200.000	0.015	-0.202
-549.354	-49.383	-0.206	0.099
-548.339	479.126	0.102	0.231
-547.325	-56.230	-0.059	0.026
-546.310	60.945	-0.240	0.239
-545.296	-95.310	0.160	0.043
-544.281	-103.616	0.126	0.030
-543.266	195.842	-0.246	-0.375
-542.252	215.263	-0.115	-0.183
-541.237	-28.637	0.156	-0.090
-540.223	-71.729	0.095	-0.036
-539.208	-200.000	0.007	-0.153
-538.193	-39.307	-0.166	-0.087
-537.179	-53.793	0.156	-0.071
-536.164	-104.628	0.106	0.025
-535.150	-110.690	-0.237	-0.049
-534.135	-170.547	0.364	0.013
-533.121	-200.000	-0.018	-0.282
-532.106	-200.000	-0.022	0.126
-531.091	-85.133	0.272	-0.085
-530.077	-200.000	-0.027	-0.215
-529.062	-24.505	-0.241	-0.144
-528.048	-124.380	0.093	-0.015
-527.033	453.623	-0.035	0.078
-526.018	800.000	-0.082	0.260
-525.004	181.113	0.135	-0.199
-523.989	-178.838	-0.108	0.002
-522.975	-88.001	-0.155	-0.047
-521.960	459.347	-0.103	-0.229
-520.945	141.466	-0.164	-0.218
-519.931	-200.000	-0.000	0.099
-518.916	-200.000	-0.000	0.173
-517.902	184.715	-0.210	0.312
-516.887	8.513	0.308	-0.232
-515.872	-200.000	-0.032	0.260
-514.858	-200.000	0.021	-0.196
-513.843	-70.285	-0.120	-0.046
-512.829	800.000	-0.152	0.428
-511.814	-144.989	-0.129	0.012
-510.799	-121.093	-0.367	-0.062
-509.785	-29.585	-0.126	-0.072
-508.770	-200.000	0.025	0.183
-507.756	61.601	-0.074	-0.074
-506.741	79.526	-0.291	-0.313
-505.726	686.813	0.077	-0.202
-504.712	-200.000	0.016	0.350
-503.697	-137.069	-0.189	-0.022
-502.683	-200.000	0.012	0.114
-501.668	-21.082	0.191	0.117
-500.653	-200.000	-0.035	0.301
-499.639	-12.244	-0.362	0.237
-498.624	-200.000	-0.009	0.041
-497.610	425.992	0.072	-0.156
-496.595	-92.227	0.152	0.043
-495.581	-80.485	-0.302	-0.101
-494.566	-200.000	0.017	0.088
-493.551	-168.935	0.129	0.005
-492.537	623.571	0.107	0.269
-491.522	-1.682	-0.088	-0.062
-490.508	460.274	-0.131	0.292
-489.493	-74.782	0.200	-0.072
-488.478	-200.000	0.047	-0.220
-487.464	800.000	0.043	-0.134
-486.449	800.000	0.069	0.206
-485.435	-124.550	-0.252	0.039
-484.420	506.438	0.039	0.091
-483.405	-200.000	-0.029	0.176
-482.391	-114.133	0.105	0.020
-481.376	800.000	-0.105	0.320
-480.362	82.631	0.228	0.248
-479.347	42.193	-0.339	-0.308
-478.332	-143.735	0.182	0.017
-477.318	-55.210	0.236	0.106
-476.303	48.134	0.347	-0.325
-475.289	-200.000	-0.004	0.109
-474.274	800.000	-0.045	-0.192
-473.259	-121.880	0.136	-0.022
-472.245	558.883	0.113	-0.272
-471.230	-96.281	-0.220	0.058
-470.216	-200.000	0.027	0.158
-469.201	-200.000	0.023	-0.158
-468.186	17.242	-0.238	0.189
-467.172	-69.099	0.237	-0.091
-466.157	-22.072	0.198	-0.120
-465.143	216.565	-0.084	-0.134
-464.128	-200.000	0.022	0.153
-463.113	336.272	0.073	-0.142
-462.099	-200.000	-0.035	-0.279
-461.084	-89.634	0.151	-0.044
-460.070	-133.891	-0.289	-0.036
-459.055	257.059	-0.070	-0.120
-458.040	-99.219	0.192	0.049
-457.026	-200.000	0.042	-0.301
-456.011	-29.026	-0.015	0.008
-454.997	18.631	0.193	0.154
-453.982	-132.452	0.433	-0.056
-452.968	-200.000	0.029	-0.130
-451.953	-26.712	0.237	0.139
-450.938	786.633	0.043	-0.117
-449.924	-66.152	0.409	0.163
-448.909	30.848	0.268	0.229
-447.895	-155.329	0.138	0.009
-446.880	-128.790	0.325	0.046
-445.865	607.043	0.071	0.178
-444.851	-200.000	-0.002	-0.138
-443.836	-200.000	0.008	0.212
-442.822	800.000	-0.040	0.150
-441.807	-200.000	0.010	-0.060
-440.792	-180.408	0.097	0.002
-439.778	68.607	0.077	-0.079
-438.763	653.726	-0.094	0.241
-437.749	-101.939	0.288	-0.070
-436.734	-132.536	-0.197	0.025
-435.719	-200.000	0.010	-0.238
-434.705	311.159	-0.019	-0.036
-433.690	-70.805	-0.221	-0.083
-432.676	-113.667	0.095	-0.019
-431.661	-192.391	0.089	-0.001
-430.646	-84.153	0.031	-0.010
-429.632	91.150	-0.167	-0.187
-428.617	177.763	-0.121	-0.176
-427.603	-33.057	0.221	-0.122
-426.588	140.491	0.208	0.274
-425.573	800.000	0.088	0.252
-424.559	-69.601	0.148	0.056
-423.544	-30.622	0.264	-0.149
-422.530	96.847	0.063	-0.073
-421.515	265.814	0.193	0.336
-420.500	-48.222	-0.219	0.105
-419.486	29.031	-0.088	-0.074
-418.471	321.511	-0.166	0.316
-417.457	8.341	0.176	-0.132
-416.442	190.239	-0.195	0.293
-415.428	581.422	-0.076	0.185
-414.413	-44.605	-0.282	0.141
-413.398	169.149	-0.067	0.096
-412.384	-79.736	0.205	-0.069
-411.369	467.478	-0.074	0.166
-410.355	800.000	-0.122	-0.360
-409.340	511.808	-0.027	-0.063
-408.325	-80.537	-0.213	0.071
-407.311	22.175	0.166	-0.135
-406.296	800.000	-0.076	0.251
-405.282	52.967	-0.101	0.096
-404.267	-200.000	0.012	-0.121
-403.252	75.618	-0.131	0.138
-402.238	566.598	0.068	0.165
-401.223	-35.329	-0.114	0.062
-400.209	-200.000	-0.053	0.353
-399.194	-169.641	0.302	-0.011
-398.179	-200.000	-0.011	-0.182
-397.165	-83.905	-0.225	0.071
-396.150	77.541	0.064	-0.068
-395.136	-168.214	0.275	-0.011
-394.121	-10.742	-0.203	-0.134
-393.106	-200.000	0.032	0.260
-392.092	800.000	-0.076	0.312
-391.077	333.698	0.070	-0.136
-390.063	-55.005	0.232	-0.104
-389.048	-152.388	-0.222	0.016
-388.033	-135.927	-0.305	-0.036
-387.019	-128.549	0.133	-0.019
-386.004	-28.442	0.214	0.123
-384.990	-173.332	-0.281	0.009
-383.975	-96.853	-0.107	0.028
-382.960	800.000	0.120	0.395
-381.946	-80.648	-0.254	0.084
-380.931	-2.486	0.107	0.075
-379.917	-100.260	-0.046	0.011
-378.902	-69.461	0.328	-0.125
-377.888	153.903	0.110	-0.150
-376.873	89.699	-0.163	-0.181
-375.858	23.834	0.168	-0.138
-374.844	685.336	-0.057	0.147
-373.829	800.000	0.040	-0.127
-372.815	661.323	0.041	-0.106
-371.800	88.751	0.140	-0.155
-370.785	49.864	0.236	0.222
-369.771	800.000	0.025	0.106
-368.756	95.389	0.200	-0.227
-367.742	-146.580	-0.069	0.006
-366.727	800.000	0.109	0.380
-365.712	151.412	-0.220	0.299
-364.698	800.000	-0.008	-0.026
-363.683	-66.604	0.265	-0.104
-362.669	-1.545	-0.105	-0.074
-361.654	-16.060	0.231	-0.147
-360.639	6.305	0.104	-0.077
-359.625	260.012	-0.171	0.294
-358.610	126.150	0.095	-0.120
-357.596	283.067	-0.163	-0.292
-356.581	693.445	0.043	-0.112
-355.566	-22.625	0.171	0.103
-354.552	-92.670	0.407	0.114
-353.537	-105.308	-0.321	-0.073
-352.523	-179.532	0.066	-0.001
-351.508	-137.839	0.297	0.033
-350.493	-200.000	0.033	0.212
-349.479	-50.920	-0.319	-0.149
-348.464	-76.221	-0.260	-0.091
-347.450	-113.526	-0.367	-0.072
-346.435	162.952	-0.102	0.143
-345.420	-200.000	-0.017	0.158
-344.406	800.000	-0.093	-0.308
-343.391	-200.000	-0.013	-0.592
-342.377	396.238	-0.119	-0.247
-341.362	23.975	-0.282	0.231
-340.348	51.523	0.112	-0.106
-339.333	-5.906	0.291	-0.198
-338.318	-200.000	0.021	-0.132
-337.304	227.318	0.076	0.123
-336.289	-52.468	-0.119	-0.055
-335.275	522.340	0.025	-0.060
-334.260	-90.445	-0.293	0.085
-333.245	-176.497	-0.049	-0.001
-332.231	-97.618	-0.099	-0.026
-331.216	-200.000	0.001	-0.028
-330.202	-200.000	0.050	-0.327
-329.187	-137.573	0.077	0.009
-328.172	-61.516	0.128	-0.053
-327.158	800.000	-0.029	0.100
-326.143	-200.000	-0.029	0.146
-325.129	476.614	-0.135	0.303
-324.114	-119.889	0.222	-0.038
-323.099	131.132	0.063	-0.080
-322.085	286.367	0.199	-0.357
-321.070	-200.000	0.017	-0.204
-320.056	-200.000	0.045	-0.327
-319.041	117.780	0.035	0.043
-318.026	-9.609	0.071	0.047
-317.012	-171.337	0.314	0.010
-315.997	-178.660	-0.063	-0.001
-314.983	800.000	0.066	-0.286
-313.968	-200.000	0.003	-0.067
-312.953	-120.955	-0.215	0.036
-311.939	-200.000	0.001	0.133
-310.924	16.910	-0.122	0.096
-309.910	84.515	-0.099	0.107
-308.895	800.000	-0.021	-0.063
-307.880	-69.425	-0.151	0.057
-306.866	-58.412	-0.412	-0.178
-305.851	142.311	0.161	0.212
-304.837	-156.995	-0.231	-0.014
-303.822	800.000	0.073	0.210
-302.807	-58.651	0.268	-0.116
-301.793	442.984	-0.127	0.277
-300.778	117.674	-0.210	0.257
-299.764	-200.000	-0.015	-0.258
-298.749	-200.000	0.028	-0.162
-297.735	206.773	0.169	-0.261
-296.720	800.000	0.055	0.176
-295.705	675.076	-0.027	0.069
-294.691	71.926	-0.051	-0.052
-293.676	800.000	-0.046	-0.172
-292.662	212.706	-0.121	-0.189
-291.647	-149.695	-0.240	0.019
-290.632	800.000	0.028	0.110
-289.618	-113.418	0.136	0.026
-288.603	-200.000	-0.017	0.276
-287.589	20.805	-0.134	0.108
-286.574	-5.782	-0.233	0.159
-285.559	800.000	0.056	0.162
-284.545	800.000	0.018	0.065
-283.530	-143.520	-0.085	0.008
-282.516	-43.841	-0.024	0.012
-281.501	138.390	0.091	-0.118
-280.486	-16.668	-0.439	0.276
-279.472	-168.842	0.212	0.008
-278.457	-175.379	-0.068	-0.002
-277.443	-200.000	-0.003	-0.024
-276.428	-200.000	0.010	-0.243
-275.413	800.000	-0.033	-0.105
-274.399	563.569	0.217	-0.520
-273.384	155.279	-0.132	0.180
-272.370	11.840	-0.140	0.107
-271.355	-24.324	-0.306	0.181
-270.340	-153.612	0.099	0.007
-269.326	18.064	0.171	-0.135
-268.311	800.000	0.101	0.357
-267.297	-149.922	0.110	-0.009
-266.282	-200.000	0.009	-0.150
-265.267	-200.000	0.028	0.397
-264.253	189.572	0.134	-0.200
-263.238	13.740	-0.215	-0.165
-262.224	-60.008	0.376	-0.159
-261.209	800.000	-0.011	0.036
-260.195	-170.623	0.226	-0.008
-259.180	178.685	0.064	0.093
-258.165	800.000	0.036	0.123
-257.151	-164.781	-0.334	0.015
-256.136	-55.748	-0.092	0.041
-255.122	187.045	-0.204	0.302
-254.107	56.861	-0.086	-0.083
-253.092	-22.334	0.145	0.087
-252.078	-200.000	-0.016	0.166
-251.063	800.000	-0.095	0.298
-250.049	416.100	-0.096	0.203
-249.034	196.183	0.072	-0.108
-248.019	569.566	0.133	-0.320
-247.005	-50.003	-0.366	-0.172
-245.990	800.000	0.094	0.277
-244.976	55.948	-0.157	-0.151
-243.961	775.222	0.092	-0.248
-242.946	-86.108	-0.311	0.095
-241.932	800.000	-0.007	0.022
-240.917	60.323	0.124	-0.122
-239.903	-79.657	-0.249	0.083
-238.888	59.683	-0.126	0.124
-237.873	131.880	-0.043	0.055
-236.859	-117.174	0.044	0.008
-235.844	259.204	0.186	-0.317
-234.830	405.152	0.131	0.274
-233.815	800.000	0.034	0.115
-232.800	104.890	-0.093	0.108
-231.786	800.000	-0.038	0.132
-230.771	88.021	-0.152	-0.167
-229.757	-200.000	-0.053	0.280
-228.742	47.595	-0.115	0.106
-227.727	-64.101	0.025	-0.010
-226.713	-132.889	-0.338	-0.043
-225.698	-200.000	0.033	-0.177
-224.684	800.000	-0.079	-0.273
-223.669	-133.954	0.091	0.011
-222.655	-200.000	-0.089	-0.508
-221.640	184.798	-0.189	0.278
-220.625	67.709	-0.079	-0.080
-219.611	-86.919	-0.204	0.062
-218.596	0.220	0.199	0.141
-217.582	94.531	0.227	-0.255
-216.567	-79.451	0.174	0.058
-215.552	-200.000	-0.016	-0.118
-214.538	764.705	-0.065	0.175
-213.523	109.376	0.065	0.077
-212.509	-82.706	0.030	-0.010
-211.494	32.786	0.180	-0.154
-210.479	-4.504	0.140	-0.096
-209.465	-117.264	-0.312	0.056
-208.450	800.000	0.036	-0.118
-207.436	800.000	-0.029	0.122
-206.421	392.932	-0.068	-0.141
-205.406	-117.766	0.031	0.006
-204.392	300.568	0.103	-0.188
-203.377	7.445	0.206	0.152
-202.363	-200.000	0.036	0.258
-201.348	-53.648	0.184	-0.083
-200.333	437.097	-0.101	0.217
-199.319	124.888	-0.267	0.333
-198.304	-200.000	-0.069	0.337
-197.290	-111.011	0.397	0.081
-196.275	-200.000	0.037	-0.317
-195.260	216.616	-0.157	0.247
-194.246	121.811	0.141	-0.174
-193.231	-200.000	-0.032	0.153
-192.217	46.402	-0.091	-0.083
-191.202	402.628	0.085	0.177
-190.187	-58.974	-0.382	-0.163
-189.173	-147.014	-0.136	0.011
-188.158	488.510	-0.086	0.195
-187.144	-2.875	0.279	0.193
-186.129	101.928	0.045	-0.052
-185.114	189.202	-0.244	-0.362
-184.100	-63.819	-0.190	0.077
-183.085	-200.000	0.043	0.291
-182.071	-73.427	-0.095	0.034
-181.056	560.384	0.054	0.128
-180.042	800.000	0.085	0.305
-179.027	244.600	-0.108	0.179
-178.012	413.358	0.092	-0.194
-176.998	-200.000	-0.007	0.271
-175.983	-38.709	0.298	-0.156
-174.969	-132.112	-0.259	0.033
-173.954	-144.835	-0.220	-0.020
-172.939	-45.695	0.119	-0.058
-171.925	-56.184	-0.050	-0.022
-170.910	-200.000	-0.011	-0.168
-169.896	-200.000	0.062	-0.331
-168.881	-200.000	0.059	-0.425
-167.866	173.382	0.050	0.072
-166.852	-76.947	0.260	0.090
-165.837	65.228	0.206	-0.206
-164.823	293.518	-0.078	-0.140
-163.808	-57.344	-0.119	0.052
-162.793	800.000	0.013	0.047
-161.779	-200.000	-0.029	-0.134
-160.764	68.111	0.151	-0.152
-159.750	339.942	0.120	-0.231
-158.735	-74.098	-0.208	0.075
-157.720	-200.000	0.010	0.066
-156.706	-200.000	0.045	-0.314
-155.691	-200.000	0.027	0.300
-154.677	234.767	0.145	-0.236
-153.662	648.696	0.113	0.287
-152.647	-11.575	0.219	0.142
-151.633	84.270	-0.134	0.145
-150.618	551.784	0.107	0.254
-149.604	254.133	-0.072	0.122
-148.589	-97.281	0.404	0.104
-147.574	614.682	-0.088	0.218
-146.560	-200.000	0.089	0.516
-145.545	-200.000	-0.048	-0.287
-144.531	122.000	0.265	0.327
-143.516	424.868	-0.062	-0.131
-142.502	-5.201	0.044	0.030
-141.487	213.248	-0.032	0.050
-140.472	-95.951	0.103	0.027
-139.458	-133.303	0.352	0.044
-138.443	-38.280	-0.277	-0.145
-137.429	-200.000	0.082	0.390
-136.414	-101.531	-0.254	0.061
-135.399	-29.316	-0.134	0.076
-134.385	-128.328	0.123	0.017
-133.370	325.901	0.085	-0.161
-132.356	-80.956	0.059	-0.019
-131.341	800.000	-0.058	-0.199
-130.326	182.452	0.102	-0.148
-129.312	60.637	0.108	-0.106
-128.297	195.154	0.089	-0.134
-127.283	-6.395	-0.264	0.178
-126.268	108.570	0.251	-0.296
-125.253	800.000	0.044	0.178
-124.239	29.229	-0.204	0.170
-123.224	128.967	0.064	-0.080
-122.210	-200.000	-0.004	-0.087
