DTS Sentinel unit serial number:	SN413079Multiplexer serial number:	ORYXHardware model number:	OX4-SRSoftware version number:	ORYX F/W v4.00 Oryx Data Collector v3.7.2.0data status	okinstallation	princeton_trtdifferential loss correction	single-endedforward channel	channel 3reverse channel	N/Adate	2019/09/12time	06:42:11forward acquisition time	60.00reverse acquisition time	0.00gamma	496.2192k internal	0.2319k external	0.2319temperature offset calibration	1.0032default loss term (dB/km)	0.3790temperature slope calibration	1.0000multiplexer offset coefficient	1.0000multiplexer slope coefficient	1.0000fibre end	0.00T internal ref (°C)	32.14T ext. ref 1 (°C)	1.59T ext. ref 2 (°C)	27.23length (m)	temperature (°C)	Stokes	anti-Stokes-747.200	94.184	0.200	-0.229
-746.185	-110.305	-0.188	-0.040
-745.171	105.722	-0.039	0.047
-744.156	-200.000	-0.016	0.190
-743.142	23.642	0.244	0.203
-742.127	113.352	0.183	-0.225
-741.112	-107.618	-0.079	0.018
-740.098	13.175	-0.214	0.167
-739.083	-200.000	0.002	-0.159
-738.069	244.818	0.065	0.111
-737.054	-180.603	0.330	0.007
-736.039	-28.723	-0.286	-0.167
-735.025	-65.028	0.107	-0.044
-734.010	-37.822	0.246	-0.132
-732.996	-109.623	-0.583	-0.124
-731.981	152.612	-0.055	-0.076
-730.966	243.890	-0.093	0.157
-729.952	-0.735	0.022	-0.016
-728.937	-4.210	-0.202	0.142
-727.923	-200.000	-0.022	0.129
-726.908	-81.480	0.435	0.145
-725.894	150.468	0.062	-0.085
-724.879	800.000	0.052	-0.217
-723.864	-33.644	0.394	0.220
-722.850	518.934	-0.060	0.141
-721.835	-118.402	0.151	0.027
-720.821	-147.629	0.241	0.021
-719.806	-114.862	0.208	-0.040
-718.791	-133.170	-0.308	0.039
-717.777	265.808	0.201	0.354
-716.762	336.540	0.052	0.101
-715.748	-121.120	-0.175	0.030
-714.733	337.904	0.238	-0.467
-713.718	-200.000	0.022	-0.180
-712.704	79.981	0.181	0.196
-711.689	-61.302	0.381	0.162
-710.675	-11.835	-0.176	-0.117
-709.660	536.131	-0.083	-0.199
-708.645	-178.079	0.365	-0.009
-707.631	15.631	0.282	0.224
-706.616	-200.000	-0.074	-0.368
-705.602	-200.000	-0.055	-0.326
-704.587	-91.396	-0.353	-0.102
-703.572	-149.513	0.126	0.010
-702.558	-106.169	0.132	-0.030
-701.543	166.546	0.146	0.209
-700.529	-13.812	0.234	0.153
-699.514	-200.000	0.013	-0.267
-698.499	-79.204	-0.098	0.034
-697.485	-200.000	0.004	-0.189
-696.470	198.983	-0.153	-0.237
-695.456	-200.000	-0.001	-0.014
-694.441	148.660	-0.229	-0.312
-693.426	-149.507	0.248	-0.020
-692.412	-70.446	-0.297	-0.113
-691.397	223.295	0.290	-0.472
-690.383	21.578	-0.184	0.151
-689.368	-200.000	-0.014	-0.199
-688.354	-130.712	-0.236	-0.032
-687.339	54.589	0.199	0.194
-686.324	684.263	0.027	0.071
-685.310	-200.000	0.035	0.309
-684.295	800.000	-0.028	0.086
-683.281	-133.394	0.155	-0.020
-682.266	-107.630	-0.100	-0.022
-681.251	229.138	0.143	0.236
-680.237	-17.456	0.356	0.226
-679.222	-132.071	0.252	-0.033
-678.208	-200.000	-0.011	-0.131
-677.193	409.939	0.018	0.038
-676.178	-96.706	-0.355	0.094
-675.164	53.550	0.142	-0.138
-674.149	-0.129	0.201	-0.144
-673.135	-200.000	-0.021	-0.231
-672.120	-67.337	0.091	0.036
-671.105	-200.000	-0.008	0.041
-670.091	-200.000	-0.043	0.272
-669.076	40.564	-0.004	-0.004
-668.062	-200.000	-0.003	-0.252
-667.047	-93.360	0.194	-0.054
-666.032	-22.621	0.341	0.208
-665.018	125.988	0.030	0.038
-664.003	-98.287	-0.231	-0.060
-662.989	347.246	-0.103	0.204
-661.974	196.744	-0.037	0.057
-660.959	463.617	0.075	-0.170
-659.945	219.814	-0.171	-0.276
-658.930	-72.091	-0.164	-0.061
-657.916	85.385	0.258	0.285
-656.901	55.559	-0.215	-0.210
-655.886	-200.000	0.008	0.259
-654.872	184.317	-0.116	0.173
-653.857	800.000	-0.086	-0.246
-652.843	-16.689	0.270	0.172
-651.828	-54.110	0.142	-0.065
-650.814	396.136	-0.104	0.219
-649.799	139.731	0.122	-0.161
-648.784	800.000	-0.033	0.143
-647.770	84.724	-0.313	-0.346
-646.755	-200.000	0.013	-0.112
-645.741	27.659	-0.325	-0.276
-644.726	-200.000	-0.001	0.026
-643.711	800.000	-0.071	0.225
-642.697	-70.661	0.356	0.136
-641.682	800.000	-0.128	0.383
-640.668	-200.000	0.072	-0.358
-639.653	17.852	-0.304	-0.243
-638.638	-69.262	-0.275	-0.106
-637.624	-200.000	0.042	-0.310
-636.609	-58.649	0.124	0.054
-635.595	96.960	0.212	0.244
-634.580	-200.000	-0.010	0.075
-633.565	800.000	0.179	-0.608
-632.551	-94.164	-0.023	0.006
-631.536	293.738	0.023	0.043
-630.522	598.419	-0.075	0.186
-629.507	-200.000	0.004	-0.105
-628.492	-71.743	0.315	-0.118
-627.478	234.152	0.159	0.264
-626.463	42.217	-0.194	-0.178
-625.449	-27.717	0.172	-0.100
-624.434	800.000	0.019	0.064
-623.419	-149.812	-0.180	-0.014
-622.405	87.959	-0.144	0.161
-621.390	97.545	0.027	0.031
-620.376	154.726	0.152	0.210
-619.361	125.135	-0.075	-0.095
-618.346	800.000	0.135	-0.384
-617.332	697.647	-0.087	-0.230
-616.317	800.000	-0.093	-0.316
-615.303	-22.697	0.207	-0.126
-614.288	-74.031	-0.308	0.113
-613.273	-141.828	0.151	0.015
-612.259	28.693	-0.082	0.070
-611.244	165.680	-0.188	-0.267
-610.230	38.409	0.100	0.089
-609.215	-200.000	0.042	0.228
-608.201	394.266	-0.124	-0.261
-607.186	-90.772	0.260	-0.076
-606.171	-29.879	-0.003	-0.002
-605.157	-46.406	0.156	0.077
-604.142	3.770	-0.143	-0.105
-603.128	800.000	-0.057	0.242
-602.113	-98.782	0.302	-0.077
-601.098	-198.831	-0.290	-0.002
-600.084	-131.676	-0.340	0.045
-599.069	44.690	0.140	-0.130
-598.055	179.623	0.174	-0.256
-597.040	-9.517	0.177	-0.119
-596.025	86.724	-0.234	0.259
-595.011	-144.161	-0.052	-0.005
-593.996	75.054	0.178	0.189
-592.982	235.716	-0.039	0.065
-591.967	-86.618	-0.165	-0.051
-590.952	-45.852	-0.201	-0.100
-589.938	177.018	-0.093	0.136
-588.923	-153.705	-0.140	0.010
-587.909	-200.000	-0.024	-0.173
-586.894	-101.330	-0.141	-0.035
-585.879	-34.146	0.310	0.171
-584.865	156.746	0.086	-0.119
-583.850	-47.339	0.342	-0.167
-582.836	-38.660	-0.104	0.055
-581.821	-56.495	0.184	0.082
-580.806	-80.067	-0.215	0.072
-579.792	185.512	-0.052	-0.078
-578.777	2.995	0.124	0.091
-577.763	800.000	0.157	-0.536
-576.748	-200.000	0.005	0.093
-575.733	800.000	0.046	0.134
-574.719	332.129	-0.031	-0.061
-573.704	27.009	0.227	-0.192
-572.690	-64.619	-0.360	0.147
-571.675	9.341	-0.157	0.119
-570.661	-104.922	0.160	0.037
-569.646	-129.535	-0.337	-0.047
-568.631	-200.000	-0.046	-0.287
-567.617	-56.625	-0.091	-0.040
-566.602	-200.000	0.034	-0.354
-565.588	-200.000	0.002	0.110
-564.573	-48.627	0.139	0.067
-563.558	-155.020	-0.387	0.025
-562.544	-69.274	-0.077	-0.030
-561.529	-70.322	0.128	-0.049
-560.515	500.111	-0.256	-0.593
-559.500	225.232	0.125	-0.204
-558.485	83.779	-0.132	0.144
-557.471	-44.721	-0.101	-0.051
-556.456	-178.817	0.019	-0.000
-555.442	800.000	0.112	0.331
-554.427	187.158	-0.052	-0.079
-553.412	-200.000	-0.014	-0.177
-552.398	26.811	0.206	-0.174
-551.383	-68.761	-0.151	-0.059
-550.369	2.130	0.299	-0.217
-549.354	-146.562	-0.089	-0.008
-548.339	86.216	-0.099	-0.110
-547.325	33.327	0.084	-0.073
-546.310	-200.000	0.078	0.405
-545.296	800.000	-0.020	0.073
-544.281	800.000	0.015	-0.055
-543.266	540.258	0.042	0.101
-542.252	151.358	0.117	0.160
-541.237	262.213	0.033	-0.057
-540.223	-109.803	-0.187	-0.039
-539.208	152.473	-0.015	-0.021
-538.193	109.237	0.127	-0.153
-537.179	14.019	-0.218	0.171
-536.164	-31.768	0.203	0.114
-535.150	-104.805	-0.096	0.022
-534.135	23.844	-0.168	-0.139
-533.121	-92.047	-0.143	0.040
-532.106	-51.415	0.105	-0.049
-531.091	-116.464	-0.391	0.072
-530.077	-25.983	-0.152	-0.090
-529.062	-33.721	-0.195	-0.108
-528.048	800.000	-0.106	0.354
-527.033	-163.733	-0.121	-0.006
-526.018	206.418	0.258	0.402
-525.004	-66.365	0.298	0.119
-523.989	205.368	-0.132	-0.206
-522.975	294.839	-0.182	-0.334
-521.960	185.184	-0.101	-0.150
-520.945	-200.000	-0.046	0.370
-519.931	129.172	-0.095	0.121
-518.916	-200.000	0.536	0.001
-517.902	-135.771	-0.304	0.036
-516.887	-129.672	-0.213	-0.029
-515.872	-20.312	0.134	-0.083
-514.858	-13.224	-0.309	0.201
-513.843	800.000	0.067	-0.280
-512.829	71.368	0.126	-0.131
-511.814	362.518	0.092	-0.185
-510.799	300.749	-0.071	0.132
-509.785	-70.209	0.088	-0.034
-508.770	-113.597	-0.123	0.024
-507.756	245.766	0.082	0.139
-506.741	-107.174	0.277	0.061
-505.726	721.205	-0.042	-0.113
-504.712	-132.797	-0.313	0.040
-503.697	-200.000	-0.028	0.375
-502.683	-173.357	-0.084	-0.003
-501.668	-111.405	-0.147	-0.030
-500.653	46.264	-0.175	0.162
-499.639	-200.000	0.025	-0.543
-498.624	77.245	0.154	0.164
-497.610	-85.523	0.365	-0.114
-496.595	-18.728	0.276	-0.172
-495.581	-200.000	-0.003	-0.025
-494.566	5.534	0.253	-0.187
-493.551	176.922	0.114	0.166
-492.537	-200.000	0.090	-0.561
-491.522	32.085	-0.194	0.167
-490.508	12.635	0.202	0.156
-489.493	-200.000	-0.001	-0.050
-488.478	-105.597	-0.071	-0.016
-487.464	-64.624	0.176	-0.071
-486.449	41.239	-0.146	0.132
-485.435	-2.337	-0.190	-0.133
-484.420	-131.753	-0.236	-0.031
-483.405	-29.269	-0.258	0.148
-482.391	-169.360	0.405	-0.015
-481.376	296.355	-0.241	-0.443
-480.362	-14.126	0.060	-0.039
-479.347	-200.000	-0.002	0.118
-478.332	-81.888	-0.196	0.064
-477.318	-12.689	-0.088	-0.058
-476.303	-74.947	0.157	-0.056
-475.289	-200.000	0.030	-0.176
-474.274	343.540	0.050	-0.097
-473.259	43.782	0.110	-0.100
-472.245	-200.000	-0.016	-0.227
-471.230	94.979	-0.119	0.136
-470.216	138.650	0.150	-0.198
-469.201	-135.107	-0.159	0.019
-468.186	800.000	-0.057	0.191
-467.172	368.681	0.040	-0.082
-466.157	-155.956	0.212	0.013
-465.143	800.000	-0.061	-0.226
-464.128	617.083	-0.169	0.424
-463.113	800.000	0.015	0.056
-462.099	41.198	0.120	0.108
-461.084	50.164	0.144	-0.136
-460.070	-65.952	0.155	-0.062
-459.055	-200.000	0.032	0.418
-458.040	550.170	0.081	0.193
-457.026	-92.545	0.180	0.051
-456.011	6.499	0.402	-0.298
-454.997	72.807	-0.190	-0.199
-453.982	-96.004	-0.069	-0.018
-452.968	-8.634	0.097	-0.065
-451.953	-18.398	0.040	0.025
-450.938	-148.281	0.456	-0.038
-449.924	-200.000	0.059	-0.270
-448.909	-200.000	0.003	-0.199
-447.895	800.000	-0.024	-0.070
-446.880	397.879	-0.100	0.210
-445.865	-71.377	-0.225	0.084
-444.851	800.000	-0.153	-0.439
-443.836	-15.504	-0.073	0.046
-442.822	800.000	0.040	-0.141
-441.807	-200.000	-0.015	0.326
-440.792	-94.420	-0.100	0.027
-439.778	429.572	0.066	0.142
-438.763	158.502	-0.130	-0.180
-437.749	69.296	0.101	-0.104
-436.734	93.812	-0.124	-0.140
-435.719	-49.818	0.063	0.030
-434.705	129.627	0.152	-0.194
-433.690	800.000	-0.091	-0.272
-432.676	-200.000	-0.078	-0.392
-431.661	-200.000	-0.048	0.245
-430.646	10.394	-0.251	-0.191
-429.632	-36.992	-0.286	0.153
-428.617	-50.380	0.320	-0.151
-427.603	-104.044	-0.133	0.031
-426.588	-142.829	0.075	-0.007
-425.573	-200.000	-0.005	0.153
-424.559	39.849	-0.172	-0.154
-423.544	-36.227	-0.236	-0.127
-422.530	-29.543	-0.072	0.041
-421.515	-200.000	-0.024	0.154
-420.500	-102.481	0.183	-0.044
-419.486	-200.000	0.062	0.285
-418.471	800.000	0.090	0.384
-417.457	-138.749	-0.147	-0.016
-416.442	20.604	-0.097	-0.078
-415.428	634.861	-0.056	0.141
-414.413	-24.424	-0.166	-0.099
-413.398	172.169	0.162	-0.233
-412.384	-200.000	0.011	-0.156
-411.369	-81.602	-0.251	-0.082
-410.355	1.354	-0.225	0.161
-409.340	29.246	0.172	-0.146
-408.325	403.066	-0.090	-0.188
-407.311	800.000	0.016	-0.060
-406.296	51.815	-0.267	0.254
-405.282	-98.351	0.355	0.091
-404.267	-27.182	-0.302	-0.176
-403.252	-54.189	0.201	0.091
-402.238	-143.025	0.304	-0.029
-401.223	429.807	-0.089	0.192
-400.209	9.734	0.046	-0.035
-399.194	-140.099	-0.100	0.011
-398.179	-99.483	0.272	0.068
-397.165	-125.962	-0.277	0.042
-396.150	24.742	0.274	-0.226
-395.136	-28.052	0.341	-0.197
-394.121	-82.569	0.223	0.072
-393.106	800.000	0.029	-0.101
-392.092	-200.000	0.063	0.438
-391.077	-49.662	-0.302	-0.143
-390.063	-75.339	-0.056	0.020
-389.048	27.113	-0.230	-0.192
-388.033	-96.299	0.041	-0.011
-387.019	-200.000	0.001	0.332
-386.004	-109.932	0.173	-0.036
-384.990	100.182	-0.160	0.185
-383.975	47.102	0.194	-0.180
-382.960	231.365	-0.065	0.106
-381.946	-17.300	0.147	0.092
-380.931	-187.974	0.130	-0.002
-379.917	-147.051	-0.144	-0.012
-378.902	127.738	-0.079	0.100
-377.888	203.755	0.172	-0.265
-376.873	17.972	-0.070	0.056
-375.858	-200.000	-0.018	0.339
-374.844	125.176	-0.137	0.172
-373.829	12.512	-0.156	-0.120
-372.815	-200.000	0.020	-0.207
-371.800	-50.966	0.322	0.151
-370.785	-200.000	-0.061	-0.297
-369.771	-77.561	0.236	-0.081
-368.756	-200.000	-0.009	-0.209
-367.742	302.858	0.025	-0.047
-366.727	86.411	-0.090	0.099
-365.712	58.409	0.085	-0.084
-364.698	-43.693	0.272	0.137
-363.683	561.561	-0.027	-0.065
-362.669	68.945	-0.165	-0.169
-361.654	191.892	0.259	0.389
-360.639	-200.000	-0.060	-0.340
-359.625	-13.489	-0.097	-0.063
-358.610	-61.928	-0.178	-0.074
-357.596	394.314	-0.117	0.243
-356.581	-200.000	-0.001	0.054
-355.566	-181.445	0.144	-0.003
-354.552	800.000	0.042	-0.140
-353.537	800.000	-0.017	0.058
-352.523	-9.970	-0.225	0.149
-351.508	90.684	-0.175	0.196
-350.493	-56.635	0.253	0.112
-349.479	-200.000	0.007	0.625
-348.464	-200.000	-0.041	0.202
-347.450	-60.822	0.326	-0.137
-346.435	57.994	0.166	-0.162
-345.420	84.708	0.248	-0.270
-344.406	607.729	0.088	0.219
-343.391	768.116	-0.071	0.193
-342.377	-200.000	-0.034	-0.193
-341.362	157.930	-0.053	0.074
-340.348	-58.412	0.189	-0.082
-339.333	134.053	-0.392	0.506
-338.318	800.000	0.071	0.303
-337.304	90.066	-0.176	0.196
-336.289	504.321	0.167	-0.384
-335.275	-57.045	0.576	0.253
-334.260	198.264	-0.029	-0.045
-333.245	8.103	0.238	0.177
-332.231	-68.653	-0.190	-0.073
-331.216	-200.000	-0.026	0.265
-330.202	115.845	-0.116	0.141
-329.187	-200.000	0.028	0.204
-328.172	-40.894	0.183	-0.094
-327.158	-37.494	0.106	-0.056
-326.143	197.310	-0.184	-0.279
-325.129	-61.932	0.050	-0.021
-324.114	-200.000	-0.015	0.201
-323.099	-200.000	-0.019	-0.155
-322.085	-52.101	0.324	-0.150
-321.070	226.189	-0.117	-0.188
-320.056	213.872	-0.138	0.217
-319.041	-200.000	0.007	0.091
-318.026	-147.037	-0.163	0.014
-317.012	-112.301	-0.089	-0.018
-315.997	211.313	0.110	0.172
-314.983	-39.656	0.189	-0.098
-313.968	221.319	0.101	-0.162
-312.953	635.583	-0.084	-0.211
-311.939	-200.000	0.021	0.235
-310.924	77.043	-0.244	0.258
-309.910	351.577	-0.079	-0.156
-308.895	-68.175	0.204	0.079
-307.880	33.440	0.277	-0.239
-306.866	89.131	-0.113	-0.125
-305.851	-18.338	-0.411	0.255
-304.837	107.286	-0.024	-0.028
-303.822	153.356	0.176	0.239
-302.807	-24.121	0.116	-0.069
-301.793	-26.869	-0.229	0.133
-300.778	-200.000	0.021	-0.184
-299.764	581.419	0.066	-0.161
-298.749	570.730	0.063	0.151
-297.735	77.731	-0.157	-0.167
-296.720	-14.419	0.291	0.186
-295.705	-134.325	-0.246	-0.030
-294.691	-200.000	0.020	0.187
-293.676	-200.000	0.020	0.188
-292.662	800.000	-0.081	-0.327
-291.647	-148.197	0.245	-0.020
-290.632	-200.000	-0.003	0.105
-289.618	-6.220	0.154	-0.104
-288.603	-133.650	-0.181	0.022
-287.589	37.078	0.087	-0.077
-286.574	-81.768	-0.180	0.059
-285.559	-200.000	0.006	-0.243
-284.545	110.857	-0.057	-0.069
-283.530	90.229	-0.093	-0.103
-282.516	800.000	0.042	-0.162
-281.501	11.519	-0.242	0.184
-280.486	-200.000	-0.040	-0.221
-279.472	321.363	0.090	0.170
-278.457	800.000	0.105	0.399
-277.443	-200.000	-0.002	-0.044
-276.428	-13.036	-0.188	0.122
-275.413	800.000	-0.021	0.070
-274.399	47.228	-0.064	-0.059
-273.384	-200.000	-0.044	0.380
-272.370	211.023	0.190	-0.296
-271.355	141.935	0.133	-0.175
-270.340	-97.051	0.187	-0.049
-269.326	800.000	0.055	-0.191
-268.311	800.000	-0.098	0.318
-267.297	237.134	0.154	0.253
-266.282	146.260	0.071	-0.094
-265.267	-200.000	-0.038	-0.197
-264.253	-200.000	0.010	-0.201
-263.238	37.514	0.103	-0.091
-262.224	63.710	-0.166	-0.165
-261.209	-35.189	-0.058	-0.031
-260.195	268.511	-0.078	0.136
-259.180	-200.000	0.026	0.239
-258.165	-64.208	0.157	-0.064
-257.151	-104.603	0.055	-0.013
-256.136	-21.710	-0.121	-0.073
-255.122	58.812	-0.004	-0.004
-254.107	5.756	0.224	-0.164
-253.092	-102.855	0.156	-0.037
-252.078	43.775	0.209	-0.190
-251.063	522.363	-0.106	-0.246
-250.049	-62.723	0.198	-0.081
-249.034	800.000	0.043	-0.165
-248.019	-102.621	-0.168	0.040
-247.005	-157.964	0.125	-0.007
-245.990	27.067	-0.188	0.156
-244.976	800.000	0.032	0.118
-243.961	467.619	0.018	0.041
-242.946	107.824	-0.136	-0.161
-241.932	800.000	-0.050	0.192
-240.917	85.210	-0.193	0.210
-239.903	99.984	-0.083	0.096
-238.888	-200.000	0.017	0.225
-237.873	-17.898	-0.087	-0.054
-236.859	-100.628	-0.263	-0.064
-235.844	-149.056	0.362	0.029
-234.830	113.707	-0.071	0.085
-233.815	142.711	-0.266	-0.350
-232.800	159.900	-0.053	0.074
-231.786	800.000	0.156	0.443
-230.771	213.392	0.082	0.128
-229.757	-69.097	0.089	0.034
-228.742	-122.962	0.266	-0.043
-227.727	16.450	-0.263	-0.206
-226.713	43.705	-0.193	-0.175
-225.698	-200.000	0.009	-0.181
-224.684	310.549	-0.170	0.316
-223.669	268.821	0.172	0.299
-222.655	37.234	-0.153	0.135
-221.640	68.030	0.216	0.219
-220.625	800.000	-0.027	0.082
-219.611	153.087	-0.309	0.419
-218.596	-5.352	0.349	-0.237
-217.582	800.000	0.035	0.102
-216.567	800.000	0.043	-0.128
-215.552	800.000	-0.037	0.157
-214.538	-93.819	-0.046	0.012
-213.523	741.304	-0.106	0.283
-212.509	116.099	-0.054	-0.065
-211.494	800.000	0.030	0.096
-210.479	98.998	0.133	0.152
-209.465	800.000	0.013	-0.053
-208.450	800.000	0.089	0.276
-207.436	800.000	-0.049	0.183
-206.421	-160.996	0.098	-0.005
-205.406	-200.000	0.026	0.195
-204.392	-141.278	0.132	-0.013
-203.377	-78.653	0.136	-0.046
-202.363	-200.000	-0.026	-0.238
-201.348	-200.000	-0.002	0.477
-200.333	-109.044	0.052	-0.011
-199.319	52.627	0.232	0.219
-198.304	-79.733	0.193	-0.064
-197.290	-200.000	-0.011	0.170
-196.275	-121.031	0.139	0.023
-195.260	29.352	-0.141	0.119
-194.246	-200.000	-0.004	0.079
-193.231	-200.000	-0.049	0.223
-192.217	-200.000	0.073	0.000
-191.202	-0.836	-0.096	0.067
-190.187	16.641	-0.104	0.081
-189.173	800.000	0.061	-0.260
-188.158	-121.106	0.207	0.034
-187.144	-200.000	-0.003	-0.246
-186.129	-111.400	0.284	0.057
-185.114	144.293	-0.102	0.134
-184.100	800.000	0.078	-0.263
-183.085	-168.967	-0.244	-0.009
-182.071	-114.652	0.162	-0.031
-181.056	-200.000	-0.009	-0.094
-180.042	-94.570	-0.133	-0.036
-179.027	330.612	0.037	0.070
-178.012	303.153	-0.067	-0.123
-176.998	800.000	-0.081	0.265
-175.983	-6.808	0.239	0.161
-174.969	-154.253	-0.132	0.009
-173.954	-200.000	-0.002	-0.030
-172.939	-9.707	-0.302	-0.199
-171.925	-94.929	-0.013	0.003
-170.910	-115.573	-0.225	-0.042
-169.896	170.325	0.053	-0.075
-168.881	76.542	0.167	0.175
-167.866	-193.920	-0.221	-0.002
-166.852	353.685	-0.007	-0.014
-165.837	-200.000	0.034	0.433
-164.823	-88.233	0.114	0.034
-163.808	-26.270	0.074	0.043
-162.793	-163.862	-0.295	-0.014
-161.779	800.000	0.076	-0.270
-160.764	-200.000	-0.013	0.074
-159.750	-164.850	-0.277	0.012
-158.735	-139.850	0.119	0.012
-157.720	-73.396	-0.245	-0.088
-156.706	-200.000	0.017	0.194
-155.691	9.335	0.307	0.229
-154.677	280.823	-0.060	0.106
-153.662	-111.859	-0.244	0.049
-152.647	400.188	0.077	0.160
-151.633	-119.487	-0.061	-0.010
-150.618	-200.000	-0.005	0.153
-149.604	290.038	0.146	0.262
-148.589	-77.690	0.409	-0.140
-147.574	54.990	0.247	-0.235
-146.560	207.843	0.100	0.155
-145.545	1.671	-0.188	0.133
-144.531	143.220	0.248	0.326
-143.516	-146.323	-0.290	0.025
-142.502	-101.101	0.099	-0.024
-141.487	-81.219	-0.300	-0.098
-140.472	-46.194	-0.381	0.185
-139.458	43.633	-0.078	-0.071
-138.443	-105.938	-0.095	-0.021
-137.429	337.491	-0.120	-0.231
-136.414	800.000	0.141	0.405
-135.399	-53.320	-0.169	-0.077
-134.385	800.000	-0.068	-0.277
-133.370	-80.718	0.157	0.052
-132.356	-22.152	-0.162	0.097
-131.341	278.110	-0.236	-0.414
-130.326	138.733	0.133	0.172
-129.312	-139.527	-0.211	0.022
-128.297	-200.000	0.014	-0.193
-127.283	-46.928	0.197	-0.095
-126.268	249.608	0.083	0.139
-125.253	187.090	-0.103	0.152
-124.239	800.000	-0.077	-0.251
-123.224	800.000	-0.065	-0.265
-122.210	15.854	0.227	0.177
