DTS Sentinel unit serial number:	SN413079Multiplexer serial number:	ORYXHardware model number:	OX4-SRSoftware version number:	ORYX F/W v4.00 Oryx Data Collector v3.7.2.0data status	okinstallation	princeton_trtdifferential loss correction	single-endedforward channel	channel 3reverse channel	N/Adate	2019/09/18time	04:48:35forward acquisition time	60.00reverse acquisition time	0.00gamma	496.2192k internal	0.2343k external	0.2343temperature offset calibration	0.9947default loss term (dB/km)	0.3790temperature slope calibration	1.0000multiplexer offset coefficient	1.0000multiplexer slope coefficient	1.0000fibre end	0.00T internal ref (°C)	23.44T ext. ref 1 (°C)	0.19T ext. ref 2 (°C)	17.95length (m)	temperature (°C)	Stokes	anti-Stokes-747.200	260.269	-0.092	-0.159
-746.185	170.637	-0.192	-0.275
-745.171	88.483	0.194	-0.216
-744.156	774.958	-0.092	0.251
-743.142	-85.145	0.209	0.065
-742.127	-200.000	-0.067	0.408
-741.112	-51.645	-0.383	0.179
-740.098	-186.614	-0.381	0.005
-739.083	75.666	-0.188	0.199
-738.069	-128.438	-0.271	0.038
-737.054	80.987	-0.353	0.381
-736.039	-12.757	0.137	0.089
-735.025	2.000	0.158	0.114
-734.010	-135.788	-0.164	-0.019
-732.996	800.000	0.070	-0.240
-731.981	742.060	0.162	0.437
-730.966	390.881	0.044	0.092
-729.952	-55.339	-0.082	-0.037
-728.937	-200.000	-0.021	0.255
-727.923	-58.045	0.198	0.086
-726.908	-200.000	-0.007	-0.104
-725.894	-37.094	0.106	0.057
-724.879	-24.106	0.241	-0.144
-723.864	220.170	-0.015	-0.024
-722.850	800.000	0.090	-0.300
-721.835	6.715	-0.115	-0.086
-720.821	266.488	0.143	0.250
-719.806	-177.333	-0.316	-0.008
-718.791	292.984	-0.071	-0.130
-717.777	-200.000	-0.068	-0.369
-716.762	273.118	-0.133	-0.235
-715.748	99.473	0.204	0.236
-714.733	-82.208	-0.109	0.036
-713.718	7.359	0.395	0.295
-712.704	-45.715	0.186	0.092
-711.689	-84.580	-0.167	-0.053
-710.675	-38.411	-0.420	0.222
-709.660	-78.674	-0.278	-0.095
-708.645	-81.501	-0.244	-0.080
-707.631	308.525	0.055	0.103
-706.616	-84.647	-0.126	-0.040
-705.602	-38.374	0.158	-0.083
-704.587	203.328	-0.101	-0.156
-703.572	-70.674	0.127	-0.048
-702.558	800.000	-0.089	-0.249
-701.543	800.000	-0.132	0.415
-700.529	-84.828	-0.174	-0.055
-699.514	-148.001	-0.065	-0.005
-698.499	-12.968	-0.147	-0.096
-697.485	182.128	0.020	-0.030
-696.470	-115.677	-0.191	-0.036
-695.456	-89.171	0.332	-0.098
-694.441	-48.443	0.247	-0.119
-693.426	375.839	-0.143	0.291
-692.412	600.389	0.124	0.307
-691.397	-144.549	-0.120	-0.011
-690.383	41.035	-0.184	0.166
-689.368	124.991	-0.033	0.041
-688.354	696.522	-0.076	-0.200
-687.339	671.816	0.055	0.142
-686.324	800.000	0.043	-0.137
-685.310	-35.794	0.196	0.106
-684.295	14.862	0.316	0.247
-683.281	318.160	-0.076	0.144
-682.266	-200.000	-0.047	-0.222
-681.251	-53.923	-0.280	0.127
-680.237	-200.000	0.006	-0.074
-679.222	-67.583	-0.114	-0.045
-678.208	280.459	0.078	0.140
-677.193	334.484	-0.117	0.226
-676.178	25.724	0.211	0.175
-675.164	-112.742	0.057	-0.011
-674.149	-200.000	-0.067	0.302
-673.135	-68.529	-0.306	-0.118
-672.120	50.947	-0.154	0.146
-671.105	-200.000	0.020	0.139
-670.091	-2.476	-0.087	0.061
-669.076	-200.000	-0.017	0.148
-668.062	170.616	0.047	0.067
-667.047	389.854	0.082	0.170
-666.032	-40.325	-0.045	-0.024
-665.018	-200.000	-0.032	-0.366
-664.003	-116.810	-0.274	0.050
-662.989	800.000	-0.026	0.081
-661.974	800.000	0.076	-0.253
-660.959	783.005	0.107	0.292
-659.945	312.889	-0.085	-0.159
-658.930	83.720	0.425	0.463
-657.916	800.000	0.060	-0.201
-656.901	800.000	0.095	-0.363
-655.886	-140.621	-0.330	-0.034
-654.872	204.343	0.164	0.253
-653.857	109.613	-0.192	-0.230
-652.843	800.000	0.053	0.186
-651.828	417.839	0.059	-0.126
-650.814	-200.000	0.013	0.286
-649.799	-148.979	0.402	-0.032
-648.784	344.390	-0.082	-0.161
-647.770	-167.133	-0.193	-0.008
-646.755	16.655	-0.390	-0.308
-645.741	800.000	0.060	-0.174
-644.726	106.119	-0.122	-0.144
-643.711	800.000	0.066	-0.228
-642.697	-73.380	0.409	0.149
-641.682	-94.555	0.141	-0.038
-640.668	-200.000	-0.004	-0.018
-639.653	54.342	-0.060	-0.058
-638.638	-62.480	-0.187	-0.078
-637.624	-37.332	-0.150	0.080
-636.609	-200.000	0.033	-0.248
-635.595	255.903	-0.100	0.170
-634.580	-157.539	-0.406	0.024
-633.565	-166.844	0.077	0.003
-632.551	679.067	0.137	-0.356
-631.536	161.100	-0.082	-0.114
-630.522	539.860	0.112	0.265
-629.507	-23.669	0.123	0.074
-628.492	-19.418	-0.364	-0.225
-627.478	-200.000	-0.002	-0.158
-626.463	800.000	0.114	0.400
-625.449	800.000	0.068	0.273
-624.434	-1.071	-0.079	0.056
-623.419	-90.511	0.067	0.019
-622.405	800.000	-0.062	-0.173
-621.390	-165.715	-0.207	0.009
-620.376	-200.000	-0.012	0.091
-619.361	158.048	-0.225	-0.311
-618.346	-91.499	0.011	0.003
-617.332	-28.262	-0.198	0.114
-616.317	-118.478	0.130	0.023
-615.303	800.000	0.139	-0.407
-614.288	800.000	-0.040	0.152
-613.273	-91.703	0.121	-0.034
-612.259	218.000	-0.104	0.165
-611.244	-200.000	-0.000	-0.082
-610.230	132.521	0.240	0.308
-609.215	-146.238	-0.149	-0.013
-608.201	140.842	-0.064	-0.084
-607.186	800.000	-0.050	-0.184
-606.171	-4.522	0.349	0.240
-605.157	-42.026	-0.288	0.147
-604.142	-200.000	-0.018	-0.128
-603.128	-200.000	0.034	-0.211
-602.113	800.000	-0.045	-0.124
-601.098	114.341	-0.189	-0.229
-600.084	295.249	0.099	-0.180
-599.069	-69.879	0.302	0.115
-598.055	157.157	-0.228	0.314
-597.040	541.804	0.077	0.182
-596.025	-77.293	-0.214	0.074
-595.011	39.313	0.092	-0.082
-593.996	100.213	-0.097	-0.112
-592.982	82.728	-0.190	-0.206
-591.967	14.643	0.062	-0.048
-590.952	-52.518	0.222	-0.102
-589.938	-38.984	-0.086	-0.045
-588.923	-88.913	0.226	-0.067
-587.909	-200.000	0.013	-0.331
-586.894	-200.000	-0.015	-0.284
-585.879	-7.803	-0.114	-0.076
-584.865	6.118	0.433	0.320
-583.850	188.790	0.123	-0.183
-582.836	12.523	-0.147	0.113
-581.821	30.669	-0.120	0.102
-580.806	5.744	0.317	-0.233
-579.792	-136.319	-0.208	0.024
-578.777	-94.529	-0.356	-0.096
-577.763	-66.593	0.169	-0.067
-576.748	398.611	-0.066	-0.138
-575.733	-200.000	-0.040	-0.174
-574.719	348.560	-0.106	-0.208
-573.704	-200.000	-0.004	-0.059
-572.690	-44.308	0.133	0.066
-571.675	93.019	0.190	0.213
-570.661	-22.155	-0.185	0.112
-569.646	-160.799	-0.252	-0.013
-568.631	-116.823	-0.271	-0.049
-567.617	95.283	0.084	0.095
-566.602	-113.374	-0.278	0.054
-565.588	-43.321	-0.366	0.184
-564.573	-150.530	0.086	0.007
-563.558	-101.834	-0.265	0.064
-562.544	-58.681	-0.157	-0.068
-561.529	800.000	0.049	0.191
-560.515	800.000	-0.056	0.210
-559.500	479.314	0.175	-0.395
-558.485	-63.870	0.371	-0.151
-557.471	-129.125	0.231	0.032
-556.456	-58.199	0.124	0.054
-555.442	129.104	-0.046	0.058
-554.427	-200.000	-0.006	-0.044
-553.412	284.979	-0.152	0.272
-552.398	-104.115	-0.202	0.047
-551.383	-200.000	0.009	-0.072
-550.369	800.000	0.073	0.208
-549.354	432.375	0.145	0.312
-548.339	-200.000	-0.069	-0.304
-547.325	-162.548	-0.059	-0.003
-546.310	495.409	0.124	-0.283
-545.296	171.223	0.137	-0.195
-544.281	-16.601	0.328	-0.206
-543.266	203.032	0.200	0.308
-542.252	39.890	-0.156	0.139
-541.237	800.000	-0.123	-0.472
-540.223	227.568	-0.055	0.090
-539.208	-147.752	-0.209	0.017
-538.193	4.583	-0.141	-0.103
-537.179	-200.000	0.053	0.456
-536.164	-0.801	0.123	-0.086
-535.150	-30.423	-0.411	-0.232
-534.135	-125.130	0.147	-0.022
-533.121	800.000	-0.050	-0.171
-532.106	-40.558	-0.153	-0.079
-531.091	-15.166	-0.062	-0.039
-530.077	9.876	0.120	-0.090
-529.062	-128.286	-0.233	-0.033
-528.048	-200.000	0.008	0.173
-527.033	-32.864	0.117	-0.064
-526.018	159.298	-0.105	-0.146
-525.004	152.688	0.121	-0.165
-523.989	-149.554	0.019	-0.001
-522.975	-96.451	-0.404	0.106
-521.960	-20.056	0.093	0.057
-520.945	235.758	-0.129	-0.212
-519.931	33.311	0.164	0.141
-518.916	800.000	0.086	-0.240
-517.902	-200.000	-0.015	0.110
-516.887	123.293	-0.043	0.053
-515.872	-1.403	0.268	-0.188
-514.858	108.523	0.191	-0.227
-513.843	800.000	0.031	0.089
-512.829	800.000	0.059	-0.212
-511.814	-142.855	0.391	0.038
-510.799	555.254	0.203	-0.486
-509.785	800.000	0.131	-0.409
-508.770	267.035	0.118	0.204
-507.756	-117.161	-0.119	-0.021
-506.741	49.320	-0.115	0.107
-505.726	6.217	-0.172	-0.127
-504.712	142.523	-0.212	-0.279
-503.697	-200.000	-0.030	-0.151
-502.683	-200.000	0.002	-0.076
-501.668	160.150	0.041	-0.057
-500.653	-82.228	0.088	-0.028
-499.639	800.000	-0.044	0.126
-498.624	800.000	-0.078	0.335
-497.610	-200.000	0.007	0.234
-496.595	-47.539	0.056	-0.027
-495.581	-200.000	-0.042	-0.202
-494.566	309.412	0.042	-0.078
-493.551	800.000	0.037	0.157
-492.537	218.012	0.124	-0.197
-491.522	-142.235	-0.256	0.025
-490.508	-200.000	-0.030	0.160
-489.493	-53.835	-0.242	-0.110
-488.478	-155.776	-0.158	0.010
-487.464	-102.366	-0.298	-0.071
-486.449	-200.000	0.035	-0.306
-485.435	161.473	-0.195	0.270
-484.420	19.189	-0.297	0.237
-483.405	221.536	-0.105	-0.168
-482.391	-41.539	-0.089	0.045
-481.376	13.181	0.091	0.070
-480.362	-13.246	0.104	0.067
-479.347	-135.800	0.197	-0.023
-478.332	30.168	-0.151	0.127
-477.318	343.118	-0.055	-0.107
-476.303	152.784	-0.190	-0.258
-475.289	154.689	0.058	0.079
-474.274	-177.680	0.214	-0.005
-473.259	-94.485	-0.206	-0.056
-472.245	138.757	0.048	0.063
-471.230	109.570	-0.073	-0.086
-470.216	-122.213	-0.248	-0.040
-469.201	-200.000	0.045	-0.270
-468.186	35.156	0.117	-0.102
-467.172	243.290	0.106	0.176
-466.157	50.789	-0.040	0.038
-465.143	-54.674	-0.160	0.072
-464.128	-200.000	0.031	-0.284
-463.113	160.456	0.193	0.267
-462.099	-86.089	0.125	0.038
-461.084	-200.000	-0.026	0.153
-460.070	275.618	0.294	-0.516
-459.055	800.000	-0.005	-0.017
-458.040	412.149	0.107	0.225
-457.026	-200.000	-0.075	0.381
-456.011	70.379	0.106	-0.108
-454.997	800.000	0.076	0.277
-453.982	-72.258	0.260	-0.095
-452.968	800.000	0.094	-0.403
-451.953	800.000	0.074	0.298
-450.938	-139.075	0.209	0.022
-449.924	-66.774	0.168	0.066
-448.909	-104.453	0.252	-0.058
-447.895	-85.491	-0.287	0.088
-446.880	153.262	-0.155	-0.210
-445.865	-200.000	0.065	-0.380
-444.851	-200.000	-0.208	0.001
-443.836	-181.802	-0.341	-0.006
-442.822	-200.000	0.006	0.049
-441.807	-89.872	-0.315	-0.091
-440.792	-12.105	0.150	0.097
-439.778	-200.000	-0.030	-0.180
-438.763	-200.000	-0.000	-0.022
-437.749	800.000	0.033	-0.113
-436.734	-190.581	-0.109	-0.001
-435.719	-118.729	0.279	0.049
-434.705	42.013	0.173	-0.156
-433.690	200.059	-0.135	-0.205
-432.676	-10.011	-0.150	-0.099
-431.661	17.538	0.008	-0.006
-430.646	573.889	0.058	-0.139
-429.632	600.489	0.072	0.176
-428.617	428.747	-0.095	-0.203
-427.603	57.045	-0.045	0.043
-426.588	-200.000	-0.001	-0.338
-425.573	223.188	0.150	-0.239
-424.559	338.018	-0.059	-0.113
-423.544	112.537	0.174	0.208
-422.530	800.000	0.099	0.367
-421.515	-115.002	0.165	-0.031
-420.500	-23.860	0.164	0.097
-419.486	-22.500	0.081	0.048
-418.471	70.670	0.101	-0.103
-417.457	203.383	-0.067	0.103
-416.442	77.474	0.071	0.075
-415.428	-95.592	0.247	0.065
-414.413	-56.229	-0.168	0.074
-413.398	-57.269	0.286	0.124
-412.384	89.532	-0.174	0.192
-411.369	800.000	-0.046	0.175
-410.355	-200.000	0.029	0.152
-409.340	-135.554	-0.442	0.052
-408.325	-200.000	0.003	-0.038
-407.311	800.000	-0.014	-0.047
-406.296	22.861	0.114	0.092
-405.282	-123.230	-0.025	0.004
-404.267	26.406	0.278	0.230
-403.252	-112.440	-0.251	-0.049
-402.238	-61.291	-0.230	-0.096
-401.223	-98.721	0.317	0.080
-400.209	-200.000	-0.025	0.360
-399.194	334.526	-0.073	-0.140
-398.179	-28.807	-0.246	-0.140
-397.165	-130.382	0.061	0.008
-396.150	800.000	-0.066	-0.236
-395.136	-61.684	0.416	0.172
-394.121	81.809	0.073	0.078
-393.106	32.662	-0.154	0.132
-392.092	-99.916	0.135	-0.033
-391.077	-48.386	-0.129	-0.061
-390.063	-200.000	0.011	-0.143
-389.048	401.545	0.128	-0.265
-388.033	105.457	-0.110	0.129
-387.019	-140.959	0.069	0.007
-386.004	-19.526	-0.210	-0.129
-384.990	-180.697	0.348	0.007
-383.975	-165.648	-0.211	-0.009
-382.960	-200.000	0.039	0.210
-381.946	-200.000	0.026	-0.578
-380.931	-3.008	0.112	-0.077
-379.917	-145.330	-0.045	0.004
-378.902	58.341	-0.184	-0.179
-377.888	-20.316	-0.383	0.232
-376.873	236.348	0.086	0.140
-375.858	-120.294	0.027	-0.005
-374.844	33.121	0.156	0.133
-373.829	714.249	0.091	0.238
-372.815	-200.000	-0.003	0.204
-371.800	-112.823	-0.197	0.039
-370.785	-145.372	-0.126	-0.011
-369.771	-162.605	0.175	0.008
-368.756	66.145	0.149	-0.150
-367.742	-35.840	0.345	-0.184
-366.727	800.000	0.056	0.154
-365.712	118.344	-0.236	-0.287
-364.698	-66.643	-0.111	-0.043
-363.683	202.001	0.160	-0.244
-362.669	-81.983	-0.256	-0.083
-361.654	167.655	0.002	0.003
-360.639	128.951	-0.056	-0.070
-359.625	-7.862	-0.078	0.052
-358.610	-200.000	0.023	-0.193
-357.596	-200.000	0.004	-0.138
-356.581	-130.257	0.209	-0.028
-355.566	322.490	0.149	0.280
-354.552	-200.000	0.016	-0.115
-353.537	50.672	-0.468	0.437
-352.523	-147.235	-0.268	-0.022
-351.508	576.548	0.048	-0.117
-350.493	302.815	0.235	-0.429
-349.479	800.000	-0.039	0.142
-348.464	-61.088	0.202	-0.084
-347.450	800.000	0.078	-0.247
-346.435	-115.116	0.326	-0.061
-345.420	-200.000	-0.034	-0.147
-344.406	101.740	-0.058	0.066
-343.391	524.281	0.077	0.179
-342.377	-163.612	-0.148	-0.007
-341.362	-70.756	0.157	-0.059
-340.348	69.077	-0.239	0.243
-339.333	14.668	-0.420	-0.324
-338.318	411.038	0.089	0.186
-337.304	-109.391	-0.111	-0.023
-336.289	730.440	0.046	0.122
-335.275	-68.504	-0.186	-0.071
-334.260	-95.942	0.366	0.096
-333.245	84.771	-0.137	0.148
-332.231	-9.188	-0.196	-0.129
-331.216	101.536	0.092	-0.105
-330.202	35.421	-0.006	0.005
-329.187	250.680	-0.203	-0.339
-328.172	-200.000	0.032	-0.478
-327.158	232.384	-0.094	-0.152
-326.143	269.945	-0.231	-0.399
-325.129	558.875	0.148	-0.353
-324.114	74.428	0.191	0.198
-323.099	-60.080	-0.071	0.030
-322.085	-200.000	0.019	-0.172
-321.070	-165.941	-0.196	-0.008
-320.056	-50.740	0.155	0.072
-319.041	-18.360	0.147	0.090
-318.026	337.490	-0.130	-0.249
-317.012	179.905	-0.275	0.397
-315.997	-43.239	0.342	0.170
-314.983	-200.000	-0.075	0.353
-313.968	-200.000	0.003	0.065
-312.953	85.228	0.271	0.293
-311.939	-115.322	0.133	0.025
-310.924	789.580	0.020	-0.055
-309.910	67.903	-0.137	-0.138
-308.895	-73.117	-0.172	-0.062
-307.880	-41.062	0.261	0.133
-306.866	-69.648	-0.220	0.083
-305.851	94.639	0.023	0.026
-304.837	2.775	0.167	0.119
-303.822	-200.000	-0.046	0.246
-302.807	-80.256	0.043	0.014
-301.793	67.493	-0.074	-0.075
-300.778	-116.729	0.198	-0.036
-299.764	800.000	-0.105	0.312
-298.749	47.883	-0.240	0.221
-297.735	-200.000	-0.013	-0.119
-296.720	96.113	-0.123	0.138
-295.705	556.946	-0.027	-0.064
-294.691	-23.609	0.044	0.026
-293.676	301.272	-0.124	-0.225
-292.662	-51.973	-0.244	-0.112
-291.647	-72.532	-0.696	0.253
-290.632	-6.639	0.147	0.099
-289.618	-55.611	0.163	0.072
-288.603	-200.000	0.039	-0.187
-287.589	217.963	-0.064	-0.100
-286.574	-14.507	-0.130	0.082
-285.559	-200.000	-0.015	0.118
-284.545	-200.000	-0.004	-0.108
-283.530	-16.570	-0.240	0.150
-282.516	512.833	-0.175	0.401
-281.501	-200.000	0.034	0.207
-280.486	37.462	-0.269	-0.235
-279.472	800.000	0.064	0.174
-278.457	53.211	-0.053	0.050
-277.443	-200.000	0.008	0.191
-276.428	4.081	0.142	-0.102
-275.413	-21.063	-0.244	-0.147
-274.399	-198.570	-0.155	-0.001
-273.384	-69.185	-0.252	0.095
-272.370	-72.352	0.267	-0.097
-271.355	-11.193	0.154	-0.099
-270.340	-65.083	0.172	-0.068
-269.326	-200.000	0.037	0.294
-268.311	-43.645	-0.056	-0.028
-267.297	-120.055	-0.141	-0.024
-266.282	-63.700	-0.253	0.102
-265.267	-200.000	0.063	0.295
-264.253	50.638	-0.067	0.063
-263.238	347.693	-0.072	-0.138
-262.224	274.564	0.046	0.080
-261.209	289.006	-0.115	0.205
-260.195	3.202	0.082	-0.059
-259.180	800.000	0.054	-0.183
-258.165	-190.824	0.283	-0.003
-257.151	426.669	0.093	0.198
-256.136	105.147	0.107	0.124
-255.122	-200.000	-0.024	-0.289
-254.107	-71.688	0.259	0.095
-253.092	134.916	-0.181	-0.231
-252.078	-200.000	-0.023	0.328
-251.063	102.529	0.182	0.209
-250.049	270.923	0.164	-0.284
-249.034	-26.753	0.139	0.080
-248.019	698.883	-0.169	-0.436
-247.005	-39.265	-0.258	0.133
-245.990	-200.000	0.008	0.330
-244.976	-143.547	0.182	-0.017
-243.961	223.781	0.215	0.341
-242.946	-111.393	0.430	-0.086
-241.932	667.390	-0.060	-0.152
-240.917	8.979	0.197	-0.146
-239.903	176.760	0.186	0.266
-238.888	800.000	0.014	0.049
-237.873	-149.858	0.293	-0.023
-236.859	44.890	0.141	0.127
-235.844	-30.053	-0.331	-0.185
-234.830	-126.632	-0.267	-0.039
-233.815	-86.103	0.190	0.058
-232.800	142.696	-0.094	0.122
-231.786	-43.179	0.089	-0.044
-230.771	-150.996	-0.568	-0.042
-229.757	-200.000	-0.044	-0.301
-228.742	-200.000	0.034	0.150
-227.727	336.400	-0.145	-0.277
-226.713	-183.980	0.284	-0.005
-225.698	800.000	0.024	0.087
-224.684	4.368	-0.124	-0.090
-223.669	271.701	0.210	0.364
-222.655	28.191	0.206	-0.171
-221.640	21.160	-0.237	-0.189
-220.625	193.398	0.156	-0.231
-219.611	-144.371	-0.202	0.018
-218.596	203.023	-0.196	-0.296
-217.582	12.266	0.163	0.123
-216.567	-200.000	0.072	0.353
-215.552	274.094	-0.029	-0.050
-214.538	800.000	0.016	0.053
-213.523	126.863	0.139	0.172
-212.509	328.413	-0.104	0.196
-211.494	-119.331	-0.210	0.036
-210.479	153.669	-0.253	0.339
-209.465	800.000	0.084	0.356
-208.450	800.000	-0.093	0.253
-207.436	119.231	0.059	0.072
-206.421	-13.116	-0.156	-0.099
-205.406	800.000	-0.105	0.327
-204.392	21.779	0.176	-0.141
-203.377	-108.673	0.130	-0.027
-202.363	698.938	0.127	0.328
-201.348	-24.912	0.254	-0.148
-200.333	-163.077	-0.399	0.019
-199.319	43.170	0.127	-0.114
-198.304	79.036	0.053	-0.055
-197.290	800.000	0.095	0.342
-196.275	800.000	-0.091	-0.268
-195.260	-200.000	0.003	0.064
-194.246	210.329	0.174	0.268
-193.231	-91.609	0.208	-0.058
-192.217	-26.293	0.036	-0.021
-191.202	-200.000	0.001	0.184
-190.187	25.937	0.167	-0.136
-189.173	-24.801	0.106	0.062
-188.158	-178.791	0.382	-0.009
-187.144	-83.064	0.310	0.098
-186.129	454.539	-0.070	0.151
-185.114	242.149	-0.126	0.207
-184.100	135.280	-0.209	0.266
-183.085	179.066	-0.127	0.182
-182.071	24.588	-0.211	0.171
-181.056	34.733	0.270	-0.231
-180.042	52.159	0.238	-0.222
-179.027	-69.951	-0.281	0.105
-178.012	35.993	0.249	-0.214
-176.998	-183.289	-0.166	0.003
-175.983	-80.817	0.258	0.084
-174.969	-29.626	0.452	-0.253
-173.954	-39.681	0.271	0.139
-172.939	-90.228	-0.281	-0.080
-171.925	67.977	0.057	-0.057
-170.910	511.157	0.058	0.133
-169.896	-51.759	0.042	-0.019
-168.881	204.310	0.106	0.161
-167.866	325.091	0.139	0.260
-166.852	228.493	0.108	0.173
-165.837	-200.000	0.040	0.203
-164.823	459.382	-0.094	-0.204
-163.808	-135.965	0.222	-0.026
-162.793	-44.519	-0.210	0.103
-161.779	83.176	0.286	0.305
-160.764	113.537	0.216	0.256
-159.750	-200.000	-0.008	0.320
-158.735	220.951	0.150	-0.235
-157.720	-34.852	-0.105	0.056
-156.706	800.000	0.133	0.407
-155.691	-178.277	-0.423	0.010
-154.677	244.239	-0.152	0.251
-153.662	717.524	-0.052	-0.136
-152.647	-9.092	0.210	0.138
-151.633	-21.093	0.147	0.088
-150.618	109.416	-0.214	0.251
-149.604	249.814	-0.375	0.622
-148.589	10.470	-0.355	-0.265
-147.574	-97.016	-0.087	0.022
-146.560	715.465	0.143	0.371
-145.545	54.387	-0.143	-0.134
-144.531	800.000	-0.141	-0.448
-143.516	800.000	0.045	0.137
-142.502	29.481	-0.167	0.139
-141.487	-139.588	-0.249	0.026
-140.472	112.911	-0.113	-0.134
-139.458	-200.000	0.016	-0.212
-138.443	-200.000	0.006	0.056
-137.429	9.545	0.093	-0.069
-136.414	-23.256	0.074	0.044
-135.399	-152.438	0.286	0.020
-134.385	-144.811	-0.076	0.007
-133.370	-200.000	0.005	-0.126
-132.356	-37.694	0.216	0.112
-131.341	-144.302	-0.056	0.005
-130.326	-200.000	-0.065	0.393
-129.312	-42.117	0.292	-0.146
-128.297	-130.283	-0.113	-0.015
-127.283	34.792	0.061	0.052
-126.268	83.946	-0.114	-0.122
-125.253	458.457	0.054	0.118
-124.239	464.393	0.039	0.086
-123.224	532.881	-0.046	-0.107
-122.210	-0.889	-0.194	0.134
-121.195	800.000	0.063	-0.177
