DTS Sentinel unit serial number:	SN413079Multiplexer serial number:	ORYXHardware model number:	OX4-SRSoftware version number:	ORYX F/W v4.00 Oryx Data Collector v3.7.2.0data status	okinstallation	princeton_trtdifferential loss correction	single-endedforward channel	channel 3reverse channel	N/Adate	2019/09/14time	01:44:34forward acquisition time	60.00reverse acquisition time	0.00gamma	496.2192k internal	0.2340k external	0.2340temperature offset calibration	1.0054default loss term (dB/km)	0.3790temperature slope calibration	1.0000multiplexer offset coefficient	1.0000multiplexer slope coefficient	1.0000fibre end	0.00T internal ref (°C)	26.44T ext. ref 1 (°C)	3.22T ext. ref 2 (°C)	21.48length (m)	temperature (°C)	Stokes	anti-Stokes-747.200	-84.673	0.096	-0.030
-746.185	582.058	0.160	0.394
-745.171	-45.856	0.175	0.087
-744.156	800.000	0.046	0.198
-743.142	66.479	0.065	0.066
-742.127	304.993	-0.055	-0.102
-741.112	-167.749	-0.217	-0.009
-740.098	-36.310	-0.293	0.158
-739.083	-26.078	-0.117	-0.069
-738.069	-11.184	-0.129	0.085
-737.054	-80.220	0.254	-0.085
-736.039	-200.000	0.000	0.041
-735.025	-103.828	0.619	-0.145
-734.010	-106.425	-0.419	-0.094
-732.996	-121.796	-0.206	-0.034
-731.981	-200.000	-0.045	-0.321
-730.966	196.742	-0.116	0.178
-729.952	158.906	-0.144	0.201
-728.937	-64.554	-0.207	-0.084
-727.923	-120.358	-0.639	-0.109
-726.908	23.049	0.217	-0.178
-725.894	-200.000	-0.004	-0.028
-724.879	-200.000	-0.071	0.426
-723.864	-124.888	0.289	0.045
-722.850	-200.000	0.042	-0.303
-721.835	-55.525	-0.188	0.085
-720.821	52.279	0.129	-0.123
-719.806	33.432	-0.194	-0.168
-718.791	81.006	0.300	-0.324
-717.777	52.360	-0.056	-0.054
-716.762	636.603	-0.107	-0.272
-715.748	800.000	0.027	0.084
-714.733	-200.000	-0.010	-0.048
-713.718	160.479	-0.184	-0.257
-712.704	-33.092	0.141	0.078
-711.689	-200.000	-0.005	0.036
-710.675	6.349	-0.108	-0.081
-709.660	-192.409	0.373	0.004
-708.645	-83.749	0.249	-0.079
-707.631	495.361	-0.061	0.140
-706.616	399.683	0.120	-0.252
-705.602	10.899	-0.127	-0.097
-704.587	115.925	0.274	0.336
-703.572	537.770	0.064	-0.151
-702.558	-200.000	0.058	-0.373
-701.543	800.000	-0.113	-0.335
-700.529	-200.000	0.033	-0.263
-699.514	301.522	-0.139	-0.257
-698.499	-200.000	-0.019	-0.277
-697.485	96.253	-0.241	-0.276
-696.470	-75.954	-0.161	0.057
-695.456	-200.000	-0.002	-0.375
-694.441	-144.197	-0.179	0.017
-693.426	-135.603	-0.560	-0.067
-692.412	-2.948	-0.239	0.167
-691.397	-86.213	0.272	0.084
-690.383	-114.441	0.117	0.023
-689.368	800.000	0.076	-0.267
-688.354	800.000	-0.144	-0.526
-687.339	-1.543	0.274	-0.193
-686.324	489.388	-0.155	0.355
-685.310	800.000	0.028	0.120
-684.295	-200.000	-0.031	0.451
-683.281	-200.000	0.049	-0.454
-682.266	-200.000	0.027	0.147
-681.251	199.040	-0.252	0.386
-680.237	24.698	-0.144	-0.119
-679.222	36.341	0.191	0.169
-678.208	432.456	-0.121	-0.263
-677.193	7.348	-0.179	-0.134
-676.178	-124.206	0.305	0.048
-675.164	668.170	0.061	0.157
-674.149	624.869	0.029	-0.074
-673.135	-200.000	0.021	0.309
-672.120	3.243	-0.101	-0.074
-671.105	557.743	-0.067	0.161
-670.091	-200.000	-0.005	-0.122
-669.076	800.000	0.045	-0.127
-668.062	-200.000	-0.033	0.209
-667.047	685.881	0.071	0.186
-666.032	-93.895	-0.306	0.084
-665.018	-25.428	0.145	0.086
-664.003	79.197	0.174	0.186
-662.989	80.343	-0.132	0.142
-661.974	-200.000	0.031	-0.319
-660.959	113.012	0.247	-0.299
-659.945	-73.600	0.355	0.129
-658.930	382.448	0.065	0.134
-657.916	-112.076	0.072	0.014
-656.901	455.020	-0.160	0.353
-655.886	-4.249	-0.128	0.088
-654.872	-59.554	-0.315	-0.135
-653.857	-72.746	-0.427	-0.157
-652.843	-200.000	-0.001	-0.331
-651.828	-17.312	-0.101	-0.063
-650.814	-90.188	0.145	0.042
-649.799	800.000	-0.046	-0.135
-648.784	285.137	-0.104	-0.188
-647.770	-102.208	0.162	-0.039
-646.755	624.778	0.064	-0.162
-645.741	478.574	-0.018	-0.040
-644.726	-54.502	-0.227	0.103
-643.711	-91.509	0.177	0.050
-642.697	51.239	0.117	0.111
-641.682	-19.349	0.095	0.059
-640.668	-18.399	0.286	-0.179
-639.653	800.000	-0.036	0.104
-638.638	7.410	0.093	-0.070
-637.624	238.742	-0.112	-0.186
-636.609	149.021	-0.042	0.056
-635.595	-154.985	-0.061	0.004
-634.580	574.597	-0.126	0.308
-633.565	151.905	0.078	-0.106
-632.551	-80.405	-0.090	-0.030
-631.536	185.958	0.227	-0.337
-630.522	99.171	-0.123	-0.142
-629.507	-200.000	0.162	0.000
-628.492	587.227	-0.048	-0.117
-627.478	-24.274	0.152	0.090
-626.463	-200.000	-0.017	0.138
-625.449	-200.000	0.026	0.156
-624.434	-47.289	-0.290	0.141
-623.419	-200.000	0.007	-0.116
-622.405	-142.854	-0.206	0.020
-621.390	-200.000	-0.006	-0.027
-620.376	458.691	-0.089	-0.198
-619.361	-200.000	0.010	-0.078
-618.346	-200.000	-0.006	-0.457
-617.332	479.258	0.116	-0.263
-616.317	13.646	-0.395	-0.306
-615.303	-200.000	0.012	0.207
-614.288	800.000	-0.033	0.107
-613.273	-200.000	0.087	0.450
-612.259	387.371	0.063	-0.131
-611.244	200.072	0.230	0.352
-610.230	-67.309	0.221	0.087
-609.215	158.286	-0.145	0.201
-608.201	-53.147	0.282	-0.129
-607.186	800.000	-0.084	0.347
-606.171	-90.848	-0.098	0.028
-605.157	4.820	-0.134	0.098
-604.142	182.912	-0.070	-0.104
-603.128	44.954	0.146	-0.134
-602.113	95.716	0.186	0.211
-601.098	53.612	0.233	-0.223
-600.084	-79.504	0.251	-0.085
-599.069	158.056	-0.295	-0.408
-598.055	182.534	-0.155	0.228
-597.040	513.249	0.041	0.094
-596.025	-106.111	0.029	0.006
-595.011	-76.810	-0.357	-0.125
-593.996	737.031	-0.125	0.335
-592.982	-47.693	-0.263	-0.127
-591.967	800.000	-0.035	0.137
-590.952	-200.000	0.014	-0.260
-589.938	-95.987	-0.497	-0.132
-588.923	153.145	-0.034	0.047
-587.909	-54.252	-0.328	0.148
-586.894	800.000	-0.056	-0.191
-585.879	-200.000	-0.013	-0.226
-584.865	-115.694	0.235	0.044
-583.850	-200.000	-0.039	0.197
-582.836	-200.000	0.373	0.001
-581.821	46.849	0.119	-0.111
-580.806	195.503	0.063	0.095
-579.792	255.957	0.165	-0.283
-578.777	-65.889	-0.166	0.066
-577.763	-1.807	-0.172	0.121
-576.748	693.682	0.124	-0.324
-575.733	163.325	-0.102	-0.142
-574.719	44.566	-0.272	0.249
-573.704	17.165	-0.325	-0.256
-572.690	14.511	-0.177	-0.138
-571.675	172.982	-0.031	-0.045
-570.661	-85.939	0.160	0.049
-569.646	392.720	-0.123	-0.255
-568.631	32.799	-0.047	-0.040
-567.617	800.000	-0.053	-0.183
-566.602	218.087	-0.129	-0.205
-565.588	-1.765	-0.135	-0.095
-564.573	495.776	-0.075	-0.172
-563.558	-200.000	-0.037	-0.210
-562.544	-200.000	0.032	-0.193
-561.529	42.807	-0.095	-0.087
-560.515	-127.093	-0.288	-0.042
-559.500	-112.243	-0.182	0.036
-558.485	-80.186	-0.381	0.127
-557.471	203.306	-0.008	-0.013
-556.456	-200.000	0.005	-0.117
-555.442	-49.703	0.276	-0.131
-554.427	-3.726	-0.329	0.227
-553.412	93.636	0.126	-0.142
-552.398	-200.000	0.002	-0.070
-551.383	-80.255	0.350	0.117
-550.369	-186.195	0.154	0.002
-549.354	-65.411	0.195	0.078
-548.339	-129.015	0.248	-0.035
-547.325	10.239	0.311	-0.235
-546.310	-45.004	-0.098	0.049
-545.296	-200.000	0.036	0.171
-544.281	-34.945	-0.166	0.090
-543.266	28.352	-0.133	-0.112
-542.252	644.301	0.165	-0.418
-541.237	-70.988	0.326	-0.122
-540.223	-55.632	-0.126	0.056
-539.208	800.000	0.054	-0.153
-538.193	-200.000	0.011	0.124
-537.179	217.449	0.206	0.327
-536.164	-103.509	-0.449	-0.105
-535.150	-62.407	0.103	0.043
-534.135	-116.449	0.337	-0.062
-533.121	-45.708	-0.147	-0.072
-532.106	-200.000	-0.001	0.066
-531.091	-200.000	0.057	-0.259
-530.077	-170.497	-0.278	0.010
-529.062	105.971	-0.145	0.171
-528.048	-76.074	0.210	-0.074
-527.033	-200.000	0.031	0.150
-526.018	62.020	0.130	-0.129
-525.004	-40.104	-0.465	0.241
-523.989	-200.000	-0.017	-0.198
-522.975	-31.001	0.298	-0.167
-521.960	800.000	0.032	-0.138
-520.945	-65.546	-0.489	-0.195
-519.931	-85.688	0.166	-0.051
-518.916	-14.422	-0.107	0.069
-517.902	-127.571	-0.190	0.027
-516.887	-200.000	0.022	-0.318
-515.872	-200.000	0.039	-0.372
-514.858	5.404	-0.168	-0.123
-513.843	-98.432	-0.398	0.101
-512.829	-200.000	0.019	-0.178
-511.814	-96.842	-0.203	0.053
-510.799	-200.000	-0.039	-0.236
-509.785	-42.531	-0.184	-0.093
-508.770	-200.000	0.023	0.152
-507.756	646.944	-0.095	-0.240
-506.741	-60.176	0.073	-0.031
-505.726	231.651	0.146	0.238
-504.712	-149.784	0.271	-0.021
-503.697	-152.140	-0.428	0.031
-502.683	570.201	-0.077	0.187
-501.668	-130.988	0.140	0.019
-500.653	323.677	0.023	0.043
-499.639	-200.000	0.010	-0.346
-498.624	-66.568	-0.201	0.079
-497.610	-70.264	-0.137	-0.052
-496.595	192.772	0.091	-0.136
-495.581	464.186	0.048	-0.107
-494.566	122.037	0.135	-0.168
-493.551	800.000	-0.099	0.296
-492.537	-200.000	0.007	-0.160
-491.522	-36.811	-0.121	0.065
-490.508	-200.000	0.028	-0.441
-489.493	558.610	-0.089	-0.214
-488.478	-15.052	0.103	0.066
-487.464	800.000	-0.022	-0.060
-486.449	89.782	0.219	0.242
-485.435	122.105	-0.275	-0.341
-484.420	-24.743	-0.103	-0.061
-483.405	776.810	-0.046	0.125
-482.391	9.846	-0.167	-0.126
-481.376	-200.000	-0.022	-0.425
-480.362	-32.428	-0.066	-0.037
-479.347	-107.839	0.324	-0.070
-478.332	274.315	-0.027	-0.047
-477.318	-110.828	0.159	-0.032
-476.303	-141.251	-0.224	0.023
-475.289	800.000	-0.050	-0.193
-474.274	-71.975	0.169	-0.062
-473.259	109.654	0.213	-0.253
-472.245	-134.383	0.134	-0.016
-471.230	-57.204	0.167	0.073
-470.216	-200.000	0.055	0.267
-469.201	-3.728	-0.142	0.098
-468.186	477.501	-0.033	0.074
-467.172	-125.642	0.496	0.075
-466.157	-102.597	-0.174	0.041
-465.143	-200.000	-0.098	0.543
-464.128	51.246	-0.194	-0.183
-463.113	-145.614	-0.272	-0.024
-462.099	160.582	-0.140	-0.194
-461.084	54.012	0.034	0.032
-460.070	-200.000	-0.024	-0.160
-459.055	800.000	0.023	0.080
-458.040	-200.000	-0.006	0.245
-457.026	446.689	-0.009	-0.020
-456.011	-12.988	-0.284	0.183
-454.997	233.464	0.185	-0.302
-453.982	-200.000	0.003	0.083
-452.968	538.957	-0.119	0.280
-451.953	212.668	0.210	0.328
-450.938	593.786	0.029	-0.071
-449.924	245.746	0.124	0.207
-448.909	16.052	0.235	-0.184
-447.895	800.000	-0.065	-0.183
-446.880	-109.721	0.427	0.089
-445.865	-200.000	-0.037	0.289
-444.851	9.742	-0.127	0.096
-443.836	92.712	0.341	0.381
-442.822	691.934	-0.070	0.182
-441.807	-123.494	-0.250	0.039
-440.792	-79.735	0.171	0.057
-439.778	-52.767	-0.095	-0.044
-438.763	-106.302	-0.209	0.046
-437.749	131.943	-0.054	-0.069
-436.734	260.598	0.124	0.212
-435.719	30.061	0.226	-0.191
-434.705	756.797	-0.015	0.041
-433.690	800.000	-0.093	-0.356
-432.676	-69.037	0.220	-0.084
-431.661	-135.348	0.347	-0.041
-430.646	197.440	0.063	0.095
-429.632	156.536	-0.212	-0.290
-428.617	-143.189	0.554	-0.053
-427.603	-21.195	-0.148	-0.090
-426.588	-200.000	-0.003	0.180
-425.573	-60.754	-0.100	0.042
-424.559	-51.716	0.258	-0.119
-423.544	-200.000	0.060	0.307
-422.530	86.830	-0.189	-0.206
-421.515	-200.000	0.009	0.149
-420.500	-101.826	-0.290	-0.070
-419.486	76.151	0.168	-0.176
-418.471	228.810	0.158	0.256
-417.457	128.876	0.110	0.139
-416.442	126.422	0.133	-0.166
-415.428	-88.036	0.272	0.081
-414.413	40.164	-0.072	0.064
-413.398	14.485	-0.323	0.250
-412.384	35.234	-0.139	-0.121
-411.369	-173.737	0.089	0.003
-410.355	-33.994	-0.269	-0.146
-409.340	-43.030	0.322	0.162
-408.325	-110.955	-0.089	-0.018
-407.311	-71.694	0.424	0.156
-406.296	800.000	0.027	-0.113
-405.282	409.460	-0.052	0.109
-404.267	-165.709	-0.388	-0.017
-403.252	-200.000	-0.037	0.206
-402.238	145.861	-0.030	0.040
-401.223	531.496	-0.072	-0.169
-400.209	55.349	0.227	0.217
-399.194	-117.247	-0.191	-0.034
-398.179	18.438	-0.244	-0.193
-397.165	-200.000	0.018	0.199
-396.150	678.450	-0.097	0.249
-395.136	-9.644	0.066	0.043
-394.121	657.133	-0.048	-0.121
-393.106	448.929	-0.022	-0.049
-392.092	-200.000	0.014	0.083
-391.077	-17.182	0.309	0.192
-390.063	93.743	-0.236	-0.264
-389.048	116.018	0.116	0.140
-388.033	-76.789	-0.129	-0.045
-387.019	-98.889	-0.129	-0.033
-386.004	21.579	0.164	-0.132
-384.990	-200.000	-0.013	0.325
-383.975	183.884	-0.108	-0.158
-382.960	-61.559	0.245	-0.102
-381.946	-126.554	-0.136	0.020
-380.931	-138.235	0.209	-0.023
-379.917	-57.806	0.141	0.061
-378.902	23.399	0.264	0.214
-377.888	149.510	-0.125	0.167
-376.873	-200.000	-0.045	-0.397
-375.858	151.151	-0.079	-0.107
-374.844	-200.000	0.009	-0.052
-373.829	-151.942	0.442	0.032
-372.815	-67.038	-0.132	0.051
-371.800	-200.000	0.033	0.145
-370.785	92.641	-0.069	0.077
-369.771	-44.334	-0.242	0.120
-368.756	406.824	0.180	0.377
-367.742	91.558	-0.115	-0.128
-366.727	-108.916	0.105	-0.022
-365.712	800.000	0.041	0.152
-364.698	800.000	-0.047	0.187
-363.683	-200.000	-0.000	0.130
-362.669	69.172	-0.090	0.091
-361.654	100.592	0.127	-0.146
-360.639	571.629	-0.132	-0.319
-359.625	-124.943	0.281	-0.043
-358.610	-162.881	0.146	-0.007
-357.596	565.003	0.012	-0.028
-356.581	-31.570	0.133	0.074
-355.566	-200.000	-0.068	0.361
-354.552	-86.348	0.239	-0.073
-353.537	-36.711	-0.060	-0.032
-352.523	-122.926	-0.326	-0.052
-351.508	-89.579	0.113	0.033
-350.493	30.012	-0.269	-0.227
-349.479	-42.159	-0.165	0.083
-348.464	-92.133	0.076	0.021
-347.450	-200.000	-0.010	-0.158
-346.435	174.009	0.088	-0.126
-345.420	91.076	0.116	0.129
-344.406	-1.065	0.090	-0.063
-343.391	86.703	-0.107	-0.117
-342.377	800.000	-0.115	-0.432
-341.362	119.831	0.070	0.086
-340.348	800.000	0.098	0.283
-339.333	800.000	-0.051	0.199
-338.318	155.731	-0.145	0.198
-337.304	68.566	-0.179	0.182
-336.289	106.168	0.063	0.074
-335.275	800.000	-0.154	-0.424
-334.260	230.032	0.143	-0.230
-333.245	-16.774	0.039	-0.024
-332.231	-200.000	-0.014	-0.154
-331.216	800.000	0.064	-0.246
-330.202	59.841	-0.079	-0.077
-329.187	800.000	-0.058	0.190
-328.172	800.000	-0.094	-0.325
-327.158	-70.812	0.099	0.037
-326.143	95.006	-0.109	-0.122
-325.129	-99.351	0.275	0.069
-324.114	36.663	-0.070	0.061
-323.099	251.343	-0.053	-0.089
-322.085	33.456	0.153	0.131
-321.070	-61.261	-0.048	-0.020
-320.056	-162.982	-0.250	0.012
-319.041	-54.605	-0.057	-0.025
-318.026	-200.000	-0.016	0.365
-317.012	1.000	0.259	0.183
-315.997	139.459	-0.149	0.193
-314.983	272.990	0.188	-0.328
-313.968	-158.112	-0.256	0.015
-312.953	606.836	0.101	0.249
-311.939	18.824	0.157	0.124
-310.924	-62.463	0.134	-0.055
-309.910	45.852	-0.097	0.088
-308.895	301.926	0.106	0.192
-307.880	-200.000	-0.012	0.317
-306.866	-70.475	0.249	0.093
-305.851	-161.625	-0.425	0.021
-304.837	161.137	-0.322	0.444
-303.822	-164.358	0.219	0.010
-302.807	-24.639	0.287	-0.168
-301.793	-102.733	0.399	-0.094
-300.778	-80.282	-0.185	0.061
-299.764	126.165	-0.126	0.157
-298.749	800.000	-0.051	0.194
-297.735	-176.481	-0.382	0.010
-296.720	-58.868	-0.202	0.086
-295.705	-200.000	0.056	0.338
-294.691	800.000	0.046	0.174
-293.676	-16.937	0.133	-0.083
-292.662	-49.762	0.067	0.031
-291.647	171.319	0.131	-0.185
-290.632	-91.061	-0.255	-0.072
-289.618	-11.251	-0.210	-0.136
-288.603	-22.115	0.215	-0.129
-287.589	800.000	-0.044	-0.131
-286.574	-200.000	0.046	0.219
-285.559	317.781	-0.163	0.303
-284.545	-54.446	0.202	0.090
-283.530	473.849	0.068	-0.151
-282.516	-42.994	0.155	-0.077
-281.501	-31.681	0.154	0.085
-280.486	509.194	-0.122	-0.279
-279.472	800.000	0.049	-0.190
-278.457	-175.726	0.096	0.003
-277.443	-200.000	-0.044	0.337
-276.428	-200.000	-0.020	0.195
-275.413	436.693	-0.079	-0.170
-274.399	579.869	-0.081	0.196
-273.384	1.136	0.164	0.116
-272.370	61.623	0.224	-0.219
-271.355	184.338	-0.174	-0.253
-270.340	48.463	0.058	-0.054
-269.326	-194.246	-0.247	-0.002
-268.311	-200.000	-0.014	0.113
-267.297	800.000	0.010	0.030
-266.282	800.000	0.098	-0.283
-265.267	-200.000	0.080	-0.428
-264.253	-128.497	-0.408	-0.057
-263.238	800.000	0.011	0.037
-262.224	-200.000	-0.023	0.248
-261.209	222.841	-0.192	-0.305
-260.195	-200.000	0.006	-0.128
-259.180	-117.851	0.293	-0.052
-258.165	-200.000	-0.022	0.297
-257.151	19.543	0.179	0.142
-256.136	3.073	-0.157	-0.113
-255.122	-200.000	-0.026	-0.313
-254.107	-200.000	-0.002	-0.387
-253.092	22.656	-0.185	0.149
-252.078	469.598	-0.074	-0.163
-251.063	-200.000	-0.005	0.145
-250.049	-200.000	-0.479	0.001
-249.034	289.262	0.123	0.219
-248.019	425.770	-0.059	-0.125
-247.005	8.711	0.083	0.061
-245.990	193.202	-0.113	-0.168
-244.976	-37.773	0.208	0.109
-243.961	-60.866	0.165	-0.069
-242.946	800.000	0.025	-0.075
-241.932	35.183	0.133	0.114
-240.917	-18.068	-0.306	0.189
-239.903	-133.460	-0.179	-0.022
-238.888	615.133	-0.026	-0.065
-237.873	-200.000	0.072	0.337
-236.859	-137.684	-0.249	0.028
-235.844	-92.421	-0.301	-0.083
-234.830	-41.809	-0.267	0.135
-233.815	-66.278	-0.268	0.105
-232.800	63.501	0.262	0.258
-231.786	-100.790	0.414	0.100
-230.771	170.449	0.040	-0.056
-229.757	-200.000	-0.076	-0.364
-228.742	-140.000	0.088	-0.009
-227.727	101.308	0.268	0.306
-226.713	-55.052	-0.351	-0.155
-225.698	77.684	-0.180	-0.189
-224.684	-200.000	-0.006	0.164
-223.669	35.259	0.314	0.271
-222.655	800.000	0.112	0.395
-221.640	-200.000	0.013	0.227
-220.625	800.000	0.016	-0.044
-219.611	185.156	0.032	-0.046
-218.596	-19.052	-0.132	-0.081
-217.582	-12.238	-0.104	-0.067
-216.567	289.920	-0.110	0.197
-215.552	-200.000	0.039	0.194
-214.538	39.867	0.257	0.227
-213.523	-200.000	-0.038	0.268
-212.509	-200.000	-0.045	-0.285
-211.494	4.199	0.166	-0.119
-210.479	-103.937	0.145	-0.033
-209.465	709.910	-0.187	0.486
-208.450	53.307	0.267	0.251
-207.436	538.328	0.125	-0.293
-206.421	-61.249	0.342	-0.142
-205.406	800.000	0.057	-0.175
-204.392	-154.453	0.129	-0.009
-203.377	-19.507	-0.184	0.112
-202.363	219.265	0.154	-0.242
-201.348	-200.000	-0.078	0.393
-200.333	-102.851	0.240	0.056
-199.319	-75.583	-0.425	-0.148
-198.304	-98.911	0.132	-0.033
-197.290	102.443	-0.163	0.187
-196.275	-19.420	0.172	0.105
-195.260	599.336	-0.052	0.127
-194.246	106.649	-0.102	0.118
-193.231	165.097	0.111	-0.154
-192.217	800.000	-0.112	-0.313
-191.202	-14.222	0.188	-0.119
-190.187	-200.000	0.004	0.326
-189.173	123.526	-0.088	-0.108
-188.158	-6.038	0.194	0.130
-187.144	93.440	-0.099	-0.110
-186.129	284.944	0.040	-0.070
-185.114	-61.138	0.240	0.099
-184.100	-200.000	-0.040	0.348
-183.085	-87.855	0.281	0.083
-182.071	-32.456	0.188	-0.103
-181.056	339.173	-0.093	0.178
-180.042	-93.865	-0.087	0.023
-179.027	320.456	0.204	0.379
-178.012	-126.341	-0.107	0.016
-176.998	-33.804	0.069	0.037
-175.983	-200.000	0.012	-0.166
-174.969	-124.144	0.207	0.032
-173.954	116.192	-0.210	0.252
-172.939	-138.390	0.156	-0.017
-171.925	68.288	-0.175	-0.175
-170.910	29.712	0.151	-0.126
-169.896	23.279	0.049	-0.040
-168.881	-200.000	0.020	-0.201
-167.866	204.794	0.140	0.212
-166.852	-200.000	0.075	0.504
-165.837	-200.000	-0.016	0.072
-164.823	-118.265	-0.169	0.030
-163.808	288.147	-0.091	-0.162
-162.793	-10.775	-0.105	0.068
-161.779	288.688	-0.121	0.215
-160.764	221.523	0.129	-0.202
-159.750	-81.035	0.133	-0.043
-158.735	107.694	0.103	0.121
-157.720	-20.854	0.082	-0.049
-156.706	-107.726	0.145	0.031
-155.691	-158.896	0.182	-0.010
-154.677	-8.769	0.206	-0.135
-153.662	-72.470	0.329	-0.119
-152.647	157.409	-0.194	0.263
-151.633	-15.016	-0.225	-0.141
-150.618	5.677	-0.154	-0.112
-149.604	-90.474	0.115	-0.033
-148.589	35.269	0.124	0.106
-147.574	-200.000	0.063	0.303
-146.560	627.137	-0.074	0.183
-145.545	-103.723	-0.068	0.016
-144.531	-8.509	-0.384	0.253
-143.516	212.130	-0.195	-0.300
-142.502	-166.238	-0.126	0.005
-141.487	-194.167	0.117	-0.001
-140.472	-101.583	0.215	-0.051
-139.458	45.009	0.264	-0.238
-138.443	200.499	-0.131	-0.196
-137.429	-63.605	-0.161	0.065
-136.414	-9.945	-0.355	-0.231
-135.399	586.851	0.097	0.233
-134.385	-93.696	0.341	-0.092
-133.370	139.890	-0.174	0.224
-132.356	116.823	-0.141	0.169
-131.341	-93.119	-0.126	0.034
-130.326	269.459	-0.044	0.076
-129.312	-200.000	-0.002	-0.023
-128.297	-200.000	0.014	-0.196
-127.283	-146.991	-0.052	0.004
-126.268	800.000	0.100	-0.320
-125.253	-136.649	0.059	-0.007
-124.239	-186.496	-0.160	0.002
-123.224	190.505	0.306	0.449
-122.210	-93.314	0.258	-0.070
