DTS Sentinel unit serial number:	SN413079Multiplexer serial number:	ORYXHardware model number:	OX4-SRSoftware version number:	ORYX F/W v4.00 Oryx Data Collector v3.7.2.0data status	okinstallation	princeton_trtdifferential loss correction	single-endedforward channel	channel 3reverse channel	N/Adate	2019/09/17time	00:56:35forward acquisition time	60.00reverse acquisition time	0.00gamma	496.2192k internal	0.2324k external	0.2324temperature offset calibration	0.9944default loss term (dB/km)	0.3790temperature slope calibration	1.0000multiplexer offset coefficient	1.0000multiplexer slope coefficient	1.0000fibre end	0.00T internal ref (°C)	29.44T ext. ref 1 (°C)	0.11T ext. ref 2 (°C)	24.10length (m)	temperature (°C)	Stokes	anti-Stokes-747.200	17.700	-0.229	0.184
-746.185	-200.000	0.053	0.256
-745.171	-12.698	-0.258	0.170
-744.156	181.706	0.190	0.282
-743.142	178.822	0.070	-0.104
-742.127	-119.558	-0.257	-0.045
-741.112	310.918	0.014	-0.027
-740.098	61.910	0.229	0.231
-739.083	184.129	-0.091	0.137
-738.069	-26.211	-0.400	0.237
-737.054	-200.000	0.007	-0.232
-736.039	-200.000	-0.016	-0.212
-735.025	-57.945	0.270	-0.119
-734.010	-102.099	-0.584	-0.142
-732.996	-200.000	0.028	-0.255
-731.981	800.000	-0.010	-0.033
-730.966	473.731	-0.039	-0.090
-729.952	800.000	0.029	-0.090
-728.937	-125.118	-0.425	0.066
-727.923	256.345	0.092	0.158
-726.908	238.714	-0.179	-0.300
-725.894	-167.642	-0.368	-0.015
-724.879	-147.037	0.324	0.028
-723.864	36.657	-0.194	0.173
-722.850	-200.000	0.030	0.148
-721.835	-71.255	0.072	0.027
-720.821	668.073	-0.031	0.082
-719.806	-89.175	-0.278	0.083
-718.791	-37.926	-0.263	-0.141
-717.777	-99.430	0.253	-0.064
-716.762	22.650	-0.056	0.046
-715.748	-200.000	0.105	-0.525
-714.733	21.504	0.135	-0.111
-713.718	800.000	0.034	-0.110
-712.704	110.100	0.128	-0.155
-711.689	800.000	0.103	-0.366
-710.675	800.000	-0.127	-0.454
-709.660	-169.316	0.279	0.010
-708.645	-186.539	0.200	0.003
-707.631	-33.212	0.102	-0.057
-706.616	-21.290	0.196	-0.120
-705.602	-104.482	0.118	0.027
-704.587	-200.000	-0.034	0.390
-703.572	-200.000	0.019	0.222
-702.558	81.861	0.297	0.324
-701.543	-61.951	0.343	-0.145
-700.529	-15.994	0.084	-0.054
-699.514	-11.132	-0.289	-0.192
-698.499	586.322	-0.143	-0.354
-697.485	-55.712	-0.195	-0.088
-696.470	-200.000	0.010	-0.097
-695.456	-200.000	-0.013	-0.349
-694.441	-12.328	-0.401	0.264
-693.426	-164.714	-0.173	0.008
-692.412	-23.666	0.215	-0.130
-691.397	-119.139	-0.038	-0.007
-690.383	800.000	0.058	0.218
-689.368	-15.849	-0.069	-0.044
-688.354	-62.844	-0.184	-0.077
-687.339	-65.382	-0.191	-0.077
-686.324	328.140	-0.036	-0.069
-685.310	-29.278	0.171	-0.098
-684.295	-167.860	0.197	-0.008
-683.281	800.000	0.053	-0.221
-682.266	-88.006	-0.296	-0.089
-681.251	-108.409	0.241	0.052
-680.237	647.102	0.109	0.280
-679.222	86.053	-0.180	0.199
-678.208	-153.573	-0.362	0.025
-677.193	390.774	-0.173	-0.361
-676.178	800.000	-0.069	-0.226
-675.164	-174.261	-0.174	-0.005
-674.149	-27.856	-0.099	0.058
-673.135	394.230	0.074	0.156
-672.120	-59.137	-0.290	0.126
-671.105	33.701	0.209	-0.183
-670.091	284.967	-0.203	-0.368
-669.076	800.000	0.026	0.112
-668.062	-0.576	0.037	-0.027
-667.047	-14.184	-0.201	-0.131
-666.032	389.124	-0.084	-0.176
-665.018	713.125	0.101	0.269
-664.003	-200.000	-0.007	0.112
-662.989	229.296	-0.054	-0.088
-661.974	715.444	-0.071	0.189
-660.959	-130.705	-0.136	-0.018
-659.945	-91.515	0.131	-0.038
-658.930	335.884	0.169	-0.330
-657.916	623.323	-0.091	0.230
-656.901	-200.000	-0.020	0.450
-655.886	-111.173	0.254	-0.052
-654.872	365.707	-0.080	-0.162
-653.857	-161.616	-0.128	0.007
-652.843	800.000	0.038	-0.132
-651.828	105.230	0.141	-0.168
-650.814	-200.000	0.060	-0.451
-649.799	-18.775	-0.250	-0.156
-648.784	-121.142	-0.148	-0.025
-647.770	-200.000	-0.023	0.216
-646.755	-27.672	-0.150	-0.087
-645.741	-33.661	-0.291	-0.162
-644.726	-96.571	0.144	0.038
-643.711	-200.000	0.027	0.269
-642.697	-200.000	-0.006	-0.093
-641.682	-200.000	0.021	-0.230
-640.668	-200.000	0.042	0.334
-639.653	-200.000	-0.002	-0.161
-638.638	800.000	0.104	-0.306
-637.624	81.214	0.041	0.045
-636.609	-105.914	0.256	-0.058
-635.595	-200.000	0.065	-0.366
-634.580	3.912	0.157	-0.115
-633.565	11.165	-0.252	-0.193
-632.551	-173.282	0.287	-0.009
-631.536	30.515	-0.093	0.080
-630.522	-42.128	0.120	0.061
-629.507	261.297	-0.027	0.047
-628.492	57.376	-0.202	-0.198
-627.478	-29.549	0.278	0.160
-626.463	346.816	0.046	-0.091
-625.449	-114.580	-0.411	0.079
-624.434	-137.639	-0.397	-0.045
-623.419	179.103	-0.173	0.254
-622.405	120.518	0.068	-0.085
-621.390	-104.150	0.116	0.027
-620.376	134.448	0.088	0.114
-619.361	163.762	0.102	0.144
-618.346	-200.000	0.014	0.153
-617.332	59.618	-0.218	-0.215
-616.317	-200.000	-0.005	0.115
-615.303	202.398	0.072	-0.112
-614.288	-41.377	0.286	-0.148
-613.273	53.209	0.249	-0.240
-612.259	58.114	0.027	-0.026
-611.244	-43.170	-0.259	-0.132
-610.230	-192.846	-0.290	0.003
-609.215	-150.284	0.042	-0.003
-608.201	-200.000	0.008	0.106
-607.186	-84.904	-0.145	-0.046
-606.171	800.000	0.079	0.229
-605.157	-177.437	0.195	0.005
-604.142	278.689	-0.086	-0.154
-603.128	-200.000	0.001	0.053
-602.113	-107.603	0.064	-0.014
-601.098	-200.000	0.018	-0.161
-600.084	-94.494	-0.115	-0.032
-599.069	-131.854	0.137	-0.018
-598.055	561.699	-0.081	0.197
-597.040	-100.299	0.309	0.077
-596.025	156.841	-0.125	0.174
-595.011	-122.448	-0.190	0.031
-593.996	306.054	-0.097	0.181
-592.982	-74.540	-0.161	-0.058
-591.967	-48.748	0.172	0.083
-590.952	-65.995	0.247	0.099
-589.938	-200.000	0.008	0.058
-588.923	-200.000	0.012	-0.174
-587.909	-91.597	0.104	0.030
-586.894	-200.000	-0.016	0.118
-585.879	800.000	0.086	0.279
-584.865	-62.458	-0.302	0.126
-583.850	267.951	0.156	-0.273
-582.836	-200.000	0.043	0.252
-581.821	121.340	-0.148	0.185
-580.806	0.299	-0.212	0.152
-579.792	-57.476	-0.197	0.087
-578.777	-110.455	-0.111	0.023
-577.763	-128.766	0.191	-0.027
-576.748	-98.763	-0.297	-0.076
-575.733	329.876	-0.085	-0.165
-574.719	60.620	-0.219	-0.218
-573.704	19.903	0.069	-0.056
-572.690	-152.247	-0.240	0.017
-571.675	-82.464	-0.014	-0.005
-570.661	-200.000	-0.012	-0.063
-569.646	-200.000	-0.012	-0.260
-568.631	-200.000	-0.004	0.073
-567.617	800.000	-0.068	0.221
-566.602	-200.000	-0.034	-0.222
-565.588	-133.370	-0.270	-0.034
-564.573	-47.286	-0.038	-0.018
-563.558	-154.411	-0.175	-0.012
-562.544	-200.000	0.012	-0.101
-561.529	-108.453	0.225	-0.049
-560.515	134.373	0.166	0.215
-559.500	60.456	-0.171	0.169
-558.485	-3.257	0.192	0.134
-557.471	114.913	-0.089	-0.109
-556.456	196.915	-0.119	0.182
-555.442	-29.881	0.089	0.051
-554.427	102.168	-0.127	0.149
-553.412	389.206	0.118	-0.245
-552.398	-36.508	-0.258	0.139
-551.383	-14.638	0.040	-0.026
-550.369	-71.489	-0.130	-0.049
-549.354	-36.813	0.269	0.145
-548.339	217.424	0.101	0.161
-547.325	-48.204	-0.127	0.061
-546.310	-97.591	-0.571	0.148
-545.296	-200.000	-0.004	-0.138
-544.281	-73.492	0.179	-0.065
-543.266	800.000	-0.180	-0.548
-542.252	492.651	0.168	-0.386
-541.237	83.908	-0.127	-0.138
-540.223	-82.024	-0.241	-0.079
-539.208	181.989	0.109	-0.160
-538.193	-2.742	-0.271	0.189
-537.179	-120.057	0.104	0.018
-536.164	5.494	0.463	-0.342
-535.150	224.807	0.127	0.206
-534.135	317.165	0.102	0.193
-533.121	-7.556	-0.263	0.178
-532.106	-162.566	0.332	0.016
-531.091	-51.935	-0.381	-0.178
-530.077	-74.260	0.082	-0.030
-529.062	-157.072	-0.233	0.014
-528.048	-126.500	-0.352	0.052
-527.033	800.000	0.053	0.230
-526.018	800.000	-0.047	-0.184
-525.004	736.084	0.089	0.240
-523.989	45.038	-0.246	-0.227
-522.975	-15.101	-0.135	-0.086
-521.960	-43.188	-0.379	0.192
-520.945	45.695	-0.063	0.058
-519.931	368.387	0.111	0.226
-518.916	-200.000	0.055	0.250
-517.902	-200.000	0.003	0.444
-516.887	-112.471	-0.126	-0.025
-515.872	-200.000	0.038	-0.603
-514.858	-115.451	-0.213	0.040
-513.843	-11.396	-0.112	-0.073
-512.829	189.173	0.037	0.055
-511.814	-79.003	-0.236	-0.080
-510.799	-37.115	-0.337	0.180
-509.785	629.942	0.072	0.181
-508.770	-141.932	0.214	0.021
-507.756	221.473	-0.110	-0.177
-506.741	525.115	-0.115	-0.272
-505.726	6.652	-0.270	-0.201
-504.712	-30.187	0.090	-0.051
-503.697	-114.346	-0.155	0.030
-502.683	-61.545	0.325	0.136
-501.668	-99.074	0.213	0.054
-500.653	53.770	-0.163	-0.156
-499.639	-65.258	-0.233	-0.094
-498.624	-84.535	0.135	0.043
-497.610	-114.266	0.166	-0.032
-496.595	-7.306	0.140	-0.095
-495.581	0.772	0.224	-0.160
-494.566	94.231	0.099	0.112
-493.551	800.000	0.058	0.186
-492.537	-58.954	-0.262	0.113
-491.522	-65.581	0.122	-0.049
-490.508	-58.294	-0.182	-0.079
-489.493	39.353	-0.172	-0.154
-488.478	326.438	-0.184	-0.352
-487.464	419.831	-0.089	0.190
-486.449	-200.000	-0.026	0.196
-485.435	18.473	-0.060	0.048
-484.420	-200.000	-0.042	0.248
-483.405	484.304	-0.077	-0.175
-482.391	-200.000	-0.004	-0.067
-481.376	203.989	0.162	0.250
-480.362	-200.000	0.008	-0.300
-479.347	-53.690	-0.179	0.082
-478.332	-136.303	-0.041	0.005
-477.318	-200.000	-0.060	0.268
-476.303	36.910	-0.044	-0.039
-475.289	-115.475	0.175	-0.033
-474.274	324.217	-0.166	0.316
-473.259	262.021	-0.093	0.160
-472.245	125.359	-0.114	0.143
-471.230	-27.592	-0.148	0.086
-470.216	125.003	-0.243	0.305
-469.201	172.913	0.142	-0.204
-468.186	-200.000	0.003	-0.040
-467.172	639.513	-0.049	-0.124
-466.157	-81.231	-0.219	-0.072
-465.143	-69.332	0.201	-0.077
-464.128	-161.781	0.034	0.002
-463.113	2.769	-0.266	0.193
-462.099	-200.000	-0.029	-0.357
-461.084	169.381	-0.058	-0.083
-460.070	800.000	-0.044	-0.167
-459.055	-123.720	0.224	-0.035
-458.040	287.697	0.148	-0.267
-457.026	-55.337	0.384	0.172
-456.011	19.167	0.087	-0.070
-454.997	9.142	0.130	-0.098
-453.982	-200.000	0.009	-0.199
-452.968	-112.288	0.124	0.025
-451.953	-200.000	0.008	-0.088
-450.938	492.046	-0.143	-0.326
-449.924	12.157	-0.331	-0.254
-448.909	800.000	-0.091	-0.326
-447.895	-130.722	0.216	0.029
-446.880	355.349	0.176	0.350
-445.865	-139.188	-0.117	0.013
-444.851	-0.629	0.200	0.142
-443.836	492.485	0.113	-0.257
-442.822	139.555	-0.130	0.171
-441.807	149.642	0.139	-0.188
-440.792	-128.499	0.175	0.025
-439.778	-200.000	-0.009	-0.298
-438.763	-106.397	-0.123	0.028
-437.749	-87.119	0.112	-0.034
-436.734	-200.000	0.023	0.143
-435.719	-200.000	0.053	0.268
-434.705	-200.000	0.063	-0.297
-433.690	-127.082	0.260	-0.038
-432.676	-161.079	-0.089	0.005
-431.661	-110.625	-0.096	-0.020
-430.646	-86.919	0.210	0.064
-429.632	-119.014	0.115	-0.020
-428.617	448.642	0.053	0.116
-427.603	154.393	0.042	-0.058
-426.588	-27.610	0.093	0.054
-425.573	552.497	0.048	-0.115
-424.559	-200.000	0.002	0.260
-423.544	17.719	-0.304	0.241
-422.530	517.546	0.066	-0.154
-421.515	-26.039	0.057	0.034
-420.500	12.749	0.040	0.031
-419.486	428.281	0.056	-0.122
-418.471	-139.959	-0.424	-0.045
-417.457	195.892	-0.023	0.035
-416.442	443.234	0.143	0.312
-415.428	-150.813	-0.186	0.014
-414.413	30.233	0.299	-0.255
-413.398	-28.246	0.108	0.062
-412.384	-67.492	0.183	0.072
-411.369	431.663	-0.098	-0.211
-410.355	482.068	-0.063	0.143
-409.340	800.000	-0.106	-0.373
-408.325	272.458	-0.116	0.203
-407.311	78.956	-0.059	-0.063
-406.296	39.650	0.241	0.215
-405.282	58.839	-0.054	-0.053
-404.267	-161.155	-0.379	-0.020
-403.252	-200.000	0.028	-0.165
-402.238	-200.000	0.010	0.168
-401.223	800.000	0.090	0.256
-400.209	41.947	0.083	-0.075
-399.194	-10.789	0.324	0.213
-398.179	-134.433	-0.165	-0.020
-397.165	89.174	0.189	0.209
-396.150	-200.000	-0.016	0.098
-395.136	192.884	-0.032	-0.048
-394.121	-200.000	0.059	-0.368
-393.106	326.376	0.062	-0.118
-392.092	-200.000	0.027	0.302
-391.077	-200.000	0.017	0.113
-390.063	800.000	-0.052	-0.165
-389.048	-140.179	0.226	0.024
-388.033	800.000	0.057	0.228
-387.019	-26.733	-0.231	0.135
-386.004	800.000	-0.063	0.220
-384.990	-200.000	-0.014	0.236
-383.975	425.076	0.153	0.329
-382.960	800.000	0.056	0.181
-381.946	-101.563	-0.229	0.055
-380.931	303.393	0.047	-0.086
-379.917	-200.000	0.010	-0.339
-378.902	593.825	0.097	-0.238
-377.888	241.274	0.206	-0.342
-376.873	-86.844	-0.124	0.038
-375.858	-126.690	0.129	0.019
-374.844	-46.525	-0.102	-0.050
-373.829	662.031	-0.046	0.118
-372.815	-94.377	-0.235	0.064
-371.800	-17.891	0.252	0.158
-370.785	800.000	-0.031	0.131
-369.771	237.306	0.110	0.182
-368.756	15.715	0.027	0.022
-367.742	8.570	-0.112	0.084
-366.727	-36.230	0.094	-0.050
-365.712	-144.997	0.407	-0.037
-364.698	340.585	0.135	0.263
-363.683	644.262	-0.053	-0.135
-362.669	800.000	-0.087	-0.334
-361.654	-200.000	0.005	-0.072
-360.639	27.092	-0.190	0.159
-359.625	695.837	0.225	-0.588
-358.610	-200.000	-0.044	0.355
-357.596	-200.000	0.002	0.173
-356.581	-200.000	0.060	-0.331
-355.566	322.568	-0.015	0.028
-354.552	85.222	0.239	-0.261
-353.537	15.804	-0.245	-0.192
-352.523	658.192	0.134	0.343
-351.508	219.937	0.140	-0.223
-350.493	26.645	-0.127	0.105
-349.479	18.019	-0.190	0.151
-348.464	-140.391	0.331	-0.034
-347.450	80.324	0.299	-0.319
-346.435	-81.855	0.309	0.101
-345.420	65.937	0.269	-0.271
-344.406	148.646	0.137	0.184
-343.391	527.453	0.095	0.223
-342.377	452.305	0.172	0.377
-341.362	-60.706	-0.247	-0.104
-340.348	469.274	0.044	-0.099
-339.333	130.275	-0.076	-0.097
-338.318	-49.978	-0.335	0.158
-337.304	92.815	0.159	0.179
-336.289	7.054	0.182	-0.135
-335.275	-4.665	-0.283	-0.194
-334.260	16.121	0.017	0.013
-333.245	-156.513	0.131	-0.008
-332.231	-59.920	0.280	-0.119
-331.216	-52.152	0.256	0.118
-330.202	-147.105	-0.480	-0.041
-329.187	120.036	0.097	0.120
-328.172	-40.137	0.161	0.083
-327.158	-137.329	-0.214	0.024
-326.143	0.622	0.106	-0.075
-325.129	-105.842	0.303	-0.068
-324.114	-49.249	-0.160	0.076
-323.099	-200.000	-0.021	0.174
-322.085	-65.937	-0.270	0.107
-321.070	76.114	0.164	-0.173
-320.056	757.868	0.096	-0.258
-319.041	110.732	0.063	-0.075
-318.026	51.152	-0.257	-0.242
-317.012	172.236	-0.012	0.017
-315.997	-200.000	0.002	0.182
-314.983	-200.000	-0.006	-0.205
-313.968	13.210	0.270	-0.207
-312.953	-28.551	0.040	0.023
-311.939	-99.248	-0.349	0.087
-310.924	-8.476	0.325	-0.217
-309.910	-166.556	0.504	-0.021
-308.895	800.000	0.021	0.070
-307.880	-108.163	0.070	-0.015
-306.866	57.961	-0.180	-0.175
-305.851	-78.802	-0.175	-0.059
-304.837	14.160	0.157	-0.121
-303.822	-141.484	-0.226	0.023
-302.807	-39.607	-0.111	-0.058
-301.793	-137.817	0.032	0.004
-300.778	800.000	0.128	0.477
-299.764	214.009	-0.110	-0.172
-298.749	-81.921	0.048	-0.016
-297.735	-109.434	0.276	0.058
-296.720	-114.328	0.393	-0.075
-295.705	-200.000	-0.021	-0.400
-294.691	800.000	-0.031	-0.128
-293.676	711.670	0.173	-0.455
-292.662	-69.257	-0.205	0.078
-291.647	-5.032	0.183	-0.125
-290.632	49.450	0.173	-0.162
-289.618	-200.000	0.504	-0.000
-288.603	-68.858	0.211	-0.081
-287.589	-200.000	0.028	-0.150
-286.574	-59.229	-0.148	-0.063
-285.559	-11.759	-0.216	0.141
-284.545	22.142	0.074	-0.060
-283.530	-200.000	-0.053	0.275
-282.516	101.431	-0.052	0.060
-281.501	345.341	-0.025	0.049
-280.486	-200.000	-0.010	-0.140
-279.472	-200.000	-0.018	0.145
-278.457	-97.479	0.324	0.084
-277.443	-134.867	0.129	-0.015
-276.428	-53.990	-0.210	0.095
-275.413	-121.839	-0.141	0.023
-274.399	-200.000	-0.002	0.252
-273.384	-25.484	-0.093	-0.055
-272.370	-170.378	-0.288	0.010
-271.355	131.600	0.195	0.248
-270.340	-200.000	0.077	0.431
-269.326	68.459	0.044	0.045
-268.311	374.512	-0.097	0.196
-267.297	-82.489	-0.246	0.079
-266.282	800.000	-0.072	0.230
-265.267	43.929	-0.093	-0.084
-264.253	-57.146	0.237	-0.103
-263.238	800.000	0.143	-0.439
-262.224	73.669	-0.216	0.224
-261.209	355.839	0.208	0.409
-260.195	-131.051	-0.181	-0.024
-259.180	699.501	-0.103	0.269
-258.165	562.787	0.118	-0.282
-257.151	488.450	-0.089	-0.201
-256.136	-103.572	0.317	-0.074
-255.122	800.000	0.057	-0.224
-254.107	-200.000	0.045	-0.272
-253.092	-200.000	-0.007	-0.220
-252.078	101.424	0.010	-0.011
-251.063	156.442	-0.080	0.110
-250.049	-200.000	0.003	0.222
-249.034	62.149	0.289	0.286
-248.019	-58.654	0.142	0.061
-247.005	-200.000	-0.003	0.328
-245.990	800.000	-0.114	-0.345
-244.976	688.212	-0.080	-0.207
-243.961	-200.000	-0.023	-0.125
-242.946	498.501	-0.115	-0.262
-241.932	800.000	0.063	-0.184
-240.917	196.840	0.154	-0.233
-239.903	69.424	-0.238	0.243
-238.888	15.411	0.059	0.046
-237.873	-53.803	0.094	-0.042
-236.859	153.978	-0.169	-0.230
-235.844	-78.246	-0.163	-0.056
-234.830	90.145	-0.109	0.121
-233.815	-200.000	0.031	0.211
-232.800	-24.280	0.322	0.190
-231.786	-101.018	0.161	-0.039
-230.771	-80.889	0.234	-0.077
-229.757	-60.176	0.453	0.191
-228.742	51.441	0.058	0.054
-227.727	-128.852	-0.226	-0.031
-226.713	-112.179	0.245	-0.049
-225.698	-31.313	-0.077	-0.043
-224.684	-125.548	0.254	0.038
-223.669	83.908	0.284	-0.306
-222.655	-95.925	0.049	-0.013
-221.640	304.363	0.123	-0.226
-220.625	2.154	-0.121	-0.086
-219.611	-200.000	0.044	0.411
-218.596	-153.717	0.286	0.019
-217.582	-88.560	-0.063	0.019
-216.567	193.636	-0.021	0.031
-215.552	59.216	-0.144	-0.140
-214.538	-2.330	0.200	-0.138
-213.523	94.737	0.327	0.368
-212.509	-87.499	-0.430	0.129
-211.494	265.568	-0.062	-0.107
-210.479	800.000	0.066	-0.235
-209.465	28.515	-0.158	0.132
-208.450	564.649	-0.152	0.365
-207.436	-161.968	-0.260	0.013
-206.421	133.179	-0.114	0.146
-205.406	-200.000	-0.033	0.376
-204.392	-200.000	-0.029	0.176
-203.377	-157.994	-0.303	-0.018
-202.363	53.067	-0.084	-0.080
-201.348	-200.000	0.024	-0.292
-200.333	-116.903	0.073	0.013
-199.319	104.710	-0.223	-0.259
-198.304	800.000	0.062	-0.173
-197.290	-130.518	-0.429	0.057
-196.275	-200.000	0.003	0.404
-195.260	-166.135	-0.171	0.007
-194.246	-60.469	-0.276	0.116
-193.231	800.000	0.035	0.131
-192.217	-200.000	-0.007	-0.213
-191.202	-172.045	0.180	-0.006
-190.187	-76.682	-0.202	0.070
-189.173	800.000	-0.054	0.194
-188.158	-89.116	-0.192	0.056
-187.144	-136.226	0.345	0.040
-186.129	800.000	-0.063	0.216
-185.114	-66.278	0.478	-0.188
-184.100	-119.100	-0.422	-0.073
-183.085	267.128	0.149	-0.257
-182.071	-200.000	0.045	-0.289
-181.056	-200.000	0.011	-0.158
-180.042	370.073	-0.085	0.171
-179.027	616.980	0.181	0.448
-178.012	284.810	0.090	-0.160
-176.998	-200.000	0.023	-0.139
-175.983	-38.007	0.255	-0.134
-174.969	800.000	0.068	0.206
-173.954	-72.866	0.292	-0.106
-172.939	6.779	-0.558	0.410
-171.925	800.000	0.031	-0.100
-170.910	683.618	0.150	-0.386
-169.896	168.092	-0.145	0.204
-168.881	162.997	0.006	-0.009
-167.866	-200.000	-0.024	-0.138
-166.852	359.812	0.136	-0.268
-165.837	134.470	0.140	0.179
-164.823	261.134	-0.072	0.123
-163.808	679.535	-0.090	-0.230
-162.793	681.201	0.070	0.181
-161.779	-142.455	-0.403	-0.039
-160.764	-200.000	0.040	-0.325
-159.750	366.928	0.287	0.571
-158.735	-48.048	-0.243	0.116
-157.720	-112.819	0.160	0.031
-156.706	433.594	-0.098	-0.211
-155.691	297.014	-0.080	0.144
-154.677	494.911	-0.076	0.172
-153.662	-200.000	0.011	0.224
-152.647	764.667	-0.044	-0.117
-151.633	800.000	-0.099	0.288
-150.618	-108.455	-0.241	0.051
-149.604	800.000	-0.035	0.115
-148.589	-200.000	-0.003	-0.065
-147.574	-49.548	-0.348	-0.164
-146.560	165.505	-0.044	0.062
-145.545	-42.450	0.119	0.060
-144.531	-200.000	-0.044	0.263
-143.516	29.944	0.177	0.149
-142.502	164.737	0.087	0.121
-141.487	-137.012	0.316	0.036
-140.472	-35.243	0.212	0.114
-139.458	-14.103	0.052	0.033
-138.443	-102.429	0.190	0.045
-137.429	223.209	0.152	-0.242
-136.414	-50.402	-0.412	0.192
-135.399	765.534	-0.020	-0.054
-134.385	116.701	0.137	0.166
-133.370	-200.000	0.033	0.249
-132.356	67.282	-0.151	-0.152
-131.341	-200.000	-0.017	-0.074
-130.326	15.956	-0.087	-0.067
-129.312	-200.000	0.023	-0.216
-128.297	-200.000	-0.010	-0.116
-127.283	800.000	0.069	0.262
-126.268	-67.265	-0.395	0.153
-125.253	210.824	-0.127	-0.197
-124.239	-34.534	-0.213	0.115
-123.224	-200.000	0.013	-0.289
-122.210	-40.884	0.121	-0.062
