DTS Sentinel unit serial number:	SN413079Multiplexer serial number:	ORYXHardware model number:	OX4-SRSoftware version number:	ORYX F/W v4.00 Oryx Data Collector v3.7.2.0data status	okinstallation	princeton_trtdifferential loss correction	single-endedforward channel	channel 3reverse channel	N/Adate	2019/09/13time	05:48:35forward acquisition time	60.00reverse acquisition time	0.00gamma	496.2192k internal	0.2339k external	0.2339temperature offset calibration	1.0137default loss term (dB/km)	0.3790temperature slope calibration	1.0000multiplexer offset coefficient	1.0000multiplexer slope coefficient	1.0000fibre end	0.00T internal ref (°C)	26.19T ext. ref 1 (°C)	4.06T ext. ref 2 (°C)	20.94length (m)	temperature (°C)	Stokes	anti-Stokes-747.200	24.214	0.256	0.212
-746.185	8.587	0.125	0.094
-745.171	-200.000	0.032	0.305
-744.156	218.588	0.215	-0.345
-743.142	-74.941	-0.220	-0.079
-742.127	4.126	0.094	0.069
-741.112	75.232	-0.119	-0.126
-740.098	-123.081	-0.174	0.028
-739.083	130.990	0.095	0.122
-738.069	65.062	-0.197	-0.200
-737.054	174.220	0.192	0.279
-736.039	149.198	0.170	-0.231
-735.025	-101.973	0.188	-0.045
-734.010	-200.000	0.057	0.258
-732.996	-156.680	-0.282	-0.017
-731.981	-171.152	-0.153	0.005
-730.966	-49.990	0.476	-0.226
-729.952	800.000	-0.012	0.051
-728.937	-200.000	0.008	-0.254
-727.923	-79.939	-0.215	-0.072
-726.908	-162.341	-0.067	-0.003
-725.894	-62.625	0.131	0.054
-724.879	16.847	-0.200	-0.159
-723.864	-31.554	0.156	-0.088
-722.850	-200.000	0.017	0.114
-721.835	-174.053	0.191	0.006
-720.821	270.143	-0.131	-0.231
-719.806	-200.000	0.007	-0.134
-718.791	-0.578	0.160	-0.114
-717.777	-29.280	-0.109	-0.063
-716.762	-3.149	0.158	-0.110
-715.748	362.460	-0.040	-0.081
-714.733	-4.665	0.279	-0.193
-713.718	-200.000	0.005	-0.069
-712.704	-15.579	-0.199	0.127
-711.689	-139.247	0.212	0.023
-710.675	8.395	-0.135	-0.102
-709.660	800.000	-0.045	-0.152
-708.645	-58.893	0.224	0.097
-707.631	-59.244	0.229	-0.099
-706.616	-74.677	-0.343	-0.124
-705.602	-81.302	0.523	-0.173
-704.587	-81.528	0.169	0.056
-703.572	81.646	0.074	-0.080
-702.558	134.772	-0.190	0.248
-701.543	-121.418	-0.150	0.025
-700.529	233.142	0.097	-0.160
-699.514	740.132	-0.102	-0.275
-698.499	-54.876	-0.099	-0.045
-697.485	-47.007	-0.203	-0.099
-696.470	-112.798	-0.268	0.053
-695.456	800.000	-0.087	0.284
-694.441	-1.932	-0.265	0.187
-693.426	-25.568	-0.093	0.055
-692.412	-200.000	-0.000	-0.050
-691.397	-200.000	0.007	-0.041
-690.383	-38.931	0.293	-0.155
-689.368	-19.981	0.206	-0.127
-688.354	800.000	0.132	-0.522
-687.339	-147.361	0.245	-0.021
-686.324	-78.723	-0.092	-0.031
-685.310	-200.000	-0.026	-0.234
-684.295	-200.000	0.067	0.296
-683.281	-72.814	-0.403	0.148
-682.266	-58.273	-0.299	0.130
-681.251	71.998	0.075	-0.078
-680.237	-103.341	-0.171	0.040
-679.222	-103.046	0.463	0.110
-678.208	101.159	-0.239	0.279
-677.193	-133.571	-0.058	-0.007
-676.178	-126.650	0.245	-0.036
-675.164	-144.029	-0.181	-0.017
-674.149	-200.000	0.055	-0.262
-673.135	-5.149	-0.123	-0.085
-672.120	145.563	0.094	0.126
-671.105	-84.102	-0.076	0.024
-670.091	-74.865	-0.177	-0.064
-669.076	558.781	-0.091	-0.219
-668.062	415.288	-0.220	0.468
-667.047	696.987	-0.061	-0.160
-666.032	37.045	0.057	-0.050
-665.018	800.000	-0.142	0.510
-664.003	187.221	0.144	0.215
-662.989	-67.017	0.214	0.084
-661.974	-160.118	0.132	0.007
-660.959	768.890	0.077	-0.209
-659.945	-200.000	-0.006	0.093
-658.930	-61.028	-0.150	-0.063
-657.916	-106.815	0.179	-0.040
-656.901	419.579	0.058	-0.123
-655.886	-18.520	0.182	0.114
-654.872	-59.173	0.164	-0.071
-653.857	800.000	0.064	0.190
-652.843	-125.514	-0.308	0.047
-651.828	353.421	-0.048	-0.094
-650.814	-124.366	-0.278	-0.043
-649.799	-23.041	0.175	-0.106
-648.784	73.411	-0.156	0.163
-647.770	-200.000	0.034	-0.227
-646.755	-200.000	-0.010	-0.081
-645.741	95.049	0.161	-0.183
-644.726	-200.000	0.023	-0.168
-643.711	800.000	-0.045	-0.149
-642.697	-50.511	0.099	-0.047
-641.682	-107.000	-0.079	-0.017
-640.668	640.875	-0.021	-0.054
-639.653	-200.000	-0.038	0.197
-638.638	-145.599	0.370	0.033
-637.624	-200.000	-0.019	-0.129
-636.609	269.815	0.063	-0.111
-635.595	15.096	-0.071	0.056
-634.580	20.139	-0.253	-0.204
-633.565	149.441	0.099	-0.133
-632.551	-50.871	-0.336	-0.158
-631.536	590.059	-0.094	-0.231
-630.522	-27.114	-0.252	0.147
-629.507	-200.000	-0.032	-0.172
-628.492	800.000	-0.091	-0.262
-627.478	-54.659	0.258	-0.117
-626.463	128.261	-0.038	0.048
-625.449	33.113	0.298	-0.258
-624.434	-114.621	0.195	-0.037
-623.419	800.000	-0.105	-0.295
-622.405	10.523	0.270	-0.206
-621.390	104.837	-0.070	0.083
-620.376	90.966	-0.177	0.198
-619.361	800.000	-0.091	0.341
-618.346	129.096	0.162	0.206
-617.332	-161.885	-0.113	-0.006
-616.317	-5.913	0.087	-0.059
-615.303	800.000	-0.108	-0.304
-614.288	-107.853	-0.150	0.033
-613.273	332.787	0.069	-0.134
-612.259	-3.474	0.398	-0.277
-611.244	-200.000	-0.007	-0.047
-610.230	-200.000	-0.315	0.000
-609.215	-200.000	0.008	0.245
-608.201	592.104	0.034	0.084
-607.186	85.789	-0.258	-0.284
-606.171	-50.101	0.185	-0.087
-605.157	800.000	0.041	-0.157
-604.142	-146.470	0.067	-0.006
-603.128	-48.290	0.060	-0.029
-602.113	122.794	-0.188	0.235
-601.098	-126.271	-0.343	0.051
-600.084	-61.921	0.239	-0.100
-599.069	89.061	0.132	-0.146
-598.055	-200.000	-0.056	0.246
-597.040	-78.401	-0.290	-0.099
-596.025	15.481	0.152	-0.119
-595.011	-151.881	-0.457	-0.033
-593.996	-8.726	0.135	0.091
-592.982	-12.394	-0.421	-0.274
-591.967	-200.000	-0.004	-0.288
-590.952	-44.345	0.209	-0.105
-589.938	-86.583	-0.102	-0.031
-588.923	-200.000	-0.045	0.244
-587.909	145.740	0.198	-0.264
-586.894	228.690	-0.060	-0.097
-585.879	6.173	-0.060	0.045
-584.865	-40.752	0.120	-0.062
-583.850	-71.261	-0.241	-0.090
-582.836	-200.000	-0.015	0.324
-581.821	800.000	0.007	0.020
-580.806	47.915	-0.293	-0.273
-579.792	14.487	-0.029	0.022
-578.777	-24.543	-0.109	-0.065
-577.763	-157.975	-0.337	-0.020
-576.748	-142.126	0.137	0.014
-575.733	51.506	-0.105	-0.099
-574.719	-89.311	0.318	0.093
-573.704	-149.749	-0.107	-0.008
-572.690	-48.448	0.233	-0.112
-571.675	2.513	0.318	-0.229
-570.661	-200.000	-0.001	0.139
-569.646	3.543	0.041	0.030
-568.631	72.770	-0.078	0.081
-567.617	105.240	-0.247	-0.290
-566.602	-149.863	-0.028	-0.002
-565.588	-100.423	-0.188	0.046
-564.573	800.000	-0.062	-0.249
-563.558	-81.824	-0.148	0.048
-562.544	-13.330	-0.141	0.091
-561.529	800.000	0.097	0.280
-560.515	-200.000	0.012	0.295
-559.500	-83.698	0.241	0.077
-558.485	357.157	-0.131	0.260
-557.471	84.242	-0.016	0.017
-556.456	-103.727	-0.541	0.126
-555.442	48.844	-0.205	-0.191
-554.427	-200.000	0.059	-0.280
-553.412	-109.987	-0.205	-0.043
-552.398	240.010	0.083	-0.138
-551.383	-76.476	-0.030	-0.010
-550.369	-109.304	0.245	-0.052
-549.354	-98.493	0.404	0.103
-548.339	-79.246	0.078	0.026
-547.325	107.354	-0.260	0.308
-546.310	220.629	0.026	0.042
-545.296	800.000	-0.083	0.323
-544.281	743.156	0.052	0.138
-543.266	-118.608	-0.231	-0.041
-542.252	296.894	0.125	0.229
-541.237	-50.000	-0.193	0.091
-540.223	604.914	0.123	0.305
-539.208	362.777	-0.025	0.051
-538.193	-165.513	0.180	-0.008
-537.179	-82.133	-0.209	0.068
-536.164	800.000	0.166	-0.486
-535.150	-200.000	0.003	-0.195
-534.135	131.427	0.232	-0.296
-533.121	-200.000	0.006	0.139
-532.106	-145.447	-0.175	0.016
-531.091	142.893	-0.168	-0.223
-530.077	428.368	0.114	0.245
-529.062	498.744	-0.149	0.343
-528.048	-83.897	-0.385	-0.122
-527.033	82.584	0.131	-0.141
-526.018	297.405	0.032	-0.059
-525.004	255.516	-0.076	-0.130
-523.989	16.880	0.205	-0.161
-522.975	-105.515	-0.149	0.034
-521.960	800.000	0.063	0.222
-520.945	-50.042	-0.090	0.043
-519.931	95.550	-0.286	-0.324
-518.916	-123.305	-0.185	-0.029
-517.902	17.973	0.227	-0.180
-516.887	779.468	0.070	-0.190
-515.872	246.429	-0.159	0.266
-514.858	-58.949	0.148	-0.063
-513.843	-59.009	-0.184	-0.079
-512.829	-179.618	0.406	-0.009
-511.814	800.000	-0.039	0.132
-510.799	-106.584	-0.470	-0.104
-509.785	44.226	-0.280	0.256
-508.770	-57.572	-0.336	-0.146
-507.756	-150.729	0.189	0.014
-506.741	-14.228	0.127	0.081
-505.726	-200.000	0.043	-0.194
-504.712	-127.340	-0.107	0.016
-503.697	800.000	0.051	-0.191
-502.683	-35.557	0.232	-0.125
-501.668	-200.000	-0.022	-0.145
-500.653	43.589	-0.091	0.083
-499.639	-200.000	0.004	-0.272
-498.624	-104.413	-0.230	0.053
-497.610	-136.600	0.111	-0.013
-496.595	-200.000	-0.019	0.343
-495.581	-29.127	0.307	0.175
-494.566	561.705	-0.142	0.340
-493.551	-46.489	-0.239	-0.116
-492.537	800.000	-0.054	-0.169
-491.522	75.455	-0.110	0.116
-490.508	50.015	0.342	0.321
-489.493	242.699	-0.044	-0.073
-488.478	-67.070	0.131	0.052
-487.464	-52.287	-0.362	-0.167
-486.449	149.886	0.134	0.180
-485.435	96.958	0.069	0.079
-484.420	-74.050	-0.270	-0.097
-483.405	800.000	0.006	-0.020
-482.391	158.144	-0.180	-0.248
-481.376	-43.343	0.164	-0.082
-480.362	800.000	-0.019	-0.058
-479.347	800.000	0.041	0.173
-478.332	4.115	-0.134	-0.098
-477.318	-200.000	0.004	0.109
-476.303	-18.003	0.150	-0.093
-475.289	147.269	-0.274	0.366
-474.274	149.203	0.167	0.224
-473.259	-88.503	-0.275	-0.081
-472.245	-94.336	-0.245	0.067
-471.230	800.000	0.045	0.128
-470.216	-168.546	-0.211	0.008
-469.201	20.212	-0.206	0.165
-468.186	-86.645	0.126	0.038
-467.172	-127.697	0.346	-0.050
-466.157	-45.325	0.208	-0.102
-465.143	-96.203	-0.031	0.008
-464.128	74.901	-0.111	-0.116
-463.113	-58.326	0.322	0.139
-462.099	168.606	0.062	-0.088
-461.084	-100.435	0.254	-0.062
-460.070	28.889	-0.342	0.288
-459.055	-83.862	-0.352	0.111
-458.040	-55.109	0.089	-0.040
-457.026	-60.674	0.092	-0.039
-456.011	306.097	-0.171	-0.315
-454.997	446.156	-0.083	-0.181
-453.982	-72.925	0.163	0.060
-452.968	-121.258	-0.269	-0.044
-451.953	256.128	-0.214	0.365
-450.938	-23.919	0.166	0.099
-449.924	-159.358	-0.446	0.025
-448.909	-31.109	0.166	0.093
-447.895	-200.000	-0.134	-0.001
-446.880	-82.016	-0.509	-0.165
-445.865	549.544	0.052	0.123
-444.851	-25.533	0.066	-0.038
-443.836	23.369	0.088	-0.071
-442.822	-93.987	0.210	0.057
-441.807	-150.207	-0.192	-0.015
-440.792	-167.490	0.362	-0.014
-439.778	-113.260	0.334	0.065
-438.763	291.179	0.089	0.161
-437.749	-168.332	-0.229	0.009
-436.734	-99.647	-0.172	-0.043
-435.719	-138.434	-0.171	0.019
-434.705	-65.503	0.231	0.092
-433.690	-124.379	-0.239	0.037
-432.676	-17.725	0.186	0.116
-431.661	800.000	-0.105	0.450
-430.646	-15.321	-0.335	0.212
-429.632	500.298	0.107	0.245
-428.617	-78.816	0.226	0.076
-427.603	210.930	0.042	0.065
-426.588	39.531	-0.139	-0.123
-425.573	800.000	-0.033	-0.115
-424.559	-88.963	-0.205	0.060
-423.544	-98.495	0.288	0.073
-422.530	285.996	-0.116	0.207
-421.515	-200.000	-0.020	0.177
-420.500	-200.000	-0.028	0.203
-419.486	83.077	-0.128	0.138
-418.471	24.171	0.237	0.194
-417.457	-5.134	0.197	0.134
-416.442	800.000	0.012	-0.042
-415.428	-200.000	0.057	0.307
-414.413	338.676	0.089	0.171
-413.398	-34.465	-0.122	-0.066
-412.384	-200.000	0.001	-0.231
-411.369	-11.766	0.200	-0.130
-410.355	-200.000	-0.006	0.422
-409.340	28.476	0.430	-0.360
-408.325	28.457	-0.303	0.253
-407.311	210.243	-0.073	0.113
-406.296	-200.000	-0.023	-0.101
-405.282	95.060	0.350	0.394
-404.267	82.465	-0.178	-0.191
-403.252	-200.000	0.010	0.235
-402.238	-66.407	-0.255	-0.100
-401.223	-16.239	-0.232	0.146
-400.209	-200.000	0.002	0.145
-399.194	8.733	0.187	0.140
-398.179	445.595	0.058	-0.127
-397.165	-200.000	-0.073	0.452
-396.150	-101.453	-0.024	-0.006
-395.136	800.000	-0.056	0.237
-394.121	-195.184	0.107	0.001
-393.106	210.182	-0.160	0.248
-392.092	800.000	-0.052	0.208
-391.077	505.758	0.183	-0.420
-390.063	105.527	0.361	-0.422
-389.048	-134.522	-0.163	0.020
-388.033	-193.103	-0.179	-0.002
-387.019	-165.343	0.257	-0.011
-386.004	60.874	-0.227	-0.223
-384.990	100.956	-0.163	0.188
-383.975	72.381	-0.058	0.059
-382.960	501.145	0.064	0.146
-381.946	800.000	0.119	0.397
-380.931	-132.251	0.031	0.004
-379.917	679.874	-0.117	-0.301
-378.902	69.726	0.211	0.215
-377.888	-200.000	0.061	0.313
-376.873	800.000	0.046	-0.146
-375.858	-54.595	-0.071	0.032
-374.844	39.731	-0.267	0.237
-373.829	16.322	-0.222	0.174
-372.815	800.000	0.081	0.314
-371.800	73.247	0.044	-0.045
-370.785	-75.791	0.147	-0.052
-369.771	35.267	0.161	0.139
-368.756	-58.097	0.170	-0.073
-367.742	-200.000	-0.032	-0.217
-366.727	-88.621	-0.304	0.090
-365.712	-27.613	0.198	-0.114
-364.698	51.366	-0.239	0.224
-363.683	-99.496	0.275	-0.068
-362.669	-115.347	-0.150	-0.028
-361.654	-200.000	0.033	0.217
-360.639	106.734	0.150	-0.176
-359.625	800.000	-0.129	-0.477
-358.610	223.712	-0.102	-0.163
-357.596	-200.000	0.006	0.238
-356.581	86.517	0.174	-0.189
-355.566	42.880	-0.155	-0.140
-354.552	371.924	0.282	-0.566
-353.537	-200.000	-0.005	0.182
-352.523	39.256	-0.248	-0.219
-351.508	109.243	0.074	0.087
-350.493	800.000	0.051	-0.174
-349.479	-134.697	-0.159	0.019
-348.464	74.198	0.083	-0.086
-347.450	8.383	-0.044	-0.033
-346.435	-24.701	-0.032	-0.019
-345.420	281.864	-0.065	0.115
-344.406	145.968	-0.132	-0.175
-343.391	-125.519	0.206	-0.031
-342.377	29.014	0.071	-0.059
-341.362	48.278	-0.138	-0.128
-340.348	695.804	0.068	-0.177
-339.333	-104.043	0.180	0.041
-338.318	-86.032	-0.126	-0.038
-337.304	-76.855	-0.039	-0.013
-336.289	514.832	0.080	0.185
-335.275	-20.478	-0.315	-0.191
-334.260	-63.869	0.168	0.068
-333.245	42.334	0.152	0.137
-332.231	-200.000	0.021	-0.112
-331.216	440.128	0.060	-0.129
-330.202	-115.884	0.187	0.034
-329.187	800.000	-0.039	0.122
-328.172	-197.439	0.140	0.001
-327.158	-200.000	-0.014	-0.347
-326.143	-200.000	0.004	-0.216
-325.129	-200.000	0.011	0.166
-324.114	46.761	-0.140	0.129
-323.099	201.517	0.087	-0.132
-322.085	-103.131	-0.154	0.036
-321.070	-200.000	0.011	0.317
-320.056	449.191	0.057	-0.124
-319.041	-186.569	0.356	-0.005
-318.026	-200.000	-0.042	0.194
-317.012	-15.603	0.255	-0.160
-315.997	11.245	-0.155	-0.117
-314.983	-131.921	0.061	-0.008
-313.968	-78.742	-0.281	0.095
-312.953	800.000	0.068	-0.250
-311.939	754.100	-0.088	-0.234
-310.924	-119.543	-0.107	-0.018
-309.910	362.163	0.099	0.196
-308.895	-91.832	-0.125	0.035
-307.880	-142.023	-0.403	-0.040
-306.866	-24.008	0.212	-0.125
-305.851	19.551	0.111	-0.088
-304.837	-200.000	0.025	0.127
-303.822	-87.120	0.347	-0.104
-302.807	-90.920	-0.538	0.153
-301.793	740.540	-0.201	-0.531
-300.778	-200.000	-0.006	-0.155
-299.764	190.404	0.086	-0.127
-298.749	-9.546	0.159	-0.105
-297.735	-50.953	0.288	0.133
-296.720	173.561	0.178	-0.254
-295.705	286.644	0.092	-0.164
-294.691	-177.941	-0.122	0.003
-293.676	-200.000	0.067	-0.300
-292.662	558.419	0.054	-0.128
-291.647	0.383	-0.106	0.074
-290.632	800.000	-0.059	0.195
-289.618	800.000	0.096	0.286
-288.603	800.000	-0.052	-0.200
-287.589	265.367	0.045	0.078
-286.574	-200.000	-0.011	0.211
-285.559	-58.334	0.185	-0.079
-284.545	-145.499	0.199	0.018
-283.530	77.552	-0.236	-0.248
-282.516	66.344	-0.164	0.164
-281.501	-74.155	0.170	-0.061
-280.486	3.144	-0.108	0.077
-279.472	85.701	-0.094	0.101
-278.457	233.885	-0.103	-0.168
-277.443	-55.013	-0.135	-0.060
-276.428	-126.044	0.659	0.097
-275.413	774.834	-0.044	-0.120
-274.399	-86.989	0.231	0.069
-273.384	162.519	0.266	0.367
-272.370	-41.436	-0.111	0.056
-271.355	133.462	-0.078	0.100
-270.340	-200.000	0.029	0.133
-269.326	-172.965	0.472	0.014
-268.311	-87.248	-0.106	-0.032
-267.297	-22.269	0.283	0.169
-266.282	-200.000	0.022	-0.185
-265.267	158.772	-0.113	0.155
-264.253	-80.420	-0.132	-0.043
-263.238	-169.108	-0.033	-0.001
-262.224	-179.946	-0.151	0.003
-261.209	712.859	0.048	0.125
-260.195	324.379	-0.050	0.094
-259.180	800.000	0.105	-0.449
-258.165	-14.041	0.077	-0.049
-257.151	509.332	-0.175	-0.400
-256.136	437.170	-0.055	-0.119
-255.122	-176.959	0.450	-0.011
-254.107	5.606	-0.189	-0.138
-253.092	43.418	0.070	-0.063
-252.078	-200.000	0.045	0.244
-251.063	-29.004	0.204	0.115
-250.049	-11.894	-0.234	-0.151
-249.034	68.574	0.136	0.137
-248.019	-200.000	0.062	0.288
-247.005	73.827	-0.152	0.157
-245.990	-143.621	0.168	-0.016
-244.976	-9.714	0.225	0.148
-243.961	-149.730	0.283	-0.022
-242.946	49.321	-0.308	-0.285
-241.932	-70.061	0.401	0.150
-240.917	-168.170	-0.198	0.008
-239.903	124.613	0.047	-0.059
-238.888	-93.638	-0.103	-0.028
-237.873	-61.622	0.309	0.127
-236.859	259.131	0.100	0.170
-235.844	50.492	0.104	0.097
-234.830	-55.127	0.275	0.122
-233.815	244.542	-0.024	-0.040
-232.800	532.135	0.128	-0.299
-231.786	4.190	0.071	0.051
-230.771	-0.559	0.162	-0.113
-229.757	-200.000	-0.064	0.297
-228.742	-200.000	0.025	-0.138
-227.727	-106.029	-0.161	-0.036
-226.713	-39.690	0.315	0.162
-225.698	236.536	-0.165	-0.268
-224.684	-200.000	0.024	0.148
-223.669	305.722	0.078	-0.143
-222.655	-200.000	-0.005	0.080
-221.640	-181.490	0.034	0.001
-220.625	263.090	0.216	-0.369
-219.611	47.203	-0.155	0.142
-218.596	34.081	-0.200	0.171
-217.582	-157.103	-0.180	-0.011
-216.567	23.781	-0.348	-0.282
-215.552	-29.018	0.334	0.189
-214.538	300.082	-0.097	0.176
-213.523	144.803	-0.075	0.099
-212.509	-200.000	-0.002	-0.227
-211.494	-200.000	0.031	0.208
-210.479	713.944	-0.090	0.234
-209.465	44.016	0.121	-0.109
-208.450	-200.000	0.001	-0.105
-207.436	-40.162	0.270	0.138
-206.421	-86.946	-0.173	-0.052
-205.406	65.764	-0.322	0.321
-204.392	389.704	0.084	-0.172
-203.377	-70.699	0.428	0.159
-202.363	423.001	0.192	0.405
-201.348	21.677	0.225	0.180
-200.333	204.293	-0.068	0.103
-199.319	-37.035	-0.084	0.044
-198.304	-29.488	0.200	0.112
-197.290	-200.000	-0.006	0.253
-196.275	-200.000	0.010	0.475
-195.260	-200.000	-0.005	-0.123
-194.246	-159.131	0.326	0.018
-193.231	382.989	-0.112	0.226
-192.217	-71.820	0.171	-0.063
-191.202	39.643	0.250	0.220
-190.187	-200.000	0.028	-0.134
-189.173	800.000	-0.043	-0.164
-188.158	164.102	-0.280	-0.388
-187.144	332.694	-0.062	0.118
-186.129	14.158	-0.132	-0.101
-185.114	-113.533	0.043	-0.008
-184.100	-200.000	0.037	0.194
-183.085	82.302	-0.041	0.044
-182.071	367.542	0.072	-0.142
-181.056	-124.925	-0.292	-0.044
-180.042	-3.225	-0.161	-0.110
-179.027	314.982	0.146	-0.271
-178.012	-200.000	-0.041	-0.220
-176.998	133.272	0.205	0.260
-175.983	255.663	-0.102	0.171
-174.969	-55.706	0.090	-0.040
-173.954	-101.894	0.352	0.083
-172.939	-196.966	-0.131	-0.001
-171.925	-25.264	-0.216	-0.126
-170.910	-190.079	-0.321	-0.004
-169.896	326.753	0.067	0.125
-168.881	-200.000	-0.012	-0.326
-167.866	-86.069	-0.150	-0.045
-166.852	38.903	-0.253	0.222
-165.837	800.000	0.073	-0.267
-164.823	80.890	-0.036	0.038
-163.808	150.987	0.391	-0.522
-162.793	209.461	-0.257	-0.395
-161.779	-143.932	0.214	-0.020
-160.764	-120.783	0.392	-0.065
-159.750	-131.208	-0.335	0.044
-158.735	800.000	-0.112	-0.309
-157.720	-200.000	0.030	0.129
-156.706	-200.000	-0.012	0.208
-155.691	-27.480	0.307	0.175
-154.677	-87.535	0.292	-0.087
-153.662	-134.463	0.170	-0.020
-152.647	47.257	-0.060	0.054
-151.633	-147.401	-0.148	0.012
-150.618	24.400	-0.360	0.292
-149.604	229.722	0.083	0.133
-148.589	-147.852	-0.273	-0.022
-147.574	-96.958	-0.332	0.085
-146.560	-94.140	-0.227	-0.061
-145.545	93.026	0.095	0.105
-144.531	-107.370	0.270	-0.058
-143.516	-101.095	0.131	0.031
-142.502	-200.000	-0.002	0.240
-141.487	800.000	0.017	-0.046
-140.472	-90.555	-0.119	-0.034
-139.458	35.334	0.167	0.144
-138.443	254.092	0.125	-0.210
-137.429	63.492	-0.076	0.075
-136.414	-117.990	-0.035	-0.006
-135.399	-170.613	-0.213	0.007
-134.385	-200.000	-0.020	0.144
-133.370	80.891	-0.117	-0.124
-132.356	-62.344	0.135	-0.055
-131.341	800.000	0.040	-0.111
-130.326	80.731	-0.120	-0.127
-129.312	-68.064	0.078	0.030
-128.297	-200.000	0.012	0.108
-127.283	-135.257	-0.291	-0.034
-126.268	26.819	0.200	0.164
-125.253	29.067	0.297	-0.246
-124.239	76.261	0.040	-0.042
-123.224	-43.459	0.367	0.181
-122.210	10.741	-0.121	-0.091
-121.195	251.127	-0.144	-0.240
