DTS Sentinel unit serial number:	SN413079Multiplexer serial number:	ORYXHardware model number:	OX4-SRSoftware version number:	ORYX F/W v4.00 Oryx Data Collector v3.7.2.0data status	okinstallation	princeton_trtdifferential loss correction	single-endedforward channel	channel 3reverse channel	N/Adate	2019/09/12time	18:07:04forward acquisition time	15.00reverse acquisition time	0.00gamma	496.2192k internal	0.2316k external	0.2316temperature offset calibration	1.0089default loss term (dB/km)	0.3790temperature slope calibration	1.0000multiplexer offset coefficient	1.0000multiplexer slope coefficient	1.0000fibre end	0.00T internal ref (°C)	33.69T ext. ref 1 (°C)	2.85T ext. ref 2 (°C)	28.20length (m)	temperature (°C)	Stokes	anti-Stokes-747.200	-92.724	0.362	0.103
-746.185	-144.330	-0.670	0.063
-745.171	-107.782	1.037	-0.229
-744.156	800.000	-0.150	0.615
-743.142	93.677	-0.750	0.861
-742.127	800.000	0.170	-0.521
-741.112	151.935	0.386	-0.534
-740.098	114.258	0.497	0.613
-739.083	-153.104	0.315	0.022
-738.069	800.000	0.100	0.422
-737.054	-91.698	0.360	-0.104
-736.039	118.823	-0.435	0.544
-735.025	290.024	0.191	0.351
-734.010	-137.817	-1.278	0.145
-732.996	279.624	0.103	0.186
-731.981	-200.000	-0.026	0.231
-730.966	800.000	-0.180	-0.735
-729.952	-81.274	-0.654	-0.219
-728.937	800.000	0.132	-0.443
-727.923	338.137	0.194	-0.382
-726.908	25.541	-0.137	0.115
-725.894	-35.473	0.443	-0.243
-724.879	103.218	0.468	-0.555
-723.864	-83.621	1.128	0.365
-722.850	3.382	-0.358	0.264
-721.835	782.893	-0.097	0.270
-720.821	-103.617	-0.401	0.095
-719.806	194.630	-0.566	-0.868
-718.791	-66.422	-0.613	-0.247
-717.777	-120.360	-0.934	0.161
-716.762	127.454	-0.137	-0.176
-715.748	-53.364	0.215	0.100
-714.733	-7.373	-0.267	-0.183
-713.718	800.000	0.058	0.194
-712.704	-200.000	0.271	-1.235
-711.689	-200.000	-0.117	0.583
-710.675	-115.082	-0.319	-0.061
-709.660	501.701	0.220	0.513
-708.645	174.189	0.275	0.401
-707.631	-200.000	0.020	-0.190
-706.616	-200.000	0.035	-0.818
-705.602	54.350	0.347	0.338
-704.587	-17.684	-0.310	0.197
-703.572	-9.977	-0.059	0.039
-702.558	466.692	0.129	-0.292
-701.543	800.000	-0.050	0.142
-700.529	-6.543	0.090	-0.062
-699.514	-160.001	0.588	0.032
-698.499	800.000	0.023	-0.098
-697.485	-3.640	0.782	-0.549
-696.470	123.621	0.262	0.332
-695.456	-34.809	1.045	0.578
-694.441	-1.485	0.126	0.090
-693.426	261.227	-0.234	-0.410
-692.412	-12.864	-0.353	-0.232
-691.397	-200.000	0.017	-0.603
-690.383	-92.606	-0.734	-0.208
-689.368	90.006	-0.324	0.366
-688.354	-102.380	-0.779	-0.189
-687.339	-95.611	-0.270	0.073
-686.324	-100.646	0.289	-0.072
-685.310	81.131	0.357	0.390
-684.295	596.861	-0.203	-0.509
-683.281	800.000	-0.080	0.252
-682.266	800.000	0.270	-0.924
-681.251	-0.219	0.624	0.448
-680.237	281.632	-0.087	-0.158
-679.222	-200.000	0.127	0.714
-678.208	-121.595	-1.184	0.198
-677.193	-22.744	0.393	-0.240
-676.178	-200.000	0.047	-0.512
-675.164	5.383	0.322	0.240
-674.149	15.660	0.290	0.230
-673.135	487.674	0.262	0.603
-672.120	151.760	0.097	0.134
-671.105	57.689	-0.356	-0.352
-670.091	-200.000	-0.128	-0.822
-669.076	-147.222	0.922	-0.079
-668.062	-126.549	0.714	-0.107
-667.047	-200.000	-0.024	0.458
-666.032	-133.562	-0.345	-0.044
-665.018	-76.177	-0.577	0.206
-664.003	-27.960	-0.238	0.139
-662.989	2.789	-0.513	-0.376
-661.974	-116.501	0.371	0.069
-660.959	78.996	0.503	0.544
-659.945	123.316	0.961	-1.216
-658.930	242.130	0.128	-0.216
-657.916	-119.578	-0.241	0.042
-656.901	-95.221	0.214	-0.058
-655.886	-95.141	-0.437	-0.119
-654.872	-99.055	-0.294	-0.075
-653.857	-200.000	-0.062	-0.672
-652.843	-33.358	-0.548	-0.306
-651.828	-50.313	-0.191	-0.091
-650.814	-50.023	0.484	-0.232
-649.799	800.000	0.036	0.148
-648.784	56.208	-0.869	0.852
-647.770	-112.563	0.407	0.082
-646.755	-24.308	0.429	0.258
-645.741	-58.797	-0.057	0.025
-644.726	130.075	-0.225	0.291
-643.711	361.664	-0.325	0.658
-642.697	800.000	0.096	-0.384
-641.682	-200.000	-0.039	0.408
-640.668	-200.000	0.046	-0.243
-639.653	-90.726	1.178	-0.343
-638.638	-13.888	0.077	-0.050
-637.624	-156.710	-0.950	0.059
-636.609	224.563	0.461	-0.751
-635.595	165.986	-0.314	0.449
-634.580	-47.729	-0.760	-0.372
-633.565	164.979	-0.338	0.481
-632.551	7.732	0.417	0.315
-631.536	-162.465	0.154	0.008
-630.522	-2.669	-0.313	0.221
-629.507	294.589	0.145	-0.268
-628.492	17.275	0.816	0.653
-627.478	281.482	0.461	0.832
-626.463	-200.000	0.109	0.582
-625.449	48.589	-0.558	-0.527
-624.434	-157.651	-0.452	0.027
-623.419	134.080	-0.482	0.630
-622.405	-115.193	-0.408	0.078
-621.390	-152.588	1.159	0.084
-620.376	-149.288	-0.379	0.030
-619.361	21.327	0.513	0.420
-618.346	-33.090	0.283	-0.158
-617.332	-200.000	-0.006	0.076
-616.317	-200.000	0.105	0.599
-615.303	530.678	0.201	0.478
-614.288	73.822	0.489	-0.516
-613.273	800.000	-0.086	-0.254
-612.259	110.727	0.063	0.077
-611.244	-140.892	-0.266	0.028
-610.230	125.470	-0.717	-0.912
-609.215	28.120	0.639	-0.544
-608.201	-9.979	-0.685	-0.459
-607.186	50.903	0.400	0.382
-606.171	-139.614	0.784	0.084
-605.157	-200.000	0.161	-1.048
-604.142	-67.122	-0.606	-0.241
-603.128	7.807	0.502	-0.379
-602.113	79.330	-0.243	0.262
-601.098	404.407	-0.349	-0.741
-600.084	-69.946	-0.291	-0.112
-599.069	684.550	0.362	-0.952
-598.055	64.892	-0.453	0.461
-597.040	698.828	-0.087	0.232
-596.025	583.857	0.073	-0.181
-595.011	800.000	-0.035	0.144
-593.996	-90.962	-0.378	0.109
-592.982	133.103	0.306	0.398
-591.967	-73.494	0.702	0.258
-590.952	119.428	-0.388	-0.484
-589.938	-16.782	-0.320	0.204
-588.923	-19.380	0.517	-0.323
-587.909	44.823	0.195	-0.181
-586.894	220.449	0.256	0.413
-585.879	-16.812	-0.122	0.078
-584.865	800.000	-0.119	-0.371
-583.850	-11.060	-0.841	0.559
-582.836	356.764	-0.177	-0.354
-581.821	-94.496	-0.251	-0.069
-580.806	-106.563	-0.495	-0.111
-579.792	-200.000	-0.029	-0.450
-578.777	50.529	0.892	-0.849
-577.763	134.998	0.174	0.227
-576.748	-200.000	-0.000	-0.195
-575.733	-103.611	0.909	-0.215
-574.719	-200.000	0.008	-0.291
-573.704	-5.964	0.515	0.354
-572.690	-7.235	0.217	-0.148
-571.675	14.301	0.826	0.648
-570.661	800.000	-0.365	1.342
-569.646	800.000	-0.010	-0.035
-568.631	-200.000	0.077	0.410
-567.617	-200.000	-0.066	-0.295
-566.602	55.091	-0.088	0.086
-565.588	188.668	0.159	0.239
-564.573	-155.506	0.211	-0.014
-563.558	87.663	0.495	0.551
-562.544	800.000	0.128	-0.388
-561.529	405.325	0.204	0.433
-560.515	458.559	0.419	0.936
-559.500	800.000	-0.100	-0.324
-558.485	62.484	0.498	-0.500
-557.471	-77.785	0.506	-0.176
-556.456	-57.856	-0.912	-0.401
-555.442	-40.654	0.155	0.081
-554.427	-114.982	-0.920	0.176
-553.412	306.562	-0.195	0.364
-552.398	-37.557	0.703	-0.377
-551.383	-131.899	0.473	-0.062
-550.369	-107.200	-0.846	-0.187
-549.354	-161.411	0.136	0.007
-548.339	171.115	0.719	-1.037
-547.325	76.403	-0.384	-0.409
-546.310	413.926	-0.345	-0.739
-545.296	-155.386	-0.647	0.042
-544.281	-168.294	-0.585	-0.023
-543.266	-38.831	-0.256	-0.136
-542.252	-200.000	0.076	1.167
-541.237	-200.000	0.071	1.186
-540.223	-42.215	0.207	0.106
-539.208	-200.000	-0.073	1.072
-538.193	54.795	0.205	-0.199
-537.179	34.756	0.105	-0.093
-536.164	1.111	0.267	-0.193
-535.150	71.684	-0.640	0.668
-534.135	-200.000	-0.013	-0.191
-533.121	-200.000	0.053	0.372
-532.106	-114.917	0.332	0.064
-531.091	-123.465	0.166	0.027
-530.077	63.953	-0.270	-0.273
-529.062	718.328	-0.047	-0.125
-528.048	-200.000	-0.022	-0.452
-527.033	716.523	-0.309	0.824
-526.018	-200.000	0.001	-0.187
-525.004	-102.275	0.776	0.187
-523.989	-200.000	-0.142	-0.688
-522.975	-200.000	0.008	-0.889
-521.960	-200.000	-0.098	-0.931
-520.945	292.288	0.090	-0.165
-519.931	-115.939	-0.383	0.072
-518.916	-200.000	-0.162	-0.769
-517.902	-60.596	0.823	0.351
-516.887	-25.102	0.594	-0.353
-515.872	4.147	-0.317	-0.233
-514.858	119.535	0.208	-0.259
-513.843	20.233	-0.773	-0.627
-512.829	153.650	-0.376	0.517
-511.814	712.543	0.196	0.521
-510.799	-86.327	-0.487	-0.151
-509.785	-200.000	-0.069	0.513
-508.770	-115.055	0.469	-0.089
-507.756	-45.619	-0.233	-0.116
-506.741	-200.000	0.048	0.232
-505.726	-79.710	-0.398	-0.135
-504.712	396.733	0.463	-0.971
-503.697	53.704	0.158	-0.153
-502.683	-51.035	-0.439	0.207
-501.668	-200.000	-0.021	0.368
-500.653	-200.000	0.118	0.988
-499.639	-200.000	0.050	-0.399
-498.624	429.271	-0.236	0.513
-497.610	-128.469	-0.328	0.047
-496.595	-200.000	0.028	0.330
-495.581	800.000	0.106	-0.435
-494.566	171.703	0.113	-0.163
-493.551	227.131	0.533	0.869
-492.537	-200.000	-0.468	-0.001
-491.522	-84.058	-0.340	0.108
-490.508	-91.903	0.382	0.109
-489.493	554.501	-0.432	1.043
-488.478	534.298	0.082	0.196
-487.464	21.990	0.267	-0.218
-486.449	277.117	-0.413	-0.736
-485.435	-152.156	0.880	0.064
-484.420	95.084	-0.263	-0.300
-483.405	-200.000	0.022	0.120
-482.391	100.840	-0.514	-0.599
-481.376	19.824	-0.541	0.437
-480.362	52.326	0.409	0.391
-479.347	220.326	-0.224	-0.360
-478.332	-64.327	-0.795	0.324
-477.318	-200.000	0.031	-0.352
-476.303	-106.305	-0.215	0.048
-475.289	800.000	0.122	-0.471
-474.274	-200.000	0.052	0.286
-473.259	637.994	0.186	0.475
-472.245	-25.528	-0.517	-0.306
-471.230	651.229	0.159	0.408
-470.216	800.000	-0.011	0.032
-469.201	195.681	0.155	0.236
-468.186	71.502	0.312	-0.325
-467.172	7.441	-0.757	-0.567
-466.157	117.708	-0.101	-0.124
-465.143	800.000	0.059	0.198
-464.128	800.000	-0.159	-0.647
-463.113	-200.000	0.000	-0.503
-462.099	303.348	0.175	0.324
-461.084	-200.000	-0.021	0.399
-460.070	56.321	-0.236	-0.230
-459.055	-95.873	-0.474	0.127
-458.040	-197.764	-0.504	0.003
-457.026	-149.479	0.276	-0.022
-456.011	-113.589	-0.518	0.101
-454.997	-32.898	-0.540	0.300
-453.982	-53.187	0.444	0.204
-452.968	-53.556	-0.250	0.114
-451.953	108.757	0.363	-0.435
-450.938	-200.000	-0.078	-0.735
-449.924	303.914	0.091	-0.170
-448.909	-200.000	0.049	0.539
-447.895	800.000	-0.265	0.815
-446.880	37.005	-0.422	0.374
-445.865	-119.330	0.486	0.085
-444.851	221.954	-0.443	0.714
-443.836	-200.000	-0.018	-0.254
-442.822	26.012	-0.260	-0.217
-441.807	92.371	0.703	0.794
-440.792	-200.000	-0.003	0.147
-439.778	-200.000	0.211	0.942
-438.763	82.273	-0.437	0.474
-437.749	-57.330	-0.785	0.346
-436.734	-91.974	-0.205	0.058
-435.719	174.131	0.334	-0.483
-434.705	47.124	0.462	0.430
-433.690	457.262	0.391	-0.868
-432.676	-200.000	-0.023	-0.339
-431.661	-200.000	-0.021	0.484
-430.646	35.568	0.331	-0.291
-429.632	51.467	0.409	0.389
-428.617	-105.815	0.847	-0.191
-427.603	-4.232	0.383	-0.266
-426.588	61.861	-0.526	0.525
-425.573	-200.000	0.021	-0.157
-424.559	-158.129	0.326	-0.019
-423.544	-40.225	-0.479	0.249
-422.530	800.000	0.133	0.477
-421.515	-57.620	0.542	0.238
-420.500	-144.546	-0.397	0.037
-419.486	-68.482	0.225	-0.087
-418.471	-112.496	0.663	-0.132
-417.457	115.658	0.544	-0.665
-416.442	-54.090	0.335	0.152
-415.428	72.763	-0.237	-0.248
-414.413	126.958	-0.439	0.556
-413.398	230.564	0.280	-0.459
-412.384	450.971	-0.141	-0.311
-411.369	129.083	0.364	-0.464
-410.355	543.179	0.295	0.704
-409.340	-200.000	-0.113	0.581
-408.325	433.935	-0.171	0.371
-407.311	800.000	0.048	-0.200
-406.296	-200.000	0.019	-0.088
-405.282	800.000	0.046	0.182
-404.267	800.000	-0.314	1.089
-403.252	800.000	-0.206	0.593
-402.238	-116.106	-0.423	-0.079
-401.223	-0.798	0.500	0.354
-400.209	42.560	0.492	-0.448
-399.194	-76.340	0.330	-0.116
-398.179	-73.532	0.287	0.105
-397.165	800.000	0.176	0.545
-396.150	238.011	-0.242	0.402
-395.136	-93.140	-0.175	-0.049
-394.121	-200.000	0.074	0.620
-393.106	533.492	-0.243	0.576
-392.092	-159.634	0.438	-0.024
-391.077	123.346	0.240	-0.301
-390.063	-48.655	-0.410	0.197
-389.048	-74.084	0.591	0.214
-388.033	-114.518	-0.788	0.151
-387.019	-127.875	0.635	-0.091
-386.004	66.947	-0.188	-0.191
-384.990	-46.339	-0.164	-0.080
-383.975	168.355	0.236	-0.335
-382.960	-200.000	0.016	-0.353
-381.946	295.976	0.521	0.953
-380.931	49.793	0.331	-0.311
-379.917	-144.501	-0.631	-0.058
-378.902	-105.003	-0.881	0.202
-377.888	800.000	0.221	-0.902
-376.873	309.741	-0.459	-0.858
-375.858	-200.000	0.007	-0.253
-374.844	231.591	-0.192	-0.315
-373.829	43.451	0.735	-0.671
-372.815	-200.000	-0.110	0.534
-371.800	118.011	-0.252	-0.310
-370.785	140.960	-0.607	-0.801
-369.771	-128.052	0.661	0.095
-368.756	658.004	-0.141	-0.361
-367.742	374.985	0.285	-0.579
-366.727	-93.330	-0.506	0.140
-365.712	-15.987	0.351	-0.223
-364.698	-178.818	-0.458	-0.010
-363.683	-134.084	-0.243	-0.030
-362.669	501.947	0.468	1.078
-361.654	-152.524	0.399	0.029
-360.639	64.728	-0.309	0.311
-359.625	-2.525	-0.379	-0.265
-358.610	800.000	-0.178	-0.512
-357.596	800.000	-0.083	-0.286
-356.581	-54.903	-0.353	-0.159
-355.566	-55.364	-0.592	-0.265
-354.552	460.817	-0.027	0.060
-353.537	119.605	0.161	-0.199
-352.523	157.796	-0.596	-0.824
-351.508	211.453	-0.154	-0.242
-350.493	250.206	-0.138	-0.234
-349.479	-200.000	-0.148	0.707
-348.464	800.000	0.059	0.173
-347.450	-63.459	0.554	-0.227
-346.435	388.708	-0.153	-0.315
-345.420	255.377	-0.108	0.184
-344.406	242.705	0.194	-0.324
-343.391	-125.519	-0.402	0.061
-342.377	-128.736	0.123	-0.017
-341.362	74.248	0.254	-0.266
-340.348	800.000	-0.164	0.469
-339.333	-200.000	0.056	0.664
-338.318	800.000	-0.067	0.198
-337.304	-82.331	-0.317	-0.103
-336.289	642.228	0.291	-0.740
-335.275	82.138	0.123	0.133
-334.260	-200.000	-0.035	0.926
-333.245	9.164	-0.259	-0.195
-332.231	-116.035	-0.231	-0.043
-331.216	51.029	0.124	-0.117
-330.202	100.936	0.452	0.524
-329.187	-180.727	0.318	0.006
-328.172	312.940	0.419	0.784
-327.158	800.000	0.275	-0.766
-326.143	242.984	0.458	-0.765
-325.129	-24.167	0.600	-0.357
-324.114	-200.000	0.166	0.882
-323.099	-113.951	-0.719	0.139
-322.085	-140.836	1.215	-0.125
-321.070	213.104	0.146	-0.229
-320.056	800.000	0.168	-0.704
-319.041	-113.014	0.830	0.163
-318.026	-190.975	0.668	-0.007
-317.012	10.932	0.739	0.562
-315.997	800.000	0.210	-0.792
-314.983	36.445	-0.398	-0.350
-313.968	65.117	-0.265	-0.266
-312.953	7.224	0.185	-0.138
-311.939	-58.608	-0.213	-0.092
-310.924	695.146	-0.168	0.439
-309.910	40.381	-0.235	0.210
-308.895	-171.386	0.857	0.029
-307.880	-200.000	0.029	0.222
-306.866	-165.728	-0.213	0.009
-305.851	131.362	-0.272	-0.348
-304.837	-128.749	0.794	-0.112
-303.822	253.806	0.373	0.635
-302.807	149.494	-0.540	0.729
-301.793	-188.389	0.334	-0.004
-300.778	-186.972	0.459	-0.006
-299.764	800.000	-0.079	-0.317
-298.749	357.946	-0.238	0.473
-297.735	178.321	0.541	-0.787
-296.720	-9.885	-0.663	0.439
-295.705	30.929	-0.784	-0.669
-294.691	-25.810	0.534	-0.313
-293.676	110.238	-0.229	0.274
-292.662	800.000	-0.211	-0.659
-291.647	-32.299	-0.410	-0.228
-290.632	-200.000	0.027	-0.304
-289.618	-200.000	0.065	0.562
-288.603	-90.020	0.105	0.031
-287.589	203.927	-0.217	-0.335
-286.574	183.691	-0.038	0.056
-285.559	234.323	-0.408	-0.669
-284.545	-78.522	-0.790	-0.269
-283.530	122.679	0.347	-0.432
-282.516	120.855	0.116	0.143
-281.501	524.944	0.146	0.341
-280.486	-200.000	-0.002	-0.379
-279.472	800.000	-0.227	0.878
-278.457	-98.746	0.571	-0.145
-277.443	-179.412	0.643	0.014
-276.428	775.397	-0.370	-1.004
-275.413	95.229	0.303	0.344
-274.399	-200.000	-0.047	-0.333
-273.384	-48.358	0.608	-0.292
-272.370	800.000	-0.147	0.470
-271.355	-138.550	1.169	-0.128
-270.340	124.091	0.485	-0.607
-269.326	-94.089	-0.089	0.024
-268.311	800.000	0.074	0.300
-267.297	-142.732	-0.921	0.089
-266.282	-2.834	0.784	-0.545
-265.267	800.000	-0.196	-0.584
-264.253	115.148	0.390	-0.473
-263.238	-200.000	0.024	0.306
-262.224	267.211	0.487	0.847
-261.209	3.678	0.182	0.132
-260.195	-87.877	-1.275	0.381
-259.180	45.137	-0.357	-0.327
-258.165	-86.652	0.025	0.007
-257.151	-65.403	-0.841	-0.336
-256.136	-86.218	0.717	-0.219
-255.122	576.548	-0.146	0.354
-254.107	-200.000	-0.005	-0.293
-253.092	41.339	0.395	0.355
-252.078	-200.000	0.011	1.015
-251.063	-200.000	-0.007	-0.106
-250.049	-30.732	0.523	-0.294
-249.034	227.536	-0.337	0.544
-248.019	24.278	-0.158	-0.129
-247.005	284.378	0.206	-0.369
-245.990	-200.000	-0.092	-0.477
-244.976	154.799	-0.417	-0.569
-243.961	54.161	0.645	-0.616
-242.946	417.128	0.327	-0.693
-241.932	-184.361	-1.113	-0.018
-240.917	-101.589	-0.217	0.052
-239.903	-44.275	0.771	0.384
-238.888	319.036	-0.109	-0.205
-237.873	-6.378	0.366	-0.248
-236.859	123.624	-0.092	-0.115
-235.844	9.760	-0.419	0.315
-234.830	25.617	0.550	0.455
-233.815	-3.546	-0.221	0.153
-232.800	-10.729	-0.655	-0.430
-231.786	346.782	-0.162	-0.317
-230.771	13.405	0.311	-0.240
-229.757	-49.299	-1.291	0.612
-228.742	-110.193	0.449	-0.093
-227.727	-200.000	0.026	-0.314
-226.713	-200.000	0.015	0.761
-225.698	78.872	-0.176	0.187
-224.684	-200.000	0.033	0.147
-223.669	-68.882	0.411	0.158
-222.655	800.000	-0.067	-0.239
-221.640	190.134	-0.313	-0.466
-220.625	133.750	-0.530	0.681
-219.611	-36.040	-0.898	0.482
-218.596	13.446	0.782	0.602
-217.582	9.031	0.945	-0.708
-216.567	-174.129	0.436	0.013
-215.552	236.080	-0.204	0.334
-214.538	324.244	0.031	0.058
-213.523	-12.311	0.232	-0.150
-212.509	-23.324	-0.105	0.062
-211.494	-110.181	-0.208	-0.043
-210.479	501.976	-0.285	-0.654
-209.465	-200.000	0.015	0.320
-208.450	-200.000	0.005	0.096
-207.436	-169.662	-0.644	0.023
-206.421	-200.000	0.095	0.914
-205.406	361.949	0.068	0.134
-204.392	-83.663	-0.582	-0.184
-203.377	-32.078	-0.779	0.432
-202.363	-97.392	-0.327	-0.085
-201.348	81.762	-0.661	0.709
-200.333	-150.889	0.115	-0.009
-199.319	-166.690	-0.361	0.015
-198.304	-32.341	0.266	0.147
-197.290	-200.000	-0.036	0.289
-196.275	-149.622	0.412	-0.032
-195.260	72.273	0.242	0.250
-194.246	112.112	0.334	0.400
-193.231	-200.000	0.603	0.001
-192.217	-89.373	0.748	-0.218
-191.202	-200.000	-0.085	0.419
-190.187	704.191	0.210	-0.550
-189.173	-200.000	0.052	0.400
-188.158	24.844	0.413	0.339
-187.144	-27.422	0.316	-0.182
-186.129	207.674	-0.614	-0.950
-185.114	-77.060	0.334	-0.115
-184.100	166.937	-0.516	-0.726
-183.085	22.680	0.229	0.186
-182.071	70.352	-0.373	0.382
-181.056	-187.412	0.303	0.004
-180.042	-57.069	-0.956	0.418
-179.027	-86.715	-0.315	0.096
-178.012	182.241	0.289	0.421
-176.998	-16.329	-0.668	0.420
-175.983	58.578	0.260	-0.253
-174.969	-200.000	0.026	-0.670
-173.954	-89.748	-0.791	0.230
-172.939	800.000	-0.114	-0.319
-171.925	-200.000	0.077	-0.557
-170.910	515.319	0.182	-0.420
-169.896	-140.095	0.076	0.008
-168.881	-200.000	-0.006	-0.149
-167.866	315.811	-0.186	-0.347
-166.852	80.846	-0.264	0.282
-165.837	-200.000	-0.088	-0.525
-164.823	-200.000	0.124	0.659
-163.808	-105.438	0.496	0.112
-162.793	127.669	-0.399	0.502
-161.779	178.242	-0.229	-0.331
-160.764	-200.000	0.041	0.235
-159.750	-200.000	-0.150	0.712
-158.735	-153.386	-0.339	-0.023
-157.720	-200.000	-0.024	-1.014
-156.706	-28.686	-0.728	-0.415
-155.691	-41.773	0.345	0.175
-154.677	280.929	-0.370	-0.656
-153.662	-66.776	-0.490	-0.192
-152.647	68.321	0.299	-0.303
-151.633	108.185	-0.624	-0.736
-150.618	277.967	0.110	0.194
-149.604	800.000	-0.069	0.301
-148.589	78.694	0.305	-0.323
-147.574	12.477	-0.206	-0.158
-146.560	106.324	0.342	-0.401
-145.545	193.452	0.136	-0.204
-144.531	-200.000	0.061	-0.627
-143.516	61.490	-0.332	-0.327
-142.502	800.000	0.058	-0.190
-141.487	-116.213	-0.906	0.166
-140.472	-200.000	-0.092	0.728
-139.458	175.843	0.455	-0.653
-138.443	-200.000	-0.080	0.694
-137.429	-124.844	0.218	0.033
-136.414	61.962	-0.361	-0.356
-135.399	-116.384	0.887	0.162
-134.385	-200.000	-0.118	0.661
-133.370	38.740	-0.297	0.262
-132.356	-165.885	-0.840	0.036
-131.341	42.684	0.346	-0.311
-130.326	12.481	-0.667	0.509
-129.312	-61.753	0.724	0.300
-128.297	800.000	0.090	0.316
-127.283	-57.892	-0.276	-0.119
-126.268	-175.656	0.166	-0.004
-125.253	374.387	-0.356	0.717
-124.239	107.982	-0.420	0.495
-123.224	217.488	0.371	-0.584
-122.210	193.371	0.070	0.105
-121.195	215.551	-0.150	-0.236
