DTS Sentinel unit serial number:	SN413079Multiplexer serial number:	ORYXHardware model number:	OX4-SRSoftware version number:	ORYX F/W v4.00 Oryx Data Collector v3.7.2.0data status	okinstallation	princeton_trtdifferential loss correction	single-endedforward channel	channel 3reverse channel	N/Adate	2019/09/14time	02:00:34forward acquisition time	60.00reverse acquisition time	0.00gamma	496.2192k internal	0.2340k external	0.2340temperature offset calibration	1.0051default loss term (dB/km)	0.3790temperature slope calibration	1.0000multiplexer offset coefficient	1.0000multiplexer slope coefficient	1.0000fibre end	0.00T internal ref (°C)	26.50T ext. ref 1 (°C)	3.20T ext. ref 2 (°C)	21.53length (m)	temperature (°C)	Stokes	anti-Stokes-747.200	587.145	0.126	0.312
-746.185	-200.000	-0.007	-0.103
-745.171	-146.218	-0.040	-0.004
-744.156	-121.240	0.346	0.058
-743.142	354.276	0.075	0.149
-742.127	800.000	0.044	0.139
-741.112	800.000	0.058	0.208
-740.098	-106.531	-0.211	0.047
-739.083	165.037	-0.041	-0.058
-738.069	-200.000	-0.034	-0.184
-737.054	16.402	-0.150	0.119
-736.039	-82.992	-0.297	-0.096
-735.025	-9.949	0.204	-0.136
-734.010	-25.810	-0.455	-0.269
-732.996	37.644	-0.167	-0.149
-731.981	-15.448	-0.284	-0.182
-730.966	-200.000	0.016	0.152
-729.952	80.122	0.250	0.269
-728.937	525.450	0.105	-0.247
-727.923	-98.271	0.166	0.043
-726.908	2.326	-0.349	-0.253
-725.894	-27.673	-0.108	0.063
-724.879	124.043	0.097	0.122
-723.864	-200.000	-0.009	0.142
-722.850	20.229	-0.190	-0.153
-721.835	-111.576	-0.413	-0.084
-720.821	192.834	0.120	0.182
-719.806	13.988	-0.113	0.088
-718.791	-142.590	0.302	-0.030
-717.777	-108.048	0.265	0.058
-716.762	-200.000	-0.025	0.144
-715.748	-78.791	0.325	0.111
-714.733	-105.336	0.092	0.021
-713.718	-21.347	0.122	-0.074
-712.704	-65.392	0.213	0.086
-711.689	-25.409	-0.039	0.023
-710.675	53.818	0.088	-0.085
-709.660	64.637	0.106	0.107
-708.645	-200.000	0.005	-0.023
-707.631	-24.160	0.125	-0.075
-706.616	-200.000	0.009	-0.189
-705.602	-166.227	0.211	-0.009
-704.587	30.104	-0.030	-0.026
-703.572	-24.920	0.101	-0.060
-702.558	800.000	-0.093	0.386
-701.543	-200.000	-0.063	0.284
-700.529	800.000	0.039	0.163
-699.514	640.921	-0.208	-0.531
-698.499	-148.011	0.175	-0.015
-697.485	-127.556	-0.248	-0.036
-696.470	273.123	-0.035	0.062
-695.456	-134.484	-0.257	-0.031
-694.441	800.000	0.068	0.214
-693.426	-27.266	-0.207	0.121
-692.412	215.406	-0.120	-0.191
-691.397	-66.072	0.490	-0.196
-690.383	800.000	-0.058	-0.169
-689.368	346.026	0.080	0.157
-688.354	-14.350	-0.097	0.062
-687.339	-200.000	-0.028	0.133
-686.324	800.000	0.114	-0.348
-685.310	-200.000	0.020	0.153
-684.295	-200.000	-0.002	0.074
-683.281	-8.604	0.292	-0.196
-682.266	-200.000	-0.012	-0.520
-681.251	-33.762	-0.279	-0.154
-680.237	16.645	0.279	-0.221
-679.222	-3.346	0.262	0.183
-678.208	800.000	-0.087	0.283
-677.193	-54.838	-0.100	0.045
-676.178	341.106	-0.124	-0.243
-675.164	-200.000	0.031	-0.353
-674.149	-122.563	-0.196	0.032
-673.135	-42.630	0.147	-0.075
-672.120	53.710	0.135	0.130
-671.105	67.615	0.272	0.277
-670.091	139.763	0.059	-0.078
-669.076	-149.371	0.261	0.021
-668.062	559.495	-0.153	-0.370
-667.047	340.951	-0.063	-0.123
-666.032	-32.324	-0.057	0.032
-665.018	-86.857	0.079	-0.024
-664.003	56.882	0.110	0.107
-662.989	-200.000	-0.118	-0.659
-661.974	606.327	0.146	-0.364
-660.959	500.667	0.124	0.285
-659.945	-96.368	0.041	-0.011
-658.930	-86.333	-0.394	0.121
-657.916	-28.730	0.308	-0.177
-656.901	-200.000	-0.012	-0.200
-655.886	78.549	-0.158	-0.169
-654.872	-156.476	0.148	-0.009
-653.857	-135.022	-0.187	-0.023
-652.843	54.845	0.064	-0.062
-651.828	140.872	-0.133	0.175
-650.814	-7.627	-0.272	-0.184
-649.799	-200.000	0.015	0.339
-648.784	-17.677	0.234	-0.147
-647.770	-131.589	-0.292	-0.038
-646.755	-97.716	0.118	-0.030
-645.741	19.556	0.218	0.175
-644.726	-200.000	0.033	-0.204
-643.711	44.852	0.142	0.131
-642.697	-200.000	-0.013	0.290
-641.682	800.000	0.106	-0.352
-640.668	45.871	-0.201	0.186
-639.653	525.073	-0.131	0.309
-638.638	150.307	-0.051	-0.069
-637.624	326.529	0.161	-0.309
-636.609	-169.015	-0.156	-0.006
-635.595	92.867	0.186	-0.210
-634.580	479.273	0.103	-0.233
-633.565	268.550	0.106	0.185
-632.551	94.835	-0.069	0.079
-631.536	19.726	-0.167	0.134
-630.522	-62.203	0.072	-0.030
-629.507	94.751	0.072	-0.081
-628.492	-200.000	-0.002	-0.153
-627.478	-5.526	-0.178	0.122
-626.463	-98.942	-0.253	-0.064
-625.449	-16.464	-0.108	-0.068
-624.434	105.901	-0.077	0.090
-623.419	-60.720	0.158	-0.067
-622.405	-139.253	-0.262	0.028
-621.390	-117.644	-0.244	-0.044
-620.376	-118.330	0.335	-0.059
-619.361	100.459	0.057	-0.067
-618.346	-200.000	0.017	0.084
-617.332	28.990	0.165	-0.140
-616.317	-14.286	-0.155	0.099
-615.303	59.656	0.220	0.216
-614.288	-82.980	-0.301	0.097
-613.273	-200.000	-0.015	0.078
-612.259	-200.000	-0.029	-0.399
-611.244	93.615	-0.103	-0.117
-610.230	-71.507	-0.194	0.072
-609.215	-35.899	0.076	0.041
-608.201	-151.199	-0.176	0.013
-607.186	-43.784	-0.089	0.045
-606.171	55.179	-0.140	-0.135
-605.157	-20.206	-0.181	0.111
-604.142	-22.195	-0.107	0.065
-603.128	-126.246	-0.143	0.021
-602.113	-101.055	-0.054	-0.013
-601.098	-200.000	0.073	0.365
-600.084	578.156	0.087	-0.213
-599.069	800.000	-0.166	0.598
-598.055	-24.068	0.367	0.219
-597.040	-167.339	0.144	-0.006
-596.025	-121.921	-0.526	-0.086
-595.011	-92.309	0.422	0.119
-593.996	-77.074	0.070	-0.024
-592.982	300.811	0.160	0.295
-591.967	73.234	0.367	0.382
-590.952	-200.000	0.006	-0.125
-589.938	-90.413	-0.138	0.040
-588.923	255.767	0.134	-0.228
-587.909	-200.000	-0.043	-0.227
-586.894	362.206	0.052	-0.105
-585.879	49.704	0.195	-0.183
-584.865	-156.110	-0.115	-0.007
-583.850	800.000	-0.021	0.062
-582.836	-103.345	0.064	0.015
-581.821	-73.428	-0.302	0.110
-580.806	-18.149	0.111	-0.069
-579.792	-146.669	0.128	-0.011
-578.777	147.006	0.110	-0.148
-577.763	-23.805	0.312	-0.186
-576.748	-126.012	-0.296	0.044
-575.733	-6.840	-0.072	-0.049
-574.719	138.665	-0.073	0.096
-573.704	129.979	0.153	0.196
-572.690	800.000	0.079	0.223
-571.675	800.000	0.037	0.133
-570.661	-120.695	0.274	-0.046
-569.646	100.706	-0.271	-0.313
-568.631	128.432	0.126	0.160
-567.617	800.000	0.072	-0.260
-566.602	611.511	0.094	-0.234
-565.588	-96.589	-0.071	-0.019
-564.573	-78.269	-0.186	-0.064
-563.558	136.586	0.323	-0.419
-562.544	-93.199	-0.081	0.023
-561.529	9.653	-0.094	-0.071
-560.515	-195.207	0.394	-0.003
-559.500	397.709	-0.103	-0.214
-558.485	90.228	0.128	0.142
-557.471	800.000	0.082	0.311
-556.456	-142.125	0.243	-0.024
-555.442	-200.000	-0.005	0.078
-554.427	766.826	0.096	-0.259
-553.412	-9.176	-0.159	-0.106
-552.398	-200.000	-0.011	-0.188
-551.383	-172.220	0.094	-0.003
-550.369	42.596	-0.174	0.157
-549.354	-109.828	-0.147	-0.031
-548.339	526.941	-0.051	0.120
-547.325	-123.879	0.212	0.033
-546.310	408.815	0.055	0.115
-545.296	-16.009	-0.040	0.025
-544.281	-88.899	-0.226	0.067
-543.266	-58.480	0.240	-0.104
-542.252	-91.960	0.221	-0.062
-541.237	-14.288	0.232	-0.149
-540.223	4.056	-0.337	0.245
-539.208	800.000	-0.039	0.117
-538.193	800.000	-0.093	-0.329
-537.179	800.000	0.062	0.220
-536.164	137.553	0.126	-0.164
-535.150	46.846	-0.045	-0.042
-534.135	-112.025	-0.180	0.036
-533.121	377.979	-0.158	-0.322
-532.106	-73.008	-0.446	0.163
-531.091	-118.879	0.353	0.062
-530.077	-200.000	0.098	-0.444
-529.062	206.285	0.144	0.223
-528.048	-200.000	-0.005	-0.137
-527.033	605.075	0.077	0.192
-526.018	-103.220	-0.349	0.082
-525.004	158.255	-0.287	0.396
-523.989	-134.563	-0.253	0.031
-522.975	-33.586	0.301	0.165
-521.960	-54.917	-0.177	0.079
-520.945	209.837	0.174	0.271
-519.931	-149.003	-0.180	0.014
-518.916	-4.968	0.253	-0.173
-517.902	-200.000	0.022	0.102
-516.887	173.370	-0.176	-0.252
-515.872	-129.344	0.243	0.034
-514.858	-60.133	-0.057	-0.024
-513.843	-129.805	0.234	-0.032
-512.829	-200.000	0.039	-0.260
-511.814	-20.204	-0.283	0.173
-510.799	-52.079	0.184	-0.085
-509.785	-128.518	-0.298	-0.042
-508.770	106.426	-0.011	-0.013
-507.756	-200.000	0.011	0.254
-506.741	-200.000	-0.018	-0.092
-505.726	97.421	0.099	0.112
-504.712	-66.970	-0.061	0.024
-503.697	294.033	-0.209	-0.380
-502.683	-89.108	-0.256	0.075
-501.668	-200.000	-0.009	-0.131
-500.653	-57.621	-0.259	0.113
-499.639	-200.000	0.001	-0.173
-498.624	205.316	-0.061	-0.094
-497.610	97.797	-0.102	-0.116
-496.595	4.845	0.353	0.258
-495.581	-131.568	-0.035	-0.005
-494.566	87.086	-0.154	-0.169
-493.551	94.926	0.149	-0.168
-492.537	-200.000	0.013	0.115
-491.522	8.754	0.231	-0.173
-490.508	-43.387	-0.259	-0.130
-489.493	-143.033	0.428	0.041
-488.478	-200.000	-0.014	-0.211
-487.464	137.784	-0.129	0.168
-486.449	-200.000	0.016	0.137
-485.435	182.261	0.115	0.168
-484.420	70.717	-0.104	-0.106
-483.405	-103.213	0.249	-0.058
-482.391	800.000	-0.035	-0.147
-481.376	29.244	-0.330	-0.278
-480.362	65.541	0.094	0.095
-479.347	-24.203	-0.106	0.063
-478.332	158.648	-0.022	-0.030
-477.318	-200.000	0.015	-0.412
-476.303	-118.962	-0.268	-0.047
-475.289	-103.258	-0.313	-0.073
-474.274	-200.000	-0.053	-0.235
-473.259	100.036	0.133	-0.153
-472.245	242.499	-0.254	-0.422
-471.230	407.071	0.169	-0.353
-470.216	-87.839	0.271	-0.081
-469.201	-85.964	0.379	0.116
-468.186	290.056	0.038	-0.069
-467.172	800.000	-0.104	-0.441
-466.157	5.138	0.124	-0.091
-465.143	-200.000	-0.003	0.033
-464.128	-12.995	0.197	-0.127
-463.113	324.248	-0.150	0.285
-462.099	-161.346	0.227	0.012
-461.084	265.588	0.011	-0.019
-460.070	336.920	-0.177	0.341
-459.055	-45.881	-0.269	0.132
-458.040	26.305	-0.374	-0.310
-457.026	562.959	0.109	-0.262
-456.011	-200.000	-0.015	0.090
-454.997	800.000	0.062	-0.187
-453.982	284.267	0.075	0.134
-452.968	529.467	-0.181	0.423
-451.953	396.868	0.090	0.187
-450.938	800.000	-0.029	-0.082
-449.924	-160.909	-0.046	-0.002
-448.909	-200.000	-0.025	0.378
-447.895	438.846	-0.048	-0.104
-446.880	79.469	0.341	-0.363
-445.865	22.972	0.059	0.048
-444.851	-200.000	0.044	0.212
-443.836	-121.829	0.067	0.011
-442.822	54.286	-0.165	0.158
-441.807	123.045	0.097	0.120
-440.792	-187.412	-0.122	-0.002
-439.778	-38.519	0.252	0.132
-438.763	30.129	0.344	-0.291
-437.749	113.014	-0.025	0.030
-436.734	-49.729	-0.366	0.172
-435.719	800.000	-0.087	0.349
-434.705	504.052	0.029	0.067
-433.690	-11.720	-0.254	0.165
-432.676	800.000	-0.084	-0.268
-431.661	254.702	0.072	-0.121
-430.646	-149.303	0.176	-0.014
-429.632	-38.355	-0.178	-0.093
-428.617	227.770	-0.142	0.228
-427.603	-200.000	0.013	-0.070
-426.588	225.148	-0.129	-0.207
-425.573	-95.247	-0.144	-0.038
-424.559	36.990	0.129	0.113
-423.544	-36.793	-0.214	0.114
-422.530	800.000	0.056	-0.243
-421.515	-1.608	-0.052	-0.036
-420.500	-81.824	-0.326	-0.106
-419.486	102.762	-0.122	-0.142
-418.471	-142.330	0.487	-0.048
-417.457	14.854	-0.401	0.310
-416.442	800.000	0.075	0.311
-415.428	399.626	-0.061	-0.127
-414.413	-65.539	-0.218	0.087
-413.398	-131.182	-0.226	-0.030
-412.384	93.525	0.226	0.253
-411.369	94.205	-0.078	-0.088
-410.355	-60.214	0.147	-0.062
-409.340	104.878	0.122	0.142
-408.325	-176.509	-0.272	-0.007
-407.311	-200.000	0.047	-0.211
-406.296	41.755	0.290	0.260
-405.282	-78.021	0.067	-0.023
-404.267	-200.000	0.003	-0.034
-403.252	-17.788	-0.065	-0.040
-402.238	82.028	0.159	0.171
-401.223	-153.555	0.452	-0.031
-400.209	-176.727	0.211	-0.005
-399.194	481.381	-0.136	-0.305
-398.179	91.908	0.282	0.314
-397.165	-89.049	-0.267	0.078
-396.150	-200.000	-0.025	0.166
-395.136	-85.491	0.136	-0.042
-394.121	800.000	-0.058	-0.240
-393.106	278.594	-0.028	0.049
-392.092	10.816	0.201	0.152
-391.077	65.953	0.130	-0.130
-390.063	-49.020	0.261	0.123
-389.048	-200.000	0.009	-0.344
-388.033	80.703	-0.141	-0.150
-387.019	-200.000	-0.054	-0.272
-386.004	-94.291	-0.351	0.095
-384.990	-24.892	0.184	0.108
-383.975	12.911	-0.158	-0.121
-382.960	-200.000	0.047	0.246
-381.946	188.486	-0.239	0.353
-380.931	-200.000	-0.061	0.276
-379.917	-50.851	0.108	0.050
-378.902	-77.781	-0.220	0.075
-377.888	251.926	-0.061	-0.102
-376.873	-200.000	-0.032	0.175
-375.858	7.577	0.221	0.163
-374.844	-161.934	0.314	0.016
-373.829	264.016	0.105	0.181
-372.815	124.612	0.098	0.122
-371.800	-200.000	-0.048	-0.359
-370.785	-189.206	0.269	-0.003
-369.771	-104.290	-0.096	0.022
-368.756	181.026	-0.079	0.115
-367.742	-200.000	0.049	-0.235
-366.727	800.000	-0.016	0.066
-365.712	-5.297	-0.220	0.149
-364.698	120.255	-0.061	-0.075
-363.683	-85.956	0.134	0.041
-362.669	-200.000	0.006	-0.132
-361.654	-147.275	0.364	0.031
-360.639	800.000	-0.031	-0.099
-359.625	12.506	-0.215	-0.163
-358.610	-113.464	0.092	-0.018
-357.596	45.367	-0.126	0.115
-356.581	-107.554	-0.455	-0.098
-355.566	27.819	0.140	0.116
-354.552	232.873	0.150	0.243
-353.537	37.880	0.141	-0.124
-352.523	-200.000	0.000	0.219
-351.508	-99.467	-0.119	-0.029
-350.493	612.324	-0.087	0.215
-349.479	-68.881	-0.284	-0.108
-348.464	-40.696	-0.085	-0.043
-347.450	-68.644	-0.264	0.101
-346.435	105.174	0.152	0.177
-345.420	97.320	0.112	-0.127
-344.406	116.971	0.068	-0.083
-343.391	178.683	-0.073	-0.105
-342.377	452.593	0.082	0.179
-341.362	-128.311	0.039	-0.005
-340.348	-54.862	0.109	-0.048
-339.333	191.814	-0.066	0.098
-338.318	-200.000	0.050	-0.278
-337.304	-200.000	0.020	-0.180
-336.289	-151.986	0.133	0.010
-335.275	67.632	-0.196	0.198
-334.260	-200.000	0.016	-0.326
-333.245	-200.000	-0.036	-0.230
-332.231	-44.926	-0.287	0.141
-331.216	-200.000	-0.013	-0.089
-330.202	48.400	0.073	-0.067
-329.187	-161.068	0.347	-0.018
-328.172	-13.411	0.271	0.173
-327.158	562.080	-0.094	-0.225
-326.143	-35.770	-0.173	0.092
-325.129	440.633	0.140	0.302
-324.114	397.343	-0.045	-0.093
-323.099	800.000	-0.077	-0.229
-322.085	68.384	0.146	-0.148
-321.070	50.654	0.208	-0.195
-320.056	-200.000	-0.019	-0.124
-319.041	-200.000	0.046	0.378
-318.026	133.629	-0.086	-0.110
-317.012	231.489	0.111	-0.179
-315.997	-81.755	0.101	0.033
-314.983	-70.254	0.062	0.023
-313.968	635.838	-0.089	-0.222
-312.953	197.379	-0.194	-0.292
-311.939	55.773	-0.256	0.244
-310.924	352.051	-0.167	0.327
-309.910	-147.410	0.086	-0.007
-308.895	-173.495	-0.099	-0.003
-307.880	-200.000	0.024	-0.202
-306.866	122.518	-0.087	-0.107
-305.851	465.638	-0.059	0.130
-304.837	192.758	-0.134	-0.199
-303.822	-142.443	-0.424	-0.041
-302.807	502.527	0.052	0.118
-301.793	-131.550	-0.093	-0.012
-300.778	-96.724	-0.193	-0.050
-299.764	-132.591	0.296	-0.037
-298.749	-73.093	-0.053	-0.019
-297.735	316.256	-0.210	0.391
-296.720	-200.000	-0.004	-0.086
-295.705	-49.219	-0.177	0.083
-294.691	-80.122	-0.120	-0.040
-293.676	73.027	0.164	-0.169
-292.662	-136.091	-0.094	0.011
-291.647	59.608	-0.062	-0.061
-290.632	-71.543	-0.135	-0.050
-289.618	-98.447	-0.339	-0.085
-288.603	-56.454	0.304	-0.133
-287.589	800.000	0.051	-0.161
-286.574	-29.488	-0.133	-0.075
-285.559	-92.085	-0.165	-0.046
-284.545	-200.000	-0.001	-0.199
-283.530	-118.624	0.124	0.022
-282.516	-200.000	-0.006	-0.112
-281.501	-44.833	-0.161	-0.079
-280.486	-200.000	-0.008	0.168
-279.472	-128.076	-0.132	-0.019
-278.457	-200.000	0.045	0.370
-277.443	-156.356	-0.148	0.009
-276.428	-63.806	0.206	-0.083
-275.413	129.448	0.132	0.166
-274.399	-85.201	-0.210	-0.065
-273.384	-131.978	0.128	0.016
-272.370	800.000	0.057	0.174
-271.355	-200.000	0.001	0.341
-270.340	-91.742	0.240	0.067
-269.326	-113.117	0.132	-0.026
-268.311	-121.909	0.087	-0.014
-267.297	64.331	0.117	0.116
-266.282	800.000	-0.086	0.328
-265.267	143.354	0.014	0.019
-264.253	597.575	0.075	-0.182
-263.238	-200.000	0.002	0.110
-262.224	-200.000	0.019	0.218
-261.209	143.015	-0.215	-0.281
-260.195	-72.423	0.043	0.016
-259.180	-56.664	-0.199	0.087
-258.165	161.141	-0.086	-0.119
-257.151	-101.008	0.374	-0.090
-256.136	-200.000	-0.066	-0.427
-255.122	29.673	-0.169	-0.141
-254.107	244.068	0.085	0.140
-253.092	-49.505	-0.203	-0.095
-252.078	256.564	0.092	0.156
-251.063	9.985	-0.109	0.082
-250.049	-200.000	-0.011	-0.117
-249.034	674.336	0.129	0.328
-248.019	145.394	0.074	0.097
-247.005	176.474	0.041	-0.059
-245.990	-47.136	-0.190	0.091
-244.976	-200.000	0.021	-0.165
-243.961	453.434	-0.115	-0.251
-242.946	-109.659	0.167	0.035
-241.932	-200.000	0.006	0.070
-240.917	32.770	-0.154	-0.131
-239.903	-78.231	-0.076	0.026
-238.888	165.351	0.075	-0.105
-237.873	-177.086	-0.121	0.003
-236.859	-127.687	-0.148	-0.021
-235.844	-143.944	-0.154	0.014
-234.830	-67.723	-0.143	0.055
-233.815	64.998	0.094	-0.093
-232.800	-111.631	0.180	0.036
-231.786	178.080	0.077	-0.110
-230.771	197.692	0.188	-0.282
-229.757	30.071	0.147	-0.123
-228.742	-200.000	0.028	0.229
-227.727	-113.938	-0.330	-0.063
-226.713	335.183	0.144	0.274
-225.698	57.185	0.216	0.207
-224.684	800.000	0.031	0.094
-223.669	181.548	0.079	0.115
-222.655	-200.000	0.005	-0.072
-221.640	-200.000	0.084	-0.415
-220.625	-200.000	0.035	-0.169
-219.611	-23.384	0.061	-0.036
-218.596	-13.071	-0.169	-0.108
-217.582	-67.085	0.223	0.086
-216.567	136.722	-0.148	0.189
-215.552	-200.000	0.004	0.235
-214.538	485.588	-0.120	-0.268
-213.523	7.465	-0.071	0.052
-212.509	605.390	0.025	0.061
-211.494	800.000	0.035	-0.104
-210.479	-116.027	0.241	-0.044
-209.465	-149.001	0.223	-0.018
-208.450	-34.475	-0.334	0.180
-207.436	-114.392	0.038	0.007
-206.421	-200.000	0.025	0.386
-205.406	-200.000	-0.048	-0.222
-204.392	-40.319	0.105	-0.053
-203.377	800.000	-0.037	-0.155
-202.363	800.000	-0.098	-0.317
-201.348	-12.584	-0.277	0.177
-200.333	361.683	0.111	0.219
-199.319	21.935	0.277	0.221
-198.304	-14.605	0.153	0.096
-197.290	-200.000	0.044	-0.210
-196.275	4.714	0.312	0.225
-195.260	800.000	-0.053	0.172
-194.246	-130.901	0.090	-0.012
-193.231	62.374	-0.092	-0.090
-192.217	-22.496	0.128	0.076
-191.202	-120.188	0.047	0.008
-190.187	800.000	-0.049	0.191
-189.173	-67.105	0.086	-0.033
-188.158	-130.476	0.423	0.056
-187.144	180.167	0.072	-0.104
-186.129	750.291	0.095	-0.251
-185.114	5.597	-0.211	0.153
-184.100	376.412	0.017	0.034
-183.085	-200.000	-0.040	-0.256
-182.071	137.672	-0.052	-0.066
-181.056	59.683	0.053	0.051
-180.042	-57.901	0.263	-0.113
-179.027	-119.392	-0.320	-0.055
-178.012	92.210	0.184	0.203
-176.998	-81.659	0.181	-0.058
-175.983	-19.193	-0.152	0.092
-174.969	77.906	0.218	0.228
-173.954	-98.758	0.322	0.080
-172.939	-72.047	-0.205	-0.075
-171.925	58.616	0.057	-0.055
-170.910	159.521	-0.079	-0.108
-169.896	-200.000	-0.020	0.107
-168.881	800.000	-0.120	0.354
-167.866	-131.846	0.370	0.047
-166.852	-17.265	-0.201	-0.124
-165.837	281.812	0.016	0.028
-164.823	-200.000	-0.004	0.108
-163.808	520.320	0.162	0.372
-162.793	341.091	-0.028	-0.053
-161.779	15.896	-0.057	0.044
-160.764	-8.800	0.064	-0.042
-159.750	800.000	0.085	-0.237
-158.735	52.303	-0.138	-0.129
-157.720	-127.169	-0.061	0.009
-156.706	-200.000	0.026	0.177
-155.691	-23.906	0.067	0.039
-154.677	422.959	0.040	0.084
-153.662	271.928	-0.123	0.213
-152.647	800.000	0.077	0.226
-151.633	-35.601	-0.141	0.075
-150.618	800.000	-0.044	0.132
-149.604	800.000	-0.083	0.231
-148.589	521.570	-0.087	0.201
-147.574	-157.944	-0.169	0.010
-146.560	-22.406	0.022	-0.013
-145.545	587.857	-0.114	-0.275
-144.531	-147.752	-0.473	-0.039
-143.516	-177.348	0.616	-0.015
-142.502	-88.154	-0.115	-0.034
-141.487	76.362	0.154	0.160
-140.472	-76.963	0.368	0.126
-139.458	-12.619	0.121	0.077
-138.443	429.057	0.042	0.089
-137.429	23.304	-0.081	-0.065
-136.414	784.711	0.033	-0.089
-135.399	1.150	0.351	-0.247
-134.385	49.563	-0.014	0.013
-133.370	-2.368	-0.182	-0.125
-132.356	800.000	0.188	0.540
-131.341	-200.000	-0.027	-0.208
-130.326	9.842	0.078	0.058
-129.312	211.223	0.126	-0.194
-128.297	-200.000	0.031	-0.151
-127.283	251.244	-0.191	0.317
-126.268	36.471	-0.252	-0.217
-125.253	340.796	-0.080	-0.154
-124.239	283.430	0.090	-0.159
-123.224	184.469	-0.188	0.273
-122.210	48.093	0.161	0.147
-121.195	-56.943	-0.220	-0.095
