DTS Sentinel unit serial number:	SN413079Multiplexer serial number:	ORYXHardware model number:	OX4-SRSoftware version number:	ORYX F/W v4.00 Oryx Data Collector v3.7.2.0data status	okinstallation	princeton_trtdifferential loss correction	single-endedforward channel	channel 3reverse channel	N/Adate	2019/09/12time	06:58:11forward acquisition time	60.00reverse acquisition time	0.00gamma	496.2192k internal	0.2320k external	0.2320temperature offset calibration	1.0033default loss term (dB/km)	0.3790temperature slope calibration	1.0000multiplexer offset coefficient	1.0000multiplexer slope coefficient	1.0000fibre end	0.00T internal ref (°C)	32.14T ext. ref 1 (°C)	1.57T ext. ref 2 (°C)	27.34length (m)	temperature (°C)	Stokes	anti-Stokes-747.200	-200.000	-0.019	0.368
-746.185	-200.000	-0.034	0.310
-745.171	-200.000	0.033	0.239
-744.156	164.892	0.134	-0.191
-743.142	800.000	-0.057	0.250
-742.127	-83.504	-0.276	-0.089
-741.112	-12.320	-0.163	-0.108
-740.098	365.960	-0.131	0.268
-739.083	-77.278	0.386	0.136
-738.069	-86.706	0.340	-0.105
-737.054	-54.242	-0.205	-0.094
-736.039	-83.255	0.162	-0.053
-735.025	800.000	0.085	0.359
-734.010	146.918	-0.152	-0.207
-732.996	112.323	-0.174	-0.212
-731.981	-200.000	-0.060	-0.277
-730.966	-14.686	0.127	0.083
-729.952	-200.000	0.003	-0.294
-728.937	80.644	-0.211	0.229
-727.923	141.356	-0.073	0.097
-726.908	142.832	0.061	0.081
-725.894	-71.786	-0.179	0.068
-724.879	776.852	0.136	-0.374
-723.864	214.320	-0.068	-0.109
-722.850	-0.935	-0.157	-0.112
-721.835	-16.385	-0.170	-0.109
-720.821	438.001	0.025	-0.055
-719.806	-68.754	-0.358	-0.140
-718.791	-72.622	-0.062	-0.023
-717.777	758.022	-0.072	0.196
-716.762	-33.268	-0.147	0.082
-715.748	-52.551	-0.050	-0.023
-714.733	403.245	-0.017	0.035
-713.718	-75.924	-0.131	0.047
-712.704	-82.073	-0.094	0.031
-711.689	-82.714	0.200	-0.065
-710.675	100.776	-0.045	0.053
-709.660	-104.347	0.123	-0.029
-708.645	-200.000	0.022	-0.124
-707.631	-118.171	0.267	0.048
-706.616	-60.676	0.261	-0.112
-705.602	-62.891	-0.401	-0.167
-704.587	-156.872	-0.145	0.009
-703.572	-200.000	0.006	-0.065
-702.558	204.353	0.093	-0.145
-701.543	-200.000	-0.035	-0.205
-700.529	-200.000	0.005	-0.024
-699.514	-200.000	0.327	0.001
-698.499	-200.000	0.035	0.212
-697.485	60.110	0.147	0.147
-696.470	-200.000	-0.013	-0.251
-695.456	-134.784	0.402	-0.049
-694.441	506.734	0.174	-0.406
-693.426	-35.433	0.197	0.108
-692.412	800.000	-0.059	0.198
-691.397	-44.056	0.217	-0.110
-690.383	-102.903	0.216	-0.052
-689.368	64.458	0.245	-0.249
-688.354	-66.447	0.224	-0.090
-687.339	800.000	-0.092	-0.326
-686.324	35.913	-0.172	0.153
-685.310	396.579	0.138	-0.291
-684.295	617.405	-0.043	-0.108
-683.281	-54.466	-0.286	0.131
-682.266	-15.662	0.167	0.107
-681.251	-200.000	-0.059	0.314
-680.237	-109.015	-0.285	0.061
-679.222	-187.327	0.126	0.002
-678.208	-91.778	0.384	-0.110
-677.193	-52.595	-0.142	0.066
-676.178	243.030	0.011	-0.019
-675.164	800.000	-0.029	-0.094
-674.149	-18.726	-0.212	-0.133
-673.135	66.922	-0.100	0.102
-672.120	661.474	0.061	0.157
-671.105	-84.095	0.196	-0.063
-670.091	-86.020	0.096	-0.030
-669.076	800.000	0.066	0.213
-668.062	72.121	0.264	0.277
-667.047	87.515	0.185	-0.206
-666.032	-200.000	-0.012	-0.276
-665.018	7.416	0.405	-0.305
-664.003	-36.129	-0.400	-0.218
-662.989	29.484	-0.171	0.147
-661.974	3.965	0.102	0.075
-660.959	800.000	0.107	-0.349
-659.945	-200.000	-0.082	-0.422
-658.930	158.506	0.089	0.124
-657.916	76.865	-0.163	0.174
-656.901	3.696	-0.428	-0.315
-655.886	-115.983	-0.280	0.053
-654.872	-103.669	-0.234	-0.055
-653.857	-200.000	0.062	-0.365
-652.843	4.126	0.080	-0.059
-651.828	-127.050	-0.121	0.018
-650.814	-50.782	0.159	-0.075
-649.799	800.000	-0.011	-0.038
-648.784	81.920	0.222	-0.242
-647.770	-38.037	-0.289	-0.154
-646.755	754.600	-0.053	-0.146
-645.741	-2.330	0.134	-0.095
-644.726	-200.000	-0.008	0.058
-643.711	-128.890	0.110	0.016
-642.697	90.567	-0.118	-0.134
-641.682	-100.598	0.300	-0.075
-640.668	-200.000	-0.012	0.361
-639.653	-200.000	-0.028	-0.125
-638.638	190.806	0.160	-0.242
-637.624	-158.857	-0.205	-0.012
-636.609	246.228	-0.066	-0.112
-635.595	-110.565	-0.295	-0.062
-634.580	102.234	0.089	-0.105
-633.565	94.025	-0.171	-0.195
-632.551	800.000	-0.089	-0.249
-631.536	-200.000	-0.054	-0.242
-630.522	174.441	0.065	0.095
-629.507	800.000	0.053	0.222
-628.492	-200.000	0.023	-0.158
-627.478	16.292	0.070	0.056
-626.463	373.122	-0.139	0.285
-625.449	-55.318	0.436	0.197
-624.434	-200.000	-0.032	-0.217
-623.419	-200.000	-0.000	0.111
-622.405	-20.419	0.290	-0.179
-621.390	800.000	-0.030	-0.093
-620.376	-200.000	0.016	-0.111
-619.361	130.759	0.201	0.259
-618.346	257.627	-0.027	-0.046
-617.332	-100.926	0.023	-0.006
-616.317	161.384	0.230	0.324
-615.303	-145.952	0.222	0.020
-614.288	606.602	-0.094	-0.236
-613.273	-176.455	0.391	0.010
-612.259	56.803	-0.072	-0.071
-611.244	-11.620	0.267	-0.176
-610.230	-45.452	-0.123	0.061
-609.215	-200.000	-0.037	-0.294
-608.201	-107.672	-0.118	0.026
-607.186	-8.239	0.084	-0.057
-606.171	800.000	-0.122	-0.495
-605.157	-104.849	-0.224	-0.052
-604.142	245.932	0.198	0.335
-603.128	-123.044	-0.214	0.035
-602.113	-200.000	-0.000	-0.013
-601.098	39.508	-0.053	-0.048
-600.084	191.809	0.095	-0.144
-599.069	144.752	-0.200	-0.269
-598.055	-200.000	-0.020	-0.116
-597.040	26.756	-0.058	0.048
-596.025	55.173	-0.199	0.194
-595.011	-31.775	0.160	-0.090
-593.996	690.225	0.085	-0.224
-592.982	13.348	0.103	-0.081
-591.967	-200.000	0.021	-0.178
-590.952	-81.676	0.207	0.068
-589.938	301.096	0.137	-0.254
-588.923	163.963	0.229	-0.324
-587.909	4.012	0.343	-0.252
-586.894	380.703	-0.138	-0.285
-585.879	-32.008	0.223	0.126
-584.865	-54.101	0.256	-0.117
-583.850	244.732	0.053	-0.089
-582.836	-27.277	-0.071	-0.042
-581.821	17.684	0.266	-0.213
-580.806	800.000	-0.072	0.279
-579.792	177.431	-0.122	0.179
-578.777	-140.173	-0.099	0.010
-577.763	-62.561	-0.088	0.037
-576.748	12.584	-0.450	-0.349
-575.733	113.535	-0.198	-0.242
-574.719	250.350	-0.131	-0.223
-573.704	71.852	-0.120	-0.125
-572.690	-101.737	-0.261	0.064
-571.675	-150.142	0.107	-0.008
-570.661	488.076	0.043	-0.100
-569.646	-9.646	0.126	-0.084
-568.631	-50.349	-0.098	0.046
-567.617	-200.000	-0.011	-0.082
-566.602	-200.000	0.014	-0.068
-565.588	233.886	0.164	-0.270
-564.573	-200.000	-0.027	0.319
-563.558	242.559	-0.117	0.197
-562.544	-131.416	0.093	0.012
-561.529	97.997	0.097	-0.112
-560.515	203.085	-0.110	-0.171
-559.500	-200.000	-0.056	-0.388
-558.485	-200.000	0.002	-0.057
-557.471	-146.910	-0.210	-0.018
-556.456	-200.000	0.091	-0.557
-555.442	15.690	0.103	-0.081
-554.427	163.283	-0.285	-0.402
-553.412	-59.727	-0.534	-0.229
-552.398	-99.210	-0.098	0.025
-551.383	91.419	-0.336	0.379
-550.369	-186.326	0.313	0.005
-549.354	-110.250	-0.275	-0.057
-548.339	-68.879	-0.058	0.022
-547.325	-200.000	-0.011	-0.071
-546.310	800.000	0.080	0.243
-545.296	-110.722	-0.204	0.042
-544.281	-79.562	0.070	0.024
-543.266	-61.688	-0.213	0.090
-542.252	-85.152	0.287	-0.090
-541.237	51.801	-0.114	0.109
-540.223	-140.679	-0.142	0.015
-539.208	20.676	-0.081	-0.066
-538.193	81.416	-0.106	-0.115
-537.179	-69.712	-0.197	-0.076
-536.164	466.415	0.074	-0.167
-535.150	-200.000	0.001	0.027
-534.135	-84.500	0.045	0.014
-533.121	600.577	0.050	-0.124
-532.106	-200.000	-0.061	0.548
-531.091	-88.230	0.422	0.127
-530.077	55.436	-0.293	0.284
-529.062	489.203	-0.049	-0.112
-528.048	-200.000	-0.012	0.104
-527.033	370.741	0.082	0.166
-526.018	-111.065	-0.304	0.063
-525.004	800.000	0.063	0.184
-523.989	221.796	0.068	-0.109
-522.975	508.461	0.089	0.207
-521.960	-103.735	-0.425	0.100
-520.945	293.065	-0.041	-0.075
-519.931	-130.578	-0.185	0.025
-518.916	-61.954	-0.149	-0.062
-517.902	162.641	0.158	0.222
-516.887	26.141	-0.152	-0.128
-515.872	-200.000	0.054	-0.326
-514.858	-200.000	0.005	-0.434
-513.843	417.824	0.112	0.241
-512.829	15.840	-0.328	-0.259
-511.814	-200.000	-0.138	0.000
-510.799	156.052	-0.166	0.229
-509.785	95.312	0.191	0.218
-508.770	-114.123	-0.120	-0.023
-507.756	-148.896	-0.232	0.019
-506.741	465.894	-0.093	0.208
-505.726	-40.381	0.108	0.056
-504.712	462.000	-0.135	-0.301
-503.697	37.057	0.275	0.244
-502.683	78.311	0.087	-0.093
-501.668	136.059	-0.188	-0.246
-500.653	73.473	-0.049	-0.052
-499.639	54.890	-0.200	-0.193
-498.624	-29.448	0.180	0.103
-497.610	14.822	-0.290	-0.227
-496.595	22.866	0.094	0.077
-495.581	-200.000	0.011	-0.051
-494.566	-138.129	-0.278	-0.031
-493.551	36.357	0.149	-0.132
-492.537	800.000	-0.033	0.097
-491.522	-200.000	0.014	-0.075
-490.508	-100.566	-0.120	0.030
-489.493	119.831	-0.102	-0.127
-488.478	-125.170	-0.201	-0.031
-487.464	-200.000	-0.032	-0.207
-486.449	127.235	0.177	0.225
-485.435	-141.844	-0.408	0.041
-484.420	800.000	-0.034	-0.130
-483.405	-200.000	0.029	-0.335
-482.391	532.660	0.136	0.322
-481.376	326.677	0.081	0.154
-480.362	-39.375	-0.207	0.108
-479.347	256.811	-0.107	0.184
-478.332	-109.870	-0.433	0.091
-477.318	-7.813	0.221	0.149
-476.303	117.275	0.186	0.229
-475.289	-184.827	-0.097	-0.002
-474.274	203.423	0.177	0.274
-473.259	419.118	-0.131	0.282
-472.245	-179.854	-0.156	0.003
-471.230	-2.151	-0.075	0.053
-470.216	31.287	-0.079	0.068
-469.201	-200.000	0.011	-0.088
-468.186	-61.939	-0.195	-0.082
-467.172	-35.829	-0.213	-0.116
-466.157	103.354	0.108	-0.127
-465.143	-200.000	-0.041	-0.272
-464.128	237.939	0.258	-0.428
-463.113	800.000	-0.087	-0.342
-462.099	79.011	-0.121	-0.130
-461.084	-200.000	-0.002	-0.280
-460.070	164.025	0.144	0.203
-459.055	48.287	0.277	-0.259
-458.040	4.481	-0.164	0.120
-457.026	-52.072	-0.201	0.093
-456.011	-48.456	0.318	-0.153
-454.997	-174.589	0.267	-0.008
-453.982	-147.268	-0.196	0.017
-452.968	-143.705	-0.081	0.008
-451.953	800.000	-0.037	0.144
-450.938	-155.932	-0.200	0.013
-449.924	-162.356	0.354	0.018
-448.909	323.912	-0.103	-0.197
-447.895	800.000	0.064	0.217
-446.880	-141.928	-0.265	0.026
-445.865	119.386	-0.065	0.081
-444.851	15.949	0.136	0.107
-443.836	800.000	-0.097	0.405
-442.822	-78.447	-0.165	-0.056
-441.807	-200.000	-0.017	-0.157
-440.792	354.601	-0.101	-0.201
-439.778	110.877	-0.123	-0.148
-438.763	60.470	-0.142	0.141
-437.749	1.782	0.262	0.189
-436.734	-200.000	-0.058	0.389
-435.719	-200.000	-0.045	-0.396
-434.705	273.580	0.184	0.325
-433.690	-188.350	-0.229	-0.003
-432.676	-55.699	-0.112	0.050
-431.661	148.043	-0.070	0.095
-430.646	-200.000	0.001	-0.253
-429.632	-90.202	-0.057	0.017
-428.617	405.175	0.098	0.207
-427.603	800.000	0.065	-0.285
-426.588	86.798	0.136	-0.150
-425.573	-115.849	0.085	-0.016
-424.559	-122.850	-0.281	-0.045
-423.544	108.644	-0.166	-0.198
-422.530	106.649	-0.121	-0.143
-421.515	-64.440	-0.095	0.038
-420.500	29.545	-0.117	0.100
-419.486	-200.000	-0.025	-0.350
-418.471	-4.800	-0.119	-0.082
-417.457	-200.000	0.079	-0.432
-416.442	-94.657	-0.417	-0.113
-415.428	800.000	0.069	-0.198
-414.413	-15.133	0.246	-0.157
-413.398	538.246	-0.083	0.196
-412.384	614.291	-0.025	0.063
-411.369	-97.322	-0.108	-0.028
-410.355	553.517	0.088	0.212
-409.340	-113.752	-0.107	-0.021
-408.325	45.301	0.384	0.353
-407.311	285.650	-0.084	-0.152
-406.296	-83.036	-0.029	0.009
-405.282	86.932	0.174	0.192
-404.267	-90.122	-0.216	0.063
-403.252	-92.369	0.141	0.040
-402.238	-128.990	-0.324	-0.045
-401.223	438.725	-0.025	0.054
-400.209	-200.000	-0.016	-0.275
-399.194	-200.000	0.013	-0.393
-398.179	-127.026	0.346	-0.051
-397.165	800.000	-0.040	0.163
-396.150	-107.634	-0.397	-0.087
-395.136	223.598	0.030	-0.049
-394.121	800.000	0.050	0.220
-393.106	-106.101	0.103	-0.023
-392.092	373.258	0.127	0.258
-391.077	800.000	0.038	0.129
-390.063	68.371	0.068	-0.070
-389.048	111.573	0.119	0.143
-388.033	411.964	0.073	0.155
-387.019	-6.597	0.370	0.251
-386.004	56.495	-0.086	-0.083
-384.990	190.416	0.112	0.167
-383.975	-200.000	0.007	-0.061
-382.960	152.907	0.258	0.352
-381.946	-90.525	-0.123	-0.036
-380.931	242.705	-0.035	0.058
-379.917	800.000	-0.082	0.233
-378.902	800.000	0.087	-0.266
-377.888	-200.000	-0.037	0.169
-376.873	17.409	0.202	-0.160
-375.858	-200.000	0.043	0.208
-374.844	83.203	0.142	-0.155
-373.829	-200.000	-0.007	0.084
-372.815	-200.000	-0.003	-0.188
-371.800	-200.000	0.026	0.263
-370.785	-200.000	-0.013	-0.154
-369.771	90.796	-0.051	-0.057
-368.756	-67.880	0.453	0.176
-367.742	-6.531	-0.468	0.318
-366.727	-200.000	0.033	0.164
-365.712	-72.662	0.122	-0.045
-364.698	1.461	0.197	-0.141
-363.683	-200.000	-0.021	-0.202
-362.669	800.000	-0.027	0.077
-361.654	27.978	-0.115	0.097
-360.639	138.261	-0.053	0.070
-359.625	-77.904	0.132	0.045
-358.610	-14.756	-0.203	0.130
-357.596	394.332	0.089	0.185
-356.581	11.516	-0.117	-0.089
-355.566	-46.247	-0.203	0.099
-354.552	-200.000	-0.001	0.166
-353.537	255.992	-0.092	0.157
-352.523	-108.205	-0.170	0.037
-351.508	-21.344	0.254	0.154
-350.493	800.000	-0.047	-0.195
-349.479	118.145	-0.221	-0.272
-348.464	-146.483	0.300	0.026
-347.450	-183.725	-0.134	-0.002
-346.435	-200.000	0.007	-0.084
-345.420	118.380	0.158	0.194
-344.406	714.961	0.059	0.156
-343.391	-38.457	0.399	0.210
-342.377	-118.333	0.124	-0.022
-341.362	131.420	-0.066	0.085
-340.348	-46.267	-0.102	-0.050
-339.333	-11.123	0.099	0.065
-338.318	-112.517	-0.186	0.037
-337.304	-200.000	-0.033	0.184
-336.289	-134.291	0.196	-0.024
-335.275	800.000	-0.040	0.131
-334.260	400.749	-0.075	-0.157
-333.245	-57.015	-0.238	-0.105
-332.231	-42.962	0.050	0.025
-331.216	-92.393	0.236	0.066
-330.202	91.574	-0.085	-0.095
-329.187	139.597	0.196	0.257
-328.172	131.304	-0.230	0.294
-327.158	-142.750	-0.372	-0.036
-326.143	197.159	-0.239	0.363
-325.129	800.000	-0.045	0.132
-324.114	-200.000	-0.010	-0.095
-323.099	321.913	-0.022	0.042
-322.085	-75.565	-0.306	-0.108
-321.070	230.421	0.026	0.043
-320.056	609.054	-0.096	0.238
-319.041	187.212	-0.097	0.144
-318.026	-200.000	0.036	0.239
-317.012	800.000	-0.030	-0.112
-315.997	99.398	-0.116	0.133
-314.983	-2.519	0.218	-0.152
-313.968	130.988	0.100	0.127
-312.953	-124.099	-0.152	0.024
-311.939	800.000	0.075	0.292
-310.924	-68.148	0.197	0.076
-309.910	50.615	-0.080	0.075
-308.895	152.457	0.037	-0.051
-307.880	-105.362	0.517	0.117
-306.866	-41.002	0.105	-0.054
-305.851	33.633	0.209	-0.180
-304.837	-200.000	0.012	-0.083
-303.822	330.520	0.143	0.275
-302.807	44.842	0.067	0.061
-301.793	800.000	0.096	0.310
-300.778	170.631	0.086	0.122
-299.764	18.069	-0.245	0.194
-298.749	298.053	0.142	0.259
-297.735	53.491	0.330	-0.314
-296.720	-200.000	-0.032	-0.323
-295.705	-45.519	-0.147	-0.072
-294.691	-29.677	0.106	-0.060
-293.676	800.000	-0.054	-0.230
-292.662	-159.104	-0.239	-0.013
-291.647	105.705	-0.352	0.414
-290.632	166.314	-0.062	0.087
-289.618	800.000	-0.025	0.084
-288.603	-58.143	-0.101	0.044
-287.589	-145.649	0.191	-0.017
-286.574	30.476	-0.114	-0.097
-285.559	-200.000	0.004	0.063
-284.545	-200.000	0.025	-0.127
-283.530	320.066	-0.174	0.327
-282.516	-110.423	0.337	-0.069
-281.501	800.000	0.032	0.100
-280.486	32.004	-0.023	-0.020
-279.472	314.448	-0.193	-0.361
-278.457	-24.488	0.218	-0.129
-277.443	-3.757	0.166	0.115
-276.428	-7.614	-0.264	0.177
-275.413	-31.289	-0.131	-0.073
-274.399	289.345	-0.078	-0.140
-273.384	-108.730	-0.254	-0.054
-272.370	355.942	0.038	-0.075
-271.355	81.500	-0.138	0.148
-270.340	-29.502	-0.161	0.091
-269.326	40.705	0.187	-0.167
-268.311	-43.765	-0.172	-0.086
-267.297	800.000	-0.044	0.186
-266.282	-200.000	0.015	0.124
-265.267	-114.758	0.430	0.081
-264.253	-149.929	0.582	-0.045
-263.238	800.000	-0.063	-0.218
-262.224	800.000	-0.162	0.473
-261.209	-200.000	0.084	0.394
-260.195	-68.942	-0.268	0.103
-259.180	-158.104	-0.266	-0.015
-258.165	-200.000	0.018	-0.119
-257.151	-200.000	0.055	0.295
-256.136	743.240	0.162	0.431
-255.122	61.759	-0.183	-0.181
-254.107	800.000	0.083	-0.283
-253.092	-98.235	0.228	-0.058
-252.078	-200.000	0.011	0.272
-251.063	-200.000	0.025	0.214
-250.049	77.289	0.231	-0.243
-249.034	-17.989	0.271	-0.168
-248.019	435.775	-0.140	0.301
-247.005	-200.000	-0.028	0.260
-245.990	100.219	-0.078	-0.090
-244.976	800.000	-0.009	-0.029
-243.961	265.805	0.117	-0.203
-242.946	415.013	0.063	0.134
-241.932	-11.675	0.336	0.219
-240.917	800.000	0.091	-0.302
-239.903	580.435	0.075	-0.181
-238.888	181.467	0.036	-0.052
-237.873	360.383	0.079	-0.156
-236.859	-200.000	0.040	-0.273
-235.844	-129.007	0.419	0.058
-234.830	-80.366	0.069	0.023
-233.815	-112.642	0.371	-0.073
-232.800	800.000	-0.028	0.108
-231.786	249.144	-0.137	0.231
-230.771	800.000	0.122	0.347
-229.757	-71.331	0.182	0.068
-228.742	-81.276	-0.039	-0.013
-227.727	180.831	0.105	-0.153
-226.713	-200.000	0.033	0.201
-225.698	196.807	0.174	0.262
-224.684	-62.853	-0.363	0.149
-223.669	117.448	-0.117	0.143
-222.655	185.253	-0.061	0.089
-221.640	-106.281	0.032	0.007
-220.625	-10.243	-0.395	0.260
-219.611	2.180	0.135	-0.097
-218.596	-48.178	0.173	0.083
-217.582	-93.745	0.297	0.081
-216.567	-15.680	0.086	-0.054
-215.552	-200.000	-0.027	-0.353
-214.538	154.829	0.065	-0.088
-213.523	-31.429	-0.054	-0.030
-212.509	148.157	-0.111	-0.148
-211.494	-6.193	0.319	-0.216
-210.479	-200.000	-0.043	-0.256
-209.465	34.534	-0.161	0.139
-208.450	-57.095	0.111	-0.048
-207.436	1.587	0.137	-0.097
-206.421	-32.711	0.151	0.083
-205.406	800.000	-0.053	-0.152
-204.392	173.928	0.143	0.204
-203.377	-200.000	0.001	0.022
-202.363	753.206	-0.069	-0.185
-201.348	208.746	-0.166	0.257
-200.333	-121.081	-0.414	0.069
-199.319	-37.885	-0.168	0.088
-198.304	-163.815	0.360	-0.017
-197.290	-117.207	-0.486	-0.088
-196.275	202.530	-0.124	0.190
-195.260	-200.000	-0.027	-0.272
-194.246	56.567	0.100	0.097
-193.231	-7.262	0.267	-0.179
-192.217	27.684	-0.248	-0.207
-191.202	-103.197	0.228	-0.053
-190.187	0.478	-0.124	0.088
-189.173	-99.926	0.113	0.028
-188.158	412.064	0.114	-0.240
-187.144	95.166	0.141	0.158
-186.129	-115.451	0.310	0.058
-185.114	29.345	0.161	-0.135
-184.100	-145.983	-0.018	0.002
-183.085	-111.815	0.343	0.069
-182.071	-15.206	0.161	-0.102
-181.056	559.785	0.136	-0.324
-180.042	-69.367	0.319	0.121
-179.027	277.748	-0.099	0.174
-178.012	-130.573	-0.243	0.032
-176.998	-56.038	-0.178	-0.078
-175.983	-63.603	-0.275	-0.111
-174.969	-78.360	0.150	-0.051
-173.954	249.774	-0.179	0.301
-172.939	20.691	-0.238	-0.190
-171.925	-200.000	-0.014	0.230
-170.910	-24.795	0.261	-0.154
-169.896	126.784	0.084	-0.106
-168.881	800.000	0.037	0.128
-167.866	-200.000	-0.057	0.000
-166.852	255.099	0.115	0.195
-165.837	66.711	0.218	-0.220
-164.823	-166.154	-0.185	-0.008
-163.808	-107.871	0.067	0.014
-162.793	-8.142	0.288	-0.192
-161.779	-143.664	0.182	-0.017
-160.764	14.790	-0.370	0.286
-159.750	800.000	0.064	-0.187
-158.735	-83.665	0.291	-0.092
-157.720	800.000	0.037	0.126
-156.706	142.868	0.204	0.268
-155.691	-200.000	0.024	0.201
-154.677	662.675	0.041	0.104
-153.662	185.679	0.154	0.226
-152.647	363.624	-0.129	0.256
-151.633	-200.000	0.024	-0.293
-150.618	86.533	0.085	0.093
-149.604	-128.117	-0.148	-0.021
-148.589	-180.859	0.160	0.003
-147.574	566.539	-0.007	-0.017
-146.560	-127.355	0.063	0.009
-145.545	-124.732	-0.264	-0.040
-144.531	400.721	-0.055	0.114
-143.516	132.177	0.309	0.393
-142.502	48.654	-0.060	0.056
-141.487	-114.941	0.338	0.064
-140.472	-68.789	0.275	-0.105
-139.458	115.608	0.239	0.289
-138.443	593.266	0.073	0.178
-137.429	-74.231	-0.098	-0.035
-136.414	-150.668	0.312	0.024
-135.399	146.825	0.121	-0.160
-134.385	291.626	0.107	0.193
-133.370	-113.883	0.071	-0.014
-132.356	273.674	0.034	-0.060
-131.341	226.124	0.172	0.276
-130.326	77.695	-0.359	0.377
-129.312	-197.097	-0.316	0.002
-128.297	383.251	-0.091	0.184
-127.283	-136.293	-0.136	0.016
-126.268	-200.000	0.008	0.316
-125.253	800.000	0.029	0.126
-124.239	-132.944	-0.194	-0.024
-123.224	-113.704	-0.083	-0.016
-122.210	-182.890	-0.206	0.004
