DTS Sentinel unit serial number:	SN413079Multiplexer serial number:	ORYXHardware model number:	OX4-SRSoftware version number:	ORYX F/W v4.00 Oryx Data Collector v3.7.2.0data status	okinstallation	princeton_trtdifferential loss correction	single-endedforward channel	channel 3reverse channel	N/Adate	2019/09/13time	03:28:34forward acquisition time	60.00reverse acquisition time	0.00gamma	496.2192k internal	0.2334k external	0.2334temperature offset calibration	1.0141default loss term (dB/km)	0.3790temperature slope calibration	1.0000multiplexer offset coefficient	1.0000multiplexer slope coefficient	1.0000fibre end	0.00T internal ref (°C)	27.31T ext. ref 1 (°C)	4.09T ext. ref 2 (°C)	21.77length (m)	temperature (°C)	Stokes	anti-Stokes-747.200	136.782	0.281	0.369
-746.185	34.869	0.157	0.138
-745.171	416.768	-0.072	-0.155
-744.156	-200.000	0.002	0.048
-743.142	-200.000	-0.003	0.474
-742.127	-200.000	-0.009	-0.251
-741.112	99.468	0.096	-0.111
-740.098	29.480	0.210	0.180
-739.083	-18.587	0.277	-0.174
-738.069	8.352	0.210	0.159
-737.054	316.101	-0.088	0.166
-736.039	-155.369	-0.281	-0.018
-735.025	618.141	0.036	0.091
-734.010	170.110	-0.212	-0.305
-732.996	24.306	-0.262	0.217
-731.981	63.258	-0.124	-0.124
-730.966	153.184	0.137	-0.189
-729.952	-43.600	-0.258	-0.131
-728.937	659.986	-0.167	0.431
-727.923	-70.092	-0.485	-0.185
-726.908	67.436	-0.246	-0.253
-725.894	-117.004	0.237	-0.043
-724.879	294.936	0.031	0.056
-723.864	597.552	0.039	-0.098
-722.850	-48.213	-0.291	-0.141
-721.835	-91.035	0.412	-0.119
-720.821	-91.788	-0.350	-0.100
-719.806	-200.000	0.060	-0.283
-718.791	-162.637	-0.109	0.005
-717.777	177.150	0.126	-0.184
-716.762	225.864	-0.182	0.297
-715.748	-200.000	0.018	-0.158
-714.733	800.000	0.068	-0.238
-713.718	51.452	-0.078	0.074
-712.704	-200.000	0.197	0.001
-711.689	-74.201	-0.071	0.026
-710.675	213.945	0.197	-0.312
-709.660	46.293	-0.330	-0.307
-708.645	-200.000	-0.042	-0.291
-707.631	36.971	0.119	0.105
-706.616	161.959	-0.232	0.326
-705.602	-200.000	-0.010	-0.084
-704.587	-88.136	-0.364	0.110
-703.572	67.799	-0.183	-0.188
-702.558	786.891	-0.112	-0.308
-701.543	77.969	0.253	0.271
-700.529	21.595	0.338	-0.276
-699.514	-70.163	0.164	-0.063
-698.499	-182.237	0.094	-0.002
-697.485	11.862	0.223	-0.172
-696.470	-102.024	-0.316	-0.076
-695.456	45.925	-0.046	0.043
-694.441	-30.172	0.081	-0.046
-693.426	-149.980	0.354	0.028
-692.412	14.093	0.181	0.141
-691.397	-112.749	-0.208	0.041
-690.383	-44.166	0.411	-0.207
-689.368	-200.000	-0.054	0.336
-688.354	579.162	0.124	-0.304
-687.339	-29.027	-0.179	-0.103
-686.324	-68.164	0.391	0.153
-685.310	-110.769	-0.449	0.093
-684.295	800.000	-0.051	0.211
-683.281	529.288	0.089	0.211
-682.266	-104.974	0.289	-0.066
-681.251	800.000	0.031	-0.108
-680.237	-20.712	-0.335	-0.206
-679.222	-200.000	-0.040	-0.205
-678.208	-53.652	0.092	-0.042
-677.193	-8.350	-0.358	0.241
-676.178	-200.000	0.000	0.130
-675.164	-114.665	-0.139	0.027
-674.149	-65.329	-0.187	-0.075
-673.135	40.455	-0.168	-0.151
-672.120	525.481	0.118	-0.279
-671.105	7.597	-0.222	-0.167
-670.091	-200.000	0.019	0.119
-669.076	-178.321	-0.035	0.001
-668.062	127.639	-0.078	0.099
-667.047	211.436	0.067	0.106
-666.032	16.581	-0.083	0.065
-665.018	53.473	-0.122	-0.117
-664.003	-200.000	0.027	-0.161
-662.989	-76.813	0.087	-0.030
-661.974	185.691	0.102	-0.152
-660.959	795.962	-0.050	-0.137
-659.945	-200.000	-0.073	-0.400
-658.930	109.661	-0.088	0.106
-657.916	-179.686	-0.070	0.002
-656.901	-200.000	0.001	0.059
-655.886	800.000	-0.042	-0.176
-654.872	800.000	-0.039	0.149
-653.857	-56.032	-0.215	0.096
-652.843	800.000	-0.051	0.188
-651.828	-134.325	-0.191	0.023
-650.814	-200.000	0.026	-0.140
-649.799	334.793	-0.075	-0.145
-648.784	-200.000	-0.001	-0.160
-647.770	-200.000	-0.031	-0.366
-646.755	381.380	-0.088	0.181
-645.741	556.296	-0.091	-0.219
-644.726	-200.000	-0.006	-0.174
-643.711	154.816	-0.280	-0.385
-642.697	-200.000	0.018	0.193
-641.682	215.042	-0.249	-0.396
-640.668	-18.088	-0.103	0.065
-639.653	-178.586	0.207	0.005
-638.638	102.484	-0.039	-0.046
-637.624	290.501	-0.084	-0.153
-636.609	-1.741	-0.167	-0.118
-635.595	-102.387	-0.211	-0.051
-634.580	-17.779	0.200	0.126
-633.565	-151.446	0.152	0.011
-632.551	351.714	-0.097	-0.192
-631.536	-22.473	0.102	0.062
-630.522	172.345	-0.141	0.202
-629.507	202.913	0.078	-0.120
-628.492	11.923	0.154	-0.118
-627.478	76.349	-0.082	0.087
-626.463	-38.258	-0.176	0.093
-625.449	475.979	0.152	0.343
-624.434	635.320	-0.174	0.443
-623.419	800.000	0.069	0.221
-622.405	95.903	-0.190	0.217
-621.390	513.545	-0.022	-0.052
-620.376	30.570	0.185	-0.158
-619.361	-37.359	-0.211	0.113
-618.346	-92.304	0.329	0.093
-617.332	68.367	-0.228	0.234
-616.317	-82.959	0.176	-0.057
-615.303	63.399	-0.136	-0.136
-614.288	-89.631	0.182	-0.053
-613.273	800.000	-0.025	0.083
-612.259	-200.000	-0.037	-0.264
-611.244	-200.000	-0.003	0.067
-610.230	459.566	-0.080	-0.177
-609.215	0.259	0.213	-0.152
-608.201	800.000	0.132	-0.443
-607.186	103.275	-0.209	-0.245
-606.171	800.000	0.057	-0.231
-605.157	-55.667	-0.230	-0.103
-604.142	68.972	-0.109	0.112
-603.128	800.000	0.071	-0.197
-602.113	800.000	0.042	-0.150
-601.098	289.174	0.088	-0.160
-600.084	11.124	-0.209	0.160
-599.069	-200.000	-0.035	0.219
-598.055	-200.000	-0.000	0.092
-597.040	246.900	0.130	0.219
-596.025	342.927	0.252	0.493
-595.011	28.342	-0.136	-0.115
-593.996	-28.626	0.111	0.064
-592.982	231.824	0.082	0.135
-591.967	800.000	-0.037	-0.160
-590.952	800.000	0.058	-0.183
-589.938	84.864	0.033	-0.037
-588.923	98.392	-0.146	0.168
-587.909	723.311	0.061	-0.161
-586.894	-8.904	-0.312	-0.209
-585.879	185.301	0.123	0.182
-584.865	-200.000	0.005	-0.257
-583.850	126.693	-0.153	0.194
-582.836	-200.000	0.005	-0.037
-581.821	117.666	-0.130	0.160
-580.806	683.444	-0.008	0.020
-579.792	405.373	0.178	-0.375
-578.777	800.000	0.101	-0.363
-577.763	69.573	0.106	-0.109
-576.748	-36.180	0.081	0.044
-575.733	800.000	-0.074	0.279
-574.719	446.768	0.099	-0.218
-573.704	-158.258	-0.098	0.006
-572.690	-45.261	0.337	0.167
-571.675	-86.577	-0.134	-0.041
-570.661	35.627	-0.177	0.155
-569.646	506.994	0.057	-0.133
-568.631	-124.444	-0.057	0.009
-567.617	236.195	0.186	0.307
-566.602	-129.897	-0.245	0.034
-565.588	-95.531	-0.173	0.046
-564.573	-84.316	0.329	0.104
-563.558	-200.000	-0.011	-0.098
-562.544	497.552	0.109	-0.249
-561.529	18.307	0.164	-0.131
-560.515	-30.561	-0.022	0.012
-559.500	-40.210	-0.070	-0.036
-558.485	360.469	0.162	0.324
-557.471	-145.998	0.117	0.010
-556.456	34.797	-0.117	0.103
-555.442	166.577	-0.019	-0.027
-554.427	-133.515	-0.271	0.034
-553.412	-14.482	0.060	-0.038
-552.398	16.031	0.111	-0.088
-551.383	779.383	0.143	-0.389
-550.369	273.884	0.140	0.247
-549.354	126.024	0.235	0.296
-548.339	789.621	0.085	0.233
-547.325	-33.548	0.567	-0.312
-546.310	-180.048	-0.134	0.003
-545.296	-72.317	-0.196	0.072
-544.281	-137.484	0.255	-0.029
-543.266	-93.706	-0.306	0.084
-542.252	64.736	0.284	0.285
-541.237	48.552	0.218	0.204
-540.223	-123.506	0.360	-0.057
-539.208	327.657	-0.199	-0.380
-538.193	421.042	-0.103	-0.221
-537.179	-195.891	0.261	0.002
-536.164	146.093	-0.036	-0.049
-535.150	35.010	-0.190	0.166
-534.135	85.786	-0.237	-0.260
-533.121	-200.000	-0.052	-0.239
-532.106	-9.320	0.016	-0.011
-531.091	55.506	-0.195	-0.188
-530.077	-200.000	-0.020	-0.307
-529.062	-200.000	-0.024	0.176
-528.048	64.206	-0.295	0.296
-527.033	-24.696	0.068	-0.040
-526.018	800.000	-0.029	-0.123
-525.004	-155.844	0.127	-0.008
-523.989	800.000	-0.028	0.119
-522.975	199.594	0.127	0.194
-521.960	30.380	-0.215	0.183
-520.945	800.000	-0.079	0.293
-519.931	706.267	0.102	0.267
-518.916	459.986	-0.168	0.374
-517.902	328.676	-0.148	0.283
-516.887	1.179	0.119	-0.085
-515.872	114.059	0.151	-0.183
-514.858	268.492	-0.094	-0.164
-513.843	-77.510	-0.247	-0.085
-512.829	-19.739	0.118	0.072
-511.814	-0.284	-0.190	-0.135
-510.799	-200.000	0.003	-0.134
-509.785	-200.000	-0.026	-0.332
-508.770	-91.460	-0.558	-0.159
-507.756	800.000	0.046	-0.151
-506.741	800.000	-0.041	0.124
-505.726	160.951	0.043	0.060
-504.712	-23.789	-0.089	0.053
-503.697	-122.499	0.138	0.022
-502.683	-200.000	-0.028	-0.133
-501.668	116.817	-0.108	0.132
-500.653	-73.489	0.205	0.074
-499.639	-200.000	-0.012	0.171
-498.624	800.000	-0.045	-0.165
-497.610	-69.196	0.301	0.115
-496.595	-200.000	0.019	0.208
-495.581	185.140	-0.029	0.043
-494.566	-62.859	-0.147	0.061
-493.551	-200.000	0.023	0.118
-492.537	-95.572	-0.157	-0.042
-491.522	-200.000	-0.023	-0.297
-490.508	-200.000	0.014	-0.306
-489.493	-165.535	0.475	-0.021
-488.478	800.000	0.031	-0.117
-487.464	-200.000	0.017	-0.116
-486.449	116.360	0.147	0.179
-485.435	-48.610	-0.057	0.027
-484.420	133.615	-0.176	-0.226
-483.405	66.108	0.237	0.239
-482.391	96.411	0.096	-0.109
-481.376	-78.743	-0.131	-0.045
-480.362	-13.931	-0.245	-0.157
-479.347	119.353	0.276	0.339
-478.332	-200.000	0.005	-0.329
-477.318	40.539	0.187	-0.167
-476.303	-200.000	-0.007	-0.030
-475.289	-61.013	0.142	-0.060
-474.274	-175.084	0.110	-0.003
-473.259	-29.613	-0.193	-0.109
-472.245	-76.590	-0.303	-0.106
-471.230	-39.822	0.182	-0.095
-470.216	317.439	0.053	0.100
-469.201	-115.388	-0.336	-0.063
-468.186	-200.000	-0.016	-0.073
-467.172	800.000	-0.067	0.191
-466.157	28.831	-0.167	0.140
-465.143	29.846	0.133	-0.112
-464.128	-200.000	0.038	-0.274
-463.113	369.443	-0.203	-0.408
-462.099	435.430	-0.113	0.245
-461.084	630.664	-0.048	0.120
-460.070	-30.784	0.060	-0.033
-459.055	-114.266	-0.072	0.014
-458.040	668.209	0.100	0.257
-457.026	800.000	0.025	0.103
-456.011	362.397	-0.080	-0.160
-454.997	-24.960	0.311	0.183
-453.982	-15.076	0.059	0.038
-452.968	168.407	-0.043	-0.062
-451.953	800.000	-0.084	0.259
-450.938	328.626	-0.187	0.356
-449.924	66.930	-0.160	-0.162
-448.909	-194.140	0.094	0.001
-447.895	-176.158	0.213	0.006
-446.880	19.861	0.327	0.262
-445.865	-200.000	0.007	-0.258
-444.851	170.460	0.111	0.159
-443.836	-71.111	-0.113	0.042
-442.822	-111.807	-0.295	-0.059
-441.807	-72.236	-0.245	0.090
-440.792	611.349	0.193	0.479
-439.778	196.452	-0.116	0.175
-438.763	-28.762	0.165	-0.094
-437.749	389.454	0.103	-0.212
-436.734	-126.997	0.170	0.025
-435.719	164.782	-0.083	0.117
-434.705	-168.429	0.260	-0.010
-433.690	230.507	-0.067	-0.108
-432.676	85.496	0.169	-0.184
-431.661	48.189	-0.269	-0.249
-430.646	-200.000	0.027	0.244
-429.632	-200.000	0.005	0.123
-428.617	149.909	-0.125	0.168
-427.603	800.000	-0.083	-0.323
-426.588	154.139	0.296	0.403
-425.573	222.740	0.006	-0.009
-424.559	281.952	-0.100	0.178
-423.544	12.460	0.436	0.333
-422.530	280.812	0.100	0.178
-421.515	344.101	0.066	0.128
-420.500	152.710	-0.234	0.317
-419.486	138.152	0.200	-0.260
-418.471	135.329	-0.100	-0.129
-417.457	249.331	-0.243	0.409
-416.442	-84.881	-0.356	-0.111
-415.428	231.541	-0.110	0.178
-414.413	-46.400	-0.230	-0.112
-413.398	-80.621	0.301	0.099
-412.384	-97.793	0.321	0.082
-411.369	255.407	0.080	-0.135
-410.355	-138.341	-0.255	0.028
-409.340	35.270	0.073	0.063
-408.325	17.337	0.197	-0.155
-407.311	-200.000	-0.035	0.346
-406.296	12.356	-0.190	-0.145
-405.282	-123.622	0.368	-0.058
-404.267	-1.126	-0.250	0.175
-403.252	181.769	-0.214	0.313
-402.238	-74.393	-0.216	-0.077
-401.223	177.293	0.142	0.206
-400.209	244.529	0.121	0.202
-399.194	-17.446	-0.157	0.098
-398.179	152.275	0.160	0.216
-397.165	-200.000	0.041	-0.216
-396.150	13.302	0.193	-0.149
-395.136	800.000	0.067	0.192
-394.121	289.100	0.159	0.286
-393.106	-66.775	0.253	-0.099
-392.092	-81.040	-0.177	-0.058
-391.077	-200.000	0.027	-0.388
-390.063	16.672	-0.176	-0.138
-389.048	-22.140	0.197	0.119
-388.033	61.053	0.120	-0.118
-387.019	14.121	-0.076	0.058
-386.004	470.783	-0.112	0.249
-384.990	156.822	-0.091	-0.125
-383.975	120.851	0.185	0.228
-382.960	-173.306	0.376	-0.011
-381.946	-111.024	-0.171	0.035
-380.931	229.649	-0.117	0.189
-379.917	139.179	0.135	0.176
-378.902	800.000	-0.016	0.066
-377.888	-94.648	0.169	0.045
-376.873	50.247	-0.232	0.217
-375.858	-120.565	0.216	0.036
-374.844	-174.604	0.160	-0.005
-373.829	27.788	-0.190	0.158
-372.815	-85.162	0.310	-0.096
-371.800	296.933	-0.078	-0.142
-370.785	800.000	-0.099	-0.281
-369.771	109.759	0.123	-0.146
-368.756	375.822	0.097	-0.196
-367.742	-200.000	-0.063	-0.276
-366.727	601.030	-0.125	0.306
-365.712	30.254	-0.201	-0.170
-364.698	-128.545	0.377	-0.053
-363.683	-200.000	-0.002	0.175
-362.669	-83.207	-0.161	-0.051
-361.654	-200.000	0.078	-0.496
-360.639	9.229	0.125	-0.094
-359.625	-162.990	-0.276	0.013
-358.610	55.513	0.138	-0.132
-357.596	-25.162	-0.165	0.097
-356.581	800.000	0.017	-0.064
-355.566	-106.337	0.153	0.034
-354.552	800.000	0.037	-0.112
-353.537	28.764	-0.218	-0.183
-352.523	-120.213	0.162	0.027
-351.508	-69.685	-0.186	0.070
-350.493	126.951	-0.107	0.134
-349.479	-158.290	-0.224	0.013
-348.464	95.185	-0.186	0.210
-347.450	-113.289	-0.185	0.036
-346.435	408.892	-0.176	-0.368
-345.420	280.673	0.217	-0.384
-344.406	800.000	0.065	-0.202
-343.391	-122.935	-0.253	0.040
-342.377	-200.000	0.008	-0.050
-341.362	188.320	-0.025	0.037
-340.348	-30.934	-0.173	0.097
-339.333	100.591	0.194	-0.223
-338.318	228.164	-0.037	0.059
-337.304	-200.000	0.045	0.315
-336.289	165.981	0.101	0.141
-335.275	373.853	-0.065	-0.131
-334.260	60.875	0.325	0.319
-333.245	-76.343	-0.267	-0.093
-332.231	-127.792	0.082	0.012
-331.216	-186.906	0.369	0.005
-330.202	-85.426	-0.028	0.009
-329.187	632.929	0.125	-0.312
-328.172	40.261	-0.155	0.138
-327.158	-200.000	0.024	0.105
-326.143	-126.452	-0.356	0.052
-325.129	-123.728	0.465	0.073
-324.114	74.444	0.081	0.084
-323.099	785.638	0.050	0.135
-322.085	173.820	0.135	0.193
-321.070	426.860	-0.129	-0.275
-320.056	110.841	-0.088	0.105
-319.041	264.909	0.107	-0.185
-318.026	-200.000	-0.038	-0.180
-317.012	186.979	-0.043	-0.064
-315.997	-50.336	0.212	-0.099
-314.983	30.896	-0.182	-0.154
-313.968	800.000	-0.082	-0.225
-312.953	-200.000	0.075	-0.347
-311.939	-122.922	-0.177	-0.028
-310.924	-200.000	-0.043	0.253
-309.910	399.015	0.071	0.146
-308.895	-200.000	0.019	-0.103
-307.880	563.022	0.032	0.077
-306.866	-161.188	-0.220	0.011
-305.851	-200.000	-0.023	0.251
-304.837	800.000	-0.070	0.216
-303.822	4.510	-0.250	-0.181
-302.807	-111.374	0.164	0.033
-301.793	-121.497	0.298	0.049
-300.778	-14.593	0.128	-0.082
-299.764	-200.000	0.030	-0.247
-298.749	51.502	0.058	-0.054
-297.735	222.229	0.124	-0.197
-296.720	-87.569	0.252	-0.075
-295.705	484.548	-0.065	-0.145
-294.691	-120.686	-0.138	-0.023
-293.676	-91.556	0.014	-0.004
-292.662	269.496	-0.222	0.384
-291.647	-86.154	-0.256	0.078
-290.632	-200.000	0.024	-0.151
-289.618	800.000	-0.068	-0.286
-288.603	-64.063	0.342	0.138
-287.589	22.478	-0.296	0.239
-286.574	528.813	0.115	0.269
-285.559	-74.081	-0.333	-0.119
-284.545	16.784	0.066	-0.052
-283.530	-200.000	-0.025	0.167
-282.516	-200.000	-0.043	0.295
-281.501	-48.834	0.184	-0.087
-280.486	-25.738	-0.037	-0.021
-279.472	38.374	-0.228	0.200
-278.457	-90.016	-0.202	0.058
-277.443	-171.229	-0.096	-0.003
-276.428	242.108	-0.156	0.257
-275.413	-200.000	0.008	-0.403
-274.399	173.290	-0.093	0.132
-273.384	-5.941	0.172	0.116
-272.370	-200.000	-0.028	-0.317
-271.355	800.000	0.068	0.240
-270.340	-107.527	-0.096	-0.021
-269.326	267.369	0.158	-0.273
-268.311	-94.599	-0.175	0.047
-267.297	775.331	0.124	-0.334
-266.282	462.080	-0.061	0.133
-265.267	5.713	-0.174	0.127
-264.253	-200.000	-0.067	-0.319
-263.238	329.072	-0.162	0.307
-262.224	-65.621	-0.294	0.116
-261.209	184.523	-0.089	0.130
-260.195	13.661	-0.117	0.090
-259.180	75.458	0.179	-0.186
-258.165	25.568	0.161	0.132
-257.151	-80.094	0.278	-0.092
-256.136	800.000	0.069	0.275
-255.122	-100.470	-0.392	0.096
-254.107	354.758	0.144	-0.283
-253.092	185.616	-0.103	-0.151
-252.078	343.712	-0.121	-0.235
-251.063	-200.000	-0.031	-0.178
-250.049	-10.572	-0.073	0.048
-249.034	199.138	-0.141	-0.213
-248.019	-200.000	-0.012	-0.260
-247.005	-55.540	0.211	0.093
-245.990	157.737	0.079	-0.108
-244.976	425.176	-0.140	-0.297
-243.961	-147.889	-0.303	0.025
-242.946	-113.201	0.154	0.030
-241.932	174.138	-0.014	0.019
-240.917	-200.000	0.036	0.170
-239.903	88.252	-0.181	-0.198
-238.888	63.151	-0.362	-0.357
-237.873	-89.526	-0.080	0.023
-236.859	-101.765	0.010	-0.002
-235.844	240.757	0.208	0.342
-234.830	-200.000	0.009	-0.100
-233.815	95.455	0.266	0.299
-232.800	-200.000	-0.032	0.199
-231.786	-200.000	0.048	0.378
-230.771	-116.164	-0.303	-0.055
-229.757	68.765	-0.202	0.205
-228.742	-200.000	-0.000	0.183
-227.727	133.781	-0.100	-0.127
-226.713	19.711	-0.220	0.174
-225.698	-95.373	-0.115	0.030
-224.684	-200.000	-0.030	0.294
-223.669	103.066	0.073	-0.085
-222.655	-144.626	0.136	0.012
-221.640	-113.118	-0.169	-0.033
-220.625	-129.811	0.205	0.028
-219.611	-200.000	-0.184	-0.001
-218.596	800.000	-0.010	0.033
-217.582	800.000	-0.025	0.094
-216.567	-37.844	0.043	0.023
-215.552	800.000	0.097	-0.272
-214.538	12.332	-0.214	0.162
-213.523	-20.577	0.199	-0.120
-212.509	-75.140	0.043	0.015
-211.494	800.000	0.146	-0.440
-210.479	-19.786	0.113	0.069
-209.465	-150.430	-0.109	-0.008
-208.450	-200.000	-0.046	0.314
-207.436	156.826	0.052	0.071
-206.421	-70.200	0.148	-0.055
-205.406	60.315	0.264	-0.257
-204.392	6.931	0.164	0.120
-203.377	-200.000	-0.016	-0.078
-202.363	-82.568	-0.460	0.147
-201.348	-43.983	0.044	-0.022
-200.333	-68.682	0.398	0.151
-199.319	241.852	-0.153	-0.252
-198.304	-200.000	-0.003	0.211
-197.290	95.577	0.215	-0.241
-196.275	-200.000	-0.062	-0.432
-195.260	-11.904	0.103	0.066
-194.246	182.276	-0.078	-0.114
-193.231	118.954	0.013	-0.016
-192.217	-200.000	0.014	0.089
-191.202	-200.000	-0.002	0.251
-190.187	57.246	-0.027	-0.026
-189.173	-200.000	-0.015	0.074
-188.158	800.000	0.091	-0.362
-187.144	48.323	-0.328	-0.302
-186.129	-79.928	0.229	0.076
-185.114	-170.939	0.337	0.011
-184.100	43.391	0.306	0.275
-183.085	-200.000	-0.022	0.198
-182.071	-118.541	-0.362	-0.063
-181.056	-178.453	-0.291	-0.007
-180.042	-119.468	0.093	0.016
-179.027	55.848	0.279	-0.266
-178.012	-188.835	-0.142	0.002
-176.998	800.000	0.073	-0.285
-175.983	-182.408	0.126	0.002
-174.969	85.110	0.197	0.212
-173.954	-61.102	-0.199	-0.083
-172.939	-166.720	0.236	-0.010
-171.925	68.248	-0.267	-0.268
-170.910	-200.000	-0.004	0.053
-169.896	-71.907	0.452	0.165
-168.881	-200.000	-0.024	0.239
-167.866	155.469	-0.121	-0.164
-166.852	-148.248	-0.106	0.009
-165.837	-165.148	0.152	-0.007
-164.823	-98.148	0.223	0.056
-163.808	12.281	0.119	-0.090
-162.793	-41.687	0.260	-0.131
-161.779	-60.712	0.370	0.154
-160.764	800.000	-0.075	0.229
-159.750	18.077	-0.262	-0.205
-158.735	155.787	0.059	0.080
-157.720	332.740	0.165	0.312
-156.706	78.573	-0.039	0.041
-155.691	-76.655	0.095	-0.033
-154.677	-200.000	-0.035	0.174
-153.662	-45.146	-0.099	0.048
-152.647	505.257	-0.088	-0.200
-151.633	-200.000	0.001	0.080
-150.618	-87.908	0.331	0.098
-149.604	-200.000	0.013	-0.188
-148.589	-73.378	0.168	-0.060
-147.574	306.273	-0.072	0.132
-146.560	-54.204	0.054	0.024
-145.545	292.416	-0.092	0.165
-144.531	-200.000	0.011	0.104
-143.516	23.171	0.206	0.166
-142.502	-122.789	-0.506	0.080
-141.487	111.413	0.075	0.089
-140.472	-195.633	0.225	-0.002
-139.458	-129.698	0.276	-0.037
-138.443	-112.808	-0.198	-0.039
-137.429	800.000	-0.067	0.242
-136.414	12.456	-0.052	0.039
-135.399	-200.000	-0.321	-0.001
-134.385	-113.781	0.518	0.099
-133.370	612.508	0.156	-0.382
-132.356	-200.000	0.056	-0.365
-131.341	-200.000	0.038	-0.361
-130.326	-27.208	0.233	-0.133
-129.312	-96.201	-0.052	-0.013
-128.297	-87.954	0.152	-0.045
-127.283	800.000	0.059	-0.192
-126.268	-169.947	0.326	0.011
-125.253	-200.000	-0.012	0.319
-124.239	-200.000	-0.035	0.228
-123.224	-153.645	-0.249	0.017
-122.210	-200.000	-0.089	-0.439
-121.195	175.942	-0.062	-0.089
