DTS Sentinel unit serial number:	SN413079Multiplexer serial number:	ORYXHardware model number:	OX4-SRSoftware version number:	ORYX F/W v4.00 Oryx Data Collector v3.7.2.0data status	okinstallation	princeton_trtdifferential loss correction	single-endedforward channel	channel 3reverse channel	N/Adate	2019/09/17time	22:48:35forward acquisition time	60.00reverse acquisition time	0.00gamma	496.2192k internal	0.2344k external	0.2344temperature offset calibration	0.9951default loss term (dB/km)	0.3790temperature slope calibration	1.0000multiplexer offset coefficient	1.0000multiplexer slope coefficient	1.0000fibre end	0.00T internal ref (°C)	25.00T ext. ref 1 (°C)	0.18T ext. ref 2 (°C)	18.12length (m)	temperature (°C)	Stokes	anti-Stokes-747.200	-200.000	-0.005	0.268
-746.185	-107.187	0.093	0.021
-745.171	-190.189	-0.033	-0.000
-744.156	120.845	-0.189	0.235
-743.142	-81.653	-0.194	0.064
-742.127	-12.795	-0.188	0.122
-741.112	395.444	0.081	0.170
-740.098	156.564	-0.161	-0.222
-739.083	125.902	0.117	-0.148
-738.069	394.443	0.050	-0.105
-737.054	-97.428	-0.096	0.025
-736.039	800.000	-0.020	0.060
-735.025	26.595	0.279	0.233
-734.010	-104.367	-0.156	0.036
-732.996	-6.315	0.112	0.076
-731.981	29.472	-0.397	-0.338
-730.966	-200.000	0.037	-0.184
-729.952	-52.446	0.228	0.105
-728.937	386.284	-0.122	-0.251
-727.923	-120.379	0.179	0.030
-726.908	800.000	-0.021	-0.090
-725.894	-51.597	-0.195	0.091
-724.879	-200.000	0.032	0.303
-723.864	-116.704	-0.214	0.039
-722.850	16.292	-0.110	-0.087
-721.835	18.744	-0.173	-0.138
-720.821	-43.168	-0.075	0.038
-719.806	-149.393	0.064	0.005
-718.791	246.946	0.055	0.093
-717.777	-95.833	0.303	-0.081
-716.762	-11.983	-0.243	-0.159
-715.748	89.182	0.167	0.186
-714.733	-97.001	-0.151	-0.040
-713.718	-200.000	0.071	-0.354
-712.704	-161.127	-0.073	0.004
-711.689	-200.000	0.027	0.252
-710.675	19.000	0.095	-0.076
-709.660	135.579	-0.025	-0.032
-708.645	660.084	-0.026	-0.067
-707.631	457.150	-0.179	-0.397
-706.616	134.008	-0.125	0.162
-705.602	127.459	-0.156	0.198
-704.587	800.000	0.085	0.290
-703.572	800.000	-0.112	-0.310
-702.558	-35.749	0.171	-0.093
-701.543	-28.520	-0.093	-0.053
-700.529	-88.039	-0.059	0.018
-699.514	21.492	-0.126	-0.103
-698.499	678.737	0.145	0.377
-697.485	-61.460	-0.230	-0.096
-696.470	192.476	0.143	-0.216
-695.456	-139.392	0.412	0.044
-694.441	-110.096	-0.436	0.091
-693.426	-200.000	-0.077	-0.436
-692.412	-90.427	0.292	0.084
-691.397	-200.000	0.014	-0.140
-690.383	342.691	-0.088	-0.172
-689.368	-98.537	-0.351	0.089
-688.354	-188.981	0.116	-0.001
-687.339	459.561	-0.097	-0.215
-686.324	41.440	0.226	-0.204
-685.310	-131.468	0.214	0.028
-684.295	164.746	-0.079	-0.111
-683.281	-33.678	-0.181	-0.099
-682.266	-200.000	-0.009	-0.074
-681.251	145.822	-0.069	0.093
-680.237	533.459	-0.086	-0.204
-679.222	239.650	-0.192	0.320
-678.208	101.503	-0.274	-0.318
-677.193	-14.446	-0.395	0.254
-676.178	-112.831	0.153	0.030
-675.164	-40.982	-0.564	-0.291
-674.149	-45.793	0.280	0.138
-673.135	-39.385	-0.268	-0.140
-672.120	-94.403	0.163	0.044
-671.105	53.493	-0.128	-0.122
-670.091	-112.330	-0.069	-0.014
-669.076	280.859	-0.159	0.283
-668.062	88.962	-0.114	-0.126
-667.047	-110.949	0.379	0.078
-666.032	-69.804	0.099	-0.038
-665.018	144.936	0.034	0.046
-664.003	-200.000	-0.026	0.329
-662.989	-200.000	-0.029	-0.162
-661.974	6.574	0.061	0.045
-660.959	223.770	-0.178	-0.287
-659.945	19.578	0.141	-0.113
-658.930	-1.922	0.281	0.197
-657.916	-152.387	0.057	-0.004
-656.901	-2.550	0.100	0.070
-655.886	18.013	0.148	0.118
-654.872	-200.000	0.011	0.221
-653.857	28.134	-0.285	-0.240
-652.843	0.919	-0.035	-0.025
-651.828	203.648	0.279	0.430
-650.814	-200.000	-0.029	0.343
-649.799	285.382	0.130	-0.234
-648.784	90.610	-0.104	0.116
-647.770	-30.622	0.453	0.256
-646.755	-98.629	-0.289	-0.074
-645.741	-63.523	0.157	0.064
-644.726	-168.381	0.075	0.003
-643.711	-112.840	-0.387	-0.076
-642.697	-200.000	0.025	0.161
-641.682	-198.326	-0.143	0.001
-640.668	800.000	-0.058	-0.185
-639.653	12.309	-0.213	-0.163
-638.638	-193.037	0.289	0.003
-637.624	-19.013	-0.279	0.173
-636.609	-129.795	0.058	0.008
-635.595	-76.667	-0.321	0.112
-634.580	29.870	0.109	-0.092
-633.565	-200.000	-0.182	0.000
-632.551	-76.742	0.257	-0.090
-631.536	79.623	0.056	0.060
-630.522	49.773	-0.214	0.201
-629.507	-25.826	0.144	-0.084
-628.492	367.349	0.097	0.196
-627.478	23.214	0.151	0.124
-626.463	70.252	0.211	-0.217
-625.449	54.550	-0.097	0.093
-624.434	800.000	0.122	-0.356
-623.419	403.722	-0.132	-0.278
-622.405	760.200	0.159	-0.430
-621.390	132.466	0.174	0.223
-620.376	-200.000	-0.005	-0.136
-619.361	80.878	-0.241	-0.259
-618.346	-89.210	0.077	0.023
-617.332	-86.406	-0.198	-0.061
-616.317	40.852	0.110	0.098
-615.303	156.069	0.317	-0.435
-614.288	-59.791	-0.066	0.028
-613.273	800.000	0.122	0.434
-612.259	-134.499	-0.145	-0.018
-611.244	-200.000	0.098	-0.454
-610.230	-113.469	-0.187	-0.036
-609.215	282.930	0.208	0.371
-608.201	191.586	0.118	-0.176
-607.186	146.789	0.110	0.147
-606.171	-200.000	0.001	0.237
-605.157	-183.379	0.089	-0.002
-604.142	130.854	0.282	0.360
-603.128	-97.275	0.124	0.032
-602.113	-129.057	0.071	0.010
-601.098	800.000	-0.045	0.147
-600.084	-71.131	0.139	0.052
-599.069	-122.768	0.394	-0.063
-598.055	470.787	-0.121	-0.272
-597.040	-0.691	0.271	-0.191
-596.025	-200.000	-0.087	0.416
-595.011	-101.256	0.041	-0.010
-593.996	32.133	-0.130	0.111
-592.982	37.981	0.083	0.074
-591.967	-200.000	0.009	0.306
-590.952	-200.000	-0.029	-0.162
-589.938	52.428	0.220	0.208
-588.923	-55.278	0.223	-0.099
-587.909	-151.842	-0.261	0.019
-586.894	472.983	0.037	0.084
-585.879	-200.000	0.022	-0.352
-584.865	58.021	0.254	0.248
-583.850	-144.776	-0.184	0.017
-582.836	57.379	0.152	0.148
-581.821	19.963	-0.333	-0.267
-580.806	12.595	0.203	-0.155
-579.792	136.382	-0.098	-0.128
-578.777	-5.281	0.210	-0.143
-577.763	91.442	-0.223	-0.249
-576.748	-20.687	-0.110	0.067
-575.733	-86.922	-0.241	-0.073
-574.719	19.026	0.117	0.093
-573.704	-200.000	0.003	-0.144
-572.690	-49.294	-0.142	-0.068
-571.675	-200.000	-0.015	-0.154
-570.661	27.060	0.337	0.281
-569.646	1.504	-0.211	-0.151
-568.631	-82.153	-0.283	0.092
-567.617	690.638	-0.171	-0.444
-566.602	51.830	0.202	-0.191
-565.588	371.293	0.097	0.196
-564.573	379.310	-0.039	0.080
-563.558	192.382	0.146	-0.219
-562.544	-85.409	0.142	-0.044
-561.529	-107.072	-0.154	-0.034
-560.515	-200.000	0.181	-0.001
-559.500	-69.671	-0.042	0.016
-558.485	147.253	-0.063	-0.084
-557.471	-24.024	0.298	-0.177
-556.456	-4.710	-0.428	-0.293
-555.442	-65.926	0.163	-0.065
-554.427	-83.966	-0.102	0.032
-553.412	800.000	-0.053	0.163
-552.398	107.982	-0.154	-0.182
-551.383	-32.732	-0.072	0.040
-550.369	800.000	-0.057	-0.244
-549.354	-200.000	0.035	-0.153
-548.339	-200.000	0.034	-0.234
-547.325	-200.000	-0.007	0.140
-546.310	104.755	0.128	-0.150
-545.296	800.000	-0.034	-0.104
-544.281	-60.409	0.328	0.139
-543.266	519.544	-0.212	-0.492
-542.252	-26.802	-0.283	0.164
-541.237	-200.000	-0.019	-0.130
-540.223	-134.310	-0.320	0.039
-539.208	800.000	0.097	0.319
-538.193	46.877	0.226	0.208
-537.179	221.482	0.102	0.163
-536.164	102.867	-0.183	0.212
-535.150	496.434	0.025	0.057
-534.135	-200.000	-0.077	-0.349
-533.121	-30.186	-0.060	0.034
-532.106	242.356	-0.070	0.117
-531.091	-200.000	-0.008	0.063
-530.077	-200.000	-0.045	0.199
-529.062	-200.000	0.051	0.300
-528.048	29.464	-0.189	0.159
-527.033	-156.668	0.114	0.007
-526.018	-117.232	0.171	-0.031
-525.004	91.831	0.036	0.040
-523.989	141.658	0.103	0.135
-522.975	800.000	-0.038	0.137
-521.960	14.148	-0.077	0.060
-520.945	-110.858	-0.232	-0.047
-519.931	-55.114	0.189	0.084
-518.916	48.428	0.219	-0.203
-517.902	-176.096	-0.343	-0.009
-516.887	-83.115	-0.093	-0.030
-515.872	-138.521	-0.121	0.013
-514.858	297.655	0.149	0.271
-513.843	-200.000	0.011	0.269
-512.829	-45.175	-0.050	0.025
-511.814	-200.000	0.027	0.215
-510.799	-170.911	-0.278	-0.009
-509.785	-200.000	-0.022	-0.142
-508.770	184.601	0.102	-0.150
-507.756	157.563	-0.140	-0.193
-506.741	-95.854	-0.194	0.051
-505.726	780.758	-0.055	0.150
-504.712	-57.897	-0.232	0.100
-503.697	-200.000	0.049	0.336
-502.683	-155.238	0.328	-0.021
-501.668	-11.005	-0.055	-0.036
-500.653	-22.808	0.548	0.328
-499.639	221.792	-0.124	-0.197
-498.624	172.799	-0.039	0.055
-497.610	368.102	0.139	0.279
-496.595	-200.000	-0.020	0.147
-495.581	-200.000	-0.020	0.226
-494.566	800.000	-0.039	-0.158
-493.551	-129.954	0.368	0.050
-492.537	132.179	0.107	0.137
-491.522	252.555	-0.147	0.249
-490.508	-74.674	-0.304	0.108
-489.493	-54.434	-0.152	0.068
-488.478	323.486	-0.197	-0.372
-487.464	150.353	-0.090	0.121
-486.449	12.327	0.031	0.024
-485.435	-40.735	0.009	-0.004
-484.420	11.973	-0.034	0.026
-483.405	30.814	-0.195	-0.165
-482.391	-66.059	0.178	-0.071
-481.376	85.982	-0.117	0.127
-480.362	-55.169	0.284	0.126
-479.347	800.000	-0.089	-0.361
-478.332	705.571	-0.145	0.379
-477.318	-20.835	0.279	-0.169
-476.303	-132.187	-0.324	-0.042
-475.289	-83.738	0.060	-0.019
-474.274	-200.000	0.009	-0.064
-473.259	-159.568	-0.336	0.018
-472.245	-200.000	0.031	-0.305
-471.230	-73.784	0.088	0.032
-470.216	-67.467	-0.207	0.080
-469.201	54.752	0.224	-0.214
-468.186	60.237	-0.165	0.162
-467.172	-127.266	-0.295	-0.043
-466.157	800.000	-0.137	-0.379
-465.143	99.297	0.125	-0.143
-464.128	59.699	0.081	-0.079
-463.113	-200.000	0.019	-0.284
-462.099	-200.000	-0.022	0.178
-461.084	800.000	0.061	-0.217
-460.070	-200.000	-0.170	0.000
-459.055	-112.842	0.217	0.043
-458.040	3.200	-0.283	-0.204
-457.026	46.901	0.135	0.124
-456.011	33.220	-0.131	0.112
-454.997	-78.575	0.291	-0.099
-453.982	-32.348	-0.180	-0.099
-452.968	171.693	0.114	0.162
-451.953	-89.962	0.191	-0.055
-450.938	-200.000	-0.025	-0.112
-449.924	-152.576	-0.131	-0.009
-448.909	4.396	0.122	0.089
-447.895	800.000	0.064	0.232
-446.880	-200.000	-0.021	-0.217
-445.865	800.000	-0.090	-0.245
-444.851	800.000	-0.056	0.207
-443.836	-200.000	0.030	-0.140
-442.822	593.511	-0.240	-0.587
-441.807	98.281	0.173	-0.197
-440.792	-88.241	-0.080	-0.024
-439.778	52.919	-0.110	0.104
-438.763	266.542	0.224	0.387
-437.749	800.000	0.113	0.445
-436.734	290.299	-0.145	0.260
-435.719	-126.610	-0.267	-0.039
-434.705	121.581	-0.096	0.119
-433.690	800.000	0.078	0.237
-432.676	508.364	0.161	0.369
-431.661	-124.944	-0.341	-0.052
-430.646	16.913	-0.195	-0.153
-429.632	63.198	-0.187	-0.186
-428.617	800.000	-0.103	-0.372
-427.603	165.486	-0.230	-0.322
-426.588	44.941	-0.173	0.158
-425.573	145.245	0.045	-0.060
-424.559	623.361	-0.107	0.266
-423.544	-31.840	0.207	0.115
-422.530	-45.526	0.010	-0.005
-421.515	-137.511	-0.176	-0.020
-420.500	190.492	-0.038	0.056
-419.486	-200.000	0.013	0.057
-418.471	-200.000	0.028	0.147
-417.457	800.000	-0.144	0.402
-416.442	-28.225	-0.082	-0.047
-415.428	102.356	-0.151	-0.174
-414.413	202.252	0.018	0.028
-413.398	800.000	0.078	0.305
-412.384	-99.868	-0.047	-0.012
-411.369	65.277	0.100	-0.100
-410.355	-16.686	-0.042	0.026
-409.340	-200.000	-0.057	-0.328
-408.325	143.458	-0.079	-0.104
-407.311	-200.000	-0.038	0.221
-406.296	69.703	-0.250	0.255
-405.282	89.929	0.114	0.125
-404.267	-105.767	-0.149	-0.033
-403.252	201.281	-0.046	-0.070
-402.238	267.630	-0.090	-0.155
-401.223	-95.831	-0.165	0.043
-400.209	16.109	-0.025	-0.019
-399.194	-12.771	-0.111	-0.071
-398.179	-162.155	0.253	-0.013
-397.165	4.275	-0.051	-0.037
-396.150	22.898	0.105	-0.085
-395.136	507.808	0.019	-0.043
-394.121	-200.000	-0.040	0.220
-393.106	-142.190	-0.272	-0.027
-392.092	6.666	0.040	0.029
-391.077	800.000	0.087	0.240
-390.063	-43.638	0.175	-0.087
-389.048	-12.214	0.061	-0.039
-388.033	-47.494	0.252	-0.121
-387.019	-200.000	-0.020	-0.206
-386.004	186.403	0.123	0.180
-384.990	48.995	-0.077	-0.071
-383.975	800.000	-0.142	0.522
-382.960	-39.383	0.289	0.150
-381.946	227.916	-0.086	0.138
-380.931	-119.877	-0.204	-0.035
-379.917	-139.933	0.301	-0.031
-378.902	386.117	-0.042	0.085
-377.888	-66.273	-0.222	-0.087
-376.873	-187.311	0.163	-0.002
-375.858	-127.291	0.190	-0.027
-374.844	-80.124	-0.117	-0.039
-373.829	-104.415	-0.209	0.048
-372.815	800.000	0.087	-0.296
-371.800	-137.477	-0.329	0.037
-370.785	-70.934	-0.108	0.040
-369.771	-47.557	-0.185	0.089
-368.756	424.891	0.086	-0.182
-367.742	-89.637	-0.205	-0.059
-366.727	-200.000	-0.095	0.576
-365.712	-112.238	0.386	0.076
-364.698	184.757	-0.178	0.260
-363.683	-200.000	0.093	-0.416
-362.669	-38.146	0.134	0.070
-361.654	-90.035	-0.130	0.037
-360.639	165.175	0.071	0.098
-359.625	-85.683	0.172	0.053
-358.610	92.931	0.214	-0.239
-357.596	-200.000	0.154	-0.001
-356.581	-99.672	0.252	-0.062
-355.566	51.048	-0.118	0.110
-354.552	105.932	0.209	0.243
-353.537	-150.813	0.223	0.017
-352.523	-200.000	-0.014	-0.242
-351.508	-122.264	-0.220	-0.036
-350.493	-75.067	0.468	-0.165
-349.479	-171.359	-0.384	-0.013
-348.464	-200.000	-0.008	-0.204
-347.450	-59.384	-0.443	-0.188
-346.435	222.638	0.061	-0.096
-345.420	461.152	-0.108	-0.238
-344.406	26.259	0.060	-0.049
-343.391	573.738	-0.044	-0.105
-342.377	210.327	-0.145	0.224
-341.362	127.503	0.040	-0.050
-340.348	-69.864	-0.191	-0.072
-339.333	800.000	-0.027	0.098
-338.318	-162.757	-0.362	-0.017
-337.304	-200.000	0.017	0.164
-336.289	589.934	0.063	-0.153
-335.275	38.633	0.118	-0.104
-334.260	-129.185	0.081	0.011
-333.245	-20.300	0.243	-0.147
-332.231	-67.000	-0.264	-0.103
-331.216	205.927	0.096	-0.147
-330.202	49.472	-0.120	0.111
-329.187	-50.529	0.120	-0.056
-328.172	181.211	-0.130	0.188
-327.158	646.741	-0.102	0.256
-326.143	-200.000	0.006	0.041
-325.129	-121.884	-0.368	-0.060
-324.114	193.082	-0.043	0.064
-323.099	119.339	0.118	0.144
-322.085	-200.000	0.019	0.276
-321.070	-200.000	-0.018	0.080
-320.056	-9.894	0.091	0.059
-319.041	49.238	0.081	-0.075
-318.026	-45.785	0.171	0.083
-317.012	-200.000	-0.011	-0.106
-315.997	23.327	-0.070	0.057
-314.983	210.380	-0.105	-0.163
-313.968	-161.637	0.349	0.018
-312.953	101.381	-0.086	-0.099
-311.939	-143.738	-0.157	0.015
-310.924	-200.000	0.015	0.151
-309.910	199.778	-0.104	-0.157
-308.895	-39.080	0.437	0.226
-307.880	18.833	0.194	-0.153
-306.866	70.254	0.074	-0.075
-305.851	-153.201	0.219	-0.015
-304.837	108.882	-0.062	-0.073
-303.822	175.077	0.206	-0.294
-302.807	-83.033	0.209	0.066
-301.793	413.789	0.049	-0.103
-300.778	-123.451	-0.202	0.032
-299.764	30.702	0.136	-0.114
-298.749	74.505	-0.310	-0.320
-297.735	-92.720	-0.320	-0.088
-296.720	175.964	0.056	-0.080
-295.705	276.997	-0.159	0.278
-294.691	311.561	-0.125	0.231
-293.676	-164.657	0.272	-0.012
-292.662	-53.271	-0.357	-0.161
-291.647	-133.340	0.212	-0.026
-290.632	236.315	0.181	-0.295
-289.618	-55.464	0.153	-0.067
-288.603	54.393	-0.050	0.048
-287.589	-124.999	-0.226	0.034
-286.574	140.623	0.149	-0.194
-285.559	54.885	0.191	-0.181
-284.545	111.948	-0.118	0.140
-283.530	177.349	-0.089	-0.127
-282.516	800.000	-0.032	-0.118
-281.501	27.499	0.187	-0.155
-280.486	-29.148	-0.152	-0.086
-279.472	46.037	-0.100	0.091
-278.457	-18.458	-0.043	0.027
-277.443	-93.306	0.503	-0.137
-276.428	-200.000	0.010	-0.126
-275.413	-136.708	0.396	-0.045
-274.399	-148.343	0.203	-0.016
-273.384	-42.813	-0.287	0.143
-272.370	-200.000	-0.015	-0.120
-271.355	-68.826	-0.221	-0.084
-270.340	-90.623	0.506	-0.144
-269.326	-200.000	0.017	-0.108
-268.311	583.826	0.185	-0.445
-267.297	-200.000	-0.005	0.200
-266.282	-106.032	-0.248	0.055
-265.267	-200.000	-0.009	0.047
-264.253	-106.298	-0.298	-0.065
-263.238	-72.239	0.154	-0.056
-262.224	-52.562	-0.201	-0.091
-261.209	800.000	0.052	0.171
-260.195	-200.000	-0.040	-0.240
-259.180	800.000	-0.018	-0.055
-258.165	-200.000	0.025	0.423
-257.151	-54.225	-0.224	-0.100
-256.136	-26.635	0.095	-0.054
-255.122	-14.785	-0.042	0.027
-254.107	128.581	-0.103	0.129
-253.092	-35.644	-0.043	-0.023
-252.078	-200.000	0.072	-0.427
-251.063	-200.000	-0.002	0.053
-250.049	239.922	-0.160	-0.262
-249.034	-88.961	-0.229	0.067
-248.019	361.612	-0.216	0.425
-247.005	246.182	0.195	-0.323
-245.990	-200.000	-0.091	-0.399
-244.976	-100.530	-0.168	0.041
-243.961	-41.476	0.203	-0.103
-242.946	125.989	0.142	-0.176
-241.932	-109.744	-0.015	0.003
-240.917	387.595	0.107	-0.218
-239.903	-85.601	-0.171	0.052
-238.888	3.621	-0.071	0.050
-237.873	-134.795	0.211	-0.025
-236.859	800.000	0.052	0.164
-235.844	-200.000	-0.001	-0.011
-234.830	225.067	-0.112	0.177
-233.815	-32.185	0.207	0.114
-232.800	-200.000	-0.019	0.233
-231.786	13.827	-0.076	-0.058
-230.771	32.765	-0.223	-0.190
-229.757	-86.324	0.296	0.089
-228.742	800.000	-0.087	0.301
-227.727	-0.645	-0.493	0.343
-226.713	800.000	-0.066	-0.244
-225.698	-200.000	-0.040	-0.427
-224.684	84.807	0.274	-0.295
-223.669	-200.000	-0.022	0.217
-222.655	120.901	0.171	0.208
-221.640	-99.492	0.157	0.039
-220.625	-71.477	-0.172	0.063
-219.611	9.887	-0.073	0.054
-218.596	-156.267	-0.541	-0.033
-217.582	800.000	0.047	-0.158
-216.567	93.302	0.122	-0.135
-215.552	-200.000	-0.086	0.437
-214.538	-200.000	0.016	-0.103
-213.523	800.000	-0.033	0.138
-212.509	246.195	0.289	0.477
-211.494	211.695	-0.115	-0.178
-210.479	-167.854	0.064	-0.002
-209.465	-200.000	0.037	0.435
-208.450	213.363	0.037	-0.057
-207.436	699.523	-0.131	-0.338
-206.421	121.575	-0.116	0.141
-205.406	-200.000	-0.016	0.086
-204.392	695.980	0.050	0.128
-203.377	31.925	0.249	0.210
-202.363	-102.691	-0.109	0.025
-201.348	40.004	-0.269	0.236
-200.333	128.659	-0.151	0.189
-199.319	-200.000	-0.011	0.111
-198.304	2.449	0.211	-0.150
-197.290	800.000	-0.057	-0.224
-196.275	-119.775	0.200	0.034
-195.260	-200.000	0.027	0.136
-194.246	-13.222	0.172	0.110
-193.231	-8.019	0.151	-0.100
-192.217	-71.870	-0.154	0.056
-191.202	156.776	0.040	-0.054
-190.187	-200.000	-0.014	0.094
-189.173	321.686	-0.065	-0.121
-188.158	-91.486	0.125	-0.035
-187.144	670.526	0.031	-0.079
-186.129	-129.523	0.337	0.046
-185.114	10.115	0.296	0.220
-184.100	-4.927	0.153	-0.103
-183.085	-35.291	-0.149	-0.079
-182.071	-191.443	-0.325	-0.003
-181.056	-85.535	-0.038	0.012
-180.042	-94.950	-0.119	0.032
-179.027	-200.000	0.005	0.576
-178.012	-200.000	-0.004	0.046
-176.998	105.118	0.253	0.292
-175.983	479.273	0.109	0.241
-174.969	105.732	-0.037	-0.042
-173.954	164.520	0.140	0.194
-172.939	640.615	-0.083	0.208
-171.925	-200.000	-0.035	0.292
-170.910	-200.000	0.017	-0.201
-169.896	164.294	0.163	0.225
-168.881	-200.000	-0.013	0.385
-167.866	56.761	0.118	-0.113
-166.852	245.053	0.126	-0.208
-165.837	-200.000	-0.082	-0.378
-164.823	-200.000	-0.051	-0.305
-163.808	-200.000	0.054	0.350
-162.793	135.150	0.227	0.289
-161.779	-168.067	0.337	-0.013
-160.764	373.108	0.042	0.083
-159.750	359.168	-0.155	0.303
-158.735	755.032	0.123	-0.326
-157.720	-71.008	0.417	-0.153
-156.706	-200.000	0.058	-0.471
-155.691	-186.351	-0.351	0.005
-154.677	4.488	0.238	0.171
-153.662	-37.949	0.157	0.081
-152.647	-200.000	-0.010	-0.294
-151.633	23.539	0.310	-0.249
-150.618	722.737	-0.062	-0.161
-149.604	800.000	-0.013	-0.036
-148.589	72.303	-0.110	-0.112
-147.574	299.840	-0.101	-0.181
-146.560	200.181	-0.012	0.018
-145.545	709.890	0.068	-0.175
-144.531	-37.745	0.290	-0.151
-143.516	16.387	-0.169	0.130
-142.502	-200.000	-0.031	-0.137
-141.487	-46.340	-0.018	0.009
-140.472	168.380	0.130	0.181
-139.458	-123.030	0.070	0.011
-138.443	-16.679	0.162	-0.100
-137.429	-4.706	-0.239	-0.161
-136.414	137.556	0.170	0.218
-135.399	-81.917	0.190	-0.061
-134.385	30.365	-0.276	-0.230
-133.370	-66.492	0.192	0.074
-132.356	-91.204	0.242	0.068
-131.341	-200.000	-0.010	-0.187
-130.326	391.050	0.094	-0.191
-129.312	-182.619	0.095	0.002
-128.297	146.819	0.206	-0.271
-127.283	270.457	-0.095	0.162
-126.268	-200.000	0.026	-0.426
-125.253	329.423	0.092	0.173
-124.239	-127.133	0.393	-0.056
-123.224	46.962	0.119	-0.108
-122.210	-79.010	0.070	0.023
