DTS Sentinel unit serial number:	SN413079Multiplexer serial number:	ORYXHardware model number:	OX4-SRSoftware version number:	ORYX F/W v4.00 Oryx Data Collector v3.7.2.0data status	okinstallation	princeton_trtdifferential loss correction	single-endedforward channel	channel 3reverse channel	N/Adate	2019/09/12time	17:18:11forward acquisition time	60.00reverse acquisition time	0.00gamma	496.2192k internal	0.2314k external	0.2314temperature offset calibration	1.0082default loss term (dB/km)	0.3790temperature slope calibration	1.0000multiplexer offset coefficient	1.0000multiplexer slope coefficient	1.0000fibre end	0.00T internal ref (°C)	35.02T ext. ref 1 (°C)	2.80T ext. ref 2 (°C)	28.84length (m)	temperature (°C)	Stokes	anti-Stokes-747.200	800.000	-0.047	0.202
-746.185	-42.409	-0.114	0.059
-745.171	-53.409	0.487	0.226
-744.156	-200.000	-0.007	0.465
-743.142	19.286	-0.187	0.153
-742.127	-3.917	-0.045	0.031
-741.112	-85.440	-0.157	-0.050
-740.098	505.411	-0.187	0.440
-739.083	371.498	-0.172	0.354
-738.069	800.000	0.115	0.386
-737.054	-200.000	-0.017	-0.100
-736.039	140.645	-0.216	0.290
-735.025	420.343	0.254	0.552
-734.010	-25.164	0.262	-0.157
-732.996	-200.000	-0.006	0.150
-731.981	100.680	-0.187	-0.220
-730.966	546.319	-0.019	-0.046
-729.952	-200.000	0.025	-0.259
-728.937	22.468	0.049	-0.040
-727.923	-200.000	0.012	0.374
-726.908	800.000	-0.128	-0.446
-725.894	366.200	0.123	-0.252
-724.879	-109.394	-0.125	-0.027
-723.864	-110.396	0.265	0.056
-722.850	150.951	0.147	0.203
-721.835	74.837	0.132	-0.141
-720.821	-43.859	-0.275	-0.140
-719.806	-200.000	-0.006	-0.030
-718.791	-33.219	0.141	0.079
-717.777	-102.418	-0.306	-0.074
-716.762	338.774	0.226	0.445
-715.748	490.006	-0.129	-0.300
-714.733	451.951	0.063	-0.141
-713.718	-103.615	0.188	0.045
-712.704	-126.972	0.158	0.024
-711.689	-68.017	0.106	0.042
-710.675	137.937	0.235	-0.312
-709.660	16.103	0.062	0.050
-708.645	-164.097	0.256	0.012
-707.631	-200.000	0.007	-0.066
-706.616	-200.000	-0.097	-0.429
-705.602	-200.000	-0.081	-0.399
-704.587	169.058	-0.064	-0.092
-703.572	113.353	0.246	0.302
-702.558	-161.910	-0.136	-0.007
-701.543	116.222	0.032	0.040
-700.529	155.912	0.175	-0.245
-699.514	-200.000	0.004	0.557
-698.499	-6.786	0.219	0.151
-697.485	222.470	0.030	-0.050
-696.470	156.772	-0.239	-0.334
-695.456	273.096	-0.069	-0.124
-694.441	-200.000	0.012	-0.066
-693.426	-200.000	0.026	0.127
-692.412	-51.709	0.058	-0.027
-691.397	-127.356	0.031	0.005
-690.383	-171.909	-0.126	-0.004
-689.368	800.000	0.029	-0.082
-688.354	2.950	-0.107	-0.079
-687.339	-83.517	-0.086	-0.028
-686.324	-200.000	0.086	0.413
-685.310	781.392	-0.143	0.395
-684.295	7.258	-0.260	-0.196
-683.281	800.000	-0.029	0.122
-682.266	-105.244	-0.094	0.022
-681.251	-24.504	0.228	0.137
-680.237	-67.230	-0.225	-0.089
-679.222	800.000	0.053	-0.148
-678.208	-134.974	0.363	-0.044
-677.193	490.207	-0.091	0.211
-676.178	-200.000	0.015	-0.107
-675.164	592.372	0.020	0.051
-674.149	-91.270	0.439	-0.127
-673.135	-123.503	-0.270	-0.043
-672.120	-200.000	0.022	-0.321
-671.105	118.320	0.167	0.208
-670.091	-116.864	-0.172	-0.032
-669.076	-76.046	-0.269	0.096
-668.062	45.321	-0.083	0.078
-667.047	611.089	-0.100	-0.252
-666.032	-67.756	0.087	-0.034
-665.018	-79.360	0.104	0.035
-664.003	5.085	-0.213	0.158
-662.989	-200.000	-0.000	-0.110
-661.974	-94.868	-0.109	0.030
-660.959	21.612	-0.203	-0.167
-659.945	473.981	0.101	-0.229
-658.930	-37.955	0.109	0.059
-657.916	-200.000	0.014	-0.091
-656.901	-200.000	-0.044	-0.197
-655.886	15.390	0.277	-0.219
-654.872	194.921	-0.069	-0.106
-653.857	546.676	0.043	0.105
-652.843	274.637	-0.111	-0.198
-651.828	306.372	-0.093	-0.176
-650.814	-162.584	-0.051	0.003
-649.799	-121.345	0.086	0.015
-648.784	-149.247	0.401	-0.032
-647.770	-98.738	-0.320	0.082
-646.755	42.657	-0.426	-0.391
-645.741	-125.463	-0.272	-0.042
-644.726	663.934	0.069	-0.180
-643.711	-141.830	0.142	0.014
-642.697	-2.242	0.126	-0.089
-641.682	-71.444	0.259	0.098
-640.668	-176.002	-0.249	-0.007
-639.653	-103.757	-0.375	-0.089
-638.638	-133.058	-0.234	-0.030
-637.624	-4.765	-0.438	-0.305
-636.609	-89.484	-0.233	0.069
-635.595	-92.183	0.205	-0.058
-634.580	-200.000	-0.029	-0.158
-633.565	-64.031	-0.142	-0.058
-632.551	4.359	-0.124	-0.092
-631.536	123.822	0.015	0.019
-630.522	85.687	0.202	-0.224
-629.507	-73.932	-0.427	-0.156
-628.492	275.428	-0.061	-0.109
-627.478	15.542	-0.130	0.103
-626.463	800.000	0.074	0.252
-625.449	233.257	0.039	-0.065
-624.434	-31.363	0.269	-0.153
-623.419	186.114	-0.053	0.079
-622.405	-27.040	-0.265	0.156
-621.390	-200.000	-0.017	0.222
-620.376	-145.985	-0.151	0.014
-619.361	-200.000	-0.038	-0.284
-618.346	-200.000	0.011	-0.390
-617.332	-200.000	-0.007	-0.041
-616.317	-200.000	0.050	0.226
-615.303	-15.466	0.135	0.087
-614.288	800.000	0.099	0.283
-613.273	26.556	0.293	-0.248
-612.259	-99.710	0.055	-0.014
-611.244	-35.995	-0.266	0.145
-610.230	751.209	0.037	0.100
-609.215	-145.308	-0.072	-0.007
-608.201	316.791	-0.090	-0.171
-607.186	-125.631	-0.180	0.028
-606.171	-26.299	0.024	0.014
-605.157	-62.800	-0.319	-0.133
-604.142	-105.182	-0.169	-0.039
-603.128	41.895	0.165	-0.151
-602.113	-47.951	-0.052	-0.026
-601.098	-28.705	0.187	0.109
-600.084	-41.363	0.135	-0.070
-599.069	98.095	0.169	0.196
-598.055	-29.232	0.075	0.043
-597.040	17.434	0.420	-0.336
-596.025	-135.096	0.117	-0.014
-595.011	-172.357	-0.130	-0.004
-593.996	-81.934	0.457	-0.151
-592.982	-200.000	0.065	0.339
-591.967	82.280	0.152	0.166
-590.952	-200.000	-0.075	-0.383
-589.938	87.362	-0.113	0.126
-588.923	-91.366	-0.303	-0.087
-587.909	-151.582	0.372	-0.028
-586.894	-81.365	0.565	0.188
-585.879	198.373	0.113	-0.174
-584.865	83.372	-0.090	0.099
-583.850	-52.889	0.306	-0.142
-582.836	-200.000	-0.042	0.214
-581.821	-200.000	-0.007	-0.102
-580.806	355.201	-0.307	-0.616
-579.792	615.710	-0.051	0.128
-578.777	114.909	-0.433	0.532
-577.763	-49.946	-0.092	-0.044
-576.748	0.735	0.208	0.150
-575.733	-17.685	-0.077	-0.049
-574.719	-140.100	-0.105	-0.011
-573.704	800.000	0.072	0.283
-572.690	209.701	0.039	-0.061
-571.675	800.000	-0.043	-0.168
-570.661	471.207	0.094	0.213
-569.646	468.146	0.075	0.170
-568.631	800.000	-0.017	-0.064
-567.617	-138.574	0.083	0.009
-566.602	-86.741	0.481	-0.148
-565.588	106.207	-0.206	-0.245
-564.573	-170.253	0.226	-0.008
-563.558	301.113	0.032	0.059
-562.544	59.423	-0.091	0.090
-561.529	-43.357	0.232	-0.118
-560.515	-200.000	-0.028	-0.134
-559.500	-101.580	-0.121	-0.030
-558.485	800.000	0.083	-0.235
-557.471	-150.185	-0.304	-0.024
-556.456	800.000	0.135	0.402
-555.442	-200.000	0.008	0.076
-554.427	-151.244	0.258	-0.019
-553.412	-105.927	0.166	-0.038
-552.398	10.865	0.295	-0.227
-551.383	482.292	0.032	-0.072
-550.369	-168.384	-0.039	-0.001
-549.354	-60.624	-0.387	0.165
-548.339	630.171	-0.144	-0.367
-547.325	286.752	-0.091	0.165
-546.310	-60.535	-0.191	-0.082
-545.296	-200.000	0.001	0.071
-544.281	174.441	-0.094	0.137
-543.266	-200.000	-0.006	-0.060
-542.252	800.000	-0.056	-0.185
-541.237	23.437	-0.386	-0.319
-540.223	800.000	0.035	0.112
-539.208	-16.086	0.296	-0.189
-538.193	800.000	0.103	-0.307
-537.179	286.366	0.053	-0.097
-536.164	59.136	-0.303	-0.300
-535.150	-108.386	-0.063	0.014
-534.135	-125.084	0.253	0.039
-533.121	-81.634	0.267	-0.088
-532.106	-31.346	-0.119	0.067
-531.091	89.008	-0.105	-0.117
-530.077	-200.000	-0.030	-0.222
-529.062	-96.066	-0.262	0.070
-528.048	743.209	0.069	-0.187
-527.033	382.877	-0.090	0.186
-526.018	19.499	-0.121	0.097
-525.004	-200.000	-0.029	0.382
-523.989	-16.949	-0.118	0.075
-522.975	-200.000	0.006	0.121
-521.960	-200.000	0.025	0.313
-520.945	67.478	-0.105	0.108
-519.931	800.000	-0.052	0.161
-518.916	-200.000	-0.008	-0.096
-517.902	800.000	-0.071	0.215
-516.887	-155.769	-0.261	0.017
-515.872	458.741	0.082	-0.184
-514.858	212.870	-0.214	-0.339
-513.843	-200.000	0.020	0.207
-512.829	-82.161	-0.384	0.126
-511.814	-4.896	-0.164	0.113
-510.799	-89.278	-0.226	0.067
-509.785	-139.142	0.265	-0.029
-508.770	-200.000	-0.029	0.218
-507.756	-200.000	0.063	0.356
-506.741	-111.828	0.186	0.038
-505.726	-200.000	0.010	0.097
-504.712	-52.928	-0.114	-0.052
-503.697	800.000	-0.083	-0.261
-502.683	41.888	-0.106	-0.096
-501.668	-49.373	0.305	0.146
-500.653	800.000	0.069	-0.229
-499.639	-78.106	-0.223	-0.077
-498.624	371.205	-0.179	0.365
-497.610	317.460	0.114	-0.217
-496.595	41.412	-0.171	-0.156
-495.581	-133.690	-0.302	-0.038
-494.566	800.000	-0.087	0.355
-493.551	15.786	0.093	0.073
-492.537	-120.569	0.210	-0.036
-491.522	800.000	-0.061	-0.264
-490.508	69.523	0.142	0.147
-489.493	422.146	-0.089	-0.191
-488.478	50.253	-0.268	-0.255
-487.464	16.411	-0.106	-0.084
-486.449	-151.427	-0.074	0.005
-485.435	87.450	-0.081	-0.090
-484.420	-143.704	-0.159	-0.015
-483.405	24.132	-0.296	-0.246
-482.391	-104.523	-0.117	0.027
-481.376	115.331	0.031	0.038
-480.362	470.929	0.012	0.026
-479.347	-200.000	-0.030	0.342
-478.332	795.991	0.095	-0.262
-477.318	-117.298	-0.158	0.029
-476.303	-92.952	0.066	0.019
-475.289	693.587	0.145	-0.381
-474.274	-103.948	0.493	0.116
-473.259	-46.906	-0.107	0.052
-472.245	-200.000	-0.004	0.216
-471.230	-200.000	-0.035	0.169
-470.216	293.389	0.163	0.299
-469.201	-200.000	-0.005	0.065
-468.186	-136.625	-0.105	-0.012
-467.172	475.885	-0.156	0.353
-466.157	-200.000	-0.011	-0.309
-465.143	75.043	-0.160	0.169
-464.128	297.215	-0.094	-0.174
-463.113	-86.914	0.043	0.013
-462.099	-104.485	0.213	0.049
-461.084	-200.000	-0.045	-0.317
-460.070	391.645	-0.027	0.056
-459.055	-200.000	0.006	-0.092
-458.040	-168.912	0.154	-0.006
-457.026	-173.358	0.122	-0.004
-456.011	554.309	-0.121	-0.293
-454.997	225.412	-0.153	-0.249
-453.982	-200.000	0.002	-0.045
-452.968	800.000	-0.127	0.535
-451.953	-42.486	0.406	-0.208
-450.938	-200.000	0.017	-0.120
-449.924	-72.503	-0.304	0.113
-448.909	402.868	0.029	0.062
-447.895	662.319	-0.055	0.141
-446.880	-68.472	-0.238	-0.093
-445.865	122.523	-0.134	0.168
-444.851	544.063	0.066	-0.158
-443.836	-185.589	0.098	0.001
-442.822	216.282	0.077	-0.123
-441.807	-200.000	-0.000	-0.020
-440.792	308.013	0.041	0.076
-439.778	22.943	0.104	-0.085
-438.763	218.466	0.119	0.191
-437.749	800.000	-0.069	-0.206
-436.734	-86.931	-0.186	-0.057
-435.719	70.257	0.176	0.183
-434.705	-12.087	0.246	0.161
-433.690	-161.972	0.144	0.007
-432.676	-75.515	-0.231	0.082
-431.661	-82.244	-0.100	0.032
-430.646	174.399	0.163	0.237
-429.632	197.403	0.088	-0.135
-428.617	-3.041	-0.351	0.245
-427.603	130.756	0.066	0.085
-426.588	-118.638	0.185	-0.033
-425.573	-3.922	-0.531	0.369
-424.559	487.187	-0.074	0.170
-423.544	-104.079	0.173	-0.040
-422.530	140.229	-0.018	-0.024
-421.515	-169.346	0.225	-0.008
-420.500	-200.000	0.024	0.109
-419.486	26.020	-0.045	-0.037
-418.471	-91.343	-0.415	-0.119
-417.457	-200.000	0.000	0.013
-416.442	61.505	0.153	0.152
-415.428	405.070	-0.122	-0.258
-414.413	-200.000	-0.009	0.339
-413.398	55.177	-0.276	0.267
-412.384	115.237	0.255	0.312
-411.369	-59.712	-0.090	-0.039
-410.355	304.763	-0.157	0.293
-409.340	27.567	0.329	0.277
-408.325	-72.960	-0.310	-0.114
-407.311	106.535	0.099	0.117
-406.296	497.929	-0.039	0.089
-405.282	-187.278	-0.218	-0.003
-404.267	-200.000	-0.011	0.292
-403.252	214.953	-0.152	0.241
-402.238	199.416	0.218	0.334
-401.223	-130.341	-0.482	0.065
-400.209	-8.960	-0.143	-0.096
-399.194	15.471	0.072	0.056
-398.179	-41.961	-0.098	-0.050
-397.165	-185.173	-0.257	-0.004
-396.150	-200.000	-0.024	-0.127
-395.136	-161.401	0.321	-0.017
-394.121	291.386	-0.091	0.165
-393.106	-48.402	-0.270	0.130
-392.092	-200.000	-0.004	0.143
-391.077	225.327	-0.034	-0.055
-390.063	-104.721	-0.216	0.050
-389.048	-115.021	-0.290	-0.055
-388.033	-200.000	-0.010	-0.171
-387.019	-185.615	0.049	0.001
-386.004	-200.000	0.031	0.194
-384.990	66.920	-0.255	-0.260
-383.975	-200.000	0.031	0.275
-382.960	-23.455	-0.327	0.196
-381.946	-63.687	0.125	-0.051
-380.931	-155.497	-0.115	0.007
-379.917	-4.072	-0.142	-0.098
-378.902	-74.155	0.476	-0.172
-377.888	800.000	0.040	-0.171
-376.873	34.363	0.219	0.191
-375.858	484.129	-0.185	-0.420
-374.844	800.000	-0.065	-0.186
-373.829	-182.255	-0.239	-0.004
-372.815	-116.439	0.255	-0.047
-371.800	148.997	-0.249	0.336
-370.785	-200.000	-0.018	-0.211
-369.771	-12.753	0.169	0.110
-368.756	219.281	-0.167	0.267
-367.742	-200.000	-0.022	-0.188
-366.727	-167.851	-0.091	0.004
-365.712	-200.000	-0.005	-0.120
-364.698	-200.000	-0.024	0.393
-363.683	-200.000	-0.009	0.129
-362.669	-200.000	0.045	-0.341
-361.654	-100.992	0.373	-0.091
-360.639	195.636	-0.075	0.113
-359.625	-81.363	0.241	-0.079
-358.610	-144.509	0.096	-0.009
-357.596	46.089	-0.142	0.131
-356.581	-26.234	-0.074	-0.043
-355.566	-54.710	0.104	-0.047
-354.552	109.377	-0.223	-0.267
-353.537	70.584	-0.101	-0.104
-352.523	470.787	-0.130	-0.293
-351.508	718.765	-0.038	-0.100
-350.493	-200.000	0.006	-0.050
-349.479	22.274	-0.172	-0.140
-348.464	-124.099	-0.241	0.038
-347.450	-52.256	0.173	-0.080
-346.435	163.368	0.170	0.238
-345.420	-71.548	0.335	0.125
-344.406	-72.144	0.198	0.073
-343.391	78.273	0.458	-0.488
-342.377	407.730	0.140	-0.295
-341.362	55.023	-0.007	0.007
-340.348	-200.000	0.060	0.437
-339.333	-166.313	-0.286	-0.012
-338.318	43.499	0.145	-0.132
-337.304	119.375	0.116	-0.143
-336.289	782.629	0.021	0.059
-335.275	-200.000	0.049	0.332
-334.260	-156.168	-0.153	0.010
-333.245	499.001	-0.095	-0.219
-332.231	226.573	0.080	0.129
-331.216	-59.513	-0.313	-0.134
-330.202	-29.195	0.323	0.184
-329.187	5.350	0.222	-0.164
-328.172	-200.000	-0.022	0.199
-327.158	-200.000	-0.006	0.361
-326.143	32.384	0.328	0.283
-325.129	-21.059	-0.221	-0.135
-324.114	-116.032	-0.355	-0.066
-323.099	-158.817	0.229	0.013
-322.085	-200.000	0.000	-0.166
-321.070	95.665	0.115	-0.131
-320.056	77.272	0.075	0.079
-319.041	-200.000	-0.004	-0.257
-318.026	800.000	-0.056	-0.229
-317.012	298.566	0.104	0.190
-315.997	-200.000	-0.094	0.507
-314.983	-200.000	0.049	0.216
-313.968	-28.610	0.128	0.074
-312.953	-200.000	-0.024	-0.179
-311.939	-200.000	-0.043	0.387
-310.924	11.458	0.216	0.165
-309.910	800.000	-0.014	0.054
-308.895	175.353	0.193	0.279
-307.880	143.855	0.100	0.133
-306.866	-158.612	0.082	0.005
-305.851	-36.563	0.195	-0.105
-304.837	158.241	0.109	0.151
-303.822	-54.475	0.136	-0.061
-302.807	48.715	-0.185	0.173
-301.793	108.538	0.103	-0.122
-300.778	800.000	-0.094	0.315
-299.764	-78.529	-0.240	-0.082
-298.749	126.688	-0.084	-0.107
-297.735	-121.500	0.294	-0.049
-296.720	-200.000	-0.025	-0.223
-295.705	-62.269	-0.325	0.135
-294.691	64.713	0.081	-0.082
-293.676	217.691	-0.224	0.357
-292.662	717.036	-0.055	-0.145
-291.647	-4.309	-0.160	-0.110
-290.632	-39.912	-0.332	-0.172
-289.618	112.442	0.156	-0.188
-288.603	26.416	0.096	-0.080
-287.589	-200.000	0.004	0.342
-286.574	-200.000	0.020	0.217
-285.559	-72.434	-0.403	-0.149
-284.545	93.613	0.162	0.183
-283.530	-200.000	-0.011	-0.331
-282.516	-157.940	-0.277	0.016
-281.501	-99.497	0.344	0.086
-280.486	-67.147	-0.073	0.029
-279.472	-200.000	-0.054	0.259
-278.457	237.734	0.122	0.201
-277.443	786.889	-0.086	-0.235
-276.428	-200.000	0.106	-0.000
-275.413	-104.472	-0.156	0.036
-274.399	-200.000	-0.005	0.173
-273.384	745.864	0.139	-0.371
-272.370	9.452	0.219	0.165
-271.355	-1.589	-0.145	0.102
-270.340	-66.246	0.089	0.035
-269.326	-85.745	0.044	-0.013
-268.311	-15.880	-0.047	-0.030
-267.297	191.217	0.134	-0.201
-266.282	-200.000	-0.004	-0.101
-265.267	-10.012	-0.165	-0.109
-264.253	-102.423	0.047	0.011
-263.238	85.075	0.163	0.178
-262.224	-113.920	-0.145	0.028
-261.209	419.607	0.015	0.031
-260.195	636.801	-0.047	0.120
-259.180	182.144	0.076	-0.111
-258.165	-200.000	-0.027	-0.160
-257.151	-200.000	-0.007	-0.263
-256.136	160.895	0.095	0.133
-255.122	498.146	0.032	0.074
-254.107	22.921	0.221	0.181
-253.092	121.183	-0.201	-0.249
-252.078	55.428	0.152	0.147
-251.063	-200.000	-0.056	0.426
-250.049	-164.142	0.291	-0.013
-249.034	-200.000	0.058	0.283
-248.019	179.289	-0.096	0.140
-247.005	800.000	-0.049	0.188
-245.990	-200.000	0.006	0.141
-244.976	281.033	-0.075	-0.133
-243.961	-54.874	0.458	0.206
-242.946	85.953	-0.214	0.234
-241.932	-200.000	0.025	0.322
-240.917	-200.000	0.011	-0.196
-239.903	-48.620	-0.321	0.153
-238.888	-37.919	0.197	0.104
-237.873	158.927	0.076	0.105
-236.859	332.425	0.116	-0.223
-235.844	199.729	0.142	-0.217
-234.830	123.389	0.104	-0.130
-233.815	-150.224	0.091	-0.007
-232.800	-137.447	0.298	-0.034
-231.786	-94.463	-0.468	0.127
-230.771	-69.955	0.192	-0.073
-229.757	-126.410	-0.085	0.013
-228.742	-13.588	-0.017	-0.011
-227.727	98.387	-0.174	-0.199
-226.713	-67.504	-0.197	-0.077
-225.698	-73.774	0.224	-0.081
-224.684	-89.270	0.191	-0.056
-223.669	-52.851	-0.197	-0.090
-222.655	800.000	-0.039	-0.146
-221.640	-111.550	0.386	0.078
-220.625	-44.248	0.096	0.048
-219.611	-68.099	0.161	-0.062
-218.596	365.729	0.155	0.311
-217.582	-200.000	-0.055	-0.446
-216.567	-56.227	0.243	-0.107
-215.552	13.498	0.101	-0.078
-214.538	250.999	0.079	-0.134
-213.523	800.000	0.030	0.097
-212.509	64.621	0.145	-0.145
-211.494	115.596	0.092	0.112
-210.479	229.890	0.136	0.221
-209.465	675.092	0.093	-0.241
-208.450	74.871	0.155	0.162
-207.436	-69.569	0.184	0.070
-206.421	43.045	-0.064	-0.058
-205.406	400.087	0.043	-0.089
-204.392	800.000	0.097	-0.336
-203.377	800.000	-0.042	-0.138
-202.363	-200.000	0.095	-0.465
-201.348	-200.000	-0.039	-0.249
-200.333	800.000	0.139	0.445
-199.319	-3.595	0.204	-0.140
-198.304	-200.000	-0.002	-0.236
-197.290	29.822	-0.202	-0.171
-196.275	389.077	-0.112	0.231
-195.260	-90.861	-0.339	-0.097
-194.246	-36.628	0.080	-0.043
-193.231	119.811	-0.136	-0.167
-192.217	-107.216	0.079	-0.017
-191.202	-200.000	-0.013	0.189
-190.187	-153.685	0.139	-0.009
-189.173	-40.006	-0.285	0.147
-188.158	-16.040	0.092	-0.058
-187.144	445.619	-0.029	0.064
-186.129	800.000	-0.107	-0.419
-185.114	-200.000	-0.029	0.206
-184.100	97.221	-0.278	0.317
-183.085	800.000	-0.049	-0.140
-182.071	-134.865	-0.427	-0.051
-181.056	322.106	0.241	-0.455
-180.042	-16.036	0.179	0.113
-179.027	354.642	0.103	0.202
-178.012	800.000	-0.049	0.183
-176.998	-145.738	0.307	0.027
-175.983	21.291	-0.164	-0.132
-174.969	-104.910	0.378	-0.086
-173.954	-23.284	-0.078	-0.047
-172.939	800.000	-0.027	-0.114
-171.925	59.180	0.153	-0.149
-170.910	-90.211	0.217	-0.062
-169.896	-82.841	-0.463	0.148
-168.881	-90.824	0.265	-0.076
-167.866	48.321	0.260	-0.242
-166.852	800.000	0.104	-0.312
-165.837	-200.000	-0.002	0.238
-164.823	33.197	-0.207	-0.178
-163.808	-191.762	0.227	-0.002
-162.793	-17.927	0.267	-0.166
-161.779	-188.783	0.122	-0.001
-160.764	-200.000	-0.017	0.320
-159.750	-40.966	0.171	0.088
-158.735	-20.607	0.196	-0.120
-157.720	13.759	0.183	0.141
-156.706	-114.945	0.021	-0.004
-155.691	-40.394	0.130	-0.067
-154.677	347.424	-0.093	-0.181
-153.662	-27.938	0.273	0.156
-152.647	763.717	-0.035	-0.094
-151.633	-200.000	0.004	-0.257
-150.618	-128.891	-0.141	-0.020
-149.604	800.000	-0.088	0.254
-148.589	-129.725	0.241	0.033
-147.574	-200.000	-0.013	-0.304
-146.560	-79.815	0.139	-0.046
-145.545	-133.491	0.128	-0.016
-144.531	-48.381	-0.162	0.077
-143.516	-41.296	-0.555	-0.283
-142.502	302.940	0.140	-0.256
-141.487	9.827	0.014	0.011
-140.472	-93.839	-0.138	0.038
-139.458	287.291	0.093	-0.167
-138.443	-200.000	0.004	-0.197
-137.429	800.000	-0.016	-0.054
-136.414	50.141	0.294	-0.275
-135.399	186.022	-0.191	-0.282
-134.385	-200.000	0.005	-0.058
-133.370	800.000	-0.074	-0.206
-132.356	759.154	0.128	-0.344
-131.341	800.000	-0.041	-0.144
-130.326	124.220	-0.207	0.257
-129.312	-136.273	0.118	0.014
-128.297	43.434	0.171	-0.155
-127.283	-186.905	-0.010	-0.000
-126.268	52.283	0.159	-0.151
-125.253	-200.000	-0.023	0.268
-124.239	724.469	-0.052	0.136
-123.224	-12.778	0.213	0.137
