DTS Sentinel unit serial number:	SN413079Multiplexer serial number:	ORYXHardware model number:	OX4-SRSoftware version number:	ORYX F/W v4.00 Oryx Data Collector v3.7.2.0data status	okinstallation	princeton_trtdifferential loss correction	single-endedforward channel	channel 3reverse channel	N/Adate	2019/09/19time	09:40:35forward acquisition time	60.00reverse acquisition time	0.00gamma	496.2192k internal	0.2344k external	0.2344temperature offset calibration	0.9974default loss term (dB/km)	0.3790temperature slope calibration	1.0000multiplexer offset coefficient	1.0000multiplexer slope coefficient	1.0000fibre end	0.00T internal ref (°C)	23.14T ext. ref 1 (°C)	0.63T ext. ref 2 (°C)	19.43length (m)	temperature (°C)	Stokes	anti-Stokes-747.200	-200.000	-0.020	0.318
-746.185	66.156	-0.157	0.159
-745.171	67.317	-0.249	0.255
-744.156	57.380	0.095	0.093
-743.142	-33.761	0.111	0.061
-742.127	25.903	0.168	-0.140
-741.112	194.918	0.105	0.160
-740.098	-21.767	-0.224	0.136
-739.083	235.035	-0.233	0.386
-738.069	800.000	0.060	0.256
-737.054	-7.773	-0.178	-0.120
-736.039	84.507	-0.263	-0.288
-735.025	800.000	0.056	0.244
-734.010	-200.000	0.002	0.200
-732.996	-137.978	-0.228	-0.025
-731.981	-37.501	-0.174	0.093
-730.966	75.138	0.183	-0.193
-729.952	-10.379	-0.247	-0.164
-728.937	714.760	-0.078	-0.207
-727.923	-157.321	-0.312	-0.019
-726.908	-117.084	-0.162	0.030
-725.894	-170.996	-0.075	-0.003
-724.879	-69.947	-0.155	0.059
-723.864	-83.860	-0.031	0.010
-722.850	155.974	0.044	-0.061
-721.835	46.742	-0.180	0.167
-720.821	75.467	-0.047	-0.050
-719.806	-188.812	-0.185	-0.002
-718.791	-200.000	0.018	-0.134
-717.777	-120.835	0.230	0.039
-716.762	-62.201	-0.109	-0.046
-715.748	79.830	0.067	0.072
-714.733	800.000	0.046	0.179
-713.718	36.899	-0.378	0.334
-712.704	-94.590	0.110	0.030
-711.689	-62.181	0.358	0.149
-710.675	-86.922	0.132	0.040
-709.660	-34.880	0.334	-0.182
-708.645	-188.287	-0.317	0.004
-707.631	-126.680	-0.277	-0.041
-706.616	-44.253	0.156	-0.078
-705.602	20.374	0.306	-0.248
-704.587	-200.000	0.032	0.209
-703.572	101.996	0.046	0.054
-702.558	225.259	-0.193	0.312
-701.543	129.763	-0.238	-0.303
-700.529	302.168	0.135	-0.250
-699.514	77.526	-0.119	0.127
-698.499	-119.333	0.169	-0.029
-697.485	158.517	-0.099	0.138
-696.470	-140.743	0.396	-0.041
-695.456	508.090	-0.044	-0.103
-694.441	58.459	0.193	0.189
-693.426	-108.929	-0.099	-0.021
-692.412	800.000	-0.016	-0.063
-691.397	-148.075	-0.595	-0.049
-690.383	-92.832	0.120	-0.033
-689.368	266.068	-0.176	0.307
-688.354	-156.434	0.072	0.004
-687.339	250.163	-0.024	-0.041
-686.324	-45.353	-0.106	-0.053
-685.310	437.187	-0.216	-0.471
-684.295	104.661	0.099	0.116
-683.281	269.243	-0.187	-0.329
-682.266	-9.325	0.211	-0.141
-681.251	-200.000	-0.055	0.355
-680.237	-112.206	0.087	-0.018
-679.222	-200.000	-0.042	-0.186
-678.208	507.788	-0.083	-0.192
-677.193	-200.000	-0.063	-0.394
-676.178	616.475	-0.160	0.401
-675.164	-46.894	-0.218	-0.107
-674.149	362.000	-0.187	-0.374
-673.135	-110.288	-0.104	-0.022
-672.120	-57.521	-0.285	0.125
-671.105	-125.644	0.068	-0.010
-670.091	406.045	-0.101	-0.212
-669.076	-17.770	0.123	0.077
-668.062	800.000	0.043	0.186
-667.047	-72.562	0.276	0.102
-666.032	430.430	-0.177	0.381
-665.018	219.452	-0.153	0.244
-664.003	59.999	0.375	-0.370
-662.989	-200.000	-0.002	0.079
-661.974	800.000	-0.121	0.343
-660.959	-24.060	-0.091	-0.054
-659.945	259.095	0.128	-0.220
-658.930	800.000	-0.044	-0.161
-657.916	725.463	-0.139	-0.370
-656.901	744.760	0.045	-0.121
-655.886	199.577	-0.210	0.321
-654.872	-28.560	-0.234	-0.135
-653.857	-200.000	-0.029	-0.266
-652.843	-200.000	0.007	0.251
-651.828	-2.457	-0.126	-0.088
-650.814	113.952	-0.141	-0.171
-649.799	-200.000	0.002	-0.113
-648.784	-200.000	0.004	-0.272
-647.770	-153.649	-0.171	-0.012
-646.755	-81.552	0.322	0.106
-645.741	-200.000	-0.013	-0.167
-644.726	355.050	0.033	0.065
-643.711	75.455	-0.010	0.011
-642.697	-4.042	0.075	0.052
-641.682	200.996	0.009	-0.014
-640.668	-68.612	-0.099	-0.038
-639.653	800.000	0.024	-0.104
-638.638	-200.000	-0.026	-0.187
-637.624	-68.179	0.335	0.130
-636.609	-200.000	0.039	0.368
-635.595	-111.350	0.310	-0.063
-634.580	-200.000	-0.034	0.198
-633.565	1.750	-0.190	0.137
-632.551	-151.754	0.237	-0.017
-631.536	-200.000	-0.006	0.222
-630.522	2.750	0.120	0.087
-629.507	-29.286	-0.166	-0.095
-628.492	70.615	0.267	0.275
-627.478	-33.825	-0.099	-0.054
-626.463	-136.001	0.200	-0.023
-625.449	800.000	-0.036	0.132
-624.434	-200.000	-0.016	-0.105
-623.419	-16.819	-0.165	-0.104
-622.405	471.707	0.111	0.249
-621.390	-83.995	-0.195	-0.062
-620.376	800.000	0.037	0.144
-619.361	-29.314	-0.346	-0.197
-618.346	-95.355	-0.190	-0.051
-617.332	-200.000	-0.008	-0.069
-616.317	-200.000	0.006	0.033
-615.303	113.514	-0.168	-0.203
-614.288	-200.000	-0.054	0.299
-613.273	2.804	-0.209	-0.151
-612.259	631.391	-0.095	-0.238
-611.244	31.786	0.139	0.119
-610.230	186.624	0.071	-0.105
-609.215	-200.000	-0.009	0.245
-608.201	-190.912	-0.267	0.003
-607.186	-16.884	0.435	-0.274
-606.171	-51.027	-0.032	-0.015
-605.157	-143.216	0.225	0.022
-604.142	-30.581	-0.224	-0.126
-603.128	-200.000	0.058	-0.306
-602.113	-4.252	0.080	-0.055
-601.098	-200.000	-0.012	0.085
-600.084	-155.394	0.408	-0.026
-599.069	-107.127	-0.335	-0.073
-598.055	30.739	-0.109	0.093
-597.040	-17.559	-0.202	0.126
-596.025	-200.000	0.020	-0.101
-595.011	47.950	0.240	-0.223
-593.996	-166.042	0.151	-0.006
-592.982	800.000	0.047	0.169
-591.967	72.982	0.213	-0.222
-590.952	17.445	-0.145	-0.114
-589.938	62.843	-0.129	0.129
-588.923	-200.000	-0.076	0.424
-587.909	95.269	-0.091	-0.103
-586.894	98.867	-0.159	-0.182
-585.879	800.000	-0.061	-0.181
-584.865	-104.270	-0.241	0.056
-583.850	-200.000	0.069	-0.342
-582.836	-87.831	0.178	0.053
-581.821	-200.000	0.006	-0.086
-580.806	800.000	-0.036	-0.105
-579.792	-200.000	-0.005	-0.199
-578.777	-98.033	0.187	-0.048
-577.763	29.668	-0.211	-0.179
-576.748	611.574	0.023	-0.057
-575.733	-89.257	0.204	-0.060
-574.719	800.000	-0.052	0.158
-573.704	-200.000	0.011	-0.281
-572.690	-200.000	0.061	0.304
-571.675	223.308	-0.150	0.240
-570.661	-188.286	0.484	0.006
-569.646	456.066	0.071	0.156
-568.631	-200.000	-0.035	0.613
-567.617	0.280	-0.192	0.136
-566.602	162.871	0.085	0.118
-565.588	330.438	-0.283	0.542
-564.573	-122.170	0.380	0.062
-563.558	-200.000	-0.024	-0.260
-562.544	222.794	-0.025	0.040
-561.529	2.534	-0.490	0.353
-560.515	-200.000	-0.038	-0.422
-559.500	-200.000	-0.036	-0.453
-558.485	-113.236	0.057	0.011
-557.471	-200.000	-0.008	0.225
-556.456	483.448	0.094	-0.212
-555.442	-12.414	0.322	0.209
-554.427	142.810	-0.138	-0.182
-553.412	72.558	-0.203	-0.210
-552.398	-38.768	-0.305	0.160
-551.383	800.000	0.046	-0.130
-550.369	32.653	0.283	0.243
-549.354	639.227	0.133	-0.337
-548.339	286.443	0.129	0.231
-547.325	800.000	0.022	0.065
-546.310	300.261	-0.099	0.181
-545.296	164.107	0.064	-0.090
-544.281	800.000	-0.098	-0.284
-543.266	-18.697	-0.256	0.158
-542.252	-126.009	-0.299	0.045
-541.237	-200.000	-0.009	0.352
-540.223	169.281	-0.276	0.392
-539.208	-61.403	0.323	0.135
-538.193	-31.058	-0.117	0.065
-537.179	-42.593	0.057	0.029
-536.164	-72.412	-0.230	0.084
-535.150	-200.000	0.026	0.134
-534.135	29.001	0.136	0.114
-533.121	95.739	0.052	-0.059
-532.106	248.951	-0.193	-0.325
-531.091	263.531	0.164	-0.282
-530.077	-107.566	0.283	-0.061
-529.062	-52.676	0.143	-0.066
-528.048	-136.784	-0.199	-0.023
-527.033	53.804	0.134	-0.128
-526.018	-163.026	-0.176	0.008
-525.004	233.273	0.060	0.099
-523.989	26.051	0.108	0.089
-522.975	-54.963	-0.126	-0.056
-521.960	-107.366	-0.188	0.041
-520.945	56.530	0.120	-0.116
-519.931	715.366	-0.041	0.108
-518.916	-38.282	-0.144	-0.076
-517.902	-43.165	0.129	0.065
-516.887	151.537	0.031	0.042
-515.872	122.060	-0.041	0.051
-514.858	-90.487	-0.222	-0.064
-513.843	111.440	-0.103	0.124
-512.829	491.858	-0.182	0.414
-511.814	164.786	0.129	-0.180
-510.799	-200.000	0.047	-0.236
-509.785	32.210	-0.143	-0.123
-508.770	454.124	0.071	-0.157
-507.756	-200.000	-0.012	0.133
-506.741	82.366	-0.022	-0.024
-505.726	8.751	-0.186	0.139
-504.712	120.611	-0.147	0.181
-503.697	498.218	0.038	-0.087
-502.683	-137.616	0.179	0.020
-501.668	-200.000	0.012	-0.292
-500.653	35.710	-0.063	0.055
-499.639	-153.283	-0.247	0.017
-498.624	740.890	0.079	0.211
-497.610	188.569	0.047	-0.070
-496.595	392.479	0.142	-0.294
-495.581	581.722	0.091	0.222
-494.566	-23.202	0.229	0.136
-493.551	-16.418	0.219	-0.138
-492.537	-76.613	-0.349	-0.121
-491.522	22.055	-0.152	-0.123
-490.508	-11.875	0.009	-0.006
-489.493	76.544	0.083	-0.087
-488.478	-94.427	-0.148	-0.040
-487.464	41.469	0.087	0.078
-486.449	76.349	-0.185	0.195
-485.435	-200.000	0.041	0.179
-484.420	694.026	0.136	-0.354
-483.405	-200.000	0.001	0.061
-482.391	56.498	-0.300	-0.289
-481.376	271.404	-0.186	-0.324
-480.362	-21.138	0.041	0.025
-479.347	800.000	0.009	-0.027
-478.332	-137.020	-0.232	0.026
-477.318	-57.108	-0.231	-0.101
-476.303	593.885	-0.041	-0.100
-475.289	-19.090	0.210	-0.129
-474.274	-88.946	0.115	0.034
-473.259	-118.359	0.242	-0.043
-472.245	304.526	0.051	-0.093
-471.230	-200.000	-0.052	0.412
-470.216	-53.339	-0.191	-0.087
-469.201	-200.000	0.010	-0.102
-468.186	-12.366	-0.319	-0.207
-467.172	-136.082	-0.125	-0.015
-466.157	236.920	-0.030	0.049
-465.143	390.942	-0.041	-0.084
-464.128	57.624	-0.050	0.049
-463.113	-200.000	-0.017	-0.349
-462.099	-29.414	0.154	-0.087
-461.084	-61.951	-0.236	-0.098
-460.070	345.663	-0.139	-0.271
-459.055	-50.055	0.186	-0.087
-458.040	-200.000	0.045	0.226
-457.026	114.029	0.270	0.326
-456.011	800.000	-0.098	0.314
-454.997	-200.000	0.036	0.166
-453.982	64.908	0.089	0.089
-452.968	800.000	0.098	-0.385
-451.953	25.768	-0.157	-0.129
-450.938	-90.052	-0.155	-0.045
-449.924	282.861	0.063	0.112
-448.909	-57.346	-0.263	0.114
-447.895	-18.483	-0.115	0.071
-446.880	-147.944	0.096	0.008
-445.865	261.016	0.206	-0.352
-444.851	175.139	-0.357	-0.512
-443.836	-200.000	-0.007	0.113
-442.822	-34.524	-0.159	0.086
-441.807	800.000	0.014	-0.038
-440.792	-130.124	0.353	-0.048
-439.778	-53.900	0.110	0.049
-438.763	800.000	-0.093	0.257
-437.749	-200.000	0.041	-0.226
-436.734	-71.706	0.278	0.103
-435.719	-89.554	-0.365	-0.106
-434.705	-123.760	0.233	0.036
-433.690	800.000	0.056	0.211
-432.676	-200.000	-0.012	-0.396
-431.661	800.000	0.063	0.269
-430.646	-21.284	0.212	0.128
-429.632	-22.325	-0.113	-0.068
-428.617	-13.356	-0.194	0.124
-427.603	553.354	-0.131	0.311
-426.588	90.435	-0.249	0.276
-425.573	800.000	0.015	0.054
-424.559	252.641	0.140	-0.237
-423.544	690.066	0.066	-0.171
-422.530	146.572	0.068	-0.090
-421.515	19.586	0.218	0.173
-420.500	-155.768	-0.301	-0.019
-419.486	340.711	0.073	0.142
-418.471	-196.487	0.267	0.002
-417.457	222.594	0.036	-0.057
-416.442	20.195	0.200	0.160
-415.428	-78.332	-0.213	0.072
-414.413	64.676	0.073	-0.072
-413.398	82.234	-0.200	-0.214
-412.384	-166.441	-0.240	-0.010
-411.369	-73.030	0.086	-0.031
-410.355	0.928	0.083	-0.059
-409.340	68.669	0.107	-0.109
-408.325	97.502	-0.085	-0.097
-407.311	-200.000	-0.007	-0.274
-406.296	688.877	0.088	-0.228
-405.282	800.000	0.039	-0.156
-404.267	295.884	0.057	-0.103
-403.252	-78.765	-0.145	0.049
-402.238	111.193	0.130	-0.155
-401.223	-82.713	0.201	-0.064
-400.209	-93.764	0.191	0.052
-399.194	-35.062	-0.133	0.072
-398.179	408.663	-0.033	0.070
-397.165	243.429	-0.091	0.151
-396.150	257.830	-0.177	0.301
-395.136	-200.000	0.012	-0.143
-394.121	-61.564	0.073	-0.030
-393.106	-200.000	0.008	0.074
-392.092	13.984	0.132	-0.101
-391.077	-64.565	0.325	-0.130
-390.063	225.744	-0.044	-0.070
-389.048	800.000	-0.049	0.172
-388.033	-8.222	0.365	0.243
-387.019	18.708	0.036	-0.029
-386.004	-122.840	0.257	0.041
-384.990	-73.878	-0.418	-0.150
-383.975	46.153	0.257	-0.235
-382.960	-200.000	-0.225	0.000
-381.946	-200.000	-0.067	-0.447
-380.931	-34.022	-0.199	0.108
-379.917	-97.588	0.015	0.004
-378.902	-200.000	0.019	-0.177
-377.888	387.650	-0.012	0.024
-376.873	-33.873	0.277	0.151
-375.858	129.762	0.203	-0.257
-374.844	447.601	-0.059	-0.127
-373.829	800.000	-0.105	-0.387
-372.815	47.324	-0.217	-0.200
-371.800	-200.000	-0.000	0.220
-370.785	800.000	-0.041	-0.116
-369.771	-65.349	0.183	-0.072
-368.756	118.946	-0.176	0.215
-367.742	-4.991	0.148	-0.101
-366.727	497.528	0.040	0.091
-365.712	-109.221	-0.226	0.047
-364.698	-200.000	-0.033	-0.167
-363.683	-200.000	-0.017	0.279
-362.669	-145.907	-0.113	0.010
-361.654	428.765	-0.046	-0.097
-360.639	88.951	0.071	0.078
-359.625	800.000	-0.061	0.242
-358.610	2.647	0.501	-0.358
-357.596	-77.080	-0.238	0.082
-356.581	-131.393	0.021	0.003
-355.566	8.274	0.225	-0.167
-354.552	21.286	-0.231	0.185
-353.537	-49.412	0.432	-0.203
-352.523	-9.098	-0.084	0.055
-351.508	70.156	0.078	0.080
-350.493	-144.108	0.349	0.032
-349.479	-200.000	-0.046	-0.349
-348.464	-23.922	-0.191	0.113
-347.450	-200.000	0.003	0.265
-346.435	-109.424	0.398	-0.083
-345.420	91.350	0.148	0.164
-344.406	207.441	-0.111	-0.170
-343.391	-55.340	0.168	-0.075
-342.377	-37.586	-0.179	0.094
-341.362	153.926	-0.145	-0.196
-340.348	349.259	0.140	0.273
-339.333	-19.667	-0.099	-0.060
-338.318	800.000	-0.075	-0.204
-337.304	200.250	-0.206	0.311
-336.289	-145.254	-0.282	-0.025
-335.275	-200.000	-0.022	-0.102
-334.260	60.771	-0.270	-0.264
-333.245	-200.000	-0.041	0.317
-332.231	86.430	0.167	0.181
-331.216	161.507	0.139	0.192
-330.202	196.700	-0.038	0.057
-329.187	790.774	-0.027	-0.073
-328.172	-44.266	-0.216	-0.106
-327.158	241.924	0.215	-0.354
-326.143	87.192	-0.131	-0.143
-325.129	724.582	0.030	0.079
-324.114	-200.000	-0.017	0.356
-323.099	45.915	-0.051	-0.046
-322.085	-54.220	-0.097	0.043
-321.070	800.000	0.088	0.254
-320.056	-26.568	0.217	-0.125
-319.041	-196.028	0.493	-0.003
-318.026	141.340	0.194	0.253
-317.012	-29.359	-0.203	-0.114
-315.997	-200.000	0.010	-0.081
-314.983	-200.000	-0.015	-0.289
-313.968	0.091	-0.203	0.142
-312.953	9.685	0.113	-0.084
-311.939	268.821	-0.208	-0.359
-310.924	98.841	-0.114	0.130
-309.910	114.415	0.172	0.206
-308.895	-82.578	-0.077	0.025
-307.880	-55.384	-0.050	0.022
-306.866	98.935	0.115	-0.130
-305.851	800.000	-0.074	-0.259
-304.837	37.553	0.120	0.105
-303.822	-200.000	0.044	-0.272
-302.807	-200.000	0.001	0.271
-301.793	252.789	-0.196	-0.329
-300.778	497.437	0.041	-0.093
-299.764	-91.005	0.212	0.060
-298.749	327.702	0.165	0.311
-297.735	-20.204	-0.103	0.062
-296.720	308.168	-0.057	0.104
-295.705	-118.020	-0.197	-0.035
-294.691	150.914	-0.054	-0.073
-293.676	-42.805	-0.163	-0.081
-292.662	-91.192	-0.137	-0.039
-291.647	-107.593	-0.079	0.017
-290.632	800.000	0.066	-0.284
-289.618	-200.000	0.036	-0.246
-288.603	91.909	-0.296	0.328
-287.589	-200.000	-0.033	0.203
-286.574	787.696	0.048	0.130
-285.559	-22.153	0.303	0.181
-284.545	-200.000	-0.011	-0.080
-283.530	-134.303	0.137	-0.017
-282.516	16.292	0.182	-0.141
-281.501	-133.584	0.046	0.006
-280.486	-200.000	-0.027	0.241
-279.472	-200.000	-0.016	-0.088
-278.457	-119.250	-0.126	0.022
-277.443	799.783	-0.081	0.219
-276.428	352.014	0.116	-0.226
-275.413	359.688	0.093	-0.183
-274.399	800.000	-0.095	0.274
-273.384	-132.202	0.095	0.012
-272.370	15.271	-0.163	0.126
-271.355	-183.120	0.357	0.006
-270.340	-69.244	-0.242	0.091
-269.326	-72.099	-0.204	-0.074
-268.311	4.458	0.256	0.184
-267.297	-200.000	-0.039	-0.280
-266.282	756.374	0.059	0.157
-265.267	-75.473	0.218	0.076
-264.253	259.858	-0.099	0.168
-263.238	305.890	-0.103	-0.188
-262.224	-18.220	-0.180	0.111
-261.209	-166.988	0.437	-0.018
-260.195	5.743	-0.126	0.091
-259.180	111.625	-0.189	0.224
-258.165	154.656	0.046	0.062
-257.151	-45.112	-0.109	0.053
-256.136	-2.302	0.377	0.260
-255.122	-20.603	0.087	0.052
-254.107	-200.000	0.017	-0.251
-253.092	-200.000	-0.017	0.185
-252.078	-116.219	0.197	0.036
-251.063	-200.000	-0.013	0.091
-250.049	800.000	-0.066	0.179
-249.034	-40.431	0.261	0.133
-248.019	-41.186	0.244	0.124
-247.005	-24.167	-0.497	0.291
-245.990	-200.000	0.076	0.455
-244.976	111.424	0.144	0.171
-243.961	-200.000	0.003	-0.161
-242.946	63.454	0.238	0.234
-241.932	800.000	0.034	0.098
-240.917	-156.475	-0.060	0.004
-239.903	-92.953	-0.407	-0.111
-238.888	800.000	0.055	0.193
-237.873	203.496	-0.268	-0.407
-236.859	349.056	-0.071	-0.138
-235.844	-47.528	-0.007	0.004
-234.830	50.949	-0.023	0.021
-233.815	529.555	-0.202	-0.468
-232.800	-179.076	0.134	0.003
-231.786	-63.201	-0.373	0.151
-230.771	-0.346	-0.199	-0.139
-229.757	-74.996	-0.054	-0.019
-228.742	-200.000	-0.025	-0.397
-227.727	239.251	0.231	-0.377
-226.713	-200.000	-0.026	0.213
-225.698	723.464	-0.051	0.133
-224.684	20.803	0.419	-0.333
-223.669	761.189	-0.066	0.177
-222.655	101.288	0.136	0.156
-221.640	-200.000	-0.014	-0.204
-220.625	800.000	-0.105	0.396
-219.611	-131.152	0.154	-0.020
-218.596	170.019	-0.140	0.197
-217.582	-129.155	-0.158	0.022
-216.567	113.384	0.154	0.184
-215.552	680.724	-0.040	0.103
-214.538	334.150	-0.140	0.266
-213.523	-87.571	0.080	0.024
-212.509	-181.648	0.116	0.002
-211.494	512.622	-0.046	0.105
-210.479	370.413	-0.219	0.436
-209.465	-80.458	0.147	-0.048
-208.450	-84.635	0.109	-0.034
-207.436	-200.000	-0.052	0.426
-206.421	-84.535	0.189	0.058
-205.406	-154.825	0.289	0.019
-204.392	60.774	0.317	0.308
-203.377	-59.125	0.132	-0.056
-202.363	478.383	0.068	0.151
-201.348	-200.000	-0.024	-0.284
-200.333	-200.000	0.001	-0.103
-199.319	-54.152	-0.131	0.058
-198.304	426.398	-0.121	0.255
-197.290	-69.677	-0.274	0.103
-196.275	-2.377	0.262	0.180
-195.260	8.621	-0.274	-0.202
-194.246	782.658	-0.036	-0.097
-193.231	198.589	0.079	0.119
-192.217	-200.000	-0.000	-0.303
-191.202	-97.201	0.151	0.039
-190.187	5.871	-0.154	0.111
-189.173	-200.000	-0.028	-0.255
-188.158	-58.232	0.378	-0.161
-187.144	104.119	-0.168	-0.193
-186.129	-192.282	-0.237	0.002
-185.114	-200.000	-0.045	0.276
-184.100	461.412	-0.083	-0.181
-183.085	-163.808	-0.210	-0.010
-182.071	-70.693	-0.216	-0.080
-181.056	-96.698	-0.166	0.043
-180.042	49.274	0.094	-0.086
-179.027	264.388	0.154	0.262
-178.012	-51.460	0.193	-0.089
-176.998	-51.176	-0.274	0.126
-175.983	18.489	-0.279	0.218
-174.969	-86.538	-0.342	0.103
-173.954	65.945	-0.183	0.181
-172.939	535.277	-0.079	0.182
-171.925	-6.729	0.071	-0.047
-170.910	-30.377	-0.116	0.064
-169.896	-109.816	0.449	0.092
-168.881	-9.383	0.178	-0.116
-167.866	-121.273	0.223	-0.036
-166.852	-68.665	0.337	0.128
-165.837	-200.000	0.018	-0.244
-164.823	-200.000	-0.030	0.155
-163.808	-62.021	-0.195	-0.080
-162.793	-71.675	0.148	-0.054
-161.779	-200.000	0.034	-0.191
-160.764	-70.292	0.266	-0.099
-159.750	220.368	0.105	-0.164
-158.735	-200.000	0.066	-0.527
-157.720	-100.656	-0.250	-0.060
-156.706	318.099	-0.080	-0.148
-155.691	-9.775	0.298	0.194
-154.677	336.397	-0.114	-0.217
-153.662	149.594	-0.110	-0.146
-152.647	-139.237	0.172	-0.018
-151.633	143.056	0.136	0.178
-150.618	27.016	0.050	-0.041
-149.604	-200.000	-0.004	0.028
-148.589	43.192	-0.104	0.093
-147.574	29.563	0.202	0.168
-146.560	-134.743	-0.154	0.018
-145.545	213.242	-0.117	-0.180
-144.531	-57.679	0.069	-0.030
-143.516	-142.503	0.076	-0.007
-142.502	322.169	0.090	0.168
-141.487	283.668	0.041	-0.071
-140.472	497.647	0.074	-0.167
-139.458	800.000	0.062	-0.253
-138.443	-200.000	0.006	-0.243
-137.429	-200.000	0.048	-0.290
-136.414	177.953	-0.181	-0.258
-135.399	8.494	0.260	-0.192
-134.385	48.443	-0.301	0.275
-133.370	-200.000	-0.024	-0.160
-132.356	776.682	-0.054	-0.144
-131.341	-127.432	-0.161	-0.023
-130.326	-200.000	-0.060	-0.259
-129.312	-200.000	0.004	-0.178
-128.297	-53.142	0.156	-0.070
-127.283	-200.000	0.040	0.176
-126.268	-39.130	0.067	-0.034
-125.253	800.000	-0.102	0.342
-124.239	-15.137	-0.263	0.165
-123.224	-132.035	0.208	-0.026
-122.210	128.812	-0.149	0.186
-121.195	800.000	-0.085	0.236
