DTS Sentinel unit serial number:	SN413079Multiplexer serial number:	ORYXHardware model number:	OX4-SRSoftware version number:	ORYX F/W v4.00 Oryx Data Collector v3.7.2.0data status	okinstallation	princeton_trtdifferential loss correction	single-endedforward channel	channel 3reverse channel	N/Adate	2019/09/15time	14:44:35forward acquisition time	60.00reverse acquisition time	0.00gamma	496.2192k internal	0.2292k external	0.2292temperature offset calibration	0.9946default loss term (dB/km)	0.3790temperature slope calibration	1.0000multiplexer offset coefficient	1.0000multiplexer slope coefficient	1.0000fibre end	0.00T internal ref (°C)	39.75T ext. ref 1 (°C)	4.84T ext. ref 2 (°C)	36.26length (m)	temperature (°C)	Stokes	anti-Stokes-747.200	89.434	0.193	-0.220
-746.185	-0.508	0.051	0.037
-745.171	188.868	0.122	0.186
-744.156	167.526	-0.215	0.313
-743.142	57.736	0.176	0.177
-742.127	-141.956	0.059	0.006
-741.112	-163.260	0.384	0.019
-740.098	-200.000	0.008	0.110
-739.083	-124.415	0.384	-0.061
-738.069	172.427	0.111	0.163
-737.054	-13.945	0.070	-0.046
-736.039	314.594	-0.139	-0.267
-735.025	33.960	-0.100	0.090
-734.010	800.000	-0.109	-0.342
-732.996	-200.000	-0.038	0.334
-731.981	-104.435	0.171	-0.041
-730.966	800.000	-0.014	-0.041
-729.952	-37.061	0.447	-0.245
-728.937	-200.000	0.019	-0.129
-727.923	73.415	-0.136	-0.146
-726.908	103.207	-0.185	0.222
-725.894	379.059	-0.135	0.283
-724.879	-200.000	-0.005	-0.204
-723.864	74.909	-0.060	0.065
-722.850	9.592	-0.332	0.257
-721.835	-200.000	0.085	0.473
-720.821	170.386	-0.110	-0.160
-719.806	659.279	-0.155	0.408
-718.791	800.000	-0.019	-0.058
-717.777	398.425	0.187	0.400
-716.762	800.000	0.038	0.159
-715.748	56.940	-0.073	0.073
-714.733	224.392	0.071	-0.118
-713.718	-200.000	0.009	0.202
-712.704	101.921	-0.098	0.117
-711.689	130.850	-0.081	-0.106
-710.675	136.321	0.032	-0.043
-709.660	-41.773	-0.249	0.130
-708.645	-151.348	0.413	0.031
-707.631	800.000	-0.050	-0.189
-706.616	-123.371	0.193	-0.032
-705.602	-171.923	0.093	0.003
-704.587	-61.081	0.029	0.013
-703.572	-200.000	-0.009	-0.196
-702.558	-0.239	-0.125	0.091
-701.543	-39.576	0.068	-0.036
-700.529	-109.786	0.379	-0.081
-699.514	-59.554	0.362	0.159
-698.499	-118.525	-0.346	-0.063
-697.485	23.354	-0.167	0.140
-696.470	154.550	-0.124	0.174
-695.456	-107.337	-0.166	-0.037
-694.441	-147.002	0.218	0.019
-693.426	300.539	0.062	0.116
-692.412	33.229	0.140	-0.124
-691.397	279.402	0.067	-0.122
-690.383	-200.000	0.014	-0.319
-689.368	80.458	0.134	0.148
-688.354	-90.013	0.140	0.042
-687.339	-200.000	-0.017	-0.400
-686.324	-77.932	0.124	0.044
-685.310	137.805	-0.056	0.075
-684.295	401.673	-0.218	-0.468
-683.281	-91.635	0.127	-0.037
-682.266	4.896	0.362	0.272
-681.251	-200.000	0.017	0.430
-680.237	32.785	0.087	-0.077
-679.222	-111.864	0.121	0.025
-678.208	0.610	-0.151	0.110
-677.193	-153.820	0.100	-0.007
-676.178	-113.453	-0.298	-0.060
-675.164	455.141	-0.091	-0.206
-674.149	-29.164	-0.232	0.136
-673.135	122.444	0.061	0.078
-672.120	-88.185	0.152	-0.046
-671.105	49.453	-0.245	-0.236
-670.091	19.501	0.237	0.194
-669.076	2.854	0.132	-0.098
-668.062	-72.695	0.068	-0.025
-667.047	-153.979	0.139	-0.010
-666.032	439.692	0.010	-0.022
-665.018	215.438	0.107	0.173
-664.003	800.000	0.062	0.208
-662.989	-200.000	0.041	0.386
-661.974	60.821	-0.317	-0.321
-660.959	-24.147	0.205	-0.125
-659.945	41.403	0.164	-0.152
-658.930	466.530	0.094	0.214
-657.916	-132.809	-0.277	0.036
-656.901	800.000	0.032	0.118
-655.886	-117.371	0.280	-0.052
-654.872	576.011	-0.082	-0.204
-653.857	259.407	-0.146	-0.257
-652.843	26.120	-0.224	-0.191
-651.828	-200.000	0.001	0.217
-650.814	-84.830	-0.382	0.122
-649.799	300.111	0.178	0.334
-648.784	-53.637	0.139	0.065
-647.770	300.105	-0.032	0.061
-646.755	215.090	0.127	-0.206
-645.741	-200.000	0.048	0.215
-644.726	-200.000	0.019	-0.180
-643.711	-171.754	-0.445	-0.015
-642.697	507.385	0.119	-0.282
-641.682	-142.180	0.255	0.026
-640.668	-200.000	-0.041	0.244
-639.653	-44.547	0.241	-0.123
-638.638	-36.275	-0.164	0.090
-637.624	-100.951	-0.267	-0.067
-636.609	-141.895	-0.137	0.014
-635.595	731.611	-0.075	0.204
-634.580	280.419	0.124	-0.226
-633.565	74.458	0.202	-0.216
-632.551	-167.326	-0.225	-0.009
-631.536	-110.117	-0.265	-0.056
-630.522	-200.000	0.010	0.140
-629.507	-52.762	-0.297	-0.140
-628.492	80.619	-0.250	-0.274
-627.478	-53.447	-0.099	-0.046
-626.463	800.000	0.115	0.372
-625.449	653.881	-0.089	0.233
-624.434	462.266	0.092	0.210
-623.419	50.467	0.037	-0.036
-622.405	116.344	-0.052	-0.065
-621.390	384.215	-0.150	0.314
-620.376	556.527	0.142	0.349
-619.361	353.911	-0.128	-0.258
-618.346	-128.827	-0.174	-0.025
-617.332	-116.878	-0.319	-0.059
-616.317	-41.283	-0.181	-0.095
-615.303	-32.606	0.159	-0.090
-614.288	334.991	-0.140	0.277
-613.273	800.000	0.032	-0.137
-612.259	87.979	-0.190	0.215
-611.244	-200.000	-0.041	-0.192
-610.230	-120.807	0.173	0.030
-609.215	-66.866	-0.325	-0.131
-608.201	163.747	-0.111	-0.159
-607.186	-38.065	0.191	0.103
-606.171	54.833	0.225	0.221
-605.157	-200.000	0.001	-0.090
-604.142	-200.000	-0.017	-0.119
-603.128	-171.516	-0.234	-0.008
-602.113	121.108	0.078	0.099
-601.098	-200.000	0.010	0.110
-600.084	55.373	0.118	-0.116
-599.069	-107.489	-0.264	0.059
-598.055	-200.000	-0.127	0.581
-597.040	800.000	0.005	0.017
-596.025	-96.556	0.223	-0.060
-595.011	28.776	-0.113	-0.097
-593.996	51.263	0.154	0.149
-592.982	49.596	0.072	-0.069
-591.967	15.468	0.365	0.292
-590.952	493.665	-0.097	-0.227
-589.938	61.311	0.173	-0.175
-588.923	55.736	0.083	0.082
-587.909	-200.000	0.002	-0.126
-586.894	26.623	-0.327	-0.278
-585.879	561.753	-0.140	0.344
-584.865	-200.000	0.026	0.330
-583.850	-200.000	0.005	-0.146
-582.836	138.432	-0.086	-0.115
-581.821	-74.008	-0.175	0.065
-580.806	-200.000	0.006	0.121
-579.792	307.194	-0.064	0.122
-578.777	130.670	0.066	0.086
-577.763	23.555	0.154	0.129
-576.748	800.000	-0.053	-0.181
-575.733	22.293	-0.487	-0.405
-574.719	165.897	0.050	-0.071
-573.704	-129.274	-0.280	-0.040
-572.690	59.447	-0.092	0.092
-571.675	6.978	-0.336	0.254
-570.661	-199.139	-0.045	0.000
-569.646	55.189	0.070	-0.069
-568.631	-200.000	-0.028	0.342
-567.617	110.756	-0.085	-0.104
-566.602	-45.186	-0.356	-0.180
-565.588	328.467	-0.057	0.112
-564.573	-50.890	-0.055	-0.026
-563.558	96.852	0.061	0.071
-562.544	-101.643	-0.067	-0.017
-561.529	-200.000	-0.010	0.126
-560.515	800.000	0.150	0.471
-559.500	-129.720	0.190	-0.027
-558.485	-41.777	0.354	0.184
-557.471	320.674	0.037	-0.072
-556.456	-136.387	-0.223	0.026
-555.442	-87.238	-0.274	0.085
-554.427	-56.561	-0.105	0.047
-553.412	-143.981	0.153	-0.015
-552.398	800.000	-0.018	-0.054
-551.383	140.221	-0.073	0.098
-550.369	97.216	-0.138	-0.161
-549.354	-39.121	-0.140	0.075
-548.339	-14.289	-0.158	0.103
-547.325	54.476	0.188	-0.184
-546.310	-46.828	0.189	0.094
-545.296	800.000	0.025	-0.112
-544.281	-200.000	-0.030	-0.139
-543.266	18.201	0.097	0.078
-542.252	-200.000	0.026	0.165
-541.237	-200.000	0.048	0.320
-540.223	-129.944	0.352	0.049
-539.208	-200.000	-0.008	-0.133
-538.193	-200.000	-0.001	0.234
-537.179	-200.000	-0.032	-0.234
-536.164	515.560	-0.035	-0.084
-535.150	-200.000	-0.000	-0.123
-534.135	-105.503	0.095	0.022
-533.121	800.000	0.032	-0.138
-532.106	-147.102	0.364	0.032
-531.091	-200.000	0.040	0.221
-530.077	21.961	-0.169	-0.140
-529.062	-117.831	-0.218	-0.040
-528.048	312.968	-0.066	0.126
-527.033	98.235	-0.080	-0.093
-526.018	304.165	0.136	-0.256
-525.004	348.423	0.063	-0.126
-523.989	116.643	0.217	-0.270
-522.975	429.615	0.104	-0.229
-521.960	-107.289	-0.250	-0.056
-520.945	660.683	-0.118	0.308
-519.931	-119.893	-0.360	0.063
-518.916	23.409	-0.119	0.099
-517.902	-200.000	0.012	-0.077
-516.887	800.000	-0.050	-0.166
-515.872	408.175	0.056	-0.121
-514.858	126.956	0.160	0.205
-513.843	-36.187	-0.487	-0.267
-512.829	-200.000	0.028	-0.254
-511.814	-200.000	-0.001	0.098
-510.799	-147.383	-0.264	0.023
-509.785	191.761	0.071	-0.109
-508.770	-200.000	0.005	-0.124
-507.756	288.291	0.113	0.207
-506.741	350.094	0.092	-0.185
-505.726	566.162	-0.126	-0.311
-504.712	-16.531	0.117	-0.075
-503.697	-162.256	-0.140	0.007
-502.683	-142.742	0.034	0.003
-501.668	1.457	-0.342	-0.249
-500.653	-82.026	-0.517	-0.171
-499.639	158.802	-0.201	0.283
-498.624	-83.857	-0.161	-0.052
-497.610	340.050	-0.076	-0.149
-496.595	119.201	0.156	-0.195
-495.581	-13.976	-0.237	-0.155
-494.566	-200.000	0.046	-0.429
-493.551	-200.000	0.010	0.267
-492.537	-3.709	0.291	-0.205
-491.522	31.508	-0.298	-0.260
-490.508	-38.925	-0.132	-0.070
-489.493	-68.745	-0.229	-0.090
-488.478	-200.000	0.001	0.068
-487.464	-106.154	0.320	-0.073
-486.449	800.000	-0.057	0.202
-485.435	-200.000	-0.035	-0.324
-484.420	-200.000	0.028	0.484
-483.405	-127.211	-0.360	0.053
-482.391	-107.314	0.209	-0.047
-481.376	-200.000	-0.007	-0.210
-480.362	-154.657	0.014	-0.001
-479.347	-200.000	0.029	0.422
-478.332	-138.212	0.171	-0.019
-477.318	423.236	0.128	-0.279
-476.303	37.731	-0.133	-0.120
-475.289	248.167	-0.063	-0.108
-474.274	-117.756	-0.109	-0.020
-473.259	32.094	0.048	0.042
-472.245	704.504	0.043	-0.116
-471.230	-103.355	-0.098	0.023
-470.216	325.549	-0.073	-0.141
-469.201	800.000	-0.006	-0.022
-468.186	13.787	0.157	0.123
-467.172	-200.000	-0.057	0.460
-466.157	-38.131	0.209	-0.112
-465.143	29.121	-0.154	-0.132
-464.128	378.103	-0.132	0.273
-463.113	-7.321	0.020	-0.014
-462.099	-200.000	0.040	0.446
-461.084	62.326	-0.088	0.089
-460.070	-1.196	-0.187	-0.134
-459.055	800.000	0.098	-0.293
-458.040	65.176	0.145	0.148
-457.026	-171.704	-0.158	-0.005
-456.011	156.815	0.204	0.285
-454.997	-16.684	0.138	0.089
-453.982	43.712	0.187	-0.173
-452.968	120.944	-0.164	0.206
-451.953	108.698	0.059	0.072
-450.938	-48.866	0.206	0.100
-449.924	-83.250	-0.196	-0.064
-448.909	-200.000	-0.014	0.151
-447.895	50.605	0.162	0.155
-446.880	-200.000	0.039	-0.352
-445.865	-68.298	0.090	-0.036
-444.851	-108.598	0.091	0.020
-443.836	87.699	-0.093	-0.104
-442.822	131.231	-0.163	0.212
-441.807	-147.344	-0.337	0.029
-440.792	-109.960	0.400	-0.085
-439.778	-51.132	0.194	0.092
-438.763	-200.000	0.003	-0.144
-437.749	337.694	-0.147	-0.288
-436.734	-200.000	-0.074	0.477
-435.719	-20.215	-0.220	-0.137
-434.705	-123.337	0.234	0.038
-433.690	800.000	-0.057	-0.194
-432.676	-90.962	0.098	0.029
-431.661	-44.607	-0.155	-0.078
-430.646	328.936	0.007	-0.014
-429.632	-7.394	0.396	0.271
-428.617	-200.000	0.010	0.134
-427.603	-200.000	0.016	-0.326
-426.588	8.984	0.192	-0.146
-425.573	-2.419	0.110	0.078
-424.559	800.000	0.051	-0.179
-423.544	168.155	-0.149	0.214
-422.530	-95.340	0.182	0.050
-421.515	-111.708	-0.195	-0.040
-420.500	-128.230	-0.227	-0.033
-419.486	24.170	0.199	-0.166
-418.471	24.898	-0.194	0.162
-417.457	47.448	0.123	-0.116
-416.442	-80.120	0.247	0.084
-415.428	-67.246	-0.216	-0.086
-414.413	-48.548	-0.170	0.083
-413.398	800.000	-0.028	-0.088
-412.384	-49.222	-0.111	-0.053
-411.369	-46.335	0.081	0.040
-410.355	109.496	0.201	0.244
-409.340	236.706	-0.091	-0.152
-408.325	119.843	-0.164	-0.205
-407.311	800.000	0.082	-0.241
-406.296	44.271	-0.250	-0.232
-405.282	800.000	0.020	0.064
-404.267	714.811	0.002	-0.007
-403.252	290.764	0.018	0.033
-402.238	-111.832	0.051	-0.010
-401.223	101.720	-0.169	-0.200
-400.209	187.324	0.207	-0.311
-399.194	-98.988	-0.330	0.084
-398.179	-32.299	0.330	0.186
-397.165	-64.769	0.198	-0.081
-396.150	-26.594	-0.208	-0.123
-395.136	-139.594	-0.095	0.010
-394.121	-35.998	0.286	-0.156
-393.106	-12.675	0.267	0.176
-392.092	-10.459	0.130	0.087
-391.077	800.000	0.148	0.463
-390.063	248.674	-0.226	0.386
-389.048	66.931	-0.093	-0.096
-388.033	-120.037	0.181	-0.031
-387.019	-77.401	0.170	0.060
-386.004	503.458	-0.174	0.406
-384.990	-80.645	-0.330	0.111
-383.975	244.841	0.110	-0.187
-382.960	5.858	0.251	0.188
-381.946	105.406	0.114	-0.135
-380.931	-156.523	0.112	-0.007
-379.917	-62.125	0.155	-0.065
-378.902	40.530	0.165	-0.150
-377.888	228.332	-0.224	0.368
-376.873	-54.216	0.169	0.077
-375.858	-0.188	0.222	0.159
-374.844	368.276	-0.085	0.174
-373.829	800.000	-0.087	-0.336
-372.815	-128.315	-0.145	0.021
-371.800	-130.041	0.141	0.019
-370.785	663.471	-0.096	-0.251
-369.771	-65.329	-0.129	0.052
-368.756	-145.065	0.123	-0.011
-367.742	416.977	-0.065	-0.139
-366.727	-104.945	0.324	-0.075
-365.712	-78.300	-0.195	-0.068
-364.698	-200.000	0.003	0.019
-363.683	-107.951	0.141	0.031
-362.669	392.642	-0.144	0.301
-361.654	800.000	-0.016	0.062
-360.639	100.352	0.100	-0.117
-359.625	164.889	0.050	0.070
-358.610	-5.800	-0.186	0.128
-357.596	800.000	-0.100	0.316
-356.581	-180.666	0.221	0.005
-355.566	123.637	-0.153	0.193
-354.552	57.004	0.243	0.239
-353.537	-25.215	0.113	-0.067
-352.523	-141.943	-0.178	0.018
-351.508	-74.042	0.347	-0.127
-350.493	-102.866	0.040	0.010
-349.479	-200.000	0.001	-0.348
-348.464	34.150	-0.339	-0.298
-347.450	-147.316	0.183	0.016
-346.435	-84.587	0.116	-0.037
-345.420	29.011	-0.081	0.070
-344.406	24.035	-0.108	-0.090
-343.391	-73.343	0.273	-0.101
-342.377	-100.309	-0.167	-0.042
-341.362	800.000	0.156	-0.486
-340.348	-10.583	-0.258	-0.172
-339.333	800.000	0.030	0.096
-338.318	-122.207	-0.245	0.040
-337.304	39.328	0.141	0.127
-336.289	-16.223	-0.168	-0.108
-335.275	705.194	0.030	-0.079
-334.260	-25.359	0.090	-0.054
-333.245	1.970	-0.133	-0.096
-332.231	-60.771	0.241	0.103
-331.216	21.465	0.075	-0.061
-330.202	-184.676	0.076	-0.001
-329.187	395.849	-0.122	-0.257
-328.172	136.961	0.051	0.067
-327.158	82.592	0.031	-0.034
-326.143	-200.000	0.024	-0.196
-325.129	-98.165	0.176	-0.046
-324.114	-190.273	0.453	0.005
-323.099	-138.627	0.211	-0.023
-322.085	143.290	-0.192	-0.257
-321.070	-200.000	-0.030	0.198
-320.056	201.028	-0.074	0.114
-319.041	208.532	-0.124	0.195
-318.026	-200.000	-0.039	0.199
-317.012	-3.017	0.411	0.289
-315.997	12.289	-0.159	-0.123
-314.983	-26.788	0.466	-0.274
-313.968	489.735	0.056	-0.130
-312.953	-200.000	-0.023	-0.121
-311.939	100.043	-0.223	-0.261
-310.924	-87.292	-0.257	-0.079
-309.910	-116.114	-0.160	0.030
-308.895	-179.791	0.183	0.004
-307.880	250.105	0.118	-0.201
-306.866	192.783	-0.181	0.275
-305.851	-200.000	-0.035	0.201
-304.837	557.860	-0.008	0.019
-303.822	-200.000	0.012	0.236
-302.807	307.075	0.212	0.397
-301.793	126.329	-0.157	0.200
-300.778	59.963	-0.119	-0.118
-299.764	302.253	-0.021	-0.040
-298.749	-197.685	-0.057	-0.000
-297.735	-28.897	-0.066	0.038
-296.720	625.476	-0.091	0.231
-295.705	-200.000	0.003	0.064
-294.691	-200.000	-0.016	0.162
-293.676	253.045	0.053	-0.091
-292.662	-200.000	-0.022	-0.140
-291.647	-92.045	0.386	-0.110
-290.632	-200.000	-0.021	-0.207
-289.618	-10.557	0.182	0.121
-288.603	-128.936	0.099	0.014
-287.589	-181.076	-0.279	0.006
-286.574	-100.578	0.212	-0.053
-285.559	255.561	-0.069	0.120
-284.545	-200.000	-0.036	-0.224
-283.530	-200.000	0.023	-0.141
-282.516	138.462	0.109	0.144
-281.501	87.177	0.239	-0.266
-280.486	-200.000	-0.030	0.155
-279.472	-200.000	-0.061	-0.321
-278.457	-168.955	-0.140	-0.005
-277.443	213.123	0.055	-0.087
-276.428	51.197	-0.079	0.076
-275.413	-200.000	0.006	-0.303
-274.399	162.489	0.102	0.144
-273.384	30.320	-0.203	-0.174
-272.370	-200.000	0.035	0.255
-271.355	-158.717	0.458	0.026
-270.340	-200.000	-0.003	0.291
-269.326	-111.050	-0.146	0.030
-268.311	-9.921	-0.354	-0.236
-267.297	-44.413	-0.205	0.103
-266.282	-200.000	-0.017	0.096
-265.267	185.364	0.141	0.211
-264.253	463.896	-0.039	-0.088
-263.238	800.000	-0.103	0.318
-262.224	-22.089	0.069	0.042
-261.209	-115.095	-0.200	-0.038
-260.195	800.000	-0.010	0.039
-259.180	-4.952	-0.234	-0.162
-258.165	-7.672	0.275	0.186
-257.151	-57.627	0.141	-0.062
-256.136	-200.000	-0.009	-0.181
-255.122	-162.562	-0.122	0.006
-254.107	157.425	0.151	-0.210
-253.092	66.300	-0.087	-0.089
-252.078	-165.185	0.443	-0.020
-251.063	71.881	0.247	0.258
-250.049	-200.000	0.017	-0.103
-249.034	-200.000	0.052	-0.243
-248.019	113.317	0.181	0.221
-247.005	-145.108	0.290	-0.026
-245.990	-55.448	-0.178	-0.080
-244.976	800.000	-0.089	-0.334
-243.961	-124.874	-0.126	-0.020
-242.946	-200.000	-0.049	-0.299
-241.932	800.000	0.045	0.133
-240.917	-32.230	0.194	-0.109
-239.903	-138.536	-0.176	0.019
-238.888	420.365	-0.040	0.086
-237.873	-12.257	0.162	-0.106
-236.859	-200.000	0.022	0.331
-235.844	-141.581	-0.026	0.003
-234.830	800.000	-0.105	-0.406
-233.815	-200.000	0.002	-0.361
-232.800	-10.474	-0.039	-0.026
-231.786	194.685	0.136	-0.207
-230.771	495.804	0.029	0.066
-229.757	90.515	-0.269	-0.302
-228.742	-71.038	-0.080	-0.030
-227.727	-35.555	0.406	0.221
-226.713	17.396	-0.355	0.282
-225.698	-200.000	-0.011	-0.137
-224.684	328.729	0.130	0.250
-223.669	-200.000	0.006	0.114
-222.655	66.447	0.173	0.177
-221.640	800.000	0.087	0.301
-220.625	70.386	0.120	0.125
-219.611	-104.049	-0.079	0.018
-218.596	118.284	-0.155	0.192
-217.582	45.390	0.272	-0.252
-216.567	535.544	-0.039	-0.092
-215.552	-200.000	0.013	0.125
-214.538	-177.300	-0.316	0.008
-213.523	266.782	0.030	0.052
-212.509	80.471	0.159	0.172
-211.494	-91.538	0.134	0.038
-210.479	-114.691	-0.145	-0.028
-209.465	120.288	-0.170	-0.212
-208.450	504.558	-0.148	-0.344
-207.436	-99.806	0.309	-0.077
-206.421	-100.046	0.305	-0.076
-205.406	19.523	0.272	0.219
-204.392	4.921	0.159	0.117
-203.377	-200.000	0.014	0.113
-202.363	162.170	-0.151	-0.212
-201.348	268.904	-0.081	0.142
-200.333	-98.490	0.548	0.140
-199.319	-174.095	0.171	0.005
-198.304	800.000	-0.043	0.178
-197.290	99.131	0.090	0.104
-196.275	800.000	-0.053	0.230
-195.260	262.091	0.029	0.050
-194.246	280.785	0.130	-0.232
-193.231	-138.507	0.088	-0.010
-192.217	-120.450	-0.299	0.051
-191.202	-200.000	-0.006	0.058
-190.187	307.681	0.130	0.243
-189.173	23.694	0.220	0.182
-188.158	-85.675	-0.078	0.024
-187.144	-200.000	-0.068	-0.358
-186.129	-200.000	-0.013	-0.100
-185.114	-200.000	-0.060	-0.386
-184.100	-64.246	-0.156	0.064
-183.085	171.716	0.230	0.331
-182.071	49.082	0.289	0.271
-181.056	265.629	-0.109	0.191
-180.042	-200.000	-0.040	-0.229
-179.027	11.987	-0.280	0.215
-178.012	353.558	0.069	0.136
-176.998	-16.895	0.272	0.172
-175.983	235.674	0.084	0.138
-174.969	-113.171	-0.109	0.021
-173.954	162.025	-0.064	-0.090
-172.939	8.961	-0.127	-0.096
-171.925	-73.187	0.214	-0.079
-170.910	19.316	-0.060	0.048
-169.896	800.000	-0.032	0.109
-168.881	73.296	0.158	-0.165
-167.866	-54.235	-0.248	0.113
-166.852	-101.675	-0.306	0.074
-165.837	151.478	0.170	-0.231
-164.823	-200.000	0.014	-0.307
-163.808	375.157	-0.108	0.221
-162.793	509.011	-0.017	-0.039
-161.779	-200.000	0.044	-0.222
-160.764	-96.644	-0.173	-0.046
-159.750	23.231	0.187	-0.153
-158.735	-200.000	0.007	-0.240
-157.720	-78.427	0.091	-0.031
-156.706	-200.000	-0.161	0.000
-155.691	-65.027	0.224	0.090
-154.677	-91.521	0.282	0.080
-153.662	-200.000	0.017	0.073
-152.647	-25.471	-0.079	0.047
-151.633	428.456	-0.063	0.135
-150.618	-200.000	0.030	-0.234
-149.604	55.739	-0.211	0.204
-148.589	800.000	0.142	0.403
-147.574	800.000	-0.097	0.382
-146.560	-151.586	-0.232	0.017
-145.545	-200.000	0.023	0.158
-144.531	191.172	0.116	-0.174
-143.516	-124.088	0.288	-0.045
-142.502	637.794	-0.057	0.145
-141.487	327.193	-0.125	0.240
-140.472	266.345	0.126	0.221
-139.458	-200.000	0.058	0.257
-138.443	178.004	-0.219	0.319
-137.429	-200.000	-0.011	-0.094
-136.414	800.000	0.092	-0.398
-135.399	110.530	0.212	-0.254
-134.385	319.375	-0.128	0.242
-133.370	-48.891	0.208	0.100
-132.356	-200.000	-0.065	-0.307
-131.341	227.496	-0.162	-0.263
-130.326	-39.599	0.129	-0.068
-129.312	-200.000	-0.008	0.216
-128.297	-50.454	-0.185	-0.087
-127.283	99.441	0.091	-0.105
-126.268	12.300	0.133	0.102
-125.253	-91.537	0.385	-0.110
-124.239	50.426	-0.048	-0.046
-123.224	-44.457	-0.080	-0.040
-122.210	-88.158	0.470	-0.141
-121.195	229.168	0.319	0.520
