DTS Sentinel unit serial number:	SN413079Multiplexer serial number:	ORYXHardware model number:	OX4-SRSoftware version number:	ORYX F/W v4.00 Oryx Data Collector v3.7.2.0data status	okinstallation	princeton_trtdifferential loss correction	single-endedforward channel	channel 3reverse channel	N/Adate	2019/09/18time	14:28:34forward acquisition time	60.00reverse acquisition time	0.00gamma	496.2192k internal	0.2310k external	0.2310temperature offset calibration	0.9977default loss term (dB/km)	0.3790temperature slope calibration	1.0000multiplexer offset coefficient	1.0000multiplexer slope coefficient	1.0000fibre end	0.00T internal ref (°C)	34.37T ext. ref 1 (°C)	0.69T ext. ref 2 (°C)	31.20length (m)	temperature (°C)	Stokes	anti-Stokes-747.200	92.993	0.128	0.147
-746.185	440.511	0.020	0.043
-745.171	800.000	-0.027	-0.115
-744.156	-14.781	-0.137	-0.089
-743.142	-10.161	0.243	-0.164
-742.127	-66.338	-0.200	0.081
-741.112	129.221	-0.139	0.181
-740.098	179.032	-0.102	0.151
-739.083	-119.100	-0.188	0.033
-738.069	800.000	-0.121	0.424
-737.054	47.072	-0.205	0.194
-736.039	-103.115	-0.197	-0.047
-735.025	-61.155	0.182	-0.078
-734.010	-99.950	-0.328	-0.083
-732.996	81.263	0.116	0.127
-731.981	-70.039	-0.397	-0.154
-730.966	-200.000	0.008	-0.078
-729.952	-142.090	0.317	0.032
-728.937	-63.397	-0.239	-0.100
-727.923	51.492	-0.130	0.125
-726.908	288.389	-0.181	-0.333
-725.894	130.889	-0.171	0.223
-724.879	-200.000	-0.036	0.214
-723.864	190.851	0.301	0.459
-722.850	-200.000	-0.030	-0.155
-721.835	9.726	-0.151	-0.116
-720.821	-162.566	-0.168	0.008
-719.806	65.229	-0.200	0.205
-718.791	-67.737	-0.041	-0.016
-717.777	-46.173	-0.116	0.058
-716.762	-200.000	0.046	-0.322
-715.748	-135.344	-0.347	-0.042
-714.733	127.887	-0.122	0.157
-713.718	83.483	0.165	0.183
-712.704	-46.267	-0.148	-0.074
-711.689	243.208	-0.087	-0.147
-710.675	-28.012	-0.110	0.064
-709.660	248.193	-0.279	0.478
-708.645	-200.000	-0.015	-0.085
-707.631	34.203	0.127	0.113
-706.616	-170.034	-0.179	0.006
-705.602	-139.033	0.406	-0.045
-704.587	-97.311	-0.267	0.071
-703.572	-116.723	-0.104	0.019
-702.558	87.111	-0.102	-0.115
-701.543	-34.748	-0.099	-0.055
-700.529	520.331	0.029	0.070
-699.514	417.797	-0.137	-0.298
-698.499	729.105	-0.095	-0.258
-697.485	-47.346	-0.435	-0.215
-696.470	44.758	0.139	-0.130
-695.456	-200.000	-0.019	0.240
-694.441	-200.000	-0.012	0.115
-693.426	-175.200	0.475	-0.013
-692.412	462.507	-0.094	-0.213
-691.397	-128.435	-0.359	-0.052
-690.383	158.745	-0.090	-0.126
-689.368	80.743	0.141	-0.154
-688.354	-119.033	0.095	0.017
-687.339	-200.000	-0.018	-0.232
-686.324	-0.849	-0.097	0.070
-685.310	-140.151	-0.275	0.029
-684.295	757.114	-0.076	0.209
-683.281	98.226	0.108	0.126
-682.266	499.804	0.119	-0.278
-681.251	163.961	-0.023	0.033
-680.237	-187.206	-0.124	0.002
-679.222	36.205	-0.054	0.048
-678.208	121.510	-0.110	-0.139
-677.193	-200.000	0.002	-0.225
-676.178	-85.109	0.226	-0.072
-675.164	-64.041	-0.232	0.096
-674.149	-171.369	0.178	0.006
-673.135	-200.000	0.002	-0.060
-672.120	275.401	-0.102	0.183
-671.105	-45.936	0.031	0.015
-670.091	50.746	-0.291	0.279
-669.076	800.000	0.121	0.430
-668.062	-136.457	-0.233	-0.027
-667.047	337.543	-0.201	0.396
-666.032	-200.000	-0.021	-0.203
-665.018	-14.111	0.033	-0.021
-664.003	-93.702	0.236	-0.066
-662.989	-162.259	-0.156	0.008
-661.974	-144.193	0.209	0.020
-660.959	-55.114	0.085	0.039
-659.945	800.000	0.027	-0.100
-658.930	157.315	-0.069	-0.097
-657.916	-200.000	0.041	0.249
-656.901	485.616	-0.031	0.071
-655.886	-158.103	0.406	-0.024
-654.872	-108.809	-0.249	-0.054
-653.857	800.000	0.078	-0.290
-652.843	225.633	-0.076	-0.125
-651.828	-200.000	0.079	-0.373
-650.814	215.250	0.245	-0.394
-649.799	800.000	0.087	-0.253
-648.784	-81.374	-0.464	-0.155
-647.770	1.119	-0.210	0.152
-646.755	-146.542	0.159	0.014
-645.741	28.269	-0.097	-0.083
-644.726	-200.000	0.030	0.283
-643.711	-200.000	-0.047	0.243
-642.697	-24.885	-0.179	-0.108
-641.682	-140.962	-0.214	0.022
-640.668	366.759	-0.080	-0.163
-639.653	242.585	0.148	0.251
-638.638	-58.072	-0.258	-0.114
-637.624	-87.062	0.174	-0.054
-636.609	-72.599	0.279	-0.104
-635.595	-96.885	0.165	0.044
-634.580	130.544	0.061	0.079
-633.565	166.747	-0.186	0.267
-632.551	0.224	-0.229	-0.165
-631.536	3.932	-0.169	-0.125
-630.522	-151.082	0.263	-0.020
-629.507	442.281	-0.083	0.184
-628.492	53.680	0.037	0.036
-627.478	-200.000	0.058	-0.259
-626.463	-65.778	-0.215	-0.087
-625.449	800.000	-0.102	-0.311
-624.434	-18.356	0.124	-0.079
-623.419	-119.689	-0.142	-0.025
-622.405	-60.047	0.234	0.101
-621.390	57.668	-0.021	0.021
-620.376	55.427	-0.035	0.034
-619.361	-47.204	0.127	0.062
-618.346	250.242	-0.065	-0.111
-617.332	81.480	-0.263	-0.287
-616.317	-79.458	-0.186	0.064
-615.303	-105.784	0.053	-0.012
-614.288	450.198	-0.061	-0.135
-613.273	-109.942	-0.295	-0.062
-612.259	30.851	0.233	0.202
-611.244	-180.592	-0.289	0.006
-610.230	-22.325	0.168	0.103
-609.215	-41.279	0.140	-0.073
-608.201	235.942	0.299	0.499
-607.186	295.080	0.063	-0.116
-606.171	448.194	-0.123	-0.275
-605.157	-22.695	-0.138	0.085
-604.142	-29.060	0.154	-0.089
-603.128	-130.239	0.268	0.037
-602.113	109.165	0.109	0.132
-601.098	-79.564	-0.178	0.061
-600.084	-100.419	0.250	0.062
-599.069	-200.000	0.015	0.070
-598.055	-200.000	-0.069	0.311
-597.040	-200.000	-0.025	-0.144
-596.025	-59.697	-0.184	-0.080
-595.011	-200.000	-0.006	-0.348
-593.996	69.795	0.106	-0.110
-592.982	-142.676	-0.291	-0.029
-591.967	238.835	0.054	0.091
-590.952	-52.046	-0.096	0.045
-589.938	800.000	-0.137	0.415
-588.923	325.174	-0.125	0.241
-587.909	151.542	-0.182	-0.250
-586.894	800.000	0.066	-0.237
-585.879	42.166	0.079	0.072
-584.865	304.900	0.151	0.283
-583.850	4.399	0.172	0.128
-582.836	-19.557	-0.256	-0.160
-581.821	-200.000	-0.019	-0.326
-580.806	800.000	-0.039	0.117
-579.792	-147.049	-0.489	-0.042
-578.777	11.029	0.196	-0.151
-577.763	800.000	-0.084	0.252
-576.748	-200.000	-0.032	-0.199
-575.733	-41.926	0.030	0.015
-574.719	384.610	-0.120	-0.250
-573.704	-134.248	0.127	0.016
-572.690	125.744	-0.213	0.271
-571.675	34.952	0.075	0.067
-570.661	800.000	-0.064	-0.262
-569.646	40.913	0.121	-0.110
-568.631	-200.000	0.015	0.123
-567.617	-74.875	0.051	0.018
-566.602	363.708	-0.071	-0.143
-565.588	-99.328	0.205	0.052
-564.573	-53.846	0.258	0.119
-563.558	230.015	-0.203	0.335
-562.544	63.836	0.042	0.042
-561.529	277.281	-0.034	0.061
-560.515	-63.640	-0.133	0.055
-559.500	-111.088	-0.236	0.049
-558.485	484.976	0.049	-0.113
-557.471	123.671	-0.214	0.271
-556.456	-101.842	-0.166	-0.040
-555.442	42.144	0.047	-0.043
-554.427	-200.000	0.028	0.166
-553.412	327.799	0.116	-0.225
-552.398	-200.000	-0.025	-0.192
-551.383	-175.005	0.054	0.002
-550.369	-200.000	0.056	-0.334
-549.354	294.320	0.057	-0.105
-548.339	693.269	0.051	-0.136
-547.325	-68.620	0.125	0.049
-546.310	-57.055	-0.118	-0.052
-545.296	-65.987	0.116	-0.047
-544.281	-58.093	0.135	-0.059
-543.266	103.309	0.213	0.252
-542.252	663.661	0.040	0.103
-541.237	795.392	-0.076	-0.211
-540.223	-200.000	0.044	-0.412
-539.208	-45.351	0.041	-0.020
-538.193	-200.000	0.016	-0.140
-537.179	86.886	0.108	-0.121
-536.164	0.442	0.219	0.158
-535.150	283.505	-0.174	-0.315
-534.135	-24.759	-0.065	0.039
-533.121	-18.249	-0.113	-0.071
-532.106	-137.001	-0.140	0.016
-531.091	-83.208	-0.523	0.169
-530.077	-7.107	-0.328	0.224
-529.062	-64.272	0.145	0.060
-528.048	-200.000	-0.047	0.298
-527.033	800.000	-0.042	-0.174
-526.018	-200.000	0.017	0.184
-525.004	-25.589	0.057	0.034
-523.989	-200.000	-0.023	-0.102
-522.975	-200.000	-0.048	0.225
-521.960	800.000	0.091	-0.317
-520.945	-86.812	-0.331	-0.102
-519.931	168.819	0.089	-0.128
-518.916	-75.057	0.092	0.033
-517.902	153.465	-0.080	-0.110
-516.887	-102.254	0.048	-0.012
-515.872	52.281	-0.199	-0.191
-514.858	-192.649	0.260	0.002
-513.843	108.294	0.202	-0.243
-512.829	290.889	0.160	-0.292
-511.814	-109.687	-0.249	0.053
-510.799	-130.997	0.225	0.030
-509.785	-26.961	0.240	-0.141
-508.770	289.323	-0.229	-0.417
-507.756	-12.914	-0.038	-0.025
-506.741	1.220	-0.299	0.216
-505.726	437.239	-0.111	-0.243
-504.712	800.000	-0.082	-0.237
-503.697	22.812	0.277	-0.228
-502.683	-64.356	0.231	0.095
-501.668	-200.000	0.012	-0.184
-500.653	-200.000	-0.016	-0.074
-499.639	-78.466	-0.231	0.080
-498.624	321.515	0.059	-0.113
-497.610	287.427	0.097	0.176
-496.595	-200.000	-0.006	0.051
-495.581	-200.000	-0.015	0.246
-494.566	-120.078	-0.211	0.036
-493.551	-200.000	0.005	0.285
-492.537	-76.947	0.073	-0.026
-491.522	-200.000	0.005	0.146
-490.508	216.209	-0.195	0.311
-489.493	800.000	0.096	-0.266
-488.478	409.571	-0.092	0.196
-487.464	-200.000	0.004	0.256
-486.449	47.528	-0.108	-0.101
-485.435	-134.872	0.126	-0.015
-484.420	-200.000	0.047	0.339
-483.405	-102.009	0.270	0.066
-482.391	78.173	0.136	0.146
-481.376	8.057	-0.083	0.062
-480.362	-164.890	-0.169	0.008
-479.347	-166.205	-0.218	0.009
-478.332	-158.799	-0.243	0.014
-477.318	339.700	0.115	-0.224
-476.303	98.371	0.155	-0.179
-475.289	-8.121	0.256	0.173
-474.274	-59.165	0.292	-0.127
-473.259	-89.965	0.020	0.006
-472.245	-8.236	-0.131	0.088
-471.230	800.000	-0.051	-0.207
-470.216	800.000	-0.016	0.061
-469.201	-75.785	-0.091	-0.032
-468.186	168.032	0.092	-0.131
-467.172	800.000	-0.021	-0.070
-466.157	-38.472	-0.304	0.161
-465.143	400.943	-0.119	-0.252
-464.128	-45.796	0.202	0.100
-463.113	-135.610	0.430	0.051
-462.099	-143.831	-0.314	-0.030
-461.084	-88.032	-0.345	0.104
-460.070	-123.655	-0.311	-0.050
-459.055	-67.106	-0.211	-0.084
-458.040	-28.704	0.087	-0.051
-457.026	272.591	0.102	-0.182
-456.011	112.021	-0.082	-0.099
-454.997	-28.966	-0.195	0.113
-453.982	-32.135	0.234	0.131
-452.968	-89.800	-0.084	-0.025
-451.953	576.593	-0.114	-0.279
-450.938	-200.000	0.013	-0.102
-449.924	-200.000	0.001	-0.137
-448.909	-96.619	-0.313	0.083
-447.895	-102.638	0.213	0.051
-446.880	356.829	-0.021	0.043
-445.865	46.770	-0.062	0.058
-444.851	-24.221	-0.081	-0.049
-443.836	800.000	-0.155	0.588
-442.822	-116.471	-0.182	0.034
-441.807	530.528	0.072	-0.171
-440.792	-97.461	0.177	0.046
-439.778	146.651	0.115	0.155
-438.763	-127.090	0.101	-0.015
-437.749	284.922	0.061	0.110
-436.734	-50.405	0.334	0.158
-435.719	8.001	0.168	0.126
-434.705	727.532	-0.136	0.364
-433.690	42.127	-0.074	0.067
-432.676	-104.194	-0.207	-0.048
-431.661	198.428	0.042	0.064
-430.646	-121.543	0.131	0.022
-429.632	348.840	-0.123	-0.243
-428.617	181.824	0.017	0.025
-427.603	515.297	-0.038	0.090
-426.588	-200.000	0.252	-0.001
-425.573	-34.708	0.125	0.069
-424.559	-21.637	0.096	-0.059
-423.544	-154.833	-0.210	-0.014
-422.530	195.184	0.168	-0.256
-421.515	-111.178	-0.137	-0.028
-420.500	800.000	-0.021	0.089
-419.486	-60.199	0.297	0.127
-418.471	3.550	-0.184	0.134
-417.457	493.763	-0.065	-0.150
-416.442	-113.716	0.198	0.039
-415.428	-200.000	0.023	0.144
-414.413	-113.515	-0.164	-0.032
-413.398	-77.489	-0.267	-0.093
-412.384	-71.397	0.257	-0.096
-411.369	-65.049	0.297	0.120
-410.355	102.096	-0.233	-0.272
-409.340	486.517	0.167	-0.381
-408.325	195.748	0.069	-0.105
-407.311	-39.635	0.094	-0.049
-406.296	-176.820	-0.283	-0.007
-405.282	-144.104	-0.313	-0.029
-404.267	-103.727	-0.231	0.054
-403.252	-80.191	0.106	-0.036
-402.238	140.712	0.180	0.238
-401.223	-92.922	-0.269	-0.075
-400.209	-91.178	0.023	-0.007
-399.194	800.000	0.032	-0.094
-398.179	648.161	-0.062	0.160
-397.165	363.289	-0.108	0.217
-396.150	-71.236	-0.294	-0.110
-395.136	255.419	0.085	-0.146
-394.121	-103.958	-0.071	-0.017
-393.106	-95.541	0.095	0.025
-392.092	-61.485	0.174	0.073
-391.077	-125.391	-0.138	0.021
-390.063	51.206	0.252	0.240
-389.048	-200.000	-0.017	-0.265
-388.033	415.000	-0.061	0.130
-387.019	-200.000	0.038	-0.336
-386.004	160.299	0.176	0.246
-384.990	-90.907	0.163	0.047
-383.975	-127.945	0.201	0.029
-382.960	-92.188	0.089	0.025
-381.946	88.730	-0.178	0.198
-380.931	800.000	0.069	-0.223
-379.917	25.961	0.131	-0.109
-378.902	608.846	-0.048	0.121
-377.888	-200.000	0.027	0.167
-376.873	57.400	0.264	-0.258
-375.858	121.181	-0.168	-0.210
-374.844	-31.514	-0.193	-0.109
-373.829	170.973	0.108	-0.155
-372.815	-4.754	0.033	-0.023
-371.800	102.499	-0.176	0.206
-370.785	800.000	-0.117	0.346
-369.771	-53.320	-0.307	0.141
-368.756	-45.031	-0.340	0.169
-367.742	60.969	-0.057	0.056
-366.727	-35.363	0.283	0.154
-365.712	-106.489	-0.074	-0.017
-364.698	-74.563	-0.057	0.021
-363.683	-200.000	-0.019	0.168
-362.669	-150.558	-0.322	0.025
-361.654	22.119	0.093	-0.076
-360.639	-200.000	0.001	0.050
-359.625	-122.583	0.098	-0.016
-358.610	-28.329	0.186	0.107
-357.596	800.000	-0.025	0.092
-356.581	79.786	-0.210	-0.226
-355.566	34.764	0.151	0.132
-354.552	800.000	-0.078	0.227
-353.537	531.121	0.081	0.190
-352.523	800.000	0.040	-0.126
-351.508	-200.000	0.085	0.381
-350.493	157.281	-0.053	0.074
-349.479	25.451	0.333	0.277
-348.464	-110.124	0.073	0.015
-347.450	348.770	-0.033	-0.064
-346.435	-200.000	-0.028	-0.353
-345.420	-200.000	-0.019	-0.139
-344.406	65.960	-0.136	0.137
-343.391	-104.035	-0.191	0.045
-342.377	-157.253	-0.181	-0.011
-341.362	50.617	-0.241	-0.228
-340.348	95.423	0.287	-0.327
-339.333	236.300	0.262	-0.434
-338.318	36.407	-0.193	0.170
-337.304	800.000	-0.099	-0.341
-336.289	-200.000	0.010	-0.318
-335.275	-80.606	-0.411	0.137
-334.260	-200.000	0.025	0.329
-333.245	-67.856	0.178	0.070
-332.231	386.149	0.132	0.272
-331.216	194.319	-0.097	-0.147
-330.202	800.000	-0.036	-0.125
-329.187	1.070	-0.388	0.278
-328.172	9.992	-0.045	0.034
-327.158	9.724	0.203	-0.154
-326.143	-118.801	0.168	-0.029
-325.129	-200.000	-0.017	-0.194
-324.114	155.473	-0.083	-0.114
-323.099	-108.304	0.156	-0.034
-322.085	-200.000	0.022	-0.161
-321.070	158.794	0.189	-0.262
-320.056	-80.608	-0.267	-0.089
-319.041	217.356	-0.183	0.291
-318.026	-50.840	-0.053	-0.025
-317.012	518.050	0.109	-0.254
-315.997	-200.000	0.020	0.182
-314.983	625.211	0.174	-0.439
-313.968	685.513	0.089	-0.231
-312.953	-64.540	0.155	-0.063
-311.939	-112.690	0.291	-0.058
-310.924	-200.000	-0.002	-0.192
-309.910	-14.608	-0.225	0.145
-308.895	65.594	0.198	0.200
-307.880	793.214	-0.053	0.145
-306.866	5.161	0.159	0.117
-305.851	178.843	-0.179	-0.262
-304.837	665.380	0.182	-0.468
-303.822	265.400	-0.122	-0.212
-302.807	-130.802	0.151	-0.020
-301.793	3.455	0.137	0.100
-300.778	-22.610	-0.228	-0.137
-299.764	-39.296	-0.099	0.052
-298.749	105.183	0.121	0.142
-297.735	-36.320	0.089	0.048
-296.720	198.908	0.159	0.242
-295.705	158.204	-0.111	-0.154
-294.691	72.769	0.248	0.259
-293.676	111.393	0.209	0.251
-292.662	31.281	0.124	0.107
-291.647	-138.049	-0.086	0.010
-290.632	196.058	0.104	0.158
-289.618	-200.000	-0.041	0.187
-288.603	800.000	0.068	0.285
-287.589	65.516	0.047	-0.048
-286.574	800.000	-0.023	-0.067
-285.559	33.939	0.337	-0.293
-284.545	783.668	0.043	-0.118
-283.530	223.610	0.137	0.221
-282.516	93.444	0.157	0.178
-281.501	229.363	0.221	-0.359
-280.486	-151.976	0.280	0.020
-279.472	800.000	0.032	-0.105
-278.457	59.165	0.051	-0.050
-277.443	8.241	-0.180	-0.135
-276.428	-135.044	-0.209	0.025
-275.413	-4.351	0.168	0.116
-274.399	-23.623	-0.104	0.062
-273.384	37.645	0.094	-0.083
-272.370	-22.215	-0.232	-0.140
-271.355	-138.507	-0.090	0.010
-270.340	393.981	0.074	-0.153
-269.326	177.709	-0.243	0.353
-268.311	-145.353	-0.158	0.014
-267.297	709.519	0.054	-0.143
-266.282	-177.669	0.126	-0.003
-265.267	381.329	-0.063	0.128
-264.253	-127.445	-0.016	0.002
-263.238	59.379	0.341	0.335
-262.224	223.434	0.063	0.102
-261.209	-138.360	-0.036	-0.004
-260.195	-186.847	0.305	0.004
-259.180	0.951	-0.284	-0.203
-258.165	-92.487	0.306	0.086
-257.151	483.452	-0.008	-0.019
-256.136	-46.312	-0.125	0.061
-255.122	-116.399	-0.245	-0.045
-254.107	121.830	-0.212	0.264
-253.092	-137.769	-0.072	0.008
-252.078	-200.000	-0.002	0.045
-251.063	263.640	0.176	0.306
-250.049	416.315	-0.090	0.192
-249.034	-111.841	-0.338	-0.068
-248.019	115.241	0.092	-0.111
-247.005	144.065	0.184	0.244
-245.990	-51.089	-0.375	0.175
-244.976	-20.769	0.174	-0.106
-243.961	107.106	-0.228	0.269
-242.946	-47.124	0.239	-0.116
-241.932	61.853	-0.180	0.179
-240.917	125.952	0.268	-0.338
-239.903	-103.843	0.032	-0.007
-238.888	44.007	0.136	-0.124
-237.873	532.961	0.140	-0.330
-236.859	800.000	0.107	0.407
-235.844	-200.000	0.019	0.395
-234.830	629.395	-0.110	0.276
-233.815	-200.000	-0.038	0.176
-232.800	87.770	-0.166	-0.183
-231.786	43.487	0.220	0.200
-230.771	374.618	-0.046	0.093
-229.757	-200.000	-0.029	0.260
-228.742	-134.201	-0.429	0.053
-227.727	800.000	-0.094	0.273
-226.713	434.675	0.091	0.197
-225.698	7.428	-0.225	0.167
-224.684	226.562	-0.101	0.162
-223.669	-200.000	0.004	-0.097
-222.655	-5.557	0.202	-0.138
-221.640	-200.000	0.050	0.217
-220.625	236.812	-0.046	-0.076
-219.611	-83.520	-0.195	-0.062
-218.596	97.045	0.164	0.187
-217.582	154.276	0.084	-0.115
-216.567	-200.000	-0.013	0.152
-215.552	-200.000	-0.000	-0.129
-214.538	-50.046	-0.093	-0.044
-213.523	-200.000	0.024	0.159
-212.509	800.000	-0.082	-0.288
-211.494	255.121	-0.038	-0.065
-210.479	255.219	0.105	0.178
-209.465	800.000	0.058	-0.221
-208.450	144.270	0.190	-0.253
-207.436	222.945	0.067	-0.107
-206.421	-52.785	0.109	-0.050
-205.406	2.861	0.309	0.223
-204.392	550.468	0.093	0.221
-203.377	381.714	0.063	0.129
-202.363	20.499	0.151	-0.121
-201.348	-95.724	-0.187	-0.050
-200.333	-171.411	-0.044	-0.001
-199.319	-200.000	-0.026	-0.208
-198.304	-5.727	-0.171	0.116
-197.290	-200.000	0.015	-0.499
-196.275	800.000	0.213	-0.629
-195.260	182.315	-0.061	0.089
-194.246	-60.144	0.260	0.110
-193.231	-143.121	-0.414	-0.040
-192.217	-200.000	0.023	-0.148
-191.202	-102.377	0.224	-0.053
-190.187	-17.536	-0.042	0.026
-189.173	82.259	0.081	0.088
-188.158	350.185	-0.087	-0.171
-187.144	-64.659	0.027	-0.011
-186.129	94.747	-0.057	-0.065
-185.114	800.000	0.066	-0.214
-184.100	-130.723	-0.030	-0.004
-183.085	-75.554	-0.130	0.046
-182.071	800.000	0.042	0.166
-181.056	100.710	-0.102	-0.118
-180.042	-31.899	0.132	-0.074
-179.027	49.705	-0.196	-0.184
-178.012	-106.448	-0.227	0.050
-176.998	-48.347	0.389	0.186
-175.983	-115.778	0.153	0.028
-174.969	-128.670	0.317	0.044
-173.954	-200.000	0.025	0.335
-172.939	339.134	-0.066	0.128
-171.925	-68.790	0.333	0.128
-170.910	-200.000	0.011	-0.055
-169.896	-30.232	0.211	0.119
-168.881	800.000	-0.115	-0.396
-167.866	1.585	0.242	-0.173
-166.852	-200.000	0.036	-0.192
-165.837	-158.507	-0.183	-0.010
-164.823	-200.000	0.005	0.114
-163.808	21.678	0.186	0.150
-162.793	-200.000	0.046	0.284
-161.779	-200.000	-0.247	0.001
-160.764	173.831	0.168	0.241
-159.750	326.972	0.148	-0.282
-158.735	-4.607	-0.106	0.073
-157.720	-118.345	0.051	0.009
-156.706	-122.487	0.279	-0.045
-155.691	73.735	-0.103	0.107
-154.677	800.000	-0.050	-0.207
-153.662	347.276	-0.182	-0.355
-152.647	-62.773	0.429	0.176
-151.633	-35.815	-0.121	0.065
-150.618	-10.043	0.118	-0.078
-149.604	-40.092	-0.248	0.128
-148.589	96.284	-0.172	0.195
-147.574	31.304	0.110	-0.094
-146.560	69.161	-0.246	0.251
-145.545	-128.552	0.247	0.035
-144.531	-45.479	-0.488	-0.240
-143.516	-200.000	-0.046	-0.242
-142.502	-105.628	0.115	-0.026
-141.487	-154.746	-0.351	-0.023
-140.472	-200.000	-0.021	0.269
-139.458	-187.276	-0.036	0.000
-138.443	-54.871	0.134	0.060
-137.429	-117.663	-0.356	0.064
-136.414	-200.000	-0.009	-0.073
-135.399	-65.967	-0.312	0.124
-134.385	-91.523	0.155	-0.044
-133.370	-97.335	0.214	0.055
-132.356	-151.103	-0.431	-0.032
-131.341	6.070	-0.192	-0.141
-130.326	-81.745	0.081	-0.026
-129.312	153.137	0.059	0.079
-128.297	234.723	-0.111	0.181
-127.283	103.306	-0.098	0.114
-126.268	-200.000	0.062	-0.272
-125.253	-56.891	-0.122	-0.053
-124.239	800.000	-0.041	0.151
-123.224	203.350	-0.039	-0.060
-122.210	-200.000	-0.041	0.196
-121.195	-21.328	0.542	0.328
