DTS Sentinel unit serial number:	SN413079Multiplexer serial number:	ORYXHardware model number:	OX4-SRSoftware version number:	ORYX F/W v4.00 Oryx Data Collector v3.7.2.0data status	okinstallation	princeton_trtdifferential loss correction	single-endedforward channel	channel 3reverse channel	N/Adate	2019/09/14time	00:16:35forward acquisition time	60.00reverse acquisition time	0.00gamma	496.2192k internal	0.2340k external	0.2340temperature offset calibration	1.0055default loss term (dB/km)	0.3790temperature slope calibration	1.0000multiplexer offset coefficient	1.0000multiplexer slope coefficient	1.0000fibre end	0.00T internal ref (°C)	26.50T ext. ref 1 (°C)	3.18T ext. ref 2 (°C)	21.44length (m)	temperature (°C)	Stokes	anti-Stokes-747.200	-200.000	0.002	0.105
-746.185	800.000	0.042	0.184
-745.171	21.655	0.057	-0.047
-744.156	800.000	-0.153	0.514
-743.142	-98.155	-0.435	-0.112
-742.127	155.940	0.036	0.050
-741.112	800.000	-0.043	0.163
-740.098	-108.835	-0.314	-0.067
-739.083	23.245	-0.277	0.228
-738.069	732.335	-0.223	0.598
-737.054	-58.612	-0.306	0.133
-736.039	-87.226	0.252	0.077
-735.025	14.851	0.156	0.123
-734.010	479.065	-0.101	-0.228
-732.996	-200.000	-0.052	-0.683
-731.981	-31.911	-0.229	-0.129
-730.966	-63.830	-0.253	-0.104
-729.952	-200.000	-0.034	0.377
-728.937	-89.892	0.169	-0.049
-727.923	146.691	0.032	0.042
-726.908	-26.392	-0.132	-0.077
-725.894	-39.580	0.143	-0.075
-724.879	-92.274	-0.261	-0.074
-723.864	-200.000	0.001	-0.027
-722.850	-131.578	-0.256	-0.034
-721.835	3.741	0.107	-0.078
-720.821	-200.000	-0.003	-0.107
-719.806	-105.340	-0.695	0.159
-718.791	90.343	-0.076	-0.085
-717.777	351.950	0.036	0.072
-716.762	144.289	0.161	-0.215
-715.748	-200.000	0.012	0.080
-714.733	-20.069	-0.141	0.087
-713.718	76.679	-0.203	0.215
-712.704	-48.868	-0.137	0.066
-711.689	72.644	0.079	0.082
-710.675	148.480	-0.131	0.177
-709.660	-25.997	-0.239	-0.141
-708.645	-16.873	0.259	0.164
-707.631	800.000	-0.083	-0.326
-706.616	-71.389	0.057	0.021
-705.602	-131.449	0.272	-0.036
-704.587	85.663	0.128	-0.140
-703.572	181.671	-0.134	-0.197
-702.558	-16.419	-0.177	-0.112
-701.543	-124.187	0.101	-0.016
-700.529	-69.541	0.058	-0.022
-699.514	112.297	0.039	0.048
-698.499	-200.000	0.000	-0.048
-697.485	202.041	-0.140	-0.216
-696.470	347.212	-0.124	-0.243
-695.456	-141.207	0.254	0.026
-694.441	100.493	-0.038	0.044
-693.426	800.000	0.077	-0.280
-692.412	-200.000	0.022	0.234
-691.397	-200.000	-0.035	-0.231
-690.383	625.202	-0.072	-0.181
-689.368	-200.000	-0.014	0.226
-688.354	-81.728	0.150	0.049
-687.339	364.671	-0.102	-0.205
-686.324	728.612	0.046	-0.122
-685.310	-73.467	-0.535	0.195
-684.295	647.288	-0.106	0.271
-683.281	-10.375	-0.376	-0.249
-682.266	145.917	0.090	0.121
-681.251	383.267	-0.116	-0.239
-680.237	633.018	-0.077	0.194
-679.222	9.141	0.108	-0.081
-678.208	-200.000	-0.013	-0.155
-677.193	-58.337	0.086	0.037
-676.178	-78.967	-0.259	-0.088
-675.164	28.542	-0.168	-0.142
-674.149	-47.973	0.069	-0.033
-673.135	68.490	-0.098	-0.100
-672.120	-62.841	-0.160	-0.066
-671.105	14.097	-0.165	-0.128
-670.091	28.580	0.194	0.164
-669.076	800.000	-0.097	-0.305
-668.062	42.478	-0.148	-0.134
-667.047	-200.000	0.000	0.047
-666.032	-22.033	-0.135	-0.082
-665.018	242.499	0.145	-0.242
-664.003	210.028	-0.029	-0.046
-662.989	-13.342	-0.153	-0.099
-661.974	-35.782	0.203	-0.110
-660.959	-157.373	-0.160	-0.010
-659.945	166.771	-0.115	0.163
-658.930	-200.000	0.011	0.084
-657.916	-200.000	0.018	-0.144
-656.901	-25.292	-0.161	0.095
-655.886	-157.935	-0.152	0.009
-654.872	800.000	-0.015	-0.063
-653.857	-105.922	-0.245	0.055
-652.843	-173.189	0.383	-0.012
-651.828	-51.604	0.193	-0.090
-650.814	25.492	-0.150	0.125
-649.799	-141.251	-0.338	-0.034
-648.784	24.596	0.150	0.124
-647.770	-200.000	-0.040	0.305
-646.755	31.033	-0.105	0.090
-645.741	294.116	0.112	-0.205
-644.726	-200.000	-0.022	-0.117
-643.711	221.266	-0.177	0.283
-642.697	71.412	-0.146	0.151
-641.682	521.442	-0.090	-0.210
-640.668	710.680	0.085	-0.225
-639.653	-11.086	-0.099	-0.065
-638.638	-200.000	-0.078	-0.354
-637.624	191.908	0.234	0.352
-636.609	-60.664	-0.304	0.129
-635.595	-200.000	-0.011	-0.105
-634.580	800.000	-0.020	0.059
-633.565	40.828	0.073	-0.066
-632.551	800.000	0.090	0.263
-631.536	800.000	0.065	-0.179
-630.522	8.474	0.173	0.130
-629.507	5.979	-0.312	-0.231
-628.492	-40.194	-0.050	-0.026
-627.478	195.414	-0.166	0.252
-626.463	-200.000	-0.017	-0.332
-625.449	-89.241	-0.406	-0.120
-624.434	-42.718	0.051	-0.026
-623.419	-79.380	0.281	-0.095
-622.405	131.040	-0.191	0.245
-621.390	-6.855	0.242	0.164
-620.376	104.087	0.298	-0.350
-619.361	-200.000	0.028	-0.199
-618.346	800.000	0.067	0.274
-617.332	39.058	0.040	-0.035
-616.317	-51.738	-0.169	0.078
-615.303	-72.932	-0.125	-0.046
-614.288	31.217	-0.372	-0.318
-613.273	225.978	-0.097	-0.157
-612.259	-72.190	-0.228	-0.084
-611.244	81.199	-0.203	-0.219
-610.230	-106.020	-0.197	-0.044
-609.215	-88.056	0.161	-0.048
-608.201	-76.105	0.053	-0.019
-607.186	-200.000	-0.121	0.638
-606.171	130.922	0.054	0.069
-605.157	-15.706	0.013	-0.008
-604.142	-200.000	0.008	0.244
-603.128	-61.148	-0.259	-0.109
-602.113	105.183	-0.123	-0.145
-601.098	-69.047	0.407	0.156
-600.084	639.418	-0.011	-0.029
-599.069	-0.396	-0.387	0.274
-598.055	800.000	0.055	0.239
-597.040	185.462	-0.024	-0.035
-596.025	-39.645	-0.027	0.014
-595.011	12.184	0.211	0.162
-593.996	-200.000	-0.062	-0.304
-592.982	-16.673	-0.227	-0.143
-591.967	177.913	0.079	-0.115
-590.952	291.862	-0.021	-0.039
-589.938	592.054	0.027	0.067
-588.923	-23.233	0.161	0.097
-587.909	-152.002	-0.065	-0.005
-586.894	266.595	-0.170	0.297
-585.879	375.428	0.123	-0.249
-584.865	-200.000	0.001	0.315
-583.850	-116.948	-0.225	0.041
-582.836	-165.931	-0.258	0.011
-581.821	283.694	0.085	-0.152
-580.806	800.000	0.034	-0.142
-579.792	-200.000	-0.014	-0.122
-578.777	-200.000	-0.060	0.291
-577.763	800.000	0.087	-0.376
-576.748	-117.794	-0.121	0.022
-575.733	-1.352	0.028	-0.020
-574.719	-58.667	0.072	-0.031
-573.704	-1.697	-0.038	-0.027
-572.690	-200.000	-0.000	-0.250
-571.675	495.443	-0.220	-0.504
-570.661	283.323	-0.113	-0.202
-569.646	-95.968	0.179	0.048
-568.631	76.141	-0.081	-0.086
-567.617	800.000	-0.031	0.113
-566.602	98.649	-0.199	-0.228
-565.588	48.929	0.210	-0.196
-564.573	235.266	0.114	-0.187
-563.558	-200.000	-0.009	-0.186
-562.544	-200.000	-0.026	-0.147
-561.529	800.000	-0.043	-0.122
-560.515	-115.797	-0.145	0.027
-559.500	328.009	0.105	-0.200
-558.485	-101.401	0.243	0.059
-557.471	30.881	-0.361	0.308
-556.456	800.000	0.072	0.203
-555.442	-148.393	-0.129	-0.011
-554.427	-25.523	0.459	-0.270
-553.412	-14.388	-0.077	0.049
-552.398	-85.951	-0.238	-0.073
-551.383	26.603	-0.129	0.107
-550.369	81.038	-0.116	0.125
-549.354	-97.795	-0.092	0.024
-548.339	9.258	-0.231	0.174
-547.325	27.671	-0.113	-0.095
-546.310	-59.695	0.136	0.058
-545.296	225.344	-0.103	0.166
-544.281	-200.000	0.011	0.230
-543.266	-76.927	-0.167	-0.058
-542.252	-200.000	0.008	-0.187
-541.237	-178.765	0.348	0.008
-540.223	-134.163	0.187	-0.023
-539.208	39.888	-0.241	-0.215
-538.193	-90.769	-0.158	0.045
-537.179	-157.567	0.175	0.010
-536.164	-58.078	0.201	-0.087
-535.150	-29.493	0.136	0.078
-534.135	-200.000	0.013	0.330
-533.121	-200.000	-0.029	0.561
-532.106	800.000	-0.065	0.193
-531.091	-200.000	0.008	0.089
-530.077	-9.960	0.046	-0.030
-529.062	800.000	-0.047	-0.183
-528.048	366.450	0.101	-0.202
-527.033	-200.000	0.016	0.094
-526.018	-119.218	-0.370	-0.064
-525.004	1.379	-0.098	0.070
-523.989	254.510	0.049	0.083
-522.975	168.205	-0.068	0.096
-521.960	-148.715	0.069	-0.006
-520.945	163.693	-0.074	0.104
-519.931	368.213	0.084	0.168
-518.916	404.460	-0.069	0.144
-517.902	461.446	-0.015	-0.032
-516.887	800.000	-0.055	-0.185
-515.872	696.846	-0.072	0.188
-514.858	-200.000	-0.006	-0.124
-513.843	-116.475	-0.261	-0.048
-512.829	-56.256	-0.093	-0.041
-511.814	-200.000	0.011	0.057
-510.799	-50.082	-0.157	0.074
-509.785	-27.217	-0.325	-0.188
-508.770	-200.000	0.025	-0.125
-507.756	-133.363	0.210	-0.026
-506.741	46.974	0.232	0.214
-505.726	-177.257	-0.056	0.001
-504.712	-200.000	0.047	-0.226
-503.697	188.705	0.157	-0.233
-502.683	-21.479	-0.329	-0.200
-501.668	-110.198	-0.145	-0.030
-500.653	-200.000	0.023	0.134
-499.639	-75.380	0.143	-0.051
-498.624	-200.000	-0.010	0.169
-497.610	800.000	-0.056	-0.211
-496.595	800.000	-0.068	-0.200
-495.581	-33.967	0.230	0.126
-494.566	145.693	0.157	0.209
-493.551	-141.250	0.236	-0.024
-492.537	-200.000	-0.034	-0.169
-491.522	-96.458	0.449	0.118
-490.508	-61.339	0.300	0.125
-489.493	-99.247	-0.302	0.076
-488.478	512.358	-0.069	-0.159
-487.464	-112.495	0.150	0.030
-486.449	800.000	-0.093	0.297
-485.435	-82.081	0.168	0.054
-484.420	-144.036	0.445	-0.041
-483.405	525.864	0.052	-0.121
-482.391	-200.000	0.047	-0.273
-481.376	268.178	-0.121	-0.210
-480.362	-200.000	-0.017	-0.205
-479.347	217.201	-0.156	0.247
-478.332	-85.786	0.285	0.088
-477.318	91.322	-0.068	-0.076
-476.303	800.000	0.080	-0.276
-475.289	-132.620	-0.172	-0.022
-474.274	-105.767	0.197	-0.044
-473.259	-200.000	0.257	0.000
-472.245	-47.406	-0.157	0.076
-471.230	800.000	0.029	-0.081
-470.216	-41.512	0.213	-0.109
-469.201	370.431	-0.108	-0.216
-468.186	751.853	0.166	-0.445
-467.172	57.655	0.041	0.040
-466.157	800.000	0.083	0.285
-465.143	60.217	-0.092	0.091
-464.128	-3.314	0.227	-0.157
-463.113	236.077	-0.036	0.059
-462.099	-191.939	0.202	0.002
-461.084	-200.000	-0.018	0.125
-460.070	-200.000	0.042	0.241
-459.055	-169.009	0.105	0.004
-458.040	431.703	0.104	0.224
-457.026	-79.166	0.048	0.016
-456.011	-80.448	-0.188	-0.062
-454.997	769.399	0.023	-0.062
-453.982	-53.944	0.183	-0.083
-452.968	119.877	0.084	-0.104
-451.953	310.376	-0.173	0.321
-450.938	203.192	-0.094	-0.144
-449.924	89.288	-0.019	-0.021
-448.909	-200.000	-0.277	0.001
-447.895	58.293	0.122	0.119
-446.880	800.000	-0.030	0.105
-445.865	-200.000	0.024	0.347
-444.851	70.855	0.226	0.231
-443.836	350.321	-0.060	0.118
-442.822	800.000	-0.127	0.397
-441.807	151.867	0.213	0.288
-440.792	175.402	-0.236	0.339
-439.778	-200.000	-0.027	0.131
-438.763	800.000	-0.080	-0.344
-437.749	-200.000	0.022	-0.103
-436.734	-200.000	0.005	0.032
-435.719	-200.000	0.066	0.495
-434.705	-200.000	-0.022	-0.103
-433.690	-31.241	0.255	0.142
-432.676	690.048	-0.049	-0.128
-431.661	-123.092	0.239	0.038
-430.646	-39.884	-0.201	0.104
-429.632	334.700	-0.152	-0.291
-428.617	-35.583	-0.174	0.093
-427.603	101.286	-0.124	-0.143
-426.588	528.177	-0.087	0.203
-425.573	-200.000	-0.001	-0.101
-424.559	-124.075	0.073	-0.011
-423.544	-200.000	0.031	-0.174
-422.530	-111.606	-0.234	0.047
-421.515	-31.961	-0.138	0.076
-420.500	387.531	0.218	-0.446
-419.486	800.000	-0.054	0.181
-418.471	108.076	0.151	0.179
-417.457	-200.000	-0.002	-0.212
-416.442	-74.767	-0.351	-0.125
-415.428	800.000	-0.046	0.170
-414.413	-152.086	0.183	-0.013
-413.398	-171.642	0.045	-0.001
-412.384	-157.096	-0.263	-0.016
-411.369	-34.987	0.028	0.015
-410.355	139.154	0.164	-0.214
-409.340	-200.000	-0.033	-0.163
-408.325	-93.312	-0.077	-0.021
-407.311	-135.925	0.196	0.023
-406.296	-127.360	0.292	-0.042
-405.282	136.318	-0.196	0.253
-404.267	53.175	-0.168	-0.159
-403.252	-200.000	-0.061	0.338
-402.238	-61.378	0.264	0.110
-401.223	154.934	0.210	0.286
-400.209	-176.445	-0.190	-0.005
-399.194	-200.000	-0.019	-0.171
-398.179	772.357	0.064	-0.172
-397.165	-200.000	0.021	-0.258
-396.150	-43.579	0.298	-0.148
-395.136	800.000	0.142	0.389
-394.121	103.287	-0.085	0.098
-393.106	-200.000	-0.003	0.081
-392.092	42.966	0.076	0.069
-391.077	-71.632	0.600	0.221
-390.063	-110.292	0.190	-0.039
-389.048	-9.297	-0.214	0.141
-388.033	800.000	0.035	0.138
-387.019	-131.172	-0.255	0.034
-386.004	800.000	0.046	-0.127
-384.990	3.767	-0.156	-0.113
-383.975	-100.650	-0.210	0.051
-382.960	50.831	-0.157	0.147
-381.946	587.659	-0.085	0.206
-380.931	177.999	-0.159	-0.229
-379.917	78.897	0.030	0.031
-378.902	-200.000	0.017	0.138
-377.888	-79.948	-0.105	-0.035
-376.873	263.838	0.195	-0.335
-375.858	-66.118	-0.312	-0.123
-374.844	-81.339	0.170	-0.055
-373.829	26.588	0.100	0.083
-372.815	-0.335	-0.137	-0.096
-371.800	-200.000	0.001	-0.213
-370.785	-161.092	0.127	0.007
-369.771	-1.907	0.086	-0.060
-368.756	-200.000	0.012	-0.060
-367.742	-30.652	-0.024	-0.013
-366.727	110.577	0.084	-0.100
-365.712	-2.117	-0.062	-0.043
-364.698	-104.499	-0.334	0.076
-363.683	-71.484	-0.192	-0.071
-362.669	187.160	0.105	-0.155
-361.654	-96.979	0.280	-0.073
-360.639	-200.000	0.011	-0.151
-359.625	-200.000	0.013	0.244
-358.610	-20.646	0.220	-0.133
-357.596	-6.952	-0.292	0.196
-356.581	-103.318	0.108	0.025
-355.566	34.013	0.166	0.143
-354.552	640.167	0.035	-0.088
-353.537	800.000	0.027	0.078
-352.523	93.552	0.232	-0.260
-351.508	13.006	0.143	-0.109
-350.493	-200.000	-0.229	-0.001
-349.479	-101.811	0.484	0.116
-348.464	-88.230	0.136	0.040
-347.450	730.137	-0.073	-0.191
-346.435	-200.000	-0.043	0.220
-345.420	-200.000	-0.008	0.124
-344.406	800.000	0.018	-0.069
-343.391	-142.393	-0.201	-0.020
-342.377	244.487	0.080	-0.133
-341.362	502.740	-0.045	-0.103
-340.348	415.367	-0.218	-0.458
-339.333	-11.893	0.152	-0.098
-338.318	181.292	0.061	0.088
-337.304	-54.188	-0.209	0.094
-336.289	35.091	0.227	0.196
-335.275	-200.000	0.011	0.253
-334.260	-59.402	-0.251	0.106
-333.245	-23.840	0.204	-0.120
-332.231	22.921	-0.207	0.167
-331.216	-200.000	-0.006	0.051
-330.202	-129.967	0.214	-0.029
-329.187	800.000	0.060	-0.211
-328.172	-0.467	-0.057	-0.040
-327.158	-107.692	0.215	-0.046
-326.143	-84.072	-0.081	0.025
-325.129	428.161	0.064	0.136
-324.114	-29.757	-0.188	-0.106
-323.099	-200.000	-0.002	0.025
-322.085	201.645	0.139	-0.211
-321.070	-47.917	-0.120	-0.057
-320.056	363.357	-0.085	0.168
-319.041	-24.268	-0.232	0.137
-318.026	-119.995	0.259	0.044
-317.012	-143.638	0.290	-0.027
-315.997	-109.230	0.239	-0.050
-314.983	344.346	0.146	0.283
-313.968	195.084	-0.137	0.205
-312.953	-55.005	0.080	0.036
-311.939	-94.201	0.204	0.055
-310.924	737.021	0.097	-0.256
-309.910	16.929	-0.257	0.200
-308.895	-47.075	-0.458	-0.220
-307.880	800.000	-0.082	-0.277
-306.866	-200.000	-0.045	-0.304
-305.851	-145.949	-0.382	-0.033
-304.837	-19.139	-0.096	-0.058
-303.822	66.397	0.156	-0.157
-302.807	-78.073	-0.281	0.095
-301.793	163.167	-0.057	-0.079
-300.778	-200.000	0.055	-0.394
-299.764	-76.828	0.165	0.057
-298.749	-200.000	0.022	0.334
-297.735	102.925	-0.168	0.194
-296.720	-200.000	-0.015	-0.263
-295.705	102.754	-0.043	-0.050
-294.691	322.257	-0.141	-0.264
-293.676	87.583	0.106	0.116
-292.662	115.057	-0.187	0.224
-291.647	149.448	-0.088	0.118
-290.632	-163.775	0.109	-0.005
-289.618	-39.168	-0.114	0.059
-288.603	-57.622	-0.215	-0.093
-287.589	148.352	-0.079	-0.105
-286.574	-58.809	-0.132	-0.056
-285.559	22.058	0.085	0.068
-284.545	-200.000	0.004	-0.322
-283.530	-200.000	0.020	0.462
-282.516	-73.313	0.124	0.045
-281.501	146.956	0.025	0.033
-280.486	800.000	-0.020	0.081
-279.472	-37.407	-0.203	0.106
-278.457	-51.373	0.296	-0.136
-277.443	110.959	-0.067	0.080
-276.428	85.912	0.281	-0.305
-275.413	-130.303	-0.093	0.012
-274.399	113.516	-0.250	-0.299
-273.384	82.608	0.123	-0.132
-272.370	118.229	0.220	-0.268
-271.355	-200.000	0.025	0.130
-270.340	220.324	0.091	-0.143
-269.326	39.589	0.166	-0.146
-268.311	-14.966	-0.253	0.159
-267.297	28.639	0.201	0.167
-266.282	470.003	-0.213	0.471
-265.267	19.962	-0.121	0.096
-264.253	439.391	-0.091	0.195
-263.238	333.877	-0.148	-0.281
-262.224	8.139	0.030	-0.022
-261.209	87.133	0.075	-0.082
-260.195	641.461	0.042	-0.104
-259.180	-95.462	-0.191	-0.050
-258.165	-200.000	-0.019	0.129
-257.151	-42.561	-0.388	-0.194
-256.136	-55.701	0.323	-0.142
-255.122	-85.913	0.138	-0.042
-254.107	-120.456	-0.228	0.038
-253.092	21.879	0.130	0.104
-252.078	169.163	-0.058	0.081
-251.063	-32.035	-0.036	-0.020
-250.049	8.819	0.176	-0.131
-249.034	-200.000	0.019	0.164
-248.019	220.522	0.044	0.069
-247.005	-97.385	-0.118	-0.030
-245.990	-96.029	0.178	0.047
-244.976	800.000	-0.132	0.426
-243.961	37.008	0.218	-0.189
-242.946	-128.972	0.478	0.066
-241.932	-200.000	-0.021	0.178
-240.917	-84.420	-0.120	0.037
-239.903	105.651	0.050	-0.059
-238.888	-68.531	0.144	0.055
-237.873	252.048	0.119	-0.199
-236.859	777.066	-0.066	-0.178
-235.844	-200.000	-0.034	0.259
-234.830	160.121	0.099	0.136
-233.815	-67.062	-0.138	-0.053
-232.800	800.000	0.053	-0.157
-231.786	-36.905	-0.273	0.144
-230.771	62.107	-0.182	-0.178
-229.757	-200.000	-0.003	0.120
-228.742	-72.176	0.173	0.063
-227.727	130.033	0.238	-0.300
-226.713	-102.823	0.169	-0.039
-225.698	52.382	-0.148	-0.139
-224.684	-110.256	-0.105	0.022
-223.669	320.431	-0.089	0.165
-222.655	-8.391	0.366	-0.241
-221.640	800.000	-0.040	-0.166
-220.625	562.377	0.011	0.026
-219.611	46.735	-0.103	0.094
-218.596	-140.527	0.246	-0.025
-217.582	316.901	0.025	0.046
-216.567	197.734	-0.054	0.081
-215.552	-200.000	0.030	0.162
-214.538	134.329	-0.155	-0.198
-213.523	-166.354	-0.379	0.016
-212.509	-50.937	-0.200	-0.092
-211.494	30.982	0.039	-0.033
-210.479	800.000	-0.022	-0.082
-209.465	227.724	-0.096	0.153
-208.450	-39.825	-0.111	-0.057
-207.436	231.063	0.087	-0.139
-206.421	-68.153	-0.144	0.055
-205.406	135.586	0.287	0.367
-204.392	170.603	-0.236	-0.332
-203.377	-200.000	-0.008	0.356
-202.363	134.562	0.072	0.091
-201.348	-200.000	0.155	-0.000
-200.333	316.689	-0.099	-0.183
-199.319	-156.189	0.281	-0.017
-198.304	140.504	0.102	0.132
-197.290	-42.993	-0.129	0.064
-196.275	-44.897	-0.088	0.043
-195.260	69.598	-0.111	0.112
-194.246	-128.468	-0.067	0.009
-193.231	-115.635	0.213	-0.039
-192.217	-42.840	-0.102	0.051
-191.202	28.924	0.126	0.105
-190.187	187.390	-0.091	0.134
-189.173	-177.602	0.198	-0.005
-188.158	784.234	-0.129	0.347
-187.144	-200.000	-0.005	0.170
-186.129	189.752	0.098	-0.144
-185.114	8.745	-0.187	0.138
-184.100	49.322	0.089	0.082
-183.085	376.693	-0.042	0.085
-182.071	-200.000	0.010	0.180
-181.056	-52.176	0.301	0.137
-180.042	12.043	0.231	0.174
-179.027	-113.841	0.035	-0.007
-178.012	-65.404	0.194	-0.077
-176.998	631.740	0.081	-0.202
-175.983	70.031	-0.182	-0.184
-174.969	157.568	-0.120	-0.163
-173.954	-33.871	0.039	-0.021
-172.939	348.649	-0.050	0.097
-171.925	800.000	0.014	-0.051
-170.910	-88.690	0.354	-0.103
-169.896	-108.185	-0.105	-0.022
-168.881	800.000	0.082	-0.337
-167.866	-136.926	0.150	-0.017
-166.852	96.939	0.082	0.093
-165.837	-200.000	0.002	0.247
-164.823	-99.231	0.119	-0.029
-163.808	591.733	0.055	-0.133
-162.793	283.532	0.052	0.091
-161.779	42.569	-0.194	-0.173
-160.764	-200.000	-0.004	-0.160
-159.750	-200.000	0.015	0.360
-158.735	70.039	0.161	-0.163
-157.720	-200.000	0.041	0.407
-156.706	-33.566	0.512	0.277
-155.691	148.187	-0.110	-0.145
-154.677	259.449	-0.098	0.165
-153.662	312.674	-0.106	-0.195
-152.647	135.399	0.069	-0.088
-151.633	327.783	0.151	-0.283
-150.618	23.974	0.129	-0.104
-149.604	170.634	0.159	0.223
-148.589	-95.147	0.137	-0.036
-147.574	-36.875	-0.146	0.077
-146.560	-68.117	-0.344	-0.131
-145.545	-149.419	-0.317	0.025
-144.531	743.127	0.046	-0.122
-143.516	-200.000	-0.029	-0.218
-142.502	165.881	0.203	-0.282
-141.487	51.346	0.073	-0.068
-140.472	800.000	-0.075	0.216
-139.458	-200.000	-0.036	0.176
-138.443	-98.601	-0.090	-0.022
-137.429	63.822	-0.060	-0.059
-136.414	-169.752	0.213	-0.008
-135.399	-93.234	0.091	0.025
-134.385	-200.000	0.003	0.127
-133.370	667.564	-0.051	0.129
-132.356	104.083	0.071	0.082
-131.341	104.648	-0.071	0.082
-130.326	-200.000	0.013	-0.450
-129.312	-144.786	-0.337	-0.030
-128.297	-144.462	0.086	-0.008
-127.283	-200.000	-0.039	-0.350
-126.268	203.437	-0.112	0.170
-125.253	215.372	0.017	-0.026
-124.239	-48.347	-0.344	0.162
-123.224	-98.282	0.136	-0.034
-122.210	2.908	-0.114	-0.081
