DTS Sentinel unit serial number:	SN413079Multiplexer serial number:	ORYXHardware model number:	OX4-SRSoftware version number:	ORYX F/W v4.00 Oryx Data Collector v3.7.2.0data status	okinstallation	princeton_trtdifferential loss correction	single-endedforward channel	channel 3reverse channel	N/Adate	2019/09/17time	19:04:35forward acquisition time	60.00reverse acquisition time	0.00gamma	496.2192k internal	0.2295k external	0.2295temperature offset calibration	0.9957default loss term (dB/km)	0.3790temperature slope calibration	1.0000multiplexer offset coefficient	1.0000multiplexer slope coefficient	1.0000fibre end	0.00T internal ref (°C)	40.09T ext. ref 1 (°C)	0.28T ext. ref 2 (°C)	28.39length (m)	temperature (°C)	Stokes	anti-Stokes-747.200	800.000	0.057	-0.160
-746.185	250.394	-0.169	0.293
-745.171	-142.476	0.306	0.031
-744.156	-200.000	-0.003	0.207
-743.142	-106.166	0.306	-0.070
-742.127	-200.000	-0.017	0.084
-741.112	-75.254	-0.080	-0.029
-740.098	-200.000	-0.033	0.153
-739.083	-191.116	0.316	-0.003
-738.069	-200.000	0.009	0.153
-737.054	-108.396	0.130	-0.029
-736.039	-190.707	-0.186	-0.002
-735.025	304.892	0.050	0.095
-734.010	-58.376	-0.274	-0.122
-732.996	-124.493	-0.451	-0.072
-731.981	470.149	0.092	-0.212
-730.966	-62.193	-0.266	0.113
-729.952	162.009	0.115	-0.165
-728.937	464.686	0.181	-0.413
-727.923	-35.353	-0.281	0.156
-726.908	-4.853	-0.308	-0.217
-725.894	-107.114	0.337	0.076
-724.879	226.543	0.218	-0.361
-723.864	54.088	0.155	-0.152
-722.850	156.630	0.168	-0.237
-721.835	-200.000	-0.005	-0.499
-720.821	233.013	-0.100	0.169
-719.806	-27.731	0.110	-0.065
-718.791	-200.000	-0.001	0.361
-717.777	-200.000	0.001	0.105
-716.762	-16.322	-0.203	0.132
-715.748	284.998	-0.110	0.202
-714.733	23.548	0.246	-0.207
-713.718	198.957	-0.079	0.124
-712.704	398.767	0.061	0.130
-711.689	800.000	0.031	-0.110
-710.675	385.462	0.104	0.220
-709.660	-127.215	-0.333	-0.050
-708.645	50.028	-0.268	-0.258
-707.631	-4.257	0.400	0.282
-706.616	1.067	0.180	0.132
-705.602	800.000	-0.073	-0.227
-704.587	800.000	0.024	-0.090
-703.572	-146.105	-0.281	-0.025
-702.558	800.000	0.087	0.281
-701.543	138.956	0.259	0.347
-700.529	-61.226	0.225	-0.097
-699.514	14.122	-0.123	-0.098
-698.499	129.838	-0.128	0.167
-697.485	-200.000	-0.044	-0.315
-696.470	44.962	-0.158	0.149
-695.456	388.784	-0.063	-0.134
-694.441	-140.567	-0.170	0.018
-693.426	51.944	0.134	0.130
-692.412	-200.000	0.011	-0.162
-691.397	800.000	0.075	-0.232
-690.383	480.841	0.083	0.193
-689.368	-200.000	0.019	0.152
-688.354	800.000	0.043	-0.168
-687.339	-200.000	-0.013	0.311
-686.324	-200.000	-0.008	-0.037
-685.310	-94.042	0.259	-0.073
-684.295	800.000	0.076	0.298
-683.281	14.918	0.018	0.014
-682.266	800.000	-0.063	0.242
-681.251	14.772	0.123	-0.098
-680.237	-71.250	-0.049	0.019
-679.222	-200.000	0.025	0.143
-678.208	170.658	0.087	0.126
-677.193	173.753	-0.178	-0.262
-676.178	-148.901	0.129	-0.011
-675.164	30.354	-0.417	0.364
-674.149	52.097	-0.230	-0.223
-673.135	-57.977	-0.244	-0.108
-672.120	-1.290	0.218	0.157
-671.105	-58.273	-0.432	-0.192
-670.091	-200.000	-0.015	-0.200
-669.076	19.799	0.025	-0.021
-668.062	330.000	-0.044	-0.086
-667.047	122.664	-0.143	-0.182
-666.032	410.480	0.084	-0.182
-665.018	-200.000	-0.015	-0.273
-664.003	-153.364	0.116	0.008
-662.989	-80.779	-0.136	0.046
-661.974	800.000	-0.079	0.234
-660.959	105.203	-0.128	0.155
-659.945	94.696	0.180	-0.209
-658.930	-29.237	-0.073	0.042
-657.916	594.764	0.059	-0.148
-656.901	-139.016	0.095	-0.010
-655.886	800.000	-0.038	0.155
-654.872	-123.591	-0.202	-0.033
-653.857	800.000	-0.008	-0.029
-652.843	-167.710	-0.123	0.005
-651.828	-53.091	0.177	0.083
-650.814	151.615	-0.223	0.309
-649.799	288.387	0.111	0.205
-648.784	-72.972	-0.262	-0.098
-647.770	-67.575	-0.176	0.070
-646.755	99.607	-0.235	0.277
-645.741	-84.503	0.315	0.101
-644.726	5.260	-0.080	-0.060
-643.711	22.061	0.216	-0.179
-642.697	-155.956	0.336	0.022
-641.682	44.892	0.166	-0.156
-640.668	-200.000	-0.029	0.135
-639.653	-6.769	-0.247	0.171
-638.638	-111.694	0.188	-0.039
-637.624	324.548	0.010	-0.018
-636.609	61.429	-0.146	-0.147
-635.595	-149.698	-0.255	0.020
-634.580	-3.381	0.155	-0.110
-633.565	-109.245	0.329	0.071
-632.551	-134.197	-0.120	-0.015
-631.536	-11.416	-0.172	0.115
-630.522	-85.527	0.202	-0.064
-629.507	90.923	0.093	0.106
-628.492	-56.915	-0.118	-0.053
-627.478	-56.763	0.120	0.054
-626.463	-103.983	0.243	-0.058
-625.449	118.954	-0.159	-0.200
-624.434	-90.673	-0.141	-0.041
-623.419	-106.944	0.100	-0.022
-622.405	800.000	0.032	0.092
-621.390	800.000	0.085	-0.362
-620.376	579.017	0.164	-0.408
-619.361	33.262	0.027	-0.024
-618.346	-107.945	-0.285	0.063
-617.332	12.406	-0.221	-0.173
-616.317	693.503	-0.150	0.401
-615.303	228.891	0.239	-0.397
-614.288	-113.549	0.154	0.031
-613.273	-2.865	-0.382	-0.271
-612.259	-200.000	0.039	0.189
-611.244	-61.969	0.281	0.120
-610.230	800.000	-0.073	0.257
-609.215	800.000	0.065	-0.233
-608.201	16.352	-0.334	-0.268
-607.186	-143.168	0.183	-0.018
-606.171	80.744	-0.142	-0.155
-605.157	39.527	0.211	0.193
-604.142	89.520	0.060	-0.069
-603.128	41.485	0.203	-0.187
-602.113	220.280	0.222	0.362
-601.098	-200.000	0.008	-0.166
-600.084	-200.000	0.002	-0.097
-599.069	-130.024	0.125	0.017
-598.055	800.000	-0.081	-0.291
-597.040	-29.567	-0.232	-0.135
-596.025	372.280	0.122	0.253
-595.011	8.987	0.048	-0.037
-593.996	-43.636	0.164	0.084
-592.982	-84.431	-0.220	-0.071
-591.967	-200.000	-0.019	0.300
-590.952	403.252	0.033	-0.070
-589.938	105.854	-0.296	-0.356
-588.923	-52.058	0.058	0.028
-587.909	112.748	0.254	-0.313
-586.894	123.245	-0.040	0.052
-585.879	208.688	-0.083	0.132
-584.865	-40.066	0.422	0.224
-583.850	-86.498	-0.234	-0.073
-582.836	-28.793	0.180	-0.105
-581.821	-43.914	-0.300	0.153
-580.806	-122.063	-0.305	0.051
-579.792	-69.204	-0.113	0.044
-578.777	464.672	0.139	0.315
-577.763	161.704	-0.052	-0.074
-576.748	625.461	-0.096	0.245
-575.733	120.034	-0.069	-0.087
-574.719	56.330	0.151	-0.149
-573.704	-109.944	-0.251	0.053
-572.690	-200.000	0.023	-0.166
-571.675	-200.000	0.014	0.107
-570.661	-21.665	-0.296	0.183
-569.646	96.512	0.140	0.163
-568.631	76.286	-0.127	0.137
-567.617	-200.000	-0.009	-0.386
-566.602	133.301	0.078	-0.102
-565.588	-100.212	0.263	-0.066
-564.573	-84.515	0.242	-0.078
-563.558	-76.522	-0.284	0.101
-562.544	-41.683	0.027	0.014
-561.529	-87.813	-0.132	0.040
-560.515	-103.522	-0.185	0.044
-559.500	-200.000	0.007	0.333
-558.485	-200.000	0.061	0.323
-557.471	-40.312	-0.234	-0.124
-556.456	-200.000	-0.355	0.001
-555.442	800.000	-0.137	0.518
-554.427	231.434	0.126	0.210
-553.412	-156.495	0.218	-0.014
-552.398	-143.933	-0.213	0.020
-551.383	19.727	-0.171	0.140
-550.369	-46.143	0.141	-0.071
-549.354	-113.653	-0.140	-0.028
-548.339	-6.033	0.052	0.036
-547.325	-167.249	-0.330	0.014
-546.310	41.572	-0.099	-0.091
-545.296	120.707	0.128	-0.161
-544.281	577.483	-0.087	0.217
-543.266	-200.000	-0.011	0.185
-542.252	306.832	0.055	0.105
-541.237	-142.494	-0.150	-0.015
-540.223	-200.000	-0.013	0.184
-539.208	-140.822	-0.363	-0.038
-538.193	311.163	0.104	0.197
-537.179	800.000	0.132	-0.373
-536.164	800.000	-0.081	-0.245
-535.150	573.733	-0.061	-0.151
-534.135	-55.500	0.120	-0.055
-533.121	-131.247	-0.176	-0.024
-532.106	-200.000	-0.000	0.074
-531.091	-37.290	0.249	-0.135
-530.077	116.552	0.094	0.117
-529.062	-86.929	-0.172	0.053
-528.048	14.520	0.187	0.148
-527.033	-200.000	-0.051	-0.424
-526.018	800.000	0.120	-0.382
-525.004	-198.244	0.194	-0.001
-523.989	-76.910	-0.220	-0.078
-522.975	-200.000	-0.013	0.137
-521.960	192.214	0.065	-0.099
-520.945	87.667	0.136	0.153
-519.931	-61.518	-0.250	0.107
-518.916	-142.137	0.105	0.011
-517.902	800.000	-0.110	-0.400
-516.887	-200.000	-0.040	-0.320
-515.872	87.719	0.285	-0.319
-514.858	74.726	0.081	0.087
-513.843	115.041	-0.090	-0.112
-512.829	42.585	0.154	0.142
-511.814	-103.993	0.237	0.056
-510.799	366.364	0.104	0.213
-509.785	-200.000	0.006	0.206
-508.770	-43.791	0.226	0.115
-507.756	17.132	0.190	-0.153
-506.741	475.954	-0.157	0.358
-505.726	800.000	-0.036	0.128
-504.712	-200.000	-0.007	-0.116
-503.697	90.816	0.058	-0.066
-502.683	-200.000	-0.025	0.205
-501.668	311.842	0.076	0.145
-500.653	-113.302	0.106	0.021
-499.639	-65.875	0.200	-0.081
-498.624	-14.346	0.249	0.162
-497.610	315.762	-0.139	0.266
-496.595	77.250	0.253	0.272
-495.581	-69.191	-0.115	-0.045
-494.566	321.039	-0.165	0.317
-493.551	-78.415	-0.180	0.062
-492.537	-143.073	0.363	0.036
-491.522	89.125	-0.270	-0.305
-490.508	-50.348	-0.267	-0.128
-489.493	-89.732	0.313	-0.093
-488.478	-135.541	-0.216	-0.026
-487.464	-104.555	0.293	0.068
-486.449	-200.000	0.026	0.471
-485.435	164.486	-0.205	0.293
-484.420	375.150	0.086	0.177
-483.405	-200.000	-0.028	-0.173
-482.391	87.192	0.127	0.142
-481.376	669.701	-0.083	0.218
-480.362	800.000	-0.032	-0.142
-479.347	323.537	-0.094	0.181
-478.332	-40.269	0.184	0.097
-477.318	-200.000	0.010	-0.086
-476.303	-145.778	-0.220	0.020
-475.289	758.025	-0.012	0.033
-474.274	100.476	-0.260	0.305
-473.259	800.000	-0.046	-0.132
-472.245	226.556	0.098	-0.162
-471.230	2.415	-0.236	0.173
-470.216	-200.000	-0.002	0.098
-469.201	-142.075	0.284	-0.029
-468.186	-138.875	-0.168	0.018
-467.172	-105.840	-0.134	-0.031
-466.157	178.213	0.253	-0.374
-465.143	-99.200	0.234	-0.060
-464.128	372.329	-0.047	-0.097
-463.113	-40.683	-0.244	0.128
-462.099	-96.706	-0.032	-0.009
-461.084	72.144	-0.199	0.210
-460.070	-200.000	-0.026	0.153
-459.055	-87.111	0.264	-0.081
-458.040	-100.332	0.075	-0.019
-457.026	56.648	-0.285	0.281
-456.011	-27.783	-0.243	0.142
-454.997	800.000	0.039	0.113
-453.982	203.621	0.049	-0.076
-452.968	22.841	-0.288	0.238
-451.953	-200.000	-0.020	-0.162
-450.938	-135.589	-0.206	0.025
-449.924	268.553	-0.146	0.259
-448.909	445.925	0.029	-0.065
-447.895	-76.066	-0.320	0.114
-446.880	800.000	0.073	0.305
-445.865	-137.593	-0.157	0.018
-444.851	683.387	0.100	0.263
-443.836	58.307	0.275	-0.272
-442.822	-159.107	-0.251	-0.014
-441.807	-200.000	0.012	0.134
-440.792	-13.195	-0.095	-0.062
-439.778	167.982	0.113	-0.163
-438.763	-127.790	0.291	-0.042
-437.749	-98.501	0.138	-0.036
-436.734	434.761	-0.186	0.409
-435.719	-120.502	-0.243	0.042
-434.705	-12.436	0.284	-0.188
-433.690	-200.000	-0.034	-0.273
-432.676	-200.000	-0.013	-0.342
-431.661	128.357	0.256	0.329
-430.646	-110.868	-0.224	-0.047
-429.632	2.693	-0.166	0.121
-428.617	309.076	-0.097	-0.183
-427.603	-200.000	-0.018	0.147
-426.588	97.796	0.361	-0.419
-425.573	-200.000	-0.001	-0.031
-424.559	83.297	0.314	0.345
-423.544	200.488	0.148	0.229
-422.530	-22.919	-0.235	0.143
-421.515	-200.000	-0.037	-0.202
-420.500	-200.000	0.005	0.210
-419.486	-4.829	-0.199	0.139
-418.471	-200.000	0.005	0.094
-417.457	-70.505	0.278	-0.106
-416.442	-200.000	0.032	-0.208
-415.428	-61.241	0.263	-0.112
-414.413	-148.940	-0.123	-0.010
-413.398	-61.082	-0.221	-0.094
-412.384	167.336	-0.307	-0.440
-411.369	-99.000	-0.135	0.035
-410.355	-125.409	-0.347	0.053
-409.340	-123.699	-0.332	-0.053
-408.325	87.421	0.043	-0.048
-407.311	6.154	-0.173	-0.129
-406.296	800.000	-0.104	-0.414
-405.282	77.053	0.134	-0.143
-404.267	-200.000	-0.017	-0.119
-403.252	800.000	-0.046	-0.145
-402.238	-200.000	0.014	0.106
-401.223	78.124	-0.331	0.356
-400.209	-6.679	0.174	-0.120
-399.194	194.262	0.162	-0.247
-398.179	-111.178	0.209	0.043
-397.165	84.835	0.253	-0.279
-396.150	202.335	-0.069	0.107
-395.136	247.530	0.042	-0.071
-394.121	-200.000	-0.043	0.302
-393.106	-130.553	-0.203	0.028
-392.092	-121.286	-0.216	-0.036
-391.077	475.385	-0.055	-0.126
-390.063	-27.272	-0.060	-0.035
-389.048	89.097	-0.226	-0.254
-388.033	-72.906	-0.158	-0.058
-387.019	366.110	-0.115	-0.235
-386.004	-115.545	0.389	-0.074
-384.990	12.797	-0.110	-0.086
-383.975	-54.598	-0.196	0.089
-382.960	256.383	0.258	0.446
-381.946	-97.325	0.215	-0.056
-380.931	235.342	-0.057	-0.096
-379.917	119.261	-0.079	0.099
-378.902	77.320	-0.113	0.121
-377.888	-102.220	0.196	0.047
-376.873	-91.099	0.116	0.033
-375.858	-16.343	0.126	-0.080
-374.844	-105.169	-0.042	0.010
-373.829	140.178	-0.276	-0.367
-372.815	61.561	-0.162	0.163
-371.800	-150.669	0.353	-0.027
-370.785	95.732	0.069	-0.079
-369.771	-16.337	-0.230	0.147
-368.756	32.526	0.106	-0.092
-367.742	-200.000	0.014	0.130
-366.727	-64.673	0.324	0.132
-365.712	193.228	-0.082	0.124
-364.698	-101.037	0.181	0.045
-363.683	-200.000	0.027	0.205
-362.669	114.139	0.153	-0.188
-361.654	-80.055	-0.441	0.149
-360.639	-109.942	0.310	0.065
-359.625	800.000	0.040	-0.139
-358.610	-41.568	-0.086	-0.045
-357.596	800.000	-0.064	0.235
-356.581	-152.275	-0.127	0.009
-355.566	-62.060	-0.159	0.067
-354.552	800.000	0.036	0.153
-353.537	-156.936	0.201	0.012
-352.523	800.000	0.116	0.357
-351.508	-124.248	-0.209	-0.033
-350.493	-63.126	-0.289	-0.120
-349.479	-31.173	-0.107	0.061
-348.464	-82.624	0.165	0.054
-347.450	242.859	0.021	0.036
-346.435	-154.501	0.218	-0.015
-345.420	-20.065	-0.109	-0.068
-344.406	-146.342	-0.341	0.030
-343.391	505.121	-0.103	-0.240
-342.377	12.041	0.140	-0.108
-341.362	800.000	0.015	-0.062
-340.348	-68.456	0.169	0.066
-339.333	-26.109	0.319	0.189
-338.318	800.000	0.156	0.472
-337.304	129.691	0.126	-0.162
-336.289	-200.000	0.016	-0.094
-335.275	208.578	-0.199	0.313
-334.260	800.000	-0.088	-0.322
-333.245	-127.089	-0.238	-0.035
-332.231	279.651	-0.141	-0.253
-331.216	-200.000	0.021	-0.116
-330.202	97.012	0.133	-0.154
-329.187	800.000	-0.028	0.106
-328.172	-200.000	-0.052	0.309
-327.158	30.481	-0.207	-0.178
-326.143	302.881	-0.165	-0.308
-325.129	-109.092	0.334	-0.071
-324.114	-92.598	0.109	-0.031
-323.099	800.000	0.038	-0.128
-322.085	169.478	0.062	0.090
-321.070	-84.920	-0.170	-0.054
-320.056	-53.542	0.341	0.157
-319.041	525.615	-0.096	0.228
-318.026	-33.512	0.129	0.072
-317.012	120.972	-0.099	-0.124
-315.997	-134.998	-0.093	-0.011
-314.983	242.367	0.195	-0.328
-313.968	217.005	0.141	-0.225
-312.953	25.118	0.198	0.166
-311.939	-128.450	0.310	0.044
-310.924	800.000	-0.077	-0.307
-309.910	800.000	0.079	-0.318
-308.895	-20.258	0.163	-0.101
-307.880	107.816	-0.166	0.199
-306.866	550.652	-0.053	0.128
-305.851	-200.000	0.033	0.147
-304.837	198.776	-0.068	0.105
-303.822	-16.456	0.177	0.113
-302.807	-118.229	0.323	0.058
-301.793	-200.000	0.009	-0.331
-300.778	125.711	0.321	-0.408
-299.764	21.855	0.205	0.168
-298.749	-120.155	-0.293	0.050
-297.735	-65.320	0.148	0.060
-296.720	234.030	0.149	0.246
-295.705	-47.449	-0.320	-0.156
-294.691	800.000	-0.066	-0.230
-293.676	313.131	-0.062	-0.117
-292.662	-25.937	0.140	-0.083
-291.647	-52.840	-0.203	0.094
-290.632	88.295	-0.144	0.161
-289.618	-116.256	0.312	0.058
-288.603	-150.146	-0.108	0.008
-287.589	-163.274	-0.161	0.008
-286.574	800.000	-0.023	-0.077
-285.559	281.160	-0.101	0.182
-284.545	315.059	-0.109	0.207
-283.530	800.000	-0.022	0.085
-282.516	215.565	0.140	-0.222
-281.501	-200.000	0.008	-0.440
-280.486	227.210	-0.121	-0.197
-279.472	-200.000	0.008	0.207
-278.457	39.337	0.220	0.198
-277.443	-75.316	-0.383	-0.137
-276.428	-200.000	-0.018	-0.328
-275.413	800.000	0.111	0.394
-274.399	-7.961	-0.336	0.227
-273.384	532.004	-0.082	0.194
-272.370	318.756	-0.155	0.296
-271.355	800.000	0.061	-0.226
-270.340	460.364	0.041	-0.091
-269.326	800.000	-0.070	0.202
-268.311	701.528	0.068	-0.180
-267.297	800.000	0.030	-0.090
-266.282	648.474	0.177	-0.455
-265.267	267.985	0.117	0.205
-264.253	-200.000	-0.008	-0.298
-263.238	-64.895	-0.188	-0.076
-262.224	-200.000	-0.045	0.266
-261.209	-53.939	0.337	-0.154
-260.195	-200.000	-0.015	0.082
-259.180	-200.000	0.030	-0.327
-258.165	-132.334	0.161	0.021
-257.151	99.506	-0.170	-0.197
-256.136	231.058	0.103	-0.169
-255.122	-92.253	-0.043	-0.012
-254.107	4.595	-0.260	-0.191
-253.092	-200.000	-0.030	0.146
-252.078	-200.000	-0.023	-0.141
-251.063	410.030	0.080	-0.170
-250.049	41.352	0.117	-0.106
-249.034	-94.019	0.194	0.053
-248.019	-19.668	0.294	-0.183
-247.005	279.497	-0.076	0.137
-245.990	29.031	-0.103	-0.088
-244.976	29.251	0.211	-0.179
-243.961	282.259	0.082	0.147
-242.946	-200.000	0.010	-0.157
-241.932	104.176	-0.141	-0.166
-240.917	-45.673	-0.371	-0.184
-239.903	-45.441	-0.395	0.196
-238.888	-171.656	-0.075	-0.002
-237.873	201.946	0.065	0.101
-236.859	102.700	-0.088	0.103
-235.844	81.055	0.188	0.203
-234.830	-66.120	-0.141	-0.056
-233.815	170.054	-0.059	-0.085
-232.800	9.010	0.269	0.203
-231.786	800.000	0.027	0.096
-230.771	479.630	-0.084	0.191
-229.757	23.279	0.119	0.098
-228.742	6.458	-0.042	-0.032
-227.727	-55.886	-0.340	-0.152
-226.713	-200.000	-0.005	-0.144
-225.698	257.554	-0.075	-0.129
-224.684	-184.380	0.256	0.004
-223.669	800.000	-0.099	0.288
-222.655	568.415	0.086	-0.210
-221.640	347.454	0.144	0.284
-220.625	132.342	-0.045	-0.059
-219.611	-200.000	-0.032	-0.159
-218.596	-200.000	0.010	-0.154
-217.582	50.326	0.211	0.200
-216.567	64.772	-0.151	0.153
-215.552	-200.000	-0.085	0.520
-214.538	430.532	-0.023	-0.050
-213.523	130.627	0.071	0.092
-212.509	15.615	0.229	-0.180
-211.494	29.421	0.157	-0.133
-210.479	129.462	0.220	0.282
-209.465	-103.029	0.114	-0.027
-208.450	800.000	-0.087	0.268
-207.436	-94.306	-0.149	0.041
-206.421	-60.337	0.087	-0.037
-205.406	176.836	-0.145	-0.212
-204.392	-151.581	0.154	-0.011
-203.377	800.000	0.088	0.280
-202.363	-84.858	-0.250	-0.078
-201.348	800.000	0.083	0.310
-200.333	-64.393	0.311	0.126
-199.319	-18.373	0.257	-0.161
-198.304	-2.220	0.162	0.114
-197.290	313.249	-0.125	0.235
-196.275	532.426	-0.008	-0.018
-195.260	-39.975	0.172	0.090
-194.246	-200.000	0.048	-0.280
-193.231	200.722	-0.047	0.072
-192.217	70.847	-0.230	0.238
-191.202	-77.653	-0.286	-0.099
-190.187	78.570	-0.100	0.107
-189.173	99.275	0.066	0.076
-188.158	-85.408	0.163	-0.051
-187.144	-200.000	0.020	0.113
-186.129	113.809	0.093	-0.113
-185.114	-150.230	-0.220	-0.017
-184.100	-68.317	-0.319	0.124
-183.085	-141.604	0.160	-0.016
-182.071	561.150	0.070	0.169
-181.056	-200.000	-0.004	-0.255
-180.042	-63.621	0.061	-0.025
-179.027	3.307	0.261	-0.190
-178.012	-107.993	-0.090	0.019
-176.998	134.280	0.175	-0.227
-175.983	-151.223	0.163	0.012
-174.969	269.541	-0.214	0.376
-173.954	800.000	-0.062	0.223
-172.939	-200.000	-0.007	0.081
-171.925	-200.000	-0.098	-0.505
-170.910	-96.127	0.170	0.045
-169.896	70.356	0.109	0.113
-168.881	181.781	-0.228	-0.336
-167.866	-200.000	-0.006	-0.284
-166.852	-35.342	0.299	-0.163
-165.837	-24.808	0.277	-0.165
-164.823	50.619	0.029	-0.027
-163.808	-68.396	0.103	0.040
-162.793	-186.230	0.128	-0.002
-161.779	-200.000	0.036	-0.235
-160.764	-136.435	-0.279	-0.032
-159.750	-55.335	-0.164	-0.073
-158.735	-200.000	-0.050	-0.236
-157.720	-200.000	0.002	-0.039
-156.706	327.054	-0.048	0.091
-155.691	-2.889	0.209	-0.146
-154.677	800.000	-0.062	0.243
-153.662	800.000	-0.091	-0.253
-152.647	-200.000	0.015	0.162
-151.633	76.778	0.145	-0.154
-150.618	800.000	-0.030	0.108
-149.604	368.927	0.105	-0.212
-148.589	295.534	-0.162	-0.296
-147.574	-99.477	-0.085	-0.021
-146.560	408.307	0.068	-0.144
-145.545	303.557	0.103	0.191
-144.531	-34.900	-0.251	-0.137
-143.516	302.215	-0.050	-0.093
-142.502	-173.178	-0.357	-0.011
-141.487	41.397	-0.248	-0.224
-140.472	-23.269	0.452	-0.271
-139.458	-50.805	0.248	-0.116
-138.443	664.365	-0.066	0.171
-137.429	-190.561	0.382	-0.004
-136.414	46.567	-0.194	-0.180
-135.399	12.143	0.161	0.124
-134.385	-200.000	0.007	-0.265
-133.370	-84.464	0.156	-0.049
-132.356	102.063	0.163	0.190
-131.341	356.880	0.119	-0.238
-130.326	439.552	0.052	0.114
-129.312	-200.000	-0.039	0.299
-128.297	4.871	-0.305	-0.224
-127.283	-200.000	-0.003	-0.369
-126.268	349.446	0.162	-0.320
-125.253	153.687	-0.153	-0.209
-124.239	-64.745	-0.077	-0.031
-123.224	-103.820	0.232	-0.054
-122.210	-200.000	0.052	0.253
