DTS Sentinel unit serial number:	SN413079Multiplexer serial number:	ORYXHardware model number:	OX4-SRSoftware version number:	ORYX F/W v4.00 Oryx Data Collector v3.7.2.0data status	okinstallation	princeton_trtdifferential loss correction	single-endedforward channel	channel 3reverse channel	N/Adate	2019/09/10time	20:06:10forward acquisition time	60.00reverse acquisition time	0.00gamma	496.2192k internal	0.2324k external	0.2324temperature offset calibration	0.9920default loss term (dB/km)	0.3790temperature slope calibration	1.0000multiplexer offset coefficient	1.0000multiplexer slope coefficient	1.0000fibre end	0.00T internal ref (°C)	32.52T ext. ref 1 (°C)	-0.31T ext. ref 2 (°C)	25.58length (m)	temperature (°C)	Stokes	anti-Stokes-747.200	-73.119	0.121	-0.045
-746.185	-59.200	0.131	-0.057
-745.171	46.905	-0.212	0.199
-744.156	47.617	-0.236	0.222
-743.142	127.580	0.181	0.232
-742.127	800.000	0.084	0.262
-741.112	-161.458	0.148	0.008
-740.098	-7.353	-0.201	-0.137
-739.083	304.127	-0.105	-0.197
-738.069	-145.038	-0.272	0.025
-737.054	-200.000	-0.051	-0.315
-736.039	-83.740	-0.592	-0.191
-735.025	-105.235	0.169	0.039
-734.010	-162.427	-0.418	-0.021
-732.996	134.218	-0.390	-0.510
-731.981	-78.516	-0.090	-0.031
-730.966	343.978	-0.131	0.258
-729.952	24.469	0.088	-0.073
-728.937	589.537	-0.033	-0.083
-727.923	77.556	-0.270	-0.290
-726.908	161.084	-0.056	-0.079
-725.894	-32.791	-0.293	0.164
-724.879	133.267	-0.020	-0.026
-723.864	253.079	0.030	0.052
-722.850	79.494	0.186	0.201
-721.835	-63.282	-0.230	-0.096
-720.821	-200.000	0.030	-0.134
-719.806	-66.984	0.174	-0.069
-718.791	-47.414	0.274	0.134
-717.777	-200.000	0.020	0.149
-716.762	-200.000	0.003	-0.387
-715.748	-200.000	0.001	-0.071
-714.733	-16.396	0.235	-0.150
-713.718	-17.609	-0.246	-0.156
-712.704	800.000	-0.053	0.156
-711.689	800.000	0.114	-0.348
-710.675	271.388	0.105	-0.187
-709.660	-200.000	0.040	-0.426
-708.645	-25.534	-0.170	0.101
-707.631	-200.000	0.031	0.395
-706.616	42.041	-0.200	0.183
-705.602	91.390	0.153	0.173
-704.587	41.482	0.039	0.036
-703.572	308.514	-0.088	0.166
-702.558	-29.713	0.146	-0.084
-701.543	-112.121	0.302	0.061
-700.529	-200.000	-0.019	0.370
-699.514	727.702	-0.019	-0.051
-698.499	-43.107	0.089	0.046
-697.485	800.000	-0.034	-0.108
-696.470	-49.571	-0.488	0.234
-695.456	800.000	-0.068	0.287
-694.441	800.000	0.053	0.191
-693.426	800.000	-0.010	0.034
-692.412	72.756	0.040	-0.043
-691.397	-200.000	0.000	0.136
-690.383	800.000	0.039	-0.110
-689.368	27.030	-0.335	-0.283
-688.354	-120.389	-0.565	0.097
-687.339	800.000	0.040	-0.136
-686.324	643.754	0.152	0.390
-685.310	387.789	-0.213	-0.443
-684.295	-114.248	0.285	-0.055
-683.281	-200.000	-0.038	-0.263
-682.266	-32.399	0.065	0.036
-681.251	-200.000	-0.029	-0.323
-680.237	255.488	-0.110	-0.189
-679.222	-45.482	-0.090	-0.045
-678.208	800.000	-0.031	0.135
-677.193	49.367	0.066	0.063
-676.178	-86.413	-0.294	0.091
-675.164	-112.581	0.110	-0.022
-674.149	-128.602	0.182	0.026
-673.135	497.331	0.145	-0.335
-672.120	-200.000	-0.001	0.122
-671.105	-125.279	0.199	0.031
-670.091	146.162	0.231	0.312
-669.076	-200.000	0.004	0.286
-668.062	80.249	-0.195	-0.211
-667.047	61.404	0.107	0.107
-666.032	-138.418	0.171	-0.019
-665.018	167.796	0.146	-0.209
-664.003	-9.047	-0.088	-0.059
-662.989	-112.821	-0.219	-0.044
-661.974	800.000	-0.078	0.279
-660.959	287.079	0.081	0.147
-659.945	-93.150	-0.343	0.096
-658.930	-30.793	-0.139	-0.079
-657.916	-157.172	-0.058	-0.004
-656.901	-92.598	-0.314	-0.089
-655.886	62.873	-0.487	0.490
-654.872	73.560	0.210	-0.221
-653.857	36.315	0.029	0.026
-652.843	-200.000	0.039	-0.302
-651.828	-24.710	-0.130	-0.078
-650.814	-200.000	0.022	0.106
-649.799	114.233	-0.038	0.046
-648.784	224.122	-0.064	-0.104
-647.770	267.547	0.226	-0.398
-646.755	800.000	0.083	-0.363
-645.741	-200.000	0.009	0.054
-644.726	-200.000	0.007	0.049
-643.711	110.087	-0.155	-0.187
-642.697	-112.392	-0.191	-0.038
-641.682	-200.000	0.007	0.138
-640.668	-172.650	-0.192	0.006
-639.653	-26.144	0.099	0.058
-638.638	-183.518	0.178	0.003
-637.624	-100.012	-0.166	-0.042
-636.609	137.827	0.156	0.206
-635.595	128.292	0.146	0.187
-634.580	-108.910	-0.202	0.043
-633.565	-200.000	0.322	0.001
-632.551	18.892	-0.019	-0.016
-631.536	800.000	0.031	0.125
-630.522	588.849	0.046	-0.114
-629.507	152.145	-0.016	-0.022
-628.492	-167.074	0.193	-0.008
-627.478	432.010	0.098	0.214
-626.463	800.000	-0.044	0.166
-625.449	64.208	0.249	-0.252
-624.434	302.691	-0.123	0.229
-623.419	174.722	0.075	-0.109
-622.405	800.000	-0.029	-0.129
-621.390	-200.000	-0.002	0.303
-620.376	-142.467	-0.310	-0.031
-619.361	800.000	0.147	0.429
-618.346	155.034	0.174	0.240
-617.332	506.716	-0.085	-0.197
-616.317	-200.000	0.047	-0.254
-615.303	-9.219	0.173	0.116
-614.288	-200.000	0.020	0.340
-613.273	209.773	-0.045	0.071
-612.259	-200.000	0.014	-0.298
-611.244	800.000	-0.139	-0.435
-610.230	-129.570	-0.315	0.044
-609.215	127.825	0.117	-0.149
-608.201	-65.155	0.195	-0.079
-607.186	800.000	-0.083	-0.231
-606.171	-124.015	0.212	-0.034
-605.157	800.000	0.139	0.431
-604.142	429.332	0.080	-0.174
-603.128	-164.299	-0.061	-0.003
-602.113	-109.461	0.252	0.054
-601.098	800.000	-0.014	0.049
-600.084	-10.625	0.134	-0.089
-599.069	93.329	0.235	0.267
-598.055	-200.000	0.005	-0.058
-597.040	-113.522	-0.204	-0.040
-596.025	-72.086	0.183	0.068
-595.011	325.756	-0.205	-0.393
-593.996	-200.000	0.011	-0.211
-592.982	-109.559	0.259	0.055
-591.967	-94.438	0.084	0.023
-590.952	-162.695	-0.410	0.020
-589.938	-200.000	-0.005	-0.107
-588.923	320.829	0.189	0.361
-587.909	-200.000	0.034	-0.250
-586.894	-150.528	0.272	-0.021
-585.879	-131.486	0.334	-0.044
-584.865	-45.137	-0.186	0.093
-583.850	56.092	0.178	0.174
-582.836	102.700	-0.164	0.192
-581.821	-68.575	-0.099	0.039
-580.806	-200.000	0.073	0.397
-579.792	23.779	0.095	0.079
-578.777	152.660	-0.006	0.009
-577.763	-200.000	-0.013	-0.292
-576.748	-172.602	-0.075	0.002
-575.733	45.518	-0.294	0.272
-574.719	-27.410	0.024	-0.014
-573.704	800.000	-0.035	-0.140
-572.690	-27.181	0.426	-0.249
-571.675	13.881	0.094	-0.073
-570.661	236.057	-0.101	-0.167
-569.646	790.830	0.046	0.126
-568.631	-200.000	-0.001	0.009
-567.617	212.406	0.024	-0.038
-566.602	-99.934	0.070	0.018
-565.588	-200.000	-0.003	-0.332
-564.573	-42.608	0.172	-0.088
-563.558	-131.043	0.330	-0.044
-562.544	-200.000	0.008	-0.222
-561.529	40.858	-0.097	-0.088
-560.515	-200.000	-0.048	-0.260
-559.500	-42.154	-0.195	-0.100
-558.485	4.976	0.072	0.053
-557.471	800.000	0.083	-0.308
-556.456	-95.355	0.318	0.086
-555.442	-124.535	-0.280	0.044
-554.427	225.535	-0.185	-0.300
-553.412	95.556	-0.314	-0.359
-552.398	689.268	0.082	-0.215
-551.383	-43.505	-0.300	-0.152
-550.369	44.433	0.160	0.147
-549.354	54.725	0.073	0.071
-548.339	-200.000	0.012	0.187
-547.325	44.802	-0.077	0.071
-546.310	410.402	-0.092	-0.196
-545.296	-132.494	0.216	0.028
-544.281	356.140	0.282	0.562
-543.266	57.114	0.157	0.153
-542.252	-161.537	-0.170	0.009
-541.237	-133.769	0.093	-0.012
-540.223	800.000	-0.045	-0.141
-539.208	682.792	-0.121	-0.316
-538.193	-200.000	0.020	0.206
-537.179	194.754	-0.056	-0.085
-536.164	38.103	-0.221	-0.197
-535.150	800.000	0.108	-0.314
-534.135	800.000	0.061	-0.231
-533.121	-200.000	0.085	0.453
-532.106	-200.000	0.002	0.014
-531.091	21.339	0.073	-0.060
-530.077	-90.192	0.414	0.121
-529.062	11.056	-0.238	-0.182
-528.048	25.467	-0.134	-0.111
-527.033	-200.000	0.032	-0.254
-526.018	41.977	-0.184	0.167
-525.004	-57.663	0.201	-0.088
-523.989	-200.000	0.029	-0.214
-522.975	113.780	0.137	0.166
-521.960	-6.556	0.241	-0.164
-520.945	-137.477	0.214	-0.024
-519.931	226.309	0.041	-0.066
-518.916	-11.749	0.214	-0.140
-517.902	57.279	0.121	0.118
-516.887	266.015	-0.143	-0.250
-515.872	40.221	0.061	0.055
-514.858	-30.081	-0.145	0.082
-513.843	-200.000	-0.020	0.337
-512.829	261.233	-0.097	-0.169
-511.814	642.342	-0.127	0.323
-510.799	-98.403	-0.090	-0.023
-509.785	118.501	-0.106	0.131
-508.770	-101.902	0.179	0.043
-507.756	-52.904	-0.111	0.051
-506.741	-75.548	0.124	-0.044
-505.726	516.368	-0.071	0.166
-504.712	800.000	0.016	-0.054
-503.697	671.226	0.148	0.382
-502.683	370.959	-0.064	-0.129
-501.668	-26.809	-0.455	-0.266
-500.653	800.000	-0.057	-0.213
-499.639	122.465	0.131	-0.164
-498.624	89.617	-0.319	-0.356
-497.610	-39.079	-0.325	-0.171
-496.595	-83.670	0.084	0.027
-495.581	800.000	0.062	0.214
-494.566	153.525	0.059	-0.081
-493.551	98.472	-0.252	0.291
-492.537	3.903	-0.063	-0.046
-491.522	-200.000	-0.029	-0.208
-490.508	290.846	-0.047	0.086
-489.493	223.574	0.076	0.123
-488.478	-8.767	-0.114	0.076
-487.464	-200.000	-0.006	-0.040
-486.449	743.432	0.135	-0.364
-485.435	224.200	-0.161	-0.260
-484.420	47.706	-0.156	0.145
-483.405	158.980	-0.338	0.470
-482.391	-158.666	-0.472	0.027
-481.376	153.167	0.138	0.188
-480.362	-157.753	-0.293	-0.017
-479.347	800.000	0.061	-0.185
-478.332	800.000	-0.040	-0.118
-477.318	384.085	0.067	-0.139
-476.303	-200.000	-0.060	0.282
-475.289	-200.000	0.029	0.274
-474.274	93.845	0.146	-0.165
-473.259	-144.681	-0.087	-0.008
-472.245	335.372	-0.068	-0.131
-471.230	-74.649	-0.377	0.135
-470.216	512.060	-0.073	-0.169
-469.201	-165.088	-0.515	-0.023
-468.186	399.206	0.144	-0.302
-467.172	-138.598	-0.200	0.022
-466.157	-200.000	0.009	0.165
-465.143	-40.774	-0.432	0.224
-464.128	110.960	-0.067	0.081
-463.113	6.390	0.284	0.211
-462.099	74.546	0.183	0.192
-461.084	-32.889	0.307	-0.170
-460.070	-144.390	0.214	0.020
-459.055	800.000	-0.069	0.225
-458.040	-200.000	0.015	-0.099
-457.026	800.000	0.075	-0.220
-456.011	-200.000	0.009	0.272
-454.997	-165.587	-0.147	-0.006
-453.982	187.142	0.067	-0.100
-452.968	-200.000	0.054	-0.319
-451.953	800.000	-0.074	0.313
-450.938	402.554	-0.066	0.139
-449.924	17.660	-0.207	-0.164
-448.909	-165.551	0.123	0.005
-447.895	-54.863	0.412	0.186
-446.880	-200.000	0.005	0.188
-445.865	68.569	-0.211	0.216
-444.851	-200.000	-0.010	-0.183
-443.836	-125.211	0.111	0.017
-442.822	-200.000	0.045	-0.372
-441.807	800.000	0.051	-0.192
-440.792	470.136	0.129	-0.289
-439.778	-58.365	-0.070	0.031
-438.763	800.000	-0.087	-0.330
-437.749	603.745	-0.076	-0.189
-436.734	76.410	0.204	-0.215
-435.719	25.273	0.146	-0.121
-434.705	168.003	-0.076	0.108
-433.690	-145.507	0.356	-0.032
-432.676	-35.850	0.220	-0.119
-431.661	102.289	0.239	-0.278
-430.646	17.700	0.256	-0.203
-429.632	-96.680	-0.213	-0.056
-428.617	-33.658	-0.088	0.049
-427.603	-14.363	-0.078	0.050
-426.588	-200.000	0.004	-0.079
-425.573	209.416	-0.134	-0.210
-424.559	-142.655	-0.122	0.012
-423.544	-150.988	0.174	-0.013
-422.530	231.493	0.066	-0.108
-421.515	35.023	0.305	0.266
-420.500	-34.324	0.327	0.179
-419.486	-29.573	-0.156	0.089
-418.471	-7.492	-0.134	-0.090
-417.457	-200.000	0.021	-0.180
-416.442	-200.000	0.020	0.227
-415.428	63.084	0.101	-0.101
-414.413	-156.689	-0.489	-0.030
-413.398	-11.212	0.195	0.128
-412.384	-170.102	-0.146	0.005
-411.369	800.000	0.053	0.179
-410.355	430.353	-0.049	-0.106
-409.340	800.000	-0.014	-0.045
-408.325	-111.332	-0.473	-0.096
-407.311	-200.000	0.010	0.096
-406.296	800.000	-0.063	0.219
-405.282	277.177	0.070	-0.124
-404.267	34.446	0.096	0.083
-403.252	-200.000	0.008	-0.195
-402.238	285.978	0.058	0.105
-401.223	470.289	-0.039	-0.088
-400.209	104.195	-0.273	-0.320
-399.194	21.727	-0.109	-0.088
-398.179	-46.654	-0.454	-0.222
-397.165	132.312	0.042	0.053
-396.150	-142.014	0.132	-0.013
-395.136	-200.000	-0.018	0.543
-394.121	800.000	-0.071	-0.200
-393.106	686.391	0.173	0.449
-392.092	-164.186	0.484	0.022
-391.077	38.321	-0.049	0.044
-390.063	-55.237	0.318	0.142
-389.048	-116.689	0.178	-0.033
-388.033	307.852	-0.199	-0.369
-387.019	-77.035	0.162	-0.056
-386.004	269.261	-0.096	0.167
-384.990	-62.449	-0.184	-0.076
-383.975	-62.747	-0.547	-0.226
-382.960	-200.000	-0.005	0.105
-381.946	-24.331	0.348	-0.207
-380.931	150.464	0.174	0.235
-379.917	201.464	-0.242	-0.372
-378.902	502.278	0.019	0.044
-377.888	-200.000	0.004	0.036
-376.873	-200.000	0.005	0.031
-375.858	142.972	-0.006	0.008
-374.844	-74.650	-0.275	-0.098
-373.829	-200.000	0.002	-0.100
-372.815	226.822	-0.154	-0.249
-371.800	-55.790	-0.042	0.019
-370.785	-200.000	0.014	-0.390
-369.771	-36.448	0.248	-0.133
-368.756	277.650	-0.084	0.148
-367.742	-62.939	-0.306	-0.126
-366.727	-101.961	-0.298	0.071
-365.712	22.394	0.131	0.106
-364.698	31.755	0.181	0.155
-363.683	190.288	0.232	-0.346
-362.669	-200.000	0.032	-0.297
-361.654	-200.000	0.043	0.398
-360.639	257.073	-0.066	-0.112
-359.625	-159.415	0.118	-0.007
-358.610	800.000	-0.022	0.067
-357.596	208.544	0.053	-0.082
-356.581	-124.766	0.192	-0.030
-355.566	-200.000	0.007	0.416
-354.552	-13.282	0.210	0.135
-353.537	-27.797	0.358	-0.206
-352.523	28.423	-0.151	-0.127
-351.508	-200.000	0.011	-0.096
-350.493	-200.000	-0.024	0.340
-349.479	29.031	0.070	0.059
-348.464	16.425	0.090	-0.070
-347.450	24.506	0.123	-0.101
-346.435	800.000	0.075	0.275
-345.420	21.922	0.205	0.166
-344.406	27.971	0.215	-0.181
-343.391	-85.112	-0.169	0.053
-342.377	-200.000	-0.061	0.277
-341.362	-200.000	-0.053	-0.286
-340.348	398.202	-0.064	-0.132
-339.333	-40.242	-0.096	-0.050
-338.318	71.636	0.099	0.102
-337.304	-90.722	0.380	-0.109
-336.289	-200.000	0.044	0.637
-335.275	654.553	0.077	0.197
-334.260	-200.000	0.012	0.154
-333.245	-19.064	-0.173	0.107
-332.231	-200.000	0.014	0.364
-331.216	16.299	-0.205	0.161
-330.202	-64.798	0.321	-0.129
-329.187	-84.611	0.301	0.094
-328.172	-148.289	-0.228	0.019
-327.158	-64.509	-0.395	-0.159
-326.143	433.150	-0.080	0.172
-325.129	-29.041	-0.322	-0.183
-324.114	302.326	0.045	0.082
-323.099	-183.828	-0.370	0.006
-322.085	-142.141	0.040	0.004
-321.070	800.000	-0.099	0.362
-320.056	-125.354	-0.379	-0.057
-319.041	-92.407	0.169	0.047
-318.026	-120.890	-0.176	0.029
-317.012	800.000	-0.042	0.122
-315.997	-200.000	-0.318	-0.001
-314.983	-200.000	-0.011	-0.328
-313.968	-200.000	-0.033	0.240
-312.953	-200.000	-0.012	-0.141
-311.939	-200.000	-0.017	0.117
-310.924	-65.280	0.426	-0.170
-309.910	-117.606	-0.165	-0.030
-308.895	503.089	-0.097	-0.222
-307.880	-200.000	0.001	0.043
-306.866	-200.000	-0.028	-0.184
-305.851	-1.382	-0.193	-0.135
-304.837	800.000	0.065	-0.228
-303.822	-148.288	0.170	0.014
-302.807	-59.031	-0.117	-0.050
-301.793	800.000	0.017	-0.066
-300.778	-135.910	-0.129	-0.015
-299.764	-31.255	-0.128	-0.072
-298.749	83.964	-0.225	0.243
-297.735	98.924	-0.146	-0.168
-296.720	118.599	-0.032	-0.039
-295.705	-127.154	-0.112	-0.016
-294.691	58.208	-0.117	0.114
-293.676	249.770	0.182	-0.307
-292.662	-80.644	0.320	0.106
-291.647	-62.821	-0.120	0.049
-290.632	-76.448	-0.217	-0.075
-289.618	-80.042	-0.081	0.027
-288.603	-68.644	-0.110	-0.042
-287.589	-200.000	-0.016	0.501
-286.574	329.280	0.056	0.106
-285.559	-176.590	0.150	0.004
-284.545	282.058	-0.048	-0.085
-283.530	-57.311	-0.058	-0.025
-282.516	-200.000	-0.012	-0.116
-281.501	276.042	0.052	-0.092
-280.486	800.000	-0.048	0.144
-279.472	-200.000	-0.029	0.250
-278.457	145.391	0.238	-0.316
-277.443	62.338	-0.063	-0.062
-276.428	-0.593	0.083	0.059
-275.413	228.517	0.115	-0.186
-274.399	-21.630	0.097	0.059
-273.384	-100.516	0.396	0.097
-272.370	164.761	-0.148	-0.207
-271.355	407.457	0.037	-0.077
-270.340	-59.257	-0.108	-0.046
-269.326	640.002	0.109	0.275
-268.311	-200.000	0.047	-0.362
-267.297	-30.970	0.205	0.115
-266.282	71.995	0.168	-0.174
-265.267	-200.000	-0.013	0.206
-264.253	143.431	-0.148	-0.195
-263.238	-99.222	-0.344	-0.086
-262.224	-44.528	0.173	-0.086
-261.209	-200.000	0.016	-0.202
-260.195	-82.800	0.232	-0.074
-259.180	-171.948	0.142	0.005
-258.165	-200.000	0.039	0.181
-257.151	-47.910	0.092	0.044
-256.136	-82.567	-0.254	-0.082
-255.122	-7.772	0.127	0.085
-254.107	-19.730	-0.265	0.162
-253.092	-23.281	0.123	-0.073
-252.078	800.000	-0.083	0.317
-251.063	153.798	0.300	0.407
-250.049	451.774	-0.013	0.029
-249.034	800.000	-0.108	0.361
-248.019	36.659	0.135	0.118
-247.005	-49.443	0.040	-0.019
-245.990	-120.215	-0.239	0.040
-244.976	-129.930	-0.191	0.026
-243.961	-178.407	0.038	0.001
-242.946	-55.100	-0.184	0.082
-241.932	-74.074	-0.324	0.116
-240.917	-2.509	-0.127	-0.088
-239.903	267.213	-0.216	-0.374
-238.888	-200.000	0.054	0.338
-237.873	-160.376	0.253	0.013
-236.859	172.855	0.190	-0.270
-235.844	91.463	0.167	0.186
-234.830	-69.382	0.182	0.069
-233.815	-12.236	0.129	-0.084
-232.800	-132.929	-0.419	0.053
-231.786	5.087	-0.152	-0.111
-230.771	-200.000	-0.252	0.000
-229.757	800.000	-0.050	0.181
-228.742	42.545	-0.174	-0.157
-227.727	-132.316	-0.067	0.009
-226.713	17.359	-0.110	0.087
-225.698	-39.488	-0.036	0.019
-224.684	-22.471	-0.207	-0.124
-223.669	89.354	0.147	0.163
-222.655	-104.420	0.105	0.024
-221.640	-113.832	-0.213	-0.041
-220.625	-40.728	0.085	0.044
-219.611	-192.143	0.281	0.003
-218.596	243.008	-0.073	0.121
-217.582	-53.987	-0.122	0.055
-216.567	-21.541	0.210	-0.126
-215.552	-200.000	0.023	0.189
-214.538	-200.000	0.000	0.192
-213.523	-14.128	-0.165	0.105
-212.509	-40.322	-0.241	0.124
-211.494	-139.230	0.200	0.021
-210.479	148.483	-0.029	-0.039
-209.465	800.000	0.030	-0.089
-208.450	429.954	-0.078	-0.167
-207.436	-127.945	-0.094	0.013
-206.421	32.845	0.270	0.231
-205.406	-143.879	0.281	0.026
-204.392	67.604	-0.268	0.271
-203.377	295.651	-0.041	0.074
-202.363	32.413	0.032	-0.027
-201.348	-200.000	0.034	0.168
-200.333	44.674	0.080	-0.073
-199.319	-163.984	0.258	0.012
-198.304	86.476	-0.359	0.391
-197.290	-200.000	0.033	-0.276
-196.275	-200.000	-0.073	0.364
-195.260	20.160	0.064	-0.051
-194.246	-200.000	-0.048	-0.382
-193.231	187.277	-0.189	-0.278
-192.217	-149.009	0.224	-0.018
-191.202	18.727	-0.154	-0.122
-190.187	484.851	0.123	-0.276
-189.173	22.079	0.176	0.142
-188.158	800.000	0.032	0.125
-187.144	-200.000	-0.014	0.193
-186.129	-39.164	-0.217	-0.112
-185.114	324.592	-0.050	0.094
-184.100	79.035	-0.189	0.200
-183.085	247.587	-0.097	0.162
-182.071	146.769	0.148	0.197
-181.056	55.505	0.125	0.119
-180.042	-200.000	0.013	0.166
-179.027	104.670	0.186	0.216
-178.012	-200.000	0.015	-0.089
-176.998	-67.949	0.364	0.140
-175.983	-85.612	-0.419	-0.128
-174.969	-200.000	0.027	0.250
-173.954	-43.459	-0.126	-0.063
-172.939	67.683	-0.136	0.137
-171.925	67.245	-0.182	0.184
-170.910	-73.899	0.254	0.091
-169.896	58.452	0.227	-0.220
-168.881	800.000	-0.050	-0.137
-167.866	-18.816	0.183	0.112
-166.852	-200.000	-0.002	-0.090
-165.837	42.727	0.199	0.179
-164.823	-125.153	-0.279	-0.042
-163.808	-97.458	0.142	-0.036
-162.793	758.046	0.079	0.210
-161.779	-118.497	0.127	-0.022
-160.764	8.641	0.170	-0.127
-159.750	-200.000	-0.074	-0.334
-158.735	268.255	0.065	0.113
-157.720	26.147	-0.091	0.075
-156.706	45.405	0.247	0.225
-155.691	-200.000	-0.023	-0.176
-154.677	800.000	-0.107	0.355
-153.662	-200.000	-0.028	0.152
-152.647	92.827	0.056	0.062
-151.633	-200.000	0.025	-0.111
-150.618	-21.933	0.403	-0.242
-149.604	85.314	-0.132	0.142
-148.589	53.662	0.039	-0.037
-147.574	55.905	-0.284	-0.272
-146.560	-95.408	-0.135	-0.036
-145.545	-200.000	0.008	0.198
-144.531	283.341	0.169	0.299
-143.516	12.967	-0.017	-0.013
-142.502	50.797	-0.150	-0.140
-141.487	-135.852	-0.134	-0.016
-140.472	800.000	0.090	-0.272
-139.458	-54.261	0.446	0.199
-138.443	354.383	-0.094	0.184
-137.429	33.662	-0.205	0.176
-136.414	-48.992	0.161	-0.076
-135.399	-200.000	-0.025	-0.248
-134.385	731.639	0.041	-0.108
-133.370	-106.267	0.340	-0.075
-132.356	-28.319	0.117	-0.067
-131.341	73.576	-0.121	0.125
-130.326	-83.261	0.252	-0.080
-129.312	170.826	0.081	0.115
-128.297	-81.632	-0.189	0.061
-127.283	41.918	-0.146	0.131
-126.268	-118.163	0.075	-0.013
-125.253	-33.831	0.180	0.098
-124.239	-80.871	-0.339	0.111
-123.224	-94.413	-0.074	0.020
-122.210	-200.000	-0.043	-0.228
-121.195	39.046	0.040	-0.035
