DTS Sentinel unit serial number:	SN413079Multiplexer serial number:	ORYXHardware model number:	OX4-SRSoftware version number:	ORYX F/W v4.00 Oryx Data Collector v3.7.2.0data status	okinstallation	princeton_trtdifferential loss correction	single-endedforward channel	channel 3reverse channel	N/Adate	2019/09/17time	08:32:35forward acquisition time	60.00reverse acquisition time	0.00gamma	496.2192k internal	0.2332k external	0.2332temperature offset calibration	0.9935default loss term (dB/km)	0.3790temperature slope calibration	1.0000multiplexer offset coefficient	1.0000multiplexer slope coefficient	1.0000fibre end	0.00T internal ref (°C)	27.58T ext. ref 1 (°C)	0.13T ext. ref 2 (°C)	23.10length (m)	temperature (°C)	Stokes	anti-Stokes-747.200	72.814	0.233	0.244
-746.185	304.553	0.137	0.256
-745.171	175.243	-0.341	0.498
-744.156	-91.267	0.179	0.052
-743.142	214.103	0.089	0.142
-742.127	129.365	-0.146	0.188
-741.112	-129.374	0.249	-0.035
-740.098	111.197	0.320	0.388
-739.083	617.421	0.034	-0.085
-738.069	100.918	-0.138	0.161
-737.054	-141.606	0.142	0.014
-736.039	-60.924	-0.165	-0.070
-735.025	-60.621	0.400	0.171
-734.010	-143.167	-0.175	0.017
-732.996	-33.631	-0.134	-0.074
-731.981	72.766	0.158	-0.166
-730.966	-105.226	-0.202	0.046
-729.952	-92.938	-0.231	0.065
-728.937	614.913	-0.017	-0.044
-727.923	-200.000	-0.015	0.124
-726.908	-200.000	-0.016	-0.077
-725.894	244.117	-0.175	0.295
-724.879	632.818	-0.105	0.269
-723.864	41.826	0.083	0.076
-722.850	-200.000	0.309	0.000
-721.835	-126.004	0.111	0.017
-720.821	800.000	0.039	0.130
-719.806	-200.000	-0.051	-0.237
-718.791	-123.840	-0.183	-0.029
-717.777	191.034	-0.105	0.158
-716.762	-90.575	-0.179	-0.052
-715.748	-87.621	0.234	-0.071
-714.733	-200.000	0.004	0.075
-713.718	30.607	-0.073	-0.063
-712.704	-82.257	-0.029	0.009
-711.689	-200.000	-0.105	-0.506
-710.675	185.739	0.155	-0.232
-709.660	176.110	0.086	0.126
-708.645	170.762	0.026	-0.037
-707.631	278.039	-0.080	0.143
-706.616	800.000	0.071	-0.286
-705.602	-38.115	-0.310	-0.165
-704.587	205.123	-0.119	-0.186
-703.572	-19.637	0.219	-0.136
-702.558	61.929	-0.204	-0.204
-701.543	-200.000	-0.043	0.222
-700.529	-161.496	-0.249	0.013
-699.514	-98.133	-0.333	-0.086
-698.499	-160.137	-0.342	0.019
-697.485	134.353	0.027	0.035
-696.470	658.289	-0.129	0.333
-695.456	218.923	0.046	-0.073
-694.441	-171.225	-0.187	0.006
-693.426	673.569	0.008	0.020
-692.412	800.000	0.068	-0.197
-691.397	-200.000	0.041	-0.588
-690.383	105.990	0.145	-0.172
-689.368	-200.000	-0.095	0.448
-688.354	-200.000	-0.047	-0.345
-687.339	-200.000	-0.003	-0.386
-686.324	189.122	-0.125	-0.188
-685.310	-200.000	-0.030	0.296
-684.295	-200.000	0.007	0.099
-683.281	122.088	-0.021	0.026
-682.266	-200.000	-0.056	0.322
-681.251	177.207	-0.298	-0.435
-680.237	-200.000	-0.030	-0.311
-679.222	249.503	0.158	-0.269
-678.208	65.883	0.182	0.185
-677.193	-161.694	-0.159	-0.008
-676.178	185.842	-0.016	0.024
-675.164	127.775	0.135	-0.172
-674.149	-145.202	0.206	-0.019
-673.135	-82.870	0.139	0.045
-672.120	-183.839	0.207	0.004
-671.105	-54.000	0.079	-0.036
-670.091	-197.190	0.179	0.001
-669.076	-64.924	-0.109	-0.044
-668.062	-200.000	-0.196	0.001
-667.047	-81.832	0.167	0.055
-666.032	-85.953	0.384	0.119
-665.018	638.094	-0.091	-0.232
-664.003	800.000	0.032	0.140
-662.989	472.629	0.130	-0.293
-661.974	-200.000	0.029	-0.180
-660.959	-28.289	-0.183	0.106
-659.945	-200.000	-0.009	-0.255
-658.930	-13.108	-0.251	-0.163
-657.916	89.188	0.094	0.105
-656.901	-128.997	-0.095	0.013
-655.886	54.616	0.065	0.063
-654.872	56.359	0.032	0.031
-653.857	2.628	-0.190	-0.138
-652.843	-16.564	-0.065	0.041
-651.828	-200.000	0.023	0.117
-650.814	163.285	0.192	0.271
-649.799	23.698	0.243	-0.201
-648.784	-106.154	0.232	-0.052
-647.770	-200.000	-0.002	-0.021
-646.755	800.000	0.078	0.253
-645.741	-45.620	-0.062	0.031
-644.726	-200.000	0.045	0.256
-643.711	-8.398	-0.072	0.049
-642.697	-14.438	0.139	-0.090
-641.682	-200.000	-0.030	0.182
-640.668	174.112	-0.032	0.047
-639.653	237.055	-0.184	-0.305
-638.638	-135.151	-0.197	0.024
-637.624	-105.211	0.183	0.042
-636.609	-200.000	0.014	0.174
-635.595	476.313	0.090	0.205
-634.580	-20.582	-0.295	0.181
-633.565	800.000	0.021	0.059
-632.551	800.000	0.054	0.172
-631.536	70.354	-0.151	0.157
-630.522	383.913	0.009	0.019
-629.507	-200.000	0.023	-0.141
-628.492	368.945	-0.053	0.107
-627.478	99.098	-0.125	-0.145
-626.463	800.000	-0.087	-0.334
-625.449	26.023	-0.040	0.033
-624.434	-200.000	0.016	-0.434
-623.419	-114.725	0.366	-0.070
-622.405	-63.707	0.345	-0.141
-621.390	-158.471	0.346	-0.020
-620.376	146.829	0.166	0.223
-619.361	12.042	0.133	0.103
-618.346	-98.637	0.135	-0.034
-617.332	78.844	-0.156	0.167
-616.317	-69.659	0.379	-0.145
-615.303	-153.875	0.227	0.016
-614.288	800.000	-0.041	-0.139
-613.273	-118.325	-0.215	0.038
-612.259	202.800	-0.170	0.263
-611.244	167.763	-0.014	0.020
-610.230	-129.389	-0.144	0.020
-609.215	-200.000	-0.069	0.425
-608.201	134.016	0.147	-0.191
-607.186	-200.000	-0.000	0.037
-606.171	-200.000	-0.049	-0.331
-605.157	-143.231	0.343	0.033
-604.142	800.000	0.055	-0.214
-603.128	-53.017	-0.265	0.122
-602.113	427.013	-0.120	-0.259
-601.098	-200.000	-0.032	0.242
-600.084	-36.661	0.259	-0.139
-599.069	592.543	-0.066	0.162
-598.055	36.389	-0.264	-0.233
-597.040	-176.791	-0.439	-0.011
-596.025	778.880	-0.122	0.334
-595.011	176.948	-0.144	-0.210
-593.996	438.844	0.050	0.109
-592.982	-16.546	-0.182	0.115
-591.967	-43.065	0.101	0.051
-590.952	125.451	0.086	0.108
-589.938	-53.976	-0.306	-0.139
-588.923	-75.541	0.176	-0.062
-587.909	-11.513	-0.176	-0.116
-586.894	-200.000	0.005	-0.315
-585.879	-200.000	-0.025	0.207
-584.865	598.706	0.194	0.482
-583.850	-200.000	0.003	0.227
-582.836	484.675	-0.088	-0.200
-581.821	-8.937	-0.286	-0.191
-580.806	-113.747	0.034	-0.007
-579.792	442.701	0.048	-0.105
-578.777	164.978	-0.065	-0.092
-577.763	-77.766	-0.154	0.053
-576.748	-200.000	0.007	0.122
-575.733	800.000	-0.128	0.355
-574.719	117.709	0.135	-0.166
-573.704	797.075	0.044	0.121
-572.690	334.408	-0.138	-0.267
-571.675	80.434	0.181	-0.195
-570.661	-56.374	0.259	0.115
-569.646	292.622	-0.251	0.457
-568.631	131.167	-0.142	-0.182
-567.617	-129.823	-0.143	0.020
-566.602	359.898	-0.061	-0.122
-565.588	179.067	0.196	-0.286
-564.573	-61.560	0.112	-0.047
-563.558	57.613	-0.147	0.144
-562.544	-68.213	0.252	0.098
-561.529	-200.000	-0.004	0.286
-560.515	157.354	0.264	0.364
-559.500	5.297	-0.131	0.097
-558.485	800.000	0.091	0.295
-557.471	123.069	0.244	0.305
-556.456	15.292	-0.181	0.142
-555.442	-46.981	-0.183	0.089
-554.427	157.495	0.129	-0.179
-553.412	-32.026	-0.192	-0.107
-552.398	140.541	-0.054	0.071
-551.383	-38.511	0.145	0.077
-550.369	-200.000	-0.005	-0.118
-549.354	134.880	-0.082	0.107
-548.339	-200.000	0.023	0.117
-547.325	-56.554	-0.180	0.080
-546.310	-155.926	0.053	0.003
-545.296	53.073	0.186	0.178
-544.281	521.432	-0.066	-0.154
-543.266	704.608	-0.100	0.263
-542.252	-79.971	-0.185	-0.062
-541.237	310.537	0.101	0.189
-540.223	523.254	0.077	-0.181
-539.208	33.896	0.123	0.107
-538.193	-30.986	-0.035	0.020
-537.179	152.182	-0.172	0.234
-536.164	-69.761	0.178	0.068
-535.150	7.592	0.163	-0.122
-534.135	-76.632	-0.399	-0.140
-533.121	-28.820	-0.106	-0.061
-532.106	-137.256	0.175	-0.020
-531.091	800.000	-0.033	0.098
-530.077	-63.268	-0.048	-0.020
-529.062	54.460	-0.255	-0.245
-528.048	-46.655	-0.307	-0.150
-527.033	-200.000	0.049	-0.229
-526.018	112.584	-0.147	-0.177
-525.004	-100.499	0.281	0.069
-523.989	530.630	-0.196	-0.463
-522.975	-200.000	0.000	0.205
-521.960	525.496	0.099	0.233
-520.945	800.000	-0.022	-0.067
-519.931	679.031	-0.053	0.137
-518.916	-200.000	0.064	0.299
-517.902	333.324	-0.052	-0.101
-516.887	336.148	-0.186	-0.359
-515.872	-67.948	-0.220	0.086
-514.858	-54.017	0.170	-0.077
-513.843	-200.000	-0.001	0.022
-512.829	310.085	-0.035	0.065
-511.814	122.927	0.185	-0.230
-510.799	39.680	0.019	0.017
-509.785	109.893	-0.180	-0.215
-508.770	61.165	0.253	-0.251
-507.756	42.991	0.436	-0.396
-506.741	-40.868	0.143	0.074
-505.726	-27.695	-0.210	-0.121
-504.712	-5.290	-0.088	0.060
-503.697	136.080	-0.100	-0.130
-502.683	-19.099	0.240	0.149
-501.668	-200.000	0.038	-0.323
-500.653	-57.067	-0.229	0.101
-499.639	212.971	-0.175	0.275
-498.624	255.157	-0.041	0.070
-497.610	-106.490	0.020	0.005
-496.595	-170.493	0.252	0.009
-495.581	800.000	-0.042	0.145
-494.566	-83.494	-0.172	0.055
-493.551	-61.141	0.294	0.123
-492.537	-64.767	-0.253	0.102
-491.522	800.000	-0.044	-0.141
-490.508	-177.212	-0.418	-0.010
-489.493	800.000	0.027	0.080
-488.478	38.938	-0.157	-0.140
-487.464	-109.641	0.131	0.027
-486.449	-83.052	-0.063	0.020
-485.435	130.492	0.159	-0.203
-484.420	-200.000	0.049	0.247
-483.405	43.255	0.101	0.092
-482.391	-15.345	-0.156	0.099
-481.376	105.476	0.193	0.228
-480.362	130.346	0.016	0.021
-479.347	-200.000	0.045	-0.235
-478.332	-140.636	0.149	-0.015
-477.318	-200.000	0.037	0.298
-476.303	209.426	0.023	-0.036
-475.289	27.222	-0.041	-0.034
-474.274	-58.616	0.135	0.058
-473.259	86.414	-0.132	0.145
-472.245	-12.271	0.101	0.066
-471.230	-54.017	-0.287	0.130
-470.216	290.765	0.052	-0.095
-469.201	-17.008	-0.281	0.177
-468.186	128.535	-0.188	-0.239
-467.172	-52.122	-0.266	-0.123
-466.157	-200.000	0.025	0.157
-465.143	-125.935	0.387	0.058
-464.128	-200.000	0.001	0.018
-463.113	126.229	0.253	-0.319
-462.099	-200.000	-0.021	-0.180
-461.084	-118.539	0.217	-0.038
-460.070	-67.645	-0.208	-0.081
-459.055	800.000	0.037	-0.157
-458.040	-48.228	-0.153	0.073
-457.026	-54.461	-0.379	0.171
-456.011	-200.000	-0.005	0.081
-454.997	-91.301	-0.392	0.111
-453.982	3.033	-0.224	0.162
-452.968	800.000	-0.060	0.182
-451.953	89.858	0.211	0.234
-450.938	-68.261	-0.460	-0.178
-449.924	758.964	-0.100	0.268
-448.909	8.408	-0.211	0.158
-447.895	-184.228	0.092	0.002
-446.880	-200.000	0.019	0.330
-445.865	-18.489	0.290	-0.180
-444.851	202.163	0.106	-0.163
-443.836	-61.949	0.278	0.115
-442.822	-118.795	0.197	-0.034
-441.807	-54.388	0.168	0.076
-440.792	-200.000	0.061	-0.273
-439.778	-163.087	0.106	0.005
-438.763	-160.946	0.263	0.014
-437.749	651.514	-0.068	-0.172
-436.734	124.045	0.211	0.263
-435.719	-165.332	0.248	0.011
-434.705	-112.025	-0.066	-0.013
-433.690	-9.284	-0.166	-0.110
-432.676	-44.670	-0.436	0.217
-431.661	-90.913	0.224	-0.064
-430.646	143.034	0.214	0.283
-429.632	-11.109	0.309	-0.202
-428.617	-58.503	-0.120	-0.052
-427.603	-200.000	0.009	-0.125
-426.588	-39.439	0.220	0.115
-425.573	63.151	0.197	-0.196
-424.559	-170.897	-0.228	-0.008
-423.544	-122.508	0.263	-0.043
-422.530	5.786	-0.119	0.088
-421.515	-58.976	-0.071	0.031
-420.500	-200.000	0.049	-0.476
-419.486	-158.003	-0.190	0.011
-418.471	-58.147	-0.229	-0.099
-417.457	800.000	-0.031	0.087
-416.442	293.899	0.200	-0.362
-415.428	-130.533	0.182	-0.024
-414.413	-200.000	0.035	0.218
-413.398	-134.950	0.332	-0.040
-412.384	118.156	-0.101	-0.124
-411.369	73.073	-0.205	-0.212
-410.355	173.593	0.183	-0.262
-409.340	43.279	0.068	0.061
-408.325	80.972	-0.100	-0.108
-407.311	529.975	-0.040	-0.095
-406.296	-124.184	-0.225	-0.035
-405.282	59.155	-0.296	0.289
-404.267	87.007	0.072	-0.079
-403.252	800.000	0.097	0.293
-402.238	-200.000	0.086	0.476
-401.223	620.731	-0.060	0.149
-400.209	646.601	0.069	-0.174
-399.194	47.564	0.153	-0.142
-398.179	-4.761	0.253	-0.174
-397.165	513.093	-0.073	-0.170
-396.150	-81.294	0.143	0.047
-395.136	-74.072	-0.192	0.069
-394.121	25.089	0.058	0.048
-393.106	-7.717	-0.086	-0.058
-392.092	30.737	0.088	-0.074
-391.077	14.687	0.178	-0.138
-390.063	291.843	-0.140	-0.253
-389.048	800.000	0.028	0.087
-388.033	45.900	0.071	0.066
-387.019	104.832	0.122	0.143
-386.004	-89.579	-0.540	-0.157
-384.990	-200.000	0.007	0.110
-383.975	122.849	0.107	-0.133
-382.960	258.796	-0.143	0.244
-381.946	-15.345	0.192	0.122
-380.931	-200.000	-0.061	-0.333
-379.917	136.787	0.093	-0.120
-378.902	-200.000	0.046	0.260
-377.888	-34.104	0.309	0.168
-376.873	-8.604	-0.018	0.012
-375.858	-200.000	-0.036	-0.301
-374.844	161.161	0.176	-0.243
-373.829	372.368	-0.180	-0.364
-372.815	-78.076	0.201	0.069
-371.800	-73.215	-0.146	0.053
-370.785	-200.000	-0.031	-0.162
-369.771	-39.220	0.218	-0.113
-368.756	58.362	-0.256	-0.249
-367.742	-200.000	-0.050	-0.375
-366.727	-46.014	-0.278	0.136
-365.712	-46.593	0.200	-0.097
-364.698	-35.988	0.176	0.094
-363.683	224.720	0.077	-0.124
-362.669	592.979	-0.012	0.030
-361.654	167.014	-0.234	0.329
-360.639	-91.007	-0.365	0.104
-359.625	-106.384	0.354	0.078
-358.610	-200.000	0.005	-0.347
-357.596	800.000	-0.074	0.302
-356.581	-146.712	-0.277	0.024
-355.566	800.000	0.144	0.396
-354.552	-134.306	-0.300	0.037
-353.537	22.851	0.069	-0.056
-352.523	-35.620	0.018	-0.010
-351.508	16.219	0.170	0.133
-350.493	-200.000	-0.010	0.082
-349.479	-60.726	-0.133	-0.056
-348.464	272.482	0.180	0.315
-347.450	-200.000	-0.052	0.226
-346.435	201.727	0.216	-0.330
-345.420	-200.000	0.008	-0.266
-344.406	-109.465	-0.139	-0.029
-343.391	-24.948	0.164	-0.096
-342.377	-200.000	0.028	0.213
-341.362	131.671	0.104	0.132
-340.348	-13.232	0.332	-0.214
-339.333	-40.231	0.202	0.104
-338.318	618.811	-0.052	0.128
-337.304	-80.363	-0.245	0.081
-336.289	-152.367	-0.291	0.021
-335.275	-5.495	-0.097	-0.066
-334.260	800.000	0.046	-0.148
-333.245	-200.000	-0.013	-0.106
-332.231	-45.344	-0.043	0.021
-331.216	-50.457	-0.282	-0.132
-330.202	-20.134	-0.215	0.131
-329.187	14.582	0.104	0.081
-328.172	-75.031	-0.259	-0.092
-327.158	157.178	0.068	-0.092
-326.143	342.262	-0.036	0.070
-325.129	-200.000	0.004	0.159
-324.114	-200.000	-0.036	0.190
-323.099	800.000	0.093	-0.356
-322.085	-55.411	0.166	0.074
-321.070	-66.714	-0.073	0.029
-320.056	-83.858	-0.144	0.046
-319.041	-88.802	-0.247	0.073
-318.026	122.128	0.164	0.203
-317.012	133.698	0.141	0.180
-315.997	23.633	0.005	-0.004
-314.983	-78.951	-0.029	-0.010
-313.968	-116.362	0.146	-0.027
-312.953	-64.504	0.409	0.164
-311.939	-200.000	0.017	0.168
-310.924	-200.000	0.009	0.054
-309.910	800.000	-0.119	-0.326
-308.895	-110.756	-0.119	-0.024
-307.880	-200.000	-0.041	-0.279
-306.866	17.919	0.274	0.216
-305.851	79.064	-0.244	-0.258
-304.837	-116.009	0.251	-0.046
-303.822	172.884	0.108	0.154
-302.807	90.625	0.228	0.253
-301.793	-70.043	-0.225	0.085
-300.778	485.379	-0.131	-0.296
-299.764	-169.963	0.197	-0.007
-298.749	-77.854	0.128	0.044
-297.735	220.253	0.043	-0.068
-296.720	106.422	-0.197	-0.231
-295.705	-56.973	0.222	0.097
-294.691	205.630	-0.112	0.172
-293.676	140.175	-0.197	-0.257
-292.662	64.609	-0.325	0.324
-291.647	-200.000	-0.002	0.125
-290.632	-134.957	0.185	0.022
-289.618	-71.319	0.232	0.086
-288.603	-103.005	0.093	-0.022
-287.589	703.654	-0.093	0.242
-286.574	296.395	-0.150	0.271
-285.559	238.265	0.065	0.107
-284.545	-112.655	-0.188	0.037
-283.530	15.056	0.083	-0.064
-282.516	-163.194	0.194	-0.009
-281.501	-101.949	0.355	-0.085
-280.486	2.807	-0.199	0.143
-279.472	44.775	0.231	-0.210
-278.457	800.000	0.050	-0.158
-277.443	-111.533	-0.280	0.056
-276.428	268.697	0.107	-0.185
-275.413	-200.000	0.031	-0.216
-274.399	800.000	0.040	0.126
-273.384	-9.496	0.175	0.115
-272.370	31.496	-0.249	0.211
-271.355	-116.293	-0.186	0.034
-270.340	43.845	-0.073	0.066
-269.326	6.186	0.237	0.174
-268.311	59.175	0.136	0.132
-267.297	154.993	0.304	0.412
-266.282	328.312	0.306	0.579
-265.267	-8.616	-0.083	-0.055
-264.253	-84.338	-0.142	-0.044
-263.238	-124.998	-0.243	0.037
-262.224	35.176	-0.244	-0.211
-261.209	-84.810	0.360	-0.112
-260.195	-97.275	-0.095	0.024
-259.180	-200.000	0.044	-0.213
-258.165	179.122	-0.137	-0.198
-257.151	-84.151	0.354	0.111
-256.136	460.388	0.070	-0.154
-255.122	-75.171	-0.283	-0.100
-254.107	-163.666	0.434	-0.020
-253.092	112.717	0.042	-0.050
-252.078	-200.000	0.089	0.425
-251.063	-115.394	-0.244	-0.046
-250.049	-30.556	-0.263	-0.147
-249.034	-200.000	0.049	-0.272
-248.019	-109.267	0.133	-0.028
-247.005	800.000	-0.088	0.241
-245.990	-21.525	-0.143	0.086
-244.976	-126.215	0.028	-0.004
-243.961	0.669	0.365	-0.258
-242.946	-200.000	0.037	-0.181
-241.932	526.566	-0.045	0.105
-240.917	-31.583	-0.230	-0.128
-239.903	-200.000	-0.009	0.094
-238.888	35.930	0.279	0.242
-237.873	-200.000	0.008	0.090
-236.859	-96.920	0.088	-0.023
-235.844	-200.000	0.013	-0.219
-234.830	-57.722	-0.488	0.211
-233.815	74.555	0.205	0.213
-232.800	-100.001	-0.271	-0.067
-231.786	-200.000	0.012	-0.503
-230.771	116.010	0.070	-0.085
-229.757	0.516	-0.101	0.071
-228.742	-107.909	0.280	-0.060
-227.727	-137.678	0.236	0.026
-226.713	-126.302	0.147	-0.022
-225.698	408.164	-0.113	0.236
-224.684	174.115	-0.092	-0.131
-223.669	-200.000	0.001	0.234
-222.655	-34.050	0.100	0.054
-221.640	288.239	-0.017	-0.030
-220.625	800.000	0.080	-0.233
-219.611	-168.716	-0.406	-0.015
-218.596	-109.671	0.197	0.041
-217.582	-50.644	-0.134	-0.062
-216.567	-62.908	0.336	-0.137
-215.552	138.964	0.316	0.410
-214.538	158.360	-0.132	-0.181
-213.523	-38.289	-0.302	-0.158
-212.509	-83.482	0.356	0.112
-211.494	112.513	0.088	-0.105
-210.479	-200.000	-0.008	-0.091
-209.465	800.000	0.093	0.333
-208.450	-88.090	0.167	0.049
-207.436	800.000	0.079	-0.232
-206.421	581.129	-0.041	0.098
-205.406	15.965	-0.100	0.078
-204.392	-200.000	0.018	0.135
-203.377	-200.000	0.090	-0.500
-202.363	-79.858	-0.262	0.087
-201.348	117.761	0.238	-0.288
-200.333	160.428	-0.204	-0.280
-199.319	33.953	-0.138	0.118
-198.304	800.000	-0.054	0.209
-197.290	-39.545	0.151	-0.078
-196.275	-155.612	-0.412	-0.026
-195.260	-16.256	-0.115	0.072
-194.246	-1.997	0.138	0.096
-193.231	-47.413	0.090	-0.043
-192.217	-200.000	-0.009	-0.057
-191.202	-62.510	0.160	0.066
-190.187	-75.812	-0.101	-0.035
-189.173	56.197	-0.081	0.078
-188.158	-63.009	0.079	-0.032
-187.144	-64.424	-0.217	0.087
-186.129	-65.617	-0.052	0.020
-185.114	154.988	0.049	-0.066
-184.100	86.559	0.257	0.279
-183.085	-65.090	-0.478	-0.190
-182.071	41.200	-0.173	-0.154
-181.056	800.000	0.044	0.144
-180.042	-170.142	-0.230	0.008
-179.027	394.019	-0.123	0.252
-178.012	86.602	0.026	-0.029
-176.998	713.503	-0.083	0.216
-175.983	-118.967	-0.204	-0.035
-174.969	264.868	0.055	-0.094
-173.954	89.187	0.156	-0.171
-172.939	-23.363	0.120	0.071
-171.925	287.123	-0.157	-0.279
-170.910	-86.371	0.092	0.028
-169.896	-200.000	0.007	-0.237
-168.881	-159.361	-0.056	0.003
-167.866	-160.613	0.068	0.004
-166.852	10.637	-0.274	-0.206
-165.837	-200.000	0.005	-0.217
-164.823	800.000	-0.074	-0.275
-163.808	316.225	-0.088	-0.163
-162.793	-200.000	-0.176	0.000
-161.779	442.463	-0.039	0.084
-160.764	-42.662	0.190	-0.095
-159.750	-200.000	0.002	-0.078
-158.735	-200.000	-0.005	-0.156
-157.720	-16.631	-0.256	0.160
-156.706	348.089	-0.251	-0.487
-155.691	74.455	0.275	-0.284
-154.677	574.840	0.128	0.308
-153.662	475.534	0.189	-0.419
-152.647	800.000	-0.051	0.193
-151.633	800.000	-0.058	-0.180
-150.618	-150.839	-0.139	0.010
-149.604	-59.109	0.060	0.025
-148.589	154.388	0.427	-0.577
-147.574	-88.890	-0.104	-0.030
-146.560	-171.574	0.065	-0.002
-145.545	-32.935	-0.135	-0.074
-144.531	122.324	0.170	-0.209
-143.516	-200.000	0.005	0.154
-142.502	800.000	0.070	0.258
-141.487	-97.146	-0.311	0.080
-140.472	-101.560	0.393	0.094
-139.458	107.100	-0.173	-0.202
-138.443	15.543	0.040	-0.031
-137.429	365.910	0.024	0.047
-136.414	245.457	-0.158	0.262
-135.399	-120.011	-0.231	0.039
-134.385	800.000	-0.059	-0.208
-133.370	74.590	-0.239	-0.246
-132.356	-110.950	0.172	0.035
-131.341	-61.229	-0.129	0.054
-130.326	86.052	0.109	0.117
-129.312	-200.000	0.010	0.047
-128.297	15.541	0.109	-0.084
-127.283	308.331	-0.266	-0.487
-126.268	28.894	-0.118	0.098
-125.253	160.039	-0.268	0.367
-124.239	-91.576	-0.265	0.074
-123.224	-10.204	0.080	0.052
-122.210	19.616	0.185	0.146
-121.195	-200.000	0.036	0.261
-120.180	-11.208	0.223	0.145
