DTS Sentinel unit serial number:	SN413079Multiplexer serial number:	ORYXHardware model number:	OX4-SRSoftware version number:	ORYX F/W v4.00 Oryx Data Collector v3.7.2.0data status	okinstallation	princeton_trtdifferential loss correction	single-endedforward channel	channel 3reverse channel	N/Adate	2019/09/16time	02:52:34forward acquisition time	60.00reverse acquisition time	0.00gamma	496.2192k internal	0.2334k external	0.2334temperature offset calibration	0.9952default loss term (dB/km)	0.3790temperature slope calibration	1.0000multiplexer offset coefficient	1.0000multiplexer slope coefficient	1.0000fibre end	0.00T internal ref (°C)	27.75T ext. ref 1 (°C)	10.39T ext. ref 2 (°C)	22.18length (m)	temperature (°C)	Stokes	anti-Stokes-747.200	332.778	0.071	0.138
-746.185	565.746	-0.134	-0.326
-745.171	-149.951	-0.092	-0.007
-744.156	11.504	-0.376	0.289
-743.142	-74.625	0.226	-0.082
-742.127	-165.160	-0.150	-0.007
-741.112	-200.000	-0.023	0.242
-740.098	268.059	0.092	0.162
-739.083	-170.678	-0.227	0.008
-738.069	-16.146	0.293	0.187
-737.054	250.606	0.165	0.283
-736.039	-143.379	-0.267	0.026
-735.025	93.913	0.040	-0.046
-734.010	-33.960	-0.162	-0.090
-732.996	142.226	0.214	-0.285
-731.981	10.160	-0.196	0.150
-730.966	39.655	0.181	-0.163
-729.952	-52.560	-0.209	0.097
-728.937	-43.608	-0.360	-0.183
-727.923	-135.810	-0.267	0.032
-726.908	-54.188	0.095	-0.044
-725.894	166.247	-0.175	0.250
-724.879	732.271	-0.027	-0.072
-723.864	-74.063	-0.353	-0.129
-722.850	319.206	-0.050	0.095
-721.835	800.000	-0.032	-0.099
-720.821	-133.371	-0.319	-0.040
-719.806	159.773	0.082	0.114
-718.791	-200.000	-0.010	-0.052
-717.777	6.110	-0.065	-0.048
-716.762	40.201	0.360	0.325
-715.748	127.375	-0.149	0.189
-714.733	-119.538	-0.390	-0.068
-713.718	-99.790	0.141	0.035
-712.704	38.749	-0.113	-0.101
-711.689	227.124	-0.112	0.182
-710.675	-30.893	-0.124	0.070
-709.660	-200.000	0.018	-0.236
-708.645	-75.161	-0.281	-0.101
-707.631	-127.929	0.466	-0.067
-706.616	39.213	0.118	-0.106
-705.602	-90.562	0.297	0.086
-704.587	-33.551	0.180	-0.100
-703.572	-153.048	-0.021	0.001
-702.558	-52.011	0.221	0.103
-701.543	328.551	0.029	-0.055
-700.529	-110.382	0.176	0.037
-699.514	-89.856	-0.153	0.045
-698.499	-9.025	0.231	0.155
-697.485	334.888	0.153	0.298
-696.470	194.945	0.168	-0.257
-695.456	-200.000	0.020	-0.355
-694.441	-200.000	-0.075	-0.388
-693.426	-12.867	0.051	0.034
-692.412	232.248	-0.124	0.204
-691.397	190.617	0.125	-0.188
-690.383	-75.365	-0.145	0.052
-689.368	-177.448	-0.066	-0.002
-688.354	-99.477	-0.285	0.072
-687.339	67.858	0.238	-0.244
-686.324	93.869	-0.265	-0.301
-685.310	-130.322	-0.241	-0.033
-684.295	688.889	-0.080	-0.210
-683.281	-91.312	0.324	-0.093
-682.266	-40.272	0.047	-0.025
-681.251	-10.244	-0.438	0.291
-680.237	610.852	-0.087	-0.218
-679.222	-200.000	0.026	-0.230
-678.208	-200.000	-0.099	-0.457
-677.193	800.000	-0.048	-0.155
-676.178	73.556	-0.178	-0.187
-675.164	81.379	-0.094	0.102
-674.149	-200.000	-0.094	0.449
-673.135	-37.767	0.297	-0.158
-672.120	-139.766	0.213	0.023
-671.105	1.265	-0.044	-0.032
-670.091	141.397	0.163	-0.216
-669.076	-60.402	0.065	-0.028
-668.062	-200.000	0.074	-0.363
-667.047	617.839	-0.098	-0.247
-666.032	-179.210	0.159	-0.004
-665.018	-127.221	0.024	0.004
-664.003	-66.081	0.381	-0.152
-662.989	-70.850	0.179	-0.068
-661.974	-188.892	0.413	-0.005
-660.959	9.710	-0.123	-0.094
-659.945	513.517	-0.138	-0.323
-658.930	-152.259	0.451	-0.033
-657.916	-200.000	-0.050	0.517
-656.901	232.935	0.118	0.194
-655.886	-168.184	0.305	-0.012
-654.872	-200.000	-0.023	0.358
-653.857	-90.233	0.506	0.147
-652.843	-79.236	-0.283	-0.096
-651.828	-16.690	-0.233	-0.148
-650.814	7.661	-0.192	0.144
-649.799	232.533	-0.220	0.361
-648.784	492.448	-0.067	-0.153
-647.770	800.000	0.046	-0.157
-646.755	176.019	-0.089	0.130
-645.741	-200.000	0.050	0.241
-644.726	-66.270	-0.038	0.015
-643.711	-129.303	0.178	-0.025
-642.697	161.529	0.102	-0.143
-641.682	72.578	0.127	-0.133
-640.668	509.377	-0.110	-0.256
-639.653	-53.226	0.159	-0.073
-638.638	-200.000	-0.010	-0.063
-637.624	-73.707	-0.284	-0.104
-636.609	28.765	-0.144	-0.122
-635.595	-43.166	0.094	-0.048
-634.580	130.451	-0.132	-0.170
-633.565	-18.863	-0.072	0.045
-632.551	-200.000	0.007	0.066
-631.536	218.775	0.023	-0.036
-630.522	-165.561	-0.160	0.007
-629.507	190.637	-0.144	0.216
-628.492	-148.267	0.095	0.008
-627.478	20.035	-0.171	-0.138
-626.463	120.825	0.235	0.292
-625.449	-200.000	-0.010	-0.158
-624.434	160.194	-0.058	-0.081
-623.419	524.119	-0.102	0.240
-622.405	180.437	0.009	-0.014
-621.390	57.424	-0.032	0.031
-620.376	-128.881	0.218	-0.031
-619.361	800.000	0.021	0.069
-618.346	-167.627	-0.190	-0.008
-617.332	-60.556	0.132	-0.056
-616.317	373.190	0.127	-0.259
-615.303	438.826	-0.109	0.239
-614.288	73.117	0.088	-0.092
-613.273	-176.123	0.051	0.001
-612.259	-126.421	-0.381	-0.057
-611.244	348.660	-0.022	0.044
-610.230	-84.993	-0.107	-0.034
-609.215	-200.000	-0.008	0.139
-608.201	-200.000	0.016	-0.186
-607.186	-114.351	-0.185	-0.036
-606.171	-24.511	-0.037	0.022
-605.157	-200.000	-0.362	-0.001
-604.142	-200.000	-0.010	-0.121
-603.128	43.434	0.122	-0.111
-602.113	-76.540	0.109	0.038
-601.098	800.000	0.050	-0.193
-600.084	-200.000	-0.016	-0.080
-599.069	-48.585	-0.015	0.007
-598.055	-123.294	-0.166	0.027
-597.040	480.165	-0.092	0.209
-596.025	-130.887	0.168	0.023
-595.011	800.000	-0.100	-0.349
-593.996	79.414	-0.062	0.067
-592.982	-108.175	0.360	-0.078
-591.967	736.406	0.059	-0.159
-590.952	8.026	-0.072	-0.054
-589.938	800.000	-0.094	-0.318
-588.923	72.487	0.025	-0.026
-587.909	-137.871	-0.101	-0.011
-586.894	800.000	-0.030	-0.128
-585.879	-44.854	-0.185	-0.092
-584.865	-23.812	-0.247	0.148
-583.850	-23.170	-0.209	-0.126
-582.836	-97.830	-0.305	0.079
-581.821	-86.676	0.183	-0.056
-580.806	800.000	0.046	0.176
-579.792	-13.154	-0.142	0.092
-578.777	242.908	-0.030	0.050
-577.763	-200.000	-0.010	0.322
-576.748	234.539	0.118	0.194
-575.733	-61.501	0.092	-0.039
-574.719	800.000	-0.055	0.231
-573.704	-197.239	0.164	0.001
-572.690	210.946	0.129	0.203
-571.675	111.106	0.046	0.055
-570.661	-26.858	-0.501	-0.292
-569.646	800.000	-0.050	-0.154
-568.631	-23.414	0.242	0.145
-567.617	-78.297	0.148	-0.051
-566.602	-133.497	-0.141	0.018
-565.588	237.389	0.207	0.343
-564.573	-200.000	0.009	0.111
-563.558	-49.945	0.104	-0.049
-562.544	-126.668	-0.035	-0.005
-561.529	40.282	-0.122	0.109
-560.515	24.568	0.202	-0.167
-559.500	-75.069	0.289	-0.103
-558.485	212.710	-0.281	-0.442
-557.471	-200.000	0.008	0.119
-556.456	-162.672	-0.167	0.008
-555.442	95.399	0.142	-0.162
-554.427	-91.747	-0.460	0.130
-553.412	-197.465	-0.119	-0.001
-552.398	-118.210	-0.158	0.028
-551.383	240.306	0.188	0.313
-550.369	-55.640	0.044	0.020
-549.354	-28.569	-0.135	-0.078
-548.339	-89.399	0.307	0.090
-547.325	-67.818	0.097	0.038
-546.310	800.000	0.086	-0.276
-545.296	800.000	-0.142	0.451
-544.281	-135.148	0.270	0.032
-543.266	-148.626	-0.093	0.008
-542.252	-193.733	0.454	-0.004
-541.237	-150.824	-0.059	0.004
-540.223	-74.372	-0.232	0.084
-539.208	-128.425	0.305	0.043
-538.193	-200.000	-0.002	0.363
-537.179	155.407	-0.238	0.326
-536.164	800.000	-0.068	-0.203
-535.150	112.408	0.125	-0.151
-534.135	85.592	-0.079	-0.086
-533.121	-145.872	-0.370	-0.033
-532.106	-115.830	0.413	-0.077
-531.091	-25.571	0.362	-0.213
-530.077	-10.051	-0.193	-0.128
-529.062	4.024	-0.173	-0.126
-528.048	-137.075	0.244	0.028
-527.033	-38.571	0.237	-0.125
-526.018	-152.500	-0.283	0.020
-525.004	-22.452	0.234	0.141
-523.989	60.009	-0.174	0.171
-522.975	230.780	-0.029	0.047
-521.960	-200.000	-0.075	0.337
-520.945	-125.085	0.400	0.061
-519.931	-53.891	0.174	0.079
-518.916	-73.586	-0.169	-0.061
-517.902	-200.000	0.059	-0.400
-516.887	78.124	-0.212	0.225
-515.872	-32.327	0.369	-0.205
-514.858	68.592	0.074	-0.076
-513.843	800.000	-0.074	-0.287
-512.829	283.454	-0.137	0.245
-511.814	800.000	-0.058	0.174
-510.799	513.688	0.119	0.275
-509.785	-94.790	-0.203	-0.055
-508.770	79.392	-0.048	0.051
-507.756	800.000	-0.048	0.138
-506.741	-126.761	0.169	0.025
-505.726	203.683	0.141	0.218
-504.712	166.339	-0.061	-0.086
-503.697	57.973	0.355	-0.346
-502.683	-99.451	-0.342	0.086
-501.668	800.000	-0.070	0.224
-500.653	-146.037	-0.180	-0.016
-499.639	-180.311	-0.393	0.008
-498.624	-123.061	0.103	-0.016
-497.610	308.880	0.010	0.019
-496.595	-81.263	0.156	-0.051
-495.581	-48.487	-0.072	-0.035
-494.566	111.582	0.172	0.207
-493.551	-38.722	-0.193	-0.101
-492.537	230.087	0.154	0.251
-491.522	116.034	0.031	0.037
-490.508	100.205	-0.083	-0.095
-489.493	6.846	0.214	0.158
-488.478	-60.179	-0.118	-0.050
-487.464	-81.552	-0.501	0.164
-486.449	753.112	-0.096	0.257
-485.435	65.659	0.060	0.061
-484.420	-55.283	0.194	0.087
-483.405	-25.255	0.130	-0.077
-482.391	-47.800	0.038	-0.018
-481.376	186.101	0.191	0.283
-480.362	329.525	-0.168	-0.321
-479.347	-128.446	-0.214	-0.030
-478.332	-176.966	0.296	0.007
-477.318	-200.000	-0.002	-0.226
-476.303	-200.000	0.016	0.123
-475.289	-11.494	-0.423	0.277
-474.274	-200.000	0.003	0.068
-473.259	800.000	-0.112	-0.336
-472.245	-200.000	0.028	-0.423
-471.230	-138.521	0.187	-0.020
-470.216	-189.478	-0.243	-0.003
-469.201	800.000	0.022	0.066
-468.186	2.414	-0.111	0.080
-467.172	206.783	-0.125	-0.194
-466.157	-85.886	-0.171	0.053
-465.143	800.000	-0.078	-0.290
-464.128	-38.972	-0.060	0.032
-463.113	494.199	0.087	0.199
-462.099	743.197	0.111	0.297
-461.084	-45.639	0.028	-0.014
-460.070	-96.721	0.408	0.107
-459.055	-75.611	-0.210	-0.074
-458.040	236.522	0.044	-0.072
-457.026	-200.000	-0.076	-0.468
-456.011	-198.532	0.131	-0.001
-454.997	800.000	-0.098	0.282
-453.982	91.725	-0.226	-0.252
-452.968	161.999	-0.084	0.117
-451.953	224.950	0.139	0.223
-450.938	-200.000	-0.008	-0.189
-449.924	357.696	-0.034	0.067
-448.909	198.481	-0.157	0.238
-447.895	93.179	-0.129	0.144
-446.880	50.710	-0.087	0.082
-445.865	-143.642	0.261	-0.025
-444.851	-43.219	-0.128	0.064
-443.836	-119.198	-0.439	-0.076
-442.822	-125.291	-0.465	-0.071
-441.807	-57.835	0.227	0.099
-440.792	386.003	0.193	-0.395
-439.778	800.000	-0.101	0.315
-438.763	42.510	-0.248	0.224
-437.749	800.000	0.042	-0.145
-436.734	-88.584	0.265	-0.078
-435.719	-200.000	0.023	0.260
-434.705	219.349	0.020	-0.032
-433.690	-31.180	0.166	0.093
-432.676	-29.396	0.236	-0.134
-431.661	169.295	-0.113	0.160
-430.646	-28.858	0.178	-0.102
-429.632	42.790	0.090	-0.082
-428.617	-162.171	0.253	-0.013
-427.603	683.754	0.081	-0.209
-426.588	189.541	-0.116	0.172
-425.573	-200.000	-0.012	-0.115
-424.559	-131.400	0.178	-0.023
-423.544	-115.946	-0.368	0.068
-422.530	-109.478	0.047	-0.010
-421.515	28.621	-0.150	0.126
-420.500	-146.032	-0.105	0.009
-419.486	-104.766	0.244	0.056
-418.471	23.686	0.017	-0.014
-417.457	800.000	0.072	-0.211
-416.442	40.232	0.247	-0.221
-415.428	235.767	-0.117	-0.191
-414.413	-14.040	0.127	-0.081
-413.398	-47.290	-0.216	-0.104
-412.384	-53.199	0.167	-0.076
-411.369	154.140	0.216	-0.294
-410.355	34.242	0.185	0.160
-409.340	243.400	-0.179	-0.298
-408.325	48.595	-0.205	-0.191
-407.311	82.458	-0.097	-0.104
-406.296	800.000	-0.084	0.285
-405.282	-200.000	-0.025	0.196
-404.267	376.540	0.109	0.221
-403.252	800.000	0.036	-0.149
-402.238	311.502	-0.123	0.228
-401.223	800.000	-0.100	-0.328
-400.209	-58.160	-0.141	-0.061
-399.194	-103.589	0.339	-0.079
-398.179	730.372	0.177	-0.468
-397.165	-200.000	0.002	0.074
-396.150	-86.575	-0.264	-0.080
-395.136	165.756	0.113	0.158
-394.121	403.780	-0.161	-0.336
-393.106	-72.082	0.265	0.098
-392.092	134.514	-0.261	-0.336
-391.077	116.342	-0.292	-0.355
-390.063	-200.000	0.004	-0.018
-389.048	-200.000	-0.001	0.103
-388.033	-200.000	-0.002	-0.074
-387.019	800.000	-0.053	0.162
-386.004	175.466	-0.127	0.182
-384.990	-30.904	-0.056	-0.031
-383.975	-114.575	-0.076	0.014
-382.960	-62.749	-0.451	-0.185
-381.946	-200.000	0.043	-0.389
-380.931	265.844	0.144	0.248
-379.917	800.000	0.153	-0.504
-378.902	239.377	0.136	0.225
-377.888	-102.252	-0.142	0.034
-376.873	-200.000	0.013	0.172
-375.858	-28.936	0.088	0.050
-374.844	-200.000	-0.027	0.121
-373.829	346.595	-0.068	-0.133
-372.815	-200.000	-0.049	0.236
-371.800	-200.000	-0.006	-0.090
-370.785	111.062	-0.317	-0.378
-369.771	180.788	0.147	-0.214
-368.756	355.381	0.178	-0.350
-367.742	-83.520	-0.036	0.011
-366.727	-60.709	-0.226	0.095
-365.712	-80.604	0.239	-0.079
-364.698	-6.450	0.041	0.028
-363.683	-200.000	-0.058	0.345
-362.669	127.998	0.193	0.243
-361.654	-200.000	0.048	-0.234
-360.639	-200.000	0.045	-0.559
-359.625	18.166	-0.167	0.132
-358.610	36.315	-0.191	-0.167
-357.596	74.419	-0.164	0.171
-356.581	-67.112	-0.143	0.056
-355.566	-13.986	0.158	0.101
-354.552	-200.000	-0.003	-0.204
-353.537	105.981	-0.248	-0.290
-352.523	-84.228	-0.199	-0.062
-351.508	-121.554	0.420	0.069
-350.493	117.476	0.103	0.125
-349.479	-149.177	-0.107	-0.008
-348.464	-37.391	0.348	-0.184
-347.450	78.303	0.065	-0.069
-346.435	-174.536	-0.157	0.004
-345.420	-57.135	0.155	0.067
-344.406	128.988	-0.138	-0.174
-343.391	-49.136	0.146	0.069
-342.377	-156.758	0.034	-0.002
-341.362	-86.454	-0.402	-0.122
-340.348	294.665	0.190	0.345
-339.333	280.321	0.180	0.318
-338.318	800.000	0.098	0.303
-337.304	446.547	-0.045	-0.099
-336.289	170.483	-0.078	-0.110
-335.275	11.027	0.485	-0.367
-334.260	332.579	0.152	-0.291
-333.245	-45.064	-0.116	-0.057
-332.231	-140.594	-0.165	-0.017
-331.216	-65.538	-0.389	-0.155
-330.202	-7.906	-0.421	-0.281
-329.187	-200.000	0.026	0.261
-328.172	-200.000	0.007	0.053
-327.158	-200.000	-0.007	0.318
-326.143	-16.693	-0.042	-0.027
-325.129	-36.216	-0.180	-0.096
-324.114	-200.000	-0.001	0.102
-323.099	800.000	-0.035	0.114
-322.085	421.654	-0.076	0.161
-321.070	49.817	0.163	0.152
-320.056	-34.849	-0.256	-0.138
-319.041	35.735	0.338	0.294
-318.026	-200.000	0.024	-0.190
-317.012	200.070	-0.135	-0.205
-315.997	193.902	-0.213	-0.319
-314.983	100.080	0.278	-0.319
-313.968	68.126	-0.202	0.204
-312.953	14.466	-0.182	0.141
-311.939	800.000	-0.091	-0.324
-310.924	-200.000	-0.035	-0.175
-309.910	-200.000	0.004	-0.469
-308.895	506.925	0.111	-0.254
-307.880	111.028	0.124	-0.148
-306.866	-137.191	-0.193	0.022
-305.851	800.000	-0.059	-0.170
-304.837	775.720	0.114	0.309
-303.822	800.000	-0.010	0.041
-302.807	12.960	-0.153	0.117
-301.793	-61.293	0.107	-0.044
-300.778	-22.570	0.155	-0.093
-299.764	800.000	-0.136	0.526
-298.749	-198.656	0.244	0.001
-297.735	-12.533	-0.306	0.198
-296.720	-95.470	-0.180	0.048
-295.705	404.829	-0.062	-0.129
-294.691	362.481	0.092	-0.182
-293.676	43.151	0.056	0.050
-292.662	52.960	0.234	-0.221
-291.647	158.415	-0.199	-0.273
-290.632	295.248	0.194	0.350
-289.618	-197.875	0.274	-0.002
-288.603	350.412	-0.059	0.116
-287.589	-35.345	0.167	0.090
-286.574	21.200	-0.129	-0.104
-285.559	-181.708	-0.289	0.005
-284.545	32.585	0.370	-0.316
-283.530	17.137	0.123	-0.096
-282.516	-63.971	0.204	-0.082
-281.501	723.448	-0.022	0.058
-280.486	125.766	-0.228	0.284
-279.472	-23.008	-0.069	0.041
-278.457	800.000	0.010	0.044
-277.443	800.000	-0.097	-0.414
-276.428	800.000	0.043	-0.142
-275.413	-94.459	-0.165	0.044
-274.399	-14.255	-0.110	0.070
-273.384	225.457	0.111	-0.177
-272.370	800.000	0.062	0.174
-271.355	-200.000	-0.013	0.088
-270.340	-200.000	-0.198	-0.000
-269.326	-77.029	-0.113	0.039
-268.311	91.059	-0.128	0.141
-267.297	76.498	0.094	-0.098
-266.282	800.000	-0.069	0.230
-265.267	-105.628	-0.067	0.015
-264.253	800.000	0.060	-0.171
-263.238	210.148	-0.105	0.163
-262.224	-33.214	0.084	0.046
-261.209	800.000	0.073	-0.273
-260.195	122.862	-0.152	-0.188
-259.180	-162.097	0.341	0.017
-258.165	800.000	-0.094	0.271
-257.151	205.286	-0.031	0.047
-256.136	139.910	-0.200	-0.260
-255.122	140.974	0.200	0.261
-254.107	800.000	-0.120	0.326
-253.092	-46.625	-0.234	0.113
-252.078	-51.427	0.032	0.015
-251.063	535.363	-0.181	0.423
-250.049	98.944	0.218	0.248
-249.034	800.000	-0.087	-0.276
-248.019	-200.000	-0.003	0.014
-247.005	-200.000	-0.012	-0.299
-245.990	302.866	0.165	0.301
-244.976	227.486	-0.201	0.322
-243.961	-63.306	0.190	-0.077
-242.946	-67.159	0.262	-0.102
-241.932	271.079	-0.101	-0.175
-240.917	800.000	0.014	0.060
-239.903	-39.558	-0.254	0.131
-238.888	336.479	0.130	0.249
-237.873	30.900	0.167	-0.141
-236.859	295.069	-0.060	-0.109
-235.844	158.280	-0.069	0.094
-234.830	132.819	0.111	-0.141
-233.815	-40.160	0.202	-0.104
-232.800	-9.220	-0.277	0.183
-231.786	224.948	0.069	-0.109
-230.771	-200.000	-0.009	0.061
-229.757	-42.318	0.284	0.143
-228.742	-129.383	-0.218	-0.030
-227.727	-11.588	0.099	0.064
-226.713	322.684	0.161	0.303
-225.698	-92.713	0.401	0.111
-224.684	-176.902	0.167	0.004
-223.669	-66.852	-0.131	0.051
-222.655	-130.356	0.392	-0.052
-221.640	-2.803	-0.116	0.080
-220.625	-119.934	0.089	0.015
-219.611	800.000	0.056	0.190
-218.596	427.578	-0.137	0.292
-217.582	14.183	-0.233	-0.179
-216.567	527.414	-0.028	0.064
-215.552	-28.352	-0.078	0.045
-214.538	800.000	0.018	0.056
-213.523	328.853	-0.153	-0.289
-212.509	51.355	-0.380	-0.355
-211.494	-200.000	0.017	0.189
-210.479	306.469	0.149	0.274
-209.465	70.367	0.053	0.054
-208.450	-112.180	-0.165	0.033
-207.436	800.000	0.087	-0.347
-206.421	-20.360	-0.073	-0.044
-205.406	-200.000	0.009	0.173
-204.392	561.965	-0.108	0.258
-203.377	-51.489	-0.037	-0.017
-202.363	-13.680	-0.065	-0.041
-201.348	67.309	-0.116	0.116
-200.333	482.634	0.176	0.395
-199.319	30.322	0.134	0.112
-198.304	800.000	0.038	0.163
-197.290	10.406	-0.348	0.261
-196.275	477.921	-0.158	0.351
-195.260	-200.000	0.219	0.000
-194.246	800.000	0.060	-0.253
-193.231	35.087	0.134	-0.116
-192.217	-200.000	0.013	0.283
-191.202	-68.885	0.230	-0.087
-190.187	34.560	0.260	-0.224
-189.173	-89.728	0.378	-0.109
-188.158	800.000	-0.071	0.214
-187.144	19.367	-0.276	-0.218
-186.129	96.392	0.158	-0.177
-185.114	-200.000	-0.075	0.349
-184.100	800.000	0.121	0.471
-183.085	299.321	0.151	0.274
-182.071	35.911	0.236	0.204
-181.056	-57.418	-0.185	-0.080
-180.042	-25.673	0.272	0.158
-179.027	-106.131	0.158	-0.035
-178.012	-136.036	-0.135	-0.016
-176.998	375.314	-0.033	0.065
-175.983	-66.105	0.367	-0.144
-174.969	269.944	-0.114	0.197
-173.954	-99.523	0.156	0.039
-172.939	-165.480	0.349	0.015
-171.925	800.000	-0.093	-0.352
-170.910	-154.768	0.253	-0.016
-169.896	36.503	-0.090	0.078
-168.881	800.000	-0.037	0.133
-167.866	-146.133	-0.231	-0.020
-166.852	163.263	-0.158	-0.219
-165.837	-79.399	0.113	0.038
-164.823	-111.040	0.100	0.020
-163.808	-45.359	0.243	-0.118
-162.793	166.309	0.215	0.299
-161.779	100.027	-0.100	0.114
-160.764	-51.856	0.174	-0.079
-159.750	-60.390	0.218	0.091
-158.735	-55.990	0.032	-0.014
-157.720	125.596	0.177	-0.219
-156.706	800.000	0.047	-0.171
-155.691	252.972	0.148	-0.248
-154.677	-200.000	-0.055	0.427
-153.662	-85.306	0.415	-0.127
-152.647	173.543	0.223	-0.316
-151.633	34.635	0.113	0.097
-150.618	-200.000	0.016	-0.091
-149.604	-155.195	-0.213	0.014
-148.589	704.808	-0.113	0.292
-147.574	795.485	0.093	0.251
-146.560	17.336	0.165	0.129
-145.545	140.823	-0.076	0.098
-144.531	800.000	0.090	0.249
-143.516	800.000	-0.048	0.187
-142.502	800.000	-0.077	-0.244
-141.487	-16.829	0.195	-0.121
-140.472	-96.616	-0.282	0.073
-139.458	182.696	-0.241	0.348
-138.443	510.571	-0.184	0.420
-137.429	110.094	-0.072	-0.085
-136.414	-56.918	0.173	-0.075
-135.399	126.649	0.044	-0.055
-134.385	21.387	-0.063	0.050
-133.370	40.971	0.122	-0.108
-132.356	-84.279	-0.288	-0.090
-131.341	710.276	-0.052	-0.136
-130.326	-22.979	0.089	0.052
-129.312	-68.393	-0.083	-0.032
-128.297	-200.000	-0.031	-0.311
-127.283	800.000	-0.097	0.276
-126.268	41.507	0.093	0.082
-125.253	103.062	-0.067	0.078
-124.239	-13.047	0.192	0.123
-123.224	-13.352	-0.161	-0.102
-122.210	-58.995	-0.278	0.118
-121.195	-33.000	-0.160	0.087
