DTS Sentinel unit serial number:	SN413079Multiplexer serial number:	ORYXHardware model number:	OX4-SRSoftware version number:	ORYX F/W v4.00 Oryx Data Collector v3.7.2.0data status	okinstallation	princeton_trtdifferential loss correction	single-endedforward channel	channel 3reverse channel	N/Adate	2019/09/19time	13:04:34forward acquisition time	60.00reverse acquisition time	0.00gamma	496.2192k internal	0.2328k external	0.2328temperature offset calibration	0.9991default loss term (dB/km)	0.3790temperature slope calibration	1.0000multiplexer offset coefficient	1.0000multiplexer slope coefficient	1.0000fibre end	0.00T internal ref (°C)	28.84T ext. ref 1 (°C)	0.92T ext. ref 2 (°C)	26.89length (m)	temperature (°C)	Stokes	anti-Stokes-747.200	-120.747	0.068	0.012
-746.185	63.565	-0.060	-0.061
-745.171	25.673	0.199	0.167
-744.156	108.786	-0.194	0.234
-743.142	-18.534	0.341	0.214
-742.127	800.000	-0.070	0.305
-741.112	-42.168	0.392	0.202
-740.098	48.732	0.290	0.274
-739.083	-55.292	-0.208	0.094
-738.069	-200.000	0.023	0.243
-737.054	-200.000	0.034	-0.204
-736.039	-116.960	-0.267	0.049
-735.025	-123.289	0.258	0.041
-734.010	248.925	0.198	-0.339
-732.996	49.216	0.152	0.144
-731.981	800.000	-0.014	0.063
-730.966	253.245	-0.194	-0.333
-729.952	123.140	-0.078	0.098
-728.937	6.728	-0.093	0.070
-727.923	500.805	-0.090	0.209
-726.908	-2.368	0.237	-0.168
-725.894	-47.327	0.054	0.026
-724.879	-112.829	0.071	0.014
-723.864	-46.349	-0.053	0.026
-722.850	800.000	-0.168	0.493
-721.835	800.000	-0.047	-0.173
-720.821	133.629	-0.189	-0.246
-719.806	217.893	-0.042	-0.067
-718.791	-89.281	0.136	-0.040
-717.777	-200.000	-0.046	0.377
-716.762	70.652	-0.202	-0.210
-715.748	-93.415	-0.143	0.040
-714.733	160.887	-0.083	0.117
-713.718	-200.000	-0.030	0.279
-712.704	800.000	-0.152	-0.610
-711.689	20.681	0.211	-0.172
-710.675	-200.000	0.027	-0.158
-709.660	-200.000	-0.073	-0.501
-708.645	-200.000	-0.023	-0.459
-707.631	-2.193	-0.353	-0.249
-706.616	358.589	-0.092	0.186
-705.602	266.657	-0.015	-0.027
-704.587	-43.686	0.280	0.142
-703.572	88.438	0.196	-0.219
-702.558	102.773	0.215	-0.253
-701.543	800.000	-0.072	-0.255
-700.529	77.064	0.204	-0.218
-699.514	-200.000	0.033	0.182
-698.499	-200.000	0.016	0.399
-697.485	-200.000	0.003	-0.300
-696.470	-85.877	-0.307	0.096
-695.456	105.966	-0.028	0.033
-694.441	800.000	-0.068	-0.276
-693.426	64.506	-0.117	0.119
-692.412	164.215	0.136	0.193
-691.397	-94.920	-0.578	0.157
-690.383	-50.878	0.084	0.040
-689.368	-12.763	0.091	-0.060
-688.354	-99.800	-0.126	0.032
-687.339	-200.000	-0.023	0.161
-686.324	-22.043	-0.067	0.041
-685.310	119.620	0.024	0.030
-684.295	-200.000	-0.011	0.066
-683.281	-107.945	-0.199	0.043
-682.266	71.410	-0.025	0.026
-681.251	-64.353	-0.413	-0.169
-680.237	42.069	0.184	0.168
-679.222	146.131	-0.164	0.221
-678.208	33.795	0.454	0.397
-677.193	66.433	-0.109	-0.111
-676.178	70.627	0.196	-0.204
-675.164	-71.771	-0.229	0.086
-674.149	-161.422	-0.253	-0.013
-673.135	267.754	0.045	-0.079
-672.120	-129.726	0.143	-0.020
-671.105	-125.533	0.123	-0.019
-670.091	-116.062	0.274	-0.051
-669.076	129.535	-0.112	-0.143
-668.062	-99.052	-0.381	-0.097
-667.047	-158.207	0.181	0.011
-666.032	-200.000	0.017	-0.093
-665.018	-146.579	-0.071	0.006
-664.003	11.722	0.097	0.075
-662.989	800.000	0.049	-0.186
-661.974	105.137	-0.136	-0.162
-660.959	-200.000	0.039	0.349
-659.945	193.768	-0.209	-0.318
-658.930	314.848	-0.003	0.005
-657.916	-68.664	-0.073	0.029
-656.901	337.692	0.230	-0.449
-655.886	-18.157	0.142	-0.089
-654.872	122.172	-0.039	0.049
-653.857	-65.875	0.289	-0.116
-652.843	573.081	0.045	0.111
-651.828	-200.000	-0.014	0.078
-650.814	-46.294	-0.195	0.096
-649.799	-51.008	0.177	-0.084
-648.784	81.972	-0.084	-0.091
-647.770	692.091	-0.090	0.237
-646.755	200.757	-0.159	0.245
-645.741	339.324	-0.084	-0.164
-644.726	-200.000	0.026	-0.154
-643.711	800.000	-0.075	-0.233
-642.697	800.000	0.117	-0.486
-641.682	-46.704	0.341	0.168
-640.668	-200.000	-0.018	0.250
-639.653	435.620	0.062	0.135
-638.638	-50.423	0.185	-0.088
-637.624	482.471	-0.134	0.306
-636.609	-127.816	-0.153	0.022
-635.595	81.805	0.071	0.078
-634.580	199.787	-0.173	-0.267
-633.565	133.649	0.163	-0.212
-632.551	296.876	-0.080	-0.148
-631.536	-52.574	0.215	-0.100
-630.522	191.636	0.022	0.033
-629.507	-169.726	-0.301	0.011
-628.492	-60.169	0.244	0.105
-627.478	-66.297	-0.338	-0.135
-626.463	-45.538	0.191	-0.095
-625.449	-200.000	0.037	-0.233
-624.434	-51.953	-0.226	-0.106
-623.419	-85.852	0.075	-0.023
-622.405	800.000	0.081	-0.322
-621.390	-6.561	-0.359	-0.245
-620.376	-200.000	0.028	0.276
-619.361	-24.379	0.108	-0.064
-618.346	297.350	0.037	0.069
-617.332	-200.000	0.010	0.264
-616.317	800.000	-0.078	0.342
-615.303	-21.726	-0.429	0.262
-614.288	218.598	0.072	-0.115
-613.273	800.000	-0.080	-0.282
-612.259	-70.169	-0.103	0.039
-611.244	186.628	0.068	-0.101
-610.230	254.985	-0.086	-0.147
-609.215	-200.000	-0.038	-0.374
-608.201	-20.904	-0.117	-0.072
-607.186	800.000	0.048	0.138
-606.171	-61.872	0.248	-0.104
-605.157	800.000	-0.014	0.048
-604.142	-15.653	0.268	0.172
-603.128	-92.684	-0.268	0.075
-602.113	-142.981	0.314	-0.030
-601.098	-117.848	0.251	0.045
-600.084	-10.320	0.316	-0.210
-599.069	-65.465	-0.438	0.176
-598.055	75.975	-0.036	-0.039
-597.040	90.634	-0.141	0.159
-596.025	425.719	0.081	0.174
-595.011	-118.023	0.202	0.036
-593.996	-136.492	-0.459	-0.053
-592.982	-90.680	0.090	0.026
-591.967	31.020	0.259	-0.223
-590.952	57.907	-0.300	0.294
-589.938	-200.000	-0.030	0.317
-588.923	130.438	-0.064	-0.082
-587.909	-153.195	-0.067	0.005
-586.894	282.765	-0.075	0.135
-585.879	-200.000	-0.027	-0.446
-584.865	-98.863	-0.221	-0.056
-583.850	-33.882	-0.288	-0.159
-582.836	82.630	-0.118	-0.128
-581.821	-39.075	0.389	0.205
-580.806	166.553	-0.158	0.224
-579.792	-200.000	0.011	-0.075
-578.777	174.475	0.031	-0.044
-577.763	515.121	0.117	-0.273
-576.748	-200.000	-0.036	-0.279
-575.733	-105.530	0.092	-0.021
-574.719	294.359	-0.128	0.234
-573.704	607.352	-0.123	-0.308
-572.690	800.000	-0.015	-0.050
-571.675	63.830	0.187	0.188
-570.661	-22.177	0.169	-0.103
-569.646	-54.238	0.283	0.128
-568.631	324.320	-0.118	0.226
-567.617	3.385	-0.141	-0.103
-566.602	80.168	-0.208	-0.224
-565.588	-200.000	-0.022	0.138
-564.573	56.704	-0.249	-0.243
-563.558	-90.795	0.206	-0.059
-562.544	-8.397	-0.090	0.060
-561.529	-200.000	0.002	0.083
-560.515	-127.449	-0.161	-0.023
-559.500	-200.000	-0.052	-0.321
-558.485	228.335	-0.073	-0.119
-557.471	233.178	-0.106	0.174
-556.456	-10.160	0.071	0.047
-555.442	800.000	-0.036	-0.152
-554.427	-200.000	0.009	0.105
-553.412	-200.000	0.044	0.307
-552.398	-200.000	-0.022	0.103
-551.383	-191.038	0.350	0.004
-550.369	-117.995	-0.058	0.010
-549.354	-200.000	0.005	0.115
-548.339	160.817	-0.085	-0.118
-547.325	151.610	0.279	-0.381
-546.310	-200.000	0.006	-0.073
-545.296	-200.000	-0.056	0.339
-544.281	-200.000	-0.062	-0.337
-543.266	518.246	0.029	0.068
-542.252	116.044	-0.069	-0.085
-541.237	1.877	0.187	-0.134
-540.223	-200.000	0.003	-0.047
-539.208	-200.000	0.060	0.283
-538.193	54.235	-0.041	-0.040
-537.179	-48.981	-0.111	-0.053
-536.164	-200.000	-0.021	0.112
-535.150	-164.714	-0.245	-0.011
-534.135	-90.339	-0.240	-0.070
-533.121	388.067	-0.121	-0.249
-532.106	800.000	-0.024	0.069
-531.091	-29.725	-0.235	0.134
-530.077	-200.000	-0.028	-0.277
-529.062	-14.042	0.259	-0.167
-528.048	-140.066	-0.076	-0.008
-527.033	-94.431	-0.264	0.072
-526.018	471.542	-0.132	-0.296
-525.004	-79.056	0.201	0.068
-523.989	299.998	0.161	-0.296
-522.975	176.379	0.148	0.214
-521.960	-28.277	-0.084	0.048
-520.945	-200.000	0.038	-0.251
-519.931	101.521	-0.117	-0.136
-518.916	-100.338	-0.112	0.028
-517.902	-200.000	-0.039	0.217
-516.887	-200.000	0.029	-0.348
-515.872	-192.259	-0.243	-0.002
-514.858	113.073	-0.171	-0.208
-513.843	800.000	0.098	-0.323
-512.829	11.849	-0.200	-0.154
-511.814	-29.260	0.020	0.011
-510.799	-200.000	0.050	0.273
-509.785	67.814	-0.110	-0.113
-508.770	170.798	-0.197	-0.282
-507.756	-18.080	-0.205	-0.128
-506.741	-121.531	0.114	0.019
-505.726	-200.000	0.023	0.239
-504.712	-200.000	0.044	0.208
-503.697	-137.279	0.177	-0.020
-502.683	-66.889	-0.253	0.100
-501.668	10.061	0.097	0.074
-500.653	28.275	0.281	0.237
-499.639	-200.000	-0.004	-0.290
-498.624	-200.000	-0.019	-0.242
-497.610	-114.816	-0.117	0.022
-496.595	-123.853	-0.370	-0.058
-495.581	414.906	0.071	0.152
-494.566	45.870	-0.195	-0.180
-493.551	700.992	-0.082	0.215
-492.537	177.806	-0.088	-0.128
-491.522	273.832	0.080	-0.142
-490.508	410.037	-0.132	-0.279
-489.493	430.925	0.154	-0.333
-488.478	22.426	-0.065	0.053
-487.464	219.790	0.069	0.110
-486.449	-81.669	-0.146	-0.048
-485.435	-119.550	0.060	0.010
-484.420	-190.899	-0.191	-0.002
-483.405	-79.032	0.115	0.039
-482.391	139.453	-0.168	-0.221
-481.376	-7.895	0.146	-0.098
-480.362	-128.200	-0.412	-0.059
-479.347	-200.000	-0.035	-0.207
-478.332	-200.000	-0.009	-0.052
-477.318	-94.587	-0.083	0.022
-476.303	23.718	0.275	0.225
-475.289	225.694	-0.191	-0.309
-474.274	59.096	0.092	0.090
-473.259	-76.339	0.195	-0.068
-472.245	-163.871	-0.205	-0.010
-471.230	-200.000	0.049	0.223
-470.216	-200.000	-0.021	-0.157
-469.201	80.252	0.160	0.172
-468.186	-60.738	-0.470	-0.199
-467.172	-123.468	-0.283	0.045
-466.157	-200.000	0.061	0.344
-465.143	-126.804	0.184	-0.027
-464.128	-119.178	0.229	0.040
-463.113	178.985	0.222	0.324
-462.099	-200.000	0.012	0.059
-461.084	69.755	0.182	0.187
-460.070	-51.109	-0.430	0.201
-459.055	-200.000	0.006	0.030
-458.040	432.034	0.030	0.064
-457.026	800.000	-0.034	0.124
-456.011	-59.465	0.247	-0.106
-454.997	-30.419	0.105	-0.059
-453.982	566.123	0.098	0.237
-452.968	-156.517	-0.126	0.008
-451.953	242.929	0.052	-0.086
-450.938	-200.000	-0.014	-0.198
-449.924	-135.233	0.241	-0.029
-448.909	180.574	-0.138	0.202
-447.895	207.668	-0.106	-0.165
-446.880	-8.320	0.079	0.053
-445.865	-34.240	0.209	0.114
-444.851	-169.612	0.211	-0.008
-443.836	-200.000	0.003	-0.070
-442.822	91.355	0.090	-0.100
-441.807	97.357	-0.108	0.124
-440.792	-89.404	0.364	0.107
-439.778	-153.186	-0.263	0.018
-438.763	-46.708	0.162	0.079
-437.749	-119.584	0.470	0.081
-436.734	800.000	-0.026	-0.089
-435.719	-123.281	-0.243	-0.039
-434.705	-41.910	0.190	-0.097
-433.690	-200.000	0.007	-0.313
-432.676	-200.000	0.039	-0.189
-431.661	60.090	-0.031	-0.030
-430.646	800.000	-0.139	-0.485
-429.632	3.647	0.275	0.200
-428.617	800.000	0.101	-0.308
-427.603	-88.544	0.365	-0.108
-426.588	218.006	0.034	0.054
-425.573	-200.000	0.012	-0.364
-424.559	-76.564	-0.451	0.157
-423.544	-110.449	-0.168	0.035
-422.530	-179.442	0.065	-0.001
-421.515	-139.231	0.246	-0.026
-420.500	-53.300	-0.073	0.033
-419.486	800.000	0.091	-0.375
-418.471	-56.449	0.094	-0.041
-417.457	-117.730	0.192	-0.034
-416.442	-23.872	0.309	-0.184
-415.428	478.331	-0.150	-0.338
-414.413	-51.266	-0.221	-0.103
-413.398	464.627	-0.178	0.395
-412.384	-200.000	-0.014	0.167
-411.369	315.786	-0.012	-0.023
-410.355	346.085	0.138	0.270
-409.340	722.039	0.043	0.114
-408.325	119.514	0.219	-0.270
-407.311	-79.917	0.185	-0.062
-406.296	-111.479	0.121	-0.025
-405.282	-200.000	-0.066	0.354
-404.267	157.801	0.119	0.164
-403.252	-167.162	0.344	-0.014
-402.238	-156.767	-0.072	-0.004
-401.223	24.774	-0.137	-0.113
-400.209	-200.000	0.017	0.182
-399.194	133.461	0.213	0.273
-398.179	71.638	-0.061	-0.063
-397.165	-143.695	-0.383	-0.036
-396.150	-99.558	-0.251	0.063
-395.136	-75.647	0.099	0.035
-394.121	285.506	0.226	-0.405
-393.106	-87.783	-0.183	0.055
-392.092	-96.676	-0.140	-0.037
-391.077	-200.000	0.029	0.242
-390.063	-54.683	-0.395	-0.177
-389.048	156.534	0.142	0.195
-388.033	-200.000	-0.042	0.304
-387.019	68.159	0.147	-0.150
-386.004	800.000	-0.081	-0.344
-384.990	-164.639	-0.239	-0.011
-383.975	800.000	0.093	-0.377
-382.960	800.000	0.072	0.209
-381.946	-36.767	-0.272	-0.145
-380.931	-200.000	-0.016	0.089
-379.917	-28.318	-0.196	-0.112
-378.902	-124.262	0.109	0.017
-377.888	-120.867	-0.096	0.016
-376.873	140.143	-0.106	-0.138
-375.858	73.342	0.312	0.324
-374.844	795.531	-0.038	-0.103
-373.829	800.000	-0.092	0.329
-372.815	800.000	-0.059	-0.165
-371.800	-200.000	0.026	0.119
-370.785	-22.922	0.150	-0.090
-369.771	-49.285	0.209	-0.099
-368.756	-146.161	-0.203	-0.018
-367.742	-5.915	0.126	0.086
-366.727	-66.864	-0.150	0.059
-365.712	115.106	-0.235	0.285
-364.698	676.603	0.134	0.345
-363.683	324.645	0.115	0.219
-362.669	-200.000	-0.015	0.087
-361.654	800.000	0.086	-0.340
-360.639	-110.871	-0.180	-0.037
-359.625	15.540	0.219	0.170
-358.610	-106.386	0.210	-0.047
-357.596	-172.524	-0.121	-0.004
-356.581	91.004	0.085	-0.095
-355.566	-200.000	0.003	0.107
-354.552	-1.768	0.175	0.122
-353.537	800.000	0.104	-0.297
-352.523	112.220	-0.163	-0.196
-351.508	171.613	0.325	0.464
-350.493	-103.528	-0.064	-0.015
-349.479	-58.926	-0.216	-0.093
-348.464	-10.987	-0.249	0.163
-347.450	263.029	0.131	-0.225
-346.435	25.886	0.254	-0.210
-345.420	354.083	0.073	0.143
-344.406	-200.000	0.007	-0.078
-343.391	288.079	0.038	0.068
-342.377	522.338	-0.047	0.110
-341.362	508.466	0.036	0.084
-340.348	-85.464	0.028	0.009
-339.333	800.000	-0.024	-0.102
-338.318	-73.509	0.303	-0.110
-337.304	539.475	-0.074	0.175
-336.289	-45.261	0.021	0.010
-335.275	-91.278	-0.297	0.084
-334.260	240.524	-0.059	-0.098
-333.245	-61.851	0.408	0.169
-332.231	-200.000	0.001	-0.111
-331.216	38.658	-0.078	0.069
-330.202	-127.678	0.122	-0.017
-329.187	-200.000	-0.087	0.452
-328.172	-114.959	0.140	0.026
-327.158	93.741	-0.235	-0.264
-326.143	4.049	0.137	-0.099
-325.129	562.314	-0.059	-0.142
-324.114	-200.000	-0.017	0.237
-323.099	14.232	0.124	0.095
-322.085	156.966	0.266	0.364
-321.070	4.439	0.339	0.247
-320.056	-62.175	-0.194	0.080
-319.041	800.000	0.017	0.060
-318.026	-200.000	-0.056	0.273
-317.012	-133.881	-0.262	-0.032
-315.997	7.600	0.076	0.056
-314.983	800.000	0.069	0.244
-313.968	24.716	-0.066	-0.055
-312.953	26.695	0.436	-0.362
-311.939	-4.172	-0.165	0.113
-310.924	108.868	-0.121	-0.143
-309.910	800.000	0.079	-0.280
-308.895	800.000	-0.044	0.173
-307.880	800.000	-0.029	-0.120
-306.866	-81.370	-0.070	0.023
-305.851	-200.000	-0.031	0.146
-304.837	-78.487	-0.436	-0.148
-303.822	93.079	-0.121	0.136
-302.807	142.087	0.134	0.176
-301.793	-131.061	-0.159	0.021
-300.778	74.154	-0.173	-0.180
-299.764	-200.000	0.040	0.208
-298.749	800.000	0.087	0.298
-297.735	-175.262	0.160	-0.004
-296.720	116.427	0.196	0.238
-295.705	-162.540	0.156	-0.008
-294.691	-200.000	0.049	0.258
-293.676	-95.676	-0.280	0.074
-292.662	102.747	0.174	-0.202
-291.647	-164.137	0.170	0.008
-290.632	59.269	-0.087	0.084
-289.618	77.468	0.165	-0.173
-288.603	-53.117	0.197	0.090
-287.589	-200.000	-0.009	0.172
-286.574	-200.000	-0.021	0.209
-285.559	54.773	0.111	0.106
-284.545	-146.942	0.163	0.014
-283.530	-97.003	-0.262	0.068
-282.516	-176.822	0.032	0.001
-281.501	94.519	0.296	0.333
-280.486	-200.000	-0.008	0.073
-279.472	256.694	0.071	-0.121
-278.457	-16.981	-0.274	0.171
-277.443	196.413	0.079	0.120
-276.428	489.022	0.057	0.129
-275.413	-95.945	0.257	0.068
-274.399	148.280	0.073	-0.097
-273.384	7.813	-0.188	-0.139
-272.370	-200.000	0.015	-0.319
-271.355	261.938	-0.051	-0.087
-270.340	376.181	-0.019	-0.038
-269.326	-81.973	0.072	0.023
-268.311	-36.730	0.200	-0.106
-267.297	-200.000	0.034	-0.251
-266.282	45.509	0.204	0.186
-265.267	190.977	-0.081	-0.120
-264.253	135.711	0.034	-0.044
-263.238	-33.480	-0.252	0.138
-262.224	435.449	0.131	0.282
-261.209	56.349	-0.142	0.136
-260.195	-22.700	0.188	0.112
-259.180	125.480	-0.113	-0.141
-258.165	71.514	-0.191	0.196
-257.151	-200.000	0.060	0.516
-256.136	-200.000	-0.030	0.259
-255.122	-200.000	0.003	0.148
-254.107	38.575	0.165	0.145
-253.092	3.552	-0.137	0.099
-252.078	-136.567	0.230	0.026
-251.063	374.268	-0.119	0.240
-250.049	13.693	0.083	0.064
-249.034	108.177	-0.127	0.149
-248.019	-46.557	0.091	-0.044
-247.005	-36.344	0.179	0.095
-245.990	714.340	0.108	-0.283
-244.976	-13.564	-0.222	-0.142
-243.961	-139.951	-0.440	0.046
-242.946	447.736	-0.019	-0.042
-241.932	-89.969	0.304	0.088
-240.917	-95.434	0.227	0.060
-239.903	-16.298	-0.052	0.033
-238.888	-39.737	0.151	-0.078
-237.873	89.995	0.087	-0.096
-236.859	-200.000	-0.008	0.182
-235.844	800.000	0.108	0.402
-234.830	-5.388	-0.131	0.089
-233.815	73.881	-0.184	0.190
-232.800	-95.207	-0.227	-0.060
-231.786	-85.366	-0.024	-0.008
-230.771	-33.294	-0.418	0.229
-229.757	-200.000	-0.056	-0.413
-228.742	-153.097	-0.155	-0.011
-227.727	-120.946	-0.198	-0.033
-226.713	201.400	0.173	0.264
-225.698	-160.079	0.104	-0.006
-224.684	-200.000	0.029	-0.163
-223.669	-63.724	-0.210	0.085
-222.655	441.908	-0.052	-0.113
-221.640	80.582	0.129	0.137
-220.625	57.860	-0.124	0.119
-219.611	800.000	0.049	-0.172
-218.596	-132.595	0.338	0.043
-217.582	-33.893	-0.187	-0.102
-216.567	187.184	0.139	-0.204
-215.552	654.437	0.151	0.383
-214.538	41.891	0.072	-0.064
-213.523	144.254	0.217	-0.286
-212.509	182.882	-0.230	0.335
-211.494	-106.085	0.267	-0.059
-210.479	-11.045	0.503	0.328
-209.465	-39.711	-0.333	-0.172
-208.450	-156.125	0.073	-0.005
-207.436	-140.168	0.090	-0.009
-206.421	101.725	-0.205	0.235
-205.406	-90.170	-0.131	-0.038
-204.392	340.631	0.205	-0.394
-203.377	-200.000	-0.003	0.086
-202.363	-17.233	-0.322	-0.200
-201.348	179.842	0.021	-0.031
-200.333	-70.597	0.119	0.044
-199.319	-9.541	-0.281	-0.185
-198.304	-98.939	-0.099	-0.025
-197.290	-120.843	0.034	-0.006
-196.275	115.097	-0.115	0.138
-195.260	-142.109	0.287	-0.028
-194.246	800.000	-0.152	0.463
-193.231	172.790	-0.136	0.193
-192.217	69.707	-0.052	0.053
-191.202	146.969	0.175	0.232
-190.187	13.268	-0.208	0.159
-189.173	-72.589	-0.160	0.058
-188.158	147.816	-0.211	-0.281
-187.144	-200.000	-0.018	0.087
-186.129	-36.211	-0.269	0.143
-185.114	-123.193	0.232	0.037
-184.100	173.680	0.076	0.107
-183.085	-200.000	0.048	-0.367
-182.071	688.795	0.090	-0.231
-181.056	41.489	0.049	0.044
-180.042	166.428	-0.203	-0.283
-179.027	-200.000	0.036	0.238
-178.012	-75.659	-0.298	-0.104
-176.998	179.045	0.045	0.065
-175.983	20.959	0.142	-0.113
-174.969	81.899	-0.175	-0.187
-173.954	-63.890	-0.229	0.093
-172.939	-78.910	0.261	-0.087
-171.925	296.947	0.032	0.057
-170.910	421.530	0.172	-0.364
-169.896	-50.427	-0.274	-0.128
-168.881	-151.421	-0.323	-0.024
-167.866	-114.451	0.227	0.043
-166.852	-19.623	0.153	-0.093
-165.837	-52.882	-0.158	0.072
-164.823	800.000	-0.099	0.371
-163.808	800.000	0.081	-0.233
-162.793	-200.000	-0.020	-0.338
-161.779	50.775	0.337	-0.314
-160.764	800.000	-0.062	0.212
-159.750	800.000	0.096	-0.324
-158.735	-118.331	0.346	-0.060
-157.720	44.731	0.134	-0.121
-156.706	-87.962	0.234	0.069
-155.691	-168.510	0.207	0.008
-154.677	-83.158	-0.109	0.035
-153.662	-97.802	0.127	0.032
-152.647	345.538	-0.106	-0.205
-151.633	634.447	0.054	0.135
-150.618	-138.195	-0.236	0.026
-149.604	731.349	-0.028	0.074
-148.589	800.000	-0.051	-0.166
-147.574	39.260	0.356	0.314
-146.560	-147.270	-0.306	-0.026
-145.545	800.000	0.092	0.346
-144.531	-144.927	-0.530	0.048
-143.516	190.594	-0.091	-0.134
-142.502	199.615	-0.043	0.064
-141.487	-53.654	-0.296	-0.133
-140.472	-128.275	0.143	-0.020
-139.458	-140.233	-0.169	0.017
-138.443	-115.036	-0.284	0.053
-137.429	-200.000	0.086	0.467
-136.414	-33.286	-0.315	0.171
-135.399	-114.513	0.169	0.032
-134.385	-26.304	-0.304	-0.176
-133.370	-47.062	-0.279	0.134
-132.356	-200.000	-0.043	-0.230
-131.341	76.439	-0.100	0.105
-130.326	-200.000	-0.008	0.035
-129.312	287.788	0.082	0.146
-128.297	45.963	-0.249	0.227
-127.283	285.602	0.066	0.117
-126.268	-200.000	-0.004	-0.392
-125.253	-82.206	-0.248	-0.079
-124.239	-185.291	-0.250	-0.004
-123.224	-55.091	0.274	-0.121
-122.210	-101.806	0.281	-0.067
-121.195	93.956	-0.122	0.136
