DTS Sentinel unit serial number:	SN413079Multiplexer serial number:	ORYXHardware model number:	OX4-SRSoftware version number:	ORYX F/W v4.00 Oryx Data Collector v3.7.2.0data status	okinstallation	princeton_trtdifferential loss correction	single-endedforward channel	channel 3reverse channel	N/Adate	2019/09/17time	10:24:35forward acquisition time	60.00reverse acquisition time	0.00gamma	496.2192k internal	0.2323k external	0.2323temperature offset calibration	0.9944default loss term (dB/km)	0.3790temperature slope calibration	1.0000multiplexer offset coefficient	1.0000multiplexer slope coefficient	1.0000fibre end	0.00T internal ref (°C)	29.94T ext. ref 1 (°C)	0.17T ext. ref 2 (°C)	25.51length (m)	temperature (°C)	Stokes	anti-Stokes-747.200	-200.000	0.005	0.364
-746.185	38.595	0.198	-0.179
-745.171	-200.000	-0.037	-0.218
-744.156	-33.610	-0.192	0.107
-743.142	-46.747	0.228	-0.113
-742.127	-131.667	0.157	-0.021
-741.112	46.895	0.135	-0.127
-740.098	-200.000	0.022	0.308
-739.083	800.000	-0.050	-0.198
-738.069	-200.000	-0.033	-0.284
-737.054	-182.879	-0.314	0.006
-736.039	-200.000	0.002	0.048
-735.025	-46.624	0.294	0.146
-734.010	288.285	-0.122	0.223
-732.996	74.316	-0.037	-0.039
-731.981	189.565	0.058	0.088
-730.966	77.350	0.035	-0.037
-729.952	310.753	0.175	0.331
-728.937	86.663	-0.193	0.215
-727.923	-38.764	-0.405	-0.216
-726.908	232.404	-0.138	0.228
-725.894	-200.000	0.003	-0.076
-724.879	330.051	-0.037	-0.073
-723.864	250.966	-0.183	-0.313
-722.850	-200.000	-0.030	-0.198
-721.835	-13.015	0.078	-0.051
-720.821	-71.788	-0.119	-0.045
-719.806	-63.102	0.134	0.056
-718.791	-172.010	0.351	0.011
-717.777	23.467	0.230	-0.191
-716.762	-99.996	-0.090	0.023
-715.748	393.516	0.099	0.209
-714.733	-200.000	-0.003	-0.132
-713.718	282.609	0.022	0.040
-712.704	-61.545	0.083	0.035
-711.689	-26.276	-0.261	0.154
-710.675	-128.226	0.516	-0.074
-709.660	336.666	-0.118	-0.231
-708.645	225.876	-0.125	0.204
-707.631	-11.251	0.223	0.148
-706.616	800.000	-0.054	-0.153
-705.602	-146.770	0.205	-0.018
-704.587	118.454	-0.086	0.106
-703.572	-200.000	0.036	-0.420
-702.558	30.648	-0.210	-0.181
-701.543	-156.306	0.102	0.006
-700.529	-47.490	-0.070	-0.034
-699.514	800.000	0.108	0.389
-698.499	800.000	0.042	-0.174
-697.485	55.948	0.211	-0.206
-696.470	406.246	-0.091	-0.194
-695.456	-200.000	-0.004	0.089
-694.441	7.691	0.240	-0.181
-693.426	-63.641	0.227	0.094
-692.412	77.142	-0.075	0.080
-691.397	-41.972	-0.342	-0.177
-690.383	105.126	0.228	0.271
-689.368	332.908	0.065	0.127
-688.354	-200.000	0.000	0.096
-687.339	-110.075	0.115	0.024
-686.324	-119.820	-0.100	0.017
-685.310	-96.388	0.156	0.041
-684.295	-200.000	0.002	-0.270
-683.281	-200.000	0.002	0.045
-682.266	-1.246	0.077	0.055
-681.251	-118.570	-0.275	-0.049
-680.237	-200.000	0.021	-0.156
-679.222	-200.000	-0.016	0.134
-678.208	-160.032	0.269	-0.015
-677.193	-200.000	0.008	0.046
-676.178	36.549	0.111	0.099
-675.164	235.213	-0.198	-0.330
-674.149	-124.017	-0.346	0.055
-673.135	655.413	0.103	-0.267
-672.120	-67.649	-0.140	0.055
-671.105	800.000	-0.028	0.084
-670.091	25.884	0.114	-0.095
-669.076	33.941	0.175	-0.154
-668.062	800.000	-0.053	0.161
-667.047	294.296	-0.080	-0.147
-666.032	800.000	0.006	-0.019
-665.018	800.000	-0.101	-0.307
-664.003	-200.000	-0.010	0.133
-662.989	503.275	0.095	0.221
-661.974	800.000	-0.112	-0.405
-660.959	-200.000	-0.019	0.213
-659.945	800.000	-0.170	-0.508
-658.930	18.931	0.247	-0.200
-657.916	-74.797	0.141	0.051
-656.901	11.722	-0.198	0.153
-655.886	71.741	-0.090	0.094
-654.872	-200.000	-0.038	0.372
-653.857	-200.000	-0.002	-0.018
-652.843	-42.244	0.164	0.084
-651.828	-101.053	-0.326	-0.081
-650.814	-114.194	-0.165	0.032
-649.799	-39.920	0.257	0.135
-648.784	118.486	-0.181	-0.224
-647.770	-22.009	-0.297	-0.182
-646.755	123.595	0.134	-0.169
-645.741	-129.291	0.417	0.058
-644.726	-107.134	0.088	0.020
-643.711	-10.205	0.299	-0.200
-642.697	267.457	0.221	-0.389
-641.682	-200.000	0.027	0.331
-640.668	-149.533	0.245	0.020
-639.653	-83.827	0.099	-0.032
-638.638	800.000	-0.025	0.087
-637.624	-50.637	0.106	-0.050
-636.609	-34.719	-0.272	-0.150
-635.595	-122.415	0.165	-0.027
-634.580	-152.440	-0.098	0.007
-633.565	127.868	-0.057	-0.073
-632.551	-14.910	0.183	-0.118
-631.536	800.000	0.040	0.158
-630.522	693.510	-0.074	-0.196
-629.507	-85.955	-0.206	-0.064
-628.492	-65.470	0.103	-0.042
-627.478	24.414	-0.143	0.119
-626.463	800.000	-0.065	-0.249
-625.449	-4.591	0.248	-0.172
-624.434	475.425	-0.040	0.091
-623.419	800.000	0.055	-0.192
-622.405	-200.000	-0.072	0.000
-621.390	310.829	0.110	0.206
-620.376	-200.000	-0.014	-0.144
-619.361	-157.892	-0.051	0.003
-618.346	800.000	0.024	-0.103
-617.332	-200.000	-0.026	-0.240
-616.317	21.256	-0.188	0.153
-615.303	0.635	-0.090	0.065
-614.288	46.828	-0.263	0.246
-613.273	-200.000	-0.084	-0.499
-612.259	-200.000	-0.006	-0.501
-611.244	92.641	-0.059	-0.067
-610.230	193.856	0.145	-0.220
-609.215	161.793	0.143	-0.201
-608.201	522.176	-0.136	0.320
-607.186	144.202	-0.154	0.207
-606.171	17.714	-0.249	-0.199
-605.157	-200.000	0.091	-0.440
-604.142	-200.000	0.042	0.245
-603.128	800.000	-0.042	0.141
-602.113	-149.250	-0.216	0.017
-601.098	-200.000	-0.013	-0.086
-600.084	-151.886	0.193	0.014
-599.069	-107.784	0.354	0.078
-598.055	800.000	0.062	0.180
-597.040	72.638	-0.249	0.261
-596.025	-200.000	-0.069	-0.334
-595.011	263.022	0.039	0.067
-593.996	800.000	-0.036	0.117
-592.982	-57.768	-0.145	-0.064
-591.967	-200.000	-0.015	0.222
-590.952	-167.716	-0.166	-0.007
-589.938	153.704	-0.102	0.140
-588.923	-200.000	0.010	-0.116
-587.909	-200.000	0.023	0.247
-586.894	-200.000	0.007	-0.064
-585.879	-151.879	0.427	0.031
-584.865	-200.000	-0.073	-0.440
-583.850	77.764	0.064	-0.068
-582.836	-200.000	0.054	0.335
-581.821	-30.941	-0.066	-0.038
-580.806	-90.373	-0.556	-0.162
-579.792	800.000	-0.046	-0.174
-578.777	335.570	-0.117	0.227
-577.763	-200.000	-0.021	0.113
-576.748	-8.557	0.135	-0.091
-575.733	-35.386	-0.299	-0.163
-574.719	-125.551	-0.303	-0.046
-573.704	-88.341	0.109	-0.033
-572.690	180.425	-0.247	-0.364
-571.675	-108.335	0.414	0.090
-570.661	76.058	-0.237	0.251
-569.646	245.014	0.040	-0.067
-568.631	-124.999	0.278	-0.043
-567.617	250.012	-0.100	-0.170
-566.602	156.520	0.167	-0.232
-565.588	800.000	-0.102	-0.340
-564.573	16.011	-0.080	0.063
-563.558	92.665	-0.093	0.105
-562.544	-14.684	-0.078	-0.050
-561.529	43.910	-0.049	0.045
-560.515	-100.385	-0.314	-0.078
-559.500	-147.255	-0.290	0.025
-558.485	-200.000	-0.063	0.468
-557.471	-200.000	0.040	0.189
-556.456	-200.000	-0.109	0.001
-555.442	417.630	-0.114	-0.245
-554.427	87.017	-0.102	-0.113
-553.412	-38.600	-0.206	0.109
-552.398	100.829	0.260	-0.303
-551.383	34.181	-0.171	-0.150
-550.369	-148.506	-0.296	0.024
-549.354	800.000	-0.047	-0.185
-548.339	-87.712	0.326	0.098
-547.325	-200.000	0.009	-0.113
-546.310	-0.144	-0.031	-0.022
-545.296	-39.862	0.084	0.044
-544.281	-78.423	-0.104	-0.036
-543.266	-200.000	0.083	-0.467
-542.252	-8.741	-0.277	-0.187
-541.237	217.161	-0.178	0.284
-540.223	207.715	0.272	0.425
-539.208	-90.918	0.315	-0.091
-538.193	27.645	0.194	0.164
-537.179	-200.000	0.019	0.170
-536.164	-25.758	-0.069	-0.040
-535.150	-93.737	0.111	0.031
-534.135	-78.779	-0.075	0.026
-533.121	-145.951	-0.113	0.010
-532.106	17.662	0.134	-0.106
-531.091	444.789	-0.055	-0.120
-530.077	800.000	-0.023	0.070
-529.062	-200.000	-0.048	0.261
-528.048	-35.223	0.139	-0.076
-527.033	553.177	-0.140	-0.337
-526.018	478.032	0.092	0.208
-525.004	383.898	-0.167	0.343
-523.989	74.501	-0.169	0.178
-522.975	585.408	0.063	0.156
-521.960	388.631	0.052	-0.109
-520.945	-138.463	0.387	0.043
-519.931	119.146	0.077	0.096
-518.916	-99.988	-0.239	-0.060
-517.902	288.701	0.066	0.119
-516.887	80.933	-0.134	0.145
-515.872	800.000	-0.065	0.280
-514.858	55.646	-0.189	-0.183
-513.843	-61.838	0.133	-0.056
-512.829	51.302	0.183	-0.174
-511.814	800.000	0.063	0.194
-510.799	78.875	-0.093	0.099
-509.785	-159.763	0.171	-0.009
-508.770	170.862	0.034	-0.049
-507.756	109.219	0.119	0.143
-506.741	800.000	-0.085	0.333
-505.726	-198.858	-0.123	-0.001
-504.712	-24.318	0.386	-0.230
-503.697	138.406	-0.223	-0.293
-502.683	93.872	-0.049	-0.056
-501.668	662.951	-0.084	-0.217
-500.653	-25.739	-0.209	-0.123
-499.639	149.144	-0.119	-0.161
-498.624	800.000	0.028	0.085
-497.610	28.856	-0.144	0.122
-496.595	84.342	0.044	0.048
-495.581	800.000	0.100	0.433
-494.566	138.049	-0.104	0.137
-493.551	64.009	-0.203	0.204
-492.537	-117.065	0.324	0.059
-491.522	-116.712	0.179	0.033
-490.508	-200.000	0.004	0.216
-489.493	-200.000	0.048	-0.243
-488.478	-55.394	0.120	0.054
-487.464	-136.077	-0.408	-0.048
-486.449	397.001	-0.070	0.147
-485.435	-94.782	0.260	-0.071
-484.420	65.466	-0.407	-0.411
-483.405	-200.000	0.005	-0.377
-482.391	-109.341	0.170	-0.036
-481.376	153.565	0.105	-0.144
-480.362	-116.064	0.120	-0.022
-479.347	175.198	-0.210	-0.305
-478.332	-134.562	0.127	0.016
-477.318	-59.603	-0.156	-0.067
-476.303	471.369	-0.066	0.149
-475.289	585.473	-0.089	-0.218
-474.274	319.117	-0.050	0.095
-473.259	-0.138	-0.046	0.033
-472.245	130.912	-0.045	-0.058
-471.230	-200.000	-0.044	-0.381
-470.216	-138.001	0.211	0.024
-469.201	-118.143	0.313	0.056
-468.186	-46.197	-0.340	0.167
-467.172	-78.431	0.125	0.043
-466.157	-152.604	-0.288	-0.021
-465.143	665.088	0.053	0.136
-464.128	-5.133	0.046	0.031
-463.113	-67.529	0.119	0.047
-462.099	-61.012	0.200	-0.084
-461.084	210.932	-0.147	0.231
-460.070	71.096	0.066	0.068
-459.055	-48.405	-0.331	-0.159
-458.040	59.539	-0.035	0.035
-457.026	-100.444	0.195	-0.048
-456.011	-200.000	0.006	0.095
-454.997	18.512	-0.206	-0.164
-453.982	464.108	0.066	0.148
-452.968	226.683	0.011	-0.019
-451.953	25.231	-0.062	-0.052
-450.938	-109.504	0.067	0.014
-449.924	75.404	-0.120	0.127
-448.909	8.753	0.277	-0.209
-447.895	-132.009	-0.296	0.039
-446.880	-200.000	0.001	0.259
-445.865	199.272	-0.175	0.267
-444.851	728.516	0.103	0.274
-443.836	-200.000	0.127	0.663
-442.822	259.688	-0.090	0.156
-441.807	-45.540	-0.406	-0.201
-440.792	0.075	0.268	-0.191
-439.778	-200.000	0.039	0.334
-438.763	374.990	0.127	-0.258
-437.749	-44.908	0.522	0.260
-436.734	-65.592	-0.091	0.037
-435.719	-35.535	0.189	-0.102
-434.705	25.214	-0.033	-0.027
-433.690	-200.000	0.028	-0.250
-432.676	8.943	0.255	0.192
-431.661	-133.477	0.067	-0.008
-430.646	102.025	-0.174	-0.203
-429.632	800.000	0.051	0.143
-428.617	-164.118	-0.735	-0.034
-427.603	10.591	-0.137	-0.104
-426.588	-109.209	0.144	-0.031
-425.573	287.622	0.070	0.127
-424.559	-200.000	0.001	0.165
-423.544	235.928	0.134	0.221
-422.530	-200.000	-0.040	0.189
-421.515	-99.173	-0.061	-0.016
-420.500	-83.612	-0.079	0.025
-419.486	202.088	-0.241	-0.371
-418.471	199.321	-0.079	-0.122
-417.457	432.622	-0.007	0.014
-416.442	37.001	0.325	-0.286
-415.428	-200.000	0.000	-0.152
-414.413	238.417	0.061	0.100
-413.398	21.200	-0.035	0.028
-412.384	-200.000	0.007	-0.041
-411.369	74.919	0.166	-0.174
-410.355	-80.547	-0.223	0.074
-409.340	-101.062	-0.185	-0.045
-408.325	800.000	0.048	-0.156
-407.311	281.590	0.152	0.271
-406.296	800.000	0.075	-0.275
-405.282	-26.018	0.200	-0.117
-404.267	800.000	-0.078	-0.246
-403.252	694.342	0.065	0.171
-402.238	-181.313	-0.048	0.001
-401.223	-25.244	0.108	0.064
-400.209	800.000	0.096	0.315
-399.194	92.753	0.109	-0.123
-398.179	-167.670	-0.268	0.011
-397.165	411.352	-0.052	0.110
-396.150	364.267	0.054	0.108
-395.136	15.650	-0.224	0.176
-394.121	-139.190	0.064	-0.007
-393.106	-68.208	-0.371	0.144
-392.092	-31.641	0.373	-0.208
-391.077	-200.000	-0.038	-0.254
-390.063	-26.002	-0.155	-0.091
-389.048	-200.000	-0.001	-0.168
-388.033	72.412	0.202	0.210
-387.019	101.007	-0.087	0.101
-386.004	800.000	-0.079	-0.255
-384.990	-110.818	0.152	0.031
-383.975	-143.505	0.130	0.012
-382.960	-200.000	0.030	-0.144
-381.946	479.224	0.139	0.313
-380.931	142.443	0.207	0.273
-379.917	-27.772	0.163	0.094
-378.902	800.000	-0.090	-0.337
-377.888	79.529	0.102	0.109
-376.873	-62.213	-0.025	0.010
-375.858	-200.000	0.028	-0.368
-374.844	537.392	0.171	-0.405
-373.829	-200.000	0.069	0.303
-372.815	9.074	0.261	0.196
-371.800	-200.000	-0.015	-0.288
-370.785	-200.000	0.028	-0.526
-369.771	-17.162	0.213	-0.134
-368.756	38.534	-0.185	0.165
-367.742	-200.000	0.018	-0.214
-366.727	-200.000	0.014	-0.143
-365.712	-99.141	-0.253	0.064
-364.698	215.386	0.023	-0.036
-363.683	800.000	-0.107	0.462
-362.669	800.000	0.073	-0.208
-361.654	55.326	0.095	0.091
-360.639	-200.000	0.024	0.212
-359.625	-122.064	-0.273	0.045
-358.610	-36.106	-0.246	-0.132
-357.596	-200.000	-0.000	-0.183
-356.581	-124.465	0.129	0.020
-355.566	370.843	-0.012	0.024
-354.552	-45.069	-0.204	-0.101
-353.537	185.991	0.050	-0.074
-352.523	-95.475	0.201	0.054
-351.508	-79.684	-0.241	-0.081
-350.493	-4.967	-0.439	0.301
-349.479	-200.000	0.014	0.407
-348.464	49.277	0.115	0.107
-347.450	-200.000	-0.013	-0.143
-346.435	53.214	0.076	0.072
-345.420	-127.205	0.314	0.046
-344.406	496.182	0.014	-0.032
-343.391	199.782	0.071	0.108
-342.377	298.853	0.120	-0.220
-341.362	379.794	0.174	-0.355
-340.348	375.490	-0.051	0.103
-339.333	-98.834	0.264	-0.067
-338.318	377.489	0.136	0.277
-337.304	61.890	-0.169	-0.167
-336.289	-200.000	-0.009	0.178
-335.275	-178.498	-0.067	0.002
-334.260	-137.138	-0.204	-0.023
-333.245	-43.189	0.106	-0.054
-332.231	236.108	0.061	-0.101
-331.216	-13.771	-0.130	0.084
-330.202	-123.335	0.305	-0.048
-329.187	37.394	-0.126	-0.111
-328.172	-200.000	0.001	-0.244
-327.158	-144.880	0.420	-0.038
-326.143	8.431	0.064	-0.048
-325.129	800.000	-0.040	-0.166
-324.114	3.175	0.201	0.145
-323.099	-103.447	0.390	-0.091
-322.085	-133.067	-0.475	-0.060
-321.070	22.156	-0.305	0.247
-320.056	-200.000	0.008	-0.075
-319.041	-200.000	0.004	0.296
-318.026	15.639	-0.120	-0.094
-317.012	-18.538	-0.176	-0.109
-315.997	335.102	-0.077	-0.147
-314.983	800.000	-0.132	-0.379
-313.968	52.114	0.065	-0.061
-312.953	-93.747	-0.210	0.057
-311.939	-74.007	-0.121	0.044
-310.924	69.850	-0.266	0.272
-309.910	800.000	0.024	-0.073
-308.895	-98.559	-0.401	0.102
-307.880	-92.399	-0.146	0.041
-306.866	331.628	-0.017	0.032
-305.851	-200.000	-0.043	0.649
-304.837	471.755	-0.073	-0.162
-303.822	-116.983	-0.149	-0.027
-302.807	-71.464	0.177	-0.066
-301.793	-200.000	0.022	0.146
-300.778	44.889	-0.024	0.022
-299.764	-200.000	0.016	-0.229
-298.749	89.037	-0.088	0.097
-297.735	800.000	-0.067	-0.274
-296.720	-200.000	-0.009	-0.097
-295.705	9.525	0.107	-0.081
-294.691	-4.923	-0.161	0.110
-293.676	-155.141	-0.166	0.011
-292.662	-56.841	-0.208	-0.091
-291.647	-200.000	0.004	-0.269
-290.632	-53.835	0.253	-0.115
-289.618	-159.597	0.223	0.012
-288.603	800.000	0.025	0.078
-287.589	233.180	-0.097	-0.159
-286.574	-147.813	-0.235	-0.020
-285.559	-148.934	0.461	-0.037
-284.545	800.000	-0.035	0.098
-283.530	145.522	0.099	0.132
-282.516	-59.471	-0.058	0.025
-281.501	76.426	0.136	-0.143
-280.486	-109.288	-0.007	0.002
-279.472	-130.394	0.253	0.034
-278.457	-111.766	-0.101	0.020
-277.443	175.034	0.185	-0.266
-276.428	-38.209	0.210	-0.111
-275.413	-200.000	0.046	-0.324
-274.399	107.477	-0.116	0.136
-273.384	-82.338	-0.310	-0.100
-272.370	-200.000	-0.003	0.088
-271.355	-129.627	-0.278	0.038
-270.340	-141.842	0.102	0.010
-269.326	800.000	-0.047	0.168
-268.311	71.593	0.115	-0.119
-267.297	-200.000	0.029	-0.143
-266.282	-200.000	-0.007	-0.091
-265.267	21.243	0.096	-0.077
-264.253	-23.192	0.182	-0.109
-263.238	524.796	-0.081	0.189
-262.224	207.652	0.079	0.123
-261.209	574.726	-0.136	0.328
-260.195	105.694	0.165	0.193
-259.180	-90.420	-0.262	0.075
-258.165	-94.440	0.354	0.096
-257.151	-23.212	-0.357	-0.213
-256.136	268.196	0.076	0.131
-255.122	5.631	0.192	-0.141
-254.107	-97.784	-0.135	-0.035
-253.092	-200.000	-0.041	-0.244
-252.078	-71.657	0.147	-0.054
-251.063	27.113	0.037	0.031
-250.049	144.607	0.082	0.109
-249.034	800.000	0.099	0.311
-248.019	84.831	0.162	0.176
-247.005	-200.000	-0.057	0.371
-245.990	-200.000	-0.036	0.240
-244.976	-135.427	0.263	-0.031
-243.961	-103.172	0.213	0.050
-242.946	518.544	0.130	0.302
-241.932	-200.000	0.002	0.043
-240.917	-200.000	-0.013	-0.070
-239.903	-200.000	-0.041	0.372
-238.888	233.145	-0.049	-0.081
-237.873	-23.484	0.115	0.068
-236.859	-200.000	0.070	0.413
-235.844	-65.077	0.200	-0.080
-234.830	295.873	0.152	-0.276
-233.815	130.518	-0.140	0.178
-232.800	-78.360	0.245	0.083
-231.786	105.864	0.220	0.258
-230.771	39.624	0.216	-0.191
-229.757	-74.643	-0.119	0.042
-228.742	75.338	0.157	0.164
-227.727	457.484	-0.151	0.332
-226.713	-47.357	-0.211	-0.102
-225.698	-35.410	0.428	0.230
-224.684	17.635	0.207	0.163
-223.669	800.000	-0.077	0.268
-222.655	93.544	0.080	-0.089
-221.640	-110.203	0.083	0.017
-220.625	-104.974	0.236	0.054
-219.611	-9.548	-0.222	-0.146
-218.596	-136.497	-0.182	0.021
-217.582	-126.473	0.101	0.015
-216.567	460.716	-0.052	0.114
-215.552	-6.213	0.156	-0.105
-214.538	-93.933	-0.059	0.016
-213.523	612.563	0.130	0.321
-212.509	117.823	0.118	0.143
-211.494	176.532	-0.274	-0.394
-210.479	-71.732	0.073	0.027
-209.465	-77.382	0.257	-0.088
-208.450	94.583	0.311	-0.349
-207.436	145.963	0.334	-0.444
-206.421	-103.797	-0.090	0.021
-205.406	-15.122	-0.092	0.058
-204.392	465.715	0.126	0.280
-203.377	-49.599	0.105	-0.049
-202.363	-151.066	-0.199	0.015
-201.348	-200.000	-0.008	-0.180
-200.333	-200.000	0.024	-0.203
-199.319	15.181	0.195	-0.151
-198.304	-189.061	-0.168	-0.002
-197.290	-86.914	-0.466	-0.141
-196.275	-10.321	-0.228	0.149
-195.260	-52.561	0.150	-0.068
-194.246	-116.836	-0.213	0.039
-193.231	649.516	-0.071	0.180
-192.217	-46.916	-0.215	0.104
-191.202	420.483	-0.032	0.068
-190.187	-150.418	-0.337	-0.026
-189.173	158.343	0.065	0.089
-188.158	-135.340	-0.234	-0.028
-187.144	800.000	-0.067	-0.274
-186.129	-86.002	0.412	-0.126
-185.114	-200.000	-0.040	0.224
-184.100	-63.330	0.159	0.065
-183.085	208.031	0.045	0.070
-182.071	-57.093	-0.115	0.050
-181.056	16.757	0.084	0.065
-180.042	-64.607	0.218	0.088
-179.027	-200.000	-0.028	0.146
-178.012	51.703	-0.141	0.133
-176.998	-68.008	-0.325	-0.125
-175.983	116.586	0.180	0.218
-174.969	-200.000	0.044	0.233
-173.954	-10.338	0.204	0.133
-172.939	-182.149	0.269	-0.005
-171.925	-200.000	0.024	-0.131
-170.910	-1.588	0.109	-0.076
-169.896	227.178	-0.081	0.130
-168.881	-43.071	-0.037	0.018
-167.866	-61.498	-0.218	0.090
-166.852	-20.307	-0.271	0.165
-165.837	55.534	0.260	0.249
-164.823	262.030	-0.075	0.129
-163.808	184.555	0.107	-0.157
-162.793	-108.028	-0.138	-0.030
-161.779	-48.249	0.072	-0.034
-160.764	-91.130	-0.260	0.074
-159.750	15.805	0.313	-0.243
-158.735	159.541	-0.189	-0.260
-157.720	92.128	0.158	0.175
-156.706	493.203	0.068	0.155
-155.691	48.582	-0.179	-0.166
-154.677	-51.179	-0.159	-0.073
-153.662	330.753	0.069	-0.132
-152.647	251.603	-0.125	0.210
-151.633	131.666	-0.092	0.116
-150.618	103.909	0.055	-0.064
-149.604	235.209	0.083	0.136
-148.589	-200.000	0.000	-0.156
-147.574	-200.000	0.001	0.255
-146.560	25.715	-0.087	-0.072
-145.545	-112.807	0.221	-0.043
-144.531	-84.946	0.155	-0.048
-143.516	800.000	0.115	0.443
-142.502	-156.173	-0.164	-0.010
-141.487	800.000	-0.045	0.149
-140.472	-107.826	0.333	-0.071
-139.458	444.700	0.100	-0.216
-138.443	-167.540	-0.232	-0.009
-137.429	294.081	0.158	0.285
-136.414	800.000	-0.038	-0.132
-135.399	97.127	-0.106	0.119
-134.385	234.725	0.197	0.320
-133.370	-133.833	0.217	0.027
-132.356	229.057	0.204	-0.328
-131.341	-200.000	0.048	-0.363
-130.326	-15.172	0.121	0.076
-129.312	288.611	-0.116	-0.208
-128.297	-200.000	-0.045	-0.394
-127.283	-100.391	0.092	-0.022
-126.268	115.438	-0.360	0.434
-125.253	346.435	-0.056	0.108
-124.239	-73.501	-0.248	-0.089
-123.224	169.779	-0.085	-0.120
-122.210	-71.167	-0.290	0.107
-121.195	716.910	0.165	0.431
