DTS Sentinel unit serial number:	SN413079Multiplexer serial number:	ORYXHardware model number:	OX4-SRSoftware version number:	ORYX F/W v4.00 Oryx Data Collector v3.7.2.0data status	okinstallation	princeton_trtdifferential loss correction	single-endedforward channel	channel 3reverse channel	N/Adate	2019/09/16time	14:36:35forward acquisition time	60.00reverse acquisition time	0.00gamma	496.2192k internal	0.2293k external	0.2293temperature offset calibration	0.9945default loss term (dB/km)	0.3790temperature slope calibration	1.0000multiplexer offset coefficient	1.0000multiplexer slope coefficient	1.0000fibre end	0.00T internal ref (°C)	41.77T ext. ref 1 (°C)	14.29T ext. ref 2 (°C)	36.24length (m)	temperature (°C)	Stokes	anti-Stokes-747.200	-88.443	0.171	0.052
-746.185	-77.349	0.130	-0.046
-745.171	-126.758	0.156	0.024
-744.156	-161.150	0.267	0.014
-743.142	171.896	-0.087	0.127
-742.127	800.000	-0.035	0.129
-741.112	-44.236	-0.161	-0.083
-740.098	-106.945	0.125	0.028
-739.083	-200.000	0.002	0.045
-738.069	-107.819	-0.162	0.036
-737.054	-169.637	-0.121	0.004
-736.039	-59.438	-0.156	-0.068
-735.025	4.341	-0.260	0.195
-734.010	135.823	0.164	-0.218
-732.996	497.659	-0.179	-0.422
-731.981	-200.000	0.009	0.325
-730.966	-46.998	-0.224	-0.112
-729.952	-200.000	0.052	-0.326
-728.937	11.813	-0.245	-0.193
-727.923	800.000	-0.018	-0.062
-726.908	28.542	-0.116	0.100
-725.894	485.527	0.121	-0.282
-724.879	-105.742	0.081	-0.019
-723.864	800.000	-0.043	-0.153
-722.850	478.398	0.096	-0.222
-721.835	315.630	-0.032	-0.061
-720.821	-200.000	-0.002	-0.355
-719.806	50.347	0.115	-0.111
-718.791	-200.000	0.007	-0.071
-717.777	-200.000	-0.044	0.460
-716.762	-165.077	-0.268	0.012
-715.748	-149.720	0.188	-0.015
-714.733	686.366	0.078	-0.209
-713.718	800.000	-0.168	-0.480
-712.704	-200.000	0.034	0.438
-711.689	53.021	-0.471	0.461
-710.675	-69.958	-0.196	-0.076
-709.660	-180.525	-0.239	-0.005
-708.645	110.006	-0.141	-0.173
-707.631	259.900	-0.046	-0.082
-706.616	-136.557	0.204	-0.024
-705.602	-123.994	0.306	-0.049
-704.587	-13.296	-0.102	-0.068
-703.572	242.929	0.107	0.184
-702.558	81.643	-0.210	-0.233
-701.543	-81.021	-0.093	0.031
-700.529	800.000	0.034	0.141
-699.514	19.195	0.252	0.207
-698.499	-147.494	0.091	-0.008
-697.485	264.444	-0.218	-0.388
-696.470	191.621	-0.156	0.240
-695.456	73.408	-0.117	0.125
-694.441	-40.667	-0.101	0.053
-693.426	-63.527	-0.260	-0.109
-692.412	800.000	-0.052	-0.195
-691.397	800.000	0.086	0.360
-690.383	323.236	-0.098	-0.190
-689.368	-93.140	0.153	-0.043
-688.354	-65.719	-0.220	0.090
-687.339	342.124	-0.169	-0.337
-686.324	-124.817	0.189	0.030
-685.310	7.582	-0.269	0.205
-684.295	800.000	-0.022	0.062
-683.281	149.553	-0.065	0.090
-682.266	185.957	0.115	0.175
-681.251	780.390	-0.109	0.306
-680.237	383.411	0.107	-0.225
-679.222	-111.559	-0.325	-0.068
-678.208	324.041	0.147	-0.287
-677.193	216.478	-0.081	-0.131
-676.178	22.151	0.318	-0.265
-675.164	-159.446	-0.214	-0.012
-674.149	38.592	-0.012	0.011
-673.135	-200.000	0.026	-0.178
-672.120	-2.490	-0.207	-0.148
-671.105	-200.000	-0.046	-0.406
-670.091	-133.172	0.039	0.005
-669.076	275.426	0.080	-0.144
-668.062	800.000	-0.019	0.061
-667.047	-16.771	0.045	-0.029
-666.032	800.000	-0.086	-0.243
-665.018	239.626	-0.006	-0.010
-664.003	-122.218	-0.171	0.029
-662.989	-68.295	0.073	-0.029
-661.974	-148.407	0.289	0.024
-660.959	-147.238	-0.176	-0.015
-659.945	477.430	-0.114	0.262
-658.930	310.731	0.234	0.448
-657.916	-180.014	-0.152	0.003
-656.901	-7.321	-0.105	-0.073
-655.886	-112.160	0.295	-0.061
-654.872	568.426	-0.084	0.208
-653.857	143.489	0.119	-0.162
-652.843	-132.280	-0.352	0.046
-651.828	-200.000	0.048	0.305
-650.814	-105.201	0.072	0.017
-649.799	298.220	0.065	0.122
-648.784	153.491	0.116	0.162
-647.770	-200.000	-0.031	0.166
-646.755	-27.165	-0.191	-0.113
-645.741	264.769	-0.024	-0.043
-644.726	-200.000	0.045	0.320
-643.711	-89.690	0.085	0.025
-642.697	800.000	-0.147	0.438
-641.682	-26.888	0.132	-0.079
-640.668	-35.616	0.074	0.041
-639.653	800.000	-0.114	-0.425
-638.638	800.000	-0.085	-0.297
-637.624	-200.000	0.020	-0.217
-636.609	13.100	0.120	0.095
-635.595	-2.623	0.205	0.146
-634.580	-39.305	0.246	0.132
-633.565	-200.000	0.025	-0.130
-632.551	-200.000	0.098	-0.472
-631.536	-52.733	0.232	0.109
-630.522	-200.000	-0.008	-0.079
-629.507	-200.000	0.015	0.284
-628.492	-140.982	0.189	0.020
-627.478	-200.000	0.040	-0.369
-626.463	-32.405	-0.113	-0.064
-625.449	-200.000	-0.018	-0.116
-624.434	-22.477	0.072	-0.045
-623.419	-122.606	0.149	0.025
-622.405	-76.659	-0.206	0.074
-621.390	173.044	0.225	0.330
-620.376	559.095	0.047	0.116
-619.361	-145.526	0.309	0.028
-618.346	115.437	0.102	0.127
-617.332	19.952	0.238	-0.196
-616.317	-101.972	-0.144	-0.035
-615.303	-27.416	0.394	-0.233
-614.288	190.214	0.206	0.315
-613.273	-200.000	-0.023	-0.118
-612.259	-88.554	-0.074	0.022
-611.244	-51.055	-0.072	-0.034
-610.230	304.402	-0.175	0.331
-609.215	-151.322	0.283	-0.021
-608.201	-200.000	0.048	0.330
-607.186	-1.421	0.410	-0.295
-606.171	-200.000	-0.008	-0.355
-605.157	-164.181	-0.300	-0.014
-604.142	286.026	0.032	-0.059
-603.128	-200.000	-0.001	0.237
-602.113	-200.000	0.029	-0.337
-601.098	800.000	-0.104	-0.321
-600.084	-57.395	-0.170	-0.076
-599.069	-82.374	-0.171	-0.057
-598.055	-87.726	-0.285	-0.087
-597.040	20.668	0.156	-0.129
-596.025	-50.578	-0.155	-0.074
-595.011	-82.313	-0.422	0.140
-593.996	-151.674	-0.196	0.015
-592.982	282.716	0.181	-0.331
-591.967	-178.911	-0.367	0.008
-590.952	-200.000	0.032	0.208
-589.938	-67.805	0.216	0.086
-588.923	168.142	-0.177	0.256
-587.909	-96.642	0.055	0.015
-586.894	-95.572	-0.292	-0.079
-585.879	35.916	0.071	0.063
-584.865	-127.287	0.234	-0.035
-583.850	-200.000	0.024	0.166
-582.836	131.199	0.173	-0.226
-581.821	800.000	-0.059	0.201
-580.806	-200.000	0.011	0.106
-579.792	-0.315	0.137	-0.099
-578.777	-157.111	-0.242	0.015
-577.763	-133.156	0.279	-0.036
-576.748	-91.643	0.166	-0.048
-575.733	-128.264	0.158	-0.023
-574.719	-38.533	0.112	-0.060
-573.704	-3.024	0.156	-0.111
-572.690	-152.775	-0.218	-0.016
-571.675	71.501	-0.153	0.162
-570.661	-29.472	-0.219	-0.127
-569.646	37.533	-0.236	-0.213
-568.631	-200.000	-0.029	-0.152
-567.617	-200.000	-0.016	-0.097
-566.602	-129.155	-0.430	0.061
-565.588	616.833	0.036	0.092
-564.573	-200.000	0.036	0.290
-563.558	-54.955	-0.160	0.073
-562.544	-19.016	0.333	0.210
-561.529	375.092	-0.193	0.399
-560.515	344.526	0.071	0.141
-559.500	-141.229	-0.251	0.026
-558.485	-82.979	0.155	0.051
-557.471	20.838	-0.307	-0.253
-556.456	-200.000	-0.023	0.291
-555.442	-47.211	-0.483	-0.239
-554.427	19.911	0.146	0.119
-553.412	-41.096	0.121	-0.063
-552.398	-104.646	-0.350	-0.082
-551.383	-77.816	0.138	-0.048
-550.369	-126.601	0.166	0.025
-549.354	1.457	0.095	0.069
-548.339	-200.000	-0.018	-0.162
-547.325	-80.030	-0.297	0.101
-546.310	-40.801	0.204	0.107
-545.296	800.000	-0.113	0.316
-544.281	-200.000	-0.030	-0.244
-543.266	28.395	0.123	0.105
-542.252	800.000	0.089	-0.335
-541.237	-72.530	0.166	0.062
-540.223	800.000	0.035	0.145
-539.208	-136.784	-0.208	0.024
-538.193	259.769	-0.154	-0.269
-537.179	-200.000	-0.015	-0.181
-536.164	-45.554	0.191	0.096
-535.150	439.785	-0.089	0.198
-534.135	-200.000	-0.032	-0.157
-533.121	-171.756	0.307	-0.010
-532.106	-200.000	-0.052	0.245
-531.091	-78.868	-0.113	-0.039
-530.077	520.487	-0.038	-0.089
-529.062	-23.094	0.316	0.193
-528.048	-26.840	-0.181	-0.107
-527.033	-200.000	0.092	0.424
-526.018	16.272	-0.123	-0.098
-525.004	69.578	0.322	-0.337
-523.989	204.198	-0.090	0.141
-522.975	-200.000	-0.025	-0.315
-521.960	800.000	0.102	-0.446
-520.945	-166.003	0.130	-0.006
-519.931	58.121	-0.195	0.194
-518.916	15.431	0.255	0.203
-517.902	230.577	-0.153	-0.254
-516.887	-143.768	-0.189	-0.018
-515.872	-42.526	-0.412	-0.213
-514.858	-85.397	-0.304	-0.096
-513.843	-200.000	-0.036	-0.200
-512.829	96.405	0.163	-0.189
-511.814	-163.400	0.240	0.012
-510.799	-200.000	-0.006	-0.086
-509.785	146.143	0.104	0.141
-508.770	3.629	-0.236	0.175
-507.756	107.078	-0.140	0.168
-506.741	-74.385	0.203	0.074
-505.726	192.920	-0.007	0.011
-504.712	362.281	0.149	-0.302
-503.697	-200.000	0.016	0.199
-502.683	-27.299	-0.156	-0.092
-501.668	589.138	-0.166	0.414
-500.653	136.450	0.251	0.331
-499.639	88.202	-0.010	0.012
-498.624	800.000	-0.100	-0.388
-497.610	-200.000	-0.051	-0.299
-496.595	3.506	-0.086	0.063
-495.581	-143.378	-0.326	-0.032
-494.566	-200.000	-0.025	-0.336
-493.551	611.759	-0.054	-0.137
-492.537	-200.000	-0.001	-0.224
-491.522	14.428	-0.149	-0.118
-490.508	-135.824	-0.090	0.011
-489.493	-76.385	-0.248	-0.088
-488.478	-129.035	0.208	0.030
-487.464	34.125	0.215	0.190
-486.449	782.008	0.035	-0.098
-485.435	663.340	0.020	0.052
-484.420	-110.489	-0.149	-0.031
-483.405	-200.000	0.019	0.187
-482.391	132.997	0.145	0.189
-481.376	-145.810	-0.232	0.021
-480.362	-200.000	-0.028	-0.130
-479.347	-51.859	0.210	0.099
-478.332	-188.817	-0.132	0.002
-477.318	800.000	0.014	-0.043
-476.303	-119.839	0.191	0.033
-475.289	296.999	0.040	0.074
-474.274	-200.000	-0.045	-0.270
-473.259	-55.739	-0.182	0.082
-472.245	-200.000	0.021	-0.244
-471.230	210.628	0.102	-0.163
-470.216	49.874	0.151	-0.144
-469.201	-200.000	-0.028	-0.196
-468.186	-200.000	0.027	-0.308
-467.172	-78.724	0.137	0.047
-466.157	-200.000	-0.016	-0.119
-465.143	-200.000	-0.031	-0.423
-464.128	-170.443	-0.239	-0.008
-463.113	344.921	0.092	0.183
-462.099	377.932	0.086	-0.178
-461.084	-20.528	-0.155	0.096
-460.070	-200.000	-0.008	-0.180
-459.055	-111.364	-0.233	0.048
-458.040	-200.000	-0.003	0.186
-457.026	52.639	0.282	0.273
-456.011	178.262	0.048	0.071
-454.997	252.089	-0.141	0.244
-453.982	-35.496	-0.169	-0.093
-452.968	-121.078	0.153	-0.026
-451.953	204.161	-0.148	0.231
-450.938	-135.050	-0.189	0.023
-449.924	-200.000	0.039	-0.215
-448.909	800.000	-0.014	0.051
-447.895	800.000	0.089	0.249
-446.880	-157.844	-0.288	0.017
-445.865	-200.000	-0.043	-0.290
-444.851	-200.000	-0.044	0.253
-443.836	800.000	-0.063	-0.219
-442.822	37.672	0.055	-0.049
-441.807	-200.000	0.012	0.183
-440.792	800.000	0.063	-0.200
-439.778	52.583	-0.068	-0.065
-438.763	-112.001	-0.184	0.038
-437.749	21.402	0.130	-0.107
-436.734	-178.607	-0.332	0.008
-435.719	800.000	0.079	-0.227
-434.705	81.099	-0.132	-0.144
-433.690	441.036	-0.062	-0.136
-432.676	11.988	0.231	-0.179
-431.661	800.000	-0.028	-0.078
-430.646	-31.051	-0.150	-0.086
-429.632	16.351	-0.104	0.083
-428.617	218.245	-0.042	0.068
-427.603	-200.000	-0.004	0.276
-426.588	-25.284	0.192	0.115
-425.573	47.403	0.064	-0.061
-424.559	-161.016	0.257	-0.014
-423.544	161.169	0.176	0.249
-422.530	-200.000	0.033	0.328
-421.515	-104.689	-0.257	-0.060
-420.500	-119.826	0.321	-0.056
-419.486	-117.921	0.248	0.045
-418.471	176.255	0.133	0.196
-417.457	-28.123	0.071	-0.042
-416.442	800.000	0.089	-0.342
-415.428	-9.675	-0.272	0.183
-414.413	800.000	-0.034	0.116
-413.398	-15.505	0.120	-0.077
-412.384	171.540	-0.085	-0.124
-411.369	-89.806	0.213	-0.063
-410.355	205.680	-0.072	0.114
-409.340	-200.000	0.023	-0.340
-408.325	187.215	0.055	0.083
-407.311	-200.000	0.017	-0.334
-406.296	-95.233	0.217	0.059
-405.282	-106.360	0.108	-0.024
-404.267	800.000	0.076	0.286
-403.252	-200.000	0.029	0.224
-402.238	800.000	-0.023	-0.071
-401.223	283.951	-0.204	0.371
-400.209	9.748	0.118	-0.090
-399.194	-200.000	-0.036	0.197
-398.179	-200.000	-0.023	-0.169
-397.165	800.000	0.084	-0.275
-396.150	-163.889	0.245	-0.012
-395.136	800.000	-0.061	0.193
-394.121	-89.923	-0.127	0.037
-393.106	611.471	0.063	0.159
-392.092	-114.420	0.229	0.045
-391.077	-47.611	0.150	0.074
-390.063	-42.061	-0.274	0.142
-389.048	418.865	0.159	0.344
-388.033	-200.000	-0.008	0.179
-387.019	800.000	0.103	0.311
-386.004	424.923	-0.097	-0.210
-384.990	800.000	-0.038	0.125
-383.975	-4.092	0.150	-0.105
-382.960	-200.000	0.007	-0.187
-381.946	129.721	-0.181	-0.233
-380.931	-30.925	-0.220	-0.126
-379.917	-61.207	-0.045	0.019
-378.902	-30.995	0.137	0.078
-377.888	-41.694	0.062	-0.032
-376.873	186.889	-0.028	-0.043
-375.858	800.000	0.043	0.123
-374.844	48.619	0.235	0.222
-373.829	-75.578	-0.067	-0.024
-372.815	-200.000	-0.036	-0.167
-371.800	200.770	0.046	-0.072
-370.785	800.000	0.044	0.135
-369.771	-200.000	-0.031	-0.345
-368.756	800.000	-0.011	-0.050
-367.742	-121.477	0.464	0.078
-366.727	-13.967	-0.011	0.007
-365.712	432.874	0.062	0.137
-364.698	213.031	-0.081	-0.129
-363.683	40.484	0.170	-0.155
-362.669	190.265	0.101	-0.153
-361.654	-59.648	-0.167	0.072
-360.639	-76.771	0.211	0.074
-359.625	800.000	-0.061	-0.268
-358.610	800.000	-0.033	0.139
-357.596	482.797	-0.114	0.261
-356.581	-200.000	-0.018	0.192
-355.566	800.000	0.060	0.208
-354.552	-200.000	-0.024	-0.471
-353.537	800.000	-0.025	0.072
-352.523	-8.119	0.101	0.069
-351.508	-77.800	0.200	-0.070
-350.493	87.139	0.142	-0.158
-349.479	57.220	0.394	-0.387
-348.464	9.011	-0.162	-0.123
-347.450	-152.503	-0.481	0.035
-346.435	-26.836	-0.245	-0.144
-345.420	174.262	-0.184	0.267
-344.406	708.416	0.069	0.185
-343.391	800.000	-0.060	0.220
-342.377	-200.000	-0.015	-0.174
-341.362	-81.122	-0.164	0.055
-340.348	293.009	-0.090	0.166
-339.333	-55.353	-0.096	0.043
-338.318	800.000	-0.085	-0.295
-337.304	57.090	-0.027	0.026
-336.289	800.000	0.042	-0.148
-335.275	-49.423	0.131	-0.063
-334.260	151.490	-0.251	-0.345
-333.245	-200.000	0.005	0.066
-332.231	-128.227	-0.253	-0.036
-331.216	38.905	0.190	0.171
-330.202	-121.510	-0.208	0.035
-329.187	74.274	0.132	-0.140
-328.172	-116.951	-0.129	-0.024
-327.158	199.294	-0.029	-0.044
-326.143	-32.521	0.155	0.087
-325.129	272.195	0.042	0.075
-324.114	-8.083	0.018	0.012
-323.099	324.929	-0.083	0.159
-322.085	-113.832	0.194	0.038
-321.070	-148.108	0.213	-0.018
-320.056	-83.613	0.391	-0.126
-319.041	-114.242	-0.169	-0.033
-318.026	800.000	0.133	-0.399
-317.012	-151.268	0.117	0.009
-315.997	80.503	-0.089	-0.097
-314.983	14.618	0.313	-0.246
-313.968	-179.619	-0.230	0.005
-312.953	-8.750	-0.185	0.125
-311.939	235.436	0.028	0.047
-310.924	323.892	-0.178	-0.342
-309.910	62.155	-0.139	0.139
-308.895	800.000	0.024	-0.085
-307.880	205.493	0.129	0.202
-306.866	800.000	-0.110	-0.359
-305.851	17.173	-0.220	-0.175
-304.837	-200.000	-0.012	-0.272
-303.822	-76.654	-0.083	-0.029
-302.807	138.476	-0.152	0.201
-301.793	424.501	-0.096	-0.207
-300.778	-90.931	-0.188	-0.054
-299.764	800.000	0.077	0.228
-298.749	114.429	0.322	0.394
-297.735	226.578	0.082	0.134
-296.720	109.274	-0.130	-0.156
-295.705	-75.844	0.195	0.070
-294.691	134.964	0.065	-0.085
-293.676	-83.481	-0.076	-0.024
-292.662	8.433	0.130	0.099
-291.647	-179.761	0.328	-0.007
-290.632	-200.000	-0.316	0.002
-289.618	-11.366	0.116	-0.077
-288.603	-13.329	-0.194	-0.126
-287.589	-200.000	0.014	0.067
-286.574	387.667	-0.084	0.175
-285.559	-155.746	-0.231	-0.015
-284.545	800.000	-0.044	-0.133
-283.530	-138.797	-0.141	0.015
-282.516	-74.394	0.157	-0.057
-281.501	-134.480	0.131	0.016
-280.486	25.430	-0.212	-0.178
-279.472	-28.591	0.287	-0.166
-278.457	-64.393	0.150	-0.061
-277.443	185.298	-0.114	0.169
-276.428	800.000	0.033	0.112
-275.413	56.732	-0.120	0.117
-274.399	-100.037	0.137	-0.034
-273.384	124.246	-0.020	-0.025
-272.370	40.002	-0.139	-0.126
-271.355	86.549	-0.156	-0.173
-270.340	471.468	-0.105	-0.237
-269.326	205.148	0.147	-0.229
-268.311	-134.983	0.162	0.020
-267.297	-12.569	0.118	0.077
-266.282	-75.086	0.206	-0.074
-265.267	27.197	0.271	0.229
-264.253	9.011	0.123	0.093
-263.238	-112.909	0.277	0.055
-262.224	16.660	0.101	-0.080
-261.209	47.436	-0.263	-0.246
-260.195	-200.000	0.053	-0.248
-259.180	-159.567	-0.341	-0.019
-258.165	-192.994	-0.414	0.004
-257.151	357.137	-0.052	0.105
-256.136	800.000	0.025	0.083
-255.122	-172.601	0.418	-0.013
-254.107	61.989	0.052	-0.052
-253.092	-32.469	-0.258	0.144
-252.078	-38.928	0.012	0.006
-251.063	2.907	0.265	-0.193
-250.049	159.098	-0.046	-0.065
-249.034	-14.326	0.056	0.036
-248.019	-70.349	0.325	0.124
-247.005	-200.000	0.023	-0.155
-245.990	509.577	-0.069	-0.161
-244.976	-16.224	-0.267	0.170
-243.961	-200.000	-0.020	-0.134
-242.946	-60.878	-0.204	0.087
-241.932	452.733	0.140	0.311
-240.917	800.000	-0.038	-0.131
-239.903	-200.000	0.047	0.278
-238.888	-79.004	-0.254	-0.087
-237.873	-29.994	-0.041	-0.023
-236.859	188.559	0.251	0.377
-235.844	-195.555	-0.280	-0.002
-234.830	-132.185	0.389	0.051
-233.815	38.541	-0.421	-0.376
-232.800	800.000	-0.020	0.083
-231.786	50.219	-0.061	-0.057
-230.771	124.169	-0.198	0.250
-229.757	117.116	0.157	0.194
-228.742	710.839	-0.043	0.115
-227.727	-200.000	0.018	0.117
-226.713	800.000	0.056	-0.177
-225.698	43.455	-0.079	-0.073
-224.684	19.785	-0.221	-0.178
-223.669	-126.017	0.258	-0.039
-222.655	-158.992	0.089	-0.005
-221.640	-200.000	-0.032	0.288
-220.625	194.003	0.108	-0.165
-219.611	188.015	-0.183	0.274
-218.596	-46.218	-0.204	-0.100
-217.582	785.013	0.067	-0.183
-216.567	508.669	-0.100	-0.233
-215.552	67.107	0.038	0.039
-214.538	346.362	-0.069	0.136
-213.523	-200.000	-0.003	-0.251
-212.509	800.000	-0.062	-0.211
-211.494	-33.542	-0.043	-0.024
-210.479	-200.000	0.040	0.348
-209.465	-58.195	-0.112	0.049
-208.450	102.337	0.301	-0.352
-207.436	379.225	-0.098	0.202
-206.421	-168.101	0.263	-0.010
-205.406	-59.279	-0.297	0.128
-204.392	-40.973	-0.092	0.048
-203.377	7.811	-0.140	-0.105
-202.363	173.492	0.176	-0.254
-201.348	-200.000	-0.047	0.218
-200.333	-98.326	0.154	0.040
-199.319	-200.000	0.009	0.138
-198.304	-200.000	-0.001	0.071
-197.290	496.887	0.124	0.287
-196.275	89.566	0.266	0.298
-195.260	182.092	-0.066	0.097
-194.246	758.897	0.090	0.243
-193.231	-200.000	-0.001	0.366
-192.217	391.764	0.113	0.235
-191.202	19.521	-0.102	-0.082
-190.187	-77.679	-0.223	-0.077
-189.173	-57.773	0.089	0.039
-188.158	242.159	0.067	0.113
-187.144	-14.439	0.037	0.024
-186.129	213.012	-0.091	-0.144
-185.114	-141.811	0.095	0.010
-184.100	-200.000	-0.038	0.172
-183.085	-200.000	-0.033	-0.155
-182.071	-18.316	-0.329	0.206
-181.056	-67.958	0.272	0.106
-180.042	60.680	-0.068	0.067
-179.027	-200.000	-0.018	0.100
-178.012	800.000	0.076	0.315
-176.998	33.136	-0.266	0.231
-175.983	-29.499	-0.172	-0.099
-174.969	-172.482	0.235	0.007
-173.954	-98.777	-0.159	0.040
-172.939	800.000	0.030	-0.118
-171.925	-122.289	0.197	0.032
-170.910	800.000	-0.057	-0.186
-169.896	774.064	-0.049	0.135
-168.881	12.441	0.283	0.218
-167.866	-49.327	-0.359	0.171
-166.852	180.832	0.084	0.123
-165.837	800.000	0.108	-0.301
-164.823	-200.000	0.090	0.481
-163.808	-135.452	0.349	-0.042
-162.793	194.974	0.034	0.052
-161.779	-31.607	-0.151	0.085
-160.764	277.186	0.073	-0.131
-159.750	328.683	0.245	0.470
-158.735	33.880	-0.076	0.066
-157.720	-200.000	0.009	-0.142
-156.706	-185.017	-0.093	-0.001
-155.691	-114.874	-0.125	0.024
-154.677	43.121	-0.070	-0.064
-153.662	-0.998	-0.319	-0.226
-152.647	-131.389	-0.176	0.023
-151.633	503.498	0.229	0.529
-150.618	-117.645	-0.074	0.013
-149.604	33.108	-0.104	0.090
-148.589	-145.135	0.229	0.021
-147.574	-145.510	0.327	0.029
-146.560	-71.744	0.396	-0.148
-145.545	-200.000	-0.016	0.078
-144.531	-24.359	0.138	-0.082
-143.516	127.956	0.105	-0.133
-142.502	106.717	-0.127	-0.151
-141.487	-80.629	0.238	-0.079
-140.472	484.685	-0.060	0.135
-139.458	40.396	-0.112	0.101
-138.443	190.453	-0.174	0.261
-137.429	362.826	-0.060	0.120
-136.414	-84.464	-0.243	0.077
-135.399	-94.622	-0.049	-0.013
-134.385	484.302	0.075	0.170
-133.370	-200.000	-0.016	-0.135
-132.356	462.708	0.059	-0.132
-131.341	-144.684	-0.176	0.016
-130.326	-86.879	0.094	-0.029
-129.312	-200.000	0.057	0.295
-128.297	680.989	0.046	-0.120
-127.283	302.401	0.164	-0.302
-126.268	235.026	0.148	0.243
-125.253	-150.096	-0.254	0.020
-124.239	84.970	-0.149	-0.164
-123.224	181.837	-0.140	-0.206
-122.210	-13.276	-0.149	0.097
