DTS Sentinel unit serial number:	SN413079Multiplexer serial number:	ORYXHardware model number:	OX4-SRSoftware version number:	ORYX F/W v4.00 Oryx Data Collector v3.7.2.0data status	okinstallation	princeton_trtdifferential loss correction	single-endedforward channel	channel 3reverse channel	N/Adate	2019/09/16time	00:16:35forward acquisition time	60.00reverse acquisition time	0.00gamma	496.2192k internal	0.2337k external	0.2337temperature offset calibration	0.9948default loss term (dB/km)	0.3790temperature slope calibration	1.0000multiplexer offset coefficient	1.0000multiplexer slope coefficient	1.0000fibre end	0.00T internal ref (°C)	27.69T ext. ref 1 (°C)	9.47T ext. ref 2 (°C)	21.51length (m)	temperature (°C)	Stokes	anti-Stokes-747.200	16.343	-0.356	0.282
-746.185	-200.000	0.040	0.201
-745.171	53.446	-0.131	0.126
-744.156	-150.081	-0.467	0.036
-743.142	45.630	0.132	0.123
-742.127	46.119	-0.214	0.199
-741.112	302.887	0.127	-0.236
-740.098	327.046	-0.025	0.048
-739.083	10.791	0.165	-0.127
-738.069	-79.907	-0.243	0.082
-737.054	-56.175	0.238	-0.106
-736.039	-152.863	0.148	-0.011
-735.025	-187.911	0.309	0.004
-734.010	-200.000	0.008	-0.085
-732.996	-169.019	0.175	0.007
-731.981	-114.240	-0.338	0.065
-730.966	105.141	-0.278	-0.330
-729.952	-200.000	-0.037	0.234
-728.937	87.609	-0.100	0.111
-727.923	800.000	0.083	0.249
-726.908	-46.056	0.419	0.207
-725.894	-83.650	-0.151	-0.048
-724.879	445.240	-0.153	0.336
-723.864	-57.254	0.160	0.071
-722.850	256.479	-0.132	-0.227
-721.835	-154.880	0.107	0.007
-720.821	155.790	-0.084	0.116
-719.806	800.000	-0.090	-0.251
-718.791	274.338	0.113	-0.200
-717.777	-126.902	-0.296	0.044
-716.762	225.324	0.141	-0.229
-715.748	-87.613	0.103	-0.031
-714.733	181.038	0.129	-0.190
-713.718	-78.377	-0.102	-0.035
-712.704	6.301	-0.193	-0.144
-711.689	-98.728	-0.319	0.081
-710.675	-37.987	-0.423	-0.225
-709.660	-91.930	0.306	0.087
-708.645	274.235	-0.082	0.146
-707.631	7.486	0.335	0.251
-706.616	661.643	-0.112	0.290
-705.602	-88.026	0.440	0.132
-704.587	-200.000	-0.024	0.293
-703.572	-200.000	-0.041	0.192
-702.558	24.141	-0.089	-0.073
-701.543	800.000	0.028	-0.111
-700.529	-105.419	-0.071	-0.016
-699.514	-114.780	-0.139	0.027
-698.499	800.000	-0.124	0.358
-697.485	58.027	-0.035	0.034
-696.470	-24.699	0.145	-0.087
-695.456	406.348	-0.121	0.257
-694.441	-39.039	-0.204	-0.107
-693.426	-112.000	0.111	0.022
-692.412	-68.606	-0.421	-0.163
-691.397	-200.000	-0.010	-0.081
-690.383	-24.334	-0.344	0.206
-689.368	-59.540	0.153	0.066
-688.354	-91.827	0.137	-0.039
-687.339	-33.379	0.431	0.239
-686.324	-200.000	0.006	-0.246
-685.310	-60.395	-0.241	0.103
-684.295	-86.840	-0.472	-0.144
-683.281	-54.789	0.246	-0.111
-682.266	-133.791	0.120	-0.015
-681.251	-32.626	0.540	0.301
-680.237	-1.742	0.127	-0.090
-679.222	-126.248	-0.185	-0.028
-678.208	-76.567	0.335	0.118
-677.193	-85.317	-0.407	-0.127
-676.178	366.493	-0.066	-0.133
-675.164	-78.441	0.180	-0.062
-674.149	59.890	0.223	-0.221
-673.135	-200.000	0.006	0.045
-672.120	117.105	-0.366	0.451
-671.105	-87.471	0.161	0.049
-670.091	170.401	0.157	-0.225
-669.076	93.555	-0.296	-0.336
-668.062	-200.000	-0.031	-0.359
-667.047	246.820	0.116	-0.196
-666.032	-168.034	-0.390	-0.015
-665.018	328.873	0.215	0.413
-664.003	128.629	0.197	-0.251
-662.989	119.294	0.046	0.056
-661.974	89.069	0.131	0.146
-660.959	50.780	-0.279	0.264
-659.945	4.248	0.104	-0.077
-658.930	-84.019	0.206	0.065
-657.916	85.769	-0.159	0.174
-656.901	-52.558	-0.054	0.025
-655.886	-200.000	0.026	-0.351
-654.872	49.639	0.125	0.118
-653.857	93.507	-0.067	0.076
-652.843	-200.000	0.082	0.551
-651.828	-4.046	-0.076	0.053
-650.814	-32.855	-0.209	0.116
-649.799	573.991	-0.065	0.160
-648.784	238.320	-0.075	-0.125
-647.770	-106.452	-0.136	0.030
-646.755	386.842	0.087	0.179
-645.741	43.326	0.209	-0.191
-644.726	-164.871	-0.278	-0.012
-643.711	800.000	0.108	-0.301
-642.697	-148.785	0.245	-0.020
-641.682	-200.000	0.006	-0.210
-640.668	800.000	0.036	0.115
-639.653	-102.190	0.087	-0.021
-638.638	141.726	0.033	0.043
-637.624	-139.565	0.387	-0.041
-636.609	-99.612	-0.326	-0.082
-635.595	239.813	-0.076	-0.126
-634.580	0.686	-0.379	0.271
-633.565	275.034	-0.019	0.033
-632.551	-61.276	0.134	-0.056
-631.536	-30.961	0.134	-0.076
-630.522	-200.000	0.049	0.225
-629.507	-200.000	0.011	-0.437
-628.492	-31.866	0.204	0.114
-627.478	291.706	-0.199	-0.363
-626.463	147.045	-0.167	-0.225
-625.449	23.355	-0.099	-0.081
-624.434	-200.000	-0.026	0.279
-623.419	80.083	0.215	-0.231
-622.405	-84.319	-0.293	-0.093
-621.390	-200.000	0.021	-0.135
-620.376	563.475	0.096	0.233
-619.361	-8.990	0.340	-0.228
-618.346	-84.851	-0.054	-0.017
-617.332	-200.000	0.050	0.351
-616.317	380.109	-0.073	-0.149
-615.303	-26.048	0.184	-0.108
-614.288	20.735	-0.219	-0.177
-613.273	-200.000	-0.025	-0.262
-612.259	64.228	-0.100	0.101
-611.244	23.325	-0.192	-0.158
-610.230	126.083	-0.090	-0.113
-609.215	-200.000	0.004	-0.319
-608.201	-200.000	-0.019	-0.139
-607.186	118.839	-0.148	-0.183
-606.171	-27.611	-0.119	0.069
-605.157	-65.550	-0.172	0.069
-604.142	5.436	-0.223	0.165
-603.128	87.486	0.144	-0.159
-602.113	-130.843	0.043	-0.006
-601.098	370.747	-0.041	-0.084
-600.084	-100.226	-0.200	-0.050
-599.069	735.881	-0.041	0.109
-598.055	505.651	-0.090	-0.208
-597.040	-200.000	0.002	-0.117
-596.025	-60.330	0.249	0.106
-595.011	89.059	-0.027	0.030
-593.996	-15.812	0.209	-0.133
-592.982	172.904	-0.280	0.403
-591.967	-200.000	0.006	0.179
-590.952	-200.000	0.054	0.513
-589.938	59.336	0.137	0.134
-588.923	28.471	0.229	0.193
-587.909	-110.995	-0.214	-0.044
-586.894	-98.675	0.241	0.061
-585.879	390.343	-0.018	-0.037
-584.865	259.376	-0.005	0.009
-583.850	112.707	0.034	-0.041
-582.836	-200.000	-0.036	0.288
-581.821	-70.329	-0.206	0.078
-580.806	-12.587	0.023	-0.015
-579.792	348.438	0.101	-0.198
-578.777	-200.000	0.089	-0.512
-577.763	-73.088	-0.262	0.096
-576.748	-200.000	-0.007	-0.192
-575.733	144.359	-0.108	-0.144
-574.719	-9.211	-0.299	-0.199
-573.704	-200.000	-0.009	-0.098
-572.690	2.106	-0.281	0.203
-571.675	800.000	-0.027	0.110
-570.661	-158.704	-0.101	0.006
-569.646	164.011	-0.234	0.328
-568.631	-3.705	-0.055	0.038
-567.617	-120.304	0.464	0.079
-566.602	-200.000	-0.025	-0.137
-565.588	250.941	-0.113	0.192
-564.573	467.613	0.007	-0.016
-563.558	104.187	-0.099	-0.117
-562.544	-5.516	0.220	-0.150
-561.529	43.356	0.024	-0.022
-560.515	-129.139	0.340	0.047
-559.500	-44.001	0.107	0.054
-558.485	-74.515	0.159	-0.057
-557.471	-176.847	0.212	-0.005
-556.456	-129.835	0.075	0.010
-555.442	-75.992	0.247	0.087
-554.427	535.330	-0.078	0.185
-553.412	-102.240	-0.173	0.042
-552.398	-91.300	-0.071	-0.020
-551.383	800.000	-0.044	-0.149
-550.369	216.015	-0.158	-0.250
-549.354	-200.000	-0.034	-0.148
-548.339	-105.835	-0.214	-0.048
-547.325	-86.216	0.204	-0.063
-546.310	800.000	-0.016	-0.053
-545.296	87.297	0.124	0.137
-544.281	60.821	0.182	-0.180
-543.266	395.775	-0.038	0.080
-542.252	-38.431	0.143	-0.075
-541.237	512.711	-0.042	0.097
-540.223	-34.392	-0.234	0.128
-539.208	9.772	0.161	-0.122
-538.193	-200.000	-0.024	-0.182
-537.179	-50.184	0.092	-0.043
-536.164	172.589	0.089	0.128
-535.150	800.000	-0.052	0.201
-534.135	-200.000	0.003	-0.280
-533.121	222.958	0.077	-0.124
-532.106	-11.573	-0.208	-0.136
-531.091	107.482	-0.145	-0.172
-530.077	75.949	0.099	0.104
-529.062	-200.000	-0.031	-0.223
-528.048	-200.000	-0.009	0.331
-527.033	-10.214	0.504	0.333
-526.018	-72.359	0.165	0.061
-525.004	71.266	-0.186	-0.192
-523.989	-41.893	0.046	0.024
-522.975	17.310	-0.239	0.189
-521.960	-200.000	0.014	-0.317
-520.945	-200.000	0.034	-0.253
-519.931	800.000	-0.013	-0.041
-518.916	800.000	-0.017	-0.058
-517.902	6.595	-0.229	0.169
-516.887	-128.933	0.260	0.036
-515.872	2.630	0.190	-0.137
-514.858	257.977	-0.140	0.239
-513.843	-200.000	-0.014	-0.196
-512.829	31.432	0.142	-0.121
-511.814	-126.853	0.312	0.046
-510.799	49.387	-0.179	0.167
-509.785	-50.005	0.041	0.019
-508.770	-200.000	-0.088	0.390
-507.756	-200.000	0.003	0.156
-506.741	186.205	-0.055	0.081
-505.726	63.005	-0.258	-0.257
-504.712	-200.000	0.020	0.358
-503.697	157.067	-0.013	-0.018
-502.683	-200.000	-0.021	-0.106
-501.668	-154.714	0.211	0.014
-500.653	22.620	0.112	-0.091
-499.639	69.260	0.118	0.121
-498.624	-200.000	0.031	-0.293
-497.610	535.329	0.141	0.332
-496.595	-88.931	-0.278	0.082
-495.581	83.011	-0.160	0.173
-494.566	438.505	0.048	-0.104
-493.551	38.735	0.145	-0.129
-492.537	-30.138	-0.119	0.067
-491.522	-63.853	0.187	0.076
-490.508	109.196	-0.063	0.075
-489.493	800.000	-0.008	0.031
-488.478	149.726	0.041	0.055
-487.464	-72.932	0.181	-0.066
-486.449	-51.483	0.103	-0.048
-485.435	547.241	-0.152	-0.362
-484.420	-93.260	-0.109	0.030
-483.405	42.347	-0.029	0.026
-482.391	395.205	0.120	0.249
-481.376	-200.000	-0.035	-0.414
-480.362	-6.435	-0.148	0.100
-479.347	-200.000	0.088	0.423
-478.332	-200.000	-0.036	0.426
-477.318	573.960	-0.158	0.382
-476.303	-130.125	0.195	-0.026
-475.289	82.508	-0.086	-0.093
-474.274	156.968	0.089	-0.122
-473.259	-48.922	0.164	-0.078
-472.245	-200.000	0.011	0.132
-471.230	-10.496	0.207	0.136
-470.216	-90.623	-0.319	-0.092
-469.201	227.007	-0.122	-0.196
-468.186	-200.000	-0.029	-0.239
-467.172	3.336	-0.190	-0.137
-466.157	-147.611	0.444	0.037
-465.143	300.341	-0.030	0.055
-464.128	800.000	-0.087	0.242
-463.113	409.924	-0.147	0.309
-462.099	229.808	-0.146	-0.237
-461.084	-200.000	-0.009	-0.086
-460.070	-86.509	0.410	0.125
-459.055	437.799	-0.074	0.160
-458.040	-55.944	-0.309	-0.137
-457.026	-118.945	-0.156	-0.027
-456.011	209.950	0.084	0.131
-454.997	-48.722	0.134	-0.064
-453.982	-157.294	-0.418	-0.025
-452.968	495.191	-0.185	-0.421
-451.953	-39.175	-0.394	0.206
-450.938	-38.781	-0.237	-0.124
-449.924	188.845	0.020	-0.030
-448.909	-13.019	-0.153	-0.099
-447.895	86.201	-0.175	-0.191
-446.880	-144.448	-0.105	-0.010
-445.865	-97.699	-0.425	0.109
-444.851	181.933	-0.178	0.259
-443.836	460.004	0.127	0.281
-442.822	-200.000	0.017	0.380
-441.807	-200.000	0.007	0.171
-440.792	-200.000	0.013	-0.256
-439.778	41.696	0.187	-0.168
-438.763	-200.000	0.032	-0.141
-437.749	-200.000	-0.030	-0.374
-436.734	145.328	0.056	0.075
-435.719	296.760	0.104	-0.189
-434.705	402.601	0.157	0.327
-433.690	-155.137	0.137	-0.009
-432.676	45.800	-0.058	-0.053
-431.661	800.000	0.052	0.210
-430.646	-101.535	0.232	-0.056
-429.632	68.733	-0.105	0.107
-428.617	800.000	0.117	0.485
-427.603	-184.077	-0.161	0.003
-426.588	-125.069	0.126	-0.019
-425.573	303.403	-0.218	-0.401
-424.559	201.700	0.073	0.112
-423.544	49.789	-0.112	0.104
-422.530	8.313	0.047	-0.035
-421.515	737.095	0.119	-0.316
-420.500	10.860	-0.222	-0.168
-419.486	-72.291	0.268	-0.098
-418.471	-35.467	0.144	0.077
-417.457	-39.905	0.154	0.080
-416.442	27.731	0.233	-0.195
-415.428	-200.000	-0.021	-0.171
-414.413	-86.012	0.025	0.008
-413.398	100.282	0.088	-0.102
-412.384	-130.122	0.138	0.019
-411.369	257.813	0.160	-0.272
-410.355	64.174	-0.158	0.158
-409.340	-65.011	-0.081	-0.032
-408.325	492.071	0.153	0.348
-407.311	243.339	-0.059	0.098
-406.296	740.149	-0.207	-0.551
-405.282	-75.946	0.196	-0.069
-404.267	589.448	-0.069	0.169
-403.252	-3.087	0.187	0.129
-402.238	-126.902	0.056	0.008
-401.223	-59.368	0.077	0.033
-400.209	-200.000	0.006	-0.046
-399.194	-200.000	0.038	-0.223
-398.179	-55.571	0.301	0.133
-397.165	357.138	0.066	-0.131
-396.150	-1.577	0.106	0.074
-395.136	-83.248	0.278	-0.088
-394.121	-28.753	0.068	0.039
-393.106	393.547	0.103	0.213
-392.092	24.668	-0.271	0.222
-391.077	-76.447	0.168	0.058
-390.063	324.588	-0.051	0.096
-389.048	10.673	-0.204	-0.154
-388.033	419.599	-0.109	-0.231
-387.019	-13.117	0.377	-0.243
-386.004	-64.457	-0.485	0.195
-384.990	800.000	-0.046	0.136
-383.975	214.098	-0.144	-0.226
-382.960	178.835	-0.049	-0.070
-381.946	-200.000	-0.023	0.150
-380.931	41.246	0.102	0.092
-379.917	465.974	-0.092	0.204
-378.902	52.963	-0.057	-0.054
-377.888	584.847	0.073	0.178
-376.873	42.825	0.170	-0.153
-375.858	-200.000	0.024	0.524
-374.844	-129.328	-0.256	0.035
-373.829	-38.385	-0.036	-0.019
-372.815	-43.516	-0.216	0.108
-371.800	39.381	-0.063	-0.056
-370.785	-200.000	-0.047	-0.298
-369.771	35.772	0.040	-0.035
-368.756	13.820	0.091	0.070
-367.742	714.826	0.021	-0.056
-366.727	-8.613	0.142	-0.094
-365.712	800.000	-0.078	0.233
-364.698	-200.000	0.050	0.382
-363.683	-170.685	-0.078	-0.003
-362.669	-37.910	-0.279	-0.147
-361.654	-87.535	0.016	-0.005
-360.639	594.829	0.035	0.086
-359.625	-7.988	0.312	0.208
-358.610	-86.971	0.177	0.053
-357.596	784.772	-0.060	-0.162
-356.581	90.496	0.116	-0.128
-355.566	111.985	-0.194	-0.231
-354.552	-126.678	0.113	-0.016
-353.537	-200.000	-0.005	-0.093
-352.523	-25.223	-0.181	0.106
-351.508	-152.021	0.525	0.038
-350.493	-122.337	-0.209	-0.034
-349.479	-44.616	0.318	-0.157
-348.464	57.931	0.058	0.056
-347.450	-200.000	-0.039	-0.217
-346.435	-89.110	0.194	-0.057
-345.420	-200.000	-0.030	0.243
-344.406	-122.423	0.158	-0.026
-343.391	26.055	-0.131	-0.108
-342.377	-200.000	-0.025	0.127
-341.362	-15.788	0.180	0.113
-340.348	254.117	-0.157	-0.265
-339.333	-200.000	0.031	-0.286
-338.318	138.734	-0.108	0.140
-337.304	211.362	0.161	-0.251
-336.289	-115.790	0.204	0.038
-335.275	-200.000	-0.007	-0.226
-334.260	345.927	0.057	0.111
-333.245	-200.000	0.030	0.230
-332.231	-94.265	0.170	0.046
-331.216	386.439	0.139	0.283
-330.202	-20.346	0.180	0.109
-329.187	41.312	0.037	0.033
-328.172	18.178	0.103	-0.081
-327.158	-119.547	-0.386	-0.066
-326.143	-138.804	-0.080	0.009
-325.129	-200.000	0.020	0.191
-324.114	-72.758	-0.144	-0.053
-323.099	-17.685	0.274	-0.170
-322.085	-43.224	-0.289	0.144
-321.070	-136.990	-0.307	-0.035
-320.056	653.275	0.068	-0.173
-319.041	-200.000	-0.038	-0.319
-318.026	-84.559	-0.037	-0.011
-317.012	-88.872	-0.241	-0.071
-315.997	-77.540	-0.374	0.128
-314.983	-180.253	-0.257	-0.005
-313.968	-200.000	-0.164	-0.001
-312.953	-101.258	0.090	-0.022
-311.939	800.000	0.035	0.147
-310.924	15.639	-0.113	-0.087
-309.910	102.555	-0.091	-0.105
-308.895	98.685	0.308	-0.351
-307.880	-79.618	-0.162	-0.054
-306.866	193.489	0.064	-0.096
-305.851	800.000	0.080	-0.314
-304.837	-51.499	0.085	0.039
-303.822	800.000	-0.099	0.307
-302.807	-180.929	0.260	-0.005
-301.793	-184.006	-0.099	-0.002
-300.778	521.851	0.071	0.164
-299.764	-200.000	0.010	0.156
-298.749	-49.281	-0.359	0.169
-297.735	44.080	0.189	-0.171
-296.720	-200.000	0.004	0.027
-295.705	800.000	0.093	0.256
-294.691	225.995	0.356	0.569
-293.676	-37.009	0.092	-0.049
-292.662	143.255	-0.292	-0.383
-291.647	-34.635	-0.126	0.068
-290.632	-18.282	-0.340	0.210
-289.618	217.009	0.117	-0.184
-288.603	100.181	0.110	-0.126
-287.589	-164.460	0.135	-0.006
-286.574	91.901	-0.106	-0.118
-285.559	-52.381	-0.225	-0.103
-284.545	-34.485	-0.170	0.092
-283.530	-151.787	0.225	0.016
-282.516	-200.000	-0.032	-0.238
-281.501	220.043	0.192	-0.304
-280.486	415.380	0.070	-0.148
-279.472	800.000	0.025	0.084
-278.457	-68.702	0.368	0.140
-277.443	-200.000	-0.009	-0.115
-276.428	-110.643	-0.212	-0.043
-275.413	-47.884	0.275	-0.131
-274.399	-200.000	-0.026	0.226
-273.384	444.735	-0.156	0.338
-272.370	-88.958	-0.248	-0.072
-271.355	163.017	-0.081	-0.113
-270.340	671.480	-0.015	0.038
-269.326	74.203	-0.033	0.034
-268.311	-200.000	0.011	-0.137
-267.297	13.599	0.291	-0.223
-266.282	-153.688	-0.113	-0.008
-265.267	541.311	-0.054	0.128
-264.253	-200.000	0.010	-0.112
-263.238	-65.491	-0.075	0.030
-262.224	551.265	0.009	0.022
-261.209	283.423	0.248	0.438
-260.195	139.515	0.036	0.046
-259.180	233.140	0.150	0.243
-258.165	6.429	0.157	0.115
-257.151	412.070	0.016	-0.033
-256.136	391.034	-0.053	0.109
-255.122	11.404	-0.091	-0.069
-254.107	800.000	0.081	0.266
-253.092	-128.385	-0.088	0.012
-252.078	-66.865	-0.137	0.053
-251.063	-111.082	0.099	-0.020
-250.049	800.000	-0.097	0.328
-249.034	81.882	-0.071	-0.075
-248.019	-12.887	-0.242	0.155
-247.005	105.652	0.026	0.031
-245.990	446.050	0.136	-0.294
-244.976	425.966	0.067	0.142
-243.961	-200.000	0.015	0.167
-242.946	-114.648	-0.290	-0.055
-241.932	182.129	-0.189	0.275
-240.917	114.008	0.091	-0.109
-239.903	800.000	-0.096	0.381
-238.888	-75.266	0.443	0.156
-237.873	-89.856	0.095	0.027
-236.859	-144.624	0.305	0.028
-235.844	-168.055	0.329	0.013
-234.830	-83.386	-0.165	0.052
-233.815	-180.972	-0.126	-0.003
-232.800	152.911	-0.184	-0.248
-231.786	-36.977	-0.098	0.052
-230.771	-11.782	0.195	-0.126
-229.757	-148.830	-0.263	0.021
-228.742	-200.000	-0.023	-0.123
-227.727	129.497	-0.064	-0.080
-226.713	-7.698	-0.127	0.085
-225.698	772.814	-0.079	-0.213
-224.684	430.454	0.212	-0.451
-223.669	582.210	0.158	0.381
-222.655	-200.000	0.069	0.451
-221.640	100.819	-0.223	-0.255
-220.625	0.727	0.164	0.115
-219.611	800.000	0.054	0.182
-218.596	-140.758	-0.145	-0.015
-217.582	-126.053	0.145	0.021
-216.567	-4.992	0.106	0.072
-215.552	-5.526	-0.163	-0.110
-214.538	118.546	-0.116	-0.141
-213.523	-79.973	0.145	-0.048
-212.509	594.891	-0.072	0.175
-211.494	-200.000	0.074	-0.350
-210.479	101.048	-0.303	-0.346
-209.465	50.855	0.095	0.088
-208.450	161.307	0.108	-0.149
-207.436	-66.895	-0.275	-0.107
-206.421	240.855	-0.135	0.221
-205.406	-111.467	0.177	0.035
-204.392	-99.423	-0.174	0.043
-203.377	-200.000	-0.010	0.232
-202.363	68.220	0.281	-0.283
-201.348	358.579	0.079	0.156
-200.333	479.911	0.118	0.263
-199.319	-55.021	0.383	-0.170
-198.304	-24.583	0.112	0.066
-197.290	304.945	-0.210	0.384
-196.275	800.000	-0.064	0.219
-195.260	-200.000	-0.005	0.114
-194.246	-133.878	-0.108	-0.013
-193.231	800.000	0.101	0.319
-192.217	-71.694	-0.271	-0.100
-191.202	-42.077	-0.348	-0.175
-190.187	-200.000	-0.064	0.299
-189.173	-0.866	-0.174	0.121
-188.158	800.000	0.083	-0.269
-187.144	373.477	0.125	0.249
-186.129	-80.511	-0.197	0.065
-185.114	800.000	-0.020	-0.084
-184.100	151.169	-0.220	0.294
-183.085	-84.539	0.119	0.037
-182.071	108.767	0.234	0.274
-181.056	-49.605	0.109	0.051
-180.042	800.000	0.067	-0.206
-179.027	214.326	-0.039	0.061
-178.012	800.000	0.081	-0.277
-176.998	-171.511	-0.105	0.003
-175.983	773.705	-0.067	-0.179
-174.969	800.000	-0.029	-0.121
-173.954	-64.793	0.219	0.087
-172.939	800.000	-0.066	-0.199
-171.925	-11.416	0.228	-0.147
-170.910	-106.804	0.208	0.045
-169.896	233.256	-0.044	-0.071
-168.881	-93.275	-0.157	0.043
-167.866	800.000	-0.078	-0.295
-166.852	-12.327	-0.149	-0.096
-165.837	62.309	-0.171	0.167
-164.823	-200.000	0.006	0.209
-163.808	310.679	0.010	-0.019
-162.793	211.514	0.062	0.096
-161.779	403.620	-0.164	-0.339
-160.764	-200.000	-0.023	-0.358
-159.750	-60.731	0.108	0.045
-158.735	-91.113	0.339	0.096
-157.720	231.978	-0.177	-0.284
-156.706	725.216	0.117	-0.305
-155.691	82.793	0.057	-0.061
-154.677	-200.000	-0.040	0.200
-153.662	-6.649	-0.096	0.064
-152.647	111.370	-0.238	0.281
-151.633	-192.487	0.405	0.004
-150.618	-100.950	0.302	0.073
-149.604	-28.550	-0.147	0.083
-148.589	-200.000	-0.407	0.002
-147.574	413.753	0.034	0.070
-146.560	-56.062	0.044	-0.019
-145.545	126.391	0.236	-0.293
-144.531	-38.463	0.202	-0.105
-143.516	55.767	0.328	0.312
-142.502	234.233	-0.094	0.152
-141.487	183.364	0.173	0.250
-140.472	8.569	0.023	0.017
-139.458	-83.499	0.152	0.048
-138.443	335.898	-0.168	-0.320
-137.429	475.730	-0.104	-0.230
-136.414	800.000	0.059	-0.210
-135.399	698.532	-0.176	0.454
-134.385	-95.187	0.043	-0.011
-133.370	-93.969	-0.410	0.110
-132.356	-108.036	0.259	0.055
-131.341	21.435	-0.235	-0.187
-130.326	148.329	0.208	-0.275
-129.312	800.000	0.075	0.224
-128.297	275.046	-0.073	0.127
-127.283	16.843	0.281	0.218
-126.268	800.000	-0.073	-0.207
-125.253	223.791	-0.113	-0.179
-124.239	38.068	0.107	0.093
-123.224	-200.000	-0.040	0.406
-122.210	800.000	0.044	-0.150
-121.195	-19.489	0.153	0.093
-120.180	-22.506	0.335	0.199
