DTS Sentinel unit serial number:	SN413079Multiplexer serial number:	ORYXHardware model number:	OX4-SRSoftware version number:	ORYX F/W v4.00 Oryx Data Collector v3.7.2.0data status	okinstallation	princeton_trtdifferential loss correction	single-endedforward channel	channel 3reverse channel	N/Adate	2019/09/17time	07:40:35forward acquisition time	60.00reverse acquisition time	0.00gamma	496.2192k internal	0.2335k external	0.2335temperature offset calibration	0.9938default loss term (dB/km)	0.3790temperature slope calibration	1.0000multiplexer offset coefficient	1.0000multiplexer slope coefficient	1.0000fibre end	0.00T internal ref (°C)	27.19T ext. ref 1 (°C)	0.12T ext. ref 2 (°C)	21.90length (m)	temperature (°C)	Stokes	anti-Stokes-747.200	-193.145	0.227	0.002
-746.185	800.000	0.030	-0.132
-745.171	-14.740	-0.098	0.063
-744.156	-173.016	-0.292	0.009
-743.142	82.091	-0.095	-0.103
-742.127	-61.884	-0.029	-0.012
-741.112	-2.945	-0.134	0.094
-740.098	-200.000	-0.033	0.174
-739.083	-28.237	-0.194	-0.113
-738.069	51.866	-0.053	-0.050
-737.054	800.000	0.100	-0.306
-736.039	-135.694	-0.246	-0.029
-735.025	327.825	0.166	0.321
-734.010	8.080	0.137	-0.104
-732.996	56.540	0.057	-0.055
-731.981	123.540	-0.245	-0.309
-730.966	-106.177	-0.134	-0.030
-729.952	-150.172	-0.382	-0.030
-728.937	-0.866	-0.197	0.140
-727.923	272.180	0.052	-0.092
-726.908	-46.229	0.207	0.102
-725.894	-83.000	-0.362	-0.117
-724.879	-66.107	-0.152	0.061
-723.864	800.000	-0.061	-0.262
-722.850	162.221	-0.094	-0.132
-721.835	506.130	0.046	0.107
-720.821	543.608	0.034	-0.083
-719.806	47.826	0.107	-0.100
-718.791	-75.701	-0.333	-0.119
-717.777	48.097	-0.071	-0.067
-716.762	620.610	-0.105	0.266
-715.748	-200.000	0.008	-0.120
-714.733	-200.000	0.103	-0.460
-713.718	-200.000	0.002	-0.257
-712.704	59.178	-0.109	0.108
-711.689	-200.000	-0.034	-0.331
-710.675	-62.950	-0.073	-0.030
-709.660	-13.780	-0.102	0.066
-708.645	-155.481	0.068	0.004
-707.631	800.000	0.100	-0.294
-706.616	-63.725	-0.089	-0.037
-705.602	-120.223	-0.197	0.034
-704.587	-200.000	-0.096	-0.564
-703.572	-131.909	-0.173	0.023
-702.558	-200.000	-0.003	0.061
-701.543	43.105	-0.319	-0.292
-700.529	-119.533	0.030	0.005
-699.514	800.000	-0.055	0.204
-698.499	-22.828	0.221	-0.134
-697.485	-200.000	-0.053	0.256
-696.470	-155.852	0.182	-0.012
-695.456	103.557	0.103	-0.121
-694.441	-154.766	0.455	0.030
-693.426	192.706	-0.125	0.189
-692.412	99.539	-0.071	-0.082
-691.397	4.436	0.041	0.030
-690.383	-200.000	0.043	0.281
-689.368	-200.000	0.019	-0.165
-688.354	263.581	0.154	-0.268
-687.339	-128.572	-0.071	-0.010
-686.324	-72.847	0.237	0.087
-685.310	-160.577	-0.144	-0.008
-684.295	-200.000	0.051	-0.409
-683.281	-178.398	-0.229	-0.005
-682.266	-7.889	-0.187	0.127
-681.251	-196.768	-0.293	-0.002
-680.237	195.237	0.020	-0.030
-679.222	-112.465	-0.348	-0.070
-678.208	12.993	-0.337	-0.262
-677.193	-64.500	-0.271	0.110
-676.178	5.222	-0.133	0.098
-675.164	47.382	-0.227	-0.212
-674.149	-118.232	0.238	0.042
-673.135	530.055	0.090	0.214
-672.120	-159.288	-0.253	0.014
-671.105	-200.000	-0.019	0.145
-670.091	-200.000	-0.008	0.241
-669.076	69.642	-0.010	0.011
-668.062	14.671	-0.159	-0.125
-667.047	-170.462	-0.102	-0.004
-666.032	311.782	-0.021	0.039
-665.018	-118.194	0.303	0.054
-664.003	-124.994	0.254	0.039
-662.989	495.978	0.122	-0.280
-661.974	71.656	-0.146	0.152
-660.959	74.909	-0.205	0.216
-659.945	-85.559	-0.189	0.059
-658.930	-200.000	-0.029	0.353
-657.916	-37.791	0.240	0.128
-656.901	800.000	-0.074	-0.261
-655.886	-165.184	0.109	-0.005
-654.872	20.379	-0.072	-0.058
-653.857	-15.792	-0.165	-0.105
-652.843	-200.000	-0.038	-0.329
-651.828	-33.965	-0.311	-0.171
-650.814	-1.298	-0.306	0.216
-649.799	-200.000	-0.021	0.410
-648.784	800.000	0.057	0.183
-647.770	-3.854	0.307	-0.214
-646.755	61.032	-0.062	0.061
-645.741	33.091	0.157	-0.136
-644.726	-152.986	-0.288	0.020
-643.711	-119.341	0.085	0.015
-642.697	-200.000	-0.015	-0.255
-641.682	-93.059	-0.219	-0.061
-640.668	-22.927	0.275	-0.166
-639.653	-97.840	-0.385	0.100
-638.638	35.356	0.146	0.128
-637.624	-87.799	0.160	-0.048
-636.609	800.000	0.079	-0.230
-635.595	-200.000	-0.008	-0.298
-634.580	-109.032	-0.357	-0.076
-633.565	800.000	-0.084	0.248
-632.551	-164.501	0.150	-0.007
-631.536	800.000	-0.053	-0.162
-630.522	473.435	0.126	0.283
-629.507	-200.000	-0.013	0.269
-628.492	-126.244	-0.273	0.041
-627.478	-52.525	0.241	-0.111
-626.463	-200.000	-0.001	0.228
-625.449	503.144	-0.116	-0.268
-624.434	-28.140	0.175	0.101
-623.419	-61.505	-0.253	-0.106
-622.405	80.051	-0.068	-0.073
-621.390	-180.002	0.135	-0.003
-620.376	176.956	0.102	-0.149
-619.361	800.000	0.044	0.149
-618.346	-91.890	0.164	0.047
-617.332	-46.629	-0.084	0.041
-616.317	339.988	0.128	-0.250
-615.303	-185.135	-0.244	0.004
-614.288	265.707	-0.086	-0.150
-613.273	158.201	0.156	-0.216
-612.259	-77.312	0.260	0.090
-611.244	-189.349	-0.311	0.004
-610.230	350.766	-0.098	0.194
-609.215	48.876	0.381	0.357
-608.201	278.814	-0.130	0.232
-607.186	-101.862	0.070	0.017
-606.171	-81.152	-0.159	0.053
-605.157	-200.000	0.026	0.132
-604.142	-161.279	0.355	0.018
-603.128	-200.000	0.027	0.241
-602.113	-98.188	-0.158	-0.041
-601.098	-77.483	0.256	0.089
-600.084	800.000	0.054	-0.229
-599.069	800.000	-0.091	-0.268
-598.055	-4.595	0.096	-0.066
-597.040	-9.147	0.154	0.103
-596.025	800.000	0.068	-0.286
-595.011	-41.710	-0.096	0.049
-593.996	-109.999	-0.151	-0.031
-592.982	7.978	0.230	0.173
-591.967	495.455	-0.135	-0.310
-590.952	63.127	-0.265	-0.265
-589.938	-198.246	-0.309	-0.002
-588.923	90.842	0.252	0.282
-587.909	-77.805	-0.073	0.025
-586.894	44.108	-0.167	0.153
-585.879	125.190	0.141	0.178
-584.865	-3.861	0.016	0.011
-583.850	-131.855	-0.382	0.050
-582.836	68.275	-0.276	0.282
-581.821	325.210	-0.129	0.246
-580.806	-26.152	0.139	0.081
-579.792	0.887	-0.217	-0.155
-578.777	3.078	-0.174	0.126
-577.763	90.315	0.245	-0.274
-576.748	-200.000	-0.024	-0.123
-575.733	682.406	0.051	0.132
-574.719	800.000	0.053	-0.181
-573.704	65.678	0.213	0.216
-572.690	800.000	0.064	0.215
-571.675	-94.149	0.234	0.064
-570.661	109.573	-0.057	-0.069
-569.646	-97.657	0.394	0.102
-568.631	-94.156	0.419	0.114
-567.617	-118.837	0.162	-0.028
-566.602	10.576	0.045	-0.034
-565.588	-200.000	-0.020	-0.164
-564.573	-200.000	0.025	0.136
-563.558	-200.000	0.045	0.345
-562.544	-200.000	-0.009	-0.381
-561.529	800.000	-0.051	-0.177
-560.515	3.921	-0.089	0.065
-559.500	-63.140	-0.340	-0.140
-558.485	7.702	-0.276	-0.206
-557.471	17.548	-0.245	-0.194
-556.456	24.900	-0.084	-0.070
-555.442	800.000	-0.062	-0.173
-554.427	2.662	0.037	0.027
-553.412	-52.226	0.049	-0.023
-552.398	-200.000	-0.033	0.278
-551.383	800.000	0.083	-0.284
-550.369	800.000	-0.086	0.284
-549.354	-200.000	-0.006	-0.034
-548.339	-21.884	-0.195	-0.118
-547.325	10.215	-0.272	0.206
-546.310	-23.795	-0.010	0.006
-545.296	-159.891	-0.163	0.009
-544.281	235.844	-0.066	0.109
-543.266	-64.517	-0.228	-0.092
-542.252	233.627	-0.024	-0.039
-541.237	-0.675	0.155	0.109
-540.223	-200.000	-0.032	-0.174
-539.208	28.120	0.199	-0.167
-538.193	-77.505	-0.356	-0.123
-537.179	685.934	-0.168	-0.436
-536.164	-7.073	-0.327	-0.221
-535.150	-200.000	-0.060	-0.454
-534.135	107.875	0.061	-0.073
-533.121	-200.000	0.101	0.000
-532.106	-97.285	0.221	-0.057
-531.091	-200.000	0.004	-0.365
-530.077	-72.610	-0.326	-0.120
-529.062	246.400	0.130	-0.219
-528.048	-148.114	-0.195	-0.016
-527.033	25.305	0.057	-0.047
-526.018	152.568	0.142	0.193
-525.004	-163.591	0.048	-0.002
-523.989	334.131	-0.119	-0.229
-522.975	-31.186	0.129	-0.073
-521.960	184.714	0.125	-0.185
-520.945	112.622	-0.082	0.099
-519.931	-115.580	-0.126	0.024
-518.916	-200.000	0.061	0.338
-517.902	-200.000	0.066	0.335
-516.887	-21.574	-0.297	-0.180
-515.872	-200.000	0.006	0.241
-514.858	205.685	-0.077	-0.118
-513.843	-80.009	-0.197	0.066
-512.829	-18.633	-0.089	0.055
-511.814	431.662	0.115	0.248
-510.799	-126.552	-0.386	0.057
-509.785	-200.000	0.010	-0.059
-508.770	-83.534	-0.021	-0.007
-507.756	800.000	0.048	-0.203
-506.741	260.063	-0.186	-0.320
-505.726	98.253	-0.222	0.254
-504.712	-107.103	-0.316	-0.069
-503.697	-7.320	-0.100	0.068
-502.683	453.341	-0.075	-0.166
-501.668	28.403	0.103	0.087
-500.653	-107.908	-0.148	0.032
-499.639	183.076	0.251	-0.369
-498.624	-120.846	-0.314	0.053
-497.610	-200.000	-0.038	-0.172
-496.595	-26.385	-0.117	-0.068
-495.581	140.948	0.057	-0.075
-494.566	160.963	0.118	0.164
-493.551	35.475	0.228	0.199
-492.537	800.000	-0.051	0.211
-491.522	688.342	0.061	0.158
-490.508	-163.040	0.198	-0.010
-489.493	-105.464	0.162	0.037
-488.478	-60.449	-0.097	-0.041
-487.464	290.636	0.084	-0.152
-486.449	-200.000	-0.030	-0.251
-485.435	-113.685	0.149	0.029
-484.420	20.917	0.179	0.144
-483.405	136.107	-0.354	0.459
-482.391	-89.897	0.092	-0.027
-481.376	-122.392	-0.080	0.013
-480.362	148.640	-0.069	0.092
-479.347	800.000	-0.126	0.451
-478.332	4.117	0.181	-0.132
-477.318	129.351	0.197	-0.250
-476.303	12.729	0.025	0.019
-475.289	-200.000	0.005	-0.086
-474.274	800.000	0.071	0.207
-473.259	-92.502	-0.211	0.059
-472.245	49.599	-0.087	-0.082
-471.230	-19.096	0.322	-0.199
-470.216	48.836	-0.219	0.205
-469.201	-200.000	-0.031	0.174
-468.186	-73.589	0.139	0.050
-467.172	92.190	0.147	0.164
-466.157	-200.000	0.002	-0.184
-465.143	262.794	0.098	-0.170
-464.128	-142.460	-0.122	-0.012
-463.113	145.470	-0.072	0.096
-462.099	-113.817	0.279	0.054
-461.084	104.304	0.059	0.069
-460.070	46.849	0.020	-0.018
-459.055	246.342	-0.046	-0.077
-458.040	-200.000	-0.041	-0.189
-457.026	109.150	-0.121	-0.144
-456.011	-143.138	-0.115	-0.011
-454.997	-200.000	0.013	-0.281
-453.982	27.332	-0.213	-0.178
-452.968	-16.210	0.046	0.029
-451.953	-200.000	-0.000	0.224
-450.938	-42.308	0.377	0.191
-449.924	800.000	0.060	0.198
-448.909	-178.280	0.219	-0.005
-447.895	-44.956	0.061	0.030
-446.880	-200.000	-0.002	-0.047
-445.865	136.405	-0.094	-0.122
-444.851	-200.000	-0.005	-0.280
-443.836	-77.626	-0.158	-0.054
-442.822	610.471	0.130	-0.324
-441.807	71.325	0.078	-0.080
-440.792	-159.677	-0.358	-0.020
-439.778	510.429	-0.129	-0.298
-438.763	464.959	0.108	-0.240
-437.749	54.435	0.113	0.108
-436.734	25.563	0.156	0.129
-435.719	800.000	0.055	0.223
-434.705	194.945	-0.029	-0.044
-433.690	-75.572	0.361	0.127
-432.676	421.449	0.061	0.131
-431.661	251.331	-0.094	-0.158
-430.646	300.194	-0.179	0.327
-429.632	43.651	-0.077	-0.070
-428.617	-41.996	0.229	0.116
-427.603	55.358	-0.087	-0.084
-426.588	-100.084	-0.239	0.059
-425.573	-200.000	0.002	0.116
-424.559	-200.000	-0.002	-0.119
-423.544	-14.927	-0.061	0.039
-422.530	147.719	0.180	-0.241
-421.515	-7.034	0.168	0.113
-420.500	52.747	0.285	0.270
-419.486	-13.649	0.254	0.163
-418.471	-18.054	0.246	-0.153
-417.457	8.123	-0.250	-0.186
-416.442	-179.971	0.143	-0.003
-415.428	-1.005	0.232	-0.163
-414.413	-42.555	0.043	0.022
-413.398	246.544	0.234	-0.391
-412.384	233.473	-0.157	-0.256
-411.369	-200.000	-0.002	0.173
-410.355	-54.831	0.236	-0.105
-409.340	-168.745	-0.242	-0.009
-408.325	-67.307	-0.214	-0.083
-407.311	3.064	-0.058	-0.042
-406.296	-200.000	0.010	0.052
-405.282	800.000	0.093	-0.350
-404.267	-200.000	0.012	-0.311
-403.252	-200.000	-0.328	0.001
-402.238	30.108	0.059	0.050
-401.223	312.890	-0.199	-0.370
-400.209	63.972	0.127	-0.126
-399.194	-200.000	-0.046	-0.371
-398.179	74.027	-0.199	-0.207
-397.165	-200.000	-0.030	0.332
-396.150	183.091	0.244	0.357
-395.136	-3.424	-0.023	-0.016
-394.121	-103.755	0.403	-0.094
-393.106	169.719	0.153	-0.217
-392.092	800.000	-0.048	0.180
-391.077	-65.926	0.103	0.041
-390.063	-62.947	-0.202	-0.083
-389.048	-59.574	0.238	-0.101
-388.033	-200.000	-0.034	0.169
-387.019	747.608	0.076	0.203
-386.004	90.774	-0.171	0.190
-384.990	-196.210	0.110	-0.001
-383.975	226.723	0.027	-0.044
-382.960	-200.000	0.012	0.319
-381.946	483.426	0.066	-0.149
-380.931	398.432	-0.175	-0.362
-379.917	-44.857	-0.170	0.084
-378.902	636.941	-0.085	-0.214
-377.888	-30.989	-0.458	-0.256
-376.873	-39.975	0.262	0.135
-375.858	-119.426	-0.201	0.035
-374.844	218.480	0.029	-0.045
-373.829	-22.195	0.101	-0.061
-372.815	85.946	-0.045	0.049
-371.800	-149.384	0.131	-0.010
-370.785	389.606	0.173	0.355
-369.771	130.457	0.286	0.363
-368.756	189.084	-0.027	0.039
-367.742	-33.057	0.147	0.081
-366.727	-200.000	0.017	0.361
-365.712	-152.365	-0.209	0.015
-364.698	-17.107	0.172	0.107
-363.683	490.039	-0.093	-0.211
-362.669	-182.636	0.452	0.008
-361.654	-200.000	-0.013	0.175
-360.639	-101.965	-0.038	-0.009
-359.625	642.247	0.060	-0.151
-358.610	9.242	-0.385	0.288
-357.596	749.725	0.097	0.259
-356.581	-75.206	0.453	-0.160
-355.566	-200.000	-0.011	0.205
-354.552	31.933	0.200	0.171
-353.537	329.628	-0.046	0.087
-352.523	-52.582	-0.267	-0.122
-351.508	-79.034	-0.106	-0.036
-350.493	692.228	-0.111	-0.287
-349.479	243.867	0.068	-0.112
-348.464	-200.000	-0.023	-0.102
-347.450	-65.953	-0.303	0.120
-346.435	11.189	-0.196	0.149
-345.420	791.891	-0.035	0.094
-344.406	-200.000	-0.022	0.355
-343.391	60.161	0.213	-0.208
-342.377	23.725	-0.102	0.083
-341.362	-16.306	0.046	-0.029
-340.348	-200.000	-0.016	0.168
-339.333	113.646	0.301	-0.362
-338.318	-200.000	-0.014	0.270
-337.304	-4.077	-0.071	-0.049
-336.289	226.326	-0.322	0.517
-335.275	-200.000	0.092	-0.466
-334.260	-80.876	0.125	0.041
-333.245	-200.000	0.019	0.119
-332.231	800.000	0.041	-0.164
-331.216	29.791	-0.072	-0.060
-330.202	-72.357	0.103	0.038
-329.187	-113.321	-0.182	0.035
-328.172	-200.000	-0.121	0.534
-327.158	-114.668	-0.021	-0.004
-326.143	455.966	0.044	-0.095
-325.129	-3.501	-0.029	0.020
-324.114	162.633	0.163	-0.227
-323.099	-80.312	-0.157	-0.052
-322.085	232.608	-0.090	-0.146
-321.070	-200.000	0.024	-0.298
-320.056	800.000	0.079	-0.273
-319.041	-9.282	-0.156	-0.103
-318.026	89.897	0.243	-0.269
-317.012	428.032	0.090	-0.192
-315.997	-200.000	-0.071	-0.396
-314.983	130.650	0.072	0.091
-313.968	-63.208	-0.281	0.115
-312.953	-53.321	-0.387	-0.175
-311.939	-99.741	-0.239	-0.059
-310.924	114.673	-0.235	-0.283
-309.910	-50.711	0.178	-0.083
-308.895	40.917	0.183	-0.163
-307.880	-130.660	0.401	-0.053
-306.866	-200.000	0.006	-0.075
-305.851	78.279	-0.149	-0.157
-304.837	-200.000	-0.029	-0.177
-303.822	154.337	0.081	-0.110
-302.807	92.245	-0.204	-0.227
-301.793	800.000	-0.086	-0.365
-300.778	800.000	0.031	0.125
-299.764	-108.700	-0.201	0.043
-298.749	-161.544	0.420	-0.021
-297.735	642.089	0.052	-0.131
-296.720	21.945	0.145	-0.117
-295.705	299.545	-0.062	-0.112
-294.691	-42.659	-0.096	-0.048
-293.676	-92.642	0.208	-0.058
-292.662	144.167	0.127	0.167
-291.647	15.829	0.251	-0.195
-290.632	-120.299	-0.202	0.034
-289.618	597.834	-0.042	0.103
-288.603	-134.888	0.349	0.042
-287.589	-4.372	-0.174	0.119
-286.574	800.000	0.066	0.239
-285.559	84.942	0.138	0.149
-284.545	800.000	-0.052	-0.155
-283.530	87.179	0.106	0.115
-282.516	800.000	0.022	0.061
-281.501	-200.000	-0.021	0.140
-280.486	-200.000	-0.042	-0.188
-279.472	88.978	0.061	0.068
-278.457	-14.802	-0.336	-0.213
-277.443	464.294	-0.063	0.138
-276.428	800.000	-0.091	-0.367
-275.413	504.573	0.063	-0.144
-274.399	9.798	0.267	-0.200
-273.384	115.133	0.126	-0.151
-272.370	-200.000	0.016	-0.241
-271.355	-115.598	0.116	0.022
-270.340	-126.519	-0.231	0.034
-269.326	-2.066	0.137	0.095
-268.311	107.599	0.104	-0.122
-267.297	237.904	0.029	0.047
-266.282	-200.000	-0.082	0.385
-265.267	800.000	-0.149	0.467
-264.253	70.249	0.092	0.094
-263.238	0.074	0.223	-0.156
-262.224	-200.000	-0.090	0.448
-261.209	-83.814	-0.213	-0.067
-260.195	28.232	-0.091	-0.075
-259.180	215.738	0.200	0.313
-258.165	-41.789	0.195	0.099
-257.151	-133.654	-0.282	-0.035
-256.136	-200.000	0.013	0.086
-255.122	161.977	-0.104	0.143
-254.107	800.000	-0.051	-0.181
-253.092	-200.000	0.025	0.191
-252.078	800.000	0.038	-0.132
-251.063	232.505	-0.169	0.274
-250.049	800.000	0.051	0.214
-249.034	261.409	0.072	-0.123
-248.019	-200.000	-0.056	0.252
-247.005	237.185	0.210	0.343
-245.990	-4.627	-0.182	-0.124
-244.976	364.436	0.205	0.406
-243.961	-9.546	-0.403	0.265
-242.946	89.611	-0.071	0.078
-241.932	-73.545	0.124	-0.044
-240.917	33.553	-0.093	-0.080
-239.903	-156.964	0.341	-0.021
-238.888	37.527	0.079	-0.069
-237.873	295.410	-0.149	0.269
-236.859	-104.124	0.095	0.022
-235.844	155.339	0.243	0.329
-234.830	-84.643	-0.364	0.113
-233.815	282.008	0.107	-0.190
-232.800	-110.464	-0.302	-0.062
-231.786	190.829	0.172	-0.255
-230.771	-200.000	0.021	-0.213
-229.757	-25.910	0.328	-0.190
-228.742	636.690	-0.090	0.225
-227.727	-16.421	0.119	0.074
-226.713	-58.532	0.266	0.113
-225.698	304.908	-0.039	0.071
-224.684	-200.000	0.027	-0.214
-223.669	-200.000	0.030	0.138
-222.655	3.832	0.163	0.117
-221.640	-84.003	0.308	0.096
-220.625	85.553	0.155	0.167
-219.611	-43.291	-0.283	-0.141
-218.596	-45.096	0.109	0.053
-217.582	-200.000	0.004	0.118
-216.567	-200.000	-0.001	0.130
-215.552	-200.000	0.033	0.236
-214.538	-160.760	0.077	0.004
-213.523	343.658	-0.042	-0.080
-212.509	-200.000	-0.003	0.162
-211.494	4.926	-0.193	-0.140
-210.479	-119.190	0.079	0.014
-209.465	-59.966	-0.483	-0.203
-208.450	-200.000	-0.022	-0.157
-207.436	199.621	-0.201	0.303
-206.421	28.117	-0.231	0.192
-205.406	192.270	0.241	-0.358
-204.392	8.176	-0.092	0.068
-203.377	-61.195	0.286	-0.119
-202.363	-200.000	-0.005	0.408
-201.348	-96.997	0.084	0.022
-200.333	-52.300	0.149	0.068
-199.319	-200.000	-0.014	-0.115
-198.304	75.254	0.167	-0.174
-197.290	-200.000	-0.004	0.090
-196.275	-10.463	-0.012	0.008
-195.260	259.026	0.112	-0.190
-194.246	291.715	-0.142	-0.254
-193.231	-160.981	0.223	0.012
-192.217	160.425	0.169	0.232
-191.202	-35.268	0.322	-0.172
-190.187	189.653	-0.130	0.192
-189.173	-60.197	-0.362	0.152
-188.158	-129.115	0.205	0.028
-187.144	77.869	-0.277	0.290
-186.129	800.000	-0.035	0.132
-185.114	-200.000	-0.028	0.311
-184.100	189.011	0.031	-0.045
-183.085	-200.000	-0.076	-0.377
-182.071	800.000	0.094	0.371
-181.056	-200.000	0.018	-0.081
-180.042	-95.502	0.162	0.043
-179.027	396.844	0.048	0.098
-178.012	261.748	-0.072	0.123
-176.998	139.383	0.047	0.060
-175.983	93.152	0.145	0.162
-174.969	-26.928	-0.422	0.242
-173.954	5.753	-0.498	-0.362
-172.939	125.046	0.089	0.110
-171.925	99.405	-0.016	-0.018
-170.910	299.456	-0.148	0.269
-169.896	-200.000	0.009	0.178
-168.881	129.961	0.134	0.168
-167.866	84.734	0.115	-0.124
-166.852	278.778	0.199	0.348
-165.837	54.902	-0.148	-0.140
-164.823	215.356	-0.013	-0.021
-163.808	-200.000	-0.035	-0.230
-162.793	-93.773	-0.122	0.033
-161.779	462.447	-0.092	-0.202
-160.764	-200.000	-0.068	-0.297
-159.750	-94.914	0.249	0.066
-158.735	-30.516	0.241	-0.134
-157.720	53.354	-0.226	0.213
-156.706	-200.000	-0.020	0.283
-155.691	186.079	0.142	-0.208
-154.677	-67.795	-0.232	0.089
-153.662	89.042	0.207	0.226
-152.647	-152.847	-0.240	0.017
-151.633	27.387	-0.039	-0.032
-150.618	800.000	0.075	0.272
-149.604	62.235	-0.171	0.168
-148.589	317.412	0.150	0.279
-147.574	-134.853	0.222	0.026
-146.560	500.269	0.033	0.074
-145.545	800.000	-0.082	-0.342
-144.531	-200.000	-0.004	0.359
-143.516	548.120	-0.106	0.249
-142.502	95.096	-0.088	-0.098
-141.487	303.333	0.079	-0.144
-140.472	2.881	-0.197	-0.140
-139.458	-200.000	0.000	-0.153
-138.443	-110.276	-0.080	0.016
-137.429	227.935	-0.126	0.201
-136.414	-84.606	0.296	0.092
-135.399	139.874	-0.022	0.028
-134.385	-200.000	0.057	0.309
-133.370	171.905	0.176	-0.248
-132.356	75.500	0.232	0.240
-131.341	-128.497	-0.347	-0.048
-130.326	-141.523	0.287	0.028
-129.312	674.655	0.212	0.540
-128.297	-35.364	0.363	0.193
-127.283	-142.124	0.177	-0.017
-126.268	800.000	-0.084	-0.227
-125.253	-200.000	-0.024	-0.272
-124.239	-200.000	0.010	-0.263
-123.224	-1.120	0.134	-0.093
-122.210	-200.000	0.030	-0.130
-121.195	-71.223	-0.089	0.033
