DTS Sentinel unit serial number:	SN413079Multiplexer serial number:	ORYXHardware model number:	OX4-SRSoftware version number:	ORYX F/W v4.00 Oryx Data Collector v3.7.2.0data status	okinstallation	princeton_trtdifferential loss correction	single-endedforward channel	channel 3reverse channel	N/Adate	2019/09/17time	22:00:35forward acquisition time	60.00reverse acquisition time	0.00gamma	496.2192k internal	0.2344k external	0.2344temperature offset calibration	0.9950default loss term (dB/km)	0.3790temperature slope calibration	1.0000multiplexer offset coefficient	1.0000multiplexer slope coefficient	1.0000fibre end	0.00T internal ref (°C)	26.06T ext. ref 1 (°C)	0.18T ext. ref 2 (°C)	18.92length (m)	temperature (°C)	Stokes	anti-Stokes-747.200	124.857	0.139	0.175
-746.185	75.257	-0.246	0.259
-745.171	96.511	0.072	0.082
-744.156	248.043	-0.087	0.147
-743.142	-88.832	0.400	-0.119
-742.127	-200.000	0.025	0.373
-741.112	-200.000	0.016	-0.313
-740.098	2.679	0.146	0.106
-739.083	26.590	0.178	0.149
-738.069	-127.806	-0.263	-0.038
-737.054	-200.000	0.024	-0.118
-736.039	-113.960	-0.076	0.015
-735.025	506.805	0.117	0.272
-734.010	293.042	-0.208	0.379
-732.996	-109.767	-0.160	-0.034
-731.981	-34.468	0.198	0.109
-730.966	-113.192	-0.228	0.045
-729.952	508.367	-0.103	-0.238
-728.937	800.000	-0.053	-0.219
-727.923	-62.319	-0.192	0.080
-726.908	116.503	0.154	0.189
-725.894	-104.218	-0.313	0.073
-724.879	-103.259	-0.131	0.031
-723.864	83.570	-0.149	-0.163
-722.850	-200.000	-0.053	-0.342
-721.835	-117.655	-0.151	0.027
-720.821	-82.800	0.276	-0.089
-719.806	-143.436	-0.405	0.039
-718.791	-91.442	-0.305	-0.087
-717.777	-181.545	0.379	0.007
-716.762	761.956	-0.007	0.019
-715.748	800.000	-0.026	0.108
-714.733	84.461	-0.155	0.170
-713.718	266.148	0.076	0.133
-712.704	183.002	-0.031	-0.046
-711.689	-20.567	0.179	-0.110
-710.675	679.024	-0.184	-0.479
-709.660	-98.140	-0.266	-0.068
-708.645	-200.000	0.030	-0.336
-707.631	800.000	-0.050	-0.207
-706.616	800.000	-0.086	0.313
-705.602	-180.256	0.189	0.004
-704.587	-200.000	-0.026	-0.174
-703.572	-40.628	-0.021	-0.011
-702.558	800.000	-0.069	-0.223
-701.543	800.000	0.029	-0.089
-700.529	-103.817	0.354	-0.083
-699.514	-125.634	-0.222	0.034
-698.499	-122.371	0.120	0.019
-697.485	-200.000	0.039	0.245
-696.470	58.361	0.209	0.205
-695.456	162.219	-0.118	0.165
-694.441	52.236	-0.134	0.128
-693.426	-7.412	-0.116	-0.079
-692.412	-128.470	0.191	-0.027
-691.397	108.778	0.196	-0.234
-690.383	21.205	0.145	-0.118
-689.368	-48.674	-0.081	0.039
-688.354	-200.000	0.048	0.315
-687.339	-38.017	0.252	0.134
-686.324	-200.000	0.006	0.052
-685.310	800.000	0.036	0.105
-684.295	56.809	0.103	-0.100
-683.281	-85.226	-0.296	-0.092
-682.266	-142.929	-0.461	0.045
-681.251	312.656	0.093	-0.175
-680.237	-190.027	-0.242	0.003
-679.222	8.669	0.063	0.047
-678.208	-83.769	-0.225	-0.072
-677.193	-200.000	-0.038	-0.264
-676.178	-105.007	0.269	0.061
-675.164	-53.404	0.227	0.104
-674.149	-100.096	0.051	-0.013
-673.135	-152.655	-0.424	-0.030
-672.120	567.754	0.134	-0.325
-671.105	-200.000	0.064	-0.414
-670.091	3.423	-0.087	-0.063
-669.076	-94.628	0.260	-0.070
-668.062	-200.000	0.027	0.207
-667.047	112.029	-0.134	-0.162
-666.032	-180.454	-0.098	-0.002
-665.018	175.503	-0.007	-0.010
-664.003	-200.000	0.014	-0.075
-662.989	51.524	0.068	0.064
-661.974	-53.988	-0.273	0.124
-660.959	-75.863	-0.292	-0.103
-659.945	800.000	0.043	0.174
-658.930	800.000	0.071	0.207
-657.916	73.586	0.106	-0.110
-656.901	-49.368	0.178	-0.085
-655.886	582.810	-0.085	0.209
-654.872	37.409	0.027	0.024
-653.857	-130.971	0.241	0.032
-652.843	238.559	-0.090	-0.150
-651.828	37.405	0.259	-0.229
-650.814	172.098	0.150	0.214
-649.799	-24.933	-0.320	0.189
-648.784	-200.000	-0.003	0.242
-647.770	-71.066	0.065	0.025
-646.755	-63.952	0.167	-0.068
-645.741	-27.671	-0.039	-0.023
-644.726	-92.147	-0.308	0.087
-643.711	169.123	-0.183	-0.260
-642.697	738.839	-0.070	0.187
-641.682	-155.791	-0.278	0.018
-640.668	-93.625	-0.198	0.055
-639.653	-200.000	-0.017	-0.343
-638.638	-111.651	-0.375	0.076
-637.624	162.314	0.272	-0.381
-636.609	-9.708	0.180	0.120
-635.595	89.150	0.071	-0.079
-634.580	-200.000	0.009	-0.148
-633.565	161.543	-0.140	-0.195
-632.551	117.848	0.198	0.244
-631.536	-64.272	0.207	0.084
-630.522	-59.358	-0.277	-0.119
-629.507	800.000	0.044	-0.147
-628.492	43.908	0.287	-0.262
-627.478	131.771	-0.063	0.081
-626.463	-3.383	0.031	-0.022
-625.449	35.593	0.187	0.163
-624.434	-116.057	-0.051	0.009
-623.419	-200.000	-0.079	0.553
-622.405	-90.809	-0.148	0.043
-621.390	204.577	-0.098	0.151
-620.376	-91.432	0.244	-0.069
-619.361	-70.860	-0.090	-0.034
-618.346	67.440	0.047	0.048
-617.332	66.936	-0.130	-0.132
-616.317	-5.677	-0.050	0.034
-615.303	800.000	-0.045	0.140
-614.288	800.000	-0.073	0.212
-613.273	61.495	0.008	0.008
-612.259	-122.287	0.164	-0.027
-611.244	800.000	0.119	0.459
-610.230	-200.000	0.074	-0.347
-609.215	-96.335	-0.297	-0.078
-608.201	292.074	0.111	0.202
-607.186	-200.000	0.006	-0.099
-606.171	137.819	-0.133	0.174
-605.157	-108.282	0.048	0.010
-604.142	23.146	0.299	-0.244
-603.128	-78.278	-0.139	0.047
-602.113	115.677	0.065	0.079
-601.098	61.905	-0.295	-0.292
-600.084	114.312	-0.233	-0.283
-599.069	-96.327	-0.099	0.026
-598.055	-41.080	0.324	0.167
-597.040	166.690	-0.148	0.208
-596.025	-55.013	-0.108	0.048
-595.011	-61.778	0.317	0.132
-593.996	-106.830	-0.125	0.028
-592.982	-200.000	-0.002	0.104
-591.967	-200.000	0.026	0.307
-590.952	-119.886	0.242	-0.041
-589.938	28.560	-0.178	0.150
-588.923	-127.827	-0.284	0.041
-587.909	-200.000	0.014	-0.154
-586.894	-200.000	0.029	0.270
-585.879	-43.056	0.238	0.120
-584.865	289.913	0.040	-0.073
-583.850	-29.519	0.049	-0.028
-582.836	80.918	-0.094	-0.101
-581.821	-56.804	-0.154	-0.068
-580.806	-144.577	0.317	0.029
-579.792	49.859	0.117	-0.110
-578.777	125.334	0.018	0.022
-577.763	184.575	-0.118	-0.173
-576.748	95.646	-0.057	0.065
-575.733	92.414	-0.049	-0.055
-574.719	-33.086	0.167	0.092
-573.704	-85.216	-0.119	0.037
-572.690	-144.493	0.307	-0.028
-571.675	-200.000	-0.017	0.149
-570.661	-23.697	-0.172	-0.102
-569.646	240.695	-0.127	-0.211
-568.631	-81.034	0.197	0.065
-567.617	-123.335	0.255	0.040
-566.602	105.361	0.136	0.160
-565.588	800.000	0.083	-0.231
-564.573	-69.067	0.149	0.057
-563.558	-6.564	0.054	0.036
-562.544	-53.103	-0.071	-0.033
-561.529	-26.467	0.173	-0.101
-560.515	-110.030	-0.096	-0.020
-559.500	308.135	-0.110	-0.203
-558.485	-146.577	-0.095	0.008
-557.471	-103.604	0.184	-0.043
-556.456	800.000	-0.051	0.145
-555.442	295.666	-0.065	0.119
-554.427	-169.303	-0.264	0.010
-553.412	-29.638	0.015	0.009
-552.398	160.405	0.198	-0.274
-551.383	-158.084	0.092	-0.005
-550.369	-46.077	-0.152	-0.074
-549.354	-18.359	0.086	-0.053
-548.339	-165.062	0.288	-0.013
-547.325	800.000	0.038	-0.128
-546.310	-200.000	0.117	0.000
-545.296	3.382	0.394	0.285
-544.281	143.816	-0.080	-0.105
-543.266	265.282	0.088	0.152
-542.252	-7.346	-0.168	0.113
-541.237	-143.715	-0.208	0.020
-540.223	-97.697	0.320	-0.082
-539.208	-200.000	0.002	0.261
-538.193	-101.930	0.243	-0.058
-537.179	-13.145	-0.248	0.160
-536.164	800.000	-0.083	-0.256
-535.150	763.230	-0.105	0.284
-534.135	-200.000	-0.007	-0.216
-533.121	703.912	-0.023	-0.061
-532.106	214.509	0.030	0.047
-531.091	-200.000	-0.020	-0.315
-530.077	-12.432	0.106	-0.069
-529.062	194.814	0.113	-0.170
-528.048	-66.052	-0.187	0.074
-527.033	-200.000	0.016	0.093
-526.018	-200.000	-0.009	-0.121
-525.004	26.808	-0.142	-0.118
-523.989	-200.000	0.017	0.133
-522.975	-200.000	-0.026	-0.171
-521.960	-200.000	-0.008	-0.127
-520.945	17.060	0.256	-0.201
-519.931	-200.000	0.026	-0.198
-518.916	12.036	-0.130	-0.099
-517.902	57.076	0.175	0.169
-516.887	539.060	0.051	0.119
-515.872	-200.000	0.016	0.115
-514.858	758.427	0.171	-0.460
-513.843	45.330	0.182	-0.166
-512.829	800.000	-0.074	0.212
-511.814	22.156	-0.061	-0.049
-510.799	-72.240	-0.370	-0.136
-509.785	-96.663	0.216	0.057
-508.770	-82.912	-0.396	0.127
-507.756	763.197	-0.209	0.563
-506.741	152.772	-0.178	-0.241
-505.726	-165.950	-0.085	0.004
-504.712	-200.000	-0.028	0.291
-503.697	162.123	-0.209	-0.290
-502.683	-142.560	0.214	-0.021
-501.668	-200.000	0.029	-0.191
-500.653	-200.000	0.016	-0.241
-499.639	142.653	-0.078	0.103
-498.624	45.410	-0.050	0.046
-497.610	430.919	0.144	-0.309
-496.595	244.446	-0.082	0.136
-495.581	-92.014	-0.224	0.063
-494.566	73.707	-0.028	0.029
-493.551	-200.000	0.038	0.606
-492.537	11.853	-0.278	0.212
-491.522	37.833	-0.148	0.130
-490.508	-200.000	-0.050	0.337
-489.493	115.484	0.297	-0.360
-488.478	114.076	0.196	-0.237
-487.464	311.089	0.120	-0.223
-486.449	755.574	-0.147	-0.393
-485.435	-120.617	-0.230	0.039
-484.420	-173.286	0.053	0.002
-483.405	395.297	0.048	0.100
-482.391	-200.000	0.026	0.158
-481.376	20.495	0.184	-0.148
-480.362	-200.000	0.020	-0.199
-479.347	280.366	0.041	-0.073
-478.332	-200.000	-0.048	0.227
-477.318	156.966	0.024	0.033
-476.303	584.064	-0.053	0.129
-475.289	-12.471	0.212	-0.137
-474.274	-114.724	-0.194	0.037
-473.259	233.024	0.125	-0.204
-472.245	-109.864	-0.187	0.039
-471.230	-200.000	0.033	-0.271
-470.216	-99.583	-0.126	-0.031
-469.201	-10.446	0.181	-0.119
-468.186	-14.263	0.220	0.140
-467.172	-162.889	0.018	-0.001
-466.157	37.333	-0.155	0.136
-465.143	-143.085	-0.141	-0.013
-464.128	800.000	0.078	0.328
-463.113	41.842	-0.070	-0.063
-462.099	-200.000	0.048	-0.207
-461.084	118.857	0.148	-0.180
-460.070	-59.595	0.289	-0.123
-459.055	7.763	-0.046	-0.034
-458.040	94.325	0.266	-0.299
-457.026	-98.974	-0.300	0.075
-456.011	-111.666	0.207	0.042
-454.997	800.000	-0.077	0.287
-453.982	-194.233	-0.307	0.002
-452.968	151.465	-0.043	-0.058
-451.953	-8.867	0.099	-0.065
-450.938	-200.000	-0.002	-0.248
-449.924	527.326	-0.087	-0.203
-448.909	-198.612	-0.126	-0.001
-447.895	-27.249	0.395	-0.228
-446.880	-159.465	-0.251	0.014
-445.865	-61.553	0.271	-0.112
-444.851	800.000	-0.006	0.023
-443.836	-9.426	-0.217	0.144
-442.822	-55.497	-0.019	0.008
-441.807	-88.022	-0.301	0.090
-440.792	-103.257	-0.282	-0.066
-439.778	800.000	-0.059	0.185
-438.763	56.260	-0.142	-0.136
-437.749	-37.131	-0.248	-0.131
-436.734	800.000	-0.081	-0.328
-435.719	-200.000	0.004	0.155
-434.705	95.489	-0.343	-0.387
-433.690	-200.000	-0.030	-0.138
-432.676	196.460	-0.099	0.150
-431.661	0.959	0.347	0.246
-430.646	-84.279	0.150	-0.047
-429.632	-16.178	0.215	-0.135
-428.617	-200.000	-0.047	-0.354
-427.603	800.000	0.083	0.283
-426.588	463.343	0.068	0.151
-425.573	154.553	0.254	0.345
-424.559	-103.474	-0.117	0.027
-423.544	127.337	-0.188	-0.236
-422.530	129.196	0.122	0.153
-421.515	-9.833	0.106	-0.070
-420.500	261.720	-0.037	0.063
-419.486	478.560	-0.042	0.094
-418.471	157.325	0.181	0.248
-417.457	191.832	-0.125	-0.186
-416.442	800.000	0.115	0.417
-415.428	-32.409	-0.226	-0.125
-414.413	-157.116	0.103	-0.006
-413.398	-200.000	-0.038	0.171
-412.384	-200.000	-0.052	-0.255
-411.369	24.783	0.173	-0.141
-410.355	648.735	0.076	-0.191
-409.340	-48.503	-0.192	-0.091
-408.325	86.210	0.026	0.028
-407.311	95.422	0.255	0.288
-406.296	127.773	-0.119	-0.149
-405.282	-200.000	-0.026	-0.123
-404.267	-67.770	-0.308	0.119
-403.252	-28.911	0.204	0.115
-402.238	-168.650	0.310	0.012
-401.223	385.545	0.117	-0.239
-400.209	-200.000	-0.055	-0.292
-399.194	72.674	-0.099	0.102
-398.179	-72.307	0.331	0.121
-397.165	297.124	-0.087	-0.157
-396.150	-41.665	0.266	-0.135
-395.136	-21.640	-0.137	-0.083
-394.121	60.136	-0.083	-0.081
-393.106	-200.000	0.031	-0.238
-392.092	20.178	-0.213	-0.169
-391.077	-153.120	-0.068	0.005
-390.063	231.073	0.285	-0.461
-389.048	51.774	0.317	-0.298
-388.033	-200.000	-0.008	0.284
-387.019	169.738	-0.133	-0.188
-386.004	337.196	0.035	0.067
-384.990	279.817	0.070	-0.123
-383.975	-59.642	0.313	0.132
-382.960	114.977	-0.203	-0.244
-381.946	-200.000	-0.022	0.314
-380.931	-89.729	0.200	-0.058
-379.917	-200.000	-0.014	-0.182
-378.902	-111.491	0.269	-0.054
-377.888	-121.242	0.253	-0.042
-376.873	-115.892	0.337	-0.062
-375.858	-200.000	-0.009	-0.204
-374.844	-173.658	-0.102	-0.003
-373.829	-151.008	-0.136	0.010
-372.815	-152.627	-0.185	0.013
-371.800	98.621	0.161	0.183
-370.785	-200.000	-0.049	-0.545
-369.771	-115.334	-0.111	-0.021
-368.756	800.000	-0.053	-0.157
-367.742	-0.164	-0.196	-0.137
-366.727	-200.000	-0.002	0.302
-365.712	-34.166	0.044	-0.024
-364.698	271.745	-0.060	-0.105
-363.683	-177.474	-0.275	-0.007
-362.669	800.000	0.077	0.229
-361.654	208.300	0.172	-0.266
-360.639	-128.814	0.171	0.024
-359.625	188.398	-0.204	-0.301
-358.610	800.000	0.062	0.212
-357.596	7.291	-0.370	-0.272
-356.581	-17.325	-0.381	0.237
-355.566	37.432	0.306	-0.268
-354.552	-67.209	0.280	-0.109
-353.537	-100.478	-0.319	0.078
-352.523	-200.000	-0.030	0.399
-351.508	-164.030	-0.247	0.011
-350.493	135.039	-0.204	-0.261
-349.479	-123.171	-0.135	-0.021
-348.464	-200.000	-0.019	0.210
-347.450	121.567	-0.108	-0.132
-346.435	43.441	0.138	-0.124
-345.420	-200.000	-0.034	-0.148
-344.406	122.842	0.056	0.069
-343.391	13.411	0.249	0.190
-342.377	-36.174	0.107	-0.057
-341.362	-200.000	0.006	-0.157
-340.348	-170.375	0.130	-0.004
-339.333	-200.000	0.022	-0.184
-338.318	800.000	0.059	-0.210
-337.304	-72.832	0.037	0.014
-336.289	-200.000	0.010	0.460
-335.275	800.000	-0.016	-0.045
-334.260	72.658	-0.194	0.199
-333.245	233.563	-0.170	-0.275
-332.231	-141.997	0.060	0.006
-331.216	-57.369	0.325	0.140
-330.202	2.152	-0.120	0.086
-329.187	103.959	0.027	0.031
-328.172	-200.000	-0.057	-0.380
-327.158	-200.000	-0.004	0.122
-326.143	196.428	-0.215	0.322
-325.129	-28.754	-0.091	-0.051
-324.114	-200.000	-0.010	-0.100
-323.099	178.529	-0.025	0.036
-322.085	86.084	0.092	0.100
-321.070	800.000	-0.074	0.278
-320.056	-116.058	-0.177	-0.032
-319.041	15.152	-0.088	0.068
-318.026	800.000	0.067	-0.191
-317.012	800.000	-0.058	-0.158
-315.997	-58.858	-0.273	-0.116
-314.983	99.030	-0.162	-0.184
-313.968	35.903	-0.090	0.078
-312.953	134.724	0.199	0.254
-311.939	-41.406	-0.090	-0.045
-310.924	-35.336	0.147	0.079
-309.910	-76.325	-0.114	-0.039
-308.895	55.710	-0.199	-0.190
-307.880	441.847	0.106	-0.227
-306.866	-200.000	-0.006	0.264
-305.851	396.968	-0.134	-0.275
-304.837	-65.011	-0.289	0.115
-303.822	-27.224	0.118	-0.068
-302.807	155.746	0.231	0.313
-301.793	68.844	0.092	0.093
-300.778	549.071	-0.045	0.106
-299.764	19.866	-0.097	0.077
-298.749	-144.261	0.256	0.023
-297.735	-200.000	0.004	0.095
-296.720	-18.287	-0.284	-0.175
-295.705	-200.000	-0.003	-0.135
-294.691	-200.000	0.002	0.094
-293.676	-200.000	0.049	-0.213
-292.662	208.971	0.168	0.258
-291.647	-1.988	0.160	0.110
-290.632	22.139	-0.056	-0.045
-289.618	-94.614	0.213	0.057
-288.603	-116.812	0.251	-0.045
-287.589	-200.000	-0.040	-0.210
-286.574	31.787	0.249	0.211
-285.559	300.088	-0.075	0.137
-284.545	-10.934	-0.274	-0.178
-283.530	107.854	0.148	0.173
-282.516	116.714	0.183	-0.220
-281.501	-113.515	-0.510	0.098
-280.486	-200.000	0.402	0.001
-279.472	800.000	0.019	0.073
-278.457	16.849	-0.016	-0.013
-277.443	-98.374	-0.139	-0.035
-276.428	-23.094	0.351	0.208
-275.413	74.376	0.119	0.123
-274.399	498.836	-0.070	0.159
-273.384	76.881	0.096	-0.100
-272.370	182.155	0.086	0.125
-271.355	471.457	-0.043	-0.095
-270.340	368.687	0.101	-0.201
-269.326	-89.736	0.474	0.136
-268.311	-98.137	-0.357	-0.090
-267.297	249.385	-0.026	-0.043
-266.282	89.481	0.089	0.098
-265.267	-168.855	-0.138	-0.005
-264.253	394.931	-0.087	0.177
-263.238	-200.000	-0.062	-0.318
-262.224	142.634	-0.033	0.043
-261.209	-200.000	0.086	0.378
-260.195	-3.330	-0.055	0.038
-259.180	55.991	0.081	0.077
-258.165	-3.678	-0.285	0.194
-257.151	-30.216	0.141	0.078
-256.136	49.949	0.111	-0.103
-255.122	-123.670	-0.045	0.007
-254.107	-52.887	0.456	0.206
-253.092	570.357	-0.018	-0.043
-252.078	326.551	-0.136	-0.256
-251.063	502.756	0.070	0.160
-250.049	-36.010	0.091	0.048
-249.034	-112.026	0.091	-0.018
-248.019	-83.870	0.177	0.055
-247.005	311.090	0.047	-0.086
-245.990	272.286	0.033	0.058
-244.976	-101.391	-0.332	-0.079
-243.961	250.719	-0.220	0.366
-242.946	-31.871	-0.230	0.126
-241.932	439.551	0.157	0.336
-240.917	432.290	-0.065	-0.139
-239.903	130.254	-0.095	0.120
-238.888	-102.557	0.273	-0.064
-237.873	-200.000	-0.001	0.038
-236.859	711.409	0.007	0.018
-235.844	-200.000	0.018	-0.151
-234.830	-200.000	-0.005	-0.181
-233.815	800.000	0.083	0.338
-232.800	-200.000	-0.031	-0.301
-231.786	-200.000	-0.041	0.324
-230.771	800.000	0.108	0.316
-229.757	-169.358	-0.306	0.011
-228.742	-50.228	0.311	0.144
-227.727	-11.312	0.182	-0.118
-226.713	-200.000	0.046	0.247
-225.698	800.000	0.072	0.255
-224.684	221.156	0.094	0.148
-223.669	-0.446	0.383	0.267
-222.655	437.755	0.092	0.197
-221.640	171.867	-0.191	0.269
-220.625	-200.000	0.219	0.001
-219.611	125.054	0.075	-0.093
-218.596	-21.641	-0.292	-0.174
-217.582	97.867	-0.197	-0.222
-216.567	-97.323	0.268	-0.069
-215.552	165.832	0.345	-0.478
-214.538	205.639	0.051	-0.077
-213.523	800.000	-0.090	0.275
-212.509	-132.466	-0.122	0.015
-211.494	800.000	0.091	0.267
-210.479	-83.257	0.223	0.070
-209.465	393.870	0.046	0.093
-208.450	40.430	-0.180	0.159
-207.436	74.055	0.104	-0.107
-206.421	-200.000	0.028	0.121
-205.406	311.174	0.100	0.184
-204.392	-200.000	0.015	-0.073
-203.377	800.000	-0.035	0.135
-202.363	44.122	-0.332	0.298
-201.348	37.503	-0.251	0.218
-200.333	140.071	0.230	0.297
-199.319	116.162	-0.191	0.230
-198.304	-143.720	-0.113	0.010
-197.290	-17.935	0.182	0.112
-196.275	439.477	0.056	0.120
-195.260	362.245	0.051	-0.101
-194.246	-59.528	-0.182	0.077
-193.231	-200.000	-0.032	-0.253
-192.217	-200.000	0.001	0.053
-191.202	800.000	0.020	0.061
-190.187	167.628	-0.065	-0.090
-189.173	-19.259	-0.152	-0.092
-188.158	-18.971	0.257	0.156
-187.144	132.456	-0.096	0.121
-186.129	-33.120	0.190	-0.103
-185.114	-200.000	-0.036	-0.195
-184.100	2.791	0.138	-0.098
-183.085	-17.532	-0.156	-0.096
-182.071	-18.901	-0.162	0.099
-181.056	156.565	-0.177	-0.240
-180.042	-54.384	0.119	0.053
-179.027	-22.342	0.134	0.080
-178.012	362.677	-0.140	-0.276
-176.998	-200.000	-0.002	0.103
-175.983	-200.000	0.074	-0.433
-174.969	137.710	0.180	0.230
-173.954	-97.099	-0.305	0.078
-172.939	-200.000	-0.055	-0.294
-171.925	64.626	-0.043	0.043
-170.910	-177.797	0.329	0.008
-169.896	-120.571	-0.150	-0.025
-168.881	-200.000	-0.013	0.097
-167.866	189.037	-0.317	0.465
-166.852	-57.256	-0.168	-0.072
-165.837	0.794	0.403	-0.282
-164.823	-40.381	-0.099	0.050
-163.808	114.772	0.052	0.062
-162.793	-200.000	0.004	0.027
-161.779	79.955	-0.150	0.158
-160.764	-200.000	0.009	0.173
-159.750	-72.087	-0.478	0.174
-158.735	-172.864	-0.343	0.010
-157.720	703.923	-0.136	-0.350
-156.706	538.471	0.128	-0.298
-155.691	-18.101	0.134	-0.082
-154.677	54.471	-0.172	0.162
-153.662	170.531	-0.132	0.185
-152.647	-163.259	0.043	-0.002
-151.633	303.908	0.056	-0.102
-150.618	341.849	-0.086	0.165
-149.604	-72.700	-0.070	-0.025
-148.589	-92.662	0.136	0.037
-147.574	418.261	-0.045	0.095
-146.560	23.090	-0.107	0.086
-145.545	800.000	0.008	0.024
-144.531	38.124	0.214	0.186
-143.516	-55.059	-0.138	-0.061
-142.502	-121.543	-0.468	-0.076
-141.487	34.468	-0.210	-0.179
-140.472	26.433	-0.169	0.138
-139.458	-68.218	-0.084	0.032
-138.443	-20.838	-0.344	-0.206
-137.429	-41.044	0.165	0.083
-136.414	-130.798	0.320	0.042
-135.399	-39.365	-0.339	-0.174
-134.385	618.132	-0.184	-0.452
-133.370	102.380	-0.288	0.329
-132.356	-200.000	0.044	-0.487
-131.341	499.252	0.035	-0.079
-130.326	800.000	-0.096	-0.288
-129.312	370.581	0.093	0.185
-128.297	-197.446	0.104	0.001
-127.283	-73.218	0.169	0.060
-126.268	-200.000	-0.002	0.255
-125.253	-32.427	-0.264	0.144
-124.239	-23.550	0.216	0.126
-123.224	-118.123	0.082	-0.014
-122.210	140.016	0.202	-0.260
-121.195	800.000	0.032	0.089
