DTS Sentinel unit serial number:	SN413079Multiplexer serial number:	ORYXHardware model number:	OX4-SRSoftware version number:	ORYX F/W v4.00 Oryx Data Collector v3.7.2.0data status	okinstallation	princeton_trtdifferential loss correction	single-endedforward channel	channel 3reverse channel	N/Adate	2019/09/13time	12:36:34forward acquisition time	60.00reverse acquisition time	0.00gamma	496.2192k internal	0.2304k external	0.2304temperature offset calibration	1.0155default loss term (dB/km)	0.3790temperature slope calibration	1.0000multiplexer offset coefficient	1.0000multiplexer slope coefficient	1.0000fibre end	0.00T internal ref (°C)	34.53T ext. ref 1 (°C)	4.61T ext. ref 2 (°C)	31.52length (m)	temperature (°C)	Stokes	anti-Stokes-747.200	-34.242	-0.239	-0.134
-746.185	-3.999	-0.110	0.078
-745.171	51.811	0.125	0.121
-744.156	3.395	0.179	0.133
-743.142	-116.006	-0.104	0.020
-742.127	-27.156	-0.349	-0.207
-741.112	118.411	-0.244	-0.306
-740.098	1.937	-0.075	0.055
-739.083	-71.485	0.280	-0.107
-738.069	160.909	-0.117	0.166
-737.054	-7.017	-0.136	0.094
-736.039	237.204	-0.064	0.107
-735.025	-200.000	0.020	0.264
-734.010	-50.245	-0.116	-0.056
-732.996	682.646	0.103	0.273
-731.981	310.573	0.073	0.139
-730.966	-128.794	0.283	0.041
-729.952	-16.502	-0.225	-0.145
-728.937	-52.059	-0.126	0.060
-727.923	-136.765	0.161	-0.019
-726.908	63.796	-0.087	-0.089
-725.894	103.187	0.148	-0.177
-724.879	53.117	-0.075	0.073
-723.864	-200.000	-0.037	-0.272
-722.850	-103.401	-0.101	-0.024
-721.835	-92.475	-0.399	-0.114
-720.821	-112.054	-0.301	0.062
-719.806	94.031	-0.115	0.133
-718.791	-64.148	0.156	-0.065
-717.777	1.641	0.091	0.067
-716.762	800.000	-0.063	0.212
-715.748	-31.384	-0.241	-0.138
-714.733	60.818	-0.071	-0.072
-713.718	-200.000	-0.077	-0.463
-712.704	-31.688	0.271	-0.155
-711.689	15.448	-0.291	0.232
-710.675	3.825	0.141	-0.105
-709.660	-122.956	0.187	0.031
-708.645	70.403	0.270	0.284
-707.631	72.034	0.127	-0.134
-706.616	9.583	-0.371	0.285
-705.602	475.664	0.095	0.218
-704.587	-200.000	-0.013	0.107
-703.572	-114.944	0.281	-0.054
-702.558	-200.000	-0.040	0.200
-701.543	-107.672	0.156	-0.035
-700.529	-176.784	0.312	0.008
-699.514	279.387	0.149	0.270
-698.499	200.098	-0.028	-0.043
-697.485	114.057	0.100	-0.124
-696.470	-102.437	0.328	-0.080
-695.456	-0.019	-0.037	-0.027
-694.441	-145.560	-0.098	0.009
-693.426	-200.000	0.028	-0.236
-692.412	-104.677	-0.258	-0.060
-691.397	5.203	-0.163	0.122
-690.383	3.480	-0.202	0.149
-689.368	-181.618	-0.360	0.007
-688.354	-16.163	0.333	0.215
-687.339	800.000	-0.057	-0.171
-686.324	67.683	-0.152	-0.158
-685.310	544.771	0.062	-0.150
-684.295	-99.739	-0.412	0.105
-683.281	166.298	0.049	-0.070
-682.266	-134.386	-0.260	-0.032
-681.251	294.682	-0.115	0.213
-680.237	-200.000	0.001	0.084
-679.222	-200.000	-0.072	-0.330
-678.208	-200.000	-0.005	-0.131
-677.193	303.384	0.039	0.074
-676.178	-200.000	0.028	-0.278
-675.164	-48.983	0.059	0.029
-674.149	-53.580	0.142	-0.066
-673.135	-90.704	0.245	0.072
-672.120	-56.369	-0.092	0.041
-671.105	-200.000	-0.006	-0.307
-670.091	9.175	0.095	0.073
-669.076	357.449	0.089	-0.180
-668.062	-200.000	0.027	0.119
-667.047	51.850	0.161	0.156
-666.032	-39.995	-0.165	0.087
-665.018	-114.553	0.258	0.050
-664.003	-123.655	-0.153	0.025
-662.989	-34.260	0.222	0.124
-661.974	-40.757	0.246	-0.130
-660.959	47.999	-0.171	-0.162
-659.945	5.602	0.107	-0.080
-658.930	-200.000	-0.001	0.214
-657.916	-52.940	0.089	0.042
-656.901	-102.081	-0.189	0.046
-655.886	-200.000	-0.007	-0.038
-654.872	-86.118	-0.130	0.041
-653.857	24.204	-0.356	0.298
-652.843	108.333	0.126	0.152
-651.828	-108.525	-0.377	-0.082
-650.814	-200.000	-0.001	0.144
-649.799	-143.436	0.383	0.037
-648.784	-106.910	0.341	-0.077
-647.770	-200.000	-0.023	-0.225
-646.755	-141.586	0.123	0.013
-645.741	-50.756	0.113	-0.054
-644.726	140.479	-0.168	-0.225
-643.711	538.817	-0.157	-0.378
-642.697	31.844	0.120	0.105
-641.682	59.584	-0.097	-0.097
-640.668	-78.544	0.275	0.095
-639.653	302.679	-0.035	-0.066
-638.638	-19.383	0.384	-0.241
-637.624	-67.091	-0.019	-0.007
-636.609	33.641	-0.123	0.109
-635.595	412.487	-0.123	0.266
-634.580	-12.510	0.057	0.038
-633.565	-9.781	-0.062	0.042
-632.551	-41.617	-0.124	0.065
-631.536	105.869	0.096	-0.115
-630.522	-200.000	0.021	-0.238
-629.507	800.000	-0.081	0.303
-628.492	-200.000	0.052	0.396
-627.478	215.758	-0.236	0.381
-626.463	-48.489	-0.178	-0.087
-625.449	213.556	0.164	0.262
-624.434	-200.000	-0.012	0.242
-623.419	43.387	0.144	-0.134
-622.405	-89.652	-0.209	-0.062
-621.390	-97.875	-0.220	-0.058
-620.376	551.327	-0.134	0.327
-619.361	41.757	-0.140	0.128
-618.346	-35.876	-0.268	-0.147
-617.332	75.597	0.093	0.099
-616.317	244.494	0.156	0.265
-615.303	-83.997	0.265	0.085
-614.288	-70.757	-0.279	0.107
-613.273	261.040	0.139	-0.243
-612.259	-200.000	-0.003	0.090
-611.244	-107.329	-0.203	0.045
-610.230	-194.367	0.094	-0.001
-609.215	205.708	-0.216	-0.339
-608.201	-135.812	0.250	0.030
-607.186	-200.000	-0.020	-0.098
-606.171	98.109	0.154	0.180
-605.157	125.741	0.167	0.214
-604.142	-121.440	0.237	0.040
-603.128	-52.809	-0.162	0.075
-602.113	-139.688	-0.562	-0.061
-601.098	800.000	0.051	-0.181
-600.084	-44.828	0.377	-0.190
-599.069	502.949	0.049	0.115
-598.055	-200.000	-0.002	-0.190
-597.040	-10.729	-0.266	0.178
-596.025	134.857	-0.075	-0.099
-595.011	41.839	-0.287	0.264
-593.996	-158.532	0.112	-0.007
-592.982	800.000	0.005	-0.015
-591.967	-200.000	0.005	-0.047
-590.952	479.512	0.122	0.280
-589.938	800.000	0.046	0.203
-588.923	-200.000	0.052	-0.235
-587.909	186.184	-0.124	0.187
-586.894	468.679	0.069	-0.157
-585.879	800.000	-0.094	0.351
-584.865	-36.431	-0.322	-0.176
-583.850	79.871	-0.052	-0.057
-582.836	-200.000	0.003	-0.256
-581.821	91.094	0.181	-0.205
-580.806	-162.363	0.214	-0.011
-579.792	98.610	0.193	-0.225
-578.777	24.691	-0.186	0.156
-577.763	-200.000	-0.136	0.000
-576.748	-200.000	0.008	-0.050
-575.733	-200.000	0.022	-0.203
-574.719	11.739	-0.309	-0.240
-573.704	-200.000	-0.007	0.292
-572.690	-39.329	-0.187	-0.099
-571.675	-200.000	-0.012	-0.069
-570.661	-128.576	0.080	-0.012
-569.646	-200.000	-0.038	0.215
-568.631	-8.975	-0.172	-0.116
-567.617	-200.000	0.007	-0.234
-566.602	800.000	-0.103	0.427
-565.588	-40.473	0.250	-0.131
-564.573	-200.000	-0.060	0.265
-563.558	-18.688	0.196	-0.124
-562.544	319.317	0.105	-0.201
-561.529	-42.909	-0.105	-0.054
-560.515	0.859	0.199	0.144
-559.500	-160.163	-0.400	0.022
-558.485	131.334	0.200	0.260
-557.471	86.416	0.167	0.186
-556.456	72.307	-0.185	-0.194
-555.442	800.000	0.010	-0.028
-554.427	35.189	-0.158	0.140
-553.412	-150.517	0.123	-0.010
-552.398	-34.051	-0.255	-0.142
-551.383	-200.000	-0.021	0.128
-550.369	800.000	0.028	0.121
-549.354	-90.565	0.195	-0.057
-548.339	379.345	-0.031	0.064
-547.325	-200.000	-0.039	0.303
-546.310	250.350	-0.082	0.140
-545.296	-200.000	-0.006	-0.089
-544.281	89.570	0.205	-0.231
-543.266	-27.406	0.241	0.142
-542.252	800.000	0.072	0.216
-541.237	136.559	-0.280	-0.369
-540.223	190.630	0.168	-0.255
-539.208	-146.088	0.204	0.018
-538.193	520.133	-0.117	-0.278
-537.179	-200.000	0.011	-0.141
-536.164	-72.888	-0.252	-0.094
-535.150	514.655	0.153	-0.361
-534.135	-153.363	-0.109	-0.008
-533.121	-53.167	0.193	-0.089
-532.106	-9.141	0.237	0.160
-531.091	-200.000	-0.020	0.440
-530.077	-35.365	-0.326	-0.179
-529.062	-150.066	0.268	-0.021
-528.048	780.678	0.035	-0.097
-527.033	489.561	0.110	0.253
-526.018	-110.675	0.388	-0.081
-525.004	412.784	0.090	-0.192
-523.989	403.595	-0.145	0.307
-522.975	25.223	0.288	-0.241
-521.960	216.023	-0.109	-0.175
-520.945	-92.561	0.171	-0.049
-519.931	-200.000	-0.293	-0.001
-518.916	-119.429	-0.134	0.023
-517.902	-124.675	0.300	0.047
-516.887	139.844	-0.050	0.067
-515.872	71.074	0.357	-0.374
-514.858	182.937	0.174	-0.259
-513.843	-62.589	-0.235	0.098
-512.829	198.013	0.021	-0.032
-511.814	-133.605	-0.238	-0.030
-510.799	-200.000	0.010	0.113
-509.785	25.045	0.177	-0.148
-508.770	-146.306	0.055	0.005
-507.756	800.000	0.040	0.171
-506.741	129.606	-0.428	0.552
-505.726	225.048	0.186	0.304
-504.712	76.305	0.166	-0.178
-503.697	118.720	-0.098	-0.123
-502.683	679.944	-0.075	-0.196
-501.668	-57.300	-0.359	-0.159
-500.653	23.172	0.111	0.092
-499.639	173.981	0.100	-0.146
-498.624	-200.000	-0.006	0.162
-497.610	-16.668	-0.289	-0.184
-496.595	-106.154	0.045	-0.010
-495.581	124.365	0.173	-0.220
-494.566	-99.748	-0.183	0.046
-493.551	-8.981	-0.101	0.068
-492.537	-200.000	0.048	0.300
-491.522	800.000	0.114	0.375
-490.508	-128.309	-0.361	-0.052
-489.493	-58.551	0.369	-0.162
-488.478	19.471	0.445	-0.361
-487.464	403.624	0.065	-0.138
-486.449	-60.476	-0.254	0.109
-485.435	-92.189	0.118	-0.033
-484.420	19.861	0.175	0.142
-483.405	235.404	0.075	-0.126
-482.391	-7.997	0.116	-0.079
-481.376	-200.000	-0.002	0.221
-480.362	800.000	-0.043	0.138
-479.347	121.844	0.095	-0.119
-478.332	800.000	0.093	0.308
-477.318	800.000	-0.082	0.326
-476.303	-64.228	0.075	-0.031
-475.289	-66.562	0.258	-0.103
-474.274	204.427	-0.050	-0.078
-473.259	800.000	0.113	0.365
-472.245	107.559	-0.153	-0.183
-471.230	-109.310	0.088	-0.019
-470.216	-3.390	0.233	0.163
-469.201	94.230	-0.151	-0.173
-468.186	43.303	0.225	-0.207
-467.172	-75.684	-0.076	-0.027
-466.157	-129.864	-0.437	-0.060
-465.143	104.211	0.180	-0.213
-464.128	-127.072	-0.354	0.052
-463.113	-63.170	0.142	-0.059
-462.099	-113.664	0.422	0.083
-461.084	-48.373	-0.112	-0.054
-460.070	-124.703	-0.356	0.055
-459.055	294.212	0.145	-0.267
-458.040	-200.000	0.005	-0.254
-457.026	-46.281	-0.190	0.094
-456.011	111.353	-0.198	-0.241
-454.997	69.822	0.272	0.282
-453.982	146.606	-0.091	-0.123
-452.968	49.131	0.025	0.024
-451.953	-72.030	-0.194	-0.073
-450.938	-29.942	-0.178	-0.102
-449.924	-86.181	0.248	-0.077
-448.909	55.187	-0.071	0.069
-447.895	-200.000	0.001	-0.147
-446.880	-200.000	-0.014	0.124
-445.865	26.711	0.201	-0.170
-444.851	-54.910	0.097	-0.044
-443.836	-68.712	-0.070	-0.027
-442.822	497.018	0.161	0.373
-441.807	194.882	0.155	-0.236
-440.792	403.405	0.066	0.140
-439.778	-200.000	-0.008	-0.228
-438.763	-74.873	-0.317	0.114
-437.749	-158.335	0.284	-0.017
-436.734	-136.941	0.199	-0.023
-435.719	-200.000	0.005	-0.083
-434.705	18.528	0.202	0.163
-433.690	-4.374	-0.217	0.151
-432.676	-23.825	-0.157	-0.095
-431.661	-5.178	-0.347	0.240
-430.646	-125.981	-0.170	0.026
-429.632	-149.168	-0.470	-0.038
-428.617	-60.072	0.103	0.044
-427.603	-200.000	-0.040	-0.244
-426.588	17.249	0.244	-0.195
-425.573	-200.000	0.010	-0.317
-424.559	-200.000	-0.027	-0.206
-423.544	-141.763	0.134	0.013
-422.530	10.425	0.097	0.074
-421.515	-200.000	0.039	0.249
-420.500	-63.949	0.132	0.054
-419.486	-21.001	-0.201	0.124
-418.471	513.825	0.139	0.325
-417.457	-22.402	-0.125	-0.076
-416.442	-91.421	0.522	-0.150
-415.428	800.000	0.035	0.124
-414.413	-200.000	0.022	0.112
-413.398	27.431	-0.148	-0.125
-412.384	37.015	-0.222	0.198
-411.369	-183.047	0.275	-0.005
-410.355	41.588	0.119	0.108
-409.340	-200.000	-0.019	-0.193
-408.325	-200.000	-0.038	0.259
-407.311	-39.095	-0.188	0.099
-406.296	111.550	-0.144	-0.175
-405.282	-200.000	0.007	0.061
-404.267	-114.810	0.080	0.015
-403.252	303.679	-0.132	0.245
-402.238	-31.211	-0.127	0.072
-401.223	-55.216	0.177	-0.080
-400.209	108.411	-0.241	0.289
-399.194	126.139	-0.108	-0.137
-398.179	800.000	0.032	-0.130
-397.165	800.000	-0.059	0.223
-396.150	351.255	-0.055	0.110
-395.136	-200.000	0.025	0.193
-394.121	-61.875	-0.070	-0.029
-393.106	79.924	-0.225	-0.243
-392.092	-200.000	-0.029	0.307
-391.077	800.000	0.062	0.230
-390.063	800.000	0.114	0.414
-389.048	67.345	0.111	0.113
-388.033	-58.438	-0.249	-0.109
-387.019	-5.356	0.273	0.188
-386.004	-49.280	0.255	-0.122
-384.990	272.707	-0.265	-0.470
-383.975	493.137	0.091	-0.209
-382.960	76.648	-0.236	0.252
-381.946	-200.000	0.266	-0.001
-380.931	36.220	0.277	-0.245
-379.917	-52.198	-0.121	-0.056
-378.902	342.323	-0.054	0.106
-377.888	-200.000	0.002	-0.229
-376.873	-200.000	-0.039	0.192
-375.858	-32.690	-0.021	-0.012
-374.844	800.000	-0.056	-0.236
-373.829	40.693	-0.257	-0.232
-372.815	-159.696	-0.141	0.008
-371.800	-162.112	-0.258	-0.013
-370.785	-200.000	-0.010	-0.061
-369.771	-200.000	-0.045	-0.235
-368.756	-181.914	0.100	0.002
-367.742	-96.829	-0.384	0.101
-366.727	450.709	0.010	-0.023
-365.712	-75.877	0.379	0.135
-364.698	-200.000	0.007	0.046
-363.683	20.796	0.274	-0.223
-362.669	-135.524	0.227	-0.027
-361.654	800.000	0.114	-0.326
-360.639	426.621	0.175	0.378
-359.625	412.202	0.072	0.153
-358.610	44.881	0.129	0.119
-357.596	-127.811	0.385	0.056
-356.581	-189.302	-0.140	-0.002
-355.566	800.000	-0.042	0.138
-354.552	800.000	0.028	0.113
-353.537	55.880	0.227	-0.220
-352.523	-104.474	0.227	-0.053
-351.508	326.242	-0.089	-0.172
-350.493	-155.920	-0.133	-0.008
-349.479	-91.987	-0.251	-0.071
-348.464	236.046	0.056	-0.093
-347.450	-81.489	-0.073	0.024
-346.435	-200.000	0.014	0.087
-345.420	-144.983	0.084	-0.008
-344.406	85.856	0.137	-0.151
-343.391	20.622	0.038	-0.031
-342.377	25.540	0.095	0.079
-341.362	74.854	-0.126	-0.133
-340.348	63.734	0.248	0.250
-339.333	800.000	0.015	-0.044
-338.318	800.000	-0.029	0.092
-337.304	181.024	0.159	0.234
-336.289	52.271	-0.397	0.380
-335.275	-30.535	0.134	0.076
-334.260	91.805	0.177	-0.199
-333.245	222.592	0.199	-0.321
-332.231	-27.990	0.239	-0.139
-331.216	-200.000	-0.010	-0.056
-330.202	-107.679	-0.104	0.023
-329.187	-82.702	-0.048	-0.016
-328.172	-46.060	-0.150	0.074
-327.158	-104.649	-0.275	0.064
-326.143	-19.779	-0.158	-0.098
-325.129	-60.384	0.226	0.096
-324.114	-187.559	0.165	0.002
-323.099	-79.433	-0.155	0.052
-322.085	171.281	0.015	-0.022
-321.070	-104.570	-0.190	-0.044
-320.056	264.710	-0.110	-0.191
-319.041	-73.036	0.276	-0.101
-318.026	-124.362	-0.227	0.035
-317.012	208.334	-0.156	0.244
-315.997	26.158	0.124	-0.104
-314.983	-200.000	-0.003	-0.165
-313.968	-23.751	-0.243	-0.146
-312.953	161.767	-0.159	0.224
-311.939	-3.501	0.214	0.149
-310.924	-23.534	0.086	0.052
-309.910	-200.000	-0.030	0.224
-308.895	-26.423	0.156	0.092
-307.880	-200.000	-0.001	-0.013
-306.866	735.565	0.058	0.157
-305.851	258.246	0.064	0.110
-304.837	130.374	0.118	-0.151
-303.822	-33.914	-0.058	0.032
-302.807	-64.549	-0.182	-0.074
-301.793	-200.000	0.012	0.222
-300.778	-200.000	0.004	-0.110
-299.764	97.215	0.123	0.142
-298.749	-62.193	-0.188	-0.078
-297.735	800.000	-0.086	0.264
-296.720	-71.762	0.253	-0.094
-295.705	304.074	0.040	0.075
-294.691	-200.000	-0.015	0.080
-293.676	-200.000	-0.059	-0.342
-292.662	19.058	0.164	-0.131
-291.647	176.061	-0.069	-0.100
-290.632	-41.402	-0.101	0.052
-289.618	373.100	0.021	0.043
-288.603	67.045	0.115	-0.118
-287.589	-200.000	0.080	-0.413
-286.574	-163.720	-0.083	0.004
-285.559	-40.479	0.091	-0.047
-284.545	-200.000	0.022	-0.192
-283.530	-111.108	0.165	0.034
-282.516	-80.480	0.274	-0.091
-281.501	-110.789	-0.168	-0.035
-280.486	-124.048	0.125	-0.020
-279.472	-26.669	0.160	0.094
-278.457	178.292	-0.076	0.111
-277.443	-99.227	0.252	0.064
-276.428	118.145	-0.226	0.278
-275.413	800.000	-0.040	-0.112
-274.399	-81.886	-0.303	-0.099
-273.384	26.227	-0.131	-0.109
-272.370	19.599	0.268	-0.216
-271.355	-200.000	0.027	0.153
-270.340	-114.196	-0.304	0.059
-269.326	-148.044	-0.175	0.015
-268.311	-139.502	-0.123	-0.013
-267.297	-41.604	-0.151	-0.078
-266.282	445.949	-0.092	0.202
-265.267	24.299	-0.246	0.203
-264.253	315.436	-0.092	0.173
-263.238	-156.688	0.195	-0.012
-262.224	-15.912	0.108	-0.068
-261.209	-54.898	-0.125	-0.056
-260.195	-4.561	0.088	-0.060
-259.180	73.345	-0.032	-0.033
-258.165	521.802	0.126	-0.295
-257.151	314.900	-0.062	0.117
-256.136	527.009	-0.038	0.090
-255.122	99.063	-0.278	0.320
-254.107	-37.371	-0.067	0.036
-253.092	-99.294	0.103	0.026
-252.078	301.421	-0.021	0.038
-251.063	800.000	-0.059	0.231
-250.049	800.000	-0.074	0.214
-249.034	800.000	-0.097	-0.279
-248.019	800.000	0.021	-0.084
-247.005	800.000	-0.048	0.183
-245.990	-200.000	0.005	-0.217
-244.976	-126.778	-0.306	-0.045
-243.961	64.815	-0.213	-0.215
-242.946	75.534	0.075	0.079
-241.932	-109.494	0.102	0.022
-240.917	634.791	-0.108	-0.274
-239.903	37.009	-0.184	-0.163
-238.888	-88.532	-0.252	0.075
-237.873	-200.000	0.010	-0.152
-236.859	32.275	0.139	0.120
-235.844	-53.546	-0.131	0.060
-234.830	172.341	0.076	0.109
-233.815	30.466	0.081	0.069
-232.800	-200.000	0.036	-0.201
-231.786	-200.000	0.035	-0.327
-230.771	704.615	0.034	-0.090
-229.757	47.275	0.170	0.158
-228.742	556.218	0.061	-0.147
-227.727	-78.177	0.055	0.019
-226.713	18.531	0.050	0.040
-225.698	800.000	0.016	0.066
-224.684	-200.000	-0.017	-0.090
-223.669	188.343	0.159	0.237
-222.655	34.154	0.210	-0.182
-221.640	-142.143	-0.339	0.034
-220.625	-6.190	0.120	-0.082
-219.611	-152.859	-0.104	-0.007
-218.596	-98.527	0.293	-0.075
-217.582	-34.384	-0.110	0.060
-216.567	82.557	-0.081	0.088
-215.552	71.017	0.057	-0.059
-214.538	-92.430	-0.250	-0.070
-213.523	-165.370	-0.117	0.005
-212.509	-137.260	-0.073	0.008
-211.494	-200.000	-0.019	-0.112
-210.479	-200.000	0.079	0.353
-209.465	449.366	-0.011	0.024
-208.450	-56.059	-0.212	-0.094
-207.436	-179.502	-0.364	-0.008
-206.421	-200.000	0.009	0.181
-205.406	271.440	-0.140	-0.246
-204.392	-107.286	0.139	-0.030
-203.377	800.000	0.058	0.213
-202.363	35.652	0.187	0.164
-201.348	139.612	0.062	0.081
-200.333	118.072	-0.114	0.141
-199.319	206.508	0.083	0.128
-198.304	13.824	0.070	-0.054
-197.290	288.037	-0.151	0.273
-196.275	146.785	0.160	-0.214
-195.260	111.430	0.136	0.163
-194.246	-107.270	-0.555	0.122
-193.231	-127.428	-0.309	0.045
-192.217	-8.218	-0.134	0.090
-191.202	800.000	0.069	0.212
-190.187	-200.000	0.059	0.285
-189.173	671.664	0.099	-0.255
-188.158	557.069	-0.140	-0.336
-187.144	-58.677	-0.140	0.060
-186.129	800.000	0.091	0.341
-185.114	-132.761	-0.286	-0.036
-184.100	577.775	0.110	-0.267
-183.085	-108.197	0.239	-0.052
-182.071	-100.029	0.232	0.058
-181.056	-40.079	0.060	-0.031
-180.042	-150.604	-0.089	0.007
-179.027	14.980	-0.228	0.177
-178.012	656.103	-0.087	-0.224
-176.998	-106.423	0.314	0.070
-175.983	175.641	-0.204	-0.294
-174.969	-158.611	-0.353	0.020
-173.954	-71.155	-0.363	0.136
-172.939	227.090	0.239	-0.387
-171.925	-200.000	-0.017	-0.093
-170.910	626.382	0.046	0.116
-169.896	-200.000	-0.004	0.019
-168.881	-66.346	-0.217	0.086
-167.866	-66.004	-0.223	0.089
-166.852	-200.000	-0.026	-0.187
-165.837	-200.000	-0.025	-0.144
-164.823	-186.122	0.218	0.003
-163.808	800.000	0.068	-0.257
-162.793	-55.379	0.311	-0.139
-161.779	292.754	-0.009	-0.016
-160.764	227.700	0.146	0.237
-159.750	263.898	0.136	-0.236
-158.735	95.105	0.182	0.207
-157.720	28.444	0.144	0.121
-156.706	298.550	-0.107	-0.196
-155.691	-10.810	0.102	0.067
-154.677	-57.823	0.268	0.117
-153.662	-101.508	-0.122	0.029
-152.647	533.434	0.005	0.012
-151.633	-200.000	-0.025	-0.274
-150.618	9.427	-0.333	0.251
-149.604	800.000	0.079	0.270
-148.589	-110.966	0.084	0.017
-147.574	800.000	-0.103	0.323
-146.560	7.392	-0.056	-0.042
-145.545	-28.037	0.229	-0.132
-144.531	177.313	0.073	-0.105
-143.516	800.000	0.040	0.146
-142.502	204.830	-0.072	-0.111
-141.487	-14.567	-0.134	-0.086
-140.472	-116.281	0.297	0.055
-139.458	142.351	-0.172	-0.227
-138.443	800.000	-0.049	-0.202
-137.429	-200.000	-0.009	-0.056
-136.414	44.745	-0.210	0.192
-135.399	76.420	-0.341	0.360
-134.385	-200.000	0.014	0.268
-133.370	-9.551	0.200	-0.133
-132.356	-97.540	0.234	-0.060
-131.341	51.157	0.030	-0.028
-130.326	105.129	0.085	-0.099
-129.312	-18.052	0.089	-0.056
-128.297	605.747	0.138	0.342
-127.283	57.505	0.080	0.078
-126.268	-7.707	0.022	0.015
-125.253	800.000	0.132	-0.523
-124.239	113.859	0.125	-0.151
-123.224	-100.379	-0.226	0.056
-122.210	365.151	0.168	-0.335
-121.195	-200.000	-0.053	0.265
