DTS Sentinel unit serial number:	SN413079Multiplexer serial number:	ORYXHardware model number:	OX4-SRSoftware version number:	ORYX F/W v4.00 Oryx Data Collector v3.7.2.0data status	okinstallation	princeton_trtdifferential loss correction	single-endedforward channel	channel 3reverse channel	N/Adate	2019/09/18time	16:44:35forward acquisition time	60.00reverse acquisition time	0.00gamma	496.2192k internal	0.2292k external	0.2292temperature offset calibration	0.9985default loss term (dB/km)	0.3790temperature slope calibration	1.0000multiplexer offset coefficient	1.0000multiplexer slope coefficient	1.0000fibre end	0.00T internal ref (°C)	39.87T ext. ref 1 (°C)	0.84T ext. ref 2 (°C)	36.27length (m)	temperature (°C)	Stokes	anti-Stokes-747.200	178.324	-0.140	0.209
-746.185	9.586	-0.175	0.136
-745.171	206.018	0.006	0.009
-744.156	7.220	0.195	0.149
-743.142	-200.000	-0.030	0.451
-742.127	89.742	-0.184	0.210
-741.112	800.000	-0.032	0.119
-740.098	27.534	-0.213	0.183
-739.083	-6.849	0.083	-0.058
-738.069	709.237	0.028	0.075
-737.054	-200.000	-0.002	-0.186
-736.039	100.486	-0.042	0.050
-735.025	-139.102	0.216	0.024
-734.010	800.000	0.035	0.120
-732.996	82.548	0.091	0.101
-731.981	800.000	-0.038	0.114
-730.966	-200.000	0.003	-0.071
-729.952	258.372	0.049	-0.086
-728.937	-200.000	-0.020	0.147
-727.923	-68.515	-0.163	0.065
-726.908	-2.325	0.205	0.147
-725.894	-88.681	-0.539	-0.164
-724.879	-77.263	-0.172	-0.061
-723.864	-24.684	-0.178	-0.108
-722.850	-108.324	-0.351	0.077
-721.835	800.000	-0.133	-0.492
-720.821	162.795	0.134	0.193
-719.806	-95.260	0.238	-0.066
-718.791	800.000	-0.064	-0.215
-717.777	446.443	0.103	-0.231
-716.762	422.658	-0.083	-0.181
-715.748	189.850	0.249	0.382
-714.733	-200.000	-0.377	0.001
-713.718	-28.819	-0.268	-0.158
-712.704	-200.000	-0.006	-0.069
-711.689	94.447	-0.357	-0.415
-710.675	-200.000	-0.055	0.356
-709.660	92.778	-0.109	-0.125
-708.645	14.125	-0.342	-0.272
-707.631	-102.723	-0.119	-0.029
-706.616	-162.602	-0.098	-0.005
-705.602	-200.000	0.009	0.126
-704.587	533.648	-0.132	-0.320
-703.572	-200.000	0.018	-0.336
-702.558	-81.831	-0.264	-0.089
-701.543	800.000	0.026	-0.085
-700.529	30.467	0.142	-0.124
-699.514	674.600	0.119	-0.316
-698.499	69.738	-0.195	-0.205
-697.485	-61.822	0.163	-0.070
-696.470	54.043	-0.193	0.190
-695.456	37.287	0.254	0.230
-694.441	-124.852	0.363	0.057
-693.426	374.955	0.025	0.052
-692.412	800.000	-0.079	-0.322
-691.397	800.000	0.046	-0.174
-690.383	17.957	0.091	0.074
-689.368	-68.793	-0.284	-0.112
-688.354	-191.222	-0.088	-0.001
-687.339	-2.742	0.187	-0.133
-686.324	-200.000	-0.015	0.295
-685.310	-200.000	0.006	0.237
-684.295	-130.945	0.206	-0.028
-683.281	800.000	0.119	0.377
-682.266	-8.463	0.140	-0.096
-681.251	-62.298	0.321	0.137
-680.237	-112.683	-0.169	-0.034
-679.222	-21.388	0.203	0.127
-678.208	396.162	0.016	0.035
-677.193	183.578	-0.172	-0.260
-676.178	-200.000	-0.018	-0.158
-675.164	-31.009	-0.270	-0.156
-674.149	7.446	0.082	-0.063
-673.135	24.095	-0.155	-0.130
-672.120	-135.695	0.083	0.010
-671.105	-200.000	0.036	-0.190
-670.091	-200.000	-0.031	-0.197
-669.076	78.950	-0.158	-0.173
-668.062	-200.000	0.019	-0.100
-667.047	28.841	-0.242	-0.209
-666.032	-200.000	0.029	0.301
-665.018	-200.000	-0.061	0.425
-664.003	-18.137	-0.256	-0.163
-662.989	-200.000	-0.018	-0.312
-661.974	-64.472	-0.204	0.085
-660.959	238.686	0.102	0.172
-659.945	399.852	0.071	-0.151
-658.930	-66.461	0.170	0.069
-657.916	-200.000	0.023	-0.238
-656.901	111.786	-0.125	-0.154
-655.886	-200.000	-0.020	0.097
-654.872	800.000	-0.019	0.071
-653.857	-135.599	-0.183	0.022
-652.843	800.000	0.068	-0.279
-651.828	-142.701	-0.217	-0.022
-650.814	-200.000	-0.039	0.306
-649.799	156.588	0.106	0.150
-648.784	-18.249	-0.205	0.131
-647.770	112.059	0.041	0.050
-646.755	33.764	-0.092	-0.082
-645.741	-73.114	-0.198	0.074
-644.726	-2.608	-0.211	-0.150
-643.711	-178.544	-0.043	0.001
-642.697	50.941	0.190	-0.183
-641.682	112.385	-0.070	-0.087
-640.668	-73.610	-0.166	-0.062
-639.653	-40.968	-0.176	-0.093
-638.638	-200.000	-0.006	-0.078
-637.624	-94.150	-0.233	0.065
-636.609	5.578	0.369	0.278
-635.595	-200.000	-0.093	-0.630
-634.580	-47.212	0.089	0.044
-633.565	-118.667	-0.080	-0.014
-632.551	-200.000	0.017	-0.213
-631.536	-143.675	-0.189	-0.018
-630.522	-105.519	-0.205	0.047
-629.507	800.000	-0.023	0.101
-628.492	66.143	0.138	-0.142
-627.478	-56.947	0.483	0.217
-626.463	-200.000	-0.022	0.106
-625.449	-2.717	-0.176	0.125
-624.434	107.871	-0.280	0.340
-623.419	-33.262	-0.133	-0.075
-622.405	365.805	-0.162	-0.332
-621.390	330.570	0.035	-0.069
-620.376	-193.022	-0.481	-0.004
-619.361	57.772	0.093	0.093
-618.346	-116.258	0.307	-0.058
-617.332	-63.776	-0.135	-0.056
-616.317	800.000	0.049	0.147
-615.303	-117.197	-0.130	0.024
-614.288	243.907	0.151	0.258
-613.273	-113.342	0.253	0.051
-612.259	800.000	-0.080	0.308
-611.244	800.000	0.078	0.261
-610.230	-1.507	0.084	-0.060
-609.215	800.000	0.086	-0.348
-608.201	-200.000	0.063	0.381
-607.186	800.000	0.056	0.216
-606.171	645.809	-0.066	-0.171
-605.157	-43.010	-0.080	0.042
-604.142	-200.000	-0.006	-0.085
-603.128	-21.837	-0.026	-0.016
-602.113	102.357	0.083	0.099
-601.098	-144.930	0.209	-0.019
-600.084	-38.821	0.087	0.047
-599.069	-59.926	0.098	0.043
-598.055	-16.334	-0.281	0.181
-597.040	-200.000	0.047	-0.210
-596.025	-103.458	-0.294	-0.070
-595.011	-200.000	-0.090	0.430
-593.996	800.000	-0.058	-0.209
-592.982	-200.000	0.007	-0.128
-591.967	-200.000	0.004	-0.034
-590.952	22.023	-0.222	0.185
-589.938	-54.106	-0.098	0.045
-588.923	151.350	-0.083	-0.115
-587.909	-146.132	0.430	0.039
-586.894	800.000	-0.118	0.353
-585.879	571.052	0.106	-0.262
-584.865	-41.042	0.261	-0.137
-583.850	-68.703	-0.290	-0.114
-582.836	-31.104	-0.128	0.073
-581.821	311.448	0.153	0.293
-580.806	101.881	0.141	0.168
-579.792	-132.805	-0.306	-0.040
-578.777	43.076	0.145	-0.135
-577.763	800.000	-0.122	-0.407
-576.748	-128.252	0.265	-0.038
-575.733	330.803	0.171	-0.334
-574.719	-85.202	-0.117	0.037
-573.704	-55.743	0.292	0.133
-572.690	800.000	-0.055	0.202
-571.675	52.763	-0.144	-0.140
-570.661	-200.000	-0.002	0.090
-569.646	800.000	-0.029	-0.117
-568.631	-128.573	0.131	-0.019
-567.617	-109.407	0.221	0.048
-566.602	198.096	0.044	-0.069
-565.588	-22.872	-0.171	-0.105
-564.573	6.383	-0.315	0.237
-563.558	-83.020	0.406	-0.133
-562.544	52.362	-0.132	0.128
-561.529	465.743	0.085	0.192
-560.515	-117.758	0.248	0.045
-559.500	-78.646	-0.084	-0.029
-558.485	-113.416	-0.471	0.094
-557.471	800.000	-0.070	0.236
-556.456	179.041	0.109	-0.161
-555.442	35.783	-0.123	0.110
-554.427	1.403	0.246	0.180
-553.412	703.389	-0.022	0.058
-552.398	-8.162	-0.084	0.057
-551.383	-35.239	0.114	0.063
-550.369	126.512	-0.203	0.261
-549.354	0.241	0.040	0.029
-548.339	-2.454	0.159	-0.113
-547.325	541.845	0.108	0.262
-546.310	-35.076	-0.059	0.033
-545.296	-200.000	-0.014	0.063
-544.281	-70.658	-0.273	0.105
-543.266	-49.143	0.072	0.035
-542.252	-124.533	0.097	-0.015
-541.237	154.069	0.205	-0.285
-540.223	800.000	0.052	-0.232
-539.208	362.137	0.054	0.111
-538.193	-82.251	0.359	0.119
-537.179	103.112	0.104	0.124
-536.164	-44.060	-0.163	0.083
-535.150	-166.278	-0.130	0.006
-534.135	-2.854	0.159	0.113
-533.121	167.203	-0.247	-0.356
-532.106	-43.920	-0.111	-0.057
-531.091	99.714	0.134	0.158
-530.077	800.000	0.041	0.135
-529.062	138.897	-0.099	-0.131
-528.048	1.773	-0.246	0.180
-527.033	527.476	0.101	0.242
-526.018	-62.813	0.256	-0.108
-525.004	-145.331	0.161	-0.015
-523.989	-115.244	-0.653	0.125
-522.975	-3.366	0.133	-0.094
-521.960	800.000	0.080	-0.331
-520.945	142.033	0.130	0.175
-519.931	-144.060	-0.255	0.024
-518.916	800.000	0.064	-0.230
-517.902	-200.000	0.024	0.155
-516.887	6.622	0.147	0.111
-515.872	800.000	-0.077	-0.237
-514.858	-171.918	0.178	-0.006
-513.843	-200.000	0.006	0.059
-512.829	0.482	-0.081	-0.058
-511.814	-200.000	-0.009	-0.074
-510.799	-200.000	0.004	-0.278
-509.785	91.778	0.393	-0.448
-508.770	-200.000	-0.023	0.223
-507.756	78.317	0.078	0.085
-506.741	-6.738	0.192	-0.132
-505.726	-130.707	-0.195	0.027
-504.712	-200.000	0.040	0.244
-503.697	-99.079	-0.318	0.082
-502.683	-179.711	0.072	-0.002
-501.668	-200.000	-0.000	0.117
-500.653	71.530	-0.266	0.280
-499.639	221.352	0.079	-0.128
-498.624	472.937	0.146	0.334
-497.610	-150.609	-0.138	0.011
-496.595	420.669	-0.017	-0.036
-495.581	659.657	-0.066	-0.171
-494.566	-38.171	0.012	-0.007
-493.551	143.956	-0.206	0.279
-492.537	-200.000	0.016	0.286
-491.522	200.250	-0.142	-0.221
-490.508	800.000	-0.054	-0.151
-489.493	-33.042	0.103	0.058
-488.478	96.406	0.108	-0.125
-487.464	-133.208	-0.086	-0.011
-486.449	-200.000	0.019	-0.212
-485.435	-200.000	0.001	-0.156
-484.420	115.235	0.099	-0.122
-483.405	800.000	0.058	-0.202
-482.391	98.892	0.044	0.052
-481.376	-200.000	0.006	-0.141
-480.362	-83.685	0.068	0.022
-479.347	-200.000	-0.031	-0.144
-478.332	-89.103	0.320	-0.096
-477.318	-8.847	-0.207	-0.141
-476.303	-200.000	-0.038	0.257
-475.289	123.211	0.125	0.158
-474.274	265.517	0.037	0.066
-473.259	800.000	-0.137	-0.417
-472.245	-81.822	-0.129	-0.043
-471.230	-107.403	-0.355	-0.079
-470.216	800.000	0.020	-0.077
-469.201	-58.382	0.158	-0.070
-468.186	-114.483	-0.335	0.065
-467.172	7.700	-0.133	-0.101
-466.157	800.000	-0.045	0.164
-465.143	653.075	0.108	0.281
-464.128	-123.179	-0.206	-0.033
-463.113	-200.000	0.016	-0.309
-462.099	-200.000	0.007	-0.096
-461.084	625.205	0.064	-0.165
-460.070	-195.201	-0.225	-0.002
-459.055	-200.000	-0.013	0.183
-458.040	-162.837	-0.336	-0.017
-457.026	-200.000	-0.023	-0.230
-456.011	-200.000	-0.019	-0.137
-454.997	161.053	0.119	-0.168
-453.982	-21.206	0.118	-0.073
-452.968	800.000	-0.028	-0.100
-451.953	246.661	0.133	0.227
-450.938	13.730	0.096	0.076
-449.924	35.463	0.218	0.193
-448.909	-51.107	-0.114	0.054
-447.895	-79.059	-0.291	-0.100
-446.880	800.000	0.129	0.434
-445.865	172.300	0.072	0.105
-444.851	800.000	-0.115	-0.338
-443.836	-200.000	-0.029	-0.189
-442.822	-132.660	0.092	-0.012
-441.807	-33.756	-0.125	0.070
-440.792	-92.890	-0.151	-0.043
-439.778	-200.000	0.005	-0.258
-438.763	-58.153	-0.292	0.129
-437.749	-200.000	-0.015	0.329
-436.734	-37.827	-0.115	0.062
-435.719	424.176	-0.107	0.233
-434.705	800.000	0.073	0.242
-433.690	-200.000	0.039	-0.204
-432.676	367.086	0.151	0.308
-431.661	453.693	0.072	-0.161
-430.646	8.424	-0.171	-0.130
-429.632	-106.947	0.143	0.032
-428.617	-36.097	-0.320	-0.175
-427.603	146.798	-0.099	0.135
-426.588	8.206	0.107	0.082
-425.573	-180.324	-0.243	-0.005
-424.559	-5.776	0.211	0.146
-423.544	800.000	-0.049	0.143
-422.530	-200.000	0.010	0.107
-421.515	-51.961	0.127	-0.060
-420.500	-200.000	0.032	-0.336
-419.486	-78.346	0.211	-0.073
-418.471	-38.994	-0.027	-0.014
-417.457	800.000	0.008	-0.033
-416.442	74.056	-0.182	0.193
-415.428	-16.851	0.253	-0.161
-414.413	-114.746	0.310	-0.060
-413.398	-68.140	0.080	0.032
-412.384	-90.283	0.225	-0.066
-411.369	-93.356	-0.123	0.034
-410.355	-34.283	-0.118	0.066
-409.340	-200.000	0.016	0.293
-408.325	-90.405	0.035	0.010
-407.311	151.534	-0.248	0.341
-406.296	-88.812	0.255	-0.076
-405.282	215.411	-0.145	0.233
-404.267	-200.000	-0.023	-0.117
-403.252	800.000	0.058	-0.187
-402.238	-87.743	0.140	-0.042
-401.223	800.000	0.082	0.351
-400.209	-184.673	0.332	-0.005
-399.194	201.361	0.080	-0.125
-398.179	164.985	0.053	-0.075
-397.165	-119.619	-0.116	-0.020
-396.150	82.234	0.096	0.106
-395.136	-58.035	0.169	-0.075
-394.121	223.136	-0.077	-0.126
-393.106	183.435	0.033	-0.050
-392.092	-32.821	0.079	-0.045
-391.077	-167.271	0.355	0.014
-390.063	-153.191	0.270	0.019
-389.048	-200.000	0.041	0.210
-388.033	402.127	-0.027	0.058
-387.019	76.298	0.135	-0.144
-386.004	-200.000	0.013	-0.068
-384.990	-103.038	0.177	-0.042
-383.975	-181.155	0.231	-0.005
-382.960	-200.000	0.018	0.142
-381.946	-91.579	0.297	0.085
-380.931	800.000	-0.080	-0.278
-379.917	-4.041	-0.164	-0.114
-378.902	-106.122	-0.177	0.040
-377.888	-200.000	-0.007	0.095
-376.873	-20.080	-0.148	0.092
-375.858	800.000	0.046	-0.181
-374.844	-200.000	-0.055	-0.271
-373.829	800.000	0.024	-0.100
-372.815	-150.244	-0.319	-0.025
-371.800	320.114	0.098	0.188
-370.785	-200.000	0.007	-0.037
-369.771	-65.484	-0.143	-0.058
-368.756	-64.264	-0.314	0.129
-367.742	222.244	-0.169	-0.274
-366.727	13.354	0.151	-0.118
-365.712	314.820	-0.043	0.081
-364.698	-78.898	-0.327	-0.112
-363.683	-118.872	0.208	0.037
-362.669	800.000	0.039	-0.123
-361.654	-78.461	-0.035	0.012
-360.639	-54.825	-0.266	0.121
-359.625	-200.000	-0.046	-0.322
-358.610	125.837	0.178	-0.226
-357.596	296.441	0.154	-0.284
-356.581	273.720	0.116	-0.207
-355.566	273.426	-0.161	-0.287
-354.552	28.828	-0.160	-0.137
-353.537	-128.701	-0.129	0.018
-352.523	377.354	-0.033	0.068
-351.508	800.000	0.028	0.123
-350.493	268.600	0.115	0.203
-349.479	-41.392	-0.105	0.054
-348.464	-200.000	-0.071	0.390
-347.450	-200.000	0.004	0.255
-346.435	-59.191	0.136	-0.059
-345.420	443.100	-0.039	0.085
-344.406	-54.726	-0.199	0.091
-343.391	-163.342	0.269	-0.013
-342.377	73.482	0.175	-0.185
-341.362	-7.472	-0.225	-0.154
-340.348	-200.000	-0.043	-0.194
-339.333	-200.000	-0.017	0.121
-338.318	-117.580	0.161	-0.029
-337.304	48.270	0.086	0.081
-336.289	144.314	-0.244	-0.328
-335.275	1.347	0.160	-0.116
-334.260	346.160	-0.261	-0.517
-333.245	-37.946	-0.048	0.026
-332.231	-200.000	0.039	0.329
-331.216	490.597	-0.023	0.053
-330.202	-200.000	-0.001	0.202
-329.187	-70.339	-0.201	0.077
-328.172	26.696	0.161	0.136
-327.158	800.000	-0.081	-0.290
-326.143	580.484	-0.054	-0.133
-325.129	179.445	0.147	-0.216
-324.114	10.564	0.081	0.062
-323.099	54.591	0.128	0.124
-322.085	800.000	-0.123	-0.377
-321.070	-82.050	0.318	0.105
-320.056	-71.937	-0.351	-0.131
-319.041	-145.839	0.272	0.024
-318.026	800.000	0.041	-0.154
-317.012	-200.000	0.008	0.106
-315.997	-200.000	0.018	-0.128
-314.983	477.610	0.173	0.395
-313.968	-81.185	0.151	0.050
-312.953	-43.990	0.198	-0.100
-311.939	-129.968	0.088	0.012
-310.924	-200.000	-0.015	-0.109
-309.910	-4.070	-0.039	0.027
-308.895	800.000	-0.016	0.060
-307.880	18.976	-0.250	0.201
-306.866	800.000	0.124	-0.515
-305.851	61.214	-0.141	0.141
-304.837	-190.537	-0.133	0.001
-303.822	-14.359	0.283	0.183
-302.807	-200.000	0.083	0.547
-301.793	-108.379	0.090	0.020
-300.778	-113.137	-0.124	0.025
-299.764	225.729	0.100	0.163
-298.749	176.847	0.120	-0.175
-297.735	47.458	0.181	0.170
-296.720	-52.077	0.152	0.071
-295.705	-63.430	0.155	0.064
-294.691	112.814	0.088	0.107
-293.676	151.559	-0.149	-0.204
-292.662	130.959	-0.388	0.501
-291.647	42.658	0.023	-0.021
-290.632	-93.662	0.106	0.030
-289.618	-104.384	-0.091	0.021
-288.603	800.000	0.044	-0.136
-287.589	-100.876	0.095	0.023
-286.574	496.127	0.066	0.152
-285.559	366.369	-0.101	-0.204
-284.545	134.425	0.317	-0.413
-283.530	76.712	-0.097	0.104
-282.516	-87.710	0.126	0.038
-281.501	-200.000	0.045	-0.204
-280.486	56.214	0.114	0.112
-279.472	-18.439	0.274	-0.172
-278.457	-63.007	-0.329	-0.137
-277.443	-49.216	-0.034	0.017
-276.428	340.258	0.114	-0.223
-275.413	-115.031	-0.252	-0.048
-274.399	-200.000	0.021	0.532
-273.384	-165.484	-0.171	-0.008
-272.370	22.873	-0.220	0.182
-271.355	-100.103	-0.303	0.076
-270.340	-82.254	-0.156	0.051
-269.326	-41.874	0.372	-0.192
-268.311	135.218	0.119	0.156
-267.297	-143.498	-0.373	-0.036
-266.282	-121.526	0.224	0.037
-265.267	534.796	0.088	-0.209
-264.253	10.819	0.114	-0.088
-263.238	-200.000	0.003	-0.023
-262.224	-181.592	0.162	-0.003
-261.209	-122.885	-0.102	-0.017
-260.195	-156.095	0.213	-0.014
-259.180	-44.525	0.240	0.120
-258.165	184.866	0.027	0.040
-257.151	-41.322	0.342	-0.177
-256.136	207.405	0.171	0.267
-255.122	-200.000	0.037	0.178
-254.107	800.000	0.015	0.049
-253.092	-131.172	0.229	-0.031
-252.078	337.847	-0.056	0.110
-251.063	14.794	0.080	0.063
-250.049	33.333	0.079	-0.069
-249.034	-200.000	0.015	0.110
-248.019	183.614	-0.153	0.228
-247.005	290.990	-0.178	-0.326
-245.990	-1.967	-0.448	-0.316
-244.976	60.699	-0.069	-0.069
-243.961	800.000	-0.051	-0.214
-242.946	800.000	0.055	0.237
-241.932	-200.000	-0.009	0.078
-240.917	6.063	-0.198	0.147
-239.903	-18.560	-0.169	0.106
-238.888	403.021	0.052	0.109
-237.873	751.080	-0.049	-0.133
-236.859	-57.155	-0.171	0.076
-235.844	-43.233	0.060	0.031
-234.830	-51.336	0.157	-0.074
-233.815	-8.572	-0.323	-0.218
-232.800	-200.000	0.030	-0.378
-231.786	54.995	0.278	0.269
-230.771	-178.218	-0.185	0.004
-229.757	-200.000	0.044	-0.420
-228.742	219.602	0.203	0.326
-227.727	800.000	-0.018	0.078
-226.713	800.000	-0.062	0.219
-225.698	-149.800	0.099	-0.008
-224.684	-102.417	-0.052	-0.013
-223.669	-2.945	0.283	0.198
-222.655	-128.563	-0.152	-0.022
-221.640	-200.000	0.012	0.078
-220.625	-147.913	0.214	-0.018
-219.611	5.907	0.258	-0.192
-218.596	-5.042	-0.377	0.260
-217.582	-135.754	-0.142	0.017
-216.567	-93.539	0.115	-0.032
-215.552	-7.385	-0.218	-0.148
-214.538	-30.911	0.222	-0.126
-213.523	84.734	-0.109	0.120
-212.509	-200.000	-0.014	-0.183
-211.494	-96.094	-0.161	0.043
-210.479	-148.017	0.163	-0.014
-209.465	601.108	0.051	0.127
-208.450	-200.000	-0.019	-0.115
-207.436	202.881	-0.026	-0.040
-206.421	158.610	-0.131	-0.182
-205.406	-200.000	-0.005	0.247
-204.392	-100.251	-0.361	0.090
-203.377	-27.755	0.081	-0.047
-202.363	800.000	-0.044	-0.147
-201.348	-20.640	-0.049	0.030
-200.333	-6.756	-0.155	-0.106
-199.319	-200.000	-0.034	-0.356
-198.304	800.000	0.107	0.328
-197.290	-200.000	0.006	-0.090
-196.275	72.964	0.164	0.172
-195.260	-131.919	-0.323	0.042
-194.246	113.558	0.166	-0.202
-193.231	310.113	-0.068	-0.127
-192.217	-200.000	-0.037	0.189
-191.202	-109.860	0.128	0.027
-190.187	15.946	-0.106	0.084
-189.173	-47.484	-0.281	0.137
-188.158	-127.521	0.307	-0.045
-187.144	-144.438	-0.136	-0.013
-186.129	800.000	-0.022	-0.080
-185.114	-129.769	0.408	0.056
-184.100	800.000	-0.064	-0.275
-183.085	-5.669	-0.291	-0.200
-182.071	-200.000	0.070	0.348
-181.056	60.531	0.215	0.213
-180.042	-139.721	0.193	0.021
-179.027	-22.039	-0.098	0.060
-178.012	-200.000	-0.057	-0.302
-176.998	12.333	-0.179	-0.138
-175.983	-104.361	-0.374	-0.087
-174.969	-116.937	0.114	0.021
-173.954	69.691	0.225	0.232
-172.939	-7.691	0.299	-0.203
-171.925	175.234	-0.128	0.185
-170.910	-81.766	0.153	-0.050
-169.896	-128.025	0.190	-0.027
-168.881	12.632	-0.266	-0.206
-167.866	-143.331	-0.094	0.009
-166.852	-200.000	-0.006	0.039
-165.837	-52.916	0.209	-0.096
-164.823	-36.722	0.145	-0.078
-163.808	800.000	0.065	0.252
-162.793	80.391	-0.181	0.195
-161.779	105.550	0.180	-0.213
-160.764	-95.914	-0.090	-0.024
-159.750	202.553	0.117	0.181
-158.735	800.000	0.076	0.316
-157.720	-200.000	-0.048	-0.295
-156.706	147.038	-0.080	-0.108
-155.691	-10.537	-0.129	-0.086
-154.677	-200.000	0.027	-0.190
-153.662	226.952	0.106	0.172
-152.647	74.751	-0.119	0.125
-151.633	-42.926	-0.225	-0.114
-150.618	546.711	-0.018	-0.042
-149.604	334.188	-0.086	-0.167
-148.589	0.764	-0.244	-0.174
-147.574	11.559	0.142	0.109
-146.560	-46.644	-0.068	0.034
-145.545	5.140	0.094	-0.069
-144.531	116.602	0.174	0.214
-143.516	-123.698	0.081	0.013
-142.502	-130.951	0.332	-0.044
-141.487	-50.804	0.134	0.063
-140.472	259.478	-0.113	-0.195
-139.458	-162.306	-0.166	-0.008
-138.443	-0.178	0.159	-0.113
-137.429	-115.224	0.388	-0.073
-136.414	-200.000	0.022	-0.125
-135.399	-56.720	0.372	0.165
-134.385	-200.000	-0.068	0.310
-133.370	-200.000	0.020	0.224
-132.356	29.379	-0.240	-0.203
-131.341	181.087	-0.054	-0.079
-130.326	400.669	0.031	-0.064
-129.312	-200.000	0.027	-0.599
-128.297	-71.144	-0.147	-0.055
-127.283	800.000	-0.063	0.178
-126.268	-12.518	0.109	0.071
-125.253	-200.000	0.025	-0.295
-124.239	800.000	0.115	-0.389
-123.224	381.471	-0.121	-0.248
-122.210	-151.899	0.434	0.032
-121.195	-200.000	-0.026	0.282
