DTS Sentinel unit serial number:	SN413079Multiplexer serial number:	ORYXHardware model number:	OX4-SRSoftware version number:	ORYX F/W v4.00 Oryx Data Collector v3.7.2.0data status	okinstallation	princeton_trtdifferential loss correction	single-endedforward channel	channel 3reverse channel	N/Adate	2019/09/16time	15:20:35forward acquisition time	60.00reverse acquisition time	0.00gamma	496.2192k internal	0.2293k external	0.2293temperature offset calibration	0.9941default loss term (dB/km)	0.3790temperature slope calibration	1.0000multiplexer offset coefficient	1.0000multiplexer slope coefficient	1.0000fibre end	0.00T internal ref (°C)	41.06T ext. ref 1 (°C)	14.60T ext. ref 2 (°C)	37.14length (m)	temperature (°C)	Stokes	anti-Stokes-747.200	-42.235	0.230	-0.120
-746.185	74.062	-0.220	0.236
-745.171	79.320	-0.180	-0.197
-744.156	-133.651	0.062	-0.008
-743.142	-200.000	-0.040	0.445
-742.127	-97.608	0.135	-0.036
-741.112	-200.000	-0.032	0.236
-740.098	800.000	-0.098	0.307
-739.083	-137.424	0.396	-0.046
-738.069	49.829	0.071	0.068
-737.054	113.324	-0.384	0.476
-736.039	-70.143	-0.370	-0.144
-735.025	-144.247	-0.253	-0.024
-734.010	-61.508	0.261	-0.112
-732.996	352.295	-0.054	-0.110
-731.981	134.112	-0.252	0.334
-730.966	131.986	-0.195	-0.256
-729.952	-141.037	-0.294	0.031
-728.937	65.864	-0.075	0.078
-727.923	-141.709	-0.385	-0.040
-726.908	-8.227	-0.294	0.202
-725.894	404.588	-0.184	-0.396
-724.879	250.529	0.065	-0.112
-723.864	177.597	-0.199	-0.296
-722.850	-110.541	-0.377	0.080
-721.835	233.865	-0.096	0.162
-720.821	-60.498	0.370	0.161
-719.806	18.561	0.083	0.068
-718.791	403.240	-0.167	0.359
-717.777	317.888	0.059	0.115
-716.762	-10.759	-0.121	0.082
-715.748	-147.690	0.157	-0.013
-714.733	447.994	0.056	-0.127
-713.718	800.000	0.094	0.368
-712.704	-38.535	0.437	-0.236
-711.689	800.000	-0.135	-0.480
-710.675	62.219	0.101	-0.103
-709.660	27.647	0.130	0.112
-708.645	132.888	-0.108	0.143
-707.631	-113.459	-0.167	0.033
-706.616	-200.000	-0.001	0.041
-705.602	-200.000	0.082	0.378
-704.587	-131.491	0.260	-0.035
-703.572	-75.223	0.142	0.052
-702.558	-116.381	-0.077	-0.015
-701.543	-54.152	-0.044	0.020
-700.529	-5.265	-0.159	-0.112
-699.514	66.712	0.237	0.247
-698.499	352.347	-0.157	-0.317
-697.485	160.728	-0.036	0.052
-696.470	120.792	-0.103	-0.130
-695.456	-58.010	0.214	0.095
-694.441	-200.000	-0.015	-0.182
-693.426	195.763	-0.252	-0.391
-692.412	-87.081	-0.174	-0.054
-691.397	800.000	-0.015	0.062
-690.383	-200.000	0.004	-0.039
-689.368	274.724	-0.019	0.035
-688.354	-200.000	-0.016	0.196
-687.339	-200.000	0.016	-0.217
-686.324	266.112	-0.235	-0.418
-685.310	85.775	-0.154	0.173
-684.295	388.938	0.073	-0.155
-683.281	-97.256	-0.200	0.053
-682.266	408.785	0.055	-0.118
-681.251	-42.764	0.295	0.153
-680.237	-0.791	0.322	-0.233
-679.222	-47.310	-0.215	0.107
-678.208	-13.760	0.289	-0.191
-677.193	800.000	0.056	0.205
-676.178	304.066	-0.018	0.035
-675.164	308.597	0.199	-0.380
-674.149	-200.000	-0.013	-0.079
-673.135	48.578	0.070	-0.067
-672.120	-200.000	0.009	0.075
-671.105	-137.485	-0.254	0.029
-670.091	256.945	-0.021	0.036
-669.076	-94.328	0.383	0.107
-668.062	388.166	-0.059	-0.124
-667.047	429.678	0.053	0.117
-666.032	762.941	0.040	-0.112
-665.018	105.142	-0.126	0.151
-664.003	-102.407	0.138	-0.034
-662.989	-2.980	0.173	-0.123
-661.974	-138.127	-0.151	0.017
-660.959	-105.726	-0.323	0.075
-659.945	-89.736	0.133	-0.040
-658.930	-200.000	0.024	0.220
-657.916	49.802	0.352	0.338
-656.901	800.000	0.012	0.037
-655.886	-200.000	-0.046	0.235
-654.872	54.238	-0.066	0.065
-653.857	-10.004	-0.155	-0.105
-652.843	16.838	-0.172	0.139
-651.828	28.169	0.155	-0.133
-650.814	-20.328	0.228	-0.143
-649.799	109.006	0.155	-0.189
-648.784	800.000	-0.083	-0.254
-647.770	50.834	-0.157	-0.151
-646.755	682.043	0.082	0.218
-645.741	-99.056	0.126	-0.033
-644.726	-144.812	-0.058	-0.005
-643.711	-95.573	-0.144	0.039
-642.697	16.994	0.216	-0.175
-641.682	-81.463	-0.091	-0.030
-640.668	-152.495	0.155	0.011
-639.653	-138.528	-0.194	0.022
-638.638	-200.000	0.027	0.226
-637.624	194.953	-0.060	-0.092
-636.609	-6.315	-0.079	0.055
-635.595	-45.030	-0.146	0.074
-634.580	-147.827	0.056	0.005
-633.565	422.840	0.111	0.243
-632.551	7.170	-0.077	-0.059
-631.536	-61.960	-0.288	0.123
-630.522	-200.000	0.029	0.176
-629.507	91.852	-0.046	-0.053
-628.492	-200.000	-0.047	0.272
-627.478	-42.886	-0.019	-0.010
-626.463	-24.683	-0.108	-0.066
-625.449	-46.888	0.083	0.041
-624.434	252.255	0.250	-0.434
-623.419	-126.716	-0.227	-0.034
-622.405	125.414	-0.166	0.213
-621.390	-117.578	-0.246	0.045
-620.376	-5.877	-0.273	-0.190
-619.361	800.000	0.088	-0.286
-618.346	-104.158	-0.204	0.048
-617.332	-80.469	0.146	-0.049
-616.317	-90.703	-0.101	0.030
-615.303	800.000	0.069	-0.308
-614.288	-33.032	0.048	-0.027
-613.273	800.000	0.070	0.279
-612.259	14.557	0.102	0.081
-611.244	-117.783	-0.202	-0.037
-610.230	306.202	0.072	0.136
-609.215	106.883	-0.173	-0.209
-608.201	-200.000	0.017	-0.114
-607.186	71.494	0.035	-0.037
-606.171	171.202	0.125	-0.182
-605.157	22.469	0.101	0.084
-604.142	-14.767	0.320	-0.209
-603.128	393.670	-0.104	-0.220
-602.113	4.332	0.160	-0.119
-601.098	-35.636	-0.160	0.088
-600.084	-91.793	-0.402	0.116
-599.069	429.064	0.072	-0.159
-598.055	-35.399	-0.064	0.036
-597.040	-200.000	-0.003	-0.171
-596.025	256.372	-0.157	-0.274
-595.011	436.379	-0.215	-0.477
-593.996	114.097	-0.224	-0.277
-592.982	138.848	0.025	0.033
-591.967	448.694	-0.016	-0.036
-590.952	64.000	-0.185	0.189
-589.938	-28.096	0.070	-0.041
-588.923	274.363	-0.032	0.058
-587.909	-200.000	-0.014	0.142
-586.894	-200.000	0.003	0.075
-585.879	57.763	-0.065	0.065
-584.865	-46.081	-0.218	0.109
-583.850	-180.242	0.162	0.003
-582.836	-56.142	-0.246	0.111
-581.821	565.488	-0.071	-0.176
-580.806	-200.000	-0.020	0.192
-579.792	59.812	0.093	-0.093
-578.777	493.388	0.183	0.426
-577.763	535.598	-0.002	-0.005
-576.748	-200.000	0.006	-0.034
-575.733	-157.499	0.009	-0.001
-574.719	-116.103	0.257	0.049
-573.704	-57.088	0.107	-0.048
-572.690	-135.461	0.210	0.025
-571.675	318.919	-0.106	-0.204
-570.661	-86.551	-0.161	0.050
-569.646	-4.657	-0.202	-0.142
-568.631	126.011	0.064	0.083
-567.617	-71.373	-0.104	0.040
-566.602	800.000	0.094	0.324
-565.588	-131.937	-0.194	0.026
-564.573	414.807	0.038	-0.083
-563.558	136.125	0.151	-0.200
-562.544	-2.836	0.161	0.114
-561.529	-200.000	-0.010	0.126
-560.515	146.012	-0.162	0.220
-559.500	-200.000	-0.002	-0.373
-558.485	281.109	0.030	-0.055
-557.471	-51.781	0.059	0.028
-556.456	615.637	0.113	0.287
-555.442	37.927	-0.337	0.304
-554.427	-104.834	0.180	-0.042
-553.412	800.000	0.124	0.428
-552.398	-5.496	-0.167	-0.116
-551.383	-39.150	0.190	0.101
-550.369	-200.000	-0.037	0.195
-549.354	-200.000	0.008	0.101
-548.339	-38.157	0.052	-0.028
-547.325	-100.930	0.312	0.078
-546.310	-200.000	-0.046	0.310
-545.296	-13.440	-0.152	-0.100
-544.281	-132.907	0.135	0.017
-543.266	18.809	-0.263	-0.214
-542.252	336.957	0.116	-0.230
-541.237	-126.052	-0.249	-0.038
-540.223	24.449	0.175	-0.147
-539.208	363.650	-0.100	-0.204
-538.193	-81.859	-0.053	-0.018
-537.179	-79.223	0.154	0.053
-536.164	355.718	-0.042	0.085
-535.150	186.634	0.318	0.481
-534.135	-73.063	0.348	-0.129
-533.121	9.281	-0.086	0.066
-532.106	343.146	0.057	-0.114
-531.091	152.910	-0.190	-0.264
-530.077	-90.233	0.079	-0.023
-529.062	-68.390	-0.180	0.071
-528.048	-200.000	-0.064	-0.502
-527.033	389.856	0.051	0.108
-526.018	-37.799	0.322	-0.174
-525.004	800.000	0.088	-0.298
-523.989	359.370	0.225	-0.456
-522.975	-50.356	0.446	0.214
-521.960	-99.793	0.237	-0.060
-520.945	-115.188	0.042	-0.008
-519.931	-200.000	0.017	0.186
-518.916	-52.852	0.102	-0.048
-517.902	-109.580	-0.192	-0.041
-516.887	179.392	0.103	-0.153
-515.872	15.222	0.186	0.148
-514.858	800.000	-0.077	-0.239
-513.843	103.041	-0.080	-0.095
-512.829	218.398	0.151	0.245
-511.814	-143.653	-0.024	-0.002
-510.799	575.583	-0.086	0.212
-509.785	33.159	0.143	-0.126
-508.770	196.479	-0.234	-0.362
-507.756	-72.604	-0.231	-0.087
-506.741	-75.111	0.356	0.129
-505.726	-200.000	-0.003	-0.084
-504.712	-200.000	-0.026	-0.228
-503.697	4.225	0.183	0.136
-502.683	-42.215	0.358	-0.185
-501.668	37.494	-0.134	-0.121
-500.653	269.778	-0.167	-0.297
-499.639	-145.095	-0.126	0.012
-498.624	-200.000	0.043	0.335
-497.610	-131.460	-0.147	-0.020
-496.595	-117.068	-0.155	-0.029
-495.581	500.492	0.070	-0.163
-494.566	-200.000	-0.016	0.096
-493.551	-91.711	-0.263	0.076
-492.537	14.141	0.191	-0.151
-491.522	800.000	-0.013	0.040
-490.508	61.719	0.239	0.242
-489.493	76.886	-0.172	0.185
-488.478	-188.471	0.192	0.002
-487.464	370.616	0.048	-0.098
-486.449	-200.000	0.092	0.439
-485.435	-95.085	-0.156	0.043
-484.420	580.044	-0.146	-0.361
-483.405	20.257	-0.009	-0.008
-482.391	800.000	0.066	0.214
-481.376	27.054	-0.098	0.083
-480.362	-47.180	0.089	0.044
-479.347	-80.035	0.193	0.065
-478.332	69.260	0.157	0.163
-477.318	-154.038	0.292	0.020
-476.303	-148.719	0.134	0.011
-475.289	-46.274	-0.169	-0.084
-474.274	-118.335	0.228	0.041
-473.259	800.000	0.109	-0.333
-472.245	-200.000	-0.093	-0.458
-471.230	-10.227	0.200	-0.134
-470.216	-35.017	-0.029	0.016
-469.201	-34.314	0.088	-0.049
-468.186	-11.771	-0.122	-0.081
-467.172	120.053	0.152	0.190
-466.157	-200.000	-0.030	0.243
-465.143	-200.000	0.006	0.037
-464.128	66.615	-0.170	0.175
-463.113	-31.596	0.105	0.060
-462.099	-200.000	0.047	-0.466
-461.084	-200.000	-0.022	-0.309
-460.070	-32.136	-0.118	-0.067
-459.055	-66.358	-0.265	0.107
-458.040	121.370	0.273	0.345
-457.026	315.717	0.073	-0.139
-456.011	-200.000	0.045	0.218
-454.997	7.360	-0.171	0.129
-453.982	-200.000	0.008	0.068
-452.968	-37.825	-0.204	0.110
-451.953	358.393	0.073	-0.147
-450.938	-200.000	-0.035	0.254
-449.924	800.000	0.101	0.415
-448.909	-142.593	-0.186	0.018
-447.895	-200.000	0.015	-0.077
-446.880	-100.177	-0.369	0.093
-445.865	89.744	0.056	0.064
-444.851	-54.874	-0.179	-0.082
-443.836	-94.997	0.187	-0.051
-442.822	373.151	-0.142	-0.292
-441.807	-200.000	-0.064	-0.382
-440.792	260.911	0.088	-0.153
-439.778	69.428	0.128	-0.133
-438.763	-106.312	-0.239	-0.054
-437.749	800.000	-0.060	-0.204
-436.734	164.644	0.049	0.070
-435.719	-89.390	-0.173	-0.051
-434.705	-121.758	0.209	0.035
-433.690	-200.000	-0.055	0.333
-432.676	77.940	0.087	-0.093
-431.661	50.571	-0.106	-0.101
-430.646	71.841	0.227	0.239
-429.632	67.898	0.067	-0.070
-428.617	46.225	0.146	-0.137
-427.603	-200.000	0.014	0.102
-426.588	366.824	-0.060	-0.122
-425.573	27.473	0.272	0.231
-424.559	127.749	0.122	0.157
-423.544	255.241	-0.286	0.495
-422.530	-12.713	-0.158	0.104
-421.515	64.102	-0.107	-0.108
-420.500	49.342	-0.162	-0.154
-419.486	-200.000	-0.047	0.218
-418.471	104.174	0.112	0.133
-417.457	30.869	-0.149	-0.129
-416.442	-84.930	0.157	0.050
-415.428	800.000	0.063	-0.196
-414.413	-96.391	-0.261	0.070
-413.398	-102.376	-0.067	-0.016
-412.384	-124.673	0.274	0.043
-411.369	-82.931	-0.297	-0.097
-410.355	686.618	-0.107	-0.282
-409.340	61.980	0.135	0.136
-408.325	86.211	-0.173	-0.192
-407.311	-7.857	-0.235	-0.160
-406.296	-69.912	0.197	-0.076
-405.282	800.000	0.029	-0.122
-404.267	800.000	0.036	-0.124
-403.252	436.491	-0.193	0.423
-402.238	-200.000	0.031	0.151
-401.223	-181.170	-0.121	0.002
-400.209	58.677	0.048	0.048
-399.194	-200.000	-0.044	0.347
-398.179	-24.092	0.301	0.181
-397.165	104.648	-0.204	-0.242
-396.150	-73.770	0.337	-0.124
-395.136	800.000	-0.114	0.395
-394.121	800.000	0.036	0.140
-393.106	-126.543	-0.041	-0.006
-392.092	-34.765	-0.098	0.054
-391.077	211.382	0.034	0.053
-390.063	-114.616	-0.061	0.012
-389.048	364.629	-0.105	0.214
-388.033	-57.478	-0.244	-0.108
-387.019	-200.000	0.066	-0.375
-386.004	82.864	0.068	0.074
-384.990	135.918	-0.122	-0.161
-383.975	-65.989	0.319	-0.129
-382.960	-200.000	-0.008	-0.278
-381.946	-151.787	-0.183	0.014
-380.931	27.149	-0.084	-0.071
-379.917	52.091	-0.039	-0.038
-378.902	-199.411	0.207	0.001
-377.888	-110.541	-0.179	0.037
-376.873	469.287	-0.071	0.161
-375.858	-35.629	0.102	-0.056
-374.844	-200.000	-0.044	0.000
-373.829	800.000	0.071	0.208
-372.815	-44.828	-0.117	-0.059
-371.800	-200.000	0.135	0.000
-370.785	11.005	0.171	0.132
-369.771	18.417	-0.172	0.139
-368.756	354.890	0.119	-0.239
-367.742	800.000	0.075	0.242
-366.727	166.659	0.154	0.220
-365.712	51.367	0.132	0.126
-364.698	-200.000	0.061	-0.320
-363.683	-200.000	-0.010	-0.072
-362.669	-62.977	0.177	-0.074
-361.654	-200.000	0.003	0.428
-360.639	-200.000	0.004	0.275
-359.625	-102.968	0.371	-0.089
-358.610	580.943	0.087	0.215
-357.596	-130.336	0.214	0.029
-356.581	47.373	-0.105	0.099
-355.566	-200.000	0.032	0.309
-354.552	-82.087	0.147	0.048
-353.537	88.040	-0.105	0.118
-352.523	-109.541	0.217	-0.046
-351.508	56.733	-0.025	-0.025
-350.493	-200.000	0.020	0.203
-349.479	-158.683	0.109	-0.006
-348.464	800.000	0.080	0.301
-347.450	-3.912	0.207	-0.145
-346.435	-31.905	-0.148	0.083
-345.420	62.541	-0.102	0.103
-344.406	-200.000	0.034	-0.227
-343.391	-15.225	-0.125	-0.081
-342.377	-129.984	-0.210	-0.029
-341.362	-59.716	0.361	-0.156
-340.348	-65.751	0.128	-0.052
-339.333	-118.200	-0.382	0.069
-338.318	-197.375	-0.244	0.002
-337.304	-135.205	0.379	-0.046
-336.289	-161.765	-0.236	-0.012
-335.275	-200.000	-0.025	-0.207
-334.260	548.350	0.084	-0.203
-333.245	267.220	0.056	-0.099
-332.231	-90.065	-0.240	-0.071
-331.216	232.568	0.146	-0.241
-330.202	-93.941	0.115	0.032
-329.187	118.605	0.033	0.040
-328.172	120.588	0.038	-0.048
-327.158	-79.283	-0.262	0.089
-326.143	403.441	0.074	0.156
-325.129	800.000	0.019	0.069
-324.114	138.931	0.101	-0.134
-323.099	70.431	0.064	-0.066
-322.085	-65.872	-0.257	-0.104
-321.070	-200.000	-0.015	0.210
-320.056	130.311	-0.097	0.125
-319.041	-135.530	0.121	0.014
-318.026	800.000	-0.067	-0.187
-317.012	110.984	-0.143	0.174
-315.997	-99.087	0.301	0.077
-314.983	-175.091	-0.046	-0.001
-313.968	110.448	-0.066	0.080
-312.953	105.442	0.079	-0.094
-311.939	-200.000	0.064	-0.416
-310.924	183.173	-0.118	-0.175
-309.910	61.984	0.163	0.164
-308.895	-149.015	0.115	-0.009
-307.880	-50.507	-0.145	0.069
-306.866	-102.065	0.208	0.050
-305.851	800.000	-0.071	-0.213
-304.837	-180.825	-0.251	-0.005
-303.822	800.000	-0.103	-0.309
-302.807	-200.000	0.030	0.263
-301.793	372.050	-0.035	0.072
-300.778	-79.919	-0.203	-0.069
-299.764	536.888	0.113	-0.269
-298.749	363.005	-0.037	-0.074
-297.735	370.762	-0.080	0.164
-296.720	-160.804	0.138	0.007
-295.705	-28.093	-0.100	0.058
-294.691	-98.852	-0.072	0.018
-293.676	-87.885	-0.224	-0.068
-292.662	7.990	-0.419	0.316
-291.647	1.864	0.331	0.240
-290.632	-200.000	-0.013	0.075
-289.618	-60.006	0.170	-0.073
-288.603	-200.000	-0.038	-0.282
-287.589	-200.000	0.039	0.236
-286.574	396.511	0.096	-0.202
-285.559	-110.250	0.373	-0.078
-284.545	201.074	-0.128	-0.198
-283.530	-64.575	0.244	0.100
-282.516	466.173	-0.069	0.155
-281.501	800.000	0.059	-0.231
-280.486	268.743	0.095	-0.167
-279.472	-139.997	-0.355	0.038
-278.457	16.869	-0.129	-0.102
-277.443	-145.463	-0.167	-0.015
-276.428	-25.009	0.229	0.137
-275.413	298.453	-0.080	0.148
-274.399	-38.576	0.173	0.092
-273.384	-200.000	-0.012	0.519
-272.370	-200.000	0.062	0.330
-271.355	-166.261	0.383	0.016
-270.340	-76.665	0.289	0.102
-269.326	-200.000	0.012	-0.212
-268.311	-200.000	0.007	0.160
-267.297	-101.624	0.167	0.041
-266.282	105.319	-0.270	-0.320
-265.267	-22.513	-0.066	-0.040
-264.253	785.065	-0.100	0.275
-263.238	-200.000	-0.043	0.225
-262.224	-200.000	0.012	-0.054
-261.209	800.000	0.106	0.418
-260.195	-50.145	0.220	-0.105
-259.180	-103.118	0.171	-0.041
-258.165	-200.000	0.011	0.176
-257.151	800.000	0.042	0.175
-256.136	275.713	0.062	-0.111
-255.122	-108.090	-0.300	-0.065
-254.107	81.318	-0.414	-0.449
-253.092	-200.000	-0.408	0.000
-252.078	62.735	-0.099	0.100
-251.063	800.000	-0.038	-0.150
-250.049	800.000	0.065	-0.283
-249.034	-160.098	-0.191	0.010
-248.019	-200.000	0.047	0.267
-247.005	-200.000	-0.024	0.192
-245.990	800.000	0.033	-0.131
-244.976	-200.000	-0.076	0.397
-243.961	89.898	0.052	-0.058
-242.946	-93.648	-0.163	0.045
-241.932	-30.539	-0.018	0.010
-240.917	-26.904	0.144	0.085
-239.903	268.044	-0.160	0.282
-238.888	-129.733	0.212	-0.029
-237.873	-113.809	-0.304	-0.059
-236.859	-21.034	0.091	-0.056
-235.844	12.356	0.334	-0.258
-234.830	-178.985	-0.194	-0.004
-233.815	38.482	0.078	-0.070
-232.800	-13.424	0.075	-0.049
-231.786	53.646	0.082	-0.079
-230.771	-200.000	0.008	-0.197
-229.757	147.552	0.034	-0.046
-228.742	283.954	0.078	-0.140
-227.727	333.583	-0.125	0.243
-226.713	744.560	-0.076	0.205
-225.698	-13.240	0.043	-0.028
-224.684	-35.274	-0.193	-0.105
-223.669	-17.920	-0.278	0.175
-222.655	81.198	0.100	0.109
-221.640	27.535	0.093	0.078
-220.625	78.940	0.185	-0.199
-219.611	-163.452	-0.375	-0.018
-218.596	-133.892	-0.288	-0.036
-217.582	-164.769	0.281	-0.013
-216.567	-86.307	-0.243	-0.075
-215.552	-200.000	0.039	0.223
-214.538	781.845	-0.067	0.184
-213.523	431.000	-0.183	0.398
-212.509	-32.685	-0.116	-0.065
-211.494	-62.613	0.317	-0.132
-210.479	-200.000	0.001	-0.089
-209.465	-91.457	0.109	-0.031
-208.450	-200.000	-0.012	-0.524
-207.436	-66.216	-0.351	0.140
-206.421	-173.814	-0.132	0.004
-205.406	-56.200	-0.169	-0.075
-204.392	116.540	0.191	0.235
-203.377	290.466	-0.122	0.222
-202.363	-118.904	0.252	0.044
-201.348	-1.867	-0.248	-0.175
-200.333	800.000	-0.108	0.332
-199.319	-76.096	-0.042	0.015
-198.304	-200.000	-0.022	-0.163
-197.290	-27.616	0.109	0.063
-196.275	562.695	-0.126	-0.305
-195.260	-90.120	0.088	-0.026
-194.246	127.901	0.137	0.174
-193.231	-200.000	0.027	-0.154
-192.217	-85.847	0.080	-0.025
-191.202	-81.195	0.358	-0.118
-190.187	-95.677	-0.255	0.068
-189.173	723.176	0.119	0.316
-188.158	-200.000	0.000	-0.168
-187.144	290.566	0.182	-0.331
-186.129	-55.470	0.209	-0.094
-185.114	11.917	0.067	-0.051
-184.100	195.767	-0.062	0.094
-183.085	-15.009	-0.171	-0.110
-182.071	-16.174	0.275	-0.175
-181.056	11.686	-0.131	0.100
-180.042	-169.758	0.039	-0.001
-179.027	-46.082	0.122	0.060
-178.012	259.724	0.134	-0.231
-176.998	-200.000	-0.046	-0.290
-175.983	-57.429	-0.432	-0.190
-174.969	339.336	0.128	-0.249
-173.954	6.625	0.136	0.101
-172.939	-14.102	-0.076	0.049
-171.925	-137.145	0.171	-0.020
-170.910	47.083	0.186	0.173
-169.896	12.713	0.073	-0.056
-168.881	-174.689	-0.217	-0.006
-167.866	215.383	-0.132	-0.209
-166.852	800.000	0.084	-0.238
-165.837	-99.833	-0.120	0.030
-164.823	583.584	0.152	0.373
-163.808	43.751	0.108	-0.099
-162.793	-200.000	-0.002	0.098
-161.779	-200.000	-0.019	0.426
-160.764	345.619	0.081	0.159
-159.750	172.985	0.097	0.140
-158.735	75.047	-0.106	0.112
-157.720	21.160	-0.124	0.101
-156.706	-200.000	-0.003	-0.259
-155.691	-14.266	0.318	-0.205
-154.677	-7.382	-0.244	-0.165
-153.662	-75.145	-0.351	-0.125
-152.647	31.280	-0.220	0.189
-151.633	67.966	0.163	0.167
-150.618	-88.519	0.102	0.030
-149.604	-118.320	-0.061	-0.011
-148.589	-66.914	0.290	0.115
-147.574	76.512	-0.114	-0.121
-146.560	378.959	0.109	0.223
-145.545	143.631	-0.144	-0.192
-144.531	94.250	-0.095	0.108
-143.516	165.808	-0.059	-0.084
-142.502	281.311	-0.143	-0.256
-141.487	93.222	0.061	-0.069
-140.472	458.046	0.087	-0.194
-139.458	-21.811	0.204	-0.124
-138.443	191.134	-0.245	0.368
-137.429	-66.335	-0.167	-0.067
-136.414	2.131	0.012	0.008
-135.399	800.000	-0.119	0.341
-134.385	-200.000	0.005	0.437
-133.370	800.000	0.094	-0.281
-132.356	-67.336	-0.332	-0.130
-131.341	606.470	-0.129	-0.322
-130.326	-125.944	0.211	-0.032
-129.312	800.000	-0.056	0.228
-128.297	-200.000	0.001	0.175
-127.283	265.831	-0.178	0.310
-126.268	800.000	-0.072	0.287
-125.253	-13.591	0.161	0.104
-124.239	-119.222	-0.229	0.040
-123.224	148.608	-0.193	0.260
-122.210	-200.000	-0.036	0.276
-121.195	76.872	0.074	0.079
