DTS Sentinel unit serial number:	SN413079Multiplexer serial number:	ORYXHardware model number:	OX4-SRSoftware version number:	ORYX F/W v4.00 Oryx Data Collector v3.7.2.0data status	okinstallation	princeton_trtdifferential loss correction	single-endedforward channel	channel 3reverse channel	N/Adate	2019/09/12time	18:11:04forward acquisition time	15.00reverse acquisition time	0.00gamma	496.2192k internal	0.2316k external	0.2316temperature offset calibration	1.0085default loss term (dB/km)	0.3790temperature slope calibration	1.0000multiplexer offset coefficient	1.0000multiplexer slope coefficient	1.0000fibre end	0.00T internal ref (°C)	33.62T ext. ref 1 (°C)	2.98T ext. ref 2 (°C)	28.13length (m)	temperature (°C)	Stokes	anti-Stokes-747.200	800.000	0.025	-0.098
-746.185	379.646	0.361	-0.749
-745.171	-89.421	-0.491	-0.146
-744.156	740.916	-0.236	-0.641
-743.142	261.174	-0.539	0.945
-742.127	71.625	-0.567	0.596
-741.112	230.084	0.490	-0.811
-740.098	178.021	-0.575	0.850
-739.083	380.352	-0.369	0.767
-738.069	-200.000	0.096	0.566
-737.054	72.305	0.918	-0.969
-736.039	445.211	-0.201	-0.446
-735.025	-44.625	-0.461	-0.233
-734.010	30.062	-0.359	0.310
-732.996	-200.000	0.039	-0.976
-731.981	97.950	-0.456	0.531
-730.966	-200.000	0.005	-0.281
-729.952	266.345	-0.250	-0.441
-728.937	6.465	-0.089	0.067
-727.923	-95.814	-0.915	-0.247
-726.908	185.760	-0.287	-0.432
-725.894	447.479	-0.244	-0.544
-724.879	800.000	0.124	0.440
-723.864	-56.426	0.538	-0.242
-722.850	-127.890	-0.393	0.057
-721.835	61.469	0.373	0.375
-720.821	800.000	0.242	-0.722
-719.806	-135.739	0.648	-0.078
-718.791	37.672	-0.230	-0.206
-717.777	-200.000	-0.060	0.299
-716.762	-146.227	0.658	0.058
-715.748	-194.396	-0.377	0.003
-714.733	800.000	-0.028	-0.080
-713.718	800.000	-0.169	0.652
-712.704	24.740	0.118	-0.099
-711.689	74.739	0.190	0.202
-710.675	125.572	-0.282	-0.361
-709.660	-200.000	-0.018	-0.433
-708.645	-19.258	0.387	0.243
-707.631	-193.701	-0.254	0.002
-706.616	-165.136	-0.705	-0.032
-705.602	135.865	-0.388	0.511
-704.587	-47.243	0.285	0.141
-703.572	-66.282	0.465	0.187
-702.558	54.703	0.167	0.163
-701.543	-48.199	0.220	-0.108
-700.529	-200.000	0.052	-0.354
-699.514	99.995	0.354	-0.415
-698.499	199.483	-0.121	-0.188
-697.485	453.409	-0.140	0.313
-696.470	70.064	0.169	0.177
-695.456	-35.802	1.205	-0.660
-694.441	-20.443	-0.279	0.173
-693.426	-72.511	0.357	-0.133
-692.412	197.213	-0.333	-0.514
-691.397	-200.000	0.010	0.051
-690.383	-200.000	0.046	0.319
-689.368	20.817	0.642	-0.525
-688.354	593.490	-0.273	-0.681
-687.339	-71.790	0.613	0.231
-686.324	20.006	-0.085	-0.069
-685.310	-200.000	0.010	-0.218
-684.295	-200.000	0.101	-0.722
-683.281	-200.000	0.001	0.118
-682.266	-81.030	0.775	-0.259
-681.251	151.027	-0.098	0.135
-680.237	-108.960	0.665	0.143
-679.222	800.000	-0.088	0.249
-678.208	-54.941	-1.101	-0.502
-677.193	104.175	0.347	0.412
-676.178	249.167	0.230	0.393
-675.164	800.000	0.048	0.149
-674.149	65.521	-0.227	0.232
-673.135	15.513	0.313	0.248
-672.120	-90.298	-0.344	0.101
-671.105	-200.000	-0.082	-0.602
-670.091	312.831	0.128	0.243
-669.076	-114.501	0.147	0.029
-668.062	685.474	-0.199	0.525
-667.047	92.451	-0.383	0.436
-666.032	-101.843	-0.433	0.106
-665.018	714.697	0.224	0.599
-664.003	326.323	0.347	-0.670
-662.989	-161.751	-0.019	0.001
-661.974	192.650	-0.675	-1.029
-660.959	-85.896	0.943	-0.295
-659.945	-58.063	-0.760	-0.335
-658.930	-200.000	0.004	0.065
-657.916	61.187	0.149	-0.149
-656.901	-156.329	0.779	0.049
-655.886	-101.213	0.165	-0.041
-654.872	739.911	-0.041	0.111
-653.857	109.540	0.056	0.068
-652.843	-103.940	0.493	-0.116
-651.828	-15.828	0.545	-0.350
-650.814	-86.319	0.862	-0.268
-649.799	277.586	-0.365	0.655
-648.784	23.304	0.786	0.652
-647.770	800.000	-0.165	0.639
-646.755	-200.000	0.031	-0.273
-645.741	668.958	-0.142	0.371
-644.726	-142.060	-0.282	-0.028
-643.711	-103.564	-0.424	-0.100
-642.697	-200.000	0.032	-0.352
-641.682	-200.000	0.096	0.439
-640.668	-43.023	-0.304	-0.156
-639.653	-112.524	-0.488	-0.098
-638.638	-60.368	0.295	0.126
-637.624	-101.220	-0.262	-0.065
-636.609	34.133	-0.647	0.568
-635.595	316.880	-0.246	0.468
-634.580	-131.689	0.529	-0.070
-633.565	800.000	-0.183	-0.587
-632.551	-200.000	-0.058	-0.573
-631.536	-200.000	-0.082	-0.696
-630.522	187.088	-0.324	0.487
-629.507	439.706	0.085	-0.187
-628.492	24.708	0.625	-0.522
-627.478	161.590	0.250	0.353
-626.463	-106.144	-0.573	0.130
-625.449	221.817	-0.124	-0.201
-624.434	-19.925	0.111	0.069
-623.419	167.347	-0.273	-0.390
-622.405	-87.667	-0.728	0.221
-621.390	-62.786	0.459	-0.192
-620.376	800.000	-0.124	0.443
-619.361	-50.673	-0.828	0.393
-618.346	64.754	0.763	0.776
-617.332	-132.454	0.170	0.022
-616.317	-200.000	0.105	-0.553
-615.303	282.741	-0.152	-0.276
-614.288	-3.587	0.223	-0.157
-613.273	288.367	0.307	-0.560
-612.259	-200.000	-0.007	-0.736
-611.244	53.946	0.419	0.406
-610.230	-105.240	-0.785	0.181
-609.215	1.920	-0.647	-0.470
-608.201	329.581	-0.405	-0.784
-607.186	-68.722	-0.649	0.253
-606.171	159.648	0.458	0.642
-605.157	-4.458	0.274	0.191
-604.142	-85.748	-0.636	0.199
-603.128	-5.280	-0.315	-0.218
-602.113	788.950	0.117	-0.325
-601.098	38.007	0.356	0.319
-600.084	214.598	0.095	0.152
-599.069	153.904	-0.194	-0.268
-598.055	-200.000	0.002	-0.116
-597.040	-121.015	-0.429	-0.073
-596.025	69.835	-0.739	-0.767
-595.011	627.004	0.248	-0.631
-593.996	24.083	0.403	0.335
-592.982	-51.651	-0.469	-0.220
-591.967	-115.918	0.702	0.132
-590.952	-200.000	0.094	0.930
-589.938	-200.000	0.107	0.542
-588.923	375.537	0.279	0.572
-587.909	-139.405	-0.384	-0.041
-586.894	136.643	0.314	-0.413
-585.879	45.645	0.691	0.642
-584.865	-200.000	-0.009	0.681
-583.850	296.396	0.197	0.363
-582.836	-200.000	0.100	-0.921
-581.821	-200.000	0.115	-0.638
-580.806	-111.864	0.397	-0.081
-579.792	-154.159	0.349	-0.024
-578.777	-35.685	0.478	0.261
-577.763	34.036	0.294	-0.258
-576.748	-53.141	-0.107	0.050
-575.733	524.363	0.124	-0.294
-574.719	-200.000	0.069	-0.868
-573.704	39.655	0.470	0.424
-572.690	-65.912	-0.254	0.102
-571.675	39.155	0.119	-0.107
-570.661	-154.148	0.734	0.050
-569.646	-200.000	-0.057	0.399
-568.631	269.186	0.283	-0.500
-567.617	800.000	-0.079	-0.239
-566.602	35.750	-0.420	0.371
-565.588	460.078	-0.141	-0.316
-564.573	-63.698	-0.305	0.126
-563.558	232.213	0.186	0.307
-562.544	-63.200	-0.570	0.236
-561.529	-200.000	-0.048	-0.455
-560.515	-59.243	0.486	-0.211
-559.500	488.663	0.256	-0.587
-558.485	800.000	-0.048	0.133
-557.471	-200.000	-0.095	-0.525
-556.456	-200.000	-0.122	-0.884
-555.442	-88.465	-0.221	0.066
-554.427	-128.637	-0.408	0.058
-553.412	-92.750	0.382	0.107
-552.398	-104.838	0.545	-0.126
-551.383	323.514	0.333	0.638
-550.369	-200.000	-0.015	-0.597
-549.354	-114.926	-0.269	0.051
-548.339	270.711	0.494	-0.874
-547.325	183.708	0.285	-0.423
-546.310	-184.708	0.938	-0.015
-545.296	-200.000	0.037	0.258
-544.281	-135.033	0.347	0.042
-543.266	800.000	0.066	-0.258
-542.252	108.020	-0.025	0.029
-541.237	800.000	0.126	0.454
-540.223	18.975	0.623	-0.502
-539.208	-56.187	0.561	-0.251
-538.193	-122.483	-0.583	-0.095
-537.179	800.000	-0.114	-0.404
-536.164	-57.734	1.224	0.538
-535.150	630.767	-0.266	0.675
-534.135	238.514	-0.343	-0.572
-533.121	442.193	0.344	0.757
-532.106	57.128	0.216	-0.211
-531.091	86.471	-0.338	-0.374
-530.077	-58.534	0.241	0.105
-529.062	-91.166	-0.344	0.099
-528.048	-200.000	-0.069	0.529
-527.033	326.652	0.046	0.088
-526.018	-107.896	0.328	-0.072
-525.004	-7.141	-0.458	-0.312
-523.989	800.000	-0.233	0.712
-522.975	800.000	0.072	-0.225
-521.960	-200.000	0.006	0.037
-520.945	-200.000	0.001	0.167
-519.931	-123.593	0.413	-0.066
-518.916	-200.000	-0.032	-0.832
-517.902	-200.000	0.017	0.335
-516.887	15.853	0.819	0.647
-515.872	800.000	-0.301	-0.913
-514.858	-127.654	0.197	0.029
-513.843	45.604	0.501	0.465
-512.829	7.458	0.247	-0.186
-511.814	-126.197	-1.305	0.196
-510.799	-21.600	1.070	0.655
-509.785	54.006	-0.430	-0.415
-508.770	164.012	0.036	-0.050
-507.756	538.431	-0.098	0.233
-506.741	190.344	-0.393	-0.592
-505.726	800.000	0.311	0.982
-504.712	62.038	-0.330	-0.330
-503.697	-169.085	-0.642	0.024
-502.683	-68.459	0.483	-0.188
-501.668	342.178	-0.166	0.326
-500.653	-25.654	0.356	-0.211
-499.639	-200.000	-0.027	0.653
-498.624	-186.604	-0.388	0.006
-497.610	212.914	-0.224	-0.355
-496.595	-87.199	-0.621	0.189
-495.581	119.943	-0.180	-0.223
-494.566	21.107	0.390	-0.318
-493.551	800.000	0.176	-0.551
-492.537	800.000	-0.219	-0.896
-491.522	-200.000	0.029	-0.149
-490.508	623.196	-0.189	0.476
-489.493	-200.000	-0.017	0.563
-488.478	66.097	0.305	0.311
-487.464	800.000	-0.132	0.389
-486.449	-200.000	0.106	0.586
-485.435	-200.000	0.003	0.065
-484.420	-173.097	0.634	-0.020
-483.405	64.255	0.101	-0.102
-482.391	-28.589	0.385	-0.222
-481.376	124.837	0.199	0.251
-480.362	82.356	-0.313	-0.340
-479.347	22.574	0.372	-0.305
-478.332	-200.000	-0.008	-0.228
-477.318	244.483	0.584	0.984
-476.303	-99.854	-1.417	0.355
-475.289	-3.254	-0.359	0.250
-474.274	800.000	0.130	-0.428
-473.259	31.294	0.453	-0.390
-472.245	-200.000	0.153	-0.893
-471.230	360.711	-0.219	-0.440
-470.216	-103.871	-0.832	0.195
-469.201	-200.000	-0.031	0.583
-468.186	-200.000	-0.016	0.255
-467.172	-2.546	0.102	-0.071
-466.157	-33.730	-0.151	-0.083
-465.143	72.296	-0.369	0.385
-464.128	429.148	0.144	-0.311
-463.113	-139.601	-0.500	0.053
-462.099	206.710	-0.382	0.596
-461.084	151.650	-0.097	-0.132
-460.070	174.078	0.230	-0.333
-459.055	482.706	0.132	-0.301
-458.040	-38.904	0.486	0.256
-457.026	329.167	-0.353	-0.680
-456.011	-69.006	-0.735	-0.284
-454.997	32.599	-0.163	0.141
-453.982	-131.043	0.396	0.053
-452.968	-200.000	0.049	-0.249
-451.953	-30.387	-0.320	0.182
-450.938	-200.000	0.103	-1.437
-449.924	169.146	-0.263	-0.376
-448.909	45.700	0.799	-0.739
-447.895	-70.832	0.256	-0.097
-446.880	-91.531	0.792	0.226
-445.865	-161.831	-0.165	0.008
-444.851	800.000	-0.061	0.212
-443.836	-48.942	-0.560	0.268
-442.822	-200.000	-0.006	-0.697
-441.807	-142.918	-0.295	0.029
-440.792	364.896	0.181	-0.365
-439.778	-175.272	-0.475	0.013
-438.763	256.448	-0.275	-0.473
-437.749	-24.953	0.411	-0.244
-436.734	-200.000	-0.067	0.784
-435.719	800.000	-0.159	0.501
-434.705	-65.437	0.492	-0.198
-433.690	-128.061	-0.160	0.023
-432.676	33.708	0.570	-0.496
-431.661	800.000	0.100	0.436
-430.646	447.644	0.464	-1.023
-429.632	-200.000	-0.001	-0.683
-428.617	-30.363	-0.509	-0.289
-427.603	-47.658	0.906	-0.440
-426.588	-46.434	-0.409	0.201
-425.573	-60.358	-0.284	0.121
-424.559	85.060	0.160	-0.176
-423.544	84.377	-0.950	1.039
-422.530	-200.000	-0.084	0.648
-421.515	-69.087	0.260	0.100
-420.500	42.075	-0.284	0.258
-419.486	-200.000	-0.119	-0.644
-418.471	-151.002	1.030	-0.078
-417.457	179.964	-0.262	-0.384
-416.442	145.177	-0.235	-0.315
-415.428	49.356	0.310	0.292
-414.413	800.000	0.076	0.261
-413.398	-47.554	0.537	0.261
-412.384	-200.000	-0.080	-0.587
-411.369	-200.000	0.025	0.332
-410.355	-28.162	-0.474	0.274
-409.340	-126.565	0.216	0.032
-408.325	9.086	0.561	0.423
-407.311	-200.000	-0.056	0.495
-406.296	800.000	0.041	0.176
-405.282	-200.000	0.015	-0.242
-404.267	-136.167	0.586	-0.069
-403.252	800.000	0.133	0.439
-402.238	-7.390	-0.519	-0.351
-401.223	206.905	0.316	-0.492
-400.209	-180.267	0.828	-0.017
-399.194	-51.280	-0.461	-0.216
-398.179	-79.445	1.250	-0.422
-397.165	-91.010	0.136	0.039
-396.150	423.901	-0.126	-0.270
-395.136	-74.117	0.257	-0.093
-394.121	-53.796	0.200	0.091
-393.106	-115.416	0.224	0.042
-392.092	-103.752	-0.781	-0.183
-391.077	-107.356	0.377	-0.083
-390.063	625.534	-0.112	-0.282
-389.048	407.156	0.274	-0.579
-388.033	-126.529	-0.434	-0.064
-387.019	149.462	0.246	0.332
-386.004	62.553	0.704	0.703
-384.990	800.000	-0.153	-0.631
-383.975	-76.456	0.874	0.307
-382.960	18.644	-0.563	-0.450
-381.946	-115.497	-0.662	0.124
-380.931	-148.330	0.295	0.024
-379.917	39.395	-0.476	0.426
-378.902	492.229	0.199	0.455
-377.888	-25.392	-0.477	-0.281
-376.873	-180.510	-0.876	-0.018
-375.858	155.181	0.446	-0.612
-374.844	-109.919	0.682	-0.143
-373.829	-140.946	-0.084	0.009
-372.815	800.000	0.243	-0.928
-371.800	-66.296	0.595	0.236
-370.785	800.000	-0.147	-0.454
-369.771	101.272	0.223	-0.259
-368.756	-131.289	-0.897	-0.119
-367.742	699.883	-0.077	-0.202
-366.727	-77.438	-0.658	-0.228
-365.712	-200.000	0.110	0.776
-364.698	-32.546	-0.251	-0.140
-363.683	800.000	-0.160	0.495
-362.669	108.259	0.645	0.768
-361.654	40.691	0.169	0.152
-360.639	229.900	0.375	0.612
-359.625	-68.390	0.485	-0.188
-358.610	-54.558	-0.059	0.027
-357.596	319.299	0.320	-0.606
-356.581	-142.753	0.138	-0.013
-355.566	72.258	-0.424	0.441
-354.552	267.558	-0.323	0.563
-353.537	565.287	-0.368	0.890
-352.523	24.156	-0.354	0.292
-351.508	-200.000	-0.111	0.806
-350.493	-200.000	-0.018	0.514
-349.479	600.610	-0.381	-0.943
-348.464	-200.000	-0.051	-0.858
-347.450	678.799	-0.217	0.564
-346.435	-60.293	1.024	0.435
-345.420	-53.235	-0.207	-0.095
-344.406	-27.825	-0.699	0.404
-343.391	-94.203	0.061	-0.017
-342.377	-118.541	-1.013	0.179
-341.362	-200.000	-0.021	-0.093
-340.348	541.210	-0.357	-0.847
-339.333	251.820	0.165	0.280
-338.318	1.705	-0.379	0.272
-337.304	43.447	-0.378	0.345
-336.289	-200.000	0.036	0.254
-335.275	75.569	0.288	0.304
-334.260	31.913	-0.464	0.398
-333.245	-123.761	0.690	-0.109
-332.231	303.535	0.293	0.542
-331.216	-39.495	0.385	-0.201
-330.202	-80.424	0.337	0.112
-329.187	72.993	-0.340	0.354
-328.172	161.668	0.161	-0.224
-327.158	800.000	0.235	-0.866
-326.143	163.017	0.116	-0.162
-325.129	-26.091	-0.570	-0.334
-324.114	-60.112	0.464	0.197
-323.099	212.938	-0.208	-0.327
-322.085	145.898	-0.073	0.097
-321.070	-30.848	0.616	-0.347
-320.056	26.940	-0.187	-0.156
-319.041	220.200	-0.515	-0.822
-318.026	100.546	-0.132	-0.153
-317.012	-163.347	0.532	0.025
-315.997	74.037	-0.296	-0.310
-314.983	-200.000	0.007	-0.409
-313.968	31.600	-0.260	0.222
-312.953	422.106	-0.482	-1.029
-311.939	-33.421	-0.274	-0.151
-310.924	-169.297	-1.331	-0.049
-309.910	88.274	0.638	0.706
-308.895	679.527	-0.203	-0.526
-307.880	-200.000	0.103	-0.798
-306.866	-75.061	-0.273	-0.097
-305.851	-43.465	-0.655	-0.329
-304.837	125.418	0.085	0.107
-303.822	43.581	0.429	-0.390
-302.807	800.000	0.203	0.657
-301.793	-200.000	0.117	1.030
-300.778	-180.480	0.460	0.009
-299.764	293.897	0.351	-0.638
-298.749	149.383	-0.338	0.455
-297.735	-123.059	-0.283	-0.045
-296.720	-144.838	-0.912	0.083
-295.705	-200.000	-0.036	0.228
-294.691	29.663	0.453	0.384
-293.676	-63.161	-0.425	0.175
-292.662	-108.996	0.319	0.068
-291.647	800.000	-0.039	-0.128
-290.632	-72.594	0.289	0.106
-289.618	71.878	-0.503	-0.521
-288.603	347.198	-0.222	0.435
-287.589	-114.456	-0.412	0.079
-286.574	40.665	-0.533	-0.478
-285.559	150.247	0.112	-0.151
-284.545	56.297	-0.841	0.813
-283.530	261.709	-0.252	0.434
-282.516	-200.000	0.048	0.319
-281.501	-200.000	-0.020	-0.196
-280.486	479.363	0.191	-0.431
-279.472	-39.449	0.784	-0.409
-278.457	-0.387	0.236	0.167
-277.443	-200.000	0.156	0.690
-276.428	-200.000	0.036	0.334
-275.413	-18.327	0.799	0.496
-274.399	-42.240	-0.277	-0.141
-273.384	-72.881	0.153	0.056
-272.370	233.240	0.066	-0.109
-271.355	29.272	-0.785	0.663
-270.340	399.025	-0.138	-0.287
-269.326	-53.568	0.077	-0.035
-268.311	800.000	-0.075	-0.315
-267.297	36.745	0.138	0.121
-266.282	-200.000	0.007	-0.139
-265.267	-72.047	0.515	0.190
-264.253	-200.000	-0.018	-0.467
-263.238	-200.000	-0.095	-0.599
-262.224	-3.402	0.357	-0.247
-261.209	111.788	-0.289	0.346
-260.195	-45.150	0.730	-0.360
-259.180	196.907	-0.315	-0.477
-258.165	-110.834	0.404	0.083
-257.151	800.000	0.162	0.519
-256.136	-53.632	0.354	-0.161
-255.122	-200.000	0.158	-0.756
-254.107	800.000	0.074	-0.233
-253.092	45.268	-0.416	-0.381
-252.078	-200.000	0.325	0.002
-251.063	380.705	0.193	0.394
-250.049	-200.000	0.046	1.073
-249.034	-200.000	0.056	-0.385
-248.019	-84.886	0.125	-0.039
-247.005	-200.000	-0.146	0.876
-245.990	-200.000	0.047	0.853
-244.976	-200.000	-0.061	0.370
-243.961	192.632	-0.429	0.643
-242.946	460.019	0.208	-0.459
-241.932	-200.000	-0.023	-0.563
-240.917	519.314	0.039	0.091
-239.903	107.918	-0.285	0.337
-238.888	9.118	0.519	-0.389
-237.873	-144.487	-0.141	-0.013
-236.859	84.919	0.762	-0.829
-235.844	235.463	0.230	-0.377
-234.830	-72.194	0.172	0.063
-233.815	-31.115	-0.239	0.134
-232.800	-200.000	0.052	-0.347
-231.786	78.102	0.048	-0.051
-230.771	-76.289	0.642	0.224
-229.757	-200.000	0.133	0.582
-228.742	-65.685	-0.441	0.175
-227.727	154.760	0.196	0.267
-226.713	-158.670	1.335	0.076
-225.698	383.807	0.243	-0.496
-224.684	47.098	-0.840	-0.776
-223.669	216.275	0.148	-0.233
-222.655	102.965	-0.283	0.329
-221.640	-118.724	0.538	0.094
-220.625	-102.743	-1.075	0.254
-219.611	86.706	0.077	-0.084
-218.596	-113.002	-0.618	-0.121
-217.582	88.936	-0.440	0.486
-216.567	-165.756	-0.155	0.007
-215.552	-27.005	0.123	0.071
-214.538	-30.449	-0.092	0.052
-213.523	156.399	-0.295	-0.404
-212.509	-139.555	-0.861	0.091
-211.494	704.940	0.230	0.602
-210.479	28.501	-0.278	0.233
-209.465	649.225	-0.308	0.780
-208.450	201.045	-0.204	-0.311
-207.436	167.429	0.160	0.225
-206.421	-200.000	-0.149	1.054
-205.406	38.493	-0.237	0.209
-204.392	1.514	0.897	0.640
-203.377	-103.995	0.796	-0.184
-202.363	800.000	-0.189	-0.761
-201.348	-13.248	-0.240	-0.154
-200.333	42.415	-0.431	0.388
-199.319	-127.908	-0.360	0.051
-198.304	-200.000	-0.179	-1.158
-197.290	-200.000	0.005	0.038
-196.275	-99.124	-0.808	0.203
-195.260	-200.000	-0.058	-0.494
-194.246	-40.490	0.238	0.122
-193.231	-117.000	-0.644	0.116
-192.217	419.556	0.415	0.881
-191.202	800.000	-0.033	0.135
-190.187	85.486	0.966	-1.052
-189.173	259.418	-0.321	0.549
-188.158	-200.000	-0.025	0.235
-187.144	-200.000	0.174	-0.953
-186.129	158.239	-0.322	-0.443
-185.114	-157.806	0.362	0.021
-184.100	800.000	-0.225	0.931
-183.085	-112.440	-0.553	-0.109
-182.071	57.147	-0.635	0.613
-181.056	-8.852	0.434	0.288
-180.042	800.000	0.109	-0.347
-179.027	-16.691	0.527	0.330
-178.012	65.176	0.188	0.188
-176.998	54.954	-0.665	-0.636
-175.983	-37.071	0.581	0.308
-174.969	60.858	0.901	0.885
-173.954	117.088	-0.539	-0.656
-172.939	-200.000	-0.112	0.488
-171.925	-23.309	0.275	-0.164
-170.910	-172.951	0.424	-0.013
-169.896	-13.787	-0.351	0.225
-168.881	-200.000	-0.047	0.507
-167.866	334.921	-0.294	0.564
-166.852	800.000	-0.255	0.752
-165.837	92.745	-0.239	-0.267
-164.823	-70.051	-0.954	-0.360
-163.808	-70.016	1.229	0.463
-162.793	-75.644	-0.159	-0.056
-161.779	-47.982	-0.314	-0.150
-160.764	-94.779	-1.287	-0.346
-159.750	308.909	0.417	0.771
-158.735	168.810	-0.185	0.261
-157.720	36.228	0.111	-0.097
-156.706	-23.574	-0.311	-0.185
-155.691	330.663	0.139	-0.264
-154.677	-200.000	-0.055	0.412
-153.662	-157.800	-0.143	-0.008
-152.647	-200.000	0.017	0.623
-151.633	-20.095	0.636	-0.388
-150.618	70.050	-0.360	0.367
-149.604	-200.000	-0.001	0.283
-148.589	44.784	-0.914	0.832
-147.574	377.157	0.250	0.506
-146.560	295.331	-0.413	-0.748
-145.545	-200.000	0.042	-1.185
-144.531	-102.713	-0.569	0.134
-143.516	-200.000	-0.054	0.399
-142.502	127.583	0.196	-0.246
-141.487	-56.887	-0.462	-0.202
-140.472	-57.933	-0.732	-0.316
-139.458	133.293	-0.167	-0.214
-138.443	37.634	0.457	-0.401
-137.429	-133.528	-0.204	-0.025
-136.414	48.908	-0.209	-0.194
-135.399	-29.865	-0.517	0.291
-134.385	-52.198	-0.143	-0.065
-133.370	-31.800	0.485	-0.269
-132.356	57.974	-0.320	-0.310
-131.341	-200.000	0.056	-0.413
-130.326	34.213	0.389	0.336
-129.312	-109.227	0.705	0.148
-128.297	800.000	0.106	0.424
-127.283	-14.204	-0.229	0.146
-126.268	-88.427	0.366	-0.108
-125.253	763.711	-0.140	-0.375
-124.239	148.504	0.208	-0.278
-123.224	-104.298	-0.432	0.099
-122.210	91.305	0.543	-0.602
-121.195	418.169	-0.296	0.625
