DTS Sentinel unit serial number:	SN413079Multiplexer serial number:	ORYXHardware model number:	OX4-SRSoftware version number:	ORYX F/W v4.00 Oryx Data Collector v3.7.2.0data status	okinstallation	princeton_trtdifferential loss correction	single-endedforward channel	channel 3reverse channel	N/Adate	2019/09/14time	23:00:35forward acquisition time	60.00reverse acquisition time	0.00gamma	496.2192k internal	0.2319k external	0.2319temperature offset calibration	0.9988default loss term (dB/km)	0.3790temperature slope calibration	1.0000multiplexer offset coefficient	1.0000multiplexer slope coefficient	1.0000fibre end	0.00T internal ref (°C)	32.44T ext. ref 1 (°C)	4.69T ext. ref 2 (°C)	27.46length (m)	temperature (°C)	Stokes	anti-Stokes-747.200	-56.796	-0.170	0.076
-746.185	190.333	-0.077	0.117
-745.171	-14.431	-0.343	0.223
-744.156	-134.318	-0.576	-0.072
-743.142	189.150	0.138	-0.209
-742.127	-191.452	-0.198	0.002
-741.112	6.103	-0.081	0.060
-740.098	800.000	0.134	0.394
-739.083	-45.674	-0.077	0.038
-738.069	26.514	0.129	0.109
-737.054	95.549	0.070	-0.081
-736.039	256.226	-0.103	-0.180
-735.025	-200.000	0.069	0.500
-734.010	110.886	-0.128	0.156
-732.996	-98.934	-0.126	-0.032
-731.981	-45.578	0.181	-0.091
-730.966	211.519	-0.171	0.272
-729.952	-160.641	-0.291	0.016
-728.937	-45.324	-0.099	-0.049
-727.923	183.445	-0.158	-0.236
-726.908	-14.611	0.324	-0.211
-725.894	-200.000	-0.006	0.242
-724.879	800.000	-0.065	-0.215
-723.864	569.467	-0.056	-0.138
-722.850	178.269	-0.215	-0.318
-721.835	-125.564	0.044	0.007
-720.821	-84.488	0.037	-0.012
-719.806	524.335	-0.105	0.250
-718.791	140.309	0.123	0.164
-717.777	-125.880	-0.100	-0.015
-716.762	800.000	-0.186	-0.528
-715.748	-200.000	0.021	0.287
-714.733	-168.238	-0.542	-0.021
-713.718	-200.000	0.013	0.079
-712.704	98.549	0.064	-0.075
-711.689	-68.961	0.295	0.115
-710.675	-153.508	0.175	-0.012
-709.660	800.000	-0.096	0.316
-708.645	143.839	0.280	-0.378
-707.631	722.126	0.084	0.225
-706.616	-83.694	-0.144	0.046
-705.602	-200.000	0.033	0.266
-704.587	-92.562	-0.419	-0.119
-703.572	-74.149	-0.199	0.073
-702.558	-200.000	-0.022	-0.341
-701.543	-68.038	-0.225	0.089
-700.529	685.373	-0.078	-0.207
-699.514	166.249	-0.171	0.245
-698.499	-73.708	0.077	-0.028
-697.485	-151.134	0.370	-0.028
-696.470	-200.000	-0.012	-0.246
-695.456	-200.000	-0.003	0.035
-694.441	800.000	0.072	0.311
-693.426	82.783	-0.086	0.095
-692.412	800.000	0.093	0.271
-691.397	-71.202	-0.212	-0.080
-690.383	-57.087	-0.315	-0.140
-689.368	630.606	0.050	-0.128
-688.354	98.823	0.048	-0.056
-687.339	256.160	0.082	-0.143
-686.324	56.829	-0.344	0.338
-685.310	-75.476	0.119	0.043
-684.295	-179.284	-0.158	-0.004
-683.281	800.000	-0.054	-0.153
-682.266	-200.000	0.016	0.099
-681.251	-200.000	0.023	0.185
-680.237	-78.042	0.174	-0.061
-679.222	-200.000	0.012	-0.094
-678.208	-12.985	0.320	-0.210
-677.193	-63.656	0.230	0.095
-676.178	62.283	-0.209	0.210
-675.164	2.834	-0.233	-0.171
-674.149	800.000	0.055	-0.223
-673.135	-103.313	0.083	0.020
-672.120	-105.014	-0.488	-0.113
-671.105	168.637	-0.192	0.277
-670.091	-200.000	0.000	-0.055
-669.076	191.479	-0.112	-0.170
-668.062	153.844	-0.187	-0.259
-667.047	15.469	-0.151	0.119
-666.032	360.742	0.247	-0.499
-665.018	-148.256	-0.311	0.026
-664.003	-122.429	-0.036	-0.006
-662.989	800.000	-0.051	0.175
-661.974	-200.000	-0.055	0.433
-660.959	800.000	-0.056	0.209
-659.945	-44.235	0.320	0.162
-658.930	148.700	0.234	-0.319
-657.916	325.474	0.027	-0.052
-656.901	25.820	-0.192	-0.161
-655.886	-48.880	0.118	0.057
-654.872	-200.000	-0.067	-0.568
-653.857	-68.530	-0.144	-0.056
-652.843	-191.766	-0.304	-0.003
-651.828	-67.153	0.275	-0.109
-650.814	-121.256	-0.366	0.062
-649.799	800.000	0.037	0.126
-648.784	-106.707	0.264	0.059
-647.770	-34.835	-0.187	-0.103
-646.755	-200.000	0.005	-0.515
-645.741	-70.761	0.384	0.146
-644.726	-26.620	0.317	0.187
-643.711	-101.221	0.314	-0.077
-642.697	34.318	0.150	-0.131
-641.682	-102.632	-0.141	-0.034
-640.668	-200.000	0.001	-0.201
-639.653	360.644	-0.087	-0.175
-638.638	-21.435	-0.138	0.085
-637.624	-57.501	0.121	-0.054
-636.609	-3.804	-0.062	0.043
-635.595	581.638	-0.065	-0.161
-634.580	-80.903	0.193	-0.064
-633.565	8.601	-0.368	-0.279
-632.551	800.000	-0.118	-0.375
-631.536	-83.289	-0.183	-0.059
-630.522	298.165	-0.016	0.030
-629.507	491.154	-0.134	-0.308
-628.492	-85.570	-0.305	-0.095
-627.478	744.641	0.019	0.051
-626.463	-85.743	0.233	0.073
-625.449	44.816	-0.333	-0.308
-624.434	-200.000	-0.008	-0.403
-623.419	800.000	0.057	-0.214
-622.405	800.000	0.146	0.427
-621.390	706.090	0.034	-0.091
-620.376	557.319	0.120	0.291
-619.361	-154.235	-0.237	-0.016
-618.346	-40.233	0.088	-0.046
-617.332	-172.397	-0.156	-0.005
-616.317	-200.000	-0.033	0.224
-615.303	57.913	0.291	0.286
-614.288	53.056	0.215	-0.207
-613.273	36.680	0.209	-0.186
-612.259	-3.268	-0.272	0.191
-611.244	-176.217	0.243	0.006
-610.230	-110.865	0.146	-0.030
-609.215	182.427	0.112	0.166
-608.201	-200.000	0.011	0.325
-607.186	-200.000	0.019	-0.415
-606.171	-200.000	0.017	-0.154
-605.157	-53.791	0.159	0.073
-604.142	10.616	-0.207	0.158
-603.128	15.370	-0.186	0.147
-602.113	-43.934	0.058	-0.029
-601.098	-96.985	0.248	0.065
-600.084	301.929	-0.169	0.314
-599.069	-135.579	0.099	-0.012
-598.055	-77.695	-0.238	0.083
-597.040	-101.332	0.155	0.038
-596.025	209.567	-0.083	-0.131
-595.011	38.741	-0.130	-0.117
-593.996	-200.000	-0.071	-0.399
-592.982	356.715	-0.098	0.197
-591.967	407.665	0.072	0.153
-590.952	-129.020	0.201	-0.028
-589.938	-74.562	-0.410	-0.149
-588.923	501.505	-0.068	-0.159
-587.909	-200.000	0.000	-0.245
-586.894	-146.786	-0.411	-0.036
-585.879	-110.437	-0.384	-0.080
-584.865	800.000	0.090	0.255
-583.850	179.778	-0.243	0.358
-582.836	-138.223	-0.359	-0.040
-581.821	7.044	0.195	0.146
-580.806	216.763	0.067	-0.108
-579.792	-143.845	0.029	0.003
-578.777	-54.840	-0.385	-0.175
-577.763	160.846	0.084	0.118
-576.748	258.839	0.175	0.304
-575.733	-70.978	0.135	0.051
-574.719	-74.039	-0.173	0.063
-573.704	-2.032	-0.329	-0.232
-572.690	800.000	-0.101	-0.295
-571.675	127.083	-0.230	-0.293
-570.661	150.918	0.076	-0.103
-569.646	434.854	-0.032	0.070
-568.631	207.627	0.107	0.167
-567.617	16.159	0.090	-0.071
-566.602	516.784	-0.125	0.294
-565.588	-200.000	-0.033	-0.187
-564.573	-200.000	0.031	0.309
-563.558	-183.170	-0.214	0.004
-562.544	152.118	0.025	0.035
-561.529	-162.763	0.243	-0.012
-560.515	384.269	0.106	0.219
-559.500	238.251	-0.066	-0.111
-558.485	86.121	0.298	-0.329
-557.471	-140.475	-0.154	-0.016
-556.456	800.000	-0.104	0.333
-555.442	19.999	0.231	0.187
-554.427	-176.618	-0.640	0.016
-553.412	800.000	-0.139	-0.428
-552.398	0.901	-0.281	-0.202
-551.383	-16.165	-0.226	0.144
-550.369	-105.404	0.086	0.020
-549.354	-200.000	-0.003	-0.139
-548.339	53.088	-0.084	0.080
-547.325	-107.448	-0.125	-0.027
-546.310	-75.754	-0.178	-0.063
-545.296	-200.000	0.015	-0.217
-544.281	86.441	0.225	-0.249
-543.266	324.309	-0.253	-0.484
-542.252	800.000	0.072	-0.245
-541.237	800.000	0.218	-0.678
-540.223	192.396	-0.221	0.335
-539.208	-200.000	0.013	-0.287
-538.193	83.406	0.122	-0.133
-537.179	-200.000	0.025	-0.370
-536.164	-119.356	0.287	0.050
-535.150	-200.000	0.031	0.169
-534.135	82.232	-0.103	0.112
-533.121	-106.883	0.318	-0.071
-532.106	800.000	-0.083	-0.234
-531.091	77.971	-0.116	0.124
-530.077	-200.000	0.001	0.151
-529.062	243.560	-0.085	0.142
-528.048	260.796	-0.069	0.120
-527.033	-52.297	0.106	-0.049
-526.018	-68.476	0.344	-0.134
-525.004	-200.000	-0.024	-0.256
-523.989	206.416	-0.150	0.235
-522.975	800.000	0.054	-0.162
-521.960	-134.414	-0.394	0.048
-520.945	-110.892	0.359	-0.074
-519.931	-177.216	0.558	-0.014
-518.916	-200.000	-0.017	0.348
-517.902	115.778	0.115	0.141
-516.887	-128.506	0.728	0.104
-515.872	-200.000	-0.047	0.280
-514.858	-200.000	0.051	0.292
-513.843	-96.979	0.210	-0.055
-512.829	0.302	0.209	0.150
-511.814	-22.615	0.199	0.120
-510.799	-126.844	0.141	0.021
-509.785	-41.112	0.525	-0.272
-508.770	138.467	0.140	0.184
-507.756	339.749	0.035	0.068
-506.741	-19.387	0.234	0.145
-505.726	218.217	0.156	-0.250
-504.712	-4.166	-0.013	0.009
-503.697	-200.000	0.034	-0.177
-502.683	-200.000	-0.039	0.326
-501.668	-200.000	0.047	0.322
-500.653	301.243	0.070	0.130
-499.639	371.490	-0.062	0.126
-498.624	-111.498	-0.114	-0.023
-497.610	-106.610	-0.290	-0.065
-496.595	-17.681	-0.074	-0.046
-495.581	-200.000	0.000	0.162
-494.566	292.194	0.078	0.142
-493.551	10.156	0.295	0.225
-492.537	701.787	-0.089	0.235
-491.522	-200.000	0.026	-0.181
-490.508	472.268	0.185	0.416
-489.493	176.547	0.088	-0.128
-488.478	391.705	0.045	0.093
-487.464	3.116	-0.168	0.122
-486.449	84.473	-0.309	0.339
-485.435	-54.994	-0.092	-0.042
-484.420	6.690	0.128	0.096
-483.405	-199.840	0.170	-0.001
-482.391	-7.249	0.161	-0.109
-481.376	-103.072	0.226	0.054
-480.362	126.000	-0.163	0.206
-479.347	350.872	-0.035	-0.068
-478.332	76.573	0.034	-0.036
-477.318	718.016	-0.111	-0.296
-476.303	485.959	-0.081	0.185
-475.289	-151.476	-0.266	0.020
-474.274	800.000	0.086	-0.260
-473.259	60.318	0.112	-0.111
-472.245	-200.000	-0.069	0.346
-471.230	87.198	0.128	0.142
-470.216	-175.222	-0.453	-0.013
-469.201	23.905	-0.230	0.190
-468.186	-145.621	-0.158	-0.014
-467.172	564.026	0.060	0.145
-466.157	-114.016	-0.325	-0.063
-465.143	566.552	-0.070	0.169
-464.128	215.435	0.108	-0.171
-463.113	-65.018	0.029	-0.012
-462.099	-200.000	0.030	-0.284
-461.084	232.936	-0.115	-0.190
-460.070	667.324	-0.115	0.298
-459.055	-0.430	-0.130	-0.093
-458.040	-173.474	0.208	-0.006
-457.026	-118.213	-0.073	0.013
-456.011	-115.883	-0.108	-0.020
-454.997	217.224	0.116	-0.184
-453.982	6.770	0.239	-0.178
-452.968	194.620	-0.206	0.313
-451.953	50.432	0.177	-0.167
-450.938	800.000	-0.061	-0.219
-449.924	-200.000	0.009	0.045
-448.909	-47.741	-0.180	0.087
-447.895	-165.718	-0.204	-0.009
-446.880	-200.000	0.002	-0.318
-445.865	171.697	-0.110	0.158
-444.851	-40.533	0.068	0.035
-443.836	800.000	0.035	-0.134
-442.822	-181.554	-0.330	0.006
-441.807	-200.000	-0.040	0.323
-440.792	-93.939	0.249	0.069
-439.778	620.158	-0.064	0.161
-438.763	251.659	0.167	-0.284
-437.749	52.285	0.130	-0.124
-436.734	100.617	0.173	-0.201
-435.719	800.000	0.029	-0.111
-434.705	49.151	-0.161	0.151
-433.690	135.351	-0.171	0.222
-432.676	-200.000	0.030	0.222
-431.661	5.951	0.186	-0.138
-430.646	-74.651	0.154	0.055
-429.632	-153.177	-0.232	0.016
-428.617	-157.302	0.214	0.013
-427.603	99.751	0.130	0.150
-426.588	-200.000	-0.036	0.168
-425.573	171.474	-0.137	-0.197
-424.559	379.098	-0.087	0.178
-423.544	146.362	0.099	0.133
-422.530	793.103	0.066	0.181
-421.515	-200.000	-0.027	-0.243
-420.500	-200.000	0.014	-0.256
-419.486	332.354	-0.167	0.322
-418.471	173.683	-0.114	-0.165
-417.457	-200.000	-0.022	-0.100
-416.442	183.298	0.151	0.223
-415.428	-85.040	0.185	-0.058
-414.413	21.644	-0.165	-0.134
-413.398	-58.324	-0.114	0.049
-412.384	3.552	-0.082	0.060
-411.369	-35.084	0.353	0.192
-410.355	44.118	0.250	0.229
-409.340	-109.230	-0.228	0.048
-408.325	347.381	0.156	-0.307
-407.311	-200.000	0.019	0.285
-406.296	616.596	0.077	-0.192
-405.282	-82.587	-0.290	-0.094
-404.267	-23.103	-0.080	-0.048
-403.252	580.276	0.081	-0.197
-402.238	-200.000	0.035	0.208
-401.223	172.965	0.232	0.334
-400.209	-85.948	0.369	0.114
-399.194	231.851	-0.100	0.164
-398.179	603.157	0.065	0.160
-397.165	-200.000	-0.038	-0.216
-396.150	-91.655	0.015	0.004
-395.136	51.667	0.281	0.267
-394.121	-171.969	-0.088	0.003
-393.106	800.000	0.107	-0.330
-392.092	-4.681	0.098	0.068
-391.077	-200.000	0.046	0.427
-390.063	-200.000	0.026	0.267
-389.048	-57.852	0.298	0.130
-388.033	-55.350	-0.196	-0.088
-387.019	-104.933	-0.360	-0.082
-386.004	50.961	0.100	0.095
-384.990	379.927	-0.098	-0.201
-383.975	-200.000	0.006	-0.380
-382.960	14.407	0.108	-0.084
-381.946	593.267	-0.100	-0.246
-380.931	-200.000	0.015	0.077
-379.917	-21.073	-0.165	0.101
-378.902	233.617	-0.263	-0.432
-377.888	33.738	-0.210	-0.182
-376.873	226.415	0.167	0.270
-375.858	-138.869	-0.205	0.022
-374.844	-91.995	0.213	-0.060
-373.829	297.001	-0.043	0.078
-372.815	-200.000	0.013	0.147
-371.800	-127.368	0.163	-0.024
-370.785	583.146	-0.148	0.363
-369.771	-58.661	-0.101	-0.044
-368.756	-200.000	-0.026	0.182
-367.742	77.066	-0.072	-0.076
-366.727	323.574	0.036	-0.069
-365.712	33.338	-0.041	-0.036
-364.698	-75.451	-0.171	0.061
-363.683	192.110	0.149	-0.224
-362.669	84.901	0.248	-0.271
-361.654	-83.535	0.279	0.089
-360.639	322.102	0.054	0.103
-359.625	-189.475	-0.092	0.001
-358.610	217.072	0.091	0.145
-357.596	-66.360	-0.187	-0.074
-356.581	174.920	0.078	-0.113
-355.566	190.129	0.043	0.064
-354.552	-120.223	-0.284	-0.048
-353.537	-18.407	-0.240	0.149
-352.523	-200.000	0.063	0.301
-351.508	49.137	0.112	-0.105
-350.493	800.000	-0.100	0.297
-349.479	-89.719	0.041	0.012
-348.464	-150.393	-0.237	-0.018
-347.450	-116.430	0.339	0.062
-346.435	-200.000	-0.022	-0.202
-345.420	800.000	0.070	-0.229
-344.406	212.582	0.164	-0.257
-343.391	-24.480	-0.298	0.177
-342.377	-152.354	0.203	-0.015
-341.362	-159.153	-0.010	-0.001
-340.348	800.000	-0.026	-0.105
-339.333	18.969	-0.126	-0.101
-338.318	-50.843	-0.309	0.145
-337.304	28.632	-0.220	0.185
-336.289	401.816	0.028	0.059
-335.275	-127.668	0.207	-0.030
-334.260	800.000	0.035	-0.150
-333.245	-83.749	0.140	-0.045
-332.231	-200.000	0.075	0.395
-331.216	-200.000	0.039	-0.304
-330.202	338.817	-0.095	-0.185
-329.187	-19.312	0.212	0.131
-328.172	207.497	-0.203	-0.315
-327.158	-144.001	0.270	0.025
-326.143	145.020	0.041	0.054
-325.129	-73.302	-0.245	0.089
-324.114	-158.736	-0.080	0.005
-323.099	-200.000	0.020	0.259
-322.085	-200.000	0.029	-0.282
-321.070	-74.045	-0.199	-0.072
-320.056	800.000	0.107	-0.313
-319.041	-95.770	0.047	-0.013
-318.026	-100.395	-0.190	-0.047
-317.012	-65.223	-0.220	-0.088
-315.997	-107.671	-0.328	-0.071
-314.983	800.000	0.024	-0.102
-313.968	-150.292	-0.078	0.006
-312.953	-135.333	-0.193	-0.023
-311.939	800.000	0.109	0.349
-310.924	-86.166	-0.232	0.071
-309.910	-88.630	-0.124	-0.037
-308.895	800.000	-0.023	-0.073
-307.880	800.000	-0.034	-0.097
-306.866	-75.016	0.312	0.111
-305.851	800.000	0.087	0.359
-304.837	140.709	0.053	0.070
-303.822	115.222	-0.181	0.220
-302.807	-122.258	0.340	0.055
-301.793	-62.767	0.113	-0.047
-300.778	573.517	0.127	-0.308
-299.764	70.223	-0.118	-0.121
-298.749	-200.000	-0.044	-0.388
-297.735	-137.132	-0.260	0.029
-296.720	-19.625	-0.122	0.075
-295.705	294.405	-0.093	0.170
-294.691	-11.334	0.125	-0.082
-293.676	800.000	-0.071	-0.197
-292.662	-100.216	0.166	0.041
-291.647	-158.723	0.121	0.007
-290.632	265.229	0.158	-0.273
-289.618	-49.844	-0.182	0.086
-288.603	-51.924	-0.223	0.103
-287.589	127.059	0.161	-0.203
-286.574	-0.978	0.317	-0.223
-285.559	-155.485	-0.269	0.017
-284.545	-200.000	-0.125	0.000
-283.530	800.000	0.032	0.136
-282.516	414.895	0.096	0.203
-281.501	-23.196	0.316	-0.189
-280.486	170.265	-0.133	-0.190
-279.472	30.327	0.326	-0.277
-278.457	105.609	-0.104	-0.122
-277.443	-84.900	-0.180	0.056
-276.428	-200.000	0.015	0.081
-275.413	110.129	-0.202	0.240
-274.399	-200.000	0.040	0.216
-273.384	171.106	0.284	-0.405
-272.370	-80.220	-0.044	-0.014
-271.355	800.000	-0.097	0.346
-270.340	171.029	-0.210	0.298
-269.326	458.552	0.050	0.110
-268.311	-200.000	0.009	-0.099
-267.297	-200.000	0.009	-0.199
-266.282	209.202	-0.126	-0.196
-265.267	-120.851	0.132	0.022
-264.253	11.064	-0.063	0.048
-263.238	-60.002	-0.396	-0.168
-262.224	-200.000	0.009	0.055
-261.209	-18.280	-0.188	-0.117
-260.195	-200.000	0.003	-0.145
-259.180	714.621	0.076	-0.200
-258.165	182.011	-0.108	0.157
-257.151	-25.715	-0.262	0.154
-256.136	106.529	-0.246	0.290
-255.122	-125.358	-0.203	0.031
-254.107	-108.281	-0.189	-0.040
-253.092	191.164	0.072	0.107
-252.078	-77.274	0.123	0.043
-251.063	-170.712	-0.366	0.013
-250.049	-0.445	0.282	0.199
-249.034	608.912	0.141	-0.349
-248.019	139.251	-0.122	-0.160
-247.005	-200.000	-0.002	0.139
-245.990	-200.000	-0.020	0.373
-244.976	-125.841	-0.052	-0.008
-243.961	351.724	0.053	0.105
-242.946	3.262	0.172	-0.124
-241.932	800.000	0.034	0.110
-240.917	-159.155	0.041	0.002
-239.903	-109.144	0.076	-0.016
-238.888	-19.144	0.182	-0.112
-237.873	188.599	-0.100	-0.149
-236.859	-120.095	-0.034	-0.006
-235.844	87.898	0.103	-0.113
-234.830	-20.402	0.224	-0.137
-233.815	-139.491	-0.095	0.010
-232.800	-185.913	0.188	0.003
-231.786	30.679	0.165	-0.140
-230.771	-200.000	-0.019	-0.471
-229.757	121.285	0.148	-0.183
-228.742	0.801	0.207	-0.147
-227.727	-54.418	0.181	-0.081
-226.713	251.806	-0.125	0.211
-225.698	197.360	0.156	0.236
-224.684	100.834	-0.223	0.257
-223.669	-200.000	-0.030	-0.222
-222.655	78.101	0.189	-0.199
-221.640	-43.796	-0.232	0.116
-220.625	800.000	0.141	0.506
-219.611	-41.063	0.350	0.179
-218.596	-85.627	-0.086	0.026
-217.582	304.458	0.088	-0.161
-216.567	59.964	-0.165	0.162
-215.552	-137.509	-0.237	-0.027
-214.538	232.622	0.059	-0.097
-213.523	78.502	-0.148	-0.156
-212.509	247.724	0.125	-0.209
-211.494	800.000	-0.049	-0.134
-210.479	800.000	0.087	-0.303
-209.465	340.785	0.058	0.112
-208.450	-200.000	-0.011	0.144
-207.436	-170.374	0.170	-0.006
-206.421	27.063	0.266	0.221
-205.406	24.234	0.296	0.242
-204.392	62.833	-0.126	-0.124
-203.377	77.343	-0.147	0.155
-202.363	800.000	0.052	0.158
-201.348	170.410	0.082	0.117
-200.333	198.766	0.116	0.177
-199.319	147.074	-0.329	-0.438
-198.304	-7.505	0.302	0.202
-197.290	800.000	-0.070	0.211
-196.275	-18.702	0.225	0.139
-195.260	161.688	-0.092	-0.127
-194.246	-152.987	0.313	-0.022
-193.231	-55.265	-0.192	0.085
-192.217	76.879	-0.248	-0.260
-191.202	38.590	-0.232	0.205
-190.187	-138.153	0.304	0.033
-189.173	-91.035	0.089	-0.025
-188.158	-59.153	-0.107	-0.046
-187.144	256.205	-0.078	-0.133
-186.129	-200.000	-0.005	-0.179
-185.114	-27.627	-0.097	0.055
-184.100	-200.000	-0.159	0.000
-183.085	-133.289	-0.108	-0.013
-182.071	-200.000	0.004	0.052
-181.056	66.761	-0.186	0.187
-180.042	-84.507	0.102	0.032
-179.027	35.313	-0.196	0.170
-178.012	-200.000	0.004	-0.100
-176.998	642.671	0.150	0.378
-175.983	-47.194	-0.093	-0.045
-174.969	800.000	0.024	0.090
-173.954	724.539	-0.158	0.416
-172.939	22.233	0.123	0.100
-171.925	63.752	0.110	0.109
-170.910	331.612	0.142	0.270
-169.896	-79.996	-0.161	0.053
-168.881	2.679	0.129	-0.092
-167.866	6.082	0.190	-0.140
-166.852	-107.791	0.177	-0.038
-165.837	800.000	-0.008	-0.022
-164.823	272.658	-0.091	0.159
-163.808	800.000	-0.029	0.091
-162.793	-40.815	-0.033	0.017
-161.779	800.000	-0.062	-0.181
-160.764	-54.560	0.141	-0.063
-159.750	-27.917	-0.163	0.094
-158.735	-80.346	-0.249	-0.082
-157.720	800.000	0.103	-0.439
-156.706	140.855	-0.176	0.231
-155.691	-82.572	0.342	0.110
-154.677	635.373	-0.123	-0.309
-153.662	800.000	-0.093	0.285
-152.647	-40.063	0.409	-0.211
-151.633	800.000	-0.068	-0.277
-150.618	-34.620	-0.015	0.008
-149.604	-88.397	0.169	0.050
-148.589	24.007	0.234	0.190
-147.574	-69.525	0.084	0.032
-146.560	-133.116	0.176	0.022
-145.545	491.047	0.055	0.125
-144.531	95.120	0.059	0.067
-143.516	-200.000	-0.052	0.464
-142.502	17.630	-0.161	0.126
-141.487	36.426	-0.063	0.055
-140.472	-189.074	0.116	0.001
-139.458	477.001	0.152	0.340
-138.443	96.629	0.228	0.258
-137.429	-14.359	0.266	-0.169
-136.414	800.000	0.035	-0.129
-135.399	-200.000	-0.053	0.293
-134.385	-152.129	0.302	0.022
-133.370	608.265	0.037	0.091
-132.356	-200.000	-0.015	0.170
-131.341	-200.000	-0.045	-0.245
-130.326	40.922	0.148	-0.132
-129.312	-159.197	-0.202	0.011
-128.297	88.330	-0.233	0.256
-127.283	600.898	0.154	-0.378
-126.268	800.000	0.075	-0.209
-125.253	215.783	0.236	0.371
-124.239	-200.000	0.018	-0.324
-123.224	103.301	0.121	0.140
-122.210	-200.000	-0.042	-0.239
-121.195	-200.000	-0.020	0.580
