DTS Sentinel unit serial number:	SN413079Multiplexer serial number:	ORYXHardware model number:	OX4-SRSoftware version number:	ORYX F/W v4.00 Oryx Data Collector v3.7.2.0data status	okinstallation	princeton_trtdifferential loss correction	single-endedforward channel	channel 3reverse channel	N/Adate	2019/09/12time	23:40:35forward acquisition time	60.00reverse acquisition time	0.00gamma	496.2192k internal	0.2329k external	0.2329temperature offset calibration	1.0131default loss term (dB/km)	0.3790temperature slope calibration	1.0000multiplexer offset coefficient	1.0000multiplexer slope coefficient	1.0000fibre end	0.00T internal ref (°C)	28.87T ext. ref 1 (°C)	3.77T ext. ref 2 (°C)	23.53length (m)	temperature (°C)	Stokes	anti-Stokes-747.200	78.898	-0.047	-0.051
-746.185	-57.498	0.242	0.107
-745.171	92.704	-0.135	0.153
-744.156	-100.484	0.280	-0.070
-743.142	-200.000	0.052	-0.386
-742.127	-200.000	0.072	0.484
-741.112	58.110	0.102	0.100
-740.098	234.596	0.226	0.376
-739.083	-105.196	0.096	-0.022
-738.069	-168.721	-0.328	-0.012
-737.054	45.976	-0.191	0.178
-736.039	181.562	-0.251	0.372
-735.025	-200.000	-0.022	-0.183
-734.010	-200.000	-0.002	-0.186
-732.996	216.285	-0.093	-0.149
-731.981	-43.484	-0.438	0.223
-730.966	800.000	0.061	0.177
-729.952	-8.923	0.104	-0.070
-728.937	-200.000	0.031	-0.444
-727.923	771.012	-0.109	-0.300
-726.908	-200.000	-0.081	-0.446
-725.894	394.587	0.182	-0.381
-724.879	-32.220	0.141	-0.079
-723.864	33.410	0.042	0.036
-722.850	147.806	-0.101	-0.137
-721.835	-65.785	-0.355	-0.143
-720.821	-72.947	0.207	0.076
-719.806	300.705	0.007	0.012
-718.791	163.528	0.134	0.189
-717.777	-27.958	-0.249	-0.145
-716.762	6.302	-0.111	-0.083
-715.748	198.951	-0.087	-0.134
-714.733	-179.466	0.029	0.001
-713.718	-56.399	0.288	-0.129
-712.704	466.580	0.107	-0.241
-711.689	154.590	0.044	-0.061
-710.675	370.657	-0.102	-0.208
-709.660	153.551	0.154	-0.212
-708.645	800.000	0.038	-0.146
-707.631	104.942	-0.277	-0.329
-706.616	-29.156	-0.079	-0.045
-705.602	-200.000	-0.004	-0.253
-704.587	323.516	-0.021	-0.041
-703.572	33.622	-0.059	-0.051
-702.558	800.000	-0.026	-0.090
-701.543	88.836	-0.215	-0.240
-700.529	-31.993	0.271	0.153
-699.514	-200.000	0.016	0.105
-698.499	-200.000	-0.025	0.125
-697.485	-100.164	-0.179	-0.045
-696.470	327.279	0.182	-0.351
-695.456	361.610	0.157	-0.316
-694.441	328.817	0.071	0.137
-693.426	-200.000	0.035	-0.273
-692.412	-6.235	0.093	-0.064
-691.397	499.287	-0.031	-0.073
-690.383	-22.633	-0.208	-0.126
-689.368	554.371	-0.067	-0.161
-688.354	-56.229	0.027	-0.012
-687.339	-79.426	-0.346	-0.118
-686.324	-94.795	0.346	-0.094
-685.310	-200.000	0.001	-0.031
-684.295	-200.000	0.029	0.237
-683.281	-200.000	0.013	-0.183
-682.266	116.887	-0.078	-0.096
-681.251	13.228	0.296	-0.230
-680.237	30.081	0.104	0.089
-679.222	800.000	0.103	-0.404
-678.208	-104.673	0.064	-0.015
-677.193	29.368	0.203	0.174
-676.178	181.533	0.138	0.204
-675.164	-5.006	0.185	0.128
-674.149	-200.000	0.013	0.195
-673.135	178.070	-0.179	-0.262
-672.120	800.000	-0.060	0.211
-671.105	-4.125	0.112	0.078
-670.091	43.524	-0.252	0.231
-669.076	-124.105	-0.210	0.033
-668.062	-200.000	0.017	0.116
-667.047	-62.068	-0.110	0.046
-666.032	-111.006	-0.270	0.056
-665.018	-56.699	-0.398	-0.177
-664.003	-200.000	-0.017	-0.141
-662.989	800.000	0.088	0.283
-661.974	536.846	-0.083	0.199
-660.959	-200.000	-0.008	0.205
-659.945	570.777	0.045	0.110
-658.930	583.850	0.088	0.217
-657.916	-200.000	0.036	-0.159
-656.901	-6.402	-0.156	-0.107
-655.886	-7.917	0.240	0.163
-654.872	-107.889	0.162	0.035
-653.857	-200.000	-0.004	0.022
-652.843	-48.855	-0.022	0.010
-651.828	530.144	-0.066	-0.157
-650.814	-18.982	-0.275	-0.171
-649.799	800.000	-0.045	0.149
-648.784	-158.960	-0.289	-0.016
-647.770	31.864	0.124	-0.107
-646.755	-44.527	-0.492	-0.247
-645.741	-91.687	-0.081	0.023
-644.726	190.891	-0.108	0.163
-643.711	453.030	0.248	-0.550
-642.697	490.326	0.026	0.060
-641.682	247.036	-0.280	-0.475
-640.668	-51.151	-0.084	-0.039
-639.653	-175.627	-0.386	-0.010
-638.638	-57.498	-0.244	0.107
-637.624	-200.000	-0.008	-0.253
-636.609	-200.000	-0.064	0.339
-635.595	-69.230	-0.462	-0.178
-634.580	-38.759	0.146	-0.077
-633.565	800.000	0.070	-0.209
-632.551	-123.077	-0.191	0.031
-631.536	32.468	-0.140	-0.121
-630.522	-112.510	-0.207	-0.041
-629.507	-106.436	0.084	-0.019
-628.492	132.406	0.028	-0.037
-627.478	115.766	0.018	-0.022
-626.463	-67.382	-0.310	0.122
-625.449	38.548	0.113	-0.101
-624.434	-200.000	-0.025	0.117
-623.419	157.110	0.367	0.509
-622.405	-13.114	-0.216	-0.141
-621.390	194.886	-0.188	-0.287
-620.376	127.941	-0.147	-0.188
-619.361	653.690	0.066	0.170
-618.346	-188.411	0.092	0.001
-617.332	800.000	-0.113	-0.352
-616.317	10.591	0.102	-0.078
-615.303	-38.888	-0.366	0.193
-614.288	442.233	0.088	-0.194
-613.273	52.926	0.053	-0.051
-612.259	3.680	0.004	0.003
-611.244	-119.835	-0.190	0.033
-610.230	-4.000	0.057	-0.040
-609.215	6.213	0.070	0.052
-608.201	5.874	0.223	0.165
-607.186	8.210	0.199	0.150
-606.171	111.162	-0.042	-0.051
-605.157	152.157	0.230	-0.315
-604.142	-11.539	0.249	0.164
-603.128	28.300	0.319	-0.270
-602.113	-97.037	-0.193	-0.051
-601.098	-53.126	-0.108	0.050
-600.084	202.385	0.126	-0.195
-599.069	180.401	-0.310	0.456
-598.055	-77.698	-0.270	0.094
-597.040	-106.094	0.265	-0.060
-596.025	-200.000	0.042	-0.243
-595.011	15.056	0.254	0.199
-593.996	466.685	0.070	0.156
-592.982	800.000	0.053	-0.167
-591.967	800.000	0.080	-0.289
-590.952	-200.000	-0.028	0.249
-589.938	-131.692	0.405	0.053
-588.923	38.524	0.214	-0.191
-587.909	-78.302	-0.194	-0.067
-586.894	91.830	-0.206	-0.232
-585.879	82.384	0.076	-0.082
-584.865	-113.816	-0.211	0.041
-583.850	82.215	0.168	-0.183
-582.836	-148.578	-0.413	-0.034
-581.821	800.000	-0.031	-0.095
-580.806	-135.160	0.272	0.033
-579.792	-4.064	0.210	0.146
-578.777	53.435	0.187	-0.180
-577.763	-50.515	0.206	-0.097
-576.748	-11.326	0.298	0.196
-575.733	90.784	0.084	0.094
-574.719	-45.386	-0.069	-0.034
-573.704	3.485	0.124	-0.091
-572.690	-200.000	0.006	0.066
-571.675	-125.137	0.205	0.031
-570.661	-200.000	0.206	-0.001
-569.646	27.668	-0.181	-0.153
-568.631	800.000	0.129	-0.372
-567.617	-79.864	-0.226	0.076
-566.602	46.403	0.349	-0.324
-565.588	-85.274	-0.216	-0.068
-564.573	-50.694	0.209	0.099
-563.558	143.452	-0.085	-0.113
-562.544	566.118	0.050	0.120
-561.529	514.418	0.120	0.279
-560.515	-200.000	0.003	-0.051
-559.500	-59.753	0.098	0.042
-558.485	800.000	-0.072	-0.248
-557.471	770.049	0.074	-0.203
-556.456	-200.000	0.007	0.319
-555.442	-180.331	0.257	-0.005
-554.427	-28.785	-0.166	0.095
-553.412	0.631	0.199	-0.142
-552.398	-200.000	-0.006	-0.234
-551.383	-131.732	-0.384	-0.050
-550.369	800.000	-0.183	-0.506
-549.354	-25.438	-0.111	-0.066
-548.339	96.665	-0.169	-0.193
-547.325	79.941	-0.245	-0.264
-546.310	-99.943	0.285	-0.071
-545.296	-165.046	0.206	0.009
-544.281	-97.860	0.153	0.040
-543.266	-151.810	-0.255	-0.019
-542.252	-99.131	-0.175	-0.044
-541.237	167.273	0.209	0.296
-540.223	-200.000	-0.001	0.088
-539.208	-118.945	-0.116	0.020
-538.193	643.369	0.016	-0.041
-537.179	-200.000	-0.038	-0.472
-536.164	-138.690	0.359	-0.039
-535.150	28.138	0.356	-0.300
-534.135	174.492	0.113	-0.163
-533.121	-43.514	0.224	-0.113
-532.106	800.000	0.026	-0.109
-531.091	-62.985	0.191	-0.079
-530.077	-182.516	-0.409	-0.008
-529.062	800.000	-0.064	0.273
-528.048	-200.000	0.038	-0.237
-527.033	-9.846	0.184	0.122
-526.018	-59.894	-0.007	0.003
-525.004	-52.504	0.176	-0.081
-523.989	-200.000	0.037	-0.170
-522.975	92.387	0.118	-0.133
-521.960	-105.055	0.159	0.036
-520.945	399.611	0.205	0.430
-519.931	-62.117	-0.358	-0.149
-518.916	49.475	0.266	-0.250
-517.902	379.827	0.213	0.436
-516.887	-8.941	-0.229	0.153
-515.872	-36.497	0.207	0.111
-514.858	774.441	0.158	-0.431
-513.843	7.104	-0.215	0.160
-512.829	769.194	-0.056	-0.152
-511.814	10.397	-0.217	0.165
-510.799	-105.690	-0.362	0.082
-509.785	-110.238	0.229	-0.048
-508.770	-14.117	-0.211	0.136
-507.756	208.265	-0.194	0.303
-506.741	-70.758	0.104	-0.039
-505.726	295.869	-0.027	-0.050
-504.712	-10.518	0.109	-0.072
-503.697	-83.657	0.127	-0.041
-502.683	-54.629	-0.178	-0.080
-501.668	155.607	0.203	0.279
-500.653	356.456	-0.097	-0.193
-499.639	800.000	0.088	-0.243
-498.624	364.560	-0.134	-0.270
-497.610	486.641	0.012	-0.028
-496.595	207.867	0.107	-0.167
-495.581	-31.804	0.178	0.099
-494.566	46.417	0.321	-0.297
-493.551	-200.000	0.032	-0.174
-492.537	393.082	-0.098	0.203
-491.522	-162.711	-0.398	0.019
-490.508	86.511	-0.105	0.116
-489.493	-153.868	0.077	0.005
-488.478	-200.000	0.018	0.162
-487.464	240.246	-0.039	-0.066
-486.449	59.961	-0.244	0.240
-485.435	-142.322	0.105	-0.010
-484.420	-200.000	-0.035	-0.472
-483.405	173.807	-0.184	0.265
-482.391	362.548	-0.146	0.292
-481.376	-114.398	0.120	-0.023
-480.362	-43.955	0.028	0.014
-479.347	-153.603	0.184	0.013
-478.332	800.000	-0.087	0.262
-477.318	800.000	0.015	0.060
-476.303	490.056	0.139	-0.317
-475.289	118.468	-0.096	0.118
-474.274	430.858	-0.106	-0.229
-473.259	572.426	0.038	0.091
-472.245	17.625	-0.021	0.017
-471.230	-77.046	-0.360	-0.125
-470.216	-72.864	-0.295	-0.108
-469.201	89.890	0.095	-0.105
-468.186	-3.394	0.136	-0.094
-467.172	85.240	-0.106	0.116
-466.157	-164.374	0.105	-0.005
-465.143	-200.000	-0.060	0.298
-464.128	516.563	0.097	0.225
-463.113	-107.823	0.369	0.080
-462.099	180.445	0.130	0.190
-461.084	302.229	-0.192	0.353
-460.070	61.329	0.103	-0.102
-459.055	-131.817	0.161	-0.021
-458.040	40.245	0.102	0.091
-457.026	-106.852	-0.242	0.053
-456.011	-200.000	0.020	0.234
-454.997	-86.867	-0.045	0.014
-453.982	-200.000	-0.020	-0.372
-452.968	-137.203	-0.449	-0.051
-451.953	-100.212	-0.496	0.123
-450.938	281.031	0.048	0.085
-449.924	89.741	0.138	0.153
-448.909	-200.000	-0.041	0.189
-447.895	-67.278	0.151	-0.059
-446.880	210.124	-0.043	0.068
-445.865	-59.914	-0.145	-0.062
-444.851	89.647	0.197	0.219
-443.836	14.102	-0.254	0.197
-442.822	-200.000	0.039	0.303
-441.807	-102.188	-0.116	0.028
-440.792	-200.000	0.052	0.271
-439.778	59.708	0.284	-0.279
-438.763	71.753	0.375	0.388
-437.749	129.622	-0.095	0.120
-436.734	-200.000	0.006	-0.434
-435.719	-200.000	0.041	0.258
-434.705	62.604	0.194	-0.193
-433.690	477.477	0.154	0.346
-432.676	-22.327	0.059	-0.036
-431.661	-143.141	0.123	-0.012
-430.646	800.000	0.064	-0.213
-429.632	42.699	0.140	0.126
-428.617	-73.791	0.289	-0.105
-427.603	-88.134	-0.074	0.022
-426.588	-33.909	-0.283	-0.155
-425.573	-22.145	0.290	-0.175
-424.559	-200.000	-0.022	-0.339
-423.544	-46.617	-0.069	-0.034
-422.530	-40.846	0.275	0.142
-421.515	-113.082	0.108	0.021
-420.500	454.530	-0.066	-0.145
-419.486	3.619	0.136	-0.098
-418.471	-69.809	-0.280	-0.106
-417.457	89.237	0.135	0.150
-416.442	-6.709	-0.275	-0.186
-415.428	219.021	0.171	-0.271
-414.413	-53.402	0.247	-0.113
-413.398	-33.531	0.260	0.143
-412.384	-87.774	-0.177	0.053
-411.369	284.270	-0.219	0.391
-410.355	-84.020	-0.393	0.124
-409.340	-52.772	0.126	-0.058
-408.325	-82.117	-0.054	-0.017
-407.311	-49.538	0.249	0.118
-406.296	-132.302	-0.335	0.043
-405.282	800.000	-0.086	-0.252
-404.267	153.295	0.056	0.076
-403.252	9.552	-0.188	0.142
-402.238	-200.000	0.022	0.202
-401.223	17.158	0.206	-0.162
-400.209	-129.773	0.319	0.044
-399.194	-200.000	-0.004	-0.081
-398.179	494.744	-0.211	-0.483
-397.165	190.600	-0.041	0.061
-396.150	394.632	-0.098	-0.204
-395.136	257.387	-0.098	0.168
-394.121	222.394	-0.048	0.077
-393.106	481.473	-0.106	-0.240
-392.092	800.000	-0.097	0.398
-391.077	273.561	-0.223	0.391
-390.063	-120.384	0.220	0.037
-389.048	-137.324	-0.170	-0.019
-388.033	85.719	0.173	-0.188
-387.019	-97.054	-0.248	-0.064
-386.004	-200.000	-0.021	0.129
-384.990	555.456	-0.126	-0.302
-383.975	800.000	-0.132	-0.375
-382.960	-84.925	-0.059	0.018
-381.946	-51.951	0.136	-0.063
-380.931	-26.848	-0.067	0.039
-379.917	-200.000	0.053	0.267
-378.902	800.000	-0.008	-0.030
-377.888	31.126	-0.261	-0.223
-376.873	150.946	-0.151	0.204
-375.858	-87.766	-0.187	-0.056
-374.844	289.424	0.128	0.230
-373.829	-200.000	-0.051	0.241
-372.815	526.420	-0.042	-0.097
-371.800	60.241	0.041	0.041
-370.785	618.110	-0.101	-0.252
-369.771	-35.854	0.206	-0.111
-368.756	800.000	-0.015	0.067
-367.742	-114.641	-0.227	0.043
-366.727	301.681	-0.032	0.058
-365.712	800.000	0.052	0.163
-364.698	218.748	-0.187	0.297
-363.683	273.149	-0.216	-0.379
-362.669	-28.406	-0.114	0.065
-361.654	70.681	-0.031	0.032
-360.639	46.855	0.140	0.129
-359.625	800.000	-0.103	0.323
-358.610	-200.000	0.023	0.487
-357.596	-107.946	0.294	0.063
-356.581	-14.572	0.136	0.087
-355.566	-121.919	-0.224	0.037
-354.552	800.000	-0.014	0.054
-353.537	266.937	-0.075	0.131
-352.523	-122.146	0.294	-0.048
-351.508	-200.000	-0.038	0.260
-350.493	475.024	-0.070	0.156
-349.479	-37.846	0.189	0.100
-348.464	-136.663	0.321	-0.037
-347.450	-90.347	-0.089	-0.026
-346.435	63.305	0.061	0.060
-345.420	-145.213	0.253	0.023
-344.406	151.351	-0.129	0.175
-343.391	622.038	0.043	0.106
-342.377	-116.484	-0.117	0.021
-341.362	-47.055	-0.069	0.034
-340.348	267.226	0.196	0.340
-339.333	-66.357	-0.121	-0.048
-338.318	63.427	0.175	0.175
-337.304	800.000	-0.055	0.208
-336.289	59.743	-0.185	-0.181
-335.275	-200.000	-0.038	0.270
-334.260	8.105	-0.102	0.076
-333.245	-64.325	-0.133	-0.053
-332.231	800.000	0.032	0.117
-331.216	-13.844	0.252	0.162
-330.202	-60.613	0.081	-0.034
-329.187	-200.000	-0.033	0.208
-328.172	183.221	0.171	0.250
-327.158	647.041	-0.093	-0.235
-326.143	557.629	0.101	0.241
-325.129	800.000	-0.037	0.127
-324.114	-200.000	-0.007	-0.211
-323.099	-200.000	-0.054	0.354
-322.085	308.777	0.019	-0.035
-321.070	42.418	0.165	-0.148
-320.056	0.987	-0.118	-0.084
-319.041	119.912	-0.212	0.261
-318.026	800.000	-0.136	0.419
-317.012	-68.582	-0.113	0.043
-315.997	159.752	-0.111	0.153
-314.983	-54.714	0.120	0.054
-313.968	-28.201	0.409	-0.234
-312.953	-88.078	-0.186	-0.055
-311.939	-200.000	0.006	-0.099
-310.924	-110.007	0.177	0.037
-309.910	570.877	0.025	-0.059
-308.895	87.466	-0.041	0.045
-307.880	-122.087	0.151	0.025
-306.866	-200.000	-0.027	0.174
-305.851	800.000	0.052	0.145
-304.837	131.181	0.175	0.222
-303.822	68.993	0.235	0.240
-302.807	-119.564	-0.198	0.034
-301.793	-200.000	0.023	-0.210
-300.778	-116.794	0.205	0.037
-299.764	357.034	0.199	-0.392
-298.749	-7.936	-0.340	0.227
-297.735	-95.098	-0.077	-0.021
-296.720	800.000	-0.039	-0.148
-295.705	-63.448	-0.150	-0.061
-294.691	300.841	0.093	-0.169
-293.676	-79.638	0.210	0.070
-292.662	800.000	0.017	-0.065
-291.647	297.307	-0.130	-0.236
-290.632	416.586	0.130	-0.274
-289.618	-115.582	-0.206	0.038
-288.603	-125.107	0.306	-0.047
-287.589	-123.511	-0.249	-0.039
-286.574	-200.000	0.055	0.245
-285.559	169.686	-0.112	0.159
-284.545	158.315	-0.251	0.345
-283.530	12.051	0.181	0.138
-282.516	800.000	0.013	0.045
-281.501	0.538	-0.075	0.053
-280.486	-200.000	-0.008	-0.105
-279.472	94.543	0.266	0.299
-278.457	81.425	0.083	0.089
-277.443	800.000	-0.067	-0.199
-276.428	-200.000	-0.008	0.139
-275.413	197.886	-0.094	0.142
-274.399	-200.000	-0.037	-0.274
-273.384	-9.949	0.144	0.094
-272.370	-115.418	-0.225	0.042
-271.355	53.890	-0.219	0.208
-270.340	-200.000	0.003	0.186
-269.326	133.540	-0.278	0.355
-268.311	-200.000	-0.011	-0.296
-267.297	69.504	0.169	0.172
-266.282	-10.434	0.226	-0.148
-265.267	275.480	0.132	-0.231
-264.253	-63.594	0.258	-0.105
-263.238	-200.000	-0.015	-0.242
-262.224	557.785	-0.074	-0.177
-261.209	-79.165	-0.062	-0.021
-260.195	136.455	-0.086	-0.111
-259.180	800.000	-0.179	-0.489
-258.165	-31.810	0.072	-0.040
-257.151	-126.006	0.116	0.017
-256.136	-200.000	0.005	-0.041
-255.122	-149.758	0.146	-0.011
-254.107	15.218	-0.016	-0.012
-253.092	539.482	-0.043	-0.101
-252.078	800.000	-0.086	0.271
-251.063	-200.000	0.055	-0.241
-250.049	-200.000	-0.025	0.237
-249.034	-200.000	0.009	-0.141
-248.019	-190.135	0.235	0.003
-247.005	800.000	-0.078	0.308
-245.990	106.853	-0.166	0.195
-244.976	-168.280	-0.112	0.004
-243.961	103.177	0.064	0.074
-242.946	62.460	0.099	-0.097
-241.932	800.000	-0.046	-0.198
-240.917	-32.515	0.143	-0.079
-239.903	800.000	-0.027	-0.089
-238.888	95.472	-0.280	0.316
-237.873	-27.144	0.229	0.132
-236.859	-136.386	-0.055	0.006
-235.844	114.477	-0.091	-0.109
-234.830	-200.000	-0.057	-0.267
-233.815	-200.000	0.041	-0.323
-232.800	10.552	0.213	0.160
-231.786	593.040	-0.060	-0.148
-230.771	42.779	0.285	-0.256
-229.757	259.180	-0.068	0.117
-228.742	-13.189	-0.513	-0.329
-227.727	225.898	0.109	0.174
-226.713	205.700	-0.110	0.169
-225.698	301.470	0.040	-0.072
-224.684	800.000	0.093	-0.311
-223.669	-111.329	0.167	0.034
-222.655	143.525	-0.125	-0.164
-221.640	19.532	-0.239	-0.190
-220.625	-52.879	-0.239	-0.109
-219.611	5.550	-0.140	0.102
-218.596	125.561	0.018	0.022
-217.582	212.004	-0.206	0.320
-216.567	-113.218	0.198	0.039
-215.552	-60.293	0.178	-0.075
-214.538	111.165	-0.111	-0.132
-213.523	-200.000	-0.028	-0.234
-212.509	800.000	0.020	0.074
-211.494	-78.004	-0.173	0.059
-210.479	23.950	0.119	0.097
-209.465	-169.937	0.237	0.008
-208.450	-200.000	0.026	-0.448
-207.436	-200.000	-0.004	-0.291
-206.421	-161.270	-0.337	-0.017
-205.406	-157.871	0.423	0.025
-204.392	-71.558	-0.097	-0.036
-203.377	-55.165	-0.266	0.118
-202.363	-131.063	-0.117	0.015
-201.348	800.000	-0.024	0.088
-200.333	800.000	0.063	0.175
-199.319	-10.727	0.108	0.071
-198.304	250.341	-0.097	-0.163
-197.290	314.610	0.118	-0.219
-196.275	-200.000	0.016	0.272
-195.260	-200.000	-0.001	-0.328
-194.246	111.689	0.210	-0.250
-193.231	-200.000	0.002	0.019
-192.217	800.000	0.074	0.284
-191.202	47.598	-0.280	-0.258
-190.187	-176.904	0.147	0.004
-189.173	-18.143	-0.289	0.179
-188.158	-87.838	0.077	0.023
-187.144	-200.000	-0.020	0.187
-186.129	-29.931	0.278	-0.156
-185.114	-181.522	0.329	-0.006
-184.100	800.000	-0.048	0.187
-183.085	132.221	0.185	0.235
-182.071	-200.000	0.022	0.159
-181.056	-12.872	-0.254	0.163
-180.042	12.527	0.261	-0.199
-179.027	800.000	-0.056	0.229
-178.012	147.119	0.169	0.224
-176.998	-200.000	0.004	0.310
-175.983	-200.000	-0.020	0.332
-174.969	296.079	0.121	0.218
-173.954	-200.000	0.021	0.380
-172.939	800.000	-0.059	-0.199
-171.925	-114.981	-0.253	-0.047
-170.910	800.000	0.030	-0.088
-169.896	-77.517	-0.431	0.147
-168.881	-66.496	0.143	0.056
-167.866	800.000	0.086	0.287
-166.852	469.165	0.016	-0.036
-165.837	-200.000	-0.054	-0.241
-164.823	-200.000	-0.026	0.327
-163.808	140.542	0.112	-0.145
-162.793	-190.820	-0.062	0.001
-161.779	117.401	0.190	-0.230
-160.764	-161.472	-0.277	-0.014
-159.750	88.209	-0.047	-0.051
-158.735	90.299	0.342	-0.377
-157.720	-80.059	-0.363	0.120
-156.706	-28.813	0.155	-0.088
-155.691	126.642	0.109	-0.136
-154.677	-200.000	-0.033	-0.247
-153.662	-65.059	0.082	0.033
-152.647	620.525	-0.067	-0.165
-151.633	104.819	-0.138	-0.160
-150.618	-200.000	-0.051	-0.304
-149.604	-200.000	0.034	0.364
-148.589	114.062	-0.089	0.107
-147.574	647.912	-0.043	-0.109
-146.560	72.749	-0.205	0.211
-145.545	66.024	0.120	0.120
-144.531	800.000	-0.132	0.428
-143.516	-73.787	-0.096	-0.034
-142.502	599.501	0.081	0.199
-141.487	-200.000	0.012	0.169
-140.472	-30.804	0.149	0.083
-139.458	-81.252	-0.137	0.044
-138.443	-67.853	-0.149	-0.057
-137.429	-200.000	0.027	0.141
-136.414	104.364	0.231	0.267
-135.399	322.141	0.083	-0.155
-134.385	18.031	-0.008	-0.006
-133.370	674.581	-0.115	-0.293
-132.356	136.007	-0.185	-0.238
-131.341	-200.000	-0.039	0.246
-130.326	-0.296	-0.195	0.137
-129.312	-119.006	-0.286	-0.049
-128.297	-141.256	-0.254	0.025
-127.283	-71.864	0.319	0.117
-126.268	-62.256	-0.396	-0.162
-125.253	274.157	0.034	0.060
-124.239	174.579	0.106	-0.150
-123.224	25.224	0.152	0.124
-122.210	-200.000	0.073	0.337
-121.195	-81.983	-0.176	0.057
