DTS Sentinel unit serial number:	SN413079Multiplexer serial number:	ORYXHardware model number:	OX4-SRSoftware version number:	ORYX F/W v4.00 Oryx Data Collector v3.7.2.0data status	okinstallation	princeton_trtdifferential loss correction	single-endedforward channel	channel 3reverse channel	N/Adate	2019/09/15time	14:32:34forward acquisition time	60.00reverse acquisition time	0.00gamma	496.2192k internal	0.2291k external	0.2291temperature offset calibration	0.9952default loss term (dB/km)	0.3790temperature slope calibration	1.0000multiplexer offset coefficient	1.0000multiplexer slope coefficient	1.0000fibre end	0.00T internal ref (°C)	39.41T ext. ref 1 (°C)	4.91T ext. ref 2 (°C)	36.38length (m)	temperature (°C)	Stokes	anti-Stokes-747.200	-163.246	-0.217	-0.011
-746.185	-78.578	0.280	0.098
-745.171	-29.743	-0.339	-0.198
-744.156	-118.315	-0.202	-0.037
-743.142	-38.604	0.087	-0.047
-742.127	454.544	0.134	0.303
-741.112	-29.280	-0.190	0.111
-740.098	780.886	-0.087	0.243
-739.083	74.927	0.065	-0.070
-738.069	-4.450	-0.098	-0.069
-737.054	23.512	0.082	0.069
-736.039	26.672	0.041	-0.035
-735.025	-200.000	0.022	0.244
-734.010	22.058	-0.145	0.121
-732.996	800.000	-0.033	-0.128
-731.981	800.000	-0.074	0.287
-730.966	-82.775	-0.205	0.068
-729.952	-46.763	-0.376	-0.188
-728.937	-84.376	0.170	-0.055
-727.923	38.516	0.204	0.186
-726.908	234.027	-0.134	-0.225
-725.894	328.899	0.093	-0.182
-724.879	50.812	-0.157	-0.152
-723.864	188.794	-0.093	-0.143
-722.850	226.260	-0.100	-0.166
-721.835	-200.000	0.002	0.118
-720.821	-200.000	0.015	0.112
-719.806	8.353	-0.206	-0.158
-718.791	3.524	-0.070	-0.052
-717.777	113.610	-0.258	-0.320
-716.762	800.000	-0.128	-0.406
-715.748	-157.409	-0.224	0.014
-714.733	425.171	-0.051	-0.113
-713.718	-200.000	-0.034	0.198
-712.704	427.602	-0.127	0.280
-711.689	-78.946	-0.427	-0.149
-710.675	-200.000	0.006	0.177
-709.660	-31.587	-0.173	0.099
-708.645	-189.618	0.015	0.000
-707.631	237.700	-0.019	-0.032
-706.616	-200.000	-0.018	-0.365
-705.602	276.033	0.077	0.139
-704.587	-80.767	-0.078	-0.027
-703.572	-79.460	0.201	-0.070
-702.558	199.779	0.227	0.357
-701.543	19.937	0.178	-0.147
-700.529	-200.000	-0.009	-0.303
-699.514	296.442	-0.088	-0.165
-698.499	-59.144	-0.320	-0.141
-697.485	-159.044	-0.071	-0.004
-696.470	-17.569	0.218	-0.140
-695.456	250.653	0.146	0.254
-694.441	-86.009	-0.167	0.053
-693.426	-200.000	0.034	-0.217
-692.412	78.839	0.021	-0.023
-691.397	565.355	0.150	0.372
-690.383	323.657	0.048	0.093
-689.368	-148.621	0.194	0.016
-688.354	22.571	-0.182	-0.152
-687.339	-150.481	0.087	0.007
-686.324	-52.307	-0.386	-0.183
-685.310	115.314	0.141	0.176
-684.295	-200.000	0.329	0.001
-683.281	556.799	-0.075	0.184
-682.266	-94.093	-0.254	0.071
-681.251	298.411	-0.124	0.233
-680.237	-141.335	-0.282	0.029
-679.222	-103.479	-0.096	-0.023
-678.208	18.694	0.130	0.106
-677.193	-35.155	-0.112	-0.062
-676.178	800.000	0.025	0.098
-675.164	-62.614	-0.211	-0.090
-674.149	35.452	0.126	-0.113
-673.135	-59.944	-0.373	-0.163
-672.120	52.200	0.098	0.096
-671.105	-60.435	-0.088	-0.038
-670.091	-200.000	-0.036	0.269
-669.076	-200.000	-0.017	0.157
-668.062	-200.000	-0.016	-0.216
-667.047	-1.925	0.012	0.009
-666.032	-124.073	-0.248	0.040
-665.018	-174.192	0.199	-0.006
-664.003	800.000	-0.109	-0.401
-662.989	-115.315	0.545	-0.105
-661.974	77.260	-0.230	-0.250
-660.959	-123.939	-0.128	-0.021
-659.945	-200.000	-0.023	-0.267
-658.930	-200.000	-0.023	-0.230
-657.916	-95.882	0.244	0.066
-656.901	-73.564	0.265	0.099
-655.886	-78.861	0.205	-0.071
-654.872	58.333	-0.250	0.251
-653.857	-200.000	-0.028	0.129
-652.843	260.251	0.084	-0.148
-651.828	-101.713	0.341	0.084
-650.814	-23.473	0.227	0.139
-649.799	-200.000	-0.005	-0.127
-648.784	-150.158	0.336	-0.027
-647.770	21.626	-0.227	-0.189
-646.755	-72.417	0.227	-0.086
-645.741	-62.806	-0.145	0.061
-644.726	800.000	-0.027	0.118
-643.711	-85.508	0.276	0.088
-642.697	-104.164	0.046	0.011
-641.682	-179.195	0.099	0.002
-640.668	-159.111	0.204	0.012
-639.653	155.797	-0.169	0.238
-638.638	-91.076	-0.313	-0.092
-637.624	155.901	0.080	-0.112
-636.609	-200.000	-0.000	-0.246
-635.595	281.717	-0.091	0.167
-634.580	-112.875	-0.280	-0.057
-633.565	286.647	0.124	-0.228
-632.551	465.604	0.053	-0.121
-631.536	-138.371	-0.132	-0.015
-630.522	-13.779	0.174	0.115
-629.507	-75.558	0.047	0.017
-628.492	22.670	-0.229	-0.191
-627.478	800.000	-0.065	-0.219
-626.463	-117.487	-0.309	-0.057
-625.449	-81.781	-0.076	0.025
-624.434	386.725	0.062	-0.131
-623.419	-200.000	0.006	-0.106
-622.405	92.530	-0.201	-0.231
-621.390	244.198	0.136	-0.233
-620.376	-11.520	0.191	0.128
-619.361	52.072	-0.121	-0.117
-618.346	34.621	-0.194	-0.172
-617.332	-121.609	-0.170	0.029
-616.317	70.884	-0.186	0.196
-615.303	62.387	0.154	-0.156
-614.288	-24.845	-0.185	-0.112
-613.273	-16.891	0.219	-0.141
-612.259	-53.042	-0.187	0.088
-611.244	800.000	-0.018	-0.070
-610.230	-200.000	0.006	0.135
-609.215	25.616	-0.144	0.122
-608.201	-1.628	0.081	-0.058
-607.186	-51.696	0.195	-0.092
-606.171	-200.000	-0.048	-0.266
-605.157	-151.626	0.400	-0.030
-604.142	-179.497	-0.112	-0.003
-603.128	-200.000	0.016	0.105
-602.113	-200.000	-0.260	-0.000
-601.098	15.505	0.129	0.103
-600.084	31.506	0.184	-0.161
-599.069	800.000	-0.116	-0.338
-598.055	494.862	-0.009	-0.022
-597.040	-49.961	0.416	0.201
-596.025	-200.000	-0.033	0.295
-595.011	498.607	0.065	0.152
-593.996	-200.000	0.008	-0.108
-592.982	241.660	0.149	-0.254
-591.967	138.722	-0.278	0.372
-590.952	-200.000	-0.056	0.345
-589.938	-93.448	-0.169	-0.048
-588.923	11.901	0.143	0.112
-587.909	800.000	-0.121	-0.465
-586.894	-29.107	0.064	0.038
-585.879	800.000	-0.144	0.491
-584.865	89.363	0.298	-0.338
-583.850	800.000	-0.040	-0.147
-582.836	-85.970	-0.255	-0.080
-581.821	245.324	0.155	-0.265
-580.806	-115.872	0.104	-0.020
-579.792	-28.341	-0.140	0.082
-578.777	800.000	-0.029	-0.124
-577.763	23.640	0.155	0.130
-576.748	-89.737	-0.485	-0.145
-575.733	319.387	-0.037	-0.071
-574.719	-129.243	0.233	-0.033
-573.704	-20.103	0.052	-0.032
-572.690	800.000	0.040	0.169
-571.675	-200.000	0.060	-0.432
-570.661	-61.397	0.195	-0.084
-569.646	587.775	-0.121	-0.303
-568.631	-41.998	-0.075	0.039
-567.617	800.000	-0.055	0.187
-566.602	800.000	0.052	-0.196
-565.588	97.855	0.090	0.105
-564.573	250.551	0.130	-0.224
-563.558	-24.111	0.100	-0.061
-562.544	-200.000	-0.005	0.112
-561.529	525.751	-0.044	-0.105
-560.515	-130.333	-0.333	0.046
-559.500	800.000	0.037	-0.137
-558.485	-118.646	0.344	0.062
-557.471	-200.000	-0.015	0.159
-556.456	-36.868	-0.111	-0.061
-555.442	-200.000	0.030	-0.203
-554.427	-29.435	-0.263	0.153
-553.412	328.272	-0.051	-0.099
-552.398	40.941	0.152	0.139
-551.383	-33.812	0.119	0.067
-550.369	800.000	-0.031	-0.116
-549.354	-120.953	0.105	-0.018
-548.339	-125.538	-0.437	0.068
-547.325	-200.000	-0.007	0.188
-546.310	770.521	0.089	-0.246
-545.296	-103.290	-0.252	0.061
-544.281	-81.756	0.303	0.101
-543.266	800.000	-0.060	0.184
-542.252	107.855	-0.074	-0.089
-541.237	-200.000	-0.004	0.126
-540.223	80.750	-0.135	0.148
-539.208	141.052	0.099	-0.133
-538.193	-64.454	-0.116	-0.048
-537.179	339.558	-0.055	0.109
-536.164	-200.000	0.035	-0.165
-535.150	103.743	-0.233	0.278
-534.135	-119.527	-0.226	-0.040
-533.121	-82.208	-0.236	0.078
-532.106	-200.000	0.007	0.130
-531.091	704.991	-0.149	0.399
-530.077	51.598	-0.083	0.080
-529.062	189.924	-0.132	-0.202
-528.048	-200.000	0.005	-0.060
-527.033	106.474	0.349	0.420
-526.018	92.788	0.072	-0.083
-525.004	-57.031	-0.321	-0.144
-523.989	119.082	-0.117	-0.147
-522.975	604.605	0.028	0.071
-521.960	-104.705	-0.495	-0.116
-520.945	71.740	-0.054	-0.057
-519.931	561.813	0.061	0.150
-518.916	-112.618	-0.312	0.063
-517.902	38.127	0.118	-0.107
-516.887	175.625	-0.127	0.187
-515.872	800.000	-0.011	0.042
-514.858	109.235	0.083	-0.100
-513.843	-60.422	-0.267	-0.115
-512.829	-63.349	0.114	0.047
-511.814	-200.000	-0.039	-0.231
-510.799	202.203	-0.066	-0.104
-509.785	-107.557	-0.207	0.046
-508.770	-60.291	0.320	-0.138
-507.756	534.916	-0.103	-0.247
-506.741	10.722	-0.111	0.086
-505.726	187.662	0.100	-0.152
-504.712	-200.000	-0.013	-0.111
-503.697	334.210	0.125	-0.246
-502.683	-102.543	-0.085	-0.021
-501.668	-61.525	0.159	-0.068
-500.653	-200.000	-0.001	0.173
-499.639	-104.125	0.159	0.037
-498.624	-46.338	0.055	0.028
-497.610	97.862	0.194	-0.227
-496.595	214.249	0.110	0.176
-495.581	49.840	-0.323	0.309
-494.566	800.000	0.038	0.164
-493.551	-200.000	-0.015	0.377
-492.537	97.531	-0.148	-0.172
-491.522	-87.289	-0.197	-0.061
-490.508	161.227	0.046	0.065
-489.493	800.000	0.071	0.236
-488.478	252.901	0.134	-0.232
-487.464	43.635	0.044	0.041
-486.449	184.456	0.134	-0.201
-485.435	619.745	-0.042	0.108
-484.420	-200.000	0.012	-0.182
-483.405	-37.544	0.067	0.036
-482.391	125.150	-0.092	-0.117
-481.376	-200.000	-0.007	-0.044
-480.362	236.138	0.075	0.125
-479.347	575.074	0.068	-0.168
-478.332	-115.995	0.408	-0.077
-477.318	-61.517	-0.177	-0.075
-476.303	80.359	0.319	0.348
-475.289	-31.434	0.102	-0.058
-474.274	800.000	0.052	-0.217
-473.259	553.147	0.102	-0.248
-472.245	61.900	-0.049	-0.050
-471.230	102.130	-0.143	-0.169
-470.216	-31.037	-0.282	0.161
-469.201	6.639	0.245	-0.185
-468.186	751.756	0.080	-0.220
-467.172	520.615	-0.087	0.208
-466.157	-47.458	0.269	0.132
-465.143	302.507	0.155	0.291
-464.128	800.000	-0.060	-0.218
-463.113	551.671	-0.082	0.200
-462.099	155.352	0.044	0.061
-461.084	70.351	0.129	0.135
-460.070	-61.003	-0.187	-0.080
-459.055	33.736	0.187	0.165
-458.040	34.445	0.215	0.191
-457.026	242.363	0.112	-0.189
-456.011	800.000	-0.067	-0.259
-454.997	68.111	0.191	-0.198
-453.982	800.000	-0.063	-0.213
-452.968	124.948	0.115	0.147
-451.953	-104.106	-0.036	-0.009
-450.938	-110.872	0.026	-0.005
-449.924	-200.000	-0.018	-0.347
-448.909	187.234	0.041	0.062
-447.895	29.684	-0.218	0.188
-446.880	-175.682	0.137	0.004
-445.865	76.986	0.045	0.048
-444.851	68.603	0.144	-0.149
-443.836	116.896	0.310	0.385
-442.822	-8.189	-0.178	-0.121
-441.807	-76.760	-0.309	0.109
-440.792	800.000	-0.085	0.372
-439.778	-200.000	0.017	0.157
-438.763	-3.915	-0.056	-0.039
-437.749	170.260	0.107	-0.156
-436.734	256.345	0.133	0.231
-435.719	149.799	-0.179	0.246
-434.705	-64.077	0.311	-0.129
-433.690	183.283	0.132	-0.197
-432.676	-62.616	0.266	-0.112
-431.661	-200.000	0.156	0.000
-430.646	-48.189	0.199	0.097
-429.632	169.580	-0.104	-0.151
-428.617	-180.487	0.051	0.001
-427.603	39.200	-0.085	0.077
-426.588	-144.199	-0.601	-0.057
-425.573	293.127	-0.098	-0.181
-424.559	-122.046	-0.145	0.024
-423.544	800.000	-0.051	0.148
-422.530	643.426	0.017	-0.045
-421.515	-83.985	-0.349	-0.112
-420.500	424.836	-0.021	-0.046
-419.486	-51.143	0.103	0.049
-418.471	19.665	0.232	-0.189
-417.457	207.161	-0.023	-0.036
-416.442	-173.464	0.301	-0.009
-415.428	-137.336	0.044	-0.005
-414.413	-72.682	-0.478	-0.178
-413.398	-32.706	0.087	0.049
-412.384	-200.000	0.007	0.165
-411.369	-2.340	0.235	0.167
-410.355	-135.997	-0.081	-0.010
-409.340	-78.838	-0.285	0.098
-408.325	176.859	0.044	0.065
-407.311	-200.000	0.023	0.234
-406.296	266.590	0.162	0.287
-405.282	-200.000	-0.079	-0.380
-404.267	2.404	0.352	-0.258
-403.252	-88.094	0.085	0.026
-402.238	-200.000	-0.031	0.000
-401.223	-200.000	0.026	0.158
-400.209	82.984	0.099	-0.109
-399.194	-52.248	-0.170	0.080
-398.179	-129.316	-0.130	0.018
-397.165	-10.313	0.337	-0.226
-396.150	-0.573	0.256	0.184
-395.136	-200.000	-0.063	-0.292
-394.121	137.810	0.164	-0.217
-393.106	800.000	0.092	0.269
-392.092	-200.000	-0.010	0.179
-391.077	471.342	0.167	0.380
-390.063	-68.348	-0.034	0.014
-389.048	36.073	-0.218	-0.194
-388.033	-102.719	0.225	-0.054
-387.019	58.654	-0.160	-0.159
-386.004	381.563	0.124	-0.257
-384.990	-64.451	-0.278	-0.114
-383.975	194.057	-0.068	0.104
-382.960	-32.945	0.314	0.176
-381.946	-200.000	-0.005	-0.151
-380.931	44.196	-0.066	0.061
-379.917	800.000	0.036	-0.105
-378.902	-35.174	-0.162	-0.089
-377.888	-89.444	0.218	-0.065
-376.873	-68.462	-0.117	0.046
-375.858	694.388	0.032	0.085
-374.844	34.242	-0.202	0.177
-373.829	-200.000	-0.038	0.229
-372.815	173.676	0.176	-0.256
-371.800	800.000	0.045	-0.201
-370.785	-102.649	-0.029	-0.007
-369.771	-200.000	-0.000	-0.077
-368.756	-22.103	-0.024	-0.015
-367.742	230.328	-0.098	-0.162
-366.727	800.000	-0.074	0.222
-365.712	123.953	-0.075	0.095
-364.698	209.267	0.134	-0.212
-363.683	169.371	0.103	0.149
-362.669	609.141	0.104	-0.263
-361.654	209.821	-0.124	-0.196
-360.639	134.144	0.095	0.124
-359.625	-200.000	0.060	0.336
-358.610	-200.000	-0.005	0.264
-357.596	-13.844	-0.198	0.129
-356.581	445.548	0.129	-0.286
-355.566	-101.478	0.234	-0.058
-354.552	-59.928	-0.082	-0.035
-353.537	-200.000	-0.014	0.232
-352.523	-134.453	0.236	0.029
-351.508	307.441	-0.253	0.475
-350.493	-87.629	-0.169	0.052
-349.479	-57.125	0.179	-0.079
-348.464	353.850	-0.091	-0.181
-347.450	90.241	-0.194	0.218
-346.435	-4.482	-0.074	-0.052
-345.420	-3.109	-0.322	0.226
-344.406	-126.529	0.199	-0.030
-343.391	-200.000	-0.017	0.376
-342.377	-200.000	-0.028	0.136
-341.362	316.794	0.198	0.378
-340.348	179.271	0.056	0.082
-339.333	70.477	-0.142	-0.148
-338.318	10.308	0.292	-0.224
-337.304	-200.000	0.002	-0.168
-336.289	264.170	0.096	0.169
-335.275	-89.849	0.254	-0.075
-334.260	119.653	-0.126	0.158
-333.245	44.037	-0.045	0.042
-332.231	-200.000	-0.026	0.170
-331.216	-49.418	-0.117	-0.056
-330.202	-158.247	0.191	-0.011
-329.187	132.254	-0.121	0.157
-328.172	-66.962	-0.109	0.043
-327.158	62.755	-0.283	0.285
-326.143	-200.000	-0.070	-0.328
-325.129	-96.741	-0.364	0.096
-324.114	62.959	-0.025	0.025
-323.099	-200.000	-0.023	0.284
-322.085	-93.454	0.286	0.080
-321.070	800.000	-0.052	0.221
-320.056	-44.936	0.187	-0.094
-319.041	-200.000	-0.027	0.189
-318.026	98.350	0.126	-0.146
-317.012	74.078	-0.292	-0.309
-315.997	-133.814	0.150	-0.019
-314.983	-155.225	-0.231	0.015
-313.968	-72.030	0.200	-0.075
-312.953	98.738	-0.261	-0.303
-311.939	-121.622	-0.067	-0.011
-310.924	548.152	0.074	0.177
-309.910	-60.006	-0.137	0.059
-308.895	741.703	-0.035	0.095
-307.880	-69.784	0.242	-0.093
-306.866	672.018	-0.200	-0.521
-305.851	-122.099	0.189	0.031
-304.837	-83.424	-0.230	-0.074
-303.822	58.757	0.139	0.137
-302.807	50.154	-0.279	0.265
-301.793	-200.000	-0.005	-0.170
-300.778	225.233	0.098	-0.160
-299.764	-172.834	-0.170	-0.005
-298.749	-149.459	-0.449	-0.036
-297.735	-29.348	0.252	0.145
-296.720	-123.631	-0.370	-0.059
-295.705	800.000	-0.079	0.257
-294.691	-200.000	0.009	-0.184
-293.676	-200.000	0.019	-0.261
-292.662	76.570	0.269	-0.287
-291.647	-96.071	0.255	0.068
-290.632	-200.000	0.006	0.101
-289.618	55.155	-0.112	-0.109
-288.603	132.494	-0.160	-0.208
-287.589	312.218	-0.081	0.154
-286.574	800.000	0.041	0.159
-285.559	137.608	0.087	0.115
-284.545	-200.000	0.336	0.000
-283.530	-200.000	-0.013	0.084
-282.516	800.000	-0.079	-0.265
-281.501	800.000	0.062	0.242
-280.486	-109.856	-0.372	-0.079
-279.472	314.884	0.070	0.133
-278.457	-200.000	0.004	-0.040
-277.443	-119.851	0.251	0.043
-276.428	170.171	0.232	-0.334
-275.413	12.850	0.410	-0.319
-274.399	-200.000	-0.031	-0.165
-273.384	356.020	0.032	0.063
-272.370	201.771	0.051	0.080
-271.355	336.534	-0.134	0.261
-270.340	-114.620	0.075	0.014
-269.326	92.039	-0.160	0.181
-268.311	-20.026	0.158	0.098
-267.297	-10.610	0.039	-0.026
-266.282	-87.729	0.051	0.015
-265.267	286.449	-0.111	0.202
-264.253	545.563	0.179	0.430
-263.238	800.000	-0.087	0.311
-262.224	-29.095	0.195	0.112
-261.209	23.661	0.159	0.132
-260.195	677.383	-0.053	-0.139
-259.180	-177.368	0.221	-0.005
-258.165	800.000	-0.076	0.255
-257.151	126.467	-0.143	-0.181
-256.136	-48.348	-0.079	-0.038
-255.122	-154.307	-0.051	0.003
-254.107	67.311	-0.106	0.109
-253.092	13.979	-0.123	-0.096
-252.078	800.000	-0.053	-0.203
-251.063	-93.379	-0.139	-0.039
-250.049	548.151	-0.030	0.073
-249.034	-200.000	0.008	0.230
-248.019	-200.000	-0.013	-0.189
-247.005	-56.687	0.152	-0.068
-245.990	-104.028	0.261	-0.061
-244.976	-200.000	-0.061	0.413
-243.961	-12.536	0.261	0.171
-242.946	-42.419	-0.118	0.061
-241.932	178.183	-0.123	-0.181
-240.917	36.586	0.061	-0.054
-239.903	-118.344	-0.379	0.068
-238.888	-84.881	0.156	-0.049
-237.873	-92.227	-0.387	-0.110
-236.859	-42.155	0.260	0.133
-235.844	-65.956	-0.219	0.088
-234.830	97.974	-0.053	-0.061
-233.815	800.000	-0.039	-0.159
-232.800	124.416	-0.222	-0.280
-231.786	-200.000	-0.009	-0.154
-230.771	-113.391	0.435	0.086
-229.757	25.759	0.190	0.159
-228.742	115.934	0.069	0.085
-227.727	800.000	-0.059	0.217
-226.713	-134.191	-0.181	0.022
-225.698	-167.302	0.096	0.004
-224.684	-8.714	-0.127	0.085
-223.669	-51.360	0.228	0.107
-222.655	-200.000	-0.021	-0.200
-221.640	-95.602	0.143	0.038
-220.625	-141.218	0.177	0.018
-219.611	19.253	-0.090	-0.072
-218.596	88.118	-0.060	0.066
-217.582	161.034	-0.073	-0.102
-216.567	38.687	-0.161	-0.144
-215.552	-200.000	0.030	-0.138
-214.538	312.602	-0.018	-0.035
-213.523	237.186	0.066	-0.109
-212.509	-141.280	-0.281	0.029
-211.494	-148.933	-0.310	-0.025
-210.479	-82.685	0.256	-0.083
-209.465	189.013	-0.064	-0.096
-208.450	177.444	0.036	0.052
-207.436	-97.772	0.124	-0.032
-206.421	-200.000	0.026	-0.157
-205.406	-174.365	0.158	-0.005
-204.392	9.196	0.031	-0.023
-203.377	-146.085	-0.202	0.018
-202.363	-200.000	0.014	0.096
-201.348	-151.941	0.144	0.011
-200.333	-18.045	-0.089	-0.056
-199.319	155.494	0.098	0.135
-198.304	-200.000	-0.017	0.188
-197.290	105.912	-0.143	-0.170
-196.275	7.226	-0.097	-0.073
-195.260	-200.000	0.061	0.404
-194.246	-200.000	-0.024	-0.244
-193.231	-138.536	0.275	0.030
-192.217	518.170	0.040	0.093
-191.202	-200.000	0.039	0.201
-190.187	-53.973	-0.039	-0.018
-189.173	800.000	-0.027	0.090
-188.158	-142.769	-0.129	0.013
-187.144	-200.000	0.022	0.126
-186.129	88.502	-0.230	0.256
-185.114	-200.000	0.004	0.092
-184.100	-42.610	0.237	-0.121
-183.085	97.460	0.072	0.083
-182.071	-0.505	0.102	-0.073
-181.056	41.831	0.230	-0.209
-180.042	800.000	-0.087	0.255
-179.027	67.115	0.205	-0.210
-178.012	-200.000	-0.015	-0.143
-176.998	49.914	0.090	0.085
-175.983	37.857	-0.147	-0.131
-174.969	-200.000	-0.068	0.299
-173.954	-183.699	0.172	-0.003
-172.939	-200.000	0.004	0.073
-171.925	-200.000	0.035	0.315
-170.910	-32.257	0.146	0.082
-169.896	-91.137	0.494	-0.142
-168.881	-129.153	-0.275	0.038
-167.866	89.424	-0.174	-0.194
-166.852	-200.000	-0.042	-0.291
-165.837	-134.016	-0.331	-0.041
-164.823	261.463	-0.104	0.180
-163.808	174.392	0.123	0.177
-162.793	10.945	0.037	0.028
-161.779	55.710	0.017	-0.017
-160.764	-52.743	0.070	-0.032
-159.750	429.025	-0.067	-0.144
-158.735	-140.620	0.086	-0.009
-157.720	800.000	-0.094	-0.326
-156.706	-200.000	-0.000	0.031
-155.691	44.498	-0.108	0.099
-154.677	-200.000	-0.020	0.100
-153.662	141.797	-0.190	0.252
-152.647	800.000	0.118	0.363
-151.633	213.455	0.186	-0.295
-150.618	35.665	0.244	-0.215
-149.604	-154.853	0.339	0.022
-148.589	-51.075	-0.414	0.194
-147.574	95.919	0.113	-0.129
-146.560	372.972	-0.242	-0.491
-145.545	307.564	0.164	0.305
-144.531	681.345	-0.048	0.125
-143.516	800.000	-0.133	-0.396
-142.502	126.936	0.243	0.308
-141.487	-112.668	0.272	-0.054
-140.472	-67.147	0.147	-0.058
-139.458	718.711	-0.116	-0.309
-138.443	-112.932	0.218	0.043
-137.429	197.562	0.147	-0.225
-136.414	153.913	0.040	-0.055
-135.399	112.566	-0.069	-0.084
-134.385	46.459	0.212	0.197
-133.370	-10.740	-0.281	-0.186
-132.356	81.743	0.286	0.309
-131.341	-105.219	-0.237	0.054
-130.326	24.027	0.101	-0.083
-129.312	-172.621	-0.183	-0.006
-128.297	-200.000	-0.010	0.156
-127.283	268.672	-0.060	-0.105
-126.268	436.449	-0.062	-0.135
-125.253	800.000	-0.087	0.261
-124.239	-9.770	-0.109	-0.072
-123.224	-200.000	-0.003	-0.058
-122.210	800.000	-0.028	0.117
