DTS Sentinel unit serial number:	SN413079Multiplexer serial number:	ORYXHardware model number:	OX4-SRSoftware version number:	ORYX F/W v4.00 Oryx Data Collector v3.7.2.0data status	okinstallation	princeton_trtdifferential loss correction	single-endedforward channel	channel 3reverse channel	N/Adate	2019/09/16time	03:40:34forward acquisition time	60.00reverse acquisition time	0.00gamma	496.2192k internal	0.2335k external	0.2335temperature offset calibration	0.9955default loss term (dB/km)	0.3790temperature slope calibration	1.0000multiplexer offset coefficient	1.0000multiplexer slope coefficient	1.0000fibre end	0.00T internal ref (°C)	27.61T ext. ref 1 (°C)	10.62T ext. ref 2 (°C)	21.74length (m)	temperature (°C)	Stokes	anti-Stokes-747.200	800.000	-0.094	-0.270
-746.185	800.000	-0.027	0.095
-745.171	94.749	0.139	0.159
-744.156	-109.144	-0.181	-0.039
-743.142	-156.976	0.077	-0.005
-742.127	66.983	-0.140	0.143
-741.112	800.000	0.112	-0.327
-740.098	-177.759	-0.419	-0.010
-739.083	800.000	-0.033	0.140
-738.069	-45.746	-0.241	0.120
-737.054	-112.632	0.160	0.032
-736.039	129.504	-0.118	-0.152
-735.025	29.422	-0.194	0.166
-734.010	778.854	0.046	0.127
-732.996	-179.126	-0.315	-0.007
-731.981	154.328	0.091	-0.126
-730.966	153.826	-0.052	-0.071
-729.952	239.567	-0.168	-0.281
-728.937	800.000	-0.051	0.221
-727.923	-100.925	0.121	-0.030
-726.908	-9.344	-0.251	-0.169
-725.894	-149.191	-0.091	-0.007
-724.879	332.125	0.088	-0.171
-723.864	218.484	0.155	-0.249
-722.850	-200.000	0.042	0.252
-721.835	68.066	0.058	0.059
-720.821	151.396	0.036	-0.049
-719.806	-125.145	-0.202	-0.031
-718.791	87.461	0.114	0.126
-717.777	42.298	-0.142	-0.129
-716.762	264.335	-0.031	0.054
-715.748	-41.065	0.194	-0.100
-714.733	769.231	-0.099	0.269
-713.718	-200.000	0.013	-0.195
-712.704	800.000	-0.020	-0.066
-711.689	259.692	-0.014	-0.024
-710.675	-200.000	-0.002	0.369
-709.660	78.950	-0.168	0.181
-708.645	-200.000	-0.006	-0.131
-707.631	20.774	0.269	-0.219
-706.616	-200.000	-0.025	0.135
-705.602	163.986	0.083	-0.117
-704.587	81.453	-0.238	-0.258
-703.572	-83.434	-0.053	-0.017
-702.558	-116.212	-0.316	0.059
-701.543	700.325	-0.088	0.233
-700.529	117.604	-0.265	0.327
-699.514	37.223	-0.208	0.185
-698.499	24.985	-0.173	0.144
-697.485	771.900	-0.105	-0.286
-696.470	-70.949	0.228	-0.086
-695.456	312.639	-0.139	0.262
-694.441	227.942	-0.129	-0.211
-693.426	53.033	0.064	0.061
-692.412	-200.000	-0.011	-0.270
-691.397	-86.616	0.213	-0.065
-690.383	-119.356	0.221	0.039
-689.368	-177.018	-0.268	-0.007
-688.354	489.627	-0.056	0.129
-687.339	-88.194	-0.410	-0.123
-686.324	45.996	-0.255	-0.237
-685.310	139.938	-0.051	0.068
-684.295	8.940	-0.073	0.056
-683.281	39.672	0.152	0.137
-682.266	210.584	-0.108	-0.171
-681.251	-200.000	0.008	0.136
-680.237	800.000	-0.079	0.322
-679.222	273.741	0.101	0.179
-678.208	-104.520	0.171	0.040
-677.193	243.277	-0.087	-0.146
-676.178	-47.488	-0.157	-0.076
-675.164	197.845	0.173	-0.264
-674.149	800.000	0.042	-0.153
-673.135	125.457	-0.187	-0.237
-672.120	497.917	-0.145	-0.333
-671.105	35.915	0.047	0.041
-670.091	-144.284	-0.358	0.033
-669.076	-200.000	-0.041	-0.227
-668.062	69.728	-0.191	-0.197
-667.047	-59.189	-0.160	-0.069
-666.032	49.299	-0.031	-0.029
-665.018	-200.000	0.006	0.092
-664.003	-200.000	0.004	0.063
-662.989	134.106	0.036	-0.046
-661.974	-95.182	0.159	-0.043
-660.959	-200.000	-0.041	-0.234
-659.945	88.666	0.249	-0.277
-658.930	-187.638	-0.207	0.003
-657.916	800.000	-0.064	0.254
-656.901	57.937	0.364	-0.357
-655.886	-1.843	-0.079	0.055
-654.872	-130.626	0.121	0.016
-653.857	63.774	-0.136	0.137
-652.843	-93.378	-0.337	0.094
-651.828	-200.000	0.044	0.226
-650.814	-125.922	-0.086	0.013
-649.799	-73.822	0.364	-0.132
-648.784	-200.000	-0.006	-0.050
-647.770	-174.441	-0.316	0.009
-646.755	-45.225	0.265	0.132
-645.741	-93.436	-0.200	0.056
-644.726	-125.646	-0.204	0.031
-643.711	-31.188	0.197	-0.111
-642.697	251.097	0.102	0.173
-641.682	400.038	-0.114	0.240
-640.668	800.000	-0.016	-0.053
-639.653	-200.000	0.037	-0.230
-638.638	25.502	0.253	-0.210
-637.624	-200.000	-0.326	-0.002
-636.609	90.697	-0.135	-0.151
-635.595	800.000	0.103	0.399
-634.580	-179.075	0.281	-0.006
-633.565	-200.000	-0.010	-0.253
-632.551	800.000	0.071	-0.286
-631.536	-170.981	0.288	0.010
-630.522	-15.104	-0.263	-0.168
-629.507	-51.235	-0.184	-0.086
-628.492	-105.057	0.130	-0.030
-627.478	-200.000	0.007	-0.226
-626.463	-200.000	-0.031	0.320
-625.449	-45.299	0.163	0.081
-624.434	550.962	-0.072	0.173
-623.419	-200.000	-0.045	-0.321
-622.405	-137.348	-0.299	0.034
-621.390	800.000	0.031	-0.126
-620.376	497.291	0.051	0.117
-619.361	116.304	-0.053	-0.064
-618.346	180.769	0.057	-0.084
-617.332	91.326	-0.173	-0.194
-616.317	-120.581	0.241	-0.041
-615.303	433.054	-0.166	-0.361
-614.288	-40.403	-0.181	-0.094
-613.273	-141.142	-0.112	0.011
-612.259	800.000	-0.007	-0.024
-611.244	-102.692	0.201	-0.048
-610.230	-158.248	-0.225	-0.013
-609.215	-200.000	-0.032	-0.343
-608.201	54.662	-0.130	-0.126
-607.186	-200.000	0.023	0.107
-606.171	218.710	0.074	0.118
-605.157	800.000	0.080	-0.315
-604.142	800.000	-0.088	-0.376
-603.128	-124.703	-0.467	0.072
-602.113	248.286	0.088	0.148
-601.098	-39.852	0.258	0.135
-600.084	-200.000	0.019	0.089
-599.069	-200.000	-0.058	0.289
-598.055	-149.707	-0.307	-0.024
-597.040	120.325	0.085	-0.106
-596.025	-200.000	0.021	0.299
-595.011	29.303	-0.132	-0.112
-593.996	-19.200	0.173	0.107
-592.982	129.267	-0.010	0.013
-591.967	462.415	-0.135	0.300
-590.952	44.277	-0.199	0.182
-589.938	-200.000	-0.024	0.213
-588.923	-4.049	0.207	0.143
-587.909	217.138	-0.298	0.475
-586.894	329.856	-0.126	0.241
-585.879	415.182	0.132	-0.281
-584.865	94.760	-0.102	-0.115
-583.850	89.474	-0.076	-0.085
-582.836	800.000	-0.056	0.226
-581.821	800.000	0.075	0.248
-580.806	-180.244	-0.161	-0.003
-579.792	800.000	-0.022	-0.091
-578.777	-200.000	-0.029	-0.230
-577.763	82.862	-0.193	0.210
-576.748	800.000	0.044	-0.135
-575.733	168.617	0.170	-0.242
-574.719	800.000	0.119	-0.434
-573.704	-8.667	-0.168	-0.112
-572.690	-121.523	0.102	0.017
-571.675	-154.636	-0.119	0.008
-570.661	231.797	-0.140	-0.230
-569.646	800.000	0.118	-0.367
-568.631	1.955	0.072	0.051
-567.617	73.761	-0.136	0.143
-566.602	48.203	-0.313	0.292
-565.588	-59.307	0.213	-0.092
-564.573	800.000	0.046	0.196
-563.558	88.728	-0.114	0.127
-562.544	800.000	0.044	-0.151
-561.529	343.959	-0.190	-0.371
-560.515	800.000	-0.083	-0.259
-559.500	-0.690	0.274	0.194
-558.485	800.000	0.138	-0.397
-557.471	27.179	-0.240	0.201
-556.456	-200.000	-0.015	-0.084
-555.442	140.260	0.019	0.025
-554.427	-114.241	-0.323	-0.062
-553.412	-200.000	0.035	0.155
-552.398	-200.000	0.020	-0.104
-551.383	28.622	-0.311	0.262
-550.369	393.351	-0.105	-0.217
-549.354	-200.000	-0.010	-0.288
-548.339	275.753	-0.074	0.131
-547.325	-32.495	-0.460	-0.255
-546.310	-79.148	0.178	0.060
-545.296	-200.000	-0.054	-0.284
-544.281	56.179	-0.189	0.183
-543.266	-200.000	-0.017	0.186
-542.252	64.682	0.214	0.215
-541.237	53.096	-0.227	-0.216
-540.223	-43.377	-0.259	0.131
-539.208	76.048	-0.215	-0.227
-538.193	-152.820	-0.227	0.016
-537.179	97.945	-0.234	-0.268
-536.164	107.343	0.224	0.266
-535.150	-0.922	-0.126	0.089
-534.135	356.154	-0.116	-0.230
-533.121	19.847	-0.142	-0.114
-532.106	800.000	0.080	0.307
-531.091	283.371	0.095	0.171
-530.077	-200.000	0.024	0.228
-529.062	-37.441	-0.204	0.109
-528.048	-200.000	-0.044	0.336
-527.033	97.654	0.019	0.022
-526.018	33.755	-0.081	-0.070
-525.004	214.679	0.109	0.172
-523.989	58.964	0.168	0.165
-522.975	-6.888	-0.339	-0.229
-521.960	-168.200	0.193	0.007
-520.945	-7.236	-0.172	-0.116
-519.931	-200.000	0.045	0.255
-518.916	-138.114	0.306	-0.034
-517.902	-102.000	-0.156	-0.037
-516.887	-200.000	-0.031	0.397
-515.872	-17.309	-0.236	0.148
-514.858	-200.000	-0.006	-0.239
-513.843	-30.090	-0.212	0.120
-512.829	23.167	-0.031	0.026
-511.814	3.084	0.019	0.014
-510.799	91.394	0.219	0.245
-509.785	92.762	0.381	-0.428
-508.770	-28.213	0.220	-0.126
-507.756	-200.000	-0.011	0.182
-506.741	153.850	0.007	0.009
-505.726	-126.208	0.370	0.055
-504.712	-79.775	-0.225	0.076
-503.697	230.495	-0.087	0.141
-502.683	-142.580	0.191	-0.019
-501.668	601.659	0.016	-0.039
-500.653	123.658	-0.325	-0.406
-499.639	800.000	0.095	-0.404
-498.624	-200.000	0.013	-0.285
-497.610	800.000	-0.084	0.325
-496.595	-127.070	-0.348	0.051
-495.581	-40.904	0.162	0.084
-494.566	-69.920	-0.128	-0.049
-493.551	-200.000	-0.052	-0.309
-492.537	797.437	0.070	-0.191
-491.522	-54.825	0.100	0.045
-490.508	-155.845	0.191	0.012
-489.493	-80.865	-0.162	-0.053
-488.478	-148.184	0.228	0.019
-487.464	800.000	0.022	0.068
-486.449	142.848	0.182	0.241
-485.435	-81.238	0.291	-0.096
-484.420	-1.439	-0.156	-0.110
-483.405	122.501	0.126	-0.156
-482.391	33.323	0.390	-0.336
-481.376	-34.492	-0.365	0.199
-480.362	-90.043	0.085	-0.025
-479.347	-17.248	0.136	0.085
-478.332	800.000	-0.079	0.248
-477.318	-200.000	-0.016	-0.183
-476.303	-200.000	-0.026	-0.307
-475.289	-178.964	0.058	-0.001
-474.274	-200.000	0.112	0.575
-473.259	32.444	0.130	-0.111
-472.245	329.624	0.188	-0.360
-471.230	-200.000	-0.000	0.072
-470.216	800.000	0.087	-0.248
-469.201	-95.897	0.084	0.022
-468.186	800.000	0.040	0.156
-467.172	136.686	-0.117	0.152
-466.157	603.858	-0.056	-0.138
-465.143	-200.000	-0.010	0.177
-464.128	-103.001	0.187	-0.044
-463.113	101.445	0.209	0.241
-462.099	106.200	0.223	-0.263
-461.084	-43.911	-0.158	-0.079
-460.070	-195.782	0.198	-0.001
-459.055	-72.052	0.165	0.061
-458.040	-200.000	-0.077	-0.416
-457.026	-92.558	-0.240	-0.067
-456.011	-79.839	-0.238	0.079
-454.997	715.575	-0.058	0.152
-453.982	-134.490	0.212	0.026
-452.968	-34.817	0.150	-0.081
-451.953	-81.024	0.183	0.060
-450.938	413.542	0.107	-0.225
-449.924	-28.928	0.171	0.098
-448.909	419.962	0.036	0.076
-447.895	-139.099	0.086	0.009
-446.880	94.937	-0.017	-0.019
-445.865	-99.893	-0.295	0.073
-444.851	-44.412	-0.087	-0.043
-443.836	195.785	-0.225	-0.339
-442.822	-37.871	0.233	-0.123
-441.807	245.794	0.126	-0.211
-440.792	290.367	-0.110	-0.199
-439.778	-200.000	0.012	0.080
-438.763	471.045	-0.056	-0.125
-437.749	184.106	0.168	-0.246
-436.734	119.361	-0.103	-0.127
-435.719	32.284	0.119	0.102
-434.705	150.221	-0.123	0.165
-433.690	-65.810	0.295	0.117
-432.676	-200.000	0.034	0.204
-431.661	-51.161	0.068	-0.032
-430.646	-200.000	0.016	-0.119
-429.632	-156.990	-0.314	-0.019
-428.617	-200.000	0.005	0.275
-427.603	-71.936	-0.267	0.099
-426.588	-28.503	0.071	-0.041
-425.573	-200.000	-0.002	0.059
-424.559	-55.687	-0.249	0.111
-423.544	-152.745	0.310	0.022
-422.530	-42.029	0.058	-0.029
-421.515	83.292	-0.120	-0.130
-420.500	-74.181	-0.299	-0.107
-419.486	66.530	-0.089	0.090
-418.471	102.602	0.208	0.241
-417.457	-42.747	-0.063	-0.032
-416.442	-200.000	-0.045	-0.257
-415.428	439.404	0.023	-0.050
-414.413	-109.218	0.145	0.031
-413.398	-160.844	-0.120	0.006
-412.384	-12.427	0.078	0.051
-411.369	-128.786	-0.181	-0.025
-410.355	259.377	-0.086	-0.148
-409.340	62.341	-0.056	0.055
-408.325	800.000	-0.010	-0.037
-407.311	-200.000	0.017	0.117
-406.296	-133.528	0.407	0.051
-405.282	800.000	0.053	-0.199
-404.267	55.711	-0.165	0.158
-403.252	283.307	0.034	0.060
-402.238	-52.219	-0.139	-0.064
-401.223	-143.646	-0.292	-0.028
-400.209	206.545	0.185	0.286
-399.194	322.035	0.086	0.161
-398.179	148.485	0.118	-0.158
-397.165	103.304	0.199	-0.231
-396.150	-112.658	0.162	0.032
-395.136	-200.000	0.055	0.394
-394.121	-75.965	0.214	-0.075
-393.106	662.384	0.089	0.227
-392.092	-46.878	0.100	-0.048
-391.077	-41.487	-0.081	0.041
-390.063	-200.000	-0.058	0.312
-389.048	-200.000	-0.019	0.197
-388.033	800.000	-0.036	0.151
-387.019	113.748	-0.023	0.028
-386.004	6.713	0.089	0.066
-384.990	-153.729	-0.365	-0.025
-383.975	-200.000	-0.021	0.139
-382.960	226.768	-0.163	-0.262
-381.946	-78.075	0.138	0.047
-380.931	-75.743	0.329	-0.116
-379.917	-200.000	0.040	-0.307
-378.902	-29.461	-0.096	-0.054
-377.888	-163.238	0.186	-0.009
-376.873	-168.346	0.169	0.006
-375.858	-62.685	-0.116	0.047
-374.844	800.000	0.079	-0.293
-373.829	800.000	0.021	-0.081
-372.815	-58.991	-0.175	-0.075
-371.800	186.877	-0.106	0.156
-370.785	-57.079	0.197	-0.086
-369.771	82.253	-0.186	-0.200
-368.756	381.180	0.068	-0.139
-367.742	-46.602	0.212	-0.103
-366.727	-200.000	0.005	-0.044
-365.712	-200.000	0.038	0.238
-364.698	184.320	-0.078	0.115
-363.683	-102.183	0.194	-0.046
-362.669	588.873	-0.057	-0.140
-361.654	-129.680	0.214	-0.029
-360.639	172.690	0.084	0.119
-359.625	342.390	0.073	0.142
-358.610	263.590	-0.157	0.270
-357.596	46.233	-0.074	0.068
-356.581	50.022	-0.076	0.071
-355.566	-200.000	-0.028	0.133
-354.552	-53.407	0.338	0.153
-353.537	322.168	-0.147	-0.277
-352.523	126.337	-0.053	0.066
-351.508	-200.000	0.004	0.079
-350.493	313.656	-0.035	0.065
-349.479	-117.908	-0.198	0.035
-348.464	-200.000	-0.056	0.246
-347.450	-200.000	-0.046	-0.317
-346.435	140.935	-0.092	-0.120
-345.420	195.262	-0.111	-0.167
-344.406	-25.247	-0.093	0.055
-343.391	-59.645	-0.054	-0.023
-342.377	-136.367	0.156	0.018
-341.362	449.759	0.060	0.131
-340.348	-18.081	-0.160	0.099
-339.333	-169.342	0.162	-0.006
-338.318	525.360	-0.081	0.190
-337.304	-28.848	0.335	-0.190
-336.289	39.157	-0.331	0.293
-335.275	-86.695	-0.118	0.036
-334.260	-127.334	-0.247	0.036
-333.245	129.303	0.178	-0.225
-332.231	415.888	-0.034	-0.072
-331.216	-200.000	0.038	0.458
-330.202	-47.976	-0.246	-0.118
-329.187	-200.000	-0.016	-0.286
-328.172	105.724	0.024	-0.028
-327.158	800.000	-0.009	0.026
-326.143	-7.248	-0.058	0.039
-325.129	-134.976	-0.125	-0.015
-324.114	800.000	-0.117	0.333
-323.099	800.000	0.056	0.188
-322.085	-125.141	-0.183	0.028
-321.070	-143.985	0.152	0.014
-320.056	-200.000	-0.029	0.184
-319.041	800.000	-0.018	0.052
-318.026	7.354	0.413	-0.305
-317.012	-38.578	0.121	-0.063
-315.997	37.884	0.146	-0.129
-314.983	-200.000	0.029	-0.187
-313.968	-182.849	0.121	-0.002
-312.953	-61.265	0.084	0.035
-311.939	75.564	-0.179	0.187
-310.924	-61.501	0.190	0.079
-309.910	-200.000	-0.002	0.012
-308.895	-200.000	-0.002	-0.294
-307.880	-145.861	-0.307	-0.027
-306.866	447.240	0.038	0.083
-305.851	46.168	0.384	0.352
-304.837	557.953	0.141	0.335
-303.822	-93.613	-0.094	0.026
-302.807	-73.640	-0.363	-0.131
-301.793	-200.000	0.086	-0.427
-300.778	800.000	-0.102	0.402
-299.764	800.000	0.032	0.098
-298.749	-83.187	0.335	0.106
-297.735	-200.000	-0.011	-0.149
-296.720	-152.787	0.317	-0.022
-295.705	800.000	0.065	0.254
-294.691	-101.732	-0.259	-0.062
-293.676	-52.156	0.136	0.062
-292.662	800.000	-0.072	-0.299
-291.647	132.693	-0.171	-0.218
-290.632	520.413	-0.117	-0.270
-289.618	24.944	0.040	0.033
-288.603	-54.150	-0.099	-0.044
-287.589	227.191	-0.006	0.010
-286.574	-9.000	0.165	-0.109
-285.559	800.000	0.050	0.145
-284.545	-37.093	0.248	0.131
-283.530	704.654	-0.062	0.161
-282.516	-94.132	-0.115	0.031
-281.501	49.523	0.143	0.133
-280.486	401.608	-0.085	0.177
-279.472	-8.590	0.222	0.147
-278.457	800.000	0.093	0.334
-277.443	93.539	-0.146	0.163
-276.428	-200.000	0.000	-0.050
-275.413	74.246	0.294	-0.305
-274.399	-28.538	0.125	0.071
-273.384	800.000	0.083	0.346
-272.370	-142.879	0.195	-0.019
-271.355	44.808	0.042	-0.038
-270.340	-75.020	0.077	-0.027
-269.326	-66.906	0.324	0.126
-268.311	-200.000	0.028	0.133
-267.297	-127.450	0.186	-0.027
-266.282	-95.793	-0.129	0.034
-265.267	-100.126	-0.167	-0.041
-264.253	124.469	-0.308	0.382
-263.238	-109.199	0.071	-0.015
-262.224	105.278	-0.106	-0.124
-261.209	-20.104	0.171	0.104
-260.195	162.692	-0.128	0.177
-259.180	276.997	0.042	0.074
-258.165	65.404	0.424	0.423
-257.151	-200.000	0.016	0.383
-256.136	-28.533	-0.292	0.166
-255.122	-88.562	0.079	0.023
-254.107	-5.936	0.132	-0.089
-253.092	183.841	-0.063	-0.092
-252.078	154.273	0.023	0.031
-251.063	-112.569	-0.394	0.077
-250.049	27.020	-0.217	0.179
-249.034	56.024	-0.067	0.064
-248.019	-136.433	0.316	0.036
-247.005	-152.507	0.368	-0.026
-245.990	231.896	0.200	0.324
-244.976	303.316	-0.082	0.149
-243.961	141.197	-0.127	0.165
-242.946	-131.920	0.298	-0.038
-241.932	-17.650	-0.288	-0.178
-240.917	422.948	-0.027	-0.057
-239.903	44.667	-0.191	-0.173
-238.888	135.832	-0.112	0.144
-237.873	10.673	0.092	0.069
-236.859	153.930	0.055	0.075
-235.844	-200.000	-0.032	-0.243
-234.830	-200.000	0.010	0.106
-233.815	-148.712	-0.223	0.018
-232.800	-191.651	0.235	0.002
-231.786	-76.832	0.127	-0.044
-230.771	362.343	0.007	0.014
-229.757	-200.000	-0.025	0.135
-228.742	163.201	0.175	0.243
-227.727	-39.332	-0.109	-0.056
-226.713	299.319	0.098	-0.177
-225.698	800.000	0.119	-0.365
-224.684	800.000	-0.147	-0.484
-223.669	-200.000	0.054	0.336
-222.655	-200.000	0.061	0.292
-221.640	71.987	0.137	-0.140
-220.625	19.458	0.142	-0.113
-219.611	-141.361	-0.351	0.035
-218.596	69.520	-0.155	0.157
-217.582	-77.862	0.141	0.048
-216.567	-200.000	0.001	0.062
-215.552	-53.026	-0.450	-0.204
-214.538	-200.000	0.028	-0.196
-213.523	-111.710	-0.187	0.037
-212.509	-200.000	0.004	0.025
-211.494	116.819	-0.093	-0.112
-210.479	47.211	0.250	0.229
-209.465	40.835	0.140	0.124
-208.450	-108.640	-0.245	0.052
-207.436	205.294	-0.155	0.237
-206.421	-126.707	0.242	-0.035
-205.406	120.805	-0.173	-0.211
-204.392	155.001	0.173	-0.235
-203.377	111.662	-0.210	0.249
-202.363	205.685	-0.196	-0.300
-201.348	21.122	0.225	0.180
-200.333	-159.533	-0.123	0.007
-199.319	-56.046	-0.509	-0.223
-198.304	2.453	0.091	0.065
-197.290	-200.000	-0.021	-0.186
-196.275	87.668	0.069	-0.075
-195.260	-200.000	0.074	-0.404
-194.246	69.578	0.191	-0.193
-193.231	8.972	0.283	-0.210
-192.217	737.665	-0.091	-0.241
-191.202	319.013	0.023	-0.042
-190.187	-111.705	-0.279	0.056
-189.173	8.783	0.235	-0.174
-188.158	-200.000	0.012	-0.216
-187.144	-164.559	-0.179	-0.008
-186.129	-200.000	0.003	0.200
-185.114	-151.662	-0.176	0.013
-184.100	156.748	0.184	0.250
-183.085	-150.441	0.175	0.013
-182.071	-200.000	-0.002	0.177
-181.056	-101.445	-0.069	-0.017
-180.042	50.963	-0.143	-0.133
-179.027	154.062	-0.165	-0.223
-178.012	62.986	0.235	-0.231
-176.998	18.579	-0.149	0.117
-175.983	-45.848	-0.172	-0.084
-174.969	800.000	0.025	0.093
-173.954	450.251	0.078	-0.170
-172.939	45.454	-0.138	0.125
-171.925	-200.000	0.011	-0.338
-170.910	-200.000	-0.021	0.107
-169.896	-63.984	0.354	0.142
-168.881	-63.028	-0.085	0.035
-167.866	2.032	0.277	0.197
-166.852	375.823	-0.046	-0.092
-165.837	-184.761	-0.165	-0.003
-164.823	-126.646	0.286	-0.042
-163.808	-200.000	0.012	-0.376
-162.793	-161.792	0.094	-0.005
-161.779	-200.000	0.009	-0.126
-160.764	497.559	0.074	0.167
-159.750	-11.101	0.118	-0.076
-158.735	142.514	0.072	-0.094
-157.720	-200.000	0.016	0.217
-156.706	-13.039	-0.116	0.074
-155.691	-200.000	0.015	0.207
-154.677	440.840	0.108	-0.232
-153.662	19.060	-0.128	0.101
-152.647	1.807	0.239	-0.169
-151.633	-74.525	-0.156	-0.055
-150.618	-117.022	-0.265	-0.048
-149.604	-6.065	0.291	-0.196
-148.589	-51.016	0.272	-0.125
-147.574	-200.000	0.068	-0.298
-146.560	19.212	0.141	0.111
-145.545	-75.117	0.348	0.122
-144.531	140.919	-0.233	-0.302
-143.516	-20.133	0.159	0.096
-142.502	195.814	0.083	0.124
-141.487	56.491	0.102	-0.097
-140.472	-88.900	0.035	-0.010
-139.458	-119.804	-0.151	-0.026
-138.443	-41.629	0.181	0.091
-137.429	-79.374	-0.437	0.145
-136.414	-141.784	0.265	-0.026
-135.399	-105.355	-0.170	0.038
-134.385	-62.518	-0.250	-0.102
-133.370	-200.000	-0.041	-0.347
-132.356	-93.598	-0.101	-0.027
-131.341	5.081	0.315	-0.227
-130.326	800.000	-0.111	0.327
-129.312	-44.609	0.247	-0.121
-128.297	-116.034	-0.057	-0.010
-127.283	-32.869	0.343	0.187
-126.268	-82.126	-0.220	-0.070
-125.253	25.728	-0.099	-0.081
-124.239	37.249	0.295	0.256
-123.224	79.476	0.207	0.218
-122.210	-158.961	-0.437	0.024
-121.195	-4.523	0.515	-0.349
