DTS Sentinel unit serial number:	SN413079Multiplexer serial number:	ORYXHardware model number:	OX4-SRSoftware version number:	ORYX F/W v4.00 Oryx Data Collector v3.7.2.0data status	okinstallation	princeton_trtdifferential loss correction	single-endedforward channel	channel 3reverse channel	N/Adate	2019/09/13time	08:24:35forward acquisition time	60.00reverse acquisition time	0.00gamma	496.2192k internal	0.2333k external	0.2333temperature offset calibration	1.0140default loss term (dB/km)	0.3790temperature slope calibration	1.0000multiplexer offset coefficient	1.0000multiplexer slope coefficient	1.0000fibre end	0.00T internal ref (°C)	27.33T ext. ref 1 (°C)	4.28T ext. ref 2 (°C)	23.80length (m)	temperature (°C)	Stokes	anti-Stokes-747.200	-101.123	-0.221	-0.054
-746.185	103.742	0.041	0.048
-745.171	-200.000	-0.043	-0.237
-744.156	4.464	-0.088	-0.065
-743.142	93.545	-0.099	0.113
-742.127	219.532	-0.121	0.194
-741.112	-200.000	-0.036	0.159
-740.098	800.000	0.030	0.088
-739.083	-127.275	0.194	-0.028
-738.069	800.000	0.068	0.192
-737.054	-51.362	0.315	-0.148
-736.039	-180.645	-0.345	0.007
-735.025	800.000	0.089	0.252
-734.010	228.173	0.219	-0.358
-732.996	-0.531	0.195	0.139
-731.981	-45.841	0.382	-0.190
-730.966	-164.403	0.131	-0.006
-729.952	164.467	-0.055	-0.078
-728.937	740.284	-0.128	-0.345
-727.923	140.779	-0.103	-0.137
-726.908	800.000	0.074	-0.235
-725.894	172.395	0.166	-0.240
-724.879	-59.170	-0.108	-0.047
-723.864	-100.932	-0.376	-0.093
-722.850	-27.715	0.198	-0.115
-721.835	-97.309	0.219	-0.057
-720.821	800.000	-0.055	0.157
-719.806	36.713	0.080	0.071
-718.791	-56.052	-0.218	0.098
-717.777	-165.246	0.184	0.008
-716.762	34.547	0.087	0.077
-715.748	-200.000	-0.019	-0.473
-714.733	-133.938	-0.426	0.053
-713.718	147.616	0.038	-0.052
-712.704	-5.641	-0.163	-0.113
-711.689	-127.039	0.078	0.012
-710.675	5.764	-0.075	0.055
-709.660	-0.145	-0.137	-0.098
-708.645	-24.562	0.141	-0.084
-707.631	716.931	0.108	-0.289
-706.616	-200.000	0.264	0.001
-705.602	-200.000	-0.014	-0.131
-704.587	-65.226	-0.347	0.140
-703.572	-133.653	-0.113	-0.014
-702.558	-13.912	-0.128	-0.083
-701.543	154.536	-0.172	-0.237
-700.529	-87.825	0.269	-0.081
-699.514	-200.000	0.005	-0.088
-698.499	-36.574	-0.076	0.041
-697.485	800.000	0.050	-0.153
-696.470	21.924	0.187	0.153
-695.456	35.239	-0.223	-0.197
-694.441	800.000	-0.012	0.033
-693.426	31.082	0.129	0.111
-692.412	-85.350	-0.261	0.082
-691.397	-200.000	-0.060	-0.468
-690.383	310.884	-0.174	-0.328
-689.368	84.544	0.104	0.114
-688.354	66.231	-0.060	0.062
-687.339	-115.910	0.183	0.034
-686.324	45.519	-0.279	-0.258
-685.310	72.023	0.193	-0.202
-684.295	77.944	0.192	-0.205
-683.281	97.287	0.070	-0.081
-682.266	66.336	-0.083	0.084
-681.251	800.000	-0.126	-0.350
-680.237	209.220	-0.269	-0.423
-679.222	-96.500	0.064	0.017
-678.208	171.769	-0.059	0.085
-677.193	-75.205	-0.247	-0.089
-676.178	-26.475	0.208	0.122
-675.164	-200.000	0.002	0.184
-674.149	-200.000	-0.027	0.177
-673.135	-200.000	-0.003	0.072
-672.120	-44.683	-0.441	-0.221
-671.105	800.000	0.022	0.075
-670.091	-11.071	-0.215	0.142
-669.076	-192.998	0.166	0.001
-668.062	-171.756	-0.137	0.005
-667.047	-177.852	-0.197	-0.005
-666.032	76.242	0.234	-0.248
-665.018	-64.818	-0.190	-0.077
-664.003	-115.492	-0.249	-0.047
-662.989	-200.000	0.036	-0.284
-661.974	800.000	0.042	0.132
-660.959	-31.469	-0.118	-0.066
-659.945	-126.004	-0.196	-0.030
-658.930	-200.000	0.022	-0.368
-657.916	15.259	0.089	0.070
-656.901	-63.334	0.192	0.079
-655.886	-68.023	0.077	-0.030
-654.872	-200.000	-0.012	-0.118
-653.857	-107.890	-0.121	-0.026
-652.843	-84.045	-0.273	0.087
-651.828	-200.000	0.093	0.603
-650.814	-38.426	0.230	-0.122
-649.799	-138.632	-0.171	-0.019
-648.784	162.551	0.151	0.212
-647.770	-200.000	0.064	0.471
-646.755	-200.000	-0.011	-0.155
-645.741	-167.518	0.209	0.008
-644.726	-151.850	-0.131	-0.010
-643.711	800.000	0.044	-0.158
-642.697	-144.151	-0.095	0.009
-641.682	-132.082	-0.465	-0.061
-640.668	199.037	-0.086	0.132
-639.653	800.000	0.073	0.208
-638.638	223.748	0.201	-0.324
-637.624	-52.604	-0.292	-0.135
-636.609	301.129	0.272	0.504
-635.595	287.471	-0.181	0.328
-634.580	489.570	-0.115	0.262
-633.565	61.031	-0.253	0.251
-632.551	-65.283	0.090	0.036
-631.536	-142.351	-0.208	-0.021
-630.522	121.812	-0.064	-0.080
-629.507	-133.144	0.186	0.024
-628.492	-200.000	-0.013	0.150
-627.478	-51.401	-0.198	-0.093
-626.463	8.128	-0.205	-0.154
-625.449	-144.059	0.290	-0.027
-624.434	96.005	-0.211	0.241
-623.419	67.303	-0.251	0.256
-622.405	-8.825	0.194	-0.130
-621.390	39.185	0.093	-0.084
-620.376	339.367	-0.137	0.266
-619.361	111.452	0.113	0.137
-618.346	-155.007	-0.241	-0.016
-617.332	-26.344	0.218	-0.128
-616.317	800.000	-0.024	0.085
-615.303	478.733	-0.100	-0.226
-614.288	-200.000	0.007	0.030
-613.273	-160.789	0.229	-0.012
-612.259	-200.000	-0.015	0.067
-611.244	-62.379	-0.471	-0.196
-610.230	-93.361	-0.192	-0.053
-609.215	272.141	-0.049	0.087
-608.201	133.491	-0.190	-0.246
-607.186	800.000	-0.082	0.243
-606.171	344.709	-0.196	0.384
-605.157	-200.000	0.055	-0.460
-604.142	88.960	-0.057	-0.063
-603.128	630.849	0.062	-0.157
-602.113	102.366	-0.066	0.077
-601.098	149.113	-0.014	0.019
-600.084	-27.628	-0.100	-0.058
-599.069	166.308	0.172	0.244
-598.055	-161.932	0.202	-0.010
-597.040	800.000	-0.046	-0.155
-596.025	800.000	0.111	0.341
-595.011	139.693	-0.323	0.425
-593.996	-200.000	-0.018	0.091
-592.982	-40.342	-0.137	-0.071
-591.967	800.000	0.070	-0.258
-590.952	-147.111	0.352	-0.030
-589.938	-32.917	-0.190	0.105
-588.923	24.855	-0.082	0.068
-587.909	-124.137	-0.090	-0.014
-586.894	-44.544	0.214	0.107
-585.879	52.370	-0.118	-0.112
-584.865	529.245	0.066	-0.156
-583.850	800.000	0.013	0.038
-582.836	192.699	-0.126	0.191
-581.821	61.106	-0.169	-0.167
-580.806	185.880	-0.036	0.054
-579.792	116.499	0.132	-0.162
-578.777	544.591	-0.047	-0.112
-577.763	91.372	-0.163	-0.183
-576.748	-62.841	-0.095	0.039
-575.733	-169.647	0.131	0.005
-574.719	-71.222	0.384	0.144
-573.704	677.238	-0.131	0.340
-572.690	62.403	0.176	-0.175
-571.675	9.046	-0.067	-0.050
-570.661	-0.961	-0.162	-0.115
-569.646	14.693	-0.083	-0.065
-568.631	-40.622	-0.120	0.062
-567.617	-66.859	-0.471	0.186
-566.602	34.471	-0.161	-0.141
-565.588	-13.239	-0.258	-0.167
-564.573	70.341	0.145	-0.149
-563.558	312.683	-0.080	0.151
-562.544	556.621	0.082	0.196
-561.529	64.266	0.185	0.186
-560.515	3.859	-0.300	0.218
-559.500	28.598	0.117	0.099
-558.485	599.191	0.093	-0.230
-557.471	-43.680	0.220	0.111
-556.456	-158.702	-0.154	0.009
-555.442	-13.017	-0.256	-0.166
-554.427	26.457	-0.301	-0.251
-553.412	-200.000	0.004	0.130
-552.398	-115.779	0.100	-0.019
-551.383	-200.000	-0.086	0.508
-550.369	-13.643	-0.330	0.213
-549.354	50.047	-0.183	0.172
-548.339	56.301	0.285	0.276
-547.325	236.939	-0.111	0.183
-546.310	-200.000	-0.009	0.046
-545.296	108.287	0.065	0.078
-544.281	-87.936	-0.145	-0.044
-543.266	42.025	0.265	-0.240
-542.252	237.726	-0.148	-0.245
-541.237	225.218	-0.095	-0.153
-540.223	-200.000	0.003	-0.138
-539.208	416.796	-0.066	0.140
-538.193	41.371	-0.191	0.172
-537.179	296.654	0.085	0.156
-536.164	-72.975	-0.251	-0.092
-535.150	-37.084	-0.526	-0.281
-534.135	249.573	0.087	-0.147
-533.121	800.000	-0.022	-0.080
-532.106	694.466	-0.049	0.127
-531.091	-46.986	0.279	-0.136
-530.077	-19.918	0.436	-0.268
-529.062	-72.037	-0.257	0.095
-528.048	508.707	-0.036	-0.084
-527.033	-26.299	-0.222	-0.130
-526.018	634.369	-0.036	-0.092
-525.004	-7.982	-0.029	-0.020
-523.989	800.000	-0.155	-0.435
-522.975	265.374	0.123	0.215
-521.960	238.053	0.237	0.392
-520.945	165.424	0.123	0.174
-519.931	-51.890	0.170	-0.079
-518.916	-200.000	-0.021	-0.249
-517.902	-78.052	0.408	-0.140
-516.887	126.773	0.076	0.096
-515.872	-119.363	0.151	0.026
-514.858	40.393	0.115	-0.103
-513.843	33.981	0.130	0.113
-512.829	234.351	0.129	-0.213
-511.814	-136.710	0.216	0.025
-510.799	484.746	-0.043	0.097
-509.785	-37.809	0.097	0.051
-508.770	40.748	-0.140	-0.126
-507.756	27.090	0.201	-0.168
-506.741	-200.000	0.053	-0.332
-505.726	41.536	0.019	-0.017
-504.712	-81.054	-0.386	-0.127
-503.697	67.226	-0.173	0.176
-502.683	-94.364	0.269	0.073
-501.668	-44.255	-0.331	-0.165
-500.653	164.210	-0.121	-0.170
-499.639	12.165	-0.393	0.301
-498.624	800.000	0.040	0.141
-497.610	-200.000	-0.002	-0.171
-496.595	-97.193	0.376	-0.098
-495.581	800.000	0.112	-0.337
-494.566	268.328	0.132	-0.230
-493.551	-46.210	-0.174	-0.086
-492.537	-1.033	0.106	-0.075
-491.522	-200.000	0.034	0.153
-490.508	-200.000	0.044	-0.386
-489.493	52.900	0.102	-0.097
-488.478	800.000	0.100	0.306
-487.464	386.693	0.083	-0.171
-486.449	51.702	-0.033	-0.031
-485.435	-200.000	0.056	0.296
-484.420	800.000	0.049	0.139
-483.405	-39.102	-0.084	-0.044
-482.391	126.136	0.137	0.173
-481.376	-25.218	0.314	0.185
-480.362	189.960	0.048	-0.072
-479.347	-200.000	-0.085	0.447
-478.332	-124.872	0.228	0.035
-477.318	-42.161	-0.151	0.077
-476.303	-200.000	0.025	-0.192
-475.289	27.556	-0.134	-0.112
-474.274	-127.516	0.131	0.019
-473.259	261.073	0.051	-0.088
-472.245	514.505	-0.061	0.143
-471.230	-103.324	-0.194	0.046
-470.216	-158.539	0.204	0.012
-469.201	-200.000	0.002	-0.319
-468.186	329.710	-0.141	-0.269
-467.172	800.000	0.042	0.173
-466.157	-114.901	0.189	0.036
-465.143	-103.713	0.092	0.021
-464.128	-108.759	0.307	0.065
-463.113	49.981	-0.130	-0.122
-462.099	29.455	0.105	-0.089
-461.084	224.110	0.144	0.232
-460.070	0.103	-0.225	0.160
-459.055	314.996	0.065	-0.122
-458.040	56.217	0.228	-0.221
-457.026	756.895	0.206	-0.555
-456.011	91.929	-0.029	0.032
-454.997	-200.000	-0.008	0.056
-453.982	169.550	-0.151	-0.215
-452.968	143.185	0.179	0.237
-451.953	-149.960	-0.183	-0.014
-450.938	-200.000	0.003	-0.014
-449.924	-185.997	-0.283	-0.004
-448.909	-137.141	-0.228	0.026
-447.895	-96.864	-0.147	0.038
-446.880	-200.000	-0.031	0.161
-445.865	215.006	-0.168	0.265
-444.851	800.000	-0.108	-0.300
-443.836	-88.925	0.067	-0.020
-442.822	-200.000	-0.008	-0.203
-441.807	11.931	0.189	-0.144
-440.792	-20.156	-0.281	0.172
-439.778	29.052	0.050	0.042
-438.763	-200.000	-0.031	-0.193
-437.749	-69.267	-0.171	-0.065
-436.734	51.379	-0.213	-0.201
-435.719	52.031	0.240	-0.227
-434.705	-107.097	0.246	0.054
-433.690	-143.716	-0.161	0.015
-432.676	-61.020	0.133	0.056
-431.661	319.862	0.056	0.106
-430.646	-88.068	-0.116	-0.035
-429.632	107.917	-0.121	-0.144
-428.617	-126.275	-0.289	0.043
-427.603	1.030	0.106	0.076
-426.588	-78.007	0.163	-0.056
-425.573	-23.937	-0.253	0.150
-424.559	-200.000	0.009	0.281
-423.544	373.550	-0.033	-0.067
-422.530	800.000	-0.017	0.064
-421.515	147.561	-0.088	-0.118
-420.500	63.189	0.154	0.154
-419.486	-33.486	-0.074	0.040
-418.471	-68.661	0.249	-0.096
-417.457	-200.000	-0.055	0.354
-416.442	-119.425	-0.278	-0.048
-415.428	-148.037	0.488	0.040
-414.413	183.606	-0.031	-0.046
-413.398	800.000	0.054	0.152
-412.384	-111.983	0.155	-0.031
-411.369	800.000	-0.111	-0.310
-410.355	433.138	0.039	-0.084
-409.340	45.096	0.220	-0.201
-408.325	-200.000	-0.019	-0.294
-407.311	-80.752	-0.366	-0.121
-406.296	-77.897	0.241	0.083
-405.282	-169.826	0.017	0.001
-404.267	-81.085	-0.334	-0.110
-403.252	-125.127	0.231	0.035
-402.238	-200.000	-0.076	0.453
-401.223	-36.796	0.181	0.096
-400.209	-94.759	-0.165	-0.044
-399.194	145.943	-0.127	-0.168
-398.179	-119.983	0.165	-0.028
-397.165	414.748	0.088	0.187
-396.150	672.613	0.180	-0.464
-395.136	800.000	-0.021	0.077
-394.121	-127.308	0.398	-0.058
-393.106	-47.450	0.136	-0.066
-392.092	-59.103	-0.447	0.191
-391.077	-200.000	0.007	0.142
-390.063	-200.000	-0.068	-0.306
-389.048	138.859	-0.092	-0.120
-388.033	-0.190	0.184	0.130
-387.019	800.000	0.053	0.192
-386.004	-85.739	-0.234	0.072
-384.990	170.356	0.068	-0.097
-383.975	-145.105	0.131	0.012
-382.960	800.000	0.062	-0.177
-381.946	-200.000	0.040	-0.267
-380.931	267.248	0.106	-0.184
-379.917	-80.737	-0.428	-0.141
-378.902	469.086	0.095	-0.212
-377.888	-44.403	0.044	-0.022
-376.873	718.481	-0.076	0.199
-375.858	200.336	-0.067	0.102
-374.844	800.000	0.065	0.216
-373.829	-200.000	-0.003	0.024
-372.815	-113.405	-0.154	-0.030
-371.800	-200.000	-0.107	0.498
-370.785	800.000	-0.043	-0.125
-369.771	-116.580	-0.200	-0.036
-368.756	722.716	-0.064	-0.170
-367.742	398.217	-0.057	-0.119
-366.727	-45.054	-0.319	-0.157
-365.712	800.000	-0.008	0.030
-364.698	800.000	-0.137	-0.550
-363.683	-200.000	0.035	0.163
-362.669	-151.958	-0.103	0.007
-361.654	-200.000	0.004	0.328
-360.639	-140.297	0.107	-0.011
-359.625	-82.390	0.243	-0.078
-358.610	169.006	-0.167	-0.235
-357.596	366.662	0.159	0.317
-356.581	37.897	0.348	-0.306
-355.566	91.827	0.124	0.139
-354.552	800.000	0.052	-0.153
-353.537	-67.606	0.237	-0.092
-352.523	58.715	-0.229	0.222
-351.508	-59.977	0.117	-0.049
-350.493	-118.961	0.357	-0.062
-349.479	108.077	-0.153	0.181
-348.464	-88.744	-0.092	-0.027
-347.450	-150.602	0.150	0.011
-346.435	-53.262	-0.095	-0.043
-345.420	278.848	-0.024	0.042
-344.406	800.000	0.046	-0.170
-343.391	537.428	0.080	0.188
-342.377	-26.038	-0.189	-0.110
-341.362	-80.015	-0.261	-0.087
-340.348	-43.920	0.220	0.110
-339.333	-46.863	0.140	-0.068
-338.318	-200.000	-0.000	0.071
-337.304	154.801	-0.193	-0.263
-336.289	-139.954	-0.326	0.034
-335.275	-200.000	-0.051	-0.237
-334.260	21.808	0.198	-0.160
-333.245	156.535	0.156	0.213
-332.231	59.890	-0.338	0.331
-331.216	-200.000	-0.015	0.139
-330.202	-42.833	-0.242	-0.122
-329.187	90.042	-0.207	-0.229
-328.172	303.742	-0.068	-0.124
-327.158	169.328	0.173	0.244
-326.143	99.990	0.257	0.295
-325.129	-143.608	-0.297	0.028
-324.114	-81.641	0.427	0.139
-323.099	261.375	0.140	0.240
-322.085	246.975	-0.060	0.100
-321.070	-116.089	-0.312	-0.057
-320.056	-200.000	0.018	0.247
-319.041	256.648	0.223	0.379
-318.026	443.915	-0.084	-0.183
-317.012	-60.469	0.046	-0.019
-315.997	271.632	0.064	-0.112
-314.983	-78.050	0.180	-0.061
-313.968	26.811	0.166	0.137
-312.953	191.593	0.201	-0.300
-311.939	-36.909	0.278	0.147
-310.924	-200.000	0.023	0.147
-309.910	-200.000	-0.009	0.061
-308.895	-85.171	-0.171	0.053
-307.880	-200.000	-0.000	0.176
-306.866	24.945	0.175	-0.144
-305.851	-200.000	0.062	-0.361
-304.837	-121.227	0.143	0.024
-303.822	-110.593	-0.293	0.060
-302.807	-129.896	0.482	0.065
-301.793	537.794	-0.111	-0.260
-300.778	-200.000	0.039	-0.410
-299.764	-200.000	-0.008	0.215
-298.749	378.843	-0.073	-0.148
-297.735	-200.000	0.018	0.389
-296.720	770.514	0.082	-0.221
-295.705	-83.481	-0.186	0.059
-294.691	248.388	-0.213	-0.357
-293.676	-200.000	0.053	-0.379
-292.662	-200.000	0.051	-0.426
-291.647	-37.230	0.101	-0.053
-290.632	-125.223	-0.132	0.020
-289.618	101.427	-0.173	0.199
-288.603	-21.117	0.155	-0.094
-287.589	125.293	0.132	0.164
-286.574	-96.682	-0.077	-0.020
-285.559	174.130	0.099	0.141
-284.545	132.381	0.171	0.218
-283.530	-200.000	-0.005	0.106
-282.516	4.626	0.092	0.067
-281.501	-152.749	0.275	0.019
-280.486	56.424	0.078	0.075
-279.472	95.614	0.145	-0.163
-278.457	800.000	-0.108	-0.368
-277.443	800.000	0.078	0.221
-276.428	-184.977	0.137	0.002
-275.413	800.000	0.050	0.176
-274.399	726.580	-0.051	0.134
-273.384	-200.000	0.010	0.108
-272.370	155.717	-0.120	-0.164
-271.355	-97.992	-0.516	-0.131
-270.340	487.993	-0.112	-0.253
-269.326	409.006	0.066	-0.139
-268.311	-105.273	0.366	0.082
-267.297	404.111	0.072	0.150
-266.282	23.930	-0.266	0.217
-265.267	800.000	-0.025	0.106
-264.253	-27.993	0.082	-0.047
-263.238	-93.543	-0.374	0.102
-262.224	397.942	0.142	-0.293
-261.209	-200.000	0.013	-0.135
-260.195	-200.000	0.000	0.117
-259.180	-200.000	0.002	-0.198
-258.165	-150.506	0.138	0.010
-257.151	-65.472	0.161	0.064
-256.136	26.314	-0.281	-0.232
-255.122	14.016	0.127	-0.098
-254.107	-50.629	0.040	-0.019
-253.092	158.754	0.324	-0.444
-252.078	800.000	-0.043	0.145
-251.063	-200.000	-0.009	-0.040
-250.049	-200.000	-0.057	0.325
-249.034	-91.902	-0.223	0.062
-248.019	-123.293	0.182	-0.029
-247.005	-200.000	0.019	0.195
-245.990	-164.605	0.233	0.010
-244.976	88.145	-0.043	0.047
-243.961	-40.973	-0.197	0.100
-242.946	-23.942	0.178	-0.105
-241.932	-87.051	-0.480	-0.144
-240.917	593.923	-0.008	0.019
-239.903	15.870	-0.085	-0.066
-238.888	370.765	0.112	0.225
-237.873	-42.716	0.280	-0.141
-236.859	-51.164	0.124	0.057
-235.844	-44.527	0.262	0.129
-234.830	-200.000	-0.024	0.197
-233.815	-99.637	0.128	-0.032
-232.800	677.032	0.045	0.114
-231.786	-104.679	0.338	0.077
-230.771	175.867	-0.027	0.038
-229.757	779.779	0.108	0.290
-228.742	35.531	0.299	-0.259
-227.727	-61.912	-0.486	0.200
-226.713	-200.000	-0.012	-0.130
-225.698	561.963	0.029	-0.068
-224.684	296.192	0.115	0.208
-223.669	-38.494	-0.321	0.167
-222.655	50.305	0.160	0.149
-221.640	-200.000	-0.001	0.451
-220.625	-200.000	0.045	-0.224
-219.611	-65.638	0.337	-0.133
-218.596	-148.949	-0.153	0.012
-217.582	-113.324	0.075	-0.014
-216.567	48.912	0.129	0.119
-215.552	29.384	-0.198	-0.165
-214.538	-163.232	0.166	0.008
-213.523	800.000	0.123	-0.359
-212.509	-32.890	0.380	-0.208
-211.494	109.759	-0.214	-0.252
-210.479	311.246	0.016	-0.030
-209.465	108.577	0.135	0.159
-208.450	-47.025	0.125	0.060
-207.436	5.582	-0.169	0.123
-206.421	-2.166	0.304	-0.210
-205.406	-200.000	-0.002	-0.195
-204.392	-49.237	-0.213	-0.100
-203.377	-43.564	0.279	0.139
-202.363	800.000	-0.071	-0.258
-201.348	-84.184	0.373	0.116
-200.333	-128.001	-0.192	-0.027
-199.319	440.016	-0.154	-0.332
-198.304	115.017	-0.144	-0.173
-197.290	93.454	0.262	-0.292
-196.275	-34.256	-0.213	-0.115
-195.260	-200.000	-0.020	0.142
-194.246	-165.773	0.077	-0.003
-193.231	-129.757	-0.135	0.018
-192.217	32.174	-0.288	0.244
-191.202	203.876	0.057	0.088
-190.187	-200.000	0.027	-0.184
-189.173	-75.335	0.218	0.076
-188.158	52.258	0.206	-0.193
-187.144	-200.000	0.007	0.240
-186.129	800.000	-0.056	0.207
-185.114	-64.626	0.166	-0.066
-184.100	800.000	0.035	0.133
-183.085	-31.233	-0.254	0.141
-182.071	-113.096	0.079	-0.015
-181.056	178.524	0.153	0.220
-180.042	800.000	-0.090	0.317
-179.027	-140.033	-0.264	0.027
-178.012	800.000	0.079	0.324
-176.998	-200.000	0.022	0.258
-175.983	301.797	-0.096	0.174
-174.969	-200.000	-0.025	0.485
-173.954	-26.894	0.219	0.126
-172.939	800.000	-0.047	-0.181
-171.925	-200.000	0.067	-0.503
-170.910	42.234	-0.132	-0.118
-169.896	-22.854	-0.173	-0.103
-168.881	800.000	0.089	-0.313
-167.866	-34.636	-0.119	-0.064
-166.852	230.574	0.188	0.302
-165.837	371.572	0.051	0.102
-164.823	-200.000	-0.068	0.322
-163.808	-116.877	0.214	-0.039
-162.793	-31.446	-0.278	0.154
-161.779	-91.301	0.174	0.049
-160.764	-108.275	-0.250	0.053
-159.750	-7.735	0.111	-0.074
-158.735	110.355	-0.047	0.055
-157.720	-62.707	0.335	0.137
-156.706	-99.965	0.095	-0.023
-155.691	-154.752	-0.375	-0.024
-154.677	107.724	0.224	-0.262
-153.662	-53.353	-0.288	0.130
-152.647	390.851	-0.125	-0.256
-151.633	-200.000	0.014	-0.091
-150.618	544.420	0.130	-0.305
-149.604	800.000	-0.029	0.087
-148.589	329.035	0.297	-0.561
-147.574	-43.130	0.220	-0.110
-146.560	-79.217	0.138	0.046
-145.545	-200.000	-0.036	0.376
-144.531	465.399	0.053	0.118
-143.516	-61.466	-0.529	0.219
-142.502	-5.868	-0.014	-0.010
-141.487	-109.271	0.412	-0.086
-140.472	11.368	0.176	0.132
-139.458	300.669	-0.124	-0.224
-138.443	-34.011	-0.139	-0.075
-137.429	369.527	0.085	-0.169
-136.414	-200.000	0.040	0.298
-135.399	-78.653	-0.231	0.078
-134.385	545.358	0.103	-0.242
-133.370	800.000	-0.059	-0.182
-132.356	-135.508	0.409	-0.048
-131.341	71.303	-0.129	0.132
-130.326	800.000	0.075	-0.312
-129.312	98.475	-0.310	-0.350
-128.297	-200.000	-0.005	0.085
-127.283	-200.000	-0.020	-0.521
-126.268	800.000	0.065	-0.238
-125.253	378.698	-0.059	0.119
-124.239	-83.227	-0.338	0.107
-123.224	19.707	0.142	0.112
-122.210	800.000	-0.044	0.133
-121.195	-78.217	-0.130	0.044
