DTS Sentinel unit serial number:	SN413079Multiplexer serial number:	ORYXHardware model number:	OX4-SRSoftware version number:	ORYX F/W v4.00 Oryx Data Collector v3.7.2.0data status	okinstallation	princeton_trtdifferential loss correction	single-endedforward channel	channel 3reverse channel	N/Adate	2019/09/16time	02:56:34forward acquisition time	60.00reverse acquisition time	0.00gamma	496.2192k internal	0.2334k external	0.2334temperature offset calibration	0.9953default loss term (dB/km)	0.3790temperature slope calibration	1.0000multiplexer offset coefficient	1.0000multiplexer slope coefficient	1.0000fibre end	0.00T internal ref (°C)	27.75T ext. ref 1 (°C)	10.40T ext. ref 2 (°C)	22.18length (m)	temperature (°C)	Stokes	anti-Stokes-747.200	-2.531	-0.257	0.181
-746.185	78.471	-0.083	0.090
-745.171	-200.000	-0.064	0.360
-744.156	-200.000	0.032	0.190
-743.142	-200.000	-0.001	-0.078
-742.127	-200.000	-0.042	0.374
-741.112	97.942	0.280	-0.324
-740.098	-106.698	-0.229	-0.051
-739.083	202.911	0.049	-0.076
-738.069	76.025	0.214	0.228
-737.054	-146.425	-0.406	-0.036
-736.039	800.000	0.047	-0.134
-735.025	-106.666	0.287	-0.064
-734.010	-91.793	-0.025	-0.007
-732.996	-200.000	-0.042	0.214
-731.981	-30.159	-0.352	0.201
-730.966	800.000	0.095	-0.301
-729.952	742.729	-0.021	0.056
-728.937	0.007	0.147	0.105
-727.923	244.458	0.074	0.125
-726.908	-137.621	-0.020	-0.002
-725.894	-141.681	-0.621	0.063
-724.879	-114.235	0.080	-0.015
-723.864	-200.000	-0.047	-0.355
-722.850	451.725	-0.156	-0.346
-721.835	-200.000	-0.094	-0.557
-720.821	51.409	-0.095	0.090
-719.806	-158.997	0.367	-0.021
-718.791	-131.345	-0.303	0.040
-717.777	-22.373	0.104	-0.063
-716.762	334.601	-0.100	-0.195
-715.748	237.355	0.075	-0.125
-714.733	-67.990	-0.205	0.080
-713.718	541.715	-0.110	-0.262
-712.704	-63.678	-0.141	-0.058
-711.689	-200.000	0.052	0.245
-710.675	-79.005	-0.303	0.103
-709.660	-87.299	0.108	0.033
-708.645	800.000	0.045	0.158
-707.631	-78.609	-0.235	-0.081
-706.616	-144.642	0.337	0.031
-705.602	-127.953	-0.366	0.053
-704.587	182.983	0.106	0.157
-703.572	2.511	0.146	0.106
-702.558	312.249	0.047	-0.088
-701.543	-200.000	-0.029	-0.143
-700.529	48.397	-0.077	-0.073
-699.514	-1.853	-0.187	-0.132
-698.499	487.321	-0.096	-0.220
-697.485	-18.575	0.414	0.259
-696.470	120.256	-0.229	0.286
-695.456	-200.000	0.042	0.319
-694.441	291.163	0.055	0.100
-693.426	-95.485	0.302	0.081
-692.412	166.860	-0.148	-0.211
-691.397	10.606	-0.091	-0.070
-690.383	-200.000	0.015	-0.075
-689.368	-22.007	0.183	0.112
-688.354	185.421	-0.090	-0.134
-687.339	-97.090	0.124	-0.033
-686.324	345.160	0.042	-0.082
-685.310	594.437	-0.126	-0.312
-684.295	87.854	-0.038	0.042
-683.281	800.000	-0.028	-0.085
-682.266	-33.274	-0.325	0.181
-681.251	-200.000	-0.006	-0.185
-680.237	-38.814	0.088	0.046
-679.222	-88.598	-0.310	-0.093
-678.208	-135.139	-0.121	0.015
-677.193	-200.000	0.002	0.061
-676.178	43.420	-0.013	0.012
-675.164	-1.521	0.142	0.100
-674.149	129.779	0.100	-0.128
-673.135	-15.565	-0.341	-0.218
-672.120	-13.911	-0.165	0.107
-671.105	-200.000	0.017	-0.507
-670.091	-151.309	-0.158	0.012
-669.076	136.414	0.183	-0.239
-668.062	142.979	0.123	-0.164
-667.047	74.196	-0.141	-0.148
-666.032	-200.000	0.002	-0.450
-665.018	800.000	0.083	0.340
-664.003	476.004	0.148	0.335
-662.989	143.698	0.310	-0.414
-661.974	227.444	0.183	-0.299
-660.959	421.478	0.096	-0.207
-659.945	39.892	0.228	-0.205
-658.930	221.280	-0.128	0.207
-657.916	340.774	0.039	-0.077
-656.901	39.942	-0.154	0.139
-655.886	18.083	-0.129	-0.103
-654.872	-21.633	-0.340	-0.207
-653.857	-123.558	0.416	0.066
-652.843	126.357	0.005	0.007
-651.828	-60.290	-0.106	-0.045
-650.814	-33.895	0.192	0.106
-649.799	800.000	0.085	0.294
-648.784	189.126	0.171	-0.256
-647.770	800.000	0.072	-0.301
-646.755	380.613	-0.127	0.261
-645.741	12.314	0.100	0.077
-644.726	279.028	-0.111	-0.198
-643.711	8.632	0.026	-0.020
-642.697	31.640	0.032	-0.027
-641.682	800.000	-0.108	0.343
-640.668	-200.000	-0.021	-0.119
-639.653	-88.598	-0.260	-0.078
-638.638	3.117	-0.310	0.225
-637.624	-200.000	-0.038	0.192
-636.609	-200.000	0.031	-0.265
-635.595	369.724	0.052	0.106
-634.580	-166.424	-0.138	-0.006
-633.565	8.858	0.053	-0.040
-632.551	217.288	-0.033	-0.053
-631.536	800.000	-0.108	-0.409
-630.522	800.000	0.094	0.286
-629.507	5.122	-0.243	-0.179
-628.492	-164.271	0.013	-0.001
-627.478	-200.000	0.044	-0.307
-626.463	-106.999	0.278	0.062
-625.449	90.718	0.146	-0.164
-624.434	715.081	-0.076	0.202
-623.419	198.692	0.040	-0.061
-622.405	264.075	-0.067	-0.116
-621.390	-128.151	-0.047	-0.007
-620.376	-127.287	0.068	0.010
-619.361	284.869	-0.089	-0.161
-618.346	2.895	0.075	0.055
-617.332	0.229	-0.097	0.069
-616.317	800.000	-0.096	-0.381
-615.303	28.144	-0.135	-0.114
-614.288	295.950	0.222	0.408
-613.273	800.000	-0.062	-0.177
-612.259	-76.634	-0.255	-0.089
-611.244	538.293	-0.101	-0.241
-610.230	800.000	-0.045	-0.140
-609.215	-200.000	-0.016	0.210
-608.201	-5.039	0.145	0.100
-607.186	800.000	-0.085	-0.265
-606.171	-90.159	0.172	-0.050
-605.157	141.702	0.127	0.168
-604.142	311.608	-0.067	-0.126
-603.128	449.599	-0.032	-0.070
-602.113	-40.115	0.112	-0.058
-601.098	203.567	0.098	0.152
-600.084	165.838	-0.112	0.158
-599.069	800.000	0.046	0.150
-598.055	-164.962	-0.253	-0.011
-597.040	800.000	-0.018	-0.071
-596.025	336.469	-0.086	-0.167
-595.011	42.895	0.244	-0.222
-593.996	125.376	0.274	-0.346
-592.982	127.918	0.144	-0.183
-591.967	293.406	-0.106	0.193
-590.952	-147.213	0.144	-0.012
-589.938	-89.359	-0.133	-0.039
-588.923	199.994	0.015	0.023
-587.909	-1.099	0.259	0.183
-586.894	33.619	0.125	-0.108
-585.879	639.122	0.017	-0.044
-584.865	-80.928	-0.264	-0.087
-583.850	719.291	0.147	-0.390
-582.836	16.666	-0.062	0.049
-581.821	-7.809	-0.059	0.040
-580.806	37.597	-0.255	0.226
-579.792	-200.000	-0.026	-0.241
-578.777	525.458	-0.165	0.389
-577.763	-159.988	-0.427	0.023
-576.748	800.000	-0.163	-0.537
-575.733	371.225	0.090	0.182
-574.719	-200.000	0.071	-0.359
-573.704	-69.726	0.249	0.095
-572.690	-200.000	0.022	0.429
-571.675	-176.291	-0.171	-0.004
-570.661	-59.041	0.245	0.106
-569.646	-178.636	-0.517	0.012
-568.631	-200.000	0.022	0.193
-567.617	-111.504	0.158	-0.032
-566.602	-200.000	0.053	-0.351
-565.588	75.998	-0.063	-0.066
-564.573	60.413	0.131	-0.129
-563.558	-153.717	-0.331	-0.023
-562.544	-10.609	-0.217	0.143
-561.529	800.000	0.020	-0.072
-560.515	-110.846	-0.311	0.064
-559.500	-121.823	0.467	-0.077
-558.485	-155.173	-0.181	0.012
-557.471	800.000	0.082	0.299
-556.456	92.757	-0.162	0.183
-555.442	-63.201	0.266	-0.109
-554.427	83.576	0.087	-0.095
-553.412	800.000	-0.027	0.100
-552.398	736.099	0.072	-0.193
-551.383	68.489	-0.037	-0.038
-550.369	441.705	0.100	0.218
-549.354	-144.394	0.269	-0.025
-548.339	7.207	0.109	-0.081
-547.325	96.656	0.219	-0.250
-546.310	-71.110	-0.122	0.046
-545.296	76.458	-0.285	-0.301
-544.281	216.730	0.098	-0.155
-543.266	-200.000	-0.000	-0.062
-542.252	40.532	0.183	-0.165
-541.237	-9.480	-0.184	-0.122
-540.223	337.625	0.060	0.116
-539.208	166.189	0.251	0.354
-538.193	65.481	0.281	0.283
-537.179	37.507	0.155	0.137
-536.164	427.889	-0.188	-0.405
-535.150	-200.000	-0.015	0.166
-534.135	-51.590	-0.322	-0.150
-533.121	-77.928	-0.266	-0.092
-532.106	-24.760	0.212	0.125
-531.091	-139.400	0.413	-0.044
-530.077	-200.000	0.023	0.361
-529.062	104.514	-0.152	-0.178
-528.048	-125.301	-0.154	0.024
-527.033	-200.000	-0.045	-0.203
-526.018	-9.424	0.350	0.233
-525.004	107.746	0.118	0.140
-523.989	-200.000	-0.003	0.251
-522.975	-80.073	0.071	0.024
-521.960	-200.000	-0.002	0.114
-520.945	-129.129	0.146	0.020
-519.931	145.909	0.225	0.301
-518.916	-93.148	-0.284	0.079
-517.902	-17.410	-0.096	-0.060
-516.887	48.367	0.068	0.063
-515.872	-200.000	0.033	-0.243
-514.858	-162.140	0.009	-0.000
-513.843	-69.789	0.417	0.159
-512.829	800.000	-0.074	0.301
-511.814	-88.695	-0.136	0.040
-510.799	252.861	-0.103	-0.175
-509.785	204.660	-0.043	-0.067
-508.770	-133.483	-0.331	-0.041
-507.756	-123.405	0.156	-0.025
-506.741	457.145	-0.093	0.206
-505.726	-200.000	-0.017	0.324
-504.712	-51.986	-0.210	-0.097
-503.697	-51.496	-0.293	-0.136
-502.683	-200.000	0.013	0.455
-501.668	-200.000	0.069	-0.446
-500.653	-200.000	0.005	-0.350
-499.639	324.324	-0.091	0.173
-498.624	-48.039	-0.373	-0.180
-497.610	-23.058	-0.061	-0.037
-496.595	-200.000	0.010	-0.196
-495.581	130.434	-0.183	0.234
-494.566	512.485	0.115	0.268
-493.551	213.833	0.081	0.127
-492.537	-75.962	0.172	-0.061
-491.522	261.801	0.028	0.049
-490.508	-58.420	0.304	-0.131
-489.493	103.812	0.096	-0.112
-488.478	-26.868	-0.174	0.101
-487.464	-21.338	0.167	0.101
-486.449	800.000	0.059	0.247
-485.435	800.000	0.021	0.088
-484.420	-71.580	0.335	0.125
-483.405	-145.196	-0.103	0.009
-482.391	267.663	-0.112	0.196
-481.376	-200.000	0.018	0.175
-480.362	-90.814	0.275	0.079
-479.347	800.000	0.063	-0.274
-478.332	-200.000	-0.057	-0.439
-477.318	800.000	-0.132	0.422
-476.303	26.498	0.082	-0.068
-475.289	504.696	-0.086	-0.199
-474.274	-200.000	-0.018	-0.211
-473.259	-15.279	0.063	-0.040
-472.245	267.546	0.185	0.323
-471.230	145.327	-0.155	0.206
-470.216	170.128	-0.166	-0.236
-469.201	-171.643	-0.210	0.007
-468.186	800.000	-0.065	-0.179
-467.172	57.186	0.211	0.204
-466.157	-42.092	0.155	0.079
-465.143	-200.000	-0.013	0.225
-464.128	-77.116	-0.014	-0.005
-463.113	-200.000	-0.009	-0.188
-462.099	27.335	-0.098	0.082
-461.084	-39.536	0.376	0.196
-460.070	-53.870	-0.151	-0.068
-459.055	800.000	0.119	0.413
-458.040	-103.972	-0.345	-0.080
-457.026	-200.000	0.031	-0.162
-456.011	478.533	-0.128	0.288
-454.997	345.996	0.060	0.117
-453.982	-38.504	0.441	0.231
-452.968	800.000	0.118	-0.494
-451.953	90.729	-0.015	-0.017
-450.938	-200.000	-0.014	0.355
-449.924	-200.000	-0.039	0.265
-448.909	-200.000	-0.006	0.276
-447.895	-112.184	-0.095	0.019
-446.880	531.615	0.057	0.135
-445.865	-200.000	0.003	0.041
-444.851	105.166	0.069	-0.081
-443.836	-200.000	0.034	-0.254
-442.822	-89.934	0.385	0.112
-441.807	470.002	-0.076	0.169
-440.792	30.841	0.062	0.053
-439.778	61.282	0.134	0.132
-438.763	800.000	-0.085	-0.273
-437.749	-26.713	0.254	0.147
-436.734	30.579	-0.260	0.220
-435.719	-200.000	-0.038	-0.257
-434.705	800.000	0.087	-0.271
-433.690	268.023	-0.046	0.081
-432.676	-94.220	-0.216	-0.059
-431.661	-41.993	0.108	-0.055
-430.646	180.533	-0.102	-0.149
-429.632	21.703	-0.322	-0.261
-428.617	-151.272	0.227	0.017
-427.603	39.429	0.172	-0.153
-426.588	185.656	-0.038	-0.056
-425.573	-200.000	-0.009	-0.124
-424.559	-33.266	-0.336	-0.185
-423.544	80.108	0.082	-0.087
-422.530	-200.000	0.038	0.216
-421.515	38.521	-0.065	-0.057
-420.500	611.665	0.180	-0.446
-419.486	-198.084	-0.151	0.001
-418.471	800.000	-0.039	0.110
-417.457	26.071	0.265	-0.219
-416.442	-200.000	0.006	0.030
-415.428	575.433	-0.119	0.288
-414.413	-37.690	0.208	-0.110
-413.398	800.000	-0.031	-0.129
-412.384	433.394	-0.036	-0.078
-411.369	78.963	-0.142	-0.151
-410.355	170.864	0.079	-0.112
-409.340	59.123	0.142	-0.139
-408.325	415.564	-0.085	-0.179
-407.311	-200.000	0.004	0.063
-406.296	-200.000	0.022	0.147
-405.282	-88.803	-0.020	0.006
-404.267	81.271	-0.191	0.205
-403.252	27.636	-0.090	-0.075
-402.238	6.583	0.150	0.111
-401.223	491.388	-0.144	0.327
-400.209	-72.330	-0.455	0.167
-399.194	-41.254	0.107	-0.055
-398.179	1.618	-0.175	-0.125
-397.165	-200.000	0.040	-0.380
-396.150	-200.000	-0.006	-0.179
-395.136	-15.410	-0.141	-0.090
-394.121	46.284	0.144	0.132
-393.106	800.000	0.078	-0.255
-392.092	800.000	0.087	-0.252
-391.077	560.812	-0.092	-0.221
-390.063	-10.052	-0.236	0.155
-389.048	-70.477	0.195	0.073
-388.033	657.517	-0.087	0.223
-387.019	-122.267	0.344	0.056
-386.004	367.649	-0.040	0.080
-384.990	-19.193	-0.313	0.192
-383.975	800.000	0.132	-0.533
-382.960	-76.504	-0.361	0.126
-381.946	-200.000	0.004	-0.082
-380.931	350.333	-0.017	-0.033
-379.917	-91.078	0.412	-0.117
-378.902	800.000	-0.075	0.276
-377.888	102.576	-0.158	-0.183
-376.873	-200.000	-0.046	-0.331
-375.858	800.000	-0.116	0.379
-374.844	5.887	0.242	-0.178
-373.829	-111.509	-0.221	-0.045
-372.815	303.334	-0.055	-0.100
-371.800	53.938	0.243	0.232
-370.785	197.705	0.085	-0.129
-369.771	-198.350	0.247	-0.001
-368.756	64.809	-0.115	-0.115
-367.742	800.000	-0.072	-0.299
-366.727	-25.490	0.168	-0.098
-365.712	-200.000	-0.022	0.130
-364.698	-200.000	0.052	0.234
-363.683	-62.366	0.082	0.034
-362.669	74.646	-0.077	0.080
-361.654	5.195	0.227	-0.166
-360.639	-200.000	0.030	-0.132
-359.625	150.700	0.195	-0.262
-358.610	-51.407	-0.083	0.038
-357.596	800.000	0.057	-0.177
-356.581	-108.539	0.304	0.065
-355.566	-15.056	0.129	0.082
-354.552	-132.656	0.323	-0.041
-353.537	-143.090	-0.147	0.014
-352.523	-200.000	0.072	0.379
-351.508	800.000	0.047	-0.132
-350.493	-71.593	0.331	0.122
-349.479	-47.779	-0.197	-0.095
-348.464	-128.119	0.122	0.017
-347.450	800.000	0.072	0.247
-346.435	-191.757	0.197	0.002
-345.420	800.000	-0.015	0.047
-344.406	-91.616	-0.290	-0.082
-343.391	-200.000	0.011	0.119
-342.377	227.795	-0.039	0.063
-341.362	800.000	-0.045	0.175
-340.348	148.933	-0.240	0.322
-339.333	800.000	0.055	0.233
-338.318	279.967	0.106	-0.188
-337.304	-96.971	0.359	-0.093
-336.289	-152.398	-0.071	0.005
-335.275	32.626	-0.137	-0.117
-334.260	140.845	-0.053	-0.070
-333.245	738.960	-0.041	0.110
-332.231	-87.467	0.138	0.041
-331.216	-22.326	-0.108	0.065
-330.202	-116.698	0.140	-0.026
-329.187	311.383	0.138	-0.256
-328.172	-200.000	-0.008	0.182
-327.158	800.000	-0.047	-0.129
-326.143	-156.380	-0.290	0.018
-325.129	-200.000	0.061	-0.269
-324.114	29.925	0.251	0.211
-323.099	-101.253	-0.211	0.051
-322.085	167.411	0.077	0.108
-321.070	98.678	-0.140	0.159
-320.056	-36.522	-0.207	0.110
-319.041	-159.384	-0.224	-0.012
-318.026	-166.497	-0.284	-0.012
-317.012	-111.299	-0.400	0.081
-315.997	-19.056	0.294	-0.180
-314.983	-11.336	0.120	0.078
-313.968	-95.238	0.169	0.045
-312.953	-116.169	-0.284	-0.052
-311.939	-200.000	0.006	-0.187
-310.924	-200.000	0.061	0.294
-309.910	-58.998	-0.166	0.071
-308.895	-124.167	0.293	0.045
-307.880	197.896	-0.060	-0.091
-306.866	-40.791	-0.261	0.133
-305.851	-200.000	-0.039	0.363
-304.837	486.484	-0.083	0.187
-303.822	120.735	-0.132	0.163
-302.807	-56.725	0.196	0.086
-301.793	205.192	-0.163	0.250
-300.778	60.795	-0.221	-0.216
-299.764	-191.052	0.087	-0.001
-298.749	-25.220	0.192	0.112
-297.735	800.000	0.118	-0.470
-296.720	-139.304	0.325	0.034
-295.705	363.967	0.122	-0.242
-294.691	-68.911	0.075	-0.029
-293.676	-3.163	-0.124	0.085
-292.662	43.205	-0.088	0.079
-291.647	-144.702	-0.266	0.024
-290.632	-27.855	0.082	0.047
-289.618	-32.924	-0.068	0.038
-288.603	140.509	0.223	0.291
-287.589	3.618	0.173	-0.125
-286.574	-200.000	-0.027	0.161
-285.559	-19.692	-0.142	-0.087
-284.545	-89.087	-0.135	0.040
-283.530	-200.000	0.007	-0.204
-282.516	-95.953	0.126	0.033
-281.501	-73.246	-0.455	0.165
-280.486	-200.000	0.034	-0.275
-279.472	-18.631	0.243	0.150
-278.457	52.553	-0.045	0.042
-277.443	316.226	0.082	-0.152
-276.428	112.371	-0.117	0.139
-275.413	8.861	0.208	-0.155
-274.399	32.479	-0.173	-0.147
-273.384	-137.526	-0.246	0.027
-272.370	-200.000	0.022	0.223
-271.355	62.327	0.067	0.066
-270.340	-200.000	-0.279	0.000
-269.326	-200.000	-0.032	0.154
-268.311	-200.000	-0.002	0.174
-267.297	-171.006	0.234	-0.008
-266.282	-43.058	0.311	-0.155
-265.267	-200.000	0.029	-0.197
-264.253	-200.000	-0.009	-0.076
-263.238	800.000	-0.078	0.222
-262.224	-50.191	0.101	0.047
-261.209	-70.936	0.118	0.044
-260.195	138.758	-0.164	0.213
-259.180	800.000	0.016	0.048
-258.165	-38.567	-0.151	0.079
-257.151	-200.000	-0.009	0.144
-256.136	-127.858	0.315	0.045
-255.122	25.366	0.172	0.141
-254.107	-6.125	-0.150	-0.101
-253.092	-139.562	-0.389	0.041
-252.078	800.000	-0.058	0.176
-251.063	-75.429	0.220	-0.077
-250.049	38.285	-0.148	0.130
-249.034	-22.593	0.265	0.158
-248.019	-96.683	-0.101	-0.026
-247.005	110.040	-0.103	-0.122
-245.990	800.000	-0.139	0.408
-244.976	84.295	0.128	0.138
-243.961	-200.000	-0.040	-0.285
-242.946	70.598	0.161	-0.164
-241.932	613.791	-0.063	-0.154
-240.917	-21.142	0.285	-0.172
-239.903	59.063	0.081	0.078
-238.888	-21.176	-0.207	-0.125
-237.873	382.239	-0.080	0.162
-236.859	577.234	0.116	0.280
-235.844	149.212	0.079	0.106
-234.830	-23.775	0.088	-0.052
-233.815	-200.000	-0.002	-0.238
-232.800	-149.248	0.160	-0.013
-231.786	80.622	-0.138	0.147
-230.771	800.000	0.134	0.391
-229.757	800.000	-0.078	-0.219
-228.742	-108.687	0.444	0.094
-227.727	219.763	-0.188	0.297
-226.713	21.820	-0.307	-0.247
-225.698	141.219	-0.124	-0.161
-224.684	29.809	0.149	-0.125
-223.669	-200.000	-0.060	0.267
-222.655	-9.371	-0.185	-0.122
-221.640	-200.000	0.038	-0.391
-220.625	800.000	-0.075	-0.259
-219.611	695.961	-0.187	-0.483
-218.596	433.031	0.152	0.325
-217.582	34.005	-0.184	-0.158
-216.567	-200.000	0.192	0.000
-215.552	800.000	-0.042	0.170
-214.538	-189.763	-0.212	-0.002
-213.523	104.821	0.055	-0.064
-212.509	-151.451	-0.045	-0.003
-211.494	-68.551	-0.068	-0.026
-210.479	145.271	0.087	0.115
-209.465	378.263	0.059	0.119
-208.450	800.000	-0.080	0.258
-207.436	-200.000	-0.034	0.254
-206.421	-200.000	-0.010	0.311
-205.406	140.524	0.232	-0.301
-204.392	-43.541	-0.326	-0.162
-203.377	-82.798	-0.125	0.040
-202.363	-129.251	-0.151	-0.021
-201.348	-44.784	-0.138	-0.068
-200.333	84.760	-0.122	-0.131
-199.319	275.683	0.080	-0.140
-198.304	800.000	-0.015	-0.060
-197.290	-123.104	-0.180	0.028
-196.275	-100.257	-0.174	-0.042
-195.260	506.078	0.072	-0.163
-194.246	-118.605	-0.067	0.012
-193.231	39.978	0.132	0.117
-192.217	595.784	0.072	0.176
-191.202	419.642	0.132	-0.279
-190.187	-200.000	0.006	-0.191
-189.173	-74.939	0.083	-0.029
-188.158	-75.512	-0.281	0.098
-187.144	-78.679	0.539	-0.181
-186.129	1.317	-0.311	-0.219
-185.114	289.617	0.092	0.164
-184.100	793.724	0.075	0.204
-183.085	-51.787	-0.039	0.018
-182.071	228.497	0.107	0.172
-181.056	27.753	-0.249	-0.206
-180.042	-82.600	-0.278	0.089
-179.027	-91.062	-0.329	-0.093
-178.012	21.217	-0.218	0.174
-176.998	-106.958	-0.202	-0.044
-175.983	408.432	-0.095	0.198
-174.969	110.917	0.035	-0.042
-173.954	38.639	-0.097	0.085
-172.939	-17.879	0.198	-0.122
-171.925	-200.000	-0.033	-0.174
-170.910	-65.736	0.261	-0.103
-169.896	-53.979	0.108	-0.048
-168.881	-14.763	0.058	0.036
-167.866	-200.000	-0.261	-0.001
-166.852	-200.000	-0.057	-0.310
-165.837	-161.956	0.179	0.009
-164.823	-147.712	-0.055	-0.005
-163.808	-30.552	0.182	-0.101
-162.793	800.000	0.031	0.090
-161.779	-200.000	0.057	0.354
-160.764	45.216	-0.210	-0.190
-159.750	-95.207	0.116	0.031
-158.735	-124.608	0.290	0.044
-157.720	-67.102	-0.162	-0.063
-156.706	-19.645	0.285	0.173
-155.691	85.718	-0.128	-0.138
-154.677	-121.414	0.088	-0.014
-153.662	-96.751	0.250	0.065
-152.647	-130.621	0.161	0.021
-151.633	173.930	0.214	-0.303
-150.618	-200.000	-0.038	-0.214
-149.604	64.210	-0.185	-0.182
-148.589	406.560	0.035	0.073
-147.574	142.488	-0.073	-0.095
-146.560	436.740	0.062	-0.134
-145.545	283.697	0.048	-0.085
-144.531	-200.000	0.004	0.151
-143.516	16.950	-0.116	0.090
-142.502	-130.809	0.151	-0.020
-141.487	18.988	-0.251	-0.197
-140.472	-93.165	0.439	-0.120
-139.458	187.359	-0.112	-0.164
-138.443	-15.023	0.235	0.148
-137.429	-65.788	-0.284	0.112
-136.414	800.000	0.110	-0.315
-135.399	800.000	0.048	-0.194
-134.385	-18.134	-0.343	0.211
-133.370	-200.000	-0.016	0.075
-132.356	-16.739	0.110	-0.068
-131.341	-13.428	0.252	-0.160
-130.326	-48.518	0.085	0.040
-129.312	-72.921	0.092	0.033
-128.297	117.966	0.113	0.137
-127.283	-200.000	0.062	-0.549
-126.268	3.718	0.239	0.171
-125.253	73.655	-0.163	-0.168
-124.239	-121.633	0.223	0.036
-123.224	-200.000	-0.024	0.343
-122.210	-35.204	-0.148	-0.079
-121.195	-81.001	-0.237	0.077
