DTS Sentinel unit serial number:	SN413079Multiplexer serial number:	ORYXHardware model number:	OX4-SRSoftware version number:	ORYX F/W v4.00 Oryx Data Collector v3.7.2.0data status	okinstallation	princeton_trtdifferential loss correction	single-endedforward channel	channel 3reverse channel	N/Adate	2019/09/16time	05:36:34forward acquisition time	60.00reverse acquisition time	0.00gamma	496.2192k internal	0.2335k external	0.2335temperature offset calibration	0.9958default loss term (dB/km)	0.3790temperature slope calibration	1.0000multiplexer offset coefficient	1.0000multiplexer slope coefficient	1.0000fibre end	0.00T internal ref (°C)	27.31T ext. ref 1 (°C)	11.16T ext. ref 2 (°C)	22.07length (m)	temperature (°C)	Stokes	anti-Stokes-747.200	-127.353	-0.112	-0.016
-746.185	800.000	-0.081	0.260
-745.171	800.000	0.015	0.055
-744.156	7.838	-0.204	-0.153
-743.142	64.321	0.065	0.066
-742.127	800.000	-0.037	-0.151
-741.112	-34.639	0.290	-0.159
-740.098	-119.989	-0.388	-0.067
-739.083	-11.524	0.063	-0.042
-738.069	-200.000	0.031	-0.206
-737.054	342.703	-0.086	0.169
-736.039	41.012	-0.138	0.125
-735.025	-66.314	0.404	-0.161
-734.010	117.573	-0.134	-0.165
-732.996	73.778	-0.148	-0.156
-731.981	639.187	0.044	-0.113
-730.966	-90.308	-0.105	0.031
-729.952	-200.000	-0.009	-0.351
-728.937	-200.000	-0.035	-0.390
-727.923	-40.346	0.131	0.069
-726.908	-111.646	-0.188	0.038
-725.894	-165.049	-0.308	0.014
-724.879	114.729	0.185	-0.227
-723.864	-76.699	0.266	-0.094
-722.850	-150.392	-0.218	-0.017
-721.835	-81.451	0.277	0.092
-720.821	550.380	-0.098	-0.235
-719.806	-200.000	-0.030	0.150
-718.791	210.330	0.157	0.248
-717.777	-200.000	0.013	-0.473
-716.762	-1.538	-0.110	0.078
-715.748	116.680	-0.123	-0.152
-714.733	-72.008	-0.183	-0.068
-713.718	119.636	0.105	0.131
-712.704	150.120	0.233	-0.318
-711.689	-200.000	-0.012	-0.122
-710.675	-125.386	0.411	-0.063
-709.660	174.703	-0.189	0.275
-708.645	-124.731	0.116	0.018
-707.631	4.742	-0.096	0.071
-706.616	800.000	0.044	-0.193
-705.602	-47.797	0.336	0.163
-704.587	-21.372	0.159	0.097
-703.572	74.727	0.137	-0.145
-702.558	-66.511	-0.089	-0.035
-701.543	-115.084	-0.136	0.026
-700.529	277.530	0.185	0.330
-699.514	-200.000	-0.022	0.147
-698.499	-125.925	-0.114	0.017
-697.485	12.995	0.096	0.074
-696.470	-37.062	0.317	0.170
-695.456	366.994	-0.055	0.111
-694.441	204.556	0.143	0.222
-693.426	72.174	0.095	0.099
-692.412	800.000	-0.026	-0.089
-691.397	-71.149	-0.248	0.093
-690.383	-79.076	-0.117	-0.040
-689.368	-164.379	0.232	0.011
-688.354	150.471	0.196	-0.267
-687.339	-135.916	0.096	-0.011
-686.324	-33.244	-0.261	-0.145
-685.310	-7.792	-0.175	-0.118
-684.295	362.983	-0.050	0.101
-683.281	216.282	-0.182	0.290
-682.266	-127.688	0.288	0.042
-681.251	518.096	-0.104	-0.244
-680.237	-57.072	0.297	-0.131
-679.222	23.356	0.232	-0.191
-678.208	216.884	-0.061	-0.097
-677.193	692.558	0.090	0.237
-676.178	27.611	-0.359	0.303
-675.164	800.000	0.107	-0.467
-674.149	-109.169	-0.321	-0.068
-673.135	-200.000	-0.019	0.125
-672.120	-200.000	0.029	-0.316
-671.105	-33.202	-0.157	0.087
-670.091	271.503	0.055	-0.096
-669.076	-165.347	-0.199	-0.009
-668.062	-98.244	0.446	-0.115
-667.047	35.421	-0.265	-0.233
-666.032	800.000	-0.010	-0.031
-665.018	287.624	0.132	-0.240
-664.003	33.596	0.104	0.091
-662.989	59.019	-0.157	0.155
-661.974	37.123	0.224	-0.198
-660.959	75.330	-0.103	0.109
-659.945	-26.517	-0.053	0.031
-658.930	184.105	0.098	-0.146
-657.916	532.342	-0.108	0.257
-656.901	160.939	0.039	0.054
-655.886	194.926	-0.093	-0.142
-654.872	800.000	0.078	0.223
-653.857	210.414	-0.108	-0.169
-652.843	622.126	-0.062	-0.156
-651.828	457.334	0.076	0.169
-650.814	81.762	0.254	0.275
-649.799	-55.349	-0.207	0.093
-648.784	-200.000	-0.013	-0.160
-647.770	24.500	-0.145	0.120
-646.755	-20.250	-0.362	-0.223
-645.741	-200.000	0.023	-0.333
-644.726	-131.408	-0.538	0.071
-643.711	118.811	0.057	0.070
-642.697	-132.265	-0.134	-0.017
-641.682	-100.679	0.095	-0.023
-640.668	-81.118	-0.203	0.067
-639.653	-38.373	-0.244	0.129
-638.638	-200.000	-0.039	0.265
-637.624	318.108	-0.123	-0.233
-636.609	-174.634	0.100	-0.003
-635.595	-124.291	-0.150	0.024
-634.580	708.497	-0.047	-0.125
-633.565	-80.135	0.251	0.084
-632.551	239.264	-0.060	0.100
-631.536	-128.764	0.228	0.032
-630.522	-108.819	-0.398	0.085
-629.507	800.000	0.092	-0.285
-628.492	-39.471	-0.165	-0.086
-627.478	-200.000	-0.044	-0.207
-626.463	-69.707	0.381	-0.146
-625.449	204.161	-0.057	-0.088
-624.434	-38.821	0.166	0.088
-623.419	-102.076	0.332	0.080
-622.405	-200.000	-0.011	0.150
-621.390	329.089	0.131	-0.251
-620.376	800.000	-0.094	0.345
-619.361	-200.000	-0.020	0.333
-618.346	-200.000	0.029	0.150
-617.332	-98.926	0.296	-0.075
-616.317	800.000	-0.088	-0.250
-615.303	730.060	-0.059	0.157
-614.288	-73.797	0.136	-0.049
-613.273	38.930	-0.093	0.083
-612.259	-76.459	0.284	0.100
-611.244	-46.409	0.104	-0.051
-610.230	-95.296	0.047	-0.013
-609.215	738.497	0.038	-0.102
-608.201	-200.000	0.024	0.141
-607.186	0.519	-0.177	0.126
-606.171	94.673	-0.102	-0.116
-605.157	156.345	0.174	0.240
-604.142	-149.511	-0.199	-0.016
-603.128	23.041	-0.192	-0.157
-602.113	-200.000	-0.079	-0.412
-601.098	120.444	-0.042	0.052
-600.084	-200.000	-0.018	-0.239
-599.069	-64.110	0.113	0.046
-598.055	-200.000	0.000	-0.057
-597.040	125.885	-0.187	0.236
-596.025	-90.040	-0.210	-0.061
-595.011	-78.212	-0.180	0.062
-593.996	211.003	0.140	0.220
-592.982	-200.000	-0.007	0.075
-591.967	800.000	0.076	-0.229
-590.952	-200.000	0.015	0.097
-589.938	-200.000	0.076	0.353
-588.923	191.519	0.060	-0.091
-587.909	-101.590	0.477	0.116
-586.894	-200.000	0.050	-0.349
-585.879	46.580	-0.061	-0.057
-584.865	800.000	0.021	0.078
-583.850	-36.731	-0.165	-0.088
-582.836	10.608	-0.059	-0.045
-581.821	-41.182	0.209	-0.108
-580.806	-78.832	-0.017	0.006
-579.792	800.000	0.066	0.274
-578.777	35.569	-0.306	-0.268
-577.763	99.156	-0.050	-0.058
-576.748	56.334	-0.123	0.120
-575.733	-82.675	0.248	0.080
-574.719	-149.911	-0.440	-0.034
-573.704	-36.566	0.295	0.159
-572.690	-159.041	-0.279	-0.016
-571.675	-136.623	-0.104	0.012
-570.661	-200.000	0.027	-0.237
-569.646	-100.292	-0.034	0.008
-568.631	114.950	0.079	0.096
-567.617	-54.598	0.214	0.097
-566.602	-137.309	0.198	0.022
-565.588	-114.535	0.205	0.039
-564.573	343.712	-0.150	-0.293
-563.558	-80.278	0.156	0.052
-562.544	-38.041	-0.032	0.017
-561.529	-162.466	-0.378	0.019
-560.515	800.000	0.081	-0.340
-559.500	788.787	0.099	0.271
-558.485	-118.323	-0.231	0.041
-557.471	800.000	0.093	-0.264
-556.456	-23.330	-0.359	0.215
-555.442	-33.704	-0.208	-0.115
-554.427	212.745	0.144	-0.227
-553.412	131.127	-0.046	-0.059
-552.398	619.981	0.079	-0.198
-551.383	800.000	0.116	0.502
-550.369	800.000	-0.062	-0.270
-549.354	10.650	0.046	0.035
-548.339	-99.818	-0.088	-0.022
-547.325	89.666	0.172	-0.191
-546.310	-6.510	-0.329	-0.224
-545.296	-118.961	-0.086	-0.015
-544.281	-200.000	0.026	0.353
-543.266	800.000	-0.032	-0.088
-542.252	-200.000	-0.008	-0.107
-541.237	189.322	-0.192	-0.287
-540.223	-77.277	0.208	0.072
-539.208	84.470	-0.099	-0.108
-538.193	125.207	-0.064	-0.080
-537.179	101.949	0.209	-0.243
-536.164	-139.765	-0.194	-0.021
-535.150	214.975	0.254	-0.401
-534.135	65.005	0.066	-0.066
-533.121	71.782	-0.121	0.125
-532.106	-94.505	-0.153	-0.042
-531.091	23.748	0.086	-0.071
-530.077	-200.000	-0.001	-0.156
-529.062	363.723	0.103	-0.205
-528.048	45.928	0.097	-0.089
-527.033	152.885	-0.037	-0.051
-526.018	33.924	0.105	-0.091
-525.004	800.000	0.053	0.169
-523.989	-200.000	0.010	0.210
-522.975	-67.840	-0.200	-0.078
-521.960	-78.269	0.212	0.073
-520.945	-200.000	-0.049	-0.220
-519.931	1.146	0.118	0.084
-518.916	-200.000	-0.028	-0.159
-517.902	50.914	0.081	0.077
-516.887	-79.767	0.147	-0.049
-515.872	-123.463	-0.254	-0.040
-514.858	-200.000	-0.016	-0.284
-513.843	-179.504	-0.317	0.007
-512.829	800.000	-0.137	0.416
-511.814	48.987	-0.057	-0.054
-510.799	234.382	0.184	0.302
-509.785	214.585	-0.019	-0.030
-508.770	657.788	-0.109	0.280
-507.756	351.583	-0.097	-0.191
-506.741	50.119	-0.159	0.150
-505.726	-200.000	0.012	0.444
-504.712	126.851	-0.052	0.065
-503.697	547.136	-0.099	0.235
-502.683	-200.000	-0.015	-0.137
-501.668	-137.311	-0.256	-0.029
-500.653	178.310	-0.233	-0.339
-499.639	274.068	0.083	0.147
-498.624	-29.269	-0.270	0.154
-497.610	19.080	0.191	-0.153
-496.595	-48.647	-0.040	0.019
-495.581	-103.154	-0.259	0.061
-494.566	-200.000	0.033	-0.190
-493.551	800.000	-0.035	0.139
-492.537	46.577	0.298	0.275
-491.522	129.035	-0.252	0.320
-490.508	-68.517	0.167	-0.064
-489.493	-72.823	-0.304	0.111
-488.478	38.643	-0.185	0.165
-487.464	-128.727	0.268	0.038
-486.449	-43.501	-0.402	0.202
-485.435	-61.300	-0.188	-0.079
-484.420	800.000	-0.111	0.425
-483.405	-26.213	0.053	0.031
-482.391	537.984	-0.118	0.278
-481.376	-200.000	0.004	-0.090
-480.362	-52.480	0.159	0.073
-479.347	800.000	0.047	0.196
-478.332	-44.240	-0.116	-0.058
-477.318	-59.555	-0.365	-0.156
-476.303	141.618	-0.162	-0.213
-475.289	18.371	0.147	-0.117
-474.274	-5.822	-0.146	0.099
-473.259	69.959	0.017	-0.017
-472.245	209.468	-0.134	-0.209
-471.230	158.472	-0.118	0.163
-470.216	271.438	-0.070	-0.123
-469.201	1.681	0.178	0.128
-468.186	-22.304	-0.101	-0.061
-467.172	516.775	0.032	0.073
-466.157	593.725	0.176	-0.433
-465.143	800.000	-0.053	-0.206
-464.128	-200.000	0.024	-0.330
-463.113	800.000	0.040	0.152
-462.099	-154.846	-0.170	-0.011
-461.084	253.508	-0.083	0.141
-460.070	20.303	0.097	-0.078
-459.055	-200.000	0.040	0.173
-458.040	556.436	0.032	-0.076
-457.026	-143.393	0.219	-0.021
-456.011	-11.873	0.199	-0.130
-454.997	-111.251	-0.069	-0.014
-453.982	162.026	-0.273	-0.380
-452.968	-164.080	0.243	-0.011
-451.953	68.563	0.066	0.067
-450.938	-88.505	-0.196	-0.058
-449.924	655.592	-0.047	-0.119
-448.909	-79.554	-0.278	-0.093
-447.895	143.102	0.075	0.100
-446.880	27.560	-0.014	-0.011
-445.865	-139.097	-0.150	0.016
-444.851	-156.300	0.329	-0.021
-443.836	86.905	0.131	-0.144
-442.822	-200.000	0.017	-0.273
-441.807	-113.965	0.324	0.062
-440.792	-108.506	0.022	-0.005
-439.778	800.000	-0.019	-0.077
-438.763	-155.290	0.256	-0.017
-437.749	-70.535	0.356	0.134
-436.734	-46.962	-0.154	0.075
-435.719	-114.195	0.229	-0.044
-434.705	86.503	-0.029	-0.032
-433.690	-54.640	-0.120	0.054
-432.676	-72.026	0.101	0.037
-431.661	501.762	0.139	0.319
-430.646	-66.273	-0.261	-0.103
-429.632	-200.000	0.045	0.449
-428.617	-200.000	-0.012	-0.147
-427.603	-169.304	-0.145	0.005
-426.588	-93.542	0.219	0.060
-425.573	61.394	-0.114	-0.112
-424.559	-5.252	0.141	-0.096
-423.544	800.000	0.068	-0.188
-422.530	19.861	0.050	-0.040
-421.515	-39.793	0.364	-0.189
-420.500	0.748	-0.133	0.094
-419.486	770.719	-0.141	0.381
-418.471	-22.863	-0.128	-0.077
-417.457	-154.319	-0.120	0.008
-416.442	800.000	0.059	-0.184
-415.428	800.000	0.075	-0.219
-414.413	-63.494	-0.075	0.030
-413.398	-129.975	-0.080	0.011
-412.384	-200.000	-0.019	0.275
-411.369	-200.000	0.027	0.195
-410.355	-200.000	-0.030	0.217
-409.340	-110.208	-0.054	-0.011
-408.325	121.249	0.109	-0.135
-407.311	800.000	0.149	0.477
-406.296	800.000	-0.045	0.157
-405.282	609.045	-0.094	-0.233
-404.267	-0.371	-0.070	-0.050
-403.252	8.750	0.160	-0.120
-402.238	-200.000	0.001	-0.130
-401.223	385.545	0.056	-0.115
-400.209	-67.429	-0.033	0.013
-399.194	-49.552	0.167	0.079
-398.179	-200.000	-0.041	-0.257
-397.165	800.000	-0.073	0.245
-396.150	800.000	-0.082	-0.303
-395.136	-200.000	-0.004	0.126
-394.121	213.285	-0.018	0.028
-393.106	462.527	-0.112	0.249
-392.092	15.638	0.084	0.065
-391.077	-9.965	0.139	-0.092
-390.063	-70.926	0.076	0.028
-389.048	438.327	0.133	-0.288
-388.033	-120.112	-0.337	0.057
-387.019	-29.961	-0.174	-0.098
-386.004	376.560	0.090	0.182
-384.990	-39.699	-0.091	0.047
-383.975	149.843	0.112	0.150
-382.960	322.650	0.020	-0.037
-381.946	197.410	-0.065	0.098
-380.931	800.000	-0.125	0.487
-379.917	-200.000	0.008	0.099
-378.902	800.000	0.123	0.338
-377.888	-165.679	-0.179	0.008
-376.873	625.676	-0.059	-0.148
-375.858	-156.645	-0.359	0.022
-374.844	-147.293	-0.242	-0.020
-373.829	-60.863	0.164	0.069
-372.815	-105.709	0.167	0.037
-371.800	367.987	-0.031	-0.062
-370.785	800.000	-0.039	-0.110
-369.771	276.279	0.147	-0.259
-368.756	-116.716	0.199	-0.036
-367.742	-27.543	0.235	-0.135
-366.727	748.296	-0.130	-0.346
-365.712	-200.000	0.028	-0.160
-364.698	-66.198	0.028	-0.011
-363.683	-200.000	0.005	0.291
-362.669	-120.058	0.069	-0.012
-361.654	449.653	0.062	0.136
-360.639	-200.000	-0.011	0.156
-359.625	178.575	-0.082	-0.119
-358.610	-146.655	-0.364	0.031
-357.596	-122.037	0.442	-0.072
-356.581	800.000	-0.024	-0.090
-355.566	800.000	-0.065	0.180
-354.552	-19.278	0.344	-0.211
-353.537	321.548	0.084	-0.158
-352.523	-7.892	-0.118	0.079
-351.508	6.171	-0.278	-0.204
-350.493	-200.000	0.010	-0.387
-349.479	522.352	-0.014	-0.033
-348.464	800.000	-0.032	-0.137
-347.450	-40.975	0.106	-0.054
-346.435	-200.000	0.001	-0.007
-345.420	-200.000	-0.011	-0.311
-344.406	-146.404	0.283	0.024
-343.391	-33.653	0.150	0.082
-342.377	-73.109	-0.227	-0.082
-341.362	-96.701	-0.172	-0.045
-340.348	-87.557	-0.088	0.026
-339.333	800.000	0.074	0.239
-338.318	-200.000	-0.081	0.356
-337.304	91.197	0.273	0.303
-336.289	18.514	-0.199	0.157
-335.275	134.786	0.060	-0.076
-334.260	16.659	-0.122	0.095
-333.245	112.346	0.061	0.073
-332.231	-200.000	0.045	-0.202
-331.216	54.166	0.151	0.144
-330.202	-141.328	0.309	-0.031
-329.187	-200.000	0.021	-0.171
-328.172	-89.431	-0.145	-0.042
-327.158	-17.324	0.160	-0.100
-326.143	-28.511	0.079	0.045
-325.129	137.338	-0.277	-0.358
-324.114	322.716	-0.110	-0.208
-323.099	125.542	0.140	0.175
-322.085	-60.580	0.149	-0.062
-321.070	-125.171	0.549	-0.083
-320.056	21.727	0.022	-0.018
-319.041	-200.000	-0.002	-0.280
-318.026	-22.157	-0.349	-0.209
-317.012	-128.785	0.325	-0.045
-315.997	591.914	0.134	-0.328
-314.983	51.976	-0.053	-0.050
-313.968	-18.928	-0.141	-0.087
-312.953	-44.153	0.066	-0.033
-311.939	-89.573	0.054	-0.016
-310.924	213.666	-0.151	0.237
-309.910	-81.240	0.103	0.033
-308.895	-57.137	0.190	-0.083
-307.880	191.716	-0.071	-0.106
-306.866	-200.000	-0.021	-0.165
-305.851	149.901	-0.138	-0.185
-304.837	-40.329	-0.108	0.055
-303.822	342.465	-0.254	0.490
-302.807	9.991	0.207	0.155
-301.793	176.546	-0.116	0.166
-300.778	476.120	-0.148	-0.331
-299.764	58.995	0.100	-0.097
-298.749	-133.172	-0.268	0.033
-297.735	28.454	0.107	0.089
-296.720	800.000	0.056	-0.156
-295.705	646.973	-0.026	-0.065
-294.691	754.811	0.096	-0.256
-293.676	-200.000	0.056	-0.296
-292.662	-175.760	0.209	-0.006
-291.647	754.146	0.120	-0.322
-290.632	800.000	-0.032	-0.124
-289.618	-71.882	-0.068	0.025
-288.603	-50.197	-0.106	-0.049
-287.589	800.000	-0.035	0.149
-286.574	579.313	-0.129	0.311
-285.559	-67.649	-0.103	0.040
-284.545	-200.000	-0.006	0.153
-283.530	603.782	0.085	0.208
-282.516	5.615	0.282	0.205
-281.501	800.000	-0.068	-0.229
-280.486	365.800	0.163	-0.325
-279.472	-200.000	0.001	-0.185
-278.457	0.998	0.136	0.096
-277.443	-159.197	0.088	0.005
-276.428	629.642	-0.095	0.238
-275.413	76.478	0.115	0.120
-274.399	56.323	0.119	-0.114
-273.384	194.362	-0.195	-0.291
-272.370	459.803	-0.153	-0.336
-271.355	167.798	-0.095	-0.133
-270.340	-79.195	-0.283	0.095
-269.326	800.000	0.036	-0.097
-268.311	8.418	-0.154	-0.114
-267.297	-100.994	0.268	-0.065
-266.282	-200.000	0.010	0.052
-265.267	-67.806	-0.166	0.064
-264.253	53.574	0.177	-0.167
-263.238	131.576	0.174	-0.221
-262.224	-200.000	-0.009	0.042
-261.209	412.386	0.165	0.347
-260.195	-48.550	-0.191	0.090
-259.180	-64.250	-0.077	0.031
-258.165	361.127	0.238	0.470
-257.151	93.268	0.272	0.304
-256.136	92.238	0.121	0.134
-255.122	-200.000	0.048	0.230
-254.107	39.940	-0.142	-0.126
-253.092	-137.604	-0.176	0.020
-252.078	-200.000	0.025	-0.184
-251.063	333.792	-0.162	0.309
-250.049	-134.583	-0.181	0.022
-249.034	57.675	0.091	-0.088
-248.019	217.724	0.042	0.065
-247.005	-200.000	-0.000	0.121
-245.990	159.175	0.117	0.160
-244.976	85.792	0.111	-0.120
-243.961	340.626	-0.034	-0.066
-242.946	145.804	-0.076	-0.101
-241.932	198.323	0.068	-0.103
-240.917	-200.000	-0.031	-0.136
-239.903	-90.002	0.260	-0.075
-238.888	800.000	-0.064	0.253
-237.873	205.156	0.151	0.231
-236.859	-16.617	-0.275	-0.171
-235.844	23.280	-0.156	-0.126
-234.830	19.666	0.115	-0.091
-233.815	400.991	-0.067	0.139
-232.800	-89.474	0.077	-0.022
-231.786	-200.000	0.015	0.308
-230.771	-91.780	-0.295	0.083
-229.757	97.254	-0.203	0.229
-228.742	307.437	0.102	0.187
-227.727	800.000	-0.089	0.331
-226.713	378.420	-0.091	0.183
-225.698	-18.656	0.154	-0.095
-224.684	-6.603	-0.047	0.032
-223.669	117.487	0.284	0.344
-222.655	-200.000	-0.014	-0.178
-221.640	314.377	0.167	-0.309
-220.625	-72.598	-0.049	-0.018
-219.611	16.377	0.258	-0.200
-218.596	19.196	-0.235	-0.185
-217.582	107.528	-0.162	-0.189
-216.567	-200.000	0.016	-0.203
-215.552	223.851	-0.042	-0.068
-214.538	88.254	0.162	0.177
-213.523	-130.258	-0.033	0.004
-212.509	123.002	-0.154	-0.189
-211.494	-60.869	-0.415	0.173
-210.479	-49.048	0.138	0.065
-209.465	202.201	-0.163	0.248
-208.450	19.410	-0.132	0.105
-207.436	800.000	-0.038	0.107
-206.421	97.160	-0.039	-0.044
-205.406	800.000	0.025	0.088
-204.392	-62.365	0.152	0.062
-203.377	-109.576	0.021	-0.004
-202.363	232.968	0.042	0.068
-201.348	439.245	-0.100	0.215
-200.333	208.918	0.331	0.510
-199.319	800.000	0.028	-0.097
-198.304	520.812	0.116	-0.268
-197.290	-6.044	-0.129	0.086
-196.275	-200.000	-0.045	0.293
-195.260	-156.563	0.184	0.011
-194.246	82.125	0.061	0.065
-193.231	-135.971	0.414	-0.048
-192.217	318.054	-0.157	0.293
-191.202	22.143	-0.388	-0.311
-190.187	-200.000	0.001	0.041
-189.173	-200.000	0.055	0.403
-188.158	-108.587	-0.153	0.032
-187.144	-83.904	-0.453	0.142
-186.129	-200.000	0.031	0.167
-185.114	-200.000	-0.010	0.420
-184.100	800.000	0.067	0.258
-183.085	61.553	0.155	-0.152
-182.071	418.390	-0.066	0.138
-181.056	203.322	0.212	-0.323
-180.042	11.508	0.321	-0.242
-179.027	72.035	0.194	-0.199
-178.012	-32.772	-0.114	0.062
-176.998	-70.527	-0.272	0.101
-175.983	-148.138	0.253	0.021
-174.969	286.387	-0.152	0.270
-173.954	118.014	0.083	-0.101
-172.939	392.086	-0.072	0.148
-171.925	-81.542	0.308	-0.100
-170.910	-109.644	0.127	0.026
-169.896	-200.000	0.013	0.233
-168.881	-200.000	0.024	-0.120
-167.866	-200.000	-0.007	-0.194
-166.852	-38.415	0.192	-0.100
-165.837	47.918	0.150	-0.138
-164.823	800.000	0.050	0.138
-163.808	451.700	0.085	-0.185
-162.793	-75.417	0.249	-0.087
-161.779	-200.000	-0.068	0.343
-160.764	280.984	0.052	0.092
-159.750	37.699	0.067	0.058
-158.735	-44.444	0.293	-0.144
-157.720	-200.000	0.008	-0.117
-156.706	-200.000	0.032	0.375
-155.691	64.677	0.134	0.132
-154.677	30.732	0.145	-0.122
-153.662	300.616	-0.083	-0.150
-152.647	86.629	0.189	-0.205
-151.633	-156.329	0.169	-0.010
-150.618	-53.791	-0.146	-0.066
-149.604	-18.642	0.392	0.240
-148.589	-3.499	0.176	0.120
-147.574	-200.000	-0.042	0.356
-146.560	-134.482	0.468	0.056
-145.545	800.000	0.138	-0.437
-144.531	-107.759	-0.343	0.074
-143.516	-109.542	0.138	-0.028
-142.502	-185.265	-0.026	0.000
-141.487	61.379	0.337	-0.328
-140.472	-160.942	0.262	-0.014
-139.458	86.641	-0.139	-0.151
-138.443	300.341	0.165	-0.299
-137.429	26.281	0.218	0.179
-136.414	-37.328	0.105	-0.055
-135.399	700.965	0.088	-0.227
-134.385	800.000	0.036	-0.100
-133.370	-173.815	0.188	0.005
-132.356	30.698	-0.230	-0.193
-131.341	-66.418	0.183	0.071
-130.326	436.346	0.083	0.177
-129.312	140.987	0.139	0.180
-128.297	-95.749	-0.214	-0.056
-127.283	-200.000	0.028	0.166
-126.268	25.608	-0.061	-0.050
-125.253	800.000	-0.036	-0.115
-124.239	-200.000	-0.021	-0.229
-123.224	27.076	0.410	-0.337
-122.210	-28.251	-0.122	0.069
-121.195	-200.000	-0.026	0.236
