DTS Sentinel unit serial number:	SN413079Multiplexer serial number:	ORYXHardware model number:	OX4-SRSoftware version number:	ORYX F/W v4.00 Oryx Data Collector v3.7.2.0data status	okinstallation	princeton_trtdifferential loss correction	single-endedforward channel	channel 3reverse channel	N/Adate	2019/09/16time	14:12:35forward acquisition time	60.00reverse acquisition time	0.00gamma	496.2192k internal	0.2292k external	0.2292temperature offset calibration	0.9941default loss term (dB/km)	0.3790temperature slope calibration	1.0000multiplexer offset coefficient	1.0000multiplexer slope coefficient	1.0000fibre end	0.00T internal ref (°C)	42.25T ext. ref 1 (°C)	14.12T ext. ref 2 (°C)	37.18length (m)	temperature (°C)	Stokes	anti-Stokes-747.200	-105.474	-0.199	0.046
-746.185	800.000	0.060	0.226
-745.171	482.332	-0.109	-0.253
-744.156	209.170	0.075	-0.120
-743.142	-96.799	0.340	-0.092
-742.127	-200.000	0.029	0.202
-741.112	-119.076	-0.186	-0.033
-740.098	304.001	-0.232	0.441
-739.083	49.330	0.101	-0.097
-738.069	11.687	-0.209	0.164
-737.054	554.355	-0.152	0.374
-736.039	119.833	-0.147	0.186
-735.025	336.396	-0.141	0.280
-734.010	171.685	-0.069	0.101
-732.996	-48.835	-0.109	-0.054
-731.981	-134.149	-0.109	0.014
-730.966	800.000	0.040	-0.162
-729.952	-138.555	0.104	0.012
-728.937	325.881	0.051	-0.100
-727.923	-53.873	0.166	-0.077
-726.908	-200.000	0.024	-0.537
-725.894	27.069	0.373	-0.320
-724.879	800.000	0.073	-0.266
-723.864	303.357	-0.122	0.230
-722.850	85.823	-0.401	0.451
-721.835	143.599	-0.081	0.110
-720.821	-46.641	-0.233	-0.117
-719.806	-12.211	-0.042	-0.028
-718.791	-200.000	-0.003	-0.177
-717.777	416.218	0.086	-0.187
-716.762	800.000	0.102	0.291
-715.748	-69.347	0.208	0.082
-714.733	-56.040	-0.328	-0.150
-713.718	-0.644	-0.350	-0.254
-712.704	-191.916	-0.534	0.005
-711.689	-52.398	0.382	0.181
-710.675	800.000	-0.040	-0.123
-709.660	800.000	0.119	-0.337
-708.645	79.233	-0.045	-0.050
-707.631	-113.204	-0.202	0.041
-706.616	-200.000	-0.003	-0.181
-705.602	556.927	0.053	-0.131
-704.587	21.394	-0.082	0.068
-703.572	-188.309	0.219	-0.003
-702.558	54.342	-0.238	-0.234
-701.543	-41.786	0.132	0.069
-700.529	-83.751	0.209	0.068
-699.514	-112.627	0.232	0.047
-698.499	43.073	-0.186	0.173
-697.485	-108.048	-0.177	-0.039
-696.470	-200.000	-0.285	0.001
-695.456	486.100	-0.133	-0.309
-694.441	-200.000	0.036	-0.360
-693.426	-103.057	-0.166	-0.040
-692.412	800.000	0.050	0.161
-691.397	199.704	0.090	0.141
-690.383	163.415	-0.183	-0.262
-689.368	-98.738	0.249	0.065
-688.354	64.220	-0.032	-0.033
-687.339	-162.245	0.485	0.025
-686.324	5.718	-0.070	-0.053
-685.310	-21.537	-0.297	-0.185
-684.295	-200.000	0.036	-0.388
-683.281	-51.749	-0.024	-0.012
-682.266	45.276	0.122	0.115
-681.251	800.000	0.019	-0.056
-680.237	180.077	-0.056	0.084
-679.222	-80.024	-0.143	0.049
-678.208	39.801	-0.088	-0.081
-677.193	-115.707	0.165	-0.032
-676.178	-136.880	0.278	-0.033
-675.164	-119.714	-0.094	0.017
-674.149	311.681	-0.071	0.137
-673.135	-18.541	-0.100	-0.063
-672.120	-59.072	-0.156	-0.069
-671.105	-100.301	0.354	-0.090
-670.091	-200.000	-0.007	0.042
-669.076	-167.323	0.111	0.005
-668.062	-75.853	-0.036	-0.013
-667.047	-84.589	-0.185	0.059
-666.032	179.703	0.119	0.177
-665.018	-139.801	-0.025	-0.003
-664.003	-118.383	0.354	0.064
-662.989	-49.907	-0.135	-0.066
-661.974	800.000	-0.059	-0.249
-660.959	-200.000	-0.026	0.136
-659.945	-200.000	0.047	-0.276
-658.930	84.733	-0.095	-0.106
-657.916	64.632	0.047	0.048
-656.901	-200.000	0.030	-0.236
-655.886	-89.835	0.137	0.041
-654.872	114.010	-0.146	0.181
-653.857	63.113	-0.090	-0.092
-652.843	13.293	0.100	0.079
-651.828	-72.071	0.232	0.088
-650.814	23.057	0.093	-0.078
-649.799	-200.000	-0.022	0.153
-648.784	800.000	-0.113	0.426
-647.770	24.184	0.207	-0.174
-646.755	30.127	-0.138	-0.120
-645.741	37.047	0.066	-0.060
-644.726	-100.484	-0.149	-0.038
-643.711	-200.000	0.029	-0.369
-642.697	445.287	0.124	-0.277
-641.682	-147.497	0.213	0.018
-640.668	-200.000	-0.021	0.144
-639.653	181.186	0.138	-0.207
-638.638	490.607	-0.105	-0.246
-637.624	246.311	-0.140	-0.240
-636.609	800.000	0.044	0.141
-635.595	800.000	-0.034	0.114
-634.580	114.303	-0.158	-0.196
-633.565	800.000	0.126	-0.415
-632.551	326.033	-0.102	-0.200
-631.536	6.455	0.096	0.072
-630.522	1.194	0.088	0.064
-629.507	-94.480	0.258	-0.072
-628.492	-119.724	-0.109	-0.019
-627.478	586.537	-0.038	0.096
-626.463	-128.331	-0.157	-0.023
-625.449	-200.000	0.010	0.098
-624.434	-156.178	-0.231	0.015
-623.419	-83.440	-0.145	-0.047
-622.405	800.000	-0.042	-0.139
-621.390	27.115	-0.286	-0.244
-620.376	800.000	0.136	0.382
-619.361	-50.786	-0.083	0.040
-618.346	-119.473	-0.198	0.035
-617.332	800.000	-0.031	-0.104
-616.317	263.894	-0.051	-0.091
-615.303	493.197	0.005	-0.013
-614.288	-200.000	-0.027	0.393
-613.273	-136.641	0.154	-0.018
-612.259	-200.000	-0.002	0.218
-611.244	-134.864	-0.223	0.028
-610.230	800.000	0.100	-0.343
-609.215	-15.921	0.062	-0.040
-608.201	775.977	0.076	-0.212
-607.186	-92.962	0.084	-0.024
-606.171	-133.696	0.107	-0.014
-605.157	-65.789	0.296	-0.121
-604.142	304.468	0.043	-0.082
-603.128	-200.000	0.006	-0.159
-602.113	-200.000	-0.000	-0.321
-601.098	-200.000	-0.024	0.135
-600.084	-97.067	-0.290	-0.077
-599.069	-88.902	0.147	0.044
-598.055	-146.304	-0.304	0.027
-597.040	-200.000	0.038	-0.279
-596.025	9.011	-0.269	0.207
-595.011	97.700	-0.172	-0.202
-593.996	-200.000	-0.075	-0.479
-592.982	-104.762	0.085	0.020
-591.967	-64.695	0.295	0.122
-590.952	-97.436	0.040	-0.011
-589.938	-95.217	0.303	0.083
-588.923	800.000	-0.030	-0.087
-587.909	250.097	0.075	-0.129
-586.894	-147.385	-0.316	0.027
-585.879	-110.813	-0.105	-0.022
-584.865	-17.810	0.261	0.167
-583.850	44.865	0.106	-0.099
-582.836	-164.313	-0.177	0.008
-581.821	-200.000	0.032	-0.188
-580.806	-121.815	-0.103	-0.017
-579.792	-180.619	-0.121	-0.003
-578.777	758.014	-0.047	0.128
-577.763	800.000	0.059	0.183
-576.748	-59.475	-0.157	-0.069
-575.733	48.549	-0.304	0.290
-574.719	-200.000	-0.034	-0.161
-573.704	-129.062	-0.320	0.046
-572.690	146.280	0.098	0.134
-571.675	-86.859	0.210	-0.065
-570.661	800.000	0.088	-0.282
-569.646	100.903	-0.161	-0.191
-568.631	-70.265	-0.137	0.053
-567.617	-138.589	0.112	0.012
-566.602	-37.156	0.139	-0.076
-565.588	-200.000	-0.049	-0.280
-564.573	-48.100	0.329	0.162
-563.558	-84.854	0.312	0.100
-562.544	-117.961	0.104	-0.019
-561.529	800.000	-0.073	0.290
-560.515	-89.745	0.205	-0.061
-559.500	-66.728	0.038	0.015
-558.485	5.587	-0.092	-0.069
-557.471	-33.555	0.072	0.040
-556.456	352.702	0.207	0.416
-555.442	267.382	-0.105	0.186
-554.427	1.272	-0.292	0.213
-553.412	422.582	-0.063	0.138
-552.398	107.653	-0.072	-0.087
-551.383	-4.789	-0.130	-0.091
-550.369	158.008	0.140	0.197
-549.354	-200.000	0.004	0.075
-548.339	800.000	0.121	-0.356
-547.325	-200.000	-0.023	0.115
-546.310	141.950	-0.092	-0.123
-545.296	696.157	-0.244	-0.650
-544.281	-72.590	-0.199	0.074
-543.266	129.359	0.085	-0.110
-542.252	216.544	-0.108	0.174
-541.237	-122.637	-0.414	-0.068
-540.223	70.207	0.024	0.025
-539.208	-142.492	0.308	0.031
-538.193	-86.558	-0.300	-0.093
-537.179	-41.278	-0.191	-0.100
-536.164	-200.000	-0.062	0.305
-535.150	800.000	0.048	0.209
-534.135	15.554	-0.063	-0.050
-533.121	374.242	-0.062	0.127
-532.106	141.790	0.068	0.091
-531.091	-200.000	-0.026	0.223
-530.077	-28.816	-0.215	0.126
-529.062	24.167	0.122	0.102
-528.048	72.183	0.175	0.185
-527.033	-200.000	-0.005	0.095
-526.018	-200.000	0.027	0.206
-525.004	97.310	0.269	-0.314
-523.989	800.000	0.116	-0.461
-522.975	-113.063	-0.116	-0.023
-521.960	111.887	-0.176	0.216
-520.945	92.049	0.117	0.133
-519.931	-200.000	-0.037	-0.236
-518.916	121.799	-0.159	-0.201
-517.902	-200.000	0.008	-0.379
-516.887	-45.081	0.185	-0.094
-515.872	800.000	-0.008	0.028
-514.858	800.000	0.057	0.211
-513.843	243.543	0.107	-0.182
-512.829	-101.357	0.271	-0.067
-511.814	143.929	0.155	0.209
-510.799	176.300	0.114	-0.167
-509.785	238.046	-0.066	0.111
-508.770	-102.110	0.281	0.069
-507.756	-129.694	-0.103	-0.014
-506.741	800.000	-0.056	0.208
-505.726	-131.480	-0.344	-0.046
-504.712	-200.000	-0.002	0.140
-503.697	-28.457	0.083	-0.048
-502.683	-21.741	0.043	-0.027
-501.668	-200.000	-0.016	-0.162
-500.653	297.844	0.003	0.005
-499.639	75.792	-0.068	0.073
-498.624	-200.000	0.006	-0.211
-497.610	-56.127	-0.137	-0.062
-496.595	153.133	0.130	-0.180
-495.581	168.434	0.054	0.078
-494.566	-200.000	0.013	-0.140
-493.551	-200.000	-0.033	-0.338
-492.537	-33.954	-0.107	0.060
-491.522	-200.000	0.042	0.246
-490.508	-200.000	-0.022	-0.173
-489.493	330.481	-0.119	-0.232
-488.478	-113.977	0.361	0.071
-487.464	677.399	-0.120	-0.315
-486.449	-200.000	-0.041	-0.237
-485.435	-102.555	0.148	0.036
-484.420	24.125	0.107	-0.089
-483.405	-8.313	0.244	0.167
-482.391	-128.017	0.385	-0.056
-481.376	312.668	-0.026	0.050
-480.362	-124.790	0.062	-0.010
-479.347	220.550	0.049	0.079
-478.332	44.689	0.160	0.149
-477.318	125.402	-0.110	-0.141
-476.303	143.379	-0.170	0.230
-475.289	25.519	-0.010	0.008
-474.274	19.171	-0.151	0.122
-473.259	-200.000	-0.075	0.352
-472.245	107.212	0.138	0.167
-471.230	145.784	0.118	0.161
-470.216	-118.155	-0.068	-0.012
-469.201	-200.000	0.033	0.279
-468.186	800.000	0.122	0.392
-467.172	-17.121	-0.012	-0.008
-466.157	229.147	-0.125	0.207
-465.143	-37.339	-0.172	0.093
-464.128	-170.963	0.266	0.009
-463.113	80.653	0.085	-0.093
-462.099	317.507	-0.044	0.084
-461.084	-77.968	-0.156	-0.055
-460.070	468.130	0.087	0.198
-459.055	233.242	0.021	0.035
-458.040	-61.105	0.194	-0.083
-457.026	40.517	-0.203	-0.185
-456.011	-80.258	0.177	-0.060
-454.997	285.452	-0.104	-0.189
-453.982	283.262	-0.147	0.268
-452.968	-73.538	0.215	0.079
-451.953	683.984	-0.179	0.472
-450.938	-142.908	0.109	-0.011
-449.924	280.023	0.161	-0.292
-448.909	113.269	-0.117	-0.144
-447.895	36.198	0.199	-0.177
-446.880	-66.093	-0.086	0.035
-445.865	-116.794	-0.065	-0.012
-444.851	-20.210	-0.127	0.079
-443.836	-126.529	-0.105	-0.016
-442.822	-200.000	-0.029	0.284
-441.807	222.312	0.056	-0.090
-440.792	85.464	0.270	-0.300
-439.778	-200.000	0.019	0.344
-438.763	93.349	0.197	0.226
-437.749	-104.041	-0.186	0.044
-436.734	800.000	-0.069	0.216
-435.719	74.650	0.243	-0.258
-434.705	118.302	0.174	-0.217
-433.690	192.954	0.009	0.014
-432.676	123.073	0.154	0.195
-431.661	-121.998	0.122	0.020
-430.646	634.123	-0.131	-0.335
-429.632	162.176	0.051	-0.072
-428.617	-86.685	-0.305	0.094
-427.603	-190.750	0.167	-0.002
-426.588	800.000	0.060	0.181
-425.573	-5.694	0.138	-0.096
-424.559	279.714	-0.024	-0.043
-423.544	-200.000	-0.016	-0.205
-422.530	-142.666	0.162	0.016
-421.515	-200.000	-0.014	-0.181
-420.500	395.142	-0.086	-0.181
-419.486	-77.159	0.341	0.120
-418.471	800.000	-0.034	-0.117
-417.457	108.258	-0.159	-0.191
-416.442	133.313	0.090	0.118
-415.428	-95.300	-0.228	0.062
-414.413	-13.968	0.193	0.126
-413.398	-59.948	-0.529	0.229
-412.384	642.047	0.055	-0.142
-411.369	21.354	-0.204	-0.168
-410.355	-94.406	-0.257	-0.071
-409.340	34.906	-0.037	0.033
-408.325	132.178	-0.017	0.022
-407.311	-21.304	0.112	0.069
-406.296	-125.692	0.120	-0.018
-405.282	0.969	0.167	-0.121
-404.267	-167.421	-0.138	0.006
-403.252	394.870	0.049	-0.102
-402.238	-200.000	-0.030	0.163
-401.223	-93.743	0.600	-0.167
-400.209	235.314	0.089	-0.148
-399.194	123.383	-0.136	-0.172
-398.179	38.883	0.107	-0.096
-397.165	800.000	-0.048	-0.171
-396.150	-69.447	-0.011	0.004
-395.136	58.869	-0.083	0.082
-394.121	-200.000	-0.010	0.381
-393.106	-33.912	-0.093	0.051
-392.092	4.533	-0.145	-0.108
-391.077	800.000	0.048	0.187
-390.063	-2.914	0.170	0.120
-389.048	778.189	0.037	-0.102
-388.033	62.026	0.151	-0.152
-387.019	189.824	0.030	-0.046
-386.004	-163.474	-0.115	-0.006
-384.990	446.262	-0.074	-0.164
-383.975	-200.000	0.001	-0.180
-382.960	10.674	0.174	-0.134
-381.946	800.000	0.073	-0.208
-380.931	-200.000	-0.086	-0.389
-379.917	-12.379	-0.279	-0.184
-378.902	186.233	0.062	-0.093
-377.888	13.726	-0.113	-0.089
-376.873	-100.092	-0.042	0.011
-375.858	800.000	0.038	-0.167
-374.844	-50.762	-0.134	-0.064
-373.829	757.598	0.014	-0.038
-372.815	136.863	-0.123	-0.162
-371.800	-55.794	0.098	0.044
-370.785	109.364	0.084	-0.101
-369.771	-200.000	-0.039	0.227
-368.756	487.481	-0.116	0.268
-367.742	-10.101	0.072	0.048
-366.727	-200.000	0.017	0.153
-365.712	116.052	-0.159	-0.196
-364.698	-55.590	-0.195	0.088
-363.683	232.777	-0.069	0.115
-362.669	243.726	0.150	-0.254
-361.654	692.258	0.028	-0.073
-360.639	-98.904	0.211	-0.054
-359.625	-25.465	-0.084	0.050
-358.610	-189.654	0.344	0.004
-357.596	707.774	-0.090	0.239
-356.581	0.036	0.100	0.072
-355.566	140.638	-0.091	0.121
-354.552	800.000	0.057	-0.209
-353.537	-59.293	0.166	-0.072
-352.523	-83.734	0.378	0.122
-351.508	-200.000	-0.010	0.121
-350.493	-138.488	-0.252	-0.028
-349.479	-88.671	0.202	0.061
-348.464	-56.686	0.140	-0.062
-347.450	531.785	0.112	0.266
-346.435	-181.460	0.233	0.005
-345.420	203.056	0.070	0.109
-344.406	-0.121	0.080	-0.057
-343.391	739.340	0.104	0.280
-342.377	-200.000	0.053	-0.237
-341.362	800.000	-0.077	0.266
-340.348	332.573	-0.050	-0.097
-339.333	152.962	0.134	0.184
-338.318	21.388	-0.297	0.243
-337.304	159.870	0.096	0.135
-336.289	-15.389	0.012	-0.007
-335.275	141.017	0.031	0.041
-334.260	-55.821	-0.268	0.121
-333.245	334.723	-0.117	-0.228
-332.231	70.114	-0.288	-0.300
-331.216	347.518	0.096	-0.190
-330.202	35.451	-0.180	-0.159
-329.187	82.294	-0.288	-0.314
-328.172	-200.000	0.190	0.000
-327.158	317.528	-0.061	-0.115
-326.143	460.765	-0.234	0.525
-325.129	-79.512	-0.069	0.023
-324.114	421.314	-0.050	0.108
-323.099	-70.653	-0.244	0.093
-322.085	42.503	0.278	0.254
-321.070	155.119	0.224	-0.310
-320.056	-148.138	0.207	-0.017
-319.041	800.000	0.035	-0.147
-318.026	-27.541	-0.365	-0.213
-317.012	-142.930	-0.177	0.017
-315.997	800.000	0.097	0.278
-314.983	-82.537	-0.176	-0.058
-313.968	27.170	-0.259	-0.219
-312.953	0.633	-0.075	0.054
-311.939	-200.000	0.073	-0.563
-310.924	-125.342	0.198	0.030
-309.910	-135.620	0.748	0.089
-308.895	-69.782	0.311	0.120
-307.880	270.663	-0.136	-0.240
-306.866	800.000	-0.009	0.029
-305.851	-102.028	0.276	0.067
-304.837	121.796	0.070	0.088
-303.822	88.652	-0.028	0.032
-302.807	156.224	0.164	-0.227
-301.793	-200.000	0.024	-0.335
-300.778	-83.905	-0.085	0.027
-299.764	360.680	-0.080	-0.162
-298.749	734.084	0.056	0.152
-297.735	207.184	0.085	0.133
-296.720	28.633	0.082	0.070
-295.705	-77.887	0.349	0.121
-294.691	-119.424	0.255	0.044
-293.676	-200.000	0.036	-0.285
-292.662	-83.365	0.070	0.023
-291.647	394.048	-0.069	0.144
-290.632	132.147	0.239	-0.310
-289.618	181.211	0.098	-0.145
-288.603	800.000	0.055	-0.207
-287.589	418.954	0.112	0.240
-286.574	-122.648	0.157	0.026
-285.559	800.000	-0.040	0.114
-284.545	-65.104	-0.328	0.133
-283.530	68.669	0.029	0.030
-282.516	-99.884	0.236	-0.059
-281.501	573.209	0.196	0.481
-280.486	800.000	-0.110	0.362
-279.472	694.979	0.004	-0.010
-278.457	-200.000	-0.011	-0.234
-277.443	-18.852	-0.025	-0.016
-276.428	7.269	0.279	-0.209
-275.413	-5.677	-0.118	0.081
-274.399	411.058	-0.035	-0.074
-273.384	54.668	-0.134	-0.130
-272.370	-200.000	-0.022	0.266
-271.355	73.369	-0.133	-0.140
-270.340	-132.830	-0.068	0.009
-269.326	-26.906	-0.025	-0.015
-268.311	390.021	-0.050	-0.104
-267.297	743.373	0.060	0.163
-266.282	-200.000	0.006	-0.090
-265.267	-73.283	-0.171	-0.063
-264.253	27.156	-0.110	0.093
-263.238	67.792	-0.383	0.393
-262.224	-200.000	0.010	0.278
-261.209	-200.000	0.005	-0.124
-260.195	-194.654	0.097	-0.001
-259.180	-42.640	0.162	-0.083
-258.165	-52.211	0.061	0.028
-257.151	-200.000	0.014	-0.335
-256.136	-105.277	0.108	-0.025
-255.122	-21.380	0.195	-0.120
-254.107	-13.268	-0.098	0.064
-253.092	-43.958	0.126	0.064
-252.078	-61.166	-0.147	-0.062
-251.063	1.018	-0.188	-0.136
-250.049	-41.315	-0.243	0.126
-249.034	320.678	0.116	0.221
-248.019	-29.037	0.289	-0.167
-247.005	299.447	-0.130	0.240
-245.990	-27.276	0.102	0.059
-244.976	-25.080	0.228	-0.135
-243.961	262.356	-0.037	0.065
-242.946	-200.000	-0.038	-0.212
-241.932	257.535	0.197	-0.341
-240.917	307.965	0.068	-0.127
-239.903	-37.236	-0.147	0.079
-238.888	293.864	-0.116	0.213
-237.873	-157.993	0.113	-0.007
-236.859	1.514	-0.209	0.151
-235.844	642.403	-0.108	0.276
-234.830	106.697	0.072	-0.086
-233.815	77.761	0.050	0.053
-232.800	-200.000	0.017	0.161
-231.786	-96.402	-0.205	-0.054
-230.771	130.890	-0.063	0.081
-229.757	-200.000	0.025	0.323
-228.742	195.190	-0.129	0.196
-227.727	14.065	-0.122	-0.095
-226.713	3.894	0.071	-0.052
-225.698	-200.000	-0.032	-0.197
-224.684	-33.006	-0.034	-0.019
-223.669	800.000	-0.105	-0.326
-222.655	-200.000	-0.012	-0.108
-221.640	134.232	-0.221	0.287
-220.625	174.188	-0.170	-0.246
-219.611	39.299	-0.120	-0.108
-218.596	-200.000	-0.029	0.304
-217.582	-200.000	-0.073	0.335
-216.567	800.000	0.114	0.409
-215.552	-67.593	-0.023	-0.009
-214.538	-48.921	-0.379	0.182
-213.523	-146.438	-0.202	-0.018
-212.509	-17.408	0.506	0.319
-211.494	60.601	0.148	0.146
-210.479	-121.236	-0.247	0.041
-209.465	-200.000	0.031	0.276
-208.450	136.935	-0.063	-0.082
-207.436	-47.414	0.207	0.101
-206.421	-200.000	-0.035	0.365
-205.406	-187.120	-0.506	0.007
-204.392	-141.261	-0.584	0.060
-203.377	15.186	0.172	-0.135
-202.363	296.096	-0.087	-0.160
-201.348	307.504	-0.116	0.216
-200.333	800.000	0.052	-0.161
-199.319	251.040	0.167	0.285
-198.304	-0.711	-0.049	0.035
-197.290	-124.349	-0.254	0.040
-196.275	-104.270	-0.292	0.068
-195.260	1.924	0.223	-0.161
-194.246	-99.151	-0.571	-0.145
-193.231	-200.000	0.017	-0.171
-192.217	-158.431	0.171	0.010
-191.202	-53.726	0.152	-0.069
-190.187	18.680	0.050	-0.040
-189.173	24.277	0.154	-0.128
-188.158	11.884	-0.407	0.313
-187.144	660.930	-0.087	0.225
-186.129	244.408	0.174	0.293
-185.114	29.393	-0.140	0.119
-184.100	-153.138	0.171	-0.012
-183.085	-200.000	0.056	0.296
-182.071	38.187	0.099	-0.088
-181.056	-162.887	-0.340	0.017
-180.042	25.438	0.413	-0.344
-179.027	627.006	0.071	0.180
-178.012	-21.777	-0.252	0.154
-176.998	-200.000	-0.031	0.189
-175.983	-73.628	-0.121	0.044
-174.969	-200.000	0.050	0.322
-173.954	800.000	0.023	-0.067
-172.939	203.389	-0.028	-0.043
-171.925	-200.000	0.002	0.248
-170.910	-27.893	-0.292	-0.169
-169.896	800.000	-0.107	0.313
-168.881	800.000	0.117	-0.431
-167.866	-112.417	-0.204	-0.041
-166.852	-200.000	0.041	-0.301
-165.837	750.254	-0.096	-0.260
-164.823	402.108	0.085	-0.178
-163.808	98.682	0.153	-0.177
-162.793	8.346	0.128	-0.097
-161.779	-147.896	0.330	0.028
-160.764	444.312	-0.118	0.258
-159.750	-64.759	-0.221	0.089
-158.735	-109.596	0.197	0.041
-157.720	-64.264	0.144	0.059
-156.706	129.716	-0.195	0.250
-155.691	-200.000	0.084	0.404
-154.677	-152.828	-0.123	0.009
-153.662	800.000	-0.089	-0.381
-152.647	-126.977	0.216	-0.032
-151.633	-200.000	-0.003	0.135
-150.618	-47.998	0.118	0.057
-149.604	216.912	-0.214	-0.340
-148.589	-30.871	-0.275	0.156
-147.574	44.853	0.068	-0.063
-146.560	-200.000	0.002	-0.102
-145.545	40.046	-0.136	-0.122
-144.531	800.000	0.104	-0.366
-143.516	-200.000	0.027	-0.256
-142.502	-65.505	-0.180	-0.072
-141.487	141.560	0.189	-0.250
-140.472	-89.019	-0.329	0.097
-139.458	-28.265	-0.167	-0.096
-138.443	660.626	-0.063	-0.162
-137.429	-102.484	-0.070	0.017
-136.414	-51.924	-0.227	-0.105
-135.399	-25.087	0.058	-0.034
-134.385	249.825	0.087	0.147
-133.370	93.802	0.081	-0.092
-132.356	233.767	0.039	-0.064
-131.341	478.201	0.044	-0.101
-130.326	66.175	0.190	-0.193
-129.312	-200.000	0.008	-0.125
-128.297	396.529	0.172	0.358
-127.283	-122.761	0.308	0.050
-126.268	114.731	-0.139	0.170
-125.253	-200.000	0.015	-0.093
-124.239	-200.000	-0.046	0.424
-123.224	-200.000	-0.039	0.434
-122.210	13.884	0.325	0.252
-121.195	-21.644	0.190	-0.115
