DTS Sentinel unit serial number:	SN413079Multiplexer serial number:	ORYXHardware model number:	OX4-SRSoftware version number:	ORYX F/W v4.00 Oryx Data Collector v3.7.2.0data status	okinstallation	princeton_trtdifferential loss correction	single-endedforward channel	channel 3reverse channel	N/Adate	2019/09/13time	14:28:35forward acquisition time	60.00reverse acquisition time	0.00gamma	496.2192k internal	0.2302k external	0.2302temperature offset calibration	1.0145default loss term (dB/km)	0.3790temperature slope calibration	1.0000multiplexer offset coefficient	1.0000multiplexer slope coefficient	1.0000fibre end	0.00T internal ref (°C)	35.25T ext. ref 1 (°C)	4.63T ext. ref 2 (°C)	30.96length (m)	temperature (°C)	Stokes	anti-Stokes-747.200	88.520	0.021	-0.024
-746.185	-17.813	-0.320	0.205
-745.171	141.082	-0.169	0.228
-744.156	387.492	0.182	0.384
-743.142	-200.000	0.002	-0.083
-742.127	361.694	0.219	0.448
-741.112	-147.949	-0.191	0.016
-740.098	-151.748	-0.232	0.017
-739.083	-36.382	0.124	0.068
-738.069	-46.395	-0.219	0.110
-737.054	501.079	0.049	-0.114
-736.039	192.483	-0.289	0.444
-735.025	-146.730	0.362	-0.032
-734.010	381.040	0.027	0.056
-732.996	-200.000	0.000	-0.297
-731.981	800.000	0.049	0.199
-730.966	-200.000	0.002	0.205
-729.952	800.000	-0.074	-0.289
-728.937	-200.000	0.005	-0.223
-727.923	53.233	0.088	-0.086
-726.908	-59.251	-0.084	-0.037
-725.894	-200.000	0.042	-0.342
-724.879	47.837	-0.247	-0.235
-723.864	460.001	-0.034	-0.078
-722.850	-100.363	0.252	0.064
-721.835	57.845	0.097	-0.097
-720.821	-50.239	-0.293	-0.141
-719.806	-60.483	0.108	-0.047
-718.791	-49.126	0.161	0.078
-717.777	-200.000	-0.001	0.264
-716.762	-200.000	0.017	-0.188
-715.748	-40.934	0.322	0.169
-714.733	-118.797	-0.077	0.014
-713.718	800.000	-0.095	-0.271
-712.704	-40.455	0.103	0.054
-711.689	-1.658	0.117	0.084
-710.675	-200.000	-0.005	0.103
-709.660	-51.886	0.046	0.022
-708.645	144.237	0.053	-0.072
-707.631	-96.955	-0.114	-0.030
-706.616	50.757	-0.132	-0.128
-705.602	-64.880	0.131	0.054
-704.587	636.035	-0.088	-0.226
-703.572	574.397	-0.065	-0.161
-702.558	-124.562	0.217	0.034
-701.543	625.747	-0.122	0.313
-700.529	-22.116	0.055	-0.034
-699.514	63.607	-0.260	0.266
-698.499	413.563	0.169	0.365
-697.485	-87.435	0.238	-0.073
-696.470	-200.000	-0.002	-0.062
-695.456	185.864	-0.174	-0.263
-694.441	295.355	-0.019	-0.035
-693.426	-95.068	0.171	0.047
-692.412	286.754	-0.109	-0.200
-691.397	-200.000	-0.001	0.171
-690.383	249.951	-0.073	-0.126
-689.368	107.317	-0.004	-0.005
-688.354	-139.384	0.074	0.008
-687.339	-104.692	0.116	0.027
-686.324	-200.000	0.092	-0.443
-685.310	-17.378	-0.051	-0.033
-684.295	-0.183	0.134	0.097
-683.281	-200.000	0.007	-0.066
-682.266	-42.814	-0.250	0.129
-681.251	800.000	0.025	0.096
-680.237	-139.880	-0.180	0.019
-679.222	166.950	-0.200	-0.288
-678.208	96.786	-0.187	-0.218
-677.193	335.044	-0.016	-0.031
-676.178	-112.387	0.074	-0.015
-675.164	-25.234	0.280	-0.169
-674.149	101.566	0.041	0.049
-673.135	-200.000	0.028	0.331
-672.120	547.316	0.022	0.054
-671.105	41.491	-0.097	-0.090
-670.091	118.344	-0.057	0.072
-669.076	800.000	-0.051	0.149
-668.062	800.000	-0.127	0.410
-667.047	7.442	0.164	0.124
-666.032	-200.000	0.011	-0.100
-665.018	-161.592	-0.120	0.006
-664.003	326.964	-0.029	0.056
-662.989	800.000	-0.021	-0.074
-661.974	-47.293	-0.176	-0.087
-660.959	-110.391	0.131	0.028
-659.945	57.518	-0.277	0.275
-658.930	-61.644	-0.301	-0.128
-657.916	452.954	0.062	0.139
-656.901	-84.167	0.200	0.065
-655.886	91.485	-0.098	0.112
-654.872	800.000	0.019	0.082
-653.857	-71.571	0.308	0.117
-652.843	-119.696	0.226	-0.040
-651.828	-200.000	0.001	0.304
-650.814	480.777	-0.019	0.044
-649.799	-18.452	0.149	0.094
-648.784	13.553	-0.256	-0.202
-647.770	99.023	-0.094	-0.110
-646.755	-158.264	0.188	-0.011
-645.741	-117.571	-0.101	0.019
-644.726	-65.363	-0.258	-0.105
-643.711	59.706	-0.048	-0.048
-642.697	800.000	-0.096	-0.286
-641.682	165.096	-0.034	0.049
-640.668	-103.156	0.305	0.073
-639.653	67.631	0.183	0.190
-638.638	800.000	-0.017	-0.064
-637.624	111.147	0.069	0.084
-636.609	-42.411	-0.518	-0.268
-635.595	615.673	-0.153	0.388
-634.580	-200.000	-0.048	0.213
-633.565	-90.501	-0.209	-0.061
-632.551	-39.027	0.148	0.079
-631.536	695.423	0.022	0.058
-630.522	-200.000	0.005	-0.070
-629.507	800.000	0.100	-0.331
-628.492	-46.417	-0.150	0.075
-627.478	-128.045	0.013	0.002
-626.463	-56.394	-0.482	-0.217
-625.449	530.709	0.097	0.232
-624.434	231.139	0.075	0.124
-623.419	-200.000	0.008	0.209
-622.405	-200.000	0.014	0.254
-621.390	-200.000	0.041	-0.188
-620.376	-120.742	0.099	-0.017
-619.361	-39.193	-0.279	-0.148
-618.346	800.000	0.050	0.151
-617.332	-150.274	0.285	0.022
-616.317	40.424	0.110	0.100
-615.303	-200.000	-0.012	-0.228
-614.288	152.443	-0.139	0.192
-613.273	141.176	0.259	0.348
-612.259	-200.000	0.001	0.068
-611.244	-83.884	-0.249	-0.080
-610.230	-200.000	-0.042	-0.276
-609.215	-200.000	-0.065	-0.300
-608.201	34.418	0.203	-0.180
-607.186	-200.000	0.018	-0.402
-606.171	-174.302	0.213	0.006
-605.157	440.220	-0.115	-0.256
-604.142	-77.206	0.148	-0.052
-603.128	260.670	-0.105	-0.184
-602.113	57.072	0.169	-0.167
-601.098	-200.000	-0.030	0.169
-600.084	258.319	0.131	0.228
-599.069	120.789	-0.007	-0.009
-598.055	-200.000	0.057	0.261
-597.040	-37.928	0.456	-0.246
-596.025	-14.850	-0.010	0.006
-595.011	0.683	0.150	-0.109
-593.996	800.000	-0.039	-0.127
-592.982	-15.445	0.176	-0.114
-591.967	-55.452	-0.255	-0.116
-590.952	-105.115	0.272	-0.063
-589.938	242.447	0.072	0.123
-588.923	-3.279	-0.085	0.060
-587.909	-88.543	0.383	-0.116
-586.894	-200.000	-0.013	-0.060
-585.879	261.689	-0.142	0.249
-584.865	800.000	-0.018	0.074
-583.850	218.680	-0.101	0.163
-582.836	721.484	0.072	-0.194
-581.821	-48.240	-0.277	-0.135
-580.806	124.275	-0.067	0.085
-579.792	-101.902	0.178	-0.044
-578.777	-43.095	-0.311	-0.159
-577.763	-200.000	-0.048	-0.296
-576.748	107.670	0.025	0.030
-575.733	87.070	0.303	0.339
-574.719	800.000	-0.042	0.167
-573.704	489.724	0.020	-0.047
-572.690	32.881	-0.386	0.338
-571.675	84.557	-0.294	0.325
-570.661	-139.539	-0.386	0.042
-569.646	183.807	-0.104	0.156
-568.631	94.934	0.179	0.207
-567.617	134.192	0.036	-0.047
-566.602	-200.000	-0.002	-0.176
-565.588	-80.084	-0.152	0.052
-564.573	-200.000	-0.010	-0.075
-563.558	157.967	0.108	0.152
-562.544	-97.488	-0.184	0.048
-561.529	435.342	-0.142	0.314
-560.515	376.795	0.093	0.193
-559.500	-85.264	-0.380	-0.120
-558.485	6.747	0.300	-0.226
-557.471	239.466	0.092	-0.156
-556.456	-200.000	-0.039	-0.410
-555.442	800.000	-0.064	-0.255
-554.427	202.135	-0.129	-0.201
-553.412	278.924	-0.209	-0.376
-552.398	800.000	0.025	0.101
-551.383	800.000	-0.031	-0.126
-550.369	800.000	0.073	0.308
-549.354	492.823	-0.145	-0.337
-548.339	-61.930	-0.208	0.088
-547.325	-200.000	-0.035	0.219
-546.310	274.523	-0.138	-0.247
-545.296	-200.000	0.003	-0.206
-544.281	-13.920	-0.216	-0.141
-543.266	800.000	0.059	0.167
-542.252	317.274	0.048	0.091
-541.237	-155.937	0.182	-0.012
-540.223	-40.854	-0.371	0.194
-539.208	298.028	0.040	-0.073
-538.193	-200.000	-0.025	-0.159
-537.179	-10.181	-0.215	-0.144
-536.164	113.852	0.164	0.202
-535.150	144.950	0.265	0.359
-534.135	-54.852	-0.038	-0.017
-533.121	129.930	0.053	0.069
-532.106	-200.000	-0.006	0.134
-531.091	145.910	0.094	-0.127
-530.077	138.756	-0.330	-0.438
-529.062	-135.597	0.221	-0.027
-528.048	-200.000	0.025	0.251
-527.033	2.282	0.129	0.094
-526.018	488.707	-0.030	-0.070
-525.004	-101.081	-0.256	-0.063
-523.989	-38.217	0.066	0.035
-522.975	-46.850	0.155	0.077
-521.960	-200.000	-0.011	-0.118
-520.945	82.279	0.303	-0.332
-519.931	-131.904	0.088	-0.012
-518.916	22.304	0.238	0.197
-517.902	-142.074	0.111	-0.011
-516.887	364.166	-0.172	-0.349
-515.872	-132.782	0.225	0.029
-514.858	-200.000	0.045	0.214
-513.843	124.202	0.125	-0.159
-512.829	411.327	0.091	-0.196
-511.814	-44.860	-0.246	-0.124
-510.799	-200.000	0.026	-0.248
-509.785	800.000	0.094	-0.319
-508.770	-141.545	-0.103	0.011
-507.756	800.000	-0.030	-0.119
-506.741	-13.465	0.314	0.206
-505.726	256.181	-0.275	0.476
-504.712	-113.315	0.156	-0.031
-503.697	21.104	0.181	-0.148
-502.683	50.549	-0.263	-0.251
-501.668	-4.092	0.187	0.131
-500.653	224.195	-0.114	0.185
-499.639	16.785	0.146	-0.117
-498.624	-200.000	0.001	0.079
-497.610	-200.000	-0.005	-0.246
-496.595	524.089	-0.065	-0.155
-495.581	61.071	-0.117	-0.117
-494.566	-55.304	0.126	0.057
-493.551	-21.617	0.091	0.056
-492.537	-166.682	-0.344	-0.014
-491.522	681.936	0.049	0.129
-490.508	-165.831	0.304	-0.013
-489.493	89.563	0.142	0.160
-488.478	-46.471	-0.322	0.159
-487.464	35.836	0.063	0.056
-486.449	-93.306	0.369	-0.103
-485.435	-200.000	-0.027	-0.327
-484.420	-200.000	-0.026	-0.224
-483.405	-87.873	-0.327	0.099
-482.391	-163.491	-0.214	-0.010
-481.376	-151.999	-0.209	-0.015
-480.362	-80.150	0.180	-0.061
-479.347	-4.643	0.048	-0.034
-478.332	-68.650	0.182	-0.071
-477.318	-200.000	0.053	0.314
-476.303	-200.000	-0.008	0.159
-475.289	172.549	0.141	-0.205
-474.274	394.843	-0.035	0.073
-473.259	250.917	-0.086	-0.147
-472.245	-200.000	0.032	-0.160
-471.230	178.776	0.171	0.252
-470.216	73.870	-0.211	-0.223
-469.201	-200.000	0.051	-0.307
-468.186	800.000	-0.021	0.082
-467.172	-141.035	0.128	0.013
-466.157	427.704	-0.100	-0.218
-465.143	800.000	-0.021	-0.091
-464.128	-200.000	-0.015	-0.080
-463.113	-10.277	-0.253	-0.169
-462.099	265.178	0.039	-0.068
-461.084	800.000	-0.073	0.204
-460.070	-66.083	-0.141	0.057
-459.055	-200.000	-0.021	-0.258
-458.040	14.165	0.183	0.143
-457.026	327.712	-0.121	0.234
-456.011	-141.209	0.130	0.013
-454.997	-200.000	-0.020	0.261
-453.982	-124.542	-0.338	-0.053
-452.968	627.278	-0.065	0.166
-451.953	678.458	0.080	0.209
-450.938	-84.968	-0.188	0.059
-449.924	563.245	0.214	-0.522
-448.909	3.503	0.199	-0.146
-447.895	-28.787	-0.256	-0.148
-446.880	-143.981	-0.172	-0.016
-445.865	-2.041	0.228	0.161
-444.851	-78.264	-0.131	0.045
-443.836	509.294	0.042	-0.099
-442.822	-200.000	-0.032	-0.323
-441.807	-133.387	-0.340	-0.043
-440.792	800.000	0.099	0.438
-439.778	142.343	0.111	0.149
-438.763	426.275	0.112	0.243
-437.749	-200.000	0.168	0.000
-436.734	324.949	-0.092	-0.177
-435.719	153.835	0.097	-0.133
-434.705	612.803	0.126	0.318
-433.690	800.000	0.030	0.088
-432.676	413.082	0.131	0.280
-431.661	800.000	-0.066	-0.247
-430.646	800.000	0.050	0.191
-429.632	-131.888	-0.317	-0.042
-428.617	-1.293	-0.160	-0.114
-427.603	-79.181	-0.062	-0.021
-426.588	-43.275	0.134	-0.068
-425.573	-200.000	0.009	0.173
-424.559	-80.498	0.172	0.058
-423.544	-139.184	0.134	-0.015
-422.530	72.871	-0.266	-0.280
-421.515	685.806	0.076	0.200
-420.500	51.859	-0.164	-0.157
-419.486	-57.218	0.167	0.074
-418.471	262.386	-0.141	0.247
-417.457	-200.000	-0.019	0.320
-416.442	-54.289	0.203	0.093
-415.428	-110.739	0.061	0.013
-414.413	-181.254	-0.319	-0.006
-413.398	210.783	0.026	0.042
-412.384	425.316	0.076	0.164
-411.369	-40.771	0.112	-0.058
-410.355	455.584	0.086	-0.193
-409.340	-10.836	-0.083	-0.055
-408.325	-83.927	0.207	-0.066
-407.311	454.120	-0.193	-0.430
-406.296	-85.411	-0.139	0.044
-405.282	3.215	0.199	0.145
-404.267	-80.731	0.252	0.084
-403.252	86.363	0.276	0.306
-402.238	156.842	0.316	0.440
-401.223	800.000	-0.070	0.274
-400.209	95.960	-0.296	-0.340
-399.194	-78.920	-0.150	0.052
-398.179	-48.764	0.324	-0.157
-397.165	-200.000	0.009	0.238
-396.150	722.274	0.126	-0.338
-395.136	-200.000	0.005	-0.044
-394.121	-200.000	0.032	0.234
-393.106	469.526	-0.025	-0.056
-392.092	16.855	0.378	-0.301
-391.077	800.000	-0.062	0.232
-390.063	-102.765	0.096	-0.023
-389.048	43.737	0.045	0.042
-388.033	-200.000	-0.012	0.124
-387.019	60.984	0.189	-0.188
-386.004	1.192	-0.142	-0.102
-384.990	-200.000	-0.024	0.223
-383.975	-120.343	-0.211	-0.036
-382.960	108.182	0.006	-0.008
-381.946	-106.926	0.261	-0.058
-380.931	-79.773	-0.144	0.049
-379.917	183.368	0.066	-0.098
-378.902	199.770	0.305	-0.470
-377.888	-76.677	-0.072	0.025
-376.873	-200.000	-0.008	-0.046
-375.858	-93.891	0.115	-0.032
-374.844	-200.000	-0.000	0.146
-373.829	182.381	-0.071	0.105
-372.815	-200.000	0.029	-0.234
-371.800	-200.000	0.022	0.224
-370.785	495.946	-0.120	-0.277
-369.771	-64.661	0.166	0.068
-368.756	-115.496	-0.156	-0.030
-367.742	557.679	-0.048	0.117
-366.727	456.599	-0.042	0.094
-365.712	-123.111	-0.220	-0.035
-364.698	85.178	-0.115	-0.126
-363.683	-15.934	-0.192	-0.123
-362.669	393.155	-0.150	0.312
-361.654	-200.000	-0.014	0.330
-360.639	-172.501	-0.364	-0.012
-359.625	-37.188	-0.249	0.133
-358.610	30.751	0.260	-0.224
-357.596	-170.753	0.205	-0.007
-356.581	-83.981	-0.226	-0.072
-355.566	-172.770	-0.226	-0.007
-354.552	110.310	-0.089	-0.107
-353.537	183.049	-0.100	0.149
-352.523	740.064	-0.074	-0.199
-351.508	181.580	-0.236	-0.348
-350.493	381.480	-0.058	0.120
-349.479	450.285	-0.064	-0.141
-348.464	258.758	0.073	-0.126
-347.450	266.231	-0.216	0.379
-346.435	227.370	0.113	-0.185
-345.420	85.117	0.250	-0.275
-344.406	-111.255	0.308	0.063
-343.391	-10.447	0.084	-0.056
-342.377	800.000	0.026	0.086
-341.362	-200.000	-0.016	0.320
-340.348	54.757	-0.104	-0.101
-339.333	-71.704	0.198	0.074
-338.318	-199.454	0.141	-0.001
-337.304	16.436	0.285	0.226
-336.289	-10.678	-0.067	0.044
-335.275	800.000	0.084	0.351
-334.260	800.000	-0.041	0.135
-333.245	257.617	0.071	-0.122
-332.231	-88.706	0.157	-0.047
-331.216	-29.544	-0.121	0.069
-330.202	123.717	0.080	-0.100
-329.187	66.536	-0.050	-0.051
-328.172	554.150	-0.055	-0.132
-327.158	30.115	0.220	0.188
-326.143	-21.220	-0.284	-0.174
-325.129	98.717	0.164	0.190
-324.114	16.359	0.176	0.139
-323.099	463.456	-0.004	-0.009
-322.085	-116.079	-0.089	0.017
-321.070	-164.164	0.228	0.011
-320.056	187.945	0.137	0.205
-319.041	800.000	-0.069	0.240
-318.026	-200.000	-0.006	0.244
-317.012	-157.526	-0.112	0.007
-315.997	-23.102	-0.167	0.101
-314.983	-200.000	0.050	-0.255
-313.968	800.000	0.125	0.474
-312.953	83.544	0.211	-0.230
-311.939	473.944	-0.047	-0.106
-310.924	800.000	-0.005	0.018
-309.910	-20.261	0.090	0.056
-308.895	180.968	0.036	-0.053
-307.880	349.416	0.122	0.241
-306.866	137.183	-0.073	0.095
-305.851	-143.174	0.182	0.018
-304.837	319.599	0.114	0.216
-303.822	-200.000	0.048	-0.254
-302.807	195.575	-0.275	-0.418
-301.793	-152.542	-0.294	0.021
-300.778	-95.835	0.196	-0.053
-299.764	-113.364	-0.164	-0.032
-298.749	160.991	0.009	-0.012
-297.735	453.622	0.159	0.352
-296.720	-113.778	-0.358	-0.070
-295.705	-200.000	-0.017	0.133
-294.691	800.000	0.029	0.093
-293.676	-200.000	-0.019	0.228
-292.662	100.323	0.120	0.139
-291.647	-136.750	-0.148	0.017
-290.632	-140.142	-0.346	0.036
-289.618	-82.356	0.250	0.081
-288.603	135.026	-0.152	0.198
-287.589	30.769	0.063	0.054
-286.574	-73.160	-0.316	-0.116
-285.559	3.515	-0.283	-0.207
-284.545	-200.000	-0.002	-0.170
-283.530	29.880	0.179	0.153
-282.516	31.459	-0.216	-0.186
-281.501	586.525	-0.047	-0.117
-280.486	-114.868	-0.235	0.045
-279.472	800.000	-0.097	-0.279
-278.457	326.398	0.211	-0.404
-277.443	-88.086	0.132	0.040
-276.428	-200.000	-0.041	0.333
-275.413	39.754	0.306	0.274
-274.399	215.285	0.044	-0.071
-273.384	-130.785	0.071	-0.009
-272.370	-200.000	0.019	-0.213
-271.355	155.347	0.155	0.213
-270.340	381.136	-0.180	0.370
-269.326	-186.280	0.144	0.002
-268.311	57.473	0.140	0.137
-267.297	-37.774	-0.347	0.185
-266.282	58.498	0.210	-0.206
-265.267	11.880	-0.161	0.124
-264.253	-200.000	0.039	-0.260
-263.238	235.985	0.056	-0.093
-262.224	-30.573	0.143	0.081
-261.209	431.027	0.055	0.119
-260.195	-135.680	-0.358	-0.042
-259.180	85.813	-0.136	0.150
-258.165	-200.000	0.082	0.374
-257.151	526.905	-0.081	0.191
-256.136	68.274	-0.285	-0.292
-255.122	-200.000	0.009	-0.080
-254.107	-200.000	-0.038	-0.238
-253.092	-200.000	-0.005	0.130
-252.078	-43.606	0.168	0.084
-251.063	-101.608	-0.374	-0.091
-250.049	-66.685	0.219	0.087
-249.034	243.475	-0.057	0.095
-248.019	-200.000	0.066	0.311
-247.005	3.919	0.162	-0.118
-245.990	0.215	-0.075	-0.053
-244.976	23.522	0.182	-0.150
-243.961	181.687	0.132	0.194
-242.946	-154.925	-0.365	0.024
-241.932	-37.224	0.235	-0.125
-240.917	3.966	-0.032	-0.024
-239.903	-12.434	-0.230	0.150
-238.888	10.276	-0.135	0.103
-237.873	-136.690	-0.095	0.011
-236.859	-200.000	0.002	0.048
-235.844	-53.259	-0.135	0.062
-234.830	124.239	0.200	0.251
-233.815	220.270	0.151	-0.242
-232.800	800.000	0.052	0.156
-231.786	622.900	0.055	0.139
-230.771	208.523	-0.090	-0.140
-229.757	64.368	-0.194	0.195
-228.742	433.013	-0.131	-0.284
-227.727	57.353	-0.295	-0.287
-226.713	408.826	-0.127	0.269
-225.698	221.007	-0.086	-0.138
-224.684	435.141	-0.115	0.249
-223.669	-77.930	-0.024	0.008
-222.655	-200.000	-0.028	0.241
-221.640	-122.518	0.266	-0.043
-220.625	-200.000	-0.060	-0.456
-219.611	-200.000	0.020	-0.165
-218.596	-150.565	0.157	-0.012
-217.582	122.721	-0.143	-0.178
-216.567	73.964	0.479	-0.502
-215.552	-77.874	-0.071	-0.024
-214.538	-35.733	-0.059	0.032
-213.523	-68.477	-0.133	-0.052
-212.509	-200.000	-0.012	0.206
-211.494	-7.606	0.498	0.336
-210.479	-111.705	-0.069	-0.014
-209.465	78.173	-0.161	-0.171
-208.450	-200.000	0.045	0.276
-207.436	-200.000	0.059	-0.290
-206.421	-83.066	-0.168	-0.054
-205.406	-200.000	0.042	-0.271
-204.392	27.292	0.234	-0.196
-203.377	-112.471	0.237	-0.047
-202.363	-5.707	0.204	-0.139
-201.348	-14.186	-0.172	0.111
-200.333	120.402	0.056	0.070
-199.319	-200.000	0.000	-0.026
-198.304	359.969	-0.048	0.096
-197.290	35.132	-0.333	-0.291
-196.275	-200.000	0.001	-0.017
-195.260	-200.000	-0.026	-0.267
-194.246	-143.601	0.128	-0.012
-193.231	-200.000	-0.009	-0.108
-192.217	-200.000	0.000	-0.109
-191.202	562.926	0.058	-0.140
-190.187	32.195	-0.126	-0.109
-189.173	95.998	-0.034	0.039
-188.158	18.153	0.252	0.201
-187.144	-91.838	0.379	0.107
-186.129	-200.000	0.032	-0.210
-185.114	-200.000	-0.024	0.356
-184.100	-54.843	-0.080	0.036
-183.085	-200.000	-0.006	-0.122
-182.071	-114.449	0.188	0.036
-181.056	-130.130	0.118	-0.016
-180.042	56.288	-0.093	-0.090
-179.027	770.341	0.085	0.230
-178.012	31.324	-0.087	-0.075
-176.998	595.426	-0.080	0.197
-175.983	359.399	-0.156	-0.310
-174.969	539.470	-0.130	0.308
-173.954	-48.689	-0.149	0.071
-172.939	-16.450	-0.168	0.106
-171.925	107.505	-0.098	-0.116
-170.910	-30.365	0.285	0.161
-169.896	-200.000	0.020	0.154
-168.881	-76.817	0.405	0.141
-167.866	-200.000	0.058	-0.286
-166.852	-118.479	-0.173	0.031
-165.837	-200.000	0.018	-0.107
-164.823	-148.498	0.204	-0.017
-163.808	-47.952	-0.089	-0.043
-162.793	4.144	-0.109	0.079
-161.779	-31.222	0.198	-0.111
-160.764	-141.968	0.062	-0.006
-159.750	800.000	0.125	0.369
-158.735	-145.233	-0.066	-0.006
-157.720	-200.000	-0.009	0.086
-156.706	110.261	0.146	0.174
-155.691	800.000	-0.034	-0.096
-154.677	290.576	-0.036	-0.066
-153.662	800.000	-0.083	0.285
-152.647	-145.886	0.336	0.030
-151.633	52.261	0.087	-0.082
-150.618	-146.152	-0.163	0.014
-149.604	18.426	-0.036	0.029
-148.589	-9.997	0.103	0.068
-147.574	-161.634	0.108	0.005
-146.560	747.162	0.097	0.261
-145.545	72.140	-0.319	-0.330
-144.531	800.000	-0.053	0.226
-143.516	-200.000	0.041	0.314
-142.502	793.230	-0.066	0.181
-141.487	36.892	-0.122	0.107
-140.472	-121.225	-0.217	-0.036
-139.458	150.822	0.097	0.131
-138.443	-142.409	0.415	-0.041
-137.429	-79.986	-0.147	-0.049
-136.414	-200.000	-0.024	-0.109
-135.399	588.902	0.198	0.486
-134.385	-3.968	0.203	0.140
-133.370	102.027	-0.052	-0.060
-132.356	344.737	0.020	0.039
-131.341	-200.000	0.075	0.539
-130.326	-117.713	-0.067	-0.012
-129.312	54.193	0.402	-0.385
-128.297	564.316	0.043	0.104
-127.283	443.884	-0.120	-0.261
-126.268	-106.525	-0.322	0.071
-125.253	-200.000	0.021	0.122
-124.239	-2.487	-0.046	-0.032
-123.224	302.182	0.092	-0.170
-122.210	-102.102	-0.217	-0.052
