DTS Sentinel unit serial number:	SN413079Multiplexer serial number:	ORYXHardware model number:	OX4-SRSoftware version number:	ORYX F/W v4.00 Oryx Data Collector v3.7.2.0data status	okinstallation	princeton_trtdifferential loss correction	single-endedforward channel	channel 3reverse channel	N/Adate	2019/09/19time	14:20:35forward acquisition time	60.00reverse acquisition time	0.00gamma	496.2192k internal	0.2322k external	0.2322temperature offset calibration	0.9998default loss term (dB/km)	0.3790temperature slope calibration	1.0000multiplexer offset coefficient	1.0000multiplexer slope coefficient	1.0000fibre end	0.00T internal ref (°C)	31.86T ext. ref 1 (°C)	1.05T ext. ref 2 (°C)	29.21length (m)	temperature (°C)	Stokes	anti-Stokes-747.200	-186.764	0.420	0.006
-746.185	-200.000	0.014	0.139
-745.171	-116.744	0.223	0.041
-744.156	-160.947	-0.223	0.012
-743.142	-22.141	-0.088	-0.054
-742.127	490.154	-0.085	0.196
-741.112	-18.797	-0.142	-0.089
-740.098	-26.041	-0.254	0.151
-739.083	-200.000	0.038	0.210
-738.069	-42.042	-0.068	-0.035
-737.054	20.632	0.257	-0.210
-736.039	-200.000	-0.027	0.000
-735.025	-35.762	0.286	-0.156
-734.010	-200.000	-0.005	0.053
-732.996	-76.356	0.064	0.023
-731.981	-200.000	-0.001	-0.316
-730.966	800.000	-0.046	-0.191
-729.952	6.168	-0.195	-0.146
-728.937	-32.290	-0.156	-0.088
-727.923	-21.121	-0.204	-0.126
-726.908	-200.000	-0.016	-0.134
-725.894	-26.271	-0.191	-0.113
-724.879	-164.543	-0.321	0.015
-723.864	-53.213	-0.327	-0.152
-722.850	55.905	-0.217	0.213
-721.835	74.351	-0.241	-0.255
-720.821	-165.845	-0.380	0.016
-719.806	21.590	0.043	-0.035
-718.791	561.579	-0.038	-0.093
-717.777	-200.000	0.080	-0.426
-716.762	-172.400	-0.130	0.004
-715.748	510.290	0.119	0.279
-714.733	-130.269	0.257	-0.035
-713.718	140.027	-0.045	-0.060
-712.704	-200.000	-0.045	0.370
-711.689	-20.641	-0.113	-0.070
-710.675	-39.141	-0.051	0.027
-709.660	-200.000	0.034	0.318
-708.645	182.520	0.120	-0.178
-707.631	58.969	0.069	-0.068
-706.616	-43.860	0.359	0.182
-705.602	-200.000	0.001	0.179
-704.587	476.174	0.125	0.285
-703.572	25.684	0.288	0.242
-702.558	270.285	-0.099	-0.176
-701.543	-136.604	0.468	0.055
-700.529	-19.849	0.234	-0.146
-699.514	257.544	0.333	0.578
-698.499	33.493	0.100	-0.088
-697.485	-52.024	-0.079	-0.037
-696.470	61.202	0.268	0.269
-695.456	90.872	-0.122	0.138
-694.441	40.836	0.215	0.196
-693.426	-39.317	-0.100	0.053
-692.412	-105.322	0.204	0.047
-691.397	591.773	-0.121	-0.301
-690.383	-167.104	-0.108	-0.004
-689.368	-200.000	-0.023	-0.129
-688.354	-176.973	0.164	0.004
-687.339	-164.316	0.420	0.019
-686.324	151.996	0.077	0.106
-685.310	-150.525	0.096	-0.007
-684.295	-173.998	-0.091	0.003
-683.281	337.146	0.084	-0.164
-682.266	676.761	-0.080	-0.209
-681.251	-200.000	-0.003	0.074
-680.237	13.149	-0.020	0.015
-679.222	-200.000	0.054	0.241
-678.208	-200.000	-0.074	-0.342
-677.193	206.810	0.146	-0.229
-676.178	592.118	0.052	0.128
-675.164	40.001	0.150	0.136
-674.149	228.544	-0.141	0.232
-673.135	-200.000	-0.078	-0.379
-672.120	13.219	0.249	-0.195
-671.105	-200.000	0.044	0.452
-670.091	-92.582	0.408	0.115
-669.076	-73.459	-0.315	-0.116
-668.062	-27.945	-0.159	-0.093
-667.047	-200.000	0.004	0.420
-666.032	12.115	-0.209	0.162
-665.018	-128.651	0.267	-0.038
-664.003	-200.000	-0.056	0.279
-662.989	670.046	-0.132	-0.344
-661.974	90.014	0.162	0.183
-660.959	800.000	-0.028	0.091
-659.945	-71.644	-0.305	-0.115
-658.930	-106.918	-0.166	-0.037
-657.916	-97.156	-0.178	0.047
-656.901	20.411	-0.197	-0.161
-655.886	566.933	0.109	0.267
-654.872	231.469	0.050	0.082
-653.857	-19.397	-0.107	0.067
-652.843	33.439	0.132	0.115
-651.828	319.805	0.055	0.105
-650.814	-102.365	-0.375	0.091
-649.799	-194.898	0.093	-0.001
-648.784	360.722	0.197	-0.397
-647.770	166.676	0.147	0.210
-646.755	544.178	0.043	0.104
-645.741	-79.790	0.114	0.039
-644.726	15.499	0.100	0.079
-643.711	-200.000	0.018	-0.190
-642.697	-184.455	-0.126	0.002
-641.682	-200.000	-0.032	-0.159
-640.668	-23.890	0.108	-0.065
-639.653	-200.000	0.070	-0.350
-638.638	92.292	0.148	-0.167
-637.624	291.707	-0.140	-0.257
-636.609	193.232	-0.224	-0.340
-635.595	29.722	0.201	-0.172
-634.580	-58.178	-0.133	-0.058
-633.565	160.089	-0.153	-0.215
-632.551	-7.970	0.232	-0.157
-631.536	-141.012	-0.236	0.024
-630.522	-16.589	0.279	-0.178
-629.507	381.867	0.046	-0.095
-628.492	-77.073	-0.029	0.010
-627.478	-13.138	-0.283	-0.185
-626.463	75.956	-0.018	-0.019
-625.449	-94.751	0.137	-0.037
-624.434	-200.000	-0.056	0.391
-623.419	-77.719	-0.296	0.103
-622.405	-30.506	-0.081	-0.046
-621.390	91.439	0.083	-0.093
-620.376	800.000	0.012	0.034
-619.361	65.216	0.192	0.195
-618.346	-117.325	-0.185	0.034
-617.332	178.785	0.106	0.156
-616.317	-70.745	-0.134	0.051
-615.303	-116.032	-0.212	-0.040
-614.288	-52.495	-0.204	0.095
-613.273	800.000	-0.057	0.206
-612.259	-54.205	0.037	-0.017
-611.244	-200.000	0.002	-0.226
-610.230	-200.000	0.002	-0.268
-609.215	-132.189	-0.238	0.031
-608.201	-26.264	-0.257	-0.151
-607.186	34.273	0.224	-0.196
-606.171	-135.803	-0.234	0.028
-605.157	-200.000	0.008	0.155
-604.142	-30.576	-0.322	-0.183
-603.128	-200.000	-0.003	0.145
-602.113	585.527	0.185	0.457
-601.098	39.654	-0.178	-0.160
-600.084	202.441	-0.170	-0.264
-599.069	674.008	-0.038	0.100
-598.055	145.611	-0.211	-0.284
-597.040	-1.764	-0.333	-0.236
-596.025	-116.645	0.189	0.035
-595.011	306.741	0.094	0.176
-593.996	-200.000	0.024	0.144
-592.982	-132.566	0.231	0.030
-591.967	130.674	-0.043	0.055
-590.952	298.703	-0.126	0.232
-589.938	42.939	0.119	-0.109
-588.923	251.332	0.054	-0.092
-587.909	-78.258	0.234	0.081
-586.894	296.725	-0.196	-0.360
-585.879	-0.160	0.283	-0.202
-584.865	36.668	-0.180	0.160
-583.850	133.827	0.110	-0.143
-582.836	-200.000	-0.071	-0.333
-581.821	800.000	-0.035	0.154
-580.806	-53.569	0.267	-0.123
-579.792	1.123	0.215	-0.155
-578.777	-144.024	0.103	0.010
-577.763	-140.905	-0.293	0.030
-576.748	403.124	0.028	0.058
-575.733	-15.364	0.414	-0.266
-574.719	-29.123	0.281	-0.162
-573.704	20.184	-0.090	0.073
-572.690	-18.011	-0.112	0.071
-571.675	-68.186	0.206	0.081
-570.661	-200.000	0.041	-0.220
-569.646	-200.000	0.003	-0.130
-568.631	-150.508	0.191	-0.015
-567.617	800.000	0.069	0.201
-566.602	-200.000	-0.013	-0.078
-565.588	772.310	0.056	0.153
-564.573	-23.603	-0.097	0.059
-563.558	-200.000	-0.003	-0.070
-562.544	-200.000	0.030	0.278
-561.529	-122.363	0.376	-0.062
-560.515	-200.000	0.015	-0.072
-559.500	271.620	0.098	0.173
-558.485	341.095	-0.095	0.185
-557.471	-130.775	0.109	-0.015
-556.456	800.000	-0.032	0.136
-555.442	49.950	-0.247	0.234
-554.427	-152.116	-0.112	-0.008
-553.412	-200.000	-0.032	0.196
-552.398	271.263	-0.002	-0.003
-551.383	466.615	0.059	0.133
-550.369	317.708	-0.132	-0.250
-549.354	-123.229	-0.279	-0.045
-548.339	618.473	0.094	-0.238
-547.325	-200.000	0.013	0.080
-546.310	79.492	0.277	0.298
-545.296	800.000	0.037	0.148
-544.281	-200.000	0.051	-0.281
-543.266	-200.000	-0.008	-0.202
-542.252	221.736	-0.236	0.380
-541.237	-113.780	0.211	0.041
-540.223	-116.872	0.168	-0.031
-539.208	364.028	-0.077	-0.155
-538.193	184.331	-0.021	-0.032
-537.179	-200.000	-0.054	0.408
-536.164	-200.000	-0.019	-0.268
-535.150	-200.000	-0.045	0.205
-534.135	202.457	0.186	-0.288
-533.121	-14.690	-0.219	0.141
-532.106	800.000	-0.060	-0.255
-531.091	-91.300	0.208	0.060
-530.077	-50.241	-0.033	-0.016
-529.062	-69.090	-0.299	-0.115
-528.048	-200.000	-0.012	-0.092
-527.033	595.192	0.017	-0.043
-526.018	689.144	-0.048	-0.125
-525.004	145.989	-0.060	-0.081
-523.989	69.266	0.176	-0.181
-522.975	19.187	-0.222	0.179
-521.960	-134.506	0.092	-0.011
-520.945	-200.000	0.008	0.463
-519.931	617.890	-0.113	-0.285
-518.916	404.397	0.059	-0.125
-517.902	476.326	-0.125	-0.283
-516.887	800.000	-0.062	0.240
-515.872	-158.642	0.103	0.006
-514.858	139.049	0.110	-0.145
-513.843	-64.836	-0.364	0.147
-512.829	-164.108	0.118	0.005
-511.814	276.736	0.150	0.267
-510.799	-200.000	-0.010	0.080
-509.785	-29.621	-0.180	-0.103
-508.770	68.364	-0.238	-0.244
-507.756	-9.438	0.124	0.083
-506.741	210.599	-0.155	0.243
-505.726	-68.019	0.146	-0.057
-504.712	233.678	0.007	-0.012
-503.697	-130.622	-0.223	0.030
-502.683	30.846	-0.019	-0.016
-501.668	800.000	-0.016	-0.049
-500.653	-83.093	0.260	-0.084
-499.639	696.654	0.058	-0.154
-498.624	-28.996	0.169	-0.097
-497.610	-39.970	0.203	0.106
-496.595	155.874	-0.174	0.240
-495.581	-74.991	0.045	0.016
-494.566	800.000	-0.040	-0.113
-493.551	-152.524	-0.213	-0.015
-492.537	-200.000	0.005	0.143
-491.522	98.719	-0.157	-0.181
-490.508	-200.000	-0.040	0.204
-489.493	94.701	0.191	-0.217
-488.478	152.679	-0.020	-0.027
-487.464	800.000	-0.099	-0.396
-486.449	41.241	-0.123	-0.111
-485.435	87.159	-0.078	-0.086
-484.420	558.224	0.026	0.062
-483.405	-200.000	-0.322	-0.001
-482.391	-200.000	0.011	-0.134
-481.376	-68.332	0.282	-0.110
-480.362	109.693	-0.171	-0.205
-479.347	280.062	-0.030	0.053
-478.332	-92.525	0.114	0.032
-477.318	144.080	-0.060	0.080
-476.303	-109.948	-0.278	-0.058
-475.289	452.203	-0.131	-0.290
-474.274	-200.000	0.003	0.141
-473.259	124.735	-0.183	-0.231
-472.245	800.000	-0.055	0.185
-471.230	142.241	-0.288	-0.382
-470.216	800.000	0.081	-0.277
-469.201	228.635	-0.003	0.006
-468.186	481.265	-0.140	0.318
-467.172	101.768	0.091	0.106
-466.157	59.404	0.136	0.134
-465.143	176.503	0.026	0.038
-464.128	255.562	-0.198	-0.339
-463.113	-28.218	0.125	-0.072
-462.099	-119.382	-0.175	0.030
-461.084	800.000	-0.098	-0.283
-460.070	272.142	-0.140	-0.247
-459.055	-147.990	0.209	0.017
-458.040	70.138	-0.209	-0.216
-457.026	-109.491	0.366	0.077
-456.011	-200.000	0.021	0.166
-454.997	199.371	0.153	0.234
-453.982	800.000	-0.112	-0.419
-452.968	-34.086	0.087	0.048
-451.953	-16.173	-0.387	-0.246
-450.938	357.071	-0.089	-0.178
-449.924	-24.468	-0.053	0.031
-448.909	137.894	-0.194	0.255
-447.895	433.142	0.074	-0.161
-446.880	0.835	0.201	-0.144
-445.865	-110.300	0.162	0.034
-444.851	-186.639	-0.285	0.004
-443.836	49.178	-0.141	-0.132
-442.822	-119.955	0.351	0.060
-441.807	-64.660	-0.226	0.092
-440.792	555.337	-0.037	0.089
-439.778	57.035	0.206	0.200
-438.763	-96.937	-0.123	0.032
-437.749	82.453	-0.118	0.128
-436.734	203.624	-0.058	0.089
-435.719	-63.834	0.189	0.077
-434.705	509.794	0.125	0.290
-433.690	800.000	0.099	-0.277
-432.676	800.000	0.069	-0.238
-431.661	101.101	0.165	0.191
-430.646	-200.000	0.060	0.311
-429.632	475.556	-0.041	-0.092
-428.617	-116.249	-0.183	-0.034
-427.603	614.014	-0.059	0.147
-426.588	800.000	0.053	0.169
-425.573	-143.515	0.310	0.030
-424.559	74.484	-0.192	-0.201
-423.544	-102.812	0.234	-0.056
-422.530	-6.333	0.388	0.264
-421.515	205.807	0.050	0.078
-420.500	800.000	0.032	0.126
-419.486	171.026	-0.201	-0.287
-418.471	-3.578	0.216	-0.150
-417.457	-10.327	0.190	-0.126
-416.442	-119.378	-0.249	0.043
-415.428	-62.863	-0.230	-0.095
-414.413	-68.523	0.179	-0.069
-413.398	63.701	-0.134	-0.134
-412.384	-200.000	0.029	-0.322
-411.369	-200.000	-0.002	-0.080
-410.355	-120.667	-0.333	-0.056
-409.340	179.669	0.111	-0.162
-408.325	-200.000	-0.002	0.071
-407.311	800.000	0.090	0.299
-406.296	-52.453	-0.041	0.019
-405.282	-30.122	0.142	-0.081
-404.267	-200.000	-0.020	-0.214
-403.252	-200.000	0.001	-0.260
-402.238	-67.471	0.161	0.063
-401.223	134.829	-0.100	0.129
-400.209	526.389	-0.123	-0.288
-399.194	-200.000	0.048	-0.222
-398.179	-87.983	0.056	0.017
-397.165	-159.068	-0.108	0.006
-396.150	-200.000	0.008	0.148
-395.136	301.145	0.201	0.370
-394.121	-4.051	0.113	0.078
-393.106	-200.000	-0.013	0.111
-392.092	-69.883	-0.089	-0.034
-391.077	-70.209	0.349	0.132
-390.063	-23.705	-0.120	0.071
-389.048	800.000	-0.165	-0.533
-388.033	646.558	-0.051	0.129
-387.019	-52.169	-0.084	0.039
-386.004	19.300	-0.262	0.210
-384.990	800.000	-0.041	0.161
-383.975	800.000	0.079	0.235
-382.960	-14.306	-0.044	0.028
-381.946	353.652	-0.146	0.289
-380.931	-6.974	-0.276	0.187
-379.917	-200.000	-0.036	0.173
-378.902	61.709	-0.295	-0.292
-377.888	335.353	0.024	-0.047
-376.873	4.922	0.271	0.199
-375.858	800.000	0.045	0.168
-374.844	-53.397	0.416	0.190
-373.829	110.453	0.182	0.218
-372.815	-24.198	0.360	-0.214
-371.800	-59.404	0.315	-0.135
-370.785	141.245	-0.124	-0.164
-369.771	-140.747	-0.254	0.026
-368.756	226.692	0.017	0.028
-367.742	-200.000	0.006	0.280
-366.727	187.149	0.255	0.378
-365.712	800.000	-0.049	-0.136
-364.698	35.226	0.088	-0.077
-363.683	-51.180	-0.212	-0.099
-362.669	-120.944	0.320	0.054
-361.654	136.101	-0.196	0.255
-360.639	158.721	-0.079	0.109
-359.625	148.853	0.215	-0.289
-358.610	800.000	-0.101	-0.297
-357.596	800.000	0.018	-0.056
-356.581	-132.479	0.254	0.032
-355.566	-136.868	-0.140	-0.016
-354.552	-200.000	-0.011	0.207
-353.537	64.261	0.264	0.264
-352.523	-101.701	-0.178	0.043
-351.508	147.049	0.074	0.099
-350.493	192.276	-0.090	0.135
-349.479	-38.597	-0.303	0.159
-348.464	25.734	-0.128	0.106
-347.450	-200.000	-0.004	0.186
-346.435	-52.454	-0.117	0.054
-345.420	-62.648	-0.324	-0.134
-344.406	-86.728	-0.064	0.020
-343.391	-105.369	0.391	-0.088
-342.377	-36.826	0.235	-0.126
-341.362	-10.099	-0.208	0.137
-340.348	800.000	0.081	-0.300
-339.333	163.451	-0.094	0.131
-338.318	-200.000	-0.015	0.355
-337.304	547.785	0.059	0.141
-336.289	374.074	-0.086	0.174
-335.275	192.461	0.027	0.041
-334.260	1.792	0.204	0.146
-333.245	125.504	0.198	-0.249
-332.231	-53.944	-0.155	-0.070
-331.216	-200.000	-0.015	0.083
-330.202	81.229	0.051	0.054
-329.187	-200.000	0.008	-0.048
-328.172	-52.723	-0.202	0.093
-327.158	-73.563	0.156	-0.057
-326.143	-67.202	-0.102	-0.040
-325.129	-79.239	0.385	-0.130
-324.114	127.698	0.016	0.020
-323.099	800.000	-0.061	0.196
-322.085	-70.923	0.196	-0.073
-321.070	47.603	0.142	-0.132
-320.056	-50.131	0.362	-0.171
-319.041	-101.182	0.098	0.024
-318.026	220.968	-0.035	0.055
-317.012	-137.080	0.145	-0.016
-315.997	800.000	-0.074	0.279
-314.983	-33.274	-0.211	0.116
-313.968	-106.003	-0.363	0.081
-312.953	145.699	-0.253	0.337
-311.939	-78.144	0.165	0.056
-310.924	-104.111	0.186	0.043
-309.910	-99.184	0.054	-0.014
-308.895	800.000	-0.104	-0.412
-307.880	-130.935	0.183	0.024
-306.866	29.558	-0.441	-0.373
-305.851	6.250	-0.289	0.213
-304.837	-200.000	0.001	0.097
-303.822	-200.000	-0.006	-0.113
-302.807	800.000	-0.161	-0.529
-301.793	-200.000	0.040	-0.223
-300.778	-141.459	-0.274	-0.028
-299.764	500.664	-0.014	0.033
-298.749	274.727	-0.109	0.193
-297.735	8.928	0.105	0.079
-296.720	-78.498	0.548	0.186
-295.705	35.731	0.102	-0.089
-294.691	-54.392	-0.107	-0.048
-293.676	-28.863	-0.400	-0.228
-292.662	-43.147	0.029	-0.015
-291.647	-65.556	0.092	-0.037
-290.632	-104.808	-0.337	0.077
-289.618	-0.263	0.105	-0.074
-288.603	800.000	-0.135	0.373
-287.589	14.379	0.352	-0.272
-286.574	-200.000	-0.038	0.218
-285.559	126.415	-0.034	0.043
-284.545	-155.500	0.211	-0.013
-283.530	-200.000	-0.009	-0.065
-282.516	-200.000	-0.010	0.087
-281.501	-70.995	-0.204	-0.076
-280.486	-200.000	-0.010	-0.102
-279.472	267.100	0.104	-0.180
-278.457	-200.000	-0.069	0.534
-277.443	-167.562	-0.157	0.006
-276.428	800.000	0.061	-0.220
-275.413	284.931	0.061	-0.108
-274.399	1.453	0.209	0.149
-273.384	800.000	0.018	0.072
-272.370	137.030	0.013	-0.017
-271.355	-200.000	0.002	0.127
-270.340	121.200	-0.093	0.114
-269.326	-191.850	-0.106	0.001
-268.311	165.580	0.037	-0.052
-267.297	533.632	-0.102	-0.241
-266.282	312.843	0.084	0.156
-265.267	-80.937	0.231	-0.076
-264.253	70.119	-0.034	-0.035
-263.238	-200.000	0.059	-0.284
-262.224	156.447	0.111	0.152
-261.209	18.334	-0.259	0.205
-260.195	235.525	-0.139	-0.227
-259.180	800.000	-0.086	-0.267
-258.165	-111.399	-0.029	-0.006
-257.151	-36.584	-0.081	0.043
-256.136	271.267	-0.153	0.267
-255.122	-118.278	0.173	0.031
-254.107	-0.466	0.129	-0.091
-253.092	-200.000	0.006	0.076
-252.078	-118.416	-0.098	0.017
-251.063	-200.000	0.001	-0.250
-250.049	-200.000	0.036	0.161
-249.034	202.267	0.130	-0.199
-248.019	-145.152	-0.095	-0.009
-247.005	223.077	0.186	0.298
-245.990	-111.029	-0.243	0.049
-244.976	290.927	0.186	0.335
-243.961	-34.192	0.257	-0.140
-242.946	30.433	0.206	-0.174
-241.932	276.460	-0.057	0.101
-240.917	135.198	-0.274	0.354
-239.903	309.775	0.085	-0.158
-238.888	-200.000	-0.038	0.169
-237.873	14.094	0.082	-0.064
-236.859	-200.000	-0.023	0.132
-235.844	170.588	-0.058	0.083
-234.830	-192.246	-0.140	0.001
-233.815	-4.033	-0.279	0.191
-232.800	45.489	-0.115	-0.105
-231.786	-137.259	0.266	-0.030
-230.771	-200.000	-0.003	-0.303
-229.757	-200.000	0.006	-0.176
-228.742	-40.409	-0.136	-0.070
-227.727	19.575	0.250	-0.199
-226.713	-200.000	0.067	0.306
-225.698	800.000	-0.027	-0.107
-224.684	20.605	-0.144	-0.115
-223.669	150.265	-0.061	-0.082
-222.655	-144.788	0.244	-0.022
-221.640	41.865	0.184	-0.165
-220.625	-200.000	-0.044	0.358
-219.611	-2.673	-0.161	0.111
-218.596	11.963	0.177	-0.134
-217.582	22.997	-0.186	0.151
-216.567	146.476	0.192	-0.255
-215.552	553.083	-0.120	0.285
-214.538	-23.018	-0.108	0.064
-213.523	-3.801	-0.065	-0.045
-212.509	137.381	0.196	-0.253
-211.494	217.570	0.045	0.072
-210.479	-13.759	-0.103	0.066
-209.465	-200.000	0.021	-0.128
-208.450	-200.000	0.009	-0.117
-207.436	262.071	-0.102	-0.175
-206.421	-78.131	0.144	-0.049
-205.406	-78.141	0.099	-0.034
-204.392	466.748	-0.126	-0.279
-203.377	69.653	0.155	-0.158
-202.363	-68.042	0.418	-0.161
-201.348	156.492	0.291	0.398
-200.333	155.160	-0.096	0.130
-199.319	1.675	-0.127	-0.091
-198.304	790.866	0.056	0.152
-197.290	200.109	0.241	0.366
-196.275	132.830	-0.231	0.295
-195.260	2.188	-0.079	0.056
-194.246	800.000	-0.196	-0.548
-193.231	408.036	0.102	-0.213
-192.217	459.352	-0.098	0.216
-191.202	-200.000	0.029	0.203
-190.187	800.000	-0.007	-0.029
-189.173	147.600	0.224	0.298
-188.158	-104.487	0.332	0.076
-187.144	-74.905	-0.190	-0.067
-186.129	-160.050	-0.190	0.010
-185.114	-115.106	-0.474	0.089
-184.100	11.820	0.234	0.177
-183.085	-198.505	0.340	-0.002
-182.071	-200.000	0.014	0.234
-181.056	-200.000	-0.006	-0.051
-180.042	513.281	0.080	0.184
-179.027	-97.144	-0.152	-0.039
-178.012	-170.437	-0.232	0.008
-176.998	-74.223	0.115	-0.041
-175.983	-145.884	0.279	-0.025
-174.969	254.529	0.048	-0.081
-173.954	800.000	-0.092	-0.383
-172.939	800.000	-0.054	0.184
-171.925	57.632	-0.093	-0.090
-170.910	-10.841	0.194	0.127
-169.896	-200.000	-0.011	0.161
-168.881	-85.364	0.211	0.065
-167.866	272.022	0.194	0.337
-166.852	666.798	0.120	0.306
-165.837	-200.000	0.001	-0.041
-164.823	4.661	-0.149	0.108
-163.808	-81.260	-0.177	-0.058
-162.793	72.008	0.019	0.019
-161.779	77.392	-0.276	0.290
-160.764	181.802	0.091	-0.132
-159.750	-61.935	-0.351	0.145
-158.735	479.762	0.056	0.126
-157.720	-189.262	-0.230	-0.003
-156.706	-139.624	0.109	0.011
-155.691	-37.264	0.173	0.091
-154.677	-200.000	0.023	0.296
-153.662	-142.397	-0.078	0.008
-152.647	30.411	0.096	0.081
-151.633	229.605	0.107	0.172
-150.618	466.287	-0.126	0.278
-149.604	-200.000	-0.027	0.117
-148.589	-89.017	-0.187	-0.055
-147.574	-44.209	0.190	-0.094
-146.560	-200.000	-0.019	-0.121
-145.545	800.000	0.113	0.335
-144.531	-3.349	0.210	0.144
-143.516	707.747	0.048	0.125
-142.502	14.865	0.213	0.165
-141.487	-133.976	0.283	-0.035
-140.472	17.099	-0.171	0.134
-139.458	-162.002	0.060	-0.003
-138.443	741.058	-0.065	-0.172
-137.429	22.609	0.214	0.172
-136.414	800.000	0.094	-0.268
-135.399	12.885	0.057	0.044
-134.385	-51.629	-0.149	-0.068
-133.370	-101.944	-0.170	0.041
-132.356	76.477	-0.144	-0.151
-131.341	208.536	-0.049	0.076
-130.326	-200.000	-0.044	-0.191
-129.312	-91.922	-0.210	-0.059
-128.297	-200.000	-0.011	-0.200
-127.283	-37.944	-0.192	0.100
-126.268	-200.000	0.061	0.389
-125.253	-1.377	0.180	-0.125
-124.239	-200.000	-0.029	-0.534
-123.224	-158.781	0.087	-0.005
-122.210	430.467	0.030	0.063
-121.195	323.214	0.008	0.015
