DTS Sentinel unit serial number:	SN413079Multiplexer serial number:	ORYXHardware model number:	OX4-SRSoftware version number:	ORYX F/W v4.00 Oryx Data Collector v3.7.2.0data status	okinstallation	princeton_trtdifferential loss correction	single-endedforward channel	channel 3reverse channel	N/Adate	2019/09/15time	22:04:34forward acquisition time	60.00reverse acquisition time	0.00gamma	496.2192k internal	0.2330k external	0.2330temperature offset calibration	0.9945default loss term (dB/km)	0.3790temperature slope calibration	1.0000multiplexer offset coefficient	1.0000multiplexer slope coefficient	1.0000fibre end	0.00T internal ref (°C)	29.75T ext. ref 1 (°C)	8.55T ext. ref 2 (°C)	22.98length (m)	temperature (°C)	Stokes	anti-Stokes-747.200	-200.000	-0.029	0.421
-746.185	273.502	-0.129	0.229
-745.171	-124.866	-0.080	-0.012
-744.156	-200.000	-0.009	0.175
-743.142	800.000	0.107	0.409
-742.127	38.917	-0.486	0.437
-741.112	260.257	-0.075	-0.130
-740.098	768.296	0.126	-0.344
-739.083	-73.845	0.192	-0.070
-738.069	23.403	-0.143	0.118
-737.054	-29.425	0.118	-0.068
-736.039	800.000	-0.102	-0.292
-735.025	-97.613	-0.084	-0.022
-734.010	-200.000	-0.019	-0.186
-732.996	-117.704	-0.242	-0.044
-731.981	258.376	-0.164	-0.285
-730.966	43.099	0.121	0.111
-729.952	800.000	-0.027	-0.091
-728.937	-30.604	-0.112	0.064
-727.923	-44.041	-0.299	-0.151
-726.908	800.000	0.056	0.201
-725.894	35.329	-0.263	0.232
-724.879	265.185	0.073	-0.128
-723.864	800.000	0.083	0.276
-722.850	-200.000	0.013	-0.132
-721.835	-105.804	-0.108	-0.025
-720.821	21.809	-0.088	0.072
-719.806	-62.368	0.157	0.066
-718.791	-200.000	0.017	-0.172
-717.777	48.698	-0.140	-0.132
-716.762	800.000	-0.029	-0.123
-715.748	-33.266	-0.103	0.057
-714.733	44.319	-0.105	0.097
-713.718	237.910	-0.112	0.187
-712.704	800.000	0.056	0.168
-711.689	265.116	-0.174	0.304
-710.675	-113.778	0.410	-0.080
-709.660	-106.942	-0.313	0.070
-708.645	84.936	-0.120	0.132
-707.631	-200.000	-0.016	0.106
-706.616	-200.000	-0.057	0.254
-705.602	-28.299	-0.132	0.076
-704.587	-44.274	0.074	-0.037
-703.572	232.682	0.188	-0.311
-702.558	-200.000	0.013	-0.149
-701.543	188.916	-0.184	-0.277
-700.529	7.730	0.037	0.028
-699.514	136.896	-0.127	-0.166
-698.499	-200.000	-0.113	-0.572
-697.485	677.518	-0.096	0.250
-696.470	0.031	-0.174	0.125
-695.456	-127.220	-0.158	0.023
-694.441	230.712	-0.034	0.055
-693.426	-200.000	-0.019	0.317
-692.412	71.279	-0.121	0.126
-691.397	449.915	-0.069	-0.153
-690.383	-159.423	0.417	0.023
-689.368	-120.652	0.039	-0.007
-688.354	-151.290	-0.260	-0.019
-687.339	-20.777	-0.299	-0.184
-686.324	233.291	0.183	-0.303
-685.310	800.000	0.024	-0.087
-684.295	-4.182	-0.208	0.145
-683.281	101.483	0.061	0.071
-682.266	-177.261	-0.314	0.008
-681.251	89.297	-0.072	-0.081
-680.237	-200.000	0.046	0.306
-679.222	800.000	-0.104	-0.411
-678.208	83.261	-0.304	0.332
-677.193	800.000	0.080	-0.303
-676.178	800.000	-0.094	-0.321
-675.164	88.862	0.298	-0.333
-674.149	0.326	0.097	0.070
-673.135	723.109	-0.196	-0.524
-672.120	-143.852	-0.151	-0.014
-671.105	-191.936	-0.216	0.002
-670.091	800.000	-0.058	-0.213
-669.076	-200.000	0.000	0.182
-668.062	-40.239	0.215	-0.112
-667.047	-200.000	-0.074	0.329
-666.032	18.482	-0.061	0.049
-665.018	-200.000	0.087	-0.000
-664.003	24.980	-0.029	0.024
-662.989	-200.000	-0.024	0.191
-661.974	42.053	0.119	-0.108
-660.959	-152.798	-0.279	-0.020
-659.945	13.404	-0.205	-0.159
-658.930	-200.000	0.050	0.370
-657.916	15.665	0.341	-0.269
-656.901	35.736	-0.117	0.103
-655.886	5.704	0.197	-0.146
-654.872	-200.000	-0.009	-0.111
-653.857	-200.000	0.016	0.126
-652.843	-3.696	-0.166	-0.116
-651.828	-111.248	-0.189	0.039
-650.814	52.122	0.184	-0.176
-649.799	800.000	-0.104	-0.291
-648.784	-200.000	-0.063	0.477
-647.770	-157.342	-0.156	0.009
-646.755	-38.306	-0.054	0.029
-645.741	363.564	-0.030	0.061
-644.726	-38.504	-0.201	-0.107
-643.711	800.000	-0.088	0.263
-642.697	-39.601	0.236	-0.124
-641.682	-54.655	0.222	-0.100
-640.668	800.000	0.043	-0.183
-639.653	-0.299	0.263	-0.187
-638.638	-97.571	-0.088	0.023
-637.624	800.000	-0.117	0.335
-636.609	122.252	-0.221	0.277
-635.595	564.550	0.044	0.108
-634.580	62.144	0.242	0.242
-633.565	-200.000	-0.050	-0.257
-632.551	63.094	-0.446	-0.448
-631.536	-200.000	-0.179	0.001
-630.522	-34.565	0.391	0.215
-629.507	84.628	0.283	-0.311
-628.492	85.260	0.170	-0.187
-627.478	-200.000	-0.039	0.191
-626.463	333.985	0.077	0.149
-625.449	-176.704	0.089	-0.002
-624.434	164.002	0.057	-0.081
-623.419	-157.389	0.131	-0.008
-622.405	-12.499	0.239	-0.156
-621.390	-171.188	0.025	0.001
-620.376	-200.000	0.045	0.284
-619.361	-143.445	-0.312	-0.030
-618.346	-142.652	-0.333	-0.033
-617.332	800.000	-0.069	-0.238
-616.317	267.493	-0.141	0.247
-615.303	-67.007	0.222	0.088
-614.288	-200.000	-0.033	0.282
-613.273	800.000	0.064	-0.188
-612.259	7.339	-0.183	0.137
-611.244	-143.753	0.054	-0.005
-610.230	800.000	0.135	0.407
-609.215	-16.179	0.121	-0.077
-608.201	186.597	-0.071	0.105
-607.186	11.999	-0.207	-0.159
-606.171	652.772	-0.102	0.261
-605.157	-90.395	0.283	-0.082
-604.142	-121.710	-0.102	0.017
-603.128	800.000	-0.104	0.368
-602.113	35.815	-0.298	-0.263
-601.098	800.000	-0.018	-0.072
-600.084	133.264	0.043	-0.055
-599.069	-15.186	0.155	0.099
-598.055	220.756	0.051	0.081
-597.040	-116.773	-0.507	0.093
-596.025	-26.556	-0.155	0.091
-595.011	-177.484	-0.298	-0.007
-593.996	147.788	-0.148	0.199
-592.982	349.604	0.171	0.337
-591.967	443.297	-0.070	0.154
-590.952	-94.095	-0.374	-0.103
-589.938	-32.165	-0.343	0.192
-588.923	-4.108	0.283	0.196
-587.909	126.488	0.128	-0.162
-586.894	242.989	0.124	-0.208
-585.879	3.410	-0.209	0.152
-584.865	-153.367	0.023	0.002
-583.850	450.173	-0.130	-0.286
-582.836	800.000	0.042	-0.174
-581.821	175.685	-0.135	-0.196
-580.806	-13.524	0.216	-0.140
-579.792	-0.902	-0.439	-0.311
-578.777	132.249	-0.076	-0.097
-577.763	-139.464	0.402	0.043
-576.748	154.930	-0.135	0.186
-575.733	-9.131	-0.168	-0.112
-574.719	-123.479	-0.222	-0.035
-573.704	-117.717	0.139	0.025
-572.690	800.000	0.059	0.196
-571.675	511.768	-0.069	0.162
-570.661	-200.000	-0.005	-0.125
-569.646	126.427	0.180	-0.228
-568.631	800.000	-0.089	-0.255
-567.617	-19.139	0.284	0.177
-566.602	-200.000	-0.047	0.288
-565.588	800.000	0.046	0.191
-564.573	-131.613	-0.232	-0.030
-563.558	72.670	-0.176	-0.184
-562.544	22.608	0.117	-0.096
-561.529	-50.879	-0.263	0.124
-560.515	47.258	0.089	-0.083
-559.500	31.638	0.158	-0.136
-558.485	800.000	-0.064	-0.238
-557.471	-27.051	-0.077	0.045
-556.456	-142.133	0.106	0.010
-555.442	800.000	0.078	0.331
-554.427	211.052	0.052	0.082
-553.412	161.740	0.044	-0.061
-552.398	-200.000	-0.062	0.456
-551.383	-164.091	0.264	0.012
-550.369	-22.367	-0.320	-0.194
-549.354	255.844	-0.077	0.131
-548.339	-136.029	0.210	-0.025
-547.325	190.585	0.125	0.187
-546.310	-200.000	-0.018	0.106
-545.296	607.395	0.098	0.243
-544.281	11.691	0.124	0.095
-543.266	-200.000	-0.001	-0.047
-542.252	-200.000	-0.042	0.240
-541.237	-66.809	0.307	-0.121
-540.223	800.000	0.054	-0.176
-539.208	600.600	-0.073	0.181
-538.193	-74.294	0.329	-0.119
-537.179	20.009	-0.160	-0.129
-536.164	-110.618	-0.181	-0.037
-535.150	-38.096	-0.114	0.060
-534.135	-200.000	0.016	0.146
-533.121	-181.623	-0.216	0.004
-532.106	-43.964	-0.159	0.080
-531.091	800.000	-0.058	-0.170
-530.077	111.675	0.099	0.119
-529.062	266.891	-0.026	-0.046
-528.048	-79.962	0.133	-0.045
-527.033	-89.878	0.431	-0.126
-526.018	-200.000	0.037	-0.222
-525.004	110.031	-0.039	0.046
-523.989	-200.000	-0.013	-0.140
-522.975	-110.800	0.249	-0.051
-521.960	800.000	0.100	-0.333
-520.945	800.000	-0.061	0.198
-519.931	-200.000	-0.050	0.230
-518.916	544.087	-0.103	0.245
-517.902	-200.000	0.066	0.376
-516.887	635.854	-0.048	0.121
-515.872	241.168	-0.101	-0.168
-514.858	-5.087	0.125	-0.086
-513.843	-37.378	-0.174	0.093
-512.829	-200.000	-0.055	-0.265
-511.814	17.680	-0.114	0.090
-510.799	-70.362	-0.066	0.025
-509.785	-39.727	0.181	0.094
-508.770	-44.053	-0.197	0.099
-507.756	-200.000	-0.016	-0.272
-506.741	800.000	0.095	-0.310
-505.726	703.527	-0.030	0.080
-504.712	-144.124	0.247	0.023
-503.697	-119.694	-0.319	0.055
-502.683	-200.000	0.017	0.150
-501.668	-59.877	0.096	-0.041
-500.653	-169.483	-0.282	0.010
-499.639	494.696	-0.116	0.265
-498.624	-117.319	0.195	-0.035
-497.610	227.961	-0.092	-0.150
-496.595	-139.830	-0.244	-0.026
-495.581	407.569	0.136	-0.287
-494.566	-1.402	-0.301	0.212
-493.551	66.101	0.176	0.179
-492.537	-200.000	0.012	0.333
-491.522	-14.328	0.235	0.151
-490.508	16.512	-0.253	0.199
-489.493	-76.108	0.133	0.047
-488.478	-75.227	0.177	-0.063
-487.464	51.292	-0.201	-0.190
-486.449	313.396	0.059	-0.110
-485.435	582.600	-0.032	0.079
-484.420	-26.924	0.094	-0.055
-483.405	201.611	-0.136	0.208
-482.391	800.000	-0.046	0.172
-481.376	800.000	0.025	-0.103
-480.362	68.729	-0.191	-0.195
-479.347	-49.249	-0.428	0.204
-478.332	348.069	-0.087	0.170
-477.318	641.245	0.050	-0.126
-476.303	5.380	-0.187	-0.138
-475.289	66.363	0.195	0.197
-474.274	-136.769	-0.092	0.011
-473.259	97.739	0.237	0.271
-472.245	-82.226	-0.354	-0.115
-471.230	80.420	0.045	0.048
-470.216	38.675	-0.188	-0.167
-469.201	-116.446	-0.225	0.041
-468.186	800.000	0.063	-0.270
-467.172	746.178	-0.068	-0.182
-466.157	-200.000	0.035	0.307
-465.143	-99.388	-0.075	-0.019
-464.128	-52.107	0.147	-0.068
-463.113	-200.000	0.011	0.191
-462.099	-99.098	-0.113	-0.028
-461.084	28.492	0.237	-0.200
-460.070	220.821	-0.102	-0.162
-459.055	800.000	0.068	0.189
-458.040	164.612	0.146	-0.205
-457.026	-68.848	-0.246	-0.095
-456.011	-21.595	-0.301	-0.183
-454.997	-200.000	0.032	-0.151
-453.982	-174.758	-0.244	0.007
-452.968	-96.974	0.149	-0.039
-451.953	-43.635	-0.035	-0.017
-450.938	800.000	0.049	0.148
-449.924	-91.446	0.260	-0.074
-448.909	369.699	0.155	-0.312
-447.895	-34.566	0.295	0.160
-446.880	60.108	0.173	0.170
-445.865	-142.872	0.194	-0.019
-444.851	-9.169	0.226	-0.150
-443.836	-149.409	0.213	-0.017
-442.822	-200.000	-0.007	-0.050
-441.807	-178.856	-0.268	-0.006
-440.792	-70.967	0.191	0.072
-439.778	-19.101	-0.250	-0.154
-438.763	-88.971	-0.196	0.058
-437.749	-0.034	0.095	0.067
-436.734	-100.681	-0.068	0.017
-435.719	-200.000	0.065	-0.474
-434.705	60.719	0.126	0.125
-433.690	-10.344	-0.269	0.178
-432.676	-91.091	0.394	0.113
-431.661	-32.420	0.128	-0.071
-430.646	-47.535	0.102	0.049
-429.632	159.491	-0.102	-0.142
-428.617	375.764	0.152	-0.308
-427.603	-64.357	-0.031	0.013
-426.588	85.810	-0.204	0.223
-425.573	211.226	0.301	-0.470
-424.559	193.719	0.151	0.228
-423.544	-40.358	0.133	-0.069
-422.530	-51.478	0.343	0.159
-421.515	211.447	-0.190	0.298
-420.500	-200.000	0.023	0.287
-419.486	-200.000	-0.041	-0.264
-418.471	-61.592	0.394	-0.165
-417.457	-50.760	0.257	0.120
-416.442	-163.258	-0.403	-0.019
-415.428	-125.789	-0.363	0.054
-414.413	57.471	0.048	-0.047
-413.398	242.302	-0.089	-0.148
-412.384	-93.042	-0.134	0.037
-411.369	-200.000	0.007	-0.056
-410.355	371.424	0.053	-0.107
-409.340	-123.767	0.276	-0.043
-408.325	-136.522	-0.333	0.038
-407.311	-61.407	-0.041	-0.017
-406.296	-200.000	-0.011	0.064
-405.282	-78.854	0.292	-0.099
-404.267	-89.203	-0.092	-0.027
-403.252	800.000	-0.036	-0.116
-402.238	-87.718	0.086	0.026
-401.223	97.609	-0.137	-0.157
-400.209	-200.000	-0.007	0.222
-399.194	-200.000	0.028	0.136
-398.179	-5.551	0.457	-0.311
-397.165	12.723	-0.194	-0.149
-396.150	68.153	-0.269	0.274
-395.136	-19.244	0.190	0.117
-394.121	108.604	-0.153	-0.182
-393.106	800.000	-0.020	0.084
-392.092	-75.439	0.105	-0.037
-391.077	35.158	-0.387	-0.337
-390.063	-128.536	0.245	0.035
-389.048	-104.375	-0.055	-0.013
-388.033	-200.000	0.059	0.448
-387.019	-200.000	-0.010	0.139
-386.004	-200.000	-0.055	0.403
-384.990	-87.937	0.421	-0.126
-383.975	-200.000	-0.026	0.218
-382.960	240.200	-0.112	-0.185
-381.946	-53.915	0.102	0.046
-380.931	-111.333	-0.175	-0.035
-379.917	-96.197	0.298	0.078
-378.902	-3.377	-0.126	-0.087
-377.888	-42.441	0.117	0.059
-376.873	800.000	-0.062	0.179
-375.858	800.000	0.018	0.056
-374.844	800.000	-0.057	-0.208
-373.829	129.107	-0.033	0.042
-372.815	800.000	0.039	0.163
-371.800	-14.438	0.057	0.036
-370.785	-109.748	0.277	-0.058
-369.771	-99.330	-0.081	0.020
-368.756	-200.000	-0.032	0.341
-367.742	207.864	-0.143	-0.221
-366.727	-200.000	-0.013	0.135
-365.712	515.812	-0.110	0.255
-364.698	-114.115	0.052	0.010
-363.683	27.499	-0.161	0.134
-362.669	338.043	0.225	-0.435
-361.654	-200.000	-0.007	-0.173
-360.639	-200.000	-0.000	0.101
-359.625	206.711	0.099	-0.154
-358.610	800.000	-0.016	0.048
-357.596	-39.720	-0.133	-0.069
-356.581	-19.886	-0.210	-0.128
-355.566	-200.000	-0.004	-0.096
-354.552	-39.037	0.257	-0.134
-353.537	-200.000	-0.039	0.510
-352.523	83.204	0.048	-0.051
-351.508	-200.000	-0.003	-0.376
-350.493	351.804	0.079	0.156
-349.479	-200.000	0.036	-0.210
-348.464	-200.000	-0.016	0.333
-347.450	212.404	0.057	0.088
-346.435	61.121	-0.183	0.180
-345.420	563.803	0.097	-0.233
-344.406	-17.597	0.294	0.183
-343.391	-200.000	0.043	-0.215
-342.377	-52.684	-0.103	0.047
-341.362	800.000	-0.021	-0.083
-340.348	-40.791	0.204	-0.105
-339.333	462.372	0.132	-0.293
-338.318	-122.725	0.069	-0.011
-337.304	-42.997	0.162	-0.081
-336.289	-200.000	-0.024	-0.124
-335.275	-200.000	-0.017	-0.087
-334.260	-92.215	-0.121	-0.034
-333.245	23.277	0.074	-0.060
-332.231	144.940	0.138	-0.182
-331.216	163.991	-0.136	0.190
-330.202	-200.000	0.021	-0.130
-329.187	-200.000	-0.001	-0.067
-328.172	100.526	-0.137	0.157
-327.158	-35.344	-0.103	-0.055
-326.143	225.005	0.066	-0.106
-325.129	481.594	0.152	0.342
-324.114	-191.476	-0.212	0.002
-323.099	-153.251	-0.142	-0.010
-322.085	-104.899	-0.211	-0.048
-321.070	-6.905	-0.346	0.233
-320.056	-94.379	0.271	-0.073
-319.041	41.206	0.028	0.025
-318.026	-69.618	-0.159	-0.060
-317.012	250.162	-0.073	-0.122
-315.997	433.017	0.077	-0.165
-314.983	366.661	0.065	-0.130
-313.968	362.949	0.207	0.412
-312.953	39.513	-0.127	0.113
-311.939	176.800	0.288	0.415
-310.924	-101.573	0.168	0.040
-309.910	-116.515	-0.193	-0.035
-308.895	347.330	0.017	0.033
-307.880	-171.458	-0.352	0.012
-306.866	-200.000	-0.039	-0.454
-305.851	-200.000	-0.022	-0.125
-304.837	-153.234	-0.269	-0.019
-303.822	24.618	0.294	0.241
-302.807	-200.000	-0.016	0.158
-301.793	-200.000	0.020	0.269
-300.778	18.065	-0.223	-0.176
-299.764	-89.514	-0.201	0.058
-298.749	800.000	0.071	-0.198
-297.735	21.454	0.185	-0.149
-296.720	27.604	-0.236	-0.196
-295.705	299.427	-0.148	0.270
-294.691	143.284	-0.120	0.158
-293.676	-56.243	0.158	0.069
-292.662	-92.782	0.240	0.066
-291.647	800.000	-0.029	-0.095
-290.632	-116.116	-0.268	-0.049
-289.618	405.576	-0.120	-0.250
-288.603	-200.000	-0.001	0.220
-287.589	-21.454	-0.222	0.134
-286.574	423.699	-0.051	0.108
-285.559	679.880	-0.046	0.119
-284.545	-9.055	0.238	0.158
-283.530	-137.960	-0.116	0.013
-282.516	-200.000	-0.010	0.222
-281.501	-113.113	0.216	0.042
-280.486	800.000	-0.039	-0.130
-279.472	-45.153	-0.243	-0.119
-278.457	40.447	0.091	-0.081
-277.443	800.000	0.028	0.090
-276.428	17.872	-0.331	-0.261
-275.413	-181.170	-0.266	0.005
-274.399	218.271	0.059	0.094
-273.384	-37.020	0.234	0.124
-272.370	348.988	0.114	-0.223
-271.355	-119.093	-0.216	-0.037
-270.340	-200.000	0.013	0.082
-269.326	-65.457	0.283	-0.112
-268.311	475.499	-0.051	0.115
-267.297	-122.385	-0.187	0.030
-266.282	-27.959	-0.289	0.165
-265.267	-7.106	0.246	0.165
-264.253	39.576	-0.162	-0.144
-263.238	-112.421	0.372	0.073
-262.224	200.473	0.111	-0.168
-261.209	339.220	0.107	-0.205
-260.195	121.783	-0.114	-0.141
-259.180	-141.083	-0.157	-0.016
-258.165	-177.058	-0.170	-0.004
-257.151	195.689	-0.145	-0.218
-256.136	47.490	0.040	-0.037
-255.122	271.709	-0.006	0.011
-254.107	42.526	-0.056	-0.050
-253.092	-136.113	0.161	-0.019
-252.078	31.826	-0.119	0.102
-251.063	-38.098	-0.166	0.087
-250.049	-200.000	0.000	0.137
-249.034	-200.000	0.082	-0.363
-248.019	-200.000	0.002	0.066
-247.005	-22.408	-0.286	-0.171
-245.990	3.487	-0.143	-0.103
-244.976	-114.291	0.215	0.041
-243.961	239.210	0.097	0.158
-242.946	59.084	-0.075	0.073
-241.932	-101.610	-0.110	0.026
-240.917	241.239	0.179	0.294
-239.903	-65.974	0.160	0.063
-238.888	-114.284	-0.140	-0.027
-237.873	-93.865	0.119	-0.032
-236.859	800.000	-0.008	0.029
-235.844	-145.249	0.251	-0.022
-234.830	-48.790	0.154	-0.073
-233.815	-66.869	0.147	0.057
-232.800	-200.000	0.027	-0.200
-231.786	-50.132	-0.321	-0.150
-230.771	800.000	-0.072	0.288
-229.757	18.042	0.045	0.036
-228.742	-78.362	-0.283	0.096
-227.727	89.485	0.243	-0.268
-226.713	50.846	0.210	-0.196
-225.698	-93.284	-0.125	0.034
-224.684	267.461	-0.152	-0.262
-223.669	-200.000	0.031	0.160
-222.655	-200.000	-0.012	0.183
-221.640	-200.000	-0.023	0.132
-220.625	738.796	0.093	-0.246
-219.611	-63.356	0.216	-0.088
-218.596	-89.744	0.259	0.075
-217.582	94.432	0.230	-0.258
-216.567	800.000	-0.020	0.062
-215.552	116.208	-0.081	0.098
-214.538	-200.000	-0.009	0.091
-213.523	-102.581	0.233	0.055
-212.509	-164.840	0.485	-0.021
-211.494	-200.000	-0.040	-0.261
-210.479	17.202	0.120	0.094
-209.465	290.664	-0.155	0.278
-208.450	156.354	0.163	-0.222
-207.436	25.678	-0.133	0.109
-206.421	38.006	0.138	0.121
-205.406	-116.203	-0.118	-0.022
-204.392	-200.000	0.019	-0.523
-203.377	-115.427	-0.143	0.027
-202.363	-158.268	-0.302	0.017
-201.348	-160.967	0.397	0.021
-200.333	-14.981	0.481	0.304
-199.319	277.319	-0.275	0.482
-198.304	182.937	0.148	-0.216
-197.290	-123.768	-0.256	-0.040
-196.275	-200.000	-0.006	0.374
-195.260	9.366	-0.098	0.073
-194.246	103.581	0.240	0.278
-193.231	-105.122	0.130	0.029
-192.217	800.000	-0.099	-0.302
-191.202	800.000	0.065	-0.193
-190.187	-200.000	-0.067	-0.297
-189.173	155.680	-0.088	0.119
-188.158	217.367	-0.072	0.113
-187.144	-114.271	0.143	0.027
-186.129	295.876	0.097	-0.175
-185.114	800.000	0.080	0.337
-184.100	-200.000	0.032	-0.302
-183.085	-11.100	0.212	0.138
-182.071	404.637	0.069	-0.144
-181.056	11.006	-0.203	-0.152
-180.042	152.975	0.169	0.227
-179.027	12.010	-0.146	-0.111
-178.012	305.364	0.081	-0.148
-176.998	33.509	-0.212	-0.182
-175.983	-105.419	0.100	-0.022
-174.969	-200.000	0.053	-0.279
-173.954	-73.275	-0.069	-0.025
-172.939	63.437	0.252	0.249
-171.925	-34.590	-0.099	0.053
-170.910	800.000	-0.032	-0.098
-169.896	-137.095	-0.219	0.025
-168.881	-200.000	0.103	-0.510
-167.866	-11.528	0.180	0.117
-166.852	44.977	0.107	-0.097
-165.837	-154.827	-0.255	-0.017
-164.823	-131.645	-0.330	0.043
-163.808	120.489	0.076	-0.093
-162.793	-200.000	0.079	-0.381
-161.779	-113.654	0.096	-0.018
-160.764	280.997	-0.099	-0.175
-159.750	160.948	-0.044	-0.060
-158.735	197.143	-0.124	0.186
-157.720	-84.122	0.124	0.039
-156.706	-142.114	0.283	0.028
-155.691	-61.144	0.093	-0.039
-154.677	581.193	0.220	-0.530
-153.662	31.036	0.160	0.135
-152.647	-67.366	-0.348	-0.134
-151.633	-151.130	0.168	-0.012
-150.618	143.528	0.121	0.158
-149.604	-200.000	0.035	-0.184
-148.589	-200.000	0.027	-0.119
-147.574	-178.061	-0.090	0.002
-146.560	-200.000	0.005	-0.166
-145.545	-200.000	0.360	-0.001
-144.531	800.000	-0.046	-0.197
-143.516	161.881	-0.132	-0.181
-142.502	-135.376	0.323	-0.038
-141.487	369.255	0.155	0.309
-140.472	45.691	0.285	-0.259
-139.458	-140.291	-0.099	-0.010
-138.443	331.954	-0.010	0.019
-137.429	39.092	-0.261	0.229
-136.414	275.195	0.098	0.172
-135.399	800.000	0.129	-0.466
-134.385	-192.032	-0.120	0.001
-133.370	-200.000	0.004	0.029
-132.356	25.206	0.039	-0.032
-131.341	173.292	-0.149	-0.211
-130.326	-200.000	-0.003	0.071
-129.312	-30.571	0.275	0.153
-128.297	420.799	0.026	-0.055
-127.283	322.925	-0.013	-0.025
-126.268	34.467	0.039	-0.034
-125.253	800.000	0.232	0.641
-124.239	800.000	-0.001	0.002
-123.224	-200.000	-0.019	-0.147
-122.210	800.000	0.052	0.178
