DTS Sentinel unit serial number:	SN413079Multiplexer serial number:	ORYXHardware model number:	OX4-SRSoftware version number:	ORYX F/W v4.00 Oryx Data Collector v3.7.2.0data status	okinstallation	princeton_trtdifferential loss correction	single-endedforward channel	channel 3reverse channel	N/Adate	2019/09/15time	13:04:35forward acquisition time	60.00reverse acquisition time	0.00gamma	496.2192k internal	0.2296k external	0.2296temperature offset calibration	0.9959default loss term (dB/km)	0.3790temperature slope calibration	1.0000multiplexer offset coefficient	1.0000multiplexer slope coefficient	1.0000fibre end	0.00T internal ref (°C)	36.67T ext. ref 1 (°C)	4.98T ext. ref 2 (°C)	35.00length (m)	temperature (°C)	Stokes	anti-Stokes-747.200	-200.000	0.003	-0.312
-746.185	800.000	-0.080	0.292
-745.171	87.181	-0.146	0.165
-744.156	-100.024	-0.292	0.074
-743.142	339.202	-0.085	-0.169
-742.127	-54.580	-0.132	-0.061
-741.112	132.025	0.120	-0.158
-740.098	77.440	-0.246	0.267
-739.083	-200.000	0.005	0.128
-738.069	108.462	0.136	0.166
-737.054	-200.000	-0.010	0.123
-736.039	-92.891	-0.117	-0.034
-735.025	447.491	-0.138	0.311
-734.010	637.066	-0.128	-0.331
-732.996	477.030	0.059	-0.136
-731.981	-9.464	-0.152	-0.104
-730.966	-200.000	0.020	0.256
-729.952	312.964	-0.136	0.260
-728.937	-145.027	0.392	-0.036
-727.923	-62.681	-0.356	0.151
-726.908	800.000	-0.092	0.379
-725.894	170.996	-0.125	-0.183
-724.879	-200.000	-0.004	0.053
-723.864	168.901	0.196	0.286
-722.850	-200.000	0.058	0.317
-721.835	150.531	0.099	0.138
-720.821	115.877	-0.399	0.499
-719.806	-9.237	0.105	-0.072
-718.791	101.169	-0.101	0.120
-717.777	-200.000	0.002	0.194
-716.762	160.493	-0.035	-0.050
-715.748	308.648	-0.097	-0.185
-714.733	381.977	-0.075	-0.157
-713.718	463.291	-0.107	-0.245
-712.704	30.734	-0.083	-0.073
-711.689	-180.905	0.416	-0.009
-710.675	-144.792	-0.130	0.012
-709.660	-173.707	0.218	-0.007
-708.645	800.000	0.083	0.319
-707.631	800.000	-0.061	-0.208
-706.616	29.030	-0.140	-0.121
-705.602	-200.000	-0.009	0.116
-704.587	-64.421	0.433	-0.179
-703.572	400.522	0.149	-0.319
-702.558	-63.800	-0.143	-0.060
-701.543	-61.065	0.093	-0.040
-700.529	41.624	-0.108	0.100
-699.514	-200.000	0.004	-0.141
-698.499	800.000	-0.113	-0.344
-697.485	138.046	0.219	-0.293
-696.470	-149.131	-0.411	0.034
-695.456	800.000	0.028	0.123
-694.441	-74.441	-0.123	-0.045
-693.426	-4.261	-0.126	-0.089
-692.412	-200.000	-0.021	-0.212
-691.397	55.952	0.086	-0.085
-690.383	23.687	-0.134	0.113
-689.368	-151.066	-0.308	0.024
-688.354	484.509	0.105	0.243
-687.339	800.000	-0.069	-0.230
-686.324	29.575	-0.320	0.278
-685.310	-22.888	0.138	-0.085
-684.295	-200.000	0.012	0.126
-683.281	97.032	0.207	0.242
-682.266	-81.043	0.007	-0.002
-681.251	107.390	-0.026	0.032
-680.237	-39.208	-0.218	-0.117
-679.222	295.713	0.077	-0.144
-678.208	-65.048	0.169	-0.070
-677.193	-3.429	-0.211	-0.149
-676.178	14.023	-0.077	0.061
-675.164	42.125	-0.564	-0.522
-674.149	-31.507	-0.110	0.063
-673.135	-200.000	0.075	-0.524
-672.120	800.000	-0.051	0.212
-671.105	245.551	-0.203	-0.347
-670.091	-54.308	-0.079	-0.036
-669.076	37.410	-0.191	-0.172
-668.062	28.904	0.204	-0.176
-667.047	295.087	-0.176	-0.329
-666.032	-200.000	0.031	0.142
-665.018	-166.036	-0.160	-0.007
-664.003	224.753	-0.207	-0.342
-662.989	-37.106	-0.299	-0.163
-661.974	217.920	-0.273	0.444
-660.959	23.563	0.031	0.026
-659.945	26.903	-0.101	0.086
-658.930	188.549	-0.093	0.141
-657.916	-133.232	0.308	-0.040
-656.901	-157.730	-0.313	-0.019
-655.886	515.330	-0.044	0.105
-654.872	-22.936	-0.152	0.093
-653.857	800.000	-0.014	0.044
-652.843	-11.725	-0.279	0.187
-651.828	-141.817	0.172	0.018
-650.814	-144.286	-0.242	-0.023
-649.799	-30.630	-0.374	0.216
-648.784	800.000	0.052	-0.179
-647.770	-200.000	-0.021	-0.215
-646.755	76.750	-0.140	-0.151
-645.741	184.765	-0.091	0.138
-644.726	-169.422	-0.138	-0.005
-643.711	259.075	0.145	-0.255
-642.697	-113.163	0.072	0.014
-641.682	-200.000	-0.015	-0.259
-640.668	-28.050	-0.226	-0.133
-639.653	297.246	0.088	-0.165
-638.638	-25.113	0.208	-0.126
-637.624	-58.380	0.192	0.085
-636.609	8.206	-0.283	0.216
-635.595	800.000	-0.082	0.322
-634.580	-148.991	0.377	0.031
-633.565	80.196	-0.124	0.135
-632.551	-62.966	0.256	0.108
-631.536	73.269	0.139	-0.148
-630.522	140.311	0.074	-0.099
-629.507	274.094	0.031	0.056
-628.492	-158.881	0.419	-0.024
-627.478	-166.593	0.206	-0.009
-626.463	74.413	0.160	0.171
-625.449	180.655	0.047	-0.071
-624.434	-200.000	-0.064	-0.360
-623.419	-200.000	-0.024	0.230
-622.405	-153.972	-0.444	0.031
-621.390	-200.000	0.003	0.045
-620.376	31.161	-0.114	0.099
-619.361	-200.000	-0.016	-0.343
-618.346	-200.000	-0.016	0.158
-617.332	-200.000	0.012	0.069
-616.317	-104.512	-0.116	0.027
-615.303	170.794	-0.067	-0.097
-614.288	-163.891	0.248	0.012
-613.273	-6.305	-0.163	-0.113
-612.259	361.743	0.124	0.253
-611.244	-82.740	-0.183	0.060
-610.230	-27.730	-0.110	0.065
-609.215	-2.331	0.191	0.136
-608.201	-84.297	-0.345	0.111
-607.186	77.670	0.085	-0.092
-606.171	-200.000	0.026	-0.207
-605.157	-200.000	-0.032	-0.172
-604.142	-172.130	-0.148	-0.005
-603.128	572.851	-0.108	-0.267
-602.113	-22.769	-0.086	-0.053
-601.098	218.055	-0.044	-0.071
-600.084	50.854	-0.095	0.091
-599.069	349.373	0.239	0.479
-598.055	2.870	-0.096	-0.071
-597.040	321.864	-0.045	-0.087
-596.025	728.087	-0.124	0.335
-595.011	-125.193	-0.234	-0.036
-593.996	125.195	-0.072	-0.092
-592.982	170.593	-0.014	0.021
-591.967	-23.235	-0.102	-0.063
-590.952	58.039	0.195	-0.194
-589.938	-56.523	0.194	-0.087
-588.923	-200.000	0.039	0.180
-587.909	-148.758	-0.051	0.004
-586.894	-10.287	-0.041	0.028
-585.879	-200.000	-0.028	0.249
-584.865	-181.898	0.393	0.008
-583.850	-94.726	0.244	-0.067
-582.836	-192.752	0.076	-0.001
-581.821	800.000	-0.032	0.117
-580.806	-123.706	-0.230	0.037
-579.792	5.159	0.088	0.066
-578.777	-25.955	0.130	0.078
-577.763	-110.606	-0.460	0.097
-576.748	-16.474	0.067	0.043
-575.733	174.324	-0.150	0.220
-574.719	-132.963	0.084	0.011
-573.704	281.645	-0.026	-0.047
-572.690	-149.332	-0.251	-0.020
-571.675	-12.178	-0.171	0.113
-570.661	800.000	0.040	0.176
-569.646	347.205	0.147	0.293
-568.631	-72.322	0.185	-0.069
-567.617	263.198	-0.108	0.190
-566.602	-31.037	0.047	-0.027
-565.588	-67.790	0.179	-0.071
-564.573	-148.346	0.098	0.008
-563.558	-90.451	-0.214	-0.063
-562.544	-200.000	0.003	0.256
-561.529	-200.000	0.081	0.413
-560.515	-200.000	-0.028	0.222
-559.500	-200.000	0.012	0.268
-558.485	-146.761	0.052	-0.005
-557.471	-158.312	-0.056	0.003
-556.456	207.544	-0.234	-0.371
-555.442	-13.987	0.188	0.123
-554.427	106.701	0.181	0.218
-553.412	-104.126	0.161	0.038
-552.398	-200.000	-0.058	-0.258
-551.383	-11.854	0.323	0.215
-550.369	-48.235	-0.243	-0.119
-549.354	-114.132	-0.232	-0.046
-548.339	-48.085	0.357	-0.175
-547.325	66.910	0.081	-0.084
-546.310	-14.767	-0.287	-0.187
-545.296	-31.056	0.197	-0.113
-544.281	800.000	-0.093	-0.364
-543.266	-200.000	-0.034	0.195
-542.252	-200.000	-0.000	0.394
-541.237	-14.782	-0.066	-0.043
-540.223	-190.613	-0.236	0.003
-539.208	800.000	0.127	-0.367
-538.193	-133.523	-0.111	-0.014
-537.179	116.742	-0.289	0.359
-536.164	193.363	0.051	-0.078
-535.150	-169.509	0.089	0.003
-534.135	-161.612	0.074	-0.004
-533.121	377.174	0.162	-0.335
-532.106	-200.000	-0.006	-0.092
-531.091	-105.996	-0.132	0.030
-530.077	-151.868	-0.093	0.007
-529.062	33.288	0.345	-0.303
-528.048	92.266	0.187	0.214
-527.033	-168.831	-0.112	-0.004
-526.018	-200.000	-0.011	0.134
-525.004	-12.617	0.052	0.034
-523.989	180.981	-0.096	-0.142
-522.975	-200.000	-0.022	0.335
-521.960	-61.497	0.196	0.083
-520.945	-33.165	0.071	-0.040
-519.931	281.988	-0.091	-0.165
-518.916	157.101	0.331	-0.464
-517.902	-35.768	-0.168	-0.092
-516.887	187.512	0.122	-0.185
-515.872	406.608	-0.126	0.269
-514.858	-200.000	-0.016	-0.179
-513.843	-24.631	0.211	-0.127
-512.829	-100.312	-0.167	0.042
-511.814	-200.000	0.010	-0.270
-510.799	93.683	0.153	0.175
-509.785	-179.296	0.131	-0.003
-508.770	456.986	-0.062	0.140
-507.756	-45.419	-0.116	0.058
-506.741	-115.196	0.130	-0.025
-505.726	80.443	-0.059	0.064
-504.712	-10.949	0.038	-0.025
-503.697	800.000	0.045	-0.133
-502.683	-31.293	0.405	0.231
-501.668	305.469	-0.111	0.208
-500.653	-7.081	0.220	-0.151
-499.639	205.283	0.106	-0.167
-498.624	135.506	0.085	-0.112
-497.610	-176.226	0.315	0.008
-496.595	800.000	0.097	-0.294
-495.581	-35.995	-0.148	-0.081
-494.566	636.666	-0.081	0.208
-493.551	170.103	-0.168	0.242
-492.537	-200.000	0.009	-0.314
-491.522	-67.451	0.171	0.068
-490.508	-200.000	0.008	0.221
-489.493	95.962	0.131	-0.151
-488.478	-200.000	-0.056	-0.346
-487.464	-200.000	-0.016	-0.183
-486.449	-159.960	-0.202	0.011
-485.435	11.743	-0.145	-0.112
-484.420	130.027	-0.216	-0.279
-483.405	23.357	0.117	0.098
-482.391	-200.000	0.020	0.304
-481.376	-200.000	-0.024	0.130
-480.362	658.574	-0.081	-0.211
-479.347	-116.065	0.196	-0.037
-478.332	-128.577	-0.329	-0.047
-477.318	-80.349	0.116	-0.039
-476.303	15.974	0.074	-0.059
-475.289	-200.000	-0.051	-0.439
-474.274	800.000	0.085	-0.266
-473.259	-9.767	0.228	0.154
-472.245	278.061	-0.106	0.192
-471.230	-200.000	0.031	0.143
-470.216	221.667	-0.158	0.256
-469.201	18.048	-0.168	0.136
-468.186	-200.000	-0.002	0.089
-467.172	-200.000	0.033	-0.407
-466.157	55.284	-0.261	-0.255
-465.143	-97.821	-0.143	0.037
-464.128	-200.000	0.037	-0.469
-463.113	-77.440	-0.296	-0.104
-462.099	40.820	0.056	-0.051
-461.084	425.953	-0.180	0.392
-460.070	-104.946	-0.098	-0.023
-459.055	26.449	-0.310	0.262
-458.040	-200.000	-0.020	-0.095
-457.026	-200.000	0.038	-0.206
-456.011	-198.510	-0.162	0.001
-454.997	-112.309	-0.109	0.022
-453.982	-152.051	-0.400	0.029
-452.968	-131.577	0.279	-0.037
-451.953	-92.035	0.159	-0.046
-450.938	108.890	-0.096	0.116
-449.924	-93.576	0.447	0.125
-448.909	156.333	-0.184	0.256
-447.895	-200.000	0.003	-0.116
-446.880	-180.274	0.198	0.004
-445.865	-64.681	-0.205	-0.084
-444.851	25.324	0.251	0.210
-443.836	471.787	-0.031	-0.070
-442.822	-200.000	-0.000	-0.082
-441.807	-142.305	-0.157	-0.016
-440.792	415.716	-0.068	0.147
-439.778	-67.688	-0.208	-0.082
-438.763	-88.632	0.179	-0.054
-437.749	-88.521	0.023	-0.007
-436.734	-200.000	-0.056	-0.391
-435.719	-108.566	0.253	0.055
-434.705	-59.683	0.048	-0.021
-433.690	-200.000	-0.002	-0.316
-432.676	-133.552	-0.199	0.025
-431.661	-79.869	-0.185	0.063
-430.646	682.249	-0.083	0.218
-429.632	-44.468	-0.139	-0.070
-428.617	-60.247	-0.073	-0.031
-427.603	6.341	0.177	-0.133
-426.588	43.747	0.128	-0.119
-425.573	800.000	0.100	0.320
-424.559	117.099	0.044	-0.055
-423.544	237.062	0.034	-0.057
-422.530	76.238	0.129	0.138
-421.515	-200.000	-0.036	0.164
-420.500	-87.882	-0.107	-0.032
-419.486	800.000	-0.052	0.172
-418.471	741.728	0.090	0.245
-417.457	800.000	0.057	0.208
-416.442	105.353	0.252	-0.300
-415.428	-54.644	0.164	-0.075
-414.413	83.749	-0.157	-0.173
-413.398	-2.663	-0.056	-0.039
-412.384	-200.000	-0.075	0.419
-411.369	396.839	0.100	0.211
-410.355	-97.559	-0.180	-0.047
-409.340	740.027	0.112	-0.304
-408.325	-183.506	0.122	0.002
-407.311	18.517	-0.280	-0.226
-406.296	110.633	0.207	0.251
-405.282	-162.911	-0.132	-0.006
-404.267	564.349	-0.181	0.442
-403.252	0.550	0.011	-0.008
-402.238	-0.875	-0.174	-0.124
-401.223	-200.000	-0.043	-0.301
-400.209	-200.000	0.042	0.282
-399.194	-78.247	-0.153	-0.053
-398.179	800.000	-0.077	0.246
-397.165	10.072	-0.111	0.085
-396.150	-200.000	0.006	0.214
-395.136	33.403	-0.232	0.203
-394.121	800.000	0.072	0.225
-393.106	-162.753	-0.135	-0.007
-392.092	0.459	0.247	-0.178
-391.077	-200.000	-0.004	0.046
-390.063	511.433	0.069	0.161
-389.048	-9.235	0.194	-0.131
-388.033	-32.223	0.179	-0.101
-387.019	22.172	0.110	-0.090
-386.004	310.450	-0.011	-0.020
-384.990	-191.368	0.170	-0.002
-383.975	377.005	0.064	0.132
-382.960	-96.853	-0.151	0.040
-381.946	24.270	-0.235	0.195
-380.931	-51.280	0.346	0.163
-379.917	37.446	0.138	-0.123
-378.902	-14.373	-0.354	0.229
-377.888	-200.000	0.039	0.321
-376.873	671.936	0.126	-0.329
-375.858	-37.299	-0.279	0.150
-374.844	68.235	0.211	-0.217
-373.829	800.000	-0.109	-0.304
-372.815	-10.098	0.233	-0.156
-371.800	118.067	0.109	0.136
-370.785	-129.948	0.143	0.020
-369.771	44.491	0.205	0.190
-368.756	94.491	-0.071	0.082
-367.742	195.570	-0.027	0.042
-366.727	58.450	0.279	0.275
-365.712	574.844	0.149	0.365
-364.698	800.000	0.137	0.526
-363.683	564.822	-0.063	0.153
-362.669	146.128	0.195	-0.263
-361.654	-123.276	-0.203	-0.033
-360.639	131.635	0.293	0.380
-359.625	-59.636	-0.249	0.107
-358.610	-79.037	-0.157	-0.054
-357.596	-152.423	0.187	0.014
-356.581	-30.954	-0.436	-0.248
-355.566	-200.000	0.049	0.274
-354.552	800.000	-0.079	-0.286
-353.537	202.265	0.057	0.089
-352.523	41.777	0.332	-0.303
-351.508	-93.619	-0.169	0.047
-350.493	231.998	-0.253	0.418
-349.479	50.930	0.057	-0.054
-348.464	-77.464	0.365	0.128
-347.450	800.000	-0.037	0.161
-346.435	-131.112	0.155	0.021
-345.420	-200.000	0.030	0.318
-344.406	800.000	0.072	0.207
-343.391	-46.452	-0.108	-0.053
-342.377	5.583	-0.287	-0.213
-341.362	-200.000	-0.115	-0.573
-340.348	-48.505	-0.249	-0.121
-339.333	-117.131	-0.090	0.017
-338.318	-98.004	-0.116	0.030
-337.304	80.967	-0.241	-0.261
-336.289	-55.178	0.418	0.189
-335.275	-200.000	0.013	-0.235
-334.260	204.507	-0.142	0.222
-333.245	75.494	0.145	-0.154
-332.231	231.412	0.126	0.207
-331.216	-111.904	0.333	0.068
-330.202	-6.783	-0.064	-0.043
-329.187	-44.831	-0.120	0.060
-328.172	-89.723	0.159	0.047
-327.158	-55.095	-0.034	0.015
-326.143	-109.550	-0.257	0.055
-325.129	800.000	0.046	0.135
-324.114	-27.425	-0.088	-0.051
-323.099	-9.549	-0.198	0.133
-322.085	42.275	-0.105	-0.096
-321.070	-200.000	-0.010	0.413
-320.056	-124.766	-0.243	-0.038
-319.041	479.507	0.116	-0.265
-318.026	176.993	0.186	-0.272
-317.012	496.842	-0.158	-0.366
-315.997	56.675	0.211	-0.206
-314.983	800.000	0.013	0.042
-313.968	-115.743	-0.198	0.037
-312.953	-45.111	-0.423	-0.211
-311.939	-25.386	0.048	0.028
-310.924	800.000	0.052	-0.176
-309.910	462.730	0.070	-0.156
-308.895	91.392	0.117	-0.132
-307.880	-65.885	-0.312	-0.125
-306.866	-200.000	-0.029	0.128
-305.851	800.000	-0.129	0.547
-304.837	36.324	-0.113	0.100
-303.822	-87.310	0.205	-0.063
-302.807	-24.089	0.171	-0.103
-301.793	-46.088	-0.122	0.060
-300.778	368.529	-0.152	0.308
-299.764	-126.316	-0.196	-0.029
-298.749	800.000	0.102	0.355
-297.735	800.000	0.041	0.171
-296.720	800.000	-0.106	-0.295
-295.705	-119.555	0.176	-0.031
-294.691	18.023	0.207	-0.166
-293.676	800.000	-0.073	0.294
-292.662	800.000	-0.034	0.138
-291.647	-33.875	0.058	0.032
-290.632	-79.591	-0.049	0.017
-289.618	215.924	0.127	-0.202
-288.603	800.000	-0.004	-0.015
-287.589	-200.000	0.028	-0.403
-286.574	110.897	-0.143	-0.173
-285.559	-80.652	0.097	-0.032
-284.545	-138.798	0.059	-0.006
-283.530	-95.927	-0.298	0.080
-282.516	-149.419	0.316	-0.025
-281.501	-200.000	0.041	-0.214
-280.486	-200.000	-0.043	-0.214
-279.472	250.721	-0.072	-0.122
-278.457	28.905	-0.214	-0.182
-277.443	-200.000	-0.000	0.205
-276.428	265.983	-0.090	0.157
-275.413	-2.304	-0.127	-0.089
-274.399	800.000	0.079	-0.222
-273.384	-40.181	-0.131	0.068
-272.370	-152.546	-0.109	-0.008
-271.355	-134.019	-0.233	-0.029
-270.340	-128.882	-0.485	0.068
-269.326	214.531	-0.147	0.233
-268.311	67.718	0.316	-0.323
-267.297	274.033	-0.060	-0.106
-266.282	73.402	-0.200	0.210
-265.267	800.000	-0.067	0.272
-264.253	51.716	0.264	-0.252
-263.238	61.458	0.253	0.252
-262.224	-85.664	0.273	0.085
-261.209	130.637	-0.162	-0.208
-260.195	1.582	0.205	-0.148
-259.180	-200.000	0.038	0.340
-258.165	-81.331	-0.138	0.045
-257.151	-69.040	0.175	0.067
-256.136	435.679	0.105	0.229
-255.122	-200.000	-0.046	0.237
-254.107	106.377	0.139	0.165
-253.092	-75.549	-0.181	0.064
-252.078	32.056	0.314	0.271
-251.063	-200.000	-0.011	-0.341
-250.049	131.371	-0.165	-0.213
-249.034	2.506	-0.137	0.099
-248.019	4.123	0.210	0.154
-247.005	800.000	0.092	0.260
-245.990	-74.700	0.054	0.019
-244.976	800.000	0.045	0.152
-243.961	152.121	-0.224	-0.306
-242.946	14.024	-0.075	-0.059
-241.932	-89.548	0.089	-0.026
-240.917	-77.400	-0.181	0.063
-239.903	-1.575	-0.257	-0.182
-238.888	61.578	0.172	0.171
-237.873	109.270	-0.264	-0.317
-236.859	247.697	-0.047	-0.079
-235.844	-200.000	0.013	-0.168
-234.830	-32.333	-0.434	-0.243
-233.815	125.935	-0.056	-0.071
-232.800	-65.540	0.192	0.077
-231.786	-86.079	-0.050	-0.015
-230.771	-176.837	-0.118	0.003
-229.757	266.793	0.129	-0.225
-228.742	-200.000	0.009	-0.206
-227.727	-3.694	-0.232	-0.161
-226.713	-200.000	0.000	0.063
-225.698	-90.488	-0.271	0.079
-224.684	-102.590	-0.353	0.084
-223.669	99.208	0.109	0.126
-222.655	-200.000	-0.093	0.560
-221.640	-200.000	-0.093	0.471
-220.625	581.791	0.149	-0.366
-219.611	166.527	-0.201	-0.286
-218.596	-119.350	0.042	0.007
-217.582	-200.000	0.036	-0.234
-216.567	92.493	-0.110	0.124
-215.552	132.471	0.146	-0.188
-214.538	63.544	0.320	-0.321
-213.523	-15.838	-0.130	-0.083
-212.509	-39.252	0.150	0.079
-211.494	-100.294	-0.132	-0.033
-210.479	6.766	-0.291	-0.217
-209.465	-180.499	0.242	-0.005
-208.450	-169.861	0.255	-0.009
-207.436	0.592	0.114	0.082
-206.421	-200.000	-0.107	-0.492
-205.406	218.780	0.278	-0.444
-204.392	24.635	-0.078	-0.065
-203.377	56.027	-0.021	0.021
-202.363	104.783	0.279	0.329
-201.348	-200.000	-0.041	-0.207
-200.333	-44.639	0.362	-0.181
-199.319	800.000	0.050	0.169
-198.304	-48.866	0.180	0.086
-197.290	-153.811	-0.114	-0.008
-196.275	230.927	0.217	-0.355
-195.260	13.019	-0.110	0.085
-194.246	682.493	-0.042	0.110
-193.231	169.967	0.358	0.511
-192.217	57.443	-0.312	0.304
-191.202	-36.622	-0.209	-0.112
-190.187	-32.627	0.255	-0.142
-189.173	-31.504	0.308	-0.173
-188.158	60.002	0.180	0.178
-187.144	467.422	0.073	-0.163
-186.129	263.907	-0.106	-0.184
-185.114	-146.370	-0.040	-0.004
-184.100	64.672	-0.057	0.057
-183.085	24.698	-0.243	-0.201
-182.071	-12.503	0.212	0.138
-181.056	-200.000	0.055	0.289
-180.042	464.851	0.171	-0.383
-179.027	800.000	0.097	0.336
-178.012	96.584	-0.235	0.269
-176.998	-5.878	0.449	0.307
-175.983	-48.842	0.116	0.056
-174.969	91.808	-0.066	0.074
-173.954	-200.000	-0.001	-0.425
-172.939	-108.692	-0.340	-0.073
-171.925	800.000	-0.014	0.059
-170.910	-81.646	0.242	0.079
-169.896	-139.887	-0.051	0.005
-168.881	-200.000	-0.002	-0.144
-167.866	800.000	-0.012	0.050
-166.852	-200.000	0.039	-0.290
-165.837	800.000	-0.030	-0.099
-164.823	800.000	0.082	0.284
-163.808	67.299	0.276	0.282
-162.793	800.000	-0.029	0.102
-161.779	693.759	-0.133	-0.349
-160.764	-200.000	-0.001	-0.230
-159.750	-200.000	-0.031	-0.206
-158.735	-200.000	-0.059	-0.295
-157.720	174.128	0.060	-0.087
-156.706	152.618	-0.059	0.081
-155.691	800.000	-0.096	0.298
-154.677	729.408	0.044	-0.117
-153.662	101.345	0.157	0.183
-152.647	95.363	0.052	-0.059
-151.633	-4.076	0.255	-0.177
-150.618	345.603	0.042	0.083
-149.604	107.867	-0.128	-0.153
-148.589	269.947	-0.079	0.138
-147.574	-49.520	-0.227	-0.108
-146.560	-65.894	-0.180	0.072
-145.545	-200.000	0.013	-0.065
-144.531	800.000	-0.027	0.093
-143.516	-38.714	0.090	-0.048
-142.502	-200.000	0.012	-0.058
-141.487	-8.396	0.121	0.081
-140.472	80.259	-0.013	-0.014
-139.458	-200.000	0.020	-0.276
-138.443	-200.000	-0.045	0.256
-137.429	136.663	0.128	0.166
-136.414	800.000	-0.049	0.173
-135.399	-200.000	0.013	0.117
-134.385	-200.000	0.001	-0.310
-133.370	87.220	-0.279	0.308
-132.356	-59.930	0.276	0.118
-131.341	757.381	0.129	-0.347
-130.326	-170.855	0.129	-0.004
-129.312	-70.837	-0.232	-0.087
-128.297	45.457	-0.093	-0.086
-127.283	-200.000	-0.010	0.351
-126.268	-200.000	0.007	0.218
-125.253	-182.460	-0.240	-0.004
-124.239	-124.536	-0.142	-0.022
-123.224	193.139	0.075	0.113
-122.210	-61.421	0.112	-0.047
