DTS Sentinel unit serial number:	SN413079Multiplexer serial number:	ORYXHardware model number:	OX4-SRSoftware version number:	ORYX F/W v4.00 Oryx Data Collector v3.7.2.0data status	okinstallation	princeton_trtdifferential loss correction	single-endedforward channel	channel 3reverse channel	N/Adate	2019/09/12time	22:44:34forward acquisition time	60.00reverse acquisition time	0.00gamma	496.2192k internal	0.2326k external	0.2326temperature offset calibration	1.0136default loss term (dB/km)	0.3790temperature slope calibration	1.0000multiplexer offset coefficient	1.0000multiplexer slope coefficient	1.0000fibre end	0.00T internal ref (°C)	29.50T ext. ref 1 (°C)	3.74T ext. ref 2 (°C)	24.11length (m)	temperature (°C)	Stokes	anti-Stokes-747.200	-200.000	0.014	-0.128
-746.185	-69.630	0.137	0.053
-745.171	-113.590	-0.223	0.044
-744.156	34.946	0.066	0.058
-743.142	-68.647	0.113	0.044
-742.127	800.000	0.014	-0.038
-741.112	238.740	0.180	-0.302
-740.098	-200.000	-0.031	0.337
-739.083	6.135	-0.222	0.166
-738.069	81.835	0.104	0.113
-737.054	2.577	-0.050	0.037
-736.039	-157.486	-0.442	0.027
-735.025	67.240	-0.217	-0.223
-734.010	-200.000	0.003	-0.305
-732.996	-108.016	-0.256	0.056
-731.981	800.000	0.111	-0.333
-730.966	-81.815	-0.416	-0.137
-729.952	-79.669	0.284	-0.097
-728.937	1.718	-0.137	-0.099
-727.923	758.843	-0.135	0.368
-726.908	-117.076	0.073	-0.013
-725.894	-83.147	-0.325	-0.105
-724.879	684.989	-0.118	-0.310
-723.864	6.664	0.330	0.247
-722.850	-92.120	0.268	-0.076
-721.835	-56.598	-0.034	0.015
-720.821	-103.785	-0.102	-0.024
-719.806	237.414	-0.068	0.114
-718.791	65.393	-0.347	-0.354
-717.777	146.180	0.154	-0.208
-716.762	-80.596	-0.312	-0.105
-715.748	-62.019	0.136	0.057
-714.733	130.263	-0.139	-0.179
-713.718	520.512	-0.044	-0.103
-712.704	-200.000	0.014	0.161
-711.689	89.661	0.107	0.120
-710.675	350.133	-0.211	-0.421
-709.660	-200.000	0.017	0.352
-708.645	-115.074	-0.062	-0.012
-707.631	-62.564	-0.214	0.089
-706.616	209.663	0.235	-0.371
-705.602	99.089	0.217	-0.252
-704.587	185.051	-0.220	-0.329
-703.572	136.630	0.078	0.103
-702.558	-94.513	0.298	-0.082
-701.543	-200.000	-0.001	0.155
-700.529	258.531	-0.089	-0.155
-699.514	800.000	-0.079	-0.317
-698.499	-89.127	-0.038	-0.011
-697.485	-58.209	-0.285	-0.125
-696.470	-55.895	0.114	-0.051
-695.456	-151.997	0.043	0.003
-694.441	14.115	0.174	0.136
-693.426	-67.140	0.066	-0.026
-692.412	-10.999	-0.148	0.098
-691.397	375.872	0.129	0.264
-690.383	-18.184	0.156	-0.098
-689.368	-200.000	0.032	-0.176
-688.354	-147.403	-0.208	0.018
-687.339	-91.552	-0.254	0.073
-686.324	70.943	0.120	-0.125
-685.310	126.930	0.121	-0.155
-684.295	229.799	-0.079	0.131
-683.281	-158.473	-0.482	0.028
-682.266	19.223	-0.092	0.074
-681.251	350.573	-0.134	-0.267
-680.237	-200.000	-0.007	0.149
-679.222	-9.770	-0.250	-0.168
-678.208	395.798	0.103	-0.217
-677.193	-200.000	0.015	-0.282
-676.178	-151.956	-0.302	-0.022
-675.164	49.696	-0.116	-0.110
-674.149	356.414	0.086	-0.172
-673.135	-200.000	0.017	-0.152
-672.120	-143.587	-0.407	-0.039
-671.105	800.000	0.040	0.152
-670.091	-95.857	0.200	-0.054
-669.076	-53.175	-0.250	-0.115
-668.062	422.606	-0.047	-0.101
-667.047	-77.047	-0.194	-0.068
-666.032	-129.416	-0.083	0.012
-665.018	10.564	-0.164	0.126
-664.003	800.000	0.088	-0.301
-662.989	-101.120	-0.342	-0.084
-661.974	-200.000	0.002	-0.180
-660.959	128.397	-0.241	-0.309
-659.945	-2.557	-0.086	-0.061
-658.930	26.935	0.243	0.205
-657.916	1.097	-0.141	0.101
-656.901	-89.974	0.087	0.026
-655.886	-132.014	-0.212	0.028
-654.872	-200.000	-0.064	0.399
-653.857	215.387	-0.078	0.124
-652.843	-161.499	0.283	-0.015
-651.828	-77.280	0.167	0.058
-650.814	619.536	-0.055	-0.140
-649.799	48.195	-0.185	0.174
-648.784	205.848	0.071	0.111
-647.770	-139.292	-0.080	-0.009
-646.755	435.181	-0.054	0.119
-645.741	529.056	-0.118	0.280
-644.726	68.537	0.069	0.071
-643.711	800.000	0.025	-0.092
-642.697	-130.832	-0.213	0.029
-641.682	-97.013	-0.136	-0.036
-640.668	-168.202	-0.335	-0.013
-639.653	-9.133	0.292	-0.196
-638.638	-36.152	-0.295	0.160
-637.624	50.404	-0.320	0.303
-636.609	305.911	-0.101	-0.188
-635.595	187.914	-0.076	0.113
-634.580	-149.777	0.161	-0.013
-633.565	74.697	-0.110	0.116
-632.551	-200.000	-0.013	-0.063
-631.536	336.069	-0.102	-0.199
-630.522	275.130	-0.007	-0.013
-629.507	360.074	-0.115	0.232
-628.492	5.278	-0.316	-0.234
-627.478	-140.916	-0.215	0.022
-626.463	-141.887	-0.128	-0.013
-625.449	800.000	-0.081	-0.346
-624.434	-200.000	-0.017	-0.365
-623.419	139.991	0.190	0.251
-622.405	151.033	-0.038	0.052
-621.390	-106.643	-0.286	0.064
-620.376	-44.000	0.194	-0.098
-619.361	-13.089	-0.422	-0.275
-618.346	18.924	0.190	-0.152
-617.332	-112.039	-0.108	-0.022
-616.317	-200.000	-0.005	-0.191
-615.303	-98.426	-0.177	0.046
-614.288	-50.026	0.339	-0.161
-613.273	-160.385	-0.149	0.008
-612.259	-139.840	0.198	0.021
-611.244	-11.161	0.164	0.108
-610.230	109.507	0.212	-0.255
-609.215	-200.000	-0.053	0.364
-608.201	-22.707	0.304	0.185
-607.186	800.000	0.089	-0.327
-606.171	15.426	0.119	0.093
-605.157	161.135	0.065	-0.091
-604.142	-73.409	-0.182	0.067
-603.128	-46.392	-0.040	0.019
-602.113	-200.000	0.013	0.061
-601.098	223.298	-0.143	0.231
-600.084	-177.444	0.107	-0.003
-599.069	-140.634	-0.099	0.010
-598.055	706.675	0.150	0.398
-597.040	25.231	0.152	0.126
-596.025	-200.000	-0.014	-0.254
-595.011	413.237	0.159	0.340
-593.996	-111.930	0.063	0.013
-592.982	63.470	0.206	0.208
-591.967	-200.000	0.004	0.148
-590.952	217.278	-0.184	-0.294
-589.938	485.457	-0.060	-0.138
-588.923	-156.415	0.293	-0.018
-587.909	-87.396	-0.340	0.103
-586.894	128.633	0.171	-0.218
-585.879	-146.027	0.108	-0.010
-584.865	38.745	0.167	0.150
-583.850	35.770	0.027	-0.024
-582.836	14.356	0.032	-0.025
-581.821	-95.136	0.136	-0.037
-580.806	-131.766	0.209	-0.027
-579.792	-200.000	-0.006	-0.205
-578.777	7.134	-0.153	0.114
-577.763	179.952	-0.070	0.103
-576.748	212.611	0.103	0.163
-575.733	-35.662	0.282	-0.153
-574.719	-200.000	-0.032	0.275
-573.704	138.435	-0.202	-0.265
-572.690	800.000	0.094	-0.294
-571.675	-148.229	-0.188	-0.016
-570.661	-84.501	0.215	-0.068
-569.646	-39.300	-0.129	-0.068
-568.631	83.807	-0.085	-0.092
-567.617	344.615	0.161	-0.316
-566.602	17.285	-0.093	-0.074
-565.588	-73.701	-0.082	0.030
-564.573	-200.000	-0.004	-0.044
-563.558	800.000	0.152	0.544
-562.544	424.266	-0.131	-0.281
-561.529	-155.650	0.231	0.015
-560.515	-153.020	0.153	-0.011
-559.500	197.335	-0.105	-0.160
-558.485	304.583	0.182	0.339
-557.471	531.974	0.179	-0.425
-556.456	-120.226	-0.152	-0.026
-555.442	-200.000	-0.038	0.295
-554.427	319.821	-0.051	-0.097
-553.412	-200.000	0.013	-0.073
-552.398	491.310	-0.119	0.272
-551.383	168.879	-0.119	-0.169
-550.369	378.893	0.158	-0.325
-549.354	85.002	-0.075	-0.082
-548.339	134.089	0.096	-0.124
-547.325	436.194	0.103	-0.225
-546.310	57.072	0.364	-0.355
-545.296	-131.151	0.358	-0.048
-544.281	-200.000	-0.020	0.183
-543.266	-200.000	-0.000	0.108
-542.252	577.182	0.072	-0.175
-541.237	800.000	-0.034	-0.136
-540.223	-69.830	0.135	0.052
-539.208	-35.833	0.204	-0.110
-538.193	-200.000	0.028	-0.409
-537.179	47.277	-0.209	0.195
-536.164	129.389	-0.213	-0.272
-535.150	-106.429	0.091	0.020
-534.135	-92.138	-0.424	-0.120
-533.121	98.652	-0.165	0.190
-532.106	-200.000	-0.083	-0.458
-531.091	75.211	-0.143	0.151
-530.077	787.921	0.037	-0.103
-529.062	45.524	-0.085	-0.079
-528.048	-78.762	-0.104	0.035
-527.033	-66.272	-0.128	-0.051
-526.018	800.000	0.079	0.294
-525.004	-168.806	-0.146	0.006
-523.989	632.113	0.079	0.200
-522.975	260.139	-0.162	0.279
-521.960	-104.252	0.241	0.056
-520.945	97.425	0.077	-0.088
-519.931	-48.669	-0.240	0.115
-518.916	800.000	-0.036	0.127
-517.902	-200.000	-0.004	-0.253
-516.887	20.865	0.174	-0.141
-515.872	-66.381	-0.134	-0.053
-514.858	149.712	-0.163	-0.220
-513.843	-200.000	0.009	-0.042
-512.829	-92.537	0.112	0.031
-511.814	600.605	-0.166	-0.413
-510.799	-200.000	-0.010	0.168
-509.785	31.892	-0.144	-0.124
-508.770	-55.147	0.098	-0.044
-507.756	3.695	0.182	-0.133
-506.741	288.377	0.177	0.321
-505.726	-59.243	-0.405	0.174
-504.712	-127.015	-0.124	-0.018
-503.697	39.423	-0.201	0.179
-502.683	800.000	0.103	0.295
-501.668	-186.401	-0.203	-0.003
-500.653	-130.166	-0.149	-0.020
-499.639	-91.158	-0.224	0.064
-498.624	-48.317	0.191	0.092
-497.610	-29.205	-0.503	0.288
-496.595	-33.862	-0.205	-0.113
-495.581	-64.662	-0.222	-0.090
-494.566	-123.342	-0.171	0.027
-493.551	-200.000	0.011	0.187
-492.537	800.000	-0.027	0.104
-491.522	376.241	-0.159	-0.324
-490.508	280.721	-0.080	-0.143
-489.493	-200.000	0.057	0.316
-488.478	-1.039	-0.093	0.065
-487.464	800.000	-0.102	-0.312
-486.449	-157.487	0.227	-0.014
-485.435	106.596	-0.207	0.245
-484.420	53.685	0.163	0.157
-483.405	-37.884	-0.015	0.008
-482.391	-144.211	0.213	-0.020
-481.376	357.238	-0.108	0.214
-480.362	136.713	0.065	-0.084
-479.347	85.818	0.085	0.093
-478.332	-78.222	0.157	0.054
-477.318	-67.441	0.202	-0.079
-476.303	427.069	-0.167	0.359
-475.289	-22.143	-0.280	-0.170
-474.274	49.119	-0.183	-0.171
-473.259	800.000	-0.064	-0.238
-472.245	-41.867	0.079	0.040
-471.230	63.117	0.182	-0.181
-470.216	-200.000	-0.007	0.162
-469.201	800.000	-0.071	0.233
-468.186	359.383	-0.148	0.295
-467.172	1.284	0.498	-0.357
-466.157	-200.000	0.011	-0.257
-465.143	59.376	0.298	-0.293
-464.128	-69.724	-0.159	-0.060
-463.113	-59.618	0.209	-0.089
-462.099	14.830	0.088	-0.069
-461.084	-73.379	0.119	0.043
-460.070	-80.207	-0.095	0.032
-459.055	-200.000	-0.018	0.138
-458.040	-146.984	-0.235	-0.020
-457.026	800.000	0.027	-0.102
-456.011	126.391	-0.249	-0.315
-454.997	-73.560	0.129	0.047
-453.982	521.879	0.029	0.067
-452.968	800.000	-0.104	0.303
-451.953	-76.733	-0.115	0.040
-450.938	22.988	-0.202	0.165
-449.924	107.849	0.383	0.455
-448.909	-200.000	0.020	0.142
-447.895	-6.280	-0.247	0.168
-446.880	323.664	-0.063	-0.119
-445.865	74.639	-0.162	-0.170
-444.851	38.555	-0.099	-0.088
-443.836	800.000	0.044	-0.161
-442.822	135.647	-0.170	-0.221
-441.807	-62.478	0.233	-0.097
-440.792	-146.966	0.066	0.006
-439.778	-56.578	0.351	0.155
-438.763	-4.419	-0.300	0.207
-437.749	-30.018	0.264	-0.150
-436.734	-29.764	0.149	0.085
-435.719	217.436	-0.132	-0.210
-434.705	274.742	-0.196	-0.347
-433.690	-200.000	-0.003	0.268
-432.676	800.000	0.110	0.366
-431.661	-81.356	-0.153	-0.050
-430.646	-200.000	-0.018	-0.092
-429.632	-79.578	-0.250	-0.084
-428.617	-88.904	0.225	-0.067
-427.603	800.000	0.056	0.168
-426.588	800.000	-0.117	0.323
-425.573	-97.614	0.342	0.088
-424.559	-134.149	0.440	0.054
-423.544	318.551	-0.171	-0.322
-422.530	113.308	0.029	-0.036
-421.515	-200.000	-0.027	-0.231
-420.500	311.076	-0.108	0.202
-419.486	-90.851	-0.195	0.056
-418.471	-37.034	0.245	0.131
-417.457	11.895	0.302	-0.231
-416.442	800.000	-0.074	-0.251
-415.428	56.460	0.039	-0.038
-414.413	-94.285	0.139	-0.038
-413.398	-36.232	0.389	0.209
-412.384	252.097	-0.085	-0.143
-411.369	292.678	-0.172	-0.313
-410.355	-29.059	0.368	-0.210
-409.340	-200.000	-0.033	0.267
-408.325	-154.175	0.094	-0.006
-407.311	-200.000	0.004	-0.079
-406.296	471.242	0.055	-0.122
-405.282	-59.103	0.220	0.094
-404.267	177.257	0.171	0.248
-403.252	253.987	0.051	-0.087
-402.238	129.367	-0.063	-0.080
-401.223	-63.587	-0.377	0.154
-400.209	-81.191	0.204	0.067
-399.194	-200.000	0.019	-0.220
-398.179	-200.000	-0.003	0.075
-397.165	253.671	0.019	0.032
-396.150	-19.233	-0.273	0.168
-395.136	-200.000	0.032	0.196
-394.121	88.291	-0.347	-0.383
-393.106	203.526	-0.189	0.291
-392.092	800.000	0.078	0.219
-391.077	-200.000	-0.033	0.173
-390.063	177.805	-0.026	0.037
-389.048	-100.741	-0.096	0.024
-388.033	116.554	-0.145	0.177
-387.019	-200.000	-0.003	-0.056
-386.004	608.442	-0.101	-0.250
-384.990	-49.616	-0.109	-0.051
-383.975	141.268	-0.058	-0.076
-382.960	-6.426	0.154	-0.104
-381.946	-24.195	-0.027	-0.016
-380.931	29.395	0.050	0.042
-379.917	-49.636	-0.034	-0.016
-378.902	-90.721	-0.143	0.041
-377.888	-3.565	-0.102	0.070
-376.873	-52.531	0.308	-0.142
-375.858	-116.508	0.118	0.022
-374.844	-57.850	-0.078	-0.034
-373.829	74.858	0.151	-0.158
-372.815	-200.000	-0.028	0.124
-371.800	-101.357	0.140	-0.034
-370.785	-200.000	0.050	-0.360
-369.771	-27.510	-0.225	0.130
-368.756	373.353	-0.154	0.311
-367.742	-145.449	0.110	0.010
-366.727	-35.089	-0.167	0.091
-365.712	4.986	0.192	-0.140
-364.698	-0.140	0.204	-0.144
-363.683	-200.000	-0.040	-0.253
-362.669	-4.999	0.239	0.163
-361.654	-50.959	-0.259	0.121
-360.639	705.377	0.099	-0.259
-359.625	-25.805	0.378	-0.221
-358.610	242.913	0.068	-0.114
-357.596	-200.000	-0.003	-0.040
-356.581	68.756	0.099	0.101
-355.566	-135.256	-0.322	0.038
-354.552	-102.777	-0.142	0.034
-353.537	-128.028	0.451	0.064
-352.523	745.039	-0.116	-0.309
-351.508	-200.000	0.019	0.235
-350.493	-102.808	-0.272	-0.064
-349.479	-124.053	-0.191	0.030
-348.464	-60.790	-0.219	-0.092
-347.450	-200.000	0.052	0.280
-346.435	800.000	-0.085	-0.242
-345.420	-140.419	0.090	-0.009
-344.406	-61.103	-0.262	-0.110
-343.391	311.024	0.141	0.263
-342.377	556.381	-0.021	0.050
-341.362	-23.504	-0.298	0.178
-340.348	-30.595	0.160	0.090
-339.333	243.227	-0.164	0.274
-338.318	112.017	0.042	0.051
-337.304	800.000	0.013	0.054
-336.289	62.638	0.019	0.019
-335.275	-46.886	-0.065	0.031
-334.260	-111.545	0.238	0.048
-333.245	-58.860	-0.164	-0.070
-332.231	650.508	0.136	-0.344
-331.216	341.049	-0.181	-0.351
-330.202	-200.000	0.023	-0.200
-329.187	-61.589	-0.095	-0.040
-328.172	-113.780	0.201	0.039
-327.158	78.266	0.100	0.106
-326.143	-200.000	0.026	0.358
-325.129	23.752	-0.208	0.170
-324.114	-42.809	0.094	0.047
-323.099	115.128	-0.093	0.112
-322.085	-200.000	-0.033	-0.154
-321.070	-50.637	-0.240	0.112
-320.056	119.647	-0.308	-0.379
-319.041	25.765	-0.212	0.175
-318.026	-10.502	-0.087	-0.057
-317.012	-200.000	0.027	0.208
-315.997	-51.677	0.318	-0.147
-314.983	154.210	0.087	0.118
-313.968	800.000	-0.054	0.219
-312.953	-34.313	0.209	-0.114
-311.939	36.140	-0.333	-0.291
-310.924	379.056	0.103	0.208
-309.910	-93.651	0.148	0.041
-308.895	-105.521	-0.216	0.049
-307.880	-8.710	0.217	0.145
-306.866	28.470	0.089	0.074
-305.851	13.444	-0.321	-0.247
-304.837	-10.105	0.215	-0.142
-303.822	-200.000	-0.028	-0.278
-302.807	-48.907	0.202	-0.096
-301.793	657.736	-0.155	0.394
-300.778	-4.612	0.243	0.166
-299.764	-200.000	0.027	0.356
-298.749	-114.542	-0.280	-0.053
-297.735	117.456	0.190	0.231
-296.720	-200.000	0.035	-0.222
-295.705	-55.601	-0.228	0.101
-294.691	-48.989	0.255	0.121
-293.676	59.075	-0.239	0.233
-292.662	800.000	0.055	0.203
-291.647	-6.710	-0.071	-0.048
-290.632	-200.000	0.053	-0.263
-289.618	-133.900	0.345	-0.042
-288.603	-55.133	0.221	0.098
-287.589	-86.323	-0.441	-0.134
-286.574	205.522	-0.173	-0.266
-285.559	-22.675	-0.144	0.086
-284.545	609.764	0.048	0.119
-283.530	49.049	-0.112	0.104
-282.516	-111.280	0.113	-0.023
-281.501	125.314	0.226	-0.282
-280.486	-58.763	0.219	0.094
-279.472	3.018	-0.166	0.119
-278.457	-200.000	-0.053	-0.331
-277.443	800.000	0.109	0.329
-276.428	34.823	0.013	-0.011
-275.413	-91.919	-0.206	-0.058
-274.399	-200.000	0.015	0.167
-273.384	-121.706	0.119	0.019
-272.370	0.837	-0.349	-0.248
-271.355	-128.529	0.188	0.026
-270.340	265.666	0.141	0.243
-269.326	41.122	0.111	0.099
-268.311	253.725	-0.125	0.212
-267.297	-9.720	-0.183	-0.121
-266.282	-50.088	-0.141	-0.066
-265.267	-136.282	0.468	-0.054
-264.253	118.401	0.007	0.008
-263.238	287.532	-0.126	0.226
-262.224	-76.760	0.268	-0.093
-261.209	217.771	0.131	0.207
-260.195	-200.000	0.024	-0.248
-259.180	800.000	0.088	0.340
-258.165	-200.000	0.000	0.146
-257.151	-200.000	-0.033	-0.148
-256.136	-93.697	0.315	-0.086
-255.122	-200.000	0.035	0.421
-254.107	-119.674	0.267	0.046
-253.092	-198.151	0.261	0.002
-252.078	205.827	0.204	0.314
-251.063	14.202	-0.168	-0.129
-250.049	-200.000	0.028	0.158
-249.034	-131.112	-0.025	0.003
-248.019	77.856	-0.206	-0.217
-247.005	-65.817	0.141	0.056
-245.990	69.987	-0.116	-0.119
-244.976	488.621	-0.173	-0.391
-243.961	-200.000	0.004	-0.086
-242.946	-166.906	-0.270	-0.011
-241.932	-200.000	0.029	0.348
-240.917	-200.000	0.011	-0.119
-239.903	359.179	0.126	-0.249
-238.888	514.131	0.074	-0.171
-237.873	-124.005	0.247	-0.038
-236.859	4.228	-0.092	0.066
-235.844	-200.000	0.000	-0.049
-234.830	161.737	0.071	-0.098
-233.815	-116.793	-0.271	-0.049
-232.800	233.633	0.080	0.130
-231.786	33.233	-0.225	-0.193
-230.771	-158.836	-0.291	-0.016
-229.757	109.052	-0.059	-0.070
-228.742	-90.130	0.397	0.114
-227.727	-35.743	-0.314	0.168
-226.713	-39.164	0.193	0.100
-225.698	742.251	-0.102	0.272
-224.684	800.000	-0.024	0.072
-223.669	-200.000	-0.010	-0.074
-222.655	-195.925	0.132	0.001
-221.640	16.118	0.154	0.120
-220.625	6.430	0.043	0.031
-219.611	-95.618	0.396	0.105
-218.596	170.746	0.183	0.259
-217.582	800.000	-0.057	-0.229
-216.567	-184.824	0.253	-0.004
-215.552	2.941	0.443	-0.318
-214.538	42.306	0.186	-0.167
-213.523	101.318	-0.155	0.178
-212.509	316.008	0.193	0.360
-211.494	67.133	-0.066	-0.066
-210.479	239.679	-0.200	-0.328
-209.465	-116.290	-0.200	0.037
-208.450	-157.108	0.046	-0.003
-207.436	-44.653	0.403	-0.199
-206.421	335.186	0.063	-0.121
-205.406	714.462	0.087	-0.229
-204.392	118.279	0.071	-0.087
-203.377	122.606	0.145	-0.179
-202.363	40.748	0.123	0.109
-201.348	77.671	0.059	-0.062
-200.333	231.292	0.081	0.131
-199.319	32.361	-0.196	0.167
-198.304	-200.000	-0.006	-0.277
-197.290	800.000	-0.088	0.310
-196.275	509.957	0.112	-0.258
-195.260	-115.547	0.137	0.025
-194.246	-181.135	-0.401	0.008
-193.231	74.375	-0.092	-0.095
-192.217	11.505	0.098	0.074
-191.202	-200.000	0.000	-0.273
-190.187	-42.753	-0.160	-0.080
-189.173	-200.000	-0.036	0.480
-188.158	30.860	-0.271	0.229
-187.144	124.696	0.094	0.116
-186.129	-91.884	-0.036	-0.010
-185.114	-112.201	0.192	0.038
-184.100	14.430	-0.170	0.131
-183.085	143.480	0.290	-0.380
-182.071	-101.101	-0.198	0.048
-181.056	4.603	-0.117	0.085
-180.042	302.317	-0.180	0.329
-179.027	800.000	-0.043	0.118
-178.012	489.355	0.094	-0.212
-176.998	-200.000	-0.036	-0.443
-175.983	113.574	0.172	0.206
-174.969	-59.107	-0.195	0.083
-173.954	-161.149	-0.182	0.009
-172.939	-18.284	0.186	-0.115
-171.925	-72.785	0.244	0.088
-170.910	40.913	-0.130	0.115
-169.896	-130.910	-0.078	-0.010
-168.881	83.147	-0.184	0.197
-167.866	800.000	0.014	-0.062
-166.852	53.956	0.184	0.174
-165.837	16.779	-0.076	-0.059
-164.823	-21.780	0.091	0.054
-163.808	-69.058	0.012	0.005
-162.793	800.000	0.137	-0.441
-161.779	-200.000	0.006	-0.113
-160.764	1.224	0.209	-0.148
-159.750	-200.000	-0.000	0.004
-158.735	-35.835	0.244	0.130
-157.720	-159.896	-0.255	-0.014
-156.706	-6.427	0.032	0.022
-155.691	-147.645	0.096	-0.008
-154.677	217.897	0.056	0.087
-153.662	-200.000	-0.014	0.206
-152.647	800.000	0.034	0.096
-151.633	-133.338	-0.137	-0.017
-150.618	315.807	-0.104	0.193
-149.604	-184.177	-0.143	-0.002
-148.589	375.128	0.018	-0.037
-147.574	-200.000	0.210	-0.001
-146.560	13.409	-0.100	-0.076
-145.545	-175.122	0.186	0.005
-144.531	357.851	0.019	0.037
-143.516	88.249	0.104	-0.114
-142.502	-200.000	-0.018	-0.322
-141.487	195.461	-0.266	-0.398
-140.472	437.685	-0.018	0.039
-139.458	197.404	-0.100	-0.150
-138.443	15.693	0.207	-0.161
-137.429	87.569	0.047	-0.051
-136.414	71.710	-0.195	0.199
-135.399	94.466	-0.316	0.353
-134.385	427.344	-0.114	-0.241
-133.370	308.329	-0.188	0.345
-132.356	-200.000	-0.032	0.339
-131.341	55.284	0.094	-0.090
-130.326	800.000	-0.106	-0.380
-129.312	-155.598	0.318	-0.020
-128.297	-200.000	0.004	-0.080
-127.283	-96.606	-0.267	-0.069
-126.268	-200.000	0.035	-0.191
-125.253	-42.912	-0.060	-0.030
-124.239	63.164	-0.132	0.130
-123.224	95.962	0.322	-0.362
-122.210	83.910	-0.051	0.055
-121.195	-200.000	-0.063	-0.379
