DTS Sentinel unit serial number:	SN413079Multiplexer serial number:	ORYXHardware model number:	OX4-SRSoftware version number:	ORYX F/W v4.00 Oryx Data Collector v3.7.2.0data status	okinstallation	princeton_trtdifferential loss correction	single-endedforward channel	channel 3reverse channel	N/Adate	2019/09/15time	06:00:35forward acquisition time	60.00reverse acquisition time	0.00gamma	496.2192k internal	0.2324k external	0.2324temperature offset calibration	0.9978default loss term (dB/km)	0.3790temperature slope calibration	1.0000multiplexer offset coefficient	1.0000multiplexer slope coefficient	1.0000fibre end	0.00T internal ref (°C)	30.62T ext. ref 1 (°C)	4.86T ext. ref 2 (°C)	25.20length (m)	temperature (°C)	Stokes	anti-Stokes-747.200	146.118	0.110	0.148
-746.185	212.160	-0.115	-0.184
-745.171	-181.000	0.284	-0.006
-744.156	138.259	-0.228	0.301
-743.142	-200.000	0.004	0.186
-742.127	800.000	-0.044	0.188
-741.112	800.000	0.033	0.111
-740.098	57.793	-0.363	-0.359
-739.083	-58.979	-0.142	0.062
-738.069	39.080	-0.306	0.276
-737.054	337.908	0.087	0.171
-736.039	-200.000	0.040	0.373
-735.025	-200.000	-0.006	-0.361
-734.010	-68.795	-0.041	-0.016
-732.996	-119.402	-0.287	-0.050
-731.981	-200.000	0.015	-0.164
-730.966	112.378	-0.148	-0.180
-729.952	-132.526	-0.133	0.017
-728.937	29.056	0.038	0.033
-727.923	-39.682	-0.358	0.189
-726.908	571.552	-0.037	0.091
-725.894	121.531	0.110	0.139
-724.879	-200.000	0.025	-0.228
-723.864	-79.931	-0.227	-0.077
-722.850	-200.000	-0.029	-0.289
-721.835	169.130	-0.162	0.233
-720.821	-106.391	0.124	-0.028
-719.806	123.063	0.099	-0.125
-718.791	6.185	0.209	0.157
-717.777	184.223	-0.133	0.199
-716.762	77.818	0.074	-0.080
-715.748	-70.517	-0.275	0.105
-714.733	-90.407	-0.177	-0.052
-713.718	120.184	-0.218	-0.273
-712.704	-194.554	0.330	-0.003
-711.689	-115.983	-0.373	0.070
-710.675	-200.000	-0.005	0.112
-709.660	-60.144	0.169	0.073
-708.645	350.055	0.107	0.214
-707.631	45.887	-0.287	0.267
-706.616	59.276	0.286	0.284
-705.602	-10.466	-0.059	-0.040
-704.587	150.329	-0.173	0.237
-703.572	-138.940	-0.260	0.029
-702.558	-41.563	0.213	-0.110
-701.543	800.000	-0.068	-0.262
-700.529	131.274	0.209	-0.271
-699.514	568.208	-0.048	-0.117
-698.499	266.149	-0.092	-0.163
-697.485	30.100	-0.104	-0.089
-696.470	-84.135	-0.134	-0.043
-695.456	32.203	0.121	0.105
-694.441	128.036	0.180	-0.231
-693.426	-4.437	-0.081	0.056
-692.412	-82.319	-0.280	0.092
-691.397	-200.000	0.014	-0.118
-690.383	-73.073	0.200	0.074
-689.368	800.000	-0.141	-0.401
-688.354	800.000	-0.058	0.222
-687.339	-131.038	-0.325	-0.044
-686.324	-38.850	0.089	0.047
-685.310	-6.527	0.070	0.048
-684.295	-200.000	-0.032	0.204
-683.281	77.840	0.157	0.168
-682.266	-170.939	0.104	0.004
-681.251	73.919	-0.285	-0.301
-680.237	794.916	-0.097	-0.268
-679.222	117.292	-0.112	-0.138
-678.208	-200.000	0.057	0.360
-677.193	-200.000	-0.011	-0.068
-676.178	-153.261	0.354	-0.025
-675.164	-200.000	-0.026	0.121
-674.149	-128.120	-0.281	0.041
-673.135	-51.793	-0.428	-0.200
-672.120	-107.714	-0.052	0.011
-671.105	-50.433	0.023	0.011
-670.091	-200.000	-0.025	0.131
-669.076	-200.000	0.058	-0.378
-668.062	39.164	0.210	0.189
-667.047	-124.899	0.184	0.029
-666.032	-100.655	0.428	-0.106
-665.018	800.000	0.002	0.006
-664.003	425.520	-0.034	-0.075
-662.989	-200.000	-0.023	0.140
-661.974	220.538	-0.196	-0.316
-660.959	-200.000	-0.044	0.196
-659.945	716.917	-0.060	-0.159
-658.930	68.179	0.122	-0.126
-657.916	68.939	0.099	-0.102
-656.901	30.655	-0.068	-0.059
-655.886	800.000	0.075	-0.237
-654.872	58.387	0.168	-0.166
-653.857	-200.000	0.013	0.151
-652.843	-65.289	-0.242	0.098
-651.828	-200.000	0.052	-0.416
-650.814	140.570	0.133	0.176
-649.799	-32.529	-0.098	0.055
-648.784	-180.452	-0.172	0.004
-647.770	-102.573	0.085	-0.020
-646.755	48.987	-0.194	-0.184
-645.741	-1.685	-0.121	0.086
-644.726	800.000	-0.074	-0.235
-643.711	-200.000	-0.011	-0.307
-642.697	-74.611	0.337	-0.122
-641.682	498.385	-0.055	-0.127
-640.668	-200.000	0.020	0.277
-639.653	-200.000	0.022	0.232
-638.638	-93.561	0.077	-0.021
-637.624	-88.434	-0.144	-0.043
-636.609	-200.000	0.013	-0.212
-635.595	-200.000	0.065	0.312
-634.580	-200.000	0.006	0.102
-633.565	524.622	0.057	-0.136
-632.551	-135.766	0.045	-0.005
-631.536	-200.000	-0.010	-0.213
-630.522	257.984	0.151	0.261
-629.507	-93.111	0.182	0.051
-628.492	-200.000	-0.035	-0.460
-627.478	-131.300	-0.313	0.042
-626.463	800.000	-0.080	-0.285
-625.449	58.901	0.300	-0.296
-624.434	372.329	0.079	-0.162
-623.419	-186.421	-0.204	-0.003
-622.405	56.158	0.104	-0.101
-621.390	800.000	0.093	0.280
-620.376	-155.474	-0.133	0.009
-619.361	-90.521	-0.447	0.130
-618.346	-104.990	-0.077	0.018
-617.332	134.211	-0.176	-0.229
-616.317	-3.598	-0.121	-0.084
-615.303	-200.000	-0.021	0.146
-614.288	800.000	-0.048	-0.149
-613.273	548.564	0.058	-0.140
-612.259	-111.393	-0.339	-0.069
-611.244	114.276	-0.188	0.230
-610.230	483.275	-0.106	0.243
-609.215	-200.000	-0.004	-0.064
-608.201	800.000	0.111	0.379
-607.186	800.000	0.051	-0.176
-606.171	-88.097	-0.036	-0.011
-605.157	61.587	-0.167	0.166
-604.142	-200.000	-0.018	0.433
-603.128	-200.000	0.037	-0.260
-602.113	285.605	-0.126	-0.229
-601.098	-200.000	0.004	-0.284
-600.084	-113.884	0.204	-0.040
-599.069	5.779	-0.264	0.196
-598.055	-25.682	0.231	0.137
-597.040	800.000	-0.023	0.099
-596.025	36.462	0.185	-0.164
-595.011	3.018	-0.166	-0.121
-593.996	121.526	-0.074	-0.092
-592.982	297.656	-0.119	-0.220
-591.967	374.042	-0.024	-0.048
-590.952	-86.058	0.050	0.016
-589.938	-53.543	-0.210	0.097
-588.923	41.879	0.185	0.168
-587.909	800.000	0.053	-0.202
-586.894	800.000	0.038	0.138
-585.879	115.828	-0.051	0.063
-584.865	164.340	-0.161	-0.227
-583.850	-200.000	-0.072	-0.344
-582.836	3.392	0.068	-0.049
-581.821	-99.118	-0.410	0.104
-580.806	-19.900	0.420	0.260
-579.792	249.480	-0.153	-0.260
-578.777	-72.960	0.180	0.066
-577.763	110.929	0.133	-0.161
-576.748	-76.754	0.430	0.151
-575.733	-190.030	0.109	0.001
-574.719	800.000	0.090	0.250
-573.704	-155.364	0.474	-0.031
-572.690	412.779	-0.142	-0.304
-571.675	-61.037	-0.281	-0.119
-570.661	-200.000	-0.034	0.190
-569.646	-15.549	-0.123	-0.079
-568.631	80.916	-0.107	0.116
-567.617	-200.000	-0.004	0.249
-566.602	527.805	-0.146	-0.346
-565.588	-30.665	0.188	-0.106
-564.573	-200.000	-0.025	0.271
-563.558	800.000	0.063	-0.260
-562.544	263.783	-0.115	0.200
-561.529	-7.735	-0.151	0.102
-560.515	-121.269	0.099	0.016
-559.500	-200.000	0.007	-0.054
-558.485	-58.283	-0.342	-0.149
-557.471	8.379	-0.110	-0.083
-556.456	26.727	0.221	-0.185
-555.442	343.400	0.160	0.314
-554.427	-45.216	-0.326	0.162
-553.412	3.214	0.251	-0.183
-552.398	-94.658	0.134	0.036
-551.383	-114.026	-0.196	0.038
-550.369	-139.256	-0.064	0.007
-549.354	800.000	0.128	0.491
-548.339	203.842	-0.072	0.111
-547.325	160.163	-0.186	0.260
-546.310	186.601	0.121	0.180
-545.296	-180.990	0.205	-0.004
-544.281	-70.766	-0.239	0.090
-543.266	141.595	-0.267	-0.354
-542.252	-200.000	-0.026	0.145
-541.237	20.297	-0.152	0.123
-540.223	-142.353	-0.123	0.012
-539.208	60.362	0.199	-0.197
-538.193	254.938	0.103	-0.177
-537.179	1.058	0.057	0.041
-536.164	50.149	0.208	-0.197
-535.150	155.835	0.103	0.142
-534.135	-200.000	-0.034	-0.159
-533.121	264.578	-0.066	0.115
-532.106	526.886	0.035	0.082
-531.091	-135.947	0.154	0.018
-530.077	660.511	0.065	-0.167
-529.062	-200.000	0.005	0.145
-528.048	68.383	0.342	-0.351
-527.033	-200.000	0.020	0.206
-526.018	-20.951	0.165	0.101
-525.004	-200.000	0.002	-0.102
-523.989	-118.743	0.094	0.017
-522.975	68.028	0.107	0.109
-521.960	19.805	-0.237	-0.191
-520.945	80.946	0.038	0.041
-519.931	392.342	-0.127	0.264
-518.916	800.000	0.079	-0.302
-517.902	190.879	0.114	-0.171
-516.887	-200.000	-0.007	-0.317
-515.872	-200.000	0.007	-0.148
-514.858	-20.383	0.301	0.186
-513.843	-103.266	0.352	-0.083
-512.829	164.148	-0.124	-0.174
-511.814	800.000	0.168	-0.523
-510.799	128.015	0.072	0.092
-509.785	-17.190	-0.109	-0.069
-508.770	416.602	0.018	0.038
-507.756	154.439	-0.137	-0.187
-506.741	35.529	0.116	0.102
-505.726	-72.660	0.127	0.047
-504.712	83.701	0.137	-0.149
-503.697	-147.378	-0.202	0.017
-502.683	-183.649	0.192	0.003
-501.668	-148.934	-0.060	-0.005
-500.653	-112.431	-0.361	-0.072
-499.639	800.000	-0.040	0.137
-498.624	800.000	-0.021	-0.080
-497.610	161.609	-0.208	-0.291
-496.595	-9.158	-0.087	-0.058
-495.581	359.800	-0.102	-0.203
-494.566	16.249	0.159	-0.126
-493.551	-200.000	-0.051	-0.259
-492.537	-22.916	-0.199	-0.120
-491.522	-51.825	0.514	-0.239
-490.508	800.000	-0.065	0.226
-489.493	97.322	0.157	0.180
-488.478	150.920	0.137	-0.186
-487.464	-58.941	-0.238	-0.103
-486.449	195.490	-0.213	-0.324
-485.435	260.056	0.087	-0.150
-484.420	800.000	0.028	0.108
-483.405	-200.000	0.017	-0.161
-482.391	-40.890	-0.297	-0.154
-481.376	268.920	-0.112	0.197
-480.362	39.190	-0.114	0.102
-479.347	-120.404	0.142	0.024
-478.332	-200.000	-0.003	0.269
-477.318	800.000	0.050	0.156
-476.303	119.160	0.175	0.217
-475.289	74.454	-0.194	-0.204
-474.274	0.441	-0.206	0.147
-473.259	218.954	-0.149	-0.237
-472.245	83.824	0.243	0.265
-471.230	-17.732	-0.252	-0.158
-470.216	-134.839	-0.279	-0.034
-469.201	-137.202	0.130	-0.015
-468.186	-31.381	0.076	-0.043
-467.172	266.263	-0.123	-0.215
-466.157	-135.958	-0.473	-0.056
-465.143	-200.000	0.030	0.161
-464.128	-52.361	0.248	0.115
-463.113	800.000	0.076	0.223
-462.099	-15.244	0.165	0.105
-461.084	-200.000	-0.007	-0.157
-460.070	458.812	0.087	-0.194
-459.055	103.309	0.164	0.192
-458.040	163.149	0.076	0.106
-457.026	171.874	-0.320	-0.459
-456.011	-71.520	-0.493	0.184
-454.997	-200.000	0.274	-0.001
-453.982	68.368	0.215	-0.220
-452.968	154.448	0.111	-0.152
-451.953	-163.297	-0.246	0.012
-450.938	25.203	0.277	0.230
-449.924	189.364	0.117	-0.175
-448.909	-115.239	0.342	0.065
-447.895	-166.759	-0.467	-0.019
-446.880	-33.805	0.330	0.182
-445.865	264.752	0.078	-0.135
-444.851	524.871	-0.064	-0.151
-443.836	-143.459	-0.532	-0.051
-442.822	15.905	-0.165	0.129
-441.807	142.525	0.047	0.062
-440.792	800.000	-0.067	-0.194
-439.778	358.180	-0.048	0.096
-438.763	800.000	0.010	0.039
-437.749	-62.830	0.226	0.093
-436.734	-66.197	-0.274	0.109
-435.719	-164.894	-0.205	-0.009
-434.705	-70.665	0.172	-0.065
-433.690	-200.000	-0.011	0.218
-432.676	-91.904	-0.138	-0.039
-431.661	-200.000	0.018	-0.278
-430.646	247.829	0.081	-0.137
-429.632	259.169	-0.077	-0.133
-428.617	413.053	-0.075	-0.160
-427.603	4.094	-0.153	-0.112
-426.588	-47.835	0.152	0.073
-425.573	-111.325	0.120	0.024
-424.559	800.000	0.032	-0.104
-423.544	-47.815	0.089	0.043
-422.530	89.522	-0.219	0.243
-421.515	-49.183	0.250	0.119
-420.500	-200.000	0.015	0.156
-419.486	83.070	0.315	0.342
-418.471	198.499	-0.159	-0.242
-417.457	-18.393	-0.272	0.169
-416.442	-174.601	0.150	-0.004
-415.428	-111.117	-0.381	0.078
-414.413	-133.541	-0.378	0.047
-413.398	-129.818	-0.184	0.025
-412.384	177.955	0.272	0.396
-411.369	-99.941	0.341	0.085
-410.355	-200.000	-0.035	0.211
-409.340	243.327	-0.169	0.283
-408.325	800.000	-0.032	0.131
-407.311	-200.000	-0.050	0.227
-406.296	-83.531	0.321	0.102
-405.282	800.000	0.046	-0.135
-404.267	45.562	0.114	-0.105
-403.252	240.963	0.195	0.325
-402.238	-200.000	0.003	0.048
-401.223	-200.000	-0.015	-0.079
-400.209	575.463	-0.081	0.197
-399.194	-200.000	-0.012	0.181
-398.179	796.568	0.159	0.436
-397.165	-1.587	0.052	0.036
-396.150	-166.448	-0.081	-0.003
-395.136	-163.627	0.460	-0.022
-394.121	203.799	0.147	-0.227
-393.106	-15.684	-0.324	0.206
-392.092	-120.580	0.218	-0.037
-391.077	800.000	-0.025	0.076
-390.063	-51.318	-0.280	0.130
-389.048	15.051	-0.124	0.096
-388.033	7.924	0.174	-0.130
-387.019	452.163	-0.172	0.378
-386.004	-37.410	-0.054	0.029
-384.990	-200.000	0.007	0.183
-383.975	-48.110	0.073	-0.035
-382.960	-146.767	0.367	-0.032
-381.946	748.386	-0.055	0.148
-380.931	800.000	-0.050	-0.182
-379.917	-117.329	0.139	0.025
-378.902	-27.905	0.219	-0.126
-377.888	800.000	0.128	-0.363
-376.873	94.525	0.296	-0.335
-375.858	-165.098	-0.196	0.009
-374.844	42.765	0.147	-0.134
-373.829	-200.000	0.021	0.301
-372.815	-4.185	-0.070	0.049
-371.800	-155.988	0.345	-0.022
-370.785	180.082	-0.255	0.372
-369.771	800.000	-0.013	0.046
-368.756	-131.815	0.023	-0.003
-367.742	-159.634	-0.072	-0.004
-366.727	-68.630	-0.141	0.054
-365.712	81.850	-0.134	0.145
-364.698	106.196	0.110	0.130
-363.683	-71.229	0.260	-0.097
-362.669	105.033	-0.104	0.122
-361.654	209.851	-0.117	-0.183
-360.639	760.318	0.114	-0.307
-359.625	-5.375	0.111	-0.076
-358.610	91.602	0.073	0.082
-357.596	-14.122	-0.177	-0.114
-356.581	-200.000	-0.005	-0.253
-355.566	-200.000	-0.004	-0.123
-354.552	222.884	-0.067	0.107
-353.537	755.080	0.100	0.269
-352.523	-111.115	-0.422	-0.086
-351.508	-111.933	-0.187	0.038
-350.493	-136.247	0.188	0.022
-349.479	800.000	0.130	0.434
-348.464	61.256	-0.133	-0.131
-347.450	432.949	-0.066	-0.143
-346.435	94.035	-0.077	-0.086
-345.420	-29.791	0.326	0.185
-344.406	-200.000	0.028	-0.334
-343.391	-2.079	-0.127	0.089
-342.377	180.013	-0.188	-0.274
-341.362	86.311	0.163	-0.179
-340.348	-72.529	0.176	0.065
-339.333	-109.996	-0.118	-0.024
-338.318	419.054	0.081	0.171
-337.304	92.222	0.259	0.290
-336.289	800.000	-0.099	0.366
-335.275	154.673	-0.270	0.368
-334.260	77.973	-0.225	-0.238
-333.245	800.000	0.080	-0.262
-332.231	-6.114	0.191	-0.130
-331.216	-200.000	0.010	0.094
-330.202	-53.660	0.291	0.132
-329.187	656.204	0.143	0.365
-328.172	275.642	0.029	-0.052
-327.158	-77.578	0.155	-0.054
-326.143	272.600	0.213	-0.373
-325.129	-200.000	0.006	0.056
-324.114	21.220	0.201	0.162
-323.099	800.000	-0.124	0.477
-322.085	-21.722	0.107	0.065
-321.070	14.688	-0.262	0.203
-320.056	-174.269	-0.073	0.002
-319.041	97.943	-0.159	-0.181
-318.026	-200.000	-0.030	-0.156
-317.012	66.260	0.216	0.217
-315.997	-200.000	-0.001	-0.140
-314.983	-43.587	-0.193	0.097
-313.968	-75.446	0.183	0.065
-312.953	211.776	-0.012	0.018
-311.939	-6.768	-0.145	0.098
-310.924	107.644	0.129	0.152
-309.910	49.048	-0.304	-0.283
-308.895	242.435	0.050	0.083
-307.880	108.145	-0.147	-0.174
-306.866	344.737	-0.026	-0.050
-305.851	-75.106	0.297	-0.105
-304.837	758.712	0.116	-0.312
-303.822	-151.611	0.085	0.006
-302.807	-52.688	0.270	-0.124
-301.793	-27.655	-0.122	0.070
-300.778	64.149	-0.022	0.022
-299.764	65.810	0.132	-0.132
-298.749	800.000	-0.014	0.052
-297.735	-200.000	0.016	0.172
-296.720	110.772	0.071	0.085
-295.705	177.528	0.175	-0.252
-294.691	-200.000	0.019	0.150
-293.676	-200.000	0.013	-0.089
-292.662	-93.397	-0.202	0.055
-291.647	-19.926	0.249	0.153
-290.632	222.635	-0.204	-0.326
-289.618	800.000	-0.115	0.331
-288.603	-200.000	0.018	-0.121
-287.589	25.954	-0.353	0.292
-286.574	800.000	0.114	0.366
-285.559	-105.222	0.558	-0.126
-284.545	-200.000	-0.310	0.001
-283.530	-67.778	0.222	-0.086
-282.516	-15.063	-0.206	-0.131
-281.501	-108.338	0.168	-0.036
-280.486	78.350	0.173	-0.183
-279.472	800.000	0.038	-0.141
-278.457	-62.615	0.267	-0.110
-277.443	159.893	0.081	0.112
-276.428	-68.400	-0.134	-0.052
-275.413	192.288	0.209	0.312
-274.399	-88.519	-0.171	-0.051
-273.384	51.459	0.065	0.061
-272.370	-50.631	-0.313	0.146
-271.355	293.772	0.064	0.116
-270.340	-115.796	-0.096	0.018
-269.326	-77.300	0.342	0.118
-268.311	540.373	-0.106	0.249
-267.297	24.500	-0.237	0.194
-266.282	-173.890	-0.303	-0.009
-265.267	-20.364	-0.214	0.131
-264.253	-200.000	-0.025	0.137
-263.238	126.387	-0.094	0.117
-262.224	-200.000	0.012	-0.247
-261.209	4.401	-0.115	0.084
-260.195	369.997	0.089	-0.179
-259.180	747.862	-0.112	0.300
-258.165	-108.698	-0.018	0.004
-257.151	-44.060	0.154	-0.077
-256.136	129.255	0.282	-0.356
-255.122	440.083	-0.012	-0.027
-254.107	800.000	0.045	0.175
-253.092	282.957	-0.131	0.232
-252.078	30.195	-0.223	0.189
-251.063	610.855	0.124	-0.307
-250.049	4.379	-0.082	0.059
-249.034	31.916	0.124	0.105
-248.019	28.254	0.064	-0.054
-247.005	-67.678	0.239	0.093
-245.990	-200.000	0.022	-0.169
-244.976	343.910	-0.097	0.188
-243.961	-65.942	-0.165	-0.065
-242.946	-28.992	-0.215	-0.122
-241.932	101.826	-0.010	0.012
-240.917	166.743	-0.209	-0.293
-239.903	800.000	0.039	-0.129
-238.888	172.027	0.032	-0.045
-237.873	-200.000	0.017	0.151
-236.859	76.796	0.067	-0.071
-235.844	-55.587	-0.206	-0.091
-234.830	-79.200	-0.163	0.055
-233.815	-102.986	-0.247	0.058
-232.800	-29.935	-0.085	-0.048
-231.786	552.107	-0.085	-0.201
-230.771	-99.851	0.398	-0.098
-229.757	-77.017	-0.154	0.053
-228.742	-108.451	0.168	-0.036
-227.727	131.252	0.081	0.104
-226.713	-135.294	-0.197	0.023
-225.698	144.954	-0.029	0.038
-224.684	84.026	0.212	-0.229
-223.669	800.000	0.031	0.090
-222.655	-200.000	0.039	0.226
-221.640	-200.000	-0.005	0.175
-220.625	32.194	-0.134	0.114
-219.611	61.064	0.156	0.153
-218.596	263.854	0.066	0.113
-217.582	800.000	-0.101	0.341
-216.567	179.363	-0.211	0.305
-215.552	-200.000	-0.006	-0.113
-214.538	290.389	-0.078	0.141
-213.523	159.304	-0.112	0.154
-212.509	206.415	0.126	0.194
-211.494	-144.014	0.179	0.017
-210.479	62.895	-0.135	0.134
-209.465	153.624	0.099	-0.133
-208.450	-32.186	0.186	0.103
-207.436	114.032	-0.098	-0.118
-206.421	-200.000	0.009	0.177
-205.406	-158.050	-0.183	-0.011
-204.392	125.472	0.235	-0.293
-203.377	665.256	-0.013	0.033
-202.363	-161.129	0.221	-0.011
-201.348	-44.459	-0.254	0.125
-200.333	-35.070	-0.280	-0.151
-199.319	-200.000	-0.002	0.113
-198.304	-47.699	-0.447	-0.214
-197.290	800.000	-0.041	0.165
-196.275	800.000	-0.079	0.313
-195.260	41.170	0.187	0.167
-194.246	219.600	-0.181	0.287
-193.231	-26.528	-0.204	-0.118
-192.217	800.000	0.030	-0.093
-191.202	-6.896	0.230	-0.154
-190.187	800.000	0.048	-0.200
-189.173	-57.218	-0.213	-0.093
-188.158	-58.756	0.098	0.042
-187.144	190.578	-0.220	-0.326
-186.129	-200.000	-0.026	-0.159
-185.114	-101.600	-0.185	0.044
-184.100	668.190	-0.025	0.064
-183.085	541.344	-0.105	-0.247
-182.071	-200.000	-0.041	-0.343
-181.056	-134.548	0.114	-0.014
-180.042	25.456	-0.188	-0.155
-179.027	707.894	0.080	-0.208
-178.012	96.923	-0.164	-0.186
-176.998	-68.318	-0.230	0.088
-175.983	35.396	-0.077	-0.066
-174.969	29.013	0.150	-0.126
-173.954	-65.297	-0.158	-0.063
-172.939	141.194	0.209	-0.273
-171.925	-33.781	0.112	0.061
-170.910	-200.000	-0.018	0.172
-169.896	9.654	0.198	-0.148
-168.881	-29.969	0.209	-0.118
-167.866	71.644	-0.151	-0.155
-166.852	-200.000	0.005	-0.030
-165.837	-200.000	0.012	-0.156
-164.823	-32.485	-0.034	0.019
-163.808	199.106	0.104	0.157
-162.793	-200.000	0.047	0.229
-161.779	800.000	0.048	-0.139
-160.764	800.000	0.065	-0.184
-159.750	-120.294	0.186	-0.031
-158.735	-156.802	0.295	-0.018
-157.720	58.639	-0.181	-0.175
-156.706	127.652	0.190	0.238
-155.691	117.450	0.222	-0.269
-154.677	46.928	0.324	0.297
-153.662	-59.075	-0.095	0.041
-152.647	-17.684	0.302	-0.187
-151.633	800.000	0.043	0.183
-150.618	-84.013	0.221	0.069
-149.604	258.328	0.073	-0.125
-148.589	-78.908	-0.163	0.055
-147.574	75.468	0.235	-0.245
-146.560	-200.000	0.003	-0.054
-145.545	800.000	0.016	-0.067
-144.531	-131.430	0.180	0.023
-143.516	-61.852	0.038	0.016
-142.502	-117.639	0.280	0.050
-141.487	49.199	0.219	-0.203
-140.472	422.904	-0.018	0.038
-139.458	-107.318	-0.131	-0.028
-138.443	-97.017	-0.125	0.032
-137.429	-200.000	-0.021	-0.189
-136.414	-173.900	0.142	-0.004
-135.399	213.765	-0.090	0.141
-134.385	-64.341	0.187	-0.075
-133.370	-7.173	0.103	0.069
-132.356	-76.423	0.511	0.177
-131.341	30.061	0.327	0.275
-130.326	800.000	-0.059	0.205
-129.312	-47.071	-0.315	-0.152
-128.297	43.582	-0.125	0.113
-127.283	800.000	0.089	-0.266
-126.268	-200.000	-0.027	-0.347
-125.253	-200.000	-0.006	0.188
-124.239	-200.000	0.008	-0.186
-123.224	139.766	-0.172	-0.223
-122.210	122.374	0.079	0.098
-121.195	707.752	0.098	0.255
-120.180	215.414	0.175	-0.274
