DTS Sentinel unit serial number:	SN413079Multiplexer serial number:	ORYXHardware model number:	OX4-SRSoftware version number:	ORYX F/W v4.00 Oryx Data Collector v3.7.2.0data status	okinstallation	princeton_trtdifferential loss correction	single-endedforward channel	channel 3reverse channel	N/Adate	2019/09/16time	20:08:35forward acquisition time	60.00reverse acquisition time	0.00gamma	496.2192k internal	0.2321k external	0.2321temperature offset calibration	0.9937default loss term (dB/km)	0.3790temperature slope calibration	1.0000multiplexer offset coefficient	1.0000multiplexer slope coefficient	1.0000fibre end	0.00T internal ref (°C)	33.14T ext. ref 1 (°C)	0.05T ext. ref 2 (°C)	26.64length (m)	temperature (°C)	Stokes	anti-Stokes-747.200	-200.000	-0.028	-0.277
-746.185	29.421	-0.013	0.011
-745.171	374.365	-0.071	0.145
-744.156	-200.000	0.017	0.220
-743.142	-82.291	0.295	0.097
-742.127	-48.966	-0.374	0.181
-741.112	-65.901	0.287	-0.116
-740.098	-200.000	0.027	0.243
-739.083	611.891	0.112	-0.283
-738.069	-26.995	0.218	0.129
-737.054	2.302	0.184	0.134
-736.039	800.000	0.012	-0.046
-735.025	52.971	-0.062	0.060
-734.010	283.268	0.136	0.247
-732.996	45.352	-0.097	-0.090
-731.981	-157.535	0.144	0.009
-730.966	800.000	0.091	-0.277
-729.952	-90.737	-0.411	-0.120
-728.937	-68.617	-0.290	0.114
-727.923	314.809	-0.095	-0.180
-726.908	-60.795	-0.279	-0.119
-725.894	-200.000	0.008	0.070
-724.879	-96.257	0.025	-0.007
-723.864	-32.168	-0.290	-0.164
-722.850	116.266	-0.079	0.098
-721.835	-124.081	0.343	0.054
-720.821	771.996	-0.054	-0.149
-719.806	30.251	0.118	0.102
-718.791	359.565	-0.104	0.210
-717.777	655.163	0.031	0.079
-716.762	-1.898	0.328	-0.233
-715.748	800.000	-0.098	-0.276
-714.733	-122.905	0.104	-0.017
-713.718	-200.000	0.005	0.081
-712.704	-64.911	-0.133	0.054
-711.689	-10.458	0.198	0.133
-710.675	212.767	0.092	-0.147
-709.660	-141.431	-0.133	0.014
-708.645	-32.437	-0.133	-0.075
-707.631	-103.280	0.121	0.029
-706.616	246.997	-0.042	-0.071
-705.602	-173.951	-0.210	-0.006
-704.587	136.088	-0.055	-0.073
-703.572	-69.336	0.230	0.089
-702.558	-4.081	0.076	0.053
-701.543	-115.390	-0.333	0.063
-700.529	265.031	-0.123	-0.216
-699.514	-132.095	0.355	0.047
-698.499	-35.507	-0.113	-0.062
-697.485	800.000	-0.077	-0.266
-696.470	-183.214	-0.186	-0.003
-695.456	124.241	0.102	-0.129
-694.441	-200.000	0.004	0.269
-693.426	120.985	0.112	0.140
-692.412	-141.280	-0.321	-0.033
-691.397	800.000	0.132	0.441
-690.383	29.266	-0.110	-0.094
-689.368	58.825	0.220	0.218
-688.354	-200.000	0.007	0.140
-687.339	16.257	-0.057	0.045
-686.324	-33.203	-0.153	0.085
-685.310	15.550	-0.239	0.189
-684.295	-79.928	-0.051	0.017
-683.281	-2.147	-0.085	-0.060
-682.266	41.374	0.274	0.250
-681.251	737.416	-0.051	-0.138
-680.237	724.832	-0.056	0.150
-679.222	-64.156	-0.235	0.097
-678.208	-120.453	0.068	0.012
-677.193	-24.617	-0.388	-0.233
-676.178	219.249	0.319	-0.515
-675.164	-200.000	-0.022	-0.223
-674.149	-74.495	-0.116	-0.042
-673.135	37.523	-0.091	-0.081
-672.120	-200.000	0.007	-0.065
-671.105	-139.777	0.015	0.002
-670.091	-200.000	-0.008	-0.197
-669.076	-65.950	0.165	0.067
-668.062	421.709	0.104	0.226
-667.047	-200.000	0.063	0.333
-666.032	95.504	0.182	-0.209
-665.018	-200.000	-0.024	0.128
-664.003	800.000	0.097	0.293
-662.989	-115.438	0.443	0.084
-661.974	-44.961	-0.307	-0.154
-660.959	-102.229	0.316	0.077
-659.945	150.758	-0.198	-0.272
-658.930	87.576	-0.077	-0.086
-657.916	20.243	-0.379	-0.308
-656.901	42.636	-0.089	-0.082
-655.886	216.667	0.061	0.098
-654.872	-115.735	-0.130	-0.024
-653.857	6.303	-0.168	0.126
-652.843	317.861	-0.079	0.150
-651.828	586.955	0.148	-0.367
-650.814	53.349	0.047	0.046
-649.799	90.198	0.154	-0.173
-648.784	-200.000	-0.046	0.300
-647.770	186.548	0.137	-0.206
-646.755	121.596	0.057	0.071
-645.741	10.336	-0.194	0.149
-644.726	-68.698	0.362	0.141
-643.711	-62.585	0.132	-0.055
-642.697	15.309	0.139	-0.110
-641.682	800.000	-0.013	-0.036
-640.668	-200.000	-0.009	0.171
-639.653	17.175	0.147	0.117
-638.638	377.170	0.127	-0.261
-637.624	-200.000	-0.036	-0.277
-636.609	52.787	-0.102	-0.098
-635.595	12.672	0.164	0.127
-634.580	-200.000	-0.005	-0.086
-633.565	7.190	0.178	-0.133
-632.551	-40.960	0.063	-0.033
-631.536	100.858	-0.045	-0.053
-630.522	-200.000	-0.075	0.545
-629.507	-200.000	0.014	-0.119
-628.492	-124.488	0.172	0.027
-627.478	-200.000	0.003	-0.169
-626.463	51.705	-0.096	-0.092
-625.449	800.000	0.102	-0.325
-624.434	-95.194	-0.147	0.040
-623.419	-114.539	-0.186	-0.036
-622.405	-25.255	-0.023	0.014
-621.390	-140.396	0.186	0.020
-620.376	-39.239	-0.192	-0.101
-619.361	81.335	0.093	0.101
-618.346	-44.946	-0.176	-0.088
-617.332	-200.000	-0.080	0.363
-616.317	-39.323	0.265	-0.140
-615.303	40.157	-0.126	-0.114
-614.288	-90.807	-0.157	-0.045
-613.273	637.546	0.083	0.211
-612.259	-125.268	0.014	0.002
-611.244	800.000	0.024	-0.075
-610.230	800.000	-0.135	-0.585
-609.215	166.315	-0.178	0.254
-608.201	98.668	0.132	-0.153
-607.186	169.147	-0.020	0.028
-606.171	-200.000	-0.045	-0.306
-605.157	-124.046	-0.204	-0.032
-604.142	-200.000	-0.002	-0.013
-603.128	69.676	0.199	-0.206
-602.113	-165.564	-0.125	0.005
-601.098	800.000	0.045	-0.168
-600.084	360.158	0.092	-0.186
-599.069	90.591	-0.072	0.081
-598.055	119.063	0.087	-0.108
-597.040	-112.081	-0.175	0.035
-596.025	128.819	0.127	-0.162
-595.011	140.923	0.247	0.328
-593.996	455.716	-0.019	-0.042
-592.982	-200.000	0.002	-0.382
-591.967	-56.866	-0.183	-0.081
-590.952	-91.791	-0.008	0.002
-589.938	-200.000	-0.015	0.148
-588.923	393.792	0.072	-0.150
-587.909	-134.759	-0.135	0.016
-586.894	127.262	-0.109	0.138
-585.879	4.046	-0.310	-0.228
-584.865	-200.000	0.006	-0.035
-583.850	-110.224	0.043	0.009
-582.836	495.806	-0.099	0.230
-581.821	-59.239	-0.067	-0.029
-580.806	-122.901	0.297	-0.048
-579.792	800.000	-0.035	-0.113
-578.777	509.564	0.120	-0.281
-577.763	360.396	-0.098	0.198
-576.748	800.000	-0.032	-0.096
-575.733	-88.296	0.095	-0.029
-574.719	114.712	0.103	0.126
-573.704	-155.382	0.376	0.024
-572.690	-200.000	0.004	0.170
-571.675	185.159	-0.093	-0.139
-570.661	-200.000	0.021	-0.214
-569.646	468.932	0.068	-0.153
-568.631	-200.000	-0.054	0.344
-567.617	-200.000	0.037	0.177
-566.602	-200.000	-0.012	-0.195
-565.588	-200.000	-0.041	0.213
-564.573	-200.000	-0.048	0.327
-563.558	-21.817	-0.329	-0.201
-562.544	-77.990	0.171	-0.059
-561.529	-1.245	-0.178	-0.126
-560.515	-5.416	-0.197	-0.135
-559.500	-200.000	0.034	0.270
-558.485	110.354	0.102	-0.123
-557.471	404.350	0.167	0.354
-556.456	6.693	-0.335	-0.250
-555.442	286.485	0.005	0.009
-554.427	295.566	-0.059	-0.108
-553.412	-5.349	-0.289	-0.199
-552.398	-200.000	-0.065	0.000
-551.383	-78.595	-0.175	-0.060
-550.369	-40.404	-0.017	0.009
-549.354	-81.237	-0.129	-0.043
-548.339	-61.136	0.261	-0.111
-547.325	-174.495	-0.170	0.005
-546.310	398.964	0.054	-0.113
-545.296	368.071	0.029	-0.058
-544.281	291.839	-0.121	-0.220
-543.266	-120.664	0.171	-0.029
-542.252	-200.000	0.009	0.387
-541.237	-107.048	0.368	-0.081
-540.223	-200.000	0.012	-0.193
-539.208	-125.949	-0.409	-0.062
-538.193	-200.000	-0.012	-0.244
-537.179	-200.000	-0.043	0.446
-536.164	26.343	-0.212	0.178
-535.150	231.585	-0.118	-0.195
-534.135	800.000	0.093	0.362
-533.121	101.033	0.096	-0.112
-532.106	224.042	-0.165	-0.268
-531.091	-130.473	0.196	-0.027
-530.077	162.666	-0.104	0.146
-529.062	-150.390	-0.073	-0.006
-528.048	-200.000	0.013	-0.185
-527.033	-196.587	-0.130	0.001
-526.018	250.548	-0.120	0.204
-525.004	-59.037	-0.231	0.100
-523.989	-200.000	0.016	0.162
-522.975	77.816	0.167	-0.178
-521.960	-102.764	0.040	-0.010
-520.945	-29.760	0.114	0.065
-519.931	-115.714	0.082	-0.015
-518.916	-72.935	0.113	0.042
-517.902	103.646	0.188	0.221
-516.887	20.865	-0.145	-0.118
-515.872	-50.507	0.342	-0.162
-514.858	-124.319	0.308	-0.048
-513.843	-108.968	0.313	-0.067
-512.829	65.546	-0.096	-0.097
-511.814	-155.900	-0.212	-0.014
-510.799	234.793	-0.052	0.086
-509.785	111.345	0.180	-0.218
-508.770	-7.553	0.146	0.099
-507.756	-48.680	0.207	-0.099
-506.741	112.846	-0.093	-0.113
-505.726	-117.651	0.156	0.028
-504.712	800.000	0.046	-0.196
-503.697	-70.797	0.200	0.076
-502.683	-200.000	0.013	-0.164
-501.668	-112.305	-0.247	-0.050
-500.653	-30.074	-0.292	0.166
-499.639	-93.221	0.076	-0.021
-498.624	-200.000	0.024	0.149
-497.610	800.000	0.077	0.269
-496.595	-80.141	-0.252	-0.085
-495.581	150.037	-0.136	0.185
-494.566	-200.000	0.011	0.074
-493.551	-200.000	0.007	-0.037
-492.537	-29.714	0.270	-0.154
-491.522	-103.167	0.209	-0.050
-490.508	455.319	0.046	-0.101
-489.493	800.000	0.014	-0.059
-488.478	-200.000	0.022	-0.221
-487.464	-57.067	0.126	0.056
-486.449	-134.399	0.200	-0.024
-485.435	94.861	0.189	0.215
-484.420	-179.239	0.199	0.004
-483.405	-105.674	-0.241	0.055
-482.391	-22.581	0.367	0.222
-481.376	349.884	-0.049	-0.097
-480.362	562.148	0.027	0.065
-479.347	64.045	-0.188	-0.189
-478.332	-105.992	-0.167	-0.038
-477.318	76.947	-0.024	0.026
-476.303	-200.000	-0.004	0.196
-475.289	14.909	0.226	-0.177
-474.274	800.000	-0.036	-0.100
-473.259	-200.000	-0.009	-0.090
-472.245	-0.076	0.050	0.036
-471.230	-77.585	-0.141	-0.049
-470.216	800.000	-0.034	-0.135
-469.201	-32.331	-0.207	0.115
-468.186	-200.000	0.072	-0.355
-467.172	79.218	-0.160	0.172
-466.157	43.377	0.156	-0.142
-465.143	-125.349	0.161	-0.025
-464.128	-164.342	-0.078	-0.004
-463.113	-28.840	0.161	-0.093
-462.099	800.000	-0.041	0.173
-461.084	156.079	-0.047	0.065
-460.070	-50.651	-0.082	0.039
-459.055	-101.999	-0.257	-0.062
-458.040	-200.000	-0.029	-0.266
-457.026	-73.099	0.359	-0.132
-456.011	-95.931	-0.488	-0.130
-454.997	153.355	0.196	0.269
-453.982	-200.000	-0.021	-0.103
-452.968	-6.163	-0.181	0.123
-451.953	113.524	0.071	0.086
-450.938	402.657	0.109	0.228
-449.924	1.307	-0.204	-0.146
-448.909	-173.683	-0.247	0.007
-447.895	-176.579	-0.213	0.005
-446.880	-127.210	-0.301	-0.044
-445.865	-22.974	-0.164	-0.099
-444.851	472.537	-0.062	0.140
-443.836	-191.853	-0.272	0.003
-442.822	121.787	0.235	0.293
-441.807	800.000	-0.077	0.240
-440.792	211.605	-0.121	-0.190
-439.778	455.226	0.067	-0.147
-438.763	-200.000	-0.005	0.179
-437.749	495.520	0.066	-0.150
-436.734	299.024	0.056	-0.102
-435.719	-4.569	0.302	-0.208
-434.705	26.964	-0.226	-0.190
-433.690	-53.082	-0.021	-0.010
-432.676	-154.940	-0.419	0.028
-431.661	211.483	-0.127	-0.199
-430.646	23.413	0.088	-0.072
-429.632	-200.000	-0.132	-0.580
-428.617	-141.202	0.204	-0.021
-427.603	27.665	-0.061	-0.051
-426.588	-135.208	-0.276	0.033
-425.573	-200.000	0.011	-0.078
-424.559	392.704	-0.182	-0.379
-423.544	-50.776	-0.083	0.039
-422.530	101.092	0.103	-0.119
-421.515	766.893	0.111	0.302
-420.500	-88.550	-0.254	0.075
-419.486	-56.586	0.116	0.051
-418.471	112.836	0.100	0.120
-417.457	317.453	0.166	0.313
-416.442	44.272	-0.137	0.125
-415.428	0.108	0.303	0.215
-414.413	343.715	-0.130	-0.254
-413.398	800.000	-0.051	-0.209
-412.384	-200.000	0.025	-0.205
-411.369	-131.031	-0.164	-0.022
-410.355	-35.438	0.244	-0.132
-409.340	-137.584	0.061	-0.007
-408.325	23.952	-0.268	0.221
-407.311	-103.301	-0.219	-0.052
-406.296	-87.947	0.228	-0.068
-405.282	445.086	-0.050	-0.109
-404.267	373.793	-0.072	-0.145
-403.252	-3.936	0.252	0.174
-402.238	-31.621	0.124	-0.069
-401.223	179.116	0.146	-0.213
-400.209	-200.000	-0.032	-0.245
-399.194	-78.809	0.076	-0.026
-398.179	800.000	-0.073	-0.218
-397.165	800.000	-0.123	0.384
-396.150	113.415	-0.143	-0.173
-395.136	239.437	-0.039	-0.064
-394.121	114.998	-0.096	0.117
-393.106	-200.000	0.054	-0.261
-392.092	-200.000	-0.020	0.206
-391.077	2.521	-0.178	0.128
-390.063	-37.138	-0.388	-0.207
-389.048	-38.148	-0.395	0.209
-388.033	-200.000	-0.013	0.148
-387.019	800.000	0.100	0.383
-386.004	-8.188	0.143	-0.096
-384.990	800.000	0.048	-0.187
-383.975	800.000	-0.070	-0.210
-382.960	800.000	-0.067	0.284
-381.946	48.226	0.206	-0.192
-380.931	-50.136	0.260	-0.123
-379.917	-13.539	0.249	-0.160
-378.902	-110.999	-0.258	-0.053
-377.888	45.600	-0.144	-0.132
-376.873	26.118	-0.179	0.149
-375.858	160.081	0.043	-0.060
-374.844	-152.355	0.199	-0.014
-373.829	38.109	0.135	-0.119
-372.815	-200.000	0.022	0.309
-371.800	-200.000	-0.032	0.145
-370.785	-135.808	-0.082	-0.010
-369.771	158.795	0.157	0.217
-368.756	46.821	0.161	-0.149
-367.742	-51.289	-0.132	0.061
-366.727	334.487	-0.203	0.391
-365.712	198.389	-0.161	0.246
-364.698	800.000	-0.076	-0.249
-363.683	-180.402	0.084	0.002
-362.669	-200.000	-0.032	0.180
-361.654	107.851	-0.134	0.159
-360.639	800.000	0.074	-0.238
-359.625	-33.721	0.279	0.153
-358.610	78.252	0.038	-0.040
-357.596	-23.655	-0.233	-0.139
-356.581	-200.000	-0.007	0.063
-355.566	-18.966	-0.258	0.160
-354.552	-190.747	0.405	0.004
-353.537	-75.416	0.238	-0.084
-352.523	-200.000	0.046	-0.207
-351.508	-8.253	0.090	-0.061
-350.493	760.739	0.031	0.084
-349.479	25.575	0.341	0.282
-348.464	800.000	-0.074	-0.259
-347.450	433.024	0.079	-0.170
-346.435	787.148	-0.034	-0.093
-345.420	-200.000	-0.046	-0.351
-344.406	-98.588	-0.143	0.036
-343.391	-200.000	0.016	-0.081
-342.377	800.000	-0.051	-0.147
-341.362	245.652	-0.168	0.282
-340.348	-173.193	0.131	0.004
-339.333	-200.000	-0.005	0.030
-338.318	469.734	0.081	0.182
-337.304	-0.625	-0.212	0.150
-336.289	-75.846	-0.213	-0.075
-335.275	36.484	0.207	-0.182
-334.260	47.373	0.125	-0.116
-333.245	155.770	0.049	0.067
-332.231	-200.000	0.027	0.130
-331.216	-200.000	-0.009	-0.043
-330.202	-200.000	0.046	0.344
-329.187	-200.000	-0.001	-0.301
-328.172	702.914	0.040	-0.105
-327.158	-29.739	-0.088	-0.050
-326.143	-4.445	-0.244	0.168
-325.129	78.128	-0.127	0.135
-324.114	800.000	-0.049	-0.145
-323.099	208.180	0.149	0.232
-322.085	-71.360	-0.260	-0.097
-321.070	-200.000	-0.008	-0.052
-320.056	-57.371	0.363	0.159
-319.041	792.273	-0.114	-0.311
-318.026	-4.471	0.135	-0.093
-317.012	20.048	-0.133	0.107
-315.997	-41.390	-0.083	-0.042
-314.983	60.940	-0.296	0.292
-313.968	7.085	-0.087	-0.065
-312.953	-131.831	0.286	0.037
-311.939	-200.000	-0.020	-0.121
-310.924	344.053	0.102	0.198
-309.910	-200.000	0.031	-0.169
-308.895	787.727	-0.088	-0.239
-307.880	800.000	-0.002	0.007
-306.866	-200.000	0.013	-0.141
-305.851	-69.652	0.051	-0.019
-304.837	-200.000	0.071	0.445
-303.822	211.414	-0.059	0.093
-302.807	-41.632	-0.298	0.152
-301.793	-138.154	0.326	-0.036
-300.778	-153.561	-0.143	-0.010
-299.764	-53.658	0.141	-0.064
-298.749	-141.336	0.097	0.010
-297.735	-108.924	0.270	0.057
-296.720	-200.000	-0.044	0.203
-295.705	-146.476	0.264	-0.023
-294.691	-51.518	-0.133	-0.062
-293.676	17.673	0.083	0.066
-292.662	800.000	-0.052	0.198
-291.647	6.942	0.169	0.125
-290.632	-200.000	-0.002	-0.171
-289.618	-121.353	0.202	-0.033
-288.603	7.478	0.190	0.141
-287.589	-200.000	0.020	0.155
-286.574	34.207	0.251	0.218
-285.559	-126.924	0.109	-0.016
-284.545	59.881	0.081	0.079
-283.530	256.895	0.058	0.100
-282.516	-141.843	-0.216	0.021
-281.501	-32.601	0.294	0.162
-280.486	-172.862	0.136	-0.004
-279.472	618.304	-0.081	0.201
-278.457	124.475	-0.278	0.347
-277.443	-10.321	-0.280	-0.184
-276.428	102.526	-0.119	0.138
-275.413	145.115	0.198	0.263
-274.399	-15.231	-0.267	-0.169
-273.384	-111.323	-0.145	0.029
-272.370	800.000	-0.050	-0.147
-271.355	800.000	0.092	0.324
-270.340	29.204	-0.306	0.258
-269.326	800.000	0.089	0.381
-268.311	68.930	-0.071	0.073
-267.297	-168.813	-0.342	-0.013
-266.282	254.561	0.069	-0.117
-265.267	63.860	-0.140	-0.140
-264.253	-67.069	0.125	0.049
-263.238	718.894	0.043	-0.114
-262.224	234.226	0.043	-0.071
-261.209	-200.000	-0.019	0.148
-260.195	-13.186	0.139	-0.089
-259.180	-40.270	-0.296	0.153
-258.165	95.930	0.132	-0.149
-257.151	800.000	-0.041	0.146
-256.136	47.816	0.292	-0.271
-255.122	17.440	0.097	-0.076
-254.107	46.844	0.124	0.114
-253.092	-46.074	-0.012	-0.006
-252.078	-54.994	0.028	-0.012
-251.063	475.964	-0.100	0.223
-250.049	449.982	-0.081	-0.177
-249.034	800.000	-0.028	-0.091
-248.019	565.332	-0.198	-0.476
-247.005	7.254	0.184	-0.136
-245.990	-30.249	0.218	-0.123
-244.976	-66.457	0.246	0.097
-243.961	-200.000	0.014	0.096
-242.946	-200.000	-0.060	-0.308
-241.932	-169.937	-0.114	-0.004
-240.917	160.901	0.147	-0.204
-239.903	195.060	-0.031	-0.047
-238.888	-87.061	-0.338	0.102
-237.873	-137.393	-0.144	-0.016
-236.859	-200.000	0.001	0.061
-235.844	22.561	-0.151	0.122
-234.830	299.931	-0.055	-0.100
-233.815	800.000	-0.134	0.416
-232.800	-0.013	0.159	-0.112
-231.786	116.462	0.259	0.314
-230.771	-42.549	0.428	0.216
-229.757	-63.119	-0.141	0.057
-228.742	-148.244	-0.129	0.011
-227.727	-162.507	-0.326	0.016
-226.713	-177.635	0.160	0.004
-225.698	-92.185	0.288	0.081
-224.684	262.104	0.217	-0.373
-223.669	800.000	-0.053	0.202
-222.655	96.039	-0.044	-0.050
-221.640	147.030	-0.048	-0.064
-220.625	800.000	-0.019	0.080
-219.611	731.359	0.081	-0.214
-218.596	406.234	-0.096	-0.200
-217.582	-157.232	0.138	0.008
-216.567	53.106	-0.154	0.146
-215.552	-200.000	-0.061	0.306
-214.538	-120.666	0.228	0.038
-213.523	-200.000	-0.040	-0.179
-212.509	-103.669	0.440	0.102
-211.494	800.000	-0.085	-0.309
-210.479	800.000	-0.054	0.194
-209.465	-150.838	0.260	0.020
-208.450	359.855	0.029	-0.057
-207.436	800.000	-0.043	0.143
-206.421	-55.222	-0.119	0.053
-205.406	-114.516	0.088	0.017
-204.392	-90.747	-0.136	-0.039
-203.377	-107.676	0.131	-0.028
-202.363	213.667	-0.161	0.251
-201.348	-200.000	-0.034	0.194
-200.333	77.274	-0.145	0.153
-199.319	507.530	0.065	0.148
-198.304	7.471	0.223	0.165
-197.290	-4.831	0.167	-0.114
-196.275	-200.000	-0.002	-0.024
-195.260	-33.636	-0.332	0.181
-194.246	-108.189	0.054	0.012
-193.231	-84.539	0.019	0.006
-192.217	800.000	0.033	-0.127
-191.202	-100.499	-0.138	0.034
-190.187	-50.895	-0.450	-0.209
-189.173	-8.910	-0.100	-0.066
-188.158	86.995	-0.074	0.080
-187.144	10.626	-0.383	0.289
-186.129	301.555	0.190	-0.346
-185.114	-153.716	0.115	0.008
-184.100	-128.550	0.241	0.034
-183.085	-200.000	0.016	0.330
-182.071	67.635	0.118	0.119
-181.056	67.728	0.084	-0.085
-180.042	214.369	-0.073	0.115
-179.027	-116.190	0.250	-0.046
-178.012	60.755	-0.216	0.211
-176.998	23.410	0.217	0.176
-175.983	50.893	0.161	-0.151
-174.969	-200.000	-0.018	-0.129
-173.954	23.790	0.150	0.122
-172.939	207.376	-0.147	-0.226
-171.925	-105.415	-0.277	-0.062
-170.910	476.432	-0.095	-0.212
-169.896	-47.196	-0.195	0.094
-168.881	-89.645	-0.399	-0.116
-167.866	-200.000	-0.043	0.216
-166.852	800.000	0.101	0.395
-165.837	-200.000	0.023	-0.201
-164.823	-22.724	0.073	0.043
-163.808	166.726	0.211	0.295
-162.793	53.533	0.297	0.282
-161.779	-200.000	-0.028	0.195
-160.764	-145.072	-0.071	-0.006
-159.750	-179.108	-0.436	-0.010
-158.735	26.792	0.320	-0.265
-157.720	-200.000	0.027	0.462
-156.706	122.228	-0.167	-0.206
-155.691	138.132	0.052	-0.068
-154.677	-115.326	0.326	0.061
-153.662	800.000	0.130	0.389
-152.647	-90.668	0.178	-0.051
-151.633	-176.151	-0.097	0.003
-150.618	172.695	-0.106	-0.151
-149.604	-200.000	0.040	-0.312
-148.589	108.829	-0.028	0.033
-147.574	-169.715	-0.486	0.017
-146.560	-102.617	0.066	-0.015
-145.545	-121.928	0.141	-0.023
-144.531	54.690	-0.100	-0.095
-143.516	240.331	0.048	-0.080
-142.502	-131.413	-0.325	0.042
-141.487	246.004	0.029	0.048
-140.472	141.233	-0.211	0.276
-139.458	-9.689	0.303	0.199
-138.443	16.014	-0.081	0.063
-137.429	-87.011	-0.081	0.024
-136.414	233.351	0.158	0.257
-135.399	-144.167	-0.177	0.016
-134.385	-17.637	0.102	-0.063
-133.370	-172.644	-0.243	0.008
-132.356	7.244	-0.152	-0.112
-131.341	-110.976	0.296	0.060
-130.326	447.896	0.119	0.258
-129.312	647.028	0.073	0.185
-128.297	431.243	-0.176	-0.377
-127.283	23.653	-0.132	-0.107
-126.268	-200.000	0.015	0.198
-125.253	-139.206	-0.147	-0.016
-124.239	59.544	0.153	-0.148
-123.224	-200.000	0.022	0.235
-122.210	270.405	-0.116	0.201
