DTS Sentinel unit serial number:	SN413079Multiplexer serial number:	ORYXHardware model number:	OX4-SRSoftware version number:	ORYX F/W v4.00 Oryx Data Collector v3.7.2.0data status	okinstallation	princeton_trtdifferential loss correction	single-endedforward channel	channel 3reverse channel	N/Adate	2019/09/11time	10:02:11forward acquisition time	60.00reverse acquisition time	0.00gamma	496.2192k internal	0.2301k external	0.2301temperature offset calibration	0.9940default loss term (dB/km)	0.3790temperature slope calibration	1.0000multiplexer offset coefficient	1.0000multiplexer slope coefficient	1.0000fibre end	0.00T internal ref (°C)	35.44T ext. ref 1 (°C)	0.14T ext. ref 2 (°C)	32.69length (m)	temperature (°C)	Stokes	anti-Stokes-747.200	-42.806	0.113	-0.059
-746.185	581.714	-0.050	0.125
-745.171	-131.297	-0.060	-0.008
-744.156	-200.000	-0.011	0.439
-743.142	-85.854	-0.065	0.021
-742.127	70.527	-0.167	0.176
-741.112	267.136	-0.017	-0.031
-740.098	275.487	-0.148	0.268
-739.083	43.984	0.029	0.027
-738.069	50.491	0.210	0.202
-737.054	25.773	0.268	-0.228
-736.039	245.287	-0.152	-0.260
-735.025	173.029	0.197	0.289
-734.010	-15.729	-0.136	-0.088
-732.996	331.206	-0.205	0.403
-731.981	-105.027	-0.244	-0.057
-730.966	140.732	-0.214	0.288
-729.952	-75.534	-0.041	-0.015
-728.937	-200.000	-0.023	-0.318
-727.923	800.000	-0.074	-0.261
-726.908	800.000	-0.153	-0.454
-725.894	51.160	-0.129	0.125
-724.879	197.199	-0.274	-0.426
-723.864	-200.000	-0.061	-0.379
-722.850	-200.000	0.014	-0.247
-721.835	-17.125	-0.283	0.182
-720.821	-53.003	-0.320	-0.150
-719.806	62.403	-0.346	-0.351
-718.791	-90.481	-0.270	0.080
-717.777	359.228	0.126	-0.256
-716.762	-19.053	-0.046	0.029
-715.748	-200.000	-0.020	-0.249
-714.733	-200.000	0.038	-0.236
-713.718	334.428	-0.071	-0.140
-712.704	-115.190	-0.166	-0.032
-711.689	22.025	-0.072	0.060
-710.675	254.134	-0.193	-0.336
-709.660	50.755	-0.046	0.044
-708.645	-94.174	-0.240	-0.067
-707.631	101.990	0.108	0.128
-706.616	-160.461	-0.277	0.015
-705.602	-200.000	-0.016	-0.150
-704.587	-103.402	0.097	-0.023
-703.572	-93.324	0.218	0.062
-702.558	-8.883	-0.187	0.128
-701.543	21.862	0.182	-0.151
-700.529	800.000	-0.061	-0.258
-699.514	-200.000	-0.035	-0.245
-698.499	18.124	-0.090	0.073
-697.485	42.610	0.175	-0.162
-696.470	88.357	0.107	0.121
-695.456	53.033	0.102	-0.099
-694.441	-83.767	-0.310	0.101
-693.426	800.000	-0.054	-0.194
-692.412	21.023	0.164	-0.136
-691.397	93.511	0.054	0.062
-690.383	800.000	-0.089	-0.385
-689.368	656.289	-0.031	0.080
-688.354	-200.000	-0.029	-0.178
-687.339	-165.984	-0.237	0.010
-686.324	-200.000	0.018	0.276
-685.310	-200.000	-0.067	-0.310
-684.295	694.623	0.068	0.182
-683.281	21.546	-0.170	-0.141
-682.266	-95.339	0.217	-0.059
-681.251	-200.000	-0.031	-0.184
-680.237	39.852	-0.203	-0.185
-679.222	-200.000	0.030	-0.202
-678.208	-200.000	-0.055	0.253
-677.193	-200.000	0.002	0.025
-676.178	21.938	-0.054	-0.045
-675.164	-31.689	-0.294	0.168
-674.149	-176.556	-0.129	0.003
-673.135	-138.810	-0.052	-0.006
-672.120	-200.000	0.007	-0.094
-671.105	-30.692	0.090	-0.052
-670.091	105.559	-0.167	0.200
-669.076	800.000	-0.069	-0.279
-668.062	-200.000	-0.025	-0.449
-667.047	150.403	0.008	-0.011
-666.032	-200.000	-0.026	0.154
-665.018	-200.000	-0.036	-0.208
-664.003	638.793	-0.096	-0.249
-662.989	800.000	0.010	-0.032
-661.974	800.000	0.018	-0.068
-660.959	54.905	0.188	0.185
-659.945	16.492	0.241	0.194
-658.930	-200.000	0.007	-0.084
-657.916	252.675	0.233	-0.404
-656.901	-200.000	0.022	0.240
-655.886	-17.887	-0.058	0.037
-654.872	62.387	0.226	-0.229
-653.857	-63.345	0.346	-0.145
-652.843	-200.000	0.033	0.356
-651.828	181.028	0.014	-0.021
-650.814	-137.984	0.209	-0.024
-649.799	24.019	0.028	0.024
-648.784	800.000	0.098	0.368
-647.770	-68.167	0.023	0.009
-646.755	-102.312	0.364	-0.089
-645.741	-52.732	0.024	-0.011
-644.726	134.672	-0.160	-0.212
-643.711	119.683	-0.082	0.104
-642.697	68.686	-0.109	-0.114
-641.682	-62.985	0.289	0.121
-640.668	-4.244	0.258	0.181
-639.653	-152.275	0.292	-0.021
-638.638	-200.000	-0.014	-0.111
-637.624	-69.639	0.242	0.094
-636.609	-135.235	-0.193	-0.024
-635.595	-105.912	-0.164	0.038
-634.580	-31.276	0.127	-0.072
-633.565	8.884	-0.146	-0.112
-632.551	300.142	-0.102	-0.192
-631.536	300.819	0.172	0.322
-630.522	-19.430	0.188	0.118
-629.507	64.509	0.078	0.080
-628.492	-127.292	0.098	-0.014
-627.478	60.895	0.222	0.224
-626.463	-90.806	-0.508	-0.149
-625.449	-200.000	0.021	0.114
-624.434	-95.148	0.188	0.052
-623.419	-109.597	-0.052	0.011
-622.405	344.536	0.073	0.145
-621.390	-113.207	0.193	-0.039
-620.376	142.466	-0.051	0.068
-619.361	-38.015	0.176	-0.095
-618.346	36.265	0.182	-0.163
-617.332	219.866	0.074	0.120
-616.317	208.902	0.088	0.140
-615.303	612.602	0.171	-0.434
-614.288	-116.726	0.313	0.058
-613.273	356.215	-0.018	-0.037
-612.259	404.511	0.033	0.071
-611.244	-38.787	0.059	0.032
-610.230	221.804	-0.265	-0.433
-609.215	161.418	-0.038	-0.054
-608.201	295.289	0.153	-0.284
-607.186	-200.000	-0.010	-0.260
-606.171	307.279	0.107	0.202
-605.157	-139.412	-0.111	-0.012
-604.142	286.447	0.205	0.375
-603.128	-2.836	-0.243	-0.172
-602.113	7.178	0.184	-0.139
-601.098	-200.000	-0.000	0.085
-600.084	157.882	0.114	-0.160
-599.069	97.513	0.321	-0.373
-598.055	-122.613	0.070	-0.012
-597.040	185.778	0.041	0.062
-596.025	275.077	-0.114	-0.205
-595.011	216.108	0.047	-0.076
-593.996	354.635	-0.125	-0.252
-592.982	-2.086	-0.149	0.106
-591.967	-200.000	0.020	0.164
-590.952	-90.296	-0.144	0.042
-589.938	-200.000	0.011	-0.189
-588.923	-144.667	-0.127	0.012
-587.909	800.000	-0.090	0.305
-586.894	153.115	-0.223	-0.309
-585.879	800.000	-0.013	0.052
-584.865	800.000	0.078	-0.345
-583.850	800.000	-0.035	-0.119
-582.836	-52.372	-0.117	0.055
-581.821	800.000	0.031	-0.092
-580.806	-62.006	0.045	-0.019
-579.792	3.638	-0.256	0.189
-578.777	-200.000	-0.024	0.227
-577.763	800.000	0.008	0.027
-576.748	-121.531	0.142	-0.024
-575.733	-200.000	0.025	-0.263
-574.719	-125.202	-0.168	0.026
-573.704	800.000	0.056	0.178
-572.690	12.105	0.144	0.112
-571.675	78.332	-0.202	-0.219
-570.661	-21.240	-0.066	-0.041
-569.646	-67.977	0.143	0.056
-568.631	490.714	0.052	0.121
-567.617	800.000	-0.041	0.183
-566.602	-100.389	0.207	0.052
-565.588	-134.479	-0.039	-0.005
-564.573	-166.359	0.266	-0.011
-563.558	-117.035	0.247	0.046
-562.544	73.201	0.112	0.118
-561.529	3.119	-0.102	-0.075
-560.515	280.190	-0.124	-0.224
-559.500	-28.065	-0.078	-0.046
-558.485	-125.741	-0.233	-0.036
-557.471	800.000	0.098	-0.354
-556.456	209.394	0.090	-0.142
-555.442	-200.000	-0.023	0.312
-554.427	800.000	0.008	0.024
-553.412	13.538	0.178	0.140
-552.398	260.744	-0.041	-0.071
-551.383	118.901	0.053	0.067
-550.369	-181.400	0.230	0.005
-549.354	-76.902	0.382	-0.135
-548.339	-126.306	-0.182	-0.027
-547.325	-200.000	0.032	0.271
-546.310	-127.002	0.195	-0.029
-545.296	-131.430	0.247	0.033
-544.281	-26.587	0.443	-0.263
-543.266	-200.000	-0.030	0.145
-542.252	-200.000	0.001	0.127
-541.237	-200.000	0.014	0.159
-540.223	-138.394	-0.097	0.011
-539.208	63.562	0.098	0.100
-538.193	3.784	-0.146	0.108
-537.179	155.570	-0.258	0.359
-536.164	-200.000	-0.007	0.323
-535.150	26.641	-0.311	0.264
-534.135	18.010	-0.218	-0.176
-533.121	-4.102	0.269	0.189
-532.106	22.541	0.173	0.143
-531.091	182.109	-0.097	0.145
-530.077	-200.000	0.049	0.355
-529.062	48.505	-0.382	0.362
-528.048	14.982	-0.122	-0.097
-527.033	800.000	0.114	0.416
-526.018	-200.000	-0.003	0.162
-525.004	240.454	0.043	0.072
-523.989	800.000	0.107	0.313
-522.975	-200.000	0.023	-0.242
-521.960	14.940	-0.218	0.173
-520.945	281.463	0.149	0.271
-519.931	186.537	-0.071	-0.107
-518.916	632.019	0.115	-0.294
-517.902	-56.972	0.029	-0.013
-516.887	-151.473	0.387	0.029
-515.872	150.600	0.058	-0.080
-514.858	8.584	-0.136	-0.104
-513.843	415.305	0.051	-0.110
-512.829	81.301	-0.142	0.155
-511.814	-27.834	0.382	0.224
-510.799	-200.000	-0.031	-0.504
-509.785	800.000	-0.021	-0.069
-508.770	106.337	-0.199	0.238
-507.756	-1.493	-0.108	0.077
-506.741	-200.000	-0.043	-0.226
-505.726	-57.821	-0.215	-0.095
-504.712	-200.000	0.015	0.097
-503.697	-69.210	-0.128	0.050
-502.683	418.799	-0.218	-0.471
-501.668	800.000	0.076	-0.287
-500.653	-143.706	-0.329	0.032
-499.639	-200.000	0.021	-0.432
-498.624	375.032	0.079	-0.162
-497.610	-62.370	0.084	-0.035
-496.595	-111.231	-0.078	-0.016
-495.581	482.222	-0.228	-0.522
-494.566	72.535	0.149	-0.157
-493.551	-28.230	0.387	0.226
-492.537	-105.019	-0.029	-0.007
-491.522	-143.672	0.279	-0.027
-490.508	122.377	0.077	-0.097
-489.493	800.000	-0.103	0.384
-488.478	296.444	0.061	0.113
-487.464	271.665	0.141	0.251
-486.449	148.509	-0.106	0.145
-485.435	800.000	-0.049	0.180
-484.420	-86.959	0.346	0.106
-483.405	-106.622	0.133	0.030
-482.391	-45.304	-0.121	-0.061
-481.376	-123.686	0.095	-0.015
-480.362	-191.100	-0.220	0.002
-479.347	-200.000	-0.083	-0.569
-478.332	591.140	-0.079	-0.196
-477.318	56.966	-0.366	-0.359
-476.303	55.009	0.052	0.051
-475.289	-54.106	0.065	-0.030
-474.274	-1.646	-0.144	-0.102
-473.259	800.000	0.082	-0.333
-472.245	1.387	0.111	0.081
-471.230	59.057	0.125	-0.124
-470.216	188.495	-0.107	-0.162
-469.201	784.347	0.073	-0.201
-468.186	-14.610	-0.344	-0.223
-467.172	-64.629	0.267	-0.109
-466.157	-40.244	-0.067	-0.035
-465.143	14.213	-0.094	0.074
-464.128	136.122	-0.201	0.264
-463.113	-200.000	-0.062	0.315
-462.099	33.149	0.243	-0.213
-461.084	-6.307	0.168	-0.115
-460.070	-36.607	0.256	-0.139
-459.055	271.399	0.088	0.156
-458.040	800.000	0.028	0.078
-457.026	744.321	0.117	-0.319
-456.011	729.811	0.057	0.155
-454.997	-152.887	-0.175	-0.013
-453.982	-34.590	0.365	0.201
-452.968	368.956	-0.189	0.386
-451.953	-62.748	0.169	0.071
-450.938	-122.118	0.161	-0.027
-449.924	34.082	-0.230	0.202
-448.909	-146.149	-0.175	0.016
-447.895	-104.749	-0.198	0.046
-446.880	-200.000	-0.003	0.207
-445.865	-23.311	-0.267	-0.162
-444.851	77.981	0.189	0.204
-443.836	-137.338	0.355	-0.041
-442.822	-156.296	0.151	-0.010
-441.807	569.506	0.054	-0.131
-440.792	-58.358	-0.274	0.120
-439.778	-200.000	0.044	0.276
-438.763	-43.196	-0.147	0.075
-437.749	158.283	0.146	0.204
-436.734	221.545	0.162	-0.261
-435.719	508.315	0.029	0.068
-434.705	-171.441	0.229	0.008
-433.690	-200.000	0.046	0.226
-432.676	49.252	0.106	0.100
-431.661	579.552	0.103	-0.254
-430.646	-94.951	-0.138	-0.038
-429.632	580.977	-0.042	0.103
-428.617	-121.741	-0.242	-0.040
-427.603	-200.000	0.028	0.300
-426.588	21.575	-0.340	0.279
-425.573	-200.000	-0.010	0.330
-424.559	207.208	0.115	-0.180
-423.544	-37.788	0.149	-0.080
-422.530	-3.852	-0.240	0.167
-421.515	-106.607	-0.090	-0.020
-420.500	-95.657	-0.145	0.039
-419.486	-74.860	0.117	0.042
-418.471	30.409	0.137	0.118
-417.457	207.654	0.057	-0.089
-416.442	121.243	0.043	-0.054
-415.428	-19.561	0.280	-0.175
-414.413	139.533	-0.127	0.168
-413.398	-159.346	-0.096	0.005
-412.384	71.267	-0.050	-0.052
-411.369	-124.259	-0.351	0.055
-410.355	800.000	0.046	0.158
-409.340	-4.637	-0.313	0.218
-408.325	1.194	0.231	0.167
-407.311	-14.156	0.032	-0.021
-406.296	244.508	-0.278	0.470
-405.282	-84.500	0.107	-0.034
-404.267	72.112	-0.183	0.192
-403.252	800.000	-0.035	0.114
-402.238	98.972	-0.071	-0.082
-401.223	-73.655	0.248	-0.091
-400.209	294.578	-0.135	-0.248
-399.194	-45.092	-0.103	0.051
-398.179	-27.914	-0.311	-0.181
-397.165	-154.449	-0.358	-0.024
-396.150	-132.083	-0.147	0.019
-395.136	119.357	0.141	-0.175
-394.121	-99.899	-0.274	-0.069
-393.106	46.791	-0.260	-0.243
-392.092	160.708	-0.096	-0.135
-391.077	800.000	0.064	-0.209
-390.063	121.911	-0.081	-0.102
-389.048	80.019	-0.158	0.170
-388.033	161.629	0.102	0.143
-387.019	-185.930	-0.363	0.005
-386.004	-118.520	0.219	0.039
-384.990	39.817	-0.137	-0.123
-383.975	43.975	-0.090	0.083
-382.960	202.699	0.127	0.197
-381.946	-67.224	0.311	-0.123
-380.931	125.504	-0.191	-0.243
-379.917	-200.000	0.059	-0.481
-378.902	391.533	-0.113	-0.235
-377.888	800.000	-0.040	-0.156
-376.873	-47.345	-0.222	0.109
-375.858	182.584	-0.115	-0.171
-374.844	-200.000	0.025	-0.166
-373.829	-5.202	0.160	-0.110
-372.815	-79.220	0.127	-0.043
-371.800	-126.815	-0.060	-0.009
-370.785	-200.000	0.065	0.352
-369.771	156.570	-0.182	0.253
-368.756	-20.506	0.182	-0.112
-367.742	-200.000	0.023	-0.134
-366.727	381.837	-0.178	0.368
-365.712	-200.000	0.011	-0.224
-364.698	800.000	-0.045	-0.181
-363.683	-200.000	-0.032	-0.244
-362.669	800.000	-0.165	0.502
-361.654	165.149	0.060	0.085
-360.639	234.014	0.147	0.242
-359.625	-200.000	0.053	0.238
-358.610	32.006	0.283	-0.245
-357.596	159.839	0.116	0.162
-356.581	42.445	0.077	0.070
-355.566	-139.730	0.303	0.032
-354.552	465.678	-0.066	0.147
-353.537	-74.687	-0.125	0.045
-352.523	248.028	0.032	0.055
-351.508	-200.000	-0.045	0.331
-350.493	800.000	0.081	-0.278
-349.479	34.202	-0.258	-0.226
-348.464	23.835	0.302	0.250
-347.450	-88.042	0.148	-0.045
-346.435	435.696	-0.033	-0.071
-345.420	414.461	0.105	-0.224
-344.406	-133.262	0.363	-0.046
-343.391	800.000	0.017	0.049
-342.377	-158.055	-0.185	0.011
-341.362	-186.363	-0.316	0.005
-340.348	409.664	-0.123	-0.261
-339.333	-70.712	0.033	0.013
-338.318	-151.907	-0.106	-0.008
-337.304	-84.273	-0.401	0.128
-336.289	-56.702	0.415	-0.184
-335.275	-104.660	0.120	0.028
-334.260	-131.317	-0.058	-0.008
-333.245	24.554	0.248	-0.206
-332.231	-200.000	-0.065	-0.623
-331.216	-83.401	-0.097	0.031
-330.202	-200.000	-0.006	-0.189
-329.187	91.290	-0.095	-0.107
-328.172	-2.415	-0.183	-0.129
-327.158	40.304	0.238	-0.215
-326.143	343.674	0.067	-0.131
-325.129	-52.303	-0.203	-0.094
-324.114	40.917	0.167	-0.151
-323.099	145.630	0.181	0.243
-322.085	-200.000	0.018	0.285
-321.070	800.000	0.022	-0.087
-320.056	223.170	-0.162	0.261
-319.041	-9.136	-0.122	-0.082
-318.026	159.727	0.169	-0.236
-317.012	167.038	-0.167	-0.238
-315.997	800.000	-0.028	-0.101
-314.983	102.784	-0.173	-0.203
-313.968	-94.050	-0.121	-0.033
-312.953	-81.380	-0.125	-0.041
-311.939	-80.340	-0.179	0.060
-310.924	237.623	0.035	0.057
-309.910	-19.303	-0.182	-0.113
-308.895	-1.848	-0.046	0.032
-307.880	-34.952	0.161	-0.088
-306.866	198.529	-0.063	0.096
-305.851	-27.095	-0.048	-0.028
-304.837	112.221	-0.038	-0.047
-303.822	-178.554	-0.118	0.003
-302.807	3.364	0.317	0.231
-301.793	292.493	0.062	0.113
-300.778	800.000	-0.057	0.204
-299.764	242.435	-0.230	0.386
-298.749	-147.438	-0.413	0.035
-297.735	-8.418	0.176	-0.118
-296.720	-65.212	-0.065	0.026
-295.705	232.448	-0.072	0.118
-294.691	-200.000	0.000	-0.084
-293.676	800.000	0.068	-0.288
-292.662	-91.614	0.308	-0.088
-291.647	-77.731	-0.083	0.029
-290.632	-200.000	0.027	-0.274
-289.618	-175.297	-0.127	0.003
-288.603	175.148	0.038	0.055
-287.589	434.456	-0.051	-0.111
-286.574	-111.021	-0.195	-0.040
-285.559	105.115	-0.109	-0.128
-284.545	-35.465	0.160	-0.087
-283.530	-115.636	-0.143	0.027
-282.516	-11.926	0.182	-0.119
-281.501	-11.024	-0.314	-0.207
-280.486	-82.747	0.208	-0.067
-279.472	-200.000	0.009	0.217
-278.457	-50.990	0.186	-0.087
-277.443	-200.000	-0.008	-0.322
-276.428	-80.177	-0.325	-0.109
-275.413	800.000	0.074	0.286
-274.399	288.469	0.177	0.321
-273.384	-200.000	0.010	-0.111
-272.370	800.000	-0.073	0.271
-271.355	69.378	0.030	-0.031
-270.340	80.722	-0.233	-0.251
-269.326	-62.565	0.043	-0.018
-268.311	-95.892	0.089	-0.024
-267.297	800.000	0.077	-0.327
-266.282	-200.000	-0.024	-0.115
-265.267	-200.000	-0.353	-0.001
-264.253	17.754	-0.206	0.164
-263.238	13.355	0.085	0.066
-262.224	-200.000	-0.064	-0.384
-261.209	-161.045	-0.282	-0.015
-260.195	800.000	-0.054	0.192
-259.180	-25.495	0.248	0.147
-258.165	83.744	-0.166	0.182
-257.151	-66.879	0.207	-0.082
-256.136	229.744	0.096	-0.156
-255.122	547.061	0.066	0.157
-254.107	207.558	0.148	0.231
-253.092	60.925	-0.403	0.400
-252.078	217.262	-0.055	-0.087
-251.063	800.000	0.063	0.196
-250.049	-6.385	-0.235	-0.160
-249.034	-200.000	0.000	-0.166
-248.019	-72.575	-0.423	-0.156
-247.005	-51.461	-0.401	-0.187
-245.990	-150.510	0.336	0.026
-244.976	29.355	-0.041	0.035
-243.961	145.559	-0.137	-0.183
-242.946	36.292	-0.167	-0.148
-241.932	-200.000	0.003	-0.197
-240.917	434.437	0.106	-0.231
-239.903	306.522	0.194	-0.361
-238.888	-115.834	0.090	-0.017
-237.873	25.068	-0.111	-0.092
-236.859	-70.268	-0.079	0.030
-235.844	230.680	-0.039	0.064
-234.830	90.711	0.205	0.229
-233.815	-56.303	0.142	-0.063
-232.800	-200.000	0.008	-0.038
-231.786	157.323	-0.097	0.134
-230.771	800.000	0.125	-0.406
-229.757	800.000	0.018	-0.064
-228.742	-175.006	0.247	0.007
-227.727	385.775	-0.053	0.109
-226.713	-43.207	-0.258	0.131
-225.698	-127.542	-0.213	0.031
-224.684	-107.461	-0.311	0.068
-223.669	-160.393	0.249	-0.013
-222.655	800.000	-0.094	0.304
-221.640	800.000	-0.095	0.348
-220.625	6.036	0.187	-0.138
-219.611	-128.312	-0.004	0.001
-218.596	460.203	0.045	0.101
-217.582	61.485	0.197	0.196
-216.567	800.000	-0.113	0.394
-215.552	800.000	0.084	0.357
-214.538	800.000	0.033	-0.129
-213.523	100.540	-0.092	-0.107
-212.509	-35.168	0.341	0.186
-211.494	-200.000	0.047	0.318
-210.479	352.524	-0.040	-0.080
-209.465	336.286	0.112	-0.218
-208.450	68.944	0.093	0.095
-207.436	26.921	-0.427	0.357
-206.421	194.346	-0.091	-0.138
-205.406	-30.359	0.457	0.259
-204.392	-105.219	-0.096	-0.022
-203.377	-95.859	-0.175	0.047
-202.363	-119.241	0.066	-0.012
-201.348	-21.754	0.316	-0.192
-200.333	800.000	-0.081	-0.290
-199.319	-200.000	0.054	0.292
-198.304	230.075	-0.053	-0.087
-197.290	298.384	0.140	0.257
-196.275	-5.692	0.223	0.152
-195.260	38.807	-0.114	0.101
-194.246	95.723	0.190	-0.217
-193.231	73.177	0.079	0.083
-192.217	148.567	0.074	0.099
-191.202	-99.447	-0.334	0.084
-190.187	26.871	0.159	0.133
-189.173	-30.006	0.369	0.210
-188.158	800.000	-0.103	-0.292
-187.144	603.006	0.073	-0.180
-186.129	-200.000	0.010	-0.068
-185.114	-200.000	0.026	-0.202
-184.100	45.098	-0.130	0.120
-183.085	-200.000	-0.002	0.187
-182.071	-156.936	0.365	0.022
-181.056	59.620	-0.106	0.104
-180.042	48.690	0.116	-0.109
-179.027	244.828	0.190	-0.319
-178.012	567.585	-0.054	-0.130
-176.998	-138.776	-0.390	0.042
-175.983	-147.422	-0.252	-0.021
-174.969	-106.335	0.028	0.006
-173.954	-192.870	0.041	0.000
-172.939	-200.000	0.016	-0.264
-171.925	-22.722	0.107	0.064
-170.910	253.574	-0.227	0.386
-169.896	-120.316	0.240	0.041
-168.881	109.737	-0.278	0.332
-167.866	-70.101	-0.141	0.053
-166.852	17.215	0.047	0.038
-165.837	-95.227	-0.165	0.044
-164.823	-60.295	0.250	0.106
-163.808	800.000	-0.070	0.193
-162.793	-117.419	-0.068	-0.012
-161.779	2.084	-0.081	0.058
-160.764	28.583	0.061	0.052
-159.750	-147.600	-0.073	0.006
-158.735	495.090	0.026	-0.060
-157.720	-15.581	-0.191	0.121
-156.706	748.597	0.009	-0.025
-155.691	311.400	-0.024	-0.045
-154.677	-185.719	-0.156	0.002
-153.662	55.778	0.181	0.175
-152.647	-200.000	-0.014	-0.182
-151.633	373.449	0.196	-0.398
-150.618	-115.896	-0.106	-0.020
-149.604	-27.715	0.386	0.223
-148.589	800.000	-0.053	0.200
-147.574	800.000	-0.078	0.238
-146.560	679.238	0.105	-0.273
-145.545	258.002	0.033	-0.057
-144.531	58.806	0.261	-0.255
-143.516	-200.000	-0.021	0.160
-142.502	446.648	0.093	-0.204
-141.487	-13.851	0.352	-0.227
-140.472	-78.194	-0.110	0.038
-139.458	117.165	-0.080	-0.097
-138.443	398.545	-0.117	-0.245
-137.429	85.877	0.027	-0.029
-136.414	439.033	0.095	0.206
-135.399	800.000	-0.061	0.241
-134.385	295.755	0.071	-0.129
-133.370	52.435	-0.080	-0.076
-132.356	-173.976	0.242	0.007
-131.341	-200.000	0.048	0.264
-130.326	800.000	0.042	-0.122
-129.312	311.963	-0.061	0.114
-128.297	-122.667	-0.123	-0.020
-127.283	600.443	-0.168	-0.415
-126.268	24.287	0.282	-0.232
-125.253	-163.603	-0.137	-0.006
-124.239	163.063	-0.081	0.113
-123.224	-200.000	0.041	-0.267
-122.210	476.617	0.086	0.193
-121.195	3.138	0.228	0.165
