DTS Sentinel unit serial number:	SN413079Multiplexer serial number:	ORYXHardware model number:	OX4-SRSoftware version number:	ORYX F/W v4.00 Oryx Data Collector v3.7.2.0data status	okinstallation	princeton_trtdifferential loss correction	single-endedforward channel	channel 3reverse channel	N/Adate	2019/09/14time	13:16:35forward acquisition time	60.00reverse acquisition time	0.00gamma	496.2192k internal	0.2295k external	0.2295temperature offset calibration	1.0063default loss term (dB/km)	0.3790temperature slope calibration	1.0000multiplexer offset coefficient	1.0000multiplexer slope coefficient	1.0000fibre end	0.00T internal ref (°C)	38.00T ext. ref 1 (°C)	4.90T ext. ref 2 (°C)	33.75length (m)	temperature (°C)	Stokes	anti-Stokes-747.200	-124.135	0.204	0.033
-746.185	-133.883	0.031	0.004
-745.171	475.233	0.062	-0.142
-744.156	-34.437	0.253	-0.142
-743.142	-83.724	-0.137	-0.045
-742.127	233.224	-0.250	0.420
-741.112	-80.175	0.369	-0.126
-740.098	59.413	-0.239	0.240
-739.083	189.348	0.027	0.041
-738.069	800.000	-0.099	0.310
-737.054	-54.154	0.386	0.179
-736.039	-24.784	-0.163	-0.099
-735.025	-12.258	0.475	0.317
-734.010	800.000	0.081	-0.345
-732.996	12.187	-0.343	-0.270
-731.981	-71.163	0.348	0.133
-730.966	-200.000	0.041	-0.276
-729.952	-12.947	0.132	-0.088
-728.937	117.950	0.137	-0.172
-727.923	-64.735	-0.070	-0.029
-726.908	-104.505	-0.236	-0.056
-725.894	-200.000	-0.024	-0.269
-724.879	132.015	0.121	-0.159
-723.864	-26.549	-0.349	-0.209
-722.850	678.041	-0.082	-0.219
-721.835	-32.361	-0.211	-0.120
-720.821	533.048	0.114	0.275
-719.806	201.953	-0.167	0.263
-718.791	100.355	-0.241	0.285
-717.777	-141.471	0.340	-0.035
-716.762	-200.000	-0.009	-0.144
-715.748	-78.087	-0.280	0.098
-714.733	-200.000	0.004	-0.137
-713.718	-181.822	-0.341	-0.007
-712.704	124.159	0.157	-0.201
-711.689	-55.104	0.036	-0.017
-710.675	191.843	-0.115	-0.178
-709.660	800.000	0.082	0.259
-708.645	141.115	-0.226	-0.305
-707.631	314.282	-0.041	0.079
-706.616	-200.000	-0.353	-0.001
-705.602	176.256	0.071	0.106
-704.587	-200.000	0.005	-0.129
-703.572	-15.664	-0.374	0.244
-702.558	355.997	-0.053	-0.108
-701.543	250.151	0.132	0.229
-700.529	-127.763	0.062	-0.009
-699.514	173.417	0.064	-0.094
-698.499	218.338	0.074	-0.120
-697.485	-200.000	0.044	0.244
-696.470	287.595	-0.116	-0.213
-695.456	10.827	-0.128	0.100
-694.441	465.118	-0.133	-0.304
-693.426	100.907	0.266	-0.316
-692.412	-200.000	0.040	-0.226
-691.397	35.996	-0.206	-0.185
-690.383	405.970	-0.139	-0.298
-689.368	-8.721	0.196	-0.134
-688.354	-13.154	0.229	-0.152
-687.339	579.638	0.119	-0.297
-686.324	82.529	0.198	-0.219
-685.310	440.551	-0.111	0.247
-684.295	181.210	-0.190	-0.284
-683.281	-200.000	0.005	0.068
-682.266	-69.680	0.374	-0.146
-681.251	800.000	0.047	0.206
-680.237	-200.000	0.062	-0.295
-679.222	211.765	-0.138	-0.221
-678.208	501.755	-0.124	-0.291
-677.193	800.000	0.029	0.093
-676.178	800.000	-0.030	0.086
-675.164	800.000	0.005	-0.023
-674.149	-26.542	0.384	0.230
-673.135	800.000	-0.061	0.179
-672.120	341.830	0.070	-0.140
-671.105	161.888	-0.132	-0.188
-670.091	-47.460	0.222	-0.110
-669.076	-91.283	-0.169	0.049
-668.062	-197.873	0.272	-0.002
-667.047	-79.203	0.040	-0.014
-666.032	800.000	-0.039	0.126
-665.018	-12.401	0.189	0.126
-664.003	54.835	-0.055	-0.054
-662.989	97.212	-0.148	-0.173
-661.974	-200.000	-0.041	-0.203
-660.959	-64.501	-0.374	0.155
-659.945	-74.386	0.296	-0.109
-658.930	242.553	-0.155	0.265
-657.916	-200.000	0.031	-0.151
-656.901	110.251	-0.101	0.123
-655.886	212.097	0.210	0.337
-654.872	230.136	-0.142	0.236
-653.857	-125.753	-0.372	0.057
-652.843	-162.322	0.216	-0.011
-651.828	-0.237	-0.189	0.137
-650.814	8.331	0.295	0.226
-649.799	800.000	0.075	-0.242
-648.784	-200.000	-0.016	-0.137
-647.770	133.798	0.137	0.181
-646.755	-13.498	0.060	0.039
-645.741	-35.030	0.094	-0.052
-644.726	800.000	0.114	-0.330
-643.711	304.940	0.045	-0.086
-642.697	30.744	-0.150	-0.131
-641.682	485.538	0.216	-0.502
-640.668	175.667	0.138	-0.204
-639.653	-121.958	0.163	-0.027
-638.638	-116.318	-0.230	-0.043
-637.624	-200.000	-0.280	0.000
-636.609	800.000	-0.014	0.043
-635.595	-200.000	-0.020	-0.174
-634.580	-14.162	-0.466	-0.306
-633.565	5.984	0.019	0.015
-632.551	-97.034	-0.189	-0.050
-631.536	-142.613	0.260	-0.026
-630.522	40.938	0.123	0.113
-629.507	-83.512	-0.072	0.023
-628.492	170.321	0.116	0.168
-627.478	127.597	-0.081	-0.105
-626.463	55.676	-0.196	-0.193
-625.449	-108.193	0.077	0.017
-624.434	-73.502	-0.107	-0.040
-623.419	-9.640	-0.260	0.176
-622.405	16.468	-0.080	-0.065
-621.390	-200.000	-0.013	-0.311
-620.376	-144.540	0.663	0.062
-619.361	-103.002	-0.091	-0.022
-618.346	-66.389	0.095	-0.039
-617.332	-200.000	0.072	-0.350
-616.317	800.000	0.010	0.030
-615.303	150.081	-0.080	-0.110
-614.288	-70.532	-0.398	-0.153
-613.273	73.268	0.100	0.106
-612.259	44.584	-0.240	-0.225
-611.244	-200.000	-0.032	-0.157
-610.230	-13.224	0.117	-0.077
-609.215	91.806	-0.154	0.176
-608.201	-181.577	-0.074	-0.001
-607.186	800.000	-0.089	0.341
-606.171	322.715	0.084	-0.163
-605.157	-63.889	-0.369	0.153
-604.142	-19.937	0.169	-0.106
-603.128	462.546	-0.138	0.313
-602.113	265.876	-0.208	0.368
-601.098	-200.000	-0.066	0.349
-600.084	-143.965	0.093	0.009
-599.069	-200.000	0.047	0.229
-598.055	-28.043	-0.249	-0.146
-597.040	67.071	-0.066	-0.068
-596.025	372.429	-0.033	0.068
-595.011	68.598	0.211	-0.220
-593.996	69.019	-0.162	-0.169
-592.982	-1.570	0.264	-0.189
-591.967	25.564	-0.115	-0.097
-590.952	-117.957	0.179	0.033
-589.938	800.000	0.058	-0.210
-588.923	-38.140	0.087	-0.047
-587.909	-176.172	0.279	0.007
-586.894	-15.909	-0.025	-0.016
-585.879	-106.191	0.306	0.070
-584.865	44.569	-0.023	-0.021
-583.850	457.409	0.084	0.189
-582.836	65.236	-0.183	0.188
-581.821	672.990	-0.076	-0.200
-580.806	87.597	0.306	0.344
-579.792	-2.536	0.206	0.147
-578.777	-149.368	0.122	-0.010
-577.763	-77.846	-0.262	-0.092
-576.748	42.449	0.116	-0.107
-575.733	-64.553	0.039	-0.016
-574.719	-17.059	0.268	0.172
-573.704	-200.000	0.008	-0.223
-572.690	800.000	-0.015	0.051
-571.675	-200.000	-0.066	0.348
-570.661	-200.000	0.019	0.302
-569.646	-81.162	0.215	0.072
-568.631	-59.174	0.062	-0.027
-567.617	-200.000	-0.005	0.105
-566.602	174.906	0.033	-0.049
-565.588	-158.327	-0.342	0.020
-564.573	239.295	-0.131	-0.220
-563.558	-105.223	0.085	0.020
-562.544	4.660	-0.156	-0.116
-561.529	204.414	-0.041	-0.065
-560.515	322.423	-0.132	-0.255
-559.500	-165.349	-0.296	-0.013
-558.485	-116.936	0.108	-0.020
-557.471	-95.946	0.253	0.068
-556.456	-120.589	0.130	0.022
-555.442	288.704	-0.074	0.136
-554.427	311.973	0.093	-0.177
-553.412	596.089	-0.068	0.172
-552.398	-67.805	-0.071	0.028
-551.383	-119.925	-0.347	0.061
-550.369	-200.000	-0.006	0.139
-549.354	435.623	0.063	0.139
-548.339	657.476	0.120	-0.313
-547.325	800.000	0.044	0.126
-546.310	12.783	-0.236	-0.185
-545.296	800.000	0.082	-0.285
-544.281	-110.728	-0.323	0.068
-543.266	-2.417	0.202	-0.143
-542.252	168.156	-0.244	-0.353
-541.237	-200.000	-0.017	0.297
-540.223	-66.802	-0.181	-0.073
-539.208	-89.227	0.314	0.094
-538.193	261.287	-0.112	0.196
-537.179	302.486	-0.030	0.056
-536.164	92.902	0.237	-0.272
-535.150	339.019	-0.174	-0.344
-534.135	143.902	-0.276	-0.373
-533.121	33.873	-0.197	0.174
-532.106	-118.287	0.269	-0.049
-531.091	-116.765	0.353	0.066
-530.077	-181.464	0.151	-0.003
-529.062	-175.835	-0.114	-0.003
-528.048	-156.474	0.187	0.012
-527.033	-8.198	-0.160	0.109
-526.018	-200.000	0.022	0.150
-525.004	-164.321	-0.099	-0.005
-523.989	124.866	0.199	-0.254
-522.975	396.959	-0.140	-0.297
-521.960	-25.870	-0.087	-0.052
-520.945	-66.559	-0.038	-0.015
-519.931	146.753	0.059	0.081
-518.916	-86.685	-0.330	0.102
-517.902	413.629	0.128	0.276
-516.887	-98.797	0.165	-0.043
-515.872	-108.250	0.115	-0.025
-514.858	-70.149	-0.226	0.087
-513.843	800.000	-0.039	0.169
-512.829	584.769	0.092	0.228
-511.814	-200.000	-0.017	-0.108
-510.799	-153.436	-0.240	-0.017
-509.785	-16.054	0.192	0.124
-508.770	-62.261	0.077	-0.032
-507.756	800.000	-0.067	0.211
-506.741	-99.141	-0.042	-0.011
-505.726	-151.160	0.139	-0.011
-504.712	716.254	0.093	0.250
-503.697	-200.000	-0.005	0.037
-502.683	256.436	0.019	0.034
-501.668	800.000	-0.110	0.382
-500.653	-23.814	0.136	-0.083
-499.639	582.057	-0.082	-0.205
-498.624	159.521	0.199	-0.280
-497.610	-49.673	0.203	0.098
-496.595	-101.136	0.227	-0.056
-495.581	66.598	0.155	0.160
-494.566	349.338	0.054	-0.107
-493.551	800.000	0.108	-0.323
-492.537	800.000	-0.011	-0.032
-491.522	22.242	-0.264	0.219
-490.508	-128.857	0.106	-0.015
-489.493	733.926	0.049	0.133
-488.478	24.630	-0.059	0.049
-487.464	-75.314	0.105	-0.038
-486.449	115.881	0.128	0.159
-485.435	-200.000	0.041	0.270
-484.420	800.000	0.055	0.186
-483.405	-24.180	0.140	-0.085
-482.391	94.298	-0.093	0.107
-481.376	28.539	0.173	0.148
-480.362	192.234	-0.073	0.112
-479.347	-200.000	0.032	0.215
-478.332	187.048	-0.253	-0.381
-477.318	114.916	-0.154	-0.190
-476.303	757.057	0.124	0.338
-475.289	47.714	0.038	-0.036
-474.274	-95.509	-0.275	-0.075
-473.259	-129.844	0.320	-0.044
-472.245	800.000	0.137	-0.406
-471.230	74.350	-0.159	0.169
-470.216	405.599	0.084	-0.179
-469.201	-136.252	-0.044	0.005
-468.186	-78.187	-0.103	0.036
-467.172	-185.613	-0.143	0.002
-466.157	442.582	0.087	-0.192
-465.143	-37.395	-0.043	-0.023
-464.128	-200.000	-0.003	0.083
-463.113	204.592	0.199	0.312
-462.099	-200.000	-0.036	0.386
-461.084	-77.783	0.251	0.088
-460.070	173.617	0.198	0.289
-459.055	68.129	-0.201	0.208
-458.040	-43.142	0.153	-0.078
-457.026	-113.438	-0.213	-0.042
-456.011	13.842	-0.147	-0.115
-454.997	-18.436	-0.174	-0.110
-453.982	245.608	-0.077	0.131
-452.968	-101.655	-0.326	-0.080
-451.953	-200.000	-0.009	-0.204
-450.938	415.303	0.119	-0.257
-449.924	21.347	-0.298	-0.244
-448.909	-27.458	-0.158	-0.093
-447.895	-200.000	-0.009	0.123
-446.880	-117.228	0.190	-0.035
-445.865	-200.000	-0.008	-0.036
-444.851	80.272	0.091	-0.099
-443.836	61.455	0.170	0.170
-442.822	31.863	0.094	0.081
-441.807	710.041	0.124	-0.332
-440.792	448.403	0.150	-0.334
-439.778	-34.384	0.169	-0.094
-438.763	110.464	0.073	0.088
-437.749	-77.332	0.214	-0.075
-436.734	-170.309	-0.216	0.008
-435.719	695.428	0.100	-0.264
-434.705	573.646	-0.020	0.050
-433.690	201.060	-0.226	0.351
-432.676	58.978	0.087	0.086
-431.661	-129.283	-0.171	-0.024
-430.646	-54.204	0.143	0.065
-429.632	-60.282	-0.603	0.259
-428.617	49.160	-0.258	0.244
-427.603	416.258	-0.134	0.289
-426.588	42.610	0.115	-0.105
-425.573	-2.320	-0.298	-0.211
-424.559	800.000	-0.072	-0.293
-423.544	256.516	-0.036	-0.063
-422.530	800.000	-0.070	0.232
-421.515	149.977	-0.145	-0.199
-420.500	8.208	-0.267	0.202
-419.486	4.620	-0.270	-0.200
-418.471	270.638	0.102	0.182
-417.457	-81.492	0.131	0.044
-416.442	83.309	-0.217	0.239
-415.428	203.785	0.091	-0.143
-414.413	12.947	0.097	0.076
-413.398	349.865	-0.119	-0.238
-412.384	-116.615	-0.258	-0.048
-411.369	-105.439	0.288	-0.066
-410.355	-11.539	0.149	-0.099
-409.340	83.575	-0.115	-0.126
-408.325	-17.793	-0.213	-0.135
-407.311	-61.860	0.040	0.017
-406.296	-81.708	-0.190	0.063
-405.282	251.938	0.160	0.274
-404.267	-200.000	-0.004	-0.186
-403.252	-76.053	0.111	-0.040
-402.238	800.000	-0.044	0.185
-401.223	424.201	-0.100	0.217
-400.209	-200.000	0.040	0.299
-399.194	-164.128	-0.421	0.020
-398.179	-200.000	-0.172	-0.001
-397.165	-200.000	0.006	-0.213
-396.150	4.714	0.195	0.145
-395.136	200.956	-0.161	-0.249
-394.121	-154.456	-0.359	-0.024
-393.106	630.253	0.035	0.089
-392.092	174.922	0.053	-0.077
-391.077	800.000	-0.106	0.305
-390.063	-200.000	0.066	0.296
-389.048	66.526	0.186	0.191
-388.033	404.546	-0.052	0.109
-387.019	-176.172	0.324	-0.009
-386.004	-46.280	-0.066	0.033
-384.990	-127.344	-0.098	-0.014
-383.975	-200.000	0.042	-0.216
-382.960	800.000	0.058	-0.172
-381.946	-48.214	0.176	0.085
-380.931	211.345	-0.066	-0.105
-379.917	-118.411	0.267	0.048
-378.902	-109.937	0.063	-0.013
-377.888	-156.295	-0.292	-0.018
-376.873	800.000	0.096	-0.381
-375.858	-91.449	-0.157	0.045
-374.844	-145.166	-0.203	0.019
-373.829	381.847	-0.118	-0.245
-372.815	-200.000	0.027	-0.322
-371.800	800.000	0.035	0.104
-370.785	-57.440	0.217	0.096
-369.771	454.791	-0.034	-0.076
-368.756	65.061	0.171	0.174
-367.742	-200.000	-0.065	-0.368
-366.727	-29.896	0.343	0.197
-365.712	16.064	-0.049	0.039
-364.698	-200.000	-0.014	-0.122
-363.683	-200.000	-0.054	0.445
-362.669	-161.020	0.208	-0.011
-361.654	699.669	0.115	0.305
-360.639	-200.000	0.038	0.301
-359.625	115.730	-0.221	0.272
-358.610	519.947	-0.086	0.203
-357.596	-79.760	0.232	-0.079
-356.581	-1.666	0.087	0.062
-355.566	68.791	-0.266	0.275
-354.552	-25.967	0.202	0.120
-353.537	440.892	0.052	0.116
-352.523	-16.938	0.259	-0.165
-351.508	800.000	0.044	-0.164
-350.493	-85.888	-0.228	-0.071
-349.479	-22.723	0.191	-0.116
-348.464	102.508	-0.118	0.139
-347.450	12.820	-0.127	0.099
-346.435	-200.000	-0.001	-0.074
-345.420	-6.428	0.338	0.232
-344.406	-200.000	0.024	0.117
-343.391	46.569	0.236	0.221
-342.377	-12.123	-0.155	0.102
-341.362	-21.524	0.023	0.014
-340.348	-11.190	0.234	0.155
-339.333	366.209	-0.062	0.126
-338.318	396.309	-0.105	0.220
-337.304	-59.378	0.312	0.135
-336.289	-185.111	0.360	0.006
-335.275	-87.305	-0.162	0.050
-334.260	-200.000	-0.056	0.282
-333.245	34.680	-0.041	-0.036
-332.231	107.519	0.146	-0.174
-331.216	-63.508	0.218	-0.090
-330.202	280.679	-0.114	-0.205
-329.187	-116.140	0.326	0.061
-328.172	-50.176	-0.131	0.062
-327.158	156.891	-0.156	0.217
-326.143	-111.430	0.163	0.033
-325.129	-200.000	0.036	-0.328
-324.114	-116.607	-0.343	-0.064
-323.099	-92.620	-0.129	0.036
-322.085	-200.000	-0.018	-0.192
-321.070	-116.336	-0.330	-0.061
-320.056	-169.457	-0.258	-0.009
-319.041	-200.000	0.043	0.199
-318.026	-24.082	0.131	0.079
-317.012	-125.319	0.087	0.013
-315.997	310.365	-0.171	0.321
-314.983	-130.486	-0.143	-0.019
-313.968	-200.000	0.001	-0.073
-312.953	-77.160	-0.347	-0.121
-311.939	139.296	0.077	-0.102
-310.924	136.133	-0.062	0.081
-309.910	-148.117	-0.094	-0.008
-308.895	-72.838	-0.085	0.032
-307.880	800.000	0.102	-0.321
-306.866	-200.000	0.015	-0.111
-305.851	-136.344	0.271	0.032
-304.837	-200.000	-0.013	0.100
-303.822	71.686	-0.073	0.076
-302.807	800.000	0.043	0.180
-301.793	24.596	-0.177	0.148
-300.778	-87.951	-0.209	0.063
-299.764	23.516	-0.060	-0.050
-298.749	76.718	0.006	-0.006
-297.735	311.896	-0.253	-0.476
-296.720	-58.334	0.085	-0.037
-295.705	-200.000	-0.031	-0.386
-294.691	-102.158	0.173	-0.042
-293.676	52.931	-0.331	0.319
-292.662	-200.000	-0.039	0.232
-291.647	-180.568	-0.281	0.006
-290.632	-34.811	-0.148	-0.081
-289.618	-200.000	0.005	0.301
-288.603	-18.446	0.074	0.046
-287.589	-200.000	0.015	-0.106
-286.574	103.434	-0.216	-0.254
-285.559	351.263	0.097	0.193
-284.545	538.200	0.046	0.109
-283.530	-122.868	0.462	0.075
-282.516	46.868	-0.160	-0.149
-281.501	-8.035	0.311	0.210
-280.486	-131.253	0.295	-0.039
-279.472	30.599	0.080	0.069
-278.457	-200.000	0.005	0.173
-277.443	-31.836	0.333	-0.187
-276.428	-53.634	-0.154	-0.071
-275.413	-0.959	-0.282	0.200
-274.399	227.154	0.081	-0.131
-273.384	-152.658	0.135	-0.010
-272.370	76.178	-0.150	-0.159
-271.355	-112.477	-0.073	-0.015
-270.340	-200.000	0.022	0.111
-269.326	800.000	-0.084	0.351
-268.311	109.839	-0.175	0.211
-267.297	-108.065	-0.214	0.047
-266.282	-125.712	-0.234	-0.036
-265.267	-59.728	-0.142	0.061
-264.253	421.879	-0.129	-0.277
-263.238	138.781	-0.183	-0.241
-262.224	-9.532	0.065	-0.043
-261.209	407.349	-0.035	0.074
-260.195	800.000	0.011	-0.048
-259.180	-66.114	0.152	-0.061
-258.165	-200.000	-0.014	-0.547
-257.151	-32.977	0.079	-0.044
-256.136	800.000	-0.094	-0.281
-255.122	-200.000	0.026	0.121
-254.107	-91.895	0.012	-0.003
-253.092	-200.000	0.016	-0.122
-252.078	-150.122	-0.232	0.018
-251.063	216.447	0.104	0.167
-250.049	-88.606	0.187	-0.056
-249.034	173.735	0.094	0.136
-248.019	-200.000	-0.023	-0.171
-247.005	1.661	0.213	0.154
-245.990	97.108	-0.249	-0.286
-244.976	800.000	-0.001	-0.003
-243.961	-169.454	0.250	0.009
-242.946	-88.119	0.102	0.031
-241.932	-0.506	0.298	-0.212
-240.917	-87.390	0.374	0.114
-239.903	-97.668	0.305	-0.079
-238.888	-76.880	-0.421	0.148
-237.873	-200.000	0.019	0.183
-236.859	178.299	-0.072	0.105
-235.844	-48.469	0.284	-0.137
-234.830	-21.763	-0.215	-0.131
-233.815	-118.712	-0.089	-0.016
-232.800	-141.941	-0.317	-0.032
-231.786	-140.853	0.157	-0.016
-230.771	800.000	0.024	0.081
-229.757	143.322	-0.156	0.208
-228.742	-39.712	-0.066	-0.035
-227.727	77.545	0.134	0.143
-226.713	-44.740	-0.347	0.174
-225.698	85.243	0.169	0.186
-224.684	296.117	0.168	-0.308
-223.669	-0.552	-0.325	0.231
-222.655	-7.673	0.158	0.107
-221.640	-200.000	-0.005	0.097
-220.625	51.811	-0.232	0.221
-219.611	-27.269	-0.267	-0.156
-218.596	-153.824	0.106	-0.007
-217.582	49.298	-0.112	-0.106
-216.567	16.547	-0.038	-0.030
-215.552	-28.072	-0.224	-0.130
-214.538	137.950	0.097	0.127
-213.523	-200.000	0.034	0.221
-212.509	-65.604	-0.140	0.056
-211.494	228.483	0.063	-0.103
-210.479	-127.993	0.404	-0.058
-209.465	-120.549	0.282	-0.048
-208.450	-1.435	0.203	0.144
-207.436	38.841	0.239	0.214
-206.421	73.746	0.109	-0.115
-205.406	652.130	0.082	-0.209
-204.392	-58.843	-0.090	0.039
-203.377	199.872	-0.089	0.137
-202.363	-103.695	0.212	0.050
-201.348	44.706	0.054	0.050
-200.333	-7.063	0.235	-0.160
-199.319	-200.000	0.030	-0.281
-198.304	-0.235	0.053	0.038
-197.290	-113.218	-0.410	0.081
-196.275	115.501	-0.164	0.201
-195.260	-200.000	-0.030	0.272
-194.246	53.461	0.097	0.093
-193.231	201.321	0.138	-0.213
-192.217	79.261	0.325	-0.348
-191.202	172.158	-0.168	-0.242
-190.187	-145.809	-0.250	0.022
-189.173	-130.987	0.170	-0.023
-188.158	-114.211	0.317	-0.061
-187.144	71.808	0.195	-0.203
-186.129	-28.614	-0.184	0.106
-185.114	-87.441	0.314	-0.095
-184.100	-200.000	-0.008	-0.346
-183.085	-200.000	0.016	0.093
-182.071	492.501	-0.090	0.207
-181.056	-79.430	-0.060	0.020
-180.042	-39.764	-0.295	-0.154
-179.027	3.804	-0.190	0.139
-178.012	355.800	-0.104	0.208
-176.998	-79.537	-0.192	0.065
-175.983	64.351	0.115	0.116
-174.969	-142.835	-0.267	0.026
-173.954	-48.105	0.082	-0.040
-172.939	800.000	0.107	-0.336
-171.925	-200.000	0.003	-0.143
-170.910	270.980	0.245	-0.431
-169.896	22.734	0.347	-0.284
-168.881	800.000	0.050	-0.207
-167.866	74.954	-0.049	-0.052
-166.852	217.033	-0.113	0.180
-165.837	-70.540	-0.045	-0.017
-164.823	179.343	-0.136	-0.199
-163.808	-200.000	0.164	-0.001
-162.793	694.332	0.049	0.128
-161.779	92.166	-0.171	0.192
-160.764	333.198	-0.122	-0.236
-159.750	221.217	0.067	0.107
-158.735	-58.593	0.208	0.090
-157.720	-84.985	0.169	0.053
-156.706	-195.410	0.236	0.002
-155.691	46.502	0.283	0.263
-154.677	-108.813	0.044	0.009
-153.662	-200.000	-0.031	-0.241
-152.647	-200.000	0.019	0.128
-151.633	3.253	0.213	-0.155
-150.618	-10.912	-0.149	-0.098
-149.604	-51.970	-0.221	0.102
-148.589	800.000	-0.028	-0.123
-147.574	-117.591	0.113	-0.020
-146.560	-200.000	0.027	0.398
-145.545	99.850	0.352	0.408
-144.531	46.023	0.042	-0.039
-143.516	-145.976	-0.388	0.034
-142.502	100.564	0.023	-0.026
-141.487	-200.000	0.013	0.096
-140.472	-45.940	0.133	-0.065
-139.458	62.121	0.232	0.231
-138.443	-37.677	0.142	-0.075
-137.429	37.262	-0.122	0.108
-136.414	378.641	0.126	0.256
-135.399	-29.230	0.315	0.180
-134.385	206.134	-0.061	0.094
-133.370	-200.000	-0.005	-0.093
-132.356	-13.483	-0.111	-0.072
-131.341	-123.882	-0.356	-0.056
-130.326	-19.206	-0.120	0.075
-129.312	-147.034	-0.165	0.014
-128.297	-200.000	-0.057	-0.311
-127.283	-88.499	0.229	0.068
-126.268	304.341	-0.114	-0.212
-125.253	-6.771	-0.101	0.068
-124.239	242.700	0.093	0.156
-123.224	-87.528	0.276	0.083
-122.210	123.919	0.033	0.042
-121.195	-142.055	0.269	0.027
