DTS Sentinel unit serial number:	SN413079Multiplexer serial number:	ORYXHardware model number:	OX4-SRSoftware version number:	ORYX F/W v4.00 Oryx Data Collector v3.7.2.0data status	okinstallation	princeton_trtdifferential loss correction	single-endedforward channel	channel 3reverse channel	N/Adate	2019/09/16time	05:04:35forward acquisition time	60.00reverse acquisition time	0.00gamma	496.2192k internal	0.2336k external	0.2336temperature offset calibration	0.9958default loss term (dB/km)	0.3790temperature slope calibration	1.0000multiplexer offset coefficient	1.0000multiplexer slope coefficient	1.0000fibre end	0.00T internal ref (°C)	27.19T ext. ref 1 (°C)	11.01T ext. ref 2 (°C)	22.02length (m)	temperature (°C)	Stokes	anti-Stokes-747.200	-15.717	0.043	0.027
-746.185	-158.878	0.075	-0.004
-745.171	-161.977	0.164	0.008
-744.156	-200.000	-0.003	0.033
-743.142	7.497	-0.132	0.099
-742.127	34.071	0.127	0.111
-741.112	480.725	0.047	0.107
-740.098	1.107	-0.178	0.128
-739.083	-2.283	0.133	0.094
-738.069	-200.000	0.074	0.410
-737.054	262.765	0.114	0.199
-736.039	-52.269	-0.090	-0.042
-735.025	800.000	0.073	0.261
-734.010	473.368	-0.020	-0.045
-732.996	-118.221	-0.261	-0.047
-731.981	-200.000	-0.042	-0.300
-730.966	-115.035	-0.324	-0.062
-729.952	-94.810	-0.428	-0.116
-728.937	451.919	0.119	0.264
-727.923	76.710	0.236	-0.251
-726.908	90.675	-0.221	0.248
-725.894	800.000	-0.007	0.027
-724.879	-109.248	-0.062	0.013
-723.864	800.000	-0.139	0.408
-722.850	-64.961	0.212	-0.086
-721.835	-81.285	-0.563	-0.186
-720.821	-103.856	0.077	-0.018
-719.806	-76.118	-0.070	-0.025
-718.791	-188.332	0.164	0.002
-717.777	-142.719	-0.129	0.013
-716.762	-42.597	-0.274	-0.140
-715.748	305.479	0.127	0.237
-714.733	-56.760	0.200	0.089
-713.718	623.268	0.030	0.075
-712.704	-49.357	0.346	0.166
-711.689	24.409	0.082	0.068
-710.675	-32.389	0.283	0.158
-709.660	800.000	0.068	-0.210
-708.645	800.000	0.024	0.090
-707.631	-48.578	-0.046	-0.022
-706.616	-33.786	0.274	0.152
-705.602	-152.274	0.094	0.007
-704.587	-200.000	-0.242	0.001
-703.572	-96.846	-0.239	0.063
-702.558	16.091	-0.179	0.142
-701.543	-60.311	-0.147	0.063
-700.529	-102.334	0.390	-0.094
-699.514	-127.737	-0.323	-0.047
-698.499	-8.803	-0.382	0.257
-697.485	-129.742	0.175	0.024
-696.470	-97.551	-0.007	-0.002
-695.456	-200.000	-0.054	-0.320
-694.441	-145.399	0.194	0.018
-693.426	-131.319	-0.079	0.011
-692.412	77.581	0.162	0.173
-691.397	800.000	-0.128	-0.424
-690.383	688.511	-0.070	-0.185
-689.368	-200.000	-0.009	-0.072
-688.354	-84.969	0.350	-0.110
-687.339	293.117	0.091	0.167
-686.324	270.270	0.103	-0.182
-685.310	-60.836	0.236	0.100
-684.295	-164.555	0.101	-0.005
-683.281	110.219	-0.148	-0.177
-682.266	660.227	-0.074	0.190
-681.251	-110.742	0.181	-0.037
-680.237	86.203	0.208	-0.230
-679.222	1.641	0.031	-0.022
-678.208	56.339	0.100	-0.097
-677.193	-119.479	0.484	0.084
-676.178	-127.454	-0.331	-0.048
-675.164	100.346	-0.071	-0.083
-674.149	-71.964	-0.126	-0.047
-673.135	-128.559	-0.060	-0.009
-672.120	800.000	-0.051	-0.147
-671.105	-137.077	0.126	0.014
-670.091	13.907	0.269	0.209
-669.076	800.000	-0.121	-0.515
-668.062	-43.395	0.319	-0.162
-667.047	531.198	0.119	-0.283
-666.032	107.229	0.262	-0.312
-665.018	69.505	-0.188	-0.194
-664.003	272.399	0.091	-0.161
-662.989	41.595	0.135	0.122
-661.974	-69.481	0.078	0.030
-660.959	-200.000	-0.012	-0.187
-659.945	99.160	0.102	0.118
-658.930	-143.584	0.154	-0.015
-657.916	-192.369	0.110	0.001
-656.901	800.000	0.046	0.129
-655.886	-200.000	0.024	-0.400
-654.872	800.000	0.077	0.306
-653.857	-60.859	-0.366	0.155
-652.843	-10.452	0.147	-0.097
-651.828	102.745	-0.028	0.032
-650.814	-200.000	-0.034	0.264
-649.799	800.000	-0.034	0.145
-648.784	87.106	0.190	-0.211
-647.770	800.000	-0.057	0.208
-646.755	-94.121	-0.111	0.031
-645.741	-1.480	0.130	0.092
-644.726	85.381	0.256	-0.281
-643.711	-200.000	0.001	-0.351
-642.697	-109.674	0.030	0.006
-641.682	-200.000	-0.007	-0.217
-640.668	330.851	-0.028	0.053
-639.653	-96.780	0.184	-0.048
-638.638	276.122	0.210	-0.373
-637.624	-200.000	-0.022	0.247
-636.609	37.829	0.105	0.093
-635.595	-172.790	-0.043	0.001
-634.580	271.228	-0.115	-0.202
-633.565	-161.986	-0.168	0.008
-632.551	800.000	-0.018	0.062
-631.536	-179.319	0.094	-0.002
-630.522	-30.070	0.070	-0.040
-629.507	476.161	-0.082	0.186
-628.492	9.122	-0.165	-0.125
-627.478	77.393	0.302	0.321
-626.463	46.534	-0.153	0.142
-625.449	11.578	0.083	0.064
-624.434	246.208	-0.106	-0.179
-623.419	-109.599	-0.281	-0.059
-622.405	800.000	-0.091	-0.367
-621.390	-39.227	-0.223	-0.117
-620.376	-50.278	-0.359	-0.170
-619.361	746.286	-0.147	-0.396
-618.346	218.224	0.128	-0.203
-617.332	649.883	-0.037	0.095
-616.317	-75.723	0.168	-0.060
-615.303	114.551	-0.220	-0.268
-614.288	-105.430	-0.179	0.041
-613.273	-200.000	-0.027	-0.146
-612.259	106.612	-0.240	-0.284
-611.244	15.710	-0.211	-0.166
-610.230	-200.000	-0.020	-0.183
-609.215	800.000	-0.034	0.146
-608.201	-117.677	0.319	0.057
-607.186	-200.000	0.021	-0.118
-606.171	-137.369	0.157	0.018
-605.157	137.782	-0.118	0.154
-604.142	29.310	0.333	0.283
-603.128	33.937	-0.166	0.144
-602.113	730.521	0.053	0.140
-601.098	72.357	0.223	0.232
-600.084	-200.000	0.003	0.014
-599.069	53.750	0.065	0.062
-598.055	-112.892	0.241	-0.048
-597.040	-200.000	0.007	-0.370
-596.025	35.259	-0.220	-0.193
-595.011	800.000	-0.051	-0.170
-593.996	-200.000	-0.013	-0.228
-592.982	-128.128	0.158	-0.023
-591.967	267.989	-0.250	0.436
-590.952	-153.838	0.302	-0.021
-589.938	-200.000	-0.047	-0.324
-588.923	-148.727	0.093	-0.008
-587.909	-82.928	0.112	-0.036
-586.894	-175.596	-0.154	0.004
-585.879	-200.000	0.049	0.229
-584.865	-91.546	-0.051	0.014
-583.850	800.000	-0.031	0.121
-582.836	207.913	-0.116	-0.181
-581.821	-27.762	-0.246	-0.142
-580.806	-200.000	-0.057	-0.322
-579.792	-200.000	-0.015	0.291
-578.777	598.157	0.095	-0.234
-577.763	-200.000	-0.373	0.001
-576.748	-44.095	-0.157	-0.079
-575.733	800.000	0.014	0.054
-574.719	327.432	-0.089	0.170
-573.704	19.775	-0.172	-0.138
-572.690	-200.000	-0.030	-0.179
-571.675	171.151	-0.218	-0.312
-570.661	-147.403	0.133	0.011
-569.646	800.000	0.168	0.600
-568.631	-100.268	-0.289	0.072
-567.617	-200.000	0.243	-0.000
-566.602	800.000	-0.069	0.296
-565.588	-68.057	0.067	0.026
-564.573	-95.014	-0.156	0.042
-563.558	-200.000	-0.004	-0.018
-562.544	85.624	0.220	-0.241
-561.529	359.506	-0.087	0.173
-560.515	-142.155	-0.111	-0.011
-559.500	-200.000	0.029	0.184
-558.485	97.651	-0.199	-0.228
-557.471	79.402	-0.097	0.104
-556.456	285.200	-0.023	0.042
-555.442	-10.320	-0.217	0.144
-554.427	380.332	-0.166	-0.338
-553.412	324.559	0.206	0.391
-552.398	-127.440	0.172	-0.025
-551.383	55.520	-0.104	0.101
-550.369	-118.680	0.173	-0.030
-549.354	-200.000	0.018	-0.189
-548.339	323.104	0.062	0.118
-547.325	83.217	0.266	0.288
-546.310	106.763	0.107	-0.127
-545.296	-170.929	-0.197	0.007
-544.281	67.464	0.191	0.195
-543.266	98.807	-0.227	-0.261
-542.252	114.894	-0.081	-0.099
-541.237	243.651	0.132	-0.220
-540.223	179.880	-0.096	-0.140
-539.208	-200.000	-0.108	-0.522
-538.193	46.894	-0.144	-0.134
-537.179	378.800	0.118	0.240
-536.164	312.323	0.067	0.126
-535.150	-22.028	-0.180	0.109
-534.135	247.721	-0.113	-0.190
-533.121	-82.322	0.189	0.061
-532.106	217.233	-0.070	0.110
-531.091	-155.281	-0.460	0.030
-530.077	4.208	-0.466	0.340
-529.062	123.803	0.104	0.131
-528.048	-127.822	0.353	-0.051
-527.033	-200.000	0.073	-0.335
-526.018	-200.000	-0.006	-0.202
-525.004	-21.012	0.063	0.038
-523.989	-166.718	-0.086	-0.004
-522.975	-28.325	0.145	0.083
-521.960	-43.591	-0.064	-0.032
-520.945	-200.000	-0.036	0.531
-519.931	254.748	-0.133	0.227
-518.916	458.308	0.100	0.222
-517.902	41.087	0.015	-0.013
-516.887	538.234	-0.119	0.282
-515.872	-200.000	0.008	0.049
-514.858	-200.000	0.067	-0.350
-513.843	185.081	0.167	-0.247
-512.829	-70.514	0.090	-0.034
-511.814	10.724	0.158	-0.120
-510.799	417.597	-0.132	0.280
-509.785	-140.663	-0.144	0.015
-508.770	13.766	-0.196	-0.151
-507.756	-171.973	-0.285	0.009
-506.741	4.095	0.089	0.065
-505.726	800.000	-0.119	-0.328
-504.712	309.107	0.060	-0.112
-503.697	800.000	0.025	0.097
-502.683	800.000	0.092	-0.373
-501.668	-200.000	0.023	0.347
-500.653	-28.601	0.108	0.062
-499.639	80.885	0.096	0.103
-498.624	-200.000	-0.034	-0.225
-497.610	24.354	-0.374	-0.308
-496.595	5.757	-0.192	-0.141
-495.581	99.048	0.109	-0.125
-494.566	42.606	0.163	-0.148
-493.551	-0.459	-0.105	-0.074
-492.537	-81.722	-0.147	0.048
-491.522	-12.972	0.285	0.184
-490.508	78.792	0.198	0.211
-489.493	697.679	-0.095	0.248
-488.478	-37.928	-0.166	0.088
-487.464	-47.694	0.300	-0.145
-486.449	378.655	0.103	0.209
-485.435	800.000	-0.030	-0.087
-484.420	77.096	0.179	-0.189
-483.405	422.705	0.181	0.386
-482.391	-200.000	0.062	-0.328
-481.376	-59.116	0.317	0.136
-480.362	800.000	0.044	-0.186
-479.347	-61.381	0.275	0.115
-478.332	319.930	0.160	0.302
-477.318	338.273	-0.090	-0.174
-476.303	-28.363	-0.089	0.051
-475.289	-200.000	0.013	0.169
-474.274	-19.756	-0.252	-0.155
-473.259	-56.319	0.221	-0.097
-472.245	800.000	0.058	0.190
-471.230	-21.406	-0.093	0.056
-470.216	-15.029	-0.130	0.083
-469.201	-200.000	0.018	0.086
-468.186	25.113	-0.274	-0.226
-467.172	-142.161	0.298	0.029
-466.157	116.564	0.129	-0.157
-465.143	484.844	0.094	-0.213
-464.128	-41.496	0.315	-0.161
-463.113	800.000	0.071	-0.226
-462.099	-62.165	0.151	0.063
-461.084	-200.000	-0.017	-0.177
-460.070	28.724	-0.193	-0.162
-459.055	369.329	-0.104	-0.208
-458.040	-43.212	-0.184	-0.093
-457.026	217.180	-0.035	0.056
-456.011	-107.596	-0.147	-0.032
-454.997	15.702	0.191	0.149
-453.982	-200.000	0.000	-0.214
-452.968	-98.443	0.137	0.035
-451.953	-18.032	0.173	0.108
-450.938	2.709	-0.177	-0.128
-449.924	-88.794	0.144	0.043
-448.909	800.000	-0.077	0.291
-447.895	315.856	0.055	0.103
-446.880	800.000	0.031	0.105
-445.865	-200.000	-0.062	0.310
-444.851	531.877	-0.095	0.223
-443.836	-133.176	-0.223	0.028
-442.822	199.922	0.048	0.073
-441.807	-33.616	-0.285	0.156
-440.792	-127.470	0.081	0.012
-439.778	347.128	0.103	0.201
-438.763	-200.000	0.021	0.407
-437.749	89.162	0.091	-0.101
-436.734	-160.102	-0.063	-0.003
-435.719	-200.000	0.064	-0.321
-434.705	41.330	0.221	-0.198
-433.690	149.199	0.204	0.274
-432.676	-149.558	-0.123	0.010
-431.661	-200.000	-0.014	0.237
-430.646	-200.000	0.045	0.241
-429.632	-121.504	-0.117	-0.019
-428.617	800.000	-0.055	-0.152
-427.603	-137.213	0.178	-0.020
-426.588	-86.534	-0.056	0.017
-425.573	-168.890	0.024	0.001
-424.559	-52.295	-0.311	0.143
-423.544	-200.000	-0.008	-0.299
-422.530	-175.306	0.049	0.001
-421.515	-133.131	0.201	0.025
-420.500	-77.295	-0.120	0.042
-419.486	800.000	0.106	0.336
-418.471	113.993	0.167	0.201
-417.457	178.707	-0.048	0.070
-416.442	-55.359	0.143	-0.064
-415.428	-200.000	-0.056	0.363
-414.413	-100.418	-0.447	-0.110
-413.398	-200.000	0.027	-0.325
-412.384	-200.000	-0.013	0.121
-411.369	67.640	-0.083	-0.084
-410.355	211.308	0.090	0.141
-409.340	328.499	-0.118	0.224
-408.325	793.668	0.092	0.252
-407.311	15.530	-0.044	-0.034
-406.296	800.000	0.069	0.209
-405.282	-200.000	-0.016	0.256
-404.267	-200.000	-0.005	-0.146
-403.252	165.761	-0.048	0.068
-402.238	-164.591	-0.439	-0.020
-401.223	-200.000	0.006	-0.079
-400.209	-30.578	-0.226	-0.127
-399.194	74.744	-0.431	-0.450
-398.179	384.316	-0.047	-0.096
-397.165	4.434	0.109	-0.079
-396.150	-44.215	0.418	0.207
-395.136	-73.162	0.302	0.110
-394.121	-135.505	0.222	-0.026
-393.106	86.216	-0.049	-0.053
-392.092	-63.191	0.206	-0.084
-391.077	507.199	-0.070	0.161
-390.063	-64.681	-0.318	0.128
-389.048	-115.625	0.135	-0.025
-388.033	-176.937	0.279	-0.007
-387.019	800.000	-0.071	0.197
-386.004	-51.616	0.027	-0.013
-384.990	-23.290	0.115	0.069
-383.975	800.000	-0.145	0.445
-382.960	-200.000	-0.040	0.383
-381.946	105.328	0.331	-0.387
-380.931	-200.000	0.020	0.090
-379.917	-200.000	-0.001	0.184
-378.902	800.000	-0.074	-0.244
-377.888	591.296	0.200	-0.489
-376.873	166.580	-0.067	-0.094
-375.858	406.918	0.121	-0.253
-374.844	-200.000	-0.010	-0.316
-373.829	65.074	-0.062	0.062
-372.815	-200.000	0.044	0.330
-371.800	-115.285	0.227	0.042
-370.785	68.090	-0.222	0.225
-369.771	-85.274	-0.262	0.081
-368.756	-147.807	0.217	0.018
-367.742	-77.439	-0.278	0.095
-366.727	-84.826	0.061	-0.019
-365.712	137.657	0.241	-0.313
-364.698	407.549	-0.068	-0.143
-363.683	-200.000	0.007	0.393
-362.669	340.726	0.092	-0.178
-361.654	-143.915	-0.040	-0.004
-360.639	41.762	-0.053	-0.048
-359.625	-46.556	0.234	0.113
-358.610	-165.251	0.115	-0.005
-357.596	-97.749	0.137	0.035
-356.581	140.842	-0.183	0.239
-355.566	-200.000	0.024	-0.371
-354.552	-200.000	0.035	0.261
-353.537	-67.350	-0.150	0.058
-352.523	431.602	-0.104	0.223
-351.508	-128.703	-0.116	0.016
-350.493	800.000	0.107	0.307
-349.479	379.410	-0.117	0.237
-348.464	222.680	0.109	0.173
-347.450	-84.078	-0.097	-0.031
-346.435	36.319	0.448	-0.391
-345.420	-200.000	0.076	0.432
-344.406	-197.940	-0.021	-0.000
-343.391	800.000	-0.049	-0.145
-342.377	38.846	-0.203	-0.179
-341.362	-200.000	-0.043	-0.268
-340.348	55.631	0.168	-0.161
-339.333	800.000	-0.167	-0.480
-338.318	31.469	0.087	-0.074
-337.304	-200.000	-0.012	-0.223
-336.289	-52.710	0.028	0.013
-335.275	747.548	-0.056	0.149
-334.260	-64.175	0.353	-0.142
-333.245	-200.000	0.110	0.525
-332.231	129.467	-0.145	0.183
-331.216	-24.755	0.082	-0.048
-330.202	65.190	0.276	-0.276
-329.187	198.391	-0.136	-0.206
-328.172	-169.823	0.180	0.006
-327.158	-152.103	-0.471	-0.034
-326.143	800.000	0.079	0.288
-325.129	-200.000	-0.028	-0.550
-324.114	510.060	0.116	0.267
-323.099	657.801	-0.149	-0.377
-322.085	109.018	0.127	-0.149
-321.070	110.108	0.099	-0.117
-320.056	-200.000	0.026	-0.446
-319.041	96.346	-0.135	-0.152
-318.026	126.614	-0.200	0.250
-317.012	-30.669	0.423	0.237
-315.997	-200.000	0.044	0.219
-314.983	-58.722	-0.095	0.041
-313.968	-0.896	-0.255	-0.179
-312.953	-181.703	-0.187	0.004
-311.939	117.108	0.118	0.143
-310.924	-200.000	0.003	0.094
-309.910	-80.046	-0.147	0.049
-308.895	-125.866	-0.203	-0.030
-307.880	-112.378	-0.240	0.047
-306.866	-200.000	-0.043	-0.399
-305.851	208.695	-0.101	-0.155
-304.837	-4.914	0.210	0.143
-303.822	-3.132	-0.274	0.189
-302.807	-45.506	0.080	0.039
-301.793	402.891	0.045	0.093
-300.778	800.000	0.132	-0.395
-299.764	-83.382	0.172	0.054
-298.749	238.936	0.175	0.287
-297.735	-75.993	-0.239	-0.083
-296.720	800.000	-0.021	-0.089
-295.705	5.832	-0.130	0.095
-294.691	93.389	0.169	0.189
-293.676	527.259	0.035	-0.082
-292.662	-55.736	0.206	0.091
-291.647	-13.702	0.224	0.143
-290.632	-200.000	-0.017	-0.211
-289.618	-148.593	0.242	0.019
-288.603	800.000	-0.053	0.211
-287.589	278.465	0.124	0.218
-286.574	628.277	0.085	0.211
-285.559	165.462	0.024	-0.034
-284.545	359.138	0.041	0.081
-283.530	796.445	0.044	0.120
-282.516	-200.000	-0.046	0.308
-281.501	-58.038	-0.141	-0.060
-280.486	68.986	0.090	-0.091
-279.472	-200.000	0.087	0.507
-278.457	21.030	-0.031	-0.025
-277.443	297.924	0.150	0.272
-276.428	-94.350	0.181	-0.049
-275.413	83.493	-0.109	-0.118
-274.399	-75.273	0.150	0.053
-273.384	-150.127	-0.269	-0.021
-272.370	-88.401	0.405	0.119
-271.355	6.213	-0.187	-0.137
-270.340	-167.069	0.196	-0.008
-269.326	186.066	0.096	0.140
-268.311	26.146	0.195	0.160
-267.297	6.587	-0.267	-0.196
-266.282	-44.829	0.208	-0.102
-265.267	575.686	-0.099	0.239
-264.253	800.000	-0.063	-0.198
-263.238	-200.000	-0.003	-0.226
-262.224	-150.318	-0.299	-0.023
-261.209	-175.137	0.222	-0.006
-260.195	-200.000	0.034	0.167
-259.180	-34.270	-0.106	0.057
-258.165	-96.505	0.143	0.037
-257.151	431.484	-0.181	-0.386
-256.136	800.000	-0.043	0.159
-255.122	415.228	0.076	-0.159
-254.107	800.000	0.079	0.258
-253.092	557.513	0.096	-0.227
-252.078	319.784	-0.079	0.148
-251.063	800.000	-0.030	0.127
-250.049	-183.125	0.307	0.005
-249.034	68.825	-0.237	-0.240
-248.019	64.155	-0.151	-0.149
-247.005	-40.465	-0.076	-0.039
-245.990	-129.870	-0.320	-0.043
-244.976	72.719	0.193	0.198
-243.961	99.439	0.193	0.220
-242.946	-13.432	0.244	0.156
-241.932	669.253	0.050	0.126
-240.917	-83.703	-0.336	-0.106
-239.903	-2.042	-0.132	0.091
-238.888	220.596	0.255	-0.402
-237.873	194.490	0.030	-0.045
-236.859	191.646	0.106	0.157
-235.844	109.757	0.114	-0.135
-234.830	-13.300	-0.098	0.063
-233.815	305.596	-0.024	-0.045
-232.800	-41.361	-0.337	-0.171
-231.786	-162.540	-0.278	-0.013
-230.771	-16.648	0.248	0.155
-229.757	-200.000	0.002	-0.007
-228.742	522.614	0.067	0.154
-227.727	-200.000	0.014	-0.372
-226.713	-200.000	0.013	0.076
-225.698	21.079	-0.202	-0.161
-224.684	-132.918	0.457	-0.057
-223.669	-80.598	-0.078	0.026
-222.655	238.103	-0.029	0.048
-221.640	-200.000	-0.053	0.380
-220.625	-41.673	-0.300	0.152
-219.611	-71.765	0.562	0.206
-218.596	-200.000	-0.001	-0.010
-217.582	-200.000	0.004	-0.080
-216.567	800.000	-0.087	-0.338
-215.552	-200.000	0.005	0.151
-214.538	708.671	0.033	0.086
-213.523	-116.101	0.073	-0.013
-212.509	-128.504	-0.187	0.026
-211.494	63.084	-0.060	0.059
-210.479	23.788	0.071	-0.058
-209.465	800.000	-0.027	0.082
-208.450	-200.000	-0.041	0.285
-207.436	-185.866	-0.101	-0.001
-206.421	-200.000	0.038	-0.324
-205.406	34.650	-0.255	0.219
-204.392	800.000	-0.033	-0.128
-203.377	800.000	0.082	0.347
-202.363	-100.513	0.053	-0.013
-201.348	424.180	0.065	0.137
-200.333	-54.612	0.309	-0.137
-199.319	-113.340	0.243	0.047
-198.304	-17.791	-0.178	-0.110
-197.290	-91.466	-0.275	-0.077
-196.275	-159.795	0.227	-0.012
-195.260	36.747	-0.294	0.255
-194.246	96.871	0.220	-0.248
-193.231	-200.000	0.057	-0.434
-192.217	-90.641	-0.106	-0.030
-191.202	6.228	-0.301	-0.219
-190.187	800.000	0.045	0.147
-189.173	96.722	0.038	-0.043
-188.158	-30.698	0.206	0.115
-187.144	-128.676	-0.207	0.029
-186.129	-48.318	-0.142	0.067
-185.114	13.093	-0.116	-0.089
-184.100	642.473	0.032	0.081
-183.085	44.779	-0.096	-0.086
-182.071	116.484	-0.233	-0.280
-181.056	-141.867	0.329	0.032
-180.042	53.906	-0.082	-0.077
-179.027	-100.825	-0.117	-0.028
-178.012	6.236	0.150	0.109
-176.998	-103.560	0.313	0.072
-175.983	394.704	-0.105	-0.214
-174.969	-200.000	0.013	0.209
-173.954	-81.180	0.115	0.037
-172.939	-95.158	0.393	0.104
-171.925	-200.000	0.019	0.141
-170.910	155.608	-0.210	-0.285
-169.896	800.000	0.127	-0.437
-168.881	138.006	0.102	0.131
-167.866	13.905	-0.030	0.023
-166.852	-140.783	-0.113	-0.011
-165.837	771.474	-0.046	-0.123
-164.823	340.798	0.071	0.136
-163.808	-200.000	-0.078	0.338
-162.793	118.471	0.068	-0.082
-161.779	82.446	0.183	-0.195
-160.764	108.880	-0.096	0.112
-159.750	400.371	0.091	0.187
-158.735	-49.404	-0.260	-0.122
-157.720	800.000	0.053	0.149
-156.706	19.615	-0.227	-0.179
-155.691	-119.454	-0.083	-0.014
-154.677	637.937	0.072	-0.180
-153.662	-79.044	-0.377	-0.126
-152.647	-84.716	-0.135	-0.042
-151.633	-110.865	-0.231	0.047
-150.618	9.284	0.068	-0.051
-149.604	132.888	0.191	-0.242
-148.589	-97.585	0.161	-0.041
-147.574	-130.020	-0.409	0.055
-146.560	14.349	-0.069	0.053
-145.545	-200.000	-0.024	-0.165
-144.531	-38.278	0.257	0.133
-143.516	-175.923	0.285	0.007
-142.502	187.776	-0.102	-0.150
-141.487	-0.935	0.102	0.071
-140.472	-200.000	0.033	0.243
-139.458	65.199	0.206	0.205
-138.443	-158.639	-0.184	-0.010
-137.429	-159.986	-0.130	-0.007
-136.414	-200.000	-0.026	-0.148
-135.399	-200.000	0.007	-0.097
-134.385	187.995	-0.135	0.197
-133.370	-200.000	-0.003	-0.320
-132.356	-92.346	0.237	-0.065
-131.341	-54.421	0.076	0.034
-130.326	-49.486	0.276	0.129
-129.312	23.455	-0.201	-0.162
-128.297	-92.065	0.198	-0.055
-127.283	-29.504	0.171	-0.096
-126.268	-161.124	0.139	0.007
-125.253	-200.000	-0.030	0.259
-124.239	-153.823	0.243	0.016
-123.224	-103.575	0.403	-0.093
-122.210	7.011	-0.309	-0.226
-121.195	397.637	0.179	-0.368
