DTS Sentinel unit serial number:	SN413079Multiplexer serial number:	ORYXHardware model number:	OX4-SRSoftware version number:	ORYX F/W v4.00 Oryx Data Collector v3.7.2.0data status	okinstallation	princeton_trtdifferential loss correction	single-endedforward channel	channel 3reverse channel	N/Adate	2019/09/12time	03:26:11forward acquisition time	60.00reverse acquisition time	0.00gamma	496.2192k internal	0.2322k external	0.2322temperature offset calibration	1.0068default loss term (dB/km)	0.3790temperature slope calibration	1.0000multiplexer offset coefficient	1.0000multiplexer slope coefficient	1.0000fibre end	0.00T internal ref (°C)	32.19T ext. ref 1 (°C)	2.14T ext. ref 2 (°C)	27.01length (m)	temperature (°C)	Stokes	anti-Stokes-747.200	418.821	0.041	-0.090
-746.185	-200.000	-0.419	0.001
-745.171	725.549	0.055	0.147
-744.156	-123.866	0.119	-0.019
-743.142	404.681	-0.119	0.254
-742.127	-200.000	0.007	0.365
-741.112	-6.889	-0.143	-0.098
-740.098	-97.841	0.172	0.045
-739.083	41.499	-0.170	0.156
-738.069	-200.000	-0.012	0.353
-737.054	88.431	-0.054	-0.061
-736.039	-158.621	-0.374	0.022
-735.025	-125.925	0.129	0.020
-734.010	-107.375	0.330	-0.073
-732.996	-104.888	-0.180	0.042
-731.981	800.000	-0.055	0.183
-730.966	-108.583	-0.154	0.033
-729.952	800.000	-0.019	-0.065
-728.937	-72.347	0.110	-0.041
-727.923	261.653	-0.077	-0.135
-726.908	-200.000	-0.017	-0.200
-725.894	70.790	0.030	-0.032
-724.879	104.929	0.188	-0.224
-723.864	-141.352	0.073	0.008
-722.850	-192.200	-0.124	0.001
-721.835	82.846	0.186	0.204
-720.821	580.698	-0.127	-0.314
-719.806	-61.399	-0.287	0.122
-718.791	-96.609	-0.103	-0.027
-717.777	-95.362	-0.377	-0.102
-716.762	-200.000	0.038	-0.260
-715.748	29.927	-0.341	-0.293
-714.733	-200.000	-0.039	0.269
-713.718	-144.434	-0.115	0.011
-712.704	162.187	0.076	0.107
-711.689	800.000	0.096	-0.302
-710.675	71.951	-0.124	-0.131
-709.660	-7.217	-0.276	-0.189
-708.645	179.649	-0.182	-0.269
-707.631	800.000	0.028	0.087
-706.616	-107.896	0.067	-0.015
-705.602	-124.852	-0.138	0.021
-704.587	60.297	-0.094	-0.094
-703.572	-200.000	0.038	-0.555
-702.558	9.445	-0.271	-0.207
-701.543	800.000	-0.098	0.293
-700.529	537.590	0.032	-0.076
-699.514	-163.411	-0.144	0.007
-698.499	119.709	0.205	0.256
-697.485	-200.000	0.001	0.134
-696.470	-124.700	0.028	-0.004
-695.456	-200.000	0.011	-0.275
-694.441	-142.825	0.413	0.040
-693.426	172.650	-0.248	0.360
-692.412	-42.189	-0.387	-0.200
-691.397	-200.000	0.002	-0.054
-690.383	800.000	0.083	0.271
-689.368	-200.000	0.030	0.185
-688.354	-200.000	0.018	0.210
-687.339	2.826	0.050	0.037
-686.324	-68.280	0.376	0.147
-685.310	333.620	0.037	0.072
-684.295	-109.603	-0.084	-0.018
-683.281	-104.761	-0.089	-0.021
-682.266	-63.535	-0.146	0.060
-681.251	-9.532	0.224	-0.151
-680.237	634.137	-0.026	-0.065
-679.222	14.086	-0.099	0.077
-678.208	117.981	0.042	0.052
-677.193	-1.947	0.156	0.111
-676.178	26.971	-0.341	0.288
-675.164	-170.930	-0.342	-0.012
-674.149	-200.000	0.005	0.147
-673.135	61.372	0.110	-0.110
-672.120	508.295	0.107	-0.250
-671.105	-32.969	0.187	-0.105
-670.091	-200.000	0.008	-0.174
-669.076	-42.792	0.075	0.038
-668.062	133.273	-0.072	-0.094
-667.047	800.000	0.075	0.300
-666.032	158.868	-0.132	0.185
-665.018	91.776	-0.095	-0.108
-664.003	226.907	0.191	-0.312
-662.989	-37.227	-0.224	-0.121
-661.974	26.823	-0.193	0.163
-660.959	-105.654	-0.177	0.040
-659.945	53.292	-0.179	-0.173
-658.930	-200.000	-0.053	-0.269
-657.916	-183.566	-0.128	-0.002
-656.901	127.802	-0.216	-0.277
-655.886	-109.673	-0.155	-0.033
-654.872	-13.723	-0.124	0.081
-653.857	550.793	0.169	-0.408
-652.843	-74.206	-0.216	0.079
-651.828	16.478	-0.122	0.097
-650.814	27.146	0.191	0.161
-649.799	100.973	-0.329	-0.385
-648.784	114.249	-0.078	0.096
-647.770	-7.967	-0.364	-0.247
-646.755	84.138	-0.162	-0.179
-645.741	-64.991	-0.040	0.016
-644.726	-59.168	-0.291	0.126
-643.711	-4.059	-0.139	0.097
-642.697	65.536	0.184	0.188
-641.682	90.776	0.087	0.098
-640.668	462.459	0.169	-0.380
-639.653	209.716	-0.110	0.174
-638.638	-65.124	-0.374	0.152
-637.624	-142.492	0.208	-0.021
-636.609	356.112	-0.070	0.141
-635.595	-200.000	0.055	0.314
-634.580	196.928	0.053	-0.081
-633.565	-115.692	-0.220	-0.042
-632.551	-39.215	-0.049	-0.026
-631.536	130.224	-0.097	-0.125
-630.522	694.126	0.037	-0.097
-629.507	548.746	-0.039	-0.095
-628.492	-200.000	-0.040	0.388
-627.478	-123.904	-0.152	0.024
-626.463	51.460	-0.229	-0.219
-625.449	-167.834	-0.191	0.008
-624.434	-200.000	0.000	0.063
-623.419	-109.480	-0.234	-0.050
-622.405	180.059	0.065	-0.096
-621.390	60.551	0.221	-0.220
-620.376	161.373	0.249	0.350
-619.361	-200.000	0.020	-0.092
-618.346	651.068	0.025	0.065
-617.332	-200.000	0.076	-0.385
-616.317	283.496	-0.009	0.017
-615.303	-200.000	0.066	0.311
-614.288	-106.661	-0.272	-0.061
-613.273	5.812	-0.127	-0.095
-612.259	-200.000	-0.003	-0.093
-611.244	-200.000	0.029	0.134
-610.230	365.332	0.157	-0.318
-609.215	552.472	-0.119	0.286
-608.201	233.734	-0.113	-0.186
-607.186	-200.000	-0.019	0.113
-606.171	-89.774	0.066	0.019
-605.157	342.694	0.094	-0.185
-604.142	-165.575	0.235	-0.010
-603.128	800.000	0.035	-0.100
-602.113	-107.788	-0.052	0.011
-601.098	800.000	-0.029	0.094
-600.084	262.038	0.089	-0.155
-599.069	75.351	0.129	0.137
-598.055	260.532	0.342	0.594
-597.040	-24.267	-0.300	0.180
-596.025	89.816	0.236	0.264
-595.011	-123.041	0.274	-0.044
-593.996	-33.617	0.036	-0.020
-592.982	-165.640	0.385	0.017
-591.967	-41.649	-0.406	-0.210
-590.952	-75.656	0.156	-0.056
-589.938	-200.000	-0.093	0.425
-588.923	-200.000	0.011	-0.279
-587.909	346.277	-0.198	0.391
-586.894	-139.611	0.274	-0.029
-585.879	-138.996	-0.312	-0.034
-584.865	-200.000	-0.012	-0.095
-583.850	-68.074	-0.203	-0.079
-582.836	-200.000	0.019	-0.130
-581.821	-44.693	-0.249	0.125
-580.806	-200.000	-0.067	0.510
-579.792	-137.731	-0.065	-0.007
-578.777	-75.429	0.117	0.042
-577.763	306.779	0.045	0.084
-576.748	-200.000	-0.017	-0.408
-575.733	-9.571	0.103	0.069
-574.719	-42.380	-0.193	-0.099
-573.704	-163.450	-0.167	0.008
-572.690	49.019	-0.166	-0.156
-571.675	-24.467	-0.257	-0.153
-570.661	800.000	0.068	0.219
-569.646	198.766	0.097	0.150
-568.631	-89.966	-0.073	0.022
-567.617	75.883	0.265	-0.282
-566.602	75.586	-0.335	-0.355
-565.588	415.293	-0.044	0.094
-564.573	-34.277	0.174	0.096
-563.558	476.270	0.093	-0.210
-562.544	113.732	-0.145	0.176
-561.529	-12.960	-0.207	0.135
-560.515	-200.000	-0.055	-0.265
-559.500	-31.940	0.326	-0.183
-558.485	-200.000	-0.025	-0.189
-557.471	800.000	0.025	0.095
-556.456	-200.000	-0.002	0.244
-555.442	65.249	-0.081	0.082
-554.427	13.218	0.175	0.136
-553.412	-94.144	-0.138	0.038
-552.398	-23.691	0.113	0.068
-551.383	70.485	0.199	0.206
-550.369	1.586	-0.052	0.037
-549.354	-200.000	0.035	-0.220
-548.339	39.227	-0.136	-0.122
-547.325	-64.428	0.046	0.019
-546.310	-200.000	-0.015	0.119
-545.296	-200.000	0.007	0.108
-544.281	-63.090	0.306	-0.127
-543.266	-69.206	0.077	-0.030
-542.252	166.776	0.030	0.043
-541.237	-70.842	0.053	-0.020
-540.223	-180.953	-0.125	-0.003
-539.208	-26.391	-0.152	-0.090
-538.193	-200.000	-0.022	-0.215
-537.179	687.448	-0.027	-0.070
-536.164	-200.000	0.017	0.094
-535.150	346.148	0.043	0.085
-534.135	-13.512	0.043	-0.028
-533.121	800.000	0.022	-0.061
-532.106	-97.039	-0.087	0.023
-531.091	-200.000	-0.050	-0.303
-530.077	85.391	0.012	-0.013
-529.062	4.100	-0.109	-0.080
-528.048	-9.083	0.338	-0.227
-527.033	-17.115	-0.294	-0.186
-526.018	-200.000	0.002	-0.043
-525.004	-108.859	0.174	0.037
-523.989	-56.414	0.294	-0.131
-522.975	193.450	0.016	-0.025
-521.960	-85.215	0.141	0.044
-520.945	-90.278	-0.258	0.075
-519.931	-58.983	-0.172	0.074
-518.916	270.172	-0.194	-0.341
-517.902	-102.479	0.247	0.059
-516.887	163.629	-0.254	0.357
-515.872	-90.910	0.055	0.016
-514.858	800.000	-0.054	0.188
-513.843	-119.060	0.095	-0.017
-512.829	-82.506	0.332	0.108
-511.814	11.757	-0.100	-0.077
-510.799	22.189	0.315	-0.258
-509.785	14.361	-0.102	-0.080
-508.770	467.807	-0.104	0.234
-507.756	800.000	0.023	-0.093
-506.741	800.000	0.090	0.257
-505.726	20.294	0.037	0.030
-504.712	59.410	-0.115	-0.114
-503.697	-200.000	-0.006	0.290
-502.683	545.264	0.095	0.227
-501.668	111.258	0.071	0.086
-500.653	336.756	0.062	0.121
-499.639	800.000	-0.036	-0.113
-498.624	-200.000	0.014	-0.197
-497.610	-125.959	-0.197	0.030
-496.595	427.787	0.205	-0.442
-495.581	593.862	0.035	0.086
-494.566	800.000	0.060	0.238
-493.551	108.523	0.064	-0.077
-492.537	-200.000	0.003	0.301
-491.522	-170.002	-0.316	0.011
-490.508	174.551	-0.062	0.090
-489.493	-28.514	-0.088	0.051
-488.478	-200.000	0.007	-0.108
-487.464	181.854	-0.099	0.146
-486.449	-14.025	0.200	0.129
-485.435	800.000	0.136	0.458
-484.420	0.766	-0.206	-0.148
-483.405	-200.000	0.003	-0.108
-482.391	-86.044	0.185	0.057
-481.376	25.532	0.132	-0.109
-480.362	800.000	-0.094	-0.268
-479.347	-123.978	0.140	0.022
-478.332	169.425	0.083	-0.118
-477.318	-141.485	0.182	-0.018
-476.303	599.216	-0.097	0.241
-475.289	128.839	0.051	-0.065
-474.274	85.803	0.204	-0.225
-473.259	-200.000	-0.011	-0.125
-472.245	163.002	-0.090	0.127
-471.230	-7.907	0.158	0.107
-470.216	-200.000	0.081	0.562
-469.201	631.084	-0.143	0.362
-468.186	-9.054	-0.230	0.154
-467.172	-54.834	-0.041	0.019
-466.157	175.138	-0.049	0.071
-465.143	-200.000	0.024	-0.145
-464.128	800.000	-0.069	-0.271
-463.113	-108.088	0.191	0.041
-462.099	-37.859	0.274	0.146
-461.084	-200.000	-0.080	0.569
-460.070	-200.000	0.022	0.228
-459.055	-123.039	-0.085	0.014
-458.040	800.000	-0.062	-0.172
-457.026	1.499	0.165	-0.119
-456.011	-111.183	-0.087	0.018
-454.997	219.616	-0.074	0.119
-453.982	-61.220	0.132	0.056
-452.968	-92.667	-0.187	-0.052
-451.953	-10.024	0.173	0.115
-450.938	-62.381	0.105	-0.043
-449.924	437.349	0.137	-0.298
-448.909	353.486	-0.121	0.241
-447.895	-134.259	0.116	-0.014
-446.880	-200.000	0.038	-0.247
-445.865	-1.210	-0.193	0.136
-444.851	-37.540	-0.268	-0.143
-443.836	-200.000	0.067	-0.398
-442.822	300.389	0.076	0.140
-441.807	17.412	-0.116	-0.092
-440.792	-200.000	-0.038	-0.344
-439.778	800.000	0.088	-0.379
-438.763	-200.000	0.049	0.228
-437.749	72.689	-0.049	0.051
-436.734	398.392	0.060	0.126
-435.719	-200.000	0.026	0.359
-434.705	58.941	-0.090	0.088
-433.690	-133.628	-0.110	-0.014
-432.676	-132.051	0.359	0.047
-431.661	669.335	0.046	-0.118
-430.646	232.471	-0.067	0.111
-429.632	768.824	0.067	-0.182
-428.617	0.211	0.046	0.033
-427.603	-89.231	0.187	-0.055
-426.588	-159.470	-0.056	-0.003
-425.573	800.000	0.104	0.321
-424.559	-200.000	0.015	-0.263
-423.544	-52.999	-0.161	-0.074
-422.530	-92.504	0.188	0.053
-421.515	-35.452	0.336	-0.182
-420.500	-200.000	0.019	-0.097
-419.486	264.627	-0.062	-0.107
-418.471	-68.336	0.163	-0.063
-417.457	5.590	-0.098	-0.072
-416.442	-138.301	-0.253	0.028
-415.428	800.000	0.040	-0.160
-414.413	-23.615	-0.181	0.108
-413.398	-200.000	-0.056	0.383
-412.384	-168.727	0.149	0.006
-411.369	72.028	-0.179	0.185
-410.355	-97.285	0.217	-0.056
-409.340	86.303	0.059	0.065
-408.325	-50.254	-0.251	0.118
-407.311	407.829	0.137	-0.289
-406.296	-8.829	-0.151	-0.101
-405.282	-97.035	0.122	-0.032
-404.267	22.912	0.244	0.199
-403.252	634.091	0.065	0.164
-402.238	800.000	-0.074	-0.311
-401.223	-178.002	-0.090	-0.002
-400.209	238.035	-0.110	0.183
-399.194	-200.000	-0.003	-0.045
-398.179	-200.000	0.023	0.464
-397.165	800.000	0.100	-0.358
-396.150	31.106	0.189	-0.162
-395.136	-91.350	-0.363	-0.103
-394.121	65.908	-0.164	-0.166
-393.106	-47.404	0.223	0.108
-392.092	-85.772	-0.361	0.112
-391.077	-45.439	-0.276	-0.136
-390.063	320.061	-0.176	-0.332
-389.048	-200.000	-0.015	-0.185
-388.033	-45.287	0.041	-0.020
-387.019	12.777	0.240	0.185
-386.004	800.000	0.095	0.341
-384.990	45.716	0.151	0.139
-383.975	311.709	-0.145	-0.271
-382.960	-200.000	0.033	0.157
-381.946	800.000	0.031	-0.112
-380.931	-140.489	-0.072	-0.007
-379.917	187.236	-0.104	0.155
-378.902	162.426	0.108	-0.150
-377.888	-116.627	0.156	-0.029
-376.873	800.000	-0.060	0.217
-375.858	331.561	-0.170	-0.326
-374.844	-200.000	0.020	0.306
-373.829	-86.008	-0.318	0.098
-372.815	-200.000	0.031	-0.144
-371.800	-43.239	-0.217	0.109
-370.785	-200.000	0.043	0.315
-369.771	-59.240	0.277	-0.119
-368.756	-200.000	0.029	-0.205
-367.742	280.273	-0.224	0.399
-366.727	800.000	0.089	-0.264
-365.712	1.685	0.092	-0.066
-364.698	132.510	-0.209	-0.268
-363.683	800.000	-0.055	-0.216
-362.669	-22.509	0.212	0.127
-361.654	-23.790	-0.129	0.077
-360.639	-200.000	-0.023	0.395
-359.625	313.635	0.144	-0.269
-358.610	227.699	0.060	-0.097
-357.596	26.597	-0.248	0.206
-356.581	-103.123	-0.173	0.041
-355.566	185.372	0.072	-0.106
-354.552	11.183	0.112	0.085
-353.537	-47.270	0.188	-0.091
-352.523	678.791	0.036	-0.093
-351.508	135.385	0.132	0.170
-350.493	62.649	-0.044	-0.043
-349.479	-97.239	0.115	-0.030
-348.464	119.810	-0.119	-0.147
-347.450	74.999	0.071	-0.075
-346.435	-12.262	0.195	0.127
-345.420	132.380	0.095	0.122
-344.406	35.447	0.165	0.144
-343.391	11.361	0.126	0.096
-342.377	403.228	-0.189	-0.397
-341.362	76.315	-0.147	0.154
-340.348	-200.000	-0.029	-0.194
-339.333	-62.296	-0.066	-0.027
-338.318	-115.490	0.121	-0.023
-337.304	-200.000	-0.010	0.106
-336.289	428.939	0.077	-0.165
-335.275	-200.000	-0.009	0.079
-334.260	-138.383	0.366	-0.040
-333.245	79.233	-0.162	0.173
-332.231	-200.000	0.006	0.032
-331.216	260.119	-0.166	-0.285
-330.202	314.154	0.049	0.092
-329.187	67.854	0.297	0.302
-328.172	-41.717	-0.205	-0.105
-327.158	171.696	0.257	-0.367
-326.143	9.843	0.236	0.178
-325.129	-200.000	0.014	0.087
-324.114	-200.000	-0.023	0.116
-323.099	-200.000	0.028	-0.131
-322.085	-83.991	-0.268	0.085
-321.070	276.154	-0.256	-0.452
-320.056	-200.000	0.048	-0.266
-319.041	-200.000	-0.031	-0.168
-318.026	123.745	-0.148	-0.185
-317.012	800.000	0.046	0.172
-315.997	-117.374	-0.230	0.041
-314.983	-73.592	-0.200	0.073
-313.968	-73.820	-0.157	-0.057
-312.953	-148.917	0.305	0.024
-311.939	-200.000	-0.028	0.139
-310.924	-121.273	-0.140	-0.023
-309.910	-192.613	0.172	0.002
-308.895	5.550	0.054	-0.040
-307.880	-200.000	0.039	0.208
-306.866	-133.757	0.171	-0.021
-305.851	-21.441	-0.175	-0.106
-304.837	-58.876	0.211	-0.091
-303.822	-9.238	0.148	0.098
-302.807	130.316	0.129	0.164
-301.793	79.357	0.215	-0.229
-300.778	-106.159	-0.423	-0.094
-299.764	-33.965	0.444	-0.243
-298.749	800.000	0.029	0.099
-297.735	-25.534	-0.240	0.141
-296.720	373.514	-0.043	-0.086
-295.705	50.009	0.189	0.177
-294.691	-9.429	-0.255	0.169
-293.676	-171.817	0.199	0.006
-292.662	800.000	-0.036	0.140
-291.647	28.401	-0.234	-0.196
-290.632	125.457	0.136	-0.171
-289.618	113.411	0.165	-0.199
-288.603	134.963	0.160	0.206
-287.589	6.916	-0.247	0.183
-286.574	-1.495	-0.167	-0.117
-285.559	-200.000	0.024	0.252
-284.545	-149.860	-0.122	0.009
-283.530	-27.021	0.108	0.063
-282.516	199.923	-0.234	-0.357
-281.501	299.841	0.018	0.033
-280.486	17.168	0.173	-0.136
-279.472	-200.000	0.035	-0.334
-278.457	409.040	0.202	-0.425
-277.443	89.299	-0.144	-0.159
-276.428	-129.147	-0.259	-0.036
-275.413	-104.764	-0.208	0.048
-274.399	535.254	0.027	-0.064
-273.384	-92.844	0.241	-0.067
-272.370	-36.284	0.070	-0.038
-271.355	-169.234	-0.212	-0.008
-270.340	-151.641	-0.211	0.015
-269.326	-142.740	-0.211	0.020
-268.311	-200.000	0.011	0.055
-267.297	41.833	0.320	-0.288
-266.282	241.160	-0.122	-0.203
-265.267	-200.000	0.014	0.094
-264.253	112.947	0.075	-0.090
-263.238	293.776	-0.171	0.310
-262.224	-58.321	-0.151	0.065
-261.209	-168.614	-0.168	0.006
-260.195	-67.276	0.307	0.120
-259.180	-145.940	-0.212	0.019
-258.165	185.554	-0.134	0.197
-257.151	-8.409	0.082	-0.055
-256.136	-200.000	0.021	-0.245
-255.122	-120.845	-0.364	0.061
-254.107	-63.564	0.464	0.189
-253.092	438.704	0.051	0.111
-252.078	15.950	-0.069	0.054
-251.063	-74.119	-0.311	0.112
-250.049	-200.000	0.007	-0.037
-249.034	-200.000	-0.001	-0.004
-248.019	-77.013	-0.027	-0.009
-247.005	459.983	-0.079	0.175
-245.990	6.133	-0.093	-0.068
-244.976	-184.344	0.268	-0.004
-243.961	-55.692	0.038	-0.017
-242.946	85.536	0.090	0.098
-241.932	109.170	-0.180	-0.213
-240.917	-120.067	-0.239	0.041
-239.903	-25.055	0.315	0.185
-238.888	261.474	0.248	-0.425
-237.873	-9.210	0.246	0.163
-236.859	800.000	-0.065	0.209
-235.844	800.000	-0.033	-0.112
-234.830	107.917	-0.110	0.130
-233.815	83.905	0.059	0.063
-232.800	10.249	0.230	0.173
-231.786	86.776	0.205	-0.224
-230.771	43.554	0.396	-0.358
-229.757	800.000	0.066	0.198
-228.742	196.141	-0.041	-0.061
-227.727	-94.614	0.181	0.049
-226.713	-159.505	0.364	-0.020
-225.698	-84.775	0.203	-0.063
-224.684	28.560	-0.088	0.074
-223.669	-19.755	0.071	-0.044
-222.655	-57.836	-0.091	0.040
-221.640	60.148	0.202	0.198
-220.625	-62.716	0.160	0.066
-219.611	-75.378	-0.124	-0.044
-218.596	689.357	0.030	0.078
-217.582	800.000	0.124	0.457
-216.567	10.717	-0.100	0.076
-215.552	-75.556	0.199	0.070
-214.538	-95.831	0.450	0.119
-213.523	-200.000	0.013	0.134
-212.509	200.557	0.064	-0.098
-211.494	320.628	0.103	0.195
-210.479	44.367	-0.114	-0.104
-209.465	24.722	-0.359	-0.294
-208.450	98.626	0.071	0.081
-207.436	88.249	0.088	-0.096
-206.421	-74.505	-0.121	0.043
-205.406	-52.697	-0.103	-0.047
-204.392	-2.888	-0.138	-0.095
-203.377	-34.452	-0.190	-0.103
-202.363	-16.189	0.201	0.126
-201.348	-41.042	-0.100	0.051
-200.333	-105.235	-0.287	-0.065
-199.319	89.589	0.100	-0.111
-198.304	185.506	0.107	-0.157
-197.290	178.726	-0.068	0.099
-196.275	325.355	0.054	0.102
-195.260	-200.000	0.016	0.168
-194.246	-200.000	0.045	-0.234
-193.231	-85.846	0.146	0.045
-192.217	-118.294	0.131	0.023
-191.202	-118.679	-0.094	-0.016
-190.187	-104.304	-0.135	0.031
-189.173	31.190	-0.199	0.169
-188.158	-139.276	-0.105	0.011
-187.144	300.522	-0.155	0.283
-186.129	-200.000	0.002	0.038
-185.114	-147.131	0.176	-0.015
-184.100	-200.000	-0.018	-0.180
-183.085	403.708	-0.058	-0.121
-182.071	800.000	-0.050	0.148
-181.056	363.192	0.059	0.118
-180.042	-30.181	0.086	-0.048
-179.027	-200.000	0.029	0.245
-178.012	-107.849	0.172	0.037
-176.998	-57.712	0.164	-0.071
-175.983	347.549	-0.042	0.082
-174.969	61.261	-0.066	0.065
-173.954	-12.415	-0.288	0.186
-172.939	-35.903	-0.098	0.052
-171.925	58.374	-0.277	-0.268
-170.910	137.254	-0.176	-0.227
-169.896	-143.428	-0.195	-0.018
-168.881	-200.000	-0.012	-0.244
-167.866	-94.872	-0.142	0.038
-166.852	-200.000	0.061	0.343
-165.837	52.485	-0.314	-0.296
-164.823	-92.209	-0.080	0.022
-163.808	-43.212	0.124	0.062
-162.793	-15.810	0.330	-0.208
-161.779	255.651	-0.194	-0.329
-160.764	-200.000	-0.331	0.001
-159.750	-161.931	0.461	-0.023
-158.735	143.263	-0.191	-0.251
-157.720	-111.408	-0.100	0.020
-156.706	-200.000	-0.033	0.156
-155.691	-137.225	0.300	-0.034
-154.677	-200.000	-0.019	0.151
-153.662	-200.000	-0.002	0.076
-152.647	107.887	0.206	-0.242
-151.633	-67.091	-0.174	-0.068
-150.618	-174.713	-0.159	-0.004
-149.604	99.325	-0.059	0.068
-148.589	800.000	0.034	-0.138
-147.574	-82.642	0.088	0.028
-146.560	800.000	0.022	-0.064
-145.545	-90.108	-0.186	-0.054
-144.531	-99.081	-0.029	0.007
-143.516	27.126	0.280	-0.232
-142.502	333.450	-0.068	0.130
-141.487	-142.750	0.368	0.035
-140.472	-199.102	0.168	0.001
-139.458	62.330	-0.183	0.180
-138.443	210.966	0.015	0.023
-137.429	-105.158	0.383	0.086
-136.414	-79.027	0.366	-0.123
-135.399	-200.000	-0.011	0.087
-134.385	38.595	-0.078	0.069
-133.370	181.901	-0.148	0.215
-132.356	76.554	0.071	-0.075
-131.341	1.979	0.173	-0.123
-130.326	-200.000	0.016	-0.187
-129.312	16.915	0.242	0.189
-128.297	767.120	-0.122	0.327
-127.283	800.000	-0.086	0.239
-126.268	800.000	-0.031	-0.095
-125.253	800.000	-0.062	0.180
-124.239	-200.000	0.018	0.115
-123.224	-152.008	-0.094	0.007
-122.210	800.000	0.035	0.128
-121.195	659.878	0.076	0.194
-120.180	-98.820	-0.180	0.045
