DTS Sentinel unit serial number:	SN413079Multiplexer serial number:	ORYXHardware model number:	OX4-SRSoftware version number:	ORYX F/W v4.00 Oryx Data Collector v3.7.2.0data status	okinstallation	princeton_trtdifferential loss correction	single-endedforward channel	channel 3reverse channel	N/Adate	2019/09/17time	23:12:35forward acquisition time	60.00reverse acquisition time	0.00gamma	496.2192k internal	0.2344k external	0.2344temperature offset calibration	0.9949default loss term (dB/km)	0.3790temperature slope calibration	1.0000multiplexer offset coefficient	1.0000multiplexer slope coefficient	1.0000fibre end	0.00T internal ref (°C)	24.56T ext. ref 1 (°C)	0.17T ext. ref 2 (°C)	17.73length (m)	temperature (°C)	Stokes	anti-Stokes-747.200	-46.326	0.150	0.074
-746.185	-96.127	-0.100	-0.027
-745.171	800.000	0.018	0.054
-744.156	451.487	-0.177	0.390
-743.142	-152.511	-0.168	-0.012
-742.127	-85.701	-0.040	0.012
-741.112	-200.000	0.055	0.288
-740.098	401.350	-0.185	0.390
-739.083	-50.580	-0.248	-0.117
-738.069	681.177	0.095	0.247
-737.054	-125.507	-0.068	0.010
-736.039	-63.529	-0.249	-0.102
-735.025	-9.547	-0.187	-0.125
-734.010	79.288	-0.203	0.218
-732.996	800.000	-0.095	-0.332
-731.981	-82.481	-0.099	0.032
-730.966	222.452	-0.026	-0.042
-729.952	-27.115	0.158	0.092
-728.937	-195.276	-0.278	-0.002
-727.923	-112.887	0.095	0.019
-726.908	-104.268	0.054	0.013
-725.894	93.082	-0.038	-0.043
-724.879	201.375	-0.175	0.269
-723.864	133.145	0.149	-0.192
-722.850	746.980	-0.067	0.180
-721.835	361.977	-0.191	-0.382
-720.821	-7.309	-0.110	-0.075
-719.806	-69.217	-0.364	-0.140
-718.791	-22.501	0.234	-0.142
-717.777	185.017	0.117	-0.173
-716.762	-200.000	0.006	-0.082
-715.748	-170.016	-0.386	0.014
-714.733	632.255	-0.066	-0.167
-713.718	-200.000	-0.024	0.160
-712.704	-146.201	0.300	0.026
-711.689	-92.943	-0.212	0.059
-710.675	-81.510	-0.510	0.168
-709.660	81.629	-0.104	0.113
-708.645	122.317	0.193	0.240
-707.631	-106.082	0.140	0.031
-706.616	-167.846	0.147	-0.006
-705.602	87.354	0.045	-0.050
-704.587	-89.799	-0.201	-0.059
-703.572	-114.688	0.179	-0.034
-702.558	532.877	-0.052	-0.123
-701.543	79.087	0.127	-0.135
-700.529	131.675	0.121	-0.156
-699.514	-183.057	0.032	0.001
-698.499	181.255	0.239	0.351
-697.485	-78.238	0.176	-0.060
-696.470	28.545	-0.165	0.140
-695.456	-144.253	0.791	0.074
-694.441	-104.449	-0.428	-0.099
-693.426	50.012	-0.098	0.092
-692.412	-28.108	0.381	-0.220
-691.397	800.000	-0.034	-0.148
-690.383	140.978	0.124	0.164
-689.368	64.987	-0.161	-0.162
-688.354	-149.252	-0.136	-0.011
-687.339	797.809	-0.075	-0.207
-686.324	-86.619	0.166	-0.051
-685.310	479.464	0.047	0.106
-684.295	-115.790	-0.369	-0.069
-683.281	-13.346	-0.115	0.075
-682.266	336.384	-0.110	-0.213
-681.251	-2.389	-0.162	0.114
-680.237	800.000	-0.044	-0.186
-679.222	377.609	0.068	-0.139
-678.208	30.397	-0.122	-0.104
-677.193	800.000	-0.024	0.093
-676.178	216.496	0.230	-0.365
-675.164	106.385	0.207	0.245
-674.149	-111.302	-0.193	0.039
-673.135	195.628	-0.053	0.081
-672.120	319.397	-0.040	-0.075
-671.105	-200.000	0.055	0.341
-670.091	-19.902	0.072	0.044
-669.076	41.842	-0.130	-0.118
-668.062	783.116	0.034	-0.092
-667.047	800.000	0.086	-0.237
-666.032	541.309	-0.065	0.154
-665.018	-39.109	0.519	0.272
-664.003	-151.890	0.156	0.011
-662.989	-17.226	-0.203	0.127
-661.974	-200.000	-0.021	0.140
-660.959	206.907	0.156	-0.243
-659.945	49.557	0.349	0.328
-658.930	-115.182	0.176	-0.033
-657.916	-56.457	-0.424	-0.187
-656.901	116.772	0.193	-0.236
-655.886	800.000	-0.027	0.111
-654.872	-200.000	0.006	0.284
-653.857	-27.541	-0.262	-0.152
-652.843	-183.768	-0.185	-0.003
-651.828	-35.015	0.152	-0.083
-650.814	-11.314	0.263	-0.173
-649.799	29.187	0.051	0.043
-648.784	730.408	0.038	-0.101
-647.770	-43.913	0.345	-0.173
-646.755	-92.398	-0.626	0.176
-645.741	16.199	0.413	-0.325
-644.726	26.499	-0.317	0.264
-643.711	-200.000	-0.017	-0.245
-642.697	-90.316	-0.258	0.075
-641.682	800.000	0.027	-0.109
-640.668	-83.969	-0.082	0.026
-639.653	-18.350	-0.312	0.194
-638.638	4.830	-0.363	-0.266
-637.624	-44.087	0.464	-0.232
-636.609	-132.417	0.211	0.027
-635.595	23.447	-0.074	-0.061
-634.580	140.531	-0.115	-0.151
-633.565	-80.311	-0.215	0.071
-632.551	-34.468	0.291	0.159
-631.536	99.631	-0.131	-0.151
-630.522	467.204	0.049	-0.109
-629.507	136.747	-0.058	0.075
-628.492	26.237	0.287	-0.239
-627.478	-33.688	-0.353	-0.194
-626.463	-123.910	-0.233	-0.037
-625.449	-25.223	-0.158	0.093
-624.434	-81.192	-0.199	0.066
-623.419	-45.721	0.119	-0.058
-622.405	-80.550	-0.281	0.093
-621.390	-200.000	0.030	-0.185
-620.376	-200.000	-0.035	0.288
-619.361	-121.174	0.481	-0.080
-618.346	-137.526	-0.480	-0.054
-617.332	-200.000	0.042	0.438
-616.317	174.438	-0.157	-0.226
-615.303	-108.948	-0.126	0.027
-614.288	-144.900	0.088	-0.008
-613.273	-71.424	0.156	0.058
-612.259	89.518	-0.110	0.122
-611.244	46.082	-0.134	-0.124
-610.230	692.647	-0.029	0.076
-609.215	-137.141	0.304	-0.035
-608.201	-200.000	0.003	-0.192
-607.186	4.671	0.052	0.038
-606.171	87.152	0.151	-0.166
-605.157	321.858	-0.171	-0.324
-604.142	178.019	-0.177	0.257
-603.128	525.334	-0.084	-0.197
-602.113	-200.000	-0.043	-0.228
-601.098	-200.000	0.010	0.180
-600.084	-200.000	0.041	-0.231
-599.069	25.089	-0.171	-0.141
-598.055	-69.348	0.233	0.089
-597.040	-114.123	-0.205	0.039
-596.025	-200.000	0.022	0.177
-595.011	11.598	0.331	-0.252
-593.996	1.491	-0.116	-0.083
-592.982	269.768	0.096	-0.168
-591.967	125.237	-0.096	-0.121
-590.952	-61.000	-0.037	-0.016
-589.938	-88.379	-0.301	-0.090
-588.923	-76.090	0.189	-0.066
-587.909	-200.000	-0.010	-0.232
-586.894	-120.811	-0.052	-0.009
-585.879	-69.723	0.210	-0.080
-584.865	-63.045	-0.042	0.017
-583.850	-108.966	-0.148	-0.031
-582.836	178.213	-0.125	0.181
-581.821	-7.396	0.291	0.196
-580.806	-200.000	0.017	0.091
-579.792	-200.000	0.001	-0.351
-578.777	70.519	-0.048	0.049
-577.763	-168.916	0.342	-0.013
-576.748	150.735	0.070	0.095
-575.733	35.537	-0.058	-0.051
-574.719	-123.245	-0.318	0.051
-573.704	-81.549	-0.054	0.018
-572.690	592.354	-0.105	-0.258
-571.675	300.844	0.063	-0.116
-570.661	141.789	0.193	0.254
-569.646	-105.173	-0.142	-0.032
-568.631	477.100	-0.055	0.123
-567.617	127.411	-0.131	0.165
-566.602	345.249	-0.129	-0.252
-565.588	-104.730	0.253	0.058
-564.573	-200.000	-0.075	-0.365
-563.558	246.667	-0.071	0.119
-562.544	-19.882	0.096	-0.059
-561.529	-128.776	-0.104	-0.015
-560.515	-61.505	-0.150	-0.063
-559.500	-200.000	-0.009	-0.208
-558.485	800.000	-0.059	-0.182
-557.471	-94.903	-0.159	0.043
-556.456	-9.250	-0.092	0.061
-555.442	100.916	0.337	0.389
-554.427	77.572	-0.039	0.041
-553.412	213.386	0.205	0.322
-552.398	26.348	-0.089	-0.074
-551.383	31.161	-0.226	0.192
-550.369	245.041	0.214	0.358
-549.354	-200.000	0.297	-0.001
-548.339	150.807	0.246	0.333
-547.325	-2.822	0.051	0.035
-546.310	51.492	0.171	-0.162
-545.296	18.315	0.065	0.052
-544.281	-200.000	-0.039	0.242
-543.266	-70.098	0.201	0.076
-542.252	299.188	-0.078	0.142
-541.237	-63.012	-0.389	-0.160
-540.223	-96.631	-0.102	0.027
-539.208	1.160	0.119	0.085
-538.193	224.344	0.209	-0.336
-537.179	-43.612	0.150	0.075
-536.164	11.447	-0.191	-0.146
-535.150	20.108	-0.313	-0.250
-534.135	-136.664	-0.321	-0.037
-533.121	-200.000	0.015	0.211
-532.106	16.762	-0.118	-0.093
-531.091	-68.664	0.140	0.054
-530.077	-0.523	0.317	-0.223
-529.062	-126.730	-0.324	-0.047
-528.048	-200.000	-0.056	-0.299
-527.033	-200.000	-0.001	-0.197
-526.018	-64.180	-0.136	0.055
-525.004	28.977	-0.471	-0.396
-523.989	85.695	0.199	-0.217
-522.975	-62.503	-0.397	-0.164
-521.960	-123.037	-0.136	-0.022
-520.945	-73.309	-0.047	0.017
-519.931	6.862	0.088	0.065
-518.916	-56.793	0.303	-0.133
-517.902	90.181	0.138	-0.153
-516.887	800.000	0.017	-0.054
-515.872	-118.699	-0.410	0.072
-514.858	-200.000	0.033	0.306
-513.843	164.197	0.092	0.129
-512.829	-200.000	0.099	-0.000
-511.814	800.000	-0.006	-0.025
-510.799	-200.000	-0.114	-0.499
-509.785	157.305	-0.189	0.260
-508.770	-173.503	-0.174	-0.005
-507.756	-132.989	0.175	0.022
-506.741	800.000	-0.032	0.088
-505.726	800.000	-0.025	-0.075
-504.712	-88.068	0.081	-0.024
-503.697	-104.339	-0.150	0.035
-502.683	-200.000	0.013	0.309
-501.668	-200.000	-0.052	0.246
-500.653	80.115	-0.104	-0.111
-499.639	-130.537	0.041	0.005
-498.624	747.992	0.076	0.203
-497.610	-61.164	-0.353	-0.147
-496.595	-89.642	-0.211	0.061
-495.581	1.899	0.106	0.076
-494.566	-29.994	0.163	-0.092
-493.551	-152.895	-0.210	-0.015
-492.537	162.594	-0.049	-0.068
-491.522	167.287	0.074	-0.104
-490.508	-85.383	0.377	0.117
-489.493	405.959	-0.207	0.434
-488.478	12.517	0.134	0.103
-487.464	-200.000	-0.036	-0.170
-486.449	-200.000	0.003	-0.171
-485.435	-42.289	-0.263	-0.133
-484.420	-107.179	0.201	-0.044
-483.405	350.261	0.051	0.099
-482.391	239.401	-0.069	0.113
-481.376	36.380	0.268	-0.234
-480.362	-36.758	-0.152	-0.081
-479.347	-103.446	0.146	0.034
-478.332	-76.089	-0.394	-0.138
-477.318	557.066	0.026	-0.062
-476.303	-100.526	-0.251	0.061
-475.289	151.002	0.256	0.345
-474.274	-179.472	0.090	-0.002
-473.259	-146.417	-0.245	-0.021
-472.245	-39.713	-0.181	-0.094
-471.230	800.000	-0.051	-0.155
-470.216	78.319	0.173	0.182
-469.201	225.187	-0.054	-0.086
-468.186	-12.054	-0.333	-0.216
-467.172	-111.500	-0.109	-0.022
-466.157	15.629	0.378	-0.294
-465.143	514.522	0.173	0.401
-464.128	-135.017	0.384	0.046
-463.113	75.071	-0.172	-0.180
-462.099	-37.979	-0.205	-0.108
-461.084	430.745	0.061	-0.131
-460.070	297.432	-0.094	0.171
-459.055	-200.000	-0.006	0.134
-458.040	9.234	-0.134	0.100
-457.026	290.117	-0.193	0.346
-456.011	-20.004	-0.426	0.260
-454.997	215.603	-0.022	-0.035
-453.982	170.801	0.055	-0.077
-452.968	-200.000	0.040	-0.203
-451.953	-66.013	-0.083	-0.033
-450.938	-59.368	-0.098	0.042
-449.924	143.660	-0.074	-0.097
-448.909	388.944	0.097	-0.198
-447.895	58.691	0.149	0.145
-446.880	-126.934	-0.159	-0.023
-445.865	-70.407	0.312	-0.117
-444.851	800.000	0.022	-0.094
-443.836	-200.000	0.072	-0.326
-442.822	144.336	0.150	0.199
-441.807	-39.555	0.120	-0.062
-440.792	117.884	-0.130	-0.158
-439.778	-129.749	0.171	0.023
-438.763	800.000	0.019	0.065
-437.749	800.000	-0.100	-0.312
-436.734	800.000	0.079	-0.217
-435.719	266.860	-0.020	-0.035
-434.705	-200.000	-0.023	0.179
-433.690	13.530	-0.188	-0.145
-432.676	-200.000	-0.041	0.267
-431.661	-95.611	0.227	0.060
-430.646	-115.717	-0.030	-0.005
-429.632	-200.000	-0.013	0.133
-428.617	-13.868	-0.189	0.121
-427.603	800.000	0.067	-0.201
-426.588	673.469	0.077	0.197
-425.573	-200.000	0.002	0.027
-424.559	557.584	-0.070	0.167
-423.544	-59.515	0.244	-0.104
-422.530	-200.000	-0.001	-0.016
-421.515	4.929	0.270	0.196
-420.500	-2.294	0.148	0.103
-419.486	-179.026	0.234	-0.005
-418.471	800.000	0.063	-0.248
-417.457	241.499	0.171	-0.283
-416.442	7.683	-0.167	-0.124
-415.428	800.000	0.134	0.538
-414.413	-200.000	-0.013	0.186
-413.398	800.000	-0.061	0.210
-412.384	239.764	-0.070	0.115
-411.369	-46.555	0.189	0.091
-410.355	-122.602	-0.364	0.058
-409.340	343.878	-0.135	0.261
-408.325	533.054	-0.072	-0.168
-407.311	-36.078	-0.033	0.018
-406.296	307.613	0.110	0.202
-405.282	264.896	-0.076	0.130
-404.267	223.425	-0.207	0.330
-403.252	-186.389	-0.346	-0.005
-402.238	-26.969	0.133	-0.077
-401.223	-92.177	0.035	0.010
-400.209	14.809	0.193	-0.149
-399.194	-101.442	0.092	0.022
-398.179	-200.000	0.040	-0.334
-397.165	-29.826	-0.119	0.067
-396.150	178.633	0.240	-0.346
-395.136	-200.000	-0.012	0.112
-394.121	-151.789	-0.215	0.016
-393.106	-142.460	-0.159	-0.015
-392.092	800.000	-0.031	-0.099
-391.077	800.000	0.130	-0.499
-390.063	144.032	0.124	-0.163
-389.048	800.000	0.111	-0.378
-388.033	-21.473	-0.059	0.035
-387.019	215.385	-0.097	-0.151
-386.004	-82.200	0.148	-0.047
-384.990	72.381	-0.167	0.172
-383.975	225.261	0.010	-0.015
-382.960	-50.283	-0.287	-0.134
-381.946	-47.245	0.331	-0.159
-380.931	163.089	-0.072	-0.100
-379.917	69.399	0.323	0.328
-378.902	364.240	-0.130	-0.257
-377.888	800.000	0.026	0.080
-376.873	226.818	-0.098	0.156
-375.858	-128.140	0.347	0.049
-374.844	-58.867	0.095	-0.041
-373.829	160.171	-0.125	-0.171
-372.815	-200.000	0.004	0.159
-371.800	-74.747	0.254	-0.090
-370.785	-98.763	0.042	0.011
-369.771	-200.000	-0.003	-0.014
-368.756	-153.155	-0.221	-0.015
-367.742	-200.000	-0.077	0.359
-366.727	-50.349	0.103	0.048
-365.712	-69.988	0.053	-0.020
-364.698	81.924	0.110	0.118
-363.683	-200.000	0.007	0.182
-362.669	-99.160	0.172	-0.043
-361.654	-64.901	-0.228	0.091
-360.639	325.200	-0.145	0.274
-359.625	-48.450	0.331	-0.157
-358.610	-66.982	0.236	-0.092
-357.596	-200.000	0.047	-0.309
-356.581	374.932	-0.062	-0.125
-355.566	-200.000	-0.012	-0.167
-354.552	313.839	0.066	0.122
-353.537	24.001	0.231	-0.188
-352.523	250.882	0.178	-0.298
-351.508	-23.032	-0.378	0.225
-350.493	-200.000	-0.009	-0.071
-349.479	800.000	0.107	-0.302
-348.464	283.349	0.036	-0.064
-347.450	51.660	0.116	-0.108
-346.435	-173.351	-0.179	-0.005
-345.420	211.257	-0.042	-0.065
-344.406	-66.576	0.148	-0.058
-343.391	-40.569	0.475	0.243
-342.377	-30.655	0.211	0.118
-341.362	-52.681	-0.165	0.075
-340.348	800.000	-0.042	0.131
-339.333	-58.396	-0.184	-0.079
-338.318	-50.154	-0.248	-0.116
-337.304	800.000	-0.033	0.092
-336.289	-13.648	-0.124	0.079
-335.275	-200.000	-0.016	-0.081
-334.260	245.172	-0.106	0.175
-333.245	-200.000	0.006	0.124
-332.231	-61.122	-0.187	-0.078
-331.216	286.471	-0.032	-0.057
-330.202	-200.000	0.001	0.138
-329.187	-200.000	-0.054	-0.243
-328.172	-7.534	0.112	-0.074
-327.158	800.000	-0.053	0.225
-326.143	-125.401	0.381	0.057
-325.129	-77.812	-0.205	-0.070
-324.114	-78.798	-0.120	0.040
-323.099	-20.141	-0.319	-0.193
-322.085	11.706	-0.333	-0.252
-321.070	118.913	-0.080	-0.098
-320.056	-58.968	-0.134	0.057
-319.041	86.326	-0.219	-0.238
-318.026	165.958	0.160	0.223
-317.012	208.712	0.025	0.039
-315.997	479.191	-0.043	-0.096
-314.983	-200.000	0.017	-0.223
-313.968	800.000	0.027	0.103
-312.953	-200.000	-0.013	0.060
-311.939	61.992	0.205	0.201
-310.924	109.229	0.354	-0.417
-309.910	81.114	-0.136	-0.145
-308.895	762.061	-0.014	0.038
-307.880	-92.325	-0.323	-0.089
-306.866	453.309	0.203	0.442
-305.851	-200.000	0.018	-0.101
-304.837	-162.550	-0.220	0.011
-303.822	8.813	-0.026	0.019
-302.807	12.603	-0.231	0.176
-301.793	-88.633	-0.326	0.095
-300.778	462.827	0.117	0.257
-299.764	-89.320	-0.425	0.123
-298.749	-200.000	-0.001	-0.006
-297.735	-82.495	0.300	0.096
-296.720	-200.000	-0.035	0.194
-295.705	-36.479	0.324	0.171
-294.691	-1.076	0.056	0.039
-293.676	-200.000	-0.004	0.124
-292.662	166.937	0.130	0.181
-291.647	-68.804	0.245	0.093
-290.632	409.205	0.038	0.078
-289.618	120.392	-0.055	0.067
-288.603	41.471	0.069	0.061
-287.589	504.609	-0.104	0.237
-286.574	-145.966	-0.264	-0.023
-285.559	394.190	-0.094	0.193
-284.545	-200.000	0.032	-0.181
-283.530	-4.778	0.221	0.150
-282.516	-37.354	-0.252	0.132
-281.501	-109.054	0.226	0.047
-280.486	-99.814	-0.357	0.088
-279.472	-7.937	0.178	-0.118
-278.457	127.652	-0.210	-0.262
-277.443	-185.839	0.070	0.001
-276.428	643.258	-0.129	0.323
-275.413	-200.000	-0.007	-0.154
-274.399	133.419	-0.143	-0.181
-273.384	-200.000	0.020	0.221
-272.370	223.484	0.187	0.296
-271.355	-42.771	-0.148	0.074
-270.340	-167.726	-0.054	-0.002
-269.326	-3.447	0.122	0.083
-268.311	800.000	-0.072	0.269
-267.297	586.697	-0.067	0.162
-266.282	-200.000	0.000	0.151
-265.267	-99.389	0.311	-0.077
-264.253	-159.021	-0.637	0.035
-263.238	696.697	-0.045	-0.116
-262.224	-64.047	-0.314	0.126
-261.209	-79.127	0.128	0.043
-260.195	-95.898	-0.327	0.086
-259.180	-48.997	0.323	0.152
-258.165	180.380	0.192	0.276
-257.151	800.000	0.083	0.336
-256.136	648.630	0.042	-0.106
-255.122	165.284	0.140	-0.194
-254.107	-43.059	0.205	-0.102
-253.092	107.576	-0.143	-0.167
-252.078	149.807	0.227	0.302
-251.063	646.608	-0.032	-0.081
-250.049	800.000	0.078	0.300
-249.034	28.870	0.090	-0.075
-248.019	-200.000	0.008	0.170
-247.005	-170.900	0.295	0.010
-245.990	-22.013	-0.030	0.018
-244.976	-110.272	0.125	-0.026
-243.961	266.268	0.118	-0.202
-242.946	674.120	0.137	0.350
-241.932	-200.000	0.019	0.132
-240.917	39.421	0.090	-0.079
-239.903	154.011	-0.111	-0.149
-238.888	-79.829	0.362	0.120
-237.873	-200.000	0.045	-0.321
-236.859	-3.990	0.358	-0.243
-235.844	-29.075	0.184	-0.104
-234.830	16.259	0.127	-0.098
-233.815	-200.000	-0.005	0.359
-232.800	74.257	0.155	0.159
-231.786	-140.332	0.386	-0.040
-230.771	-117.037	0.243	0.043
-229.757	-200.000	0.015	0.164
-228.742	372.958	-0.058	-0.116
-227.727	-200.000	-0.018	-0.246
-226.713	-200.000	0.029	0.253
-225.698	-53.315	0.249	-0.112
-224.684	-90.172	0.159	-0.045
-223.669	-175.465	0.217	-0.006
-222.655	110.322	-0.179	-0.211
-221.640	21.226	0.336	0.268
-220.625	134.634	0.196	0.249
-219.611	-200.000	0.038	-0.214
-218.596	172.864	-0.062	-0.087
-217.582	-32.964	0.068	0.037
-216.567	-200.000	0.002	0.054
-215.552	-200.000	0.049	0.298
-214.538	800.000	0.055	0.196
-213.523	-82.158	0.058	0.019
-212.509	118.026	-0.097	-0.117
-211.494	-32.152	0.147	0.080
-210.479	777.373	-0.072	-0.193
-209.465	-200.000	-0.011	-0.150
-208.450	174.921	0.173	0.245
-207.436	271.240	0.193	-0.334
-206.421	800.000	-0.006	0.019
-205.406	-160.522	0.238	0.012
-204.392	15.449	-0.118	0.090
-203.377	95.393	0.052	0.058
-202.363	-71.426	-0.241	-0.089
-201.348	24.505	-0.089	-0.072
-200.333	-200.000	0.002	-0.074
-199.319	-200.000	0.020	-0.224
-198.304	204.138	0.119	-0.181
-197.290	747.260	-0.134	-0.355
-196.275	-92.228	-0.261	-0.072
-195.260	-3.583	-0.356	0.243
-194.246	249.837	-0.227	0.377
-193.231	140.281	0.103	-0.133
-192.217	4.124	0.183	-0.131
-191.202	171.848	-0.145	0.204
-190.187	73.207	0.022	0.023
-189.173	286.278	0.038	0.068
-188.158	498.299	-0.208	-0.470
-187.144	-200.000	-0.023	-0.105
-186.129	83.928	0.159	-0.170
-185.114	-200.000	0.031	0.180
-184.100	-63.469	0.147	-0.059
-183.085	24.947	-0.101	-0.082
-182.071	-52.020	-0.191	-0.087
-181.056	88.849	0.124	0.136
-180.042	-4.485	0.392	0.265
-179.027	42.262	0.317	0.282
-178.012	-145.248	-0.112	0.010
-176.998	459.070	-0.058	0.126
-175.983	800.000	-0.039	0.162
-174.969	191.461	0.123	-0.182
-173.954	11.844	0.195	-0.147
-172.939	-115.659	-0.335	0.062
-171.925	800.000	0.047	0.179
-170.910	-78.050	0.011	0.004
-169.896	-83.864	-0.238	-0.074
-168.881	4.389	-0.188	0.135
-167.866	800.000	-0.027	0.081
-166.852	100.138	0.070	0.080
-165.837	352.291	-0.042	-0.082
-164.823	155.601	0.177	-0.239
-163.808	-58.559	0.311	-0.132
-162.793	-200.000	0.055	0.308
-161.779	-28.517	0.067	-0.038
-160.764	-167.185	-0.396	0.016
-159.750	-119.608	0.273	-0.046
-158.735	-21.297	0.123	-0.074
-157.720	722.151	-0.069	0.179
-156.706	-9.700	0.399	0.260
-155.691	-116.885	-0.293	0.052
-154.677	-56.646	0.210	-0.091
-153.662	-200.000	-0.021	-0.312
-152.647	-191.408	-0.089	0.001
-151.633	-80.893	-0.259	0.084
-150.618	-97.329	-0.324	0.083
-149.604	-69.610	0.181	0.068
-148.589	-81.258	0.169	0.054
-147.574	103.979	0.103	0.118
-146.560	13.415	-0.118	0.089
-145.545	-126.568	-0.146	0.021
-144.531	800.000	0.085	0.253
-143.516	437.908	0.044	0.095
-142.502	-146.965	-0.073	-0.006
-141.487	-200.000	0.009	0.145
-140.472	-137.177	0.252	-0.028
-139.458	-24.709	-0.283	0.165
-138.443	73.190	-0.156	-0.159
-137.429	-72.752	-0.113	0.041
-136.414	-27.322	0.243	-0.138
-135.399	-200.000	-0.045	-0.213
-134.385	-58.016	0.287	-0.122
-133.370	580.724	-0.135	-0.323
-132.356	-200.000	-0.010	-0.163
-131.341	61.700	0.143	0.140
-130.326	96.692	-0.171	0.191
-129.312	529.829	0.133	-0.308
-128.297	95.350	-0.140	0.156
-127.283	300.246	-0.032	-0.057
-126.268	-111.663	0.197	0.039
-125.253	339.570	-0.105	0.200
-124.239	-33.829	-0.041	-0.022
-123.224	-141.845	0.285	-0.028
-122.210	318.669	0.036	-0.066
-121.195	106.163	-0.258	-0.298
