DTS Sentinel unit serial number:	SN413079Multiplexer serial number:	ORYXHardware model number:	OX4-SRSoftware version number:	ORYX F/W v4.00 Oryx Data Collector v3.7.2.0data status	okinstallation	princeton_trtdifferential loss correction	single-endedforward channel	channel 3reverse channel	N/Adate	2019/09/14time	02:52:34forward acquisition time	60.00reverse acquisition time	0.00gamma	496.2192k internal	0.2339k external	0.2339temperature offset calibration	1.0057default loss term (dB/km)	0.3790temperature slope calibration	1.0000multiplexer offset coefficient	1.0000multiplexer slope coefficient	1.0000fibre end	0.00T internal ref (°C)	26.56T ext. ref 1 (°C)	3.24T ext. ref 2 (°C)	21.63length (m)	temperature (°C)	Stokes	anti-Stokes-747.200	-129.425	0.219	-0.031
-746.185	-200.000	0.036	0.215
-745.171	-71.919	-0.150	-0.056
-744.156	-200.000	0.037	0.175
-743.142	791.982	0.042	-0.116
-742.127	800.000	0.032	0.108
-741.112	-36.423	0.111	-0.060
-740.098	-130.700	-0.285	-0.038
-739.083	297.436	0.040	-0.073
-738.069	50.435	-0.208	0.198
-737.054	-166.828	0.204	-0.008
-736.039	16.560	-0.467	-0.370
-735.025	-8.858	-0.260	0.175
-734.010	154.754	0.122	0.167
-732.996	-71.614	-0.296	0.111
-731.981	580.370	-0.065	0.160
-730.966	261.573	0.079	-0.137
-729.952	366.273	-0.090	-0.181
-728.937	800.000	0.015	-0.060
-727.923	-53.631	-0.269	-0.123
-726.908	-54.040	0.160	-0.073
-725.894	195.382	-0.239	0.363
-724.879	220.383	0.103	-0.166
-723.864	-69.160	-0.174	-0.067
-722.850	163.254	-0.116	-0.164
-721.835	-78.996	-0.285	-0.097
-720.821	87.396	0.182	-0.202
-719.806	-67.426	-0.302	0.119
-718.791	-118.573	0.230	0.041
-717.777	10.418	0.277	0.211
-716.762	-146.913	-0.060	-0.005
-715.748	71.308	0.179	-0.187
-714.733	155.019	0.125	0.172
-713.718	-85.734	-0.384	-0.119
-712.704	-93.765	0.030	-0.008
-711.689	-81.451	0.013	-0.004
-710.675	5.508	-0.355	0.263
-709.660	-74.724	0.125	0.045
-708.645	-176.656	-0.093	0.002
-707.631	117.601	0.075	0.092
-706.616	800.000	0.060	-0.167
-705.602	296.507	0.095	-0.175
-704.587	-200.000	0.026	0.214
-703.572	800.000	-0.026	0.086
-702.558	-123.310	0.296	0.047
-701.543	-29.476	0.233	0.133
-700.529	-102.742	-0.362	-0.086
-699.514	-78.127	0.077	0.027
-698.499	716.266	-0.062	0.164
-697.485	-200.000	0.008	0.066
-696.470	89.319	-0.191	-0.214
-695.456	248.135	0.076	-0.129
-694.441	-56.912	-0.282	-0.125
-693.426	174.993	-0.072	0.104
-692.412	-70.428	0.387	0.147
-691.397	454.248	-0.186	-0.413
-690.383	359.423	-0.102	-0.204
-689.368	197.347	-0.043	0.066
-688.354	-51.167	-0.372	0.174
-687.339	800.000	-0.063	0.195
-686.324	-71.180	-0.210	-0.079
-685.310	800.000	-0.089	0.377
-684.295	-84.591	0.162	0.051
-683.281	130.335	0.043	0.055
-682.266	-75.788	-0.241	0.086
-681.251	-83.094	-0.154	0.050
-680.237	104.136	-0.107	-0.126
-679.222	109.538	-0.158	0.189
-678.208	81.099	0.228	0.247
-677.193	-7.117	0.100	0.068
-676.178	-200.000	-0.011	-0.092
-675.164	-200.000	-0.018	-0.156
-674.149	37.891	-0.105	-0.093
-673.135	-113.132	0.191	-0.038
-672.120	111.322	-0.156	0.188
-671.105	50.084	-0.265	0.250
-670.091	-200.000	0.220	0.000
-669.076	-106.691	-0.358	-0.080
-668.062	-200.000	-0.017	-0.117
-667.047	-200.000	-0.015	-0.141
-666.032	-8.198	-0.205	-0.138
-665.018	5.931	-0.093	-0.069
-664.003	5.812	0.226	0.167
-662.989	77.477	-0.163	-0.173
-661.974	164.612	0.134	0.189
-660.959	44.578	-0.285	-0.262
-659.945	-200.000	-0.002	0.032
-658.930	72.047	-0.108	-0.112
-657.916	-88.119	0.232	-0.070
-656.901	-200.000	0.014	-0.148
-655.886	-13.795	-0.186	-0.120
-654.872	-100.722	-0.214	-0.053
-653.857	697.972	0.065	0.170
-652.843	-28.998	-0.141	0.081
-651.828	800.000	0.097	0.276
-650.814	-170.344	0.023	0.001
-649.799	-5.728	0.161	-0.110
-648.784	562.090	0.043	0.104
-647.770	-110.379	-0.263	0.055
-646.755	613.324	0.072	-0.179
-645.741	-94.286	-0.193	0.053
-644.726	-140.019	0.257	-0.027
-643.711	-60.464	0.222	0.094
-642.697	-200.000	-0.016	0.136
-641.682	-200.000	0.028	0.260
-640.668	-200.000	-0.087	-0.461
-639.653	-111.879	-0.428	0.086
-638.638	-167.155	-0.232	0.009
-637.624	-200.000	0.038	-0.372
-636.609	-111.798	0.133	-0.027
-635.595	328.498	0.126	0.241
-634.580	681.392	0.073	-0.190
-633.565	-62.461	0.196	-0.082
-632.551	-200.000	-0.064	-0.293
-631.536	93.618	0.068	-0.077
-630.522	-128.173	0.376	0.054
-629.507	-64.165	0.175	-0.071
-628.492	-75.820	-0.213	-0.075
-627.478	-38.536	0.175	0.092
-626.463	800.000	0.036	0.147
-625.449	0.909	0.186	-0.133
-624.434	-200.000	0.018	-0.102
-623.419	152.662	0.280	-0.381
-622.405	-38.490	-0.335	-0.177
-621.390	-200.000	-0.026	0.306
-620.376	-200.000	0.008	-0.156
-619.361	800.000	-0.055	0.191
-618.346	79.838	-0.105	0.112
-617.332	-41.327	-0.371	-0.191
-616.317	800.000	-0.054	-0.224
-615.303	249.299	0.196	-0.332
-614.288	-200.000	0.044	-0.203
-613.273	-88.965	0.183	-0.054
-612.259	-41.339	-0.402	0.206
-611.244	-158.743	0.049	0.003
-610.230	215.549	0.062	0.099
-609.215	-39.196	0.215	-0.113
-608.201	-200.000	-0.006	-0.136
-607.186	399.870	-0.018	-0.038
-606.171	800.000	-0.051	-0.143
-605.157	800.000	-0.021	0.072
-604.142	-18.168	-0.281	0.175
-603.128	-137.212	0.242	0.027
-602.113	-176.253	-0.457	0.012
-601.098	-200.000	-0.068	-0.516
-600.084	118.716	-0.120	0.148
-599.069	718.127	0.138	-0.365
-598.055	55.738	0.086	0.083
-597.040	-200.000	-0.003	-0.251
-596.025	-61.491	0.170	0.071
-595.011	800.000	-0.057	0.186
-593.996	-55.251	-0.319	0.143
-592.982	-119.864	0.125	0.021
-591.967	-169.637	0.231	0.008
-590.952	-200.000	0.048	-0.226
-589.938	-102.626	0.173	0.041
-588.923	-200.000	-0.003	0.106
-587.909	49.311	0.083	-0.078
-586.894	122.099	-0.103	0.129
-585.879	92.185	-0.043	-0.048
-584.865	-104.855	-0.279	0.064
-583.850	-200.000	-0.050	0.350
-582.836	-26.419	0.308	-0.180
-581.821	45.001	-0.133	-0.122
-580.806	227.541	0.153	-0.247
-579.792	-126.846	-0.114	-0.017
-578.777	74.589	0.220	-0.230
-577.763	-16.349	0.211	0.133
-576.748	-142.832	-0.308	0.030
-575.733	225.698	-0.205	-0.331
-574.719	16.911	-0.183	0.144
-573.704	10.269	-0.280	0.212
-572.690	358.217	0.156	0.309
-571.675	95.830	-0.337	-0.383
-570.661	402.233	-0.073	-0.153
-569.646	228.823	-0.097	0.158
-568.631	578.881	-0.083	-0.202
-567.617	800.000	0.118	-0.446
-566.602	-133.839	0.117	0.015
-565.588	-173.733	-0.178	-0.005
-564.573	-3.459	-0.138	-0.096
-563.558	89.999	-0.235	0.262
-562.544	-200.000	-0.066	0.312
-561.529	-120.587	0.292	-0.049
-560.515	-124.596	0.139	-0.021
-559.500	-200.000	-0.004	0.250
-558.485	-200.000	-0.035	-0.276
-557.471	-79.286	0.122	-0.041
-556.456	-4.978	0.072	-0.049
-555.442	-46.358	0.234	0.115
-554.427	91.427	0.062	0.069
-553.412	49.197	-0.223	-0.209
-552.398	77.670	0.242	-0.257
-551.383	32.921	0.105	-0.090
-550.369	131.565	-0.082	0.105
-549.354	-200.000	0.039	0.258
-548.339	-106.695	0.170	0.038
-547.325	-18.608	-0.315	-0.195
-546.310	-165.839	0.302	0.013
-545.296	-200.000	0.003	-0.203
-544.281	800.000	0.025	0.092
-543.266	20.806	-0.187	0.150
-542.252	42.752	-0.284	0.258
-541.237	130.370	0.135	-0.173
-540.223	800.000	-0.045	0.160
-539.208	763.659	0.080	-0.217
-538.193	-137.194	-0.267	-0.030
-537.179	-170.422	-0.037	-0.001
-536.164	-200.000	-0.021	-0.164
-535.150	-21.611	-0.058	0.035
-534.135	-179.655	-0.261	0.006
-533.121	-200.000	-0.042	-0.313
-532.106	130.623	0.067	-0.085
-531.091	-114.752	0.273	-0.052
-530.077	1.441	-0.150	-0.108
-529.062	-173.284	-0.144	0.004
-528.048	-23.467	-0.119	0.071
-527.033	0.244	-0.222	-0.158
-526.018	800.000	-0.041	0.164
-525.004	-24.368	-0.293	-0.174
-523.989	-115.228	-0.090	-0.017
-522.975	-14.940	0.201	-0.128
-521.960	84.410	0.133	0.144
-520.945	18.675	-0.088	0.070
-519.931	259.254	-0.171	-0.293
-518.916	3.853	-0.228	-0.166
-517.902	-200.000	0.034	-0.197
-516.887	-65.073	-0.106	0.043
-515.872	-200.000	-0.003	0.195
-514.858	-138.685	-0.186	-0.020
-513.843	216.942	-0.223	-0.352
-512.829	800.000	-0.050	-0.170
-511.814	114.300	-0.283	-0.343
-510.799	-87.107	0.156	0.047
-509.785	-200.000	0.021	0.190
-508.770	198.036	0.155	-0.235
-507.756	8.743	-0.179	0.134
-506.741	-91.797	-0.544	-0.154
-505.726	-95.233	-0.251	0.067
-504.712	-160.284	-0.118	-0.006
-503.697	-200.000	0.007	0.166
-502.683	-77.499	-0.157	0.054
-501.668	53.623	-0.085	-0.081
-500.653	-106.008	0.132	0.030
-499.639	205.422	0.290	0.448
-498.624	-200.000	0.047	0.255
-497.610	271.859	-0.107	-0.188
-496.595	71.664	0.114	-0.118
-495.581	-7.438	-0.147	0.099
-494.566	108.380	0.144	0.170
-493.551	-115.603	-0.658	0.123
-492.537	330.198	-0.058	0.110
-491.522	-200.000	0.055	0.255
-490.508	-13.805	0.175	0.112
-489.493	-51.249	-0.359	0.167
-488.478	287.239	0.117	0.209
-487.464	503.698	-0.048	0.109
-486.449	-115.408	-0.468	-0.088
-485.435	-164.359	-0.111	-0.005
-484.420	489.186	-0.091	0.207
-483.405	283.982	0.074	-0.132
-482.391	-33.615	0.282	0.155
-481.376	-200.000	0.014	0.415
-480.362	800.000	-0.052	-0.181
-479.347	800.000	-0.037	-0.106
-478.332	-0.552	0.420	-0.296
-477.318	800.000	0.050	-0.148
-476.303	800.000	-0.057	0.210
-475.289	-200.000	0.024	-0.234
-474.274	-200.000	-0.051	-0.256
-473.259	-129.052	-0.216	-0.030
-472.245	800.000	-0.055	-0.150
-471.230	-155.708	0.072	0.005
-470.216	-11.264	-0.179	-0.117
-469.201	-31.013	0.060	-0.033
-468.186	53.014	0.239	-0.227
-467.172	800.000	-0.058	0.173
-466.157	108.534	0.077	0.091
-465.143	102.551	-0.252	0.292
-464.128	-102.007	-0.166	0.040
-463.113	-200.000	0.034	-0.306
-462.099	-152.464	-0.601	-0.043
-461.084	-200.000	0.009	0.264
-460.070	-200.000	0.012	-0.182
-459.055	206.068	0.097	0.149
-458.040	98.102	0.114	0.130
-457.026	-47.200	0.267	-0.129
-456.011	-18.267	0.057	0.035
-454.997	464.383	-0.089	0.198
-453.982	-100.721	-0.066	-0.016
-452.968	499.610	0.074	-0.169
-451.953	-39.407	0.494	-0.257
-450.938	424.509	0.093	-0.199
-449.924	430.057	0.089	0.190
-448.909	-200.000	0.028	-0.274
-447.895	246.830	0.145	0.243
-446.880	-81.006	0.266	-0.087
-445.865	-200.000	0.076	0.372
-444.851	-200.000	-0.038	-0.352
-443.836	-41.073	0.293	-0.150
-442.822	20.034	-0.165	-0.132
-441.807	-47.901	-0.259	0.124
-440.792	-116.477	0.146	-0.027
-439.778	-145.810	0.174	-0.015
-438.763	-200.000	-0.007	0.053
-437.749	-8.567	-0.084	-0.056
-436.734	234.162	-0.005	-0.008
-435.719	101.615	0.086	-0.099
-434.705	44.030	-0.200	0.181
-433.690	404.447	-0.113	0.236
-432.676	800.000	-0.065	-0.234
-431.661	78.357	0.093	0.099
-430.646	160.836	0.161	0.222
-429.632	-31.926	-0.103	-0.057
-428.617	800.000	0.136	-0.547
-427.603	-200.000	-0.079	-0.000
-426.588	-167.549	0.173	0.007
-425.573	764.770	-0.073	0.197
-424.559	151.448	0.044	0.059
-423.544	-144.883	0.428	-0.039
-422.530	180.740	-0.202	0.294
-421.515	243.081	-0.164	0.272
-420.500	-103.108	0.077	0.018
-419.486	111.005	-0.240	0.287
-418.471	-153.132	0.118	0.008
-417.457	105.577	0.173	0.202
-416.442	-134.566	0.261	-0.032
-415.428	162.817	-0.144	-0.200
-414.413	-13.536	0.111	-0.071
-413.398	-200.000	0.010	-0.087
-412.384	800.000	-0.096	0.274
-411.369	-39.027	0.199	-0.104
-410.355	-200.000	-0.017	0.136
-409.340	-200.000	-0.054	-0.379
-408.325	-160.286	0.302	-0.016
-407.311	212.702	-0.053	-0.083
-406.296	-173.136	0.278	-0.008
-405.282	-94.912	-0.328	-0.088
-404.267	-74.898	0.367	0.130
-403.252	-122.298	0.198	-0.032
-402.238	162.238	-0.169	-0.235
-401.223	-129.444	0.282	-0.039
-400.209	68.661	-0.245	-0.249
-399.194	-97.042	-0.095	-0.025
-398.179	-200.000	0.060	-0.518
-397.165	-46.518	0.401	-0.195
-396.150	-178.432	0.225	-0.005
-395.136	-200.000	0.013	0.153
-394.121	-175.477	0.110	-0.003
-393.106	-42.702	0.113	0.057
-392.092	659.185	-0.152	0.387
-391.077	800.000	-0.127	-0.445
-390.063	298.428	0.209	0.380
-389.048	39.142	-0.250	0.221
-388.033	-141.796	0.138	0.014
-387.019	-27.062	0.343	-0.198
-386.004	546.271	-0.072	0.169
-384.990	112.005	0.178	0.212
-383.975	800.000	-0.031	0.098
-382.960	8.434	0.228	0.169
-381.946	-200.000	-0.002	-0.149
-380.931	-200.000	-0.015	0.502
-379.917	6.217	0.129	0.094
-378.902	-180.435	0.263	0.005
-377.888	-200.000	0.092	-0.433
-376.873	-200.000	-0.020	0.187
-375.858	-61.489	-0.134	-0.056
-374.844	-200.000	0.018	-0.315
-373.829	425.989	0.073	0.155
-372.815	451.254	0.051	0.111
-371.800	-152.449	0.401	0.028
-370.785	800.000	-0.102	-0.294
-369.771	-124.859	0.337	-0.051
-368.756	51.968	-0.033	0.031
-367.742	-65.114	-0.337	0.134
-366.727	166.844	0.069	0.097
-365.712	-135.466	-0.176	-0.021
-364.698	9.816	0.285	-0.214
-363.683	-20.974	-0.127	-0.077
-362.669	800.000	0.047	0.134
-361.654	-200.000	-0.005	-0.194
-360.639	96.002	0.219	0.248
-359.625	63.638	0.143	-0.142
-358.610	-52.701	-0.061	0.028
-357.596	51.757	0.076	-0.071
-356.581	-93.118	-0.465	0.128
-355.566	-111.502	0.260	0.052
-354.552	60.446	-0.262	0.256
-353.537	-96.484	-0.174	-0.046
-352.523	-115.771	0.265	0.049
-351.508	127.002	-0.158	0.198
-350.493	-200.000	0.018	-0.119
-349.479	27.486	0.040	-0.033
-348.464	211.340	0.111	0.172
-347.450	-91.528	0.320	0.090
-346.435	243.294	-0.115	0.191
-345.420	-118.699	0.062	0.011
-344.406	185.411	-0.224	0.329
-343.391	-145.990	-0.087	0.008
-342.377	-47.793	0.208	-0.100
-341.362	83.153	0.179	-0.193
-340.348	45.304	0.226	-0.206
-339.333	135.420	0.065	-0.083
-338.318	53.017	0.248	0.235
-337.304	-65.814	0.257	0.101
-336.289	-80.910	-0.318	-0.104
-335.275	-44.104	-0.123	0.061
-334.260	-200.000	-0.003	-0.215
-333.245	-67.843	-0.168	0.065
-332.231	10.651	-0.147	-0.110
-331.216	-200.000	-0.003	0.167
-330.202	-14.867	0.221	-0.140
-329.187	-151.011	-0.253	-0.019
-328.172	-49.887	-0.062	0.029
-327.158	-53.496	-0.146	-0.066
-326.143	625.728	0.077	0.192
-325.129	390.741	-0.091	0.187
-324.114	-74.269	0.155	-0.055
-323.099	181.816	-0.346	-0.503
-322.085	137.580	0.315	-0.407
-321.070	-47.218	-0.237	-0.114
-320.056	22.888	0.160	0.129
-319.041	29.479	0.318	-0.267
-318.026	-200.000	0.022	0.146
-317.012	-41.401	-0.360	-0.183
-315.997	-161.546	0.303	0.015
-314.983	308.552	0.042	-0.078
-313.968	376.103	0.049	-0.099
-312.953	46.158	0.121	0.110
-311.939	498.403	0.063	-0.144
-310.924	-34.551	0.060	-0.032
-309.910	509.145	-0.052	-0.119
-308.895	800.000	-0.034	0.115
-307.880	-105.014	0.163	-0.037
-306.866	-94.459	-0.259	0.070
-305.851	4.500	-0.167	0.121
-304.837	115.126	-0.264	0.318
-303.822	-93.909	-0.306	0.083
-302.807	416.901	-0.057	-0.120
-301.793	57.523	-0.051	-0.049
-300.778	31.972	-0.325	0.276
-299.764	44.513	-0.074	0.067
-298.749	177.247	-0.096	0.138
-297.735	-95.166	-0.198	0.053
-296.720	695.036	-0.042	-0.110
-295.705	84.012	0.052	-0.056
-294.691	80.914	-0.032	-0.034
-293.676	-134.406	0.119	-0.014
-292.662	-100.401	0.278	0.068
-291.647	-92.156	-0.136	-0.038
-290.632	199.779	0.199	0.300
-289.618	195.915	-0.119	-0.179
-288.603	250.857	0.099	0.166
-287.589	-52.161	0.308	0.141
-286.574	4.760	-0.145	-0.105
-285.559	-111.064	0.297	0.060
-284.545	254.272	-0.161	0.271
-283.530	22.519	0.222	-0.179
-282.516	800.000	-0.044	0.163
-281.501	-166.232	-0.176	0.007
-280.486	-71.739	-0.316	-0.116
-279.472	-200.000	-0.004	0.326
-278.457	89.010	-0.084	0.092
-277.443	800.000	-0.095	0.395
-276.428	-127.403	-0.045	0.006
-275.413	-113.850	-0.245	-0.047
-274.399	121.947	-0.232	0.285
-273.384	800.000	-0.063	0.215
-272.370	-59.783	0.150	-0.063
-271.355	800.000	0.071	0.211
-270.340	-200.000	-0.297	-0.001
-269.326	-88.889	0.150	0.044
-268.311	202.180	0.191	0.290
-267.297	-27.799	-0.493	-0.281
-266.282	-150.865	0.366	0.027
-265.267	29.077	-0.207	-0.173
-264.253	-96.013	0.288	0.075
-263.238	74.998	0.232	-0.240
-262.224	-82.991	-0.119	-0.038
-261.209	624.622	-0.034	0.085
-260.195	154.196	-0.105	-0.141
-259.180	281.092	-0.172	0.304
-258.165	-31.088	0.306	0.170
-257.151	-99.114	-0.282	0.070
-256.136	-200.000	0.036	0.192
-255.122	59.300	0.131	-0.127
-254.107	-57.569	-0.210	0.091
-253.092	-32.608	0.104	0.057
-252.078	147.118	-0.077	-0.102
-251.063	-200.000	0.004	0.119
-250.049	-200.000	0.008	-0.040
-249.034	69.988	-0.121	-0.123
-248.019	-165.296	0.037	-0.002
-247.005	518.606	0.069	0.159
-245.990	98.451	0.184	-0.209
-244.976	800.000	0.094	-0.344
-243.961	-112.710	0.355	0.069
-242.946	-46.765	0.486	0.234
-241.932	-157.561	-0.335	-0.020
-240.917	-39.857	-0.144	0.074
-239.903	300.358	0.107	-0.194
-238.888	25.764	-0.100	0.082
-237.873	-48.181	-0.186	0.088
-236.859	299.459	-0.138	-0.250
-235.844	141.192	0.256	0.332
-234.830	305.623	0.117	-0.214
-233.815	358.908	-0.063	-0.124
-232.800	-80.096	-0.107	0.035
-231.786	29.594	0.038	-0.032
-230.771	-64.751	0.177	0.071
-229.757	-200.000	0.036	0.225
-228.742	-200.000	0.020	0.162
-227.727	-25.026	0.429	0.250
-226.713	485.945	-0.127	0.285
-225.698	-107.318	-0.299	0.065
-224.684	-200.000	0.038	0.334
-223.669	-110.870	0.273	0.055
-222.655	194.424	0.030	-0.045
-221.640	60.487	-0.284	-0.276
-220.625	-99.105	0.196	-0.049
-219.611	246.978	0.098	-0.162
-218.596	485.733	-0.064	-0.143
-217.582	-115.059	-0.212	0.040
-216.567	256.070	-0.088	0.148
-215.552	7.881	-0.042	-0.031
-214.538	232.327	0.082	0.133
-213.523	-200.000	0.265	-0.001
-212.509	292.008	-0.058	0.103
-211.494	-101.108	0.131	0.032
-210.479	185.209	-0.038	-0.055
-209.465	25.173	-0.185	0.151
-208.450	104.064	0.326	0.377
-207.436	408.627	0.068	-0.140
-206.421	158.490	-0.141	0.192
-205.406	496.578	0.112	0.254
-204.392	-200.000	-0.027	-0.261
-203.377	769.402	-0.084	-0.224
-202.363	-78.036	-0.170	0.057
-201.348	-178.184	-0.224	-0.005
-200.333	-42.601	0.336	0.168
-199.319	-200.000	-0.011	-0.124
-198.304	241.659	-0.030	-0.049
-197.290	182.539	-0.179	-0.259
-196.275	800.000	0.077	-0.227
-195.260	800.000	-0.114	0.458
-194.246	60.798	-0.111	0.108
-193.231	-200.000	-0.001	-0.101
-192.217	-200.000	-0.064	0.437
-191.202	-143.645	0.191	-0.018
-190.187	148.995	-0.079	-0.105
-189.173	-49.366	-0.097	0.045
-188.158	-35.388	-0.184	-0.098
-187.144	800.000	-0.040	0.136
-186.129	-112.499	-0.205	0.040
-185.114	-146.528	0.266	-0.023
-184.100	-148.586	-0.185	-0.015
-183.085	-65.849	-0.137	0.054
-182.071	-54.186	0.260	0.116
-181.056	-152.825	-0.309	0.022
-180.042	-200.000	-0.029	0.249
-179.027	17.897	0.251	-0.196
-178.012	-109.457	0.229	0.048
-176.998	82.563	-0.013	-0.013
-175.983	39.095	0.016	0.014
-174.969	611.996	-0.050	-0.123
-173.954	-76.244	0.207	-0.071
-172.939	697.118	0.026	-0.067
-171.925	-98.737	-0.146	0.037
-170.910	-80.142	0.171	0.056
-169.896	-70.400	-0.092	-0.034
-168.881	-28.100	-0.087	0.049
-167.866	-73.013	-0.044	0.016
-166.852	800.000	-0.049	0.159
-165.837	-87.116	-0.079	0.024
-164.823	675.292	0.034	-0.086
-163.808	506.009	0.075	-0.171
-162.793	-84.142	-0.179	-0.056
-161.779	-156.072	0.192	0.012
-160.764	-200.000	-0.003	-0.169
-159.750	800.000	0.072	-0.217
-158.735	-99.920	0.151	-0.037
-157.720	7.310	0.295	-0.216
-156.706	155.941	0.176	0.238
-155.691	-74.980	-0.118	-0.041
-154.677	192.948	-0.228	0.338
-153.662	-96.633	0.411	-0.106
-152.647	-36.156	0.108	0.057
-151.633	-63.292	-0.175	-0.071
-150.618	-200.000	-0.014	0.108
-149.604	-200.000	0.005	0.043
-148.589	347.226	0.055	-0.107
-147.574	-56.672	0.240	0.104
-146.560	28.099	-0.266	-0.220
-145.545	342.093	-0.126	0.242
-144.531	43.021	0.304	-0.271
-143.516	344.474	-0.090	-0.172
-142.502	800.000	-0.137	-0.516
-141.487	143.203	0.073	0.095
-140.472	125.507	-0.122	0.150
-139.458	102.535	-0.099	-0.114
-138.443	-53.201	-0.066	-0.030
-137.429	163.420	-0.073	-0.100
-136.414	-58.077	0.188	-0.080
-135.399	327.977	-0.051	0.095
-134.385	800.000	0.078	-0.312
-133.370	800.000	0.058	-0.203
-132.356	194.795	-0.080	0.120
-131.341	-200.000	-0.026	0.150
-130.326	201.859	-0.090	-0.136
-129.312	-134.162	0.144	-0.017
-128.297	800.000	-0.081	-0.294
-127.283	87.717	0.103	0.111
-126.268	-200.000	0.001	-0.021
-125.253	800.000	-0.029	-0.079
-124.239	138.419	0.234	0.301
-123.224	-69.031	0.238	0.090
-122.210	116.704	0.120	0.144
-121.195	399.081	0.088	0.181
