DTS Sentinel unit serial number:	SN413079Multiplexer serial number:	ORYXHardware model number:	OX4-SRSoftware version number:	ORYX F/W v4.00 Oryx Data Collector v3.7.2.0data status	okinstallation	princeton_trtdifferential loss correction	single-endedforward channel	channel 3reverse channel	N/Adate	2019/09/11time	18:10:11forward acquisition time	60.00reverse acquisition time	0.00gamma	496.2192k internal	0.2286k external	0.2286temperature offset calibration	0.9998default loss term (dB/km)	0.3790temperature slope calibration	1.0000multiplexer offset coefficient	1.0000multiplexer slope coefficient	1.0000fibre end	0.00T internal ref (°C)	44.00T ext. ref 1 (°C)	1.17T ext. ref 2 (°C)	38.73length (m)	temperature (°C)	Stokes	anti-Stokes-747.200	7.030	-0.174	-0.133
-746.185	-200.000	-0.020	0.194
-745.171	590.320	0.104	0.264
-744.156	43.030	0.303	0.284
-743.142	260.531	-0.168	-0.298
-742.127	-200.000	0.033	0.343
-741.112	-27.976	-0.289	0.171
-740.098	-200.000	-0.042	0.307
-739.083	-200.000	-0.053	0.605
-738.069	-93.802	0.280	0.079
-737.054	58.535	-0.161	0.162
-736.039	100.361	-0.063	-0.075
-735.025	29.264	-0.102	0.089
-734.010	-34.803	-0.157	0.088
-732.996	-73.601	-0.081	0.030
-731.981	-56.208	-0.133	-0.061
-730.966	-200.000	0.018	-0.553
-729.952	96.478	0.246	-0.288
-728.937	-146.439	-0.187	-0.017
-727.923	-181.254	-0.093	-0.002
-726.908	-145.962	0.186	-0.017
-725.894	-200.000	-0.003	0.076
-724.879	709.901	0.075	0.203
-723.864	73.857	0.239	0.257
-722.850	-74.588	-0.239	0.088
-721.835	-79.440	-0.081	0.028
-720.821	206.972	0.138	-0.220
-719.806	-200.000	-0.025	0.286
-718.791	384.222	-0.091	-0.193
-717.777	-54.460	0.122	0.057
-716.762	-90.395	-0.314	-0.093
-715.748	217.860	-0.048	-0.078
-714.733	-70.640	-0.235	0.091
-713.718	-87.420	0.291	-0.090
-712.704	1.162	-0.247	0.181
-711.689	-200.000	-0.013	-0.221
-710.675	259.485	-0.046	0.081
-709.660	-139.086	0.146	-0.016
-708.645	-69.539	-0.113	-0.044
-707.631	75.502	-0.046	0.050
-706.616	800.000	-0.071	0.300
-705.602	160.148	-0.123	0.176
-704.587	256.859	0.129	-0.226
-703.572	-132.399	0.164	-0.022
-702.558	35.155	0.160	-0.144
-701.543	-200.000	-0.008	0.138
-700.529	-47.954	-0.041	0.020
-699.514	170.473	-0.064	0.094
-698.499	-126.670	0.113	-0.017
-697.485	800.000	0.113	-0.378
-696.470	-68.524	0.375	0.149
-695.456	-200.000	-0.369	-0.001
-694.441	-19.105	0.196	-0.124
-693.426	504.933	0.165	0.391
-692.412	-100.545	0.238	-0.060
-691.397	-89.481	-0.235	-0.071
-690.383	66.282	-0.131	-0.136
-689.368	-20.963	-0.113	-0.071
-688.354	-200.000	-0.041	-0.287
-687.339	289.774	-0.148	-0.275
-686.324	39.357	0.211	-0.193
-685.310	-75.596	0.226	0.082
-684.295	50.139	-0.251	-0.243
-683.281	496.673	-0.131	-0.309
-682.266	304.188	-0.075	-0.143
-681.251	134.346	-0.061	0.081
-680.237	427.756	-0.157	0.347
-679.222	467.005	0.071	-0.163
-678.208	16.311	-0.200	-0.161
-677.193	-75.011	0.066	-0.024
-676.178	-80.513	-0.048	0.016
-675.164	350.649	-0.066	0.133
-674.149	-93.604	0.220	0.062
-673.135	-110.320	0.200	-0.043
-672.120	435.430	0.018	-0.040
-671.105	-80.059	0.486	0.167
-670.091	56.897	0.338	0.337
-669.076	-81.222	-0.229	0.077
-668.062	-50.633	-0.102	-0.049
-667.047	-123.468	0.133	-0.022
-666.032	800.000	-0.080	0.226
-665.018	307.261	0.126	-0.240
-664.003	51.411	-0.155	-0.151
-662.989	-130.285	-0.133	0.018
-661.974	81.556	0.104	-0.115
-660.959	800.000	0.038	0.168
-659.945	115.467	0.098	0.122
-658.930	-6.097	-0.441	0.308
-657.916	-155.851	0.205	-0.013
-656.901	713.047	-0.055	0.148
-655.886	-73.772	-0.223	0.083
-654.872	-91.375	0.143	-0.042
-653.857	-75.939	-0.334	0.121
-652.843	167.863	-0.236	0.344
-651.828	229.319	0.098	-0.163
-650.814	-157.485	-0.171	-0.010
-649.799	78.916	-0.186	-0.204
-648.784	-142.576	-0.214	0.021
-647.770	416.774	0.115	-0.251
-646.755	538.129	-0.046	0.112
-645.741	47.351	-0.129	0.123
-644.726	-200.000	0.013	-0.107
-643.711	-101.303	-0.072	-0.018
-642.697	800.000	-0.039	-0.147
-641.682	-75.088	0.203	-0.074
-640.668	208.351	0.153	0.245
-639.653	-107.649	-0.090	-0.020
-638.638	747.359	0.117	0.322
-637.624	178.087	-0.110	0.165
-636.609	800.000	0.088	0.252
-635.595	59.075	0.076	0.076
-634.580	-37.330	0.178	0.097
-633.565	523.158	-0.058	-0.138
-632.551	187.812	-0.040	0.062
-631.536	-200.000	-0.002	-0.143
-630.522	285.599	-0.051	-0.095
-629.507	-34.864	0.238	-0.133
-628.492	-200.000	0.004	-0.347
-627.478	-200.000	0.005	-0.072
-626.463	322.546	-0.105	0.204
-625.449	-83.799	-0.133	-0.043
-624.434	-28.533	-0.303	-0.178
-623.419	20.379	-0.091	-0.075
-622.405	54.345	-0.264	0.260
-621.390	98.845	0.226	0.266
-620.376	-190.494	0.111	0.001
-619.361	254.943	-0.060	-0.104
-618.346	70.116	0.198	0.209
-617.332	416.915	-0.018	0.039
-616.317	-200.000	0.010	0.177
-615.303	800.000	0.023	-0.082
-614.288	-113.800	-0.130	0.026
-613.273	-43.678	0.129	-0.067
-612.259	-200.000	0.062	-0.325
-611.244	115.976	0.115	0.144
-610.230	-117.860	0.317	-0.058
-609.215	800.000	0.048	0.195
-608.201	-200.000	0.009	-0.159
-607.186	-200.000	-0.039	0.342
-606.171	800.000	0.032	-0.112
-605.157	-83.212	0.154	-0.050
-604.142	-102.119	0.173	-0.043
-603.128	39.585	0.225	-0.206
-602.113	296.586	-0.150	-0.280
-601.098	-172.008	-0.107	-0.004
-600.084	117.380	0.050	-0.063
-599.069	75.916	-0.148	0.159
-598.055	-200.000	-0.042	0.364
-597.040	800.000	-0.114	0.370
-596.025	556.152	-0.038	-0.093
-595.011	-200.000	0.005	-0.168
-593.996	-200.000	-0.034	-0.168
-592.982	-99.940	-0.344	0.088
-591.967	-102.792	-0.113	0.027
-590.952	-200.000	-0.002	0.116
-589.938	-200.000	-0.053	0.253
-588.923	140.107	0.050	0.068
-587.909	-25.037	-0.145	-0.088
-586.894	-54.248	0.108	-0.050
-585.879	-200.000	0.058	-0.293
-584.865	-188.133	0.101	-0.001
-583.850	-74.182	0.035	0.013
-582.836	800.000	-0.085	-0.253
-581.821	107.821	-0.164	0.199
-580.806	-178.027	-0.055	-0.001
-579.792	-70.957	0.135	-0.052
-578.777	478.658	-0.156	-0.359
-577.763	-200.000	0.006	-0.286
-576.748	-46.609	0.272	0.136
-575.733	-19.630	-0.130	-0.082
-574.719	629.637	-0.049	0.126
-573.704	-111.346	0.108	0.022
-572.690	800.000	-0.042	-0.158
-571.675	-66.382	-0.118	0.048
-570.661	-165.838	-0.196	-0.009
-569.646	-57.901	-0.109	0.049
-568.631	-16.615	0.053	-0.034
-567.617	800.000	-0.025	-0.080
-566.602	47.624	0.097	-0.093
-565.588	16.464	0.082	-0.066
-564.573	62.229	0.104	0.106
-563.558	-27.707	0.022	-0.013
-562.544	73.686	-0.086	-0.092
-561.529	-120.643	-0.213	-0.037
-560.515	800.000	0.021	-0.085
-559.500	-200.000	0.015	-0.365
-558.485	154.829	0.077	-0.107
-557.471	-200.000	0.004	-0.029
-556.456	-100.321	0.148	0.037
-555.442	356.956	0.066	-0.133
-554.427	40.027	0.111	0.101
-553.412	-138.486	0.293	0.033
-552.398	800.000	-0.055	-0.187
-551.383	-29.877	-0.174	0.101
-550.369	-77.860	-0.186	0.065
-549.354	-200.000	-0.047	-0.317
-548.339	-200.000	0.017	-0.428
-547.325	67.713	0.110	0.115
-546.310	94.721	-0.195	0.226
-545.296	-52.089	0.241	0.114
-544.281	271.807	0.120	0.216
-543.266	-122.805	-0.271	0.045
-542.252	-47.131	0.215	0.107
-541.237	134.059	0.231	-0.304
-540.223	-66.411	0.404	0.164
-539.208	-79.577	0.254	0.087
-538.193	-200.000	-0.013	-0.059
-537.179	242.261	-0.025	0.043
-536.164	26.186	-0.134	0.114
-535.150	139.489	-0.116	-0.155
-534.135	-200.000	0.002	-0.125
-533.121	167.635	0.176	-0.255
-532.106	-121.684	-0.082	-0.014
-531.091	485.697	-0.049	-0.113
-530.077	93.812	0.177	-0.204
-529.062	-124.043	0.393	-0.063
-528.048	-21.625	-0.045	0.028
-527.033	87.775	0.401	0.452
-526.018	-149.383	0.163	0.013
-525.004	-200.000	-0.027	0.149
-523.989	144.558	0.213	0.290
-522.975	134.806	-0.195	0.257
-521.960	-134.110	-0.209	0.026
-520.945	163.472	-0.033	-0.047
-519.931	-200.000	0.009	0.579
-518.916	800.000	0.099	0.285
-517.902	-200.000	-0.002	0.176
-516.887	-200.000	0.006	-0.049
-515.872	16.090	0.189	-0.151
-514.858	99.271	0.090	0.105
-513.843	-200.000	0.014	-0.348
-512.829	364.681	-0.056	0.114
-511.814	-18.139	-0.067	0.043
-510.799	23.972	-0.379	-0.318
-509.785	-105.345	0.088	-0.020
-508.770	-158.753	-0.126	0.007
-507.756	64.415	0.206	-0.211
-506.741	-152.898	0.288	-0.021
-505.726	376.511	-0.100	0.208
-504.712	281.103	0.050	-0.090
-503.697	-73.720	0.042	0.015
-502.683	-200.000	-0.006	-0.273
-501.668	-200.000	0.010	-0.141
-500.653	-200.000	0.020	0.263
-499.639	90.187	-0.051	0.057
-498.624	-200.000	0.000	-0.111
-497.610	-15.340	0.146	-0.095
-496.595	-200.000	-0.005	-0.177
-495.581	-88.105	0.217	0.066
-494.566	-155.401	0.136	0.009
-493.551	800.000	0.037	-0.107
-492.537	81.642	0.317	0.348
-491.522	-23.503	-0.095	-0.058
-490.508	800.000	0.058	0.189
-489.493	-15.863	0.154	0.100
-488.478	488.506	-0.118	0.274
-487.464	62.119	0.144	0.145
-486.449	266.851	-0.075	-0.134
-485.435	800.000	-0.064	0.185
-484.420	234.566	-0.264	-0.442
-483.405	-26.218	-0.210	-0.125
-482.391	-200.000	-0.030	-0.215
-481.376	-49.959	0.112	-0.054
-480.362	324.334	-0.094	0.182
-479.347	465.153	-0.077	0.175
-478.332	96.463	-0.128	0.148
-477.318	-43.041	0.107	-0.055
-476.303	207.495	0.108	-0.171
-475.289	800.000	-0.085	-0.347
-474.274	96.340	-0.044	-0.051
-473.259	-11.679	-0.153	-0.102
-472.245	87.745	-0.042	-0.047
-471.230	-96.795	-0.063	0.017
-470.216	800.000	-0.105	-0.394
-469.201	1.299	-0.079	-0.058
-468.186	800.000	0.088	-0.308
-467.172	-200.000	-0.067	0.509
-466.157	246.147	-0.112	0.192
-465.143	-38.199	-0.045	-0.024
-464.128	-200.000	-0.064	0.469
-463.113	113.547	-0.178	0.220
-462.099	205.648	0.092	-0.145
-461.084	800.000	-0.058	0.164
-460.070	-200.000	-0.001	-0.132
-459.055	-37.376	-0.114	-0.062
-458.040	88.753	0.285	-0.322
-457.026	800.000	0.081	0.294
-456.011	594.489	-0.106	0.267
-454.997	30.768	0.102	-0.089
-453.982	-200.000	-0.041	-0.234
-452.968	86.227	0.192	0.214
-451.953	-8.745	-0.258	0.176
-450.938	-83.775	0.201	0.065
-449.924	-145.506	-0.054	0.005
-448.909	589.788	0.098	-0.245
-447.895	-200.000	0.002	0.209
-446.880	-200.000	0.029	-0.230
-445.865	294.427	0.041	-0.076
-444.851	198.444	-0.041	0.063
-443.836	88.031	-0.186	0.209
-442.822	-7.448	0.192	-0.132
-441.807	-43.159	0.105	-0.054
-440.792	800.000	-0.071	-0.216
-439.778	19.806	-0.158	-0.129
-438.763	-41.060	-0.202	0.106
-437.749	20.684	-0.058	0.048
-436.734	48.420	-0.236	-0.224
-435.719	800.000	0.032	0.113
-434.705	-52.082	-0.351	-0.165
-433.690	-57.022	0.242	-0.108
-432.676	60.732	0.265	-0.266
-431.661	-200.000	-0.152	0.000
-430.646	800.000	-0.052	0.207
-429.632	-43.316	0.155	-0.079
-428.617	-100.596	0.137	-0.034
-427.603	-88.545	0.140	-0.042
-426.588	-67.108	0.188	0.075
-425.573	-113.128	0.247	-0.049
-424.559	-200.000	-0.067	-0.318
-423.544	-94.669	0.285	-0.078
-422.530	-67.329	0.372	0.148
-421.515	-37.823	0.136	0.073
-420.500	-200.000	-0.056	0.357
-419.486	227.884	-0.089	-0.146
-418.471	636.011	-0.056	-0.145
-417.457	-200.000	-0.015	0.152
-416.442	-8.457	0.179	0.122
-415.428	18.708	-0.090	-0.073
-414.413	-76.963	0.414	-0.147
-413.398	-101.282	-0.290	-0.072
-412.384	-200.000	0.029	-0.180
-411.369	-200.000	0.011	-0.206
-410.355	800.000	0.120	0.428
-409.340	-106.183	-0.114	0.026
-408.325	226.966	0.117	-0.193
-407.311	-200.000	0.011	-0.266
-406.296	-17.306	-0.112	0.071
-405.282	56.507	0.379	0.373
-404.267	708.226	-0.018	0.047
-403.252	-47.052	-0.284	-0.140
-402.238	-17.308	0.337	-0.215
-401.223	-75.901	-0.057	0.020
-400.209	-128.906	0.189	0.027
-399.194	441.478	0.081	-0.180
-398.179	232.409	-0.179	-0.297
-397.165	-106.844	0.266	-0.060
-396.150	262.204	0.173	0.303
-395.136	-15.148	-0.113	-0.073
-394.121	800.000	-0.086	0.355
-393.106	-129.554	-0.136	-0.019
-392.092	-8.105	0.136	-0.093
-391.077	-34.421	0.053	0.030
-390.063	-200.000	0.008	0.112
-389.048	23.192	-0.163	0.135
-388.033	352.691	-0.043	0.085
-387.019	800.000	-0.045	-0.195
-386.004	20.720	-0.031	0.025
-384.990	-48.417	-0.235	0.115
-383.975	800.000	0.037	0.115
-382.960	139.109	0.069	-0.092
-381.946	-95.139	0.203	-0.055
-380.931	59.565	-0.157	0.157
-379.917	253.797	-0.036	-0.062
-378.902	86.109	-0.315	0.351
-377.888	-60.169	-0.290	0.125
-376.873	12.866	-0.216	-0.169
-375.858	114.514	-0.103	0.127
-374.844	50.355	0.111	0.106
-373.829	-34.054	0.149	-0.083
-372.815	-34.717	0.173	0.096
-371.800	-139.639	-0.158	-0.017
-370.785	270.206	-0.127	-0.227
-369.771	-1.566	-0.204	-0.146
-368.756	-43.020	-0.275	-0.141
-367.742	29.151	-0.396	0.340
-366.727	-108.312	-0.427	-0.093
-365.712	-55.588	-0.157	-0.071
-364.698	-153.726	-0.323	0.022
-363.683	-127.120	-0.136	-0.020
-362.669	-200.000	-0.031	0.197
-361.654	-200.000	0.024	-0.237
-360.639	-148.087	0.168	-0.014
-359.625	800.000	-0.028	0.088
-358.610	-8.249	0.142	0.097
-357.596	703.441	0.118	0.313
-356.581	28.548	-0.176	0.150
-355.566	29.054	0.086	0.073
-354.552	-92.280	-0.474	0.135
-353.537	203.388	-0.198	0.310
-352.523	321.349	-0.041	0.078
-351.508	-200.000	0.016	-0.156
-350.493	142.087	-0.053	0.072
-349.479	800.000	0.049	0.189
-348.464	-126.780	0.293	0.044
-347.450	-26.856	-0.262	0.154
-346.435	206.278	-0.165	0.259
-345.420	-200.000	-0.039	-0.179
-344.406	296.090	0.100	0.185
-343.391	99.972	0.068	0.079
-342.377	-200.000	0.015	-0.106
-341.362	28.457	0.126	-0.108
-340.348	-200.000	-0.042	-0.215
-339.333	276.947	-0.138	-0.248
-338.318	-200.000	-0.001	0.237
-337.304	-21.829	-0.086	0.053
-336.289	-47.971	-0.105	0.052
-335.275	139.619	-0.121	-0.161
-334.260	308.924	0.118	0.222
-333.245	-13.658	0.163	-0.107
-332.231	76.590	0.179	0.191
-331.216	56.850	0.092	0.091
-330.202	-54.132	0.202	0.093
-329.187	419.185	-0.014	0.030
-328.172	800.000	-0.093	-0.398
-327.158	-6.884	0.094	-0.065
-326.143	-25.582	0.306	-0.183
-325.129	-200.000	-0.040	-0.179
-324.114	-143.851	-0.281	0.027
-323.099	238.958	-0.082	0.138
-322.085	255.228	0.134	-0.231
-321.070	-144.253	0.145	0.014
-320.056	-59.327	0.049	0.021
-319.041	420.229	0.106	-0.228
-318.026	-200.000	0.010	-0.046
-317.012	-200.000	-0.023	-0.129
-315.997	-68.670	-0.337	-0.132
-314.983	-107.947	-0.344	-0.076
-313.968	-159.254	-0.280	-0.016
-312.953	171.220	0.102	0.148
-311.939	182.895	-0.055	-0.081
-310.924	-200.000	0.026	0.205
-309.910	-114.209	-0.066	0.013
-308.895	23.156	-0.113	0.093
-307.880	-200.000	-0.153	0.000
-306.866	-103.366	-0.182	0.043
-305.851	-200.000	-0.024	0.338
-304.837	19.752	0.219	-0.178
-303.822	60.506	0.044	-0.044
-302.807	-120.296	0.131	-0.023
-301.793	-200.000	0.002	0.239
-300.778	-49.871	0.093	-0.044
-299.764	214.057	0.098	-0.156
-298.749	408.539	0.126	0.269
-297.735	-89.544	0.222	-0.066
-296.720	246.188	0.124	0.210
-295.705	-49.256	0.148	0.071
-294.691	100.148	0.226	-0.264
-293.676	-30.120	0.152	-0.087
-292.662	800.000	0.063	-0.216
-291.647	-200.000	0.092	-0.578
-290.632	-38.725	0.234	-0.124
-289.618	-200.000	-0.047	0.360
-288.603	-152.694	-0.155	-0.011
-287.589	800.000	-0.084	-0.305
-286.574	800.000	-0.041	-0.117
-285.559	800.000	0.052	-0.153
-284.545	-10.157	-0.174	0.117
-283.530	-157.797	-0.223	-0.013
-282.516	-109.359	-0.075	-0.016
-281.501	-100.575	0.558	-0.139
-280.486	-121.905	-0.148	0.024
-279.472	408.717	-0.062	-0.132
-278.457	83.916	-0.130	-0.143
-277.443	-165.392	-0.197	-0.009
-276.428	-200.000	0.009	0.090
-275.413	800.000	-0.093	0.362
-274.399	114.348	-0.216	0.265
-273.384	306.279	-0.112	0.209
-272.370	347.408	0.154	0.305
-271.355	172.395	-0.089	0.129
-270.340	343.508	0.088	0.175
-269.326	-36.895	0.143	0.077
-268.311	-200.000	0.042	-0.391
-267.297	-43.654	0.280	0.142
-266.282	537.400	-0.143	-0.342
-265.267	-200.000	0.046	0.272
-264.253	-24.523	0.123	-0.074
-263.238	221.733	0.112	-0.181
-262.224	-173.427	-0.136	-0.004
-261.209	-157.306	0.197	-0.012
-260.195	-10.712	-0.332	0.221
-259.180	-33.395	0.187	0.104
-258.165	39.238	0.028	-0.025
-257.151	-200.000	0.356	0.002
-256.136	800.000	0.057	-0.161
-255.122	142.515	-0.164	0.219
-254.107	800.000	0.044	0.175
-253.092	-115.449	0.444	0.084
-252.078	79.451	0.126	-0.136
-251.063	74.234	0.127	-0.134
-250.049	316.088	0.049	-0.092
-249.034	29.899	0.227	0.195
-248.019	200.645	-0.019	-0.029
-247.005	-146.489	-0.132	-0.012
-245.990	-72.957	0.128	0.047
-244.976	-83.395	0.186	0.060
-243.961	547.221	-0.106	-0.256
-242.946	500.225	-0.098	-0.227
-241.932	-133.531	-0.178	-0.022
-240.917	180.683	0.097	0.143
-239.903	-200.000	-0.048	-0.230
-238.888	36.370	0.178	-0.158
-237.873	-175.248	0.053	-0.001
-236.859	-53.449	-0.095	0.044
-235.844	-93.238	0.066	-0.018
-234.830	-108.723	0.143	0.031
-233.815	-178.077	-0.305	0.007
-232.800	800.000	0.050	-0.151
-231.786	86.220	0.017	-0.019
-230.771	119.872	-0.081	-0.101
-229.757	-33.943	-0.209	0.115
-228.742	-65.195	-0.327	-0.132
-227.727	206.188	-0.224	-0.351
-226.713	19.236	-0.425	0.343
-225.698	-69.934	0.015	0.006
-224.684	86.515	-0.059	-0.065
-223.669	397.410	0.035	-0.074
-222.655	10.778	-0.239	0.184
-221.640	-199.354	0.362	-0.002
-220.625	-124.779	-0.363	0.056
-219.611	-11.146	-0.178	0.118
-218.596	800.000	0.079	0.326
-217.582	92.242	-0.071	0.080
-216.567	-33.562	-0.371	-0.206
-215.552	11.440	-0.194	0.149
-214.538	132.587	-0.081	0.105
-213.523	217.719	0.167	0.267
-212.509	554.460	-0.045	-0.108
-211.494	121.443	-0.100	-0.126
-210.479	327.343	0.223	0.431
-209.465	6.236	-0.194	-0.145
-208.450	-200.000	-0.001	-0.111
-207.436	94.203	-0.183	0.209
-206.421	-46.324	-0.125	0.062
-205.406	-200.000	0.072	-0.360
-204.392	-171.923	-0.167	-0.005
-203.377	357.465	-0.062	-0.125
-202.363	-10.370	0.161	-0.108
-201.348	-80.161	0.125	0.042
-200.333	-67.741	0.491	-0.193
-199.319	-60.839	0.158	-0.067
-198.304	-161.377	-0.094	-0.005
-197.290	-2.339	-0.310	0.219
-196.275	-163.072	-0.290	-0.014
-195.260	-200.000	-0.020	-0.130
-194.246	-165.937	-0.030	-0.001
-193.231	-104.904	0.102	0.024
-192.217	-93.578	0.174	-0.048
-191.202	800.000	0.028	-0.078
-190.187	800.000	-0.053	0.150
-189.173	800.000	-0.055	-0.203
-188.158	800.000	0.071	0.246
-187.144	486.000	0.039	-0.090
-186.129	188.566	0.045	0.068
-185.114	-71.139	-0.214	0.081
-184.100	-200.000	-0.036	0.221
-183.085	-145.436	-0.251	0.023
-182.071	-145.825	-0.175	0.016
-181.056	-200.000	-0.017	0.104
-180.042	-200.000	-0.109	0.623
-179.027	-64.648	-0.339	0.138
-178.012	158.345	0.234	-0.326
-176.998	-200.000	-0.010	-0.335
-175.983	-35.090	0.211	-0.115
-174.969	55.741	0.110	-0.107
-173.954	-36.597	0.107	0.058
-172.939	471.600	-0.145	0.328
-171.925	-51.938	-0.196	-0.091
-170.910	257.184	-0.021	0.035
-169.896	-29.290	0.391	-0.225
-168.881	48.585	-0.218	-0.205
-167.866	-161.070	-0.214	-0.011
-166.852	286.294	0.162	0.293
-165.837	140.455	-0.152	-0.201
-164.823	100.269	-0.075	0.087
-163.808	-64.856	0.122	0.049
-162.793	-69.031	0.232	0.089
-161.779	-181.268	0.253	-0.005
-160.764	-35.411	0.359	0.196
-159.750	-200.000	-0.004	0.058
-158.735	789.157	0.063	0.175
-157.720	-176.499	0.231	0.006
-156.706	-87.610	0.152	-0.046
-155.691	28.062	-0.091	-0.077
-154.677	47.727	-0.092	-0.086
-153.662	-36.049	-0.196	-0.106
-152.647	-84.347	-0.092	-0.029
-151.633	-25.792	0.322	-0.190
-150.618	-200.000	-0.032	0.246
-149.604	-195.773	0.396	0.003
-148.589	-200.000	-0.081	-0.531
-147.574	203.232	-0.046	0.071
-146.560	56.478	-0.256	-0.250
-145.545	-200.000	-0.055	-0.420
-144.531	800.000	0.014	0.057
-143.516	-111.331	-0.136	-0.028
-142.502	1.950	-0.176	0.127
-141.487	-200.000	-0.017	0.081
-140.472	-200.000	-0.008	-0.088
-139.458	775.548	0.119	-0.326
-138.443	208.508	-0.135	-0.211
-137.429	800.000	-0.050	0.159
-136.414	-100.040	-0.049	0.012
-135.399	34.479	-0.108	-0.094
-134.385	800.000	-0.193	0.581
-133.370	800.000	-0.038	-0.125
-132.356	800.000	0.025	0.101
-131.341	-61.320	-0.254	0.107
-130.326	65.052	-0.204	0.206
-129.312	60.528	-0.123	0.122
-128.297	310.703	-0.106	-0.198
-127.283	123.316	-0.137	-0.172
-126.268	231.111	0.252	-0.414
-125.253	-2.744	0.144	-0.101
-124.239	-200.000	0.006	0.378
-123.224	13.546	0.262	0.203
-122.210	-112.432	0.414	0.083
