DTS Sentinel unit serial number:	SN413079Multiplexer serial number:	ORYXHardware model number:	OX4-SRSoftware version number:	ORYX F/W v4.00 Oryx Data Collector v3.7.2.0data status	okinstallation	princeton_trtdifferential loss correction	single-endedforward channel	channel 3reverse channel	N/Adate	2019/09/15time	22:56:35forward acquisition time	60.00reverse acquisition time	0.00gamma	496.2192k internal	0.2334k external	0.2334temperature offset calibration	0.9951default loss term (dB/km)	0.3790temperature slope calibration	1.0000multiplexer offset coefficient	1.0000multiplexer slope coefficient	1.0000fibre end	0.00T internal ref (°C)	28.64T ext. ref 1 (°C)	8.94T ext. ref 2 (°C)	22.22length (m)	temperature (°C)	Stokes	anti-Stokes-747.200	-144.339	0.418	0.039
-746.185	800.000	0.009	0.030
-745.171	-117.363	0.445	-0.081
-744.156	-36.581	-0.117	0.063
-743.142	568.940	-0.078	-0.190
-742.127	335.755	0.135	0.263
-741.112	47.453	-0.074	-0.069
-740.098	-32.839	-0.406	0.227
-739.083	105.223	0.113	0.134
-738.069	222.231	-0.264	0.428
-737.054	106.120	0.058	0.069
-736.039	-197.604	-0.192	-0.001
-735.025	215.042	-0.037	-0.060
-734.010	388.458	-0.090	0.188
-732.996	-76.114	-0.270	0.096
-731.981	-63.583	0.223	0.092
-730.966	514.015	-0.076	-0.178
-729.952	51.154	-0.300	0.286
-728.937	-121.442	0.136	-0.023
-727.923	117.324	-0.145	-0.179
-726.908	192.088	-0.032	0.048
-725.894	-52.089	0.120	-0.056
-724.879	-115.742	0.169	0.032
-723.864	-50.964	-0.519	0.245
-722.850	745.166	-0.111	-0.300
-721.835	-200.000	0.107	-0.000
-720.821	-102.484	0.258	-0.062
-719.806	-166.646	0.110	-0.005
-718.791	-84.067	0.147	0.047
-717.777	-90.632	-0.228	0.066
-716.762	-200.000	0.014	0.229
-715.748	-151.290	-0.228	0.017
-714.733	-79.611	-0.195	-0.066
-713.718	-50.293	-0.114	-0.054
-712.704	639.954	-0.056	-0.144
-711.689	-200.000	-0.008	-0.397
-710.675	462.394	0.208	-0.467
-709.660	-47.652	0.268	-0.130
-708.645	-25.536	0.323	0.192
-707.631	-200.000	0.022	-0.135
-706.616	-115.233	0.217	0.041
-705.602	416.869	0.080	-0.170
-704.587	179.535	-0.209	0.307
-703.572	-46.681	-0.326	0.160
-702.558	102.679	-0.160	-0.188
-701.543	-21.452	0.337	0.206
-700.529	-111.495	0.124	0.025
-699.514	800.000	0.080	-0.288
-698.499	-200.000	-0.011	0.177
-697.485	-100.467	0.099	0.025
-696.470	800.000	-0.016	0.045
-695.456	-91.075	-0.095	-0.027
-694.441	233.273	0.027	-0.045
-693.426	800.000	-0.073	-0.216
-692.412	111.532	-0.161	0.195
-691.397	-155.348	-0.144	0.009
-690.383	328.802	-0.075	0.144
-689.368	-52.230	-0.155	-0.072
-688.354	217.039	0.101	-0.161
-687.339	-6.728	0.111	0.076
-686.324	35.428	-0.133	0.117
-685.310	183.509	0.034	-0.050
-684.295	800.000	-0.113	-0.438
-683.281	-102.572	0.248	-0.059
-682.266	-12.258	0.068	-0.045
-681.251	-66.408	-0.089	0.036
-680.237	-75.074	-0.045	0.016
-679.222	382.768	0.080	0.165
-678.208	800.000	-0.028	0.108
-677.193	-24.912	-0.167	0.100
-676.178	261.954	-0.131	0.227
-675.164	257.469	0.068	-0.118
-674.149	10.842	0.177	-0.135
-673.135	241.592	0.113	-0.190
-672.120	17.006	0.123	-0.097
-671.105	450.514	-0.133	0.295
-670.091	-200.000	-0.009	0.121
-669.076	12.111	0.159	0.123
-668.062	14.893	-0.197	-0.155
-667.047	-111.919	0.229	0.046
-666.032	800.000	0.041	-0.152
-665.018	800.000	0.092	-0.327
-664.003	-200.000	0.050	-0.230
-662.989	54.289	-0.096	-0.092
-661.974	-164.912	-0.086	-0.004
-660.959	-200.000	0.057	-0.421
-659.945	373.444	-0.029	-0.059
-658.930	51.539	-0.111	0.106
-657.916	-81.684	-0.332	-0.109
-656.901	-20.349	0.248	0.153
-655.886	800.000	-0.048	-0.167
-654.872	-185.393	-0.029	0.000
-653.857	48.815	-0.151	-0.142
-652.843	-59.736	0.384	-0.165
-651.828	238.654	0.038	0.063
-650.814	800.000	0.039	-0.158
-649.799	-200.000	0.079	-0.353
-648.784	5.101	-0.105	-0.078
-647.770	13.085	0.058	-0.045
-646.755	-200.000	-0.045	-0.419
-645.741	-200.000	0.007	0.083
-644.726	47.709	0.214	0.200
-643.711	-121.622	0.361	-0.060
-642.697	754.030	-0.151	-0.408
-641.682	800.000	0.040	-0.171
-640.668	-111.156	0.140	0.029
-639.653	105.471	0.232	0.275
-638.638	160.261	-0.121	-0.169
-637.624	-63.295	-0.351	-0.145
-636.609	92.900	-0.430	-0.486
-635.595	44.080	-0.145	0.133
-634.580	252.435	0.033	0.057
-633.565	14.794	0.256	0.201
-632.551	193.471	0.068	0.104
-631.536	122.866	-0.119	-0.149
-630.522	88.322	-0.210	-0.233
-629.507	-20.288	0.151	-0.093
-628.492	432.695	-0.172	-0.373
-627.478	190.542	-0.081	-0.122
-626.463	-87.898	-0.211	-0.064
-625.449	-111.388	0.198	-0.040
-624.434	215.866	0.079	-0.126
-623.419	284.742	0.076	0.137
-622.405	800.000	-0.106	-0.343
-621.390	-200.000	-0.075	-0.379
-620.376	-200.000	0.008	0.147
-619.361	623.417	-0.145	-0.367
-618.346	-200.000	-0.025	-0.228
-617.332	85.405	0.265	-0.291
-616.317	-100.831	0.156	-0.038
-615.303	549.314	-0.133	-0.319
-614.288	48.892	-0.065	0.061
-613.273	278.144	0.034	-0.061
-612.259	-87.130	0.166	-0.050
-611.244	182.451	0.079	0.117
-610.230	-28.570	-0.172	0.099
-609.215	-96.249	-0.448	0.119
-608.201	-88.016	-0.181	-0.054
-607.186	-125.194	0.233	-0.036
-606.171	-100.739	0.137	0.034
-605.157	130.331	0.108	0.138
-604.142	411.580	-0.070	0.148
-603.128	-158.532	-0.054	0.003
-602.113	-84.072	-0.177	0.056
-601.098	39.982	0.128	0.115
-600.084	112.383	0.191	0.231
-599.069	800.000	0.053	-0.171
-598.055	348.341	-0.151	-0.297
-597.040	737.181	-0.150	0.403
-596.025	-162.185	0.098	-0.005
-595.011	-99.155	-0.343	0.087
-593.996	289.177	-0.136	0.247
-592.982	-34.849	-0.222	0.121
-591.967	64.128	-0.062	0.062
-590.952	-12.933	-0.380	0.247
-589.938	218.147	-0.087	-0.139
-588.923	-200.000	-0.051	-0.232
-587.909	-100.728	0.192	0.047
-586.894	47.671	0.188	0.175
-585.879	67.345	-0.056	-0.057
-584.865	447.210	0.064	-0.141
-583.850	45.176	-0.208	-0.191
-582.836	231.542	-0.150	-0.246
-581.821	-44.815	-0.512	-0.255
-580.806	800.000	0.126	-0.350
-579.792	800.000	-0.031	-0.135
-578.777	800.000	0.089	-0.265
-577.763	422.260	0.129	0.277
-576.748	-200.000	0.019	0.227
-575.733	117.875	0.186	0.228
-574.719	159.642	-0.034	-0.047
-573.704	-200.000	0.046	0.293
-572.690	-96.090	-0.141	-0.037
-571.675	-130.321	-0.130	-0.018
-570.661	-200.000	0.029	0.171
-569.646	38.857	-0.151	0.134
-568.631	387.825	-0.250	-0.517
-567.617	-184.672	-0.278	0.004
-566.602	800.000	-0.088	0.276
-565.588	8.840	-0.079	0.060
-564.573	-200.000	0.001	0.090
-563.558	-34.122	0.094	-0.052
-562.544	-16.539	0.240	-0.152
-561.529	11.038	0.095	0.072
-560.515	-80.534	0.361	-0.120
-559.500	-200.000	-0.035	-0.302
-558.485	-76.988	-0.200	0.070
-557.471	-135.606	0.327	-0.039
-556.456	143.242	0.119	0.158
-555.442	123.786	0.065	0.082
-554.427	367.359	-0.074	-0.150
-553.412	-135.830	-0.106	-0.012
-552.398	468.369	-0.161	0.360
-551.383	-81.370	0.146	-0.048
-550.369	-17.272	0.139	-0.087
-549.354	-200.000	-0.051	-0.296
-548.339	800.000	0.138	-0.381
-547.325	-200.000	-0.031	0.253
-546.310	254.234	-0.066	0.112
-545.296	-200.000	0.040	0.179
-544.281	101.158	-0.327	0.379
-543.266	275.032	-0.166	-0.294
-542.252	200.908	-0.073	0.111
-541.237	-48.588	-0.199	-0.095
-540.223	-28.258	0.290	-0.167
-539.208	0.812	-0.127	0.090
-538.193	-200.000	-0.061	0.396
-537.179	54.755	-0.238	-0.229
-536.164	104.316	0.069	-0.082
-535.150	192.522	-0.027	-0.040
-534.135	795.327	0.096	-0.264
-533.121	-128.362	-0.058	0.008
-532.106	77.625	-0.193	0.204
-531.091	253.729	0.049	0.084
-530.077	-69.452	-0.284	-0.109
-529.062	-105.908	-0.186	-0.042
-528.048	-57.655	0.110	0.048
-527.033	-145.042	-0.182	0.016
-526.018	23.992	-0.219	0.180
-525.004	160.067	-0.214	-0.297
-523.989	198.171	0.126	-0.192
-522.975	4.663	0.121	-0.089
-521.960	-85.973	0.250	-0.077
-520.945	-200.000	-0.018	-0.262
-519.931	-144.939	0.329	-0.030
-518.916	136.282	-0.211	0.275
-517.902	-0.500	0.280	-0.198
-516.887	-151.010	-0.307	-0.023
-515.872	-200.000	0.008	0.070
-514.858	650.165	0.155	-0.395
-513.843	70.277	-0.162	0.167
-512.829	800.000	-0.044	0.130
-511.814	800.000	-0.030	-0.104
-510.799	-200.000	-0.042	0.208
-509.785	-110.657	-0.172	-0.035
-508.770	-183.530	-0.458	-0.008
-507.756	-124.593	0.317	-0.049
-506.741	-156.702	0.210	-0.013
-505.726	293.879	-0.198	0.360
-504.712	-146.609	0.010	-0.001
-503.697	-153.366	0.323	-0.022
-502.683	48.316	-0.413	0.385
-501.668	-200.000	-0.036	-0.345
-500.653	220.478	-0.113	0.180
-499.639	-149.701	-0.222	0.017
-498.624	277.705	-0.140	-0.248
-497.610	-89.148	-0.215	0.063
-496.595	320.759	-0.087	0.165
-495.581	225.339	0.150	0.242
-494.566	85.630	0.101	-0.110
-493.551	-200.000	0.035	0.312
-492.537	-171.704	0.009	0.000
-491.522	800.000	-0.034	0.136
-490.508	127.629	0.232	0.294
-489.493	-101.283	-0.085	0.021
-488.478	-145.208	0.137	0.012
-487.464	598.317	0.027	0.066
-486.449	191.376	0.229	-0.344
-485.435	-94.256	0.315	0.086
-484.420	-200.000	0.020	0.121
-483.405	-68.651	-0.016	-0.006
-482.391	-67.928	0.123	0.048
-481.376	800.000	-0.026	0.105
-480.362	242.380	0.045	0.075
-479.347	-12.431	0.224	-0.146
-478.332	29.713	-0.204	-0.173
-477.318	146.610	-0.134	-0.180
-476.303	800.000	0.082	-0.318
-475.289	374.475	0.037	-0.074
-474.274	-200.000	-0.001	-0.190
-473.259	144.751	-0.189	-0.252
-472.245	45.548	0.234	0.215
-471.230	178.373	0.132	0.192
-470.216	97.782	0.094	-0.107
-469.201	32.786	-0.288	0.248
-468.186	-7.269	0.116	0.078
-467.172	-80.597	-0.170	-0.056
-466.157	-105.316	-0.304	0.069
-465.143	800.000	0.036	-0.102
-464.128	-200.000	0.033	0.198
-463.113	163.954	-0.088	-0.123
-462.099	-102.808	0.134	0.032
-461.084	-90.057	-0.125	-0.036
-460.070	62.491	0.094	-0.093
-459.055	-127.500	-0.439	0.063
-458.040	772.923	0.044	0.118
-457.026	-118.187	0.190	0.034
-456.011	-28.228	0.228	0.131
-454.997	-190.680	0.141	0.001
-453.982	-5.083	-0.178	0.122
-452.968	-200.000	-0.036	-0.270
-451.953	-36.617	-0.132	-0.071
-450.938	-52.777	-0.188	0.086
-449.924	-180.319	-0.114	0.002
-448.909	-142.325	-0.167	0.016
-447.895	-133.744	-0.277	0.034
-446.880	-33.237	-0.049	0.027
-445.865	-122.113	-0.224	-0.037
-444.851	-42.657	0.097	0.049
-443.836	-200.000	0.012	-0.307
-442.822	-25.155	0.187	-0.110
-441.807	-52.470	-0.265	-0.122
-440.792	-138.418	-0.095	0.010
-439.778	690.295	-0.091	0.237
-438.763	418.694	0.097	-0.206
-437.749	446.101	-0.058	-0.127
-436.734	-0.740	-0.221	0.156
-435.719	97.767	0.326	0.372
-434.705	-200.000	0.020	-0.103
-433.690	-18.616	-0.218	-0.135
-432.676	-200.000	-0.032	-0.175
-431.661	-108.833	0.427	0.091
-430.646	-200.000	-0.006	-0.225
-429.632	-92.893	-0.250	-0.069
-428.617	-107.588	0.146	-0.032
-427.603	305.594	0.170	0.314
-426.588	-88.118	-0.201	-0.060
-425.573	346.082	-0.280	0.547
-424.559	101.369	0.268	0.310
-423.544	-200.000	0.035	-0.314
-422.530	-200.000	0.023	-0.355
-421.515	23.738	-0.061	-0.050
-420.500	-17.353	-0.422	-0.264
-419.486	-110.780	0.186	-0.038
-418.471	-49.185	0.351	-0.167
-417.457	-18.962	-0.060	0.037
-416.442	-59.851	0.345	-0.146
-415.428	-200.000	-0.016	-0.268
-414.413	-200.000	0.039	-0.192
-413.398	-17.260	0.328	-0.205
-412.384	274.927	0.049	0.086
-411.369	35.366	-0.221	0.192
-410.355	458.237	-0.088	0.195
-409.340	-2.813	0.161	0.112
-408.325	403.438	-0.096	0.200
-407.311	-58.804	-0.244	-0.105
-406.296	-8.974	0.148	-0.098
-405.282	-164.077	-0.055	-0.003
-404.267	51.073	-0.104	-0.097
-403.252	-200.000	0.015	0.194
-402.238	-113.740	0.174	0.034
-401.223	75.321	0.060	-0.063
-400.209	-33.371	-0.236	0.130
-399.194	325.864	0.133	0.253
-398.179	8.747	-0.290	-0.216
-397.165	-114.206	0.190	-0.036
-396.150	65.183	0.131	-0.131
-395.136	95.926	-0.172	0.194
-394.121	15.341	-0.087	0.068
-393.106	-74.688	-0.182	-0.065
-392.092	33.915	-0.144	0.124
-391.077	-109.584	0.058	-0.012
-390.063	15.952	-0.170	0.133
-389.048	800.000	-0.108	-0.317
-388.033	232.394	-0.158	0.257
-387.019	4.522	-0.076	0.055
-386.004	-68.370	-0.687	-0.265
-384.990	-157.506	0.430	0.026
-383.975	800.000	0.055	-0.204
-382.960	-200.000	0.046	-0.273
-381.946	-81.109	-0.143	0.047
-380.931	-70.527	-0.419	0.157
-379.917	29.718	0.171	0.144
-378.902	-130.039	-0.220	0.030
-377.888	-160.003	0.338	0.018
-376.873	207.016	-0.060	0.092
-375.858	54.489	-0.133	-0.127
-374.844	55.029	0.226	0.217
-373.829	11.400	-0.176	-0.134
-372.815	-10.425	0.048	-0.031
-371.800	74.292	0.183	0.191
-370.785	257.629	0.098	0.167
-369.771	-136.811	0.183	0.021
-368.756	-19.473	0.147	0.090
-367.742	-153.391	0.049	-0.003
-366.727	-138.829	0.193	0.021
-365.712	11.639	-0.157	-0.119
-364.698	-75.279	0.260	-0.092
-363.683	-24.593	0.151	-0.089
-362.669	15.788	0.334	0.261
-361.654	0.717	0.036	0.026
-360.639	-12.622	0.102	-0.066
-359.625	52.895	0.101	-0.095
-358.610	340.647	0.070	-0.136
-357.596	195.118	0.153	-0.230
-356.581	-143.429	-0.229	-0.022
-355.566	800.000	0.142	-0.388
-354.552	130.829	-0.141	-0.179
-353.537	-116.135	-0.078	0.014
-352.523	75.776	-0.049	0.051
-351.508	399.477	-0.161	-0.334
-350.493	-172.771	-0.207	0.006
-349.479	-200.000	0.053	0.329
-348.464	198.533	0.071	-0.108
-347.450	544.413	-0.028	-0.066
-346.435	-143.988	0.073	-0.007
-345.420	26.365	0.050	0.042
-344.406	-200.000	-0.004	0.221
-343.391	-116.747	0.135	0.025
-342.377	-66.720	-0.158	0.062
-341.362	-35.257	0.140	0.075
-340.348	150.154	0.153	0.205
-339.333	-171.052	-0.155	0.005
-338.318	123.859	0.103	-0.128
-337.304	-12.296	0.084	0.054
-336.289	-17.960	-0.183	0.113
-335.275	-79.715	-0.130	0.043
-334.260	-80.116	0.231	0.076
-333.245	660.851	0.042	0.107
-332.231	-200.000	0.071	-0.369
-331.216	140.947	0.060	-0.079
-330.202	134.536	0.048	0.061
-329.187	-104.108	0.283	0.065
-328.172	9.693	-0.185	0.139
-327.158	225.079	-0.113	0.181
-326.143	114.534	-0.060	0.072
-325.129	41.772	-0.314	0.282
-324.114	41.450	-0.086	-0.077
-323.099	153.540	-0.116	0.158
-322.085	-53.798	0.152	-0.069
-321.070	800.000	0.096	0.362
-320.056	653.539	0.112	0.284
-319.041	-48.001	0.124	0.059
-318.026	-200.000	-0.005	0.129
-317.012	-200.000	-0.044	0.284
-315.997	-200.000	0.003	0.172
-314.983	1.820	0.203	0.145
-313.968	192.971	0.094	0.141
-312.953	-200.000	0.017	0.105
-311.939	-48.061	0.041	-0.020
-310.924	-110.711	0.170	0.035
-309.910	22.088	0.118	0.095
-308.895	-200.000	-0.014	0.246
-307.880	-75.415	0.078	0.028
-306.866	164.069	-0.085	0.118
-305.851	274.344	0.215	0.376
-304.837	522.705	-0.056	-0.129
-303.822	-200.000	0.016	0.130
-302.807	-200.000	-0.025	0.121
-301.793	-182.409	0.285	0.005
-300.778	289.084	-0.101	0.181
-299.764	800.000	-0.084	0.246
-298.749	5.240	-0.150	-0.109
-297.735	-200.000	-0.001	-0.331
-296.720	-159.693	-0.139	0.008
-295.705	69.994	0.237	0.242
-294.691	321.240	0.177	0.333
-293.676	-200.000	-0.017	0.095
-292.662	-161.062	-0.126	-0.007
-291.647	-200.000	-0.038	0.210
-290.632	670.513	-0.140	0.359
-289.618	188.373	-0.223	-0.329
-288.603	268.526	-0.148	-0.256
-287.589	-127.438	-0.343	-0.049
-286.574	-17.444	-0.148	-0.092
-285.559	-130.607	0.084	-0.011
-284.545	-30.259	-0.100	-0.056
-283.530	-200.000	0.009	0.226
-282.516	-131.428	0.149	0.019
-281.501	-171.267	-0.157	-0.005
-280.486	-94.925	0.172	-0.046
-279.472	-78.548	0.477	0.161
-278.457	485.558	-0.083	-0.186
-277.443	800.000	0.052	-0.209
-276.428	130.843	-0.163	-0.206
-275.413	-200.000	0.015	-0.078
-274.399	-154.713	0.229	0.015
-273.384	339.631	0.127	-0.244
-272.370	90.549	-0.223	-0.246
-271.355	-200.000	0.022	-0.372
-270.340	-200.000	-0.089	0.556
-269.326	447.187	0.033	-0.072
-268.311	295.095	-0.154	-0.278
-267.297	-200.000	-0.015	-0.109
-266.282	601.112	0.221	-0.540
-265.267	-0.670	0.181	0.126
-264.253	-90.771	-0.088	0.025
-263.238	66.198	0.156	0.157
-262.224	714.790	0.048	0.125
-261.209	-5.242	0.351	-0.238
-260.195	277.150	-0.024	0.042
-259.180	240.222	0.246	-0.404
-258.165	-200.000	-0.011	0.067
-257.151	219.623	-0.142	0.225
-256.136	-200.000	-0.115	0.596
-255.122	204.825	0.190	0.290
-254.107	-200.000	-0.007	-0.189
-253.092	800.000	0.067	0.254
-252.078	-52.679	0.100	0.046
-251.063	800.000	0.043	-0.135
-250.049	-75.342	0.213	0.075
-249.034	-200.000	-0.086	-0.533
-248.019	228.487	0.141	0.227
-247.005	46.139	-0.087	-0.079
-245.990	-106.484	0.285	-0.063
-244.976	-200.000	0.048	-0.219
-243.961	353.697	0.040	-0.079
-242.946	165.099	-0.079	0.109
-241.932	-69.322	0.231	-0.087
-240.917	-67.076	-0.046	-0.018
-239.903	800.000	0.041	0.154
-238.888	743.415	0.147	-0.389
-237.873	-200.000	-0.038	-0.212
-236.859	-45.722	0.205	-0.100
-235.844	19.172	0.064	0.050
-234.830	-191.132	0.219	0.002
-233.815	-133.053	0.415	-0.052
-232.800	-200.000	0.028	0.153
-231.786	-200.000	-0.019	-0.199
-230.771	-141.240	-0.278	0.028
-229.757	221.687	0.040	0.063
-228.742	-132.534	-0.286	0.036
-227.727	687.215	-0.132	0.340
-226.713	-193.525	0.578	0.005
-225.698	47.922	0.050	0.046
-224.684	-9.837	0.115	0.075
-223.669	-38.095	0.226	-0.118
-222.655	-109.925	0.165	-0.034
-221.640	373.304	-0.080	0.160
-220.625	141.905	0.011	0.014
-219.611	800.000	-0.113	-0.343
-218.596	-80.821	0.173	0.057
-217.582	-93.158	0.042	-0.011
-216.567	-25.016	-0.088	0.051
-215.552	-108.717	-0.240	0.051
-214.538	-113.324	-0.112	-0.022
-213.523	65.627	-0.061	0.061
-212.509	154.697	0.181	-0.245
-211.494	-155.903	-0.099	-0.006
-210.479	20.569	0.185	0.147
-209.465	295.253	-0.075	-0.136
-208.450	740.938	0.143	0.378
-207.436	-77.490	0.167	0.057
-206.421	231.663	-0.062	-0.101
-205.406	-138.488	0.416	0.045
-204.392	203.245	-0.095	0.144
-203.377	-96.601	0.073	0.019
-202.363	342.176	-0.122	0.235
-201.348	-163.569	-0.192	0.009
-200.333	97.723	0.056	0.064
-199.319	-22.634	0.382	0.227
-198.304	-115.902	0.264	-0.048
-197.290	150.900	0.126	-0.168
-196.275	-113.639	-0.116	-0.022
-195.260	387.586	-0.101	-0.206
-194.246	-200.000	-0.019	-0.156
-193.231	212.832	-0.121	-0.188
-192.217	45.106	0.091	0.083
-191.202	-59.768	-0.152	0.064
-190.187	-123.852	-0.062	0.010
-189.173	47.839	-0.145	-0.133
-188.158	-200.000	-0.108	0.472
-187.144	-60.406	0.198	0.083
-186.129	-200.000	0.051	-0.324
-185.114	-200.000	-0.059	0.502
-184.100	-22.650	0.256	0.152
-183.085	800.000	-0.068	-0.223
-182.071	800.000	-0.089	0.293
-181.056	57.310	-0.267	0.257
-180.042	-46.474	0.134	0.065
-179.027	352.543	-0.066	0.128
-178.012	-103.831	-0.262	0.060
-176.998	-54.085	-0.126	-0.056
-175.983	104.854	-0.109	-0.127
-174.969	124.508	0.091	-0.113
-173.954	136.909	-0.084	0.108
-172.939	-85.926	0.439	0.134
-171.925	-15.784	0.166	0.104
-170.910	72.682	-0.131	-0.134
-169.896	128.584	-0.148	-0.185
-168.881	221.669	-0.102	-0.162
-167.866	-200.000	0.024	-0.138
-166.852	214.267	0.182	0.283
-165.837	800.000	-0.069	-0.295
-164.823	14.752	0.174	0.134
-163.808	29.485	-0.095	0.080
-162.793	-44.752	0.069	-0.034
-161.779	-200.000	-0.075	-0.410
-160.764	102.349	-0.083	0.095
-159.750	-200.000	0.047	0.244
-158.735	-200.000	-0.012	0.234
-157.720	-200.000	-0.028	0.300
-156.706	-81.755	0.326	-0.105
-155.691	-111.896	0.133	0.026
-154.677	-134.977	-0.335	-0.040
-153.662	-86.613	-0.058	0.017
-152.647	-172.968	-0.107	-0.003
-151.633	37.551	0.316	0.275
-150.618	-69.108	-0.304	-0.115
-149.604	517.921	-0.097	-0.224
-148.589	4.326	0.116	-0.083
-147.574	-200.000	-0.022	-0.230
-146.560	-44.458	0.074	0.037
-145.545	-79.140	-0.209	-0.070
-144.531	-43.041	-0.112	0.056
-143.516	-152.213	0.349	-0.025
-142.502	45.459	0.209	0.189
-141.487	-200.000	-0.166	-0.001
-140.472	-182.779	0.143	0.003
-139.458	250.734	-0.101	-0.168
-138.443	-56.461	0.525	-0.229
-137.429	129.494	-0.195	0.245
-136.414	157.875	0.154	-0.209
-135.399	-86.080	0.115	-0.035
-134.385	18.613	-0.169	0.133
-133.370	800.000	-0.061	0.207
-132.356	27.896	0.146	0.121
-131.341	-151.148	0.081	0.006
-130.326	-200.000	0.037	0.317
-129.312	-107.394	0.009	-0.002
-128.297	-76.615	0.219	0.075
-127.283	503.507	0.083	-0.189
-126.268	-112.224	0.175	-0.034
-125.253	-130.804	0.194	-0.026
-124.239	-17.569	-0.193	0.119
-123.224	-95.275	0.294	0.078
-122.210	-200.000	0.014	-0.124
-121.195	-200.000	-0.052	-0.273
