DTS Sentinel unit serial number:	SN413079Multiplexer serial number:	ORYXHardware model number:	OX4-SRSoftware version number:	ORYX F/W v4.00 Oryx Data Collector v3.7.2.0data status	okinstallation	princeton_trtdifferential loss correction	single-endedforward channel	channel 3reverse channel	N/Adate	2019/09/18time	17:48:35forward acquisition time	60.00reverse acquisition time	0.00gamma	496.2192k internal	0.2292k external	0.2292temperature offset calibration	1.0001default loss term (dB/km)	0.3790temperature slope calibration	1.0000multiplexer offset coefficient	1.0000multiplexer slope coefficient	1.0000fibre end	0.00T internal ref (°C)	40.25T ext. ref 1 (°C)	0.91T ext. ref 2 (°C)	32.78length (m)	temperature (°C)	Stokes	anti-Stokes-747.200	-141.139	-0.110	-0.012
-746.185	208.971	-0.131	0.210
-745.171	-59.053	0.177	0.078
-744.156	74.281	0.108	0.116
-743.142	203.629	0.032	-0.051
-742.127	-200.000	-0.038	0.251
-741.112	-94.360	-0.242	0.068
-740.098	481.397	0.231	0.536
-739.083	319.661	-0.045	-0.088
-738.069	520.498	-0.045	0.108
-737.054	-146.020	-0.352	-0.032
-736.039	-200.000	-0.031	0.187
-735.025	151.496	0.184	0.256
-734.010	64.861	-0.046	-0.048
-732.996	-200.000	-0.022	-0.403
-731.981	-31.057	-0.256	0.148
-730.966	21.619	0.098	-0.082
-729.952	-166.992	-0.037	0.002
-728.937	-200.000	0.000	0.087
-727.923	357.742	-0.064	-0.131
-726.908	131.771	-0.072	-0.094
-725.894	-122.415	-0.394	-0.066
-724.879	71.673	0.095	0.101
-723.864	617.067	-0.117	-0.299
-722.850	-167.220	-0.586	-0.024
-721.835	-9.533	-0.142	0.097
-720.821	513.043	0.135	-0.321
-719.806	62.033	-0.198	0.202
-718.791	-121.637	-0.243	0.041
-717.777	-200.000	0.074	0.535
-716.762	-51.615	0.252	0.120
-715.748	5.500	0.097	-0.073
-714.733	-7.627	0.274	-0.190
-713.718	794.164	0.025	0.070
-712.704	3.590	0.333	0.248
-711.689	-39.830	0.166	0.089
-710.675	747.322	-0.034	0.094
-709.660	-76.154	0.096	-0.035
-708.645	380.682	-0.052	0.109
-707.631	276.926	0.197	-0.359
-706.616	-200.000	-0.028	-0.165
-705.602	-50.193	0.072	0.035
-704.587	-50.672	0.167	-0.080
-703.572	-72.871	-0.280	0.105
-702.558	-200.000	-0.031	-0.219
-701.543	-60.823	-0.224	-0.097
-700.529	207.085	-0.256	0.408
-699.514	-30.185	-0.193	0.112
-698.499	-200.000	-0.035	-0.159
-697.485	-1.568	-0.225	-0.162
-696.470	-200.000	0.005	0.114
-695.456	103.516	0.065	-0.078
-694.441	-89.148	0.231	-0.070
-693.426	-39.206	0.290	0.156
-692.412	800.000	0.051	-0.155
-691.397	-160.038	0.321	-0.018
-690.383	139.466	-0.051	0.069
-689.368	285.106	-0.125	0.231
-688.354	32.149	-0.141	0.124
-687.339	-147.774	0.251	-0.021
-686.324	-35.545	-0.197	-0.109
-685.310	-200.000	-0.062	-0.355
-684.295	390.150	0.111	0.235
-683.281	59.096	0.025	0.025
-682.266	196.061	-0.113	0.175
-681.251	-123.235	-0.425	-0.069
-680.237	231.696	0.135	-0.226
-679.222	140.239	-0.110	-0.149
-678.208	5.520	-0.025	0.019
-677.193	-45.378	-0.348	-0.176
-676.178	-78.347	-0.154	0.054
-675.164	739.876	-0.043	-0.118
-674.149	166.063	-0.066	-0.096
-673.135	-22.393	0.128	-0.079
-672.120	168.297	-0.170	-0.247
-671.105	23.813	-0.170	-0.143
-670.091	-43.786	0.127	-0.065
-669.076	32.535	0.079	0.070
-668.062	-200.000	-0.008	-0.088
-667.047	52.268	0.178	0.173
-666.032	-200.000	-0.082	0.397
-665.018	112.139	-0.112	0.138
-664.003	-73.406	0.222	-0.083
-662.989	239.927	-0.035	0.059
-661.974	239.910	-0.177	-0.300
-660.959	-138.171	0.216	0.024
-659.945	-200.000	-0.011	-0.228
-658.930	-137.131	0.262	-0.031
-657.916	-121.819	0.360	0.061
-656.901	39.857	0.317	0.290
-655.886	-200.000	0.029	0.136
-654.872	-77.897	0.097	0.034
-653.857	-92.499	0.368	-0.105
-652.843	-89.758	0.220	0.066
-651.828	-26.360	0.098	0.059
-650.814	453.312	-0.069	-0.156
-649.799	152.906	-0.180	-0.251
-648.784	-200.000	-0.014	0.094
-647.770	-83.504	-0.052	0.017
-646.755	-199.355	-0.349	-0.002
-645.741	-64.564	0.446	0.184
-644.726	30.924	-0.094	-0.082
-643.711	-35.208	0.233	0.129
-642.697	-159.684	-0.070	-0.004
-641.682	-149.545	0.095	-0.008
-640.668	234.705	-0.081	-0.136
-639.653	87.972	-0.070	0.079
-638.638	82.695	0.115	-0.127
-637.624	-200.000	-0.045	-0.216
-636.609	351.972	0.180	0.363
-635.595	146.619	0.152	-0.208
-634.580	-200.000	0.008	0.300
-633.565	38.640	-0.077	0.070
-632.551	-17.447	-0.136	0.087
-631.536	-106.665	0.225	0.051
-630.522	-117.458	-0.088	0.016
-629.507	180.901	0.248	-0.371
-628.492	800.000	0.035	-0.138
-627.478	-95.546	-0.236	0.064
-626.463	800.000	0.037	0.115
-625.449	-176.327	-0.371	0.010
-624.434	22.251	0.224	-0.186
-623.419	-200.000	-0.017	-0.335
-622.405	-200.000	-0.013	-0.168
-621.390	-200.000	-0.076	0.510
-620.376	54.044	0.247	0.242
-619.361	-116.532	0.291	0.055
-618.346	235.285	-0.109	0.184
-617.332	662.868	-0.073	-0.190
-616.317	-146.390	-0.126	-0.011
-615.303	-200.000	0.044	0.362
-614.288	-200.000	0.011	-0.068
-613.273	-38.387	-0.233	0.125
-612.259	143.751	0.110	0.150
-611.244	-1.756	-0.169	-0.121
-610.230	-112.949	-0.251	0.051
-609.215	-61.201	0.168	-0.072
-608.201	283.281	-0.078	-0.143
-607.186	-200.000	0.040	0.204
-606.171	-176.776	0.306	0.008
-605.157	18.943	-0.217	0.177
-604.142	8.708	-0.195	0.150
-603.128	-47.156	-0.073	-0.036
-602.113	-37.063	-0.300	0.163
-601.098	466.145	-0.059	-0.135
-600.084	-9.795	-0.230	-0.156
-599.069	-138.153	0.204	0.023
-598.055	-192.336	-0.130	0.001
-597.040	-43.895	0.290	0.148
-596.025	-126.421	-0.481	-0.073
-595.011	31.532	-0.211	-0.185
-593.996	-133.488	-0.122	0.016
-592.982	97.927	-0.123	0.144
-591.967	-200.000	-0.004	0.176
-590.952	-137.817	0.103	0.012
-589.938	46.355	-0.203	-0.192
-588.923	-159.258	-0.214	-0.012
-587.909	180.725	0.012	0.017
-586.894	-93.739	0.225	-0.063
-585.879	-113.387	0.184	-0.037
-584.865	-200.000	0.018	-0.181
-583.850	-200.000	-0.014	0.093
-582.836	-90.879	0.208	-0.061
-581.821	497.687	-0.083	-0.195
-580.806	54.976	0.073	-0.071
-579.792	-23.784	0.150	0.091
-578.777	800.000	0.075	0.231
-577.763	-86.367	0.373	0.117
-576.748	-200.000	-0.012	-0.062
-575.733	81.818	-0.244	0.269
-574.719	-134.740	0.217	-0.027
-573.704	-85.364	0.304	-0.097
-572.690	-191.077	-0.331	-0.003
-571.675	-102.872	-0.089	-0.021
-570.661	-113.363	-0.206	-0.041
-569.646	-200.000	-0.017	0.124
-568.631	-200.000	-0.004	0.162
-567.617	-46.011	-0.053	-0.026
-566.602	43.029	-0.296	0.274
-565.588	-73.871	0.310	-0.115
-564.573	15.854	-0.114	0.091
-563.558	-200.000	0.020	-0.145
-562.544	-200.000	-0.006	0.199
-561.529	-200.000	0.007	0.155
-560.515	76.790	0.103	-0.111
-559.500	-130.593	-0.200	0.027
-558.485	142.831	0.099	-0.134
-557.471	30.709	-0.075	0.065
-556.456	137.013	-0.041	0.054
-555.442	800.000	-0.141	0.446
-554.427	-200.000	0.024	0.108
-553.412	-119.190	-0.333	-0.059
-552.398	800.000	0.058	-0.198
-551.383	-200.000	0.005	-0.336
-550.369	332.513	0.147	-0.289
-549.354	43.864	0.096	0.090
-548.339	-58.321	-0.315	0.139
-547.325	-200.000	0.064	0.342
-546.310	107.394	-0.202	-0.244
-545.296	567.219	-0.045	-0.111
-544.281	-138.476	0.291	0.033
-543.266	70.927	-0.212	-0.223
-542.252	-79.469	-0.287	0.099
-541.237	-160.805	-0.341	0.018
-540.223	92.502	-0.062	-0.071
-539.208	-144.003	0.170	0.016
-538.193	-179.467	-0.163	0.004
-537.179	-200.000	-0.035	-0.300
-536.164	-17.579	-0.174	-0.111
-535.150	124.097	0.140	0.179
-534.135	800.000	-0.020	-0.068
-533.121	-117.156	-0.291	-0.054
-532.106	-89.797	-0.222	-0.066
-531.091	-77.150	0.349	0.123
-530.077	-39.480	0.141	0.075
-529.062	-47.046	-0.164	-0.081
-528.048	161.015	0.052	-0.074
-527.033	310.580	0.055	0.104
-526.018	-30.536	0.144	0.083
-525.004	63.797	-0.085	-0.086
-523.989	-200.000	0.010	0.267
-522.975	369.967	0.137	0.282
-521.960	66.682	0.332	-0.343
-520.945	-88.691	-0.118	-0.036
-519.931	279.818	0.147	-0.266
-518.916	291.519	0.062	-0.115
-517.902	-200.000	0.025	-0.112
-516.887	133.387	0.105	0.137
-515.872	800.000	-0.019	-0.071
-514.858	-200.000	0.104	-0.556
-513.843	-107.294	-0.085	-0.019
-512.829	-31.770	0.063	0.036
-511.814	87.923	0.171	-0.192
-510.799	-200.000	0.010	-0.162
-509.785	12.715	-0.197	-0.154
-508.770	-83.012	0.219	-0.071
-507.756	340.641	0.095	-0.189
-506.741	-39.810	-0.499	-0.265
-505.726	-59.661	-0.355	-0.155
-504.712	-94.580	0.180	-0.050
-503.697	599.031	-0.100	-0.252
-502.683	388.232	-0.125	-0.263
-501.668	281.189	0.121	0.220
-500.653	-107.683	-0.107	0.024
-499.639	-1.650	0.143	-0.102
-498.624	3.995	0.082	0.060
-497.610	681.807	-0.020	-0.053
-496.595	-2.047	0.206	0.147
-495.581	800.000	0.048	-0.136
-494.566	394.501	-0.147	-0.310
-493.551	-23.997	0.198	0.120
-492.537	-200.000	-0.009	-0.218
-491.522	-200.000	-0.050	0.353
-490.508	159.628	-0.129	0.182
-489.493	420.147	-0.181	0.393
-488.478	-200.000	0.015	-0.177
-487.464	-135.483	-0.203	-0.025
-486.449	-99.953	-0.100	-0.025
-485.435	-200.000	-0.001	-0.262
-484.420	-58.228	0.151	-0.066
-483.405	47.598	-0.168	0.159
-482.391	-28.273	0.057	-0.033
-481.376	-101.752	-0.045	-0.011
-480.362	288.757	0.074	-0.137
-479.347	-138.018	-0.214	0.024
-478.332	800.000	0.030	-0.114
-477.318	-30.467	0.030	0.017
-476.303	31.694	0.157	0.137
-475.289	325.271	-0.066	0.127
-474.274	-126.574	-0.232	0.035
-473.259	27.322	0.280	-0.239
-472.245	-3.645	0.158	-0.111
-471.230	105.281	-0.215	0.257
-470.216	-165.408	0.299	0.013
-469.201	-200.000	0.074	0.331
-468.186	-105.088	0.166	-0.038
-467.172	-121.977	0.094	0.016
-466.157	129.563	0.198	-0.257
-465.143	-81.394	-0.158	0.053
-464.128	-200.000	0.015	0.268
-463.113	146.099	-0.217	0.294
-462.099	-200.000	-0.036	0.242
-461.084	-200.000	0.562	0.001
-460.070	-158.630	-0.132	-0.008
-459.055	241.729	0.022	0.037
-458.040	-29.136	-0.093	0.054
-457.026	34.237	0.074	-0.066
-456.011	-18.909	-0.084	-0.053
-454.997	800.000	0.114	-0.498
-453.982	800.000	0.089	0.294
-452.968	544.375	0.144	0.349
-451.953	800.000	0.104	0.315
-450.938	-200.000	-0.105	-0.498
-449.924	56.311	-0.183	-0.180
-448.909	232.731	-0.026	0.043
-447.895	134.114	0.320	-0.419
-446.880	97.425	-0.132	-0.153
-445.865	-76.054	0.293	-0.105
-444.851	-0.408	-0.050	-0.036
-443.836	-108.595	0.162	-0.035
-442.822	-53.561	-0.136	-0.063
-441.807	108.333	-0.212	-0.256
-440.792	-200.000	0.062	0.309
-439.778	50.183	-0.291	0.278
-438.763	-121.730	-0.044	0.007
-437.749	-189.634	-0.110	-0.001
-436.734	34.916	-0.080	0.071
-435.719	124.829	-0.053	-0.067
-434.705	-1.660	0.235	-0.167
-433.690	363.771	-0.084	0.171
-432.676	-107.196	-0.254	-0.057
-431.661	-87.082	0.412	-0.127
-430.646	-10.110	-0.182	-0.122
-429.632	-200.000	-0.001	-0.200
-428.617	409.099	-0.096	-0.206
-427.603	178.830	0.114	-0.169
-426.588	4.999	-0.168	0.125
-425.573	-90.508	0.032	0.009
-424.559	59.223	0.150	0.149
-423.544	21.904	-0.164	-0.135
-422.530	-99.029	0.161	-0.041
-421.515	-94.683	0.200	-0.055
-420.500	48.640	-0.271	0.257
-419.486	-163.339	0.337	-0.016
-418.471	-34.330	0.218	0.121
-417.457	800.000	0.104	0.376
-416.442	140.918	-0.219	0.293
-415.428	-200.000	0.024	-0.270
-414.413	800.000	0.076	-0.299
-413.398	33.474	0.144	0.127
-412.384	-43.617	-0.048	0.024
-411.369	12.147	0.040	-0.031
-410.355	215.657	0.133	-0.213
-409.340	74.230	-0.169	-0.179
-408.325	-200.000	0.004	-0.066
-407.311	25.457	-0.126	0.106
-406.296	-33.969	0.385	-0.214
-405.282	-74.719	-0.042	-0.015
-404.267	558.669	0.009	0.021
-403.252	12.304	-0.260	0.202
-402.238	-198.497	0.012	0.000
-401.223	-200.000	0.051	-0.354
-400.209	-76.350	-0.330	-0.117
-399.194	350.613	0.039	0.078
-398.179	-200.000	0.005	-0.265
-397.165	-53.881	-0.137	0.063
-396.150	-200.000	0.023	-0.321
-395.136	141.101	0.113	-0.151
-394.121	-130.232	-0.079	0.011
-393.106	572.398	-0.099	-0.244
-392.092	168.097	-0.251	-0.360
-391.077	800.000	-0.088	-0.319
-390.063	-200.000	0.020	0.132
-389.048	46.713	-0.123	-0.115
-388.033	-11.953	0.068	-0.045
-387.019	171.360	0.055	-0.080
-386.004	63.320	-0.035	-0.035
-384.990	-200.000	-0.010	0.429
-383.975	-200.000	-0.010	0.290
-382.960	-77.078	-0.148	0.052
-381.946	60.795	-0.213	-0.213
-380.931	-197.803	-0.161	-0.001
-379.917	268.713	0.273	0.483
-378.902	575.575	0.065	-0.160
-377.888	125.387	0.301	0.384
-376.873	-200.000	0.037	0.239
-375.858	-83.530	0.127	0.041
-374.844	-200.000	-0.006	0.396
-373.829	49.055	0.458	0.434
-372.815	-129.548	-0.270	-0.038
-371.800	60.412	-0.114	-0.114
-370.785	-72.070	-0.076	-0.028
-369.771	-200.000	0.008	0.228
-368.756	79.285	-0.377	-0.408
-367.742	-163.497	-0.342	0.016
-366.727	42.894	-0.053	0.049
-365.712	-200.000	0.020	0.159
-364.698	-200.000	-0.025	-0.186
-363.683	41.371	-0.239	-0.218
-362.669	-168.245	0.211	0.008
-361.654	0.889	-0.042	-0.030
-360.639	-63.710	-0.067	0.028
-359.625	-107.134	-0.169	0.038
-358.610	-90.690	0.257	0.075
-357.596	54.573	-0.201	0.196
-356.581	545.248	0.110	-0.264
-355.566	115.233	-0.068	0.084
-354.552	-200.000	0.047	-0.237
-353.537	-99.523	0.225	-0.057
-352.523	-200.000	0.053	0.533
-351.508	-96.935	0.246	-0.065
-350.493	21.742	0.260	0.214
-349.479	-21.188	-0.156	0.096
-348.464	557.183	-0.009	-0.022
-347.450	-103.640	-0.247	-0.058
-346.435	-101.236	0.239	0.059
-345.420	-200.000	0.017	0.347
-344.406	-200.000	-0.001	0.010
-343.391	226.691	0.134	0.219
-342.377	-8.689	0.225	0.152
-341.362	800.000	-0.045	-0.138
-340.348	-200.000	-0.017	0.221
-339.333	559.076	-0.154	-0.374
-338.318	-79.782	0.364	0.123
-337.304	129.070	0.103	-0.132
-336.289	-74.717	0.221	0.080
-335.275	-38.818	0.246	-0.130
-334.260	-5.133	-0.313	-0.217
-333.245	-107.189	0.422	0.094
-332.231	172.767	-0.108	0.157
-331.216	-101.041	-0.421	0.104
-330.202	-69.861	0.274	0.105
-329.187	800.000	0.146	0.420
-328.172	107.052	-0.206	0.246
-327.158	134.869	0.062	-0.082
-326.143	-200.000	0.057	0.379
-325.129	800.000	-0.057	-0.187
-324.114	-106.725	0.126	0.028
-323.099	-200.000	-0.008	-0.116
-322.085	-23.260	-0.238	0.144
-321.070	800.000	-0.102	0.419
-320.056	-200.000	-0.025	0.176
-319.041	-52.478	0.151	-0.070
-318.026	800.000	0.104	-0.319
-317.012	9.052	-0.302	0.230
-315.997	329.540	0.064	0.125
-314.983	800.000	-0.094	0.265
-313.968	-96.032	-0.385	0.103
-312.953	-32.636	0.083	0.047
-311.939	43.835	0.144	0.133
-310.924	19.942	0.100	-0.081
-309.910	52.272	-0.180	0.173
-308.895	-126.404	0.187	0.028
-307.880	-125.632	-0.184	0.028
-306.866	664.008	0.057	0.149
-305.851	300.669	-0.123	-0.229
-304.837	232.338	0.198	-0.326
-303.822	-200.000	-0.007	-0.270
-302.807	800.000	0.018	0.077
-301.793	-200.000	-0.020	0.200
-300.778	711.581	-0.084	0.225
-299.764	-107.318	0.251	0.055
-298.749	56.535	0.067	-0.065
-297.735	72.007	0.194	-0.203
-296.720	398.260	-0.158	-0.332
-295.705	365.920	-0.134	0.272
-294.691	-40.619	-0.049	0.025
-293.676	-5.505	0.108	0.074
-292.662	348.523	0.090	0.179
-291.647	168.128	0.107	0.153
-290.632	1.436	-0.070	-0.051
-289.618	-7.648	0.045	0.031
-288.603	-88.699	0.076	0.023
-287.589	-79.897	0.390	-0.132
-286.574	159.674	-0.168	-0.235
-285.559	239.407	0.190	0.318
-284.545	70.215	-0.096	0.100
-283.530	-108.928	0.060	-0.013
-282.516	-38.719	-0.145	-0.077
-281.501	800.000	-0.099	-0.324
-280.486	454.437	0.075	-0.168
-279.472	-76.583	0.110	-0.039
-278.457	-139.867	-0.517	-0.055
-277.443	800.000	0.147	0.408
-276.428	-62.605	0.153	-0.064
-275.413	601.386	0.146	-0.364
-274.399	-106.329	0.289	-0.065
-273.384	51.137	-0.421	-0.401
-272.370	160.231	-0.119	0.167
-271.355	42.158	0.107	-0.097
-270.340	-152.583	-0.530	0.038
-269.326	224.059	-0.090	0.146
-268.311	158.557	0.243	-0.339
-267.297	-74.470	-0.056	-0.020
-266.282	190.605	0.130	0.196
-265.267	-200.000	-0.005	0.084
-264.253	1.152	0.058	-0.042
-263.238	683.228	0.096	0.252
-262.224	-200.000	0.031	0.236
-261.209	24.510	0.186	0.155
-260.195	-200.000	-0.013	0.165
-259.180	-92.595	-0.033	0.009
-258.165	-62.844	-0.163	-0.068
-257.151	800.000	-0.120	0.336
-256.136	-2.695	0.361	-0.253
-255.122	375.507	0.004	0.008
-254.107	350.432	-0.049	-0.098
-253.092	-160.416	-0.280	-0.015
-252.078	-200.000	-0.003	0.124
-251.063	-81.318	-0.123	-0.041
-250.049	-55.794	-0.266	-0.120
-249.034	-109.802	-0.362	-0.076
-248.019	-200.000	0.027	-0.200
-247.005	33.416	0.384	-0.334
-245.990	19.103	0.205	-0.165
-244.976	247.983	0.160	-0.272
-243.961	-118.339	-0.140	0.025
-242.946	219.021	-0.253	0.406
-241.932	-147.659	0.369	-0.031
-240.917	-138.506	-0.163	0.018
-239.903	-8.580	0.273	-0.184
-238.888	59.937	0.138	0.137
-237.873	-169.095	0.177	-0.007
-236.859	-200.000	0.042	-0.197
-235.844	-82.706	-0.138	-0.045
-234.830	-200.000	0.020	-0.189
-233.815	-44.090	-0.063	0.032
-232.800	-143.550	-0.171	0.016
-231.786	295.225	-0.044	0.081
-230.771	307.967	-0.094	-0.175
-229.757	97.373	0.116	-0.133
-228.742	-111.557	0.142	-0.029
-227.727	482.711	0.090	0.204
-226.713	-124.275	-0.143	0.022
-225.698	112.183	0.108	-0.131
-224.684	-5.099	0.091	0.063
-223.669	-200.000	-0.224	-0.001
-222.655	41.783	-0.101	-0.092
-221.640	702.898	0.089	0.234
-220.625	-73.022	0.180	0.066
-219.611	-200.000	0.005	0.264
-218.596	-30.025	0.221	0.126
-217.582	800.000	0.078	-0.274
-216.567	800.000	0.070	-0.245
-215.552	-200.000	0.004	-0.126
-214.538	800.000	0.133	-0.454
-213.523	10.343	0.222	0.170
-212.509	800.000	-0.068	-0.291
-211.494	-174.004	-0.325	-0.010
-210.479	-197.081	0.129	-0.001
-209.465	-200.000	-0.008	0.230
-208.450	-95.352	-0.221	0.060
-207.436	-200.000	-0.018	0.083
-206.421	-200.000	0.036	0.252
-205.406	-28.035	-0.148	0.086
-204.392	2.408	0.381	-0.276
-203.377	-200.000	0.072	0.377
-202.363	800.000	0.022	0.090
-201.348	137.714	-0.073	-0.096
-200.333	25.709	-0.147	-0.122
-199.319	203.393	-0.110	0.171
-198.304	-200.000	0.056	-0.339
-197.290	339.077	0.046	-0.090
-196.275	-106.514	-0.105	0.023
-195.260	-200.000	0.062	0.360
-194.246	-3.618	0.160	0.111
-193.231	-200.000	-0.113	-0.568
-192.217	270.460	0.084	-0.148
-191.202	-200.000	-0.023	0.310
-190.187	176.092	0.059	-0.086
-189.173	-200.000	-0.044	-0.210
-188.158	-53.778	-0.199	0.091
-187.144	-38.662	0.240	-0.127
-186.129	28.706	-0.334	0.284
-185.114	-162.559	-0.055	0.003
-184.100	423.044	-0.086	0.185
-183.085	-118.747	-0.254	0.045
-182.071	24.047	0.218	-0.180
-181.056	193.327	-0.062	-0.094
-180.042	561.340	0.020	-0.049
-179.027	55.391	0.132	0.128
-178.012	-200.000	-0.060	0.269
-176.998	499.839	0.031	0.071
-175.983	82.825	-0.021	-0.022
-174.969	-162.245	0.197	0.010
-173.954	140.195	0.103	0.136
-172.939	-87.325	0.073	0.022
-171.925	7.709	0.139	-0.104
-170.910	134.572	-0.106	0.137
-169.896	-128.071	0.144	-0.021
-168.881	55.903	0.231	-0.224
-167.866	200.772	-0.198	-0.305
-166.852	402.499	0.077	-0.163
-165.837	-200.000	-0.035	0.303
-164.823	800.000	0.082	0.264
-163.808	-200.000	-0.026	0.300
-162.793	128.386	-0.109	0.138
-161.779	-200.000	-0.031	0.152
-160.764	800.000	-0.058	-0.197
-159.750	-5.224	0.089	0.061
-158.735	-58.609	0.199	-0.086
-157.720	684.969	-0.057	-0.150
-156.706	-67.580	0.515	-0.202
-155.691	-38.187	-0.244	-0.129
-154.677	720.771	-0.093	0.248
-153.662	-200.000	-0.007	0.076
-152.647	308.870	-0.153	-0.286
-151.633	-68.539	0.099	0.038
-150.618	-127.170	-0.258	0.038
-149.604	-200.000	-0.020	0.172
-148.589	-200.000	0.029	-0.218
-147.574	-200.000	0.023	-0.118
-146.560	201.994	0.182	-0.280
-145.545	-200.000	-0.026	-0.185
-144.531	220.039	-0.165	0.265
-143.516	3.067	0.073	0.053
-142.502	161.657	-0.030	0.041
-141.487	210.299	-0.142	0.222
-140.472	129.049	0.211	0.269
-139.458	30.442	0.214	0.183
-138.443	800.000	-0.042	0.128
-137.429	-81.821	0.020	0.007
-136.414	800.000	-0.086	-0.302
-135.399	-61.430	0.108	-0.045
-134.385	-136.055	-0.173	-0.020
-133.370	177.448	-0.242	0.353
-132.356	98.476	0.157	-0.181
-131.341	93.572	0.169	-0.191
-130.326	218.617	-0.317	-0.506
-129.312	-200.000	-0.014	-0.064
-128.297	-61.568	-0.153	-0.064
-127.283	-121.810	0.173	0.029
-126.268	464.558	0.192	-0.429
-125.253	-95.417	-0.178	0.048
-124.239	197.470	0.063	0.095
-123.224	40.192	-0.120	0.107
-122.210	-5.962	0.125	0.085
-121.195	-94.721	-0.217	0.059
