DTS Sentinel unit serial number:	SN413079Multiplexer serial number:	ORYXHardware model number:	OX4-SRSoftware version number:	ORYX F/W v4.00 Oryx Data Collector v3.7.2.0data status	okinstallation	princeton_trtdifferential loss correction	single-endedforward channel	channel 3reverse channel	N/Adate	2019/09/14time	06:48:34forward acquisition time	60.00reverse acquisition time	0.00gamma	496.2192k internal	0.2340k external	0.2340temperature offset calibration	1.0060default loss term (dB/km)	0.3790temperature slope calibration	1.0000multiplexer offset coefficient	1.0000multiplexer slope coefficient	1.0000fibre end	0.00T internal ref (°C)	26.25T ext. ref 1 (°C)	3.44T ext. ref 2 (°C)	20.72length (m)	temperature (°C)	Stokes	anti-Stokes-747.200	800.000	-0.035	-0.152
-746.185	768.691	0.157	0.429
-745.171	3.424	0.304	0.222
-744.156	-3.204	-0.177	0.124
-743.142	800.000	-0.051	-0.170
-742.127	0.999	-0.145	-0.104
-741.112	-78.381	0.099	0.034
-740.098	255.371	-0.043	-0.074
-739.083	325.114	0.079	0.152
-738.069	800.000	-0.029	0.090
-737.054	140.188	-0.114	0.151
-736.039	50.320	-0.113	-0.107
-735.025	29.883	0.030	0.025
-734.010	94.044	0.199	-0.226
-732.996	-3.058	-0.340	-0.238
-731.981	-67.996	-0.124	0.049
-730.966	-67.572	0.326	-0.128
-729.952	-89.719	-0.367	-0.108
-728.937	-200.000	-0.066	-0.381
-727.923	505.301	-0.132	0.307
-726.908	104.893	0.213	-0.252
-725.894	528.271	-0.175	0.413
-724.879	-23.285	-0.180	-0.109
-723.864	-88.377	-0.230	0.069
-722.850	800.000	0.074	-0.235
-721.835	-200.000	-0.234	0.000
-720.821	27.329	-0.094	-0.079
-719.806	227.084	0.074	0.120
-718.791	-200.000	0.018	0.175
-717.777	-200.000	-0.006	-0.071
-716.762	56.073	-0.052	-0.051
-715.748	800.000	-0.043	0.185
-714.733	-112.638	0.338	0.067
-713.718	193.650	-0.124	-0.187
-712.704	-96.975	-0.566	-0.149
-711.689	58.507	-0.154	0.151
-710.675	257.620	0.173	0.297
-709.660	426.824	-0.076	0.165
-708.645	-154.398	0.121	0.008
-707.631	77.845	-0.088	-0.094
-706.616	-60.858	0.132	-0.056
-705.602	-33.455	-0.155	-0.086
-704.587	-120.804	-0.187	0.032
-703.572	-15.652	0.377	0.240
-702.558	-103.348	0.395	0.093
-701.543	-200.000	0.009	-0.207
-700.529	152.113	-0.158	-0.216
-699.514	-38.503	0.138	-0.073
-698.499	-100.083	0.265	-0.066
-697.485	-20.924	0.199	0.122
-696.470	-48.209	0.184	0.089
-695.456	792.206	0.028	0.077
-694.441	-200.000	-0.005	-0.215
-693.426	656.793	-0.094	-0.243
-692.412	260.546	-0.034	-0.059
-691.397	-200.000	-0.012	-0.610
-690.383	-3.016	0.055	-0.038
-689.368	85.518	0.075	0.083
-688.354	12.071	-0.132	0.102
-687.339	-124.482	0.325	0.051
-686.324	-200.000	-0.001	0.114
-685.310	56.836	-0.260	0.253
-684.295	-93.448	0.201	-0.056
-683.281	532.888	-0.031	-0.073
-682.266	-32.398	0.312	0.174
-681.251	220.536	-0.174	0.279
-680.237	-12.387	0.126	0.082
-679.222	136.603	0.054	-0.071
-678.208	800.000	-0.020	-0.082
-677.193	7.715	-0.353	0.264
-676.178	31.700	0.030	-0.026
-675.164	-200.000	-0.006	0.177
-674.149	-119.676	-0.052	0.009
-673.135	313.551	-0.041	0.077
-672.120	29.206	0.349	-0.296
-671.105	27.092	0.132	-0.111
-670.091	-200.000	-0.002	0.030
-669.076	246.086	-0.281	-0.473
-668.062	800.000	0.004	0.012
-667.047	-200.000	-0.051	0.356
-666.032	-192.077	0.276	-0.003
-665.018	40.291	-0.041	0.037
-664.003	-27.950	0.041	-0.024
-662.989	731.468	0.090	-0.241
-661.974	214.492	0.147	0.232
-660.959	299.748	-0.075	-0.139
-659.945	-9.570	0.337	0.224
-658.930	800.000	-0.055	-0.193
-657.916	-13.689	-0.029	-0.019
-656.901	-108.605	-0.269	-0.058
-655.886	-31.736	0.253	0.142
-654.872	800.000	0.109	-0.308
-653.857	74.295	-0.007	0.007
-652.843	800.000	0.062	-0.211
-651.828	-119.246	-0.605	0.105
-650.814	577.804	0.030	-0.074
-649.799	197.230	0.062	0.094
-648.784	-200.000	0.015	-0.103
-647.770	14.178	-0.142	-0.111
-646.755	786.946	0.050	-0.137
-645.741	-200.000	-0.023	-0.120
-644.726	-63.585	0.123	0.050
-643.711	603.491	0.104	0.257
-642.697	-40.257	0.427	-0.222
-641.682	630.724	-0.083	-0.209
-640.668	800.000	-0.084	-0.268
-639.653	800.000	-0.024	-0.075
-638.638	462.816	0.067	0.150
-637.624	-8.977	-0.180	-0.120
-636.609	208.004	-0.063	-0.099
-635.595	-117.387	0.478	0.086
-634.580	-84.328	-0.257	0.081
-633.565	-200.000	0.010	-0.235
-632.551	270.510	-0.103	0.181
-631.536	32.700	-0.315	-0.272
-630.522	6.968	0.159	-0.118
-629.507	-200.000	-0.207	0.000
-628.492	-200.000	-0.030	0.152
-627.478	202.074	0.012	0.018
-626.463	243.286	-0.119	0.200
-625.449	-89.005	0.198	-0.058
-624.434	-39.617	-0.210	0.110
-623.419	19.198	-0.150	-0.120
-622.405	39.217	-0.202	0.180
-621.390	-200.000	-0.028	-0.147
-620.376	74.585	-0.137	-0.144
-619.361	516.686	-0.079	-0.185
-618.346	-200.000	0.039	0.192
-617.332	-63.376	0.065	-0.027
-616.317	-22.751	-0.107	0.064
-615.303	-79.716	-0.343	0.115
-614.288	-38.567	0.070	-0.037
-613.273	-45.292	-0.149	0.074
-612.259	-23.546	-0.151	0.091
-611.244	-200.000	-0.006	-0.095
-610.230	55.949	0.104	0.100
-609.215	356.225	0.083	0.165
-608.201	285.564	-0.176	-0.316
-607.186	-200.000	0.055	-0.264
-606.171	-200.000	0.008	-0.290
-605.157	205.827	0.164	0.255
-604.142	-95.711	0.441	-0.118
-603.128	-145.252	-0.112	-0.010
-602.113	-142.708	-0.266	-0.026
-601.098	245.165	-0.118	-0.198
-600.084	800.000	-0.038	0.145
-599.069	-30.958	0.214	0.120
-598.055	121.977	0.140	0.175
-597.040	-6.953	-0.368	0.249
-596.025	-57.764	0.268	-0.117
-595.011	800.000	0.050	0.192
-593.996	107.717	0.089	-0.105
-592.982	24.249	0.202	0.166
-591.967	14.266	-0.126	-0.098
-590.952	-100.456	-0.103	-0.025
-589.938	-0.387	0.226	-0.160
-588.923	-46.039	0.120	0.059
-587.909	-200.000	0.400	0.002
-586.894	-75.496	-0.225	-0.080
-585.879	-167.373	-0.288	-0.012
-584.865	-200.000	0.001	-0.174
-583.850	187.630	0.072	-0.107
-582.836	-200.000	0.036	-0.439
-581.821	42.728	-0.305	-0.277
-580.806	-125.105	0.091	0.014
-579.792	-131.655	-0.069	0.009
-578.777	242.803	-0.046	0.077
-577.763	-31.921	-0.130	0.072
-576.748	87.913	0.338	-0.373
-575.733	112.465	-0.181	-0.218
-574.719	-200.000	0.007	0.110
-573.704	363.932	0.148	-0.297
-572.690	-108.922	0.142	-0.030
-571.675	-200.000	0.044	0.391
-570.661	67.652	-0.121	-0.123
-569.646	-61.688	0.377	0.158
-568.631	698.037	-0.162	0.425
-567.617	52.923	0.243	0.231
-566.602	317.539	-0.083	0.157
-565.588	190.133	0.049	-0.073
-564.573	-200.000	0.001	0.143
-563.558	94.426	-0.113	0.128
-562.544	-18.764	0.086	-0.053
-561.529	23.333	0.263	-0.215
-560.515	-200.000	-0.017	-0.185
-559.500	-78.905	-0.189	0.064
-558.485	-107.492	0.222	0.049
-557.471	-116.297	-0.310	-0.057
-556.456	-135.720	-0.186	-0.022
-555.442	489.955	0.108	-0.247
-554.427	75.126	-0.231	0.242
-553.412	61.435	-0.062	-0.061
-552.398	-130.561	-0.125	0.017
-551.383	115.762	0.145	0.176
-550.369	800.000	-0.114	0.393
-549.354	800.000	-0.123	0.423
-548.339	-200.000	0.002	0.117
-547.325	-65.805	0.241	0.096
-546.310	-1.200	-0.225	0.158
-545.296	65.836	0.308	-0.311
-544.281	800.000	-0.040	-0.167
-543.266	-152.780	0.144	-0.010
-542.252	-0.637	-0.193	-0.136
-541.237	64.378	-0.161	0.161
-540.223	190.020	0.125	0.186
-539.208	520.325	-0.085	-0.199
-538.193	-200.000	-0.003	0.086
-537.179	-33.259	-0.047	0.026
-536.164	-65.874	-0.274	0.109
-535.150	800.000	-0.034	-0.105
-534.135	-140.024	0.075	0.008
-533.121	800.000	-0.048	-0.195
-532.106	-195.799	-0.272	0.002
-531.091	-23.536	0.253	-0.151
-530.077	-75.924	0.228	0.080
-529.062	-19.687	0.175	-0.108
-528.048	390.546	0.060	0.124
-527.033	85.521	-0.134	0.146
-526.018	-200.000	0.040	0.234
-525.004	-200.000	-0.062	0.490
-523.989	-70.513	0.203	-0.076
-522.975	800.000	0.107	-0.410
-521.960	800.000	0.064	-0.248
-520.945	445.337	-0.099	0.216
-519.931	34.029	0.287	0.248
-518.916	33.585	-0.037	-0.032
-517.902	265.772	0.076	-0.131
-516.887	-85.970	0.173	-0.053
-515.872	25.302	0.085	-0.070
-514.858	118.043	-0.072	0.088
-513.843	186.912	0.142	-0.211
-512.829	-200.000	-0.035	0.261
-511.814	11.257	0.279	0.212
-510.799	-136.872	0.230	0.026
-509.785	165.560	-0.127	0.178
-508.770	800.000	0.071	0.227
-507.756	-122.686	0.325	0.052
-506.741	143.694	-0.069	0.091
-505.726	-200.000	-0.022	0.250
-504.712	153.744	-0.277	-0.376
-503.697	-192.776	0.312	0.003
-502.683	-200.000	-0.017	0.492
-501.668	-200.000	-0.023	-0.236
-500.653	-0.881	-0.130	0.092
-499.639	169.362	-0.071	-0.100
-498.624	-69.786	0.145	0.055
-497.610	412.263	-0.122	-0.258
-496.595	-103.105	-0.040	-0.009
-495.581	-9.795	0.194	-0.129
-494.566	-90.524	0.136	0.039
-493.551	7.786	0.174	-0.130
-492.537	-200.000	-0.003	0.018
-491.522	32.916	-0.176	0.152
-490.508	-200.000	-0.013	0.202
-489.493	367.783	0.144	0.290
-488.478	-44.700	0.361	0.179
-487.464	80.363	-0.098	-0.104
-486.449	645.434	-0.070	-0.177
-485.435	-200.000	-0.011	0.138
-484.420	-26.688	0.209	0.121
-483.405	171.168	-0.199	0.283
-482.391	0.637	0.229	-0.162
-481.376	-200.000	-0.003	-0.133
-480.362	-8.900	0.078	-0.052
-479.347	-187.133	-0.427	0.006
-478.332	-138.816	-0.142	-0.015
-477.318	800.000	0.045	-0.168
-476.303	800.000	-0.049	-0.191
-475.289	777.378	0.112	0.303
-474.274	-200.000	0.014	-0.207
-473.259	170.734	-0.231	-0.329
-472.245	135.258	-0.190	-0.245
-471.230	-7.030	0.205	0.138
-470.216	97.032	-0.201	0.228
-469.201	60.128	0.271	-0.266
-468.186	-112.478	-0.099	-0.020
-467.172	800.000	-0.089	-0.261
-466.157	87.230	-0.217	0.237
-465.143	-92.324	0.162	0.045
-464.128	-200.000	-0.039	-0.238
-463.113	75.115	0.101	0.105
-462.099	-35.515	0.107	-0.058
-461.084	-150.201	-0.195	-0.015
-460.070	-120.317	-0.185	0.031
-459.055	-107.982	-0.580	-0.125
-458.040	800.000	0.053	-0.193
-457.026	-77.953	-0.295	-0.101
-456.011	37.726	-0.252	0.221
-454.997	-200.000	-0.006	-0.226
-453.982	313.523	0.055	-0.102
-452.968	-17.625	0.055	0.034
-451.953	543.487	0.057	0.135
-450.938	-73.712	0.071	-0.026
-449.924	85.152	-0.126	0.137
-448.909	172.174	-0.134	-0.191
-447.895	-76.868	0.182	0.063
-446.880	-200.000	-0.059	-0.273
-445.865	214.216	-0.084	-0.132
-444.851	494.240	-0.049	-0.111
-443.836	-136.906	0.216	-0.025
-442.822	57.697	0.207	-0.201
-441.807	517.494	0.118	0.274
-440.792	125.330	0.220	0.275
-439.778	549.943	-0.067	0.159
-438.763	168.202	0.142	-0.200
-437.749	-82.375	0.058	0.019
-436.734	800.000	-0.049	0.183
-435.719	18.373	0.522	0.413
-434.705	-157.912	0.045	-0.003
-433.690	220.660	-0.057	0.091
-432.676	-172.144	0.144	-0.005
-431.661	87.550	0.130	-0.143
-430.646	-56.716	-0.221	0.097
-429.632	-200.000	0.081	0.359
-428.617	-200.000	0.035	0.161
-427.603	-78.999	0.102	-0.034
-426.588	-10.460	0.280	0.184
-425.573	-45.104	0.222	-0.109
-424.559	-98.478	-0.221	0.056
-423.544	277.926	0.131	0.230
-422.530	-200.000	-0.055	0.278
-421.515	-200.000	0.029	-0.139
-420.500	-20.696	0.149	0.090
-419.486	-200.000	-0.027	-0.242
-418.471	575.449	0.087	0.211
-417.457	5.068	-0.236	-0.172
-416.442	-200.000	-0.375	0.002
-415.428	-200.000	-0.027	0.137
-414.413	117.542	0.029	0.035
-413.398	-122.170	-0.339	0.055
-412.384	741.438	0.098	-0.260
-411.369	256.778	-0.118	-0.200
-410.355	231.622	0.239	0.388
-409.340	488.510	0.113	0.255
-408.325	259.916	0.125	0.213
-407.311	-80.335	0.312	-0.103
-406.296	-166.880	-0.131	-0.005
-405.282	-200.000	-0.028	0.209
-404.267	-200.000	0.010	-0.277
-403.252	-134.084	0.089	-0.011
-402.238	800.000	-0.059	0.209
-401.223	-167.508	0.164	-0.006
-400.209	-142.441	0.200	-0.019
-399.194	-13.411	-0.322	0.206
-398.179	329.518	-0.051	-0.097
-397.165	-200.000	-0.077	-0.430
-396.150	-64.290	-0.406	-0.164
-395.136	49.736	-0.101	-0.094
-394.121	281.430	0.179	-0.318
-393.106	-17.141	0.134	0.084
-392.092	-22.186	-0.309	-0.185
-391.077	-200.000	-0.013	-0.301
-390.063	800.000	-0.103	-0.344
-389.048	585.205	-0.072	0.176
-388.033	-158.651	-0.068	0.004
-387.019	800.000	0.065	0.189
-386.004	25.146	-0.294	0.241
-384.990	0.036	-0.313	-0.220
-383.975	290.027	0.042	0.076
-382.960	110.929	-0.059	-0.070
-381.946	771.650	-0.058	-0.157
-380.931	-1.180	-0.220	-0.153
-379.917	-88.607	0.214	-0.063
-378.902	800.000	-0.096	0.271
-377.888	-65.300	-0.155	0.062
-376.873	252.391	-0.178	-0.301
-375.858	-200.000	-0.018	0.225
-374.844	238.349	0.193	-0.316
-373.829	-23.444	0.279	-0.165
-372.815	348.314	0.137	0.268
-371.800	800.000	-0.068	0.185
-370.785	-126.121	0.239	0.035
-369.771	125.278	-0.270	0.337
-368.756	-82.658	0.106	-0.034
-367.742	-200.000	-0.019	-0.139
-366.727	112.762	0.142	-0.169
-365.712	-119.644	0.516	-0.088
-364.698	3.474	-0.047	0.034
-363.683	-158.446	-0.166	0.010
-362.669	-10.377	0.300	0.196
-361.654	-111.754	0.153	0.031
-360.639	800.000	-0.147	-0.437
-359.625	-16.948	-0.429	-0.267
-358.610	-99.129	-0.146	-0.037
-357.596	101.857	-0.056	-0.064
-356.581	-69.782	0.250	0.094
-355.566	-98.158	0.279	-0.071
-354.552	-2.223	0.268	0.186
-353.537	-200.000	0.085	-0.378
-352.523	-16.388	-0.141	-0.088
-351.508	75.625	0.155	0.161
-350.493	-164.687	0.443	0.020
-349.479	-35.230	-0.327	-0.176
-348.464	-121.618	-0.102	0.017
-347.450	-34.207	0.021	0.011
-346.435	-159.540	-0.070	-0.004
-345.420	-67.127	0.133	-0.052
-344.406	-86.708	0.269	0.081
-343.391	71.008	0.108	-0.110
-342.377	308.200	-0.153	-0.282
-341.362	-68.304	0.042	0.016
-340.348	800.000	0.073	0.204
-339.333	25.919	0.069	0.057
-338.318	-106.942	0.193	-0.042
-337.304	-89.620	0.211	0.061
-336.289	7.829	-0.151	0.112
-335.275	800.000	0.101	0.369
-334.260	-76.915	0.100	-0.034
-333.245	-186.088	-0.153	-0.002
-332.231	-200.000	0.041	-0.389
-331.216	49.402	-0.276	0.256
-330.202	-131.057	0.077	0.010
-329.187	-96.030	0.024	0.006
-328.172	800.000	-0.020	-0.060
-327.158	152.409	-0.221	0.297
-326.143	274.281	-0.106	-0.186
-325.129	800.000	0.033	-0.116
-324.114	16.777	-0.220	-0.172
-323.099	398.284	0.112	0.232
-322.085	-138.259	0.256	0.028
-321.070	-113.375	0.362	-0.070
-320.056	-200.000	0.007	-0.044
-319.041	14.333	-0.278	0.214
-318.026	-163.668	-0.306	-0.014
-317.012	-35.501	0.179	-0.096
-315.997	-59.443	-0.354	0.150
-314.983	472.444	0.016	-0.036
-313.968	-23.283	0.233	0.138
-312.953	-97.502	-0.311	-0.080
-311.939	-80.162	0.218	-0.072
-310.924	-27.473	0.325	0.186
-309.910	83.541	0.082	0.088
-308.895	-200.000	0.048	-0.242
-307.880	93.598	-0.161	0.180
-306.866	800.000	-0.021	-0.074
-305.851	-49.603	-0.247	0.116
-304.837	636.880	0.095	-0.237
-303.822	-62.668	0.169	-0.069
-302.807	393.640	-0.182	-0.374
-301.793	-17.693	-0.010	0.006
-300.778	-74.790	0.500	-0.177
-299.764	-114.242	-0.173	-0.033
-298.749	377.683	-0.099	-0.199
-297.735	-200.000	-0.019	-0.119
-296.720	-81.419	0.252	0.082
-295.705	13.435	-0.091	0.070
-294.691	-76.096	-0.323	0.112
-293.676	226.049	0.123	0.196
-292.662	800.000	-0.020	-0.068
-291.647	-101.095	0.039	-0.009
-290.632	16.314	-0.086	0.067
-289.618	397.366	0.021	0.043
-288.603	-33.352	-0.210	0.114
-287.589	-95.577	0.307	-0.081
-286.574	-156.330	-0.195	-0.012
-285.559	116.684	-0.088	0.107
-284.545	30.511	-0.216	0.182
-283.530	136.589	-0.161	0.207
-282.516	-66.696	-0.211	-0.082
-281.501	-200.000	0.014	-0.083
-280.486	447.595	0.056	0.122
-279.472	121.584	0.165	0.202
-278.457	207.649	0.030	-0.046
-277.443	-141.430	-0.203	-0.020
-276.428	800.000	0.079	0.270
-275.413	-128.821	0.317	0.044
-274.399	-144.732	-0.482	-0.044
-273.384	800.000	0.049	0.150
-272.370	-172.251	-0.165	0.005
-271.355	69.179	0.248	0.251
-270.340	-67.795	0.059	0.023
-269.326	800.000	0.023	-0.084
-268.311	-151.493	-0.110	0.008
-267.297	774.090	0.034	-0.092
-266.282	-200.000	0.003	0.163
-265.267	-62.808	0.239	0.097
-264.253	800.000	-0.051	0.165
-263.238	77.990	-0.194	-0.204
-262.224	130.922	0.150	-0.189
-261.209	-138.426	0.354	-0.038
-260.195	800.000	-0.047	-0.155
-259.180	163.860	0.223	-0.308
-258.165	-200.000	-0.015	0.185
-257.151	-135.821	0.166	0.019
-256.136	152.484	-0.251	-0.337
-255.122	80.447	-0.245	0.260
-254.107	800.000	0.081	-0.279
-253.092	-27.439	0.379	-0.217
-252.078	800.000	0.105	-0.288
-251.063	-94.365	-0.269	-0.072
-250.049	-113.258	-0.061	0.012
-249.034	85.242	0.058	-0.062
-248.019	78.742	-0.055	-0.058
-247.005	397.500	-0.138	0.284
-245.990	-200.000	-0.311	-0.001
-244.976	-124.849	-0.354	-0.054
-243.961	-200.000	0.027	-0.120
-242.946	-23.585	-0.263	-0.155
-241.932	800.000	0.064	-0.239
-240.917	-45.286	0.301	0.147
-239.903	226.420	-0.021	0.034
-238.888	175.776	-0.138	-0.197
-237.873	101.956	-0.094	0.108
-236.859	13.007	-0.290	0.220
-235.844	46.489	-0.106	-0.096
-234.830	-200.000	-0.022	0.127
-233.815	800.000	0.065	-0.186
-232.800	-200.000	-0.004	-0.064
-231.786	-42.154	0.259	0.130
-230.771	336.785	0.082	0.157
-229.757	800.000	0.055	-0.182
-228.742	-126.215	0.173	0.025
-227.727	-94.738	0.486	0.130
-226.713	-200.000	-0.059	-0.499
-225.698	236.579	-0.059	-0.095
-224.684	-81.494	-0.348	-0.112
-223.669	-200.000	-0.006	0.336
-222.655	-63.072	0.172	0.070
-221.640	110.240	0.080	-0.094
-220.625	-59.870	-0.191	0.080
-219.611	211.238	0.143	0.221
-218.596	186.033	-0.156	0.228
-217.582	-96.005	-0.268	0.070
-216.567	800.000	-0.105	-0.316
-215.552	691.440	-0.118	0.303
-214.538	800.000	-0.062	-0.266
-213.523	15.540	-0.191	0.147
-212.509	72.378	0.093	-0.096
-211.494	77.495	0.183	0.192
-210.479	-132.064	0.333	-0.043
-209.465	-129.037	-0.155	0.021
-208.450	79.651	-0.256	0.269
-207.436	-200.000	-0.011	-0.285
-206.421	22.168	0.126	0.101
-205.406	-110.829	-0.089	-0.018
-204.392	349.352	-0.170	-0.329
-203.377	-109.588	0.304	0.063
-202.363	800.000	0.017	0.053
-201.348	35.565	-0.058	0.050
-200.333	2.173	-0.206	0.146
-199.319	800.000	0.060	0.234
-198.304	-105.328	-0.177	-0.040
-197.290	-65.023	0.358	0.142
-196.275	-117.250	0.042	0.007
-195.260	-200.000	0.002	0.239
-194.246	-95.831	-0.437	0.114
-193.231	-66.827	0.369	-0.143
-192.217	-56.149	-0.325	0.142
-191.202	-39.420	0.315	-0.162
-190.187	-7.588	-0.197	0.131
-189.173	-200.000	0.001	0.046
-188.158	70.859	0.109	-0.111
-187.144	-134.046	-0.302	0.037
-186.129	800.000	0.059	0.188
-185.114	-1.422	-0.111	-0.077
-184.100	123.584	-0.174	-0.214
-183.085	-200.000	-0.072	-0.361
-182.071	517.214	-0.056	0.129
-181.056	-146.839	0.121	-0.010
-180.042	-97.364	-0.238	-0.061
-179.027	-59.988	0.198	0.083
-178.012	92.073	-0.118	0.131
-176.998	-200.000	0.007	0.274
-175.983	238.020	-0.126	-0.204
-174.969	-128.380	-0.158	-0.022
-173.954	223.140	0.085	-0.134
-172.939	-200.000	-0.018	0.225
-171.925	-47.916	-0.363	-0.172
-170.910	-9.291	-0.041	-0.027
-169.896	-147.900	-0.205	-0.017
-168.881	-49.095	-0.021	-0.010
-167.866	303.083	-0.165	-0.300
-166.852	-94.709	0.310	0.083
-165.837	800.000	0.076	0.288
-164.823	4.246	0.361	-0.259
-163.808	800.000	0.073	-0.271
-162.793	280.144	-0.031	0.055
-161.779	-200.000	-0.018	0.126
-160.764	-124.716	-0.071	-0.011
-159.750	-200.000	0.054	0.581
-158.735	-90.967	-0.070	-0.020
-157.720	-65.121	0.184	-0.073
-156.706	288.166	0.025	0.045
-155.691	22.289	-0.236	0.189
-154.677	-61.191	0.027	0.011
-153.662	107.401	0.201	-0.234
-152.647	-48.109	0.489	0.232
-151.633	454.953	0.006	-0.013
-150.618	66.295	-0.049	0.049
-149.604	-165.474	0.081	0.003
-148.589	-200.000	0.028	-0.194
-147.574	-200.000	-0.075	0.414
-146.560	-52.890	-0.146	0.066
-145.545	261.691	-0.058	0.098
-144.531	279.215	0.054	-0.095
-143.516	-77.223	0.331	0.113
-142.502	374.710	0.139	-0.276
-141.487	800.000	0.091	0.356
-140.472	-110.907	0.060	0.012
-139.458	-200.000	-0.048	-0.283
-138.443	188.118	0.062	0.091
-137.429	59.835	-0.073	-0.070
-136.414	-200.000	-0.016	0.165
-135.399	-200.000	-0.014	0.215
-134.385	-63.629	-0.175	0.070
-133.370	800.000	0.095	0.301
-132.356	146.561	-0.054	-0.071
-131.341	31.190	-0.156	0.131
-130.326	424.693	-0.139	0.292
-129.312	138.798	-0.297	0.382
-128.297	-127.381	-0.282	-0.040
-127.283	-51.012	-0.191	-0.088
-126.268	800.000	-0.033	-0.121
-125.253	-143.063	0.259	0.025
-124.239	-110.520	0.084	0.017
-123.224	-11.781	0.212	-0.136
-122.210	375.397	-0.044	-0.088
-121.195	-76.312	-0.230	0.079
