DTS Sentinel unit serial number:	SN413079Multiplexer serial number:	ORYXHardware model number:	OX4-SRSoftware version number:	ORYX F/W v4.00 Oryx Data Collector v3.7.2.0data status	okinstallation	princeton_trtdifferential loss correction	single-endedforward channel	channel 3reverse channel	N/Adate	2019/09/14time	05:32:35forward acquisition time	60.00reverse acquisition time	0.00gamma	496.2192k internal	0.2337k external	0.2337temperature offset calibration	1.0054default loss term (dB/km)	0.3790temperature slope calibration	1.0000multiplexer offset coefficient	1.0000multiplexer slope coefficient	1.0000fibre end	0.00T internal ref (°C)	26.94T ext. ref 1 (°C)	3.40T ext. ref 2 (°C)	21.83length (m)	temperature (°C)	Stokes	anti-Stokes-747.200	-38.158	-0.038	-0.020
-746.185	-77.502	-0.084	0.029
-745.171	-61.843	-0.349	0.147
-744.156	-103.426	-0.189	-0.045
-743.142	360.135	0.107	0.214
-742.127	382.158	0.068	0.139
-741.112	306.087	0.027	0.051
-740.098	-90.420	0.316	-0.092
-739.083	159.569	0.023	0.032
-738.069	123.845	0.155	0.196
-737.054	-138.748	0.060	-0.007
-736.039	-7.377	-0.195	0.133
-735.025	-10.646	0.145	-0.096
-734.010	-42.809	-0.211	0.107
-732.996	22.363	0.228	-0.187
-731.981	-20.565	-0.404	0.249
-730.966	-85.513	-0.433	0.135
-729.952	-149.465	0.078	-0.006
-728.937	270.322	0.173	0.304
-727.923	96.120	-0.124	-0.142
-726.908	36.399	0.115	0.102
-725.894	-200.000	-0.063	-0.350
-724.879	-93.841	-0.354	-0.098
-723.864	38.701	0.034	0.030
-722.850	-97.296	-0.016	-0.004
-721.835	-112.745	-0.234	-0.047
-720.821	236.851	0.072	-0.119
-719.806	19.996	-0.029	0.023
-718.791	-48.912	0.255	0.122
-717.777	665.121	0.055	0.142
-716.762	800.000	0.024	0.095
-715.748	473.252	0.078	-0.177
-714.733	-200.000	-0.034	-0.257
-713.718	800.000	-0.067	-0.251
-712.704	226.380	-0.205	0.333
-711.689	32.732	-0.160	-0.139
-710.675	-78.597	0.211	-0.072
-709.660	334.676	-0.089	0.173
-708.645	-88.666	0.263	-0.078
-707.631	67.702	-0.151	-0.155
-706.616	164.879	-0.028	0.039
-705.602	305.623	-0.042	-0.078
-704.587	268.980	0.122	-0.215
-703.572	800.000	-0.146	-0.461
-702.558	-200.000	0.008	-0.303
-701.543	167.613	-0.148	-0.210
-700.529	-161.400	0.042	0.002
-699.514	-85.533	-0.210	0.066
-698.499	-200.000	0.015	-0.159
-697.485	-84.999	-0.215	-0.068
-696.470	800.000	-0.159	-0.453
-695.456	528.880	-0.109	0.257
-694.441	-200.000	0.010	0.259
-693.426	93.081	0.166	0.188
-692.412	177.726	-0.098	0.144
-691.397	554.752	-0.093	-0.225
-690.383	0.079	-0.187	-0.134
-689.368	-182.487	-0.176	-0.003
-688.354	392.963	-0.082	0.171
-687.339	800.000	0.063	-0.188
-686.324	-200.000	0.006	-0.264
-685.310	132.926	0.027	-0.035
-684.295	-67.772	-0.245	0.096
-683.281	395.457	-0.068	-0.141
-682.266	401.036	-0.233	-0.489
-681.251	-91.102	0.182	-0.052
-680.237	1.963	-0.222	-0.161
-679.222	-71.751	-0.257	-0.096
-678.208	-53.430	-0.431	0.198
-677.193	71.217	0.101	-0.104
-676.178	675.279	0.115	-0.299
-675.164	19.127	-0.310	0.249
-674.149	800.000	0.093	-0.292
-673.135	-60.772	-0.109	-0.046
-672.120	296.303	-0.117	0.216
-671.105	-60.043	0.047	-0.020
-670.091	-18.121	-0.389	-0.244
-669.076	800.000	0.146	0.463
-668.062	-200.000	-0.001	-0.048
-667.047	-200.000	-0.018	0.132
-666.032	108.151	0.157	-0.188
-665.018	339.375	0.079	0.154
-664.003	-29.728	0.157	-0.090
-662.989	113.258	0.077	-0.093
-661.974	40.910	-0.338	0.305
-660.959	-115.456	-0.212	0.040
-659.945	-200.000	0.048	0.328
-658.930	24.095	0.337	-0.278
-657.916	-12.097	0.268	-0.176
-656.901	163.563	-0.163	0.229
-655.886	-200.000	0.024	-0.383
-654.872	494.101	0.139	-0.319
-653.857	-200.000	0.032	-0.303
-652.843	-193.216	-0.171	0.002
-651.828	-137.922	-0.211	0.024
-650.814	-16.779	0.089	0.056
-649.799	774.251	-0.109	0.297
-648.784	-162.161	-0.400	0.020
-647.770	-114.737	0.081	-0.015
-646.755	14.058	-0.189	0.147
-645.741	-147.513	-0.316	0.027
-644.726	-200.000	-0.034	0.289
-643.711	237.567	0.210	-0.348
-642.697	-117.223	0.673	0.122
-641.682	39.406	-0.113	0.102
-640.668	-87.514	-0.331	-0.100
-639.653	-116.725	-0.211	-0.039
-638.638	346.216	-0.123	-0.242
-637.624	104.197	0.201	-0.236
-636.609	199.772	0.114	0.174
-635.595	34.027	-0.064	0.056
-634.580	46.872	-0.128	-0.119
-633.565	-85.814	-0.152	0.047
-632.551	-110.174	-0.223	0.046
-631.536	-119.119	0.092	0.016
-630.522	8.037	-0.122	0.092
-629.507	-90.339	-0.150	-0.043
-628.492	-88.570	0.290	-0.086
-627.478	19.630	-0.082	0.066
-626.463	18.456	-0.103	-0.082
-625.449	-61.083	-0.254	-0.107
-624.434	-89.256	0.187	-0.055
-623.419	32.081	-0.282	0.243
-622.405	-146.128	-0.168	-0.015
-621.390	38.580	0.150	-0.133
-620.376	-149.305	-0.334	0.027
-619.361	800.000	0.116	-0.373
-618.346	241.051	-0.058	0.096
-617.332	-10.607	-0.187	-0.124
-616.317	-200.000	-0.062	-0.580
-615.303	-118.022	-0.258	-0.046
-614.288	21.485	-0.186	0.151
-613.273	39.840	0.144	0.129
-612.259	-53.592	0.268	-0.123
-611.244	349.997	-0.093	0.183
-610.230	12.948	-0.102	0.079
-609.215	17.567	0.104	-0.083
-608.201	84.675	-0.072	0.078
-607.186	516.335	0.147	0.342
-606.171	-200.000	0.035	-0.198
-605.157	-121.771	0.272	-0.045
-604.142	-75.186	0.061	-0.022
-603.128	-200.000	-0.020	0.094
-602.113	-125.542	-0.086	-0.013
-601.098	-52.024	-0.160	-0.074
-600.084	506.992	-0.132	-0.306
-599.069	22.976	-0.102	-0.083
-598.055	536.798	-0.105	0.249
-597.040	104.747	-0.133	-0.157
-596.025	2.467	-0.358	-0.259
-595.011	579.994	0.134	-0.327
-593.996	-200.000	-0.017	-0.153
-592.982	-200.000	0.021	-0.126
-591.967	109.059	0.087	-0.104
-590.952	211.607	0.173	0.272
-589.938	-20.740	0.338	0.207
-588.923	-100.626	-0.333	-0.082
-587.909	-112.582	0.178	0.035
-586.894	54.922	-0.107	-0.103
-585.879	800.000	-0.077	0.286
-584.865	124.385	0.301	0.377
-583.850	164.288	0.171	0.240
-582.836	-59.121	0.428	0.184
-581.821	-176.645	0.353	-0.009
-580.806	94.316	0.272	0.308
-579.792	30.680	-0.086	-0.074
-578.777	-52.438	-0.091	-0.042
-577.763	-200.000	-0.009	-0.146
-576.748	345.259	-0.062	-0.122
-575.733	-85.905	0.111	-0.034
-574.719	-200.000	-0.012	-0.450
-573.704	-200.000	0.033	-0.376
-572.690	-45.603	-0.073	-0.036
-571.675	-76.287	-0.453	-0.159
-570.661	-50.407	-0.131	-0.061
-569.646	-57.089	-0.289	0.127
-568.631	618.423	0.148	-0.371
-567.617	346.271	0.090	-0.176
-566.602	-200.000	-0.043	0.197
-565.588	-73.073	-0.309	0.113
-564.573	43.301	-0.098	0.089
-563.558	-89.298	-0.050	0.015
-562.544	-49.969	0.270	0.128
-561.529	316.844	-0.084	0.158
-560.515	78.919	-0.309	0.330
-559.500	-200.000	0.048	-0.232
-558.485	-83.476	0.166	-0.053
-557.471	171.874	-0.149	0.213
-556.456	79.171	0.254	0.271
-555.442	43.725	0.148	0.135
-554.427	-200.000	-0.263	-0.001
-553.412	65.309	0.161	0.163
-552.398	9.783	-0.317	-0.239
-551.383	21.019	0.129	-0.104
-550.369	-78.756	-0.306	-0.104
-549.354	-200.000	-0.019	0.437
-548.339	-5.207	0.279	0.191
-547.325	313.634	-0.132	-0.247
-546.310	85.558	-0.119	-0.130
-545.296	800.000	-0.083	-0.283
-544.281	-200.000	0.004	-0.128
-543.266	248.511	0.171	-0.288
-542.252	-133.721	0.064	0.008
-541.237	534.674	0.100	0.236
-540.223	800.000	0.005	-0.020
-539.208	-135.594	0.394	0.047
-538.193	224.265	-0.029	0.047
-537.179	-129.183	0.052	0.007
-536.164	20.912	0.140	-0.113
-535.150	-20.927	-0.246	0.150
-534.135	-44.369	0.186	0.093
-533.121	99.795	-0.225	-0.259
-532.106	-133.154	0.251	-0.032
-531.091	800.000	0.078	0.241
-530.077	-200.000	-0.044	-0.242
-529.062	-31.311	0.201	-0.113
-528.048	-144.283	0.108	0.010
-527.033	-137.548	0.135	0.015
-526.018	-126.646	0.341	0.050
-525.004	449.114	0.100	-0.219
-523.989	-97.490	-0.493	-0.128
-522.975	-200.000	0.001	-0.048
-521.960	-52.815	-0.101	0.046
-520.945	-35.631	0.303	0.164
-519.931	-21.705	-0.225	0.137
-518.916	58.821	0.081	-0.079
-517.902	218.957	0.147	-0.235
-516.887	-11.979	-0.283	-0.184
-515.872	94.548	0.202	0.228
-514.858	-67.632	-0.087	-0.034
-513.843	-90.852	-0.233	0.067
-512.829	110.631	-0.063	0.075
-511.814	-200.000	0.007	0.121
-510.799	-47.837	-0.287	-0.138
-509.785	-51.154	-0.311	0.145
-508.770	800.000	-0.087	0.313
-507.756	100.049	0.182	-0.210
-506.741	-40.961	0.162	-0.083
-505.726	260.165	0.083	0.142
-504.712	-200.000	-0.016	-0.141
-503.697	84.112	0.247	-0.269
-502.683	-200.000	-0.004	-0.415
-501.668	-200.000	-0.021	0.234
-500.653	420.045	-0.164	-0.348
-499.639	800.000	-0.070	0.244
-498.624	-137.189	-0.272	-0.031
-497.610	-48.497	-0.025	-0.012
-496.595	-200.000	0.009	0.309
-495.581	12.721	0.214	-0.164
-494.566	-110.073	-0.144	0.030
-493.551	-42.064	0.198	-0.101
-492.537	341.925	-0.169	0.328
-491.522	20.686	-0.150	0.120
-490.508	-108.310	-0.079	-0.017
-489.493	-163.244	0.483	-0.023
-488.478	-23.041	-0.162	0.097
-487.464	-177.845	-0.200	-0.005
-486.449	-137.062	-0.276	0.031
-485.435	-78.963	-0.316	0.107
-484.420	150.802	0.163	-0.221
-483.405	211.339	-0.115	-0.180
-482.391	85.260	0.046	-0.050
-481.376	-161.055	0.427	0.022
-480.362	-30.898	0.049	-0.028
-479.347	-20.137	-0.282	0.173
-478.332	-200.000	0.013	-0.135
-477.318	34.446	0.126	-0.110
-476.303	520.535	-0.123	-0.287
-475.289	-78.762	0.144	0.049
-474.274	-46.361	0.187	-0.091
-473.259	800.000	-0.058	-0.183
-472.245	-200.000	0.057	-0.450
-471.230	-75.709	0.313	0.110
-470.216	-161.683	-0.521	0.026
-469.201	248.855	-0.147	-0.246
-468.186	-81.023	0.405	-0.133
-467.172	800.000	0.057	-0.161
-466.157	800.000	-0.055	0.153
-465.143	41.921	-0.187	-0.169
-464.128	199.544	0.055	0.084
-463.113	800.000	0.067	0.216
-462.099	-5.636	-0.373	0.254
-461.084	29.036	-0.263	-0.222
-460.070	-110.943	0.147	-0.030
-459.055	-131.299	-0.067	-0.009
-458.040	-101.783	-0.090	0.022
-457.026	115.823	0.092	0.112
-456.011	282.843	-0.195	-0.348
-454.997	102.838	0.092	0.107
-453.982	-34.062	-0.296	0.161
-452.968	800.000	0.045	-0.137
-451.953	210.918	-0.228	0.355
-450.938	800.000	-0.063	-0.228
-449.924	800.000	-0.024	0.079
-448.909	-46.665	0.159	-0.077
-447.895	800.000	0.047	0.143
-446.880	-149.379	-0.408	-0.032
-445.865	56.917	0.027	-0.026
-444.851	103.441	-0.221	-0.257
-443.836	-112.705	0.158	-0.031
-442.822	-46.917	0.151	-0.073
-441.807	34.917	-0.306	-0.266
-440.792	-200.000	0.006	0.114
-439.778	286.752	-0.105	0.189
-438.763	-12.049	0.052	-0.034
-437.749	63.425	0.146	-0.145
-436.734	15.775	-0.199	-0.155
-435.719	84.907	0.234	-0.254
-434.705	800.000	-0.054	-0.156
-433.690	-96.574	0.308	0.081
-432.676	-150.439	-0.324	-0.025
-431.661	-182.149	-0.615	0.011
-430.646	-111.979	-0.211	0.042
-429.632	-75.565	0.249	-0.088
-428.617	-50.921	-0.330	0.154
-427.603	-200.000	-0.003	0.094
-426.588	-2.446	-0.035	-0.025
-425.573	273.907	0.236	0.414
-424.559	319.531	0.088	-0.166
-423.544	-200.000	0.016	0.102
-422.530	-144.700	-0.186	-0.017
-421.515	-200.000	-0.005	-0.176
-420.500	-92.437	0.130	0.036
-419.486	-95.885	-0.202	0.053
-418.471	366.640	-0.093	-0.187
-417.457	271.997	-0.125	-0.219
-416.442	-82.919	-0.172	-0.055
-415.428	-29.827	-0.168	0.095
-414.413	429.137	0.057	0.122
-413.398	-127.958	-0.377	0.054
-412.384	800.000	-0.046	0.128
-411.369	23.037	0.091	0.074
-410.355	115.566	0.058	-0.070
-409.340	800.000	0.033	0.095
-408.325	-113.643	-0.144	-0.028
-407.311	424.991	0.111	-0.237
-406.296	21.490	0.053	-0.043
-405.282	-120.810	-0.179	0.030
-404.267	-89.771	0.132	0.038
-403.252	398.856	0.077	-0.159
-402.238	457.400	0.070	-0.154
-401.223	800.000	-0.089	0.261
-400.209	251.150	0.123	-0.207
-399.194	19.591	-0.204	-0.163
-398.179	800.000	-0.054	0.148
-397.165	-133.523	-0.279	0.035
-396.150	432.581	-0.054	-0.116
-395.136	-200.000	0.023	0.125
-394.121	800.000	-0.015	0.048
-393.106	-15.834	0.155	-0.098
-392.092	800.000	0.034	-0.100
-391.077	-200.000	0.012	-0.135
-390.063	-200.000	-0.001	-0.225
-389.048	800.000	-0.045	-0.140
-388.033	-11.186	-0.052	-0.034
-387.019	-59.049	0.302	0.129
-386.004	-200.000	0.024	-0.232
-384.990	360.029	0.073	0.145
-383.975	-52.870	0.154	-0.070
-382.960	399.227	-0.103	0.214
-381.946	-200.000	0.035	-0.164
-380.931	-26.940	-0.160	-0.092
-379.917	800.000	-0.062	-0.229
-378.902	-39.895	-0.171	0.088
-377.888	170.735	0.061	-0.087
-376.873	56.423	0.260	0.250
-375.858	173.019	-0.136	0.194
-374.844	-200.000	-0.014	-0.284
-373.829	-200.000	0.000	0.181
-372.815	-200.000	-0.013	-0.275
-371.800	617.139	-0.077	0.192
-370.785	-93.350	0.199	0.055
-369.771	-23.039	0.402	-0.239
-368.756	-137.591	0.263	-0.029
-367.742	32.526	0.054	-0.046
-366.727	-83.276	0.208	0.066
-365.712	154.682	-0.160	0.218
-364.698	-200.000	-0.039	0.169
-363.683	-200.000	-0.016	-0.099
-362.669	83.012	0.153	0.165
-361.654	-200.000	-0.006	-0.132
-360.639	800.000	-0.075	0.304
-359.625	-43.969	-0.130	0.065
-358.610	-200.000	-0.048	0.249
-357.596	-18.771	-0.219	-0.135
-356.581	-200.000	-0.026	-0.282
-355.566	260.592	0.213	0.365
-354.552	-33.861	0.244	0.133
-353.537	89.131	-0.156	-0.172
-352.523	-57.437	0.189	-0.082
-351.508	-42.016	0.200	0.101
-350.493	168.094	-0.131	-0.184
-349.479	98.777	0.173	-0.197
-348.464	-34.389	0.204	0.111
-347.450	-200.000	-0.007	-0.036
-346.435	-150.357	-0.184	0.014
-345.420	132.371	0.056	-0.071
-344.406	107.989	0.094	0.110
-343.391	7.431	-0.201	0.149
-342.377	220.381	0.125	0.198
-341.362	800.000	-0.017	0.064
-340.348	-200.000	0.001	0.035
-339.333	-200.000	0.048	0.216
-338.318	800.000	0.116	0.361
-337.304	319.234	0.163	0.306
-336.289	-104.662	0.181	0.041
-335.275	22.165	-0.120	0.096
-334.260	-140.141	-0.138	-0.014
-333.245	167.923	-0.109	0.153
-332.231	-73.033	-0.146	0.053
-331.216	-200.000	-0.057	-0.417
-330.202	-200.000	-0.019	-0.138
-329.187	-106.736	-0.077	0.017
-328.172	-30.716	0.213	-0.119
-327.158	-107.657	0.164	0.035
-326.143	246.307	0.159	0.265
-325.129	-200.000	0.149	0.676
-324.114	-200.000	-0.007	0.302
-323.099	431.222	0.232	-0.496
-322.085	216.486	0.169	-0.266
-321.070	-24.104	-0.144	0.085
-320.056	-117.106	-0.108	0.019
-319.041	-200.000	-0.038	-0.386
-318.026	800.000	-0.099	-0.284
-317.012	156.407	0.161	0.219
-315.997	67.880	-0.105	-0.106
-314.983	122.082	-0.201	-0.248
-313.968	99.748	0.172	-0.197
-312.953	-115.136	0.256	-0.048
-311.939	-200.000	-0.010	-0.175
-310.924	-200.000	0.011	-0.168
-309.910	80.744	0.192	-0.205
-308.895	176.646	0.203	0.292
-307.880	635.600	0.135	0.337
-306.866	676.590	-0.131	0.335
-305.851	-61.840	0.322	-0.133
-304.837	-200.000	0.022	-0.175
-303.822	14.185	0.077	0.060
-302.807	-200.000	-0.426	-0.001
-301.793	-93.212	0.357	0.098
-300.778	195.846	-0.197	0.296
-299.764	-75.567	0.325	0.114
-298.749	293.832	-0.107	0.193
-297.735	-10.093	-0.077	0.051
-296.720	-200.000	0.003	-0.074
-295.705	-124.953	-0.151	0.023
-294.691	-200.000	0.006	0.142
-293.676	-124.472	-0.072	0.011
-292.662	-200.000	-0.029	0.137
-291.647	-110.665	-0.271	-0.055
-290.632	121.746	0.198	0.243
-289.618	-162.275	0.160	0.008
-288.603	-62.235	-0.139	-0.057
-287.589	-200.000	-0.037	-0.188
-286.574	-200.000	0.005	0.127
-285.559	157.260	0.071	-0.097
-284.545	-121.088	-0.317	-0.052
-283.530	341.351	-0.075	0.144
-282.516	-200.000	-0.000	0.424
-281.501	-3.415	0.144	-0.099
-280.486	-32.968	0.099	-0.054
-279.472	-92.906	0.161	0.044
-278.457	-175.243	-0.263	-0.007
-277.443	-89.353	0.321	-0.093
-276.428	-39.047	0.161	-0.083
-275.413	-23.061	0.231	0.137
-274.399	-200.000	0.016	-0.188
-273.384	219.253	-0.211	-0.332
-272.370	122.194	-0.139	-0.170
-271.355	4.519	0.122	0.088
-270.340	-142.155	0.154	-0.015
-269.326	-46.178	-0.185	-0.090
-268.311	-27.321	0.158	-0.090
-267.297	357.328	-0.036	-0.070
-266.282	-147.983	0.272	-0.022
-265.267	-51.915	0.133	-0.061
-264.253	134.615	0.122	0.156
-263.238	276.203	-0.185	-0.324
-262.224	330.809	-0.117	-0.222
-261.209	57.429	-0.149	-0.144
-260.195	-69.829	-0.259	-0.097
-259.180	-200.000	0.005	0.139
-258.165	-100.582	0.155	0.038
-257.151	800.000	-0.030	-0.105
-256.136	26.262	0.049	-0.040
-255.122	279.521	0.160	0.282
-254.107	3.100	-0.212	0.152
-253.092	85.363	-0.067	-0.073
-252.078	116.346	0.158	0.190
-251.063	800.000	0.108	0.308
-250.049	-46.635	-0.285	-0.138
-249.034	13.593	-0.041	-0.031
-248.019	-74.471	-0.242	0.086
-247.005	800.000	-0.014	-0.045
-245.990	-200.000	-0.025	-0.398
-244.976	800.000	-0.069	0.208
-243.961	-177.613	-0.193	-0.005
-242.946	800.000	0.045	-0.142
-241.932	485.502	0.053	-0.119
-240.917	-56.111	0.312	-0.137
-239.903	800.000	-0.041	-0.157
-238.888	-200.000	0.126	-0.000
-237.873	48.539	0.177	-0.163
-236.859	243.701	0.105	0.174
-235.844	58.958	0.129	-0.124
-234.830	-114.807	0.169	-0.032
-233.815	6.878	-0.099	-0.072
-232.800	-200.000	0.053	0.296
-231.786	150.897	-0.232	0.310
-230.771	30.569	0.233	-0.196
-229.757	-24.735	-0.079	0.046
-228.742	752.322	0.067	-0.178
-227.727	800.000	0.029	0.112
-226.713	-33.402	0.156	-0.085
-225.698	-200.000	0.055	0.273
-224.684	-40.553	0.053	0.027
-223.669	-200.000	0.038	0.190
-222.655	-200.000	0.097	0.449
-221.640	-163.750	0.091	-0.004
-220.625	-83.058	0.073	-0.023
-219.611	-200.000	0.040	0.632
-218.596	-94.301	-0.277	-0.074
-217.582	4.491	0.121	-0.088
-216.567	-200.000	0.007	-0.088
-215.552	-49.413	0.319	0.149
-214.538	-50.149	0.201	0.093
-213.523	-133.085	-0.318	0.040
-212.509	-200.000	0.019	-0.244
-211.494	-200.000	-0.024	0.357
-210.479	-200.000	-0.057	0.380
-209.465	127.346	0.131	-0.163
-208.450	-129.368	-0.304	-0.042
-207.436	-200.000	0.001	0.113
-206.421	55.153	0.201	0.191
-205.406	-125.518	0.154	0.023
-204.392	-110.921	-0.083	-0.017
-203.377	-5.519	-0.311	-0.210
-202.363	-149.609	0.077	0.006
-201.348	800.000	0.078	0.221
-200.333	-93.186	-0.313	-0.086
-199.319	-200.000	0.089	0.421
-198.304	116.222	0.096	-0.116
-197.290	102.413	-0.100	-0.115
-196.275	114.880	-0.101	-0.121
-195.260	-123.454	0.305	-0.048
-194.246	197.141	-0.111	0.166
-193.231	176.411	-0.081	-0.115
-192.217	800.000	-0.066	-0.221
-191.202	301.996	0.190	-0.345
-190.187	514.309	0.032	-0.072
-189.173	256.864	-0.059	-0.099
-188.158	-93.710	-0.158	-0.043
-187.144	-34.973	0.127	0.068
-186.129	800.000	-0.165	0.500
-185.114	237.388	-0.008	0.013
-184.100	681.661	0.099	-0.253
-183.085	33.112	0.132	0.112
-182.071	-98.549	-0.179	-0.045
-181.056	-48.738	-0.255	0.120
-180.042	81.676	-0.118	-0.125
-179.027	-30.147	0.198	0.110
-178.012	-116.866	0.197	0.035
-176.998	-94.713	0.549	0.146
-175.983	163.930	0.239	-0.330
-174.969	28.357	0.124	-0.103
-173.954	-16.802	0.304	0.189
-172.939	186.992	-0.215	0.315
-171.925	238.486	-0.162	0.264
-170.910	23.762	0.222	-0.180
-169.896	-2.237	-0.294	0.203
-168.881	-60.543	0.311	0.130
-167.866	-200.000	0.004	0.069
-166.852	800.000	0.071	-0.221
-165.837	-6.489	0.089	0.060
-164.823	-200.000	-0.012	0.057
-163.808	26.530	0.080	0.066
-162.793	7.045	-0.174	-0.128
-161.779	148.535	0.240	0.317
-160.764	36.457	0.014	0.012
-159.750	-35.128	0.100	0.053
-158.735	-183.639	-0.087	0.001
-157.720	317.382	-0.239	-0.443
-156.706	62.978	0.227	0.223
-155.691	-100.288	0.139	0.034
-154.677	-13.431	0.231	-0.147
-153.662	796.457	0.120	0.324
-152.647	17.587	0.220	0.171
-151.633	48.575	-0.253	0.232
-150.618	-33.935	0.233	-0.126
-149.604	204.253	-0.079	0.120
-148.589	583.445	-0.069	-0.167
-147.574	-200.000	0.041	0.215
-146.560	-84.614	-0.078	0.024
-145.545	800.000	0.094	-0.282
-144.531	195.198	-0.142	0.211
-143.516	-200.000	-0.130	0.000
-142.502	1.556	-0.132	0.093
-141.487	114.490	0.181	0.216
-140.472	-200.000	0.072	-0.335
-139.458	173.395	-0.066	0.094
-138.443	115.435	-0.103	0.123
-137.429	-22.941	0.019	0.011
-136.414	29.475	0.372	-0.310
-135.399	-200.000	-0.000	0.158
-134.385	8.659	0.247	0.182
-133.370	291.486	0.029	-0.052
-132.356	-183.661	-0.276	-0.005
-131.341	-146.354	-0.091	-0.008
-130.326	67.635	0.137	-0.137
-129.312	-200.000	-0.053	0.301
-128.297	-200.000	-0.084	0.361
-127.283	-148.498	0.198	-0.016
-126.268	-141.527	-0.295	0.029
-125.253	92.561	-0.085	0.093
-124.239	55.233	-0.045	0.043
-123.224	344.614	-0.135	-0.259
-122.210	298.567	0.104	-0.187
-121.195	-200.000	0.050	-0.296
