DTS Sentinel unit serial number:	SN413079Multiplexer serial number:	ORYXHardware model number:	OX4-SRSoftware version number:	ORYX F/W v4.00 Oryx Data Collector v3.7.2.0data status	okinstallation	princeton_trtdifferential loss correction	single-endedforward channel	channel 3reverse channel	N/Adate	2019/09/15time	23:40:34forward acquisition time	60.00reverse acquisition time	0.00gamma	496.2192k internal	0.2335k external	0.2335temperature offset calibration	0.9950default loss term (dB/km)	0.3790temperature slope calibration	1.0000multiplexer offset coefficient	1.0000multiplexer slope coefficient	1.0000fibre end	0.00T internal ref (°C)	28.06T ext. ref 1 (°C)	9.25T ext. ref 2 (°C)	21.90length (m)	temperature (°C)	Stokes	anti-Stokes-747.200	-200.000	-0.004	0.073
-746.185	800.000	-0.073	0.275
-745.171	-134.110	0.067	-0.008
-744.156	406.499	-0.042	0.090
-743.142	-200.000	-0.009	-0.271
-742.127	695.938	-0.084	0.222
-741.112	-200.000	-0.067	0.453
-740.098	-17.887	0.152	-0.096
-739.083	-130.535	-0.230	-0.031
-738.069	-4.604	-0.165	0.115
-737.054	504.341	0.068	0.159
-736.039	145.138	-0.168	0.225
-735.025	-49.746	0.199	-0.095
-734.010	-159.326	-0.395	-0.022
-732.996	-2.924	0.209	-0.147
-731.981	-200.000	-0.008	-0.301
-730.966	173.329	0.059	0.085
-729.952	-84.437	0.288	0.092
-728.937	149.671	0.191	0.260
-727.923	57.371	0.151	0.148
-726.908	-200.000	0.007	-0.049
-725.894	-200.000	0.032	-0.147
-724.879	6.236	-0.179	-0.133
-723.864	-48.220	0.188	-0.091
-722.850	-154.431	-0.256	-0.017
-721.835	-61.240	-0.251	-0.106
-720.821	-143.857	0.211	-0.020
-719.806	-2.873	-0.300	0.210
-718.791	-73.673	0.180	0.066
-717.777	394.005	0.097	0.202
-716.762	-102.902	0.309	-0.074
-715.748	-4.482	0.177	0.123
-714.733	-80.094	-0.560	-0.188
-713.718	-40.829	0.101	-0.053
-712.704	6.927	-0.303	-0.227
-711.689	-200.000	-0.033	0.301
-710.675	40.810	-0.208	-0.188
-709.660	-52.680	0.109	-0.051
-708.645	-39.957	0.143	0.075
-707.631	466.961	-0.082	0.185
-706.616	58.377	0.246	-0.242
-705.602	800.000	0.083	0.239
-704.587	442.478	0.070	0.153
-703.572	66.349	0.169	-0.172
-702.558	200.103	-0.091	-0.140
-701.543	-200.000	0.013	0.115
-700.529	61.024	0.347	-0.346
-699.514	-138.861	0.191	-0.021
-698.499	359.912	0.082	-0.165
-697.485	9.318	-0.132	0.100
-696.470	-85.271	0.288	-0.090
-695.456	107.661	0.030	0.036
-694.441	-93.873	-0.284	0.078
-693.426	-90.569	0.209	-0.060
-692.412	-200.000	0.035	-0.270
-691.397	-87.931	-0.213	0.064
-690.383	-200.000	0.006	0.437
-689.368	44.897	0.349	-0.322
-688.354	491.598	-0.055	0.127
-687.339	271.495	0.014	-0.025
-686.324	-168.223	-0.237	-0.009
-685.310	349.321	-0.067	0.133
-684.295	69.142	-0.198	-0.204
-683.281	-92.182	-0.122	-0.035
-682.266	426.101	-0.066	-0.143
-681.251	-113.212	-0.265	0.052
-680.237	-200.000	0.008	0.050
-679.222	182.295	-0.102	-0.151
-678.208	800.000	0.091	0.343
-677.193	250.456	0.122	-0.207
-676.178	398.633	-0.069	0.145
-675.164	-66.565	-0.139	0.055
-674.149	0.766	-0.254	0.182
-673.135	-200.000	0.042	-0.227
-672.120	89.861	0.050	0.056
-671.105	493.079	0.100	-0.230
-670.091	163.275	-0.014	0.019
-669.076	660.541	-0.203	-0.525
-668.062	113.099	0.071	-0.087
-667.047	800.000	-0.041	0.126
-666.032	-120.191	-0.291	-0.050
-665.018	-141.629	-0.251	-0.025
-664.003	-200.000	0.026	-0.210
-662.989	-151.445	0.231	-0.017
-661.974	800.000	-0.119	-0.411
-660.959	-200.000	-0.040	-0.213
-659.945	156.397	-0.095	-0.132
-658.930	-157.311	0.198	-0.012
-657.916	800.000	0.029	-0.094
-656.901	-70.174	0.135	0.051
-655.886	36.312	-0.314	0.277
-654.872	190.160	0.138	0.207
-653.857	-121.637	-0.142	0.024
-652.843	160.316	0.131	-0.182
-651.828	-60.542	0.123	0.052
-650.814	-5.962	-0.263	0.180
-649.799	-95.114	-0.127	-0.034
-648.784	-151.526	0.186	0.014
-647.770	-200.000	-0.003	0.024
-646.755	-106.433	-0.100	-0.022
-645.741	279.724	0.108	0.194
-644.726	75.353	-0.099	0.105
-643.711	-200.000	0.003	-0.123
-642.697	-139.663	-0.346	-0.037
-641.682	50.586	0.177	0.168
-640.668	-81.873	-0.249	-0.081
-639.653	-3.711	-0.126	0.087
-638.638	-83.368	-0.239	-0.077
-637.624	460.122	0.051	-0.114
-636.609	-100.203	-0.124	0.031
-635.595	79.032	-0.045	-0.049
-634.580	347.799	0.095	-0.188
-633.565	-118.236	-0.152	0.027
-632.551	-72.502	0.026	-0.010
-631.536	-121.569	0.438	-0.073
-630.522	-142.574	-0.227	-0.022
-629.507	-200.000	-0.012	0.164
-628.492	387.581	-0.047	0.097
-627.478	-33.030	-0.353	-0.196
-626.463	-127.659	-0.164	-0.024
-625.449	-16.392	-0.096	0.061
-624.434	53.710	0.124	-0.119
-623.419	79.613	0.140	0.151
-622.405	137.468	-0.061	0.080
-621.390	264.265	0.105	0.182
-620.376	-11.387	0.131	0.086
-619.361	-114.512	-0.134	0.026
-618.346	7.346	0.094	-0.071
-617.332	800.000	-0.052	0.209
-616.317	19.571	-0.236	-0.190
-615.303	-5.731	-0.052	0.036
-614.288	-197.060	-0.072	0.000
-613.273	-98.992	0.205	-0.052
-612.259	-42.102	-0.124	-0.063
-611.244	488.414	0.085	-0.195
-610.230	-72.773	0.221	0.081
-609.215	800.000	-0.094	0.296
-608.201	-9.000	0.043	0.028
-607.186	-137.922	-0.239	-0.027
-606.171	-120.241	-0.259	0.044
-605.157	-90.933	-0.069	-0.020
-604.142	18.793	0.184	0.147
-603.128	-200.000	-0.003	-0.057
-602.113	800.000	-0.030	0.108
-601.098	-114.196	0.309	-0.060
-600.084	800.000	0.029	-0.082
-599.069	800.000	0.128	-0.483
-598.055	111.150	-0.029	-0.035
-597.040	53.405	-0.218	-0.209
-596.025	800.000	-0.075	-0.210
-595.011	-176.525	-0.098	0.003
-593.996	197.822	0.144	-0.219
-592.982	-55.771	-0.173	-0.077
-591.967	356.590	-0.111	0.221
-590.952	-107.502	-0.430	0.094
-589.938	-106.433	-0.342	-0.076
-588.923	-109.134	0.272	-0.058
-587.909	-66.238	0.126	-0.050
-586.894	113.871	0.186	0.226
-585.879	175.540	-0.091	0.132
-584.865	104.864	-0.077	0.090
-583.850	-38.740	0.126	-0.067
-582.836	-134.765	-0.093	-0.011
-581.821	-35.628	0.486	0.263
-580.806	800.000	0.046	0.198
-579.792	225.420	0.168	0.272
-578.777	82.016	0.075	-0.081
-577.763	-189.286	-0.162	-0.002
-576.748	-28.917	-0.210	-0.120
-575.733	-67.608	-0.172	-0.067
-574.719	67.537	0.150	0.152
-573.704	-91.653	-0.260	0.074
-572.690	-84.600	-0.263	0.083
-571.675	133.703	-0.191	-0.247
-570.661	-48.597	0.156	-0.075
-569.646	-200.000	-0.029	0.418
-568.631	-118.800	0.261	0.046
-567.617	-74.915	-0.131	0.047
-566.602	28.889	-0.126	0.107
-565.588	81.452	-0.309	-0.334
-564.573	338.029	-0.069	0.134
-563.558	-200.000	-0.123	0.000
-562.544	800.000	0.059	-0.189
-561.529	800.000	0.052	0.144
-560.515	-200.000	0.015	-0.199
-559.500	-200.000	-0.204	-0.001
-558.485	-22.265	-0.056	0.034
-557.471	-1.913	0.079	-0.055
-556.456	800.000	0.147	0.439
-555.442	7.196	0.363	-0.270
-554.427	4.835	-0.274	-0.201
-553.412	339.931	0.096	-0.186
-552.398	461.905	0.103	0.230
-551.383	172.395	0.080	-0.115
-550.369	-200.000	0.054	0.339
-549.354	70.717	-0.089	-0.091
-548.339	-70.596	-0.125	0.047
-547.325	-138.781	-0.247	-0.027
-546.310	64.404	0.151	-0.151
-545.296	46.898	-0.071	-0.066
-544.281	-58.351	0.221	-0.096
-543.266	-137.437	0.325	0.037
-542.252	-33.760	0.216	-0.119
-541.237	12.610	-0.345	-0.265
-540.223	-81.338	0.381	-0.125
-539.208	800.000	-0.021	-0.076
-538.193	249.616	-0.108	0.183
-537.179	162.297	-0.087	-0.122
-536.164	-68.565	-0.362	-0.140
-535.150	37.038	-0.270	-0.238
-534.135	800.000	-0.023	-0.064
-533.121	51.639	0.135	0.128
-532.106	800.000	0.118	0.365
-531.091	800.000	0.077	-0.256
-530.077	-65.241	-0.186	0.075
-529.062	-70.637	-0.258	0.097
-528.048	215.237	-0.112	0.177
-527.033	314.418	0.132	0.247
-526.018	56.150	0.107	-0.103
-525.004	-162.158	-0.078	0.004
-523.989	-53.061	-0.159	-0.073
-522.975	-138.638	-0.473	-0.052
-521.960	-96.208	0.274	0.073
-520.945	741.994	0.066	0.176
-519.931	-121.239	-0.364	0.061
-518.916	-200.000	0.050	-0.428
-517.902	209.605	0.069	0.108
-516.887	-17.625	-0.272	0.170
-515.872	208.339	0.148	0.230
-514.858	800.000	-0.032	-0.110
-513.843	-118.603	-0.048	-0.008
-512.829	-97.621	0.210	0.054
-511.814	324.136	-0.046	0.087
-510.799	-1.327	0.157	0.111
-509.785	-200.000	-0.024	-0.183
-508.770	-47.849	-0.228	-0.110
-507.756	319.740	0.164	-0.310
-506.741	-17.858	-0.164	-0.102
-505.726	-144.774	-0.089	0.008
-504.712	-126.447	-0.352	0.052
-503.697	61.779	0.280	0.277
-502.683	-141.070	-0.312	0.032
-501.668	195.320	0.069	-0.104
-500.653	26.046	-0.049	-0.041
-499.639	181.662	-0.056	-0.082
-498.624	-182.258	-0.169	0.003
-497.610	293.869	-0.018	-0.033
-496.595	81.551	0.153	-0.165
-495.581	-71.383	-0.475	-0.177
-494.566	554.053	0.056	-0.134
-493.551	-110.868	0.077	-0.016
-492.537	5.247	-0.222	0.163
-491.522	317.204	-0.079	0.149
-490.508	663.258	0.063	-0.162
-489.493	-200.000	0.026	0.141
-488.478	-110.524	0.276	-0.057
-487.464	-12.089	0.175	-0.114
-486.449	54.905	-0.304	0.292
-485.435	800.000	0.035	-0.133
-484.420	261.076	-0.076	-0.132
-483.405	-155.845	-0.463	0.029
-482.391	-66.449	0.167	-0.066
-481.376	-200.000	0.018	0.088
-480.362	315.137	0.101	-0.189
-479.347	-73.969	-0.427	0.154
-478.332	158.193	0.040	0.055
-477.318	666.092	0.009	-0.024
-476.303	800.000	0.072	-0.203
-475.289	-79.297	0.158	0.053
-474.274	800.000	0.070	0.255
-473.259	-99.092	-0.429	-0.108
-472.245	445.595	-0.157	0.343
-471.230	-200.000	0.340	-0.001
-470.216	-200.000	0.025	-0.311
-469.201	-92.845	-0.336	-0.093
-468.186	-126.629	0.238	-0.035
-467.172	-38.854	0.341	0.178
-466.157	-200.000	0.027	0.257
-465.143	800.000	-0.141	-0.510
-464.128	800.000	0.026	0.083
-463.113	-132.731	-0.197	0.025
-462.099	-49.673	0.175	-0.083
-461.084	4.244	-0.103	-0.075
-460.070	-3.001	0.202	-0.140
-459.055	173.687	0.193	-0.277
-458.040	29.791	0.274	-0.232
-457.026	-92.160	0.412	0.116
-456.011	153.262	0.054	0.074
-454.997	153.941	0.132	-0.180
-453.982	22.706	0.434	0.353
-452.968	-200.000	-0.070	0.320
-451.953	514.844	-0.058	0.133
-450.938	-200.000	-0.002	0.026
-449.924	800.000	0.114	-0.324
-448.909	277.701	-0.085	0.151
-447.895	-56.869	-0.210	-0.092
-446.880	-200.000	0.011	0.128
-445.865	25.978	-0.318	-0.263
-444.851	-109.939	0.050	-0.010
-443.836	381.846	-0.077	0.157
-442.822	800.000	0.047	-0.163
-441.807	-124.228	-0.166	-0.026
-440.792	-120.472	-0.224	-0.038
-439.778	-200.000	-0.075	0.393
-438.763	96.914	-0.097	0.111
-437.749	58.065	0.487	0.473
-436.734	-200.000	-0.034	0.183
-435.719	-36.128	-0.313	-0.168
-434.705	106.486	0.173	-0.204
-433.690	-68.438	0.105	0.041
-432.676	-83.155	0.430	0.137
-431.661	187.174	0.087	-0.129
-430.646	118.532	-0.032	0.039
-429.632	27.926	-0.149	0.125
-428.617	-161.180	0.373	-0.019
-427.603	-200.000	0.001	0.054
-426.588	167.538	-0.113	-0.159
-425.573	-68.818	0.349	-0.134
-424.559	-100.811	0.376	0.092
-423.544	-200.000	0.007	0.194
-422.530	-49.876	0.053	-0.025
-421.515	-51.714	0.231	-0.107
-420.500	800.000	0.112	-0.327
-419.486	-110.553	0.223	-0.046
-418.471	103.989	-0.136	-0.159
-417.457	-115.177	-0.217	-0.041
-416.442	800.000	0.168	-0.529
-415.428	348.524	-0.030	-0.058
-414.413	-200.000	-0.017	0.250
-413.398	800.000	0.066	-0.241
-412.384	-200.000	-0.008	-0.137
-411.369	-35.483	-0.126	0.068
-410.355	800.000	0.081	0.228
-409.340	-200.000	0.077	0.374
-408.325	800.000	0.135	0.492
-407.311	-138.463	-0.323	-0.035
-406.296	-200.000	-0.036	-0.166
-405.282	66.448	0.169	-0.170
-404.267	778.876	0.090	0.243
-403.252	66.718	-0.227	0.229
-402.238	-114.043	0.046	-0.009
-401.223	-200.000	-0.018	-0.250
-400.209	108.056	-0.161	0.191
-399.194	-121.391	0.174	-0.029
-398.179	-50.661	-0.321	0.150
-397.165	-17.946	0.249	0.155
-396.150	143.653	0.151	-0.199
-395.136	612.817	0.019	-0.048
-394.121	-57.819	0.103	0.045
-393.106	232.332	-0.192	-0.312
-392.092	-69.140	0.133	0.051
-391.077	409.389	0.090	0.189
-390.063	-116.047	-0.189	-0.035
-389.048	208.188	-0.121	0.187
-388.033	-136.213	0.261	0.030
-387.019	70.711	0.152	0.156
-386.004	-163.789	-0.201	0.009
-384.990	173.202	-0.157	0.224
-383.975	404.342	-0.104	-0.216
-382.960	55.974	-0.091	-0.088
-381.946	-200.000	-0.076	0.415
-380.931	800.000	-0.021	-0.059
-379.917	-200.000	-0.071	-0.448
-378.902	-134.063	0.112	-0.014
-377.888	-8.195	-0.120	-0.080
-376.873	-62.580	-0.166	0.068
-375.858	-159.655	0.241	-0.013
-374.844	7.913	-0.180	-0.134
-373.829	130.782	-0.039	0.050
-372.815	66.264	-0.249	0.251
-371.800	395.965	-0.074	0.154
-370.785	607.109	0.062	-0.153
-369.771	800.000	0.057	0.238
-368.756	-157.349	0.137	0.008
-367.742	24.350	0.110	-0.090
-366.727	2.238	-0.013	-0.009
-365.712	-109.398	-0.244	-0.051
-364.698	189.264	0.126	-0.187
-363.683	190.487	0.094	0.140
-362.669	-82.620	-0.325	-0.104
-361.654	352.461	-0.131	-0.256
-360.639	-72.887	0.122	-0.044
-359.625	-177.174	0.246	0.006
-358.610	2.073	-0.249	0.178
-357.596	-36.069	-0.252	0.134
-356.581	293.641	-0.115	0.208
-355.566	15.022	-0.025	0.020
-354.552	26.747	0.027	0.022
-353.537	-65.138	0.365	-0.146
-352.523	-11.636	-0.131	0.085
-351.508	-200.000	-0.022	0.169
-350.493	84.393	-0.087	-0.094
-349.479	-200.000	0.072	-0.408
-348.464	-69.890	0.285	-0.107
-347.450	-144.815	0.218	-0.020
-346.435	-6.224	0.280	0.189
-345.420	-54.894	-0.159	0.071
-344.406	158.179	-0.124	0.170
-343.391	-174.147	-0.277	0.008
-342.377	573.202	0.061	0.148
-341.362	-59.123	-0.296	0.126
-340.348	-98.412	0.395	-0.100
-339.333	-6.126	-0.274	-0.185
-338.318	-30.892	0.442	0.247
-337.304	-200.000	-0.071	-0.399
-336.289	-20.335	-0.173	-0.105
-335.275	-95.100	0.041	-0.011
-334.260	-123.584	0.189	-0.030
-333.245	-24.265	-0.166	-0.098
-332.231	-147.892	-0.106	-0.009
-331.216	-73.559	0.396	-0.143
-330.202	-44.177	-0.404	-0.200
-329.187	557.735	0.081	0.192
-328.172	38.123	0.068	-0.060
-327.158	220.166	0.103	-0.164
-326.143	-83.352	-0.071	-0.022
-325.129	12.721	0.176	-0.135
-324.114	-79.095	0.277	-0.093
-323.099	98.340	0.150	0.171
-322.085	-62.179	0.145	-0.060
-321.070	-1.980	0.314	0.218
-320.056	265.415	0.111	-0.191
-319.041	-200.000	-0.488	-0.001
-318.026	-200.000	0.002	0.050
-317.012	-134.308	0.201	0.024
-315.997	51.458	-0.043	0.040
-314.983	800.000	-0.080	-0.274
-313.968	-119.277	0.358	0.062
-312.953	800.000	0.080	0.301
-311.939	-63.945	-0.230	-0.093
-310.924	371.390	0.091	0.182
-309.910	-185.026	0.097	0.002
-308.895	-21.937	-0.210	-0.126
-307.880	-121.588	0.286	-0.047
-306.866	-186.526	-0.348	-0.005
-305.851	111.503	-0.155	-0.185
-304.837	-51.295	0.039	0.018
-303.822	-64.224	0.146	-0.059
-302.807	708.334	-0.094	-0.245
-301.793	-175.842	0.578	-0.015
-300.778	-134.419	-0.202	-0.024
-299.764	196.881	0.139	0.209
-298.749	-200.000	-0.015	-0.068
-297.735	-174.372	0.037	0.001
-296.720	-50.868	0.010	0.005
-295.705	197.697	0.027	0.040
-294.691	71.307	0.204	0.209
-293.676	-200.000	0.026	-0.258
-292.662	-50.138	0.217	-0.101
-291.647	81.356	-0.251	-0.268
-290.632	800.000	-0.065	-0.223
-289.618	800.000	0.011	-0.032
-288.603	-159.640	0.166	-0.009
-287.589	11.297	0.173	-0.131
-286.574	-200.000	0.062	-0.268
-285.559	-13.356	0.376	0.240
-284.545	-19.453	-0.311	-0.190
-283.530	275.347	0.047	0.083
-282.516	-200.000	-0.020	0.196
-281.501	11.697	-0.082	-0.062
-280.486	150.785	0.110	0.148
-279.472	-54.462	0.108	0.048
-278.457	131.932	0.084	-0.106
-277.443	118.646	0.149	0.181
-276.428	486.497	-0.101	-0.227
-275.413	-200.000	-0.001	0.063
-274.399	107.400	0.237	-0.278
-273.384	25.634	0.088	-0.072
-272.370	800.000	-0.028	0.100
-271.355	51.820	-0.072	-0.068
-270.340	-11.149	-0.278	-0.181
-269.326	-176.279	-0.172	-0.004
-268.311	-6.101	0.239	-0.161
-267.297	64.272	-0.144	-0.143
-266.282	37.489	-0.258	0.226
-265.267	696.612	-0.043	-0.110
-264.253	-1.806	0.141	-0.098
-263.238	-200.000	0.028	-0.219
-262.224	-88.413	0.123	0.036
-261.209	-200.000	0.049	0.403
-260.195	800.000	-0.044	-0.126
-259.180	800.000	0.042	-0.135
-258.165	-87.419	0.238	-0.071
-257.151	800.000	0.069	-0.200
-256.136	800.000	0.069	0.293
-255.122	23.434	0.070	-0.057
-254.107	-71.376	-0.199	0.074
-253.092	-12.674	0.325	0.209
-252.078	800.000	-0.080	-0.320
-251.063	-200.000	0.008	-0.201
-250.049	-200.000	0.017	-0.095
-249.034	800.000	0.053	0.216
-248.019	32.398	0.163	0.139
-247.005	548.898	0.084	-0.198
-245.990	-32.590	-0.115	0.063
-244.976	-136.962	-0.114	0.013
-243.961	425.920	0.026	0.055
-242.946	-152.090	-0.075	0.005
-241.932	270.123	0.171	0.296
-240.917	-200.000	-0.014	-0.114
-239.903	-69.259	-0.370	0.140
-238.888	128.807	-0.233	0.293
-237.873	-200.000	-0.115	0.509
-236.859	150.744	-0.058	0.078
-235.844	-199.097	-0.337	-0.002
-234.830	70.285	0.031	-0.032
-233.815	800.000	0.118	0.423
-232.800	800.000	0.107	0.454
-231.786	-200.000	0.043	0.237
-230.771	163.260	0.100	0.139
-229.757	-200.000	-0.003	0.258
-228.742	61.091	0.284	0.277
-227.727	-92.123	-0.192	0.054
-226.713	337.796	-0.027	0.052
-225.698	-79.319	-0.262	0.087
-224.684	-72.631	0.166	0.060
-223.669	-120.126	-0.331	-0.056
-222.655	-16.640	0.257	0.160
-221.640	-0.741	-0.074	-0.052
-220.625	-107.707	0.103	0.022
-219.611	-200.000	0.025	-0.232
-218.596	194.978	-0.072	-0.107
-217.582	9.985	0.162	0.121
-216.567	-200.000	-0.013	0.480
-215.552	-25.225	0.273	0.159
-214.538	69.707	0.102	-0.103
-213.523	110.390	0.190	-0.224
-212.509	-33.191	-0.058	0.032
-211.494	-200.000	-0.039	-0.239
-210.479	35.122	-0.066	-0.056
-209.465	252.053	0.127	-0.213
-208.450	800.000	0.099	-0.291
-207.436	-136.371	-0.159	-0.018
-206.421	-73.566	-0.163	0.058
-205.406	-129.371	-0.416	0.057
-204.392	126.754	-0.160	0.200
-203.377	278.531	0.191	-0.334
-202.363	368.103	-0.128	0.253
-201.348	-100.268	-0.223	0.055
-200.333	-12.161	0.131	-0.084
-199.319	-134.628	-0.165	0.020
-198.304	73.317	-0.252	-0.259
-197.290	-103.431	0.373	0.086
-196.275	-133.991	-0.355	-0.043
-195.260	-200.000	0.010	0.257
-194.246	-200.000	-0.019	-0.171
-193.231	301.493	0.064	-0.117
-192.217	-200.000	-0.046	-0.271
-191.202	-91.506	0.216	0.060
-190.187	-200.000	-0.068	0.305
-189.173	15.760	-0.228	0.177
-188.158	-43.235	0.212	0.105
-187.144	53.713	-0.317	0.300
-186.129	122.051	-0.199	0.245
-185.114	-109.614	0.250	-0.052
-184.100	213.489	-0.099	-0.154
-183.085	273.243	0.132	-0.229
-182.071	-82.191	-0.282	0.090
-181.056	800.000	0.054	0.199
-180.042	49.637	-0.159	0.147
-179.027	4.986	0.114	-0.083
-178.012	-42.131	0.207	0.104
-176.998	-132.968	0.089	-0.011
-175.983	67.919	0.150	0.150
-174.969	442.206	-0.049	-0.106
-173.954	-200.000	-0.017	0.219
-172.939	225.714	0.094	-0.150
-171.925	32.196	0.101	-0.086
-170.910	546.997	0.075	0.177
-169.896	165.532	0.148	-0.205
-168.881	-200.000	0.011	-0.411
-167.866	-200.000	0.001	-0.157
-166.852	-200.000	0.063	-0.428
-165.837	268.972	0.229	-0.395
-164.823	-66.182	-0.292	-0.114
-163.808	-106.970	0.108	-0.024
-162.793	116.466	0.198	-0.238
-161.779	-121.729	0.248	-0.040
-160.764	800.000	0.043	0.128
-159.750	-56.906	0.148	-0.064
-158.735	-123.187	-0.023	0.004
-157.720	-44.895	-0.273	0.133
-156.706	-200.000	-0.042	0.199
-155.691	-200.000	0.013	0.154
-154.677	-45.181	0.236	-0.115
-153.662	-200.000	-0.031	0.180
-152.647	-200.000	0.031	0.182
-151.633	-177.555	0.117	-0.003
-150.618	-111.710	0.067	-0.013
-149.604	-43.954	-0.093	-0.046
-148.589	-200.000	-0.021	-0.106
-147.574	-144.338	0.392	0.036
-146.560	3.119	0.123	-0.088
-145.545	64.121	-0.059	-0.058
-144.531	-35.490	0.358	0.191
-143.516	-81.776	-0.078	0.025
-142.502	65.460	0.100	-0.099
-141.487	51.829	0.046	-0.043
-140.472	-200.000	-0.005	0.026
-139.458	-200.000	0.053	-0.261
-138.443	-200.000	0.044	-0.233
-137.429	9.398	-0.087	0.064
-136.414	-85.693	0.027	0.008
-135.399	-137.811	-0.070	-0.008
-134.385	87.165	0.124	-0.134
-133.370	-11.290	0.129	-0.083
-132.356	-88.586	0.145	-0.042
-131.341	85.237	-0.296	0.319
-130.326	-200.000	0.001	-0.068
-129.312	-142.752	-0.191	-0.018
-128.297	-200.000	0.008	-0.159
-127.283	113.640	-0.280	-0.334
-126.268	-200.000	0.414	0.002
-125.253	56.496	-0.160	-0.152
-124.239	48.465	-0.284	0.261
-123.224	222.580	-0.065	0.102
-122.210	14.437	0.170	-0.130
-121.195	624.764	0.086	0.213
