DTS Sentinel unit serial number:	SN413079Multiplexer serial number:	ORYXHardware model number:	OX4-SRSoftware version number:	ORYX F/W v4.00 Oryx Data Collector v3.7.2.0data status	okinstallation	princeton_trtdifferential loss correction	single-endedforward channel	channel 3reverse channel	N/Adate	2019/09/15time	04:16:34forward acquisition time	60.00reverse acquisition time	0.00gamma	496.2192k internal	0.2323k external	0.2323temperature offset calibration	0.9966default loss term (dB/km)	0.3790temperature slope calibration	1.0000multiplexer offset coefficient	1.0000multiplexer slope coefficient	1.0000fibre end	0.00T internal ref (°C)	30.94T ext. ref 1 (°C)	4.63T ext. ref 2 (°C)	25.71length (m)	temperature (°C)	Stokes	anti-Stokes-747.200	-164.190	-0.142	-0.007
-746.185	-145.162	-0.313	-0.029
-745.171	506.524	0.066	-0.154
-744.156	-200.000	0.011	-0.221
-743.142	-153.515	0.241	-0.017
-742.127	337.444	0.144	0.283
-741.112	-107.377	0.267	-0.059
-740.098	-115.294	-0.154	0.029
-739.083	-64.960	0.160	-0.065
-738.069	157.464	0.261	0.365
-737.054	448.466	-0.101	-0.224
-736.039	-12.840	-0.246	-0.162
-735.025	-152.034	0.199	-0.015
-734.010	-57.687	-0.074	0.033
-732.996	-200.000	0.029	-0.131
-731.981	-200.000	0.007	-0.247
-730.966	10.144	-0.149	-0.114
-729.952	800.000	-0.051	0.147
-728.937	-73.087	-0.119	-0.044
-727.923	-76.050	0.053	-0.019
-726.908	-200.000	-0.043	-0.254
-725.894	637.208	-0.059	-0.151
-724.879	368.302	-0.061	-0.124
-723.864	-146.355	0.206	0.018
-722.850	800.000	-0.062	-0.188
-721.835	98.837	-0.152	-0.177
-720.821	479.040	0.025	-0.057
-719.806	-141.954	-0.272	0.027
-718.791	-62.961	-0.126	-0.052
-717.777	-194.907	0.123	-0.001
-716.762	49.590	0.192	-0.183
-715.748	-72.403	-0.026	-0.010
-714.733	-102.976	-0.195	0.047
-713.718	-17.040	0.218	-0.139
-712.704	-200.000	0.009	0.054
-711.689	20.439	-0.250	0.204
-710.675	135.606	0.206	0.271
-709.660	-200.000	-0.008	0.189
-708.645	-175.642	-0.121	0.003
-707.631	-163.491	0.104	0.005
-706.616	-143.519	-0.223	0.021
-705.602	-5.406	-0.208	-0.144
-704.587	-200.000	-0.017	-0.229
-703.572	-200.000	0.010	-0.382
-702.558	-31.848	-0.148	-0.084
-701.543	125.396	0.119	0.151
-700.529	-200.000	0.004	-0.278
-699.514	-83.490	-0.216	-0.070
-698.499	87.081	0.246	-0.274
-697.485	-200.000	0.016	-0.162
-696.470	800.000	-0.045	-0.127
-695.456	-200.000	-0.035	-0.266
-694.441	-42.427	-0.145	0.074
-693.426	186.345	0.196	0.293
-692.412	-101.860	-0.083	0.020
-691.397	621.777	-0.119	0.301
-690.383	-53.086	-0.208	0.096
-689.368	-88.667	0.103	-0.031
-688.354	-63.061	-0.130	-0.054
-687.339	-65.426	0.181	-0.073
-686.324	800.000	-0.099	0.296
-685.310	299.264	-0.136	-0.252
-684.295	-89.211	-0.413	-0.123
-683.281	125.283	0.069	-0.088
-682.266	127.871	-0.100	-0.128
-681.251	-27.485	0.109	0.064
-680.237	-119.201	0.175	-0.031
-679.222	60.429	0.038	0.038
-678.208	51.947	0.189	-0.181
-677.193	-200.000	0.023	0.113
-676.178	-10.049	0.388	-0.260
-675.164	-200.000	-0.047	0.306
-674.149	-93.213	0.155	-0.043
-673.135	40.974	-0.177	-0.161
-672.120	472.016	0.077	0.175
-671.105	5.436	-0.158	-0.117
-670.091	-143.465	-0.513	-0.049
-669.076	-60.577	0.368	0.157
-668.062	-185.709	-0.062	0.001
-667.047	64.500	0.184	-0.186
-666.032	800.000	0.055	-0.157
-665.018	-71.823	-0.168	0.063
-664.003	-16.473	0.157	-0.100
-662.989	-27.647	-0.232	0.135
-661.974	-132.485	0.230	0.030
-660.959	-124.969	0.400	0.062
-659.945	-20.813	0.213	-0.131
-658.930	-200.000	0.026	-0.138
-657.916	-114.789	0.384	-0.074
-656.901	316.431	0.036	-0.069
-655.886	176.619	-0.036	0.053
-654.872	-200.000	0.029	-0.139
-653.857	35.018	0.190	-0.167
-652.843	-200.000	-0.097	-0.580
-651.828	-38.405	-0.186	-0.099
-650.814	-200.000	0.022	0.132
-649.799	106.027	-0.072	-0.086
-648.784	-200.000	0.088	0.426
-647.770	-2.549	0.288	-0.203
-646.755	800.000	-0.057	-0.216
-645.741	76.522	-0.123	0.131
-644.726	49.436	-0.089	-0.085
-643.711	-200.000	0.217	0.000
-642.697	48.060	-0.140	-0.131
-641.682	83.608	-0.116	-0.127
-640.668	-132.753	0.152	0.020
-639.653	-168.176	-0.140	-0.005
-638.638	-76.681	-0.118	-0.041
-637.624	-200.000	0.002	0.075
-636.609	82.181	0.092	-0.100
-635.595	68.161	0.090	-0.093
-634.580	584.249	0.014	-0.035
-633.565	-46.103	-0.293	-0.145
-632.551	800.000	-0.067	-0.205
-631.536	800.000	-0.015	-0.061
-630.522	-28.558	0.341	-0.198
-629.507	-200.000	0.091	0.445
-628.492	247.431	0.115	0.196
-627.478	179.604	0.018	-0.027
-626.463	414.145	0.100	-0.213
-625.449	-50.502	0.173	-0.082
-624.434	20.968	0.065	0.053
-623.419	-159.648	-0.106	-0.006
-622.405	143.873	-0.239	0.320
-621.390	800.000	-0.052	0.157
-620.376	-200.000	-0.037	0.269
-619.361	170.220	-0.087	0.125
-618.346	-33.411	0.038	-0.021
-617.332	8.534	-0.037	-0.028
-616.317	568.931	0.180	0.440
-615.303	-39.779	0.230	-0.121
-614.288	199.660	0.104	-0.161
-613.273	131.659	0.144	0.186
-612.259	89.395	0.119	0.133
-611.244	-62.279	-0.323	0.135
-610.230	-91.704	-0.213	-0.061
-609.215	-113.200	-0.252	-0.050
-608.201	-149.352	0.250	0.020
-607.186	-92.147	0.059	-0.017
-606.171	-155.487	-0.236	-0.015
-605.157	3.621	0.256	0.187
-604.142	800.000	-0.069	0.285
-603.128	234.307	-0.175	0.289
-602.113	-89.185	0.290	-0.086
-601.098	495.100	0.087	0.201
-600.084	64.105	0.178	0.179
-599.069	153.602	-0.042	0.058
-598.055	-181.721	-0.081	0.002
-597.040	64.731	0.080	-0.081
-596.025	800.000	-0.102	-0.289
-595.011	-159.374	-0.195	-0.011
-593.996	-0.175	0.290	-0.207
-592.982	222.796	-0.056	0.091
-591.967	-109.348	-0.109	-0.023
-590.952	64.881	-0.112	0.114
-589.938	333.795	0.033	0.065
-588.923	198.862	0.175	-0.269
-587.909	-123.176	-0.106	-0.017
-586.894	429.267	-0.053	-0.114
-585.879	-85.985	0.195	-0.061
-584.865	375.446	-0.041	0.085
-583.850	-89.839	-0.397	-0.116
-582.836	-62.952	0.076	-0.032
-581.821	-200.000	0.006	0.072
-580.806	800.000	0.146	-0.444
-579.792	38.576	-0.140	-0.125
-578.777	-113.567	0.125	-0.025
-577.763	37.963	0.131	0.117
-576.748	3.236	-0.188	0.137
-575.733	-26.299	0.154	0.091
-574.719	-157.953	-0.374	0.022
-573.704	-39.464	0.163	-0.086
-572.690	11.365	-0.210	-0.161
-571.675	800.000	-0.087	-0.286
-570.661	176.867	-0.081	0.119
-569.646	-38.173	-0.071	0.038
-568.631	0.800	-0.240	-0.172
-567.617	403.371	0.023	-0.048
-566.602	365.121	-0.171	-0.345
-565.588	742.094	-0.058	0.157
-564.573	-40.802	0.255	0.132
-563.558	-92.044	-0.234	-0.067
-562.544	800.000	0.013	0.049
-561.529	-94.136	0.109	0.030
-560.515	241.131	-0.012	0.020
-559.500	800.000	0.038	-0.118
-558.485	51.189	0.156	0.149
-557.471	142.400	-0.273	-0.364
-556.456	-80.198	0.229	-0.077
-555.442	277.347	0.083	0.148
-554.427	-200.000	0.002	0.212
-553.412	76.051	0.042	0.045
-552.398	-111.616	0.117	0.024
-551.383	-23.635	0.410	-0.246
-550.369	81.545	0.184	-0.199
-549.354	-200.000	-0.010	-0.246
-548.339	428.992	-0.128	-0.278
-547.325	117.411	0.183	-0.225
-546.310	96.596	-0.151	-0.173
-545.296	53.264	0.218	0.209
-544.281	308.142	-0.051	0.096
-543.266	199.868	0.138	-0.212
-542.252	-200.000	-0.025	-0.288
-541.237	-22.339	-0.054	0.033
-540.223	800.000	0.055	0.210
-539.208	-84.970	-0.478	-0.150
-538.193	150.961	0.218	-0.297
-537.179	5.799	-0.077	0.057
-536.164	-200.000	-0.000	0.308
-535.150	232.088	0.238	-0.391
-534.135	96.871	0.131	0.150
-533.121	120.762	-0.132	-0.165
-532.106	16.960	0.245	-0.194
-531.091	598.542	-0.010	0.025
-530.077	629.576	-0.166	-0.421
-529.062	-27.677	0.307	-0.178
-528.048	84.132	0.213	-0.233
-527.033	-60.708	0.106	0.045
-526.018	340.387	0.135	-0.263
-525.004	800.000	-0.036	0.102
-523.989	28.288	-0.206	0.174
-522.975	22.677	-0.076	0.062
-521.960	-3.451	-0.345	-0.241
-520.945	65.894	0.150	-0.152
-519.931	37.431	0.045	-0.040
-518.916	-105.515	-0.157	0.036
-517.902	81.220	0.161	-0.174
-516.887	800.000	0.144	-0.458
-515.872	-100.091	-0.336	-0.084
-514.858	167.148	-0.151	-0.214
-513.843	-125.956	-0.008	-0.001
-512.829	-200.000	0.006	0.199
-511.814	800.000	0.123	0.381
-510.799	497.059	0.092	0.212
-509.785	426.007	-0.085	-0.183
-508.770	129.321	-0.165	-0.211
-507.756	-69.052	-0.132	0.051
-506.741	-104.187	-0.245	-0.057
-505.726	69.321	0.190	0.195
-504.712	199.024	0.044	0.067
-503.697	-200.000	0.011	-0.246
-502.683	109.371	0.024	-0.029
-501.668	-200.000	-0.043	-0.232
-500.653	-24.189	-0.283	-0.169
-499.639	63.128	0.114	0.114
-498.624	-200.000	0.005	0.080
-497.610	-175.523	0.416	0.011
-496.595	800.000	0.033	0.141
-495.581	143.757	0.147	-0.196
-494.566	13.857	-0.254	-0.197
-493.551	20.234	0.188	-0.152
-492.537	-200.000	-0.008	0.193
-491.522	61.555	-0.364	0.362
-490.508	800.000	-0.040	0.149
-489.493	-50.813	-0.340	0.160
-488.478	24.132	-0.086	0.071
-487.464	-83.717	0.145	0.046
-486.449	-108.238	-0.104	-0.022
-485.435	-37.336	-0.148	-0.079
-484.420	-200.000	-0.020	-0.261
-483.405	-61.925	0.303	0.127
-482.391	-200.000	-0.018	-0.173
-481.376	-43.627	0.070	0.035
-480.362	42.066	-0.093	-0.084
-479.347	800.000	-0.041	0.139
-478.332	122.581	-0.290	0.362
-477.318	102.647	-0.127	-0.148
-476.303	175.290	-0.129	0.187
-475.289	103.922	-0.145	-0.170
-474.274	-200.000	0.005	0.056
-473.259	-135.021	0.189	0.023
-472.245	-72.050	-0.144	-0.054
-471.230	226.274	0.181	-0.293
-470.216	-63.777	0.333	0.136
-469.201	-174.739	-0.172	-0.005
-468.186	-22.074	0.346	-0.210
-467.172	-166.610	-0.095	-0.004
-466.157	800.000	-0.052	0.159
-465.143	134.157	-0.161	0.208
-464.128	766.936	0.200	0.543
-463.113	284.431	0.131	0.236
-462.099	-200.000	-0.000	-0.374
-461.084	-200.000	-0.004	-0.144
-460.070	-200.000	-0.016	0.096
-459.055	563.920	0.109	-0.263
-458.040	205.922	-0.136	0.211
-457.026	180.905	-0.072	-0.106
-456.011	181.152	-0.061	0.090
-454.997	-200.000	-0.028	-0.217
-453.982	-128.980	0.166	0.023
-452.968	129.312	-0.167	0.213
-451.953	-34.359	0.361	-0.198
-450.938	69.710	-0.224	-0.230
-449.924	800.000	0.016	0.067
-448.909	-119.945	-0.152	0.026
-447.895	109.419	-0.299	0.357
-446.880	176.876	-0.096	-0.139
-445.865	299.785	0.128	-0.236
-444.851	-80.488	0.254	-0.084
-443.836	3.718	0.309	0.225
-442.822	800.000	-0.059	0.190
-441.807	101.647	-0.237	-0.275
-440.792	-200.000	-0.069	0.462
-439.778	-120.460	-0.384	0.065
-438.763	-90.847	-0.093	-0.027
-437.749	-61.235	0.096	-0.041
-436.734	212.353	0.258	0.406
-435.719	-8.718	0.130	0.087
-434.705	-144.522	0.470	0.043
-433.690	48.794	-0.146	-0.137
-432.676	-34.256	-0.165	-0.091
-431.661	-200.000	-0.024	0.160
-430.646	-111.866	0.341	0.069
-429.632	-76.356	-0.353	0.124
-428.617	90.834	0.095	-0.107
-427.603	-106.902	-0.215	0.047
-426.588	-0.349	-0.219	0.155
-425.573	-11.313	0.060	0.039
-424.559	419.219	0.087	-0.185
-423.544	696.511	-0.040	0.106
-422.530	-16.125	0.054	0.034
-421.515	-117.890	-0.350	-0.063
-420.500	-45.230	-0.135	0.067
-419.486	800.000	0.050	0.156
-418.471	-135.697	0.259	0.031
-417.457	253.701	-0.218	0.372
-416.442	-200.000	-0.021	0.165
-415.428	-34.782	-0.281	0.153
-414.413	-1.675	-0.163	-0.114
-413.398	-103.162	-0.092	0.022
-412.384	-200.000	-0.027	-0.234
-411.369	191.076	-0.033	-0.049
-410.355	-157.492	-0.144	0.009
-409.340	12.647	0.014	0.011
-408.325	55.382	-0.197	-0.190
-407.311	174.622	-0.145	0.209
-406.296	-200.000	-0.024	0.406
-405.282	122.769	0.142	0.177
-404.267	-53.340	0.173	0.079
-403.252	800.000	0.061	0.213
-402.238	-195.533	-0.473	0.003
-401.223	294.198	0.185	0.337
-400.209	-200.000	-0.045	0.379
-399.194	-153.964	0.106	0.007
-398.179	-200.000	0.035	-0.354
-397.165	6.571	0.071	-0.053
-396.150	37.698	0.173	0.153
-395.136	-49.742	-0.320	0.152
-394.121	526.099	-0.105	0.245
-393.106	800.000	-0.119	-0.431
-392.092	352.400	-0.211	-0.416
-391.077	137.452	-0.046	0.060
-390.063	26.080	0.178	0.148
-389.048	-200.000	-0.012	0.088
-388.033	-200.000	0.002	0.028
-387.019	-73.309	0.215	0.078
-386.004	-60.134	0.430	-0.183
-384.990	316.631	0.030	-0.057
-383.975	-26.965	-0.190	-0.110
-382.960	190.954	0.124	-0.186
-381.946	739.470	0.119	0.319
-380.931	-200.000	0.014	0.295
-379.917	76.665	0.202	-0.213
-378.902	-3.479	-0.084	-0.058
-377.888	197.526	-0.090	0.136
-376.873	-109.384	0.290	-0.061
-375.858	153.264	0.122	-0.166
-374.844	294.678	-0.146	-0.265
-373.829	216.289	0.044	-0.070
-372.815	-200.000	-0.008	0.302
-371.800	94.660	-0.214	0.243
-370.785	-146.302	-0.138	-0.012
-369.771	-47.094	-0.346	0.168
-368.756	542.157	0.052	-0.124
-367.742	-10.957	-0.271	-0.178
-366.727	342.992	0.038	-0.074
-365.712	800.000	-0.041	0.154
-364.698	50.831	0.136	-0.128
-363.683	-200.000	-0.034	-0.436
-362.669	-196.032	-0.263	-0.002
-361.654	-60.967	-0.283	-0.119
-360.639	-200.000	-0.007	-0.086
-359.625	297.595	0.042	0.077
-358.610	-104.673	0.169	0.039
-357.596	-104.789	-0.389	-0.089
-356.581	-59.504	-0.164	-0.070
-355.566	173.109	-0.226	-0.324
-354.552	-200.000	0.004	-0.119
-353.537	32.730	-0.320	0.275
-352.523	-41.112	0.187	0.096
-351.508	-200.000	-0.013	-0.098
-350.493	-68.436	0.466	-0.180
-349.479	-116.548	0.259	-0.047
-348.464	-106.061	-0.069	-0.015
-347.450	-57.498	-0.228	0.099
-346.435	-200.000	0.010	-0.427
-345.420	217.195	-0.049	-0.077
-344.406	-95.852	0.154	0.041
-343.391	124.291	0.145	-0.181
-342.377	-200.000	-0.016	0.080
-341.362	493.090	-0.028	-0.063
-340.348	-11.128	0.296	-0.194
-339.333	-200.000	-0.042	0.238
-338.318	-200.000	-0.003	-0.263
-337.304	-53.015	0.135	0.062
-336.289	336.606	0.091	-0.176
-335.275	-163.467	-0.375	0.018
-334.260	-123.453	-0.074	-0.012
-333.245	800.000	-0.046	-0.157
-332.231	-45.517	-0.141	-0.069
-331.216	66.282	-0.115	0.116
-330.202	424.383	-0.231	0.494
-329.187	-116.258	0.117	-0.021
-328.172	-52.941	0.355	-0.162
-327.158	47.417	-0.042	0.039
-326.143	195.030	0.056	0.084
-325.129	-1.105	0.245	0.172
-324.114	14.301	-0.073	0.057
-323.099	-91.734	-0.312	-0.088
-322.085	-50.486	0.046	-0.022
-321.070	-200.000	0.012	0.121
-320.056	-63.301	-0.277	-0.113
-319.041	-127.734	-0.213	-0.031
-318.026	800.000	0.117	0.367
-317.012	46.818	0.055	0.050
-315.997	-87.444	0.200	-0.060
-314.983	88.443	0.141	-0.156
-313.968	-152.828	0.327	-0.023
-312.953	64.869	0.295	0.296
-311.939	-200.000	0.069	-0.314
-310.924	130.407	0.439	0.558
-309.910	337.626	0.141	-0.272
-308.895	-84.493	-0.093	0.029
-307.880	-200.000	0.000	0.030
-306.866	-47.869	0.097	-0.047
-305.851	325.548	0.056	-0.106
-304.837	-108.431	0.313	-0.067
-303.822	-131.061	0.101	-0.013
-302.807	-41.784	0.207	0.105
-301.793	-163.854	0.171	-0.008
-300.778	-181.484	0.220	-0.004
-299.764	382.379	-0.030	-0.062
-298.749	197.578	-0.164	-0.249
-297.735	-87.926	-0.086	0.026
-296.720	-153.809	0.317	0.022
-295.705	-200.000	-0.026	0.199
-294.691	130.674	-0.108	0.138
-293.676	294.038	-0.156	-0.282
-292.662	17.853	-0.149	-0.118
-291.647	784.847	-0.066	-0.181
-290.632	7.635	0.124	-0.092
-289.618	-200.000	0.003	0.458
-288.603	-200.000	-0.055	0.261
-287.589	342.495	0.091	-0.177
-286.574	-135.564	0.372	-0.044
-285.559	-105.645	0.492	0.110
-284.545	-6.943	0.155	0.105
-283.530	-109.571	0.180	-0.038
-282.516	-30.331	0.385	0.217
-281.501	46.896	-0.086	-0.079
-280.486	-200.000	0.030	0.314
-279.472	118.485	-0.147	0.180
-278.457	644.628	0.122	0.310
-277.443	7.125	0.316	-0.234
-276.428	23.514	0.299	0.244
-275.413	-80.940	-0.256	-0.084
-274.399	207.921	0.181	-0.280
-273.384	506.545	-0.148	0.340
-272.370	170.725	-0.243	0.344
-271.355	800.000	0.036	-0.121
-270.340	800.000	-0.126	-0.416
-269.326	-200.000	0.043	0.403
-268.311	346.950	0.131	0.255
-267.297	47.622	-0.205	0.189
-266.282	-144.092	-0.444	0.041
-265.267	800.000	0.029	-0.095
-264.253	-68.197	-0.124	0.048
-263.238	475.858	0.027	-0.060
-262.224	-114.371	-0.115	0.022
-261.209	-76.332	-0.265	-0.093
-260.195	800.000	-0.024	0.089
-259.180	800.000	-0.039	0.165
-258.165	-126.070	-0.252	-0.037
-257.151	104.189	0.171	0.199
-256.136	-118.137	-0.246	-0.043
-255.122	-200.000	0.012	-0.084
-254.107	800.000	0.064	-0.192
-253.092	57.953	0.062	0.061
-252.078	96.280	0.129	0.146
-251.063	239.933	-0.085	0.140
-250.049	29.667	-0.260	-0.219
-249.034	-83.508	-0.133	0.042
-248.019	38.434	-0.339	0.299
-247.005	-42.759	0.137	-0.069
-245.990	49.645	-0.043	-0.040
-244.976	-90.747	-0.370	-0.106
-243.961	-117.995	0.309	-0.055
-242.946	800.000	-0.059	-0.166
-241.932	81.690	0.302	0.323
-240.917	-48.177	-0.184	-0.088
-239.903	-51.128	0.319	-0.148
-238.888	-200.000	0.056	-0.371
-237.873	35.098	-0.148	0.129
-236.859	-200.000	0.058	0.337
-235.844	-55.344	0.288	0.128
-234.830	800.000	-0.120	0.420
-233.815	-126.153	0.491	0.073
-232.800	133.303	-0.158	0.202
-231.786	800.000	0.038	-0.113
-230.771	118.930	0.159	-0.194
-229.757	-24.210	0.202	0.120
-228.742	800.000	-0.094	0.286
-227.727	226.427	-0.251	-0.403
-226.713	77.662	0.182	-0.192
-225.698	71.125	0.183	-0.188
-224.684	800.000	0.108	-0.403
-223.669	-31.394	-0.049	-0.027
-222.655	350.026	0.017	0.033
-221.640	800.000	-0.047	-0.133
-220.625	22.388	-0.309	0.250
-219.611	-169.336	0.219	-0.008
-218.596	32.209	0.184	-0.157
-217.582	-200.000	-0.003	0.078
-216.567	-22.829	0.068	-0.040
-215.552	-13.671	0.256	0.164
-214.538	-200.000	0.023	-0.189
-213.523	-200.000	-0.031	0.225
-212.509	785.303	0.041	0.111
-211.494	-49.650	0.046	0.022
-210.479	-75.048	0.055	-0.019
-209.465	55.269	0.066	0.063
-208.450	-200.000	0.081	-0.441
-207.436	-29.037	-0.261	0.148
-206.421	-54.914	0.245	-0.109
-205.406	87.006	0.093	-0.102
-204.392	627.521	0.068	-0.170
-203.377	-74.849	-0.168	-0.060
-202.363	17.079	0.162	-0.127
-201.348	344.022	-0.110	-0.214
-200.333	721.432	-0.028	0.073
-199.319	-200.000	0.002	-0.188
-198.304	-25.411	-0.076	-0.044
-197.290	-2.135	-0.214	0.148
-196.275	266.198	-0.195	0.337
-195.260	46.050	-0.336	-0.307
-194.246	-146.400	-0.325	-0.028
-193.231	122.922	0.083	-0.103
-192.217	692.510	-0.122	0.317
-191.202	-27.397	0.074	-0.043
-190.187	-69.617	0.502	-0.190
-189.173	379.163	-0.072	-0.145
-188.158	25.682	0.100	-0.083
-187.144	733.045	0.101	-0.268
-186.129	-200.000	0.052	0.230
-185.114	-12.622	0.048	-0.031
-184.100	800.000	-0.083	0.236
-183.085	-200.000	-0.004	-0.165
-182.071	-25.712	-0.149	0.087
-181.056	381.038	-0.034	-0.070
-180.042	18.508	0.134	-0.106
-179.027	-120.212	-0.235	0.040
-178.012	-86.878	-0.183	0.055
-176.998	-87.942	0.128	0.038
-175.983	-5.826	0.396	0.268
-174.969	-97.764	-0.281	0.072
-173.954	100.610	-0.149	0.171
-172.939	641.012	0.071	0.179
-171.925	157.287	-0.178	0.243
-170.910	-200.000	0.023	-0.102
-169.896	-84.014	-0.215	0.068
-168.881	-141.912	0.107	0.011
-167.866	-115.727	-0.209	0.039
-166.852	79.604	0.050	-0.053
-165.837	171.736	0.070	-0.099
-164.823	-6.772	0.128	0.086
-163.808	800.000	-0.025	0.103
-162.793	-200.000	0.054	0.342
-161.779	-144.780	-0.155	0.014
-160.764	-200.000	-0.015	-0.243
-159.750	-68.053	-0.248	0.095
-158.735	800.000	0.046	-0.171
-157.720	-200.000	-0.003	-0.316
-156.706	34.795	-0.152	0.131
-155.691	153.378	0.058	0.078
-154.677	-200.000	-0.020	0.120
-153.662	-147.244	-0.098	0.008
-152.647	19.441	0.024	0.019
-151.633	62.605	0.117	-0.115
-150.618	-25.086	0.099	0.058
-149.604	800.000	-0.030	0.104
-148.589	-17.053	0.194	0.121
-147.574	679.453	-0.164	-0.422
-146.560	800.000	-0.083	-0.243
-145.545	186.681	-0.070	-0.103
-144.531	-60.165	0.223	0.094
-143.516	57.623	0.131	0.127
-142.502	-200.000	-0.009	-0.358
-141.487	51.912	-0.088	0.082
-140.472	48.848	-0.077	-0.071
-139.458	-128.571	0.246	-0.034
-138.443	800.000	0.097	-0.265
-137.429	-200.000	-0.043	-0.219
-136.414	-200.000	0.038	-0.241
-135.399	44.203	-0.030	-0.027
-134.385	-48.601	-0.184	0.087
-133.370	348.449	-0.090	0.175
-132.356	-102.639	-0.048	0.011
-131.341	-3.369	-0.115	-0.079
-130.326	-57.080	-0.164	-0.071
-129.312	-78.101	0.375	-0.127
-128.297	-155.808	-0.200	-0.013
-127.283	-162.231	-0.372	0.018
-126.268	800.000	-0.073	-0.240
-125.253	-160.922	0.290	0.015
-124.239	123.835	-0.123	0.152
-123.224	800.000	0.065	0.268
-122.210	-200.000	0.003	-0.382
-121.195	-117.277	0.119	0.021
