DTS Sentinel unit serial number:	SN413079Multiplexer serial number:	ORYXHardware model number:	OX4-SRSoftware version number:	ORYX F/W v4.00 Oryx Data Collector v3.7.2.0data status	okinstallation	princeton_trtdifferential loss correction	single-endedforward channel	channel 3reverse channel	N/Adate	2019/09/19time	02:52:35forward acquisition time	60.00reverse acquisition time	0.00gamma	496.2192k internal	0.2348k external	0.2348temperature offset calibration	0.9991default loss term (dB/km)	0.3790temperature slope calibration	1.0000multiplexer offset coefficient	1.0000multiplexer slope coefficient	1.0000fibre end	0.00T internal ref (°C)	20.87T ext. ref 1 (°C)	0.66T ext. ref 2 (°C)	14.72length (m)	temperature (°C)	Stokes	anti-Stokes-747.200	40.124	0.142	-0.127
-746.185	-200.000	0.014	-0.088
-745.171	43.470	0.043	-0.039
-744.156	-47.234	-0.231	0.112
-743.142	-103.603	0.331	0.078
-742.127	237.471	-0.130	0.216
-741.112	1.356	0.042	0.030
-740.098	-161.792	-0.200	0.010
-739.083	246.928	0.070	-0.119
-738.069	79.087	-0.238	0.255
-737.054	278.971	-0.219	0.389
-736.039	-90.215	-0.167	0.048
-735.025	800.000	0.071	0.221
-734.010	-64.964	-0.275	0.111
-732.996	245.346	0.176	-0.295
-731.981	-24.427	-0.346	-0.206
-730.966	-200.000	0.051	0.368
-729.952	218.268	-0.079	0.126
-728.937	55.569	-0.193	0.187
-727.923	-200.000	0.043	-0.224
-726.908	-135.072	-0.288	0.035
-725.894	-44.838	-0.170	-0.085
-724.879	19.325	-0.219	0.176
-723.864	800.000	0.107	-0.357
-722.850	26.411	0.073	-0.061
-721.835	-136.296	0.085	0.010
-720.821	358.441	0.102	-0.203
-719.806	800.000	-0.041	0.168
-718.791	-173.862	0.019	0.001
-717.777	236.394	0.148	0.245
-716.762	-110.909	-0.134	-0.027
-715.748	726.790	0.014	0.038
-714.733	375.599	0.058	-0.118
-713.718	-0.774	-0.092	-0.065
-712.704	46.384	0.114	0.106
-711.689	-95.221	0.089	-0.024
-710.675	-200.000	0.004	0.221
-709.660	97.863	0.199	0.229
-708.645	-200.000	0.002	-0.088
-707.631	249.816	-0.050	0.085
-706.616	-151.529	-0.153	-0.011
-705.602	72.158	0.262	-0.272
-704.587	63.583	-0.251	-0.252
-703.572	800.000	-0.063	-0.269
-702.558	293.125	-0.137	0.250
-701.543	266.208	-0.078	-0.136
-700.529	-141.368	-0.087	-0.009
-699.514	-43.686	0.055	0.028
-698.499	-129.716	-0.242	0.033
-697.485	215.447	0.160	0.254
-696.470	-96.778	0.536	0.141
-695.456	1.245	-0.315	-0.226
-694.441	-2.063	0.179	-0.126
-693.426	-140.907	0.101	-0.010
-692.412	405.290	-0.143	-0.300
-691.397	-200.000	0.027	0.152
-690.383	-92.670	-0.064	0.018
-689.368	-200.000	0.038	0.264
-688.354	2.536	-0.342	0.247
-687.339	-87.354	-0.520	-0.157
-686.324	526.329	-0.090	0.211
-685.310	67.038	0.080	-0.082
-684.295	-200.000	0.023	-0.293
-683.281	64.033	0.147	-0.147
-682.266	-200.000	-0.285	-0.001
-681.251	451.228	-0.126	-0.278
-680.237	-200.000	-0.024	-0.162
-679.222	317.728	0.045	-0.084
-678.208	-31.037	-0.319	-0.179
-677.193	-101.321	-0.251	0.061
-676.178	-200.000	-0.029	-0.306
-675.164	285.697	0.228	-0.410
-674.149	213.534	0.142	0.224
-673.135	-108.929	-0.094	-0.020
-672.120	-95.622	-0.068	-0.018
-671.105	-12.699	-0.071	-0.046
-670.091	65.191	-0.155	-0.156
-669.076	154.628	-0.300	-0.411
-668.062	207.549	0.105	0.164
-667.047	-91.854	0.184	0.052
-666.032	-92.967	-0.088	-0.024
-665.018	26.090	0.472	-0.392
-664.003	-125.874	-0.247	-0.037
-662.989	-48.432	-0.153	-0.073
-661.974	27.699	-0.352	0.295
-660.959	-139.523	0.228	0.024
-659.945	-129.648	0.147	0.020
-658.930	-116.923	0.197	-0.036
-657.916	307.103	0.228	-0.423
-656.901	-90.875	-0.299	-0.086
-655.886	-200.000	-0.041	0.408
-654.872	-132.337	0.261	-0.034
-653.857	66.596	0.113	0.114
-652.843	13.464	0.141	0.109
-651.828	-200.000	-0.054	-0.341
-650.814	-131.488	-0.342	-0.045
-649.799	-200.000	-0.082	0.562
-648.784	-200.000	0.073	-0.349
-647.770	-30.780	-0.063	0.036
-646.755	183.952	-0.044	0.065
-645.741	800.000	0.078	0.286
-644.726	36.848	0.070	0.061
-643.711	-25.495	0.058	0.034
-642.697	-144.220	-0.138	-0.013
-641.682	-53.995	-0.119	-0.054
-640.668	-98.526	0.248	0.063
-639.653	-89.206	0.136	0.040
-638.638	-100.218	0.265	0.065
-637.624	69.996	-0.291	-0.299
-636.609	-63.908	-0.511	-0.208
-635.595	96.586	0.273	0.312
-634.580	61.177	0.056	0.055
-633.565	107.450	0.364	0.431
-632.551	23.149	-0.216	-0.176
-631.536	-129.003	0.281	0.039
-630.522	800.000	0.016	0.051
-629.507	278.381	0.039	0.069
-628.492	186.365	-0.053	0.078
-627.478	-183.405	-0.118	0.002
-626.463	76.481	0.048	-0.051
-625.449	800.000	0.011	-0.032
-624.434	-39.743	-0.171	0.089
-623.419	-172.941	-0.198	-0.006
-622.405	470.709	0.061	0.136
-621.390	-153.180	0.241	-0.017
-620.376	-200.000	0.020	0.122
-619.361	-72.774	-0.397	-0.146
-618.346	800.000	0.055	0.157
-617.332	800.000	-0.066	-0.240
-616.317	5.955	-0.140	0.103
-615.303	24.839	0.323	-0.267
-614.288	-82.965	-0.300	-0.096
-613.273	800.000	0.039	-0.146
-612.259	-8.157	-0.144	-0.097
-611.244	114.346	-0.247	-0.299
-610.230	12.747	-0.175	-0.135
-609.215	-134.049	0.260	-0.032
-608.201	45.275	-0.093	0.086
-607.186	510.917	-0.102	0.236
-606.171	52.659	0.163	0.155
-605.157	23.388	0.162	0.132
-604.142	-166.963	0.195	0.008
-603.128	68.295	-0.182	0.185
-602.113	-91.770	-0.078	-0.022
-601.098	-200.000	0.055	0.435
-600.084	191.781	-0.086	0.128
-599.069	-20.078	-0.071	-0.044
-598.055	-200.000	-0.050	0.263
-597.040	-200.000	0.007	0.238
-596.025	-28.747	-0.166	-0.095
-595.011	-52.893	0.191	-0.088
-593.996	22.501	0.168	-0.137
-592.982	-138.696	-0.179	-0.019
-591.967	-200.000	0.020	-0.260
-590.952	-112.734	0.418	0.082
-589.938	-200.000	-0.042	-0.235
-588.923	800.000	0.044	0.186
-587.909	-112.585	0.218	-0.043
-586.894	-61.556	0.273	-0.114
-585.879	-12.147	0.398	-0.259
-584.865	51.805	-0.096	-0.090
-583.850	7.587	0.171	-0.127
-582.836	-94.545	-0.053	-0.014
-581.821	258.136	0.086	0.147
-580.806	-133.823	-0.379	0.047
-579.792	800.000	-0.100	0.278
-578.777	-25.945	0.237	0.138
-577.763	293.789	0.212	0.384
-576.748	-157.584	-0.299	0.018
-575.733	91.532	0.093	-0.104
-574.719	-91.676	-0.101	0.029
-573.704	-200.000	0.060	0.371
-572.690	51.025	0.134	0.126
-571.675	-71.331	0.129	-0.048
-570.661	800.000	-0.073	-0.307
-569.646	451.460	0.074	-0.162
-568.631	-200.000	0.004	-0.339
-567.617	-200.000	-0.017	-0.127
-566.602	-87.656	-0.300	0.090
-565.588	-200.000	-0.022	0.202
-564.573	300.894	-0.034	0.062
-563.558	-131.827	0.147	-0.019
-562.544	22.042	-0.079	0.064
-561.529	-49.578	-0.190	-0.090
-560.515	-200.000	-0.002	-0.026
-559.500	800.000	-0.041	-0.114
-558.485	-145.257	0.238	0.021
-557.471	23.524	-0.249	0.203
-556.456	-84.142	-0.388	-0.122
-555.442	354.791	0.018	0.036
-554.427	800.000	-0.035	-0.109
-553.412	-200.000	0.043	-0.236
-552.398	-200.000	0.030	-0.149
-551.383	114.901	-0.106	-0.128
-550.369	-78.652	-0.214	-0.073
-549.354	-130.347	-0.159	-0.021
-548.339	-7.338	-0.194	0.130
-547.325	-30.800	-0.340	-0.190
-546.310	-15.318	-0.257	0.163
-545.296	550.828	0.008	-0.020
-544.281	-63.050	0.105	-0.043
-543.266	82.592	-0.206	-0.222
-542.252	-176.781	0.107	-0.003
-541.237	-63.386	0.203	-0.083
-540.223	-121.812	0.019	0.003
-539.208	-6.202	-0.133	0.090
-538.193	-200.000	0.024	-0.328
-537.179	69.040	0.140	-0.143
-536.164	-107.943	0.054	0.012
-535.150	181.274	-0.132	0.192
-534.135	-109.213	-0.256	-0.054
-533.121	-175.607	0.030	0.001
-532.106	-93.022	-0.257	0.071
-531.091	800.000	-0.039	0.110
-530.077	-118.771	0.354	0.062
-529.062	800.000	-0.063	-0.251
-528.048	57.910	0.196	-0.190
-527.033	800.000	-0.072	0.264
-526.018	-200.000	-0.005	0.188
-525.004	-34.630	0.056	-0.031
-523.989	240.736	-0.075	-0.124
-522.975	688.179	-0.034	0.087
-521.960	216.239	-0.126	0.198
-520.945	-125.885	0.149	-0.022
-519.931	330.078	-0.130	-0.249
-518.916	-147.047	0.191	0.016
-517.902	1.099	-0.061	-0.043
-516.887	-43.755	0.061	-0.031
-515.872	97.197	-0.017	0.020
-514.858	-200.000	-0.024	-0.185
-513.843	-151.288	0.111	-0.008
-512.829	197.593	-0.191	0.289
-511.814	-43.427	0.033	-0.017
-510.799	269.486	-0.145	-0.253
-509.785	150.249	-0.092	0.124
-508.770	141.594	0.173	0.227
-507.756	455.317	-0.074	-0.161
-506.741	205.099	0.069	-0.106
-505.726	-24.787	0.115	0.067
-504.712	-106.242	-0.067	-0.015
-503.697	-117.476	0.194	0.035
-502.683	-25.045	-0.459	-0.269
-501.668	653.508	0.066	0.168
-500.653	800.000	-0.050	-0.213
-499.639	-200.000	-0.040	0.230
-498.624	-123.847	-0.234	0.037
-497.610	795.177	0.024	0.066
-496.595	-149.667	-0.094	-0.007
-495.581	9.028	0.279	0.209
-494.566	-64.105	-0.169	-0.068
-493.551	-102.610	0.066	-0.016
-492.537	-200.000	-0.016	-0.422
-491.522	-38.772	0.517	-0.270
-490.508	-200.000	0.003	-0.177
-489.493	-108.159	0.129	0.028
-488.478	-105.991	0.263	0.059
-487.464	800.000	-0.103	0.411
-486.449	438.356	0.082	-0.178
-485.435	-38.520	-0.227	0.118
-484.420	-141.031	0.415	-0.042
-483.405	82.519	0.084	-0.090
-482.391	-113.828	-0.178	0.034
-481.376	77.429	0.204	-0.215
-480.362	800.000	-0.058	0.239
-479.347	-69.723	0.062	0.024
-478.332	-200.000	-0.075	-0.366
-477.318	-200.000	-0.019	-0.108
-476.303	-51.925	0.286	-0.131
-475.289	-107.100	0.221	-0.048
-474.274	-26.619	0.122	-0.071
-473.259	-131.626	-0.281	-0.037
-472.245	531.533	0.125	-0.292
-471.230	-102.086	-0.141	-0.034
-470.216	-45.770	-0.180	0.088
-469.201	-79.582	0.197	0.066
-468.186	-200.000	-0.050	-0.405
-467.172	36.441	-0.288	-0.251
-466.157	-200.000	-0.004	0.236
-465.143	-100.967	-0.387	-0.094
-464.128	-111.176	0.199	0.040
-463.113	-200.000	0.039	0.417
-462.099	-200.000	0.015	-0.302
-461.084	800.000	0.030	-0.085
-460.070	66.677	0.184	-0.185
-459.055	-87.876	0.340	-0.101
-458.040	292.376	-0.117	-0.211
-457.026	-54.338	-0.305	0.137
-456.011	-76.525	-0.110	-0.038
-454.997	279.903	0.147	0.259
-453.982	540.529	-0.040	-0.094
-452.968	800.000	-0.080	-0.236
-451.953	157.885	-0.112	0.153
-450.938	-39.054	-0.308	-0.160
-449.924	-123.380	-0.249	-0.039
-448.909	-133.593	0.236	0.029
-447.895	308.380	-0.156	-0.288
-446.880	-102.738	-0.237	-0.056
-445.865	16.792	0.193	-0.151
-444.851	800.000	0.048	-0.197
-443.836	-96.135	0.185	-0.048
-442.822	800.000	-0.056	-0.157
-441.807	-40.173	-0.303	-0.156
-440.792	-123.504	-0.200	0.031
-439.778	-62.851	-0.567	0.232
-438.763	706.853	-0.090	0.236
-437.749	1.332	0.090	0.064
-436.734	261.551	-0.075	-0.128
-435.719	-33.789	0.328	0.178
-434.705	-33.738	0.284	-0.155
-433.690	-180.139	0.210	0.004
-432.676	100.651	-0.127	-0.145
-431.661	2.507	-0.140	-0.100
-430.646	-61.497	0.154	0.064
-429.632	-107.623	-0.198	0.043
-428.617	-79.443	0.283	0.094
-427.603	142.579	0.150	0.196
-426.588	66.045	0.309	0.309
-425.573	271.630	0.093	-0.161
-424.559	178.516	0.092	-0.133
-423.544	-200.000	0.015	0.110
-422.530	-200.000	0.031	0.161
-421.515	58.925	-0.127	0.123
-420.500	132.320	0.257	-0.327
-419.486	-127.638	0.185	-0.026
-418.471	800.000	-0.052	0.155
-417.457	-155.088	0.215	-0.014
-416.442	-124.022	-0.220	0.034
-415.428	-120.328	-0.315	-0.053
-414.413	-114.806	-0.150	0.028
-413.398	80.665	0.185	0.196
-412.384	-55.022	-0.251	-0.111
-411.369	-118.020	0.117	-0.021
-410.355	22.559	-0.257	0.208
-409.340	48.459	-0.203	0.188
-408.325	-111.148	-0.152	-0.031
-407.311	800.000	-0.081	0.292
-406.296	-27.349	0.144	-0.082
-405.282	-111.717	0.207	0.041
-404.267	800.000	-0.027	0.095
-403.252	748.291	-0.010	-0.026
-402.238	-38.700	-0.339	0.176
-401.223	-49.533	0.212	-0.100
-400.209	67.391	0.088	0.089
-399.194	91.162	0.137	-0.152
-398.179	-159.732	0.069	-0.004
-397.165	-85.564	0.260	-0.080
-396.150	-200.000	0.003	0.177
-395.136	78.181	-0.090	-0.095
-394.121	39.307	0.114	0.101
-393.106	-187.494	0.118	-0.002
-392.092	206.720	-0.196	0.301
-391.077	-168.886	-0.102	-0.004
-390.063	-56.174	0.030	0.013
-389.048	83.498	0.220	-0.236
-388.033	213.312	0.032	-0.050
-387.019	7.282	-0.021	-0.015
-386.004	-21.162	-0.139	0.084
-384.990	-87.894	-0.116	-0.034
-383.975	-68.928	-0.186	-0.071
-382.960	15.981	-0.239	0.186
-381.946	-200.000	-0.030	0.201
-380.931	214.779	0.134	0.209
-379.917	800.000	-0.094	-0.285
-378.902	529.947	-0.094	0.219
-377.888	-126.145	-0.320	-0.047
-376.873	800.000	-0.238	0.660
-375.858	-50.375	0.224	-0.104
-374.844	169.567	-0.154	0.217
-373.829	-107.055	-0.197	0.043
-372.815	127.884	0.097	0.122
-371.800	-86.536	-0.241	0.073
-370.785	-122.632	-0.078	-0.012
-369.771	800.000	-0.064	-0.275
-368.756	224.583	0.148	-0.235
-367.742	800.000	-0.047	0.130
-366.727	-80.868	-0.337	0.110
-365.712	-132.866	-0.177	0.022
-364.698	-20.542	0.413	-0.250
-363.683	-200.000	-0.002	0.138
-362.669	413.244	-0.163	0.341
-361.654	-92.620	0.399	-0.110
-360.639	-96.970	0.275	-0.071
-359.625	152.986	0.206	0.277
-358.610	221.741	0.047	-0.074
-357.596	-200.000	-0.028	-0.225
-356.581	-59.654	0.219	0.093
-355.566	77.674	0.151	-0.158
-354.552	-71.582	0.101	-0.037
-353.537	53.725	0.235	0.222
-352.523	-0.568	0.176	-0.123
-351.508	202.462	-0.206	-0.312
-350.493	-148.004	-0.268	-0.022
-349.479	9.776	-0.069	0.051
-348.464	-200.000	0.014	-0.395
-347.450	164.205	0.089	0.123
-346.435	-110.757	-0.134	-0.027
-345.420	3.701	0.177	0.127
-344.406	-18.564	0.176	0.108
-343.391	373.629	0.096	-0.192
-342.377	139.640	-0.128	-0.166
-341.362	800.000	0.066	0.207
-340.348	-99.147	-0.096	-0.024
-339.333	111.074	0.108	-0.128
-338.318	800.000	-0.080	0.243
-337.304	-57.399	0.194	-0.084
-336.289	-200.000	-0.008	0.178
-335.275	-124.103	0.193	0.030
-334.260	79.508	0.358	-0.377
-333.245	-200.000	-0.020	-0.302
-332.231	-200.000	0.062	0.296
-331.216	-126.221	-0.153	-0.023
-330.202	-200.000	-0.039	0.179
-329.187	-62.524	-0.253	-0.103
-328.172	86.833	0.147	-0.159
-327.158	-200.000	0.067	0.334
-326.143	-51.229	-0.180	0.083
-325.129	114.048	-0.172	-0.206
-324.114	18.327	-0.089	-0.070
-323.099	84.149	-0.043	-0.046
-322.085	395.980	-0.102	0.210
-321.070	449.149	0.089	0.192
-320.056	778.559	-0.061	0.163
-319.041	149.469	-0.052	0.069
-318.026	232.696	-0.139	-0.224
-317.012	468.084	0.098	-0.216
-315.997	-138.497	-0.351	0.038
-314.983	-142.034	0.347	-0.034
-313.968	442.392	0.046	-0.098
-312.953	56.934	0.125	-0.120
-311.939	800.000	0.073	-0.282
-310.924	64.009	0.214	0.212
-309.910	35.797	-0.267	-0.231
-308.895	304.759	-0.047	-0.086
-307.880	-112.871	0.220	0.043
-306.866	-122.612	-0.443	-0.071
-305.851	-200.000	-0.002	0.120
-304.837	800.000	0.108	0.305
-303.822	29.600	-0.121	-0.101
-302.807	-53.216	0.124	0.056
-301.793	-200.000	-0.008	0.071
-300.778	114.776	0.105	-0.126
-299.764	-97.855	-0.279	0.071
-298.749	-104.192	0.184	-0.042
-297.735	-200.000	-0.023	0.133
-296.720	408.701	-0.058	-0.121
-295.705	15.246	0.109	0.084
-294.691	528.650	0.181	0.420
-293.676	800.000	0.105	0.371
-292.662	496.788	0.111	-0.250
-291.647	239.518	0.163	-0.267
-290.632	-30.835	-0.235	0.130
-289.618	-40.999	-0.203	0.103
-288.603	-119.805	0.221	-0.037
-287.589	-74.538	0.221	0.078
-286.574	-200.000	-0.044	-0.297
-285.559	189.272	0.090	-0.132
-284.545	-24.515	0.106	0.062
-283.530	240.289	0.065	0.106
-282.516	18.208	0.103	0.080
-281.501	-174.555	0.214	-0.006
-280.486	800.000	0.010	0.039
-279.472	224.942	0.141	0.223
-278.457	49.105	-0.285	-0.263
-277.443	-200.000	-0.010	-0.365
-276.428	-157.407	-0.257	-0.015
-275.413	-21.945	0.106	-0.063
-274.399	800.000	0.045	0.139
-273.384	800.000	0.025	-0.070
-272.370	-200.000	0.008	-0.045
-271.355	-86.702	0.394	0.118
-270.340	-200.000	0.032	-0.185
-269.326	800.000	0.200	0.567
-268.311	-30.531	0.086	-0.048
-267.297	-200.000	-0.023	-0.269
-266.282	-59.571	-0.268	0.113
-265.267	185.365	-0.219	-0.318
-264.253	-200.000	-0.040	0.203
-263.238	-55.053	-0.164	0.072
-262.224	-43.870	0.174	0.086
-261.209	178.633	-0.123	0.176
-260.195	10.292	0.037	-0.027
-259.180	-42.129	0.055	-0.028
-258.165	800.000	0.027	-0.113
-257.151	-23.176	0.138	0.082
-256.136	-200.000	-0.002	0.063
-255.122	33.973	0.317	0.270
-254.107	67.219	0.133	0.133
-253.092	800.000	-0.024	0.103
-252.078	-86.377	-0.163	0.049
-251.063	429.081	-0.047	0.099
-250.049	80.223	0.200	0.211
-249.034	78.336	-0.247	0.259
-248.019	-200.000	-0.008	-0.201
-247.005	-94.177	-0.248	-0.067
-245.990	-200.000	0.080	-0.411
-244.976	-4.551	0.144	-0.098
-243.961	-200.000	0.004	-0.065
-242.946	-7.214	0.051	-0.034
-241.932	-181.674	0.116	0.002
-240.917	459.663	0.134	0.292
-239.903	100.408	-0.317	-0.361
-238.888	-200.000	0.012	0.201
-237.873	121.482	0.198	0.242
-236.859	-31.385	0.293	-0.161
-235.844	74.099	-0.201	0.207
-234.830	96.239	0.124	-0.139
-233.815	11.678	0.417	-0.313
-232.800	288.104	0.230	0.407
-231.786	-132.800	0.110	0.014
-230.771	240.066	0.101	0.165
-229.757	-124.179	-0.134	0.021
-228.742	-116.464	0.186	0.034
-227.727	537.384	-0.128	-0.297
-226.713	158.657	-0.180	-0.244
-225.698	424.051	-0.080	-0.168
-224.684	103.114	-0.331	0.379
-223.669	5.384	0.271	0.196
-222.655	-200.000	-0.016	0.374
-221.640	-33.466	-0.209	0.113
-220.625	800.000	-0.081	0.286
-219.611	-4.766	0.093	0.063
-218.596	-200.000	-0.008	-0.172
-217.582	800.000	0.122	0.352
-216.567	-200.000	-0.014	0.352
-215.552	541.951	-0.111	0.259
-214.538	101.498	-0.204	-0.233
-213.523	-60.821	0.078	-0.032
-212.509	166.623	-0.167	0.231
-211.494	-200.000	0.039	-0.192
-210.479	182.272	0.093	0.135
-209.465	-122.353	-0.272	-0.043
-208.450	31.849	0.070	0.059
-207.436	-38.303	0.152	0.079
-206.421	-25.764	0.141	0.081
-205.406	-200.000	0.038	0.518
-204.392	349.420	0.077	-0.149
-203.377	-200.000	0.024	-0.278
-202.363	54.779	-0.255	0.241
-201.348	166.879	0.144	-0.200
-200.333	35.085	0.196	-0.168
-199.319	-140.146	0.355	-0.037
-198.304	771.084	-0.088	-0.235
-197.290	-119.934	0.337	-0.057
-196.275	-200.000	0.030	-0.153
-195.260	-65.194	-0.049	-0.019
-194.246	-200.000	-0.086	0.414
-193.231	273.361	0.038	0.066
-192.217	380.119	0.085	-0.170
-191.202	105.713	-0.260	0.301
-190.187	-1.574	0.175	-0.120
-189.173	148.183	-0.143	-0.189
-188.158	-200.000	0.023	-0.306
-187.144	-110.528	-0.231	-0.047
-186.129	-145.191	-0.282	-0.025
-185.114	-7.344	0.077	-0.051
-184.100	101.586	-0.011	0.013
-183.085	330.784	-0.115	-0.216
-182.071	645.165	-0.104	0.260
-181.056	112.040	0.063	0.074
-180.042	-153.952	-0.217	0.014
-179.027	59.159	-0.093	0.090
-178.012	10.818	0.260	-0.194
-176.998	-200.000	-0.018	-0.084
-175.983	264.127	0.272	-0.462
-174.969	-200.000	-0.023	0.218
-173.954	105.579	-0.226	0.261
-172.939	800.000	-0.044	-0.185
-171.925	-11.037	0.042	0.027
-170.910	-200.000	-0.012	-0.456
-169.896	-19.434	-0.142	0.086
-168.881	-161.129	-0.223	0.011
-167.866	-27.223	-0.070	0.040
-166.852	328.707	0.075	-0.141
-165.837	-20.958	-0.185	-0.111
-164.823	-52.985	-0.327	-0.147
-163.808	70.475	-0.067	-0.068
-162.793	-72.057	0.068	-0.024
-161.779	166.402	0.195	-0.270
-160.764	-54.241	-0.203	-0.090
-159.750	244.877	0.086	0.142
-158.735	-17.523	0.088	-0.054
-157.720	-44.935	0.251	-0.122
-156.706	-200.000	-0.000	-0.104
-155.691	-200.000	-0.001	-0.266
-154.677	800.000	0.028	-0.105
-153.662	-23.225	-0.042	-0.024
-152.647	522.826	-0.023	0.054
-151.633	108.145	-0.200	0.233
-150.618	-59.771	0.149	0.062
-149.604	105.545	-0.174	-0.201
-148.589	7.190	0.288	-0.210
-147.574	-60.603	0.195	0.081
-146.560	800.000	0.019	0.067
-145.545	155.710	0.069	-0.092
-144.531	-34.228	0.009	0.005
-143.516	19.640	-0.161	0.126
-142.502	18.326	-0.296	0.231
-141.487	-56.268	-0.304	0.132
-140.472	-65.326	0.123	0.048
-139.458	800.000	-0.007	0.027
-138.443	800.000	-0.082	0.262
-137.429	-46.137	0.178	0.086
-136.414	90.934	0.091	0.099
-135.399	326.779	-0.115	0.216
-134.385	800.000	-0.073	0.296
-133.370	-76.097	0.113	-0.039
-132.356	70.469	-0.283	-0.286
-131.341	175.719	0.320	-0.453
-130.326	270.132	0.088	-0.151
-129.312	-200.000	-0.063	-0.358
-128.297	51.994	0.137	0.127
-127.283	234.543	0.087	-0.140
-126.268	436.448	-0.087	-0.185
-125.253	124.903	-0.045	0.055
-124.239	-81.296	-0.150	0.048
-123.224	-200.000	-0.024	-0.150
-122.210	177.880	0.108	0.154
-121.195	-85.663	0.109	-0.033
