DTS Sentinel unit serial number:	SN413079Multiplexer serial number:	ORYXHardware model number:	OX4-SRSoftware version number:	ORYX F/W v4.00 Oryx Data Collector v3.7.2.0data status	okinstallation	princeton_trtdifferential loss correction	single-endedforward channel	channel 3reverse channel	N/Adate	2019/09/17time	10:32:35forward acquisition time	60.00reverse acquisition time	0.00gamma	496.2192k internal	0.2322k external	0.2322temperature offset calibration	0.9943default loss term (dB/km)	0.3790temperature slope calibration	1.0000multiplexer offset coefficient	1.0000multiplexer slope coefficient	1.0000fibre end	0.00T internal ref (°C)	30.00T ext. ref 1 (°C)	0.16T ext. ref 2 (°C)	25.65length (m)	temperature (°C)	Stokes	anti-Stokes-747.200	32.288	0.369	0.322
-746.185	193.362	-0.129	0.197
-745.171	-165.195	0.260	0.012
-744.156	-76.756	-0.171	-0.061
-743.142	124.551	0.111	0.141
-742.127	117.568	-0.138	0.171
-741.112	-132.040	-0.335	0.044
-740.098	-150.318	-0.257	-0.020
-739.083	-200.000	-0.005	0.080
-738.069	29.293	-0.181	0.155
-737.054	67.796	0.085	0.088
-736.039	503.222	-0.174	0.407
-735.025	800.000	-0.057	-0.187
-734.010	-36.651	-0.305	0.166
-732.996	218.044	-0.207	-0.334
-731.981	393.940	0.152	0.320
-730.966	800.000	-0.073	-0.214
-729.952	-200.000	-0.020	0.183
-728.937	297.046	-0.020	-0.037
-727.923	-200.000	-0.044	-0.203
-726.908	-200.000	0.005	0.142
-725.894	-177.607	0.260	-0.006
-724.879	-172.940	0.295	0.009
-723.864	-200.000	0.062	0.295
-722.850	520.900	0.123	-0.291
-721.835	364.608	-0.090	0.182
-720.821	-200.000	0.007	-0.287
-719.806	-12.628	-0.089	0.059
-718.791	116.989	0.099	-0.123
-717.777	-200.000	-0.036	-0.238
-716.762	2.890	-0.126	-0.092
-715.748	-134.045	0.305	0.038
-714.733	126.484	0.194	-0.248
-713.718	-200.000	0.039	-0.368
-712.704	56.462	0.046	-0.045
-711.689	19.138	-0.254	-0.205
-710.675	-96.331	-0.112	-0.030
-709.660	800.000	-0.114	0.452
-708.645	120.489	-0.065	-0.082
-707.631	178.781	0.120	-0.177
-706.616	-41.991	-0.516	-0.267
-705.602	73.041	0.195	-0.206
-704.587	136.718	-0.023	0.030
-703.572	-145.023	-0.242	0.022
-702.558	142.691	0.271	0.363
-701.543	172.105	-0.154	0.223
-700.529	214.112	0.142	-0.226
-699.514	-59.166	-0.107	0.046
-698.499	338.649	-0.044	-0.087
-697.485	151.406	0.271	-0.371
-696.470	-200.000	-0.002	-0.460
-695.456	-178.104	0.267	0.006
-694.441	-200.000	0.016	-0.117
-693.426	-200.000	0.018	-0.186
-692.412	63.258	0.178	0.180
-691.397	-174.708	-0.405	0.012
-690.383	-58.305	-0.110	0.048
-689.368	178.957	0.098	0.144
-688.354	138.208	0.030	0.039
-687.339	800.000	-0.057	-0.201
-686.324	-151.367	-0.262	-0.020
-685.310	68.439	-0.058	0.060
-684.295	-200.000	-0.065	-0.293
-683.281	218.966	-0.329	-0.530
-682.266	800.000	0.092	-0.281
-681.251	-44.623	-0.214	0.108
-680.237	-17.864	0.256	-0.162
-679.222	-200.000	-0.003	-0.074
-678.208	6.482	-0.104	0.078
-677.193	128.898	0.131	0.169
-676.178	-26.161	-0.152	0.090
-675.164	131.237	0.048	0.063
-674.149	-102.371	0.178	0.043
-673.135	-90.484	0.172	0.050
-672.120	103.356	0.092	-0.108
-671.105	-101.640	-0.311	-0.076
-670.091	-200.000	0.032	0.330
-669.076	-107.856	-0.129	0.028
-668.062	58.196	-0.081	0.080
-667.047	129.426	-0.252	-0.324
-666.032	-48.103	0.094	-0.046
-665.018	-200.000	0.062	-0.323
-664.003	-139.775	-0.041	-0.004
-662.989	800.000	-0.157	-0.611
-661.974	-137.803	0.299	-0.034
-660.959	-57.927	-0.152	0.067
-659.945	120.113	-0.112	0.141
-658.930	-168.593	-0.259	-0.010
-657.916	608.649	-0.097	-0.244
-656.901	15.239	-0.302	-0.239
-655.886	-66.354	-0.053	0.021
-654.872	666.179	-0.073	-0.189
-653.857	440.449	-0.126	0.276
-652.843	108.446	0.129	-0.155
-651.828	481.030	-0.073	0.166
-650.814	-200.000	0.012	0.229
-649.799	415.765	0.125	0.268
-648.784	-64.663	-0.341	-0.139
-647.770	63.991	-0.178	-0.180
-646.755	-200.000	-0.065	0.667
-645.741	-171.860	0.288	-0.009
-644.726	800.000	-0.081	-0.286
-643.711	-45.944	-0.140	-0.070
-642.697	27.029	0.043	0.036
-641.682	-50.655	0.376	-0.178
-640.668	482.600	-0.057	-0.131
-639.653	-2.406	-0.110	-0.078
-638.638	106.240	0.135	-0.161
-637.624	-75.158	0.229	-0.082
-636.609	-179.210	0.258	0.006
-635.595	71.609	0.259	0.271
-634.580	-200.000	0.034	0.170
-633.565	-113.828	-0.206	0.040
-632.551	800.000	-0.027	-0.102
-631.536	-37.442	-0.313	0.168
-630.522	-200.000	-0.003	0.141
-629.507	31.732	-0.125	0.108
-628.492	222.527	0.075	-0.122
-627.478	322.839	0.124	0.238
-626.463	-200.000	0.009	0.261
-625.449	-131.035	0.163	0.022
-624.434	583.298	-0.083	-0.204
-623.419	-49.082	0.044	-0.021
-622.405	-90.680	0.257	0.075
-621.390	-200.000	0.020	0.307
-620.376	147.085	-0.051	0.069
-619.361	-200.000	0.026	0.135
-618.346	569.874	0.162	-0.396
-617.332	800.000	0.036	-0.150
-616.317	455.827	-0.147	-0.328
-615.303	800.000	-0.022	-0.093
-614.288	-163.577	-0.346	0.016
-613.273	-156.043	-0.438	-0.028
-612.259	254.658	-0.172	0.295
-611.244	-193.197	-0.096	-0.001
-610.230	112.010	-0.202	-0.245
-609.215	97.385	0.144	0.166
-608.201	-70.205	-0.272	0.104
-607.186	-52.219	-0.130	0.061
-606.171	-68.014	0.112	-0.044
-605.157	83.872	-0.114	-0.125
-604.142	-112.821	-0.217	-0.043
-603.128	7.972	0.303	0.229
-602.113	-200.000	0.009	0.115
-601.098	-200.000	0.022	0.282
-600.084	-110.589	-0.528	-0.110
-599.069	-200.000	-0.020	-0.161
-598.055	-36.842	0.346	0.187
-597.040	-15.543	-0.252	0.161
-596.025	74.333	0.172	-0.182
-595.011	-200.000	0.072	-0.361
-593.996	353.375	0.102	-0.203
-592.982	-54.178	0.131	0.060
-591.967	-115.486	-0.298	0.056
-590.952	-24.735	-0.242	-0.144
-589.938	-58.706	-0.248	0.108
-588.923	-200.000	-0.004	-0.041
-587.909	-69.125	-0.338	0.131
-586.894	800.000	-0.046	-0.189
-585.879	-39.069	-0.201	0.106
-584.865	-14.438	-0.127	0.082
-583.850	-110.551	-0.205	0.043
-582.836	800.000	0.068	0.271
-581.821	43.307	-0.187	0.172
-580.806	22.863	0.243	0.200
-579.792	-200.000	-0.009	0.237
-578.777	-12.306	-0.085	0.056
-577.763	-97.885	0.239	-0.062
-576.748	-69.878	0.303	-0.116
-575.733	-62.691	-0.180	0.075
-574.719	127.689	0.136	-0.173
-573.704	800.000	-0.056	0.181
-572.690	-31.886	0.175	-0.098
-571.675	-171.326	-0.300	-0.010
-570.661	-147.225	-0.431	0.037
-569.646	-200.000	-0.041	-0.216
-568.631	733.866	0.051	0.137
-567.617	-200.000	0.002	-0.259
-566.602	17.335	-0.252	-0.201
-565.588	-135.292	-0.131	-0.016
-564.573	-131.058	0.231	-0.031
-563.558	-200.000	0.015	-0.113
-562.544	-200.000	-0.037	0.212
-561.529	-146.993	-0.302	0.026
-560.515	-37.722	0.150	-0.080
-559.500	-191.342	-0.116	0.001
-558.485	-51.070	0.324	-0.152
-557.471	800.000	-0.093	-0.281
-556.456	-112.210	0.338	0.068
-555.442	-90.860	0.282	-0.081
-554.427	109.315	-0.390	-0.469
-553.412	132.600	0.145	0.187
-552.398	105.623	-0.109	-0.129
-551.383	310.226	0.020	0.038
-550.369	800.000	0.038	-0.150
-549.354	41.751	0.053	-0.049
-548.339	16.601	-0.125	0.099
-547.325	306.641	0.181	-0.337
-546.310	800.000	0.071	-0.199
-545.296	-200.000	-0.021	-0.377
-544.281	126.416	0.138	0.175
-543.266	-120.280	-0.219	0.037
-542.252	185.630	-0.130	0.194
-541.237	-50.222	0.206	0.098
-540.223	288.169	-0.082	-0.149
-539.208	-160.614	-0.417	0.022
-538.193	-200.000	0.006	0.257
-537.179	66.809	-0.133	0.136
-536.164	-86.154	-0.330	-0.102
-535.150	56.909	-0.076	-0.074
-534.135	646.913	0.152	-0.390
-533.121	-126.900	0.258	-0.038
-532.106	-113.694	-0.249	-0.049
-531.091	-97.624	0.371	-0.096
-530.077	-48.032	0.213	0.103
-529.062	106.195	-0.149	0.176
-528.048	565.229	-0.079	0.191
-527.033	367.984	-0.085	-0.173
-526.018	64.951	-0.096	-0.098
-525.004	33.745	0.204	-0.177
-523.989	84.954	-0.027	0.030
-522.975	134.807	0.161	-0.209
-521.960	295.995	0.052	0.096
-520.945	-32.786	0.188	0.105
-519.931	-138.301	-0.428	0.047
-518.916	54.259	-0.287	0.277
-517.902	-200.000	-0.011	0.390
-516.887	-10.679	-0.083	0.055
-515.872	335.695	0.148	0.287
-514.858	-119.282	-0.329	0.057
-513.843	-72.203	-0.222	0.083
-512.829	388.697	0.123	-0.255
-511.814	-58.110	0.161	0.070
-510.799	-85.422	0.148	-0.046
-509.785	46.670	0.086	-0.080
-508.770	800.000	0.062	0.259
-507.756	-77.114	-0.109	0.038
-506.741	800.000	-0.046	0.197
-505.726	-112.609	0.290	0.058
-504.712	-144.253	0.167	-0.016
-503.697	800.000	0.079	0.236
-502.683	368.511	0.097	0.196
-501.668	-96.515	-0.067	-0.018
-500.653	-120.608	-0.174	-0.030
-499.639	-200.000	0.018	-0.127
-498.624	17.253	0.129	-0.103
-497.610	749.026	-0.098	-0.264
-496.595	-136.463	-0.236	-0.027
-495.581	632.550	0.072	-0.182
-494.566	486.819	0.036	0.083
-493.551	-79.695	-0.201	0.068
-492.537	-200.000	0.042	0.334
-491.522	33.112	0.149	-0.130
-490.508	190.676	-0.208	-0.312
-489.493	258.547	-0.085	0.147
-488.478	800.000	0.086	-0.326
-487.464	-121.232	0.196	-0.033
-486.449	-179.160	0.345	-0.008
-485.435	145.410	-0.238	-0.318
-484.420	-148.922	0.136	-0.011
-483.405	257.476	0.027	0.046
-482.391	800.000	0.064	0.185
-481.376	-200.000	-0.013	0.363
-480.362	800.000	-0.140	-0.417
-479.347	180.058	-0.061	0.090
-478.332	-157.505	0.158	-0.009
-477.318	37.504	-0.098	-0.087
-476.303	-8.676	-0.163	0.109
-475.289	101.553	-0.013	0.015
-474.274	6.429	0.188	-0.140
-473.259	162.293	-0.045	0.064
-472.245	26.335	0.239	0.199
-471.230	-78.281	0.089	-0.030
-470.216	-36.494	0.256	-0.138
-469.201	-70.702	-0.114	0.043
-468.186	-108.443	0.172	0.037
-467.172	-86.776	0.090	0.028
-466.157	-200.000	-0.011	0.273
-465.143	-194.357	0.161	-0.001
-464.128	-45.839	0.303	-0.149
-463.113	17.617	-0.192	-0.152
-462.099	340.688	0.029	0.057
-461.084	-136.654	0.242	0.028
-460.070	-200.000	-0.022	-0.098
-459.055	-98.012	0.086	-0.022
-458.040	800.000	-0.100	-0.298
-457.026	215.272	0.112	0.177
-456.011	-21.568	-0.170	0.103
-454.997	800.000	-0.059	-0.214
-453.982	-113.145	0.238	-0.047
-452.968	177.587	0.072	0.105
-451.953	137.933	0.043	-0.057
-450.938	-19.011	0.235	0.146
-449.924	47.991	0.171	-0.159
-448.909	-200.000	-0.011	-0.523
-447.895	800.000	0.036	0.152
-446.880	-200.000	-0.001	-0.229
-445.865	684.798	-0.057	0.148
-444.851	800.000	-0.076	0.215
-443.836	-111.068	0.168	0.034
-442.822	190.084	0.185	-0.278
-441.807	-200.000	0.129	-0.652
-440.792	-128.659	-0.166	-0.023
-439.778	466.966	0.138	-0.308
-438.763	73.802	-0.126	-0.132
-437.749	-17.378	-0.084	0.053
-436.734	-200.000	0.022	-0.098
-435.719	-95.775	0.363	0.097
-434.705	-36.392	0.206	-0.111
-433.690	-144.776	0.154	0.014
-432.676	800.000	0.091	-0.256
-431.661	137.468	-0.170	-0.222
-430.646	169.024	-0.111	-0.158
-429.632	147.397	0.075	-0.100
-428.617	-23.950	0.182	-0.109
-427.603	335.844	0.128	0.248
-426.588	-200.000	0.043	0.303
-425.573	-200.000	-0.034	-0.267
-424.559	19.575	-0.215	-0.173
-423.544	123.537	0.049	0.061
-422.530	442.002	-0.025	0.054
-421.515	145.097	-0.212	-0.283
-420.500	-198.399	-0.188	0.001
-419.486	233.254	0.089	-0.147
-418.471	-200.000	0.040	0.430
-417.457	75.703	-0.226	0.238
-416.442	90.191	0.190	0.212
-415.428	-124.682	0.146	0.023
-414.413	5.187	0.251	-0.184
-413.398	764.424	-0.121	-0.328
-412.384	-108.198	-0.282	-0.061
-411.369	57.187	0.141	-0.137
-410.355	-75.630	0.291	0.103
-409.340	800.000	0.045	0.193
-408.325	200.992	-0.143	-0.220
-407.311	351.713	-0.203	-0.402
-406.296	369.383	-0.125	-0.253
-405.282	99.931	-0.299	0.346
-404.267	480.926	-0.141	0.319
-403.252	800.000	-0.045	0.143
-402.238	-200.000	-0.037	-0.221
-401.223	-200.000	0.000	0.191
-400.209	126.979	0.087	-0.110
-399.194	800.000	0.071	-0.197
-398.179	-39.036	-0.174	0.091
-397.165	-62.341	-0.344	-0.143
-396.150	-75.076	-0.179	-0.064
-395.136	133.540	0.238	0.307
-394.121	-75.227	-0.106	0.038
-393.106	-33.552	-0.278	0.153
-392.092	800.000	-0.069	-0.197
-391.077	-200.000	0.083	0.369
-390.063	-200.000	-0.017	-0.193
-389.048	-122.472	0.340	0.055
-388.033	-145.581	0.220	0.020
-387.019	-10.180	-0.114	0.075
-386.004	-64.615	-0.339	-0.137
-384.990	37.354	-0.100	-0.088
-383.975	-200.000	-0.004	0.099
-382.960	-200.000	-0.073	0.339
-381.946	-52.326	0.182	-0.084
-380.931	-26.207	0.264	0.155
-379.917	-200.000	-0.051	-0.283
-378.902	-8.015	-0.195	0.131
-377.888	508.614	0.143	-0.331
-376.873	-51.971	-0.046	-0.021
-375.858	800.000	0.055	0.183
-374.844	-130.256	-0.080	-0.011
-373.829	-200.000	0.060	-0.315
-372.815	-200.000	-0.018	0.243
-371.800	800.000	0.064	0.234
-370.785	-200.000	0.020	-0.213
-369.771	302.170	0.074	0.136
-368.756	94.956	-0.113	0.128
-367.742	-8.100	0.042	0.028
-366.727	-200.000	-0.017	0.238
-365.712	-200.000	0.062	-0.363
-364.698	746.255	0.039	-0.105
-363.683	-200.000	0.002	-0.261
-362.669	742.109	0.048	0.129
-361.654	14.825	0.188	0.147
-360.639	-69.029	0.333	0.128
-359.625	-152.808	0.266	-0.019
-358.610	396.253	-0.294	0.612
-357.596	-114.042	-0.215	-0.041
-356.581	-70.260	0.333	-0.126
-355.566	-200.000	-0.005	0.057
-354.552	61.473	-0.254	0.251
-353.537	-70.573	0.181	-0.068
-352.523	42.930	0.135	0.123
-351.508	200.175	-0.065	0.100
-350.493	652.276	-0.105	-0.269
-349.479	-163.692	-0.237	-0.011
-348.464	-200.000	0.050	-0.252
-347.450	199.440	0.108	-0.165
-346.435	-17.546	0.221	0.138
-345.420	800.000	0.086	-0.268
-344.406	133.117	0.219	-0.281
-343.391	-133.363	0.138	0.017
-342.377	-200.000	0.016	-0.188
-341.362	-115.452	0.270	0.051
-340.348	-27.450	-0.140	0.081
-339.333	-74.673	-0.399	0.143
-338.318	774.131	0.023	0.061
-337.304	-200.000	0.065	-0.354
-336.289	-200.000	-0.008	-0.056
-335.275	-57.982	-0.081	0.035
-334.260	-77.269	0.143	0.049
-333.245	-83.956	0.042	-0.013
-332.231	-119.894	0.110	-0.019
-331.216	222.588	-0.167	0.267
-330.202	-89.607	0.383	-0.112
-329.187	-101.496	-0.101	0.025
-328.172	199.966	-0.071	-0.109
-327.158	-142.648	-0.178	-0.017
-326.143	-200.000	-0.037	-0.195
-325.129	79.907	-0.155	0.166
-324.114	-24.769	-0.227	-0.134
-323.099	592.275	0.083	0.204
-322.085	-144.961	0.340	0.031
-321.070	-82.864	0.184	-0.059
-320.056	-198.558	0.291	0.002
-319.041	38.994	0.341	0.303
-318.026	800.000	0.082	0.237
-317.012	36.346	-0.136	0.119
-315.997	28.834	0.052	0.044
-314.983	-52.163	0.260	-0.120
-313.968	279.551	0.080	-0.143
-312.953	307.681	-0.019	0.036
-311.939	287.809	-0.065	-0.117
-310.924	-115.558	-0.306	0.057
-309.910	-143.874	0.244	-0.023
-308.895	327.042	0.208	0.395
-307.880	-200.000	0.049	-0.306
-306.866	-200.000	-0.077	0.000
-305.851	-53.558	-0.316	-0.143
-304.837	-200.000	0.052	-0.426
-303.822	3.012	0.263	-0.190
-302.807	430.536	-0.104	-0.225
-301.793	752.596	-0.050	0.134
-300.778	800.000	0.030	0.120
-299.764	-96.645	-0.351	0.092
-298.749	-200.000	0.040	-0.224
-297.735	265.021	0.090	0.156
-296.720	280.931	0.090	-0.160
-295.705	-94.234	-0.393	-0.107
-294.691	-60.466	0.230	0.097
-293.676	-35.978	0.156	0.084
-292.662	-73.291	-0.336	0.122
-291.647	-91.719	0.370	0.104
-290.632	-77.806	-0.283	0.097
-289.618	-89.587	-0.182	-0.053
-288.603	-98.347	0.241	-0.061
-287.589	-152.216	0.188	-0.013
-286.574	-22.003	0.141	0.085
-285.559	119.029	0.071	-0.087
-284.545	-147.053	0.446	0.038
-283.530	-147.665	0.329	-0.027
-282.516	-136.239	-0.146	-0.017
-281.501	-132.431	-0.246	-0.031
-280.486	82.988	-0.041	0.044
-279.472	-51.283	-0.287	0.133
-278.457	215.317	-0.107	-0.169
-277.443	-104.105	0.054	-0.012
-276.428	-95.424	0.275	0.073
-275.413	-200.000	0.008	-0.169
-274.399	181.456	-0.015	-0.022
-273.384	-200.000	-0.009	0.391
-272.370	-129.516	0.222	-0.031
-271.355	-61.344	0.151	0.063
-270.340	483.283	-0.152	0.342
-269.326	194.355	-0.160	-0.241
-268.311	3.242	-0.066	-0.048
-267.297	800.000	-0.095	0.292
-266.282	-30.412	0.227	0.127
-265.267	509.645	0.174	-0.401
-264.253	-78.075	0.044	0.015
-263.238	-200.000	0.008	-0.039
-262.224	407.949	0.102	-0.215
-261.209	-125.873	-0.253	0.038
-260.195	-85.541	-0.087	-0.027
-259.180	100.876	0.122	0.140
-258.165	335.517	-0.068	-0.131
-257.151	62.420	-0.161	-0.160
-256.136	-200.000	0.016	0.263
-255.122	-24.060	0.041	0.024
-254.107	162.936	-0.073	-0.101
-253.092	60.894	-0.193	-0.189
-252.078	38.482	0.012	0.011
-251.063	-37.661	-0.271	0.143
-250.049	800.000	-0.085	-0.254
-249.034	12.635	0.066	0.051
-248.019	147.660	0.108	-0.144
-247.005	800.000	0.041	0.147
-245.990	-200.000	-0.045	-0.471
-244.976	79.876	0.152	-0.162
-243.961	-30.130	-0.126	-0.071
-242.946	69.399	0.183	0.187
-241.932	37.613	0.166	0.146
-240.917	619.148	-0.147	-0.365
-239.903	-117.564	-0.104	-0.019
-238.888	-200.000	-0.062	-0.331
-237.873	-6.956	-0.237	0.159
-236.859	-110.919	-0.087	0.018
-235.844	56.771	-0.224	0.216
-234.830	-38.586	-0.073	0.038
-233.815	-54.740	-0.342	-0.153
-232.800	-200.000	0.023	0.149
-231.786	-42.455	-0.140	0.071
-230.771	303.513	-0.235	0.430
-229.757	590.976	0.105	0.256
-228.742	82.128	-0.081	0.087
-227.727	-85.638	0.447	0.138
-226.713	-81.314	-0.174	0.057
-225.698	275.776	0.101	-0.177
-224.684	-200.000	0.020	0.202
-223.669	581.084	0.034	-0.082
-222.655	-123.775	0.240	0.038
-221.640	493.504	-0.050	0.113
-220.625	-56.874	0.368	-0.161
-219.611	610.462	-0.132	0.327
-218.596	-54.617	-0.013	-0.006
-217.582	-200.000	-0.010	-0.104
-216.567	-113.841	0.094	-0.018
-215.552	-19.566	0.282	0.173
-214.538	262.215	-0.078	0.134
-213.523	-64.210	-0.078	0.031
-212.509	-89.284	0.367	0.107
-211.494	-200.000	-0.011	-0.076
-210.479	-200.000	-0.003	0.405
-209.465	75.390	-0.039	-0.040
-208.450	91.637	0.181	0.202
-207.436	-24.612	-0.107	-0.063
-206.421	61.753	0.127	-0.125
-205.406	99.388	-0.173	-0.197
-204.392	-75.349	-0.466	0.164
-203.377	91.855	-0.155	0.173
-202.363	-29.996	-0.372	-0.209
-201.348	477.412	-0.017	0.039
-200.333	-89.842	0.155	0.045
-199.319	-200.000	-0.431	-0.002
-198.304	629.490	-0.105	-0.263
-197.290	800.000	0.033	-0.102
-196.275	399.643	-0.123	0.255
-195.260	-110.450	-0.455	-0.093
-194.246	127.690	-0.201	-0.253
-193.231	-119.294	0.107	0.018
-192.217	161.941	-0.189	0.261
-191.202	0.620	0.237	-0.168
-190.187	-200.000	-0.004	0.160
-189.173	800.000	-0.096	0.265
-188.158	51.571	0.125	-0.117
-187.144	-200.000	0.049	0.284
-186.129	-149.357	0.253	0.020
-185.114	24.216	-0.205	-0.168
-184.100	-85.743	0.248	-0.076
-183.085	107.236	-0.251	0.295
-182.071	273.509	-0.078	0.136
-181.056	800.000	0.073	0.273
-180.042	362.086	0.066	0.130
-179.027	-200.000	0.017	0.273
-178.012	138.040	0.093	0.120
-176.998	557.657	0.070	0.166
-175.983	-84.552	-0.094	0.029
-174.969	-200.000	-0.010	0.307
-173.954	-167.811	0.232	-0.009
-172.939	800.000	0.039	0.121
-171.925	800.000	-0.072	0.225
-170.910	253.881	-0.070	0.118
-169.896	-80.914	-0.468	-0.153
-168.881	-200.000	0.014	-0.195
-167.866	253.015	-0.023	0.038
-166.852	-92.482	0.201	-0.056
-165.837	-177.808	0.112	0.003
-164.823	-28.973	-0.234	0.132
-163.808	-17.594	0.244	-0.151
-162.793	-48.057	0.121	-0.058
-161.779	-101.468	-0.239	0.057
-160.764	800.000	-0.014	0.047
-159.750	-145.848	-0.196	0.017
-158.735	800.000	0.034	-0.111
-157.720	-200.000	0.001	0.290
-156.706	8.884	0.206	0.154
-155.691	397.251	0.059	-0.122
-154.677	463.356	0.158	-0.349
-153.662	166.663	0.233	-0.326
-152.647	800.000	0.034	0.097
-151.633	-5.885	0.091	0.061
-150.618	31.266	-0.153	0.129
-149.604	-86.099	0.246	-0.075
-148.589	-37.642	0.195	-0.102
-147.574	35.848	0.094	0.082
-146.560	-90.085	0.217	0.062
-145.545	-200.000	0.008	-0.184
-144.531	-52.080	0.346	0.158
-143.516	800.000	-0.105	0.416
-142.502	87.987	0.155	0.170
-141.487	70.105	-0.079	-0.081
-140.472	-13.619	0.144	-0.092
-139.458	195.244	-0.065	-0.097
-138.443	184.069	0.023	-0.034
-137.429	-95.670	-0.375	-0.099
-136.414	-62.873	-0.113	-0.046
-135.399	239.966	-0.123	0.202
-134.385	625.788	0.089	0.221
-133.370	-18.417	-0.201	0.124
-132.356	-86.943	-0.414	0.125
-131.341	109.442	0.173	0.204
-130.326	129.779	0.029	-0.037
-129.312	-200.000	-0.010	-0.275
-128.297	261.655	0.055	0.094
-127.283	61.331	-0.127	-0.125
-126.268	-200.000	0.006	0.124
-125.253	-87.079	-0.085	0.026
-124.239	-179.846	0.086	0.002
-123.224	-61.647	-0.310	-0.128
-122.210	-121.939	0.305	-0.050
