DTS Sentinel unit serial number:	SN413079Multiplexer serial number:	ORYXHardware model number:	OX4-SRSoftware version number:	ORYX F/W v4.00 Oryx Data Collector v3.7.2.0data status	okinstallation	princeton_trtdifferential loss correction	single-endedforward channel	channel 3reverse channel	N/Adate	2019/09/12time	11:30:10forward acquisition time	60.00reverse acquisition time	0.00gamma	496.2192k internal	0.2294k external	0.2294temperature offset calibration	1.0031default loss term (dB/km)	0.3790temperature slope calibration	1.0000multiplexer offset coefficient	1.0000multiplexer slope coefficient	1.0000fibre end	0.00T internal ref (°C)	39.37T ext. ref 1 (°C)	1.96T ext. ref 2 (°C)	36.53length (m)	temperature (°C)	Stokes	anti-Stokes-747.200	-102.876	-0.443	0.108
-746.185	800.000	-0.169	0.548
-745.171	234.405	0.149	0.251
-744.156	35.603	0.066	-0.059
-743.142	-149.827	-0.156	-0.012
-742.127	-75.627	-0.248	0.090
-741.112	152.803	0.221	0.308
-740.098	694.785	0.023	0.062
-739.083	124.183	0.133	-0.171
-738.069	-200.000	-0.019	0.220
-737.054	13.129	-0.102	-0.081
-736.039	-65.332	0.117	0.048
-735.025	443.542	-0.032	0.071
-734.010	-6.579	-0.309	-0.215
-732.996	-43.885	-0.276	-0.142
-731.981	37.649	-0.097	-0.088
-730.966	25.990	-0.146	-0.125
-729.952	-53.046	-0.406	-0.191
-728.937	497.363	0.138	-0.324
-727.923	205.134	-0.052	-0.082
-726.908	619.382	0.094	-0.242
-725.894	56.855	0.199	0.198
-724.879	145.575	0.026	-0.036
-723.864	60.950	0.115	0.117
-722.850	246.494	0.019	-0.033
-721.835	252.499	0.069	-0.120
-720.821	124.123	0.118	0.152
-719.806	-199.439	0.345	0.002
-718.791	-122.831	-0.295	-0.049
-717.777	-200.000	-0.031	-0.142
-716.762	-200.000	0.019	0.220
-715.748	489.423	0.012	0.027
-714.733	-200.000	-0.001	-0.038
-713.718	130.963	-0.171	-0.225
-712.704	-136.570	-0.252	-0.030
-711.689	-53.530	-0.147	-0.069
-710.675	-86.909	0.196	0.061
-709.660	-200.000	0.014	-0.157
-708.645	-200.000	-0.021	-0.417
-707.631	-200.000	0.048	-0.312
-706.616	-54.506	0.392	-0.181
-705.602	800.000	-0.030	0.132
-704.587	-7.961	0.158	-0.109
-703.572	50.161	0.058	-0.056
-702.558	-200.000	-0.003	0.035
-701.543	-54.190	-0.039	-0.018
-700.529	-139.553	0.336	0.037
-699.514	-19.427	0.202	0.128
-698.499	0.595	0.181	0.132
-697.485	800.000	-0.056	0.174
-696.470	-41.013	-0.183	0.097
-695.456	-27.139	-0.199	0.118
-694.441	-173.644	0.395	-0.012
-693.426	-102.190	-0.145	-0.036
-692.412	-20.981	0.358	0.224
-691.397	-74.282	-0.174	0.064
-690.383	-49.381	0.122	0.060
-689.368	-9.270	-0.236	0.161
-688.354	6.602	-0.275	0.208
-687.339	-2.108	0.116	0.083
-686.324	486.157	-0.083	-0.193
-685.310	-27.886	-0.249	-0.147
-684.295	69.974	0.144	-0.152
-683.281	-1.156	-0.099	-0.072
-682.266	212.350	0.122	-0.196
-681.251	12.445	0.067	-0.053
-680.237	-109.496	-0.161	0.035
-679.222	-200.000	0.003	-0.203
-678.208	26.250	-0.079	-0.067
-677.193	-124.334	-0.069	0.011
-676.178	-200.000	0.015	-0.249
-675.164	-12.879	0.357	-0.237
-674.149	-140.905	-0.234	0.025
-673.135	472.909	-0.017	-0.039
-672.120	51.181	-0.175	-0.169
-671.105	163.193	-0.142	-0.203
-670.091	117.211	0.104	-0.131
-669.076	109.381	0.037	0.045
-668.062	-200.000	0.016	0.436
-667.047	-200.000	0.025	0.281
-666.032	-200.000	-0.040	-0.231
-665.018	51.592	-0.062	0.060
-664.003	800.000	0.051	0.198
-662.989	-200.000	0.011	0.076
-661.974	66.633	-0.194	0.201
-660.959	532.503	0.072	0.174
-659.945	-200.000	-0.012	-0.151
-658.930	-38.791	0.374	-0.201
-657.916	509.150	0.021	-0.050
-656.901	-35.624	-0.105	0.058
-655.886	-43.266	0.129	-0.067
-654.872	-51.283	-0.166	0.079
-653.857	-58.187	0.075	-0.033
-652.843	-154.917	0.167	-0.011
-651.828	678.981	0.029	0.076
-650.814	-200.000	-0.031	-0.159
-649.799	800.000	-0.063	-0.199
-648.784	800.000	0.156	0.467
-647.770	-138.743	0.144	-0.016
-646.755	205.312	-0.069	0.108
-645.741	-2.323	-0.179	0.128
-644.726	-127.597	-0.273	-0.040
-643.711	-200.000	-0.061	-0.330
-642.697	-59.038	-0.273	-0.120
-641.682	154.731	-0.070	-0.097
-640.668	-61.649	-0.184	0.079
-639.653	-106.451	0.294	-0.067
-638.638	218.101	0.086	-0.140
-637.624	-42.127	0.190	0.099
-636.609	243.502	-0.104	-0.178
-635.595	-200.000	-0.003	0.097
-634.580	-200.000	-0.002	0.071
-633.565	-19.185	-0.075	0.047
-632.551	374.394	-0.067	0.138
-631.536	125.649	0.183	0.235
-630.522	-148.081	0.073	0.006
-629.507	-169.190	0.019	0.001
-628.492	-200.000	0.020	-0.133
-627.478	-69.924	-0.261	-0.101
-626.463	210.476	0.130	-0.207
-625.449	-32.880	-0.306	-0.173
-624.434	-57.969	0.037	0.017
-623.419	-200.000	0.054	0.000
-622.405	214.674	0.130	-0.210
-621.390	-200.000	0.052	0.466
-620.376	-119.234	0.286	-0.051
-619.361	613.574	-0.088	-0.225
-618.346	130.075	-0.096	-0.125
-617.332	355.154	0.079	-0.161
-616.317	-145.690	-0.213	-0.019
-615.303	-37.112	0.027	-0.015
-614.288	-200.000	-0.115	0.584
-613.273	115.855	0.096	0.119
-612.259	39.419	0.087	-0.079
-611.244	-55.054	-0.269	0.123
-610.230	-154.685	0.183	-0.012
-609.215	-72.367	-0.388	-0.146
-608.201	-200.000	0.052	0.314
-607.186	800.000	0.047	-0.154
-606.171	-41.690	0.170	0.089
-605.157	-96.753	-0.189	0.051
-604.142	114.092	-0.142	-0.175
-603.128	-45.807	-0.346	-0.174
-602.113	800.000	-0.071	-0.260
-601.098	9.213	-0.158	0.121
-600.084	-200.000	-0.001	0.100
-599.069	122.929	0.050	-0.064
-598.055	97.382	-0.084	-0.099
-597.040	47.969	-0.173	-0.165
-596.025	-122.456	-0.408	0.068
-595.011	-0.782	-0.270	0.195
-593.996	800.000	-0.043	-0.132
-592.982	-200.000	0.005	-0.162
-591.967	-5.633	-0.052	0.036
-590.952	60.653	-0.435	0.438
-589.938	-200.000	-0.010	0.219
-588.923	-155.122	0.140	0.009
-587.909	64.300	0.214	0.219
-586.894	16.530	-0.168	0.135
-585.879	199.475	0.169	0.263
-584.865	-200.000	0.055	0.477
-583.850	185.016	-0.104	-0.156
-582.836	800.000	0.140	0.423
-581.821	687.152	-0.080	0.212
-580.806	-200.000	0.001	0.227
-579.792	-14.815	-0.150	0.098
-578.777	-7.921	0.048	-0.033
-577.763	-200.000	-0.013	0.098
-576.748	-118.204	-0.135	-0.024
-575.733	-6.446	0.063	0.044
-574.719	-113.362	0.282	0.056
-573.704	-59.732	0.206	-0.090
-572.690	800.000	0.056	-0.179
-571.675	222.713	0.202	0.330
-570.661	2.445	0.220	-0.161
-569.646	800.000	0.027	-0.103
-568.631	-200.000	0.018	-0.128
-567.617	-200.000	-0.002	-0.117
-566.602	45.429	-0.068	0.064
-565.588	35.327	-0.092	0.082
-564.573	-70.747	-0.103	-0.039
-563.558	232.252	-0.247	0.411
-562.544	150.718	0.069	0.096
-561.529	-200.000	-0.010	-0.291
-560.515	118.384	0.141	0.177
-559.500	305.410	0.034	-0.064
-558.485	83.770	0.172	-0.191
-557.471	-30.262	0.295	0.170
-556.456	-200.000	0.007	-0.050
-555.442	176.825	-0.077	-0.114
-554.427	800.000	-0.070	0.210
-553.412	-64.085	-0.140	-0.058
-552.398	-77.541	-0.217	-0.076
-551.383	-97.000	-0.429	0.114
-550.369	83.845	0.185	-0.205
-549.354	355.650	0.053	0.107
-548.339	546.514	0.022	0.054
-547.325	-155.192	0.012	0.001
-546.310	-52.348	0.245	-0.115
-545.296	800.000	-0.087	-0.349
-544.281	800.000	-0.007	0.024
-543.266	800.000	-0.064	0.195
-542.252	136.293	0.133	0.176
-541.237	178.026	0.073	-0.108
-540.223	-123.383	-0.258	-0.042
-539.208	-200.000	-0.030	-0.335
-538.193	-52.835	-0.234	-0.109
-537.179	-163.973	0.055	-0.003
-536.164	-200.000	-0.009	0.141
-535.150	800.000	-0.032	0.128
-534.135	-200.000	0.003	0.130
-533.121	-123.303	-0.536	0.087
-532.106	603.519	-0.104	0.261
-531.091	70.463	0.141	-0.147
-530.077	-200.000	0.009	-0.049
-529.062	28.607	-0.301	0.258
-528.048	526.919	0.128	-0.306
-527.033	800.000	0.041	-0.150
-526.018	25.152	-0.162	-0.137
-525.004	15.969	-0.057	0.045
-523.989	181.249	-0.222	0.330
-522.975	609.150	-0.083	-0.210
-521.960	356.887	0.012	-0.025
-520.945	800.000	-0.088	0.275
-519.931	-151.491	0.084	0.006
-518.916	-112.375	0.522	-0.106
-517.902	-106.131	0.307	0.070
-516.887	-200.000	-0.155	-0.001
-515.872	-200.000	-0.002	0.213
-514.858	-124.057	0.147	0.023
-513.843	66.814	-0.191	-0.197
-512.829	27.083	0.076	0.064
-511.814	-130.639	0.144	0.020
-510.799	56.491	0.052	-0.051
-509.785	-54.090	-0.294	0.136
-508.770	-200.000	0.010	0.167
-507.756	-56.785	-0.217	0.097
-506.741	-200.000	-0.027	-0.125
-505.726	-124.611	-0.209	-0.033
-504.712	-200.000	0.042	-0.244
-503.697	-144.361	0.078	-0.007
-502.683	23.694	-0.261	-0.217
-501.668	800.000	0.008	-0.031
-500.653	7.588	0.222	0.169
-499.639	-200.000	-0.015	-0.072
-498.624	-200.000	0.019	-0.181
-497.610	133.105	0.200	0.262
-496.595	800.000	-0.121	-0.432
-495.581	371.203	0.107	0.220
-494.566	119.815	-0.229	0.288
-493.551	17.489	0.250	0.201
-492.537	103.239	-0.192	-0.228
-491.522	800.000	0.128	0.405
-490.508	-200.000	-0.018	-0.152
-489.493	-200.000	0.015	0.184
-488.478	197.872	0.165	-0.255
-487.464	-70.287	-0.288	-0.111
-486.449	-124.886	0.269	-0.042
-485.435	382.864	0.136	-0.283
-484.420	-200.000	-0.004	-0.169
-483.405	69.138	0.047	-0.049
-482.391	800.000	0.087	0.297
-481.376	45.512	-0.165	0.154
-480.362	-200.000	-0.010	0.125
-479.347	10.220	-0.297	0.229
-478.332	-200.000	0.005	0.031
-477.318	-144.138	0.181	-0.017
-476.303	-70.863	-0.193	-0.073
-475.289	-0.402	-0.105	-0.075
-474.274	229.928	0.121	-0.200
-473.259	800.000	0.150	-0.430
-472.245	-4.515	-0.145	0.101
-471.230	-129.206	0.197	-0.028
-470.216	-200.000	0.016	-0.307
-469.201	34.432	-0.023	-0.021
-468.186	800.000	0.026	-0.079
-467.172	-57.750	-0.334	0.148
-466.157	800.000	0.068	0.206
-465.143	-200.000	0.071	0.317
-464.128	800.000	-0.020	0.086
-463.113	41.963	0.314	0.288
-462.099	-200.000	0.051	0.252
-461.084	-198.474	-0.173	0.001
-460.070	-40.124	0.271	0.143
-459.055	-114.446	-0.116	0.023
-458.040	-122.157	0.150	-0.025
-457.026	478.063	0.088	0.201
-456.011	324.695	0.226	0.436
-454.997	782.416	-0.018	-0.051
-453.982	138.538	-0.107	-0.142
-452.968	-200.000	-0.019	0.170
-451.953	-200.000	-0.002	-0.085
-450.938	-189.228	0.239	-0.003
-449.924	-92.093	0.208	-0.059
-448.909	-200.000	0.035	-0.404
-447.895	-200.000	-0.010	-0.171
-446.880	471.849	0.076	-0.174
-445.865	142.769	0.218	-0.293
-444.851	-200.000	-0.027	0.271
-443.836	-200.000	-0.011	-0.065
-442.822	81.263	0.282	0.308
-441.807	207.543	0.148	-0.234
-440.792	320.497	-0.115	0.221
-439.778	-200.000	-0.040	-0.220
-438.763	733.294	0.080	-0.217
-437.749	-200.000	-0.095	-0.519
-436.734	484.235	-0.088	-0.203
-435.719	-200.000	-0.041	0.258
-434.705	-177.656	0.341	-0.008
-433.690	-106.842	-0.066	0.015
-432.676	-91.485	0.315	-0.091
-431.661	-71.417	-0.306	-0.116
-430.646	27.671	0.152	-0.129
-429.632	-5.212	-0.153	-0.106
-428.617	800.000	0.061	-0.204
-427.603	92.885	-0.248	-0.283
-426.588	33.473	-0.325	0.285
-425.573	-200.000	0.001	-0.208
-424.559	257.529	0.131	0.227
-423.544	103.593	0.294	-0.348
-422.530	800.000	-0.137	-0.558
-421.515	205.679	0.105	-0.164
-420.500	196.135	0.090	-0.139
-419.486	156.283	-0.068	0.095
-418.471	-200.000	0.053	-0.303
-417.457	-37.479	-0.124	0.067
-416.442	800.000	0.022	0.067
-415.428	47.350	-0.134	0.126
-414.413	-57.859	-0.350	0.154
-413.398	800.000	0.080	-0.320
-412.384	-35.879	0.138	0.075
-411.369	202.883	0.141	-0.220
-410.355	202.978	-0.181	-0.282
-409.340	-200.000	0.011	0.392
-408.325	66.989	0.224	0.231
-407.311	-31.421	0.255	-0.145
-406.296	656.749	0.171	0.444
-405.282	70.566	0.227	0.236
-404.267	-59.458	0.213	-0.092
-403.252	166.326	-0.110	-0.157
-402.238	-131.688	-0.173	-0.023
-401.223	-200.000	-0.027	-0.152
-400.209	438.641	-0.100	0.221
-399.194	109.520	0.158	-0.191
-398.179	-200.000	0.147	-0.000
-397.165	391.549	-0.103	-0.216
-396.150	-141.320	-0.033	0.003
-395.136	60.875	0.228	0.229
-394.121	800.000	-0.065	0.188
-393.106	-200.000	-0.002	0.149
-392.092	-200.000	0.040	-0.239
-391.077	-154.883	-0.280	-0.019
-390.063	-96.185	0.094	-0.025
-389.048	-200.000	-0.004	-0.107
-388.033	-200.000	-0.000	0.110
-387.019	169.307	0.076	0.110
-386.004	52.191	0.075	0.072
-384.990	800.000	0.039	0.117
-383.975	39.724	0.218	0.197
-382.960	179.487	-0.188	0.277
-381.946	244.240	0.048	-0.081
-380.931	609.496	-0.090	0.227
-379.917	410.768	-0.073	0.157
-378.902	-200.000	-0.007	-0.091
-377.888	128.698	-0.094	-0.120
-376.873	261.838	-0.020	-0.035
-375.858	-34.255	-0.220	-0.121
-374.844	-93.330	0.147	-0.041
-373.829	-200.000	-0.013	0.146
-372.815	596.587	-0.172	0.428
-371.800	141.610	-0.213	-0.284
-370.785	-63.755	0.212	0.087
-369.771	299.269	0.100	-0.185
-368.756	800.000	-0.055	0.186
-367.742	192.947	-0.083	0.127
-366.727	533.799	0.118	0.283
-365.712	-93.221	0.110	-0.031
-364.698	-176.576	-0.243	0.006
-363.683	800.000	-0.050	0.183
-362.669	321.827	0.030	0.058
-361.654	-100.929	-0.169	-0.042
-360.639	103.595	0.076	0.090
-359.625	22.703	-0.052	-0.043
-358.610	800.000	-0.057	-0.247
-357.596	208.080	-0.180	0.284
-356.581	34.484	-0.135	0.119
-355.566	-200.000	0.014	0.178
-354.552	186.781	0.042	-0.064
-353.537	192.389	0.014	-0.021
-352.523	800.000	0.017	-0.051
-351.508	-177.010	-0.215	0.005
-350.493	85.109	-0.040	-0.044
-349.479	-13.093	-0.306	0.200
-348.464	-200.000	-0.004	0.078
-347.450	-36.990	0.248	0.134
-346.435	53.093	-0.069	0.067
-345.420	-4.528	-0.200	-0.139
-344.406	75.787	0.055	-0.059
-343.391	-185.687	-0.027	0.000
-342.377	40.581	0.220	0.200
-341.362	76.884	-0.197	0.210
-340.348	43.312	-0.275	-0.253
-339.333	517.302	-0.151	-0.355
-338.318	44.796	0.118	-0.110
-337.304	79.710	-0.079	0.086
-336.289	-200.000	0.015	-0.092
-335.275	-70.213	-0.263	-0.101
-334.260	84.151	-0.239	0.262
-333.245	-200.000	0.476	-0.001
-332.231	800.000	0.022	0.069
-331.216	-200.000	0.025	0.177
-330.202	-166.663	0.311	-0.013
-329.187	35.774	0.091	-0.081
-328.172	-167.820	-0.237	0.009
-327.158	-113.972	-0.234	-0.046
-326.143	-22.317	0.154	0.094
-325.129	-200.000	-0.033	0.190
-324.114	-46.026	-0.292	0.145
-323.099	800.000	-0.058	-0.175
-322.085	72.193	0.256	0.268
-321.070	800.000	0.016	-0.054
-320.056	132.883	-0.074	-0.096
-319.041	-60.462	-0.185	-0.079
-318.026	-25.898	0.194	0.115
-317.012	-87.153	-0.341	-0.104
-315.997	542.597	-0.171	0.409
-314.983	253.467	0.103	-0.178
-313.968	11.045	-0.131	-0.100
-312.953	-200.000	0.038	-0.266
-311.939	800.000	0.074	-0.246
-310.924	393.684	-0.067	0.141
-309.910	800.000	0.087	0.322
-308.895	10.081	0.227	0.173
-307.880	-44.871	0.155	0.078
-306.866	-103.616	0.242	-0.057
-305.851	-200.000	0.010	-0.225
-304.837	-80.584	0.171	0.057
-303.822	-5.028	0.173	-0.120
-302.807	-200.000	-0.013	-0.129
-301.793	-200.000	0.033	-0.225
-300.778	15.631	0.062	0.049
-299.764	-121.621	0.267	0.044
-298.749	674.084	0.046	-0.121
-297.735	53.136	-0.140	-0.135
-296.720	-14.491	-0.096	0.062
-295.705	-27.215	0.363	-0.212
-294.691	-200.000	0.003	-0.376
-293.676	-101.691	-0.243	0.059
-292.662	292.978	-0.077	0.140
-291.647	174.110	0.259	-0.376
-290.632	-200.000	-0.008	-0.259
-289.618	120.274	-0.060	-0.075
-288.603	228.693	0.054	0.089
-287.589	-156.596	0.203	0.013
-286.574	800.000	0.055	-0.212
-285.559	-86.922	-0.174	-0.053
-284.545	439.227	0.026	0.058
-283.530	109.456	-0.208	-0.250
-282.516	800.000	0.177	-0.514
-281.501	-136.661	0.195	0.023
-280.486	-10.414	0.198	0.131
-279.472	800.000	-0.081	-0.225
-278.457	106.758	-0.017	-0.021
-277.443	800.000	0.166	-0.485
-276.428	800.000	0.083	-0.335
-275.413	800.000	-0.072	0.297
-274.399	-46.451	-0.395	-0.195
-273.384	-200.000	-0.028	-0.556
-272.370	-158.458	-0.104	0.006
-271.355	-52.317	0.189	-0.088
-270.340	-200.000	0.033	-0.368
-269.326	71.138	-0.143	-0.149
-268.311	-170.370	0.336	0.012
-267.297	44.360	-0.274	0.252
-266.282	-51.931	0.293	-0.137
-265.267	-200.000	0.060	-0.378
-264.253	-46.291	0.311	-0.154
-263.238	800.000	0.037	-0.149
-262.224	211.398	0.050	-0.080
-261.209	-24.540	0.103	0.061
-260.195	-51.359	0.229	-0.107
-259.180	-116.592	-0.092	-0.017
-258.165	-110.441	0.134	0.028
-257.151	800.000	0.033	-0.099
-256.136	99.939	-0.158	0.184
-255.122	-200.000	-0.005	0.306
-254.107	55.724	-0.398	0.387
-253.092	91.571	-0.097	0.109
-252.078	-200.000	-0.005	-0.098
-251.063	-114.023	-0.186	0.036
-250.049	145.734	0.170	0.228
-249.034	-200.000	-0.041	-0.209
-248.019	-158.838	-0.252	-0.014
-247.005	-200.000	-0.019	0.204
-245.990	-82.332	-0.158	-0.052
-244.976	-128.350	-0.241	0.034
-243.961	-3.233	0.271	0.189
-242.946	-200.000	-0.002	0.027
-241.932	-121.217	-0.196	0.033
-240.917	-23.427	-0.358	0.216
-239.903	14.827	0.203	-0.159
-238.888	-132.370	-0.251	-0.032
-237.873	-38.413	-0.070	-0.037
-236.859	-39.949	-0.135	-0.070
-235.844	-87.520	-0.288	0.087
-234.830	-95.996	0.244	-0.065
-233.815	171.061	-0.168	0.242
-232.800	-55.476	0.386	0.174
-231.786	-200.000	0.004	-0.154
-230.771	3.827	0.142	-0.104
-229.757	108.149	0.163	-0.194
-228.742	800.000	0.034	0.127
-227.727	-70.095	0.200	-0.076
-226.713	593.159	0.107	0.265
-225.698	-200.000	-0.026	0.214
-224.684	-94.600	-0.319	0.087
-223.669	-121.510	-0.123	-0.021
-222.655	429.559	-0.074	0.160
-221.640	800.000	-0.064	0.265
-220.625	-200.000	-0.069	0.398
-219.611	-9.815	-0.111	-0.074
-218.596	-21.183	-0.195	0.120
-217.582	67.417	-0.173	0.177
-216.567	-16.786	0.169	-0.107
-215.552	800.000	-0.032	0.098
-214.538	800.000	-0.150	0.524
-213.523	800.000	0.081	-0.231
-212.509	-164.321	0.134	0.006
-211.494	-94.466	0.053	0.014
-210.479	-44.523	-0.280	-0.140
-209.465	-200.000	0.044	0.206
-208.450	-28.000	-0.192	-0.111
-207.436	6.809	0.268	0.200
-206.421	-95.684	0.191	-0.051
-205.406	-200.000	-0.014	-0.335
-204.392	13.398	0.141	0.110
-203.377	-31.485	0.205	-0.115
-202.363	112.475	-0.040	0.049
-201.348	800.000	0.083	0.252
-200.333	-22.085	0.411	0.250
-199.319	82.996	-0.258	-0.281
-198.304	127.704	0.119	0.152
-197.290	-200.000	0.023	-0.313
-196.275	-24.377	-0.150	-0.090
-195.260	-0.993	-0.248	-0.176
-194.246	800.000	0.106	-0.322
-193.231	-172.832	-0.220	-0.007
-192.217	-115.948	0.193	0.036
-191.202	-137.647	0.259	-0.029
-190.187	800.000	-0.023	-0.076
-189.173	-200.000	0.031	-0.478
-188.158	-144.326	0.103	-0.010
-187.144	-45.189	-0.082	-0.041
-186.129	-24.611	0.215	0.128
-185.114	-167.192	-0.244	0.010
-184.100	-170.704	0.153	-0.005
-183.085	-200.000	-0.062	-0.360
-182.071	450.578	0.076	-0.167
-181.056	-141.205	0.261	-0.027
-180.042	-30.058	0.135	-0.077
-179.027	-101.280	0.445	-0.109
-178.012	-147.090	-0.391	0.033
-176.998	-101.675	0.092	0.022
-175.983	146.738	-0.162	0.218
-174.969	-200.000	0.028	0.149
-173.954	225.172	0.166	0.269
-172.939	355.781	0.175	-0.348
-171.925	-37.216	-0.045	-0.024
-170.910	-200.000	0.027	-0.311
-169.896	54.523	-0.150	0.145
-168.881	-135.192	0.284	0.034
-167.866	-200.000	-0.021	0.198
-166.852	219.910	-0.131	0.211
-165.837	-200.000	-0.014	-0.104
-164.823	-92.033	0.221	-0.062
-163.808	-17.786	-0.056	-0.035
-162.793	166.651	0.098	0.139
-161.779	-27.648	-0.120	0.069
-160.764	800.000	-0.020	0.068
-159.750	-101.878	0.359	-0.087
-158.735	-82.576	0.345	0.112
-157.720	-200.000	0.031	0.205
-156.706	-138.921	-0.512	-0.056
-155.691	-200.000	-0.039	0.191
-154.677	-17.947	0.171	-0.107
-153.662	57.826	-0.026	0.025
-152.647	740.661	0.139	0.372
-151.633	-15.702	0.258	-0.164
-150.618	34.331	-0.090	0.079
-149.604	-156.862	0.216	-0.013
-148.589	25.281	-0.126	0.105
-147.574	136.072	-0.140	-0.182
-146.560	291.661	-0.028	-0.051
-145.545	-165.387	0.289	0.013
-144.531	25.083	0.379	-0.314
-143.516	542.273	0.094	0.224
-142.502	800.000	-0.158	0.605
-141.487	32.330	0.242	0.209
-140.472	-200.000	0.035	0.229
-139.458	78.165	-0.360	-0.384
-138.443	-200.000	0.043	-0.303
-137.429	-59.746	-0.191	-0.082
-136.414	-164.171	-0.392	0.018
-135.399	-90.330	0.173	-0.050
-134.385	-72.865	-0.187	0.069
-133.370	124.022	0.235	-0.294
-132.356	800.000	-0.027	-0.113
-131.341	-41.941	-0.349	-0.178
-130.326	-10.813	0.184	-0.122
-129.312	-89.664	-0.044	-0.013
-128.297	206.875	-0.245	-0.381
-127.283	45.815	-0.088	-0.081
-126.268	115.227	0.117	0.142
-125.253	-19.248	-0.185	0.114
-124.239	-70.219	0.223	0.085
-123.224	254.286	0.079	-0.135
-122.210	800.000	-0.091	-0.323
