DTS Sentinel unit serial number:	SN413079Multiplexer serial number:	ORYXHardware model number:	OX4-SRSoftware version number:	ORYX F/W v4.00 Oryx Data Collector v3.7.2.0data status	okinstallation	princeton_trtdifferential loss correction	single-endedforward channel	channel 3reverse channel	N/Adate	2019/09/13time	20:40:35forward acquisition time	60.00reverse acquisition time	0.00gamma	496.2192k internal	0.2332k external	0.2332temperature offset calibration	1.0060default loss term (dB/km)	0.3790temperature slope calibration	1.0000multiplexer offset coefficient	1.0000multiplexer slope coefficient	1.0000fibre end	0.00T internal ref (°C)	28.94T ext. ref 1 (°C)	3.19T ext. ref 2 (°C)	23.55length (m)	temperature (°C)	Stokes	anti-Stokes-747.200	266.983	-0.040	-0.070
-746.185	-34.919	-0.391	0.215
-745.171	-200.000	0.060	0.352
-744.156	-197.199	-0.189	-0.001
-743.142	800.000	0.039	0.122
-742.127	-46.296	-0.385	0.190
-741.112	800.000	0.040	0.135
-740.098	800.000	-0.065	0.229
-739.083	-110.299	0.249	-0.052
-738.069	12.935	-0.354	0.275
-737.054	210.668	-0.108	0.171
-736.039	-200.000	0.025	0.352
-735.025	-111.941	-0.035	-0.007
-734.010	437.207	-0.081	-0.177
-732.996	-124.317	-0.137	-0.022
-731.981	4.305	-0.160	0.118
-730.966	-21.484	-0.082	-0.050
-729.952	-200.000	0.027	-0.124
-728.937	-88.309	-0.247	-0.074
-727.923	800.000	0.039	0.147
-726.908	102.441	-0.089	0.104
-725.894	-34.048	-0.408	0.226
-724.879	16.861	0.220	-0.175
-723.864	-200.000	-0.011	-0.306
-722.850	-200.000	0.012	0.111
-721.835	34.683	0.223	0.196
-720.821	-200.000	-0.009	0.137
-719.806	172.793	-0.063	0.092
-718.791	-105.716	-0.124	-0.028
-717.777	-99.768	-0.305	-0.077
-716.762	-200.000	0.045	-0.355
-715.748	135.778	0.204	0.267
-714.733	800.000	-0.037	-0.151
-713.718	-200.000	-0.011	-0.050
-712.704	-93.213	-0.167	-0.047
-711.689	106.961	-0.169	-0.202
-710.675	-172.067	0.474	0.015
-709.660	-117.460	0.418	-0.076
-708.645	-128.995	0.093	0.013
-707.631	-114.325	-0.472	-0.091
-706.616	-200.000	0.053	-0.340
-705.602	-70.742	0.086	0.032
-704.587	-200.000	-0.017	-0.122
-703.572	-149.178	-0.125	0.010
-702.558	39.844	-0.281	-0.253
-701.543	-81.028	0.216	-0.072
-700.529	77.467	-0.176	-0.188
-699.514	-89.096	-0.253	-0.075
-698.499	-47.205	-0.093	-0.046
-697.485	409.975	-0.140	0.298
-696.470	-83.381	0.095	0.031
-695.456	-200.000	-0.042	-0.253
-694.441	121.165	-0.135	0.168
-693.426	-179.595	-0.157	-0.003
-692.412	63.787	0.054	-0.055
-691.397	-22.631	-0.149	0.090
-690.383	24.922	-0.152	-0.126
-689.368	-107.072	0.048	0.011
-688.354	800.000	0.075	-0.233
-687.339	136.563	-0.172	-0.225
-686.324	-41.986	0.272	-0.140
-685.310	-200.000	0.034	-0.255
-684.295	-200.000	-0.076	-0.366
-683.281	124.473	-0.125	0.158
-682.266	-143.052	0.366	-0.035
-681.251	-9.418	-0.299	-0.200
-680.237	-69.913	0.247	-0.095
-679.222	-163.173	0.172	0.008
-678.208	6.809	0.178	-0.133
-677.193	-162.538	-0.135	-0.007
-676.178	-200.000	-0.112	0.501
-675.164	-200.000	0.004	0.132
-674.149	-200.000	-0.003	0.309
-673.135	204.757	0.111	-0.172
-672.120	-54.933	0.057	0.026
-671.105	-176.352	0.312	0.008
-670.091	-78.343	-0.239	0.082
-669.076	800.000	-0.058	0.194
-668.062	30.382	0.271	-0.233
-667.047	-18.593	-0.138	-0.086
-666.032	-99.459	-0.185	-0.047
-665.018	26.966	0.078	-0.066
-664.003	-123.969	0.296	-0.047
-662.989	-200.000	-0.019	-0.179
-661.974	64.821	-0.239	-0.242
-660.959	88.138	-0.232	-0.258
-659.945	-34.182	0.201	-0.111
-658.930	9.790	0.088	0.067
-657.916	-60.792	-0.464	-0.197
-656.901	182.808	-0.155	0.230
-655.886	800.000	-0.076	-0.254
-654.872	197.440	0.039	-0.060
-653.857	-48.227	-0.257	0.124
-652.843	-135.106	-0.148	-0.018
-651.828	38.713	-0.139	-0.124
-650.814	-39.178	0.077	0.040
-649.799	65.427	-0.077	-0.078
-648.784	-11.857	-0.242	-0.159
-647.770	103.665	0.110	0.129
-646.755	-13.405	0.334	-0.217
-645.741	477.222	0.101	-0.230
-644.726	387.932	-0.066	-0.137
-643.711	-200.000	-0.017	0.406
-642.697	90.925	-0.323	-0.363
-641.682	-119.773	0.436	0.075
-640.668	-34.249	-0.057	-0.031
-639.653	-127.187	-0.143	-0.021
-638.638	193.275	-0.064	0.098
-637.624	-200.000	-0.001	-0.078
-636.609	-132.270	0.173	-0.022
-635.595	-31.563	0.185	0.104
-634.580	101.792	-0.096	0.112
-633.565	-66.506	0.160	-0.064
-632.551	-109.102	0.384	0.082
-631.536	557.028	-0.095	-0.229
-630.522	-200.000	-0.026	0.282
-629.507	-63.135	-0.217	-0.090
-628.492	-143.310	-0.400	0.038
-627.478	-31.426	0.131	0.074
-626.463	-167.894	0.117	-0.005
-625.449	526.889	0.110	0.259
-624.434	-103.593	-0.289	0.068
-623.419	287.543	-0.178	0.322
-622.405	-20.018	0.141	-0.087
-621.390	325.991	0.199	0.382
-620.376	124.306	-0.172	-0.216
-619.361	-39.008	0.211	-0.111
-618.346	-31.658	-0.214	0.120
-617.332	-200.000	0.013	0.092
-616.317	-13.592	0.115	-0.075
-615.303	-182.284	-0.177	-0.003
-614.288	277.897	0.025	-0.045
-613.273	-200.000	0.106	-0.466
-612.259	-200.000	-0.055	-0.380
-611.244	665.432	-0.105	-0.272
-610.230	-13.591	-0.075	0.049
-609.215	-4.028	0.104	-0.072
-608.201	271.476	-0.069	0.122
-607.186	-200.000	0.002	-0.028
-606.171	-43.717	-0.043	-0.022
-605.157	1.489	-0.060	-0.043
-604.142	-63.175	-0.310	0.128
-603.128	-200.000	-0.012	-0.262
-602.113	533.333	0.102	-0.241
-601.098	-200.000	-0.040	0.181
-600.084	12.911	0.138	-0.107
-599.069	19.517	0.089	-0.072
-598.055	17.721	-0.373	-0.297
-597.040	107.319	0.064	0.076
-596.025	240.411	-0.113	0.189
-595.011	-200.000	-0.011	-0.107
-593.996	134.437	0.034	-0.044
-592.982	48.050	0.258	0.241
-591.967	533.698	-0.125	0.297
-590.952	-110.919	0.242	0.050
-589.938	-12.105	-0.084	-0.055
-588.923	-200.000	-0.016	-0.381
-587.909	114.309	-0.216	-0.263
-586.894	-35.690	0.246	-0.133
-585.879	8.783	-0.255	-0.192
-584.865	28.762	-0.335	-0.284
-583.850	2.048	0.102	0.074
-582.836	-124.927	-0.185	0.028
-581.821	-49.046	-0.283	0.135
-580.806	800.000	0.104	-0.288
-579.792	257.819	-0.106	-0.183
-578.777	-70.447	0.159	0.060
-577.763	54.454	0.216	-0.208
-576.748	54.031	-0.249	-0.240
-575.733	800.000	0.061	0.259
-574.719	-38.969	-0.268	0.141
-573.704	305.490	0.153	-0.284
-572.690	-16.008	-0.044	0.028
-571.675	535.492	-0.118	0.280
-570.661	47.470	-0.094	-0.088
-569.646	37.696	0.188	0.167
-568.631	-130.722	-0.400	-0.054
-567.617	112.133	0.148	0.179
-566.602	698.954	0.132	-0.347
-565.588	-200.000	-0.041	-0.345
-564.573	800.000	0.055	-0.206
-563.558	-200.000	0.081	0.359
-562.544	-87.906	0.336	-0.101
-561.529	140.564	-0.292	-0.385
-560.515	76.759	0.069	0.073
-559.500	236.443	-0.131	-0.216
-558.485	800.000	0.060	0.238
-557.471	-200.000	-0.050	0.280
-556.456	800.000	-0.052	0.162
-555.442	-106.000	0.132	0.030
-554.427	139.227	0.152	0.200
-553.412	-57.554	-0.175	0.076
-552.398	-200.000	-0.004	-0.217
-551.383	800.000	-0.114	0.370
-550.369	-142.709	-0.089	-0.009
-549.354	490.331	-0.048	0.109
-548.339	-200.000	0.007	0.328
-547.325	-177.789	0.069	-0.002
-546.310	800.000	-0.103	-0.434
-545.296	-132.346	0.476	0.061
-544.281	-107.038	-0.102	-0.022
-543.266	104.782	0.129	-0.151
-542.252	201.443	-0.074	-0.113
-541.237	-87.905	-0.263	0.079
-540.223	266.000	-0.071	0.124
-539.208	-128.819	0.223	-0.031
-538.193	-140.791	-0.103	0.011
-537.179	35.176	0.225	0.197
-536.164	-200.000	0.080	-0.386
-535.150	206.899	0.250	-0.389
-534.135	-200.000	-0.003	-0.161
-533.121	317.144	0.014	0.025
-532.106	165.514	0.064	-0.091
-531.091	378.284	-0.074	-0.151
-530.077	107.712	-0.144	-0.171
-529.062	27.431	0.085	-0.071
-528.048	193.317	0.167	-0.251
-527.033	9.369	-0.077	0.058
-526.018	800.000	-0.076	0.302
-525.004	539.549	-0.038	-0.089
-523.989	-55.824	-0.074	-0.033
-522.975	800.000	-0.036	-0.131
-521.960	-200.000	-0.012	-0.112
-520.945	-104.796	0.255	-0.058
-519.931	82.399	0.076	-0.082
-518.916	-161.647	0.203	0.010
-517.902	-83.720	-0.123	0.039
-516.887	365.275	-0.079	-0.159
-515.872	236.924	-0.083	-0.137
-514.858	-50.125	-0.134	-0.063
-513.843	167.378	0.126	0.179
-512.829	76.934	-0.180	-0.191
-511.814	106.663	-0.109	0.129
-510.799	800.000	-0.060	0.188
-509.785	-114.521	-0.182	-0.035
-508.770	263.876	0.172	0.298
-507.756	385.190	-0.113	0.231
-506.741	-200.000	0.019	0.274
-505.726	-107.989	-0.064	-0.014
-504.712	-119.962	-0.160	-0.027
-503.697	800.000	-0.023	-0.074
-502.683	-82.831	-0.076	-0.024
-501.668	-84.881	-0.104	-0.033
-500.653	800.000	0.043	0.149
-499.639	-62.444	-0.230	-0.095
-498.624	61.096	0.261	-0.259
-497.610	-121.602	-0.275	-0.045
-496.595	-165.481	-0.456	0.020
-495.581	-200.000	-0.005	0.118
-494.566	800.000	0.103	-0.299
-493.551	-53.667	-0.039	0.018
-492.537	-25.439	-0.198	-0.117
-491.522	54.676	-0.364	-0.350
-490.508	-159.789	-0.340	0.019
-489.493	-132.843	-0.281	0.036
-488.478	-32.377	-0.124	-0.069
-487.464	-12.371	-0.278	-0.181
-486.449	40.558	-0.161	-0.145
-485.435	48.420	0.129	-0.121
-484.420	276.581	0.121	-0.214
-483.405	-200.000	-0.033	0.164
-482.391	-22.579	0.088	-0.053
-481.376	-18.853	0.316	-0.196
-480.362	269.968	0.125	-0.219
-479.347	-85.636	0.104	-0.032
-478.332	-95.799	0.230	0.061
-477.318	53.084	0.229	0.218
-476.303	408.669	0.133	0.280
-475.289	-131.624	-0.182	0.024
-474.274	342.895	-0.116	0.227
-473.259	25.290	0.180	-0.149
-472.245	166.703	-0.149	-0.211
-471.230	-39.900	-0.044	-0.023
-470.216	302.009	0.120	-0.221
-469.201	-200.000	0.025	0.139
-468.186	800.000	-0.064	0.237
-467.172	-200.000	-0.009	0.040
-466.157	-92.136	0.159	-0.045
-465.143	25.238	-0.192	-0.159
-464.128	-59.623	0.443	0.189
-463.113	42.632	0.205	0.186
-462.099	56.620	-0.140	0.135
-461.084	-200.000	0.244	0.001
-460.070	32.719	0.206	0.177
-459.055	-9.231	0.250	-0.166
-458.040	-200.000	0.003	-0.036
-457.026	35.310	-0.079	-0.069
-456.011	-65.486	-0.199	-0.080
-454.997	-200.000	-0.006	-0.137
-453.982	-56.822	-0.265	-0.116
-452.968	-23.756	0.361	-0.215
-451.953	-200.000	0.030	-0.218
-450.938	-147.007	-0.165	0.014
-449.924	800.000	-0.050	0.178
-448.909	-200.000	0.008	0.142
-447.895	-57.211	0.110	0.048
-446.880	-166.509	0.156	0.006
-445.865	-200.000	0.045	-0.207
-444.851	-43.065	-0.138	-0.070
-443.836	-93.858	-0.054	0.015
-442.822	750.553	-0.187	0.500
-441.807	104.883	0.036	-0.042
-440.792	-200.000	0.002	0.229
-439.778	-53.505	0.087	-0.039
-438.763	152.728	-0.402	0.546
-437.749	78.043	0.187	0.198
-436.734	800.000	-0.108	0.303
-435.719	98.490	-0.172	-0.197
-434.705	-200.000	0.018	-0.080
-433.690	-139.704	-0.390	-0.041
-432.676	-106.473	-0.135	-0.030
-431.661	17.301	-0.149	0.117
-430.646	28.026	0.212	0.178
-429.632	-200.000	-0.020	0.202
-428.617	-82.536	-0.229	-0.074
-427.603	-41.020	-0.032	0.016
-426.588	-111.606	-0.365	-0.074
-425.573	-200.000	-0.038	0.384
-424.559	-181.497	0.293	-0.006
-423.544	455.064	0.055	0.122
-422.530	800.000	-0.045	0.149
-421.515	109.799	-0.151	-0.179
-420.500	800.000	-0.014	-0.042
-419.486	-200.000	-0.041	-0.384
-418.471	257.473	0.180	0.308
-417.457	-200.000	0.060	0.262
-416.442	7.584	0.093	0.069
-415.428	-64.572	-0.390	-0.157
-414.413	-135.457	-0.303	0.036
-413.398	-200.000	-0.010	0.082
-412.384	800.000	0.019	0.065
-411.369	368.555	-0.039	0.078
-410.355	800.000	-0.085	0.239
-409.340	-111.843	0.216	0.043
-408.325	65.701	0.193	0.195
-407.311	15.924	-0.190	0.148
-406.296	-168.913	0.258	0.010
-405.282	127.043	0.142	0.179
-404.267	276.608	0.035	0.063
-403.252	-2.097	-0.186	0.129
-402.238	596.970	-0.067	-0.164
-401.223	-188.755	-0.388	0.005
-400.209	572.397	-0.083	-0.202
-399.194	-63.548	-0.303	0.124
-398.179	180.118	0.033	0.048
-397.165	127.715	0.150	0.190
-396.150	-87.494	0.276	-0.083
-395.136	192.790	-0.094	-0.140
-394.121	239.555	-0.038	0.062
-393.106	321.473	0.036	-0.067
-392.092	-15.673	-0.273	-0.173
-391.077	-170.914	0.577	0.020
-390.063	85.504	0.074	0.080
-389.048	-59.053	0.235	0.101
-388.033	37.798	0.083	0.073
-387.019	-55.041	-0.021	0.009
-386.004	-73.270	0.126	-0.046
-384.990	675.486	0.111	-0.286
-383.975	106.274	-0.211	0.247
-382.960	-131.159	0.105	-0.014
-381.946	-22.619	-0.239	0.144
-380.931	-186.693	0.193	-0.003
-379.917	57.832	0.079	-0.077
-378.902	-161.991	0.139	0.007
-377.888	1.491	0.198	0.141
-376.873	-200.000	0.008	0.168
-375.858	-200.000	0.005	-0.109
-374.844	-200.000	0.028	0.250
-373.829	-75.889	0.058	-0.020
-372.815	-46.727	0.303	0.147
-371.800	23.546	-0.205	-0.167
-370.785	-153.770	-0.253	0.017
-369.771	323.911	0.093	-0.177
-368.756	139.253	0.040	0.053
-367.742	455.484	0.062	-0.137
-366.727	76.324	0.315	-0.331
-365.712	-152.976	-0.144	0.010
-364.698	125.056	0.037	-0.046
-363.683	10.727	-0.189	-0.143
-362.669	69.507	-0.060	-0.061
-361.654	-200.000	0.008	0.154
-360.639	-77.850	0.186	-0.064
-359.625	-82.629	0.168	0.054
-358.610	-63.891	-0.177	-0.072
-357.596	-80.600	0.281	-0.093
-356.581	-53.322	0.302	0.137
-355.566	232.279	0.133	0.217
-354.552	-90.743	0.238	0.068
-353.537	-94.174	0.243	0.066
-352.523	-103.876	0.227	0.053
-351.508	-79.212	-0.313	-0.105
-350.493	-55.180	0.234	-0.104
-349.479	228.428	-0.123	0.198
-348.464	209.942	0.098	-0.152
-347.450	251.994	-0.028	0.048
-346.435	-101.238	-0.063	0.015
-345.420	-34.537	0.055	0.030
-344.406	-2.426	0.181	0.126
-343.391	-200.000	-0.027	0.180
-342.377	-87.040	-0.089	0.027
-341.362	-18.969	-0.231	0.142
-340.348	-200.000	0.014	0.118
-339.333	-108.871	0.293	0.062
-338.318	800.000	-0.069	-0.251
-337.304	33.366	-0.268	-0.230
-336.289	583.487	-0.080	-0.195
-335.275	-78.806	-0.103	-0.035
-334.260	800.000	0.072	0.245
-333.245	121.215	0.105	0.129
-332.231	-200.000	-0.006	0.236
-331.216	-7.972	0.103	0.069
-330.202	-86.366	0.146	-0.045
-329.187	-131.812	0.105	0.014
-328.172	-65.920	-0.087	-0.034
-327.158	-32.221	-0.118	0.066
-326.143	-39.265	0.348	-0.181
-325.129	-66.159	0.186	-0.073
-324.114	169.172	-0.068	0.097
-323.099	94.076	-0.186	-0.208
-322.085	13.963	0.253	-0.195
-321.070	-93.980	-0.344	-0.093
-320.056	212.690	0.217	0.339
-319.041	-200.000	0.048	0.227
-318.026	800.000	0.098	0.284
-317.012	-56.798	0.100	0.044
-315.997	-60.396	-0.132	-0.055
-314.983	800.000	-0.054	0.179
-313.968	452.799	-0.088	0.193
-312.953	-200.000	0.009	0.268
-311.939	-28.295	0.194	0.111
-310.924	42.385	0.132	0.118
-309.910	197.423	0.087	0.131
-308.895	-50.753	-0.329	0.153
-307.880	25.547	-0.169	-0.139
-306.866	-70.185	0.319	0.120
-305.851	-200.000	0.006	0.183
-304.837	660.169	0.098	-0.250
-303.822	187.933	0.116	-0.171
-302.807	-65.529	-0.060	0.024
-301.793	69.955	-0.103	0.105
-300.778	-70.398	0.405	0.152
-299.764	25.201	-0.129	0.106
-298.749	20.854	0.290	0.232
-297.735	325.245	-0.029	-0.055
-296.720	800.000	0.022	0.090
-295.705	113.887	-0.154	0.185
-294.691	42.686	-0.112	0.100
-293.676	440.802	-0.035	0.076
-292.662	-200.000	0.069	-0.304
-291.647	-200.000	0.001	-0.090
-290.632	208.129	-0.187	-0.289
-289.618	168.888	-0.048	0.068
-288.603	-180.661	-0.302	-0.006
-287.589	458.681	-0.200	0.440
-286.574	-0.474	-0.184	-0.129
-285.559	91.836	0.037	-0.041
-284.545	276.130	0.092	-0.161
-283.530	-123.067	-0.234	0.037
-282.516	-200.000	0.264	0.000
-281.501	247.634	-0.074	0.124
-280.486	-14.351	-0.309	-0.197
-279.472	-101.321	0.471	-0.114
-278.457	-66.651	-0.185	0.072
-277.443	19.850	-0.248	0.197
-276.428	-133.586	-0.205	0.025
-275.413	-77.233	0.111	0.038
-274.399	-68.210	0.039	-0.015
-273.384	-84.680	-0.187	-0.058
-272.370	346.006	-0.112	0.217
-271.355	-200.000	-0.121	-0.668
-270.340	-200.000	0.078	-0.559
-269.326	91.070	0.228	0.253
-268.311	-200.000	0.041	0.224
-267.297	189.209	0.082	-0.121
-266.282	-200.000	-0.005	-0.155
-265.267	25.627	-0.182	-0.150
-264.253	-65.247	0.188	-0.075
-263.238	-82.778	0.086	-0.027
-262.224	177.385	0.067	0.096
-261.209	800.000	0.022	0.062
-260.195	-46.123	0.271	0.132
-259.180	203.629	0.175	-0.268
-258.165	-0.030	-0.143	-0.101
-257.151	-109.339	0.438	-0.092
-256.136	-150.512	-0.171	-0.013
-255.122	326.618	0.140	0.265
-254.107	-184.019	0.119	-0.002
-253.092	-93.074	-0.164	-0.045
-252.078	59.860	-0.157	0.153
-251.063	-162.380	0.529	0.026
-250.049	36.193	-0.132	0.115
-249.034	94.339	0.094	0.106
-248.019	210.644	-0.096	0.149
-247.005	-85.865	-0.245	0.075
-245.990	14.497	-0.172	-0.132
-244.976	56.642	0.064	0.062
-243.961	-5.396	0.179	0.121
-242.946	800.000	0.146	0.487
-241.932	-200.000	0.053	-0.304
-240.917	-64.077	0.281	0.113
-239.903	-200.000	0.021	-0.263
-238.888	-121.435	0.245	-0.040
-237.873	-123.839	0.094	0.015
-236.859	-81.276	-0.234	-0.076
-235.844	343.391	-0.088	0.169
-234.830	800.000	0.103	0.409
-233.815	23.754	-0.154	-0.125
-232.800	-32.822	0.451	-0.247
-231.786	-58.049	-0.231	0.099
-230.771	-2.412	-0.145	-0.100
-229.757	-33.873	0.350	-0.190
-228.742	-123.806	-0.537	0.084
-227.727	-34.648	0.202	0.109
-226.713	-48.893	-0.488	-0.231
-225.698	800.000	0.093	-0.313
-224.684	-20.291	-0.039	-0.024
-223.669	0.688	0.125	-0.088
-222.655	74.973	-0.160	-0.166
-221.640	-160.325	-0.128	0.007
-220.625	-200.000	-0.029	0.264
-219.611	-134.633	-0.324	-0.039
-218.596	-63.167	-0.060	-0.024
-217.582	78.079	0.288	0.303
-216.567	800.000	0.057	-0.211
-215.552	-114.105	0.088	-0.017
-214.538	35.429	0.173	-0.150
-213.523	34.423	-0.204	-0.176
-212.509	489.147	0.032	0.072
-211.494	800.000	-0.148	-0.446
-210.479	225.211	-0.194	-0.309
-209.465	-79.446	0.204	0.068
-208.450	347.306	-0.090	-0.175
-207.436	800.000	0.070	-0.265
-206.421	-37.265	0.184	-0.097
-205.406	247.050	0.078	0.129
-204.392	-9.266	-0.207	0.136
-203.377	-103.909	0.541	-0.124
-202.363	-200.000	0.016	-0.386
-201.348	800.000	0.062	-0.266
-200.333	-43.140	-0.155	0.077
-199.319	23.329	-0.361	-0.292
-198.304	-200.000	-0.028	-0.257
-197.290	-167.780	0.300	0.012
-196.275	60.479	-0.113	0.110
-195.260	380.283	-0.118	0.238
-194.246	-200.000	-0.010	0.303
-193.231	-48.243	-0.102	0.048
-192.217	144.766	-0.175	-0.230
-191.202	94.211	0.212	0.237
-190.187	-200.000	-0.028	-0.287
-189.173	69.446	0.257	-0.261
-188.158	-31.796	0.200	-0.111
-187.144	-200.000	-0.023	-0.116
-186.129	800.000	0.035	-0.096
-185.114	335.453	0.128	-0.243
-184.100	-127.946	0.417	-0.059
-183.085	-34.455	0.184	0.099
-182.071	-200.000	0.000	0.109
-181.056	-200.000	-0.010	0.161
-180.042	-163.133	-0.182	-0.009
-179.027	744.415	0.092	0.243
-178.012	-200.000	0.061	0.463
-176.998	258.563	-0.267	0.453
-175.983	-200.000	-0.007	0.091
-174.969	0.696	-0.134	-0.094
-173.954	-59.844	-0.154	-0.065
-172.939	-130.931	0.132	0.017
-171.925	-61.447	-0.436	0.180
-170.910	200.443	0.078	0.117
-169.896	-200.000	-0.024	0.366
-168.881	-63.755	-0.149	0.060
-167.866	-165.109	-0.020	0.001
-166.852	299.906	-0.065	-0.119
-165.837	-133.954	-0.180	-0.022
-164.823	-68.848	-0.253	-0.096
-163.808	-200.000	0.063	-0.287
-162.793	206.671	-0.169	0.260
-161.779	-200.000	-0.043	-0.263
-160.764	-119.722	0.248	-0.042
-159.750	106.593	0.225	0.262
-158.735	-200.000	0.087	0.419
-157.720	288.231	0.047	0.083
-156.706	800.000	0.138	0.539
-155.691	134.307	-0.096	-0.122
-154.677	38.705	-0.149	-0.131
-153.662	-103.724	0.323	0.074
-152.647	-93.044	0.223	0.061
-151.633	21.115	-0.135	-0.108
-150.618	-137.694	-0.363	-0.040
-149.604	175.458	0.249	-0.355
-148.589	7.877	0.209	-0.154
-147.574	19.133	0.134	0.106
-146.560	218.350	-0.041	0.064
-145.545	-99.172	0.213	-0.053
-144.531	13.341	-0.143	0.109
-143.516	-200.000	0.012	-0.118
-142.502	-61.759	-0.071	0.029
-141.487	-71.288	0.207	-0.076
-140.472	800.000	-0.076	-0.325
-139.458	175.841	-0.110	-0.157
-138.443	97.860	-0.219	-0.248
-137.429	-31.817	-0.122	0.067
-136.414	323.036	0.042	0.079
-135.399	-200.000	-0.014	-0.206
-134.385	136.443	0.171	-0.220
-133.370	-20.562	-0.167	0.101
-132.356	182.232	-0.138	0.200
-131.341	655.751	-0.039	-0.099
-130.326	316.134	-0.010	0.019
-129.312	-200.000	-0.011	0.139
-128.297	77.368	-0.068	-0.071
-127.283	-132.497	0.388	-0.049
-126.268	-150.743	0.267	-0.020
-125.253	-121.809	-0.075	-0.012
-124.239	41.070	0.068	-0.060
-123.224	-200.000	0.007	-0.089
-122.210	105.083	-0.081	0.094
