DTS Sentinel unit serial number:	SN413079Multiplexer serial number:	ORYXHardware model number:	OX4-SRSoftware version number:	ORYX F/W v4.00 Oryx Data Collector v3.7.2.0data status	okinstallation	princeton_trtdifferential loss correction	single-endedforward channel	channel 3reverse channel	N/Adate	2019/09/15time	16:44:35forward acquisition time	60.00reverse acquisition time	0.00gamma	496.2192k internal	0.2288k external	0.2288temperature offset calibration	0.9931default loss term (dB/km)	0.3790temperature slope calibration	1.0000multiplexer offset coefficient	1.0000multiplexer slope coefficient	1.0000fibre end	0.00T internal ref (°C)	44.23T ext. ref 1 (°C)	5.71T ext. ref 2 (°C)	40.31length (m)	temperature (°C)	Stokes	anti-Stokes-747.200	138.248	-0.037	-0.050
-746.185	5.299	0.069	-0.052
-745.171	10.650	0.076	-0.060
-744.156	-200.000	0.017	0.227
-743.142	-151.514	-0.299	0.023
-742.127	507.718	0.131	0.312
-741.112	-42.573	0.336	-0.175
-740.098	-113.186	0.047	-0.010
-739.083	800.000	0.120	0.365
-738.069	-172.937	-0.105	0.003
-737.054	-200.000	0.013	-0.104
-736.039	678.420	-0.074	-0.198
-735.025	-174.064	-0.228	0.007
-734.010	-185.303	0.155	0.002
-732.996	800.000	-0.056	-0.245
-731.981	-200.000	0.042	-0.415
-730.966	-200.000	-0.006	0.129
-729.952	5.134	-0.063	-0.047
-728.937	668.890	-0.142	0.378
-727.923	488.488	-0.107	-0.250
-726.908	-72.933	-0.566	-0.213
-725.894	-62.798	-0.132	-0.056
-724.879	-138.462	-0.319	0.036
-723.864	-46.625	-0.175	-0.088
-722.850	-88.150	0.188	0.058
-721.835	800.000	0.075	-0.306
-720.821	69.429	-0.092	-0.097
-719.806	136.232	0.108	0.144
-718.791	386.602	-0.069	0.145
-717.777	-89.989	-0.238	0.071
-716.762	-36.038	0.283	0.157
-715.748	51.822	0.127	0.124
-714.733	800.000	0.069	-0.213
-713.718	-165.025	-0.158	0.007
-712.704	800.000	0.031	-0.125
-711.689	-200.000	0.289	-0.001
-710.675	-200.000	0.030	-0.230
-709.660	800.000	-0.064	-0.258
-708.645	-200.000	0.050	-0.236
-707.631	-103.108	-0.350	0.085
-706.616	311.341	0.128	-0.245
-705.602	800.000	0.055	0.239
-704.587	144.618	-0.215	-0.295
-703.572	36.938	-0.087	-0.079
-702.558	701.060	0.104	-0.281
-701.543	-104.969	0.232	0.054
-700.529	-135.315	0.118	-0.015
-699.514	49.076	-0.229	0.220
-698.499	138.720	-0.041	0.055
-697.485	587.510	-0.044	-0.111
-696.470	-147.636	-0.158	-0.014
-695.456	206.706	0.089	-0.142
-694.441	32.465	0.194	-0.171
-693.426	349.292	0.060	0.121
-692.412	-200.000	0.050	0.258
-691.397	750.341	-0.137	0.379
-690.383	726.192	0.062	0.169
-689.368	-200.000	0.012	0.152
-688.354	-200.000	0.058	-0.363
-687.339	31.245	-0.161	-0.142
-686.324	-147.760	0.145	-0.012
-685.310	63.742	0.212	0.217
-684.295	268.714	0.209	-0.375
-683.281	-57.477	-0.233	-0.104
-682.266	30.289	0.089	0.078
-681.251	-93.157	0.427	0.122
-680.237	-111.438	-0.143	0.030
-679.222	800.000	-0.079	0.270
-678.208	800.000	0.041	-0.143
-677.193	-92.525	0.149	-0.043
-676.178	-33.510	0.076	-0.043
-675.164	-74.227	0.343	-0.127
-674.149	180.776	0.135	0.203
-673.135	2.184	-0.176	0.130
-672.120	15.705	-0.116	-0.093
-671.105	258.144	0.134	0.235
-670.091	-163.367	-0.133	-0.006
-669.076	218.912	-0.171	0.280
-668.062	182.680	-0.133	0.201
-667.047	-55.216	0.145	-0.067
-666.032	-75.771	-0.133	-0.048
-665.018	800.000	-0.038	-0.149
-664.003	609.503	-0.054	-0.137
-662.989	-200.000	-0.014	-0.393
-661.974	-63.644	0.127	0.053
-660.959	-145.581	-0.226	0.021
-659.945	-200.000	-0.032	-0.315
-658.930	209.976	0.087	0.139
-657.916	-95.139	0.143	-0.039
-656.901	-200.000	-0.026	-0.232
-655.886	537.714	-0.133	-0.322
-654.872	317.207	-0.033	-0.064
-653.857	9.142	0.348	-0.269
-652.843	-65.151	-0.248	0.102
-651.828	94.310	0.148	0.172
-650.814	-43.149	0.076	0.039
-649.799	800.000	-0.072	0.286
-648.784	-4.514	-0.216	0.152
-647.770	397.664	-0.179	0.383
-646.755	184.583	0.153	-0.232
-645.741	462.788	-0.111	-0.253
-644.726	-76.551	0.110	-0.039
-643.711	-78.698	-0.098	0.034
-642.697	-77.251	0.055	0.020
-641.682	-153.905	-0.373	0.026
-640.668	-123.013	-0.146	0.024
-639.653	125.751	-0.092	0.118
-638.638	180.436	-0.121	-0.181
-637.624	218.014	-0.099	-0.161
-636.609	4.118	-0.085	0.064
-635.595	159.175	0.258	0.366
-634.580	-151.966	0.091	0.007
-633.565	213.321	-0.127	0.205
-632.551	-91.125	-0.113	0.033
-631.536	-200.000	-0.011	0.096
-630.522	-140.307	0.054	0.006
-629.507	161.128	0.111	0.159
-628.492	101.517	0.328	0.390
-627.478	-133.986	0.320	-0.040
-626.463	-200.000	0.014	0.343
-625.449	-181.370	-0.231	0.005
-624.434	-59.648	0.086	-0.038
-623.419	-113.795	-0.263	-0.052
-622.405	-42.716	0.290	-0.151
-621.390	-0.547	0.036	-0.026
-620.376	-91.980	0.339	0.098
-619.361	-200.000	0.013	-0.170
-618.346	-200.000	0.032	0.195
-617.332	94.184	-0.145	0.168
-616.317	69.239	0.242	0.253
-615.303	10.997	0.065	-0.051
-614.288	-23.890	-0.191	0.117
-613.273	-200.000	-0.019	0.272
-612.259	247.965	-0.110	0.190
-611.244	-47.398	0.209	0.104
-610.230	97.608	-0.151	-0.177
-609.215	-200.000	0.034	-0.323
-608.201	-171.262	-0.076	0.003
-607.186	-200.000	0.003	0.077
-606.171	800.000	0.044	-0.141
-605.157	-105.148	-0.262	0.061
-604.142	36.991	-0.301	-0.271
-603.128	-200.000	0.010	-0.144
-602.113	105.192	0.141	-0.169
-601.098	-200.000	0.004	-0.320
-600.084	97.207	0.128	0.149
-599.069	800.000	0.005	0.015
-598.055	183.192	-0.054	-0.082
-597.040	-13.907	-0.139	0.092
-596.025	-200.000	0.023	-0.380
-595.011	188.369	0.166	-0.253
-593.996	-95.552	0.202	-0.055
-592.982	101.189	0.085	-0.101
-591.967	503.795	-0.110	-0.261
-590.952	99.010	-0.105	-0.123
-589.938	-124.544	-0.063	-0.010
-588.923	509.042	0.038	0.091
-587.909	-123.656	0.284	0.046
-586.894	58.927	0.151	0.151
-585.879	-146.933	-0.133	0.012
-584.865	251.765	0.130	0.225
-583.850	283.932	0.099	-0.181
-582.836	-200.000	-0.017	-0.118
-581.821	10.716	0.066	-0.051
-580.806	325.785	-0.158	0.307
-579.792	-30.226	0.155	-0.090
-578.777	31.157	0.139	0.121
-577.763	800.000	0.087	0.287
-576.748	41.337	-0.211	-0.195
-575.733	35.868	0.039	0.035
-574.719	21.595	0.237	-0.196
-573.704	173.021	0.150	-0.220
-572.690	-75.271	-0.404	0.147
-571.675	134.180	-0.081	-0.107
-570.661	33.640	0.176	-0.156
-569.646	56.725	-0.161	0.160
-568.631	6.908	-0.148	-0.112
-567.617	438.794	0.008	0.018
-566.602	161.160	0.059	-0.084
-565.588	-22.360	-0.202	-0.125
-564.573	429.126	-0.137	-0.301
-563.558	-11.978	-0.236	0.157
-562.544	41.170	-0.170	0.157
-561.529	194.505	-0.195	0.302
-560.515	-119.878	0.470	0.082
-559.500	-129.226	-0.241	-0.034
-558.485	-96.068	0.395	0.107
-557.471	253.103	-0.098	0.170
-556.456	-32.316	0.209	-0.119
-555.442	68.552	0.164	0.171
-554.427	800.000	-0.108	-0.356
-553.412	-90.794	-0.113	0.033
-552.398	8.222	-0.185	0.141
-551.383	54.974	-0.106	0.104
-550.369	-54.151	0.142	0.066
-549.354	57.085	0.320	-0.318
-548.339	-200.000	-0.019	-0.211
-547.325	-67.324	-0.364	0.145
-546.310	-93.877	0.252	0.071
-545.296	-200.000	0.010	-0.046
-544.281	-200.000	-0.034	-0.173
-543.266	-6.866	-0.186	-0.129
-542.252	427.865	-0.123	-0.271
-541.237	204.847	-0.032	-0.051
-540.223	191.234	-0.019	-0.029
-539.208	6.847	0.126	-0.095
-538.193	449.430	0.127	-0.284
-537.179	-200.000	-0.129	-0.001
-536.164	800.000	0.074	0.289
-535.150	6.898	-0.257	0.194
-534.135	-200.000	0.028	-0.407
-533.121	65.152	0.050	0.052
-532.106	38.101	0.053	0.048
-531.091	-170.249	-0.238	0.009
-530.077	-200.000	0.080	-0.397
-529.062	-160.902	0.209	0.011
-528.048	501.970	0.041	0.097
-527.033	800.000	-0.060	-0.169
-526.018	-184.727	0.217	-0.004
-525.004	405.054	-0.207	-0.444
-523.989	-15.778	-0.111	0.072
-522.975	-164.063	0.222	0.010
-521.960	800.000	-0.063	-0.196
-520.945	-200.000	0.023	0.160
-519.931	41.039	0.150	0.138
-518.916	58.655	-0.106	0.106
-517.902	47.731	0.272	-0.258
-516.887	137.160	0.099	-0.131
-515.872	-92.582	-0.173	-0.049
-514.858	-116.936	-0.244	-0.045
-513.843	12.923	0.138	0.109
-512.829	-119.848	0.223	-0.039
-511.814	800.000	-0.041	0.124
-510.799	-93.579	-0.159	-0.045
-509.785	38.619	-0.149	-0.135
-508.770	196.795	0.122	0.188
-507.756	800.000	0.016	0.050
-506.741	-41.122	0.312	-0.164
-505.726	-77.627	0.301	-0.106
-504.712	-190.211	0.404	0.005
-503.697	76.729	-0.298	0.322
-502.683	594.023	0.119	-0.299
-501.668	-200.000	0.014	-0.153
-500.653	-108.359	-0.046	-0.010
-499.639	-2.541	-0.055	0.039
-498.624	-124.485	0.122	-0.019
-497.610	144.308	0.129	-0.175
-496.595	-154.768	0.323	0.022
-495.581	-100.880	-0.115	0.029
-494.566	117.945	0.154	-0.193
-493.551	453.281	0.072	-0.161
-492.537	-200.000	-0.015	-0.153
-491.522	75.098	-0.008	-0.009
-490.508	-200.000	0.015	0.073
-489.493	-51.003	-0.390	-0.186
-488.478	-16.128	-0.314	0.202
-487.464	-139.513	-0.160	0.017
-486.449	800.000	0.111	-0.345
-485.435	-58.635	0.074	0.033
-484.420	-196.568	0.164	0.001
-483.405	-91.359	-0.113	0.033
-482.391	-54.379	0.230	0.106
-481.376	-39.905	0.170	-0.090
-480.362	13.518	-0.172	-0.135
-479.347	-96.220	-0.073	0.020
-478.332	722.767	0.053	0.144
-477.318	117.201	0.165	0.205
-476.303	-32.411	-0.177	0.100
-475.289	-200.000	-0.023	-0.215
-474.274	390.094	0.099	-0.208
-473.259	25.493	-0.176	-0.148
-472.245	-19.799	0.384	-0.241
-471.230	-113.326	0.047	0.009
-470.216	47.252	0.114	0.108
-469.201	-5.655	-0.304	-0.212
-468.186	800.000	0.006	0.024
-467.172	605.311	0.135	-0.341
-466.157	-200.000	-0.001	0.099
-465.143	-51.563	0.241	-0.114
-464.128	373.429	0.114	0.235
-463.113	36.873	-0.066	-0.059
-462.099	-124.400	0.333	-0.053
-461.084	800.000	0.046	0.146
-460.070	138.435	-0.130	0.173
-459.055	800.000	-0.081	0.314
-458.040	-126.711	-0.176	-0.026
-457.026	-49.948	0.064	-0.031
-456.011	-27.755	0.199	-0.117
-454.997	-27.058	-0.116	0.069
-453.982	-55.834	0.123	-0.056
-452.968	-134.435	0.282	-0.035
-451.953	-101.634	-0.272	0.067
-450.938	73.480	0.159	-0.169
-449.924	-200.000	0.033	0.231
-448.909	800.000	0.084	0.261
-447.895	-200.000	0.078	-0.427
-446.880	92.290	0.182	-0.208
-445.865	-92.404	0.210	-0.060
-444.851	-27.583	0.048	0.028
-443.836	-111.454	0.259	0.053
-442.822	382.572	0.119	0.248
-441.807	-66.950	0.236	0.095
-440.792	38.192	0.166	0.150
-439.778	-93.919	-0.171	-0.048
-438.763	800.000	-0.026	0.103
-437.749	39.241	0.109	-0.099
-436.734	800.000	0.101	0.323
-435.719	43.807	-0.126	0.117
-434.705	-124.395	-0.138	0.022
-433.690	-74.198	0.235	-0.086
-432.676	454.028	0.130	-0.292
-431.661	-72.915	-0.414	0.154
-430.646	-110.853	-0.224	0.047
-429.632	34.627	-0.082	0.072
-428.617	-36.505	-0.246	0.134
-427.603	800.000	0.041	0.148
-426.588	196.602	0.124	0.192
-425.573	-200.000	-0.052	0.287
-424.559	-55.995	0.165	-0.074
-423.544	385.568	-0.078	0.163
-422.530	328.964	0.162	0.316
-421.515	127.364	0.058	0.075
-420.500	128.482	0.031	-0.039
-419.486	-7.744	-0.438	0.299
-418.471	281.517	-0.199	-0.361
-417.457	27.900	-0.145	-0.124
-416.442	120.000	0.086	-0.108
-415.428	-200.000	0.013	0.167
-414.413	800.000	-0.150	-0.476
-413.398	-131.600	0.033	-0.004
-412.384	-1.909	-0.395	0.281
-411.369	344.165	-0.061	0.121
-410.355	-41.512	-0.276	-0.144
-409.340	119.039	-0.195	-0.244
-408.325	-200.000	0.049	0.474
-407.311	800.000	0.036	0.157
-406.296	-48.778	0.091	0.044
-405.282	82.924	0.077	0.085
-404.267	70.416	-0.081	-0.084
-403.252	800.000	-0.094	0.273
-402.238	-114.273	0.237	0.046
-401.223	-106.107	-0.391	0.089
-400.209	269.315	0.069	0.122
-399.194	-200.000	-0.088	-0.473
-398.179	-48.558	0.268	0.130
-397.165	-180.526	0.188	-0.004
-396.150	-200.000	-0.048	0.238
-395.136	-135.291	0.395	0.048
-394.121	460.462	0.160	-0.361
-393.106	189.099	0.154	0.233
-392.092	173.721	0.205	0.299
-391.077	-109.460	0.235	-0.050
-390.063	15.445	0.289	0.230
-389.048	189.025	-0.168	-0.254
-388.033	68.157	-0.186	0.193
-387.019	-113.699	-0.361	0.071
-386.004	-6.522	0.218	-0.150
-384.990	65.825	-0.135	0.139
-383.975	149.763	-0.029	-0.040
-382.960	197.832	-0.122	-0.188
-381.946	669.891	-0.046	0.119
-380.931	800.000	0.026	0.082
-379.917	399.643	-0.092	0.195
-378.902	800.000	-0.087	0.304
-377.888	-27.270	0.238	-0.140
-376.873	-89.508	0.054	-0.016
-375.858	20.634	-0.166	-0.136
-374.844	233.936	-0.080	0.133
-373.829	-15.901	-0.135	-0.087
-372.815	-60.135	-0.176	-0.076
-371.800	-16.310	0.115	-0.074
-370.785	224.636	0.049	0.079
-369.771	52.552	-0.079	0.076
-368.756	-86.481	-0.106	-0.033
-367.742	-131.748	-0.166	0.022
-366.727	-44.609	-0.157	0.079
-365.712	706.601	-0.114	-0.303
-364.698	208.311	0.197	0.311
-363.683	-69.765	-0.109	0.042
-362.669	650.418	0.053	0.136
-361.654	-124.096	-0.329	0.052
-360.639	-53.111	-0.128	-0.059
-359.625	-171.610	-0.094	0.003
-358.610	-113.423	-0.085	-0.017
-357.596	-200.000	-0.034	-0.236
-356.581	800.000	0.035	-0.128
-355.566	800.000	-0.058	-0.220
-354.552	515.113	0.057	-0.135
-353.537	46.122	0.179	-0.168
-352.523	-42.520	-0.122	-0.063
-351.508	36.882	-0.168	0.150
-350.493	-190.774	-0.533	-0.006
-349.479	800.000	0.081	0.310
-348.464	-36.856	0.151	0.082
-347.450	124.678	-0.134	0.171
-346.435	-200.000	0.056	-0.311
-345.420	-45.266	-0.042	-0.021
-344.406	162.229	-0.138	0.196
-343.391	21.188	0.142	-0.117
-342.377	-43.754	0.068	-0.035
-341.362	-60.515	0.144	0.062
-340.348	-55.235	-0.184	0.083
-339.333	-111.863	0.158	-0.032
-338.318	45.252	-0.097	-0.090
-337.304	266.720	-0.141	-0.248
-336.289	-14.865	-0.132	-0.086
-335.275	171.378	0.095	-0.138
-334.260	307.866	0.081	0.153
-333.245	800.000	-0.017	0.057
-332.231	180.000	0.034	-0.050
-331.216	431.468	0.141	-0.308
-330.202	-184.489	0.149	-0.002
-329.187	18.900	0.056	0.045
-328.172	72.268	0.225	-0.237
-327.158	102.768	0.218	0.258
-326.143	-123.125	0.212	0.034
-325.129	-8.718	-0.077	-0.052
-324.114	-200.000	0.026	0.365
-323.099	-200.000	0.007	0.057
-322.085	-200.000	0.034	-0.189
-321.070	-60.821	0.051	0.022
-320.056	117.256	-0.236	-0.292
-319.041	-60.934	-0.252	-0.108
-318.026	41.416	0.055	0.050
-317.012	89.401	0.271	0.305
-315.997	148.218	0.092	0.125
-314.983	267.778	-0.123	-0.218
-313.968	-46.975	0.069	0.034
-312.953	-50.097	0.247	0.118
-311.939	-200.000	-0.014	-0.192
-310.924	311.640	-0.093	0.176
-309.910	-21.066	-0.090	0.055
-308.895	-84.945	0.225	0.071
-307.880	-132.458	0.244	-0.032
-306.866	-147.732	-0.158	-0.013
-305.851	230.319	-0.196	-0.323
-304.837	32.305	0.157	0.137
-303.822	-61.924	0.135	-0.057
-302.807	-64.815	-0.232	-0.095
-301.793	178.159	0.132	-0.195
-300.778	509.451	-0.047	0.110
-299.764	132.542	0.010	0.013
-298.749	347.954	-0.127	-0.252
-297.735	54.032	-0.268	0.260
-296.720	42.360	-0.042	0.038
-295.705	-70.360	-0.052	-0.020
-294.691	32.179	-0.116	-0.101
-293.676	275.746	0.069	-0.123
-292.662	-150.452	0.119	0.009
-291.647	269.163	0.037	-0.065
-290.632	-78.316	-0.270	0.093
-289.618	-10.465	-0.301	-0.201
-288.603	11.248	-0.251	-0.193
-287.589	-75.532	-0.064	-0.023
-286.574	-160.464	0.288	-0.016
-285.559	145.420	0.179	0.241
-284.545	-129.821	0.156	0.022
-283.530	800.000	-0.142	-0.397
-282.516	-200.000	-0.009	-0.123
-281.501	183.849	-0.120	-0.179
-280.486	40.846	0.138	-0.126
-279.472	447.568	0.244	0.540
-278.457	26.743	0.129	-0.109
-277.443	138.836	0.062	-0.082
-276.428	7.859	-0.119	-0.090
-275.413	-200.000	-0.025	-0.300
-274.399	-200.000	0.006	-0.143
-273.384	255.442	-0.071	0.123
-272.370	119.954	-0.242	0.302
-271.355	-52.782	-0.059	0.028
-270.340	800.000	-0.018	0.062
-269.326	451.807	0.089	0.199
-268.311	72.013	-0.109	-0.115
-267.297	-200.000	0.014	-0.183
-266.282	7.560	0.138	0.104
-265.267	396.254	0.074	0.155
-264.253	16.904	-0.081	0.064
-263.238	800.000	-0.064	-0.266
-262.224	-110.589	-0.140	-0.029
-261.209	226.897	0.071	-0.116
-260.195	139.695	0.268	0.355
-259.180	20.669	-0.155	-0.126
-258.165	484.605	-0.112	-0.256
-257.151	5.755	0.254	0.189
-256.136	277.801	0.134	0.240
-255.122	33.439	-0.125	0.109
-254.107	256.478	-0.085	0.146
-253.092	-133.951	-0.104	0.013
-252.078	-200.000	-0.015	0.342
-251.063	18.207	-0.050	0.040
-250.049	80.733	0.164	0.178
-249.034	-165.685	0.165	-0.007
-248.019	-87.524	-0.218	-0.066
-247.005	52.327	0.094	-0.090
-245.990	65.622	0.118	-0.121
-244.976	-112.401	0.205	0.041
-243.961	426.815	-0.095	0.205
-242.946	50.911	0.065	-0.062
-241.932	-191.685	-0.464	0.005
-240.917	-136.724	-0.292	0.034
-239.903	-121.232	0.255	0.043
-238.888	-200.000	-0.068	0.326
-237.873	410.591	-0.046	0.097
-236.859	367.621	0.123	-0.249
-235.844	-20.276	0.203	-0.126
-234.830	-200.000	0.009	-0.257
-233.815	800.000	0.058	-0.169
-232.800	266.112	-0.096	0.169
-231.786	-200.000	0.009	0.260
-230.771	-200.000	-0.033	0.248
-229.757	86.700	-0.118	-0.131
-228.742	800.000	0.065	-0.189
-227.727	-45.686	0.164	0.081
-226.713	80.676	0.247	0.268
-225.698	70.023	-0.197	-0.204
-224.684	515.998	-0.060	-0.142
-223.669	-200.000	-0.023	0.460
-222.655	-90.706	-0.292	-0.085
-221.640	800.000	-0.058	-0.252
-220.625	400.993	-0.075	0.158
-219.611	-86.770	0.039	0.012
-218.596	-200.000	0.030	-0.137
-217.582	-112.219	-0.320	0.065
-216.567	321.369	0.214	-0.409
-215.552	98.752	-0.107	-0.124
-214.538	-84.689	-0.265	-0.084
-213.523	21.388	-0.189	0.154
-212.509	250.308	0.082	0.140
-211.494	-111.037	-0.122	0.025
-210.479	44.044	0.166	-0.152
-209.465	-63.066	0.199	0.082
-208.450	-154.656	0.050	-0.003
-207.436	-111.621	-0.110	-0.022
-206.421	-11.630	0.040	0.026
-205.406	-26.252	-0.325	-0.192
-204.392	-200.000	-0.006	-0.141
-203.377	-119.282	0.345	-0.060
-202.363	13.926	0.093	0.073
-201.348	50.647	-0.036	-0.034
-200.333	130.275	0.193	0.249
-199.319	-17.478	0.134	0.085
-198.304	4.362	-0.149	-0.110
-197.290	-200.000	-0.008	0.054
-196.275	189.074	-0.158	0.238
-195.260	173.132	0.072	-0.104
-194.246	-200.000	-0.036	-0.310
-193.231	-71.799	-0.262	-0.098
-192.217	76.515	-0.174	-0.185
-191.202	3.189	0.035	-0.026
-190.187	236.075	-0.106	-0.176
-189.173	-73.014	-0.263	0.097
-188.158	113.642	0.064	-0.078
-187.144	-139.245	-0.179	0.019
-186.129	-59.514	-0.072	-0.031
-185.114	800.000	0.027	-0.110
-184.100	129.746	0.077	-0.099
-183.085	610.746	-0.041	0.104
-182.071	-149.990	0.215	0.017
-181.056	9.047	0.369	-0.279
-180.042	-123.517	-0.162	-0.026
-179.027	-24.306	-0.080	0.048
-178.012	-109.553	0.216	0.046
-176.998	-24.203	0.077	0.046
-175.983	156.126	0.114	0.158
-174.969	109.907	-0.107	-0.128
-173.954	-169.548	-0.372	0.014
-172.939	-142.867	0.035	0.003
-171.925	-64.221	-0.212	-0.087
-170.910	-84.851	0.233	0.073
-169.896	93.926	0.057	0.065
-168.881	268.534	-0.077	0.135
-167.866	14.108	0.178	-0.139
-166.852	-28.522	-0.124	-0.071
-165.837	800.000	-0.042	0.130
-164.823	10.396	-0.076	0.058
-163.808	-200.000	-0.005	0.244
-162.793	800.000	0.182	0.581
-161.779	-200.000	0.029	0.318
-160.764	46.964	0.090	-0.084
-159.750	61.665	-0.261	0.260
-158.735	224.386	-0.143	-0.232
-157.720	-33.453	0.141	-0.078
-156.706	-18.421	0.182	0.114
-155.691	-167.456	-0.165	0.007
-154.677	-139.544	0.131	0.014
-153.662	318.821	0.035	0.066
-152.647	-33.708	0.182	-0.101
-151.633	557.535	0.109	0.262
-150.618	-200.000	0.007	-0.154
-149.604	-25.621	-0.290	-0.172
-148.589	-143.255	-0.043	-0.004
-147.574	79.104	0.092	0.099
-146.560	-200.000	0.015	0.077
-145.545	-70.703	-0.191	-0.072
-144.531	-123.487	-0.202	0.032
-143.516	20.338	-0.056	0.045
-142.502	95.399	0.195	0.222
-141.487	45.945	0.179	-0.166
-140.472	-65.953	0.234	0.094
-139.458	-16.134	0.008	0.005
-138.443	-200.000	-0.004	-0.275
-137.429	-135.074	0.274	-0.033
-136.414	109.142	0.056	-0.067
-135.399	-200.000	-0.004	0.400
-134.385	681.091	-0.152	-0.398
-133.370	-3.598	0.209	0.146
-132.356	357.940	-0.081	-0.162
-131.341	50.689	0.118	0.112
-130.326	-70.702	-0.138	0.052
-129.312	-3.708	-0.089	0.062
-128.297	55.142	-0.035	0.034
-127.283	800.000	-0.081	0.287
-126.268	282.795	-0.233	0.419
-125.253	-73.690	0.152	-0.055
-124.239	248.105	-0.078	-0.132
-123.224	-86.120	-0.265	-0.082
-122.210	-200.000	-0.040	-0.428
-121.195	-63.084	0.187	0.077
-120.180	257.921	-0.188	0.324
-119.166	-200.000	-0.006	0.205
