DTS Sentinel unit serial number:	SN413079Multiplexer serial number:	ORYXHardware model number:	OX4-SRSoftware version number:	ORYX F/W v4.00 Oryx Data Collector v3.7.2.0data status	okinstallation	princeton_trtdifferential loss correction	single-endedforward channel	channel 3reverse channel	N/Adate	2019/09/16time	17:24:35forward acquisition time	60.00reverse acquisition time	0.00gamma	496.2192k internal	0.2297k external	0.2297temperature offset calibration	0.9948default loss term (dB/km)	0.3790temperature slope calibration	1.0000multiplexer offset coefficient	1.0000multiplexer slope coefficient	1.0000fibre end	0.00T internal ref (°C)	38.64T ext. ref 1 (°C)	15.44T ext. ref 2 (°C)	32.67length (m)	temperature (°C)	Stokes	anti-Stokes-747.200	-164.273	0.030	0.001
-746.185	277.162	-0.183	0.332
-745.171	-94.887	0.281	0.078
-744.156	30.915	0.046	-0.041
-743.142	-200.000	-0.040	0.187
-742.127	218.680	0.230	0.376
-741.112	-76.869	-0.195	0.070
-740.098	121.696	-0.074	0.094
-739.083	-38.718	0.155	0.084
-738.069	87.145	0.174	0.196
-737.054	-61.852	0.189	-0.081
-736.039	658.756	0.042	0.109
-735.025	-84.495	-0.163	0.053
-734.010	17.319	-0.044	0.036
-732.996	-200.000	-0.067	-0.415
-731.981	22.900	-0.113	0.095
-730.966	-200.000	0.083	-0.414
-729.952	-200.000	-0.001	0.181
-728.937	457.043	-0.149	-0.337
-727.923	123.690	0.208	-0.267
-726.908	-3.462	-0.118	-0.084
-725.894	-7.129	0.118	-0.082
-724.879	-90.782	-0.221	0.065
-723.864	166.630	0.133	-0.192
-722.850	-98.317	-0.363	-0.095
-721.835	800.000	0.068	0.221
-720.821	-172.364	0.240	0.008
-719.806	0.236	-0.122	-0.089
-718.791	-20.773	-0.130	0.081
-717.777	-79.365	-0.272	-0.094
-716.762	-200.000	-0.031	-0.263
-715.748	128.795	-0.116	-0.150
-714.733	-78.708	-0.149	-0.052
-713.718	-50.424	0.079	-0.038
-712.704	-8.019	-0.133	0.092
-711.689	208.560	-0.172	-0.274
-710.675	-200.000	0.032	-0.178
-709.660	170.888	0.109	0.159
-708.645	345.448	-0.097	-0.195
-707.631	122.399	0.202	-0.258
-706.616	464.500	-0.097	-0.222
-705.602	-25.723	0.091	0.055
-704.587	800.000	-0.134	-0.394
-703.572	401.601	0.187	-0.400
-702.558	800.000	-0.068	-0.240
-701.543	-200.000	-0.011	-0.170
-700.529	800.000	0.011	0.035
-699.514	250.747	0.195	-0.339
-698.499	-73.109	0.208	-0.078
-697.485	-116.369	0.244	-0.046
-696.470	-71.777	-0.148	-0.056
-695.456	-63.299	-0.151	-0.064
-694.441	-34.225	0.180	-0.101
-693.426	225.670	0.180	-0.298
-692.412	-176.136	-0.136	0.004
-691.397	-140.972	-0.356	-0.037
-690.383	2.160	-0.190	-0.140
-689.368	-200.000	-0.028	-0.218
-688.354	84.059	-0.018	0.020
-687.339	-132.705	0.088	-0.012
-686.324	-50.450	-0.159	0.077
-685.310	-127.154	0.142	-0.021
-684.295	-1.122	-0.203	-0.146
-683.281	345.895	-0.035	-0.071
-682.266	102.194	0.151	-0.180
-681.251	41.522	0.155	0.143
-680.237	-97.972	-0.342	0.090
-679.222	122.468	-0.149	0.190
-678.208	178.719	-0.214	0.318
-677.193	800.000	0.100	0.427
-676.178	91.016	-0.303	0.346
-675.164	-36.854	0.248	-0.136
-674.149	120.226	0.076	0.096
-673.135	800.000	-0.023	0.095
-672.120	-200.000	0.002	-0.263
-671.105	51.425	0.192	0.186
-670.091	644.150	-0.107	0.279
-669.076	296.675	-0.095	-0.177
-668.062	800.000	0.088	-0.279
-667.047	-133.465	0.311	-0.040
-666.032	800.000	-0.040	0.172
-665.018	16.999	0.142	-0.115
-664.003	-88.239	-0.181	0.055
-662.989	-44.473	-0.296	0.151
-661.974	-111.713	-0.235	-0.048
-660.959	-119.875	-0.158	0.028
-659.945	-46.067	-0.308	-0.154
-658.930	6.717	-0.228	-0.173
-657.916	-200.000	0.021	0.102
-656.901	800.000	0.017	0.072
-655.886	-149.784	0.077	0.006
-654.872	800.000	0.050	0.196
-653.857	-36.321	-0.154	0.085
-652.843	800.000	0.102	0.379
-651.828	-200.000	-0.029	0.170
-650.814	-81.939	-0.201	0.067
-649.799	-200.000	-0.005	-0.520
-648.784	243.320	0.231	-0.393
-647.770	4.868	-0.114	-0.085
-646.755	254.355	-0.117	0.204
-645.741	-81.841	-0.372	0.124
-644.726	-20.514	-0.230	0.144
-643.711	-200.000	0.000	-0.240
-642.697	524.021	-0.079	0.188
-641.682	-200.000	-0.014	0.252
-640.668	-200.000	0.026	-0.691
-639.653	-143.020	-0.206	-0.020
-638.638	-140.343	-0.219	-0.023
-637.624	103.237	-0.150	-0.179
-636.609	800.000	-0.084	-0.365
-635.595	594.892	-0.060	-0.152
-634.580	607.072	0.157	-0.399
-633.565	-42.815	0.111	0.057
-632.551	557.191	0.049	-0.119
-631.536	-65.930	-0.127	0.051
-630.522	-200.000	0.080	0.393
-629.507	332.714	-0.098	-0.192
-628.492	-27.150	-0.165	-0.098
-627.478	163.196	0.262	-0.375
-626.463	89.926	0.133	0.151
-625.449	800.000	-0.120	-0.402
-624.434	56.036	0.100	-0.099
-623.419	240.217	-0.058	-0.098
-622.405	147.913	0.179	-0.245
-621.390	800.000	-0.050	0.173
-620.376	-200.000	0.019	-0.605
-619.361	94.568	-0.217	-0.250
-618.346	704.966	0.037	-0.099
-617.332	502.934	-0.160	-0.375
-616.317	-16.197	0.145	-0.093
-615.303	52.514	0.089	-0.086
-614.288	800.000	-0.060	-0.204
-613.273	-98.080	-0.155	0.041
-612.259	-200.000	-0.045	-0.308
-611.244	-200.000	-0.023	0.155
-610.230	-200.000	-0.023	-0.110
-609.215	3.063	0.154	-0.114
-608.201	180.545	0.066	0.099
-607.186	364.142	-0.040	0.082
-606.171	-48.059	-0.194	0.095
-605.157	-108.070	-0.366	-0.081
-604.142	-21.809	-0.195	-0.120
-603.128	-200.000	-0.027	0.131
-602.113	757.070	-0.162	-0.446
-601.098	107.721	0.342	0.413
-600.084	425.732	0.222	0.486
-599.069	-127.918	-0.249	0.036
-598.055	-28.175	-0.222	0.130
-597.040	800.000	0.079	0.318
-596.025	174.403	0.098	0.144
-595.011	-69.136	-0.284	0.111
-593.996	91.302	-0.123	-0.140
-592.982	-200.000	-0.026	-0.151
-591.967	-53.968	0.355	0.164
-590.952	-200.000	0.024	0.433
-589.938	80.809	-0.152	-0.166
-588.923	-51.084	0.112	0.053
-587.909	-14.632	-0.327	0.213
-586.894	125.913	-0.043	0.055
-585.879	-200.000	0.022	-0.405
-584.865	-200.000	-0.027	-0.276
-583.850	26.249	-0.292	-0.247
-582.836	-200.000	0.024	0.342
-581.821	-12.330	-0.127	-0.084
-580.806	217.727	-0.022	0.036
-579.792	-10.765	-0.261	-0.175
-578.777	94.593	0.153	0.177
-577.763	-199.890	0.071	0.000
-576.748	38.108	0.174	0.157
-575.733	800.000	-0.094	-0.305
-574.719	800.000	0.096	0.332
-573.704	-61.155	0.191	0.082
-572.690	-162.549	0.198	0.010
-571.675	-167.654	-0.201	-0.008
-570.661	-174.658	-0.249	-0.007
-569.646	-49.042	0.112	0.054
-568.631	-200.000	0.005	0.148
-567.617	120.422	-0.258	0.325
-566.602	205.650	-0.037	0.059
-565.588	-47.295	0.373	0.184
-564.573	58.981	0.164	-0.163
-563.558	95.138	-0.136	-0.157
-562.544	-200.000	0.051	0.401
-561.529	111.134	0.039	0.048
-560.515	-200.000	-0.016	-0.247
-559.500	800.000	0.032	0.132
-558.485	-163.453	-0.122	0.006
-557.471	586.441	-0.026	-0.066
-556.456	19.155	-0.148	0.120
-555.442	800.000	-0.097	0.364
-554.427	320.820	-0.021	-0.041
-553.412	-56.665	-0.291	0.131
-552.398	-200.000	0.054	-0.628
-551.383	-68.553	0.304	0.119
-550.369	-29.265	0.129	0.075
-549.354	800.000	-0.030	0.129
-548.339	800.000	-0.112	-0.353
-547.325	656.262	0.013	0.033
-546.310	-200.000	-0.005	-0.040
-545.296	-66.041	-0.118	-0.048
-544.281	800.000	0.049	0.155
-543.266	339.559	0.084	0.165
-542.252	-200.000	-0.021	0.185
-541.237	-200.000	-0.089	0.415
-540.223	136.336	-0.070	-0.092
-539.208	653.897	-0.019	0.050
-538.193	-200.000	0.008	-0.314
-537.179	4.427	0.278	0.207
-536.164	10.970	0.144	0.111
-535.150	144.468	0.104	0.141
-534.135	385.148	-0.102	0.212
-533.121	109.271	0.198	-0.241
-532.106	-60.205	-0.165	0.071
-531.091	69.524	0.031	0.032
-530.077	80.831	0.169	-0.185
-529.062	205.097	-0.048	-0.076
-528.048	-139.792	-0.154	0.017
-527.033	800.000	0.018	0.056
-526.018	237.286	-0.143	-0.241
-525.004	84.796	-0.039	0.044
-523.989	501.444	0.057	-0.134
-522.975	74.539	-0.206	0.220
-521.960	-126.524	-0.243	0.036
-520.945	-115.036	0.242	0.047
-519.931	-200.000	0.010	-0.285
-518.916	-55.849	0.158	0.071
-517.902	-16.314	0.088	-0.057
-516.887	496.234	-0.047	0.110
-515.872	108.188	-0.240	-0.289
-514.858	-20.913	0.189	-0.117
-513.843	-200.000	0.021	-0.204
-512.829	-8.898	-0.355	-0.240
-511.814	320.349	-0.014	0.027
-510.799	-164.682	0.157	0.007
-509.785	-200.000	0.004	-0.257
-508.770	262.490	0.107	-0.189
-507.756	-84.038	0.357	-0.115
-506.741	-103.874	-0.182	0.043
-505.726	-102.455	0.425	0.103
-504.712	127.688	0.112	0.144
-503.697	-103.513	0.140	0.033
-502.683	779.439	-0.108	0.298
-501.668	-200.000	0.043	-0.210
-500.653	-70.037	0.112	0.043
-499.639	280.820	0.037	-0.066
-498.624	173.642	0.087	0.127
-497.610	-106.565	-0.209	-0.047
-496.595	-45.995	-0.265	-0.132
-495.581	12.672	0.263	-0.205
-494.566	12.359	-0.128	0.100
-493.551	-52.081	-0.207	0.097
-492.537	-200.000	0.002	0.284
-491.522	-109.603	-0.056	-0.012
-490.508	-200.000	0.018	-0.268
-489.493	-70.887	0.060	-0.023
-488.478	-200.000	-0.029	-0.195
-487.464	12.265	0.230	0.179
-486.449	36.528	0.119	0.106
-485.435	-138.723	0.045	-0.005
-484.420	800.000	-0.009	0.034
-483.405	-200.000	0.096	0.552
-482.391	107.682	0.159	0.191
-481.376	-200.000	0.042	0.210
-480.362	64.943	0.050	-0.051
-479.347	341.119	-0.109	-0.215
-478.332	3.198	-0.043	-0.032
-477.318	-61.400	0.205	0.087
-476.303	156.500	-0.245	0.342
-475.289	270.119	0.049	0.087
-474.274	116.120	0.040	0.049
-473.259	800.000	0.102	0.291
-472.245	-72.502	-0.241	0.090
-471.230	-200.000	-0.038	0.356
-470.216	-200.000	-0.017	0.263
-469.201	308.571	-0.078	0.147
-468.186	104.802	0.095	0.113
-467.172	289.513	0.102	0.187
-466.157	-18.714	0.280	0.176
-465.143	213.172	-0.107	0.171
-464.128	800.000	-0.025	0.094
-463.113	-70.926	0.258	0.098
-462.099	-81.598	0.215	0.072
-461.084	-55.331	0.199	-0.090
-460.070	800.000	-0.031	0.126
-459.055	-200.000	0.000	-0.224
-458.040	-103.467	0.231	0.055
-457.026	104.182	0.063	0.075
-456.011	372.191	0.163	0.335
-454.997	-20.820	0.318	0.197
-453.982	-119.946	-0.192	-0.033
-452.968	185.316	-0.088	-0.132
-451.953	-71.040	0.425	-0.161
-450.938	47.090	-0.160	0.151
-449.924	-200.000	0.005	-0.276
-448.909	-141.188	0.066	0.007
-447.895	-68.317	0.407	-0.160
-446.880	-44.412	-0.073	0.037
-445.865	-200.000	-0.013	0.147
-444.851	-200.000	-0.006	-0.315
-443.836	116.595	0.120	0.149
-442.822	-127.955	0.122	-0.018
-441.807	242.180	-0.128	-0.216
-440.792	162.706	-0.053	0.075
-439.778	-110.144	0.129	-0.027
-438.763	181.921	-0.038	-0.057
-437.749	800.000	0.022	0.076
-436.734	39.689	0.214	-0.194
-435.719	-200.000	-0.113	-0.592
-434.705	571.806	-0.051	-0.125
-433.690	-200.000	0.014	-0.152
-432.676	-200.000	-0.012	-0.149
-431.661	70.965	-0.207	-0.216
-430.646	-200.000	0.004	-0.351
-429.632	693.359	0.099	-0.261
-428.617	136.840	-0.183	-0.242
-427.603	-91.302	0.122	0.035
-426.588	13.580	-0.230	0.180
-425.573	708.542	0.162	0.431
-424.559	-200.000	-0.030	-0.219
-423.544	-23.675	-0.293	-0.177
-422.530	398.825	-0.062	0.131
-421.515	22.394	0.188	0.155
-420.500	324.779	0.081	-0.156
-419.486	25.635	0.285	0.240
-418.471	-64.195	-0.172	0.071
-417.457	800.000	-0.026	0.094
-416.442	96.041	0.194	0.223
-415.428	-200.000	0.001	0.013
-414.413	800.000	-0.058	-0.219
-413.398	-116.377	-0.164	-0.031
-412.384	-123.391	0.280	-0.045
-411.369	63.989	-0.184	-0.187
-410.355	800.000	-0.022	-0.090
-409.340	32.317	-0.104	-0.091
-408.325	800.000	-0.097	0.386
-407.311	-53.076	-0.146	-0.068
-406.296	800.000	0.072	-0.268
-405.282	-119.882	-0.022	-0.004
-404.267	-3.173	0.299	-0.210
-403.252	260.959	0.215	0.374
-402.238	800.000	0.018	0.056
-401.223	800.000	-0.099	0.304
-400.209	-43.321	0.174	-0.088
-399.194	-48.113	0.126	-0.061
-398.179	147.313	-0.123	-0.166
-397.165	800.000	0.047	-0.182
-396.150	-111.706	-0.157	0.032
-395.136	682.622	-0.077	0.203
-394.121	-57.497	0.425	-0.188
-393.106	-81.014	0.371	-0.124
-392.092	-28.023	0.084	0.049
-391.077	-27.401	-0.066	0.039
-390.063	-42.590	-0.099	0.051
-389.048	800.000	-0.072	0.239
-388.033	800.000	0.024	-0.106
-387.019	248.443	0.170	-0.289
-386.004	-84.049	-0.245	0.078
-384.990	31.141	0.085	0.074
-383.975	-140.197	-0.131	-0.014
-382.960	139.746	-0.040	0.053
-381.946	205.041	-0.049	0.076
-380.931	800.000	0.143	0.431
-379.917	-107.046	-0.126	0.028
-378.902	800.000	0.033	-0.099
-377.888	-175.019	-0.114	0.003
-376.873	800.000	0.051	-0.167
-375.858	-148.373	0.242	0.020
-374.844	40.217	0.192	0.174
-373.829	142.001	-0.076	-0.102
-372.815	48.217	0.079	-0.075
-371.800	-200.000	-0.006	0.121
-370.785	372.434	-0.058	0.119
-369.771	800.000	-0.074	0.240
-368.756	-40.020	0.246	-0.129
-367.742	299.767	0.040	0.075
-366.727	-71.149	-0.159	-0.060
-365.712	-200.000	-0.050	-0.221
-364.698	62.633	-0.177	-0.178
-363.683	-26.441	0.202	0.119
-362.669	800.000	0.070	0.284
-361.654	-100.290	0.333	0.083
-360.639	800.000	0.051	0.173
-359.625	-200.000	0.023	-0.152
-358.610	82.397	-0.125	0.136
-357.596	-200.000	0.017	-0.130
-356.581	101.041	-0.282	-0.330
-355.566	275.048	0.037	0.066
-354.552	-200.000	-0.065	-0.472
-353.537	-127.299	-0.150	-0.022
-352.523	1.014	0.135	-0.098
-351.508	-83.504	-0.109	0.035
-350.493	800.000	0.050	0.219
-349.479	-130.144	0.040	0.005
-348.464	-36.254	-0.117	-0.063
-347.450	-57.510	0.141	-0.062
-346.435	-36.114	0.201	-0.109
-345.420	37.688	0.293	-0.262
-344.406	-200.000	0.083	0.372
-343.391	94.691	-0.137	0.156
-342.377	-24.122	-0.295	-0.177
-341.362	6.758	0.147	-0.110
-340.348	-142.132	-0.282	-0.028
-339.333	-177.540	0.131	0.003
-338.318	-144.701	-0.214	0.020
-337.304	-200.000	-0.006	0.184
-336.289	-200.000	-0.059	-0.270
-335.275	-88.439	-0.184	0.055
-334.260	17.729	-0.089	0.071
-333.245	800.000	0.040	-0.164
-332.231	-200.000	0.029	0.137
-331.216	98.889	-0.106	-0.123
-330.202	304.261	0.084	-0.157
-329.187	-72.609	-0.044	0.016
-328.172	-70.041	0.080	0.031
-327.158	172.657	0.051	0.074
-326.143	85.317	-0.221	0.244
-325.129	-170.594	0.091	-0.003
-324.114	41.394	0.266	-0.242
-323.099	800.000	-0.029	-0.103
-322.085	-64.267	-0.191	0.078
-321.070	226.012	-0.172	0.280
-320.056	-200.000	-0.004	-0.028
-319.041	406.203	-0.102	-0.216
-318.026	-14.431	0.222	0.143
-317.012	-85.385	-0.057	0.018
-315.997	722.212	0.131	0.350
-314.983	-18.619	0.086	0.054
-313.968	-31.502	-0.203	0.115
-312.953	124.596	-0.040	0.050
-311.939	-36.769	-0.075	-0.040
-310.924	-66.324	-0.162	0.065
-309.910	-123.960	-0.266	-0.042
-308.895	739.202	0.119	0.321
-307.880	519.177	-0.105	-0.248
-306.866	254.346	-0.099	-0.170
-305.851	-200.000	0.053	0.302
-304.837	101.169	0.357	0.418
-303.822	13.088	0.074	0.058
-302.807	-200.000	-0.008	0.077
-301.793	-200.000	0.158	0.000
-300.778	-200.000	0.000	0.075
-299.764	800.000	-0.084	-0.235
-298.749	186.643	0.170	0.253
-297.735	297.143	-0.118	0.218
-296.720	-15.662	-0.209	-0.134
-295.705	-79.385	0.048	-0.016
-294.691	-153.903	-0.155	0.011
-293.676	-83.782	0.276	0.088
-292.662	31.319	0.298	-0.257
-291.647	800.000	-0.047	-0.200
-290.632	363.991	-0.071	-0.143
-289.618	-128.736	-0.085	0.012
-288.603	-200.000	-0.007	0.256
-287.589	-134.627	-0.265	0.032
-286.574	101.445	-0.025	0.030
-285.559	177.375	0.183	-0.267
-284.545	-79.452	-0.363	0.123
-283.530	-78.439	0.086	-0.030
-282.516	-34.840	0.236	0.129
-281.501	-200.000	-0.001	-0.029
-280.486	-200.000	-0.050	0.343
-279.472	-200.000	0.014	0.160
-278.457	416.083	-0.114	0.244
-277.443	-101.641	-0.219	0.053
-276.428	-103.363	0.610	0.144
-275.413	-200.000	0.025	0.168
-274.399	-14.974	0.219	-0.141
-273.384	-108.757	0.347	-0.075
-272.370	-124.152	0.374	-0.059
-271.355	-18.182	-0.048	-0.030
-270.340	255.126	-0.030	0.051
-269.326	-80.596	0.160	0.053
-268.311	-200.000	0.028	0.251
-267.297	287.742	-0.053	-0.096
-266.282	108.229	-0.202	-0.242
-265.267	85.813	-0.356	-0.392
-264.253	-33.361	-0.152	0.084
-263.238	1.884	0.174	0.126
-262.224	296.997	0.215	-0.396
-261.209	507.993	0.066	0.153
-260.195	-200.000	0.012	0.115
-259.180	394.114	-0.110	-0.229
-258.165	-98.813	0.402	-0.102
-257.151	-68.095	-0.109	-0.043
-256.136	-151.328	0.115	0.009
-255.122	-200.000	0.022	-0.190
-254.107	29.817	-0.070	-0.059
-253.092	-200.000	0.014	0.109
-252.078	-200.000	-0.009	-0.245
-251.063	-106.484	-0.100	-0.022
-250.049	-49.213	0.228	-0.109
-249.034	-162.216	-0.108	0.005
-248.019	-200.000	-0.163	-0.001
-247.005	-150.595	-0.207	0.016
-245.990	-149.905	-0.173	-0.014
-244.976	-58.759	-0.269	-0.117
-243.961	413.891	0.118	0.252
-242.946	413.776	0.149	0.317
-241.932	-54.693	-0.151	-0.068
-240.917	-200.000	-0.020	0.247
-239.903	24.261	-0.158	-0.131
-238.888	-200.000	-0.007	0.196
-237.873	-74.190	-0.232	0.084
-236.859	-29.719	0.157	0.090
-235.844	-81.149	0.213	0.071
-234.830	12.778	0.054	-0.042
-233.815	553.478	-0.063	-0.152
-232.800	52.350	0.255	-0.244
-231.786	326.928	0.048	0.093
-230.771	800.000	0.116	0.469
-229.757	516.817	-0.009	0.022
-228.742	79.070	-0.076	0.082
-227.727	-138.946	0.106	0.012
-226.713	-136.251	0.209	-0.024
-225.698	-134.830	-0.375	0.046
-224.684	-54.646	-0.122	0.055
-223.669	337.274	0.045	0.087
-222.655	670.933	-0.064	0.166
-221.640	8.692	-0.224	0.169
-220.625	-97.821	-0.362	-0.094
-219.611	87.949	0.143	0.159
-218.596	-200.000	0.016	-0.298
-217.582	-200.000	-0.001	0.009
-216.567	-150.656	0.505	-0.039
-215.552	738.391	0.154	0.412
-214.538	30.211	-0.137	0.117
-213.523	412.933	-0.098	0.209
-212.509	135.485	0.052	-0.068
-211.494	218.512	0.070	-0.113
-210.479	-114.140	0.480	0.093
-209.465	800.000	0.091	-0.361
-208.450	-200.000	-0.001	-0.097
-207.436	-68.323	-0.165	0.064
-206.421	800.000	-0.066	-0.268
-205.406	800.000	0.054	0.189
-204.392	-71.558	-0.340	-0.127
-203.377	141.918	-0.109	0.145
-202.363	-30.650	0.171	-0.097
-201.348	-200.000	-0.001	-0.217
-200.333	69.802	-0.145	-0.149
-199.319	-200.000	-0.016	0.178
-198.304	-51.746	-0.237	-0.111
-197.290	35.415	-0.216	-0.190
-196.275	435.317	0.063	-0.138
-195.260	-18.354	-0.450	-0.281
-194.246	159.399	0.087	0.121
-193.231	10.215	0.048	-0.037
-192.217	-175.325	0.279	-0.008
-191.202	201.624	0.208	0.320
-190.187	131.774	-0.230	0.296
-189.173	-200.000	-0.016	-0.119
-188.158	-88.340	-0.292	-0.087
-187.144	159.303	-0.017	-0.024
-186.129	-170.288	0.230	0.008
-185.114	79.690	-0.191	0.205
-184.100	-131.495	-0.036	-0.005
-183.085	800.000	0.142	0.447
-182.071	-200.000	0.018	-0.084
-181.056	-91.535	0.167	-0.047
-180.042	-96.965	-0.269	-0.070
-179.027	-116.307	0.207	-0.038
-178.012	-0.970	0.049	0.035
-176.998	66.825	0.055	-0.056
-175.983	234.743	-0.137	-0.225
-174.969	228.692	-0.100	-0.163
-173.954	-182.990	0.070	0.001
-172.939	338.484	-0.105	0.204
-171.925	41.206	0.098	0.088
-170.910	1.831	0.219	0.158
-169.896	-200.000	0.017	-0.245
-168.881	342.906	-0.185	-0.362
-167.866	800.000	0.082	-0.286
-166.852	-63.307	-0.120	0.049
-165.837	-87.484	-0.124	-0.037
-164.823	62.617	-0.101	0.101
-163.808	-125.210	-0.247	-0.038
-162.793	-200.000	-0.002	-0.283
-161.779	-51.729	0.140	0.065
-160.764	425.211	-0.068	0.147
-159.750	-200.000	0.072	0.320
-158.735	20.262	0.067	0.054
-157.720	247.139	0.065	0.110
-156.706	-29.715	-0.192	0.110
-155.691	-200.000	0.019	0.218
-154.677	-58.905	-0.276	0.119
-153.662	-200.000	0.047	-0.242
-152.647	247.085	-0.212	-0.357
-151.633	23.549	-0.168	0.138
-150.618	-8.757	-0.239	0.160
-149.604	-200.000	0.038	0.243
-148.589	32.228	0.192	-0.165
-147.574	408.415	0.065	0.136
-146.560	619.377	-0.036	0.090
-145.545	-200.000	-0.024	-0.355
-144.531	-51.126	-0.120	-0.056
-143.516	-200.000	-0.027	-0.294
-142.502	194.283	-0.230	0.348
-141.487	46.098	-0.111	0.103
-140.472	-200.000	-0.045	-0.267
-139.458	800.000	-0.087	-0.355
-138.443	-69.440	0.202	0.077
-137.429	173.285	0.096	-0.137
-136.414	-44.977	-0.345	0.171
-135.399	5.321	0.449	0.331
-134.385	-93.760	0.156	-0.043
-133.370	123.957	0.080	-0.100
-132.356	655.711	0.053	0.137
-131.341	92.813	0.201	0.227
-130.326	-50.227	-0.216	-0.102
-129.312	53.686	0.198	-0.190
-128.297	800.000	0.033	-0.130
-127.283	800.000	0.042	0.120
-126.268	-69.584	0.203	0.077
-125.253	-88.311	-0.053	-0.016
-124.239	473.788	0.093	-0.209
-123.224	38.642	-0.146	-0.130
-122.210	800.000	-0.077	-0.271
-121.195	286.859	-0.247	0.445
