DTS Sentinel unit serial number:	SN413079Multiplexer serial number:	ORYXHardware model number:	OX4-SRSoftware version number:	ORYX F/W v4.00 Oryx Data Collector v3.7.2.0data status	okinstallation	princeton_trtdifferential loss correction	single-endedforward channel	channel 3reverse channel	N/Adate	2019/09/17time	10:48:35forward acquisition time	60.00reverse acquisition time	0.00gamma	496.2192k internal	0.2323k external	0.2323temperature offset calibration	0.9939default loss term (dB/km)	0.3790temperature slope calibration	1.0000multiplexer offset coefficient	1.0000multiplexer slope coefficient	1.0000fibre end	0.00T internal ref (°C)	30.19T ext. ref 1 (°C)	0.17T ext. ref 2 (°C)	25.74length (m)	temperature (°C)	Stokes	anti-Stokes-747.200	35.849	-0.198	-0.176
-746.185	-200.000	0.011	0.102
-745.171	800.000	-0.056	0.160
-744.156	41.107	-0.168	0.153
-743.142	-200.000	-0.006	-0.174
-742.127	-200.000	0.014	-0.185
-741.112	800.000	-0.127	0.372
-740.098	-22.717	-0.422	0.258
-739.083	-11.609	-0.237	0.157
-738.069	95.781	0.380	0.438
-737.054	155.670	-0.013	0.018
-736.039	800.000	-0.096	-0.291
-735.025	800.000	-0.013	-0.051
-734.010	159.519	-0.035	-0.050
-732.996	62.396	-0.260	-0.262
-731.981	-16.044	0.120	-0.077
-730.966	-33.407	-0.221	0.123
-729.952	160.990	-0.076	0.107
-728.937	465.907	-0.162	-0.366
-727.923	278.092	0.123	-0.220
-726.908	28.381	0.214	0.183
-725.894	-172.875	-0.339	-0.011
-724.879	27.916	-0.273	-0.233
-723.864	69.701	-0.118	0.122
-722.850	-191.849	0.107	0.001
-721.835	-159.940	0.373	-0.021
-720.821	-193.841	0.160	0.001
-719.806	236.102	-0.103	0.172
-718.791	-47.078	0.122	-0.060
-717.777	800.000	-0.087	0.336
-716.762	-158.317	0.088	-0.005
-715.748	95.708	0.137	0.158
-714.733	-200.000	0.037	-0.319
-713.718	69.488	0.118	0.123
-712.704	-200.000	-0.039	0.175
-711.689	800.000	-0.063	-0.228
-710.675	-162.682	0.182	-0.009
-709.660	-1.180	-0.244	0.174
-708.645	-14.873	0.132	0.085
-707.631	619.467	0.043	0.110
-706.616	-43.740	-0.264	0.134
-705.602	-200.000	-0.005	-0.072
-704.587	-200.000	-0.015	-0.202
-703.572	741.761	-0.032	-0.087
-702.558	34.154	-0.186	0.163
-701.543	-200.000	0.030	-0.153
-700.529	125.423	0.079	0.100
-699.514	-200.000	0.018	0.197
-698.499	40.276	-0.048	-0.043
-697.485	228.421	-0.101	-0.166
-696.470	203.123	0.101	0.157
-695.456	-132.140	0.090	-0.012
-694.441	278.237	0.242	0.434
-693.426	168.294	-0.232	0.334
-692.412	-46.364	-0.187	-0.092
-691.397	8.482	0.351	0.266
-690.383	800.000	0.052	-0.222
-689.368	164.857	0.074	0.106
-688.354	212.155	-0.159	0.253
-687.339	-46.126	0.079	0.039
-686.324	-200.000	0.005	0.037
-685.310	-20.252	0.119	-0.074
-684.295	800.000	0.015	0.056
-683.281	-82.118	-0.302	-0.099
-682.266	-50.064	0.200	0.096
-681.251	-55.139	0.210	0.095
-680.237	-200.000	0.030	0.175
-679.222	-116.740	0.038	0.007
-678.208	-200.000	0.009	0.096
-677.193	-68.117	0.202	0.079
-676.178	-190.334	-0.069	0.001
-675.164	-75.219	0.185	-0.067
-674.149	800.000	-0.138	0.476
-673.135	-200.000	-0.113	-0.000
-672.120	800.000	-0.062	-0.266
-671.105	59.110	0.120	0.119
-670.091	213.588	0.033	0.052
-669.076	-200.000	0.001	0.038
-668.062	-24.990	0.149	0.089
-667.047	-109.310	-0.180	0.038
-666.032	-133.419	-0.173	0.022
-665.018	-200.000	0.015	-0.206
-664.003	-200.000	-0.030	0.187
-662.989	-200.000	-0.004	0.088
-661.974	-36.818	0.180	0.097
-660.959	800.000	-0.050	-0.190
-659.945	-153.025	-0.354	0.025
-658.930	800.000	-0.039	0.167
-657.916	-200.000	0.004	-0.022
-656.901	-48.032	0.182	-0.089
-655.886	-93.375	-0.106	0.030
-654.872	-4.567	-0.356	0.247
-653.857	20.208	-0.058	-0.047
-652.843	800.000	0.061	-0.182
-651.828	65.125	-0.290	-0.295
-650.814	393.311	-0.093	0.195
-649.799	-25.590	-0.216	0.128
-648.784	36.858	0.114	0.102
-647.770	-200.000	-0.043	-0.267
-646.755	-173.274	0.146	0.004
-645.741	421.472	0.130	-0.280
-644.726	-38.053	-0.059	0.031
-643.711	800.000	0.041	-0.175
-642.697	-37.981	0.074	-0.039
-641.682	-200.000	-0.007	-0.150
-640.668	-35.827	-0.083	-0.045
-639.653	-14.107	-0.126	-0.081
-638.638	800.000	-0.108	0.426
-637.624	46.992	0.093	-0.087
-636.609	152.080	-0.113	-0.155
-635.595	258.099	0.017	0.030
-634.580	22.679	-0.334	0.275
-633.565	-142.343	-0.190	0.019
-632.551	-170.648	-0.118	-0.004
-631.536	390.641	0.058	0.120
-630.522	-123.367	0.249	0.040
-629.507	-85.991	0.231	-0.072
-628.492	268.956	0.172	-0.303
-627.478	126.084	-0.168	0.213
-626.463	12.313	-0.040	-0.031
-625.449	-99.413	-0.192	-0.049
-624.434	86.454	-0.098	0.109
-623.419	-15.647	-0.155	-0.099
-622.405	236.098	0.219	0.363
-621.390	-67.866	-0.208	-0.082
-620.376	-200.000	0.012	0.244
-619.361	-103.701	-0.195	0.046
-618.346	93.540	-0.127	0.144
-617.332	206.983	0.024	0.037
-616.317	-157.584	0.072	0.004
-615.303	293.165	0.127	-0.233
-614.288	-34.279	0.231	-0.127
-613.273	-132.252	-0.121	-0.016
-612.259	60.521	-0.099	0.098
-611.244	109.556	0.155	-0.187
-610.230	-200.000	0.050	-0.420
-609.215	759.525	-0.024	0.065
-608.201	-200.000	0.037	-0.180
-607.186	315.333	0.116	0.219
-606.171	-144.743	-0.250	0.023
-605.157	51.404	-0.080	-0.077
-604.142	187.446	-0.216	-0.324
-603.128	-200.000	-0.005	-0.658
-602.113	-85.609	0.279	-0.087
-601.098	184.189	0.053	-0.079
-600.084	-34.681	-0.060	-0.033
-599.069	-200.000	0.025	-0.115
-598.055	153.839	0.180	0.248
-597.040	104.698	-0.317	0.375
-596.025	800.000	0.075	0.227
-595.011	-0.965	0.212	0.151
-593.996	518.280	-0.084	-0.197
-592.982	800.000	-0.140	-0.397
-591.967	-192.025	0.149	-0.001
-590.952	21.640	-0.191	-0.156
-589.938	77.969	-0.071	0.076
-588.923	-114.601	-0.290	0.056
-587.909	-111.783	-0.233	0.047
-586.894	21.353	0.165	-0.134
-585.879	-91.736	-0.237	0.068
-584.865	719.622	-0.087	-0.233
-583.850	35.997	0.017	-0.015
-582.836	-66.053	-0.110	-0.044
-581.821	-200.000	0.017	-0.087
-580.806	-119.696	-0.117	0.020
-579.792	-78.449	-0.339	-0.117
-578.777	88.743	0.066	-0.074
-577.763	-84.896	0.025	-0.008
-576.748	-55.423	0.144	-0.065
-575.733	-64.260	0.132	-0.054
-574.719	295.270	0.205	0.377
-573.704	800.000	0.015	0.042
-572.690	-77.536	-0.321	0.111
-571.675	-94.929	-0.251	-0.068
-570.661	61.071	-0.138	-0.137
-569.646	236.856	-0.122	-0.203
-568.631	177.167	0.101	-0.148
-567.617	37.740	-0.264	0.235
-566.602	118.160	-0.118	0.145
-565.588	-200.000	0.011	-0.197
-564.573	-107.852	0.188	0.041
-563.558	-169.766	-0.077	-0.003
-562.544	-140.373	-0.330	-0.035
-561.529	-90.336	0.329	-0.096
-560.515	202.627	-0.050	-0.078
-559.500	-94.512	-0.082	-0.023
-558.485	-161.177	0.323	-0.017
-557.471	206.410	-0.159	-0.249
-556.456	-78.070	-0.137	-0.047
-555.442	167.431	-0.303	-0.432
-554.427	-105.629	-0.091	-0.021
-553.412	369.527	0.148	0.300
-552.398	800.000	0.014	0.057
-551.383	-140.300	0.513	0.054
-550.369	74.663	0.317	-0.334
-549.354	-68.479	-0.399	0.155
-548.339	130.239	0.130	0.167
-547.325	-200.000	0.080	-0.366
-546.310	-173.745	-0.070	0.002
-545.296	-200.000	0.006	0.289
-544.281	140.018	-0.228	-0.302
-543.266	120.417	-0.111	0.138
-542.252	-129.050	0.242	-0.034
-541.237	28.892	-0.204	0.173
-540.223	361.049	0.147	0.295
-539.208	168.598	0.097	-0.139
-538.193	-200.000	0.011	-0.174
-537.179	-30.624	0.099	0.056
-536.164	-155.737	0.449	-0.029
-535.150	-200.000	-0.040	-0.251
-534.135	426.483	-0.016	-0.035
-533.121	68.998	-0.176	0.182
-532.106	113.584	-0.140	0.171
-531.091	-185.389	-0.128	0.002
-530.077	-93.655	-0.364	0.101
-529.062	-52.115	0.325	-0.151
-528.048	91.378	-0.138	-0.155
-527.033	800.000	0.004	0.014
-526.018	505.197	0.070	-0.162
-525.004	-189.195	-0.159	-0.002
-523.989	800.000	-0.094	-0.323
-522.975	-200.000	-0.004	-0.086
-521.960	305.781	0.150	-0.279
-520.945	-12.531	-0.152	0.099
-519.931	1.149	0.067	0.048
-518.916	-18.306	-0.371	-0.232
-517.902	60.704	0.041	0.041
-516.887	-42.384	-0.200	-0.102
-515.872	-195.030	0.269	-0.002
-514.858	800.000	-0.097	-0.393
-513.843	-134.250	0.204	0.025
-512.829	-5.846	-0.027	-0.019
-511.814	143.333	0.119	0.159
-510.799	-200.000	-0.004	0.230
-509.785	672.156	0.078	0.202
-508.770	39.182	0.109	-0.097
-507.756	150.638	-0.186	-0.253
-506.741	102.841	-0.121	-0.142
-505.726	-125.435	-0.278	-0.042
-504.712	15.449	0.272	-0.214
-503.697	-200.000	-0.046	-0.494
-502.683	2.868	0.104	0.075
-501.668	-148.960	0.291	0.023
-500.653	361.108	-0.134	0.268
-499.639	109.841	0.154	0.185
-498.624	135.124	-0.151	-0.196
-497.610	-200.000	0.003	-0.294
-496.595	58.143	-0.158	0.155
-495.581	-68.848	-0.323	0.125
-494.566	800.000	0.038	0.152
-493.551	-2.945	-0.238	0.167
-492.537	800.000	0.065	-0.252
-491.522	800.000	-0.088	-0.264
-490.508	314.288	-0.125	0.235
-489.493	237.698	0.038	-0.063
-488.478	-49.687	-0.173	0.082
-487.464	-50.074	-0.203	-0.096
-486.449	17.072	0.217	0.172
-485.435	-105.250	-0.168	-0.038
-484.420	-77.750	0.134	0.046
-483.405	42.345	-0.040	0.036
-482.391	22.811	0.147	-0.121
-481.376	-200.000	0.006	0.127
-480.362	46.064	0.090	0.083
-479.347	-69.864	0.220	0.084
-478.332	-200.000	-0.018	-0.102
-477.318	91.824	0.247	-0.278
-476.303	-6.925	-0.172	-0.117
-475.289	145.583	0.074	0.099
-474.274	-149.058	0.084	0.007
-473.259	-60.858	0.101	-0.043
-472.245	-107.508	-0.159	0.035
-471.230	687.392	0.061	0.161
-470.216	800.000	0.041	-0.146
-469.201	-105.856	-0.194	-0.044
-468.186	211.195	-0.106	-0.166
-467.172	91.663	-0.082	-0.092
-466.157	-200.000	0.028	0.300
-465.143	-22.111	-0.148	0.090
-464.128	-187.708	-0.020	-0.000
-463.113	800.000	0.095	0.353
-462.099	262.170	-0.118	0.204
-461.084	152.124	-0.145	0.197
-460.070	-200.000	0.031	0.255
-459.055	-98.099	0.265	0.068
-458.040	-88.300	0.114	0.034
-457.026	-200.000	0.043	-0.209
-456.011	-170.164	0.173	0.006
-454.997	56.129	0.103	0.100
-453.982	20.298	0.281	-0.227
-452.968	-200.000	0.043	0.342
-451.953	21.465	-0.244	-0.198
-450.938	-139.993	-0.080	-0.008
-449.924	-200.000	-0.006	0.091
-448.909	378.076	0.055	0.113
-447.895	22.486	-0.060	-0.049
-446.880	25.659	0.064	0.053
-445.865	-3.882	0.111	-0.077
-444.851	98.861	0.116	0.133
-443.836	-6.179	-0.317	0.216
-442.822	800.000	-0.054	0.220
-441.807	91.934	-0.101	0.113
-440.792	266.692	0.057	-0.099
-439.778	-200.000	0.000	0.046
-438.763	279.249	0.124	0.221
-437.749	157.454	-0.081	-0.111
-436.734	-200.000	-0.061	-0.593
-435.719	800.000	-0.070	-0.213
-434.705	62.152	0.143	-0.142
-433.690	142.322	-0.081	-0.107
-432.676	149.793	0.184	0.249
-431.661	96.680	-0.183	0.209
-430.646	-103.901	-0.118	-0.028
-429.632	182.319	0.085	0.125
-428.617	-140.243	-0.218	0.023
-427.603	-200.000	-0.020	-0.441
-426.588	-200.000	0.042	0.295
-425.573	800.000	-0.052	0.170
-424.559	19.681	-0.347	0.279
-423.544	-55.839	-0.098	0.044
-422.530	-158.592	0.233	0.013
-421.515	31.110	0.066	-0.057
-420.500	-85.926	-0.066	-0.020
-419.486	3.924	-0.217	0.158
-418.471	800.000	0.111	0.317
-417.457	224.028	-0.168	0.270
-416.442	-121.050	-0.088	0.015
-415.428	-31.293	-0.133	0.075
-414.413	-158.474	0.131	-0.008
-413.398	-27.753	-0.053	-0.031
-412.384	-200.000	-0.057	-0.616
-411.369	2.262	-0.220	-0.159
-410.355	9.638	-0.216	0.163
-409.340	-107.284	0.330	-0.072
-408.325	-66.952	0.377	0.149
-407.311	-33.265	-0.009	-0.005
-406.296	152.989	0.145	0.198
-405.282	-57.364	0.305	-0.134
-404.267	61.399	-0.268	0.265
-403.252	523.043	0.013	-0.029
-402.238	-81.953	0.223	0.073
-401.223	-139.798	0.243	-0.026
-400.209	348.310	0.092	-0.181
-399.194	193.783	0.097	0.146
-398.179	-12.293	-0.300	-0.195
-397.165	800.000	0.008	-0.026
-396.150	-50.937	0.213	0.100
-395.136	-17.648	-0.100	0.063
-394.121	60.828	-0.142	0.140
-393.106	80.744	0.205	-0.220
-392.092	0.774	-0.105	0.075
-391.077	-200.000	-0.021	-0.205
-390.063	358.615	0.114	-0.226
-389.048	-200.000	-0.013	0.073
-388.033	504.955	-0.046	-0.107
-387.019	736.479	0.071	0.191
-386.004	43.257	0.043	-0.039
-384.990	36.047	-0.186	0.163
-383.975	-64.341	-0.008	0.003
-382.960	800.000	-0.039	-0.119
-381.946	-200.000	0.025	-0.328
-380.931	-111.162	0.231	-0.047
-379.917	-70.594	-0.260	-0.098
-378.902	228.675	0.036	0.058
-377.888	93.315	0.204	0.230
-376.873	460.066	-0.044	0.097
-375.858	-99.648	0.366	-0.091
-374.844	-200.000	0.041	-0.209
-373.829	-90.837	0.125	0.036
-372.815	800.000	0.069	0.253
-371.800	30.759	0.262	-0.224
-370.785	132.902	-0.056	0.071
-369.771	-70.984	0.012	-0.005
-368.756	-84.878	-0.260	-0.081
-367.742	62.269	0.179	0.178
-366.727	-103.000	-0.296	0.070
-365.712	-121.231	-0.053	0.009
-364.698	4.703	-0.264	-0.193
-363.683	327.392	0.156	0.298
-362.669	15.714	0.110	-0.086
-361.654	140.484	-0.093	-0.122
-360.639	320.818	0.124	-0.234
-359.625	16.544	-0.068	0.054
-358.610	-65.090	0.267	-0.107
-357.596	283.303	0.093	0.166
-356.581	31.766	0.080	-0.069
-355.566	260.448	0.151	-0.259
-354.552	-22.963	-0.147	0.088
-353.537	-200.000	0.053	0.343
-352.523	-109.268	-0.249	-0.052
-351.508	-127.845	0.195	0.028
-350.493	-96.957	0.352	-0.092
-349.479	800.000	-0.049	0.183
-348.464	-200.000	-0.040	-0.223
-347.450	1.690	0.163	0.117
-346.435	208.142	-0.153	0.237
-345.420	22.835	-0.276	0.225
-344.406	-187.074	0.090	0.001
-343.391	349.930	-0.149	-0.292
-342.377	23.268	0.158	-0.129
-341.362	-200.000	0.004	-0.190
-340.348	11.506	-0.204	0.155
-339.333	-11.757	-0.231	0.151
-338.318	150.725	0.140	0.190
-337.304	-200.000	0.008	0.135
-336.289	-63.125	0.205	-0.084
-335.275	78.171	0.122	0.129
-334.260	-27.992	-0.214	0.123
-333.245	520.315	-0.079	0.183
-332.231	-137.407	-0.099	0.011
-331.216	-200.000	0.017	-0.229
-330.202	-96.923	0.225	-0.059
-329.187	82.040	-0.264	0.284
-328.172	-200.000	0.017	-0.154
-327.158	-13.753	-0.120	0.077
-326.143	-200.000	0.069	-0.571
-325.129	-200.000	0.061	0.475
-324.114	-33.332	-0.101	0.056
-323.099	800.000	0.070	-0.257
-322.085	-154.112	-0.188	0.013
-321.070	-200.000	-0.028	0.297
-320.056	610.649	-0.094	0.235
-319.041	-175.271	0.354	0.010
-318.026	201.269	-0.135	0.206
-317.012	-87.846	-0.116	-0.035
-315.997	16.795	-0.061	0.048
-314.983	3.343	-0.128	-0.093
-313.968	436.528	0.033	0.072
-312.953	-54.581	0.261	-0.117
-311.939	-90.803	0.287	-0.082
-310.924	-153.621	0.175	-0.012
-309.910	800.000	0.079	0.223
-308.895	130.075	-0.084	0.107
-307.880	-200.000	0.041	-0.368
-306.866	800.000	-0.045	-0.150
-305.851	-16.277	-0.120	0.076
-304.837	-38.426	-0.085	-0.045
-303.822	800.000	-0.112	-0.324
-302.807	78.047	0.058	0.061
-301.793	-86.041	0.285	0.087
-300.778	-200.000	-0.034	0.156
-299.764	-45.571	0.060	-0.029
-298.749	-144.677	-0.099	-0.009
-297.735	-93.021	-0.150	-0.041
-296.720	46.975	0.299	0.276
-295.705	-63.050	-0.142	0.058
-294.691	-200.000	0.046	-0.339
-293.676	-110.311	-0.196	0.040
-292.662	134.611	0.048	0.062
-291.647	-70.112	0.414	0.156
-290.632	-200.000	-0.002	0.179
-289.618	412.909	0.153	0.322
-288.603	-89.226	0.255	0.075
-287.589	179.605	-0.132	-0.192
-286.574	87.770	-0.253	-0.278
-285.559	-101.934	0.287	0.069
-284.545	800.000	-0.056	0.159
-283.530	340.813	0.289	0.559
-282.516	529.482	-0.152	-0.355
-281.501	-154.006	-0.049	0.003
-280.486	800.000	0.089	-0.277
-279.472	-200.000	-0.052	-0.231
-278.457	604.300	0.090	0.222
-277.443	263.483	0.131	0.225
-276.428	84.170	-0.297	0.322
-275.413	-200.000	-0.022	0.330
-274.399	-65.474	-0.262	0.104
-273.384	-122.363	0.220	0.036
-272.370	295.189	-0.167	-0.303
-271.355	177.143	-0.081	-0.117
-270.340	267.548	0.102	-0.177
-269.326	-36.452	0.169	-0.090
-268.311	23.238	0.247	0.201
-267.297	-137.238	-0.131	-0.015
-266.282	80.370	0.174	-0.185
-265.267	17.850	0.229	0.181
-264.253	-36.066	-0.400	0.214
-263.238	687.688	0.127	-0.330
-262.224	-129.445	0.028	0.004
-261.209	-200.000	-0.055	0.353
-260.195	-85.189	-0.112	0.035
-259.180	-138.535	0.383	-0.042
-258.165	-137.539	0.167	-0.019
-257.151	-200.000	-0.033	-0.262
-256.136	231.290	0.112	-0.182
-255.122	-147.206	-0.186	-0.016
-254.107	-88.314	-0.146	-0.043
-253.092	-34.933	0.308	0.167
-252.078	-52.226	-0.349	0.160
-251.063	-200.000	-0.019	-0.422
-250.049	112.617	-0.151	-0.181
-249.034	797.958	0.053	0.145
-248.019	-77.018	0.064	0.022
-247.005	202.343	-0.195	0.298
-245.990	-61.755	-0.431	0.179
-244.976	-40.034	0.502	-0.259
-243.961	148.771	-0.100	-0.134
-242.946	800.000	0.040	0.166
-241.932	-182.879	0.318	0.006
-240.917	-76.746	-0.209	0.073
-239.903	327.296	0.160	0.305
-238.888	10.568	0.178	-0.135
-237.873	-200.000	-0.011	0.317
-236.859	-200.000	0.044	0.342
-235.844	-200.000	-0.033	0.160
-234.830	-200.000	-0.032	-0.177
-233.815	453.034	-0.062	-0.136
-232.800	-36.558	0.239	-0.127
-231.786	800.000	0.086	0.247
-230.771	-49.732	-0.212	0.100
-229.757	-76.596	-0.126	-0.044
-228.742	-91.996	0.203	0.057
-227.727	-48.047	0.157	-0.075
-226.713	109.689	0.084	0.100
-225.698	-110.484	0.124	-0.025
-224.684	-77.179	-0.445	0.153
-223.669	-200.000	0.034	-0.370
-222.655	141.321	0.116	-0.151
-221.640	208.597	0.109	0.169
-220.625	-200.000	0.007	-0.095
-219.611	-18.267	0.194	0.120
-218.596	6.113	-0.135	-0.099
-217.582	-200.000	-0.001	0.228
-216.567	702.053	0.132	0.345
-215.552	-200.000	-0.037	0.531
-214.538	54.476	0.170	-0.162
-213.523	648.193	0.139	-0.351
-212.509	301.887	0.104	-0.190
-211.494	784.616	-0.033	-0.091
-210.479	145.399	-0.106	0.141
-209.465	-57.841	0.130	-0.056
-208.450	104.199	0.135	-0.157
-207.436	-86.565	-0.229	-0.069
-206.421	-32.393	-0.098	-0.054
-205.406	-200.000	-0.002	-0.267
-204.392	-200.000	-0.006	-0.057
-203.377	119.129	-0.173	0.212
-202.363	43.560	-0.152	0.138
-201.348	102.612	-0.182	-0.211
-200.333	7.936	0.447	-0.331
-199.319	-200.000	0.022	0.154
-198.304	-159.934	-0.086	0.005
-197.290	-139.113	0.104	-0.011
-196.275	503.406	-0.168	0.384
-195.260	100.696	-0.176	-0.202
-194.246	-158.143	0.130	-0.008
-193.231	93.985	0.228	0.256
-192.217	-200.000	0.027	0.146
-191.202	-171.508	0.090	-0.003
-190.187	770.510	-0.082	0.220
-189.173	-77.555	-0.241	-0.082
-188.158	282.027	-0.028	-0.050
-187.144	-102.180	0.192	0.046
-186.129	-200.000	-0.027	0.262
-185.114	-55.628	0.182	-0.081
-184.100	17.901	0.157	0.124
-183.085	-200.000	-0.005	0.239
-182.071	-59.209	-0.058	0.025
-181.056	-17.453	-0.226	-0.141
-180.042	-200.000	-0.081	0.387
-179.027	-29.065	0.193	0.110
-178.012	-200.000	0.004	-0.219
-176.998	-62.539	0.210	-0.086
-175.983	127.468	0.087	-0.109
-174.969	-200.000	0.001	0.126
-173.954	-101.467	-0.297	0.071
-172.939	-99.497	-0.287	0.071
-171.925	94.942	0.073	-0.082
-170.910	-48.223	-0.033	0.016
-169.896	-200.000	-0.020	0.109
-168.881	-200.000	-0.040	-0.347
-167.866	-200.000	0.004	0.072
-166.852	-90.516	0.218	0.062
-165.837	-200.000	-0.022	-0.320
-164.823	-134.913	0.317	0.038
-163.808	-144.037	0.063	0.006
-162.793	800.000	-0.031	0.093
-161.779	20.476	0.034	-0.027
-160.764	-60.969	-0.192	0.080
-159.750	-149.118	0.206	-0.016
-158.735	-200.000	0.002	-0.264
-157.720	-200.000	0.006	0.179
-156.706	143.406	0.148	0.195
-155.691	800.000	-0.106	-0.327
-154.677	-1.146	0.088	-0.061
-153.662	446.353	-0.071	-0.153
-152.647	-179.987	-0.486	-0.010
-151.633	-76.483	0.356	-0.123
-150.618	134.377	-0.130	0.166
-149.604	-59.444	-0.084	0.036
-148.589	-46.223	0.151	-0.073
-147.574	800.000	-0.042	0.167
-146.560	800.000	-0.035	-0.106
-145.545	-154.882	-0.151	0.010
-144.531	77.665	0.092	-0.097
-143.516	-198.893	0.226	0.001
-142.502	-48.036	-0.162	0.077
-141.487	800.000	-0.039	-0.149
-140.472	-200.000	0.031	0.239
-139.458	800.000	0.045	0.187
-138.443	-200.000	-0.031	0.276
-137.429	-56.303	0.162	-0.071
-136.414	-1.868	0.086	-0.059
-135.399	-200.000	0.008	-0.201
-134.385	48.514	-0.100	0.093
-133.370	-42.943	-0.276	0.138
-132.356	76.091	0.122	0.128
-131.341	-120.711	-0.145	0.024
-130.326	512.418	-0.026	-0.060
-129.312	-200.000	0.002	-0.043
-128.297	-115.886	0.068	-0.012
-127.283	-200.000	0.084	0.472
-126.268	-111.179	-0.513	0.103
-125.253	-1.173	0.103	-0.071
-124.239	471.638	0.181	-0.401
-123.224	-142.455	0.242	-0.023
-122.210	-200.000	0.019	0.182
-121.195	-24.247	0.339	-0.199
