DTS Sentinel unit serial number:	SN413079Multiplexer serial number:	ORYXHardware model number:	OX4-SRSoftware version number:	ORYX F/W v4.00 Oryx Data Collector v3.7.2.0data status	okinstallation	princeton_trtdifferential loss correction	single-endedforward channel	channel 3reverse channel	N/Adate	2019/09/15time	09:12:35forward acquisition time	60.00reverse acquisition time	0.00gamma	496.2192k internal	0.2311k external	0.2311temperature offset calibration	0.9978default loss term (dB/km)	0.3790temperature slope calibration	1.0000multiplexer offset coefficient	1.0000multiplexer slope coefficient	1.0000fibre end	0.00T internal ref (°C)	33.19T ext. ref 1 (°C)	4.97T ext. ref 2 (°C)	30.23length (m)	temperature (°C)	Stokes	anti-Stokes-747.200	-29.335	0.042	-0.025
-746.185	-50.234	-0.524	0.252
-745.171	-34.577	0.315	-0.175
-744.156	-122.407	0.283	0.047
-743.142	-19.105	-0.189	0.119
-742.127	-37.707	0.109	0.059
-741.112	413.898	0.133	-0.288
-740.098	-82.697	0.195	0.064
-739.083	-200.000	0.021	0.108
-738.069	482.807	0.133	0.307
-737.054	-50.683	0.176	-0.084
-736.039	554.527	-0.121	0.294
-735.025	800.000	-0.105	0.358
-734.010	-121.366	-0.274	-0.046
-732.996	-48.933	-0.070	-0.034
-731.981	44.370	0.210	0.196
-730.966	-35.651	-0.297	0.163
-729.952	-200.000	-0.057	-0.361
-728.937	-158.717	-0.352	0.020
-727.923	338.672	-0.084	-0.167
-726.908	91.940	-0.267	-0.305
-725.894	-107.005	0.148	0.033
-724.879	-144.075	-0.278	-0.026
-723.864	-200.000	0.014	0.164
-722.850	-6.772	-0.287	0.198
-721.835	-115.082	0.119	0.023
-720.821	-24.903	-0.186	-0.112
-719.806	9.143	-0.150	0.115
-718.791	-120.446	0.185	-0.032
-717.777	-200.000	0.019	0.094
-716.762	-164.481	0.186	-0.009
-715.748	-29.721	-0.306	-0.177
-714.733	54.345	0.161	0.157
-713.718	116.212	-0.049	-0.061
-712.704	-163.090	-0.161	-0.008
-711.689	22.601	0.134	0.111
-710.675	85.751	0.130	0.145
-709.660	12.724	-0.050	-0.039
-708.645	75.116	-0.025	0.027
-707.631	-43.424	0.119	-0.061
-706.616	-115.737	0.166	0.032
-705.602	-200.000	-0.007	-0.174
-704.587	-74.831	-0.071	-0.026
-703.572	6.711	0.161	-0.121
-702.558	548.581	0.070	-0.170
-701.543	21.515	-0.040	-0.033
-700.529	800.000	0.085	0.347
-699.514	-13.387	0.370	0.243
-698.499	131.801	0.100	0.130
-697.485	800.000	0.113	-0.439
-696.470	-6.094	-0.058	0.040
-695.456	-44.573	0.319	0.162
-694.441	-200.000	-0.058	0.352
-693.426	-128.652	-0.233	-0.033
-692.412	132.925	0.160	0.209
-691.397	40.888	0.300	-0.274
-690.383	211.020	-0.232	-0.369
-689.368	-86.376	0.302	-0.094
-688.354	364.377	0.117	-0.238
-687.339	-200.000	0.008	-0.100
-686.324	134.104	-0.079	0.104
-685.310	149.632	-0.079	-0.109
-684.295	-200.000	-0.009	-0.263
-683.281	-66.529	0.377	-0.151
-682.266	-200.000	-0.010	-0.090
-681.251	495.564	0.154	-0.359
-680.237	-167.844	-0.138	-0.005
-679.222	49.282	-0.135	0.129
-678.208	-89.138	-0.086	0.026
-677.193	800.000	-0.046	0.154
-676.178	182.460	-0.077	-0.114
-675.164	-121.144	0.141	0.024
-674.149	-200.000	0.024	0.274
-673.135	800.000	-0.101	-0.356
-672.120	-6.994	-0.087	0.060
-671.105	-65.859	-0.173	-0.070
-670.091	306.668	-0.201	0.378
-669.076	119.633	0.103	-0.130
-668.062	-18.760	-0.338	0.213
-667.047	-136.534	-0.328	-0.038
-666.032	108.715	0.237	0.286
-665.018	-83.698	-0.364	0.118
-664.003	-40.813	-0.112	-0.058
-662.989	70.101	0.464	-0.484
-661.974	-200.000	-0.007	0.229
-660.959	222.871	0.101	0.165
-659.945	-200.000	0.013	-0.152
-658.930	-47.673	-0.228	0.112
-657.916	262.134	-0.087	-0.153
-656.901	-200.000	0.042	-0.231
-655.886	-200.000	0.011	-0.121
-654.872	54.137	-0.247	0.240
-653.857	-200.000	-0.087	-0.430
-652.843	650.056	0.063	-0.162
-651.828	-61.655	-0.181	-0.077
-650.814	800.000	0.112	0.347
-649.799	-200.000	-0.025	0.118
-648.784	-177.783	0.295	0.007
-647.770	377.207	-0.085	-0.175
-646.755	88.633	-0.172	0.194
-645.741	103.912	-0.149	-0.177
-644.726	229.461	0.066	-0.109
-643.711	-200.000	0.031	-0.526
-642.697	-200.000	-0.053	-0.305
-641.682	-102.485	-0.212	0.051
-640.668	102.374	0.097	0.115
-639.653	800.000	-0.065	-0.199
-638.638	20.331	0.145	0.118
-637.624	176.821	0.107	0.158
-636.609	394.753	-0.150	-0.316
-635.595	-23.414	0.120	-0.073
-634.580	287.031	0.125	-0.228
-633.565	102.122	-0.008	-0.009
-632.551	800.000	-0.115	0.326
-631.536	-122.524	0.101	0.017
-630.522	800.000	0.021	-0.072
-629.507	-96.117	-0.352	-0.094
-628.492	-152.642	0.194	0.014
-627.478	-45.579	-0.275	0.137
-626.463	-200.000	0.036	0.184
-625.449	-200.000	-0.007	-0.091
-624.434	342.475	-0.105	0.207
-623.419	124.718	-0.185	0.236
-622.405	-164.111	0.164	-0.008
-621.390	38.618	0.161	-0.145
-620.376	-200.000	0.023	-0.126
-619.361	21.178	-0.210	-0.172
-618.346	-61.617	0.139	-0.059
-617.332	-200.000	0.023	-0.255
-616.317	-51.448	-0.191	0.090
-615.303	311.972	-0.057	-0.108
-614.288	800.000	0.070	0.225
-613.273	-2.151	-0.260	-0.184
-612.259	273.167	0.113	0.202
-611.244	108.942	0.335	0.404
-610.230	159.030	0.082	-0.115
-609.215	-27.650	-0.155	-0.091
-608.201	8.023	-0.301	-0.228
-607.186	-58.522	0.112	-0.049
-606.171	98.104	-0.123	-0.143
-605.157	-137.339	0.181	-0.021
-604.142	-130.655	0.162	-0.022
-603.128	-200.000	-0.038	-0.328
-602.113	43.278	0.205	-0.189
-601.098	598.053	0.119	0.298
-600.084	-6.064	0.144	-0.099
-599.069	-80.524	-0.192	-0.065
-598.055	-175.812	-0.326	0.009
-597.040	800.000	-0.098	-0.317
-596.025	318.334	-0.042	0.080
-595.011	-123.639	-0.437	0.070
-593.996	-2.156	-0.067	0.048
-592.982	-200.000	-0.023	0.244
-591.967	-136.205	0.250	-0.029
-590.952	95.381	0.044	0.050
-589.938	109.478	-0.186	0.224
-588.923	-200.000	0.029	-0.128
-587.909	-200.000	0.009	-0.144
-586.894	-17.272	-0.132	0.084
-585.879	-6.712	0.307	-0.211
-584.865	-97.841	-0.273	0.071
-583.850	-142.730	-0.264	0.026
-582.836	183.341	-0.081	-0.121
-581.821	800.000	0.060	-0.236
-580.806	-126.006	0.377	-0.057
-579.792	-35.820	0.226	0.123
-578.777	-82.989	-0.097	-0.031
-577.763	800.000	-0.028	-0.117
-576.748	-132.366	0.194	0.025
-575.733	377.179	-0.155	0.320
-574.719	-78.484	-0.298	-0.103
-573.704	-200.000	0.019	-0.104
-572.690	57.065	0.102	-0.100
-571.675	103.108	-0.180	0.213
-570.661	-115.692	0.150	-0.028
-569.646	-94.160	-0.332	-0.092
-568.631	-161.330	0.114	-0.006
-567.617	52.042	-0.164	0.157
-566.602	-200.000	-0.004	0.045
-565.588	-154.772	0.239	0.016
-564.573	190.655	0.153	0.231
-563.558	534.858	0.115	-0.276
-562.544	-110.929	0.212	0.044
-561.529	108.204	0.121	-0.146
-560.515	-27.423	0.222	0.130
-559.500	-50.989	-0.337	-0.159
-558.485	164.600	0.119	-0.170
-557.471	46.785	0.158	0.148
-556.456	800.000	0.068	0.221
-555.442	800.000	0.069	-0.230
-554.427	-134.437	0.177	-0.022
-553.412	132.263	0.059	-0.076
-552.398	30.973	-0.270	-0.233
-551.383	800.000	0.054	-0.190
-550.369	-52.121	-0.042	0.020
-549.354	563.150	-0.083	0.202
-548.339	-84.782	-0.329	0.104
-547.325	-44.211	0.150	-0.076
-546.310	-21.382	-0.115	-0.071
-545.296	179.233	0.081	0.119
-544.281	204.506	-0.104	0.162
-543.266	144.900	-0.178	0.239
-542.252	800.000	-0.073	0.238
-541.237	120.201	0.205	0.256
-540.223	2.895	0.160	-0.117
-539.208	-8.206	-0.227	-0.154
-538.193	25.379	0.042	0.035
-537.179	-52.095	0.338	-0.158
-536.164	180.616	0.165	0.244
-535.150	-200.000	0.007	0.343
-534.135	-119.328	-0.283	0.050
-533.121	-200.000	0.047	-0.381
-532.106	35.748	0.041	0.036
-531.091	-200.000	-0.027	-0.181
-530.077	-39.558	-0.026	0.014
-529.062	136.236	0.068	-0.089
-528.048	339.415	0.079	-0.155
-527.033	-128.122	0.374	0.054
-526.018	33.277	-0.143	0.125
-525.004	-200.000	0.043	0.259
-523.989	73.288	0.026	-0.028
-522.975	-200.000	0.100	0.460
-521.960	-200.000	-0.071	0.399
-520.945	-79.214	-0.232	-0.079
-519.931	228.082	0.130	-0.214
-518.916	-129.990	0.242	-0.033
-517.902	-85.111	-0.135	0.043
-516.887	69.137	0.259	-0.268
-515.872	-200.000	-0.031	-0.328
-514.858	-200.000	0.213	0.001
-513.843	705.652	0.016	0.044
-512.829	800.000	-0.131	0.368
-511.814	-28.412	-0.163	0.095
-510.799	-26.449	-0.393	-0.232
-509.785	-139.500	-0.128	0.014
-508.770	800.000	-0.061	-0.234
-507.756	355.819	-0.120	-0.240
-506.741	-59.156	-0.130	0.056
-505.726	15.547	0.269	-0.212
-504.712	-200.000	-0.039	-0.174
-503.697	-37.966	0.161	0.086
-502.683	389.404	-0.057	-0.118
-501.668	-114.604	-0.270	-0.052
-500.653	-5.898	-0.301	-0.207
-499.639	-200.000	0.006	0.234
-498.624	75.581	-0.215	-0.228
-497.610	-65.996	0.058	-0.023
-496.595	70.318	0.180	-0.187
-495.581	306.115	-0.010	-0.018
-494.566	242.243	-0.055	0.093
-493.551	-67.556	-0.284	-0.112
-492.537	-127.606	-0.302	0.044
-491.522	-21.753	-0.224	-0.137
-490.508	391.495	-0.138	0.287
-489.493	-1.634	-0.149	-0.105
-488.478	-144.255	-0.129	0.012
-487.464	334.485	-0.045	-0.088
-486.449	442.394	0.079	0.173
-485.435	-56.761	-0.148	0.066
-484.420	-200.000	-0.025	-0.321
-483.405	84.723	-0.189	-0.208
-482.391	137.560	-0.111	0.146
-481.376	-84.579	0.065	-0.020
-480.362	146.807	0.119	0.161
-479.347	-88.999	-0.211	0.063
-478.332	97.896	0.135	-0.156
-477.318	43.737	0.172	-0.158
-476.303	-200.000	-0.027	-0.282
-475.289	69.388	-0.056	0.058
-474.274	30.496	-0.260	-0.223
-473.259	261.324	-0.200	0.348
-472.245	26.307	-0.111	0.094
-471.230	99.263	-0.164	-0.190
-470.216	-0.703	0.308	-0.220
-469.201	135.899	-0.243	0.318
-468.186	-43.830	0.334	0.169
-467.172	-116.658	-0.111	0.020
-466.157	65.653	-0.063	-0.064
-465.143	173.185	-0.209	0.302
-464.128	-153.689	-0.072	-0.005
-463.113	-198.663	-0.476	-0.003
-462.099	-200.000	-0.075	-0.352
-461.084	-200.000	-0.034	-0.159
-460.070	800.000	0.045	-0.129
-459.055	800.000	-0.046	0.134
-458.040	146.888	-0.257	0.347
-457.026	87.855	0.188	0.209
-456.011	-200.000	-0.029	0.273
-454.997	-125.807	-0.119	-0.018
-453.982	39.983	-0.191	0.172
-452.968	-200.000	-0.004	0.300
-451.953	-2.935	-0.153	0.107
-450.938	133.677	0.107	-0.139
-449.924	-146.190	0.171	-0.015
-448.909	-200.000	0.001	-0.017
-447.895	-161.249	0.107	0.006
-446.880	65.119	-0.050	0.051
-445.865	-124.588	-0.472	0.073
-444.851	-133.103	-0.536	-0.068
-443.836	46.890	0.084	0.078
-442.822	800.000	-0.051	0.182
-441.807	183.750	0.112	0.166
-440.792	-75.526	0.201	-0.072
-439.778	170.625	-0.188	-0.270
-438.763	33.119	0.456	0.397
-437.749	187.748	0.080	0.120
-436.734	27.841	-0.218	0.185
-435.719	550.500	-0.043	0.104
-434.705	562.253	-0.071	-0.173
-433.690	-27.609	0.103	0.060
-432.676	-66.041	0.221	0.089
-431.661	-135.355	-0.113	-0.014
-430.646	-200.000	0.052	-0.287
-429.632	-200.000	-0.017	-0.111
-428.617	-16.166	-0.146	0.093
-427.603	-50.042	-0.192	-0.091
-426.588	-159.623	0.099	0.005
-425.573	-126.501	0.301	-0.045
-424.559	-25.264	0.024	0.014
-423.544	118.935	-0.165	0.205
-422.530	-124.042	0.339	-0.053
-421.515	-200.000	0.006	-0.318
-420.500	699.356	-0.013	0.035
-419.486	-142.153	-0.256	-0.025
-418.471	321.897	-0.119	-0.227
-417.457	-57.494	-0.114	0.050
-416.442	-14.314	0.228	0.147
-415.428	-107.663	0.166	-0.036
-414.413	-10.487	-0.041	-0.027
-413.398	-29.382	0.192	-0.110
-412.384	-200.000	-0.026	0.146
-411.369	343.274	0.153	-0.301
-410.355	-15.226	0.233	0.149
-409.340	-12.573	0.216	0.141
-408.325	279.377	0.068	0.122
-407.311	-58.309	0.075	0.033
-406.296	-200.000	-0.019	0.207
-405.282	-123.671	0.287	-0.046
-404.267	-200.000	-0.203	0.000
-403.252	13.359	-0.266	0.207
-402.238	-200.000	0.008	-0.165
-401.223	59.460	-0.101	-0.100
-400.209	-15.759	-0.121	0.077
-399.194	-140.275	-0.350	0.037
-398.179	348.181	-0.089	0.176
-397.165	-147.316	0.015	0.001
-396.150	749.776	0.028	-0.075
-395.136	131.034	0.056	0.071
-394.121	-200.000	-0.010	0.177
-393.106	71.904	0.179	0.186
-392.092	-200.000	-0.006	-0.142
-391.077	101.967	-0.119	0.139
-390.063	-44.052	-0.176	0.089
-389.048	181.800	0.084	-0.123
-388.033	6.342	0.202	0.150
-387.019	11.003	-0.009	0.007
-386.004	-131.995	0.024	0.003
-384.990	-200.000	-0.034	0.344
-383.975	12.435	0.352	0.272
-382.960	-142.070	-0.306	-0.030
-381.946	-0.782	0.298	0.211
-380.931	-56.868	-0.190	0.084
-379.917	-44.350	0.333	-0.167
-378.902	800.000	-0.050	0.197
-377.888	793.073	-0.119	-0.326
-376.873	-200.000	0.016	-0.216
-375.858	-64.643	-0.316	0.128
-374.844	-125.484	-0.177	0.027
-373.829	-54.964	0.311	0.140
-372.815	30.292	0.131	-0.112
-371.800	800.000	0.033	-0.099
-370.785	-21.956	0.450	0.273
-369.771	54.539	-0.194	-0.187
-368.756	309.433	0.118	-0.221
-367.742	90.853	-0.046	0.052
-366.727	56.257	0.152	-0.147
-365.712	800.000	0.074	0.230
-364.698	142.170	0.066	-0.087
-363.683	-106.188	-0.054	-0.012
-362.669	-200.000	-0.028	0.171
-361.654	-200.000	0.020	-0.122
-360.639	-1.959	-0.202	-0.142
-359.625	800.000	-0.064	-0.234
-358.610	485.123	-0.134	-0.305
-357.596	171.803	-0.188	-0.269
-356.581	-200.000	0.023	-0.547
-355.566	-91.245	-0.122	0.035
-354.552	800.000	-0.043	-0.136
-353.537	9.551	0.150	0.114
-352.523	89.720	0.049	-0.054
-351.508	-200.000	-0.005	-0.274
-350.493	-130.785	-0.337	0.045
-349.479	317.848	-0.095	0.179
-348.464	-200.000	0.016	-0.146
-347.450	-38.230	0.186	-0.098
-346.435	399.177	-0.140	0.293
-345.420	-167.941	-0.166	0.007
-344.406	144.721	0.253	0.337
-343.391	800.000	-0.110	-0.401
-342.377	162.340	-0.070	-0.098
-341.362	-83.115	-0.210	-0.067
-340.348	36.095	-0.115	0.101
-339.333	790.736	0.050	-0.138
-338.318	800.000	0.100	0.394
-337.304	97.734	-0.255	-0.292
-336.289	-117.649	-0.096	-0.017
-335.275	-147.478	0.102	-0.009
-334.260	-200.000	0.007	0.205
-333.245	75.593	0.215	0.226
-332.231	171.071	0.141	0.201
-331.216	1.691	0.212	0.153
-330.202	82.875	0.103	0.112
-329.187	-100.236	-0.062	-0.015
-328.172	151.490	-0.028	-0.038
-327.158	9.298	-0.225	0.170
-326.143	-104.850	-0.227	-0.052
-325.129	-111.893	0.165	0.033
-324.114	-51.204	-0.166	-0.078
-323.099	122.124	0.009	0.011
-322.085	-200.000	0.043	-0.259
-321.070	800.000	-0.124	-0.353
-320.056	-72.932	-0.510	0.187
-319.041	27.496	0.248	-0.209
-318.026	276.965	0.097	0.173
-317.012	-187.370	0.165	0.002
-315.997	262.600	-0.166	-0.288
-314.983	-13.439	0.264	-0.171
-313.968	-164.525	0.263	-0.012
-312.953	-200.000	0.017	0.366
-311.939	270.552	0.127	0.223
-310.924	-41.137	0.355	0.183
-309.910	11.057	-0.060	0.046
-308.895	80.231	0.089	0.096
-307.880	242.515	-0.150	0.251
-306.866	-40.483	0.239	-0.124
-305.851	337.075	-0.017	-0.034
-304.837	246.943	0.144	-0.242
-303.822	104.135	0.171	-0.201
-302.807	505.241	-0.030	-0.069
-301.793	-123.855	-0.268	-0.042
-300.778	23.474	0.261	-0.214
-299.764	-98.975	-0.284	0.072
-298.749	10.598	0.181	0.138
-297.735	258.565	-0.086	0.148
-296.720	-200.000	-0.005	-0.189
-295.705	-200.000	-0.025	0.182
-294.691	800.000	0.065	0.282
-293.676	-200.000	0.043	0.223
-292.662	-57.188	-0.272	-0.119
-291.647	-44.932	0.103	-0.051
-290.632	-151.598	-0.179	-0.013
-289.618	-100.224	0.417	-0.103
-288.603	144.680	0.047	0.062
-287.589	-28.198	-0.095	-0.055
-286.574	-200.000	0.048	-0.394
-285.559	-102.213	0.511	0.122
-284.545	-169.631	-0.271	-0.010
-283.530	800.000	-0.053	0.231
-282.516	-69.911	0.432	0.164
-281.501	121.936	0.212	0.263
-280.486	-24.580	-0.083	0.049
-279.472	-73.658	-0.243	0.088
-278.457	-13.133	0.186	0.121
-277.443	-200.000	0.006	-0.402
-276.428	-200.000	0.013	-0.493
-275.413	-15.385	-0.092	0.059
-274.399	69.736	-0.054	-0.055
-273.384	207.004	0.125	-0.195
-272.370	-200.000	0.010	-0.276
-271.355	-200.000	0.002	0.026
-270.340	225.313	-0.069	0.111
-269.326	-200.000	0.023	-0.318
-268.311	-111.068	0.269	-0.055
-267.297	-200.000	-0.049	-0.307
-266.282	63.387	-0.049	0.049
-265.267	2.656	0.365	0.264
-264.253	22.988	-0.211	0.172
-263.238	-200.000	-0.105	0.529
-262.224	-124.737	0.043	0.007
-261.209	800.000	0.060	0.168
-260.195	-110.692	0.176	0.036
-259.180	226.320	-0.314	-0.507
-258.165	-200.000	-0.014	0.218
-257.151	-200.000	-0.040	0.222
-256.136	800.000	-0.076	-0.280
-255.122	-66.536	-0.203	0.080
-254.107	-54.112	0.513	-0.232
-253.092	150.583	-0.165	-0.223
-252.078	-111.850	-0.144	-0.029
-251.063	55.357	-0.325	-0.313
-250.049	-168.710	0.213	-0.008
-249.034	-11.632	-0.067	-0.044
-248.019	128.456	0.139	-0.176
-247.005	-200.000	0.011	0.189
-245.990	65.296	0.005	0.005
-244.976	337.714	-0.155	0.300
-243.961	-175.458	0.416	-0.011
-242.946	342.828	-0.035	0.069
-241.932	596.323	0.099	0.244
-240.917	-122.822	0.006	-0.001
-239.903	-200.000	0.017	0.168
-238.888	-10.668	0.224	-0.148
-237.873	-23.784	-0.052	0.031
-236.859	26.171	0.389	0.323
-235.844	39.610	-0.127	0.113
-234.830	97.634	-0.157	0.180
-233.815	-112.988	-0.109	-0.022
-232.800	281.772	-0.110	-0.196
-231.786	160.354	0.175	0.243
-230.771	-50.889	0.314	-0.147
-229.757	87.086	-0.089	0.098
-228.742	-3.614	0.122	-0.084
-227.727	235.413	0.092	0.152
-226.713	47.351	0.239	0.221
-225.698	-163.558	-0.290	0.014
-224.684	-117.897	0.167	-0.030
-223.669	-56.871	0.186	0.082
-222.655	-100.122	0.181	0.045
-221.640	30.829	0.157	0.133
-220.625	-77.893	0.215	0.074
-219.611	-200.000	-0.057	-0.267
-218.596	-130.907	-0.415	-0.055
-217.582	461.164	0.160	0.355
-216.567	470.220	0.113	-0.252
-215.552	-200.000	-0.060	-0.277
-214.538	-96.222	-0.235	-0.062
-213.523	-68.368	-0.201	-0.078
-212.509	-13.206	0.487	0.314
-211.494	232.354	-0.157	0.257
-210.479	-200.000	0.027	0.275
-209.465	-99.094	0.178	0.045
-208.450	111.106	-0.247	0.295
-207.436	-68.078	0.158	0.061
-206.421	-42.123	-0.122	-0.062
-205.406	-200.000	-0.001	0.378
-204.392	-69.710	0.141	0.054
-203.377	151.918	-0.213	-0.289
-202.363	-67.400	0.320	0.125
-201.348	7.903	0.039	0.029
-200.333	-45.381	-0.509	-0.251
-199.319	-200.000	-0.039	0.196
-198.304	133.612	-0.081	-0.104
-197.290	105.588	-0.064	0.076
-196.275	472.523	-0.079	0.176
-195.260	800.000	0.068	0.205
-194.246	-123.117	-0.171	0.027
-193.231	120.640	0.196	-0.242
-192.217	-78.494	-0.104	-0.035
-191.202	800.000	-0.042	0.177
-190.187	-200.000	0.022	-0.238
-189.173	-200.000	0.006	-0.091
-188.158	30.876	0.391	-0.332
-187.144	-22.712	-0.271	-0.163
-186.129	-146.012	0.226	-0.020
-185.114	67.837	0.207	-0.210
-184.100	-47.658	-0.152	-0.073
-183.085	237.080	0.080	0.131
-182.071	-71.937	0.394	0.146
-181.056	-200.000	-0.026	-0.271
-180.042	-55.683	0.149	-0.066
-179.027	75.235	0.096	0.100
-178.012	30.579	0.119	0.101
-176.998	800.000	-0.032	-0.113
-175.983	-200.000	-0.007	-0.092
-174.969	-11.867	-0.207	-0.135
-173.954	-102.510	-0.272	0.065
-172.939	-26.106	0.251	0.146
-171.925	489.631	0.083	-0.188
-170.910	457.879	0.110	-0.243
-169.896	-101.888	0.123	-0.029
-168.881	40.933	0.239	0.214
-167.866	356.954	-0.077	0.152
-166.852	65.666	-0.165	0.166
-165.837	800.000	0.047	-0.164
-164.823	-39.343	-0.064	0.033
-163.808	-158.680	0.321	0.018
-162.793	-55.857	0.597	0.265
-161.779	-200.000	0.057	-0.294
-160.764	800.000	0.054	-0.206
-159.750	-91.934	-0.239	0.067
-158.735	69.112	0.137	0.140
-157.720	88.087	-0.025	0.028
-156.706	11.692	-0.129	0.098
-155.691	-200.000	-0.019	0.088
-154.677	-49.890	-0.183	-0.086
-153.662	-22.014	0.356	0.214
-152.647	-110.704	-0.243	0.050
-151.633	-26.041	-0.278	-0.162
-150.618	800.000	-0.045	-0.189
-149.604	-104.070	-0.098	0.023
-148.589	570.709	-0.088	-0.213
-147.574	31.105	-0.295	-0.251
-146.560	800.000	-0.062	0.225
-145.545	18.242	0.259	0.205
-144.531	-70.344	-0.411	0.155
-143.516	-115.652	-0.117	0.022
-142.502	23.763	-0.087	0.071
-141.487	-110.859	0.255	0.052
-140.472	113.369	-0.101	0.121
-139.458	-41.085	0.146	0.075
-138.443	20.653	-0.319	0.256
-137.429	-79.078	-0.173	0.058
-136.414	54.813	0.227	-0.217
-135.399	28.427	-0.123	-0.103
-134.385	524.964	-0.100	0.233
-133.370	-18.391	-0.103	-0.064
-132.356	-200.000	0.021	-0.148
-131.341	284.456	-0.218	-0.388
-130.326	233.293	0.063	0.102
-129.312	-200.000	0.012	0.140
-128.297	-200.000	0.010	-0.387
-127.283	-153.849	-0.408	-0.028
-126.268	-103.933	0.232	-0.054
-125.253	386.679	-0.108	0.221
-124.239	481.200	-0.012	0.027
-123.224	62.390	0.166	0.165
-122.210	-200.000	-0.034	-0.389
-121.195	-200.000	0.031	0.251
