DTS Sentinel unit serial number:	SN413079Multiplexer serial number:	ORYXHardware model number:	OX4-SRSoftware version number:	ORYX F/W v4.00 Oryx Data Collector v3.7.2.0data status	okinstallation	princeton_trtdifferential loss correction	single-endedforward channel	channel 3reverse channel	N/Adate	2019/09/17time	01:16:35forward acquisition time	60.00reverse acquisition time	0.00gamma	496.2192k internal	0.2325k external	0.2325temperature offset calibration	0.9937default loss term (dB/km)	0.3790temperature slope calibration	1.0000multiplexer offset coefficient	1.0000multiplexer slope coefficient	1.0000fibre end	0.00T internal ref (°C)	29.50T ext. ref 1 (°C)	0.10T ext. ref 2 (°C)	24.19length (m)	temperature (°C)	Stokes	anti-Stokes-747.200	169.807	-0.080	0.115
-746.185	-200.000	-0.017	0.152
-745.171	222.199	-0.149	-0.242
-744.156	-200.000	0.015	0.386
-743.142	463.499	0.184	0.416
-742.127	-104.396	0.132	-0.031
-741.112	-21.026	-0.257	0.159
-740.098	-200.000	-0.017	0.165
-739.083	-120.088	0.337	-0.058
-738.069	161.882	-0.352	0.497
-737.054	-60.924	0.032	-0.014
-736.039	490.965	-0.073	-0.169
-735.025	-128.257	0.053	0.008
-734.010	-200.000	0.016	-0.235
-732.996	-200.000	-0.063	-0.330
-731.981	52.252	-0.205	-0.197
-730.966	74.236	-0.285	-0.302
-729.952	28.756	-0.276	-0.236
-728.937	-53.639	0.385	0.178
-727.923	-200.000	-0.029	0.143
-726.908	-93.987	-0.373	-0.103
-725.894	-68.790	-0.314	-0.122
-724.879	800.000	-0.061	-0.208
-723.864	-123.867	0.114	-0.018
-722.850	800.000	-0.082	-0.292
-721.835	-74.280	-0.041	-0.015
-720.821	-177.631	-0.368	-0.009
-719.806	800.000	-0.232	-0.728
-718.791	-200.000	-0.000	-0.330
-717.777	-196.709	-0.128	0.001
-716.762	-54.532	-0.141	-0.064
-715.748	160.980	0.019	0.026
-714.733	40.477	-0.170	-0.155
-713.718	85.797	-0.155	-0.172
-712.704	-49.493	0.176	-0.084
-711.689	800.000	-0.084	-0.299
-710.675	-38.922	-0.275	0.146
-709.660	-200.000	0.039	-0.217
-708.645	-134.966	-0.300	0.037
-707.631	295.252	-0.031	0.058
-706.616	-43.227	-0.380	-0.194
-705.602	800.000	0.071	0.206
-704.587	-62.997	-0.132	-0.055
-703.572	56.033	0.120	-0.118
-702.558	-36.320	0.308	-0.167
-701.543	-30.347	-0.143	0.082
-700.529	130.004	0.085	-0.109
-699.514	41.174	0.172	-0.157
-698.499	522.088	-0.096	-0.227
-697.485	-111.280	-0.286	0.059
-696.470	-26.629	-0.374	-0.220
-695.456	475.954	-0.095	-0.216
-694.441	800.000	-0.127	0.421
-693.426	641.504	0.072	0.185
-692.412	800.000	-0.071	-0.238
-691.397	800.000	-0.095	-0.282
-690.383	-33.953	0.104	-0.058
-689.368	69.219	0.189	0.196
-688.354	-81.420	0.256	-0.085
-687.339	800.000	0.020	0.063
-686.324	84.494	-0.104	-0.114
-685.310	-158.148	-0.020	0.001
-684.295	-87.915	-0.138	0.042
-683.281	-200.000	0.006	-0.198
-682.266	-64.227	-0.205	-0.084
-681.251	96.902	-0.024	-0.027
-680.237	132.694	-0.103	0.134
-679.222	33.726	-0.189	-0.165
-678.208	443.965	-0.122	-0.270
-677.193	81.882	-0.122	-0.134
-676.178	499.744	0.122	0.283
-675.164	-200.000	0.025	-0.129
-674.149	-2.548	-0.319	0.225
-673.135	582.144	0.023	0.056
-672.120	-142.800	0.161	0.016
-671.105	-26.759	0.231	-0.136
-670.091	14.305	-0.122	-0.096
-669.076	-63.289	0.295	-0.122
-668.062	800.000	-0.038	-0.117
-667.047	-200.000	0.057	-0.307
-666.032	-200.000	0.013	-0.178
-665.018	61.242	-0.191	-0.191
-664.003	-177.626	-0.438	0.011
-662.989	-30.580	-0.222	0.127
-661.974	-33.842	0.248	-0.137
-660.959	-21.090	-0.162	0.099
-659.945	-79.175	-0.189	0.065
-658.930	414.030	-0.103	-0.220
-657.916	732.022	-0.045	-0.120
-656.901	800.000	-0.078	0.239
-655.886	-44.916	-0.318	0.159
-654.872	32.990	-0.041	0.036
-653.857	329.086	0.050	-0.098
-652.843	650.736	0.053	0.136
-651.828	-14.038	-0.045	0.029
-650.814	-86.327	-0.126	-0.039
-649.799	-168.618	0.191	0.007
-648.784	800.000	0.033	0.100
-647.770	-26.014	-0.055	-0.033
-646.755	-147.162	0.020	0.002
-645.741	-162.477	0.132	0.007
-644.726	-14.146	0.142	0.092
-643.711	192.246	0.106	-0.161
-642.697	233.650	0.104	-0.171
-641.682	-200.000	-0.015	-0.090
-640.668	37.964	0.169	0.151
-639.653	90.482	-0.103	-0.116
-638.638	800.000	0.014	-0.042
-637.624	-10.209	-0.023	-0.015
-636.609	-89.649	-0.163	-0.048
-635.595	235.855	-0.141	-0.234
-634.580	800.000	-0.088	-0.330
-633.565	35.780	0.231	-0.204
-632.551	40.734	-0.246	-0.222
-631.536	404.619	0.100	-0.212
-630.522	371.564	-0.035	0.071
-629.507	347.528	0.131	0.260
-628.492	-200.000	0.064	0.354
-627.478	-128.577	-0.093	0.013
-626.463	540.006	-0.064	-0.154
-625.449	179.193	0.167	0.246
-624.434	-122.290	-0.270	0.044
-623.419	-16.352	-0.175	0.112
-622.405	-168.544	-0.305	0.012
-621.390	120.695	0.117	0.147
-620.376	-22.059	0.251	-0.153
-619.361	41.186	-0.321	-0.291
-618.346	-200.000	-0.025	-0.381
-617.332	-200.000	0.012	-0.159
-616.317	-75.281	-0.106	-0.038
-615.303	-72.407	-0.283	-0.105
-614.288	-43.043	0.317	-0.161
-613.273	-71.652	-0.139	0.052
-612.259	33.942	-0.111	-0.097
-611.244	-136.648	0.180	0.021
-610.230	-94.631	0.236	-0.065
-609.215	-150.421	0.378	-0.029
-608.201	697.026	-0.157	0.415
-607.186	-45.775	-0.399	0.198
-606.171	800.000	0.021	-0.065
-605.157	187.888	0.183	-0.274
-604.142	-111.783	-0.210	0.043
-603.128	137.761	-0.129	-0.170
-602.113	98.110	-0.218	-0.252
-601.098	-120.153	0.411	-0.071
-600.084	67.037	-0.164	0.168
-599.069	800.000	0.068	-0.271
-598.055	-66.821	-0.214	-0.085
-597.040	124.639	0.152	0.192
-596.025	0.633	0.057	0.041
-595.011	-33.116	-0.089	0.050
-593.996	-200.000	0.012	0.426
-592.982	154.697	-0.280	0.385
-591.967	-200.000	-0.017	-0.256
-590.952	136.311	-0.123	-0.161
-589.938	-57.013	-0.113	0.050
-588.923	25.081	-0.134	0.112
-587.909	-200.000	0.004	0.198
-586.894	-200.000	0.012	0.062
-585.879	-200.000	0.004	-0.261
-584.865	49.618	0.300	0.284
-583.850	77.604	0.077	-0.082
-582.836	92.647	-0.190	0.215
-581.821	-200.000	-0.010	-0.354
-580.806	-55.027	-0.375	-0.169
-579.792	-96.623	-0.393	-0.104
-578.777	-105.783	0.035	-0.008
-577.763	503.009	0.058	-0.135
-576.748	-80.101	-0.195	-0.066
-575.733	316.561	-0.067	0.126
-574.719	-65.299	0.113	-0.046
-573.704	54.453	0.273	-0.264
-572.690	329.418	-0.064	0.124
-571.675	162.188	-0.128	0.180
-570.661	800.000	-0.054	-0.180
-569.646	800.000	0.014	0.061
-568.631	-43.577	0.258	0.131
-567.617	-187.915	-0.151	-0.002
-566.602	-147.798	-0.372	0.031
-565.588	243.982	0.125	0.211
-564.573	310.182	-0.154	0.289
-563.558	-46.494	-0.137	0.067
-562.544	-144.901	-0.159	0.015
-561.529	800.000	0.053	0.173
-560.515	0.765	0.215	0.154
-559.500	17.680	0.159	-0.126
-558.485	66.112	0.069	0.070
-557.471	-63.095	-0.170	-0.070
-556.456	-63.349	-0.183	-0.075
-555.442	-200.000	-0.012	0.082
-554.427	800.000	-0.093	-0.297
-553.412	-87.041	-0.365	0.111
-552.398	-200.000	0.166	0.000
-551.383	187.964	0.120	0.179
-550.369	30.912	-0.243	-0.209
-549.354	800.000	0.115	-0.344
-548.339	-14.031	-0.145	0.094
-547.325	-200.000	-0.057	-0.301
-546.310	-66.123	-0.287	0.115
-545.296	-63.486	0.120	0.049
-544.281	735.155	-0.026	-0.069
-543.266	-129.589	0.202	-0.028
-542.252	241.097	0.008	0.014
-541.237	-36.888	0.292	-0.157
-540.223	104.628	-0.131	-0.155
-539.208	139.335	0.212	0.279
-538.193	-200.000	-0.002	0.231
-537.179	337.415	0.230	0.447
-536.164	-81.661	0.342	-0.112
-535.150	-200.000	-0.014	0.130
-534.135	126.121	-0.202	0.255
-533.121	106.685	-0.206	0.244
-532.106	-200.000	-0.078	-0.369
-531.091	-200.000	0.035	-0.182
-530.077	33.179	0.126	0.109
-529.062	180.726	-0.136	0.199
-528.048	-4.469	-0.248	-0.172
-527.033	8.110	-0.219	0.164
-526.018	170.737	-0.094	0.134
-525.004	-84.049	0.288	0.091
-523.989	-95.995	-0.138	-0.037
-522.975	-98.821	0.319	-0.081
-521.960	-48.107	-0.215	0.104
-520.945	-167.836	0.253	-0.010
-519.931	-141.857	0.366	-0.037
-518.916	311.351	-0.223	-0.418
-517.902	-49.174	-0.517	-0.247
-516.887	-85.950	-0.367	0.114
-515.872	217.044	-0.055	0.088
-514.858	-19.698	0.102	0.063
-513.843	800.000	0.062	-0.270
-512.829	106.798	-0.163	0.194
-511.814	19.128	-0.191	0.153
-510.799	-103.023	-0.218	0.052
-509.785	800.000	-0.098	-0.386
-508.770	131.973	-0.142	-0.183
-507.756	68.258	0.311	0.319
-506.741	-172.305	-0.108	-0.003
-505.726	-53.629	-0.146	-0.067
-504.712	-62.626	0.258	0.107
-503.697	236.300	0.039	-0.064
-502.683	-101.809	-0.197	0.048
-501.668	45.497	-0.167	0.154
-500.653	800.000	-0.050	-0.147
-499.639	-125.456	-0.287	-0.044
-498.624	-53.511	0.173	0.079
-497.610	-87.594	0.091	0.028
-496.595	-87.689	-0.195	-0.059
-495.581	-200.000	0.005	-0.075
-494.566	499.526	0.118	0.272
-493.551	119.585	-0.100	-0.124
-492.537	-91.077	-0.211	0.061
-491.522	-135.737	0.079	-0.009
-490.508	46.734	0.217	-0.201
-489.493	-129.776	0.080	0.011
-488.478	-200.000	0.008	-0.115
-487.464	331.138	0.134	-0.257
-486.449	15.549	0.127	0.100
-485.435	470.663	-0.090	0.202
-484.420	-51.950	0.108	0.050
-483.405	228.685	0.054	0.089
-482.391	-51.642	0.188	0.088
-481.376	-145.012	-0.247	-0.023
-480.362	-100.140	0.088	-0.022
-479.347	23.752	-0.321	-0.264
-478.332	800.000	-0.038	0.130
-477.318	716.099	0.039	0.103
-476.303	-78.964	-0.072	0.025
-475.289	-200.000	0.036	-0.322
-474.274	22.085	-0.157	-0.128
-473.259	-200.000	0.047	-0.206
-472.245	255.141	0.129	0.221
-471.230	-148.437	-0.268	-0.022
-470.216	-54.393	-0.403	0.183
-469.201	-200.000	0.030	0.146
-468.186	-95.567	0.177	0.047
-467.172	-112.096	0.179	-0.036
-466.157	-34.003	-0.224	-0.123
-465.143	800.000	0.082	-0.334
-464.128	-77.032	0.382	0.133
-463.113	-104.483	0.140	0.032
-462.099	58.334	0.210	-0.206
-461.084	123.485	-0.116	0.145
-460.070	-6.215	0.196	0.134
-459.055	-91.316	-0.239	0.068
-458.040	-137.034	-0.347	-0.040
-457.026	-200.000	0.021	-0.157
-456.011	-114.726	0.410	-0.078
-454.997	413.367	-0.100	-0.212
-453.982	-17.862	0.193	-0.121
-452.968	-200.000	0.048	-0.282
-451.953	-90.100	-0.253	0.074
-450.938	282.486	0.135	-0.241
-449.924	32.032	0.229	-0.197
-448.909	-15.974	-0.175	0.111
-447.895	-10.629	0.113	-0.075
-446.880	-165.728	-0.065	-0.003
-445.865	-27.477	0.174	0.101
-444.851	800.000	-0.083	0.255
-443.836	-200.000	-0.003	-0.092
-442.822	800.000	0.080	-0.227
-441.807	-183.629	0.210	-0.004
-440.792	206.236	-0.054	0.084
-439.778	82.311	0.241	-0.261
-438.763	444.886	0.117	-0.256
-437.749	-95.897	-0.246	-0.065
-436.734	-200.000	0.001	-0.246
-435.719	-200.000	-0.030	0.136
-434.705	-200.000	0.022	-0.145
-433.690	800.000	-0.025	-0.103
-432.676	-75.086	-0.212	-0.075
-431.661	-200.000	-0.030	0.331
-430.646	-90.334	0.204	0.059
-429.632	-34.330	-0.232	0.127
-428.617	-200.000	0.016	0.133
-427.603	11.812	-0.299	-0.229
-426.588	11.425	0.266	0.203
-425.573	244.218	-0.102	0.170
-424.559	-35.920	0.194	-0.104
-423.544	336.732	0.095	-0.184
-422.530	110.697	0.099	0.119
-421.515	-112.429	0.629	-0.125
-420.500	-132.118	-0.206	0.027
-419.486	-93.683	-0.444	-0.122
-418.471	800.000	-0.047	0.187
-417.457	24.863	-0.294	0.243
-416.442	56.718	0.183	0.178
-415.428	-200.000	-0.021	0.304
-414.413	800.000	0.051	-0.163
-413.398	-80.474	0.121	-0.040
-412.384	45.241	-0.107	-0.098
-411.369	181.445	0.037	0.054
-410.355	-200.000	0.065	-0.332
-409.340	380.152	-0.054	0.110
-408.325	162.715	0.128	-0.179
-407.311	-151.550	-0.167	-0.012
-406.296	-200.000	0.001	0.139
-405.282	326.185	-0.057	0.109
-404.267	18.264	0.203	0.161
-403.252	319.010	0.058	-0.110
-402.238	87.607	-0.262	-0.289
-401.223	800.000	-0.080	0.324
-400.209	101.448	-0.242	-0.281
-399.194	-24.267	-0.149	0.088
-398.179	-22.849	-0.079	-0.048
-397.165	-200.000	0.364	0.000
-396.150	-200.000	0.029	-0.143
-395.136	110.794	0.199	0.238
-394.121	212.721	0.017	-0.026
-393.106	47.955	0.310	-0.288
-392.092	-32.205	0.107	-0.060
-391.077	-200.000	-0.022	0.300
-390.063	13.622	-0.215	0.166
-389.048	176.741	-0.073	-0.106
-388.033	-149.387	0.197	-0.016
-387.019	526.366	-0.112	0.263
-386.004	-200.000	0.024	0.433
-384.990	-159.008	-0.240	-0.014
-383.975	389.333	-0.221	0.455
-382.960	79.345	0.325	0.347
-381.946	755.657	-0.046	0.123
-380.931	800.000	-0.020	-0.084
-379.917	248.619	-0.088	-0.148
-378.902	-200.000	-0.075	-0.333
-377.888	-20.386	0.222	-0.136
-376.873	-131.896	0.276	-0.036
-375.858	47.305	0.205	-0.190
-374.844	-96.947	-0.296	-0.077
-373.829	-57.948	-0.216	0.094
-372.815	-28.366	-0.264	0.152
-371.800	146.546	-0.089	-0.119
-370.785	-200.000	-0.072	-0.369
-369.771	-200.000	0.029	-0.172
-368.756	385.657	-0.139	-0.286
-367.742	41.528	0.176	0.158
-366.727	-137.281	-0.010	0.001
-365.712	-116.468	-0.250	-0.046
-364.698	-153.340	-0.212	-0.015
-363.683	336.809	0.200	-0.387
-362.669	18.004	-0.141	-0.112
-361.654	35.713	0.269	0.235
-360.639	236.779	-0.189	-0.311
-359.625	800.000	-0.042	0.138
-358.610	566.505	-0.081	0.196
-357.596	119.465	-0.171	-0.211
-356.581	-108.157	0.239	0.051
-355.566	-79.150	0.171	0.058
-354.552	-31.909	0.038	0.021
-353.537	-37.311	-0.286	-0.152
-352.523	114.959	0.144	-0.174
-351.508	-64.294	0.144	-0.058
-350.493	-138.509	0.081	0.009
-349.479	-144.174	-0.337	0.031
-348.464	0.458	-0.220	0.156
-347.450	60.330	0.092	-0.091
-346.435	-84.054	0.113	-0.036
-345.420	800.000	0.037	0.149
-344.406	-6.824	-0.184	-0.125
-343.391	-70.351	-0.049	-0.018
-342.377	-114.949	0.112	0.021
-341.362	-127.550	0.079	0.011
-340.348	185.862	-0.136	0.200
-339.333	-200.000	-0.065	0.316
-338.318	-200.000	0.026	0.240
-337.304	106.059	-0.075	-0.088
-336.289	466.208	-0.107	0.238
-335.275	87.361	-0.085	0.093
-334.260	-95.844	0.242	0.064
-333.245	800.000	0.075	-0.269
-332.231	-77.850	0.331	0.114
-331.216	-14.545	0.389	0.248
-330.202	-200.000	0.041	-0.319
-329.187	-49.441	0.250	-0.118
-328.172	-200.000	-0.012	-0.296
-327.158	-126.127	0.098	0.015
-326.143	713.892	-0.060	0.158
-325.129	-114.515	0.162	0.031
-324.114	800.000	-0.036	0.140
-323.099	-8.602	0.128	0.085
-322.085	8.870	0.191	-0.143
-321.070	-88.978	-0.302	0.089
-320.056	800.000	0.063	0.274
-319.041	-78.733	0.337	-0.114
-318.026	-200.000	-0.003	-0.295
-317.012	-152.768	-0.339	0.024
-315.997	344.464	0.158	-0.308
-314.983	68.858	-0.366	-0.373
-313.968	87.856	-0.051	-0.056
-312.953	-58.514	0.231	0.100
-311.939	-89.872	0.196	0.057
-310.924	123.152	0.197	-0.245
-309.910	149.773	-0.105	-0.141
-308.895	-200.000	0.028	0.269
-307.880	-47.924	0.212	-0.102
-306.866	-164.215	-0.065	0.003
-305.851	-200.000	-0.008	-0.069
-304.837	-200.000	-0.031	0.158
-303.822	800.000	-0.066	-0.274
-302.807	-45.716	-0.263	-0.129
-301.793	-108.408	-0.179	0.038
-300.778	294.424	-0.226	-0.410
-299.764	-17.249	0.180	-0.113
-298.749	38.227	-0.112	0.099
-297.735	-200.000	0.032	-0.175
-296.720	4.836	-0.067	-0.049
-295.705	19.629	-0.018	0.014
-294.691	234.490	0.157	-0.256
-293.676	184.484	-0.069	-0.102
-292.662	201.462	0.077	0.118
-291.647	338.123	-0.131	-0.252
-290.632	432.797	-0.046	0.099
-289.618	800.000	0.068	0.230
-288.603	273.789	-0.052	-0.091
-287.589	-200.000	-0.028	-0.158
-286.574	800.000	-0.023	-0.082
-285.559	-87.809	0.099	-0.030
-284.545	69.170	-0.034	0.035
-283.530	74.966	0.069	0.072
-282.516	-200.000	-0.016	0.087
-281.501	-124.921	0.409	0.062
-280.486	800.000	0.111	0.412
-279.472	-88.677	-0.147	0.043
-278.457	-200.000	-0.010	-0.081
-277.443	615.819	0.071	-0.176
-276.428	118.416	0.248	0.304
-275.413	-200.000	0.028	0.528
-274.399	800.000	0.030	-0.120
-273.384	230.547	0.111	-0.180
-272.370	-120.445	0.178	0.030
-271.355	-172.781	-0.296	0.009
-270.340	14.515	0.314	0.243
-269.326	-0.062	-0.143	-0.101
-268.311	-200.000	0.001	-0.113
-267.297	800.000	0.055	-0.151
-266.282	-17.282	0.215	0.134
-265.267	-96.759	0.368	0.096
-264.253	-200.000	0.030	-0.183
-263.238	-200.000	0.023	0.101
-262.224	800.000	-0.044	0.142
-261.209	-117.958	0.114	-0.020
-260.195	198.418	0.056	0.085
-259.180	-200.000	-0.001	0.025
-258.165	-200.000	0.002	0.026
-257.151	221.684	-0.245	-0.389
-256.136	-16.368	-0.098	0.061
-255.122	246.847	0.115	0.192
-254.107	-82.777	-0.300	0.096
-253.092	55.473	-0.213	0.204
-252.078	93.747	-0.080	0.089
-251.063	155.610	-0.067	-0.091
-250.049	800.000	0.019	-0.059
-249.034	-75.751	-0.305	-0.107
-248.019	48.329	0.269	-0.249
-247.005	1.303	0.072	0.051
-245.990	239.041	0.124	-0.204
-244.976	800.000	0.019	0.052
-243.961	-21.839	-0.078	-0.047
-242.946	-200.000	0.009	0.306
-241.932	-113.252	0.048	0.009
-240.917	-124.739	0.253	-0.039
-239.903	-200.000	-0.012	-0.182
-238.888	310.302	-0.058	-0.107
-237.873	-200.000	0.018	-0.097
-236.859	-200.000	-0.051	0.391
-235.844	106.518	0.067	0.078
-234.830	800.000	0.048	0.150
-233.815	-28.575	-0.123	0.070
-232.800	-43.792	-0.289	-0.144
-231.786	88.665	0.248	0.273
-230.771	-21.544	-0.257	-0.155
-229.757	800.000	-0.071	0.217
-228.742	-57.283	0.144	-0.062
-227.727	800.000	-0.030	0.101
-226.713	25.724	-0.045	-0.037
-225.698	507.943	0.089	0.204
-224.684	47.772	0.188	0.174
-223.669	800.000	-0.091	0.345
-222.655	199.590	-0.054	-0.082
-221.640	-200.000	0.035	0.308
-220.625	-110.721	-0.200	0.041
-219.611	558.603	0.047	-0.111
-218.596	800.000	-0.121	0.383
-217.582	541.389	-0.052	0.124
-216.567	-200.000	0.020	-0.439
-215.552	-101.313	0.314	0.076
-214.538	162.660	-0.214	0.297
-213.523	800.000	0.068	-0.240
-212.509	91.907	-0.055	-0.061
-211.494	-200.000	0.025	0.265
-210.479	276.809	0.280	0.491
-209.465	-200.000	0.016	0.071
-208.450	-90.078	0.243	0.070
-207.436	28.500	-0.075	0.063
-206.421	-44.936	-0.137	-0.067
-205.406	-30.625	0.104	0.058
-204.392	111.102	0.085	-0.101
-203.377	322.315	0.051	-0.096
-202.363	-200.000	-0.007	-0.066
-201.348	403.163	0.012	-0.024
-200.333	-90.159	-0.151	-0.043
-199.319	-128.551	0.163	0.023
-198.304	-200.000	-0.000	-0.202
-197.290	800.000	-0.045	0.176
-196.275	-200.000	0.001	0.261
-195.260	800.000	-0.060	0.241
-194.246	-200.000	0.007	-0.200
-193.231	550.448	0.042	-0.099
-192.217	-112.372	0.280	0.055
-191.202	23.905	-0.166	0.136
-190.187	-134.960	-0.430	0.051
-189.173	-40.374	0.122	0.063
-188.158	-112.949	-0.116	0.023
-187.144	-12.011	-0.135	-0.087
-186.129	-87.038	0.199	0.060
-185.114	-48.092	-0.066	0.031
-184.100	-200.000	0.032	-0.168
-183.085	-50.259	0.198	-0.093
-182.071	-200.000	0.017	-0.086
-181.056	484.650	0.062	-0.139
-180.042	-23.702	0.203	0.120
-179.027	715.582	0.119	0.312
-178.012	800.000	0.052	-0.173
-176.998	305.708	-0.073	-0.135
-175.983	114.850	-0.067	-0.080
-174.969	-133.144	0.126	-0.016
-173.954	-126.644	0.540	-0.079
-172.939	64.088	0.196	-0.195
-171.925	410.348	-0.184	0.384
-170.910	800.000	-0.073	0.274
-169.896	261.102	0.139	0.237
-168.881	800.000	0.077	0.304
-167.866	342.231	0.086	-0.165
-166.852	29.698	-0.041	-0.034
-165.837	-68.441	-0.164	-0.063
-164.823	151.972	0.050	0.067
-163.808	-49.207	0.293	-0.138
-162.793	-121.905	0.318	0.052
-161.779	-200.000	-0.103	0.533
-160.764	-70.714	-0.097	0.036
-159.750	419.531	-0.117	-0.246
-158.735	406.666	-0.159	0.331
-157.720	-200.000	0.010	-0.153
-156.706	-195.671	0.231	0.002
-155.691	-200.000	0.019	-0.088
-154.677	173.463	0.160	0.227
-153.662	127.289	-0.259	0.324
-152.647	-145.501	0.236	-0.021
-151.633	-200.000	0.002	-0.403
-150.618	800.000	0.073	-0.289
-149.604	57.331	0.212	0.204
-148.589	-13.580	-0.169	-0.108
-147.574	422.206	0.073	0.155
-146.560	-127.847	0.233	-0.033
-145.545	-200.000	0.015	0.308
-144.531	-127.040	-0.382	-0.055
-143.516	-200.000	0.015	0.095
-142.502	536.592	0.023	0.054
-141.487	-200.000	-0.032	-0.150
-140.472	5.976	0.151	-0.110
-139.458	37.709	0.254	-0.222
-138.443	-200.000	-0.002	0.055
-137.429	61.075	-0.199	0.195
-136.414	-200.000	0.064	0.279
-135.399	-200.000	0.030	0.158
-134.385	-85.568	-0.207	0.063
-133.370	328.027	0.028	0.053
-132.356	-200.000	-0.029	0.217
-131.341	-178.547	-0.216	-0.005
-130.326	33.107	0.154	0.131
-129.312	-84.475	-0.283	-0.088
-128.297	-54.882	0.135	0.060
-127.283	-200.000	0.048	0.347
-126.268	-111.768	-0.352	0.070
-125.253	-126.597	-0.326	0.048
-124.239	800.000	0.039	0.114
-123.224	-200.000	-0.047	0.248
-122.210	-101.101	0.050	-0.012
