DTS Sentinel unit serial number:	SN413079Multiplexer serial number:	ORYXHardware model number:	OX4-SRSoftware version number:	ORYX F/W v4.00 Oryx Data Collector v3.7.2.0data status	okinstallation	princeton_trtdifferential loss correction	single-endedforward channel	channel 3reverse channel	N/Adate	2019/09/15time	21:16:34forward acquisition time	60.00reverse acquisition time	0.00gamma	496.2192k internal	0.2329k external	0.2329temperature offset calibration	0.9935default loss term (dB/km)	0.3790temperature slope calibration	1.0000multiplexer offset coefficient	1.0000multiplexer slope coefficient	1.0000fibre end	0.00T internal ref (°C)	31.19T ext. ref 1 (°C)	8.19T ext. ref 2 (°C)	24.16length (m)	temperature (°C)	Stokes	anti-Stokes-747.200	614.023	-0.085	0.215
-746.185	-92.024	-0.184	0.052
-745.171	423.720	0.050	0.108
-744.156	491.834	-0.045	0.103
-743.142	211.761	-0.273	-0.432
-742.127	785.230	0.098	0.271
-741.112	-200.000	-0.019	-0.132
-740.098	-99.850	-0.281	0.071
-739.083	207.111	0.073	0.114
-738.069	800.000	0.080	0.320
-737.054	-200.000	0.029	-0.153
-736.039	-72.322	-0.284	-0.106
-735.025	67.674	0.161	0.166
-734.010	113.824	-0.154	0.189
-732.996	111.093	-0.219	-0.266
-731.981	-102.924	0.155	0.037
-730.966	-90.746	-0.287	0.083
-729.952	115.866	0.054	0.067
-728.937	229.613	0.200	-0.329
-727.923	-23.024	-0.222	0.135
-726.908	20.126	-0.242	0.196
-725.894	-92.367	-0.232	0.066
-724.879	-189.883	-0.326	0.004
-723.864	-200.000	0.033	-0.417
-722.850	-92.909	-0.234	0.066
-721.835	-200.000	0.046	0.347
-720.821	-136.485	-0.626	0.073
-719.806	-71.383	0.021	0.008
-718.791	-127.772	-0.176	-0.026
-717.777	-200.000	-0.038	0.247
-716.762	-200.000	-0.057	0.323
-715.748	-115.148	0.419	-0.080
-714.733	75.130	0.148	0.157
-713.718	312.916	0.006	-0.012
-712.704	285.215	0.095	0.173
-711.689	-24.516	0.032	-0.019
-710.675	118.554	0.143	0.178
-709.660	-11.735	-0.143	0.094
-708.645	-99.990	0.193	-0.048
-707.631	-9.118	-0.126	0.085
-706.616	645.144	-0.068	0.174
-705.602	-21.837	0.261	-0.159
-704.587	-31.442	0.156	0.088
-703.572	39.880	0.259	-0.233
-702.558	-89.373	-0.092	-0.027
-701.543	83.521	0.271	-0.297
-700.529	233.692	-0.141	-0.234
-699.514	-40.056	-0.058	-0.031
-698.499	258.088	0.039	0.068
-697.485	800.000	-0.084	-0.258
-696.470	-200.000	-0.028	-0.348
-695.456	42.483	-0.107	0.098
-694.441	-6.036	0.259	-0.178
-693.426	-107.590	0.174	-0.038
-692.412	-101.908	0.318	-0.077
-691.397	50.971	-0.065	0.062
-690.383	-200.000	0.014	-0.410
-689.368	-35.692	-0.248	-0.135
-688.354	-200.000	0.024	0.114
-687.339	105.244	0.067	-0.080
-686.324	31.891	-0.247	-0.213
-685.310	-152.050	0.101	0.007
-684.295	273.272	-0.162	0.288
-683.281	-31.814	0.095	0.053
-682.266	16.369	-0.102	-0.081
-681.251	800.000	-0.120	-0.339
-680.237	-128.663	-0.323	-0.046
-679.222	-174.833	0.166	0.005
-678.208	142.808	-0.117	-0.156
-677.193	800.000	0.026	0.110
-676.178	123.436	0.129	0.162
-675.164	221.242	0.035	-0.056
-674.149	-200.000	-0.033	-0.163
-673.135	800.000	-0.059	-0.254
-672.120	-7.823	-0.147	-0.100
-671.105	759.320	-0.026	-0.070
-670.091	756.633	-0.080	0.219
-669.076	800.000	0.030	0.105
-668.062	-121.036	-0.115	0.019
-667.047	-63.404	-0.252	-0.104
-666.032	103.268	-0.098	0.116
-665.018	21.614	-0.057	0.047
-664.003	30.646	0.195	-0.167
-662.989	-134.117	-0.206	-0.026
-661.974	-179.556	-0.203	-0.004
-660.959	317.082	0.149	0.282
-659.945	-7.369	0.260	-0.177
-658.930	-19.006	-0.088	-0.055
-657.916	351.828	0.032	-0.063
-656.901	384.098	0.172	-0.356
-655.886	176.648	0.160	-0.233
-654.872	26.135	-0.121	0.101
-653.857	800.000	0.055	0.217
-652.843	20.528	-0.029	-0.023
-651.828	0.470	0.180	0.129
-650.814	-63.432	-0.088	0.036
-649.799	800.000	0.074	-0.288
-648.784	800.000	0.089	-0.271
-647.770	88.344	0.212	-0.236
-646.755	-72.899	0.205	0.076
-645.741	100.267	0.068	0.079
-644.726	122.830	-0.153	-0.192
-643.711	588.343	0.056	0.138
-642.697	-127.827	-0.176	0.025
-641.682	-3.571	-0.187	-0.130
-640.668	-23.229	0.165	-0.099
-639.653	370.450	0.203	-0.413
-638.638	800.000	-0.077	0.291
-637.624	-144.354	0.479	-0.045
-636.609	410.834	-0.039	0.083
-635.595	460.894	-0.066	-0.147
-634.580	367.459	0.107	-0.216
-633.565	-128.427	0.153	0.022
-632.551	800.000	0.081	-0.324
-631.536	-200.000	0.048	-0.217
-630.522	126.693	0.342	0.435
-629.507	-154.758	0.056	-0.004
-628.492	-80.700	-0.135	-0.045
-627.478	82.649	0.138	-0.151
-626.463	-53.775	-0.206	0.094
-625.449	-12.665	0.236	0.155
-624.434	-200.000	0.049	0.298
-623.419	800.000	0.031	0.119
-622.405	-86.482	-0.081	-0.025
-621.390	363.832	0.139	0.280
-620.376	725.165	-0.025	-0.066
-619.361	-200.000	0.000	-0.089
-618.346	568.349	0.084	-0.204
-617.332	-26.068	-0.183	-0.108
-616.317	-35.658	0.300	0.163
-615.303	782.295	-0.065	0.180
-614.288	800.000	0.043	0.174
-613.273	1.044	-0.078	0.056
-612.259	-93.690	0.108	0.030
-611.244	800.000	-0.041	-0.149
-610.230	119.866	-0.107	-0.133
-609.215	-31.407	0.016	0.009
-608.201	-154.383	0.301	0.020
-607.186	-164.598	0.059	-0.003
-606.171	507.006	-0.072	0.167
-605.157	-200.000	0.030	-0.144
-604.142	800.000	0.008	-0.031
-603.128	-200.000	0.027	-0.133
-602.113	-129.046	-0.199	-0.028
-601.098	183.334	0.075	-0.111
-600.084	133.942	0.068	-0.089
-599.069	-148.306	-0.221	0.018
-598.055	167.025	-0.156	-0.221
-597.040	394.708	-0.043	-0.090
-596.025	-200.000	-0.012	-0.066
-595.011	-131.425	-0.230	0.030
-593.996	77.382	-0.143	-0.152
-592.982	-58.453	-0.400	-0.174
-591.967	-84.890	0.314	0.099
-590.952	-147.545	-0.295	0.025
-589.938	26.917	0.127	-0.106
-588.923	-20.881	0.195	-0.120
-587.909	-32.946	-0.256	-0.142
-586.894	-200.000	-0.024	0.106
-585.879	141.957	-0.098	0.130
-584.865	-200.000	-0.031	0.138
-583.850	-200.000	-0.010	-0.284
-582.836	800.000	-0.076	0.272
-581.821	-25.596	0.335	0.198
-580.806	116.455	-0.215	0.263
-579.792	85.469	-0.188	-0.207
-578.777	-200.000	0.043	-0.230
-577.763	-200.000	-0.030	-0.221
-576.748	-23.494	-0.188	0.113
-575.733	92.991	-0.161	0.182
-574.719	-95.735	0.124	-0.033
-573.704	-97.454	-0.358	-0.093
-572.690	-61.732	-0.245	0.103
-571.675	-42.128	0.304	-0.156
-570.661	749.770	0.088	-0.237
-569.646	-82.310	-0.535	0.174
-568.631	-200.000	0.027	0.227
-567.617	-25.291	-0.305	0.181
-566.602	57.175	0.152	0.148
-565.588	64.290	-0.241	-0.243
-564.573	800.000	0.113	-0.325
-563.558	197.390	-0.114	0.173
-562.544	42.776	0.231	0.211
-561.529	-64.961	-0.174	0.070
-560.515	-200.000	-0.001	0.081
-559.500	-142.344	-0.449	0.044
-558.485	-43.796	-0.205	0.103
-557.471	-104.742	-0.417	0.096
-556.456	365.311	0.100	-0.202
-555.442	84.456	0.187	0.204
-554.427	-157.289	-0.155	0.009
-553.412	29.861	-0.080	-0.068
-552.398	5.167	-0.116	-0.086
-551.383	228.395	0.140	-0.228
-550.369	76.900	0.131	0.139
-549.354	-63.312	0.305	-0.126
-548.339	108.731	-0.178	0.213
-547.325	3.172	0.205	-0.149
-546.310	-101.501	0.266	-0.065
-545.296	-119.732	0.250	0.043
-544.281	35.014	-0.307	-0.269
-543.266	-48.521	0.070	0.034
-542.252	-114.872	0.164	0.031
-541.237	233.919	-0.143	0.235
-540.223	800.000	0.016	-0.062
-539.208	-91.494	-0.137	-0.039
-538.193	-200.000	0.005	-0.232
-537.179	800.000	0.046	-0.198
-536.164	-108.642	-0.345	0.074
-535.150	-170.415	-0.096	0.003
-534.135	-122.564	-0.079	0.013
-533.121	-94.378	-0.199	0.054
-532.106	117.538	0.091	0.112
-531.091	602.133	-0.053	-0.131
-530.077	-200.000	0.000	0.013
-529.062	36.249	-0.165	0.145
-528.048	27.487	0.186	0.156
-527.033	-200.000	0.016	0.076
-526.018	-158.124	-0.220	0.013
-525.004	-20.088	-0.153	-0.094
-523.989	-129.548	0.209	0.029
-522.975	132.900	-0.185	-0.239
-521.960	-184.435	0.182	0.003
-520.945	-157.185	0.100	0.006
-519.931	800.000	-0.076	0.242
-518.916	-200.000	-0.005	-0.174
-517.902	-40.319	-0.399	-0.207
-516.887	55.908	0.198	-0.191
-515.872	-200.000	-0.006	-0.151
-514.858	154.565	-0.144	-0.197
-513.843	103.064	-0.092	0.107
-512.829	2.678	-0.207	0.150
-511.814	166.356	0.043	-0.061
-510.799	-200.000	0.020	0.131
-509.785	608.881	-0.156	-0.390
-508.770	0.400	0.213	0.152
-507.756	411.920	-0.055	0.117
-506.741	-63.335	-0.182	0.075
-505.726	788.582	-0.069	-0.189
-504.712	-111.017	0.478	0.098
-503.697	-108.611	-0.370	0.079
-502.683	524.975	-0.130	0.305
-501.668	-56.739	-0.326	-0.144
-500.653	8.174	-0.038	0.028
-499.639	208.059	0.086	0.133
-498.624	-142.707	0.652	-0.064
-497.610	13.121	-0.244	-0.188
-496.595	-12.973	0.073	0.047
-495.581	800.000	0.075	0.234
-494.566	800.000	0.120	0.367
-493.551	67.320	0.171	0.174
-492.537	-200.000	0.041	-0.286
-491.522	507.976	0.038	0.089
-490.508	-53.819	-0.183	0.083
-489.493	-200.000	-0.001	-0.071
-488.478	-200.000	0.025	0.144
-487.464	-162.555	0.048	-0.002
-486.449	117.631	0.127	0.156
-485.435	182.899	0.087	0.128
-484.420	800.000	-0.062	0.226
-483.405	800.000	-0.129	0.380
-482.391	-176.671	-0.316	-0.008
-481.376	-98.027	0.008	0.002
-480.362	203.125	-0.138	0.213
-479.347	-128.558	-0.246	0.035
-478.332	-62.136	-0.167	-0.069
-477.318	562.345	0.142	-0.342
-476.303	-59.203	-0.168	-0.072
-475.289	-50.242	0.296	-0.139
-474.274	-200.000	0.054	0.239
-473.259	119.971	0.094	0.116
-472.245	14.079	0.266	-0.206
-471.230	-36.742	0.438	0.234
-470.216	164.795	-0.103	-0.145
-469.201	-61.225	-0.189	0.079
-468.186	-50.807	0.154	0.072
-467.172	-121.039	0.264	-0.044
-466.157	288.936	0.026	-0.048
-465.143	-36.078	0.109	-0.059
-464.128	97.575	-0.179	0.205
-463.113	-200.000	0.033	-0.182
-462.099	-29.101	0.224	-0.128
-461.084	401.533	0.101	0.211
-460.070	-44.416	-0.276	-0.138
-459.055	129.778	-0.270	0.344
-458.040	-98.758	-0.075	0.019
-457.026	-200.000	-0.004	-0.213
-456.011	-150.821	0.317	0.024
-454.997	-200.000	-0.002	-0.011
-453.982	589.180	-0.028	-0.068
-452.968	-95.697	-0.229	0.061
-451.953	206.149	-0.082	-0.127
-450.938	-76.764	0.084	-0.029
-449.924	-200.000	0.023	0.259
-448.909	172.415	0.125	-0.178
-447.895	159.498	-0.166	0.230
-446.880	39.288	-0.129	-0.115
-445.865	-82.478	-0.223	-0.072
-444.851	105.861	0.221	-0.260
-443.836	-124.460	0.186	-0.029
-442.822	481.393	-0.084	-0.190
-441.807	800.000	-0.064	0.215
-440.792	-14.485	0.120	-0.077
-439.778	697.342	-0.037	-0.097
-438.763	-61.952	-0.185	0.077
-437.749	-155.602	-0.399	-0.026
-436.734	425.878	0.136	0.292
-435.719	205.138	0.359	0.555
-434.705	-149.119	-0.346	-0.028
-433.690	-6.780	-0.093	0.063
-432.676	-67.171	-0.238	0.093
-431.661	-200.000	-0.027	-0.438
-430.646	450.674	-0.072	-0.158
-429.632	563.038	-0.071	-0.170
-428.617	-55.679	0.215	-0.095
-427.603	497.982	0.049	-0.113
-426.588	-20.274	0.320	0.196
-425.573	74.197	0.142	-0.149
-424.559	-200.000	-0.009	0.076
-423.544	722.042	-0.064	0.170
-422.530	158.273	-0.130	-0.179
-421.515	-113.413	0.060	-0.012
-420.500	-176.071	-0.260	0.007
-419.486	54.414	-0.310	0.297
-418.471	-200.000	-0.020	0.119
-417.457	-79.110	-0.196	0.066
-416.442	359.776	-0.093	0.184
-415.428	-128.936	-0.244	-0.034
-414.413	64.515	0.148	-0.148
-413.398	800.000	-0.101	-0.384
-412.384	41.962	0.180	0.162
-411.369	-59.255	-0.034	0.015
-410.355	-200.000	-0.064	-0.337
-409.340	-157.539	-0.203	0.012
-408.325	-200.000	-0.002	-0.214
-407.311	-200.000	-0.035	-0.213
-406.296	-47.436	-0.438	0.212
-405.282	295.118	-0.200	0.364
-404.267	-92.966	0.057	-0.016
-403.252	104.056	-0.025	-0.030
-402.238	470.376	0.101	-0.226
-401.223	800.000	0.117	0.445
-400.209	-109.597	-0.062	0.013
-399.194	36.942	0.173	-0.152
-398.179	434.788	-0.045	0.097
-397.165	-112.637	-0.248	-0.049
-396.150	625.926	0.076	0.192
-395.136	134.122	0.192	-0.247
-394.121	-32.042	0.127	-0.071
-393.106	638.914	0.092	-0.233
-392.092	16.854	-0.084	-0.066
-391.077	51.220	-0.125	-0.118
-390.063	-200.000	-0.034	0.159
-389.048	-50.111	0.163	-0.077
-388.033	-200.000	-0.044	-0.324
-387.019	-80.243	0.230	-0.076
-386.004	-37.863	0.150	-0.079
-384.990	-171.009	-0.341	0.012
-383.975	66.083	-0.296	0.298
-382.960	566.961	0.105	0.252
-381.946	-139.806	0.169	0.018
-380.931	-200.000	-0.052	-0.242
-379.917	-25.522	-0.066	0.039
-378.902	154.623	0.134	0.183
-377.888	-200.000	-0.057	-0.279
-376.873	-35.760	-0.113	-0.061
-375.858	-97.505	0.112	-0.029
-374.844	137.292	-0.063	-0.082
-373.829	-130.946	0.237	-0.031
-372.815	558.466	-0.055	0.133
-371.800	-181.551	0.208	0.004
-370.785	156.169	-0.043	0.058
-369.771	274.701	0.157	-0.276
-368.756	103.070	-0.307	0.357
-367.742	196.673	0.094	0.142
-366.727	-72.139	0.142	0.052
-365.712	-121.247	-0.300	0.050
-364.698	-13.872	-0.145	0.093
-363.683	-67.782	0.376	-0.146
-362.669	800.000	-0.053	0.176
-361.654	385.861	0.119	-0.245
-360.639	-149.996	0.348	0.027
-359.625	12.695	-0.300	-0.230
-358.610	-119.466	0.353	0.061
-357.596	531.573	-0.082	0.193
-356.581	-118.601	-0.222	0.039
-355.566	163.580	0.075	-0.104
-354.552	9.241	0.287	-0.215
-353.537	-183.050	-0.235	-0.004
-352.523	-200.000	0.002	-0.011
-351.508	-200.000	-0.004	0.271
-350.493	15.294	-0.256	0.199
-349.479	-200.000	0.016	-0.133
-348.464	517.514	-0.090	-0.208
-347.450	-73.113	-0.123	-0.045
-346.435	91.683	0.064	-0.072
-345.420	-54.596	-0.308	0.138
-344.406	-200.000	-0.032	0.265
-343.391	-43.556	0.202	-0.101
-342.377	-200.000	-0.093	-0.454
-341.362	598.006	0.095	-0.233
-340.348	-200.000	0.023	-0.127
-339.333	729.330	-0.027	0.072
-338.318	-200.000	0.013	-0.137
-337.304	650.363	0.063	-0.159
-336.289	41.700	-0.092	0.082
-335.275	-68.279	0.290	0.112
-334.260	-200.000	-0.032	0.140
-333.245	-17.529	0.131	0.081
-332.231	800.000	0.030	-0.085
-331.216	800.000	0.088	-0.251
-330.202	236.528	-0.086	-0.141
-329.187	35.884	0.076	-0.066
-328.172	-99.849	0.491	-0.122
-327.158	800.000	-0.210	0.578
-326.143	135.930	0.138	-0.178
-325.129	-102.526	0.252	0.060
-324.114	62.087	0.228	-0.225
-323.099	315.699	0.010	-0.018
-322.085	-200.000	-0.009	0.386
-321.070	97.917	0.102	0.116
-320.056	-200.000	-0.012	-0.113
-319.041	-66.660	0.162	-0.064
-318.026	-53.405	0.262	0.119
-317.012	17.344	0.089	0.070
-315.997	-129.918	0.182	0.025
-314.983	-138.312	-0.165	-0.018
-313.968	465.876	0.071	-0.158
-312.953	28.603	-0.266	-0.223
-311.939	800.000	0.050	0.144
-310.924	-7.582	-0.194	-0.130
-309.910	800.000	0.064	-0.255
-308.895	34.483	0.029	-0.025
-307.880	91.491	-0.205	0.229
-306.866	-165.029	0.323	0.014
-305.851	-118.117	0.224	-0.040
-304.837	25.511	0.076	-0.063
-303.822	-64.187	0.102	-0.041
-302.807	694.949	-0.052	-0.134
-301.793	-200.000	0.005	0.430
-300.778	-200.000	0.030	0.159
-299.764	-42.661	-0.060	-0.030
-298.749	7.853	0.088	-0.065
-297.735	-116.716	0.169	0.031
-296.720	-200.000	0.035	0.207
-295.705	-200.000	0.003	0.165
-294.691	220.985	-0.109	-0.173
-293.676	-35.969	-0.360	-0.193
-292.662	-31.247	0.119	-0.066
-291.647	142.443	0.127	0.166
-290.632	-62.653	-0.134	-0.055
-289.618	-159.608	-0.124	0.007
-288.603	-194.768	0.307	-0.002
-287.589	-11.345	0.237	0.154
-286.574	141.517	-0.239	-0.314
-285.559	16.190	0.228	-0.178
-284.545	476.835	-0.036	-0.080
-283.530	100.975	0.131	-0.150
-282.516	-200.000	-0.040	0.181
-281.501	800.000	-0.095	-0.269
-280.486	-110.131	0.075	0.015
-279.472	-200.000	-0.034	-0.206
-278.457	151.290	0.084	0.114
-277.443	69.917	-0.214	0.218
-276.428	166.305	0.104	-0.146
-275.413	48.711	-0.186	0.172
-274.399	-140.390	0.183	-0.019
-273.384	-200.000	0.045	0.220
-272.370	-121.621	0.071	-0.012
-271.355	-200.000	0.024	-0.254
-270.340	208.684	0.113	0.175
-269.326	-155.025	-0.344	0.022
-268.311	653.073	0.072	0.183
-267.297	317.383	-0.152	-0.285
-266.282	410.746	0.065	0.137
-265.267	-200.000	0.035	0.201
-264.253	155.636	-0.145	-0.197
-263.238	-200.000	-0.024	0.216
-262.224	62.166	-0.163	0.161
-261.209	-62.232	0.257	-0.106
-260.195	800.000	-0.076	-0.264
-259.180	526.927	-0.034	-0.079
-258.165	247.338	0.206	0.344
-257.151	-113.936	0.215	0.041
-256.136	-200.000	0.010	0.047
-255.122	-53.100	0.078	0.035
-254.107	-6.420	-0.226	0.152
-253.092	255.079	-0.089	-0.151
-252.078	-200.000	-0.016	0.104
-251.063	-200.000	0.002	-0.224
-250.049	451.102	-0.063	-0.138
-249.034	85.902	0.258	0.281
-248.019	1.919	0.167	0.119
-247.005	587.523	0.074	-0.180
-245.990	-42.010	-0.240	0.121
-244.976	434.687	-0.050	-0.107
-243.961	562.248	0.060	-0.142
-242.946	800.000	-0.053	0.179
-241.932	81.638	0.186	-0.199
-240.917	-151.293	0.217	0.016
-239.903	-200.000	-0.030	-0.293
-238.888	12.128	0.144	-0.109
-237.873	-46.892	-0.194	0.094
-236.859	-25.012	0.357	0.209
-235.844	108.214	0.111	0.131
-234.830	800.000	0.083	-0.355
-233.815	-200.000	-0.023	0.129
-232.800	-85.017	0.162	0.050
-231.786	-142.616	-0.130	-0.013
-230.771	206.148	-0.114	0.176
-229.757	-200.000	-0.054	0.423
-228.742	-32.705	-0.165	0.091
-227.727	-55.657	0.202	-0.089
-226.713	70.192	-0.174	-0.177
-225.698	363.288	0.190	-0.378
-224.684	-111.683	0.232	-0.046
-223.669	-117.347	0.316	-0.056
-222.655	-200.000	-0.003	-0.013
-221.640	296.308	0.147	0.266
-220.625	-106.114	0.110	0.024
-219.611	-71.529	-0.302	0.111
-218.596	-200.000	-0.005	-0.023
-217.582	-26.865	0.212	0.122
-216.567	42.919	-0.056	-0.051
-215.552	60.773	-0.152	0.148
-214.538	800.000	-0.085	-0.278
-213.523	800.000	-0.029	0.103
-212.509	95.213	0.050	-0.056
-211.494	60.782	0.303	0.296
-210.479	-60.250	0.350	0.147
-209.465	-200.000	-0.020	-0.199
-208.450	-22.077	0.271	0.162
-207.436	253.253	0.105	0.177
-206.421	125.317	0.134	0.166
-205.406	-19.885	0.236	0.144
-204.392	-87.367	0.401	0.120
-203.377	-48.033	-0.151	-0.072
-202.363	49.918	-0.246	0.229
-201.348	106.507	0.163	-0.191
-200.333	-52.799	-0.253	-0.115
-199.319	-140.016	0.232	-0.024
-198.304	-200.000	0.052	0.387
-197.290	-89.031	-0.249	-0.073
-196.275	-125.070	0.271	0.041
-195.260	-200.000	-0.021	-0.200
-194.246	-0.372	0.221	0.155
-193.231	468.159	-0.093	-0.205
-192.217	-39.078	-0.145	-0.075
-191.202	179.628	-0.126	0.182
-190.187	-200.000	-0.004	0.144
-189.173	800.000	-0.113	0.442
-188.158	-39.474	0.049	0.025
-187.144	-104.269	-0.255	-0.058
-186.129	800.000	-0.014	0.042
-185.114	800.000	-0.052	-0.156
-184.100	-200.000	-0.030	0.345
-183.085	-36.279	-0.179	0.095
-182.071	800.000	-0.021	0.057
-181.056	-200.000	0.005	0.577
-180.042	-200.000	0.005	-0.150
-179.027	-0.408	0.175	0.122
-178.012	506.414	-0.006	-0.013
-176.998	191.110	-0.033	-0.050
-175.983	-40.317	-0.240	-0.123
-174.969	184.595	-0.220	-0.321
-173.954	-61.973	-0.249	-0.102
-172.939	60.442	0.434	0.424
-171.925	-126.271	-0.085	0.013
-170.910	-200.000	0.049	0.353
-169.896	-200.000	-0.018	-0.156
-168.881	-30.059	-0.076	-0.042
-167.866	800.000	0.052	0.188
-166.852	-158.588	0.235	0.013
-165.837	-4.777	0.209	-0.142
-164.823	-82.329	-0.294	0.094
-163.808	160.051	-0.015	0.021
-162.793	-99.171	-0.310	0.077
-161.779	464.545	-0.160	-0.352
-160.764	47.335	-0.108	-0.099
-159.750	56.863	-0.073	-0.070
-158.735	800.000	0.068	-0.203
-157.720	12.688	0.134	-0.102
-156.706	-64.361	-0.341	-0.137
-155.691	-10.511	-0.142	-0.093
-154.677	177.095	-0.177	0.254
-153.662	131.932	0.078	-0.099
-152.647	589.384	0.071	-0.172
-151.633	-200.000	-0.005	-0.206
-150.618	-164.710	-0.177	0.008
-149.604	-131.209	-0.200	0.026
-148.589	56.516	0.082	0.078
-147.574	353.641	0.088	-0.173
-146.560	-200.000	-0.042	-0.307
-145.545	-128.890	-0.224	-0.031
-144.531	-31.564	0.065	-0.036
-143.516	-200.000	0.037	-0.222
-142.502	-200.000	0.009	0.164
-141.487	284.661	0.130	0.230
-140.472	-108.306	0.146	-0.031
-139.458	-200.000	0.008	-0.222
-138.443	800.000	-0.045	-0.154
-137.429	-26.924	0.524	0.301
-136.414	-36.050	-0.295	0.157
-135.399	-157.431	0.309	-0.018
-134.385	-124.212	0.171	-0.026
-133.370	-200.000	0.021	-0.114
-132.356	-200.000	0.013	-0.109
-131.341	13.508	0.218	0.167
-130.326	486.343	0.181	0.406
-129.312	-5.948	-0.156	0.105
-128.297	204.127	-0.095	-0.145
-127.283	-200.000	0.044	0.261
-126.268	160.556	-0.108	-0.148
-125.253	-141.175	-0.301	-0.030
-124.239	88.242	-0.194	0.212
-123.224	-167.972	0.267	-0.010
-122.210	-25.561	0.245	0.142
