DTS Sentinel unit serial number:	SN413079Multiplexer serial number:	ORYXHardware model number:	OX4-SRSoftware version number:	ORYX F/W v4.00 Oryx Data Collector v3.7.2.0data status	okinstallation	princeton_trtdifferential loss correction	single-endedforward channel	channel 3reverse channel	N/Adate	2019/09/15time	09:04:35forward acquisition time	60.00reverse acquisition time	0.00gamma	496.2192k internal	0.2313k external	0.2313temperature offset calibration	0.9975default loss term (dB/km)	0.3790temperature slope calibration	1.0000multiplexer offset coefficient	1.0000multiplexer slope coefficient	1.0000fibre end	0.00T internal ref (°C)	32.91T ext. ref 1 (°C)	4.98T ext. ref 2 (°C)	30.06length (m)	temperature (°C)	Stokes	anti-Stokes-747.200	42.215	0.012	-0.011
-746.185	248.847	-0.131	0.225
-745.171	-200.000	-0.060	-0.268
-744.156	78.924	-0.085	0.093
-743.142	336.466	0.127	0.249
-742.127	22.582	-0.230	0.191
-741.112	800.000	0.022	0.093
-740.098	41.700	0.092	0.084
-739.083	373.159	0.184	0.378
-738.069	800.000	0.081	-0.253
-737.054	483.592	-0.165	-0.380
-736.039	23.024	-0.120	0.100
-735.025	-70.941	0.166	-0.063
-734.010	-120.294	-0.210	0.036
-732.996	259.431	0.089	0.156
-731.981	-127.612	-0.484	0.071
-730.966	-200.000	0.007	-0.256
-729.952	-50.111	-0.263	0.126
-728.937	-23.409	0.143	0.087
-727.923	494.278	-0.132	-0.308
-726.908	-96.776	-0.389	0.104
-725.894	-200.000	0.065	-0.485
-724.879	-65.990	0.377	-0.152
-723.864	800.000	-0.020	-0.057
-722.850	-124.441	-0.193	-0.030
-721.835	173.433	-0.099	0.145
-720.821	-200.000	0.038	-0.180
-719.806	14.015	0.115	0.090
-718.791	-81.900	-0.225	-0.075
-717.777	-200.000	0.051	0.303
-716.762	79.777	-0.154	-0.168
-715.748	747.562	-0.060	-0.164
-714.733	18.804	0.083	-0.067
-713.718	21.365	0.103	0.084
-712.704	-84.075	-0.298	0.096
-711.689	55.636	-0.238	-0.233
-710.675	-152.916	0.351	-0.025
-709.660	-97.300	-0.115	-0.030
-708.645	141.870	-0.136	-0.182
-707.631	213.096	0.263	-0.421
-706.616	-81.965	-0.202	-0.067
-705.602	104.389	-0.084	0.100
-704.587	-144.174	0.318	-0.030
-703.572	-93.712	-0.314	-0.088
-702.558	-12.226	0.127	-0.084
-701.543	221.052	-0.107	-0.173
-700.529	800.000	-0.039	-0.110
-699.514	-106.740	-0.117	-0.026
-698.499	800.000	0.074	0.310
-697.485	162.130	-0.165	-0.234
-696.470	23.310	-0.274	-0.228
-695.456	-123.040	-0.171	-0.028
-694.441	800.000	-0.043	0.138
-693.426	-73.664	0.508	-0.187
-692.412	-53.987	-0.108	0.050
-691.397	-137.754	-0.204	0.023
-690.383	345.786	0.069	-0.138
-689.368	-200.000	0.055	-0.297
-688.354	-16.078	0.187	0.120
-687.339	144.780	-0.195	0.263
-686.324	65.836	-0.221	-0.227
-685.310	-166.193	0.371	0.016
-684.295	-84.835	0.133	-0.042
-683.281	10.028	-0.167	-0.128
-682.266	-200.000	-0.047	-0.423
-681.251	-200.000	-0.009	-0.181
-680.237	-200.000	-0.029	-0.228
-679.222	800.000	0.049	-0.199
-678.208	-49.359	0.146	0.070
-677.193	258.297	0.076	-0.132
-676.178	-18.293	0.272	-0.172
-675.164	388.616	0.083	0.174
-674.149	800.000	-0.067	-0.191
-673.135	-200.000	0.025	0.249
-672.120	141.373	0.093	-0.124
-671.105	213.582	0.035	0.056
-670.091	311.668	0.129	0.244
-669.076	311.788	-0.163	-0.309
-668.062	84.751	0.127	0.141
-667.047	-129.536	-0.173	0.024
-666.032	152.245	-0.245	-0.338
-665.018	-156.438	0.164	-0.010
-664.003	-68.791	0.199	0.078
-662.989	56.595	-0.207	0.204
-661.974	-34.437	0.229	0.127
-660.959	-136.282	-0.619	0.073
-659.945	-134.219	0.206	-0.026
-658.930	169.720	-0.062	-0.090
-657.916	-63.786	-0.317	-0.131
-656.901	-62.504	-0.120	-0.050
-655.886	157.881	0.119	-0.167
-654.872	-7.782	-0.241	-0.165
-653.857	-95.524	0.072	-0.020
-652.843	-91.726	-0.110	-0.032
-651.828	-133.358	0.294	-0.037
-650.814	-109.460	-0.036	-0.008
-649.799	-75.847	-0.326	0.117
-648.784	55.709	0.074	-0.073
-647.770	321.366	-0.058	-0.112
-646.755	349.066	0.124	-0.247
-645.741	-117.665	0.163	-0.030
-644.726	-59.598	-0.145	-0.063
-643.711	711.734	0.091	0.244
-642.697	167.236	-0.116	0.166
-641.682	-60.901	0.078	0.034
-640.668	-200.000	0.043	-0.344
-639.653	207.699	0.174	-0.274
-638.638	-28.353	0.252	0.147
-637.624	-200.000	-0.031	-0.182
-636.609	-93.126	-0.220	0.062
-635.595	-200.000	-0.006	0.052
-634.580	800.000	-0.090	-0.259
-633.565	23.973	-0.106	-0.088
-632.551	-86.796	0.090	0.028
-631.536	-161.239	0.084	0.004
-630.522	24.391	0.130	-0.108
-629.507	251.212	-0.168	0.288
-628.492	361.964	-0.050	0.101
-627.478	-144.279	-0.136	-0.013
-626.463	-200.000	-0.073	0.342
-625.449	-97.710	0.193	0.051
-624.434	-139.698	0.055	-0.006
-623.419	-109.178	-0.236	0.051
-622.405	-92.098	0.177	0.051
-621.390	-152.593	-0.082	0.006
-620.376	-157.042	0.376	0.023
-619.361	478.776	-0.124	0.284
-618.346	63.218	-0.120	0.121
-617.332	37.840	0.058	-0.052
-616.317	-45.841	0.211	-0.105
-615.303	-200.000	-0.007	-0.038
-614.288	452.519	0.185	-0.412
-613.273	364.884	-0.184	-0.374
-612.259	-156.839	0.091	-0.006
-611.244	51.424	-0.119	-0.114
-610.230	-63.947	-0.076	-0.031
-609.215	-200.000	0.007	0.365
-608.201	-104.942	0.259	0.060
-607.186	-62.527	-0.200	-0.084
-606.171	304.798	-0.082	-0.153
-605.157	141.316	0.261	-0.349
-604.142	-29.291	-0.121	-0.070
-603.128	-111.935	0.110	-0.022
-602.113	-20.220	-0.206	0.128
-601.098	100.303	-0.171	0.200
-600.084	-18.513	0.072	0.045
-599.069	8.364	0.084	0.064
-598.055	-138.736	-0.027	0.003
-597.040	559.068	-0.115	0.279
-596.025	134.512	-0.238	0.311
-595.011	62.939	-0.215	-0.217
-593.996	-54.795	0.313	-0.143
-592.982	-200.000	0.064	0.398
-591.967	-113.775	-0.147	0.029
-590.952	800.000	-0.080	0.294
-589.938	7.573	0.171	-0.129
-588.923	-18.639	0.282	-0.178
-587.909	800.000	-0.018	-0.062
-586.894	-106.327	0.286	0.065
-585.879	754.635	0.046	-0.125
-584.865	485.046	-0.178	0.408
-583.850	-200.000	0.005	0.350
-582.836	-3.099	-0.234	-0.164
-581.821	239.894	-0.161	-0.271
-580.806	-53.821	0.258	0.118
-579.792	800.000	0.019	0.058
-578.777	515.495	0.031	0.073
-577.763	-133.223	-0.081	-0.010
-576.748	441.016	-0.103	0.227
-575.733	-200.000	-0.042	-0.298
-574.719	-114.251	0.235	0.046
-573.704	-14.389	-0.172	0.111
-572.690	193.841	-0.111	0.169
-571.675	-200.000	0.045	-0.232
-570.661	-87.074	-0.243	-0.075
-569.646	-8.874	-0.087	0.058
-568.631	-200.000	0.003	-0.204
-567.617	54.317	-0.108	-0.105
-566.602	-200.000	-0.050	-0.290
-565.588	116.468	0.126	0.155
-564.573	-200.000	-0.005	-0.082
-563.558	-200.000	0.004	-0.108
-562.544	-123.932	-0.293	-0.046
-561.529	372.589	-0.040	0.083
-560.515	-66.571	-0.153	0.061
-559.500	-66.484	-0.045	-0.018
-558.485	-200.000	0.008	0.179
-557.471	114.535	0.036	-0.045
-556.456	-200.000	-0.016	0.266
-555.442	250.693	-0.045	0.078
-554.427	-200.000	-0.039	-0.195
-553.412	298.245	-0.094	-0.175
-552.398	-103.609	0.168	-0.040
-551.383	-200.000	-0.015	-0.238
-550.369	800.000	0.095	-0.407
-549.354	293.063	-0.117	0.215
-548.339	800.000	-0.106	0.357
-547.325	-200.000	-0.006	0.129
-546.310	-131.671	0.142	0.019
-545.296	-83.862	-0.184	0.059
-544.281	800.000	0.042	0.170
-543.266	-200.000	-0.017	0.161
-542.252	-70.082	0.453	0.173
-541.237	80.228	-0.212	-0.229
-540.223	120.862	0.099	-0.124
-539.208	-75.630	-0.208	-0.074
-538.193	800.000	0.040	-0.136
-537.179	-128.264	0.087	0.012
-536.164	253.207	0.065	-0.112
-535.150	-18.455	0.249	0.156
-534.135	-29.666	-0.183	0.105
-533.121	-108.381	0.074	-0.016
-532.106	800.000	0.028	0.101
-531.091	-20.194	0.148	-0.092
-530.077	95.596	-0.047	0.054
-529.062	54.807	0.046	0.045
-528.048	47.693	-0.064	-0.060
-527.033	182.368	-0.191	-0.283
-526.018	-57.528	0.225	-0.099
-525.004	171.163	-0.136	-0.196
-523.989	-124.048	-0.377	-0.060
-522.975	602.603	0.017	0.042
-521.960	-200.000	0.023	-0.247
-520.945	-101.288	-0.152	-0.037
-519.931	-200.000	0.005	0.264
-518.916	-101.399	0.260	0.064
-517.902	258.959	-0.127	-0.220
-516.887	27.383	-0.207	0.175
-515.872	-66.209	-0.178	-0.071
-514.858	800.000	-0.068	0.259
-513.843	6.492	-0.154	-0.115
-512.829	-149.491	-0.015	-0.001
-511.814	235.546	-0.191	0.317
-510.799	-153.542	-0.216	0.015
-509.785	-93.800	0.228	0.063
-508.770	-200.000	0.010	0.550
-507.756	4.016	-0.267	0.196
-506.741	-5.435	0.244	0.168
-505.726	-14.765	-0.119	-0.077
-504.712	188.901	0.094	0.142
-503.697	-96.782	-0.317	0.084
-502.683	-50.516	0.201	-0.095
-501.668	-29.029	-0.061	0.035
-500.653	800.000	-0.089	-0.270
-499.639	64.010	-0.110	-0.111
-498.624	-37.578	-0.126	0.068
-497.610	-92.953	0.083	-0.023
-496.595	-200.000	0.007	0.060
-495.581	-51.149	-0.208	0.098
-494.566	-50.956	-0.074	-0.035
-493.551	-200.000	-0.024	-0.389
-492.537	800.000	-0.106	-0.443
-491.522	-87.401	0.126	-0.038
-490.508	-23.171	-0.144	-0.087
-489.493	-193.695	-0.276	0.002
-488.478	374.534	0.074	0.152
-487.464	11.599	-0.236	0.182
-486.449	48.938	-0.235	-0.222
-485.435	-56.320	-0.045	0.020
-484.420	-200.000	-0.041	0.207
-483.405	260.511	0.049	0.085
-482.391	-200.000	0.003	-0.332
-481.376	-135.216	0.044	0.005
-480.362	-175.717	0.285	-0.008
-479.347	33.860	-0.079	0.069
-478.332	-57.098	0.219	0.097
-477.318	-38.745	0.305	-0.162
-476.303	-3.130	-0.166	-0.116
-475.289	462.571	0.107	0.240
-474.274	-38.707	0.317	0.168
-473.259	79.097	0.258	0.277
-472.245	-200.000	-0.003	-0.081
-471.230	800.000	0.102	-0.421
-470.216	-200.000	-0.017	-0.317
-469.201	97.543	0.176	-0.203
-468.186	153.829	-0.235	0.323
-467.172	-59.092	0.115	-0.050
-466.157	786.841	0.086	-0.236
-465.143	-89.566	0.033	-0.010
-464.128	-136.553	-0.390	0.045
-463.113	59.609	0.175	-0.174
-462.099	492.873	0.121	-0.279
-461.084	61.474	-0.085	-0.084
-460.070	800.000	0.024	-0.081
-459.055	15.641	0.032	-0.025
-458.040	-119.406	0.156	-0.027
-457.026	-78.615	0.295	0.101
-456.011	69.337	0.244	-0.252
-454.997	-11.683	-0.171	-0.113
-453.982	-200.000	0.016	-0.444
-452.968	318.368	0.048	-0.092
-451.953	-58.487	-0.178	0.077
-450.938	61.747	0.138	-0.138
-449.924	-17.779	0.193	0.121
-448.909	9.106	0.049	0.037
-447.895	-200.000	0.005	-0.029
-446.880	660.483	0.129	-0.333
-445.865	317.866	0.086	-0.163
-444.851	-200.000	0.055	-0.327
-443.836	-62.404	-0.167	-0.070
-442.822	20.800	-0.192	-0.156
-441.807	192.720	0.120	0.182
-440.792	-200.000	0.042	0.212
-439.778	331.963	-0.105	0.203
-438.763	-185.732	-0.337	-0.005
-437.749	-20.532	0.264	0.163
-436.734	-27.103	-0.191	0.112
-435.719	800.000	-0.049	-0.136
-434.705	57.139	0.097	0.095
-433.690	46.655	-0.030	-0.028
-432.676	-75.944	-0.072	-0.026
-431.661	-81.134	-0.076	-0.025
-430.646	800.000	0.058	-0.224
-429.632	-31.471	-0.097	-0.055
-428.617	-200.000	-0.004	-0.310
-427.603	-64.832	-0.186	0.075
-426.588	38.669	-0.095	0.085
-425.573	800.000	-0.027	-0.092
-424.559	-122.963	-0.185	-0.030
-423.544	0.589	-0.013	-0.009
-422.530	-93.887	0.081	-0.022
-421.515	4.397	-0.127	0.093
-420.500	65.319	0.166	-0.168
-419.486	107.962	-0.135	-0.161
-418.471	413.691	0.058	-0.123
-417.457	-53.287	0.106	0.049
-416.442	72.383	0.171	0.178
-415.428	223.892	-0.154	0.249
-414.413	-91.876	-0.367	-0.104
-413.398	457.672	-0.021	-0.047
-412.384	-200.000	0.022	0.340
-411.369	800.000	0.068	-0.202
-410.355	800.000	-0.019	-0.066
-409.340	49.415	0.190	0.179
-408.325	-200.000	-0.015	0.296
-407.311	-97.082	-0.255	-0.067
-406.296	-28.359	0.174	-0.101
-405.282	-59.131	0.112	0.048
-404.267	800.000	0.081	0.226
-403.252	-200.000	-0.021	0.260
-402.238	-200.000	0.040	0.183
-401.223	-110.059	-0.076	-0.016
-400.209	23.479	0.024	-0.020
-399.194	-80.129	0.107	-0.036
-398.179	800.000	-0.072	-0.233
-397.165	-74.063	-0.115	-0.042
-396.150	250.558	0.089	-0.151
-395.136	51.292	-0.103	0.097
-394.121	-200.000	-0.002	0.154
-393.106	-200.000	0.043	0.371
-392.092	-200.000	-0.099	-0.513
-391.077	800.000	0.124	-0.487
-390.063	-200.000	-0.086	-0.380
-389.048	-200.000	-0.031	0.165
-388.033	800.000	0.062	-0.188
-387.019	134.008	-0.041	-0.053
-386.004	-128.061	0.188	0.027
-384.990	401.053	-0.126	0.265
-383.975	9.729	0.145	0.110
-382.960	800.000	-0.111	0.464
-381.946	143.349	-0.148	0.197
-380.931	-76.573	0.148	0.052
-379.917	-122.574	-0.169	-0.027
-378.902	177.536	-0.052	0.075
-377.888	-61.071	-0.080	-0.034
-376.873	-200.000	0.001	0.020
-375.858	457.847	-0.110	-0.244
-374.844	122.426	0.156	-0.195
-373.829	27.647	-0.177	0.149
-372.815	82.861	0.300	0.327
-371.800	230.606	0.048	0.079
-370.785	22.705	-0.055	-0.045
-369.771	-200.000	-0.016	0.226
-368.756	-89.369	-0.350	0.103
-367.742	-65.838	0.295	-0.118
-366.727	-171.571	0.327	-0.011
-365.712	-200.000	0.002	0.114
-364.698	-79.380	0.216	-0.073
-363.683	52.813	0.225	-0.215
-362.669	-34.475	-0.109	-0.060
-361.654	-81.383	-0.108	0.036
-360.639	800.000	0.084	0.234
-359.625	-108.076	0.260	-0.056
-358.610	-24.932	0.367	-0.218
-357.596	121.345	-0.232	-0.289
-356.581	-98.805	-0.351	-0.089
-355.566	-200.000	0.000	-0.209
-354.552	-200.000	-0.011	0.129
-353.537	800.000	-0.038	-0.107
-352.523	538.773	-0.019	-0.045
-351.508	233.272	0.128	-0.210
-350.493	-200.000	0.063	-0.279
-349.479	210.062	-0.041	-0.064
-348.464	-200.000	-0.012	0.074
-347.450	-20.393	0.158	0.097
-346.435	800.000	0.062	0.184
-345.420	-200.000	-0.047	-0.210
-344.406	130.532	-0.088	0.112
-343.391	-4.184	-0.143	-0.099
-342.377	-130.397	-0.286	-0.039
-341.362	-114.987	0.346	0.066
-340.348	378.457	0.033	0.068
-339.333	-112.433	0.084	0.017
-338.318	800.000	0.062	0.227
-337.304	-72.983	0.440	-0.161
-336.289	-32.956	-0.206	0.114
-335.275	601.282	-0.184	-0.457
-334.260	239.391	-0.216	-0.358
-333.245	-75.867	-0.161	-0.057
-332.231	505.305	-0.176	0.408
-331.216	800.000	0.096	0.301
-330.202	41.123	-0.368	0.332
-329.187	-28.606	-0.126	0.073
-328.172	-2.168	0.230	0.161
-327.158	800.000	-0.034	0.113
-326.143	-200.000	0.024	0.128
-325.129	-133.840	0.179	0.022
-324.114	-200.000	-0.001	-0.180
-323.099	-133.679	0.203	-0.025
-322.085	-76.336	0.191	-0.067
-321.070	-135.714	0.261	0.031
-320.056	-200.000	-0.041	-0.197
-319.041	-93.579	-0.363	0.100
-318.026	-200.000	0.024	0.313
-317.012	-89.618	0.223	0.065
-315.997	-56.512	-0.070	0.031
-314.983	237.590	-0.086	0.143
-313.968	39.646	0.071	-0.063
-312.953	494.886	0.074	0.169
-311.939	699.768	-0.021	-0.056
-310.924	73.639	0.264	-0.275
-309.910	134.245	-0.087	-0.112
-308.895	-146.521	0.075	-0.007
-307.880	-138.192	0.210	0.023
-306.866	125.776	-0.200	0.252
-305.851	-200.000	0.119	-0.614
-304.837	55.114	0.213	-0.205
-303.822	-139.477	-0.108	-0.012
-302.807	113.253	0.262	0.317
-301.793	663.944	-0.030	-0.076
-300.778	678.073	0.035	0.091
-299.764	272.243	0.135	0.237
-298.749	-95.486	-0.197	0.053
-297.735	-96.759	0.178	-0.047
-296.720	-89.527	0.203	0.059
-295.705	-65.275	-0.338	0.136
-294.691	94.151	-0.098	0.111
-293.676	800.000	0.101	-0.345
-292.662	-176.166	0.364	-0.010
-291.647	208.283	-0.167	0.260
-290.632	-40.683	0.414	0.214
-289.618	-102.564	0.236	0.056
-288.603	56.721	-0.229	-0.222
-287.589	-88.919	0.226	-0.067
-286.574	-78.722	0.255	0.087
-285.559	-200.000	0.013	-0.154
-284.545	-117.267	0.072	0.013
-283.530	-190.392	-0.025	-0.000
-282.516	800.000	-0.063	-0.184
-281.501	66.312	0.083	-0.084
-280.486	-200.000	-0.034	-0.179
-279.472	286.454	0.143	-0.257
-278.457	108.703	0.067	-0.080
-277.443	443.976	-0.110	0.240
-276.428	-12.145	0.096	0.062
-275.413	-88.235	-0.200	0.060
-274.399	85.497	-0.173	0.189
-273.384	-15.603	-0.272	-0.173
-272.370	800.000	-0.052	-0.144
-271.355	225.564	0.136	-0.220
-270.340	-200.000	-0.070	0.318
-269.326	14.868	0.269	0.209
-268.311	800.000	0.017	-0.054
-267.297	-200.000	-0.080	0.369
-266.282	105.253	-0.039	0.046
-265.267	132.096	-0.132	-0.169
-264.253	-43.838	0.194	-0.097
-263.238	-150.169	0.077	0.006
-262.224	20.753	-0.095	0.076
-261.209	800.000	0.098	-0.355
-260.195	9.383	-0.195	-0.147
-259.180	78.650	-0.163	0.173
-258.165	209.697	-0.112	0.175
-257.151	327.912	-0.125	-0.238
-256.136	237.712	-0.130	-0.215
-255.122	606.550	-0.048	0.118
-254.107	-200.000	-0.030	0.493
-253.092	-200.000	-0.003	0.163
-252.078	-80.141	0.037	0.012
-251.063	282.989	-0.135	-0.241
-250.049	63.023	-0.132	-0.131
-249.034	295.546	0.088	-0.160
-248.019	800.000	0.156	0.487
-247.005	-117.720	-0.255	0.046
-245.990	10.121	-0.141	-0.106
-244.976	-19.106	0.304	0.188
-243.961	-200.000	-0.011	0.054
-242.946	701.927	-0.056	-0.146
-241.932	147.054	0.046	-0.061
-240.917	49.108	-0.067	0.063
-239.903	-74.372	0.171	0.062
-238.888	-0.681	-0.137	0.097
-237.873	-74.049	-0.182	-0.066
-236.859	50.707	0.094	0.088
-235.844	471.291	0.059	0.133
-234.830	-111.901	-0.369	-0.074
-233.815	-71.485	-0.266	-0.099
-232.800	-132.103	0.056	-0.007
-231.786	144.843	0.123	0.164
-230.771	-10.874	0.200	-0.131
-229.757	-200.000	0.014	0.118
-228.742	-200.000	0.021	0.223
-227.727	70.330	-0.221	0.227
-226.713	34.261	0.094	-0.082
-225.698	66.374	0.154	0.156
-224.684	-200.000	0.012	-0.068
-223.669	389.129	0.131	0.270
-222.655	28.938	-0.362	-0.305
-221.640	800.000	-0.037	-0.115
-220.625	-80.909	-0.224	-0.074
-219.611	597.727	-0.027	0.067
-218.596	-73.117	0.138	-0.050
-217.582	-45.269	0.149	-0.073
-216.567	19.961	-0.138	0.111
-215.552	58.449	-0.145	0.142
-214.538	-148.061	0.187	-0.015
-213.523	-164.719	0.122	0.005
-212.509	14.312	0.045	0.035
-211.494	71.028	-0.123	0.126
-210.479	800.000	0.019	-0.073
-209.465	-168.245	0.194	-0.007
-208.450	184.471	0.027	0.040
-207.436	770.314	0.058	0.158
-206.421	800.000	-0.015	0.061
-205.406	-162.745	-0.483	-0.023
-204.392	-71.103	0.226	-0.084
-203.377	-200.000	-0.014	-0.077
-202.363	-16.386	0.089	-0.056
-201.348	800.000	-0.078	0.287
-200.333	-187.046	-0.107	-0.001
-199.319	47.910	0.231	0.214
-198.304	-53.016	0.265	0.121
-197.290	-200.000	0.045	-0.438
-196.275	3.248	0.136	0.099
-195.260	7.531	0.090	0.067
-194.246	-171.727	0.122	-0.004
-193.231	378.715	-0.089	0.180
-192.217	800.000	-0.108	0.342
-191.202	111.650	0.203	0.243
-190.187	-129.755	0.083	0.011
-189.173	-69.596	-0.277	0.105
-188.158	593.890	-0.084	0.207
-187.144	-124.394	-0.188	-0.029
-186.129	-147.176	0.461	-0.039
-185.114	32.166	0.043	0.037
-184.100	-62.530	0.090	0.037
-183.085	-200.000	0.032	-0.404
-182.071	-177.077	0.437	0.011
-181.056	-78.610	0.067	0.023
-180.042	-200.000	0.001	0.240
-179.027	-85.468	-0.096	-0.030
-178.012	-141.465	-0.338	-0.034
-176.998	551.309	-0.028	-0.067
-175.983	-92.277	0.228	0.064
-174.969	425.172	0.203	-0.434
-173.954	-34.697	0.144	-0.078
-172.939	210.559	-0.129	-0.201
-171.925	98.924	0.063	-0.072
-170.910	141.260	-0.173	-0.227
-169.896	77.095	0.024	-0.025
-168.881	67.129	-0.050	-0.050
-167.866	-5.812	0.080	-0.054
-166.852	-35.156	-0.291	0.157
-165.837	772.688	0.045	0.121
-164.823	-200.000	-0.032	-0.140
-163.808	-48.208	-0.128	-0.061
-162.793	197.899	-0.149	0.225
-161.779	17.076	-0.128	-0.101
-160.764	123.361	0.177	0.221
-159.750	322.022	0.060	-0.113
-158.735	198.759	0.207	-0.314
-157.720	-91.840	-0.036	-0.010
-156.706	-27.430	0.074	-0.043
-155.691	454.764	0.099	0.217
-154.677	325.978	-0.028	0.052
-153.662	68.430	-0.226	0.230
-152.647	-29.896	0.074	0.042
-151.633	86.834	-0.172	0.188
-150.618	-63.349	0.213	-0.087
-149.604	-81.951	-0.411	-0.133
-148.589	400.484	0.086	0.179
-147.574	-61.181	-0.103	0.043
-146.560	-79.103	0.135	-0.046
-145.545	-78.943	-0.036	-0.012
-144.531	183.149	-0.335	0.491
-143.516	273.425	-0.037	0.065
-142.502	99.028	-0.187	-0.214
-141.487	-200.000	0.006	0.171
-140.472	-67.624	0.210	0.082
-139.458	26.597	0.070	-0.058
-138.443	-103.746	0.459	0.106
-137.429	-127.948	0.131	-0.019
-136.414	-84.175	0.351	-0.110
-135.399	389.031	0.042	-0.085
-134.385	-80.079	0.285	-0.095
-133.370	-30.763	-0.047	0.027
-132.356	115.117	-0.123	-0.149
-131.341	-200.000	0.017	-0.198
-130.326	-56.181	-0.183	-0.081
-129.312	-200.000	-0.026	0.119
-128.297	-87.493	0.207	0.062
-127.283	-200.000	0.009	0.224
-126.268	173.029	-0.118	-0.169
-125.253	288.111	0.059	-0.106
-124.239	77.288	-0.114	0.120
-123.224	369.297	0.106	0.213
-122.210	-11.804	0.138	0.090
-121.195	312.881	-0.090	0.168
