DTS Sentinel unit serial number:	SN413079Multiplexer serial number:	ORYXHardware model number:	OX4-SRSoftware version number:	ORYX F/W v4.00 Oryx Data Collector v3.7.2.0data status	okinstallation	princeton_trtdifferential loss correction	single-endedforward channel	channel 3reverse channel	N/Adate	2019/09/15time	01:04:34forward acquisition time	60.00reverse acquisition time	0.00gamma	496.2192k internal	0.2321k external	0.2321temperature offset calibration	0.9964default loss term (dB/km)	0.3790temperature slope calibration	1.0000multiplexer offset coefficient	1.0000multiplexer slope coefficient	1.0000fibre end	0.00T internal ref (°C)	32.00T ext. ref 1 (°C)	4.52T ext. ref 2 (°C)	26.86length (m)	temperature (°C)	Stokes	anti-Stokes-747.200	-200.000	0.021	-0.147
-746.185	796.698	-0.077	0.215
-745.171	-121.786	-0.204	0.034
-744.156	-184.554	-0.167	0.003
-743.142	-200.000	-0.012	0.086
-742.127	143.477	-0.049	-0.065
-741.112	466.577	0.064	0.145
-740.098	53.171	-0.282	0.273
-739.083	-125.933	-0.269	-0.041
-738.069	-200.000	-0.012	0.068
-737.054	66.179	0.201	-0.206
-736.039	-73.006	-0.328	0.122
-735.025	-128.874	0.305	-0.043
-734.010	-111.177	-0.263	0.054
-732.996	143.804	-0.210	-0.282
-731.981	-65.477	-0.430	0.174
-730.966	-53.285	0.149	-0.069
-729.952	-143.337	-0.564	0.055
-728.937	-102.164	-0.173	0.042
-727.923	7.845	0.098	0.074
-726.908	29.303	-0.366	-0.314
-725.894	366.944	0.081	-0.165
-724.879	342.484	0.076	-0.150
-723.864	800.000	-0.015	0.050
-722.850	-153.277	-0.158	-0.011
-721.835	800.000	-0.090	-0.382
-720.821	16.151	-0.202	-0.161
-719.806	-178.390	-0.123	0.003
-718.791	-200.000	0.027	0.200
-717.777	-19.094	0.116	-0.073
-716.762	-200.000	-0.060	-0.321
-715.748	-41.648	0.069	-0.036
-714.733	-200.000	-0.033	0.176
-713.718	-200.000	-0.008	0.129
-712.704	-180.700	0.150	0.003
-711.689	554.700	-0.082	-0.200
-710.675	29.400	0.120	-0.103
-709.660	9.665	0.173	0.132
-708.645	-200.000	-0.016	0.182
-707.631	538.002	0.041	0.098
-706.616	-39.046	0.287	-0.152
-705.602	800.000	-0.042	0.141
-704.587	-129.337	-0.224	0.031
-703.572	260.527	-0.208	-0.364
-702.558	-200.000	-0.059	-0.291
-701.543	-200.000	0.005	-0.397
-700.529	110.519	0.155	0.188
-699.514	-69.055	-0.208	-0.081
-698.499	230.093	0.201	0.332
-697.485	175.451	-0.145	0.212
-696.470	-78.882	-0.075	0.026
-695.456	619.307	0.225	-0.571
-694.441	162.368	-0.075	-0.106
-693.426	800.000	-0.098	0.319
-692.412	-200.000	-0.060	0.324
-691.397	775.330	0.085	-0.235
-690.383	15.358	0.058	-0.046
-689.368	-100.754	-0.203	-0.050
-688.354	-91.374	0.251	-0.072
-687.339	194.224	-0.138	0.210
-686.324	167.065	-0.148	-0.213
-685.310	-200.000	-0.064	-0.332
-684.295	-120.932	-0.326	0.055
-683.281	-200.000	0.017	-0.138
-682.266	-84.026	-0.280	-0.090
-681.251	-20.735	-0.285	-0.176
-680.237	-138.897	-0.150	-0.016
-679.222	-200.000	-0.009	0.194
-678.208	-38.661	-0.209	-0.111
-677.193	131.250	0.252	0.326
-676.178	-181.905	-0.069	0.001
-675.164	-200.000	0.005	-0.144
-674.149	733.907	0.038	-0.102
-673.135	-113.148	-0.245	-0.049
-672.120	20.956	0.224	-0.183
-671.105	-49.959	-0.075	-0.036
-670.091	-94.694	0.210	0.057
-669.076	800.000	0.008	-0.035
-668.062	-55.635	-0.174	-0.079
-667.047	-139.677	0.106	-0.011
-666.032	-2.830	-0.040	0.028
-665.018	-48.404	-0.109	0.053
-664.003	-29.597	-0.103	-0.059
-662.989	-111.593	0.010	0.002
-661.974	37.004	-0.174	-0.155
-660.959	4.733	0.179	-0.133
-659.945	-200.000	0.051	-0.330
-658.930	310.691	-0.181	-0.342
-657.916	-200.000	-0.008	-0.198
-656.901	60.172	-0.110	0.110
-655.886	-119.344	0.401	-0.070
-654.872	254.854	0.032	0.056
-653.857	234.211	-0.104	0.173
-652.843	-167.955	-0.310	0.012
-651.828	92.473	-0.098	0.111
-650.814	214.128	0.146	0.234
-649.799	-197.531	-0.022	0.000
-648.784	-87.717	0.257	0.078
-647.770	-96.568	-0.200	-0.053
-646.755	-46.124	-0.279	-0.138
-645.741	51.477	-0.093	0.089
-644.726	800.000	-0.103	0.377
-643.711	282.805	0.032	0.058
-642.697	-200.000	0.034	0.367
-641.682	45.501	-0.063	0.059
-640.668	-33.507	0.163	-0.090
-639.653	800.000	-0.128	-0.380
-638.638	-5.850	0.266	-0.184
-637.624	103.826	-0.315	-0.373
-636.609	237.567	-0.070	0.117
-635.595	-76.560	-0.132	0.047
-634.580	8.022	-0.287	0.217
-633.565	83.411	-0.086	0.094
-632.551	12.045	0.131	-0.101
-631.536	-14.288	-0.268	0.174
-630.522	-90.811	0.212	0.061
-629.507	-34.991	-0.371	0.204
-628.492	-200.000	-0.032	0.191
-627.478	2.842	0.190	-0.139
-626.463	-145.062	0.302	-0.028
-625.449	-164.612	-0.417	-0.019
-624.434	-200.000	0.018	-0.226
-623.419	-170.504	0.263	-0.009
-622.405	-200.000	0.002	0.153
-621.390	213.410	-0.058	-0.092
-620.376	691.425	0.144	0.379
-619.361	21.158	-0.078	-0.063
-618.346	-8.331	0.241	-0.163
-617.332	514.103	-0.067	-0.157
-616.317	-148.237	0.344	-0.029
-615.303	-200.000	0.006	-0.036
-614.288	-92.684	-0.080	-0.023
-613.273	250.514	0.026	0.044
-612.259	-200.000	-0.017	0.143
-611.244	117.083	0.093	-0.115
-610.230	-115.173	0.172	-0.033
-609.215	-200.000	-0.036	-0.256
-608.201	-115.115	-0.451	0.086
-607.186	800.000	-0.113	-0.360
-606.171	-89.432	0.147	0.043
-605.157	-70.584	0.229	0.087
-604.142	-200.000	-0.003	-0.029
-603.128	800.000	-0.095	0.288
-602.113	-180.591	0.233	0.005
-601.098	-26.926	-0.036	-0.021
-600.084	-50.739	0.357	-0.169
-599.069	36.484	0.130	0.115
-598.055	188.099	-0.085	-0.128
-597.040	-94.505	-0.358	0.098
-596.025	-113.681	-0.140	-0.028
-595.011	800.000	-0.052	0.199
-593.996	-89.986	-0.108	0.032
-592.982	51.214	-0.201	-0.192
-591.967	800.000	0.047	0.155
-590.952	-90.092	-0.158	0.046
-589.938	-39.423	0.194	0.102
-588.923	109.135	0.117	0.141
-587.909	437.068	-0.232	-0.508
-586.894	-52.434	-0.198	-0.092
-585.879	-200.000	-0.012	-0.139
-584.865	-106.304	-0.109	-0.024
-583.850	-44.851	-0.259	-0.130
-582.836	800.000	-0.044	0.124
-581.821	10.861	-0.253	0.194
-580.806	800.000	0.050	0.167
-579.792	-143.373	0.194	-0.019
-578.777	323.172	0.205	-0.393
-577.763	-200.000	0.027	0.118
-576.748	-147.450	-0.332	0.028
-575.733	-155.376	-0.357	-0.023
-574.719	107.386	-0.243	-0.290
-573.704	-200.000	0.085	-0.403
-572.690	-35.441	0.275	0.150
-571.675	103.709	0.092	-0.108
-570.661	341.690	0.116	0.228
-569.646	96.234	0.127	-0.146
-568.631	-118.762	0.433	-0.077
-567.617	43.481	0.123	-0.113
-566.602	-45.029	-0.042	0.021
-565.588	426.647	-0.083	0.179
-564.573	597.037	0.150	-0.373
-563.558	-57.871	-0.264	0.116
-562.544	405.177	0.137	-0.289
-561.529	-33.203	-0.385	-0.214
-560.515	123.538	0.171	0.216
-559.500	-200.000	0.029	0.192
-558.485	-80.388	-0.199	-0.067
-557.471	-81.998	-0.207	-0.068
-556.456	117.155	0.223	0.275
-555.442	-200.000	-0.044	-0.203
-554.427	95.536	0.114	0.130
-553.412	-47.287	-0.198	0.097
-552.398	-92.227	-0.054	0.015
-551.383	-135.959	-0.214	0.025
-550.369	-163.496	-0.287	-0.014
-549.354	127.402	-0.193	-0.246
-548.339	94.198	0.096	0.110
-547.325	319.053	0.060	-0.114
-546.310	-79.578	-0.091	0.031
-545.296	-5.589	0.354	0.243
-544.281	117.309	-0.022	-0.027
-543.266	203.299	-0.077	0.119
-542.252	221.869	0.122	-0.198
-541.237	-200.000	0.025	-0.398
-540.223	-141.418	-0.047	0.005
-539.208	46.272	0.099	-0.092
-538.193	251.196	-0.127	-0.217
-537.179	800.000	-0.080	0.231
-536.164	-10.168	0.241	0.161
-535.150	-200.000	0.000	-0.058
-534.135	-63.818	-0.290	0.119
-533.121	125.778	-0.184	0.234
-532.106	-200.000	0.052	0.239
-531.091	-200.000	0.027	-0.146
-530.077	-39.304	-0.314	0.165
-529.062	112.540	0.183	-0.222
-528.048	312.512	-0.083	-0.157
-527.033	-200.000	-0.429	0.000
-526.018	70.568	-0.150	-0.155
-525.004	386.503	-0.025	-0.053
-523.989	-33.823	-0.397	-0.220
-522.975	-200.000	-0.049	-0.262
-521.960	-81.095	0.314	-0.104
-520.945	-200.000	-0.038	-0.297
-519.931	-200.000	0.025	-0.449
-518.916	-5.634	0.105	-0.072
-517.902	170.666	-0.172	-0.247
-516.887	731.096	-0.076	-0.204
-515.872	-200.000	-0.031	-0.266
-514.858	-31.300	-0.105	0.059
-513.843	-106.497	0.489	0.109
-512.829	-48.983	-0.398	0.191
-511.814	118.806	-0.229	0.283
-510.799	208.668	0.107	0.168
-509.785	38.738	0.039	0.035
-508.770	-200.000	-0.027	0.267
-507.756	-200.000	0.006	0.313
-506.741	616.001	-0.099	0.248
-505.726	35.811	0.350	-0.308
-504.712	6.361	-0.112	-0.083
-503.697	-23.046	0.233	0.141
-502.683	29.003	0.215	-0.182
-501.668	-80.033	0.118	-0.040
-500.653	95.819	0.068	-0.078
-499.639	800.000	-0.098	0.365
-498.624	-10.914	-0.570	0.377
-497.610	379.944	-0.094	0.192
-496.595	-200.000	-0.064	-0.293
-495.581	535.031	-0.025	0.059
-494.566	-200.000	0.019	-0.110
-493.551	-119.294	0.317	0.055
-492.537	512.453	-0.031	0.072
-491.522	-112.382	0.069	0.014
-490.508	746.203	0.147	0.397
-489.493	-200.000	-0.033	-0.159
-488.478	105.319	0.232	-0.274
-487.464	-200.000	-0.009	0.139
-486.449	411.752	0.037	0.078
-485.435	-200.000	0.028	-0.173
-484.420	-200.000	-0.010	0.205
-483.405	-75.576	0.166	-0.059
-482.391	-131.469	0.143	-0.019
-481.376	-135.548	-0.058	0.007
-480.362	800.000	-0.058	-0.170
-479.347	-37.391	0.187	-0.100
-478.332	31.134	-0.200	-0.171
-477.318	-12.736	-0.158	-0.103
-476.303	-67.113	0.228	-0.090
-475.289	206.962	0.110	0.172
-474.274	-106.992	0.248	-0.055
-473.259	170.939	0.191	0.275
-472.245	19.385	-0.152	-0.122
-471.230	477.960	-0.050	0.113
-470.216	8.378	-0.091	0.069
-469.201	-126.532	-0.032	-0.005
-468.186	-31.541	-0.133	-0.075
-467.172	2.397	-0.147	0.106
-466.157	-37.172	0.219	-0.117
-465.143	-200.000	0.041	-0.314
-464.128	158.783	-0.163	-0.227
-463.113	771.817	0.061	-0.166
-462.099	79.439	0.102	-0.110
-461.084	86.048	0.111	0.122
-460.070	-200.000	0.028	-0.243
-459.055	364.391	0.055	-0.110
-458.040	-23.335	-0.186	-0.112
-457.026	40.520	0.290	0.261
-456.011	-76.038	-0.240	0.085
-454.997	79.234	0.104	-0.112
-453.982	-108.955	0.113	0.024
-452.968	35.144	0.088	0.077
-451.953	-200.000	-0.013	-0.125
-450.938	-167.891	0.038	-0.001
-449.924	94.766	-0.022	-0.025
-448.909	800.000	0.046	-0.189
-447.895	472.284	0.100	0.225
-446.880	275.974	-0.127	0.224
-445.865	-87.614	-0.200	-0.060
-444.851	-200.000	-0.010	0.277
-443.836	351.311	0.112	-0.221
-442.822	-51.127	0.056	-0.026
-441.807	146.955	-0.036	-0.049
-440.792	-103.445	-0.201	0.047
-439.778	166.208	-0.150	-0.213
-438.763	-114.622	-0.422	0.081
-437.749	129.409	-0.086	-0.109
-436.734	-60.224	0.140	0.059
-435.719	-83.084	-0.113	0.036
-434.705	-163.386	-0.215	-0.010
-433.690	437.837	-0.070	0.153
-432.676	-11.786	-0.061	-0.040
-431.661	3.105	-0.324	-0.235
-430.646	525.439	0.098	0.230
-429.632	2.135	0.031	-0.022
-428.617	-200.000	-0.026	0.124
-427.603	-27.352	-0.186	-0.108
-426.588	-200.000	0.042	0.488
-425.573	800.000	0.050	-0.157
-424.559	800.000	0.118	-0.433
-423.544	535.480	0.048	-0.114
-422.530	335.533	-0.100	0.193
-421.515	12.422	-0.228	0.175
-420.500	-200.000	-0.016	0.216
-419.486	-158.039	0.304	0.018
-418.471	-83.066	0.150	0.048
-417.457	-200.000	0.035	0.290
-416.442	146.195	0.115	0.155
-415.428	-128.331	0.391	0.056
-414.413	67.961	-0.070	0.072
-413.398	-117.905	0.291	-0.052
-412.384	-200.000	0.005	0.205
-411.369	26.666	0.239	0.200
-410.355	-200.000	0.034	-0.274
-409.340	-200.000	0.053	0.275
-408.325	129.606	-0.191	0.243
-407.311	-170.981	0.369	-0.013
-406.296	-91.090	-0.051	-0.015
-405.282	-13.866	0.156	0.101
-404.267	430.007	-0.020	0.044
-403.252	-181.935	0.161	-0.003
-402.238	-173.502	-0.252	-0.008
-401.223	77.400	0.114	-0.121
-400.209	410.697	0.148	-0.313
-399.194	16.545	0.109	0.086
-398.179	-200.000	-0.070	0.428
-397.165	-89.582	0.240	-0.070
-396.150	-61.990	-0.162	-0.067
-395.136	-157.251	0.365	-0.022
-394.121	19.108	0.097	-0.078
-393.106	-158.705	-0.175	0.010
-392.092	-157.712	0.365	0.022
-391.077	-140.413	0.195	-0.020
-390.063	-64.384	0.264	-0.107
-389.048	-134.630	-0.242	-0.029
-388.033	-70.460	-0.152	-0.057
-387.019	13.395	-0.191	0.148
-386.004	93.192	0.140	0.158
-384.990	-200.000	-0.002	-0.098
-383.975	-94.719	-0.132	0.036
-382.960	-113.540	-0.187	-0.036
-381.946	-118.644	-0.297	0.052
-380.931	49.198	-0.171	-0.160
-379.917	-3.647	-0.049	0.034
-378.902	82.735	-0.015	0.016
-377.888	-73.018	0.189	-0.069
-376.873	-76.632	-0.239	-0.084
-375.858	-200.000	0.004	-0.391
-374.844	247.885	-0.089	-0.150
-373.829	-2.269	-0.183	0.128
-372.815	-7.876	0.302	-0.203
-371.800	111.866	0.199	-0.240
-370.785	100.121	0.122	-0.141
-369.771	-200.000	0.000	-0.023
-368.756	330.198	0.049	0.093
-367.742	15.185	0.137	-0.107
-366.727	-32.430	-0.148	-0.082
-365.712	-200.000	0.007	-0.146
-364.698	224.792	0.062	-0.100
-363.683	-30.416	0.047	-0.027
-362.669	-200.000	0.018	-0.127
-361.654	760.492	0.053	-0.143
-360.639	12.403	-0.261	0.200
-359.625	7.406	-0.292	-0.217
-358.610	528.011	0.163	0.384
-357.596	-160.574	0.111	0.006
-356.581	100.812	0.097	0.112
-355.566	238.379	0.135	-0.224
-354.552	102.867	-0.181	-0.211
-353.537	-50.377	-0.232	0.109
-352.523	-163.966	-0.351	-0.016
-351.508	-187.911	0.401	0.005
-350.493	-145.678	0.318	-0.028
-349.479	77.072	-0.090	-0.096
-348.464	-200.000	-0.101	0.469
-347.450	-31.142	-0.055	0.031
-346.435	93.928	-0.188	-0.213
-345.420	43.433	-0.016	-0.015
-344.406	-83.329	-0.127	0.041
-343.391	-70.695	-0.033	-0.012
-342.377	-200.000	0.001	0.005
-341.362	-28.486	0.247	0.142
-340.348	800.000	0.067	-0.211
-339.333	342.358	0.117	-0.228
-338.318	-200.000	0.014	0.073
-337.304	90.789	0.103	0.115
-336.289	-18.010	-0.137	0.086
-335.275	-17.575	0.038	-0.024
-334.260	174.668	0.282	-0.406
-333.245	-133.211	-0.163	0.020
-332.231	15.514	-0.175	0.137
-331.216	-49.456	0.318	-0.151
-330.202	-112.663	0.135	0.027
-329.187	-200.000	0.004	0.041
-328.172	-188.941	-0.352	-0.004
-327.158	800.000	-0.092	0.279
-326.143	-86.659	-0.269	-0.082
-325.129	-38.604	0.310	0.163
-324.114	-75.749	-0.337	-0.119
-323.099	493.868	0.040	-0.090
-322.085	457.108	-0.162	-0.357
-321.070	-200.000	-0.011	0.072
-320.056	-146.673	0.231	0.020
-319.041	-200.000	0.049	-0.334
-318.026	-28.700	0.118	-0.067
-317.012	223.067	-0.063	0.101
-315.997	26.935	0.218	-0.181
-314.983	2.454	-0.140	-0.101
-313.968	653.356	-0.115	0.292
-312.953	-200.000	-0.054	0.293
-311.939	-72.356	-0.100	0.037
-310.924	-35.628	-0.045	0.024
-309.910	17.184	0.122	-0.096
-308.895	205.972	-0.159	-0.245
-307.880	49.279	0.265	0.248
-306.866	-101.307	-0.306	0.074
-305.851	800.000	-0.059	-0.227
-304.837	800.000	0.103	0.331
-303.822	377.831	0.170	0.345
-302.807	101.616	0.136	-0.158
-301.793	800.000	-0.053	-0.161
-300.778	-30.314	0.143	0.081
-299.764	65.504	-0.136	0.136
-298.749	30.322	0.055	0.047
-297.735	558.162	-0.042	0.100
-296.720	-103.965	0.172	-0.040
-295.705	-137.802	0.286	-0.032
-294.691	-200.000	0.210	-0.001
-293.676	-100.311	0.271	-0.067
-292.662	-200.000	-0.012	0.149
-291.647	740.635	-0.020	-0.053
-290.632	-125.919	0.203	-0.030
-289.618	-20.677	-0.122	0.074
-288.603	76.244	0.138	0.145
-287.589	-76.742	-0.116	0.040
-286.574	-145.732	0.109	-0.010
-285.559	-80.427	0.111	0.037
-284.545	367.788	-0.051	-0.102
-283.530	-95.069	0.244	-0.065
-282.516	-200.000	0.010	-0.298
-281.501	-58.083	0.153	-0.066
-280.486	74.822	-0.125	-0.131
-279.472	183.164	-0.100	-0.147
-278.457	-134.123	0.164	0.020
-277.443	800.000	-0.124	0.509
-276.428	132.468	0.102	-0.130
-275.413	-8.342	0.339	0.226
-274.399	800.000	0.042	-0.178
-273.384	270.658	-0.116	0.202
-272.370	-200.000	0.028	0.219
-271.355	21.969	-0.165	-0.134
-270.340	-200.000	-0.015	0.080
-269.326	-47.587	0.325	0.157
-268.311	424.201	-0.100	0.214
-267.297	-200.000	-0.003	0.083
-266.282	-128.366	-0.106	-0.015
-265.267	26.294	0.170	-0.141
-264.253	165.183	-0.139	0.194
-263.238	-86.771	-0.097	-0.029
-262.224	800.000	0.066	0.210
-261.209	286.742	0.072	-0.130
-260.195	742.676	0.024	0.063
-259.180	110.896	0.209	0.249
-258.165	-200.000	0.018	0.111
-257.151	532.685	-0.087	0.204
-256.136	530.332	0.067	-0.156
-255.122	-24.861	-0.179	0.105
-254.107	105.344	0.171	0.201
-253.092	-97.239	0.191	0.049
-252.078	598.752	-0.059	0.145
-251.063	-70.929	-0.335	0.125
-250.049	-200.000	-0.015	-0.321
-249.034	77.874	0.101	-0.107
-248.019	-6.824	0.231	0.156
-247.005	56.546	0.280	-0.270
-245.990	-189.869	0.305	-0.003
-244.976	-13.490	-0.070	-0.045
-243.961	800.000	0.064	-0.219
-242.946	-62.071	0.372	0.154
-241.932	161.949	0.095	0.132
-240.917	52.605	0.156	-0.148
-239.903	376.637	-0.107	-0.216
-238.888	-150.678	-0.190	-0.014
-237.873	56.820	0.349	-0.337
-236.859	-76.461	-0.290	-0.101
-235.844	-11.200	-0.109	-0.071
-234.830	49.848	-0.097	0.090
-233.815	665.964	-0.027	-0.070
-232.800	172.024	0.064	-0.091
-231.786	18.591	0.139	-0.110
-230.771	-132.602	0.291	-0.037
-229.757	19.340	-0.118	-0.094
-228.742	213.898	-0.130	0.204
-227.727	-137.384	0.155	-0.017
-226.713	55.881	0.054	0.052
-225.698	-129.894	0.084	0.011
-224.684	-89.017	-0.543	-0.159
-223.669	800.000	-0.098	-0.364
-222.655	-84.384	0.087	0.027
-221.640	-200.000	0.028	-0.428
-220.625	-80.261	0.298	0.099
-219.611	-131.185	0.033	-0.004
-218.596	530.222	-0.195	0.456
-217.582	-83.318	-0.093	0.030
-216.567	-200.000	-0.012	0.110
-215.552	255.380	0.107	0.181
-214.538	-77.115	-0.256	-0.088
-213.523	-200.000	-0.057	0.263
-212.509	-200.000	-0.022	0.148
-211.494	-165.933	-0.196	-0.008
-210.479	-47.767	0.367	0.176
-209.465	-71.568	-0.343	0.127
-208.450	-200.000	-0.012	-0.227
-207.436	-6.189	0.278	0.188
-206.421	-118.445	-0.292	-0.051
-205.406	-200.000	-0.042	-0.231
-204.392	48.288	0.250	-0.231
-203.377	800.000	-0.109	0.431
-202.363	-54.593	-0.428	0.192
-201.348	-105.116	0.252	-0.057
-200.333	26.862	-0.297	0.247
-199.319	49.894	-0.402	0.375
-198.304	-108.412	-0.109	0.023
-197.290	800.000	-0.036	-0.125
-196.275	-75.304	0.185	0.065
-195.260	196.587	-0.097	0.146
-194.246	17.937	-0.063	0.050
-193.231	84.962	-0.005	0.005
-192.217	-136.300	-0.168	-0.019
-191.202	-106.319	0.137	0.030
-190.187	-200.000	0.016	-0.076
-189.173	-149.966	0.086	0.007
-188.158	-200.000	-0.061	0.393
-187.144	800.000	0.039	-0.132
-186.129	800.000	0.073	0.252
-185.114	-136.755	0.139	0.016
-184.100	800.000	0.087	0.248
-183.085	-154.421	-0.217	0.014
-182.071	-200.000	0.051	0.224
-181.056	98.691	-0.248	0.283
-180.042	153.035	0.044	-0.059
-179.027	89.067	-0.217	-0.239
-178.012	-179.941	-0.285	-0.006
-176.998	800.000	0.120	0.336
-175.983	234.003	-0.139	-0.227
-174.969	-109.799	-0.060	0.012
-173.954	-185.825	0.388	-0.006
-172.939	260.082	0.149	0.255
-171.925	33.870	0.143	0.123
-170.910	-200.000	-0.031	-0.242
-169.896	-53.108	0.085	-0.039
-168.881	-125.428	-0.406	-0.061
-167.866	-200.000	-0.019	-0.254
-166.852	71.110	0.103	-0.106
-165.837	251.580	0.190	0.319
-164.823	800.000	-0.084	-0.337
-163.808	14.330	-0.153	0.118
-162.793	46.480	-0.128	0.118
-161.779	800.000	-0.055	-0.223
-160.764	169.345	0.120	0.169
-159.750	-121.628	0.451	-0.074
-158.735	200.479	0.114	-0.173
-157.720	-72.313	0.217	-0.079
-156.706	800.000	0.071	-0.194
-155.691	36.633	-0.137	-0.119
-154.677	-36.322	-0.289	0.154
-153.662	-74.727	0.073	-0.026
-152.647	-123.849	-0.176	0.027
-151.633	-200.000	-0.032	0.190
-150.618	-200.000	0.014	-0.267
-149.604	82.830	0.082	-0.088
-148.589	-95.624	0.086	-0.023
-147.574	-14.947	-0.252	0.159
-146.560	-83.876	-0.347	0.109
-145.545	290.522	-0.118	0.212
-144.531	-112.056	0.207	0.041
-143.516	67.182	0.082	0.083
-142.502	48.581	0.205	0.189
-141.487	-36.511	0.348	-0.185
-140.472	121.889	0.172	0.212
-139.458	274.906	0.107	0.187
-138.443	-109.368	-0.221	0.046
-137.429	-200.000	-0.038	-0.360
-136.414	-1.637	-0.073	0.051
-135.399	-200.000	0.010	0.160
-134.385	655.002	0.171	-0.434
-133.370	-94.787	0.309	0.083
-132.356	800.000	0.088	0.251
-131.341	566.256	-0.036	-0.086
-130.326	-200.000	0.039	0.255
-129.312	-200.000	0.006	0.103
-128.297	800.000	0.036	0.106
-127.283	220.565	-0.166	-0.263
-126.268	800.000	0.103	0.422
-125.253	-48.591	-0.215	-0.102
-124.239	800.000	-0.047	0.201
-123.224	-96.702	-0.115	-0.030
-122.210	-42.099	0.348	-0.176
