DTS Sentinel unit serial number:	SN413079Multiplexer serial number:	ORYXHardware model number:	OX4-SRSoftware version number:	ORYX F/W v4.00 Oryx Data Collector v3.7.2.0data status	okinstallation	princeton_trtdifferential loss correction	single-endedforward channel	channel 3reverse channel	N/Adate	2019/09/15time	10:00:35forward acquisition time	60.00reverse acquisition time	0.00gamma	496.2192k internal	0.2308k external	0.2308temperature offset calibration	0.9974default loss term (dB/km)	0.3790temperature slope calibration	1.0000multiplexer offset coefficient	1.0000multiplexer slope coefficient	1.0000fibre end	0.00T internal ref (°C)	34.12T ext. ref 1 (°C)	5.00T ext. ref 2 (°C)	29.98length (m)	temperature (°C)	Stokes	anti-Stokes-747.200	800.000	0.038	-0.146
-746.185	800.000	0.089	0.389
-745.171	52.966	0.138	-0.134
-744.156	103.450	0.026	0.030
-743.142	-200.000	0.011	0.177
-742.127	531.576	-0.099	0.238
-741.112	186.314	-0.128	-0.194
-740.098	-62.550	-0.069	-0.029
-739.083	-134.600	-0.194	-0.024
-738.069	151.806	0.246	0.341
-737.054	-79.774	-0.201	0.069
-736.039	-28.870	-0.128	-0.075
-735.025	800.000	0.083	0.305
-734.010	49.541	-0.199	0.190
-732.996	-37.207	0.199	0.108
-731.981	455.997	-0.093	0.209
-730.966	783.969	-0.148	0.412
-729.952	340.306	-0.057	0.112
-728.937	-11.829	0.172	0.114
-727.923	-200.000	-0.009	0.188
-726.908	-200.000	-0.009	0.044
-725.894	-124.882	0.344	-0.054
-724.879	302.172	-0.166	-0.311
-723.864	147.548	-0.196	-0.268
-722.850	-165.352	0.087	-0.004
-721.835	-58.702	-0.145	0.064
-720.821	-69.880	-0.378	-0.146
-719.806	-12.828	0.111	-0.074
-718.791	-75.725	-0.164	0.059
-717.777	-61.361	-0.335	-0.143
-716.762	800.000	-0.136	0.438
-715.748	248.009	-0.116	-0.199
-714.733	524.696	0.127	0.303
-713.718	2.275	0.229	-0.168
-712.704	800.000	0.045	0.195
-711.689	-40.249	0.189	-0.100
-710.675	-200.000	0.002	-0.113
-709.660	66.475	-0.107	0.110
-708.645	53.904	0.300	-0.292
-707.631	-4.181	-0.137	-0.097
-706.616	800.000	-0.034	-0.143
-705.602	-200.000	-0.001	0.075
-704.587	147.800	0.129	0.177
-703.572	-200.000	0.063	0.341
-702.558	127.837	0.113	-0.146
-701.543	-83.440	-0.156	0.051
-700.529	800.000	-0.082	0.270
-699.514	-92.135	0.134	0.038
-698.499	-32.932	0.344	0.194
-697.485	704.145	0.027	-0.072
-696.470	-167.393	-0.110	-0.004
-695.456	228.014	-0.230	0.380
-694.441	375.546	-0.173	0.357
-693.426	-138.472	-0.123	-0.014
-692.412	-72.230	0.226	0.085
-691.397	351.775	0.154	-0.309
-690.383	-124.467	0.338	0.053
-689.368	59.538	0.168	0.168
-688.354	-200.000	0.010	0.052
-687.339	-102.009	0.397	0.097
-686.324	166.656	0.130	0.187
-685.310	263.566	0.085	0.149
-684.295	-200.000	-0.037	0.193
-683.281	141.418	-0.120	0.162
-682.266	712.768	0.014	0.037
-681.251	-49.840	0.303	0.146
-680.237	-133.831	-0.396	0.050
-679.222	-118.426	0.342	-0.061
-678.208	130.311	0.084	0.109
-677.193	380.307	-0.068	-0.141
-676.178	-35.080	0.211	-0.117
-675.164	352.555	0.024	-0.048
-674.149	73.756	0.144	-0.152
-673.135	490.075	-0.248	-0.575
-672.120	-67.034	-0.057	0.023
-671.105	-78.613	-0.357	-0.124
-670.091	-184.783	0.259	-0.004
-669.076	-78.320	-0.052	0.018
-668.062	-200.000	-0.049	0.268
-667.047	-174.036	0.052	-0.002
-666.032	-10.937	-0.025	-0.017
-665.018	240.797	-0.096	-0.162
-664.003	-0.798	-0.160	0.115
-662.989	-68.687	-0.215	0.084
-661.974	-98.972	-0.182	-0.047
-660.959	-21.769	0.025	0.015
-659.945	800.000	0.018	-0.061
-658.930	-90.295	-0.270	-0.080
-657.916	-56.949	0.156	0.070
-656.901	-195.338	-0.484	0.004
-655.886	3.116	-0.110	-0.081
-654.872	230.245	0.184	0.304
-653.857	-117.671	-0.336	0.061
-652.843	-44.327	-0.110	-0.056
-651.828	-200.000	0.031	-0.147
-650.814	-200.000	-0.005	0.050
-649.799	-200.000	-0.020	0.107
-648.784	111.166	-0.209	0.256
-647.770	314.712	0.125	0.239
-646.755	-123.736	-0.450	0.072
-645.741	309.370	-0.021	0.039
-644.726	800.000	0.087	0.381
-643.711	-26.453	-0.165	0.098
-642.697	-5.023	-0.303	-0.211
-641.682	18.099	-0.264	-0.213
-640.668	4.472	0.049	0.036
-639.653	83.839	0.241	-0.266
-638.638	173.327	0.091	-0.133
-637.624	-23.247	-0.219	-0.134
-636.609	17.009	0.105	0.084
-635.595	31.047	0.102	-0.088
-634.580	22.657	-0.130	0.108
-633.565	-200.000	-0.039	0.270
-632.551	117.154	-0.134	-0.167
-631.536	-5.790	-0.115	0.080
-630.522	800.000	0.087	-0.367
-629.507	-200.000	-0.021	0.169
-628.492	-36.729	-0.212	0.115
-627.478	800.000	0.051	0.176
-626.463	-107.496	-0.266	-0.059
-625.449	230.938	0.108	-0.178
-624.434	-25.809	-0.094	0.056
-623.419	260.601	-0.145	-0.253
-622.405	-82.979	-0.218	-0.071
-621.390	-35.839	-0.222	0.122
-620.376	-44.630	-0.332	-0.168
-619.361	-200.000	0.000	-0.285
-618.346	48.115	-0.121	-0.115
-617.332	688.909	0.057	-0.152
-616.317	-145.370	-0.180	0.016
-615.303	-200.000	0.031	-0.238
-614.288	29.117	0.019	0.016
-613.273	123.166	-0.149	-0.189
-612.259	-24.505	-0.091	-0.055
-611.244	-188.405	0.265	0.003
-610.230	-32.485	-0.419	-0.236
-609.215	-138.972	0.270	0.030
-608.201	-77.250	-0.224	0.079
-607.186	-200.000	-0.021	0.327
-606.171	162.796	0.126	0.179
-605.157	-78.314	-0.231	0.080
-604.142	159.616	-0.226	0.318
-603.128	-111.944	-0.226	-0.046
-602.113	-200.000	-0.029	-0.307
-601.098	-200.000	-0.083	-0.630
-600.084	800.000	-0.068	-0.263
-599.069	800.000	0.016	-0.066
-598.055	-200.000	-0.012	0.067
-597.040	7.971	0.142	0.107
-596.025	-193.358	-0.397	0.004
-595.011	301.711	-0.053	-0.099
-593.996	-25.455	-0.206	0.123
-592.982	-22.037	0.184	-0.113
-591.967	-24.229	-0.384	-0.232
-590.952	337.489	0.175	0.343
-589.938	-186.048	0.084	-0.001
-588.923	-103.486	-0.069	-0.017
-587.909	-135.933	-0.565	-0.067
-586.894	164.906	-0.096	0.137
-585.879	173.870	0.090	0.131
-584.865	70.892	0.069	-0.072
-583.850	-74.412	0.191	0.070
-582.836	-83.769	0.176	-0.057
-581.821	-20.745	-0.081	-0.050
-580.806	-129.293	-0.377	0.053
-579.792	-21.852	0.091	0.056
-578.777	334.877	0.107	-0.209
-577.763	252.724	0.093	-0.161
-576.748	-9.284	0.251	0.170
-575.733	-200.000	-0.022	-0.105
-574.719	149.590	-0.172	0.235
-573.704	-176.297	0.137	-0.004
-572.690	496.051	-0.077	0.179
-571.675	95.823	-0.254	0.293
-570.661	10.304	-0.127	0.098
-569.646	800.000	0.113	-0.360
-568.631	36.063	0.066	-0.059
-567.617	-200.000	-0.055	-0.353
-566.602	723.510	0.017	0.045
-565.588	2.064	-0.090	-0.066
-564.573	-200.000	0.061	-0.321
-563.558	-200.000	0.019	0.177
-562.544	129.914	-0.167	0.216
-561.529	-30.140	-0.142	0.082
-560.515	98.408	-0.114	0.133
-559.500	-200.000	-0.019	-0.156
-558.485	185.194	0.157	0.235
-557.471	13.441	0.356	-0.279
-556.456	6.983	-0.160	-0.121
-555.442	25.699	0.105	0.088
-554.427	-100.232	0.102	0.025
-553.412	800.000	-0.094	-0.319
-552.398	-97.070	-0.386	-0.102
-551.383	153.418	-0.147	-0.203
-550.369	-200.000	-0.004	0.289
-549.354	21.608	-0.320	0.263
-548.339	-200.000	-0.006	-0.143
-547.325	800.000	-0.106	0.319
-546.310	184.708	-0.133	-0.198
-545.296	-89.745	0.141	0.042
-544.281	75.551	-0.044	0.047
-543.266	-63.810	0.337	0.139
-542.252	-11.536	0.133	-0.088
-541.237	-105.573	-0.251	-0.057
-540.223	25.049	0.101	-0.085
-539.208	-58.376	-0.224	0.098
-538.193	61.440	0.161	0.162
-537.179	800.000	-0.076	-0.217
-536.164	-120.686	0.254	0.043
-535.150	-200.000	0.033	-0.148
-534.135	53.699	0.125	0.121
-533.121	287.430	-0.124	0.225
-532.106	-90.733	0.327	-0.095
-531.091	-44.033	0.147	0.074
-530.077	238.241	0.072	0.121
-529.062	800.000	0.162	0.525
-528.048	214.311	0.074	0.118
-527.033	-200.000	-0.030	0.280
-526.018	-42.252	0.033	0.017
-525.004	-200.000	0.013	0.331
-523.989	6.057	0.223	0.166
-522.975	-83.452	0.133	-0.043
-521.960	-154.785	0.133	0.009
-520.945	-200.000	0.045	0.310
-519.931	800.000	-0.020	0.086
-518.916	34.312	-0.034	0.030
-517.902	91.835	-0.154	0.174
-516.887	-5.404	0.206	0.142
-515.872	119.236	0.134	0.167
-514.858	-200.000	0.006	0.075
-513.843	-35.388	0.327	0.179
-512.829	39.577	-0.246	0.223
-511.814	-109.787	0.190	-0.040
-510.799	-157.003	0.315	0.019
-509.785	-120.426	-0.128	0.022
-508.770	-61.537	-0.427	-0.181
-507.756	-6.976	-0.185	-0.127
-506.741	-2.552	0.141	-0.100
-505.726	114.568	-0.110	0.135
-504.712	588.325	0.110	0.272
-503.697	-7.437	0.313	0.213
-502.683	-61.832	-0.158	-0.066
-501.668	-77.267	-0.322	0.113
-500.653	-30.989	0.201	-0.114
-499.639	-69.427	0.172	0.066
-498.624	22.229	0.204	0.168
-497.610	-65.853	-0.250	0.101
-496.595	-9.814	0.312	-0.209
-495.581	-56.607	-0.109	-0.049
-494.566	800.000	0.070	-0.267
-493.551	83.803	0.046	-0.051
-492.537	-200.000	0.025	0.117
-491.522	-200.000	0.044	0.257
-490.508	-200.000	0.029	-0.188
-489.493	-60.673	-0.164	-0.070
-488.478	120.808	0.115	0.144
-487.464	-84.520	-0.260	-0.082
-486.449	-64.793	0.196	0.080
-485.435	-94.909	0.230	0.063
-484.420	-92.963	0.127	0.036
-483.405	-69.239	-0.196	0.076
-482.391	129.152	-0.106	0.137
-481.376	40.221	-0.136	-0.123
-480.362	-24.839	-0.221	0.132
-479.347	-200.000	-0.090	0.000
-478.332	188.233	0.130	-0.195
-477.318	-123.261	-0.192	0.031
-476.303	28.024	-0.356	0.302
-475.289	345.488	-0.194	0.383
-474.274	-153.078	-0.162	-0.011
-473.259	800.000	-0.006	0.024
-472.245	-108.577	0.152	-0.033
-471.230	338.633	0.079	-0.154
-470.216	11.742	-0.323	-0.249
-469.201	-200.000	-0.006	-0.087
-468.186	536.368	0.098	0.235
-467.172	800.000	-0.018	-0.061
-466.157	-85.947	-0.237	0.074
-465.143	269.652	0.111	-0.196
-464.128	374.011	0.079	0.162
-463.113	-93.952	0.125	-0.034
-462.099	4.472	0.079	0.058
-461.084	800.000	0.062	-0.272
-460.070	651.024	0.040	-0.104
-459.055	547.895	-0.123	-0.297
-458.040	60.907	0.108	-0.108
-457.026	-63.483	0.229	-0.095
-456.011	470.296	0.039	-0.089
-454.997	-16.490	-0.083	0.053
-453.982	102.866	0.018	-0.022
-452.968	84.058	0.059	0.065
-451.953	385.128	0.082	0.169
-450.938	56.627	0.269	0.263
-449.924	33.192	0.090	-0.079
-448.909	-53.002	-0.182	-0.084
-447.895	579.369	-0.089	0.219
-446.880	51.663	0.118	-0.113
-445.865	-200.000	0.019	-0.217
-444.851	145.751	0.246	-0.331
-443.836	-82.338	0.080	0.026
-442.822	183.574	0.124	-0.184
-441.807	-76.261	0.171	-0.061
-440.792	-26.351	0.235	-0.138
-439.778	127.552	0.017	-0.021
-438.763	-151.745	0.260	0.019
-437.749	-134.481	0.153	0.019
-436.734	57.991	-0.117	-0.115
-435.719	80.724	0.106	-0.114
-434.705	219.250	0.009	-0.014
-433.690	181.443	0.089	-0.132
-432.676	-137.527	0.107	0.012
-431.661	-35.259	0.288	-0.157
-430.646	386.798	-0.150	0.310
-429.632	800.000	0.123	-0.377
-428.617	-84.114	0.236	-0.075
-427.603	5.183	-0.151	-0.111
-426.588	130.793	-0.262	0.338
-425.573	-200.000	0.033	-0.244
-424.559	211.110	0.156	-0.246
-423.544	-141.262	-0.179	-0.018
-422.530	16.321	0.192	-0.152
-421.515	-59.194	-0.153	-0.066
-420.500	-200.000	0.027	0.290
-419.486	116.756	0.030	0.036
-418.471	-73.082	-0.064	0.023
-417.457	151.282	0.188	-0.257
-416.442	-81.197	0.104	-0.035
-415.428	-21.398	-0.090	0.055
-414.413	83.711	0.256	-0.280
-413.398	-162.217	-0.070	0.004
-412.384	-200.000	-0.016	0.090
-411.369	10.892	-0.056	0.043
-410.355	-15.314	-0.161	-0.104
-409.340	-178.842	-0.063	0.001
-408.325	-102.612	-0.161	0.039
-407.311	-28.346	0.187	0.108
-406.296	-74.291	0.219	0.079
-405.282	61.555	0.154	-0.153
-404.267	-30.000	-0.257	-0.147
-403.252	-30.168	-0.231	-0.132
-402.238	106.640	0.207	-0.246
-401.223	29.994	0.255	-0.218
-400.209	800.000	0.045	-0.189
-399.194	205.061	0.190	-0.295
-398.179	121.052	-0.174	-0.217
-397.165	-24.251	0.139	0.083
-396.150	141.122	0.105	0.139
-395.136	-200.000	0.017	-0.192
-394.121	800.000	-0.039	-0.125
-393.106	-140.657	0.111	-0.011
-392.092	-200.000	0.081	-0.430
-391.077	-136.684	0.234	-0.027
-390.063	-138.638	-0.329	0.036
-389.048	5.624	-0.183	-0.135
-388.033	-122.530	0.289	-0.047
-387.019	-23.647	0.123	-0.074
-386.004	364.050	-0.269	0.543
-384.990	48.347	0.055	0.051
-383.975	236.656	0.106	-0.176
-382.960	-79.570	0.312	-0.106
-381.946	-200.000	0.011	0.194
-380.931	-101.964	-0.161	-0.039
-379.917	800.000	-0.076	-0.232
-378.902	48.815	-0.197	-0.185
-377.888	-82.828	0.294	-0.095
-376.873	165.692	0.096	-0.136
-375.858	-200.000	0.030	-0.207
-374.844	-27.671	0.193	0.112
-373.829	-141.768	-0.225	-0.023
-372.815	79.858	-0.062	-0.066
-371.800	800.000	-0.049	-0.197
-370.785	481.116	0.124	-0.282
-369.771	-6.403	-0.121	-0.082
-368.756	108.647	-0.200	-0.239
-367.742	154.275	-0.051	-0.070
-366.727	-173.093	-0.219	-0.007
-365.712	-189.256	-0.429	-0.005
-364.698	-52.920	0.343	0.158
-363.683	355.173	-0.101	-0.201
-362.669	-200.000	-0.035	0.223
-361.654	19.807	0.259	-0.209
-360.639	4.736	-0.157	-0.116
-359.625	-18.573	-0.264	-0.165
-358.610	-100.927	-0.065	-0.016
-357.596	-131.508	-0.155	-0.021
-356.581	-128.125	-0.201	-0.029
-355.566	427.176	-0.055	0.118
-354.552	-200.000	0.011	-0.055
-353.537	72.464	0.075	0.078
-352.523	118.032	-0.070	0.086
-351.508	-200.000	0.036	0.232
-350.493	11.386	-0.268	0.205
-349.479	-85.488	0.207	0.064
-348.464	152.543	-0.127	-0.173
-347.450	-45.027	-0.188	-0.094
-346.435	-36.027	0.407	0.220
-345.420	196.611	-0.162	0.247
-344.406	-69.698	0.136	0.052
-343.391	287.622	-0.166	-0.300
-342.377	-81.896	-0.526	-0.172
-341.362	-48.576	0.060	-0.029
-340.348	-51.432	0.187	-0.088
-339.333	-24.804	0.014	0.008
-338.318	295.043	-0.065	0.120
-337.304	-95.261	0.107	0.029
-336.289	-90.355	0.131	0.038
-335.275	9.825	-0.094	0.071
-334.260	-132.248	-0.276	-0.036
-333.245	117.403	0.144	0.177
-332.231	-171.268	0.228	0.008
-331.216	107.608	0.123	-0.146
-330.202	90.518	0.092	-0.103
-329.187	-75.927	-0.171	-0.061
-328.172	15.243	0.099	0.078
-327.158	139.644	-0.028	0.037
-326.143	-139.425	0.276	0.030
-325.129	220.209	0.131	0.210
-324.114	27.100	0.323	-0.271
-323.099	-200.000	0.026	-0.262
-322.085	52.317	-0.165	-0.157
-321.070	-200.000	0.027	-0.146
-320.056	-64.457	0.149	-0.061
-319.041	85.132	0.021	-0.023
-318.026	-92.125	0.303	0.086
-317.012	1.832	-0.147	0.106
-315.997	-90.009	-0.102	-0.030
-314.983	-200.000	-0.080	0.438
-313.968	562.830	0.143	-0.347
-312.953	695.841	-0.082	-0.214
-311.939	79.263	-0.195	0.209
-310.924	184.492	0.091	-0.135
-309.910	493.714	-0.053	-0.121
-308.895	-11.977	-0.256	0.168
-307.880	22.942	-0.054	0.044
-306.866	800.000	0.064	-0.231
-305.851	13.308	0.102	-0.079
-304.837	-26.635	-0.148	0.087
-303.822	-200.000	0.170	0.000
-302.807	-47.681	-0.019	0.009
-301.793	-200.000	-0.019	0.213
-300.778	800.000	-0.035	-0.118
-299.764	164.195	-0.218	0.307
-298.749	111.142	0.174	0.210
-297.735	-173.717	0.138	0.004
-296.720	273.659	-0.054	0.095
-295.705	-74.361	-0.165	0.060
-294.691	-200.000	-0.009	-0.049
-293.676	146.050	0.361	0.484
-292.662	89.603	0.017	0.019
-291.647	-43.018	-0.131	0.066
-290.632	191.502	-0.211	-0.317
-289.618	-106.834	0.266	0.059
-288.603	-21.353	0.089	-0.054
-287.589	-8.049	0.232	-0.156
-286.574	-200.000	-0.005	0.062
-285.559	-75.564	0.190	0.067
-284.545	-82.334	-0.296	0.096
-283.530	441.592	0.154	-0.337
-282.516	-200.000	0.051	-0.236
-281.501	-200.000	0.007	-0.148
-280.486	-32.021	0.169	-0.095
-279.472	-155.088	0.149	0.010
-278.457	-200.000	-0.002	0.141
-277.443	25.361	-0.100	-0.083
-276.428	307.626	-0.197	0.367
-275.413	-129.773	0.345	0.047
-274.399	-95.911	-0.072	-0.019
-273.384	8.731	0.239	-0.180
-272.370	92.348	-0.111	0.125
-271.355	-162.433	0.106	-0.005
-270.340	-58.556	0.210	-0.091
-269.326	-38.566	-0.173	0.091
-268.311	241.647	0.148	0.246
-267.297	-77.837	0.340	0.117
-266.282	-69.875	-0.285	-0.108
-265.267	-60.890	-0.098	-0.041
-264.253	-98.142	0.209	0.054
-263.238	512.994	0.110	0.256
-262.224	142.725	-0.134	0.178
-261.209	-200.000	0.006	-0.162
-260.195	25.616	0.178	-0.148
-259.180	28.380	-0.076	0.064
-258.165	614.430	0.114	-0.286
-257.151	172.355	0.178	-0.255
-256.136	-78.261	-0.080	0.027
-255.122	-105.195	-0.070	0.016
-254.107	-37.883	0.191	0.101
-253.092	-137.198	0.268	0.030
-252.078	-137.571	-0.142	-0.016
-251.063	167.163	0.091	0.129
-250.049	-48.321	0.366	0.176
-249.034	-155.308	-0.278	0.018
-248.019	-200.000	-0.029	-0.129
-247.005	598.179	-0.043	-0.106
-245.990	-100.219	0.297	-0.074
-244.976	-72.241	-0.155	-0.057
-243.961	-168.885	0.193	0.007
-242.946	-200.000	-0.040	0.347
-241.932	-54.777	0.117	0.052
-240.917	-84.405	0.224	0.071
-239.903	-54.137	0.113	0.051
-238.888	35.892	0.154	-0.135
-237.873	-160.482	-0.094	0.005
-236.859	60.985	-0.111	-0.110
-235.844	459.821	-0.085	-0.189
-234.830	-200.000	0.002	0.114
-233.815	-11.455	0.264	0.173
-232.800	-85.846	-0.200	-0.062
-231.786	-162.270	-0.269	-0.013
-230.771	-200.000	-0.001	0.076
-229.757	44.377	0.238	-0.217
-228.742	-20.252	0.039	-0.024
-227.727	441.760	-0.122	0.265
-226.713	61.694	-0.197	0.196
-225.698	-126.340	-0.186	0.028
-224.684	103.050	0.204	-0.238
-223.669	-200.000	-0.019	0.228
-222.655	800.000	0.101	0.302
-221.640	72.737	0.202	0.210
-220.625	-13.201	-0.091	0.059
-219.611	800.000	0.127	0.439
-218.596	303.987	-0.122	0.225
-217.582	315.767	0.233	-0.437
-216.567	-71.032	0.243	-0.091
-215.552	33.985	-0.235	0.204
-214.538	1.975	-0.134	0.096
-213.523	3.624	-0.338	0.246
-212.509	-24.683	0.125	-0.074
-211.494	452.257	0.071	-0.157
-210.479	130.367	-0.066	0.084
-209.465	-200.000	-0.001	0.018
-208.450	25.438	0.088	-0.073
-207.436	800.000	-0.028	-0.106
-206.421	-118.354	0.035	0.006
-205.406	35.984	0.106	0.093
-204.392	773.162	-0.129	0.350
-203.377	66.782	0.239	0.242
-202.363	-23.415	-0.082	0.049
-201.348	800.000	0.086	-0.254
-200.333	-200.000	0.033	-0.777
-199.319	275.540	0.025	-0.045
-198.304	800.000	-0.112	0.312
-197.290	37.534	-0.159	0.140
-196.275	21.813	-0.057	0.046
-195.260	-13.764	-0.089	-0.058
-194.246	-43.712	0.236	-0.118
-193.231	-200.000	0.025	0.204
-192.217	-200.000	-0.020	0.438
-191.202	16.936	-0.218	0.172
-190.187	-19.220	0.187	-0.115
-189.173	-200.000	-0.002	-0.169
-188.158	112.169	-0.338	-0.406
-187.144	-120.008	-0.136	0.023
-186.129	250.379	0.056	-0.094
-185.114	18.663	0.128	0.102
-184.100	26.684	-0.248	-0.206
-183.085	-108.222	0.122	-0.026
-182.071	21.112	0.117	0.094
-181.056	-161.775	0.221	-0.011
-180.042	-200.000	0.037	0.249
-179.027	147.589	0.111	-0.149
-178.012	-100.738	0.171	0.042
-176.998	312.937	-0.201	0.376
-175.983	-84.220	0.104	-0.033
-174.969	-34.474	-0.211	0.115
-173.954	-9.983	-0.143	0.095
-172.939	-51.036	0.226	0.106
-171.925	-200.000	0.026	0.168
-170.910	-173.865	-0.244	-0.007
-169.896	-200.000	-0.009	0.261
-168.881	800.000	0.066	-0.265
-167.866	800.000	0.043	-0.146
-166.852	-200.000	-0.023	-0.184
-165.837	359.959	0.094	0.187
-164.823	-190.045	0.244	-0.003
-163.808	-123.371	-0.270	0.043
-162.793	148.818	-0.250	-0.336
-161.779	-55.873	0.333	0.148
-160.764	800.000	-0.121	0.483
-159.750	-200.000	-0.043	0.240
-158.735	-144.215	-0.319	-0.030
-157.720	800.000	0.118	0.332
-156.706	-200.000	-0.010	-0.270
-155.691	132.788	-0.241	-0.309
-154.677	-33.750	-0.129	0.071
-153.662	-200.000	-0.018	0.158
-152.647	187.807	0.065	0.096
-151.633	721.077	-0.123	0.325
-150.618	-200.000	0.009	0.102
-149.604	14.225	0.178	0.138
-148.589	590.719	-0.134	0.329
-147.574	69.278	-0.074	-0.075
-146.560	142.755	0.087	-0.114
-145.545	-8.914	0.206	-0.137
-144.531	23.195	-0.193	-0.157
-143.516	-200.000	-0.008	-0.336
-142.502	142.082	-0.157	0.207
-141.487	209.704	0.176	-0.274
-140.472	37.485	0.184	-0.162
-139.458	3.531	-0.105	0.076
-138.443	-200.000	0.000	-0.330
-137.429	-21.938	-0.070	-0.042
-136.414	143.970	0.127	0.169
-135.399	164.766	0.105	-0.147
-134.385	-41.014	-0.277	-0.142
-133.370	-200.000	0.001	0.203
-132.356	-200.000	0.011	0.145
-131.341	-160.176	0.040	-0.002
-130.326	-83.123	0.233	-0.074
-129.312	37.921	0.104	-0.092
-128.297	-200.000	0.010	-0.100
-127.283	-145.866	0.147	-0.013
-126.268	334.873	-0.093	0.180
-125.253	800.000	-0.068	0.229
-124.239	83.302	-0.201	-0.217
-123.224	768.379	-0.024	0.064
-122.210	-200.000	-0.036	-0.290
-121.195	-88.474	0.461	0.137
-120.180	800.000	-0.022	0.084
-119.166	-177.461	-0.132	0.003
