DTS Sentinel unit serial number:	SN413079Multiplexer serial number:	ORYXHardware model number:	OX4-SRSoftware version number:	ORYX F/W v4.00 Oryx Data Collector v3.7.2.0data status	okinstallation	princeton_trtdifferential loss correction	single-endedforward channel	channel 3reverse channel	N/Adate	2019/09/15time	19:52:35forward acquisition time	60.00reverse acquisition time	0.00gamma	496.2192k internal	0.2311k external	0.2311temperature offset calibration	0.9935default loss term (dB/km)	0.3790temperature slope calibration	1.0000multiplexer offset coefficient	1.0000multiplexer slope coefficient	1.0000fibre end	0.00T internal ref (°C)	36.41T ext. ref 1 (°C)	7.48T ext. ref 2 (°C)	26.91length (m)	temperature (°C)	Stokes	anti-Stokes-747.200	-169.445	-0.226	-0.008
-746.185	35.323	-0.224	0.199
-745.171	166.117	0.040	0.057
-744.156	91.789	-0.336	0.384
-743.142	141.640	-0.108	0.146
-742.127	17.081	-0.113	-0.091
-741.112	225.191	-0.011	-0.019
-740.098	414.695	-0.231	0.499
-739.083	-36.280	0.070	-0.038
-738.069	-58.999	-0.131	-0.057
-737.054	-200.000	0.060	-0.330
-736.039	-30.663	0.118	0.068
-735.025	317.107	0.133	0.256
-734.010	276.403	-0.090	-0.162
-732.996	633.577	0.030	-0.078
-731.981	409.448	0.030	-0.064
-730.966	137.409	-0.082	-0.109
-729.952	800.000	-0.059	-0.202
-728.937	373.747	-0.050	0.103
-727.923	-26.950	0.083	-0.049
-726.908	666.404	-0.043	0.112
-725.894	-86.984	-0.116	0.036
-724.879	499.844	-0.152	-0.355
-723.864	342.418	0.242	-0.479
-722.850	-1.530	-0.178	0.127
-721.835	-200.000	-0.309	-0.001
-720.821	185.772	0.091	-0.137
-719.806	-120.346	-0.209	-0.036
-718.791	550.540	-0.021	0.052
-717.777	-142.564	0.152	-0.015
-716.762	342.831	-0.085	0.169
-715.748	-25.167	0.276	0.166
-714.733	-120.268	0.367	0.064
-713.718	-191.133	0.332	0.003
-712.704	-2.084	-0.239	0.170
-711.689	-32.441	-0.353	0.200
-710.675	-159.179	-0.152	-0.009
-709.660	350.099	0.040	-0.079
-708.645	-142.403	0.143	0.014
-707.631	-166.371	0.396	-0.017
-706.616	40.032	0.176	-0.160
-705.602	577.122	0.135	-0.334
-704.587	60.422	-0.043	0.043
-703.572	90.555	-0.206	-0.234
-702.558	-174.754	-0.458	0.013
-701.543	63.950	-0.128	0.131
-700.529	-103.653	0.168	-0.040
-699.514	-25.610	-0.035	0.021
-698.499	71.558	-0.162	-0.171
-697.485	-114.911	-0.253	-0.049
-696.470	800.000	-0.087	0.321
-695.456	-88.472	-0.107	-0.032
-694.441	134.057	0.099	0.130
-693.426	-94.877	0.131	0.036
-692.412	62.831	-0.101	-0.102
-691.397	22.822	-0.166	-0.138
-690.383	56.049	-0.097	0.095
-689.368	22.447	-0.121	0.100
-688.354	-34.925	-0.122	-0.067
-687.339	21.406	0.204	0.168
-686.324	228.122	-0.059	0.097
-685.310	2.783	-0.483	0.355
-684.295	106.508	-0.207	-0.249
-683.281	62.969	-0.111	0.113
-682.266	191.035	0.075	-0.114
-681.251	330.216	0.035	-0.069
-680.237	-100.834	-0.207	-0.052
-679.222	-200.000	0.066	-0.492
-678.208	175.453	-0.069	-0.101
-677.193	161.247	0.071	-0.101
-676.178	-120.633	-0.020	0.003
-675.164	-140.113	-0.218	-0.023
-674.149	-200.000	0.049	-0.279
-673.135	-200.000	0.065	-0.501
-672.120	-117.756	-0.105	0.019
-671.105	-62.104	0.239	0.101
-670.091	2.822	0.098	0.072
-669.076	-94.529	0.363	0.100
-668.062	-3.316	-0.185	0.130
-667.047	-9.459	-0.207	-0.140
-666.032	-200.000	-0.032	-0.191
-665.018	-69.423	-0.313	-0.121
-664.003	-86.979	-0.246	-0.076
-662.989	-142.085	-0.161	0.016
-661.974	-154.575	0.320	-0.022
-660.959	-200.000	0.048	-0.236
-659.945	-128.178	0.075	0.011
-658.930	265.721	0.104	0.183
-657.916	-200.000	-0.063	0.465
-656.901	236.862	0.084	-0.140
-655.886	-200.000	-0.042	0.346
-654.872	-14.837	0.223	0.145
-653.857	-200.000	-0.037	0.202
-652.843	-200.000	-0.022	0.187
-651.828	-147.269	-0.144	0.012
-650.814	570.446	0.198	-0.488
-649.799	-200.000	-0.009	0.197
-648.784	800.000	0.122	0.348
-647.770	368.930	-0.102	0.209
-646.755	-200.000	-0.036	0.215
-645.741	-48.754	-0.188	-0.091
-644.726	-200.000	-0.057	0.273
-643.711	-200.000	-0.048	-0.280
-642.697	51.036	-0.135	-0.129
-641.682	-200.000	-0.030	0.213
-640.668	-200.000	-0.037	0.211
-639.653	87.862	0.145	-0.163
-638.638	130.989	-0.132	-0.171
-637.624	174.009	0.260	-0.380
-636.609	-18.203	-0.275	0.174
-635.595	-73.397	0.260	-0.096
-634.580	-113.007	0.219	0.044
-633.565	-56.315	-0.133	-0.060
-632.551	800.000	-0.031	-0.125
-631.536	86.381	0.051	0.056
-630.522	-3.783	0.146	0.103
-629.507	-200.000	-0.064	-0.370
-628.492	-84.310	-0.115	-0.037
-627.478	-131.500	0.044	0.006
-626.463	800.000	0.027	-0.106
-625.449	-22.988	-0.153	0.093
-624.434	-200.000	-0.026	0.210
-623.419	800.000	0.068	-0.190
-622.405	-25.600	-0.312	-0.186
-621.390	-167.289	-0.118	0.005
-620.376	-90.620	0.211	0.062
-619.361	-200.000	0.001	-0.514
-618.346	-116.066	-0.400	-0.075
-617.332	-103.308	0.121	-0.029
-616.317	-64.936	0.238	-0.097
-615.303	363.706	0.065	0.133
-614.288	152.629	-0.185	0.255
-613.273	536.123	0.106	-0.255
-612.259	-105.948	-0.265	-0.060
-611.244	-120.528	-0.381	0.065
-610.230	-200.000	-0.020	0.336
-609.215	727.132	-0.068	0.184
-608.201	-13.993	0.087	-0.057
-607.186	-200.000	-0.024	0.192
-606.171	800.000	0.013	0.042
-605.157	12.079	-0.246	0.191
-604.142	-3.581	-0.253	-0.178
-603.128	-140.095	-0.294	0.031
-602.113	-73.703	-0.377	0.139
-601.098	550.000	-0.039	0.094
-600.084	552.034	-0.096	-0.233
-599.069	156.155	-0.056	-0.079
-598.055	-94.521	-0.392	0.108
-597.040	-170.867	0.040	0.001
-596.025	-200.000	-0.064	-0.284
-595.011	8.402	0.054	0.041
-593.996	373.953	-0.203	-0.416
-592.982	-23.673	-0.256	0.155
-591.967	218.659	0.201	0.324
-590.952	-29.673	-0.391	-0.225
-589.938	85.003	0.187	0.207
-588.923	-200.000	-0.019	-0.250
-587.909	800.000	-0.071	-0.215
-586.894	34.706	0.329	-0.290
-585.879	234.084	-0.031	-0.051
-584.865	199.506	0.034	-0.053
-583.850	-54.533	0.288	0.131
-582.836	-45.650	-0.235	-0.117
-581.821	-25.724	0.050	-0.029
-580.806	800.000	-0.067	-0.193
-579.792	-200.000	-0.027	-0.281
-578.777	250.083	0.083	-0.141
-577.763	800.000	0.047	-0.182
-576.748	22.551	-0.241	0.199
-575.733	-7.170	-0.269	0.184
-574.719	537.082	0.131	0.313
-573.704	29.667	0.154	0.132
-572.690	-8.588	0.256	-0.173
-571.675	-200.000	-0.039	-0.214
-570.661	-68.797	-0.022	-0.009
-569.646	88.341	-0.128	-0.144
-568.631	28.997	0.087	0.074
-567.617	72.967	0.371	-0.390
-566.602	800.000	-0.026	0.077
-565.588	40.445	-0.205	0.186
-564.573	-48.431	-0.165	0.080
-563.558	-30.811	-0.143	-0.082
-562.544	-26.760	-0.126	0.075
-561.529	-86.203	0.105	-0.033
-560.515	-200.000	0.030	0.151
-559.500	-200.000	0.029	0.233
-558.485	681.035	-0.066	-0.173
-557.471	275.151	-0.035	-0.063
-556.456	-177.068	0.126	0.003
-555.442	-31.607	-0.207	-0.117
-554.427	-66.876	0.186	0.074
-553.412	-200.000	0.027	-0.156
-552.398	-83.173	0.293	-0.095
-551.383	-120.799	0.200	-0.034
-550.369	270.418	0.048	0.085
-549.354	300.033	-0.161	-0.298
-548.339	-60.360	-0.197	-0.085
-547.325	5.734	0.200	-0.149
-546.310	-72.784	-0.340	0.126
-545.296	135.462	0.109	0.143
-544.281	800.000	0.025	0.072
-543.266	-133.800	0.085	-0.011
-542.252	93.339	-0.356	-0.405
-541.237	88.928	-0.195	-0.218
-540.223	154.975	0.099	0.137
-539.208	77.489	0.275	-0.295
-538.193	17.614	-0.144	0.116
-537.179	-29.251	-0.073	0.042
-536.164	12.820	-0.179	-0.139
-535.150	800.000	-0.066	0.212
-534.135	89.176	-0.021	0.023
-533.121	154.335	0.079	0.109
-532.106	-132.763	0.454	-0.058
-531.091	-101.595	-0.384	-0.094
-530.077	303.422	0.223	-0.415
-529.062	-200.000	-0.004	-0.201
-528.048	230.702	0.116	-0.191
-527.033	307.696	0.129	0.242
-526.018	-113.839	-0.108	0.021
-525.004	-36.249	-0.105	0.057
-523.989	-200.000	-0.008	-0.160
-522.975	10.061	0.022	-0.017
-521.960	-179.354	-0.103	0.002
-520.945	331.719	-0.133	0.258
-519.931	-19.671	-0.110	0.069
-518.916	-200.000	-0.027	0.299
-517.902	-200.000	0.061	-0.294
-516.887	83.037	0.321	-0.352
-515.872	-200.000	-0.056	-0.245
-514.858	84.660	0.127	-0.140
-513.843	-157.003	0.088	-0.005
-512.829	-59.217	0.225	0.097
-511.814	356.315	0.055	0.110
-510.799	800.000	0.041	0.118
-509.785	-200.000	0.007	-0.367
-508.770	-94.981	0.141	0.038
-507.756	29.364	-0.144	0.123
-506.741	-200.000	0.019	0.095
-505.726	-47.242	0.325	-0.159
-504.712	-200.000	0.022	-0.153
-503.697	-61.993	-0.418	0.176
-502.683	-56.839	-0.288	0.128
-501.668	63.833	0.116	-0.117
-500.653	-200.000	0.029	0.132
-499.639	289.041	-0.104	-0.189
-498.624	-15.456	-0.084	-0.054
-497.610	147.140	0.278	0.375
-496.595	800.000	-0.099	0.280
-495.581	-200.000	-0.001	0.250
-494.566	800.000	0.136	0.479
-493.551	-14.318	-0.211	0.137
-492.537	9.176	-0.275	0.209
-491.522	740.344	-0.095	0.255
-490.508	-86.435	0.119	-0.037
-489.493	-200.000	0.020	0.143
-488.478	-27.204	0.130	-0.076
-487.464	-200.000	0.029	-0.214
-486.449	-10.042	0.175	-0.117
-485.435	-150.837	0.053	0.004
-484.420	-166.535	-0.132	0.006
-483.405	-128.343	0.207	-0.030
-482.391	-98.079	0.165	-0.043
-481.376	-49.431	-0.084	0.040
-480.362	-200.000	0.022	-0.171
-479.347	406.713	0.037	-0.079
-478.332	-53.096	0.365	0.168
-477.318	-162.355	0.171	-0.009
-476.303	800.000	-0.072	-0.254
-475.289	745.557	-0.068	-0.184
-474.274	52.265	0.124	0.119
-473.259	-167.291	0.137	0.006
-472.245	170.613	0.156	0.224
-471.230	-59.870	-0.509	-0.219
-470.216	-139.148	-0.192	-0.021
-469.201	-48.027	0.295	0.143
-468.186	337.543	0.063	0.123
-467.172	-19.799	0.107	-0.067
-466.157	44.742	0.127	-0.117
-465.143	-69.555	0.210	-0.081
-464.128	800.000	-0.023	0.088
-463.113	-115.992	-0.219	-0.041
-462.099	800.000	-0.061	0.184
-461.084	-118.336	0.199	-0.036
-460.070	-92.979	0.336	0.094
-459.055	800.000	0.095	0.358
-458.040	315.945	-0.051	-0.098
-457.026	151.078	0.147	0.201
-456.011	556.905	0.112	-0.272
-454.997	-200.000	0.060	0.298
-453.982	157.117	0.136	-0.188
-452.968	-60.709	0.170	0.072
-451.953	152.627	0.312	0.428
-450.938	800.000	-0.171	-0.516
-449.924	-38.812	-0.281	-0.149
-448.909	25.019	-0.068	-0.057
-447.895	-200.000	0.089	-0.428
-446.880	44.787	-0.247	0.228
-445.865	-200.000	-0.008	0.374
-444.851	56.797	0.162	0.158
-443.836	-111.149	-0.054	0.011
-442.822	533.603	-0.110	-0.260
-441.807	75.554	-0.111	-0.118
-440.792	800.000	0.041	0.127
-439.778	313.710	-0.074	0.141
-438.763	-200.000	-0.006	-0.061
-437.749	-200.000	0.074	0.449
-436.734	-65.953	0.134	-0.054
-435.719	-200.000	0.020	0.150
-434.705	800.000	0.085	0.294
-433.690	243.363	-0.200	0.337
-432.676	508.594	-0.026	-0.061
-431.661	-189.901	0.282	-0.003
-430.646	9.425	-0.060	0.045
-429.632	-200.000	-0.209	-0.001
-428.617	800.000	0.042	0.144
-427.603	-32.753	0.091	-0.051
-426.588	332.401	0.082	0.159
-425.573	-111.093	-0.338	0.069
-424.559	800.000	-0.068	-0.211
-423.544	-67.918	-0.143	-0.056
-422.530	-94.009	-0.308	-0.085
-421.515	117.575	-0.082	0.101
-420.500	-20.856	-0.040	0.025
-419.486	-31.607	0.119	0.067
-418.471	440.688	-0.114	-0.249
-417.457	192.581	-0.027	-0.040
-416.442	-200.000	0.035	0.185
-415.428	149.182	0.178	-0.241
-414.413	89.274	0.021	0.024
-413.398	800.000	-0.036	-0.124
-412.384	-111.415	-0.175	-0.036
-411.369	-200.000	-0.001	0.028
-410.355	454.042	-0.094	0.208
-409.340	-65.503	0.143	-0.057
-408.325	183.115	0.157	0.233
-407.311	-42.670	0.130	0.066
-406.296	-99.406	-0.112	0.028
-405.282	-71.070	0.034	0.013
-404.267	19.332	0.033	-0.026
-403.252	-200.000	-0.035	0.212
-402.238	-112.066	0.123	-0.025
-401.223	60.227	-0.274	-0.271
-400.209	800.000	0.027	0.094
-399.194	-48.416	-0.193	-0.093
-398.179	443.371	-0.061	-0.133
-397.165	122.641	-0.184	-0.231
-396.150	125.771	-0.044	0.055
-395.136	-200.000	0.069	0.479
-394.121	-17.591	0.109	0.068
-393.106	-73.470	0.221	0.081
-392.092	144.791	-0.066	0.088
-391.077	52.557	-0.147	-0.140
-390.063	-11.160	-0.116	0.077
-389.048	-200.000	-0.030	-0.140
-388.033	-200.000	0.002	-0.019
-387.019	94.415	0.152	0.173
-386.004	-200.000	-0.019	0.271
-384.990	-110.541	-0.096	-0.020
-383.975	190.534	-0.141	0.212
-382.960	-158.474	0.337	0.019
-381.946	-101.625	0.279	0.068
-380.931	-163.359	-0.299	0.014
-379.917	-200.000	0.049	-0.524
-378.902	134.419	0.201	0.260
-377.888	70.383	0.083	-0.086
-376.873	800.000	-0.014	0.058
-375.858	14.878	0.296	-0.232
-374.844	425.499	-0.111	0.240
-373.829	-200.000	-0.013	0.074
-372.815	739.572	0.044	0.118
-371.800	4.480	-0.198	-0.145
-370.785	-136.060	0.209	0.025
-369.771	47.779	-0.065	-0.060
-368.756	-164.126	0.262	-0.012
-367.742	-26.104	-0.523	0.307
-366.727	-154.531	-0.279	-0.019
-365.712	261.915	-0.089	0.154
-364.698	9.547	0.221	0.167
-363.683	-79.426	0.134	-0.045
-362.669	36.942	-0.283	-0.250
-361.654	-144.760	0.325	0.030
-360.639	-200.000	-0.027	-0.361
-359.625	-111.577	-0.157	-0.032
-358.610	-182.544	0.489	0.009
-357.596	271.400	0.183	0.322
-356.581	-143.128	-0.241	-0.023
-355.566	262.414	-0.107	0.186
-354.552	-28.670	0.146	-0.084
-353.537	73.471	-0.124	0.130
-352.523	-121.281	-0.138	-0.023
-351.508	235.306	0.179	-0.295
-350.493	-200.000	0.006	-0.261
-349.479	279.413	-0.139	0.248
-348.464	115.108	0.321	0.391
-347.450	224.393	0.019	0.030
-346.435	-1.944	-0.154	0.108
-345.420	-145.179	0.164	0.015
-344.406	-88.064	-0.360	-0.108
-343.391	-190.443	-0.227	-0.002
-342.377	-200.000	0.032	0.380
-341.362	44.505	0.337	0.309
-340.348	9.777	0.261	-0.198
-339.333	228.644	0.214	-0.349
-338.318	780.089	-0.013	0.035
-337.304	26.414	0.048	0.040
-336.289	25.029	0.135	-0.111
-335.275	-200.000	0.005	0.043
-334.260	800.000	-0.158	0.491
-333.245	113.029	0.222	0.268
-332.231	-108.192	-0.195	0.042
-331.216	42.107	0.193	0.175
-330.202	-200.000	-0.013	0.211
-329.187	66.503	-0.226	-0.229
-328.172	-26.522	-0.092	0.054
-327.158	-22.738	0.099	-0.060
-326.143	-71.263	-0.129	-0.048
-325.129	329.876	-0.023	-0.045
-324.114	-94.774	0.131	0.036
-323.099	524.085	-0.031	0.073
-322.085	162.620	-0.307	-0.430
-321.070	800.000	0.051	0.164
-320.056	-125.454	0.130	-0.020
-319.041	1.756	0.240	-0.173
-318.026	138.558	0.130	0.170
-317.012	-200.000	0.037	-0.263
-315.997	-79.665	-0.272	-0.091
-314.983	-200.000	-0.008	-0.165
-313.968	800.000	-0.041	-0.139
-312.953	8.393	0.226	-0.169
-311.939	163.441	-0.133	-0.187
-310.924	800.000	0.086	0.301
-309.910	800.000	-0.053	-0.169
-308.895	-181.529	-0.163	0.003
-307.880	-162.349	0.202	0.010
-306.866	-29.012	-0.301	-0.172
-305.851	101.624	0.149	0.173
-304.837	202.564	0.242	-0.373
-303.822	66.361	-0.156	0.158
-302.807	-200.000	0.002	0.321
-301.793	-200.000	-0.028	0.124
-300.778	-200.000	0.025	-0.272
-299.764	58.309	0.131	-0.128
-298.749	151.575	-0.158	0.215
-297.735	-64.542	0.193	0.078
-296.720	450.259	-0.034	-0.076
-295.705	-166.729	0.229	-0.009
-294.691	-164.842	-0.303	0.014
-293.676	-73.933	-0.226	0.082
-292.662	704.780	-0.011	-0.028
-291.647	123.006	-0.198	-0.247
-290.632	18.972	-0.338	-0.270
-289.618	-200.000	0.012	-0.142
-288.603	-19.752	0.157	0.097
-287.589	-200.000	-0.018	-0.482
-286.574	-123.813	0.197	0.031
-285.559	395.115	-0.068	0.141
-284.545	96.821	-0.041	0.046
-283.530	129.966	-0.150	0.191
-282.516	-200.000	-0.018	-0.080
-281.501	-142.543	0.077	0.007
-280.486	-94.834	-0.088	-0.024
-279.472	793.969	-0.098	0.268
-278.457	40.773	-0.082	0.074
-277.443	162.762	0.167	-0.233
-276.428	57.951	0.117	0.114
-275.413	-200.000	0.019	0.328
-274.399	800.000	0.120	-0.395
-273.384	128.302	-0.052	0.066
-272.370	-57.083	0.157	-0.069
-271.355	-12.081	0.323	0.211
-270.340	-18.841	-0.359	0.223
-269.326	-200.000	0.035	0.270
-268.311	800.000	0.049	-0.187
-267.297	-145.487	0.152	-0.014
-266.282	75.283	0.041	-0.043
-265.267	-87.503	0.201	0.060
-264.253	-71.119	0.153	0.057
-263.238	-71.365	0.329	-0.123
-262.224	102.649	0.251	0.293
-261.209	275.653	0.112	0.197
-260.195	-182.889	0.144	0.003
-259.180	-200.000	-0.010	0.126
-258.165	4.234	0.108	-0.079
-257.151	1.981	-0.270	-0.194
-256.136	269.983	0.181	0.316
-255.122	800.000	-0.045	-0.175
-254.107	222.368	-0.262	0.420
-253.092	703.511	-0.079	-0.206
-252.078	30.806	-0.149	0.127
-251.063	217.984	0.119	-0.189
-250.049	-200.000	-0.027	0.177
-249.034	-10.806	0.202	0.133
-248.019	-200.000	-0.021	-0.111
-247.005	-96.762	-0.045	-0.012
-245.990	29.719	-0.127	-0.108
-244.976	-200.000	0.033	-0.215
-243.961	-29.575	0.106	-0.060
-242.946	13.868	0.069	-0.053
-241.932	-89.538	0.347	-0.101
-240.917	-4.314	0.240	-0.165
-239.903	-139.981	-0.143	0.015
-238.888	43.241	-0.077	0.070
-237.873	29.374	-0.134	0.113
-236.859	465.929	-0.151	-0.337
-235.844	-200.000	0.001	-0.010
-234.830	-200.000	-0.051	0.238
-233.815	4.535	0.277	0.202
-232.800	128.749	-0.233	-0.296
-231.786	-12.820	-0.383	0.249
-230.771	-68.170	0.060	-0.023
-229.757	453.962	0.032	0.070
-228.742	-200.000	0.025	-0.270
-227.727	43.660	-0.082	-0.075
-226.713	-200.000	0.016	0.117
-225.698	-27.496	0.347	0.200
-224.684	-135.772	0.180	-0.021
-223.669	-79.109	0.107	0.036
-222.655	-86.753	-0.096	0.029
-221.640	-200.000	-0.019	-0.246
-220.625	-75.587	0.320	0.113
-219.611	-153.445	0.092	-0.006
-218.596	-33.643	-0.024	0.013
-217.582	163.939	-0.120	0.168
-216.567	459.985	0.141	-0.311
-215.552	149.472	-0.185	-0.249
-214.538	-200.000	0.007	-0.368
-213.523	316.524	-0.147	0.277
-212.509	22.524	0.300	-0.244
-211.494	800.000	0.048	0.204
-210.479	-39.199	-0.040	-0.021
-209.465	-200.000	-0.025	-0.184
-208.450	107.038	-0.048	-0.057
-207.436	516.653	-0.042	-0.097
-206.421	33.823	-0.116	-0.100
-205.406	800.000	0.075	-0.323
-204.392	-41.383	-0.126	-0.064
-203.377	425.392	0.273	0.584
-202.363	800.000	0.055	0.219
-201.348	123.868	-0.120	-0.150
-200.333	-29.353	0.309	0.176
-199.319	-51.152	0.280	0.131
-198.304	104.230	-0.026	-0.030
-197.290	-109.996	-0.189	0.039
-196.275	371.917	-0.159	-0.321
-195.260	-200.000	0.022	-0.108
-194.246	351.527	-0.053	-0.103
-193.231	-11.165	-0.214	-0.140
-192.217	-200.000	-0.061	-0.293
-191.202	-141.717	-0.224	-0.022
-190.187	6.870	-0.162	0.120
-189.173	22.439	0.181	-0.147
-188.158	-94.987	0.286	-0.077
-187.144	-110.402	-0.159	-0.033
-186.129	-146.299	0.098	0.009
-185.114	-17.442	-0.308	-0.192
-184.100	-47.419	-0.157	-0.076
-183.085	-200.000	0.127	-0.001
-182.071	151.594	0.210	0.284
-181.056	800.000	0.116	0.321
-180.042	-117.556	-0.584	-0.105
-179.027	75.353	0.209	0.219
-178.012	-171.570	0.151	0.005
-176.998	71.302	-0.120	-0.123
-175.983	-73.948	-0.035	0.013
-174.969	161.696	-0.054	-0.075
-173.954	-200.000	-0.006	-0.098
-172.939	39.726	0.289	0.257
-171.925	124.979	0.189	0.237
-170.910	-200.000	-0.033	-0.150
-169.896	-25.963	-0.219	0.128
-168.881	509.141	-0.076	0.175
-167.866	107.881	0.052	0.061
-166.852	-200.000	0.026	-0.139
-165.837	-60.537	-0.181	-0.076
-164.823	-16.826	0.170	0.106
-163.808	800.000	-0.051	0.178
-162.793	2.784	0.127	0.091
-161.779	-130.777	0.096	-0.013
-160.764	800.000	-0.033	0.094
-159.750	-27.664	-0.160	-0.092
-158.735	306.985	0.059	-0.109
-157.720	-31.556	0.145	0.081
-156.706	-200.000	0.092	0.000
-155.691	-167.843	-0.169	-0.007
-154.677	-200.000	0.057	-0.262
-153.662	800.000	-0.069	-0.224
-152.647	-132.730	-0.214	-0.027
-151.633	-200.000	0.022	-0.154
-150.618	-66.064	-0.157	-0.062
-149.604	14.264	0.186	-0.144
-148.589	229.917	0.122	0.198
-147.574	21.284	-0.176	-0.142
-146.560	-7.832	0.068	-0.045
-145.545	654.403	0.156	0.398
-144.531	63.612	0.101	0.100
-143.516	100.190	0.148	-0.170
-142.502	-60.938	-0.355	-0.149
-141.487	62.859	-0.179	0.178
-140.472	800.000	0.039	-0.125
-139.458	800.000	0.030	0.084
-138.443	191.031	0.100	0.149
-137.429	578.631	-0.205	0.497
-136.414	-49.091	0.054	0.026
-135.399	-29.194	0.208	0.118
-134.385	-61.156	-0.124	0.052
-133.370	191.357	-0.059	-0.088
-132.356	-106.983	0.457	0.100
-131.341	800.000	0.029	-0.128
-130.326	542.783	0.099	-0.233
-129.312	-81.760	0.396	-0.129
-128.297	-4.474	-0.183	-0.125
-127.283	132.304	0.129	-0.165
-126.268	43.161	0.328	-0.297
-125.253	-200.000	-0.015	-0.155
-124.239	642.840	0.093	-0.234
-123.224	81.706	0.156	-0.167
-122.210	-80.751	0.183	0.060
-121.195	94.812	0.102	0.115
