DTS Sentinel unit serial number:	SN413079Multiplexer serial number:	ORYXHardware model number:	OX4-SRSoftware version number:	ORYX F/W v4.00 Oryx Data Collector v3.7.2.0data status	okinstallation	princeton_trtdifferential loss correction	single-endedforward channel	channel 3reverse channel	N/Adate	2019/09/18time	21:04:35forward acquisition time	60.00reverse acquisition time	0.00gamma	496.2192k internal	0.2344k external	0.2344temperature offset calibration	1.0010default loss term (dB/km)	0.3790temperature slope calibration	1.0000multiplexer offset coefficient	1.0000multiplexer slope coefficient	1.0000fibre end	0.00T internal ref (°C)	26.33T ext. ref 1 (°C)	1.11T ext. ref 2 (°C)	18.08length (m)	temperature (°C)	Stokes	anti-Stokes-747.200	-102.716	0.225	0.054
-746.185	15.087	-0.374	0.293
-745.171	-10.981	0.132	0.087
-744.156	-44.510	-0.182	-0.091
-743.142	800.000	0.124	-0.351
-742.127	800.000	-0.053	-0.161
-741.112	-184.068	-0.127	0.002
-740.098	-200.000	0.017	0.278
-739.083	125.387	0.213	-0.269
-738.069	131.777	-0.266	0.342
-737.054	-114.412	0.290	0.056
-736.039	-103.569	0.252	-0.059
-735.025	314.774	0.186	0.351
-734.010	-200.000	-0.064	-0.346
-732.996	-200.000	0.026	-0.141
-731.981	108.242	-0.185	0.220
-730.966	260.696	-0.160	-0.278
-729.952	800.000	-0.125	0.430
-728.937	-96.726	0.281	0.074
-727.923	-75.423	-0.148	-0.053
-726.908	251.171	0.021	-0.036
-725.894	800.000	0.041	-0.173
-724.879	-200.000	0.015	-0.105
-723.864	800.000	-0.068	0.263
-722.850	-200.000	0.056	-0.273
-721.835	327.343	-0.301	-0.576
-720.821	14.523	0.137	0.107
-719.806	800.000	-0.067	-0.202
-718.791	-71.775	0.394	0.147
-717.777	246.818	0.108	-0.181
-716.762	-200.000	-0.014	-0.388
-715.748	243.481	0.222	-0.372
-714.733	-10.846	-0.168	0.111
-713.718	-101.380	0.240	0.058
-712.704	-64.162	0.111	0.045
-711.689	-200.000	-0.080	-0.359
-710.675	277.451	0.216	0.384
-709.660	-100.763	-0.275	0.068
-708.645	5.411	-0.232	0.171
-707.631	-11.425	0.090	0.059
-706.616	-106.123	-0.067	-0.015
-705.602	-150.007	-0.069	0.005
-704.587	-118.272	-0.149	0.026
-703.572	67.397	0.167	-0.170
-702.558	630.011	0.032	-0.082
-701.543	-200.000	-0.011	0.291
-700.529	-200.000	-0.054	-0.000
-699.514	178.454	-0.250	-0.365
-698.499	-127.985	-0.079	0.011
-697.485	6.293	0.179	-0.133
-696.470	28.822	-0.229	-0.194
-695.456	-200.000	0.063	0.320
-694.441	-200.000	0.013	0.306
-693.426	284.875	-0.038	-0.069
-692.412	-200.000	0.016	0.186
-691.397	106.305	0.144	0.170
-690.383	-48.996	-0.384	-0.184
-689.368	-200.000	-0.018	0.132
-688.354	-200.000	-0.032	-0.227
-687.339	113.730	-0.107	-0.130
-686.324	-50.702	0.350	0.165
-685.310	-172.101	0.066	0.002
-684.295	53.905	-0.301	-0.289
-683.281	39.328	-0.202	-0.180
-682.266	-106.529	0.278	-0.062
-681.251	800.000	0.067	-0.237
-680.237	-194.754	-0.195	0.002
-679.222	-200.000	-0.070	-0.000
-678.208	716.929	-0.092	0.244
-677.193	-200.000	-0.032	-0.387
-676.178	-56.540	0.014	-0.006
-675.164	691.011	-0.110	0.287
-674.149	-141.859	0.167	0.017
-673.135	-31.132	-0.290	0.163
-672.120	85.508	-0.284	0.311
-671.105	29.882	0.138	0.117
-670.091	10.117	-0.081	-0.062
-669.076	-138.109	0.265	0.029
-668.062	-200.000	-0.006	0.042
-667.047	-136.751	0.135	-0.016
-666.032	-91.116	0.228	0.065
-665.018	479.778	-0.060	0.136
-664.003	-200.000	0.021	-0.193
-662.989	-200.000	0.030	-0.191
-661.974	116.544	0.202	0.248
-660.959	-200.000	0.013	0.177
-659.945	501.985	0.115	-0.264
-658.930	528.874	0.187	-0.440
-657.916	48.978	-0.184	0.172
-656.901	-200.000	-0.047	-0.492
-655.886	-98.542	0.424	-0.108
-654.872	-200.000	-0.039	0.339
-653.857	172.683	0.247	-0.354
-652.843	-99.093	-0.474	-0.120
-651.828	58.635	0.222	0.218
-650.814	-131.076	-0.545	-0.072
-649.799	192.509	0.134	-0.201
-648.784	-47.102	-0.085	-0.041
-647.770	52.977	-0.108	0.103
-646.755	-25.222	-0.183	-0.108
-645.741	800.000	-0.047	-0.170
-644.726	-53.997	0.176	-0.080
-643.711	432.861	-0.028	-0.062
-642.697	752.316	0.155	0.417
-641.682	765.676	0.147	0.399
-640.668	163.606	-0.077	0.108
-639.653	-53.671	-0.155	0.070
-638.638	53.770	0.038	0.036
-637.624	-105.018	-0.144	0.033
-636.609	-92.423	0.129	-0.036
-635.595	229.692	0.073	-0.119
-634.580	150.833	-0.085	-0.115
-633.565	-58.760	0.147	0.063
-632.551	-200.000	-0.016	0.096
-631.536	-16.089	-0.115	-0.073
-630.522	42.879	-0.162	0.147
-629.507	-138.619	-0.122	-0.013
-628.492	287.374	-0.054	-0.097
-627.478	97.368	-0.211	0.241
-626.463	800.000	-0.023	0.074
-625.449	-83.915	0.162	-0.051
-624.434	-77.615	-0.304	-0.105
-623.419	-142.407	0.176	0.017
-622.405	37.560	0.263	0.232
-621.390	800.000	-0.035	0.119
-620.376	1.802	-0.235	-0.169
-619.361	-106.144	0.082	0.018
-618.346	-90.030	-0.245	-0.071
-617.332	23.038	-0.083	-0.068
-616.317	93.092	0.053	-0.060
-615.303	800.000	0.071	-0.279
-614.288	32.207	0.264	0.227
-613.273	-193.723	0.110	0.001
-612.259	199.402	-0.200	-0.306
-611.244	-200.000	0.019	0.160
-610.230	115.594	-0.164	0.200
-609.215	42.175	-0.306	0.277
-608.201	-43.770	0.046	-0.023
-607.186	-49.850	0.059	0.028
-606.171	-44.102	0.184	0.092
-605.157	365.832	-0.089	0.179
-604.142	-97.166	-0.271	-0.071
-603.128	258.212	0.075	-0.128
-602.113	245.202	0.152	0.254
-601.098	113.703	-0.166	0.201
-600.084	-132.976	-0.230	-0.029
-599.069	260.233	0.069	-0.119
-598.055	-15.937	0.200	0.127
-597.040	-117.073	-0.130	-0.024
-596.025	-200.000	-0.018	-0.285
-595.011	380.108	-0.051	0.105
-593.996	-53.589	-0.275	0.125
-592.982	118.195	-0.163	-0.200
-591.967	257.593	0.177	0.303
-590.952	-200.000	0.012	0.145
-589.938	178.516	-0.143	0.207
-588.923	-15.547	-0.177	-0.113
-587.909	800.000	-0.091	0.254
-586.894	252.202	0.028	-0.047
-585.879	123.038	0.066	0.082
-584.865	-69.024	0.194	0.074
-583.850	-200.000	0.009	0.088
-582.836	-200.000	0.001	0.015
-581.821	800.000	-0.036	0.118
-580.806	-200.000	-0.008	0.049
-579.792	628.061	-0.116	-0.291
-578.777	-109.008	-0.195	0.041
-577.763	-200.000	0.002	0.224
-576.748	249.691	-0.132	0.223
-575.733	-112.365	-0.107	0.021
-574.719	45.579	-0.114	-0.105
-573.704	51.951	0.253	-0.239
-572.690	-200.000	0.008	-0.163
-571.675	-57.249	0.337	-0.147
-570.661	-88.493	-0.205	0.061
-569.646	-107.901	-0.264	0.057
-568.631	-37.035	-0.072	-0.039
-567.617	-171.667	0.297	-0.010
-566.602	-200.000	0.012	0.197
-565.588	182.949	-0.222	-0.325
-564.573	-115.229	-0.102	-0.019
-563.558	-140.609	-0.142	-0.015
-562.544	-58.079	-0.200	-0.087
-561.529	60.272	-0.299	-0.294
-560.515	132.339	0.209	0.267
-559.500	-199.441	-0.098	0.001
-558.485	-200.000	0.027	-0.465
-557.471	430.896	0.012	-0.025
-556.456	-14.288	0.486	0.311
-555.442	-200.000	0.011	-0.216
-554.427	381.111	-0.151	0.309
-553.412	-57.081	0.007	-0.003
-552.398	800.000	0.012	0.039
-551.383	-33.435	-0.175	-0.096
-550.369	-33.590	-0.065	-0.036
-549.354	218.162	0.077	0.121
-548.339	-188.270	-0.138	-0.002
-547.325	306.915	-0.143	0.265
-546.310	-71.784	0.217	-0.080
-545.296	-200.000	0.073	0.400
-544.281	786.854	0.066	0.180
-543.266	-50.996	0.214	0.100
-542.252	276.972	-0.052	-0.092
-541.237	458.745	-0.099	-0.218
-540.223	-200.000	-0.051	-0.241
-539.208	1.414	-0.089	-0.064
-538.193	-164.756	-0.240	0.011
-537.179	75.502	-0.252	-0.265
-536.164	137.896	-0.135	0.176
-535.150	25.635	-0.036	0.030
-534.135	-25.659	-0.265	-0.155
-533.121	125.650	-0.187	-0.234
-532.106	800.000	0.033	0.100
-531.091	68.930	0.274	0.279
-530.077	353.235	-0.101	-0.198
-529.062	-200.000	0.002	0.024
-528.048	254.402	0.151	-0.256
-527.033	-74.517	-0.237	0.085
-526.018	275.040	0.153	0.269
-525.004	-108.934	0.119	-0.025
-523.989	165.986	0.199	-0.280
-522.975	24.239	0.243	0.199
-521.960	219.881	0.092	0.146
-520.945	-47.617	-0.201	0.097
-519.931	-200.000	-0.005	0.074
-518.916	-22.677	-0.206	-0.123
-517.902	-200.000	0.219	0.000
-516.887	-79.135	-0.283	-0.095
-515.872	-200.000	0.004	-0.407
-514.858	-200.000	0.094	-0.000
-513.843	295.966	-0.079	-0.143
-512.829	5.608	0.057	0.041
-511.814	-15.551	0.216	0.137
-510.799	-43.676	0.261	-0.131
-509.785	71.626	0.200	0.206
-508.770	-109.157	-0.083	-0.017
-507.756	249.110	0.057	-0.097
-506.741	800.000	0.076	0.235
-505.726	-131.117	-0.170	0.022
-504.712	150.237	-0.237	0.318
-503.697	-108.561	-0.361	0.077
-502.683	-151.718	-0.273	0.020
-501.668	617.626	0.059	-0.147
-500.653	800.000	-0.057	-0.177
-499.639	-200.000	0.017	-0.146
-498.624	-104.809	0.336	0.077
-497.610	-125.821	0.202	-0.030
-496.595	-103.675	-0.291	-0.068
-495.581	482.930	0.077	-0.173
-494.566	-114.588	0.184	0.035
-493.551	149.498	-0.089	-0.119
-492.537	-33.701	-0.120	-0.065
-491.522	423.674	0.041	-0.088
-490.508	800.000	-0.018	-0.056
-489.493	-153.641	0.275	-0.019
-488.478	-96.877	-0.426	0.111
-487.464	-115.720	-0.197	-0.037
-486.449	69.093	-0.183	-0.186
-485.435	694.370	-0.194	0.503
-484.420	337.330	-0.150	-0.288
-483.405	34.939	0.298	0.259
-482.391	28.002	0.145	-0.121
-481.376	195.602	-0.164	-0.247
-480.362	-200.000	0.006	0.042
-479.347	-200.000	-0.009	0.095
-478.332	-160.796	0.188	0.010
-477.318	545.201	-0.061	-0.144
-476.303	-80.520	0.117	-0.039
-475.289	-200.000	0.034	0.172
-474.274	-200.000	0.009	0.089
-473.259	-11.795	0.373	-0.242
-472.245	-122.956	0.194	0.031
-471.230	103.707	-0.202	-0.235
-470.216	-64.478	-0.096	0.038
-469.201	-200.000	0.024	0.205
-468.186	772.547	0.039	-0.104
-467.172	327.132	-0.093	0.177
-466.157	800.000	-0.055	0.153
-465.143	-200.000	-0.041	0.265
-464.128	54.178	-0.167	0.159
-463.113	239.842	-0.051	-0.084
-462.099	-89.666	0.068	-0.020
-461.084	-51.530	0.049	-0.023
-460.070	800.000	0.036	0.106
-459.055	-102.852	0.084	0.020
-458.040	-103.107	-0.252	-0.059
-457.026	130.886	-0.168	-0.214
-456.011	100.277	0.058	-0.067
-454.997	800.000	-0.106	-0.289
-453.982	-200.000	-0.015	-0.263
-452.968	-67.572	0.089	0.035
-451.953	800.000	-0.053	-0.150
-450.938	-113.468	0.172	-0.033
-449.924	-200.000	0.005	-0.086
-448.909	-8.438	-0.137	-0.091
-447.895	-155.580	0.369	-0.024
-446.880	-52.256	-0.133	-0.061
-445.865	-47.422	0.287	-0.138
-444.851	369.209	0.055	0.110
-443.836	-200.000	0.001	0.034
-442.822	297.634	-0.051	-0.092
-441.807	291.576	-0.272	-0.490
-440.792	157.066	-0.140	-0.192
-439.778	-200.000	0.002	-0.135
-438.763	170.252	-0.126	0.178
-437.749	-129.137	-0.071	0.010
-436.734	-106.269	-0.237	-0.052
-435.719	-7.775	0.168	-0.112
-434.705	-51.035	0.105	-0.049
-433.690	33.556	-0.251	-0.216
-432.676	-111.484	-0.237	-0.048
-431.661	30.074	0.185	-0.156
-430.646	77.463	0.169	-0.178
-429.632	-0.337	-0.129	0.091
-428.617	9.888	0.336	0.252
-427.603	263.539	0.108	-0.186
-426.588	254.285	-0.083	0.140
-425.573	-79.195	0.353	-0.118
-424.559	-10.732	0.032	-0.021
-423.544	45.282	-0.242	0.221
-422.530	-200.000	0.006	0.368
-421.515	242.021	-0.080	0.132
-420.500	3.711	0.194	-0.140
-419.486	-68.001	-0.216	0.083
-418.471	-173.119	-0.223	-0.007
-417.457	-47.230	0.217	-0.104
-416.442	17.383	-0.030	-0.023
-415.428	-11.570	0.167	-0.108
-414.413	-200.000	-0.026	0.183
-413.398	114.050	0.102	-0.122
-412.384	131.156	0.306	0.389
-411.369	378.406	-0.118	0.239
-410.355	800.000	-0.055	0.154
-409.340	-142.167	-0.266	0.026
-408.325	62.470	-0.134	-0.133
-407.311	-116.154	0.344	-0.063
-406.296	-19.892	-0.054	0.033
-405.282	-131.157	-0.179	0.023
-404.267	800.000	-0.060	-0.189
-403.252	-88.957	-0.489	0.143
-402.238	83.841	0.198	0.214
-401.223	330.085	0.042	-0.080
-400.209	171.721	-0.069	0.097
-399.194	-200.000	0.072	0.497
-398.179	800.000	-0.036	-0.150
-397.165	-200.000	0.058	-0.295
-396.150	-4.929	0.163	-0.111
-395.136	-20.589	0.234	0.142
-394.121	-46.250	-0.141	-0.068
-393.106	-200.000	0.004	-0.297
-392.092	-65.023	0.308	-0.123
-391.077	-77.826	0.372	-0.127
-390.063	-100.147	-0.264	-0.065
-389.048	-99.855	0.829	0.205
-388.033	-123.980	0.297	-0.046
-387.019	15.168	0.217	0.168
-386.004	-98.113	-0.144	0.037
-384.990	800.000	0.041	0.125
-383.975	-200.000	0.017	0.134
-382.960	121.011	-0.153	-0.188
-381.946	800.000	0.131	-0.370
-380.931	-138.509	0.345	0.037
-379.917	-200.000	-0.012	0.123
-378.902	-177.752	0.166	-0.004
-377.888	114.883	-0.174	-0.210
-376.873	-89.514	-0.140	-0.041
-375.858	-112.159	-0.336	-0.067
-374.844	-37.699	0.213	-0.112
-373.829	-157.930	-0.254	-0.015
-372.815	409.999	-0.044	-0.093
-371.800	-129.996	-0.241	-0.033
-370.785	-61.285	0.095	-0.039
-369.771	-153.192	-0.092	-0.006
-368.756	-177.741	0.140	0.003
-367.742	-200.000	0.186	0.000
-366.727	-200.000	0.011	0.106
-365.712	-22.647	0.343	-0.204
-364.698	-112.511	-0.295	-0.058
-363.683	-46.533	-0.243	-0.117
-362.669	793.891	0.059	-0.161
-361.654	-200.000	-0.006	0.186
-360.639	-23.364	-0.272	0.161
-359.625	329.873	0.043	-0.082
-358.610	42.838	0.162	0.145
-357.596	12.469	0.102	-0.077
-356.581	-17.798	-0.033	0.021
-355.566	-200.000	-0.007	-0.193
-354.552	40.977	0.148	0.132
-353.537	-142.172	-0.121	-0.012
-352.523	75.433	-0.176	-0.183
-351.508	800.000	0.050	0.216
-350.493	26.100	-0.254	0.209
-349.479	-54.164	0.554	-0.248
-348.464	800.000	-0.062	-0.204
-347.450	-139.487	0.690	-0.073
-346.435	-200.000	0.023	-0.174
-345.420	266.139	-0.114	-0.197
-344.406	492.275	-0.161	-0.363
-343.391	236.891	-0.091	0.148
-342.377	3.747	-0.141	-0.102
-341.362	-50.727	-0.181	-0.084
-340.348	-200.000	0.011	0.149
-339.333	-200.000	-0.008	0.231
-338.318	-61.664	-0.204	-0.084
-337.304	214.146	0.082	-0.128
-336.289	79.468	-0.300	0.317
-335.275	5.670	0.133	-0.097
-334.260	-77.244	-0.251	-0.086
-333.245	100.723	-0.116	-0.133
-332.231	-75.193	0.347	0.122
-331.216	-147.755	-0.133	-0.011
-330.202	-26.778	0.319	-0.184
-329.187	38.598	-0.251	0.220
-328.172	800.000	-0.038	-0.120
-327.158	-14.605	-0.226	0.143
-326.143	45.516	0.111	0.101
-325.129	800.000	0.046	0.194
-324.114	374.286	-0.095	0.191
-323.099	800.000	-0.059	-0.199
-322.085	-200.000	-0.001	-0.160
-321.070	800.000	-0.114	0.360
-320.056	105.699	-0.196	0.228
-319.041	-71.025	0.078	0.029
-318.026	800.000	0.029	0.104
-317.012	-52.406	-0.242	0.110
-315.997	-59.629	-0.360	-0.152
-314.983	-53.762	-0.175	0.079
-313.968	69.125	0.067	-0.067
-312.953	800.000	-0.035	-0.130
-311.939	-200.000	0.029	0.144
-310.924	105.272	0.049	0.056
-309.910	-78.124	-0.118	0.040
-308.895	667.644	-0.119	0.302
-307.880	326.051	0.070	0.132
-306.866	-77.484	-0.083	-0.028
-305.851	694.196	-0.145	-0.374
-304.837	-84.336	0.139	-0.043
-303.822	800.000	-0.133	0.482
-302.807	-200.000	0.021	0.204
-301.793	69.787	0.347	0.352
-300.778	-200.000	-0.037	0.260
-299.764	-24.968	0.245	-0.143
-298.749	-200.000	-0.006	-0.115
-297.735	473.612	0.104	0.230
-296.720	-11.867	0.361	-0.233
-295.705	-200.000	-0.016	-0.141
-294.691	30.451	-0.205	-0.172
-293.676	658.017	-0.058	-0.146
-292.662	-200.000	0.027	-0.130
-291.647	-118.826	-0.220	0.038
-290.632	259.800	0.066	-0.112
-289.618	211.191	-0.129	0.199
-288.603	-75.680	0.444	0.155
-287.589	-118.935	-0.223	0.038
-286.574	-180.261	-0.214	-0.004
-285.559	800.000	-0.097	-0.411
-284.545	-6.589	0.127	0.085
-283.530	7.516	0.256	-0.188
-282.516	35.327	0.235	-0.203
-281.501	-200.000	0.008	-0.038
-280.486	731.624	-0.060	-0.158
-279.472	33.742	0.081	-0.070
-278.457	86.229	0.177	-0.191
-277.443	46.074	-0.119	0.108
-276.428	151.004	0.168	-0.224
-275.413	263.948	-0.015	-0.026
-274.399	-48.376	0.201	-0.095
-273.384	416.463	-0.080	0.167
-272.370	184.892	-0.119	0.173
-271.355	250.567	0.085	-0.142
-270.340	290.197	0.121	-0.217
-269.326	104.641	-0.161	-0.186
-268.311	-59.542	0.282	-0.119
-267.297	-200.000	-0.039	-0.192
-266.282	800.000	0.044	0.147
-265.267	-49.822	-0.252	-0.118
-264.253	421.497	-0.118	0.248
-263.238	-53.586	-0.067	0.030
-262.224	159.395	-0.146	0.199
-261.209	-200.000	0.039	-0.201
-260.195	79.888	0.234	-0.247
-259.180	-131.599	-0.205	0.026
-258.165	2.680	-0.099	0.070
-257.151	250.400	-0.098	-0.163
-256.136	-74.800	0.316	-0.111
-255.122	27.583	-0.025	-0.021
-254.107	35.234	-0.110	-0.094
-253.092	83.241	0.187	-0.200
-252.078	-81.295	-0.165	-0.053
-251.063	-139.414	0.454	0.048
-250.049	25.533	-0.170	0.139
-249.034	38.198	0.224	0.196
-248.019	-28.289	0.214	-0.121
-247.005	-196.998	0.080	0.001
-245.990	800.000	-0.017	0.070
-244.976	-117.511	-0.173	0.031
-243.961	58.938	0.215	-0.208
-242.946	-53.611	0.032	-0.014
-241.932	252.885	-0.212	-0.356
-240.917	-97.527	0.340	-0.087
-239.903	-47.985	0.280	-0.133
-238.888	-50.125	0.198	0.092
-237.873	-200.000	-0.004	-0.042
-236.859	-131.315	0.223	-0.029
-235.844	551.318	-0.091	-0.215
-234.830	158.137	0.145	-0.197
-233.815	800.000	0.027	0.088
-232.800	212.051	-0.094	-0.145
-231.786	189.647	0.026	0.039
-230.771	58.050	-0.205	0.197
-229.757	800.000	-0.057	-0.244
-228.742	436.332	-0.099	-0.211
-227.727	-25.031	-0.169	-0.099
-226.713	-2.346	0.148	-0.102
-225.698	800.000	0.011	-0.031
-224.684	-88.750	-0.277	-0.081
-223.669	800.000	-0.144	0.447
-222.655	-98.732	0.183	-0.046
-221.640	800.000	0.058	0.241
-220.625	219.043	-0.069	-0.108
-219.611	-56.292	0.195	-0.085
-218.596	8.855	-0.290	0.214
-217.582	-140.151	0.182	0.019
-216.567	-200.000	0.010	-0.076
-215.552	-167.970	-0.183	0.007
-214.538	17.868	0.335	-0.261
-213.523	122.545	0.097	0.118
-212.509	-24.939	0.080	-0.046
-211.494	-138.546	0.264	-0.028
-210.479	161.698	0.169	0.231
-209.465	-200.000	0.024	0.207
-208.450	-36.978	0.356	0.187
-207.436	20.962	-0.064	0.051
-206.421	-200.000	-0.090	0.572
-205.406	800.000	-0.069	-0.293
-204.392	91.124	0.270	-0.297
-203.377	-62.340	-0.266	0.108
-202.363	38.046	0.162	0.141
-201.348	-118.529	-0.169	0.029
-200.333	-200.000	0.009	0.153
-199.319	-124.121	0.335	0.052
-198.304	21.190	-0.116	-0.092
-197.290	-12.551	0.222	-0.142
-196.275	-121.968	-0.203	-0.033
-195.260	800.000	-0.067	0.227
-194.246	210.381	0.006	0.009
-193.231	159.987	0.089	-0.122
-192.217	42.510	0.103	-0.092
-191.202	599.692	0.063	-0.153
-190.187	-0.687	-0.209	0.145
-189.173	362.801	-0.179	0.351
-188.158	-14.825	0.362	-0.227
-187.144	-104.761	-0.316	0.071
-186.129	322.684	0.040	0.075
-185.114	800.000	0.139	0.437
-184.100	32.216	-0.154	0.130
-183.085	-200.000	-0.028	0.267
-182.071	659.469	-0.076	-0.192
-181.056	-200.000	-0.006	-0.068
-180.042	782.362	-0.051	0.135
-179.027	82.595	0.144	-0.153
-178.012	-57.170	0.200	0.086
-176.998	-118.419	0.370	-0.064
-175.983	-38.093	-0.054	0.028
-174.969	-34.420	-0.320	0.172
-173.954	343.927	-0.158	0.303
-172.939	-141.147	0.127	0.013
-171.925	800.000	0.085	0.333
-170.910	184.631	-0.076	-0.110
-169.896	-117.880	0.193	-0.034
-168.881	139.967	0.120	0.155
-167.866	-56.101	-0.092	0.040
-166.852	800.000	-0.023	0.078
-165.837	-200.000	0.010	0.437
-164.823	-200.000	-0.001	0.201
-163.808	-200.000	-0.024	0.282
-162.793	113.408	-0.142	-0.169
-161.779	51.965	0.303	-0.283
-160.764	754.022	-0.061	-0.161
-159.750	-37.854	0.068	0.035
-158.735	599.020	0.029	0.071
-157.720	-10.829	0.244	-0.158
-156.706	327.180	-0.086	0.161
-155.691	800.000	0.087	0.243
-154.677	-84.541	-0.293	-0.090
-153.662	93.691	-0.129	0.143
-152.647	-33.427	0.068	0.037
-151.633	100.718	0.089	-0.102
-150.618	-200.000	0.020	-0.140
-149.604	-78.763	-0.319	-0.107
-148.589	-41.414	-0.145	-0.073
-147.574	-164.651	-0.233	0.010
-146.560	32.650	0.246	-0.208
-145.545	800.000	0.112	0.314
-144.531	51.879	-0.217	0.202
-143.516	800.000	0.028	-0.077
-142.502	-18.530	0.093	-0.057
-141.487	-38.140	0.090	0.047
-140.472	790.592	0.164	0.440
-139.458	443.734	0.079	0.170
-138.443	-14.365	0.151	-0.095
-137.429	-200.000	-0.073	-0.321
-136.414	-94.895	0.181	-0.048
-135.399	229.860	-0.109	0.173
-134.385	589.030	-0.081	0.195
-133.370	-24.171	-0.100	-0.058
-132.356	-200.000	0.016	-0.234
-131.341	-200.000	0.007	-0.183
-130.326	71.882	0.177	-0.180
-129.312	-8.843	0.215	-0.141
-128.297	-200.000	-0.046	0.236
-127.283	81.348	-0.246	0.260
-126.268	134.763	0.066	0.084
-125.253	-200.000	-0.065	0.287
-124.239	-200.000	-0.015	-0.148
-123.224	-200.000	0.003	0.084
-122.210	228.076	-0.031	-0.050
