DTS Sentinel unit serial number:	SN413079Multiplexer serial number:	ORYXHardware model number:	OX4-SRSoftware version number:	ORYX F/W v4.00 Oryx Data Collector v3.7.2.0data status	okinstallation	princeton_trtdifferential loss correction	single-endedforward channel	channel 3reverse channel	N/Adate	2019/09/16time	16:04:35forward acquisition time	60.00reverse acquisition time	0.00gamma	496.2192k internal	0.2293k external	0.2293temperature offset calibration	0.9945default loss term (dB/km)	0.3790temperature slope calibration	1.0000multiplexer offset coefficient	1.0000multiplexer slope coefficient	1.0000fibre end	0.00T internal ref (°C)	40.89T ext. ref 1 (°C)	14.91T ext. ref 2 (°C)	35.08length (m)	temperature (°C)	Stokes	anti-Stokes-747.200	-67.042	0.121	-0.049
-746.185	77.646	0.248	0.271
-745.171	43.551	0.262	0.245
-744.156	98.132	0.192	0.226
-743.142	-200.000	-0.068	0.318
-742.127	99.528	-0.249	0.294
-741.112	687.415	0.051	0.135
-740.098	-47.392	-0.447	0.223
-739.083	-142.636	-0.187	-0.019
-738.069	148.596	-0.169	0.233
-737.054	-137.742	0.089	-0.010
-736.039	-200.000	0.011	0.203
-735.025	-154.599	0.535	0.036
-734.010	20.683	-0.052	0.043
-732.996	-112.753	-0.090	0.018
-731.981	-31.005	-0.159	-0.092
-730.966	-0.967	0.206	0.149
-729.952	-93.511	-0.060	-0.017
-728.937	-77.498	0.350	-0.124
-727.923	128.051	-0.256	0.333
-726.908	128.913	0.120	-0.156
-725.894	800.000	-0.007	-0.025
-724.879	-148.717	-0.125	-0.010
-723.864	22.626	-0.015	-0.012
-722.850	717.516	-0.089	-0.242
-721.835	-11.579	-0.170	-0.114
-720.821	-150.660	-0.171	0.013
-719.806	-149.562	-0.163	0.013
-718.791	-70.448	-0.185	-0.072
-717.777	26.643	-0.162	0.138
-716.762	530.428	-0.094	-0.228
-715.748	800.000	0.052	-0.174
-714.733	-28.358	0.284	-0.168
-713.718	-57.588	-0.174	-0.078
-712.704	-200.000	0.081	-0.386
-711.689	337.451	-0.122	-0.242
-710.675	-200.000	-0.005	-0.296
-709.660	100.507	0.179	-0.213
-708.645	81.152	-0.185	0.205
-707.631	-200.000	0.054	0.255
-706.616	-95.040	0.039	-0.011
-705.602	-48.911	-0.286	-0.140
-704.587	114.768	-0.148	-0.184
-703.572	15.612	-0.108	-0.086
-702.558	-145.228	-0.109	-0.010
-701.543	331.853	0.122	-0.240
-700.529	250.640	-0.040	-0.070
-699.514	635.739	0.063	0.162
-698.499	193.203	0.192	0.297
-697.485	141.314	-0.171	-0.231
-696.470	-49.536	0.110	-0.053
-695.456	239.550	-0.027	-0.045
-694.441	117.096	-0.186	0.233
-693.426	-20.638	0.454	-0.285
-692.412	284.748	-0.142	-0.262
-691.397	77.631	-0.107	-0.117
-690.383	-200.000	0.043	0.204
-689.368	-200.000	-0.006	0.050
-688.354	217.001	0.132	0.215
-687.339	-200.000	0.025	0.336
-686.324	800.000	0.085	0.302
-685.310	635.943	0.033	-0.085
-684.295	-200.000	0.042	-0.355
-683.281	579.236	-0.065	-0.164
-682.266	-93.684	-0.153	0.043
-681.251	146.676	0.130	-0.178
-680.237	-200.000	0.000	0.422
-679.222	-200.000	-0.038	0.185
-678.208	800.000	-0.038	0.129
-677.193	32.979	-0.149	0.131
-676.178	401.652	-0.020	0.043
-675.164	63.032	0.177	-0.181
-674.149	-35.166	0.157	-0.087
-673.135	58.544	-0.193	-0.193
-672.120	-200.000	0.008	-0.042
-671.105	800.000	-0.078	-0.273
-670.091	77.444	0.143	0.155
-669.076	181.199	-0.230	-0.344
-668.062	-200.000	-0.005	0.081
-667.047	-200.000	0.033	0.207
-666.032	-131.674	-0.421	-0.056
-665.018	-149.020	-0.188	0.015
-664.003	800.000	-0.065	0.258
-662.989	-200.000	0.005	0.139
-661.974	182.500	0.042	-0.063
-660.959	-200.000	0.032	-0.270
-659.945	359.040	0.078	0.159
-658.930	-200.000	-0.055	0.432
-657.916	-200.000	0.009	-0.254
-656.901	-200.000	0.082	0.390
-655.886	-2.832	0.126	0.090
-654.872	-79.378	0.253	-0.087
-653.857	-6.061	-0.396	-0.276
-652.843	-10.108	-0.018	0.012
-651.828	-173.051	0.185	-0.006
-650.814	-200.000	0.029	0.305
-649.799	87.908	0.148	0.167
-648.784	209.710	0.028	-0.045
-647.770	279.962	0.010	0.018
-646.755	181.650	-0.107	-0.160
-645.741	69.589	-0.289	0.304
-644.726	-81.315	-0.213	-0.072
-643.711	172.559	-0.169	-0.248
-642.697	459.749	0.094	0.214
-641.682	-96.975	-0.298	-0.080
-640.668	-134.044	0.213	-0.027
-639.653	278.321	0.136	-0.246
-638.638	-194.274	0.358	0.003
-637.624	-109.028	0.269	0.058
-636.609	-124.681	0.093	0.015
-635.595	152.566	0.233	-0.325
-634.580	298.167	0.132	0.247
-633.565	-17.173	0.129	0.083
-632.551	-46.621	0.200	-0.100
-631.536	-120.059	0.196	0.034
-630.522	16.053	0.172	0.138
-629.507	-97.048	-0.158	0.042
-628.492	800.000	0.028	-0.115
-627.478	-144.576	-0.173	0.016
-626.463	-200.000	0.007	0.453
-625.449	800.000	-0.019	0.058
-624.434	178.113	0.137	0.203
-623.419	-200.000	-0.013	0.258
-622.405	800.000	0.039	0.150
-621.390	-200.000	-0.006	-0.085
-620.376	-24.296	0.499	0.303
-619.361	-177.631	-0.415	-0.010
-618.346	-171.646	-0.203	-0.007
-617.332	-75.701	-0.176	0.064
-616.317	800.000	-0.151	-0.450
-615.303	800.000	0.049	-0.195
-614.288	-99.381	0.063	-0.016
-613.273	38.300	0.149	0.135
-612.259	-200.000	0.025	-0.150
-611.244	800.000	0.062	0.189
-610.230	-200.000	0.049	0.318
-609.215	-99.828	0.098	-0.025
-608.201	-78.098	-0.117	-0.041
-607.186	-102.833	-0.155	-0.037
-606.171	-200.000	0.021	-0.231
-605.157	-178.827	-0.161	-0.004
-604.142	-76.910	-0.062	-0.022
-603.128	354.649	-0.102	0.206
-602.113	19.825	0.171	0.140
-601.098	-8.671	0.158	0.108
-600.084	-200.000	-0.009	-0.085
-599.069	-14.599	-0.148	0.097
-598.055	84.184	-0.036	0.040
-597.040	132.569	-0.150	0.197
-596.025	800.000	-0.096	-0.282
-595.011	237.378	-0.197	-0.333
-593.996	115.531	0.005	0.007
-592.982	92.436	-0.036	0.041
-591.967	-109.521	0.390	0.084
-590.952	-200.000	-0.008	0.051
-589.938	88.030	0.072	-0.081
-588.923	-109.899	0.063	0.013
-587.909	-22.177	-0.307	-0.189
-586.894	-141.020	-0.144	-0.015
-585.879	80.949	-0.086	-0.094
-584.865	468.938	0.028	0.065
-583.850	32.632	-0.200	0.176
-582.836	39.675	0.096	-0.088
-581.821	-70.822	-0.163	-0.062
-580.806	800.000	-0.119	-0.444
-579.792	-200.000	0.014	-0.193
-578.777	-64.503	-0.080	0.033
-577.763	129.606	0.171	0.222
-576.748	-97.122	0.316	-0.084
-575.733	800.000	0.025	-0.097
-574.719	800.000	0.126	-0.390
-573.704	20.284	-0.192	-0.158
-572.690	51.989	-0.239	-0.231
-571.675	-85.114	-0.312	-0.099
-570.661	451.592	0.039	0.087
-569.646	-131.510	0.052	-0.007
-568.631	-115.370	0.319	-0.061
-567.617	-200.000	0.042	0.196
-566.602	-73.301	0.098	0.036
-565.588	800.000	0.151	-0.475
-564.573	33.323	-0.166	-0.147
-563.558	-103.797	-0.144	-0.034
-562.544	-200.000	0.007	-0.137
-561.529	-100.924	-0.163	-0.041
-560.515	-200.000	0.014	0.292
-559.500	800.000	0.028	0.120
-558.485	-23.035	-0.173	0.106
-557.471	82.066	-0.035	-0.039
-556.456	59.400	0.087	0.088
-555.442	304.813	-0.113	0.214
-554.427	51.634	-0.214	-0.207
-553.412	-117.854	-0.299	-0.054
-552.398	-132.923	-0.157	0.020
-551.383	800.000	-0.040	0.128
-550.369	-91.908	0.119	0.034
-549.354	-108.943	0.081	0.018
-548.339	20.948	0.289	0.238
-547.325	-40.358	-0.349	0.184
-546.310	262.403	-0.043	0.075
-545.296	800.000	-0.014	0.056
-544.281	-14.625	-0.220	-0.143
-543.266	53.673	-0.268	0.261
-542.252	-26.887	0.233	0.138
-541.237	-156.674	-0.265	0.017
-540.223	-177.733	0.150	0.004
-539.208	-53.969	-0.183	0.085
-538.193	110.628	-0.053	0.064
-537.179	58.682	0.233	-0.232
-536.164	800.000	-0.064	-0.216
-535.150	-200.000	-0.019	0.212
-534.135	136.310	0.109	0.145
-533.121	314.006	-0.087	0.167
-532.106	-177.575	0.235	-0.006
-531.091	611.853	-0.131	-0.333
-530.077	-89.038	0.166	-0.050
-529.062	-28.637	0.011	0.007
-528.048	111.507	-0.167	0.205
-527.033	125.189	0.202	-0.259
-526.018	-101.805	-0.017	-0.004
-525.004	519.421	-0.066	-0.157
-523.989	-93.930	-0.149	-0.042
-522.975	10.289	0.101	-0.078
-521.960	800.000	0.033	0.123
-520.945	78.493	0.055	0.060
-519.931	-64.740	-0.101	0.041
-518.916	29.501	0.352	0.303
-517.902	258.372	-0.134	-0.235
-516.887	-22.171	-0.080	-0.049
-515.872	-109.446	-0.300	0.064
-514.858	800.000	-0.061	0.174
-513.843	302.355	-0.157	-0.294
-512.829	31.412	0.328	0.286
-511.814	-200.000	-0.019	0.172
-510.799	-121.017	-0.580	0.099
-509.785	-100.085	0.333	0.084
-508.770	800.000	-0.045	-0.165
-507.756	65.132	0.154	0.158
-506.741	110.758	-0.118	-0.144
-505.726	-117.003	-0.426	-0.079
-504.712	-108.950	0.229	0.050
-503.697	108.957	-0.111	-0.135
-502.683	-146.248	-0.382	-0.034
-501.668	631.051	0.047	0.119
-500.653	159.479	-0.037	-0.053
-499.639	-73.604	0.179	0.066
-498.624	72.522	0.131	-0.138
-497.610	-39.696	0.240	-0.127
-496.595	215.218	-0.194	-0.312
-495.581	353.937	-0.175	0.353
-494.566	-155.690	-0.119	-0.008
-493.551	214.783	0.156	-0.251
-492.537	800.000	0.073	0.262
-491.522	-200.000	-0.022	-0.107
-490.508	184.672	0.139	0.208
-489.493	486.993	0.127	-0.294
-488.478	-86.722	0.121	0.037
-487.464	555.882	0.092	0.224
-486.449	-104.594	-0.382	-0.089
-485.435	-200.000	-0.019	-0.275
-484.420	54.197	-0.047	-0.046
-483.405	800.000	0.044	0.186
-482.391	198.904	-0.087	-0.135
-481.376	8.260	-0.189	0.144
-480.362	-17.702	-0.292	0.186
-479.347	-115.434	-0.102	0.019
-478.332	-43.198	-0.105	-0.054
-477.318	800.000	0.019	-0.057
-476.303	-200.000	-0.017	-0.345
-475.289	800.000	-0.058	-0.192
-474.274	83.991	0.157	0.174
-473.259	800.000	-0.078	-0.232
-472.245	-200.000	-0.024	-0.146
-471.230	-200.000	-0.016	0.084
-470.216	-60.567	0.164	0.070
-469.201	8.532	0.124	-0.095
-468.186	-200.000	-0.010	0.199
-467.172	-106.237	0.231	0.052
-466.157	-110.267	0.257	-0.054
-465.143	-65.257	-0.434	0.177
-464.128	21.617	0.096	-0.079
-463.113	-78.199	-0.249	0.087
-462.099	626.357	-0.092	0.235
-461.084	-49.112	-0.099	-0.048
-460.070	-200.000	-0.005	0.121
-459.055	68.865	-0.162	-0.168
-458.040	-170.883	-0.172	-0.006
-457.026	-72.981	-0.127	0.047
-456.011	-45.192	0.139	-0.070
-454.997	204.174	-0.153	-0.240
-453.982	800.000	-0.016	0.055
-452.968	-200.000	-0.038	0.279
-451.953	-89.325	0.164	-0.049
-450.938	-120.778	0.071	-0.012
-449.924	25.006	-0.072	0.060
-448.909	8.827	-0.099	-0.076
-447.895	129.196	0.098	-0.126
-446.880	-172.791	-0.165	-0.005
-445.865	1.172	-0.132	0.096
-444.851	800.000	-0.062	-0.274
-443.836	-85.821	-0.330	0.103
-442.822	379.459	0.142	0.294
-441.807	-59.277	-0.182	-0.079
-440.792	-47.831	-0.176	-0.086
-439.778	-200.000	0.093	-0.437
-438.763	200.288	0.059	-0.092
-437.749	-87.514	-0.310	0.095
-436.734	-57.847	-0.258	-0.114
-435.719	215.257	0.036	-0.058
-434.705	70.430	0.206	0.216
-433.690	-161.726	0.233	-0.012
-432.676	-81.507	-0.241	0.080
-431.661	-200.000	-0.036	0.248
-430.646	-200.000	0.007	-0.126
-429.632	-158.373	0.109	0.006
-428.617	-200.000	0.003	0.218
-427.603	67.503	-0.107	0.111
-426.588	429.214	0.123	-0.270
-425.573	-74.578	-0.365	-0.133
-424.559	613.207	-0.029	0.073
-423.544	-107.253	0.178	0.039
-422.530	-169.209	0.104	-0.004
-421.515	114.536	-0.168	0.206
-420.500	230.865	-0.270	0.446
-419.486	-149.897	0.449	-0.035
-418.471	281.638	-0.159	-0.288
-417.457	-104.865	-0.591	-0.137
-416.442	-115.724	0.242	-0.046
-415.428	800.000	0.023	-0.098
-414.413	-200.000	0.009	0.290
-413.398	17.459	0.126	-0.101
-412.384	541.516	-0.040	-0.097
-411.369	-51.225	0.492	0.233
-410.355	112.455	-0.139	-0.170
-409.340	-200.000	-0.035	-0.183
-408.325	-79.150	-0.392	-0.134
-407.311	363.086	-0.094	-0.191
-406.296	-200.000	-0.002	0.176
-405.282	194.530	0.060	0.091
-404.267	-141.317	0.178	-0.018
-403.252	-200.000	-0.022	-0.143
-402.238	-200.000	0.060	0.415
-401.223	-200.000	0.006	-0.194
-400.209	-200.000	0.017	-0.098
-399.194	8.202	-0.140	0.106
-398.179	800.000	-0.085	-0.246
-397.165	-66.706	0.586	-0.234
-396.150	800.000	0.030	-0.096
-395.136	-39.197	-0.194	-0.103
-394.121	800.000	-0.037	-0.115
-393.106	-6.318	0.223	0.154
-392.092	79.174	-0.061	0.066
-391.077	111.634	-0.247	0.301
-390.063	-83.969	-0.400	0.128
-389.048	74.227	-0.154	-0.163
-388.033	-200.000	-0.016	0.272
-387.019	12.710	-0.089	0.069
-386.004	26.291	-0.297	-0.251
-384.990	-117.440	0.148	-0.027
-383.975	15.636	-0.311	0.247
-382.960	-200.000	-0.021	-0.180
-381.946	86.054	-0.278	-0.308
-380.931	14.299	0.105	-0.083
-379.917	-39.748	-0.159	-0.084
-378.902	76.181	0.199	-0.213
-377.888	684.835	-0.129	-0.340
-376.873	206.672	0.063	0.098
-375.858	215.232	0.093	0.149
-374.844	-138.720	-0.170	0.019
-373.829	-200.000	-0.110	0.567
-372.815	-83.368	-0.175	0.057
-371.800	34.777	0.175	-0.154
-370.785	112.579	0.252	0.307
-369.771	-200.000	0.018	0.233
-368.756	-141.991	-0.343	-0.034
-367.742	160.361	0.121	0.171
-366.727	583.816	0.104	0.256
-365.712	-29.245	0.068	-0.039
-364.698	531.691	-0.115	0.274
-363.683	-200.000	-0.008	-0.082
-362.669	632.533	-0.165	-0.420
-361.654	-200.000	0.035	-0.190
-360.639	543.773	0.067	0.161
-359.625	499.464	-0.040	-0.093
-358.610	-200.000	0.062	0.277
-357.596	5.384	0.027	0.020
-356.581	-105.306	-0.087	-0.020
-355.566	-49.810	-0.332	-0.159
-354.552	800.000	-0.025	0.082
-353.537	800.000	-0.110	-0.407
-352.523	-8.385	0.064	-0.043
-351.508	-200.000	-0.009	0.345
-350.493	-200.000	0.065	-0.403
-349.479	282.415	-0.084	-0.152
-348.464	779.562	-0.076	0.209
-347.450	-12.813	0.252	0.165
-346.435	-154.408	0.261	0.018
-345.420	-5.074	0.066	-0.046
-344.406	-91.041	0.242	-0.070
-343.391	438.790	-0.131	0.287
-342.377	91.541	0.051	0.057
-341.362	501.620	0.166	0.386
-340.348	226.387	0.024	0.040
-339.333	800.000	0.043	0.132
-338.318	184.553	-0.115	-0.172
-337.304	-200.000	0.045	-0.528
-336.289	434.347	0.079	0.173
-335.275	200.468	0.091	-0.141
-334.260	52.312	-0.143	0.137
-333.245	-200.000	-0.022	0.137
-332.231	706.368	-0.059	-0.156
-331.216	-200.000	-0.006	-0.262
-330.202	-200.000	-0.015	0.081
-329.187	-57.953	0.195	0.086
-328.172	-200.000	-0.008	0.159
-327.158	-50.882	0.196	-0.093
-326.143	-200.000	-0.068	-0.586
-325.129	293.674	-0.263	0.483
-324.114	-20.878	0.175	-0.108
-323.099	-23.629	0.261	-0.157
-322.085	-173.936	0.390	0.012
-321.070	800.000	-0.062	0.248
-320.056	-117.841	0.196	0.035
-319.041	800.000	0.031	-0.099
-318.026	-200.000	-0.014	-0.117
-317.012	-160.298	0.271	-0.015
-315.997	140.960	-0.128	0.170
-314.983	-5.513	-0.069	-0.048
-313.968	-21.696	0.166	0.102
-312.953	-101.518	-0.093	0.023
-311.939	-13.327	-0.104	0.068
-310.924	-61.167	0.030	0.013
-309.910	337.993	0.076	-0.148
-308.895	-123.337	-0.328	-0.053
-307.880	517.857	0.132	0.311
-306.866	800.000	0.070	0.223
-305.851	800.000	0.043	-0.143
-304.837	-129.713	-0.062	-0.009
-303.822	-81.927	0.316	0.104
-302.807	-37.325	0.311	0.167
-301.793	800.000	-0.009	0.037
-300.778	632.159	-0.065	-0.166
-299.764	-168.649	-0.144	-0.005
-298.749	-91.842	0.169	0.048
-297.735	-59.135	-0.084	0.036
-296.720	7.085	0.157	0.118
-295.705	100.464	0.134	0.156
-294.691	341.344	-0.140	0.274
-293.676	-200.000	0.019	0.115
-292.662	-169.468	0.108	0.004
-291.647	-200.000	-0.003	0.351
-290.632	40.062	0.037	-0.034
-289.618	74.969	0.205	0.217
-288.603	33.951	-0.129	0.113
-287.589	1.769	-0.215	-0.156
-286.574	-77.679	0.257	-0.089
-285.559	88.766	-0.098	0.110
-284.545	800.000	0.056	0.211
-283.530	-200.000	-0.025	0.255
-282.516	-37.502	0.036	0.019
-281.501	-190.294	0.283	-0.003
-280.486	-45.486	0.106	-0.053
-279.472	-200.000	-0.036	-0.264
-278.457	12.857	0.026	0.020
-277.443	-86.893	-0.083	-0.026
-276.428	440.642	-0.132	0.290
-275.413	-69.649	-0.221	-0.085
-274.399	-121.532	0.123	0.020
-273.384	234.607	0.053	0.087
-272.370	-189.090	0.418	0.005
-271.355	-70.845	-0.071	-0.027
-270.340	411.730	-0.088	-0.189
-269.326	30.156	0.196	0.168
-268.311	-89.437	0.119	-0.035
-267.297	-200.000	0.068	-0.428
-266.282	56.244	0.225	-0.220
-265.267	-200.000	-0.035	-0.452
-264.253	-17.062	0.209	-0.133
-263.238	270.499	-0.087	0.154
-262.224	-189.476	0.180	-0.002
-261.209	-178.521	0.172	0.004
-260.195	-89.605	0.266	-0.078
-259.180	288.374	-0.090	-0.163
-258.165	-78.709	0.164	0.056
-257.151	-200.000	0.025	0.115
-256.136	19.206	0.237	-0.191
-255.122	-200.000	0.007	0.170
-254.107	-87.060	0.212	0.065
-253.092	-200.000	0.019	0.411
-252.078	106.385	0.256	-0.304
-251.063	429.166	0.107	0.232
-250.049	-10.734	-0.195	-0.130
-249.034	64.128	-0.319	0.322
-248.019	39.891	-0.232	0.209
-247.005	788.161	-0.012	0.034
-245.990	-13.046	0.350	-0.229
-244.976	-69.551	0.207	-0.080
-243.961	-91.579	0.150	0.043
-242.946	-114.681	0.148	0.028
-241.932	-200.000	0.008	-0.175
-240.917	-119.465	0.067	-0.012
-239.903	70.425	0.007	-0.007
-238.888	7.192	-0.163	-0.122
-237.873	31.119	-0.221	0.190
-236.859	-200.000	-0.011	-0.220
-235.844	-147.293	-0.176	-0.015
-234.830	145.290	-0.059	-0.080
-233.815	323.166	-0.146	0.279
-232.800	60.682	-0.244	-0.242
-231.786	136.971	-0.026	0.034
-230.771	519.601	-0.026	0.062
-229.757	-200.000	0.028	0.196
-228.742	-200.000	0.037	0.229
-227.727	-66.572	0.275	-0.109
-226.713	-106.034	0.163	0.037
-225.698	-136.842	0.510	-0.059
-224.684	-107.170	-0.018	0.004
-223.669	-119.374	0.083	0.015
-222.655	-200.000	0.024	-0.255
-221.640	565.149	0.107	-0.259
-220.625	15.415	0.250	0.197
-219.611	800.000	0.032	0.090
-218.596	-151.926	0.314	-0.023
-217.582	-108.868	-0.109	-0.023
-216.567	-69.782	-0.276	0.106
-215.552	-132.421	-0.237	-0.031
-214.538	-89.713	-0.319	0.094
-213.523	-45.914	0.028	-0.014
-212.509	256.503	0.078	0.134
-211.494	124.140	0.127	0.160
-210.479	161.436	0.227	-0.318
-209.465	229.124	0.205	0.335
-208.450	627.204	0.124	-0.314
-207.436	83.080	-0.282	-0.308
-206.421	-79.988	0.529	-0.178
-205.406	399.698	-0.075	0.158
-204.392	26.420	0.031	-0.026
-203.377	397.077	-0.063	0.132
-202.363	-200.000	0.033	0.179
-201.348	800.000	-0.055	0.227
-200.333	-13.097	-0.225	-0.147
-199.319	-90.463	0.129	-0.038
-198.304	800.000	-0.044	0.175
-197.290	-200.000	-0.024	-0.138
-196.275	-200.000	-0.026	0.159
-195.260	-18.134	0.072	-0.045
-194.246	-200.000	-0.015	0.185
-193.231	-200.000	0.003	0.064
-192.217	-200.000	0.010	0.071
-191.202	285.230	0.070	-0.126
-190.187	64.112	-0.182	-0.183
-189.173	800.000	0.076	-0.259
-188.158	7.924	-0.048	0.036
-187.144	212.870	-0.092	-0.145
-186.129	-92.747	-0.293	-0.082
-185.114	1.360	-0.121	0.087
-184.100	-200.000	-0.002	-0.166
-183.085	63.627	0.203	-0.204
-182.071	800.000	-0.071	-0.218
-181.056	726.085	-0.074	0.196
-180.042	-200.000	0.014	-0.182
-179.027	-122.679	0.522	-0.085
-178.012	-200.000	-0.025	-0.204
-176.998	-156.700	-0.245	-0.015
-175.983	-11.341	-0.063	-0.042
-174.969	-67.993	0.356	0.139
-173.954	1.083	0.245	-0.176
-172.939	-121.662	-0.195	-0.032
-171.925	-67.358	0.334	0.132
-170.910	800.000	0.107	-0.365
-169.896	56.434	-0.157	-0.153
-168.881	-91.635	-0.195	0.055
-167.866	-200.000	0.051	0.248
-166.852	-17.021	-0.062	0.039
-165.837	800.000	-0.024	0.082
-164.823	672.548	0.056	0.144
-163.808	800.000	-0.106	0.354
-162.793	-200.000	0.016	0.226
-161.779	-85.430	-0.194	-0.060
-160.764	28.339	0.060	0.051
-159.750	38.615	0.133	0.119
-158.735	-49.761	-0.115	-0.055
-157.720	-126.723	-0.352	-0.052
-156.706	-93.679	0.227	0.063
-155.691	800.000	0.152	-0.482
-154.677	150.289	0.058	0.079
-153.662	-38.219	-0.116	0.062
-152.647	800.000	-0.081	-0.343
-151.633	94.030	0.223	-0.253
-150.618	-200.000	0.067	0.337
-149.604	-145.484	-0.068	0.006
-148.589	328.448	-0.089	-0.171
-147.574	-186.350	-0.422	0.006
-146.560	-200.000	-0.001	0.022
-145.545	-98.912	-0.124	0.031
-144.531	123.935	0.048	0.060
-143.516	227.424	0.070	0.114
-142.502	-192.720	-0.208	0.002
-141.487	154.083	0.040	-0.055
-140.472	-168.384	-0.337	-0.013
-139.458	-66.928	-0.061	-0.024
-138.443	192.023	0.018	0.027
-137.429	348.477	-0.011	0.021
-136.414	-200.000	-0.012	-0.068
-135.399	791.120	0.026	-0.071
-134.385	642.030	0.052	-0.131
-133.370	-20.591	-0.234	0.144
-132.356	800.000	-0.146	0.422
-131.341	-123.869	-0.065	-0.010
-130.326	800.000	0.101	0.287
-129.312	412.108	0.127	0.270
-128.297	-32.474	0.236	0.131
-127.283	-76.618	0.029	0.010
-126.268	202.199	-0.138	0.213
-125.253	-33.740	-0.183	-0.101
-124.239	800.000	0.028	-0.106
-123.224	-94.792	0.440	-0.119
-122.210	-200.000	0.006	0.134
