DTS Sentinel unit serial number:	SN413079Multiplexer serial number:	ORYXHardware model number:	OX4-SRSoftware version number:	ORYX F/W v4.00 Oryx Data Collector v3.7.2.0data status	okinstallation	princeton_trtdifferential loss correction	single-endedforward channel	channel 3reverse channel	N/Adate	2019/09/17time	11:48:34forward acquisition time	60.00reverse acquisition time	0.00gamma	496.2192k internal	0.2322k external	0.2322temperature offset calibration	0.9955default loss term (dB/km)	0.3790temperature slope calibration	1.0000multiplexer offset coefficient	1.0000multiplexer slope coefficient	1.0000fibre end	0.00T internal ref (°C)	30.94T ext. ref 1 (°C)	0.40T ext. ref 2 (°C)	26.73length (m)	temperature (°C)	Stokes	anti-Stokes-747.200	389.883	-0.073	-0.153
-746.185	-200.000	-0.073	0.410
-745.171	-200.000	-0.039	0.279
-744.156	-38.865	-0.216	-0.115
-743.142	-67.604	0.282	0.112
-742.127	23.117	-0.243	0.201
-741.112	-86.772	-0.122	0.038
-740.098	-32.232	-0.254	0.143
-739.083	399.553	0.122	-0.258
-738.069	14.777	0.101	-0.080
-737.054	-93.437	-0.432	0.121
-736.039	43.529	-0.256	-0.237
-735.025	-200.000	-0.031	0.238
-734.010	51.105	-0.181	0.173
-732.996	127.264	-0.174	-0.223
-731.981	-200.000	-0.018	-0.097
-730.966	-200.000	0.024	0.251
-729.952	-144.596	-0.284	0.026
-728.937	32.989	-0.261	-0.228
-727.923	440.349	-0.161	0.356
-726.908	800.000	0.019	0.081
-725.894	45.640	-0.071	0.067
-724.879	-119.724	-0.151	-0.026
-723.864	702.580	0.109	0.289
-722.850	63.466	0.131	0.133
-721.835	800.000	-0.125	-0.359
-720.821	27.431	0.245	0.208
-719.806	100.880	-0.153	0.180
-718.791	-19.326	0.228	0.143
-717.777	102.969	-0.166	0.196
-716.762	-200.000	-0.001	-0.116
-715.748	-129.481	-0.171	-0.024
-714.733	248.782	-0.122	0.208
-713.718	329.508	-0.076	0.147
-712.704	210.221	-0.086	0.136
-711.689	-129.183	-0.270	0.038
-710.675	-25.200	-0.178	0.107
-709.660	800.000	0.092	0.285
-708.645	800.000	0.141	0.424
-707.631	-135.387	0.454	0.055
-706.616	53.752	-0.101	-0.098
-705.602	-200.000	0.037	0.204
-704.587	-69.330	0.137	-0.053
-703.572	-13.086	0.198	-0.130
-702.558	-142.041	-0.202	-0.020
-701.543	-200.000	-0.030	-0.238
-700.529	800.000	0.023	0.097
-699.514	782.353	-0.022	0.062
-698.499	47.607	-0.350	0.329
-697.485	-21.696	-0.222	0.136
-696.470	330.723	0.029	-0.056
-695.456	356.335	-0.014	0.029
-694.441	-3.555	-0.142	-0.099
-693.426	33.579	-0.257	0.225
-692.412	800.000	-0.092	-0.319
-691.397	-73.007	0.088	-0.033
-690.383	800.000	-0.150	0.477
-689.368	-90.033	-0.129	0.038
-688.354	-148.944	0.150	0.012
-687.339	-200.000	0.035	-0.267
-686.324	141.645	0.075	0.100
-685.310	-189.965	-0.162	0.002
-684.295	346.662	0.112	0.223
-683.281	-24.756	-0.263	0.158
-682.266	15.929	-0.144	-0.114
-681.251	648.209	0.155	-0.399
-680.237	57.315	0.303	-0.298
-679.222	74.131	0.126	0.133
-678.208	-104.754	-0.276	-0.064
-677.193	-200.000	0.026	-0.174
-676.178	214.604	0.075	0.120
-675.164	-128.055	-0.371	-0.054
-674.149	-200.000	0.004	-0.254
-673.135	-200.000	0.004	-0.125
-672.120	-80.486	-0.351	0.118
-671.105	331.047	0.094	0.183
-670.091	21.831	-0.166	-0.136
-669.076	306.222	0.218	-0.409
-668.062	-65.701	0.323	0.131
-667.047	-7.007	-0.335	-0.229
-666.032	-185.803	0.397	0.006
-665.018	-74.408	-0.114	0.041
-664.003	327.959	0.159	0.306
-662.989	800.000	-0.142	-0.587
-661.974	55.494	0.173	-0.168
-660.959	-152.664	0.396	-0.028
-659.945	23.979	-0.183	0.152
-658.930	37.903	-0.095	0.085
-657.916	-36.652	0.294	0.159
-656.901	450.390	-0.139	0.308
-655.886	-10.957	-0.074	-0.049
-654.872	-200.000	0.025	-0.123
-653.857	-74.002	-0.191	0.070
-652.843	-23.082	0.071	0.043
-651.828	-117.402	0.346	-0.063
-650.814	-36.619	-0.534	0.289
-649.799	-52.249	-0.112	0.052
-648.784	188.231	-0.040	0.061
-647.770	-200.000	-0.053	0.259
-646.755	560.953	0.108	-0.262
-645.741	-200.000	-0.039	0.217
-644.726	-100.788	-0.090	-0.022
-643.711	-200.000	0.007	-0.043
-642.697	-200.000	0.038	0.197
-641.682	800.000	-0.092	-0.287
-640.668	-5.120	-0.082	0.057
-639.653	65.839	0.147	-0.150
-638.638	-4.156	0.103	0.072
-637.624	-85.269	-0.393	-0.123
-636.609	-136.109	0.085	-0.010
-635.595	259.659	0.101	0.176
-634.580	-126.672	-0.340	-0.051
-633.565	-1.055	0.344	-0.245
-632.551	17.138	-0.089	-0.071
-631.536	800.000	0.042	-0.181
-630.522	-200.000	-0.017	0.294
-629.507	169.068	0.128	0.184
-628.492	760.053	0.029	0.080
-627.478	316.059	-0.118	0.224
-626.463	295.246	-0.140	0.257
-625.449	-99.613	-0.401	-0.101
-624.434	190.772	-0.071	0.108
-623.419	-121.378	-0.300	0.050
-622.405	800.000	0.012	-0.034
-621.390	-191.725	0.138	0.001
-620.376	292.071	-0.125	0.229
-619.361	127.831	0.288	0.368
-618.346	-200.000	0.019	0.216
-617.332	-82.782	0.096	0.031
-616.317	57.839	0.207	0.203
-615.303	313.849	-0.021	-0.040
-614.288	-25.374	0.208	0.123
-613.273	-48.000	-0.269	0.131
-612.259	32.625	-0.212	-0.184
-611.244	-90.862	-0.202	0.058
-610.230	-92.034	0.028	0.008
-609.215	800.000	0.038	0.157
-608.201	-176.990	0.084	0.002
-607.186	-69.014	-0.347	-0.134
-606.171	60.754	-0.239	-0.238
-605.157	-100.353	-0.194	-0.048
-604.142	-116.930	0.167	0.031
-603.128	68.251	0.098	0.101
-602.113	-6.748	-0.124	-0.085
-601.098	208.684	-0.089	0.140
-600.084	259.244	0.115	0.200
-599.069	-45.575	0.323	-0.160
-598.055	84.989	0.166	-0.183
-597.040	-151.095	0.236	0.018
-596.025	74.714	0.097	-0.103
-595.011	-36.952	-0.292	0.157
-593.996	12.428	-0.057	0.044
-592.982	-53.280	-0.022	-0.010
-591.967	-151.192	0.103	0.008
-590.952	-124.603	0.173	-0.027
-589.938	360.951	-0.135	0.271
-588.923	357.409	-0.180	-0.361
-587.909	526.068	-0.041	-0.098
-586.894	202.158	-0.155	0.241
-585.879	541.488	0.039	0.093
-584.865	-200.000	0.006	-0.087
-583.850	800.000	0.038	0.152
-582.836	157.418	-0.083	-0.115
-581.821	-200.000	-0.011	-0.196
-580.806	159.945	0.102	0.143
-579.792	-98.993	0.267	-0.068
-578.777	219.076	0.142	-0.228
-577.763	-200.000	-0.075	-0.384
-576.748	240.144	0.082	0.138
-575.733	-65.887	0.217	0.087
-574.719	-41.251	-0.154	-0.080
-573.704	254.876	-0.126	-0.216
-572.690	-129.469	0.151	-0.021
-571.675	370.880	0.233	0.475
-570.661	65.745	0.170	0.173
-569.646	-84.004	0.201	-0.064
-568.631	-114.441	-0.255	-0.049
-567.617	80.820	-0.249	-0.269
-566.602	-20.891	-0.122	0.075
-565.588	-200.000	-0.008	-0.118
-564.573	313.543	-0.139	-0.263
-563.558	-66.912	0.207	-0.082
-562.544	-63.211	-0.041	-0.017
-561.529	-153.046	-0.388	-0.027
-560.515	-200.000	0.073	-0.457
-559.500	230.347	0.168	-0.275
-558.485	151.469	0.183	-0.250
-557.471	-31.975	-0.204	0.114
-556.456	-35.003	-0.174	-0.095
-555.442	-63.799	-0.079	-0.033
-554.427	43.771	0.062	-0.057
-553.412	119.860	0.100	-0.125
-552.398	18.897	-0.151	0.122
-551.383	-49.852	-0.161	0.077
-550.369	7.431	0.327	-0.245
-549.354	-200.000	0.021	-0.244
-548.339	-49.997	-0.164	-0.078
-547.325	-47.532	0.183	-0.089
-546.310	45.290	0.129	0.120
-545.296	-200.000	0.043	-0.228
-544.281	161.244	-0.282	0.395
-543.266	-3.171	-0.079	0.055
-542.252	-122.627	0.554	-0.090
-541.237	-116.795	-0.172	-0.032
-540.223	28.614	-0.229	0.194
-539.208	-200.000	0.008	-0.126
-538.193	276.162	-0.153	-0.273
-537.179	800.000	0.106	-0.393
-536.164	416.392	0.087	-0.185
-535.150	-200.000	-0.009	0.512
-534.135	271.774	-0.114	0.201
-533.121	216.890	0.116	0.185
-532.106	111.487	-0.195	0.236
-531.091	-35.388	0.216	-0.118
-530.077	800.000	0.022	-0.079
-529.062	-2.933	0.168	-0.118
-528.048	164.603	0.143	0.203
-527.033	-65.616	0.226	-0.091
-526.018	-173.887	-0.257	0.008
-525.004	-200.000	0.051	0.292
-523.989	-94.411	-0.184	-0.050
-522.975	-22.270	0.191	-0.116
-521.960	27.765	-0.229	0.193
-520.945	-139.646	0.200	-0.021
-519.931	-200.000	-0.002	-0.050
-518.916	-31.063	-0.276	0.156
-517.902	-76.469	0.233	0.082
-516.887	-101.090	-0.280	-0.069
-515.872	-79.022	-0.310	0.105
-514.858	-200.000	0.037	-0.225
-513.843	81.985	-0.100	0.109
-512.829	-200.000	0.011	-0.168
-511.814	-137.165	0.167	-0.019
-510.799	628.166	-0.035	0.088
-509.785	-200.000	0.028	-0.286
-508.770	800.000	-0.089	0.291
-507.756	-200.000	-0.011	0.134
-506.741	71.148	0.083	0.086
-505.726	-59.312	-0.037	0.016
-504.712	67.365	0.247	-0.252
-503.697	-200.000	0.025	-0.327
-502.683	-172.152	-0.274	-0.009
-501.668	-15.965	-0.359	-0.229
-500.653	528.845	-0.114	-0.268
-499.639	795.826	-0.027	-0.074
-498.624	703.875	0.096	0.252
-497.610	-56.612	0.202	-0.090
-496.595	-200.000	0.036	-0.229
-495.581	-56.331	0.224	0.100
-494.566	27.242	0.018	0.015
-493.551	84.153	0.133	0.145
-492.537	4.609	0.134	-0.098
-491.522	-38.778	-0.262	0.138
-490.508	-68.719	-0.264	0.102
-489.493	-200.000	0.013	0.064
-488.478	-200.000	-0.001	0.095
-487.464	-26.208	-0.244	0.144
-486.449	-80.743	-0.245	0.081
-485.435	-200.000	-0.008	0.113
-484.420	-47.935	-0.224	-0.108
-483.405	-105.068	0.238	-0.055
-482.391	-200.000	-0.075	0.340
-481.376	447.975	-0.099	0.219
-480.362	-200.000	0.012	-0.177
-479.347	-200.000	0.037	-0.312
-478.332	409.124	0.082	0.174
-477.318	90.624	-0.109	-0.122
-476.303	-150.067	-0.268	-0.021
-475.289	26.589	0.175	-0.146
-474.274	-137.089	0.189	0.022
-473.259	153.606	-0.054	-0.074
-472.245	-47.329	-0.075	-0.036
-471.230	800.000	0.083	-0.279
-470.216	-200.000	0.021	0.274
-469.201	459.228	0.145	-0.322
-468.186	800.000	0.111	-0.391
-467.172	535.555	-0.092	-0.219
-466.157	-200.000	-0.064	-0.352
-465.143	185.173	-0.059	-0.088
-464.128	125.566	-0.021	-0.027
-463.113	-16.729	0.274	-0.173
-462.099	519.078	-0.069	0.161
-461.084	800.000	-0.074	0.212
-460.070	-145.525	0.049	-0.004
-459.055	53.245	0.191	-0.183
-458.040	205.331	-0.120	-0.186
-457.026	14.296	0.097	-0.076
-456.011	83.899	-0.246	-0.268
-454.997	800.000	-0.015	-0.045
-453.982	62.664	-0.241	-0.241
-452.968	44.720	0.155	0.142
-451.953	-132.130	0.381	-0.049
-450.938	-200.000	0.001	0.009
-449.924	-91.134	0.078	-0.022
-448.909	103.550	-0.061	0.071
-447.895	-200.000	0.011	0.105
-446.880	-47.490	-0.301	-0.146
-445.865	693.741	0.114	-0.299
-444.851	-130.385	-0.317	0.043
-443.836	39.032	-0.288	0.257
-442.822	-200.000	-0.004	-0.125
-441.807	122.483	-0.084	0.105
-440.792	800.000	0.080	-0.284
-439.778	-65.535	-0.352	0.141
-438.763	-167.666	0.297	0.012
-437.749	188.665	-0.129	-0.192
-436.734	-50.213	0.215	0.102
-435.719	-169.180	0.315	-0.012
-434.705	55.111	-0.175	0.169
-433.690	583.714	0.061	0.149
-432.676	-141.242	0.039	-0.004
-431.661	73.081	-0.051	-0.053
-430.646	3.464	-0.103	-0.075
-429.632	347.282	-0.031	0.060
-428.617	212.204	-0.023	0.036
-427.603	-200.000	-0.039	0.307
-426.588	-200.000	-0.002	-0.165
-425.573	-96.156	-0.283	0.075
-424.559	800.000	0.026	0.099
-423.544	-1.269	-0.365	0.257
-422.530	800.000	-0.052	0.173
-421.515	-171.450	-0.408	0.014
-420.500	-1.674	0.168	-0.118
-419.486	657.813	0.041	0.104
-418.471	800.000	0.018	-0.065
-417.457	-200.000	0.043	-0.222
-416.442	321.085	-0.130	-0.247
-415.428	252.059	0.238	-0.405
-414.413	800.000	0.086	0.252
-413.398	-146.449	-0.066	-0.006
-412.384	-88.297	-0.072	0.022
-411.369	-21.778	0.169	-0.103
-410.355	-53.792	0.447	0.203
-409.340	116.842	0.027	0.033
-408.325	800.000	0.137	0.389
-407.311	-200.000	-0.053	-0.423
-406.296	0.805	0.153	0.109
-405.282	-198.622	-0.380	0.002
-404.267	-100.087	0.069	-0.017
-403.252	249.630	0.028	-0.048
-402.238	321.882	-0.062	0.117
-401.223	-119.002	0.307	-0.054
-400.209	54.353	-0.043	0.042
-399.194	-109.844	-0.326	0.068
-398.179	130.255	0.187	0.239
-397.165	18.978	0.183	-0.146
-396.150	477.600	0.078	0.176
-395.136	-200.000	-0.004	-0.223
-394.121	569.863	-0.011	0.027
-393.106	-21.589	-0.200	0.121
-392.092	29.090	-0.107	0.091
-391.077	-25.746	0.242	0.142
-390.063	329.631	0.226	0.432
-389.048	-200.000	0.023	-0.106
-388.033	800.000	-0.069	-0.207
-387.019	84.959	-0.167	0.182
-386.004	28.872	0.156	0.132
-384.990	0.605	-0.248	0.177
-383.975	104.015	-0.169	-0.198
-382.960	662.280	-0.052	-0.133
-381.946	-67.113	-0.156	0.061
-380.931	-200.000	-0.003	-0.102
-379.917	800.000	-0.077	-0.285
-378.902	-200.000	0.026	-0.170
-377.888	-95.649	-0.386	0.103
-376.873	-116.137	-0.196	-0.036
-375.858	104.675	-0.037	-0.044
-374.844	468.895	0.081	-0.182
-373.829	-40.990	-0.184	0.095
-372.815	800.000	-0.044	-0.148
-371.800	489.720	-0.079	0.181
-370.785	-111.886	-0.303	0.061
-369.771	-112.077	-0.112	0.022
-368.756	-120.170	0.129	-0.022
-367.742	-1.485	-0.216	-0.152
-366.727	75.875	-0.129	-0.136
-365.712	-126.939	0.311	0.046
-364.698	800.000	-0.070	0.247
-363.683	-7.864	0.285	0.191
-362.669	-39.644	-0.272	-0.142
-361.654	800.000	-0.025	-0.098
-360.639	-7.760	-0.276	-0.186
-359.625	800.000	0.024	0.092
-358.610	-107.415	0.193	-0.042
-357.596	-113.619	0.234	-0.045
-356.581	250.391	0.048	-0.082
-355.566	-200.000	-0.041	0.188
-354.552	800.000	-0.052	0.196
-353.537	-162.469	0.053	-0.003
-352.523	115.835	-0.159	0.194
-351.508	-71.057	-0.350	0.131
-350.493	-145.807	0.450	-0.040
-349.479	67.945	-0.044	0.045
-348.464	-50.028	-0.030	-0.014
-347.450	412.887	0.081	-0.172
-346.435	-200.000	-0.009	-0.186
-345.420	-110.232	0.083	0.017
-344.406	200.105	0.131	0.199
-343.391	-200.000	0.053	0.274
-342.377	68.915	0.313	-0.319
-341.362	-200.000	-0.004	-0.048
-340.348	-4.052	-0.229	0.158
-339.333	143.133	0.161	0.213
-338.318	-200.000	-0.025	-0.139
-337.304	-99.405	0.359	-0.090
-336.289	14.557	0.126	0.098
-335.275	800.000	0.088	0.291
-334.260	22.417	-0.113	0.092
-333.245	-69.254	0.391	-0.150
-332.231	-200.000	-0.037	-0.193
-331.216	-39.301	-0.199	-0.104
-330.202	188.363	0.183	0.272
-329.187	350.995	-0.178	0.349
-328.172	-140.876	-0.202	0.021
-327.158	-200.000	0.344	0.001
-326.143	240.350	-0.056	-0.093
-325.129	54.336	0.240	0.230
-324.114	155.387	0.117	-0.160
-323.099	-0.798	-0.099	0.069
-322.085	-200.000	-0.001	0.206
-321.070	91.586	0.092	0.102
-320.056	800.000	0.046	0.140
-319.041	251.947	-0.143	-0.242
-318.026	-160.810	0.050	-0.003
-317.012	-170.335	-0.335	-0.012
-315.997	800.000	-0.129	-0.474
-314.983	-200.000	0.010	0.076
-313.968	-7.027	-0.206	0.139
-312.953	-200.000	-0.007	-0.057
-311.939	339.071	0.032	0.062
-310.924	111.278	0.026	0.031
-309.910	-4.620	-0.387	0.266
-308.895	41.758	0.193	0.174
-307.880	800.000	-0.114	0.359
-306.866	800.000	0.052	0.210
-305.851	-85.650	0.140	0.043
-304.837	68.088	0.160	-0.163
-303.822	56.381	0.263	-0.254
-302.807	-24.042	-0.193	0.115
-301.793	22.534	0.178	-0.145
-300.778	199.333	-0.172	-0.262
-299.764	40.485	0.152	-0.136
-298.749	779.212	0.094	0.256
-297.735	-42.597	-0.126	-0.064
-296.720	-64.164	0.402	-0.163
-295.705	-200.000	-0.213	0.000
-294.691	205.360	0.081	0.124
-293.676	122.662	-0.111	0.138
-292.662	-114.823	0.098	-0.019
-291.647	177.004	-0.080	-0.116
-290.632	-200.000	0.016	0.276
-289.618	90.354	-0.376	-0.417
-288.603	-200.000	-0.004	0.160
-287.589	200.316	0.167	-0.255
-286.574	371.889	0.048	-0.097
-285.559	127.117	0.148	0.186
-284.545	139.875	-0.139	0.182
-283.530	53.922	0.319	0.304
-282.516	-68.278	0.085	0.033
-281.501	38.685	0.129	-0.114
-280.486	276.631	-0.112	0.197
-279.472	-200.000	0.077	-0.376
-278.457	-112.107	0.163	0.033
-277.443	-200.000	-0.046	0.225
-276.428	284.426	0.153	-0.272
-275.413	-149.576	-0.370	-0.029
-274.399	-25.276	0.114	0.067
-273.384	-47.635	-0.231	0.111
-272.370	170.308	0.120	0.170
-271.355	-89.004	0.265	-0.078
-270.340	-63.440	-0.234	0.096
-269.326	23.121	0.394	0.321
-268.311	-84.730	-0.321	0.100
-267.297	-8.610	0.321	-0.214
-266.282	54.848	0.136	-0.130
-265.267	-154.644	0.325	0.021
-264.253	219.397	0.064	0.102
-263.238	424.751	0.088	-0.187
-262.224	-200.000	-0.016	-0.154
-261.209	-200.000	-0.016	0.216
-260.195	288.945	0.057	0.103
-259.180	-100.723	0.136	-0.033
-258.165	-29.268	-0.314	-0.179
-257.151	45.991	0.089	0.082
-256.136	758.162	0.068	-0.183
-255.122	-110.658	-0.213	0.044
-254.107	57.606	-0.061	0.059
-253.092	-87.635	0.245	0.073
-252.078	-200.000	-0.003	-0.055
-251.063	-200.000	-0.061	-0.295
-250.049	-63.404	-0.209	-0.085
-249.034	-141.190	0.237	-0.024
-248.019	6.970	-0.161	-0.119
-247.005	38.725	0.232	0.205
-245.990	-15.804	0.238	0.150
-244.976	-97.969	-0.140	0.036
-243.961	-200.000	-0.014	-0.124
-242.946	118.490	0.367	-0.449
-241.932	56.315	-0.108	-0.104
-240.917	-117.057	-0.123	0.022
-239.903	-110.363	0.149	-0.031
-238.888	11.158	-0.203	0.154
-237.873	-200.000	-0.051	-0.287
-236.859	-111.795	0.206	0.041
-235.844	611.522	-0.246	-0.609
-234.830	-200.000	0.019	0.161
-233.815	6.387	-0.202	0.149
-232.800	-97.099	-0.291	-0.075
-231.786	158.510	0.279	-0.384
-230.771	-200.000	0.033	0.304
-229.757	800.000	0.132	0.450
-228.742	-200.000	0.057	0.337
-227.727	34.695	0.229	-0.198
-226.713	800.000	-0.100	-0.281
-225.698	-200.000	-0.063	-0.306
-224.684	-200.000	0.087	0.490
-223.669	-200.000	-0.011	-0.099
-222.655	184.576	-0.062	0.091
-221.640	-3.823	-0.121	-0.083
-220.625	-101.220	-0.121	0.029
-219.611	-200.000	0.033	-0.301
-218.596	-200.000	-0.007	0.167
-217.582	577.104	-0.126	0.306
-216.567	-74.248	0.052	0.019
-215.552	398.531	0.179	0.371
-214.538	-195.632	0.136	-0.001
-213.523	-55.372	-0.290	-0.129
-212.509	227.018	-0.104	0.167
-211.494	-68.718	0.170	-0.065
-210.479	553.814	0.056	-0.134
-209.465	-200.000	-0.009	-0.390
-208.450	69.553	0.213	0.217
-207.436	-200.000	-0.008	0.043
-206.421	-145.319	0.255	-0.023
-205.406	800.000	-0.029	-0.087
-204.392	-72.436	-0.079	-0.029
-203.377	-200.000	-0.009	0.063
-202.363	800.000	-0.038	0.124
-201.348	120.662	0.248	-0.305
-200.333	-200.000	-0.000	-0.166
-199.319	39.450	0.048	0.042
-198.304	-200.000	-0.013	0.214
-197.290	-200.000	0.095	0.000
-196.275	-41.631	0.060	0.030
-195.260	-200.000	0.015	0.073
-194.246	108.896	-0.268	0.317
-193.231	800.000	-0.045	-0.148
-192.217	417.393	-0.162	0.342
-191.202	684.617	-0.046	-0.120
-190.187	-200.000	-0.041	0.359
-189.173	-200.000	-0.014	0.187
-188.158	-132.998	-0.190	-0.024
-187.144	-200.000	0.004	-0.177
-186.129	-28.866	0.357	0.203
-185.114	246.823	0.132	0.219
-184.100	279.922	-0.165	0.292
-183.085	620.588	0.079	-0.197
-182.071	383.615	-0.095	-0.194
-181.056	101.326	-0.065	0.075
-180.042	39.486	0.245	0.217
-179.027	267.318	0.222	-0.384
-178.012	21.566	-0.171	0.137
-176.998	-74.022	-0.199	-0.071
-175.983	729.292	0.154	-0.407
-174.969	800.000	0.048	0.134
-173.954	90.894	0.115	-0.127
-172.939	50.545	-0.202	-0.189
-171.925	-107.078	0.140	-0.031
-170.910	585.235	0.043	0.104
-169.896	215.122	0.200	-0.313
-168.881	-49.543	-0.323	-0.152
-167.866	-82.627	-0.048	-0.015
-166.852	-0.134	-0.208	0.146
-165.837	-124.094	0.214	-0.033
-164.823	800.000	0.054	0.159
-163.808	-39.851	-0.255	-0.132
-162.793	156.447	-0.012	-0.016
-161.779	800.000	0.052	-0.164
-160.764	-119.417	0.105	0.018
-159.750	-67.600	0.094	-0.037
-158.735	185.417	0.110	0.162
-157.720	-110.100	0.041	0.009
-156.706	-1.028	-0.172	0.120
-155.691	-43.063	-0.059	-0.029
-154.677	58.123	0.288	0.279
-153.662	-86.267	0.189	0.057
-152.647	404.276	-0.076	-0.158
-151.633	177.685	0.356	0.513
-150.618	-200.000	0.044	0.289
-149.604	-200.000	-0.030	0.171
-148.589	-200.000	0.009	-0.055
-147.574	459.076	-0.093	-0.204
-146.560	-139.011	-0.166	-0.018
-145.545	141.433	-0.239	0.313
-144.531	800.000	0.037	-0.156
-143.516	60.612	0.290	-0.283
-142.502	247.888	-0.022	0.036
-141.487	-200.000	-0.018	-0.188
-140.472	-33.036	-0.335	0.184
-139.458	387.172	-0.105	0.215
-138.443	379.179	0.039	0.078
-137.429	-101.639	-0.159	0.038
-136.414	-44.836	-0.106	-0.052
-135.399	800.000	0.042	0.133
-134.385	-47.339	-0.319	0.153
-133.370	477.046	0.122	0.272
-132.356	-200.000	-0.047	0.377
-131.341	800.000	-0.070	-0.240
-130.326	-200.000	-0.028	-0.121
-129.312	-106.017	0.167	0.037
-128.297	-200.000	-0.059	0.433
-127.283	269.688	0.042	-0.073
-126.268	530.620	0.048	-0.113
-125.253	16.798	0.125	-0.098
-124.239	35.501	0.199	0.173
-123.224	247.629	-0.076	0.126
-122.210	-85.229	-0.321	-0.099
-121.195	-55.007	0.243	-0.108
