DTS Sentinel unit serial number:	SN413079Multiplexer serial number:	ORYXHardware model number:	OX4-SRSoftware version number:	ORYX F/W v4.00 Oryx Data Collector v3.7.2.0data status	okinstallation	princeton_trtdifferential loss correction	single-endedforward channel	channel 3reverse channel	N/Adate	2019/09/12time	21:04:34forward acquisition time	60.00reverse acquisition time	0.00gamma	496.2192k internal	0.2325k external	0.2325temperature offset calibration	1.0128default loss term (dB/km)	0.3790temperature slope calibration	1.0000multiplexer offset coefficient	1.0000multiplexer slope coefficient	1.0000fibre end	0.00T internal ref (°C)	30.80T ext. ref 1 (°C)	3.65T ext. ref 2 (°C)	25.32length (m)	temperature (°C)	Stokes	anti-Stokes-747.200	-165.664	-0.181	-0.008
-746.185	-86.717	-0.129	-0.040
-745.171	-21.827	-0.266	0.163
-744.156	257.224	-0.097	0.168
-743.142	-200.000	0.070	0.429
-742.127	800.000	-0.072	0.284
-741.112	-194.867	0.218	-0.002
-740.098	174.944	-0.179	0.262
-739.083	35.976	0.051	-0.045
-738.069	-200.000	0.002	-0.162
-737.054	-51.621	0.305	0.144
-736.039	-107.905	-0.567	-0.124
-735.025	59.235	0.124	-0.124
-734.010	-61.956	-0.351	-0.148
-732.996	-200.000	0.036	-0.282
-731.981	294.614	0.075	-0.138
-730.966	250.421	-0.179	-0.306
-729.952	-35.204	0.282	-0.155
-728.937	-4.252	0.261	0.182
-727.923	-98.725	-0.280	-0.072
-726.908	762.321	-0.112	0.307
-725.894	800.000	-0.095	0.305
-724.879	-167.887	0.088	0.003
-723.864	800.000	-0.108	0.325
-722.850	143.610	-0.171	-0.230
-721.835	-84.376	-0.317	-0.101
-720.821	-200.000	-0.035	0.268
-719.806	-121.785	-0.056	0.009
-718.791	-0.806	0.321	0.229
-717.777	724.597	-0.044	0.117
-716.762	-129.669	-0.438	0.061
-715.748	800.000	0.019	-0.067
-714.733	-200.000	-0.050	-0.400
-713.718	-3.909	0.202	0.141
-712.704	22.250	-0.193	0.159
-711.689	-45.463	-0.120	-0.060
-710.675	-135.711	-0.280	-0.033
-709.660	437.028	-0.208	-0.456
-708.645	-200.000	0.044	-0.270
-707.631	47.414	0.081	-0.076
-706.616	50.106	-0.119	0.113
-705.602	302.353	0.103	-0.192
-704.587	-73.855	-0.267	0.098
-703.572	242.224	0.164	0.277
-702.558	-157.024	-0.122	-0.007
-701.543	-11.033	-0.111	0.074
-700.529	-200.000	-0.039	-0.358
-699.514	0.867	-0.236	-0.170
-698.499	-145.857	-0.117	-0.010
-697.485	-200.000	-0.018	0.195
-696.470	61.796	-0.084	-0.085
-695.456	156.262	0.065	0.091
-694.441	-24.241	0.371	-0.223
-693.426	-200.000	-0.011	0.068
-692.412	-7.588	0.055	-0.038
-691.397	63.769	-0.194	-0.196
-690.383	-105.236	0.220	-0.050
-689.368	-140.215	-0.170	-0.018
-688.354	-77.999	-0.296	-0.103
-687.339	-7.093	0.271	0.185
-686.324	800.000	-0.039	0.112
-685.310	-200.000	0.030	0.320
-684.295	85.818	-0.090	0.099
-683.281	470.547	-0.081	-0.183
-682.266	800.000	0.013	0.054
-681.251	800.000	0.027	0.111
-680.237	-124.461	0.048	-0.007
-679.222	314.577	-0.150	0.284
-678.208	55.704	-0.139	-0.136
-677.193	341.484	-0.141	-0.278
-676.178	-146.830	-0.105	-0.009
-675.164	266.584	-0.046	-0.082
-674.149	85.514	0.054	-0.060
-673.135	5.803	-0.270	0.201
-672.120	363.185	-0.083	-0.168
-671.105	800.000	-0.075	0.265
-670.091	308.692	-0.042	0.078
-669.076	23.179	-0.066	0.055
-668.062	306.986	0.085	-0.159
-667.047	-4.992	-0.110	-0.077
-666.032	-15.395	-0.168	-0.108
-665.018	-200.000	-0.008	0.226
-664.003	-200.000	0.067	-0.311
-662.989	16.280	-0.105	0.083
-661.974	174.975	0.323	-0.471
-660.959	160.971	-0.270	-0.379
-659.945	800.000	-0.053	0.154
-658.930	-200.000	-0.000	0.055
-657.916	214.172	-0.115	0.184
-656.901	800.000	-0.075	0.254
-655.886	15.001	-0.071	0.056
-654.872	139.774	0.052	-0.069
-653.857	148.158	-0.060	-0.082
-652.843	273.043	0.115	0.205
-651.828	-200.000	0.027	0.242
-650.814	800.000	0.084	-0.356
-649.799	602.150	0.131	-0.327
-648.784	-40.005	0.085	0.045
-647.770	-200.000	-0.037	0.325
-646.755	1.594	0.055	0.040
-645.741	216.249	-0.127	0.203
-644.726	-5.505	0.045	0.031
-643.711	-36.245	-0.174	-0.095
-642.697	-74.423	-0.131	0.047
-641.682	-26.301	-0.084	0.050
-640.668	23.450	0.024	0.020
-639.653	-58.701	0.140	0.061
-638.638	-200.000	0.040	-0.275
-637.624	-0.532	-0.244	-0.174
-636.609	-200.000	0.029	-0.188
-635.595	800.000	-0.116	-0.336
-634.580	-193.666	-0.157	0.001
-633.565	-29.533	-0.057	-0.033
-632.551	-87.298	-0.025	0.008
-631.536	263.576	0.124	0.217
-630.522	-96.345	0.384	-0.102
-629.507	-139.879	0.390	-0.041
-628.492	800.000	0.059	0.205
-627.478	45.922	-0.095	0.088
-626.463	-200.000	0.002	0.167
-625.449	678.755	0.040	-0.104
-624.434	-79.005	-0.056	0.019
-623.419	536.383	0.028	-0.067
-622.405	713.550	0.032	0.085
-621.390	-118.094	-0.290	-0.052
-620.376	-133.166	0.221	0.028
-619.361	26.551	-0.113	-0.095
-618.346	-200.000	-0.024	-0.262
-617.332	-141.158	0.255	0.026
-616.317	79.561	-0.136	-0.147
-615.303	-23.489	-0.024	0.014
-614.288	800.000	0.023	0.070
-613.273	-107.936	0.210	-0.046
-612.259	16.826	-0.118	0.094
-611.244	173.548	-0.112	0.162
-610.230	-30.371	-0.325	-0.185
-609.215	-119.675	-0.184	0.032
-608.201	-200.000	0.005	-0.215
-607.186	122.056	0.152	-0.190
-606.171	291.595	-0.040	0.073
-605.157	-117.521	-0.053	0.010
-604.142	-51.885	0.283	-0.132
-603.128	-200.000	0.047	-0.283
-602.113	-200.000	0.039	0.209
-601.098	-59.091	0.137	-0.059
-600.084	57.496	0.121	0.119
-599.069	84.248	0.142	0.155
-598.055	99.366	0.196	0.228
-597.040	762.122	0.069	-0.189
-596.025	-105.569	0.292	0.066
-595.011	-200.000	0.001	-0.114
-593.996	-74.061	-0.048	0.018
-592.982	-163.236	0.230	-0.011
-591.967	-41.803	0.161	-0.083
-590.952	-160.382	-0.268	0.014
-589.938	800.000	-0.137	-0.385
-588.923	278.424	-0.082	-0.147
-587.909	-200.000	-0.008	-0.105
-586.894	800.000	-0.022	0.090
-585.879	-53.217	-0.300	-0.138
-584.865	-200.000	-0.077	0.408
-583.850	357.154	0.097	0.194
-582.836	553.121	-0.156	-0.376
-581.821	159.248	-0.138	0.192
-580.806	800.000	-0.066	-0.262
-579.792	-200.000	0.010	0.135
-578.777	292.062	-0.157	0.287
-577.763	-200.000	0.008	-0.104
-576.748	800.000	0.149	0.517
-575.733	-200.000	-0.183	-0.001
-574.719	800.000	-0.077	0.321
-573.704	-200.000	-0.010	0.066
-572.690	-125.041	0.268	0.041
-571.675	213.723	-0.081	-0.128
-570.661	-200.000	-0.010	0.183
-569.646	-65.223	0.255	-0.103
-568.631	-144.174	0.245	0.023
-567.617	103.662	-0.047	0.056
-566.602	30.604	-0.088	-0.076
-565.588	-84.668	0.099	-0.031
-564.573	-28.576	0.108	0.063
-563.558	-115.630	0.101	-0.019
-562.544	0.832	-0.049	0.036
-561.529	56.100	0.190	0.184
-560.515	184.990	-0.012	-0.018
-559.500	-200.000	-0.011	0.094
-558.485	-57.031	0.307	-0.136
-557.471	315.719	0.155	0.293
-556.456	72.597	-0.112	-0.117
-555.442	112.014	0.039	-0.048
-554.427	-200.000	0.003	0.153
-553.412	-73.048	-0.288	0.106
-552.398	551.090	-0.021	0.051
-551.383	-200.000	-0.035	-0.240
-550.369	-200.000	0.010	-0.252
-549.354	-111.302	0.409	0.084
-548.339	-155.487	-0.134	0.009
-547.325	210.165	-0.058	-0.091
-546.310	88.519	-0.070	0.077
-545.296	20.357	-0.273	0.221
-544.281	-200.000	-0.050	0.298
-543.266	800.000	-0.041	-0.142
-542.252	35.925	0.027	0.024
-541.237	351.708	0.072	-0.142
-540.223	-160.017	0.406	0.022
-539.208	281.577	-0.045	0.080
-538.193	192.579	-0.198	0.299
-537.179	-61.505	-0.265	-0.111
-536.164	-141.293	0.098	-0.010
-535.150	-200.000	0.021	0.251
-534.135	205.649	-0.046	-0.072
-533.121	-110.103	0.119	0.025
-532.106	-70.029	-0.233	0.089
-531.091	-40.636	-0.130	-0.067
-530.077	160.704	-0.133	-0.186
-529.062	15.265	0.559	0.439
-528.048	75.951	0.192	-0.203
-527.033	569.048	-0.101	0.246
-526.018	17.748	0.081	0.064
-525.004	-149.402	0.256	0.020
-523.989	261.734	-0.215	-0.372
-522.975	85.830	0.208	-0.229
-521.960	117.548	-0.252	0.310
-520.945	228.002	0.112	0.182
-519.931	172.876	-0.309	0.445
-518.916	-200.000	-0.017	0.378
-517.902	-71.293	0.124	-0.046
-516.887	-43.538	-0.191	0.097
-515.872	-200.000	-0.002	-0.234
-514.858	-200.000	0.010	0.132
-513.843	-200.000	0.065	-0.353
-512.829	42.262	-0.061	-0.056
-511.814	-200.000	-0.000	-0.045
-510.799	-50.220	-0.222	-0.105
-509.785	800.000	-0.060	0.185
-508.770	-52.113	-0.119	0.055
-507.756	-74.329	-0.203	0.073
-506.741	-200.000	0.042	0.231
-505.726	797.621	-0.057	-0.157
-504.712	114.457	-0.242	0.294
-503.697	201.140	0.053	0.081
-502.683	-200.000	0.003	0.109
-501.668	-34.641	-0.193	-0.106
-500.653	-200.000	0.004	0.059
-499.639	622.930	0.056	0.141
-498.624	70.119	0.279	-0.288
-497.610	-31.911	0.259	0.145
-496.595	453.192	0.146	-0.324
-495.581	-67.570	0.101	-0.040
-494.566	-200.000	0.043	-0.238
-493.551	4.917	-0.178	0.131
-492.537	678.371	0.103	-0.269
-491.522	-8.579	-0.069	0.046
-490.508	-200.000	0.025	0.245
-489.493	318.479	-0.039	-0.073
-488.478	-200.000	0.000	-0.067
-487.464	-200.000	-0.100	0.000
-486.449	-200.000	0.031	-0.162
-485.435	-136.922	-0.112	-0.013
-484.420	-97.703	-0.060	-0.015
-483.405	-200.000	0.003	0.099
-482.391	-7.781	0.034	-0.023
-481.376	27.418	-0.292	-0.246
-480.362	800.000	-0.020	-0.057
-479.347	-107.714	0.038	0.008
-478.332	-82.968	0.153	0.049
-477.318	-200.000	0.003	0.120
-476.303	-200.000	0.006	0.191
-475.289	-147.925	-0.145	-0.012
-474.274	451.223	0.047	-0.104
-473.259	17.939	0.287	-0.228
-472.245	485.840	-0.114	-0.259
-471.230	645.894	-0.083	-0.212
-470.216	800.000	-0.103	-0.314
-469.201	14.524	-0.129	0.100
-468.186	-200.000	-0.005	0.060
-467.172	-74.848	-0.223	0.080
-466.157	-200.000	0.010	0.057
-465.143	67.521	-0.068	0.069
-464.128	-2.934	0.174	0.121
-463.113	247.535	0.054	-0.092
-462.099	81.633	0.011	0.012
-461.084	57.478	0.122	-0.119
-460.070	132.818	0.333	0.429
-459.055	-72.765	-0.447	-0.164
-458.040	273.994	-0.184	-0.324
-457.026	196.725	0.077	0.117
-456.011	272.960	-0.050	-0.089
-454.997	23.268	0.218	0.178
-453.982	498.329	0.039	0.090
-452.968	-128.617	-0.257	-0.036
-451.953	-200.000	0.005	0.251
-450.938	800.000	-0.053	0.167
-449.924	6.104	-0.170	0.126
-448.909	48.198	0.267	0.249
-447.895	275.629	-0.072	-0.127
-446.880	800.000	-0.001	0.004
-445.865	-200.000	-0.000	0.109
-444.851	-103.487	0.349	0.082
-443.836	98.086	-0.181	-0.207
-442.822	782.610	-0.041	0.112
-441.807	-22.595	-0.004	-0.002
-440.792	261.234	0.207	0.357
-439.778	-19.584	0.269	0.166
-438.763	696.824	-0.092	0.242
-437.749	339.196	0.063	-0.123
-436.734	185.955	0.045	-0.066
-435.719	303.241	0.076	-0.140
-434.705	-64.476	-0.082	0.033
-433.690	-84.078	0.233	0.074
-432.676	-124.364	-0.082	0.013
-431.661	-63.994	0.392	0.160
-430.646	189.650	-0.087	0.131
-429.632	-103.959	0.354	0.082
-428.617	-13.493	-0.334	-0.216
-427.603	-132.830	0.234	0.030
-426.588	349.089	-0.216	-0.424
-425.573	27.767	-0.122	-0.102
-424.559	-200.000	0.022	0.099
-423.544	-34.861	-0.132	0.072
-422.530	50.915	0.098	0.092
-421.515	-200.000	0.013	-0.295
-420.500	-120.567	0.042	0.007
-419.486	2.371	0.053	0.038
-418.471	217.976	-0.101	0.161
-417.457	-61.330	-0.158	-0.066
-416.442	-200.000	-0.030	0.153
-415.428	273.492	0.093	-0.164
-414.413	-35.441	0.088	0.048
-413.398	-91.840	-0.274	0.077
-412.384	-92.316	-0.046	-0.013
-411.369	-200.000	-0.011	0.205
-410.355	-200.000	-0.004	0.211
-409.340	92.138	-0.172	0.193
-408.325	800.000	-0.074	0.303
-407.311	-75.004	-0.101	0.036
-406.296	9.300	-0.169	0.127
-405.282	-83.778	-0.253	-0.080
-404.267	800.000	0.057	0.209
-403.252	-200.000	0.004	0.033
-402.238	-200.000	-0.014	-0.316
-401.223	-55.541	-0.128	-0.057
-400.209	116.177	-0.134	0.164
-399.194	-69.107	0.213	0.082
-398.179	-90.395	-0.411	0.119
-397.165	-48.103	-0.150	0.072
-396.150	447.663	0.099	-0.218
-395.136	-47.806	-0.075	-0.036
-394.121	-103.749	0.195	-0.045
-393.106	75.300	-0.138	0.145
-392.092	-8.931	0.125	0.083
-391.077	-158.813	-0.149	0.008
-390.063	1.242	0.119	0.085
-389.048	-200.000	0.000	0.108
-388.033	-100.229	-0.038	-0.009
-387.019	-187.008	0.269	-0.004
-386.004	-86.834	0.223	-0.068
-384.990	-200.000	0.036	-0.268
-383.975	-200.000	0.029	-0.264
-382.960	-200.000	0.089	0.398
-381.946	484.256	-0.067	0.153
-380.931	0.243	0.078	0.055
-379.917	56.247	0.140	-0.135
-378.902	-200.000	0.021	-0.285
-377.888	-200.000	-0.016	-0.193
-376.873	-200.000	0.019	0.322
-375.858	46.571	0.275	0.254
-374.844	-119.212	-0.086	-0.015
-373.829	23.001	-0.184	0.150
-372.815	-117.199	0.307	0.055
-371.800	-16.173	-0.082	0.052
-370.785	-84.236	0.193	-0.061
-369.771	45.124	0.067	-0.061
-368.756	-200.000	-0.012	0.385
-367.742	34.227	-0.163	0.141
-366.727	1.572	-0.041	0.029
-365.712	143.195	-0.101	-0.134
-364.698	800.000	0.039	-0.119
-363.683	259.171	-0.127	-0.218
-362.669	62.166	-0.139	-0.138
-361.654	-36.268	0.168	-0.090
-360.639	-200.000	-0.019	0.228
-359.625	-81.783	-0.197	-0.064
-358.610	320.139	-0.153	-0.288
-357.596	-42.364	-0.384	-0.195
-356.581	-200.000	0.038	-0.429
-355.566	-19.065	0.132	0.082
-354.552	-95.445	-0.127	0.034
-353.537	-200.000	0.020	-0.215
-352.523	-80.714	-0.199	-0.066
-351.508	-171.592	0.174	0.006
-350.493	24.721	-0.269	0.222
-349.479	-32.933	0.076	-0.042
-348.464	-23.646	0.175	-0.104
-347.450	22.189	0.111	0.090
-346.435	-62.076	-0.309	0.128
-345.420	-89.194	-0.104	0.030
-344.406	-169.378	-0.122	-0.004
-343.391	-35.346	-0.091	0.049
-342.377	30.741	0.344	-0.292
-341.362	-130.235	-0.171	0.023
-340.348	59.494	0.115	0.112
-339.333	352.008	-0.078	0.153
-338.318	-200.000	-0.023	-0.125
-337.304	-200.000	0.018	-0.248
-336.289	-62.254	-0.296	-0.122
-335.275	-113.471	0.296	0.058
-334.260	-1.001	0.073	-0.052
-333.245	-91.585	0.262	-0.074
-332.231	800.000	-0.018	-0.069
-331.216	-29.722	0.184	-0.104
-330.202	-90.009	-0.110	-0.032
-329.187	173.968	-0.064	-0.092
-328.172	-200.000	0.025	-0.112
-327.158	-21.516	-0.134	0.081
-326.143	443.562	0.037	0.080
-325.129	800.000	0.038	0.140
-324.114	-200.000	-0.033	-0.203
-323.099	26.393	0.117	0.097
-322.085	-91.124	0.281	0.080
-321.070	214.416	0.117	0.184
-320.056	-106.049	-0.205	-0.046
-319.041	153.718	0.218	-0.297
-318.026	286.534	0.112	0.201
-317.012	-156.709	-0.200	0.012
-315.997	-56.227	-0.126	-0.056
-314.983	800.000	-0.045	-0.156
-313.968	-114.949	0.459	-0.087
-312.953	299.528	-0.093	-0.170
-311.939	-70.671	0.264	0.099
-310.924	129.026	-0.109	-0.138
-309.910	-36.791	-0.171	-0.091
-308.895	73.228	0.290	-0.301
-307.880	-79.705	-0.271	-0.090
-306.866	41.630	0.160	0.144
-305.851	292.420	-0.067	-0.122
-304.837	800.000	0.044	-0.189
-303.822	800.000	-0.035	0.103
-302.807	800.000	0.086	-0.237
-301.793	-200.000	-0.000	0.092
-300.778	104.605	0.136	-0.159
-299.764	-148.061	0.166	0.014
-298.749	-56.259	-0.222	-0.098
-297.735	800.000	-0.035	0.133
-296.720	42.203	0.301	0.271
-295.705	-134.949	0.243	0.029
-294.691	-199.736	0.073	-0.000
-293.676	-200.000	0.005	0.244
-292.662	800.000	0.067	-0.186
-291.647	800.000	0.023	0.091
-290.632	-200.000	0.032	-0.250
-289.618	800.000	0.098	0.342
-288.603	-200.000	0.020	-0.108
-287.589	-115.991	-0.301	-0.056
-286.574	422.403	0.140	-0.299
-285.559	117.237	0.175	0.213
-284.545	-200.000	-0.043	0.211
-283.530	14.453	-0.273	0.211
-282.516	624.690	-0.037	-0.093
-281.501	-95.160	0.243	0.065
-280.486	46.039	-0.119	-0.109
-279.472	0.563	-0.287	0.203
-278.457	334.705	-0.081	-0.155
-277.443	451.687	0.094	0.205
-276.428	51.290	0.164	0.154
-275.413	90.288	-0.107	0.119
-274.399	-92.466	-0.185	0.052
-273.384	170.666	0.098	0.140
-272.370	-117.054	0.035	0.006
-271.355	67.246	-0.207	-0.209
-270.340	0.481	-0.148	-0.105
-269.326	260.389	-0.067	-0.115
-268.311	-41.391	-0.254	0.129
-267.297	-200.000	0.006	0.117
-266.282	-200.000	-0.002	0.084
-265.267	14.385	-0.106	-0.082
-264.253	348.981	0.074	-0.146
-263.238	-13.377	-0.162	-0.104
-262.224	83.919	0.259	-0.280
-261.209	800.000	0.062	-0.171
-260.195	28.423	0.244	0.205
-259.180	-200.000	-0.032	-0.161
-258.165	-103.904	-0.088	-0.020
-257.151	-139.366	-0.188	-0.020
-256.136	-107.409	0.090	-0.020
-255.122	390.307	-0.105	-0.215
-254.107	800.000	-0.100	0.297
-253.092	-101.552	-0.038	0.009
-252.078	147.835	-0.074	0.098
-251.063	28.263	-0.138	0.115
-250.049	-200.000	-0.004	-0.179
-249.034	160.588	-0.221	-0.305
-248.019	387.338	-0.045	0.093
-247.005	323.823	0.074	-0.139
-245.990	-68.593	0.179	0.069
-244.976	127.383	0.117	0.148
-243.961	625.793	0.085	-0.211
-242.946	-97.744	-0.267	-0.069
-241.932	2.924	0.272	0.196
-240.917	-200.000	-0.016	0.160
-239.903	-200.000	0.016	-0.135
-238.888	-200.000	0.051	0.368
-237.873	-60.550	-0.071	0.030
-236.859	76.753	-0.111	-0.117
-235.844	100.108	-0.133	0.153
-234.830	136.295	0.080	-0.103
-233.815	-200.000	0.037	-0.174
-232.800	62.212	-0.268	-0.265
-231.786	-2.885	-0.269	0.186
-230.771	-100.705	0.207	-0.051
-229.757	-1.952	0.040	-0.028
-228.742	-25.819	-0.258	-0.151
-227.727	-148.767	0.245	0.020
-226.713	728.947	-0.212	-0.560
-225.698	-200.000	0.022	0.260
-224.684	21.897	0.375	-0.302
-223.669	-200.000	-0.017	0.117
-222.655	90.403	0.152	-0.168
-221.640	136.864	0.046	0.060
-220.625	-123.209	0.325	-0.051
-219.611	84.882	-0.228	0.247
-218.596	299.203	0.139	-0.253
-217.582	-200.000	0.028	-0.139
-216.567	371.994	0.097	-0.194
-215.552	-33.516	-0.224	0.122
-214.538	-200.000	-0.039	-0.243
-213.523	52.807	0.040	0.037
-212.509	185.670	-0.043	0.062
-211.494	-71.939	-0.293	-0.108
-210.479	195.806	0.083	-0.125
-209.465	0.350	0.074	0.052
-208.450	38.095	0.177	0.155
-207.436	-101.183	0.567	0.137
-206.421	-29.548	-0.253	0.143
-205.406	-200.000	-0.039	-0.243
-204.392	-32.695	0.137	-0.075
-203.377	-16.775	0.120	0.075
-202.363	800.000	-0.099	-0.347
-201.348	-81.267	0.187	-0.061
-200.333	395.092	-0.126	0.259
-199.319	-70.601	-0.278	-0.104
-198.304	277.503	0.197	0.345
-197.290	-38.427	0.029	-0.015
-196.275	-38.617	-0.196	-0.102
-195.260	-200.000	-0.084	0.369
-194.246	240.700	-0.062	-0.102
-193.231	487.496	0.052	0.117
-192.217	-200.000	-0.004	0.050
-191.202	-200.000	-0.004	-0.066
-190.187	800.000	0.033	0.142
-189.173	-197.480	0.181	0.001
-188.158	-143.900	-0.154	-0.014
-187.144	58.092	-0.199	0.193
-186.129	-200.000	0.009	0.259
-185.114	800.000	-0.049	0.149
-184.100	-200.000	0.018	-0.186
-183.085	724.034	0.118	-0.310
-182.071	237.685	-0.026	0.043
-181.056	104.650	0.260	0.302
-180.042	-200.000	0.064	0.477
-179.027	-200.000	0.028	-0.175
-178.012	44.390	-0.128	0.116
-176.998	140.977	0.139	0.181
-175.983	-143.804	-0.265	-0.025
-174.969	411.940	-0.123	-0.257
-173.954	800.000	-0.014	-0.047
-172.939	117.212	0.082	-0.099
-171.925	183.674	0.124	0.181
-170.910	-117.038	0.225	0.041
-169.896	7.963	-0.315	0.233
-168.881	800.000	0.057	0.239
-167.866	41.478	0.090	0.081
-166.852	-200.000	-0.005	-0.305
-165.837	-200.000	-0.009	0.165
-164.823	14.143	-0.288	-0.221
-163.808	712.524	0.103	-0.269
-162.793	800.000	-0.039	-0.108
-161.779	-166.903	-0.315	0.013
-160.764	-200.000	0.039	0.281
-159.750	-200.000	-0.087	-0.457
-158.735	-200.000	-0.003	-0.044
-157.720	-200.000	0.031	0.146
-156.706	-78.890	0.218	-0.073
-155.691	108.692	-0.133	-0.157
-154.677	14.160	0.268	-0.206
-153.662	14.874	0.137	-0.106
-152.647	-2.416	-0.325	-0.225
-151.633	-200.000	0.077	-0.368
-150.618	-25.647	0.145	-0.084
-149.604	107.193	0.133	-0.156
-148.589	-32.311	-0.192	0.106
-147.574	-37.111	0.203	0.107
-146.560	-147.931	-0.299	-0.025
-145.545	261.607	0.154	0.263
-144.531	-113.329	0.236	-0.046
-143.516	2.130	-0.068	0.049
-142.502	-125.369	-0.223	0.034
-141.487	-200.000	-0.054	-0.294
-140.472	286.120	-0.025	0.044
-139.458	144.584	-0.113	0.149
-138.443	266.352	-0.181	0.311
-137.429	35.433	-0.174	0.150
-136.414	312.879	-0.160	-0.295
-135.399	257.997	-0.049	-0.082
-134.385	-108.518	0.177	-0.038
-133.370	42.948	0.188	-0.169
-132.356	800.000	0.049	-0.157
-131.341	-177.555	0.198	0.005
-130.326	800.000	-0.120	-0.335
-129.312	-54.926	-0.205	0.091
-128.297	-27.462	-0.041	-0.024
-127.283	-84.140	-0.111	-0.035
-126.268	-109.258	-0.098	0.021
-125.253	168.817	0.199	0.280
-124.239	-38.729	0.211	0.110
-123.224	-25.453	-0.191	-0.111
-122.210	-34.657	-0.290	-0.156
-121.195	210.790	0.144	0.223
