DTS Sentinel unit serial number:	SN413079Multiplexer serial number:	ORYXHardware model number:	OX4-SRSoftware version number:	ORYX F/W v4.00 Oryx Data Collector v3.7.2.0data status	okinstallation	princeton_trtdifferential loss correction	single-endedforward channel	channel 3reverse channel	N/Adate	2019/09/14time	15:12:35forward acquisition time	60.00reverse acquisition time	0.00gamma	496.2192k internal	0.2293k external	0.2293temperature offset calibration	1.0058default loss term (dB/km)	0.3790temperature slope calibration	1.0000multiplexer offset coefficient	1.0000multiplexer slope coefficient	1.0000fibre end	0.00T internal ref (°C)	39.12T ext. ref 1 (°C)	5.08T ext. ref 2 (°C)	35.10length (m)	temperature (°C)	Stokes	anti-Stokes-747.200	-200.000	-0.004	-0.088
-746.185	476.539	-0.084	0.195
-745.171	-84.221	-0.210	0.068
-744.156	-2.883	0.247	0.176
-743.142	298.569	-0.082	-0.155
-742.127	61.340	-0.074	-0.076
-741.112	-60.448	0.325	0.141
-740.098	-200.000	0.020	0.245
-739.083	-98.161	0.209	-0.055
-738.069	274.007	0.116	0.211
-737.054	-200.000	-0.026	-0.364
-736.039	-189.933	-0.469	0.005
-735.025	-78.586	0.443	0.155
-734.010	-37.393	-0.404	0.221
-732.996	-157.348	0.312	-0.019
-731.981	118.416	-0.192	0.242
-730.966	53.501	0.353	0.347
-729.952	4.627	-0.208	0.156
-728.937	13.291	-0.322	-0.255
-727.923	-59.468	-0.429	-0.189
-726.908	-137.216	0.276	0.032
-725.894	-193.674	0.078	-0.001
-724.879	800.000	0.079	-0.351
-723.864	800.000	0.085	0.358
-722.850	-179.436	-0.160	0.004
-721.835	-101.195	0.325	0.081
-720.821	-107.739	-0.314	-0.070
-719.806	103.223	0.068	-0.081
-718.791	-16.924	0.201	0.130
-717.777	51.306	0.062	0.060
-716.762	-20.421	-0.223	0.140
-715.748	177.352	-0.136	-0.202
-714.733	-118.734	-0.553	0.100
-713.718	29.315	0.068	0.059
-712.704	-141.162	0.358	0.037
-711.689	-154.745	-0.328	0.022
-710.675	36.210	-0.161	-0.145
-709.660	699.748	-0.042	-0.114
-708.645	183.519	0.298	-0.449
-707.631	800.000	-0.102	-0.419
-706.616	-33.375	0.369	0.209
-705.602	11.788	-0.166	-0.130
-704.587	122.546	0.073	0.093
-703.572	-200.000	0.026	0.323
-702.558	-31.594	-0.271	0.156
-701.543	-200.000	-0.029	-0.189
-700.529	-43.449	0.194	0.100
-699.514	800.000	-0.050	-0.209
-698.499	193.098	-0.089	0.137
-697.485	-200.000	-0.001	0.035
-696.470	19.172	-0.305	-0.250
-695.456	800.000	0.050	-0.219
-694.441	-158.019	-0.308	-0.019
-693.426	-59.652	-0.098	-0.043
-692.412	21.665	-0.083	0.069
-691.397	87.336	-0.048	-0.054
-690.383	211.255	0.197	-0.316
-689.368	261.264	0.138	0.243
-688.354	-200.000	0.024	-0.434
-687.339	459.385	0.036	0.082
-686.324	-58.024	-0.172	0.077
-685.310	63.790	0.044	0.045
-684.295	87.047	-0.140	-0.158
-683.281	662.072	-0.168	-0.441
-682.266	534.957	-0.133	-0.321
-681.251	710.732	-0.096	-0.258
-680.237	240.845	0.024	-0.042
-679.222	-115.150	0.162	-0.031
-678.208	-171.735	0.196	0.007
-677.193	28.835	0.077	0.067
-676.178	91.677	-0.045	-0.052
-675.164	-180.762	-0.176	-0.004
-674.149	54.705	-0.143	-0.141
-673.135	-200.000	0.017	0.081
-672.120	44.177	-0.324	0.303
-671.105	800.000	-0.015	0.050
-670.091	-200.000	0.012	-0.108
-669.076	-200.000	0.011	0.551
-668.062	-127.770	0.159	-0.023
-667.047	207.853	-0.111	0.177
-666.032	202.086	0.022	-0.035
-665.018	-90.340	-0.291	0.086
-664.003	-200.000	-0.004	-0.212
-662.989	422.615	-0.124	0.271
-661.974	-9.917	0.380	0.258
-660.959	-41.523	-0.411	0.216
-659.945	-144.282	-0.149	0.014
-658.930	409.410	-0.079	-0.171
-657.916	-88.971	-0.051	0.015
-656.901	-76.802	-0.245	-0.088
-655.886	800.000	0.060	-0.223
-654.872	254.824	0.074	-0.128
-653.857	305.578	-0.143	0.271
-652.843	800.000	0.131	0.518
-651.828	-36.392	-0.444	-0.244
-650.814	800.000	-0.110	0.401
-649.799	-44.365	0.168	-0.086
-648.784	298.863	0.057	-0.108
-647.770	253.988	-0.137	0.239
-646.755	33.366	-0.074	0.066
-645.741	76.452	0.065	-0.070
-644.726	-126.774	-0.282	0.042
-643.711	-200.000	-0.011	-0.183
-642.697	-186.400	-0.156	0.002
-641.682	110.587	-0.269	-0.329
-640.668	-4.121	0.129	-0.091
-639.653	-112.813	0.261	-0.053
-638.638	-82.288	-0.330	-0.109
-637.624	-80.710	0.470	-0.159
-636.609	686.796	0.139	-0.370
-635.595	-86.024	0.455	0.143
-634.580	-21.743	-0.106	0.065
-633.565	-3.951	0.049	-0.035
-632.551	-105.785	0.033	-0.008
-631.536	800.000	0.082	-0.282
-630.522	800.000	0.065	0.207
-629.507	-90.680	0.143	0.042
-628.492	-22.795	0.221	-0.136
-627.478	-179.437	-0.304	-0.007
-626.463	18.385	0.180	0.147
-625.449	-185.210	-0.195	-0.003
-624.434	-14.786	-0.119	0.078
-623.419	31.213	0.414	0.362
-622.405	158.429	-0.205	0.290
-621.390	-59.514	-0.189	-0.083
-620.376	-200.000	-0.036	0.178
-619.361	-87.670	-0.209	-0.064
-618.346	422.135	-0.119	-0.260
-617.332	-94.193	0.119	-0.033
-616.317	1.018	-0.162	-0.118
-615.303	646.456	0.176	-0.457
-614.288	140.734	-0.214	0.288
-613.273	-118.802	-0.222	-0.040
-612.259	800.000	0.050	0.145
-611.244	-177.382	-0.360	-0.009
-610.230	750.738	0.128	-0.351
-609.215	751.097	-0.075	-0.207
-608.201	-200.000	0.058	-0.350
-607.186	137.979	-0.187	0.250
-606.171	200.731	0.108	0.169
-605.157	57.699	0.168	0.167
-604.142	-43.635	-0.181	-0.093
-603.128	447.678	0.017	-0.039
-602.113	-164.903	0.011	0.001
-601.098	800.000	0.038	0.165
-600.084	121.711	-0.085	-0.108
-599.069	-200.000	0.056	-0.453
-598.055	86.177	-0.160	-0.179
-597.040	-18.166	-0.092	-0.059
-596.025	-99.826	0.220	-0.056
-595.011	-88.999	0.034	0.010
-593.996	800.000	0.073	-0.246
-592.982	230.645	-0.148	-0.246
-591.967	149.006	0.091	-0.125
-590.952	8.658	0.193	0.148
-589.938	6.258	-0.167	0.126
-588.923	-200.000	-0.030	0.340
-587.909	-200.000	0.007	-0.313
-586.894	-0.062	-0.352	-0.255
-585.879	-125.416	-0.031	0.005
-584.865	-155.115	0.117	0.008
-583.850	-200.000	-0.067	0.339
-582.836	-165.863	-0.060	-0.003
-581.821	-82.197	-0.120	0.040
-580.806	-10.929	-0.171	-0.115
-579.792	-200.000	0.023	-0.194
-578.777	180.553	-0.165	0.246
-577.763	-66.119	-0.272	0.110
-576.748	-127.256	-0.138	-0.020
-575.733	431.077	0.140	-0.309
-574.719	-91.088	-0.283	-0.083
-573.704	800.000	-0.098	0.293
-572.690	183.470	0.029	0.044
-571.675	-54.171	-0.146	-0.067
-570.661	-85.625	0.060	0.019
-569.646	-16.250	-0.224	0.145
-568.631	258.894	-0.141	-0.247
-567.617	-200.000	-0.004	-0.262
-566.602	506.674	-0.123	-0.291
-565.588	-68.128	-0.231	0.091
-564.573	259.013	-0.079	-0.139
-563.558	-46.567	-0.121	-0.060
-562.544	30.500	-0.077	0.067
-561.529	366.319	0.119	-0.244
-560.515	-200.000	-0.019	0.130
-559.500	-181.100	0.376	0.008
-558.485	-23.898	0.228	-0.139
-557.471	28.274	0.124	-0.106
-556.456	-29.934	-0.238	0.138
-555.442	800.000	0.018	-0.076
-554.427	436.285	-0.128	-0.283
-553.412	-20.765	0.012	-0.008
-552.398	381.600	0.035	-0.073
-551.383	10.419	-0.154	0.119
-550.369	66.917	0.141	0.146
-549.354	-145.228	-0.521	0.048
-548.339	-39.801	0.167	0.089
-547.325	800.000	0.020	0.087
-546.310	7.699	-0.032	0.024
-545.296	-69.291	0.121	-0.047
-544.281	-17.215	-0.307	-0.197
-543.266	-46.954	-0.254	-0.126
-542.252	-104.727	-0.185	0.043
-541.237	-75.953	-0.106	0.038
-540.223	25.046	-0.177	-0.149
-539.208	4.271	-0.186	0.139
-538.193	-200.000	-0.004	0.233
-537.179	93.781	0.228	0.263
-536.164	-186.632	-0.236	-0.003
-535.150	-200.000	0.026	-0.139
-534.135	-200.000	-0.020	0.363
-533.121	-30.896	-0.104	0.060
-532.106	-200.000	0.004	-0.123
-531.091	50.529	0.075	-0.072
-530.077	98.590	-0.154	-0.181
-529.062	-53.387	-0.218	0.101
-528.048	545.988	-0.085	-0.205
-527.033	54.585	-0.226	-0.221
-526.018	-92.297	0.086	0.025
-525.004	-152.477	0.370	0.027
-523.989	53.726	-0.332	-0.324
-522.975	169.817	-0.133	0.192
-521.960	-200.000	0.027	0.171
-520.945	103.063	0.114	0.136
-519.931	598.098	-0.062	0.157
-518.916	800.000	0.025	0.074
-517.902	22.195	-0.195	-0.161
-516.887	45.096	-0.033	-0.031
-515.872	-108.169	0.416	-0.091
-514.858	-17.168	-0.126	0.080
-513.843	209.469	-0.193	-0.307
-512.829	-13.124	-0.119	-0.078
-511.814	505.121	0.048	-0.112
-510.799	42.114	0.299	-0.276
-509.785	525.299	-0.149	0.354
-508.770	245.195	0.085	0.145
-507.756	450.705	-0.127	-0.285
-506.741	800.000	0.032	-0.130
-505.726	32.930	-0.127	-0.111
-504.712	175.562	0.141	0.207
-503.697	-48.619	-0.217	-0.106
-502.683	226.444	0.077	-0.127
-501.668	255.228	0.049	0.085
-500.653	-199.604	-0.359	-0.002
-499.639	-37.746	-0.264	0.143
-498.624	-24.606	0.294	-0.177
-497.610	95.162	-0.237	0.274
-496.595	74.168	-0.155	-0.165
-495.581	-69.571	0.189	0.073
-494.566	6.379	0.215	-0.162
-493.551	-111.340	0.202	-0.042
-492.537	-24.760	0.263	0.159
-491.522	16.762	-0.131	0.105
-490.508	800.000	-0.038	0.167
-489.493	-175.658	-0.281	-0.008
-488.478	501.645	0.094	-0.219
-487.464	514.843	0.055	-0.129
-486.449	-16.055	-0.234	-0.150
-485.435	105.168	-0.108	-0.130
-484.420	-200.000	-0.013	0.182
-483.405	-40.649	0.135	0.071
-482.391	-29.874	-0.155	-0.090
-481.376	-49.001	0.238	0.115
-480.362	-140.518	-0.056	-0.006
-479.347	352.925	0.125	-0.252
-478.332	-97.921	-0.306	-0.080
-477.318	-119.844	-0.174	-0.030
-476.303	49.727	0.101	0.097
-475.289	-61.132	-0.286	0.122
-474.274	28.990	-0.130	0.111
-473.259	-200.000	-0.004	0.201
-472.245	37.556	0.161	-0.144
-471.230	-156.882	-0.174	-0.011
-470.216	-42.500	0.114	-0.059
-469.201	-40.595	-0.369	-0.194
-468.186	354.828	0.096	-0.194
-467.172	-200.000	-0.041	0.205
-466.157	49.243	0.160	0.152
-465.143	329.264	-0.026	-0.050
-464.128	-200.000	-0.022	0.244
-463.113	-200.000	0.021	0.146
-462.099	3.997	-0.088	0.065
-461.084	97.312	0.290	-0.336
-460.070	-173.953	0.262	-0.008
-459.055	800.000	-0.049	-0.164
-458.040	-200.000	0.079	-0.367
-457.026	-17.563	0.285	-0.182
-456.011	-98.079	0.255	-0.066
-454.997	-112.268	0.021	-0.004
-453.982	-100.183	-0.333	-0.084
-452.968	-156.213	-0.158	-0.010
-451.953	-200.000	0.007	-0.210
-450.938	-64.904	0.176	-0.072
-449.924	76.866	-0.025	0.027
-448.909	-200.000	-0.005	-0.070
-447.895	-48.869	-0.197	-0.095
-446.880	-121.819	0.417	-0.070
-445.865	-64.772	0.435	-0.178
-444.851	-200.000	0.001	-0.317
-443.836	153.397	0.231	0.320
-442.822	198.327	-0.154	-0.238
-441.807	-74.616	-0.303	-0.110
-440.792	5.554	0.040	-0.030
-439.778	470.423	-0.083	0.189
-438.763	21.939	-0.354	-0.291
-437.749	-200.000	0.008	-0.257
-436.734	-200.000	-0.017	-0.254
-435.719	-27.046	-0.131	0.077
-434.705	-200.000	0.058	0.306
-433.690	329.884	-0.113	-0.219
-432.676	800.000	-0.109	0.398
-431.661	223.950	0.155	-0.252
-430.646	86.319	-0.114	0.127
-429.632	231.583	0.071	-0.118
-428.617	800.000	-0.088	0.255
-427.603	53.414	0.078	0.076
-426.588	152.907	-0.116	0.161
-425.573	45.861	-0.128	-0.120
-424.559	177.760	0.030	-0.045
-423.544	-65.211	-0.166	-0.067
-422.530	800.000	0.028	-0.118
-421.515	218.700	0.047	-0.076
-420.500	-73.535	0.147	-0.054
-419.486	-82.928	0.231	0.075
-418.471	-200.000	0.018	-0.202
-417.457	15.255	-0.138	-0.109
-416.442	-200.000	0.011	-0.238
-415.428	-200.000	0.007	0.204
-414.413	800.000	0.021	-0.082
-413.398	-200.000	0.046	0.000
-412.384	-200.000	0.061	-0.292
-411.369	-117.302	-0.224	-0.041
-410.355	-109.280	0.375	-0.080
-409.340	-135.507	-0.078	0.009
-408.325	-200.000	0.018	-0.140
-407.311	800.000	-0.076	-0.315
-406.296	-121.151	-0.193	-0.033
-405.282	-164.186	0.203	-0.009
-404.267	539.817	-0.099	0.237
-403.252	-200.000	-0.004	0.340
-402.238	123.964	-0.138	0.175
-401.223	89.909	0.137	0.154
-400.209	1.576	-0.177	0.128
-399.194	-39.737	0.328	-0.173
-398.179	75.772	-0.243	0.259
-397.165	162.206	0.187	-0.265
-396.150	-128.282	-0.132	0.019
-395.136	94.695	0.048	-0.055
-394.121	281.649	0.092	0.166
-393.106	508.931	0.208	0.488
-392.092	-92.417	0.319	0.091
-391.077	-70.216	-0.418	-0.160
-390.063	-103.652	-0.250	-0.059
-389.048	253.656	-0.139	0.239
-388.033	800.000	-0.059	0.222
-387.019	-35.971	-0.260	0.142
-386.004	39.641	-0.136	-0.123
-384.990	-149.114	0.223	-0.018
-383.975	800.000	0.019	-0.084
-382.960	-200.000	-0.076	-0.380
-381.946	-176.192	0.478	0.013
-380.931	29.887	-0.099	0.085
-379.917	-45.079	0.160	-0.080
-378.902	-2.308	0.321	0.227
-377.888	-200.000	-0.090	0.523
-376.873	800.000	0.082	-0.244
-375.858	-200.000	-0.007	-0.090
-374.844	-24.540	0.192	-0.115
-373.829	-5.843	-0.166	-0.114
-372.815	-175.917	-0.247	-0.007
-371.800	800.000	0.105	0.308
-370.785	696.797	-0.011	0.030
-369.771	-130.345	-0.441	-0.060
-368.756	12.983	0.045	-0.035
-367.742	800.000	0.046	0.158
-366.727	139.389	-0.166	0.220
-365.712	-119.344	0.258	-0.045
-364.698	-200.000	-0.023	0.489
-363.683	800.000	-0.113	0.372
-362.669	800.000	0.029	-0.108
-361.654	-137.308	0.307	-0.035
-360.639	138.987	-0.224	-0.297
-359.625	-162.479	0.394	0.020
-358.610	12.549	0.186	-0.145
-357.596	4.433	-0.041	-0.030
-356.581	298.345	0.023	-0.043
-355.566	-85.248	-0.298	0.094
-354.552	-57.249	0.071	0.031
-353.537	-49.007	-0.100	0.048
-352.523	-95.546	-0.097	0.026
-351.508	169.357	0.080	0.115
-350.493	-125.530	0.355	-0.054
-349.479	800.000	0.043	0.124
-348.464	-133.766	0.069	-0.009
-347.450	209.561	0.150	-0.236
-346.435	-70.077	0.128	-0.049
-345.420	139.902	-0.058	0.077
-344.406	-145.878	-0.134	-0.012
-343.391	800.000	0.103	0.332
-342.377	-26.750	-0.177	0.104
-341.362	-200.000	-0.034	0.193
-340.348	-150.337	-0.108	-0.008
-339.333	-200.000	-0.020	0.322
-338.318	471.209	0.037	0.083
-337.304	241.505	0.064	0.108
-336.289	-126.060	0.141	-0.021
-335.275	-98.761	-0.198	0.051
-334.260	800.000	0.115	0.356
-333.245	-184.476	0.388	-0.006
-332.231	800.000	-0.120	-0.374
-331.216	-39.661	0.093	0.049
-330.202	-200.000	-0.001	-0.204
-329.187	2.238	-0.082	0.060
-328.172	-73.917	0.205	-0.075
-327.158	-152.447	0.239	0.017
-326.143	-124.610	-0.318	0.050
-325.129	-200.000	-0.012	0.386
-324.114	-200.000	-0.034	-0.345
-323.099	-142.621	0.026	0.003
-322.085	800.000	0.052	0.153
-321.070	-200.000	-0.005	0.095
-320.056	314.927	-0.118	-0.225
-319.041	179.063	-0.036	0.053
-318.026	-62.425	-0.262	-0.110
-317.012	-68.749	-0.215	-0.083
-315.997	77.486	0.207	0.222
-314.983	9.473	-0.258	-0.197
-313.968	-109.148	0.302	-0.065
-312.953	85.242	0.134	0.147
-311.939	-118.050	-0.191	0.034
-310.924	-200.000	-0.026	-0.316
-309.910	92.147	0.059	-0.067
-308.895	343.733	0.094	-0.185
-307.880	-14.081	-0.192	0.124
-306.866	-54.503	0.243	0.111
-305.851	800.000	-0.054	0.173
-304.837	-2.909	-0.006	-0.004
-303.822	158.142	-0.246	-0.343
-302.807	-200.000	0.003	-0.201
-301.793	-200.000	-0.002	-0.345
-300.778	337.276	-0.199	-0.390
-299.764	-73.325	0.350	0.129
-298.749	544.636	0.073	-0.175
-297.735	800.000	0.051	0.178
-296.720	-115.199	0.071	-0.013
-295.705	-58.235	0.215	0.094
-294.691	78.448	0.178	0.191
-293.676	350.560	0.015	0.030
-292.662	505.292	0.151	0.352
-291.647	-112.115	-0.405	0.082
-290.632	-32.903	0.040	-0.023
-289.618	107.914	0.107	0.128
-288.603	53.064	0.075	-0.072
-287.589	108.463	-0.100	-0.120
-286.574	-15.670	-0.294	-0.188
-285.559	-200.000	0.012	0.133
-284.545	-103.896	0.279	0.065
-283.530	-152.813	0.675	-0.048
-282.516	45.027	0.207	0.191
-281.501	49.816	-0.151	0.143
-280.486	-54.785	0.174	0.079
-279.472	-200.000	0.038	0.271
-278.457	110.054	0.024	-0.029
-277.443	-121.807	-0.081	0.013
-276.428	38.312	-0.241	0.216
-275.413	-77.598	-0.144	-0.050
-274.399	-200.000	0.022	0.108
-273.384	-130.333	-0.088	-0.012
-272.370	-51.485	0.160	0.075
-271.355	-200.000	0.000	0.248
-270.340	554.595	0.008	-0.019
-269.326	-22.865	0.157	-0.095
-268.311	-112.931	0.467	-0.093
-267.297	50.498	0.317	0.301
-266.282	-118.480	0.145	0.026
-265.267	-79.981	-0.126	-0.042
-264.253	62.441	-0.111	0.111
-263.238	184.755	-0.189	-0.281
-262.224	81.227	-0.177	-0.192
-261.209	167.007	0.167	0.238
-260.195	800.000	-0.003	-0.011
-259.180	-132.860	0.195	0.025
-258.165	-33.668	0.171	-0.094
-257.151	-200.000	-0.082	-0.511
-256.136	73.051	-0.087	-0.091
-255.122	800.000	0.053	0.168
-254.107	-131.335	0.388	-0.052
-253.092	135.663	0.283	0.369
-252.078	110.158	-0.134	-0.161
-251.063	70.691	0.168	0.175
-250.049	-34.110	0.089	-0.049
-249.034	-37.890	0.271	0.144
-248.019	-61.370	0.347	0.147
-247.005	70.722	0.118	0.123
-245.990	-20.570	-0.168	0.104
-244.976	-30.408	-0.180	0.102
-243.961	180.383	0.122	-0.179
-242.946	-10.239	0.138	0.092
-241.932	-81.810	0.333	-0.109
-240.917	800.000	0.101	-0.383
-239.903	-128.274	0.177	-0.025
-238.888	-167.270	0.167	0.007
-237.873	-69.875	0.227	0.087
-236.859	72.388	-0.188	0.196
-235.844	-28.626	0.083	-0.048
-234.830	800.000	0.036	-0.111
-233.815	-169.836	-0.057	-0.002
-232.800	190.190	0.087	-0.131
-231.786	-200.000	0.016	-0.174
-230.771	-99.304	-0.140	0.035
-229.757	-107.488	-0.422	-0.093
-228.742	-93.041	0.252	0.070
-227.727	800.000	-0.120	0.494
-226.713	163.062	0.136	0.191
-225.698	800.000	-0.088	0.257
-224.684	-12.543	-0.045	0.029
-223.669	-103.805	0.127	0.030
-222.655	42.407	-0.394	0.359
-221.640	393.538	-0.111	-0.231
-220.625	329.954	0.122	0.235
-219.611	96.979	0.206	0.237
-218.596	70.848	-0.060	-0.063
-217.582	-200.000	0.065	0.489
-216.567	-170.396	0.374	0.013
-215.552	-2.655	-0.054	0.038
-214.538	-14.409	-0.276	0.178
-213.523	-109.173	-0.123	-0.026
-212.509	-70.656	-0.315	-0.119
-211.494	-17.900	0.004	-0.003
-210.479	78.520	-0.167	-0.179
-209.465	223.002	0.116	-0.188
-208.450	-128.197	0.397	0.057
-207.436	800.000	0.144	0.476
-206.421	800.000	0.024	0.095
-205.406	-200.000	0.028	-0.129
-204.392	800.000	0.034	-0.146
-203.377	130.938	0.247	-0.318
-202.363	76.617	0.133	-0.142
-201.348	61.502	-0.131	-0.131
-200.333	-200.000	-0.017	0.154
-199.319	79.558	-0.050	0.054
-198.304	-30.901	-0.345	-0.195
-197.290	-46.227	0.106	0.052
-196.275	-41.895	-0.183	0.094
-195.260	-120.660	0.223	-0.038
-194.246	800.000	0.084	0.363
-193.231	-17.625	-0.403	-0.254
-192.217	800.000	-0.012	0.033
-191.202	-44.036	0.114	0.057
-190.187	303.278	-0.073	0.135
-189.173	800.000	0.066	0.211
-188.158	-110.627	0.194	-0.040
-187.144	53.043	-0.324	-0.310
-186.129	-200.000	-0.056	0.266
-185.114	3.024	0.158	-0.115
-184.100	134.731	0.273	-0.355
-183.085	404.157	-0.066	0.139
-182.071	-200.000	-0.066	-0.328
-181.056	-200.000	-0.038	-0.194
-180.042	-114.038	0.213	0.041
-179.027	-200.000	0.021	0.253
-178.012	800.000	-0.022	-0.077
-176.998	-105.816	0.120	-0.027
-175.983	-42.282	0.263	0.134
-174.969	-54.682	-0.091	0.041
-173.954	-11.142	0.067	0.044
-172.939	-117.704	0.150	0.027
-171.925	-200.000	0.005	-0.035
-170.910	251.448	-0.077	0.131
-169.896	164.888	-0.159	0.225
-168.881	800.000	-0.047	0.143
-167.866	-18.142	0.176	-0.110
-166.852	460.849	-0.045	0.100
-165.837	-19.381	-0.175	0.108
-164.823	-11.165	0.246	-0.162
-163.808	172.088	0.134	0.193
-162.793	111.070	0.127	0.153
-161.779	15.857	-0.061	-0.048
-160.764	29.276	0.237	-0.201
-159.750	800.000	0.064	0.260
-158.735	-200.000	0.040	0.359
-157.720	-200.000	-0.082	0.495
-156.706	54.761	0.167	0.161
-155.691	-200.000	-0.037	0.189
-154.677	-49.409	0.145	-0.069
-153.662	-94.973	-0.377	-0.102
-152.647	-130.074	-0.439	0.060
-151.633	-8.580	-0.069	-0.046
-150.618	-161.147	0.277	0.014
-149.604	283.123	-0.090	-0.162
-148.589	381.015	0.116	-0.239
-147.574	-200.000	-0.007	0.225
-146.560	800.000	0.057	-0.237
-145.545	55.365	-0.200	-0.193
-144.531	449.024	-0.119	-0.262
-143.516	-95.725	-0.200	-0.053
-142.502	37.896	0.199	-0.177
-141.487	-35.881	-0.184	-0.099
-140.472	222.096	-0.084	0.136
-139.458	-158.954	0.187	0.011
-138.443	104.558	0.209	0.246
-137.429	-171.752	-0.409	0.013
-136.414	800.000	0.023	0.092
-135.399	145.916	-0.081	-0.108
-134.385	58.010	-0.047	0.046
-133.370	800.000	-0.055	0.192
-132.356	21.590	-0.157	-0.127
-131.341	9.145	0.041	0.031
-130.326	-200.000	0.011	0.141
-129.312	-200.000	0.000	0.075
-128.297	-91.624	0.132	-0.038
-127.283	-200.000	0.007	-0.176
-126.268	-165.817	0.373	-0.016
-125.253	-147.399	0.189	0.016
-124.239	40.314	-0.067	0.060
-123.224	-19.010	-0.220	0.136
-122.210	-94.969	-0.357	-0.096
-121.195	122.348	0.179	-0.224
