DTS Sentinel unit serial number:	SN413079Multiplexer serial number:	ORYXHardware model number:	OX4-SRSoftware version number:	ORYX F/W v4.00 Oryx Data Collector v3.7.2.0data status	okinstallation	princeton_trtdifferential loss correction	single-endedforward channel	channel 3reverse channel	N/Adate	2019/09/18time	22:24:34forward acquisition time	60.00reverse acquisition time	0.00gamma	496.2192k internal	0.2345k external	0.2345temperature offset calibration	0.9985default loss term (dB/km)	0.3790temperature slope calibration	1.0000multiplexer offset coefficient	1.0000multiplexer slope coefficient	1.0000fibre end	0.00T internal ref (°C)	24.30T ext. ref 1 (°C)	0.79T ext. ref 2 (°C)	17.99length (m)	temperature (°C)	Stokes	anti-Stokes-747.200	249.169	-0.107	0.181
-746.185	-101.361	-0.340	0.083
-745.171	-150.247	-0.232	-0.018
-744.156	800.000	-0.073	0.299
-743.142	80.601	-0.092	-0.099
-742.127	368.242	-0.123	0.249
-741.112	-200.000	-0.024	0.156
-740.098	14.178	-0.052	0.040
-739.083	-200.000	0.004	-0.464
-738.069	85.171	-0.142	0.156
-737.054	-200.000	-0.026	-0.139
-736.039	72.023	-0.172	0.179
-735.025	206.460	-0.074	-0.115
-734.010	800.000	0.094	-0.360
-732.996	148.038	0.238	-0.320
-731.981	106.179	-0.079	-0.094
-730.966	-200.000	0.023	0.183
-729.952	-149.188	0.299	-0.024
-728.937	-62.256	0.277	0.116
-727.923	497.652	0.026	-0.060
-726.908	40.869	-0.210	-0.189
-725.894	512.670	0.045	0.105
-724.879	10.813	-0.291	0.222
-723.864	215.646	0.018	-0.028
-722.850	-121.854	0.471	0.078
-721.835	129.333	0.139	-0.177
-720.821	-200.000	0.031	-0.389
-719.806	294.815	0.138	0.252
-718.791	79.769	0.222	0.238
-717.777	-200.000	-0.008	-0.145
-716.762	54.842	-0.111	-0.107
-715.748	253.170	0.069	-0.118
-714.733	-88.892	-0.132	-0.039
-713.718	342.250	-0.108	0.210
-712.704	227.503	-0.121	0.196
-711.689	77.958	-0.182	0.194
-710.675	-9.950	0.313	-0.208
-709.660	-115.113	0.238	-0.045
-708.645	273.630	0.087	0.154
-707.631	-107.703	0.079	0.017
-706.616	-151.737	-0.446	-0.033
-705.602	95.600	-0.038	0.044
-704.587	70.539	-0.119	-0.122
-703.572	-37.006	0.175	-0.094
-702.558	-3.741	-0.065	-0.045
-701.543	-200.000	-0.028	0.383
-700.529	289.362	0.099	0.178
-699.514	-200.000	0.022	-0.248
-698.499	241.562	-0.192	0.320
-697.485	-200.000	-0.015	0.122
-696.470	-102.217	-0.203	-0.049
-695.456	-200.000	-0.048	0.381
-694.441	-200.000	-0.026	0.153
-693.426	-200.000	-0.026	0.130
-692.412	800.000	-0.072	-0.245
-691.397	-23.964	0.239	-0.143
-690.383	-200.000	0.002	-0.382
-689.368	659.235	0.063	-0.161
-688.354	-200.000	0.062	0.304
-687.339	800.000	0.049	0.192
-686.324	70.653	0.262	0.271
-685.310	-159.101	0.436	0.025
-684.295	-43.417	-0.126	-0.064
-683.281	-49.524	0.154	0.073
-682.266	800.000	0.066	0.194
-681.251	-48.756	0.440	-0.211
-680.237	800.000	0.055	-0.205
-679.222	-200.000	-0.041	-0.375
-678.208	-18.195	0.166	-0.104
-677.193	-119.792	0.381	0.066
-676.178	774.717	0.022	0.059
-675.164	-165.287	-0.169	-0.007
-674.149	175.956	-0.117	-0.169
-673.135	193.372	-0.182	-0.275
-672.120	97.371	0.050	0.057
-671.105	131.225	0.121	0.155
-670.091	426.385	-0.098	0.210
-669.076	233.124	0.064	0.105
-668.062	800.000	0.036	0.106
-667.047	-200.000	-0.007	0.072
-666.032	-200.000	0.001	0.064
-665.018	-0.743	0.357	0.252
-664.003	-71.134	0.211	-0.079
-662.989	-193.139	0.082	0.001
-661.974	97.522	0.095	-0.108
-660.959	70.758	-0.089	-0.092
-659.945	-12.555	0.150	0.098
-658.930	-39.204	0.222	-0.116
-657.916	126.004	0.168	0.212
-656.901	-143.627	0.413	0.039
-655.886	14.876	0.256	0.199
-654.872	162.804	-0.129	0.180
-653.857	193.283	0.031	-0.047
-652.843	800.000	0.060	0.200
-651.828	326.334	-0.036	0.069
-650.814	-60.161	-0.294	-0.125
-649.799	129.772	-0.271	-0.346
-648.784	800.000	0.117	-0.352
-647.770	30.423	0.170	0.145
-646.755	268.089	-0.133	0.232
-645.741	-200.000	-0.010	0.155
-644.726	-171.854	0.141	0.005
-643.711	-52.897	0.152	0.070
-642.697	-51.627	-0.046	-0.021
-641.682	-25.025	-0.390	-0.230
-640.668	-50.119	0.134	-0.063
-639.653	-164.661	0.283	-0.013
-638.638	800.000	-0.086	-0.369
-637.624	-140.130	-0.188	0.020
-636.609	800.000	0.106	-0.313
-635.595	203.691	-0.076	-0.118
-634.580	185.572	0.094	-0.139
-633.565	-29.192	0.576	-0.329
-632.551	228.545	-0.156	-0.254
-631.536	800.000	0.052	-0.172
-630.522	137.796	-0.060	0.078
-629.507	-200.000	0.019	-0.152
-628.492	-131.880	0.213	-0.028
-627.478	800.000	0.037	-0.109
-626.463	360.262	-0.042	0.085
-625.449	16.944	-0.221	-0.174
-624.434	-62.036	-0.312	0.130
-623.419	-200.000	0.015	0.227
-622.405	-180.535	0.217	-0.004
-621.390	14.976	0.190	-0.148
-620.376	-167.626	0.149	0.006
-619.361	68.242	0.173	0.176
-618.346	800.000	0.032	-0.103
-617.332	20.812	0.254	0.205
-616.317	76.088	0.106	-0.112
-615.303	17.586	0.133	0.105
-614.288	-74.528	-0.127	0.046
-613.273	29.006	0.187	-0.158
-612.259	-79.796	-0.178	0.060
-611.244	78.990	-0.046	0.049
-610.230	-19.683	0.220	-0.136
-609.215	800.000	-0.032	-0.105
-608.201	520.445	-0.091	0.213
-607.186	800.000	0.057	-0.165
-606.171	81.070	-0.161	-0.172
-605.157	59.458	-0.143	-0.140
-604.142	80.929	0.091	-0.098
-603.128	-77.870	-0.159	0.055
-602.113	-200.000	0.043	-0.329
-601.098	-200.000	0.017	-0.086
-600.084	-115.837	0.176	-0.033
-599.069	-92.929	0.156	0.043
-598.055	-154.505	0.156	-0.010
-597.040	-173.216	-0.244	-0.007
-596.025	-11.558	-0.140	-0.092
-595.011	-200.000	0.004	0.027
-593.996	575.763	-0.086	-0.208
-592.982	-174.083	-0.280	0.008
-591.967	-160.688	-0.194	-0.010
-590.952	152.991	0.013	-0.017
-589.938	-200.000	0.016	-0.187
-588.923	-200.000	-0.014	-0.221
-587.909	-200.000	-0.013	-0.234
-586.894	-200.000	0.020	0.169
-585.879	268.319	-0.117	0.203
-584.865	-200.000	0.022	-0.315
-583.850	-21.136	-0.181	-0.110
-582.836	800.000	-0.026	-0.085
-581.821	-200.000	0.063	-0.319
-580.806	-11.551	-0.147	0.096
-579.792	-10.668	0.135	-0.089
-578.777	800.000	0.093	-0.307
-577.763	-16.937	0.370	-0.232
-576.748	609.166	0.053	-0.133
-575.733	-72.483	-0.056	0.021
-574.719	375.305	-0.195	0.396
-573.704	173.968	0.144	-0.206
-572.690	3.446	-0.242	-0.175
-571.675	-167.631	0.206	0.008
-570.661	413.055	0.057	-0.121
-569.646	-89.549	0.274	0.080
-568.631	-4.752	0.222	0.152
-567.617	-89.362	-0.163	0.048
-566.602	253.786	0.044	0.075
-565.588	-85.312	-0.198	0.061
-564.573	169.911	-0.199	0.282
-563.558	537.984	0.102	0.242
-562.544	-200.000	0.027	0.121
-561.529	91.818	0.184	0.206
-560.515	800.000	-0.076	0.299
-559.500	-200.000	0.056	0.252
-558.485	-98.233	-0.365	-0.093
-557.471	318.339	0.139	0.262
-556.456	23.715	-0.197	0.161
-555.442	800.000	-0.065	0.238
-554.427	186.260	-0.134	-0.198
-553.412	-200.000	-0.004	-0.105
-552.398	-76.125	0.111	-0.039
-551.383	77.692	-0.106	0.112
-550.369	79.888	-0.067	0.072
-549.354	-39.787	-0.151	-0.078
-548.339	-147.154	-0.208	0.018
-547.325	-200.000	0.001	-0.019
-546.310	-200.000	-0.072	0.362
-545.296	37.052	0.108	-0.095
-544.281	24.531	-0.100	0.082
-543.266	-200.000	0.025	-0.200
-542.252	-2.347	-0.250	0.174
-541.237	-25.154	0.068	0.040
-540.223	-139.915	-0.167	-0.017
-539.208	-200.000	-0.006	-0.089
-538.193	-107.324	-0.246	-0.054
-537.179	-136.500	-0.312	-0.036
-536.164	-133.571	0.302	-0.038
-535.150	52.135	-0.030	-0.028
-534.135	-6.550	0.175	0.118
-533.121	119.262	-0.107	-0.131
-532.106	-165.950	-0.084	0.004
-531.091	-200.000	-0.055	-0.367
-530.077	-200.000	-0.005	0.079
-529.062	-127.239	0.161	-0.023
-528.048	-200.000	-0.008	0.128
-527.033	-46.462	-0.091	0.044
-526.018	48.208	0.103	0.096
-525.004	103.979	0.022	-0.025
-523.989	-19.899	0.299	0.183
-522.975	800.000	0.047	0.175
-521.960	-4.877	-0.268	0.183
-520.945	-55.720	0.295	-0.131
-519.931	-99.784	0.198	-0.049
-518.916	-1.131	0.150	-0.105
-517.902	-19.376	0.066	-0.041
-516.887	-64.124	-0.130	0.052
-515.872	-34.027	0.091	-0.050
-514.858	800.000	0.076	0.303
-513.843	49.384	0.262	-0.245
-512.829	103.728	0.011	0.012
-511.814	449.019	0.073	-0.159
-510.799	-88.617	0.148	-0.044
-509.785	-116.810	-0.134	0.024
-508.770	800.000	-0.074	0.229
-507.756	193.931	-0.156	-0.235
-506.741	-88.964	-0.161	0.047
-505.726	-155.858	0.127	0.008
-504.712	265.301	-0.292	0.504
-503.697	-200.000	-0.036	0.168
-502.683	-83.908	0.029	0.009
-501.668	-46.008	-0.423	0.207
-500.653	72.059	0.257	-0.265
-499.639	42.215	0.173	-0.155
-498.624	-145.823	0.130	-0.011
-497.610	355.012	0.187	0.368
-496.595	-200.000	0.042	-0.189
-495.581	-92.948	-0.234	-0.065
-494.566	116.569	-0.028	-0.034
-493.551	-191.375	0.266	0.003
-492.537	-58.067	-0.171	-0.074
-491.522	189.287	-0.052	-0.077
-490.508	-9.297	0.325	0.215
-489.493	-31.033	-0.120	-0.067
-488.478	-200.000	-0.006	0.144
-487.464	-98.335	-0.107	-0.027
-486.449	-200.000	0.018	0.329
-485.435	478.607	0.061	-0.138
-484.420	-180.121	0.183	0.004
-483.405	231.298	-0.175	-0.284
-482.391	12.563	-0.242	-0.185
-481.376	-122.968	0.140	-0.022
-480.362	-74.355	0.144	-0.051
-479.347	-13.205	-0.210	0.135
-478.332	-48.306	0.146	-0.070
-477.318	475.560	0.074	-0.165
-476.303	-98.785	0.126	0.032
-475.289	272.414	0.130	-0.226
-474.274	-22.545	0.365	-0.219
-473.259	75.821	0.211	-0.221
-472.245	180.982	0.115	-0.167
-471.230	-200.000	0.068	0.417
-470.216	690.509	0.070	0.183
-469.201	-200.000	0.010	0.205
-468.186	-200.000	0.047	0.304
-467.172	-104.202	0.102	-0.023
-466.157	-58.237	-0.133	-0.057
-465.143	-100.244	-0.042	-0.010
-464.128	69.566	0.131	0.134
-463.113	-200.000	-0.042	0.245
-462.099	179.581	0.036	-0.052
-461.084	-156.045	-0.090	-0.006
-460.070	-200.000	-0.024	-0.138
-459.055	95.917	0.109	-0.124
-458.040	-49.856	-0.275	-0.129
-457.026	202.907	0.126	-0.193
-456.011	-200.000	-0.044	0.202
-454.997	-149.159	-0.230	-0.018
-453.982	108.149	0.145	-0.171
-452.968	614.468	0.101	-0.250
-451.953	-97.215	0.097	-0.025
-450.938	377.860	0.010	0.019
-449.924	81.631	-0.104	0.111
-448.909	1.713	0.333	0.237
-447.895	800.000	0.047	0.146
-446.880	72.554	0.032	0.033
-445.865	-165.448	0.144	-0.006
-444.851	136.657	0.308	0.398
-443.836	-31.995	-0.367	-0.203
-442.822	510.155	0.089	0.205
-441.807	-78.407	0.092	-0.031
-440.792	141.399	0.010	-0.014
-439.778	-200.000	-0.058	-0.368
-438.763	800.000	0.124	0.518
-437.749	-200.000	-0.011	-0.097
-436.734	-200.000	-0.017	-0.101
-435.719	58.778	-0.127	-0.124
-434.705	8.913	0.115	0.086
-433.690	51.148	-0.154	0.145
-432.676	-200.000	-0.032	-0.146
-431.661	387.594	-0.059	-0.121
-430.646	800.000	-0.012	-0.041
-429.632	-41.476	0.213	-0.108
-428.617	85.478	-0.382	0.415
-427.603	267.540	-0.124	0.214
-426.588	-123.513	0.355	-0.056
-425.573	55.014	0.211	0.201
-424.559	430.076	0.045	-0.096
-423.544	271.799	-0.172	0.300
-422.530	105.705	0.159	-0.185
-421.515	-200.000	-0.010	-0.182
-420.500	-10.877	-0.141	0.092
-419.486	69.537	0.052	-0.053
-418.471	-119.490	0.170	0.029
-417.457	-5.439	0.072	0.049
-416.442	173.278	-0.097	0.139
-415.428	-200.000	0.082	-0.378
-414.413	800.000	-0.077	0.320
-413.398	28.938	0.202	-0.169
-412.384	668.646	-0.144	0.367
-411.369	18.860	-0.130	-0.103
-410.355	287.211	-0.035	0.062
-409.340	-44.465	-0.132	-0.065
-408.325	137.444	-0.128	-0.166
-407.311	-47.842	0.194	0.093
-406.296	54.695	0.103	-0.098
-405.282	572.108	0.056	0.136
-404.267	386.980	-0.047	0.097
-403.252	-200.000	-0.033	0.248
-402.238	184.241	-0.168	-0.245
-401.223	41.739	-0.121	-0.108
-400.209	-76.426	-0.098	0.034
-399.194	28.546	0.174	-0.145
-398.179	-59.025	-0.101	-0.043
-397.165	321.302	-0.145	0.272
-396.150	-200.000	0.003	0.178
-395.136	-165.824	-0.146	0.006
-394.121	320.276	-0.078	0.146
-393.106	-181.391	-0.313	0.006
-392.092	56.963	0.132	-0.127
-391.077	-63.831	-0.229	0.093
-390.063	-54.868	-0.078	-0.035
-389.048	69.237	-0.144	-0.146
-388.033	-91.882	-0.087	-0.024
-387.019	-148.688	0.366	-0.029
-386.004	-200.000	0.057	-0.298
-384.990	-185.283	-0.176	-0.003
-383.975	233.110	0.088	-0.143
-382.960	68.569	-0.232	0.234
-381.946	101.086	-0.273	0.313
-380.931	57.393	-0.292	0.282
-379.917	279.809	-0.187	-0.330
-378.902	800.000	-0.081	0.227
-377.888	-72.161	0.217	-0.079
-376.873	757.173	-0.102	-0.272
-375.858	-37.536	-0.394	0.207
-374.844	58.853	0.188	0.182
-373.829	-200.000	0.011	-0.049
-372.815	-200.000	0.014	0.182
-371.800	276.434	-0.142	-0.249
-370.785	-23.130	0.270	0.160
-369.771	-200.000	-0.020	0.090
-368.756	-200.000	0.017	0.140
-367.742	179.514	0.187	-0.270
-366.727	800.000	0.042	-0.138
-365.712	-55.422	0.228	-0.101
-364.698	4.101	-0.587	0.423
-363.683	-200.000	-0.016	-0.240
-362.669	-120.806	-0.237	-0.039
-361.654	129.583	0.077	-0.097
-360.639	-28.805	0.182	-0.103
-359.625	13.821	0.132	0.101
-358.610	110.807	0.115	0.136
-357.596	450.126	-0.096	-0.209
-356.581	138.052	-0.077	0.099
-355.566	-84.967	-0.192	-0.059
-354.552	13.713	0.215	-0.164
-353.537	800.000	-0.095	0.325
-352.523	333.475	-0.106	0.202
-351.508	285.652	-0.064	-0.114
-350.493	-70.510	-0.120	0.045
-349.479	800.000	-0.062	0.180
-348.464	81.655	0.275	0.293
-347.450	-129.506	-0.329	-0.045
-346.435	-2.162	-0.141	-0.097
-345.420	592.483	-0.041	0.100
-344.406	261.083	0.121	0.206
-343.391	356.638	0.085	0.167
-342.377	-31.720	-0.275	0.152
-341.362	116.050	-0.100	-0.120
-340.348	72.429	-0.163	0.167
-339.333	-82.873	0.389	-0.124
-338.318	50.288	-0.108	0.101
-337.304	-57.556	0.233	0.101
-336.289	0.666	0.234	0.165
-335.275	800.000	-0.088	-0.280
-334.260	-97.407	-0.231	-0.059
-333.245	-200.000	-0.001	-0.278
-332.231	-200.000	0.033	0.166
-331.216	372.246	0.094	0.188
-330.202	-99.601	-0.189	-0.047
-329.187	-68.519	-0.113	0.043
-328.172	-114.383	0.186	-0.035
-327.158	-65.640	0.178	0.070
-326.143	-61.434	-0.047	0.019
-325.129	438.612	-0.132	-0.283
-324.114	-163.528	0.175	0.008
-323.099	226.868	0.037	0.059
-322.085	79.970	-0.034	-0.036
-321.070	-200.000	-0.019	-0.141
-320.056	126.306	0.179	0.222
-319.041	800.000	-0.040	0.158
-318.026	131.174	0.223	0.282
-317.012	-77.350	0.334	0.114
-315.997	236.096	-0.210	-0.342
-314.983	112.808	-0.298	-0.355
-313.968	-76.751	0.227	-0.078
-312.953	-60.184	-0.149	-0.062
-311.939	-15.956	0.307	0.192
-310.924	-200.000	0.009	-0.083
-309.910	724.828	0.098	0.257
-308.895	-26.211	-0.082	-0.048
-307.880	-200.000	0.040	0.205
-306.866	-200.000	0.001	-0.046
-305.851	41.686	-0.122	0.109
-304.837	-59.103	-0.138	-0.059
-303.822	-141.347	-0.317	-0.032
-302.807	-80.028	0.218	0.072
-301.793	38.675	-0.216	-0.190
-300.778	-32.811	-0.176	0.096
-299.764	-73.066	-0.086	0.031
-298.749	-200.000	-0.114	-0.508
-297.735	414.140	0.088	-0.185
-296.720	-200.000	-0.080	0.386
-295.705	-40.009	-0.152	0.078
-294.691	-3.770	-0.061	-0.042
-293.676	-136.784	0.159	-0.018
-292.662	-58.840	-0.220	0.094
-291.647	355.459	-0.043	0.084
-290.632	-118.981	0.374	-0.064
-289.618	65.173	0.135	0.134
-288.603	-122.714	-0.290	0.046
-287.589	39.227	0.146	-0.128
-286.574	-134.946	0.217	0.026
-285.559	311.375	0.158	-0.290
-284.545	461.987	-0.125	-0.274
-283.530	-150.361	0.141	-0.011
-282.516	-200.000	0.014	0.136
-281.501	-23.966	0.228	-0.134
-280.486	800.000	0.116	-0.432
-279.472	-136.252	-0.242	-0.028
-278.457	183.051	-0.139	0.201
-277.443	248.700	-0.195	0.325
-276.428	800.000	-0.127	0.361
-275.413	-89.339	-0.220	0.064
-274.399	-151.308	-0.103	-0.008
-273.384	393.031	0.230	0.471
-272.370	-200.000	-0.065	0.348
-271.355	-69.343	0.212	-0.080
-270.340	-153.409	-0.343	-0.023
-269.326	800.000	0.029	0.095
-268.311	-122.857	-0.179	-0.028
-267.297	49.287	-0.239	-0.221
-266.282	-200.000	-0.021	0.356
-265.267	800.000	-0.089	-0.275
-264.253	-182.920	0.321	0.006
-263.238	800.000	0.060	-0.248
-262.224	596.770	-0.024	-0.059
-261.209	77.806	-0.130	-0.136
-260.195	-79.373	0.233	-0.077
-259.180	427.900	-0.085	-0.180
-258.165	-126.816	0.204	0.030
-257.151	33.009	-0.237	0.201
-256.136	637.268	0.125	-0.312
-255.122	-94.555	0.206	-0.055
-254.107	-200.000	-0.053	0.270
-253.092	-66.015	0.146	-0.057
-252.078	31.027	0.259	0.218
-251.063	-200.000	0.028	-0.123
-250.049	-63.866	0.112	0.045
-249.034	-200.000	-0.023	0.350
-248.019	-200.000	0.019	-0.270
-247.005	-55.881	-0.334	-0.146
-245.990	-131.142	0.086	0.011
-244.976	141.754	-0.126	-0.163
-243.961	800.000	-0.041	0.155
-242.946	-26.619	-0.030	-0.017
-241.932	-41.325	-0.197	-0.100
-240.917	800.000	0.044	-0.153
-239.903	-40.781	0.120	0.061
-238.888	317.466	0.187	-0.347
-237.873	-46.459	-0.138	-0.067
-236.859	164.225	0.134	0.186
-235.844	279.214	-0.115	-0.200
-234.830	-132.199	0.218	-0.028
-233.815	-98.797	0.527	0.131
-232.800	181.316	-0.180	-0.260
-231.786	387.005	-0.055	0.112
-230.771	-162.984	-0.215	0.010
-229.757	54.689	-0.160	0.151
-228.742	-200.000	0.020	0.268
-227.727	-50.099	-0.143	-0.066
-226.713	-58.093	0.074	0.032
-225.698	9.670	0.125	0.093
-224.684	-27.129	0.031	0.018
-223.669	0.321	0.092	-0.064
-222.655	26.246	-0.191	0.156
-221.640	44.829	0.105	-0.094
-220.625	-81.447	0.179	-0.058
-219.611	53.087	-0.110	-0.103
-218.596	37.002	-0.309	0.268
-217.582	28.133	0.170	0.141
-216.567	135.029	-0.150	0.191
-215.552	149.742	0.075	-0.100
-214.538	384.053	0.143	-0.288
-213.523	-28.618	-0.117	-0.066
-212.509	36.340	0.182	0.157
-211.494	-13.459	0.032	0.020
-210.479	197.431	-0.120	-0.179
-209.465	-200.000	-0.002	0.107
-208.450	800.000	-0.081	-0.346
-207.436	241.542	-0.127	0.208
-206.421	153.731	-0.107	0.144
-205.406	-115.450	-0.122	-0.023
-204.392	-200.000	-0.005	0.230
-203.377	103.754	0.119	-0.137
-202.363	-35.975	-0.201	-0.107
-201.348	-200.000	0.040	-0.195
-200.333	274.964	0.212	-0.368
-199.319	266.984	0.015	0.025
-198.304	-100.197	-0.399	0.097
-197.290	-183.316	-0.191	0.003
-196.275	-200.000	-0.000	0.044
-195.260	-49.631	0.042	-0.020
-194.246	-82.918	-0.095	-0.030
-193.231	101.134	0.072	0.082
-192.217	301.883	0.144	0.260
-191.202	-129.355	0.191	-0.026
-190.187	430.950	-0.128	0.271
-189.173	-67.933	-0.352	0.135
-188.158	-89.105	0.213	0.062
-187.144	-139.293	0.396	0.042
-186.129	-174.853	-0.087	-0.002
-185.114	800.000	-0.091	0.362
-184.100	800.000	0.037	0.135
-183.085	157.064	-0.159	-0.215
-182.071	-80.622	0.295	0.096
-181.056	-80.672	0.538	0.175
-180.042	218.486	0.045	-0.070
-179.027	-200.000	0.004	0.218
-178.012	103.816	0.097	0.112
-176.998	22.433	0.043	0.035
-175.983	50.243	-0.084	0.078
-174.969	800.000	-0.040	-0.160
-173.954	-112.200	-0.012	0.002
-172.939	288.194	0.158	-0.279
-171.925	800.000	-0.089	0.282
-170.910	-101.718	0.228	0.054
-169.896	75.643	0.135	-0.139
-168.881	-93.117	0.186	0.051
-167.866	-59.236	-0.155	0.065
-166.852	-200.000	-0.004	-0.068
-165.837	26.423	0.066	0.054
-164.823	-200.000	-0.049	-0.239
-163.808	800.000	0.085	-0.312
-162.793	240.310	0.045	-0.074
-161.779	800.000	-0.027	0.097
-160.764	-156.013	-0.168	-0.010
-159.750	-184.432	-0.085	-0.001
-158.735	-118.940	-0.240	-0.041
-157.720	800.000	0.070	-0.217
-156.706	-124.348	-0.156	0.024
-155.691	800.000	-0.036	-0.138
-154.677	56.166	0.170	0.161
-153.662	790.278	-0.077	-0.207
-152.647	-70.110	0.145	-0.054
-151.633	800.000	-0.075	-0.217
-150.618	67.496	0.088	-0.087
-149.604	190.593	-0.110	-0.162
-148.589	800.000	-0.056	-0.222
-147.574	-84.836	0.155	0.048
-146.560	748.116	0.094	-0.247
-145.545	-112.296	0.450	0.088
-144.531	280.819	0.095	0.165
-143.516	73.632	0.144	0.147
-142.502	-200.000	-0.015	0.324
-141.487	39.866	-0.077	0.068
-140.472	-54.401	-0.020	-0.009
-139.458	308.627	0.108	0.197
-138.443	-168.607	-0.363	-0.013
-137.429	-200.000	0.010	-0.373
-136.414	47.526	0.228	-0.208
-135.399	-98.529	0.242	0.060
-134.385	53.387	0.119	0.112
-133.370	-109.377	0.225	-0.047
-132.356	54.833	0.187	-0.176
-131.341	62.328	-0.225	0.219
-130.326	-67.552	-0.254	0.097
-129.312	60.407	0.125	0.121
-128.297	-30.053	0.126	0.070
-127.283	189.692	0.070	0.102
-126.268	-200.000	-0.001	-0.024
-125.253	-138.409	0.146	-0.016
-124.239	800.000	0.073	-0.260
-123.224	89.540	-0.225	0.245
-122.210	-200.000	0.029	0.367
-121.195	660.175	-0.039	0.099
