DTS Sentinel unit serial number:	SN413079Multiplexer serial number:	ORYXHardware model number:	OX4-SRSoftware version number:	ORYX F/W v4.00 Oryx Data Collector v3.7.2.0data status	okinstallation	princeton_trtdifferential loss correction	single-endedforward channel	channel 3reverse channel	N/Adate	2019/09/17time	10:00:35forward acquisition time	60.00reverse acquisition time	0.00gamma	496.2192k internal	0.2323k external	0.2323temperature offset calibration	0.9943default loss term (dB/km)	0.3790temperature slope calibration	1.0000multiplexer offset coefficient	1.0000multiplexer slope coefficient	1.0000fibre end	0.00T internal ref (°C)	29.62T ext. ref 1 (°C)	0.17T ext. ref 2 (°C)	25.31length (m)	temperature (°C)	Stokes	anti-Stokes-747.200	-89.356	0.139	-0.041
-746.185	-101.753	0.085	-0.021
-745.171	-11.309	-0.029	-0.019
-744.156	56.091	-0.217	0.213
-743.142	-200.000	-0.015	0.111
-742.127	445.634	-0.014	-0.030
-741.112	800.000	0.126	0.429
-740.098	30.645	-0.217	0.187
-739.083	-9.244	0.141	-0.095
-738.069	-93.946	-0.455	-0.126
-737.054	800.000	0.047	0.204
-736.039	-23.246	0.325	0.198
-735.025	1.610	-0.082	0.060
-734.010	-73.948	-0.321	-0.118
-732.996	-112.012	-0.165	-0.034
-731.981	-50.853	-0.297	-0.141
-730.966	163.795	-0.055	0.079
-729.952	-3.125	-0.115	-0.081
-728.937	-200.000	0.016	-0.175
-727.923	-88.582	-0.204	-0.061
-726.908	-18.280	-0.158	0.100
-725.894	-85.250	0.066	0.021
-724.879	10.643	-0.245	-0.188
-723.864	-12.156	-0.122	-0.080
-722.850	-200.000	-0.062	-0.291
-721.835	-57.694	-0.075	-0.033
-720.821	191.317	-0.054	-0.082
-719.806	-131.996	0.079	0.010
-718.791	-200.000	-0.023	-0.283
-717.777	137.189	0.128	0.169
-716.762	34.658	-0.280	0.247
-715.748	-200.000	0.034	0.263
-714.733	324.725	0.046	0.089
-713.718	-64.531	-0.078	-0.032
-712.704	-82.257	0.091	-0.030
-711.689	-165.715	0.195	-0.009
-710.675	-200.000	-0.002	0.140
-709.660	117.634	0.058	0.072
-708.645	-200.000	0.052	-0.316
-707.631	800.000	0.049	-0.135
-706.616	-200.000	-0.036	-0.221
-705.602	94.194	0.074	0.085
-704.587	-200.000	-0.006	-0.073
-703.572	658.450	-0.127	0.329
-702.558	314.572	-0.100	-0.190
-701.543	-99.440	0.131	0.033
-700.529	349.124	-0.054	0.108
-699.514	-155.155	0.259	0.017
-698.499	-133.897	-0.122	0.015
-697.485	-64.944	0.220	0.090
-696.470	-200.000	0.069	0.438
-695.456	-102.145	-0.157	-0.038
-694.441	-137.492	0.122	0.014
-693.426	106.048	0.076	-0.091
-692.412	800.000	-0.055	-0.164
-691.397	-200.000	0.022	-0.473
-690.383	-24.248	-0.158	-0.095
-689.368	800.000	-0.062	0.199
-688.354	152.700	0.060	-0.083
-687.339	-172.753	-0.036	0.001
-686.324	800.000	-0.017	0.071
-685.310	368.992	0.134	-0.274
-684.295	-200.000	0.005	0.187
-683.281	232.549	-0.208	0.345
-682.266	-200.000	0.061	0.278
-681.251	800.000	-0.109	0.344
-680.237	800.000	-0.124	0.384
-679.222	-200.000	-0.027	-0.254
-678.208	41.573	-0.200	0.182
-677.193	4.188	0.285	0.210
-676.178	-196.474	0.070	-0.000
-675.164	533.355	-0.040	0.095
-674.149	119.190	0.177	-0.220
-673.135	84.275	-0.197	-0.217
-672.120	-117.247	-0.122	0.022
-671.105	244.217	-0.066	0.111
-670.091	94.853	-0.098	-0.112
-669.076	800.000	-0.023	-0.082
-668.062	-150.445	0.141	-0.011
-667.047	-85.153	-0.289	0.091
-666.032	-82.875	-0.142	0.046
-665.018	-200.000	0.005	-0.154
-664.003	205.613	-0.142	-0.223
-662.989	116.083	-0.060	-0.074
-661.974	-200.000	0.182	-0.000
-660.959	26.103	-0.284	0.239
-659.945	15.212	-0.084	0.066
-658.930	-200.000	0.017	0.340
-657.916	-11.386	-0.060	0.039
-656.901	-200.000	-0.048	0.318
-655.886	-130.771	-0.024	-0.003
-654.872	-57.535	-0.240	-0.106
-653.857	85.988	0.041	-0.045
-652.843	-200.000	-0.004	0.201
-651.828	-119.881	0.172	-0.030
-650.814	103.660	-0.116	0.137
-649.799	417.973	0.177	-0.380
-648.784	328.272	-0.171	-0.331
-647.770	89.066	0.098	-0.110
-646.755	121.878	0.165	-0.207
-645.741	-200.000	0.018	-0.302
-644.726	241.969	-0.086	-0.145
-643.711	-4.848	0.089	0.062
-642.697	-99.587	0.223	-0.056
-641.682	-57.532	0.222	0.098
-640.668	70.786	-0.255	-0.265
-639.653	-8.805	0.111	-0.075
-638.638	-81.562	0.057	0.019
-637.624	-200.000	-0.233	-0.000
-636.609	366.273	-0.075	-0.152
-635.595	146.391	-0.307	-0.414
-634.580	-200.000	-0.019	-0.311
-633.565	-200.000	0.063	-0.340
-632.551	21.718	0.332	-0.272
-631.536	183.975	-0.116	0.172
-630.522	-10.727	0.097	0.064
-629.507	-20.977	-0.158	-0.097
-628.492	130.542	0.179	-0.231
-627.478	-151.741	0.150	0.011
-626.463	-200.000	-0.016	-0.236
-625.449	-103.178	-0.205	0.049
-624.434	-200.000	-0.005	-0.134
-623.419	-200.000	0.015	0.189
-622.405	-4.404	-0.282	-0.196
-621.390	-172.860	0.376	-0.012
-620.376	-200.000	0.015	-0.067
-619.361	539.253	-0.026	-0.061
-618.346	800.000	-0.028	-0.079
-617.332	-113.873	0.414	-0.081
-616.317	-140.198	-0.274	0.029
-615.303	-73.013	-0.295	0.109
-614.288	-120.704	-0.158	-0.027
-613.273	-73.352	0.211	-0.078
-612.259	-200.000	-0.019	0.459
-611.244	-22.633	-0.206	0.125
-610.230	110.461	-0.068	0.082
-609.215	-38.461	0.037	-0.020
-608.201	-200.000	0.007	-0.273
-607.186	800.000	-0.098	-0.287
-606.171	-159.619	-0.122	0.007
-605.157	800.000	-0.114	-0.379
-604.142	145.756	-0.236	-0.318
-603.128	800.000	-0.045	-0.134
-602.113	-39.344	0.122	0.064
-601.098	11.493	-0.239	-0.184
-600.084	162.392	0.041	0.058
-599.069	85.195	-0.278	-0.306
-598.055	-200.000	-0.002	0.179
-597.040	29.900	-0.265	0.226
-596.025	14.411	-0.222	-0.174
-595.011	-200.000	0.042	0.219
-593.996	-200.000	-0.040	0.179
-592.982	-200.000	0.032	0.142
-591.967	800.000	0.105	0.335
-590.952	48.446	0.168	0.158
-589.938	-9.257	-0.129	0.087
-588.923	-162.029	0.516	0.026
-587.909	-158.587	-0.180	-0.010
-586.894	-21.497	0.228	0.139
-585.879	210.932	0.294	0.464
-584.865	800.000	0.114	0.324
-583.850	-97.613	0.327	0.085
-582.836	-83.463	-0.384	0.123
-581.821	294.482	0.068	0.125
-580.806	-40.656	0.245	-0.128
-579.792	-109.019	-0.047	0.010
-578.777	-200.000	-0.053	0.330
-577.763	-7.463	0.093	-0.063
-576.748	-43.978	-0.072	-0.036
-575.733	-200.000	0.003	-0.025
-574.719	-124.030	-0.324	0.051
-573.704	19.541	-0.080	-0.065
-572.690	-157.095	0.046	0.003
-571.675	135.993	0.301	0.393
-570.661	19.965	0.164	0.133
-569.646	-200.000	0.117	-0.542
-568.631	312.836	-0.068	0.127
-567.617	-200.000	0.019	0.187
-566.602	-38.833	-0.331	0.175
-565.588	-200.000	0.034	0.217
-564.573	217.967	0.189	0.302
-563.558	-114.910	-0.069	-0.013
-562.544	8.367	-0.146	-0.110
-561.529	222.517	0.099	-0.160
-560.515	54.214	0.074	-0.071
-559.500	-83.412	0.385	-0.124
-558.485	-200.000	0.013	-0.081
-557.471	-200.000	-0.047	-0.269
-556.456	200.657	-0.104	-0.160
-555.442	-200.000	-0.022	-0.135
-554.427	-200.000	-0.009	0.065
-553.412	54.943	0.065	-0.063
-552.398	-138.507	-0.210	0.023
-551.383	-100.341	0.120	0.030
-550.369	262.091	0.026	0.046
-549.354	-148.455	-0.111	-0.009
-548.339	255.315	0.131	0.225
-547.325	281.056	0.048	-0.086
-546.310	-15.643	-0.256	0.163
-545.296	-60.349	0.078	0.033
-544.281	50.476	0.220	0.209
-543.266	79.360	-0.046	0.050
-542.252	800.000	-0.087	0.254
-541.237	239.533	0.248	-0.413
-540.223	-69.376	-0.190	0.073
-539.208	496.286	-0.115	0.265
-538.193	503.524	0.128	0.296
-537.179	-46.586	0.116	0.057
-536.164	160.309	0.293	-0.409
-535.150	255.110	-0.164	-0.282
-534.135	0.112	-0.104	0.074
-533.121	14.613	0.183	-0.143
-532.106	800.000	0.085	-0.341
-531.091	44.606	-0.243	0.223
-530.077	349.358	-0.177	-0.351
-529.062	103.559	-0.014	0.016
-528.048	154.811	0.030	-0.041
-527.033	-51.012	-0.316	0.149
-526.018	330.967	-0.149	0.287
-525.004	800.000	0.102	-0.369
-523.989	-90.532	-0.426	0.123
-522.975	122.603	-0.052	0.065
-521.960	-200.000	-0.021	-0.192
-520.945	-52.668	0.400	0.185
-519.931	-52.264	0.011	-0.005
-518.916	400.205	-0.035	-0.072
-517.902	198.422	0.254	0.388
-516.887	126.824	0.200	-0.254
-515.872	360.135	-0.062	0.123
-514.858	-200.000	-0.032	0.172
-513.843	412.394	-0.144	0.306
-512.829	-134.193	-0.210	0.026
-511.814	270.359	0.171	0.302
-510.799	800.000	0.121	0.419
-509.785	-2.938	-0.108	0.075
-508.770	-123.583	-0.095	-0.015
-507.756	-200.000	0.089	0.455
-506.741	84.360	-0.117	0.128
-505.726	-159.555	0.161	-0.009
-504.712	-23.210	-0.116	0.070
-503.697	784.112	0.062	0.170
-502.683	800.000	0.030	0.130
-501.668	724.626	-0.097	-0.260
-500.653	-200.000	-0.004	0.089
-499.639	498.353	0.076	0.174
-498.624	50.497	-0.237	-0.224
-497.610	-45.974	-0.130	-0.064
-496.595	-142.659	-0.336	-0.033
-495.581	-19.497	0.175	-0.108
-494.566	-16.739	-0.050	0.031
-493.551	127.527	0.144	-0.183
-492.537	-129.649	-0.312	0.043
-491.522	11.775	0.128	0.098
-490.508	-72.805	0.100	0.037
-489.493	-49.887	-0.411	-0.195
-488.478	-77.358	-0.127	-0.044
-487.464	789.902	-0.086	-0.237
-486.449	-148.413	-0.511	-0.042
-485.435	-108.152	0.118	0.026
-484.420	-66.543	-0.226	0.090
-483.405	-200.000	0.001	0.071
-482.391	13.359	0.052	0.040
-481.376	-61.956	0.398	-0.166
-480.362	800.000	0.028	-0.094
-479.347	16.215	0.350	0.276
-478.332	384.753	-0.062	-0.128
-477.318	-131.928	0.239	0.031
-476.303	32.027	-0.114	-0.098
-475.289	-118.443	0.111	0.020
-474.274	800.000	-0.090	0.333
-473.259	-58.583	0.366	-0.159
-472.245	-21.058	-0.333	-0.204
-471.230	-128.816	-0.102	0.014
-470.216	-74.583	-0.377	0.135
-469.201	-102.974	-0.202	-0.048
-468.186	-149.217	0.358	0.029
-467.172	36.208	0.129	0.113
-466.157	-200.000	0.006	-0.092
-465.143	-105.656	-0.235	0.053
-464.128	-104.881	-0.430	0.099
-463.113	-91.158	0.037	0.011
-462.099	-200.000	-0.009	0.099
-461.084	800.000	-0.113	-0.366
-460.070	800.000	0.089	0.257
-459.055	-200.000	0.007	0.124
-458.040	40.794	-0.145	0.130
-457.026	178.701	0.115	-0.168
-456.011	-200.000	-0.031	0.189
-454.997	-200.000	-0.022	0.124
-453.982	353.026	-0.068	-0.135
-452.968	561.799	0.089	-0.216
-451.953	8.127	0.184	-0.138
-450.938	-200.000	0.057	-0.503
-449.924	-60.668	0.349	0.148
-448.909	-104.722	0.147	-0.034
-447.895	489.375	0.053	0.120
-446.880	-121.780	0.300	0.049
-445.865	92.942	0.239	0.270
-444.851	-78.087	-0.272	0.093
-443.836	-200.000	-0.023	-0.239
-442.822	62.266	-0.259	-0.258
-441.807	11.587	0.113	0.087
-440.792	317.538	0.224	0.422
-439.778	92.585	0.036	0.040
-438.763	82.096	-0.151	-0.163
-437.749	116.193	0.169	-0.207
-436.734	-56.486	0.076	0.034
-435.719	422.356	-0.107	0.230
-434.705	800.000	0.134	-0.374
-433.690	763.379	-0.067	0.181
-432.676	800.000	0.084	-0.267
-431.661	-118.469	0.459	0.081
-430.646	-200.000	-0.006	-0.088
-429.632	-132.868	-0.153	-0.019
-428.617	-200.000	-0.039	-0.184
-427.603	800.000	-0.018	0.058
-426.588	239.616	-0.054	0.090
-425.573	-56.457	-0.426	-0.189
-424.559	-136.127	-0.066	0.008
-423.544	-55.024	0.191	0.086
-422.530	-200.000	-0.003	0.185
-421.515	-55.533	0.085	0.038
-420.500	-70.452	-0.215	0.081
-419.486	95.276	0.237	0.269
-418.471	800.000	-0.037	0.151
-417.457	-41.795	0.299	-0.153
-416.442	800.000	-0.096	-0.296
-415.428	626.869	0.066	-0.166
-414.413	317.604	-0.119	0.225
-413.398	414.426	-0.087	-0.185
-412.384	-200.000	-0.032	0.231
-411.369	-200.000	0.004	0.121
-410.355	-200.000	-0.079	-0.357
-409.340	191.280	0.135	0.202
-408.325	115.992	0.038	-0.046
-407.311	-16.917	0.223	-0.140
-406.296	68.352	0.071	0.072
-405.282	119.094	0.140	0.172
-404.267	199.280	0.063	-0.097
-403.252	-95.354	0.184	-0.049
-402.238	150.101	0.129	-0.174
-401.223	-26.197	-0.221	0.129
-400.209	-200.000	0.059	0.321
-399.194	-14.214	0.042	0.027
-398.179	-104.813	-0.306	-0.070
-397.165	73.994	-0.027	0.028
-396.150	-200.000	0.034	-0.218
-395.136	481.420	0.057	-0.128
-394.121	-139.185	-0.411	0.044
-393.106	-88.258	-0.291	0.087
-392.092	-66.529	-0.222	-0.088
-391.077	54.082	-0.195	-0.187
-390.063	-69.360	-0.401	-0.153
-389.048	-93.984	-0.207	-0.057
-388.033	-0.669	0.084	-0.059
-387.019	-110.817	0.484	0.099
-386.004	159.879	-0.220	-0.306
-384.990	-200.000	-0.003	-0.456
-383.975	489.571	-0.057	-0.131
-382.960	546.442	-0.134	-0.319
-381.946	-26.099	0.015	-0.008
-380.931	100.721	-0.189	0.219
-379.917	327.160	0.132	0.253
-378.902	701.480	-0.108	0.284
-377.888	-34.468	-0.234	-0.128
-376.873	-127.672	0.299	0.043
-375.858	-92.753	0.170	-0.047
-374.844	62.898	0.078	-0.078
-373.829	-200.000	0.019	0.212
-372.815	-77.220	-0.281	0.097
-371.800	80.843	-0.181	0.194
-370.785	66.183	0.179	0.181
-369.771	285.247	-0.031	0.056
-368.756	800.000	-0.021	0.058
-367.742	-3.109	-0.070	0.049
-366.727	-73.605	-0.125	-0.045
-365.712	-53.482	0.276	0.126
-364.698	148.705	-0.148	-0.199
-363.683	22.132	0.126	0.103
-362.669	54.538	-0.165	0.159
-361.654	-37.029	0.117	0.062
-360.639	95.019	0.091	-0.103
-359.625	-200.000	-0.072	-0.416
-358.610	-200.000	0.008	-0.146
-357.596	-43.809	-0.231	0.116
-356.581	-19.651	-0.210	0.129
-355.566	-81.686	0.314	0.103
-354.552	40.778	-0.323	0.289
-353.537	-53.818	0.139	0.063
-352.523	256.054	-0.102	0.174
-351.508	446.351	-0.075	-0.163
-350.493	-200.000	0.015	0.093
-349.479	-109.821	-0.067	0.014
-348.464	108.341	-0.182	-0.216
-347.450	-23.669	0.501	0.298
-346.435	-200.000	-0.006	0.111
-345.420	247.273	0.073	0.122
-344.406	19.612	-0.125	0.100
-343.391	119.226	-0.278	-0.342
-342.377	-60.709	0.108	0.046
-341.362	800.000	-0.062	-0.193
-340.348	-130.722	-0.342	0.046
-339.333	-104.614	-0.227	0.052
-338.318	-99.840	0.304	0.076
-337.304	46.493	-0.235	0.217
-336.289	-126.964	0.225	-0.033
-335.275	-200.000	-0.020	0.188
-334.260	-114.169	0.386	0.074
-333.245	-85.519	-0.347	-0.107
-332.231	-200.000	0.054	0.252
-331.216	-42.714	0.353	-0.178
-330.202	196.090	-0.023	-0.034
-329.187	519.400	-0.096	-0.224
-328.172	-111.450	0.079	0.016
-327.158	349.697	0.196	0.384
-326.143	-200.000	0.000	0.207
-325.129	-200.000	-0.035	0.207
-324.114	-78.030	0.333	-0.114
-323.099	614.694	0.146	-0.363
-322.085	629.393	-0.133	-0.334
-321.070	-95.442	0.178	-0.048
-320.056	-127.627	0.285	0.041
-319.041	-37.150	-0.192	0.102
-318.026	207.691	-0.100	-0.155
-317.012	-85.884	-0.128	-0.039
-315.997	-200.000	-0.008	-0.204
-314.983	-12.878	0.098	0.064
-313.968	-124.172	0.566	0.088
-312.953	612.445	-0.164	-0.408
-311.939	800.000	-0.014	-0.040
-310.924	-101.617	0.181	0.044
-309.910	-68.897	0.260	-0.100
-308.895	216.860	-0.174	0.275
-307.880	312.644	-0.175	-0.327
-306.866	130.311	-0.171	-0.217
-305.851	171.971	0.036	0.051
-304.837	800.000	-0.056	-0.233
-303.822	-200.000	-0.017	0.319
-302.807	16.247	0.234	0.183
-301.793	477.179	0.054	-0.122
-300.778	-140.685	0.374	0.038
-299.764	800.000	0.052	-0.157
-298.749	448.478	0.047	0.102
-297.735	188.950	0.106	-0.157
-296.720	-200.000	-0.001	-0.011
-295.705	353.548	0.097	0.192
-294.691	26.283	0.301	0.250
-293.676	-74.406	-0.187	-0.067
-292.662	-200.000	-0.000	-0.190
-291.647	-50.519	-0.315	0.148
-290.632	180.585	0.167	0.243
-289.618	-109.539	-0.275	-0.057
-288.603	-15.860	0.185	-0.117
-287.589	12.200	-0.423	-0.323
-286.574	-200.000	-0.006	-0.381
-285.559	-163.812	0.135	-0.006
-284.545	-149.660	-0.188	0.015
-283.530	-200.000	0.046	-0.215
-282.516	-27.744	-0.129	-0.074
-281.501	119.406	0.093	-0.115
-280.486	800.000	-0.072	-0.234
-279.472	41.464	-0.158	-0.142
-278.457	800.000	0.043	0.184
-277.443	544.870	-0.034	-0.081
-276.428	-18.497	-0.278	0.172
-275.413	-170.167	0.318	-0.011
-274.399	136.746	-0.192	0.249
-273.384	800.000	0.039	0.140
-272.370	77.982	0.126	-0.133
-271.355	620.082	0.039	-0.097
-270.340	-72.689	-0.039	-0.014
-269.326	712.712	-0.053	0.139
-268.311	-200.000	-0.008	-0.072
-267.297	-200.000	0.035	-0.460
-266.282	800.000	-0.063	0.215
-265.267	-88.078	-0.325	0.097
-264.253	-124.677	0.188	0.029
-263.238	50.985	-0.134	0.126
-262.224	221.511	0.053	0.084
-261.209	94.382	-0.130	-0.146
-260.195	-200.000	-0.011	0.084
-259.180	30.022	0.062	-0.053
-258.165	229.913	0.112	0.181
-257.151	-107.681	-0.214	0.046
-256.136	-31.195	0.258	-0.144
-255.122	35.198	-0.187	-0.163
-254.107	593.290	0.100	0.244
-253.092	101.836	-0.081	0.094
-252.078	-200.000	0.043	0.214
-251.063	-69.016	-0.276	-0.105
-250.049	800.000	-0.098	0.364
-249.034	-54.989	0.196	0.088
-248.019	-200.000	0.000	0.016
-247.005	-98.049	0.057	-0.015
-245.990	-81.841	0.197	-0.064
-244.976	800.000	0.051	0.179
-243.961	-200.000	-0.009	0.082
-242.946	-28.185	0.092	-0.052
-241.932	32.232	0.212	-0.181
-240.917	36.068	-0.192	-0.168
-239.903	-34.549	0.118	-0.064
-238.888	-54.614	-0.047	0.021
-237.873	-200.000	-0.120	-0.529
-236.859	800.000	-0.073	-0.228
-235.844	25.319	-0.142	0.117
-234.830	-114.935	0.197	0.037
-233.815	29.143	-0.191	0.160
-232.800	-117.032	-0.114	-0.021
-231.786	-200.000	0.045	0.405
-230.771	18.651	-0.231	0.183
-229.757	800.000	0.078	0.227
-228.742	96.190	-0.159	0.180
-227.727	652.298	0.080	0.202
-226.713	-135.053	0.352	0.042
-225.698	800.000	-0.023	-0.076
-224.684	-200.000	-0.047	-0.389
-223.669	800.000	0.026	0.092
-222.655	-109.908	-0.264	-0.055
-221.640	-91.768	-0.055	0.015
-220.625	-14.551	0.419	0.266
-219.611	-200.000	0.011	-0.424
-218.596	-155.258	-0.365	-0.023
-217.582	800.000	-0.055	-0.180
-216.567	-200.000	0.005	0.042
-215.552	-200.000	-0.002	-0.150
-214.538	318.512	0.124	-0.231
-213.523	143.903	0.075	-0.099
-212.509	81.249	-0.133	0.142
-211.494	175.788	0.060	0.086
-210.479	-200.000	-0.004	0.247
-209.465	22.198	-0.079	-0.064
-208.450	-152.457	0.392	-0.028
-207.436	83.587	0.220	-0.237
-206.421	-200.000	0.050	0.454
-205.406	-190.447	-0.196	-0.002
-204.392	463.640	0.022	-0.048
-203.377	-200.000	0.023	-0.136
-202.363	-200.000	-0.001	0.140
-201.348	327.861	-0.080	-0.151
-200.333	85.066	0.199	0.215
-199.319	800.000	-0.027	0.115
-198.304	-1.330	-0.066	-0.046
-197.290	-200.000	0.015	0.191
-196.275	-200.000	-0.012	0.641
-195.260	50.784	-0.084	-0.078
-194.246	388.021	0.112	-0.230
-193.231	-200.000	-0.025	0.302
-192.217	-200.000	-0.005	0.080
-191.202	-98.453	0.319	0.081
-190.187	665.178	0.010	-0.025
-189.173	-21.859	-0.069	0.041
-188.158	-200.000	0.003	0.182
-187.144	800.000	-0.093	0.292
-186.129	-7.879	0.196	0.131
-185.114	-200.000	0.021	-0.142
-184.100	-62.859	0.016	0.007
-183.085	52.648	0.044	-0.041
-182.071	-179.185	-0.090	-0.002
-181.056	-200.000	-0.015	0.260
-180.042	221.415	-0.101	-0.160
-179.027	96.656	0.152	0.172
-178.012	62.830	-0.104	-0.103
-176.998	6.232	-0.158	-0.116
-175.983	697.623	0.092	-0.238
-174.969	126.043	-0.281	-0.351
-173.954	-61.945	0.219	0.090
-172.939	-200.000	-0.052	-0.270
-171.925	65.884	0.124	-0.124
-170.910	-170.491	-0.185	0.006
-169.896	-151.773	0.243	0.018
-168.881	87.466	0.113	-0.123
-167.866	-200.000	-0.024	0.155
-166.852	-125.301	0.117	0.018
-165.837	75.216	0.088	0.092
-164.823	-32.334	-0.210	-0.116
-163.808	-200.000	0.047	0.305
-162.793	287.810	-0.042	-0.076
-161.779	-47.534	0.263	-0.126
-160.764	-114.694	-0.062	-0.012
-159.750	-200.000	-0.015	-0.322
-158.735	-44.807	0.250	-0.123
-157.720	-28.182	0.270	-0.154
-156.706	244.335	-0.133	0.221
-155.691	-98.345	0.044	0.011
-154.677	49.312	0.072	0.067
-153.662	-200.000	-0.050	0.348
-152.647	75.509	0.100	0.104
-151.633	-200.000	-0.011	0.143
-150.618	-126.732	-0.207	0.030
-149.604	209.945	-0.074	0.115
-148.589	688.994	0.033	0.085
-147.574	43.232	-0.069	-0.062
-146.560	-59.232	-0.026	-0.011
-145.545	53.393	-0.123	0.116
-144.531	-148.115	-0.178	-0.015
-143.516	-133.111	0.293	0.037
-142.502	-70.586	-0.494	0.184
-141.487	14.584	-0.295	0.227
-140.472	-28.985	-0.266	0.151
-139.458	800.000	0.126	0.478
-138.443	108.194	0.183	0.215
-137.429	-78.995	-0.154	0.052
-136.414	68.412	-0.250	-0.253
-135.399	701.343	0.034	-0.088
-134.385	-78.553	-0.016	-0.006
-133.370	180.616	-0.060	-0.086
-132.356	37.149	0.390	0.340
-131.341	0.065	0.121	0.085
-130.326	-200.000	0.032	0.164
-129.312	-121.483	0.522	0.086
-128.297	776.573	-0.123	-0.332
-127.283	-41.751	0.255	-0.129
-126.268	485.334	0.153	0.343
-125.253	-170.851	-0.067	-0.002
-124.239	89.634	-0.229	0.251
-123.224	800.000	-0.053	0.193
-122.210	800.000	-0.078	0.330
