DTS Sentinel unit serial number:	SN413079Multiplexer serial number:	ORYXHardware model number:	OX4-SRSoftware version number:	ORYX F/W v4.00 Oryx Data Collector v3.7.2.0data status	okinstallation	princeton_trtdifferential loss correction	single-endedforward channel	channel 3reverse channel	N/Adate	2019/09/14time	06:44:35forward acquisition time	60.00reverse acquisition time	0.00gamma	496.2192k internal	0.2340k external	0.2340temperature offset calibration	1.0055default loss term (dB/km)	0.3790temperature slope calibration	1.0000multiplexer offset coefficient	1.0000multiplexer slope coefficient	1.0000fibre end	0.00T internal ref (°C)	26.31T ext. ref 1 (°C)	3.43T ext. ref 2 (°C)	20.64length (m)	temperature (°C)	Stokes	anti-Stokes-747.200	-48.806	-0.217	-0.104
-746.185	-200.000	0.001	-0.224
-745.171	-86.475	0.263	0.081
-744.156	88.873	-0.080	-0.090
-743.142	3.140	0.207	-0.151
-742.127	-200.000	0.031	0.139
-741.112	-76.406	0.100	-0.035
-740.098	-47.428	0.136	0.066
-739.083	3.307	-0.125	-0.091
-738.069	403.162	-0.204	0.430
-737.054	192.706	-0.048	-0.073
-736.039	-105.825	-0.060	-0.014
-735.025	-82.150	0.291	0.095
-734.010	666.316	-0.044	-0.115
-732.996	279.560	-0.112	0.201
-731.981	29.046	-0.126	0.107
-730.966	151.982	0.272	0.371
-729.952	130.345	0.122	0.156
-728.937	-200.000	-0.069	-0.344
-727.923	800.000	-0.139	0.395
-726.908	-71.156	-0.203	-0.076
-725.894	800.000	-0.069	-0.230
-724.879	120.189	-0.089	-0.111
-723.864	30.770	0.178	-0.153
-722.850	-200.000	0.036	0.212
-721.835	-159.924	-0.336	-0.018
-720.821	399.885	-0.094	-0.197
-719.806	316.501	0.224	-0.423
-718.791	-95.967	-0.282	-0.075
-717.777	446.884	-0.181	0.398
-716.762	-200.000	-0.039	-0.243
-715.748	-136.544	0.201	0.023
-714.733	-102.771	0.264	0.063
-713.718	-12.448	0.163	-0.107
-712.704	25.453	-0.088	0.074
-711.689	-200.000	-0.006	-0.036
-710.675	800.000	-0.059	-0.231
-709.660	-5.800	-0.276	-0.189
-708.645	-70.121	-0.071	0.027
-707.631	-157.398	-0.085	0.005
-706.616	-200.000	-0.023	-0.206
-705.602	-32.974	-0.408	-0.227
-704.587	-200.000	0.056	-0.334
-703.572	204.714	-0.106	0.165
-702.558	16.079	-0.223	-0.176
-701.543	-64.947	-0.336	-0.136
-700.529	583.594	0.051	0.124
-699.514	122.343	0.124	-0.155
-698.499	312.296	0.102	-0.192
-697.485	-200.000	0.010	-0.140
-696.470	47.708	0.143	0.134
-695.456	-29.930	0.189	0.107
-694.441	-154.920	0.106	0.007
-693.426	13.615	-0.093	0.072
-692.412	-52.591	0.103	-0.048
-691.397	315.174	0.091	0.172
-690.383	-200.000	-0.022	-0.131
-689.368	50.971	-0.101	-0.096
-688.354	421.911	-0.119	-0.256
-687.339	107.506	-0.130	0.155
-686.324	526.705	0.057	0.133
-685.310	446.116	-0.133	-0.292
-684.295	0.073	0.159	0.113
-683.281	-52.208	0.018	-0.008
-682.266	-76.821	-0.135	-0.047
-681.251	-103.953	0.304	0.071
-680.237	76.355	-0.212	-0.224
-679.222	-61.334	-0.285	-0.120
-678.208	-63.761	0.134	-0.055
-677.193	-72.055	0.221	0.082
-676.178	-98.571	-0.103	0.026
-675.164	30.088	-0.273	-0.232
-674.149	-100.416	-0.223	-0.055
-673.135	800.000	-0.050	0.140
-672.120	-65.713	-0.345	-0.138
-671.105	76.431	0.133	0.141
-670.091	-200.000	-0.023	0.154
-669.076	534.002	0.101	0.238
-668.062	-200.000	-0.013	-0.324
-667.047	-59.504	-0.344	-0.148
-666.032	-137.073	0.228	0.026
-665.018	-82.505	-0.355	-0.115
-664.003	-30.829	-0.406	-0.229
-662.989	-9.812	-0.262	-0.174
-661.974	250.993	-0.135	0.229
-660.959	-200.000	0.020	-0.136
-659.945	337.362	0.058	-0.112
-658.930	239.468	-0.154	-0.255
-657.916	-123.215	0.193	-0.031
-656.901	800.000	-0.088	-0.250
-655.886	132.277	-0.084	0.108
-654.872	-118.800	-0.145	-0.025
-653.857	-200.000	-0.029	0.216
-652.843	-43.376	-0.178	-0.090
-651.828	32.390	-0.249	-0.214
-650.814	-152.262	-0.174	0.013
-649.799	-111.533	-0.270	0.055
-648.784	68.225	-0.116	0.119
-647.770	17.731	0.139	-0.110
-646.755	800.000	0.021	0.072
-645.741	-200.000	0.046	-0.272
-644.726	-83.751	-0.049	-0.016
-643.711	41.573	-0.320	0.290
-642.697	-115.722	0.471	-0.088
-641.682	-0.380	0.256	-0.182
-640.668	277.960	-0.078	-0.138
-639.653	7.994	0.050	0.038
-638.638	-200.000	0.018	-0.107
-637.624	592.962	-0.111	-0.274
-636.609	-79.368	-0.112	-0.038
-635.595	-78.656	0.309	0.105
-634.580	-69.607	0.130	0.049
-633.565	800.000	-0.063	-0.242
-632.551	271.099	-0.048	-0.085
-631.536	152.661	0.133	-0.182
-630.522	-173.070	0.162	0.005
-629.507	89.974	0.098	0.109
-628.492	196.152	0.193	-0.293
-627.478	800.000	0.058	-0.182
-626.463	196.361	-0.054	0.082
-625.449	800.000	0.116	-0.343
-624.434	-200.000	-0.006	-0.066
-623.419	-174.102	0.136	-0.004
-622.405	-1.938	-0.233	0.164
-621.390	8.158	0.244	0.182
-620.376	-175.229	-0.255	-0.007
-619.361	84.028	-0.191	0.208
-618.346	-119.720	0.486	-0.084
-617.332	41.446	0.125	0.113
-616.317	637.805	0.068	-0.171
-615.303	-16.347	0.203	0.129
-614.288	23.438	-0.178	-0.146
-613.273	-100.586	-0.412	-0.102
-612.259	-118.196	0.125	-0.022
-611.244	45.378	-0.060	-0.055
-610.230	-2.005	0.208	-0.146
-609.215	142.849	0.090	-0.119
-608.201	800.000	-0.076	0.309
-607.186	-78.067	0.268	-0.092
-606.171	380.681	-0.053	0.109
-605.157	-200.000	0.015	0.112
-604.142	6.456	-0.078	-0.058
-603.128	-95.427	-0.359	-0.096
-602.113	93.020	0.169	0.190
-601.098	-122.934	0.217	-0.035
-600.084	92.889	0.147	0.166
-599.069	79.569	0.185	0.198
-598.055	82.007	-0.278	0.300
-597.040	-82.138	0.015	0.005
-596.025	103.366	-0.204	-0.239
-595.011	800.000	-0.063	0.222
-593.996	-17.195	-0.114	0.072
-592.982	59.473	-0.098	0.097
-591.967	-200.000	-0.004	-0.083
-590.952	-200.000	0.045	0.507
-589.938	-200.000	0.017	-0.157
-588.923	19.329	-0.124	0.099
-587.909	-27.784	-0.083	0.048
-586.894	800.000	-0.052	0.175
-585.879	476.911	0.033	0.075
-584.865	159.352	0.065	0.090
-583.850	25.363	0.208	0.172
-582.836	126.010	-0.139	-0.175
-581.821	-200.000	0.018	0.147
-580.806	208.639	0.126	-0.196
-579.792	-200.000	0.005	-0.481
-578.777	-200.000	0.001	0.010
-577.763	6.467	0.105	0.078
-576.748	-46.601	-0.230	0.112
-575.733	-200.000	-0.005	-0.295
-574.719	-51.910	0.172	-0.080
-573.704	156.961	0.157	0.216
-572.690	-90.868	-0.307	-0.088
-571.675	286.657	-0.142	-0.255
-570.661	-20.933	0.170	-0.104
-569.646	-106.732	-0.036	-0.008
-568.631	-129.233	0.331	-0.046
-567.617	800.000	0.061	-0.203
-566.602	-64.290	-0.127	0.052
-565.588	108.334	-0.036	0.043
-564.573	-7.736	0.035	-0.023
-563.558	-69.761	0.222	0.084
-562.544	-141.052	-0.131	-0.013
-561.529	247.013	-0.076	-0.128
-560.515	134.978	0.159	0.206
-559.500	-120.238	-0.365	0.062
-558.485	800.000	-0.083	-0.282
-557.471	-200.000	-0.040	0.484
-556.456	-110.254	0.405	-0.084
-555.442	-200.000	0.026	0.258
-554.427	69.067	0.069	-0.071
-553.412	506.117	-0.093	-0.215
-552.398	-83.369	0.156	-0.050
-551.383	-198.503	-0.306	0.002
-550.369	800.000	-0.068	-0.196
-549.354	14.670	0.134	0.104
-548.339	-78.627	0.151	0.051
-547.325	-59.390	-0.235	-0.101
-546.310	-200.000	-0.046	-0.243
-545.296	140.144	0.235	-0.308
-544.281	-154.865	0.234	-0.015
-543.266	12.251	0.330	-0.252
-542.252	-136.016	-0.293	0.034
-541.237	445.275	0.093	-0.203
-540.223	-200.000	-0.007	-0.243
-539.208	-11.543	0.080	-0.052
-538.193	122.669	-0.191	-0.238
-537.179	-200.000	0.035	0.305
-536.164	-85.491	-0.244	0.076
-535.150	95.043	0.170	0.192
-534.135	-28.338	-0.133	0.076
-533.121	-37.139	-0.165	0.088
-532.106	800.000	0.059	-0.176
-531.091	-123.921	-0.061	0.010
-530.077	-75.800	0.189	-0.067
-529.062	-78.611	-0.108	0.037
-528.048	-11.244	0.320	0.210
-527.033	132.471	-0.070	-0.090
-526.018	163.130	-0.177	0.248
-525.004	-47.940	-0.347	-0.167
-523.989	800.000	0.036	0.130
-522.975	-47.177	-0.193	0.094
-521.960	-200.000	-0.005	0.030
-520.945	9.031	-0.283	-0.212
-519.931	-5.490	-0.083	0.057
-518.916	-150.414	-0.221	0.017
-517.902	800.000	-0.039	-0.114
-516.887	-163.537	-0.149	-0.007
-515.872	170.534	-0.131	-0.186
-514.858	-135.406	0.158	0.019
-513.843	800.000	0.046	0.156
-512.829	-179.341	-0.200	0.004
-511.814	-90.974	0.288	-0.082
-510.799	-200.000	-0.052	0.235
-509.785	105.006	0.028	-0.033
-508.770	-89.398	-0.188	-0.055
-507.756	-41.924	0.176	0.089
-506.741	30.468	-0.171	-0.145
-505.726	-200.000	0.009	-0.077
-504.712	-53.923	-0.152	-0.069
-503.697	180.747	-0.047	-0.068
-502.683	256.447	-0.024	-0.041
-501.668	-132.160	0.181	0.023
-500.653	800.000	-0.070	-0.290
-499.639	-25.491	-0.265	0.155
-498.624	1.462	0.241	0.172
-497.610	272.316	-0.060	-0.106
-496.595	-200.000	-0.041	-0.222
-495.581	800.000	0.049	-0.191
-494.566	248.233	-0.061	-0.102
-493.551	314.350	0.077	0.144
-492.537	599.893	0.080	-0.197
-491.522	-200.000	0.012	0.131
-490.508	-7.747	0.169	-0.113
-489.493	115.854	0.080	0.097
-488.478	-200.000	-0.019	-0.106
-487.464	800.000	0.053	-0.168
-486.449	-124.210	0.183	0.028
-485.435	420.901	0.015	0.032
-484.420	800.000	0.039	0.120
-483.405	800.000	0.020	-0.072
-482.391	-200.000	0.062	-0.432
-481.376	-37.624	0.179	-0.095
-480.362	-200.000	-0.013	0.544
-479.347	-9.023	-0.105	0.070
-478.332	-200.000	-0.061	0.312
-477.318	-200.000	0.040	-0.227
-476.303	319.533	0.098	0.184
-475.289	26.664	-0.214	-0.177
-474.274	-47.808	0.134	0.064
-473.259	-85.272	0.196	0.061
-472.245	-200.000	-0.010	-0.105
-471.230	-200.000	-0.065	0.444
-470.216	284.729	0.035	0.062
-469.201	800.000	-0.020	0.078
-468.186	208.912	-0.102	0.159
-467.172	-3.385	0.127	-0.087
-466.157	706.608	-0.060	0.157
-465.143	-111.573	-0.144	0.029
-464.128	140.060	0.012	-0.016
-463.113	-32.865	0.073	0.040
-462.099	800.000	0.115	0.360
-461.084	59.133	0.153	0.149
-460.070	-200.000	0.057	-0.263
-459.055	-48.486	0.278	-0.133
-458.040	-200.000	0.025	-0.156
-457.026	-78.697	0.091	0.031
-456.011	-200.000	0.054	-0.370
-454.997	-51.045	0.171	-0.080
-453.982	-200.000	0.045	0.200
-452.968	291.375	-0.193	0.347
-451.953	-88.400	0.136	0.040
-450.938	93.529	-0.157	0.176
-449.924	197.268	-0.219	0.331
-448.909	-200.000	-0.015	0.143
-447.895	-65.662	-0.191	-0.076
-446.880	141.231	-0.120	0.157
-445.865	-141.868	0.316	-0.031
-444.851	-153.081	0.225	-0.016
-443.836	-59.578	-0.362	-0.154
-442.822	-160.458	-0.189	-0.010
-441.807	-200.000	-0.005	-0.102
-440.792	115.815	-0.099	-0.120
-439.778	96.357	0.316	-0.358
-438.763	503.926	0.096	0.220
-437.749	231.790	0.145	0.236
-436.734	-200.000	-0.037	-0.162
-435.719	-95.040	0.238	0.064
-434.705	-158.210	0.333	-0.019
-433.690	-154.234	-0.123	-0.008
-432.676	-89.615	0.210	-0.061
-431.661	-179.219	-0.144	-0.003
-430.646	-26.289	0.387	0.225
-429.632	-151.545	0.284	0.021
-428.617	275.771	0.180	-0.317
-427.603	-139.366	0.165	-0.018
-426.588	-161.471	0.165	-0.008
-425.573	101.030	-0.180	0.207
-424.559	800.000	-0.024	-0.086
-423.544	-21.719	-0.203	0.122
-422.530	-149.723	-0.224	-0.017
-421.515	431.051	-0.133	0.285
-420.500	-123.195	0.109	0.017
-419.486	110.477	0.126	-0.150
-418.471	-144.177	-0.230	-0.021
-417.457	-49.434	0.201	0.095
-416.442	171.758	0.106	0.151
-415.428	800.000	0.068	0.199
-414.413	-64.787	-0.164	-0.066
-413.398	83.305	-0.015	-0.016
-412.384	75.446	0.099	-0.103
-411.369	136.879	-0.288	-0.372
-410.355	-200.000	0.025	-0.156
-409.340	-69.949	0.292	-0.110
-408.325	111.445	0.094	-0.112
-407.311	2.824	-0.211	-0.151
-406.296	-200.000	-0.048	0.386
-405.282	-77.133	-0.118	-0.041
-404.267	14.359	-0.113	0.088
-403.252	109.251	-0.176	-0.209
-402.238	186.482	-0.057	-0.084
-401.223	800.000	0.131	0.471
-400.209	-6.800	0.243	0.163
-399.194	459.026	-0.109	-0.241
-398.179	-160.171	-0.337	-0.018
-397.165	48.485	-0.222	0.205
-396.150	-106.149	0.100	0.022
-395.136	84.898	-0.134	-0.145
-394.121	105.917	-0.124	0.145
-393.106	728.965	-0.033	0.088
-392.092	341.339	0.093	-0.179
-391.077	180.917	0.096	0.140
-390.063	-170.674	-0.307	-0.010
-389.048	-12.682	-0.151	-0.097
-388.033	-149.248	0.191	-0.015
-387.019	-4.528	-0.277	0.189
-386.004	272.262	-0.118	-0.205
-384.990	-96.659	-0.400	0.104
-383.975	49.164	0.044	0.041
-382.960	164.030	0.176	0.246
-381.946	800.000	-0.051	0.147
-380.931	-135.786	0.310	0.036
-379.917	139.737	-0.164	-0.214
-378.902	9.424	-0.264	0.198
-377.888	-110.240	0.129	-0.027
-376.873	368.592	-0.190	-0.380
-375.858	-200.000	-0.022	-0.108
-374.844	-200.000	0.003	-0.042
-373.829	-34.615	-0.278	-0.150
-372.815	-76.648	0.310	-0.107
-371.800	-200.000	0.014	0.119
-370.785	-200.000	0.020	-0.337
-369.771	10.321	-0.122	0.092
-368.756	222.822	-0.123	-0.197
-367.742	26.119	-0.213	0.175
-366.727	722.204	-0.072	0.189
-365.712	-200.000	-0.024	-0.298
-364.698	-2.655	0.339	0.235
-363.683	365.543	0.119	0.237
-362.669	-24.294	0.104	0.061
-361.654	82.865	-0.079	0.085
-360.639	-33.611	0.176	-0.096
-359.625	229.689	-0.235	0.379
-358.610	-200.000	0.028	0.287
-357.596	-15.810	0.232	-0.146
-356.581	-128.993	-0.178	-0.025
-355.566	361.189	-0.295	-0.583
-354.552	305.892	-0.030	0.054
-353.537	-186.839	-0.051	-0.001
-352.523	165.033	0.095	0.132
-351.508	89.583	0.145	0.160
-350.493	-130.663	-0.197	-0.026
-349.479	-200.000	-0.020	0.182
-348.464	-46.142	-0.199	0.097
-347.450	159.248	-0.124	-0.170
-346.435	11.498	0.242	-0.183
-345.420	-200.000	0.006	0.058
-344.406	133.392	-0.130	0.166
-343.391	110.719	0.155	0.183
-342.377	-132.538	0.219	0.028
-341.362	696.185	0.086	0.224
-340.348	-61.397	-0.089	-0.037
-339.333	-65.830	-0.107	0.042
-338.318	-73.610	-0.268	-0.096
-337.304	376.952	0.175	0.352
-336.289	706.687	-0.055	-0.144
-335.275	333.301	-0.018	-0.034
-334.260	-64.218	0.200	-0.080
-333.245	-45.220	-0.234	-0.115
-332.231	-7.366	-0.246	-0.164
-331.216	717.314	0.097	-0.254
-330.202	112.680	-0.057	0.068
-329.187	-20.753	-0.141	0.085
-328.172	448.045	-0.025	-0.054
-327.158	105.923	-0.179	0.209
-326.143	36.588	0.243	0.211
-325.129	12.445	-0.022	0.017
-324.114	-70.592	-0.191	0.071
-323.099	-11.728	0.112	0.073
-322.085	149.146	0.187	-0.250
-321.070	217.537	-0.051	-0.079
-320.056	155.074	-0.199	-0.269
-319.041	171.510	-0.245	0.346
-318.026	41.346	0.285	0.254
-317.012	-200.000	0.006	-0.117
-315.997	145.729	0.022	-0.029
-314.983	-37.653	-0.316	-0.166
-313.968	-41.249	0.222	0.113
-312.953	271.780	-0.070	0.121
-311.939	800.000	-0.029	0.109
-310.924	192.176	-0.141	-0.210
-309.910	-26.877	-0.205	-0.118
-308.895	-176.955	0.097	0.002
-307.880	-153.019	0.270	-0.019
-306.866	-38.160	-0.015	-0.008
-305.851	583.418	0.074	-0.180
-304.837	-200.000	0.004	-0.062
-303.822	24.930	0.277	0.226
-302.807	800.000	-0.074	0.205
-301.793	23.818	0.317	0.257
-300.778	-160.280	0.245	-0.013
-299.764	-126.941	-0.241	0.035
-298.749	-200.000	-0.013	0.060
-297.735	800.000	0.070	0.272
-296.720	524.073	-0.123	-0.284
-295.705	-69.279	0.229	0.087
-294.691	-109.647	0.055	0.011
-293.676	235.049	-0.057	-0.093
-292.662	716.419	-0.058	-0.152
-291.647	-134.256	-0.255	0.031
-290.632	-36.624	-0.438	-0.232
-289.618	130.472	0.033	-0.041
-288.603	-200.000	-0.008	0.109
-287.589	143.681	0.064	-0.084
-286.574	-200.000	0.159	-0.761
-285.559	-149.076	-0.274	-0.022
-284.545	434.008	-0.058	0.124
-283.530	-8.360	0.301	-0.199
-282.516	-149.640	-0.324	-0.025
-281.501	237.558	-0.121	0.198
-280.486	43.167	0.232	0.209
-279.472	-83.732	0.106	-0.033
-278.457	-200.000	0.002	-0.176
-277.443	6.611	0.244	-0.179
-276.428	-79.241	0.146	-0.049
-275.413	63.713	0.113	0.112
-274.399	800.000	0.060	0.207
-273.384	800.000	-0.078	-0.219
-272.370	120.006	0.169	0.206
-271.355	-74.682	0.204	0.072
-270.340	-200.000	-0.018	-0.169
-269.326	-11.699	-0.192	-0.124
-268.311	471.647	-0.061	0.135
-267.297	246.688	0.056	0.093
-266.282	-46.954	0.233	-0.112
-265.267	70.001	-0.356	-0.361
-264.253	135.115	-0.145	-0.185
-263.238	135.921	-0.148	-0.189
-262.224	55.680	-0.126	0.120
-261.209	267.183	0.054	-0.093
-260.195	-51.616	-0.232	-0.106
-259.180	-80.972	-0.245	0.080
-258.165	52.764	0.087	0.081
-257.151	-90.831	0.363	0.103
-256.136	-71.874	0.338	-0.124
-255.122	-92.227	0.239	-0.066
-254.107	63.487	-0.148	-0.146
-253.092	322.862	-0.115	0.216
-252.078	-200.000	0.022	-0.162
-251.063	-109.348	-0.421	-0.088
-250.049	-66.971	-0.068	-0.026
-249.034	543.908	-0.026	0.060
-248.019	-200.000	-0.033	0.287
-247.005	-55.999	0.104	-0.046
-245.990	-154.940	-0.209	0.014
-244.976	-200.000	-0.006	-0.140
-243.961	516.747	-0.153	-0.351
-242.946	-69.251	0.093	0.035
-241.932	37.774	0.182	0.159
-240.917	-200.000	0.018	0.188
-239.903	-74.622	-0.305	0.108
-238.888	-200.000	0.032	-0.138
-237.873	216.064	0.220	-0.343
-236.859	-28.347	0.127	0.072
-235.844	-200.000	0.054	0.243
-234.830	-79.332	0.318	0.106
-233.815	-102.690	0.114	0.027
-232.800	351.288	-0.024	-0.047
-231.786	-0.360	0.086	-0.060
-230.771	31.156	0.241	-0.203
-229.757	78.970	-0.195	0.205
-228.742	296.577	-0.114	0.206
-227.727	-200.000	0.045	0.206
-226.713	-66.306	-0.082	0.032
-225.698	64.434	-0.162	-0.160
-224.684	92.567	0.071	-0.079
-223.669	-25.956	-0.237	-0.137
-222.655	251.593	0.079	0.132
-221.640	800.000	-0.048	0.152
-220.625	257.818	0.063	0.107
-219.611	-200.000	-0.036	0.435
-218.596	-74.576	-0.254	0.090
-217.582	-18.046	0.197	0.121
-216.567	-160.000	-0.208	-0.011
-215.552	438.462	-0.120	-0.256
-214.538	800.000	-0.037	-0.118
-213.523	-200.000	0.006	0.080
-212.509	97.670	-0.037	0.042
-211.494	240.169	0.093	-0.152
-210.479	-15.538	0.321	-0.201
-209.465	800.000	-0.091	-0.296
-208.450	-110.849	-0.148	-0.030
-207.436	-45.264	-0.132	-0.064
-206.421	360.073	0.085	-0.167
-205.406	-34.251	0.087	-0.047
-204.392	-12.655	-0.027	0.017
-203.377	-200.000	0.000	0.376
-202.363	214.217	0.163	0.254
-201.348	2.413	-0.145	0.103
-200.333	198.747	-0.137	-0.206
-199.319	419.541	-0.138	-0.291
-198.304	135.050	-0.011	0.014
-197.290	-122.431	0.185	-0.030
-196.275	36.333	0.089	0.077
-195.260	800.000	0.103	-0.299
-194.246	133.022	-0.169	0.215
-193.231	143.284	-0.045	0.058
-192.217	-28.197	-0.044	-0.025
-191.202	119.014	-0.009	0.010
-190.187	679.460	-0.120	-0.307
-189.173	-86.910	0.162	0.049
-188.158	-200.000	0.064	0.294
-187.144	596.515	-0.069	0.168
-186.129	-75.128	0.078	0.028
-185.114	58.051	-0.046	-0.044
-184.100	-200.000	0.021	0.114
-183.085	80.430	-0.114	0.121
-182.071	144.832	-0.216	-0.284
-181.056	-139.000	0.256	-0.027
-180.042	-79.676	-0.155	-0.051
-179.027	-128.231	0.255	-0.036
-178.012	170.038	0.049	0.069
-176.998	800.000	0.019	0.072
-175.983	-190.474	0.288	0.003
-174.969	-135.537	0.100	-0.012
-173.954	-101.528	0.150	0.036
-172.939	-200.000	-0.022	-0.214
-171.925	-200.000	-0.024	0.210
-170.910	25.639	-0.262	-0.214
-169.896	-136.011	-0.285	0.033
-168.881	-89.210	-0.375	0.109
-167.866	0.028	-0.109	0.076
-166.852	800.000	0.060	0.213
-165.837	218.723	-0.034	0.053
-164.823	-200.000	0.004	0.271
-163.808	800.000	-0.054	0.170
-162.793	-200.000	0.034	0.293
-161.779	-127.491	0.078	-0.011
-160.764	118.286	-0.088	-0.106
-159.750	-89.309	0.219	-0.063
-158.735	-200.000	0.018	0.129
-157.720	-200.000	-0.006	0.086
-156.706	-168.544	0.194	-0.007
-155.691	800.000	-0.060	-0.233
-154.677	53.467	-0.073	0.068
-153.662	-1.400	0.157	0.109
-152.647	-25.192	0.182	0.105
-151.633	-127.464	0.253	0.036
-150.618	-65.426	-0.202	0.080
-149.604	194.216	0.153	-0.227
-148.589	-200.000	-0.001	-0.069
-147.574	-30.743	-0.240	-0.133
-146.560	800.000	0.045	0.194
-145.545	-200.000	0.019	-0.190
-144.531	300.609	0.182	-0.330
-143.516	-200.000	-0.032	-0.303
-142.502	39.114	-0.024	-0.021
-141.487	-90.627	-0.092	0.026
-140.472	70.277	-0.159	0.160
-139.458	800.000	-0.013	0.047
-138.443	-91.496	0.046	-0.013
-137.429	800.000	-0.073	0.205
-136.414	-200.000	0.054	-0.284
-135.399	-53.129	-0.374	0.168
-134.385	-93.282	0.316	-0.086
-133.370	-200.000	0.049	0.327
-132.356	-83.386	-0.118	-0.037
-131.341	-26.376	0.365	0.209
-130.326	-78.990	0.315	0.105
-129.312	-200.000	0.004	0.032
-128.297	-120.153	0.454	0.076
-127.283	-63.361	0.077	-0.031
-126.268	-45.336	-0.434	-0.211
-125.253	-27.431	0.189	0.107
-124.239	-200.000	-0.074	-0.383
-123.224	-108.248	0.336	-0.071
-122.210	-44.700	0.210	0.103
