DTS Sentinel unit serial number:	SN413079Multiplexer serial number:	ORYXHardware model number:	OX4-SRSoftware version number:	ORYX F/W v4.00 Oryx Data Collector v3.7.2.0data status	okinstallation	princeton_trtdifferential loss correction	single-endedforward channel	channel 3reverse channel	N/Adate	2019/09/13time	20:24:35forward acquisition time	60.00reverse acquisition time	0.00gamma	496.2192k internal	0.2331k external	0.2331temperature offset calibration	1.0062default loss term (dB/km)	0.3790temperature slope calibration	1.0000multiplexer offset coefficient	1.0000multiplexer slope coefficient	1.0000fibre end	0.00T internal ref (°C)	29.22T ext. ref 1 (°C)	3.19T ext. ref 2 (°C)	23.69length (m)	temperature (°C)	Stokes	anti-Stokes-747.200	71.446	0.170	0.178
-746.185	-200.000	-0.033	0.273
-745.171	-9.832	-0.134	0.090
-744.156	-199.143	-0.234	0.001
-743.142	106.569	0.096	0.114
-742.127	26.536	-0.128	0.108
-741.112	173.016	0.100	0.146
-740.098	667.903	0.075	0.195
-739.083	800.000	0.091	0.370
-738.069	-98.220	-0.135	0.035
-737.054	-200.000	-0.010	0.366
-736.039	-144.026	-0.390	0.037
-735.025	800.000	0.047	-0.198
-734.010	30.915	-0.323	-0.278
-732.996	128.181	0.072	0.093
-731.981	139.992	0.186	0.246
-730.966	-200.000	-0.008	-0.077
-729.952	223.613	-0.035	0.058
-728.937	-72.787	-0.151	-0.056
-727.923	-39.601	-0.069	-0.036
-726.908	-6.949	-0.193	-0.132
-725.894	-24.556	-0.184	0.110
-724.879	-200.000	-0.054	-0.379
-723.864	-8.564	0.156	-0.105
-722.850	26.894	-0.140	0.118
-721.835	-55.763	-0.302	0.136
-720.821	-22.859	0.232	-0.141
-719.806	800.000	-0.066	-0.210
-718.791	-200.000	0.014	-0.158
-717.777	64.929	-0.021	-0.021
-716.762	277.511	-0.108	-0.192
-715.748	-99.454	-0.081	0.021
-714.733	74.831	0.104	0.110
-713.718	-30.588	0.265	-0.151
-712.704	-46.138	-0.074	0.037
-711.689	-200.000	0.028	-0.131
-710.675	-200.000	0.027	-0.195
-709.660	114.550	-0.203	-0.248
-708.645	-57.363	0.175	-0.077
-707.631	725.478	-0.094	-0.252
-706.616	512.415	0.124	0.291
-705.602	-181.658	-0.096	0.002
-704.587	-200.000	-0.054	-0.253
-703.572	548.992	-0.125	-0.301
-702.558	-200.000	0.024	0.284
-701.543	800.000	-0.081	0.270
-700.529	279.396	0.048	0.085
-699.514	352.591	0.055	-0.110
-698.499	-110.193	-0.237	-0.050
-697.485	-151.024	0.183	-0.014
-696.470	800.000	0.074	0.318
-695.456	-158.278	0.161	-0.009
-694.441	-122.644	0.246	-0.040
-693.426	110.752	-0.170	-0.205
-692.412	-82.727	0.114	0.037
-691.397	-23.641	0.193	0.116
-690.383	-92.569	-0.156	-0.044
-689.368	-110.347	-0.061	0.013
-688.354	800.000	0.065	0.253
-687.339	800.000	0.043	0.130
-686.324	287.192	-0.106	-0.192
-685.310	-32.508	-0.124	0.069
-684.295	-8.388	0.266	0.180
-683.281	-200.000	0.003	-0.116
-682.266	-83.432	-0.102	0.033
-681.251	-61.560	-0.152	-0.064
-680.237	-112.327	-0.108	0.022
-679.222	-114.527	0.107	-0.021
-678.208	-75.563	-0.182	-0.065
-677.193	-118.196	0.190	-0.034
-676.178	-86.706	0.298	0.092
-675.164	123.870	0.095	0.120
-674.149	-200.000	-0.048	-0.213
-673.135	-200.000	0.028	0.323
-672.120	-170.740	-0.163	0.006
-671.105	-200.000	-0.062	-0.330
-670.091	146.930	0.065	-0.088
-669.076	-109.211	0.359	0.076
-668.062	-200.000	-0.004	0.037
-667.047	-144.159	0.116	-0.011
-666.032	-116.093	-0.188	-0.035
-665.018	-80.358	-0.242	0.081
-664.003	362.600	-0.053	0.108
-662.989	175.556	-0.242	-0.352
-661.974	203.818	-0.207	-0.322
-660.959	-21.268	0.110	0.068
-659.945	-200.000	-0.063	0.330
-658.930	800.000	-0.029	-0.099
-657.916	27.646	-0.150	0.126
-656.901	-173.155	-0.311	-0.010
-655.886	-60.481	-0.169	-0.072
-654.872	-106.033	0.167	-0.038
-653.857	-63.124	-0.063	-0.026
-652.843	-83.219	0.388	-0.125
-651.828	-18.986	0.073	0.046
-650.814	393.498	-0.125	0.261
-649.799	636.346	-0.070	-0.177
-648.784	39.662	-0.187	0.168
-647.770	257.872	-0.130	-0.224
-646.755	73.234	0.270	-0.283
-645.741	-126.279	-0.497	0.074
-644.726	120.592	-0.004	0.005
-643.711	-115.552	0.426	-0.080
-642.697	-5.938	-0.249	0.171
-641.682	508.221	0.133	-0.310
-640.668	-54.416	-0.279	-0.127
-639.653	-3.805	0.136	-0.095
-638.638	-77.427	0.066	-0.023
-637.624	14.774	-0.186	-0.146
-636.609	-20.137	-0.219	-0.135
-635.595	-77.342	-0.256	0.089
-634.580	110.275	0.162	-0.195
-633.565	-200.000	-0.025	-0.170
-632.551	56.187	0.106	0.103
-631.536	200.870	-0.111	0.171
-630.522	-200.000	-0.038	-0.267
-629.507	106.614	-0.120	0.142
-628.492	613.731	-0.091	-0.227
-627.478	-75.034	-0.062	0.022
-626.463	-158.906	-0.056	-0.003
-625.449	-94.446	-0.054	0.015
-624.434	87.398	0.057	0.063
-623.419	193.930	-0.087	0.132
-622.405	-200.000	-0.034	-0.236
-621.390	-200.000	0.002	0.380
-620.376	-105.178	0.619	0.142
-619.361	-200.000	-0.021	0.192
-618.346	263.925	0.160	0.279
-617.332	-11.130	-0.111	0.073
-616.317	-16.075	-0.325	0.207
-615.303	-200.000	0.001	-0.194
-614.288	-132.916	-0.266	0.034
-613.273	-116.584	-0.480	0.089
-612.259	-86.830	0.224	-0.069
-611.244	725.525	-0.117	-0.311
-610.230	90.402	0.056	-0.063
-609.215	800.000	0.088	0.257
-608.201	24.716	-0.273	-0.226
-607.186	97.015	-0.204	0.235
-606.171	11.283	0.184	-0.141
-605.157	-130.092	0.169	0.023
-604.142	-64.818	0.093	0.038
-603.128	503.808	0.094	0.217
-602.113	-200.000	0.002	0.030
-601.098	-55.604	0.096	-0.043
-600.084	-65.058	0.083	0.034
-599.069	80.914	0.236	0.254
-598.055	-37.705	-0.155	0.082
-597.040	-140.941	-0.323	0.033
-596.025	-13.214	-0.119	-0.078
-595.011	77.138	-0.358	-0.380
-593.996	-110.774	0.102	0.021
-592.982	62.581	-0.255	-0.255
-591.967	-55.036	-0.041	0.018
-590.952	-200.000	-0.034	0.216
-589.938	280.484	-0.074	0.132
-588.923	90.400	-0.242	-0.271
-587.909	800.000	-0.102	-0.430
-586.894	-200.000	-0.013	0.135
-585.879	239.887	0.243	0.406
-584.865	-200.000	0.003	-0.158
-583.850	-4.362	-0.224	0.155
-582.836	97.782	-0.077	0.089
-581.821	-51.130	0.147	0.069
-580.806	49.536	0.165	-0.156
-579.792	-118.062	0.261	-0.047
-578.777	-200.000	0.012	0.077
-577.763	-90.960	0.416	0.120
-576.748	49.185	0.208	0.195
-575.733	210.551	0.068	-0.107
-574.719	177.082	0.097	0.141
-573.704	-76.420	0.120	-0.042
-572.690	14.956	0.215	0.168
-571.675	-200.000	-0.046	0.303
-570.661	145.318	-0.222	-0.298
-569.646	69.318	-0.177	0.182
-568.631	139.336	0.031	-0.041
-567.617	-200.000	0.035	-0.261
-566.602	800.000	-0.089	0.280
-565.588	114.929	-0.097	-0.118
-564.573	10.635	0.120	0.092
-563.558	-135.750	-0.114	0.013
-562.544	800.000	0.040	-0.128
-561.529	-200.000	-0.073	0.375
-560.515	554.990	0.008	0.020
-559.500	800.000	-0.036	0.113
-558.485	-74.613	0.216	0.078
-557.471	27.546	0.139	-0.117
-556.456	198.584	-0.069	0.106
-555.442	341.936	-0.062	-0.121
-554.427	800.000	0.064	-0.248
-553.412	-118.351	0.239	0.042
-552.398	-25.215	-0.048	-0.028
-551.383	66.628	0.118	0.120
-550.369	440.103	-0.153	-0.335
-549.354	-114.415	0.041	0.008
-548.339	33.027	0.286	0.248
-547.325	94.771	-0.273	0.310
-546.310	-200.000	0.029	-0.268
-545.296	262.049	-0.185	-0.320
-544.281	-200.000	0.011	-0.096
-543.266	-99.630	0.442	-0.111
-542.252	7.937	-0.055	0.042
-541.237	172.175	0.111	-0.160
-540.223	-44.771	-0.199	-0.099
-539.208	-4.328	-0.227	-0.157
-538.193	-104.893	0.337	0.077
-537.179	206.867	0.086	-0.134
-536.164	267.319	0.090	0.158
-535.150	-200.000	0.005	0.045
-534.135	131.030	0.078	0.100
-533.121	-173.840	0.138	-0.004
-532.106	-200.000	0.015	-0.172
-531.091	-189.608	0.212	-0.002
-530.077	-200.000	0.026	0.326
-529.062	-141.180	0.184	0.019
-528.048	320.196	0.236	0.448
-527.033	-165.366	0.144	-0.006
-526.018	-111.315	-0.206	-0.042
-525.004	-49.666	-0.216	-0.102
-523.989	-200.000	0.068	0.418
-522.975	151.061	0.153	0.208
-521.960	-82.385	-0.149	0.048
-520.945	-102.056	0.143	0.034
-519.931	351.777	-0.148	-0.293
-518.916	336.442	0.012	-0.022
-517.902	494.757	0.025	-0.058
-516.887	513.593	-0.087	-0.203
-515.872	800.000	0.039	0.154
-514.858	287.236	-0.013	-0.023
-513.843	-58.430	-0.367	-0.159
-512.829	180.155	-0.191	0.279
-511.814	15.693	0.092	0.072
-510.799	-56.438	-0.350	-0.155
-509.785	-26.392	0.219	0.128
-508.770	-161.460	-0.137	-0.007
-507.756	-200.000	-0.032	0.299
-506.741	29.442	-0.374	-0.317
-505.726	-200.000	-0.007	0.320
-504.712	79.949	0.219	0.234
-503.697	-180.511	0.367	0.008
-502.683	66.200	-0.230	0.233
-501.668	-25.531	0.151	-0.089
-500.653	-115.331	-0.123	0.023
-499.639	-51.783	-0.139	-0.065
-498.624	-89.176	0.269	0.079
-497.610	-29.536	-0.174	0.099
-496.595	-71.535	0.264	-0.099
-495.581	45.155	-0.137	0.126
-494.566	161.881	-0.019	0.027
-493.551	-150.776	-0.172	0.013
-492.537	-120.042	0.499	-0.085
-491.522	800.000	-0.071	-0.211
-490.508	124.665	0.004	-0.005
-489.493	-75.553	-0.356	0.126
-488.478	-104.950	-0.172	-0.039
-487.464	275.806	-0.137	0.242
-486.449	-133.285	0.257	0.032
-485.435	-51.136	-0.137	-0.064
-484.420	-40.502	-0.200	0.103
-483.405	679.714	0.137	-0.354
-482.391	325.980	0.119	0.228
-481.376	-97.216	0.059	-0.015
-480.362	7.015	-0.202	0.150
-479.347	-80.724	-0.133	-0.044
-478.332	800.000	0.051	0.207
-477.318	-25.330	-0.116	-0.068
-476.303	462.998	0.049	0.109
-475.289	664.364	0.063	-0.163
-474.274	200.847	0.056	0.085
-473.259	98.954	0.222	-0.256
-472.245	-64.425	0.134	0.054
-471.230	800.000	0.010	-0.035
-470.216	-42.515	0.091	-0.046
-469.201	-181.542	0.337	0.007
-468.186	800.000	0.067	0.249
-467.172	-142.356	-0.335	-0.033
-466.157	-200.000	0.035	-0.260
-465.143	113.913	0.130	-0.158
-464.128	248.932	-0.122	-0.206
-463.113	-200.000	0.022	0.117
-462.099	40.728	0.273	0.245
-461.084	15.760	-0.091	-0.072
-460.070	310.960	0.142	0.264
-459.055	800.000	0.055	-0.158
-458.040	-50.522	-0.334	-0.157
-457.026	-200.000	-0.010	0.212
-456.011	-17.816	-0.149	0.093
-454.997	649.611	-0.083	0.211
-453.982	-25.729	0.089	0.052
-452.968	-28.268	-0.230	-0.132
-451.953	-55.671	0.131	-0.058
-450.938	-16.936	-0.043	0.027
-449.924	550.790	-0.082	-0.196
-448.909	120.663	-0.082	0.102
-447.895	64.730	0.189	0.190
-446.880	161.959	0.037	0.052
-445.865	-80.968	-0.225	0.074
-444.851	87.249	0.093	-0.102
-443.836	112.648	-0.161	-0.194
-442.822	146.009	-0.398	-0.532
-441.807	117.359	0.177	-0.216
-440.792	-123.851	0.338	0.053
-439.778	-86.388	-0.170	0.052
-438.763	-123.824	0.296	-0.047
-437.749	-88.962	-0.164	0.048
-436.734	-5.138	0.081	0.055
-435.719	-5.062	0.175	0.120
-434.705	6.508	0.253	-0.187
-433.690	141.933	-0.026	-0.034
-432.676	-172.989	0.053	0.002
-431.661	460.851	0.039	-0.085
-430.646	-106.387	-0.320	0.071
-429.632	110.641	-0.225	0.269
-428.617	-63.931	-0.251	-0.102
-427.603	-200.000	-0.021	0.324
-426.588	-129.696	0.142	-0.019
-425.573	-146.490	0.383	-0.033
-424.559	-186.312	0.186	0.003
-423.544	-96.334	0.209	-0.055
-422.530	-145.520	-0.101	-0.009
-421.515	800.000	-0.027	-0.082
-420.500	-200.000	0.022	0.206
-419.486	-119.564	-0.140	0.024
-418.471	180.771	0.177	0.258
-417.457	-77.472	-0.083	0.029
-416.442	14.443	0.153	0.119
-415.428	-200.000	0.002	-0.014
-414.413	-200.000	0.000	-0.261
-413.398	283.155	-0.094	-0.168
-412.384	27.176	-0.148	0.123
-411.369	126.216	0.219	-0.275
-410.355	113.522	-0.197	0.238
-409.340	-200.000	-0.001	-0.022
-408.325	10.203	0.288	-0.217
-407.311	25.101	-0.100	0.082
-406.296	99.228	0.216	0.248
-405.282	270.864	0.076	0.133
-404.267	-32.322	0.156	-0.087
-403.252	-180.167	0.230	0.005
-402.238	-200.000	-0.037	-0.203
-401.223	178.305	0.168	0.244
-400.209	141.031	0.062	-0.082
-399.194	60.232	-0.082	-0.081
-398.179	800.000	-0.082	-0.250
-397.165	800.000	-0.045	-0.156
-396.150	-131.046	0.074	0.010
-395.136	-9.951	0.008	-0.005
-394.121	-19.110	-0.017	-0.010
-393.106	40.225	-0.118	0.105
-392.092	800.000	0.033	0.142
-391.077	800.000	-0.033	-0.137
-390.063	9.270	-0.027	-0.020
-389.048	-109.351	0.237	0.050
-388.033	800.000	0.023	0.064
-387.019	540.747	0.048	0.114
-386.004	800.000	0.019	0.061
-384.990	-200.000	-0.010	-0.348
-383.975	-73.995	-0.134	-0.048
-382.960	215.407	-0.001	0.002
-381.946	-200.000	0.011	0.240
-380.931	-200.000	0.047	0.280
-379.917	283.532	-0.051	0.091
-378.902	-116.476	0.242	-0.044
-377.888	-54.782	0.388	0.174
-376.873	-85.166	0.224	0.069
-375.858	-20.950	0.343	-0.208
-374.844	-200.000	0.018	0.212
-373.829	800.000	0.024	0.081
-372.815	74.834	-0.084	-0.088
-371.800	-55.873	0.035	-0.016
-370.785	9.708	-0.163	0.122
-369.771	-74.206	0.155	-0.056
-368.756	800.000	0.051	0.178
-367.742	-150.232	0.151	-0.012
-366.727	-200.000	0.000	0.081
-365.712	800.000	-0.026	-0.100
-364.698	113.501	-0.133	0.160
-363.683	-200.000	-0.041	-0.361
-362.669	-159.518	0.200	0.011
-361.654	-157.501	0.145	-0.009
-360.639	800.000	-0.094	-0.269
-359.625	241.957	-0.244	0.404
-358.610	223.112	-0.130	0.208
-357.596	142.347	-0.047	-0.062
-356.581	-41.834	-0.190	0.097
-355.566	-83.171	0.167	0.053
-354.552	800.000	-0.066	0.200
-353.537	-200.000	-0.010	0.058
-352.523	346.225	0.155	-0.302
-351.508	379.201	0.093	-0.189
-350.493	-86.029	-0.197	0.060
-349.479	314.275	-0.056	-0.105
-348.464	-15.198	-0.063	0.040
-347.450	70.175	-0.197	-0.202
-346.435	8.783	0.226	0.169
-345.420	129.076	-0.123	0.156
-344.406	20.008	-0.052	0.042
-343.391	-141.684	-0.442	-0.044
-342.377	-200.000	0.005	-0.378
-341.362	195.340	0.131	0.198
-340.348	452.268	0.101	-0.222
-339.333	319.825	-0.161	0.302
-338.318	-74.399	0.114	-0.041
-337.304	-39.881	-0.099	0.051
-336.289	-184.044	-0.336	-0.006
-335.275	530.026	-0.122	0.286
-334.260	800.000	-0.141	0.558
-333.245	-57.272	0.055	-0.024
-332.231	-105.933	-0.285	0.064
-331.216	-74.740	0.407	0.145
-330.202	-78.608	-0.235	-0.079
-329.187	-200.000	-0.037	-0.199
-328.172	-110.509	0.185	0.038
-327.158	-64.277	-0.259	0.105
-326.143	-65.459	0.099	-0.040
-325.129	137.478	-0.274	-0.355
-324.114	-200.000	-0.017	0.270
-323.099	562.348	0.136	-0.326
-322.085	40.577	-0.104	0.093
-321.070	141.063	-0.052	-0.069
-320.056	-200.000	0.031	-0.157
-319.041	-200.000	0.055	0.279
-318.026	137.294	-0.173	-0.224
-317.012	44.613	0.074	-0.068
-315.997	120.269	0.237	0.291
-314.983	51.193	0.122	0.115
-313.968	-90.464	0.168	0.048
-312.953	25.342	0.039	0.032
-311.939	-127.077	-0.082	-0.012
-310.924	-76.217	-0.117	0.041
-309.910	-55.417	-0.523	-0.232
-308.895	550.199	0.129	0.305
-307.880	297.776	-0.081	-0.147
-306.866	-7.015	-0.237	0.159
-305.851	800.000	-0.042	-0.116
-304.837	761.869	0.113	-0.303
-303.822	-1.958	-0.181	-0.126
-302.807	173.925	-0.200	0.285
-301.793	-200.000	0.066	0.318
-300.778	800.000	0.051	-0.176
-299.764	-73.828	0.243	-0.087
-298.749	800.000	0.054	-0.153
-297.735	1.102	-0.152	-0.108
-296.720	325.730	-0.062	0.117
-295.705	-200.000	0.003	-0.121
-294.691	-101.443	0.257	0.062
-293.676	-52.088	-0.290	-0.133
-292.662	800.000	0.150	0.432
-291.647	265.201	0.102	-0.176
-290.632	105.334	-0.175	0.204
-289.618	167.714	-0.101	-0.142
-288.603	-21.771	-0.155	-0.093
-287.589	160.807	-0.144	-0.199
-286.574	-53.230	0.237	-0.108
-285.559	70.134	-0.130	0.133
-284.545	-200.000	-0.017	-0.277
-283.530	-24.791	0.172	-0.101
-282.516	-21.791	-0.234	-0.141
-281.501	-200.000	0.013	-0.091
-280.486	-113.751	0.284	-0.055
-279.472	289.964	-0.061	-0.109
-278.457	64.926	0.232	-0.232
-277.443	454.439	0.029	-0.064
-276.428	-91.479	0.116	-0.033
-275.413	-129.635	-0.122	-0.017
-274.399	666.798	0.046	0.117
-273.384	-84.308	-0.275	-0.086
-272.370	800.000	0.054	-0.180
-271.355	-80.647	-0.107	0.035
-270.340	-200.000	0.019	0.217
-269.326	-200.000	0.001	0.120
-268.311	-150.959	-0.406	-0.030
-267.297	-102.607	0.481	-0.114
-266.282	-81.390	0.196	-0.064
-265.267	164.211	0.101	-0.141
-264.253	18.504	-0.056	0.044
-263.238	-79.098	-0.383	0.129
-262.224	-62.490	0.251	-0.103
-261.209	-200.000	0.008	0.453
-260.195	-66.252	0.397	0.156
-259.180	-120.853	-0.161	-0.027
-258.165	-84.863	0.107	-0.033
-257.151	-200.000	-0.001	-0.102
-256.136	-64.130	0.338	-0.136
-255.122	398.790	-0.114	-0.235
-254.107	-3.047	-0.388	-0.267
-253.092	588.229	0.176	-0.428
-252.078	-90.926	0.058	0.017
-251.063	-27.414	0.332	0.191
-250.049	210.118	0.093	-0.143
-249.034	-157.446	0.149	-0.009
-248.019	-200.000	0.061	-0.354
-247.005	-22.942	-0.325	0.193
-245.990	-48.244	0.156	-0.074
-244.976	1.170	-0.054	-0.038
-243.961	-167.218	0.256	0.010
-242.946	321.573	0.077	0.145
-241.932	-200.000	-0.257	0.001
-240.917	-200.000	0.044	0.235
-239.903	377.904	-0.175	-0.353
-238.888	-105.508	0.131	-0.029
-237.873	7.349	0.076	-0.056
-236.859	-120.789	-0.244	-0.041
-235.844	73.625	-0.049	0.050
-234.830	-114.241	-0.219	0.042
-233.815	800.000	-0.076	0.248
-232.800	-114.198	-0.305	-0.058
-231.786	-158.601	-0.128	-0.007
-230.771	800.000	0.061	-0.233
-229.757	-200.000	0.008	-0.234
-228.742	-126.259	-0.092	-0.014
-227.727	-99.250	0.230	0.057
-226.713	107.651	-0.026	0.030
-225.698	72.027	-0.124	0.127
-224.684	-122.970	0.458	-0.073
-223.669	27.799	-0.212	0.176
-222.655	-66.027	0.192	0.075
-221.640	182.413	0.105	0.153
-220.625	-88.961	0.178	-0.052
-219.611	-46.101	-0.093	0.045
-218.596	56.426	0.195	-0.187
-217.582	-200.000	-0.050	0.400
-216.567	-100.903	0.249	0.060
-215.552	668.449	0.030	0.076
-214.538	-200.000	0.025	-0.136
-213.523	-89.268	-0.198	0.058
-212.509	-153.669	0.156	-0.011
-211.494	94.997	-0.151	-0.169
-210.479	-60.285	0.274	-0.115
-209.465	-200.000	-0.059	-0.397
-208.450	-129.816	0.182	-0.025
-207.436	-200.000	0.034	0.260
-206.421	165.595	0.194	0.270
-205.406	-200.000	-0.059	-0.263
-204.392	317.615	-0.088	-0.164
-203.377	-130.209	0.193	0.026
-202.363	58.116	-0.201	0.194
-201.348	-69.224	-0.117	-0.044
-200.333	-92.326	0.113	-0.031
-199.319	-38.236	0.107	-0.056
-198.304	-81.246	-0.337	-0.110
-197.290	-200.000	0.014	-0.156
-196.275	-200.000	0.014	-0.097
-195.260	-136.570	-0.227	-0.026
-194.246	10.947	0.212	0.159
-193.231	-100.238	-0.105	-0.026
-192.217	-146.008	0.078	0.007
-191.202	-200.000	-0.006	-0.194
-190.187	800.000	0.099	0.276
-189.173	124.246	0.052	-0.064
-188.158	77.555	-0.144	-0.151
-187.144	5.506	0.144	-0.104
-186.129	-200.000	0.036	-0.381
-185.114	-128.311	0.319	0.045
-184.100	-200.000	-0.020	-0.212
-183.085	168.803	0.106	0.149
-182.071	-200.000	0.029	0.246
-181.056	-200.000	0.026	0.225
-180.042	-200.000	-0.015	0.273
-179.027	800.000	0.121	0.344
-178.012	-38.464	-0.167	-0.087
-176.998	-56.889	0.030	-0.013
-175.983	-128.873	-0.326	0.045
-174.969	800.000	-0.143	0.400
-173.954	-145.920	-0.172	-0.015
-172.939	-9.653	-0.222	0.146
-171.925	800.000	0.029	-0.083
-170.910	800.000	-0.014	0.041
-169.896	46.638	-0.270	-0.247
-168.881	326.815	0.007	0.013
-167.866	544.980	0.060	0.142
-166.852	-200.000	0.015	0.076
-165.837	800.000	-0.053	-0.160
-164.823	-200.000	0.049	-0.446
-163.808	-145.115	-0.122	0.011
-162.793	-86.787	0.475	-0.143
-161.779	-171.498	0.075	0.002
-160.764	-119.105	0.192	0.033
-159.750	-54.312	-0.104	-0.047
-158.735	9.902	-0.204	0.152
-157.720	-70.103	-0.244	0.091
-156.706	83.803	-0.158	-0.169
-155.691	29.713	0.405	0.339
-154.677	800.000	-0.118	-0.396
-153.662	22.936	-0.205	-0.165
-152.647	-3.744	0.089	-0.061
-151.633	8.420	-0.202	-0.150
-150.618	-132.693	0.396	0.050
-149.604	-79.059	-0.112	-0.037
-148.589	-93.587	0.100	-0.027
-147.574	-163.834	-0.343	-0.016
-146.560	-136.007	-0.402	-0.046
-145.545	-61.785	-0.385	0.159
-144.531	-152.770	0.123	0.009
-143.516	-200.000	0.065	0.346
-142.502	502.882	0.031	-0.070
-141.487	220.748	-0.178	-0.281
-140.472	653.736	-0.073	-0.184
-139.458	217.484	-0.243	-0.381
-138.443	-26.992	-0.106	-0.061
-137.429	461.403	0.137	0.300
-136.414	543.230	-0.082	0.192
-135.399	202.106	-0.083	-0.126
-134.385	800.000	0.039	-0.125
-133.370	-73.153	0.271	-0.098
-132.356	-98.303	-0.145	-0.037
-131.341	-21.470	-0.108	-0.065
-130.326	-7.255	-0.277	0.185
-129.312	800.000	-0.038	0.155
-128.297	-21.865	-0.193	-0.115
-127.283	46.600	-0.111	0.101
-126.268	-169.826	-0.122	0.004
-125.253	729.061	0.060	-0.158
-124.239	36.349	0.257	0.223
-123.224	57.959	0.110	-0.105
-122.210	-164.585	0.230	0.010
-121.195	-84.718	0.396	-0.122
