DTS Sentinel unit serial number:	SN413079Multiplexer serial number:	ORYXHardware model number:	OX4-SRSoftware version number:	ORYX F/W v4.00 Oryx Data Collector v3.7.2.0data status	okinstallation	princeton_trtdifferential loss correction	single-endedforward channel	channel 3reverse channel	N/Adate	2019/09/12time	18:37:03forward acquisition time	15.00reverse acquisition time	0.00gamma	496.2192k internal	0.2318k external	0.2318temperature offset calibration	1.0087default loss term (dB/km)	0.3790temperature slope calibration	1.0000multiplexer offset coefficient	1.0000multiplexer slope coefficient	1.0000fibre end	0.00T internal ref (°C)	33.12T ext. ref 1 (°C)	2.91T ext. ref 2 (°C)	27.68length (m)	temperature (°C)	Stokes	anti-Stokes-747.200	47.169	0.059	0.056
-746.185	-64.485	-0.115	0.047
-745.171	38.154	-0.177	0.160
-744.156	-0.854	-0.154	-0.111
-743.142	18.919	0.629	0.510
-742.127	315.481	-0.131	0.250
-741.112	-147.724	0.389	-0.033
-740.098	-8.312	-0.125	0.085
-739.083	800.000	-0.235	0.925
-738.069	800.000	-0.209	0.800
-737.054	27.132	-0.591	-0.502
-736.039	-200.000	-0.125	-0.712
-735.025	-27.152	0.293	-0.173
-734.010	-200.000	0.093	0.535
-732.996	800.000	-0.136	0.405
-731.981	115.652	0.458	0.567
-730.966	62.617	0.555	-0.561
-729.952	-38.576	0.290	-0.155
-728.937	-120.388	-0.855	-0.147
-727.923	800.000	0.015	-0.050
-726.908	762.794	-0.173	-0.475
-725.894	-123.461	0.611	0.098
-724.879	800.000	-0.091	0.270
-723.864	-200.000	-0.019	-0.087
-722.850	22.516	0.208	0.172
-721.835	-17.409	-0.322	0.205
-720.821	193.645	0.027	0.041
-719.806	-200.000	-0.022	-0.667
-718.791	-58.086	-0.337	-0.149
-717.777	-92.243	-0.909	0.259
-716.762	-48.547	0.898	0.437
-715.748	-12.685	-0.778	0.513
-714.733	-200.000	0.045	-0.449
-713.718	-149.788	-0.177	0.014
-712.704	299.962	0.249	0.464
-711.689	15.256	-0.301	0.238
-710.675	261.347	-0.154	0.270
-709.660	151.149	0.474	0.652
-708.645	60.933	0.312	-0.313
-707.631	-17.164	0.529	0.337
-706.616	800.000	0.024	-0.072
-705.602	-43.686	0.175	0.089
-704.587	-155.601	0.311	0.020
-703.572	800.000	-0.100	0.314
-702.558	29.844	0.312	-0.269
-701.543	263.033	-0.320	-0.562
-700.529	456.956	0.177	-0.397
-699.514	-18.811	-0.434	0.273
-698.499	-32.519	-0.812	-0.457
-697.485	-34.950	0.732	0.404
-696.470	-31.341	-0.430	-0.245
-695.456	166.222	-0.269	0.385
-694.441	3.142	-0.518	0.381
-693.426	-24.736	-0.546	-0.328
-692.412	23.662	-0.532	0.442
-691.397	337.194	-0.318	-0.624
-690.383	23.284	0.296	-0.245
-689.368	-167.712	0.673	-0.027
-688.354	-153.659	-1.012	0.070
-687.339	112.823	0.371	0.454
-686.324	-8.965	-0.480	0.325
-685.310	-98.606	0.358	0.092
-684.295	517.229	-0.196	0.463
-683.281	131.241	-0.362	0.469
-682.266	800.000	0.101	-0.353
-681.251	-40.138	0.471	-0.248
-680.237	-141.007	0.682	-0.071
-679.222	800.000	0.092	-0.352
-678.208	112.964	-0.308	-0.377
-677.193	-200.000	-0.121	0.661
-676.178	-35.855	0.433	0.237
-675.164	-200.000	-0.021	-0.317
-674.149	-200.000	-0.086	-0.432
-673.135	405.644	-0.206	-0.439
-672.120	434.317	0.271	-0.594
-671.105	-60.848	0.638	-0.272
-670.091	315.868	0.283	0.540
-669.076	130.342	-0.316	0.409
-668.062	634.257	-0.136	-0.349
-667.047	47.401	-0.550	-0.517
-666.032	-19.646	0.975	0.609
-665.018	-109.002	-1.075	-0.231
-664.003	-92.741	-0.553	0.156
-662.989	183.725	0.289	-0.432
-661.974	248.065	0.107	-0.183
-660.959	-110.565	0.970	0.203
-659.945	-82.367	-0.542	0.178
-658.930	129.942	-0.499	-0.644
-657.916	-38.414	0.716	-0.382
-656.901	-52.262	-0.243	0.114
-655.886	5.957	-0.253	-0.189
-654.872	165.515	-0.071	0.101
-653.857	-102.268	-0.992	-0.240
-652.843	-15.367	-0.718	-0.463
-651.828	-200.000	-0.173	-0.804
-650.814	274.834	0.178	-0.318
-649.799	-4.841	0.338	0.235
-648.784	-10.559	-0.493	-0.329
-647.770	-36.836	-0.453	-0.245
-646.755	1.253	-0.468	-0.339
-645.741	800.000	0.156	0.586
-644.726	39.709	0.350	0.317
-643.711	-31.611	0.426	-0.241
-642.697	-4.006	-0.436	-0.305
-641.682	3.418	-0.417	0.306
-640.668	73.853	0.789	0.834
-639.653	-107.045	-0.286	0.064
-638.638	567.453	0.085	-0.208
-637.624	46.232	-0.042	0.039
-636.609	-200.000	-0.027	0.268
-635.595	34.048	-0.470	-0.413
-634.580	-200.000	0.073	0.659
-633.565	8.670	0.173	0.132
-632.551	-51.141	-0.282	0.133
-631.536	800.000	0.215	0.841
-630.522	-89.779	-0.442	0.130
-629.507	25.481	-0.602	-0.505
-628.492	-112.901	-0.611	0.122
-627.478	-200.000	0.013	0.269
-626.463	19.650	-0.302	0.245
-625.449	-197.798	0.976	-0.006
-624.434	63.754	0.152	0.154
-623.419	57.552	-0.422	0.416
-622.405	405.662	0.112	0.238
-621.390	4.623	-0.702	-0.519
-620.376	156.449	0.356	-0.496
-619.361	659.045	-0.126	0.327
-618.346	-16.342	0.189	0.121
-617.332	-53.836	0.336	-0.154
-616.317	-200.000	-0.544	-0.002
-615.303	134.552	0.314	-0.410
-614.288	-200.000	-0.005	0.424
-613.273	-163.465	-0.573	-0.027
-612.259	63.011	-0.751	0.757
-611.244	-111.762	1.102	-0.225
-610.230	130.033	0.268	0.346
-609.215	-141.445	-0.760	0.077
-608.201	-200.000	0.005	0.051
-607.186	419.958	-0.368	-0.794
-606.171	-117.003	-0.520	0.096
-605.157	85.839	-0.090	0.100
-604.142	26.069	0.112	0.094
-603.128	-2.377	-0.453	0.320
-602.113	131.721	0.492	-0.637
-601.098	-10.359	-0.561	0.374
-600.084	800.000	-0.306	1.017
-599.069	-102.641	-0.031	-0.007
-598.055	335.858	-0.107	-0.208
-597.040	-58.529	-0.693	0.302
-596.025	201.195	0.117	0.181
-595.011	66.007	-0.230	0.235
-593.996	-135.096	-0.707	-0.086
-592.982	-158.201	0.595	-0.035
-591.967	-62.135	-0.085	-0.036
-590.952	-178.998	-0.479	0.011
-589.938	-200.000	-0.011	-0.388
-588.923	-87.234	-0.468	0.143
-587.909	34.784	-0.668	0.588
-586.894	-75.653	-0.287	-0.103
-585.879	-200.000	0.077	-0.485
-584.865	-104.377	0.888	0.207
-583.850	-78.709	0.954	0.328
-582.836	0.514	-0.649	0.467
-581.821	101.767	-0.052	0.061
-580.806	-16.696	-0.569	-0.362
-579.792	800.000	0.083	-0.340
-578.777	-81.790	-0.860	0.284
-577.763	-9.422	-0.367	-0.247
-576.748	-200.000	-0.080	-0.806
-575.733	-13.668	-0.210	-0.136
-574.719	-176.794	-1.221	-0.031
-573.704	349.221	-0.409	0.811
-572.690	12.456	-0.145	0.112
-571.675	-31.100	-0.508	-0.288
-570.661	-147.635	0.768	-0.065
-569.646	-200.000	-0.179	0.873
-568.631	226.361	0.504	-0.822
-567.617	67.635	0.853	-0.876
-566.602	-132.629	-0.470	0.061
-565.588	234.107	0.618	-1.024
-564.573	-200.000	0.017	0.131
-563.558	-89.410	-0.246	-0.073
-562.544	-200.000	0.146	0.728
-561.529	741.529	-0.234	0.632
-560.515	-32.710	0.499	-0.279
-559.500	-200.000	-0.169	-0.766
-558.485	-77.077	-0.140	-0.049
-557.471	216.694	0.161	0.257
-556.456	-30.553	0.882	0.502
-555.442	800.000	-0.067	-0.285
-554.427	-200.000	-0.023	-0.787
-553.412	64.396	-0.294	0.297
-552.398	-105.700	-0.309	-0.070
-551.383	-7.064	0.388	0.264
-550.369	58.111	0.188	0.185
-549.354	-36.020	0.348	-0.189
-548.339	300.543	-0.351	-0.650
-547.325	-200.000	-0.111	0.693
-546.310	-168.456	0.403	-0.016
-545.296	-200.000	0.034	-0.602
-544.281	-200.000	-0.003	-0.839
-543.266	-200.000	0.116	-0.698
-542.252	370.890	0.137	0.279
-541.237	-126.020	-0.475	-0.072
-540.223	100.502	0.119	0.139
-539.208	2.421	0.604	0.439
-538.193	-173.035	-0.196	0.006
-537.179	493.535	0.102	-0.236
-536.164	228.998	-0.087	-0.143
-535.150	401.672	-0.272	-0.573
-534.135	800.000	-0.295	-0.869
-533.121	-10.512	-1.091	0.725
-532.106	-168.181	-0.793	-0.031
-531.091	-20.605	-0.050	-0.031
-530.077	-178.823	-0.905	0.021
-529.062	800.000	0.084	-0.262
-528.048	-161.260	-0.865	-0.045
-527.033	268.350	-0.143	-0.251
-526.018	-65.604	0.357	-0.144
-525.004	-200.000	-0.060	-0.386
-523.989	800.000	-0.094	-0.328
-522.975	-200.000	0.057	-0.405
-521.960	-52.864	0.818	-0.378
-520.945	-200.000	-0.064	-0.458
-519.931	214.809	-0.595	0.947
-518.916	-64.740	0.257	-0.105
-517.902	126.964	0.328	-0.417
-516.887	-200.000	0.003	-0.600
-515.872	5.371	0.408	-0.302
-514.858	79.991	0.164	0.177
-513.843	-200.000	-0.054	0.343
-512.829	-109.717	-0.714	-0.151
-511.814	-110.532	-0.558	-0.116
-510.799	4.685	-0.452	0.333
-509.785	47.884	0.528	0.494
-508.770	-10.134	0.782	-0.521
-507.756	-84.106	1.348	-0.429
-506.741	-200.000	-0.124	-0.605
-505.726	28.037	0.450	-0.381
-504.712	345.727	0.346	0.683
-503.697	-119.138	-0.576	-0.101
-502.683	276.322	-0.127	0.225
-501.668	-167.446	-0.608	0.024
-500.653	-77.372	-0.587	-0.204
-499.639	94.030	0.418	0.475
-498.624	800.000	0.076	-0.273
-497.610	-200.000	-0.164	-0.859
-496.595	-35.063	-0.644	-0.352
-495.581	-46.189	0.513	0.253
-494.566	204.828	-0.233	-0.362
-493.551	800.000	0.222	0.866
-492.537	130.837	-0.212	-0.273
-491.522	-170.401	0.662	0.023
-490.508	-7.210	-0.388	-0.264
-489.493	-200.000	0.026	-0.526
-488.478	-200.000	0.015	-0.540
-487.464	60.710	-0.445	-0.442
-486.449	602.476	-0.291	0.725
-485.435	800.000	0.102	-0.439
-484.420	-4.085	0.411	0.285
-483.405	-55.979	0.229	-0.102
-482.391	-96.229	0.478	-0.127
-481.376	-3.553	-0.180	-0.126
-480.362	337.954	-0.052	-0.100
-479.347	800.000	0.194	-0.734
-478.332	-200.000	-0.100	-0.806
-477.318	332.871	0.180	-0.348
-476.303	480.423	-0.129	-0.292
-475.289	-109.915	-1.133	-0.238
-474.274	692.216	-0.068	0.178
-473.259	-200.000	-0.040	0.338
-472.245	43.318	-0.732	-0.670
-471.230	-42.336	0.257	0.131
-470.216	-7.371	-0.310	0.210
-469.201	800.000	0.240	0.747
-468.186	-149.869	0.238	-0.019
-467.172	-118.985	-0.914	0.160
-466.157	800.000	-0.275	-0.991
-465.143	46.575	-0.604	0.561
-464.128	287.692	0.239	-0.432
-463.113	-89.109	0.544	-0.161
-462.099	800.000	0.019	-0.054
-461.084	265.367	-0.072	0.125
-460.070	-19.468	-0.274	-0.170
-459.055	27.915	-0.339	-0.286
-458.040	546.522	0.140	0.336
-457.026	-5.091	0.487	-0.336
-456.011	800.000	-0.155	-0.601
-454.997	-17.764	-0.522	0.328
-453.982	-146.399	0.335	-0.029
-452.968	-200.000	-0.047	-0.362
-451.953	2.369	0.303	0.219
-450.938	-43.388	0.764	-0.386
-449.924	467.759	0.070	0.156
-448.909	246.035	0.131	0.221
-447.895	371.930	-0.059	0.120
-446.880	334.038	-0.560	1.084
-445.865	800.000	0.257	1.119
-444.851	-200.000	-0.053	0.736
-443.836	462.434	0.274	0.613
-442.822	-58.009	0.413	-0.180
-441.807	162.706	0.472	0.663
-440.792	461.521	0.148	-0.329
-439.778	-126.691	-0.975	0.144
-438.763	-107.315	0.443	0.097
-437.749	800.000	-0.080	-0.291
-436.734	144.067	0.148	-0.198
-435.719	113.947	-0.212	-0.258
-434.705	266.299	-0.166	-0.290
-433.690	14.975	-0.638	-0.499
-432.676	800.000	0.086	0.326
-431.661	408.518	-0.131	-0.277
-430.646	24.811	-0.781	-0.647
-429.632	-135.912	-0.652	0.077
-428.617	-53.773	-0.039	0.018
-427.603	-62.708	0.178	0.074
-426.588	-92.805	0.075	0.021
-425.573	-20.014	0.743	-0.458
-424.559	-53.122	0.785	0.361
-423.544	800.000	-0.213	-0.601
-422.530	-200.000	0.046	0.315
-421.515	-54.090	0.609	0.277
-420.500	-200.000	-0.071	-0.441
-419.486	-94.314	0.227	0.062
-418.471	-200.000	-0.106	1.211
-417.457	800.000	0.155	0.533
-416.442	-135.267	-0.222	-0.027
-415.428	2.377	0.217	0.157
-414.413	119.993	0.377	-0.467
-413.398	-64.026	-0.545	0.222
-412.384	125.129	0.371	-0.467
-411.369	-21.475	-0.270	0.165
-410.355	-200.000	0.035	0.284
-409.340	-61.999	-0.971	-0.405
-408.325	-200.000	-0.003	-0.150
-407.311	800.000	0.227	0.826
-406.296	-200.000	-0.007	-0.290
-405.282	-89.134	-0.886	0.261
-404.267	-172.767	0.441	0.014
-403.252	166.655	-0.539	0.764
-402.238	-30.491	-0.114	0.065
-401.223	186.100	0.153	-0.228
-400.209	-125.981	0.654	-0.098
-399.194	-132.741	-0.955	-0.122
-398.179	171.793	-0.292	0.418
-397.165	-38.898	0.748	-0.393
-396.150	30.581	0.160	0.137
-395.136	800.000	-0.196	-0.556
-394.121	-81.702	-0.610	0.200
-393.106	-94.000	0.375	-0.103
-392.092	-4.039	0.711	0.492
-391.077	169.710	-0.489	-0.697
-390.063	332.475	-0.060	-0.115
-389.048	-79.719	0.570	0.192
-388.033	-200.000	-0.011	0.365
-387.019	-101.541	0.244	0.059
-386.004	-200.000	0.067	-0.498
-384.990	800.000	0.263	0.917
-383.975	-200.000	-0.030	1.088
-382.960	-200.000	-0.002	-0.287
-381.946	-49.535	-0.401	-0.191
-380.931	800.000	-0.057	-0.214
-379.917	-6.926	-0.436	-0.296
-378.902	96.102	-0.458	0.522
-377.888	-200.000	0.014	0.082
-376.873	-93.458	0.313	-0.086
-375.858	-49.644	0.655	0.311
-374.844	-81.195	-0.815	0.269
-373.829	-75.720	0.147	-0.052
-372.815	800.000	-0.163	-0.450
-371.800	-200.000	0.027	-0.393
-370.785	-45.197	0.115	-0.057
-369.771	-71.136	0.677	0.254
-368.756	-200.000	-0.049	-0.654
-367.742	43.488	0.102	-0.093
-366.727	-200.000	-0.023	1.036
-365.712	61.700	0.496	0.492
-364.698	-91.905	1.156	0.327
-363.683	-200.000	0.199	-1.071
-362.669	25.535	0.109	0.091
-361.654	529.833	0.269	-0.634
-360.639	44.908	-0.276	-0.253
-359.625	312.826	-0.500	-0.937
-358.610	493.615	0.152	0.348
-357.596	-6.359	0.482	-0.328
-356.581	264.678	0.236	0.410
-355.566	-200.000	0.013	-0.313
-354.552	-36.059	0.246	0.132
-353.537	199.443	-0.579	-0.885
-352.523	138.543	-0.239	0.312
-351.508	-36.356	-0.294	-0.158
-350.493	800.000	0.057	0.197
-349.479	27.627	-0.444	-0.373
-348.464	-51.749	-0.731	0.340
-347.450	83.592	0.154	0.168
-346.435	116.247	-0.244	-0.297
-345.420	-120.568	-0.301	0.051
-344.406	-200.000	0.045	0.640
-343.391	-66.080	-0.350	-0.139
-342.377	-101.273	0.445	-0.108
-341.362	-200.000	0.058	0.323
-340.348	-82.229	0.824	0.267
-339.333	82.304	0.340	-0.368
-338.318	64.406	-0.109	-0.109
-337.304	56.042	-0.554	-0.535
-336.289	-168.086	0.827	0.032
-335.275	173.969	-0.282	0.406
-334.260	800.000	0.220	0.837
-333.245	-191.793	-0.791	0.008
-332.231	103.129	-0.367	0.429
-331.216	-56.483	0.518	-0.229
-330.202	800.000	-0.154	0.565
-329.187	187.704	0.186	-0.277
-328.172	-200.000	0.148	-0.877
-327.158	91.404	-0.656	-0.734
-326.143	-44.744	0.349	0.174
-325.129	-94.709	0.608	-0.164
-324.114	-17.861	-0.441	-0.275
-323.099	-94.308	-1.236	0.336
-322.085	800.000	-0.047	-0.164
-321.070	-81.324	-0.087	0.029
-320.056	67.224	-0.197	0.200
-319.041	746.140	-0.291	0.780
-318.026	-200.000	0.053	-0.264
-317.012	-200.000	-0.072	0.374
-315.997	-200.000	0.002	-0.074
-314.983	91.023	0.439	-0.490
-313.968	-57.253	0.918	0.402
-312.953	-68.050	1.412	0.548
-311.939	-111.324	0.376	-0.076
-310.924	86.072	-0.154	-0.168
-309.910	800.000	-0.191	-0.597
-308.895	-152.491	0.601	0.043
-307.880	126.296	-0.355	-0.447
-306.866	-200.000	0.089	-0.427
-305.851	800.000	-0.203	-0.803
-304.837	-138.802	-0.591	-0.064
-303.822	-21.703	-0.257	-0.156
-302.807	675.190	-0.171	0.443
-301.793	747.114	0.206	0.551
-300.778	-24.474	0.677	0.401
-299.764	-101.511	0.792	-0.192
-298.749	-200.000	-0.037	-0.668
-297.735	-167.284	0.307	-0.012
-296.720	-200.000	0.121	0.562
-295.705	-106.029	-0.857	0.192
-294.691	-200.000	-0.001	0.244
-293.676	486.472	-0.245	0.556
-292.662	-200.000	0.012	0.213
-291.647	66.571	-0.217	0.219
-290.632	-115.327	0.355	-0.067
-289.618	800.000	0.035	-0.151
-288.603	-9.247	0.483	0.321
-287.589	-162.864	-0.783	-0.038
-286.574	-67.599	0.685	0.267
-285.559	34.665	0.946	-0.822
-284.545	241.005	-0.387	0.643
-283.530	800.000	0.227	-0.743
-282.516	6.287	0.315	0.232
-281.501	-200.000	-0.010	0.943
-280.486	792.216	0.071	-0.195
-279.472	-158.615	0.657	-0.038
-278.457	-107.664	-1.198	0.260
-277.443	-74.918	0.489	-0.174
-276.428	-134.439	-0.161	-0.020
-275.413	18.683	0.417	-0.331
-274.399	-200.000	-0.017	0.548
-273.384	325.055	-0.425	-0.808
-272.370	350.154	-0.209	-0.411
-271.355	-29.830	0.234	-0.133
-270.340	47.943	0.512	0.475
-269.326	-20.276	0.720	0.441
-268.311	-129.577	-0.310	0.043
-267.297	-40.945	-0.213	-0.109
-266.282	0.211	0.440	-0.312
-265.267	559.625	0.220	-0.527
-264.253	-22.817	-0.736	0.441
-263.238	-147.757	-0.620	0.052
-262.224	126.991	0.124	-0.156
-261.209	-72.921	0.306	0.112
-260.195	774.269	-0.122	0.330
-259.180	-113.202	0.284	-0.056
-258.165	-100.076	-0.848	-0.210
-257.151	-200.000	0.098	-0.974
-256.136	-200.000	0.033	-0.203
-255.122	-74.857	-0.827	0.295
-254.107	-123.913	-0.690	0.108
-253.092	221.554	0.580	0.925
-252.078	121.781	0.261	0.323
-251.063	91.413	-0.192	-0.214
-250.049	-118.568	1.229	-0.216
-249.034	-58.427	-0.069	-0.030
-248.019	-165.186	-0.816	0.036
-247.005	136.978	-0.306	-0.397
-245.990	-89.430	-0.105	-0.031
-244.976	643.430	-0.203	-0.514
-243.961	5.546	-0.292	-0.214
-242.946	201.309	0.105	0.161
-241.932	-177.980	-0.755	-0.018
-240.917	333.671	-0.201	0.386
-239.903	-200.000	-0.024	-0.599
-238.888	-197.966	0.580	-0.003
-237.873	-107.205	-0.860	-0.188
-236.859	32.499	0.187	-0.160
-235.844	131.926	-0.171	0.219
-234.830	13.010	0.140	0.107
-233.815	-171.153	0.324	0.011
-232.800	576.373	-0.239	-0.580
-231.786	800.000	0.210	0.635
-230.771	-33.803	-0.740	-0.404
-229.757	-69.764	-0.875	-0.332
-228.742	-200.000	-0.093	0.527
-227.727	228.569	0.377	0.610
-226.713	-200.000	-0.055	0.721
-225.698	61.182	0.225	-0.222
-224.684	-118.981	-0.718	-0.125
-223.669	-200.000	0.070	-0.492
-222.655	800.000	0.379	1.336
-221.640	-200.000	-0.012	0.065
-220.625	-133.427	-0.665	-0.083
-219.611	233.550	0.580	-0.947
-218.596	-96.594	1.111	-0.290
-217.582	230.261	-0.127	0.206
-216.567	-140.162	-0.497	-0.052
-215.552	800.000	-0.214	-0.756
-214.538	291.778	0.185	-0.333
-213.523	174.954	0.389	0.559
-212.509	166.373	-0.421	0.592
-211.494	531.806	0.315	-0.739
-210.479	126.436	0.656	-0.823
-209.465	-43.379	-1.121	0.562
-208.450	-200.000	-0.007	0.047
-207.436	76.606	0.393	0.413
-206.421	532.463	0.246	0.577
-205.406	-200.000	-0.031	-0.401
-204.392	147.531	-0.482	-0.644
-203.377	-32.006	-0.482	0.267
-202.363	234.526	0.321	0.524
-201.348	800.000	0.185	0.694
-200.333	-150.885	0.715	-0.054
-199.319	201.829	-0.235	-0.358
-198.304	-118.130	0.521	-0.092
-197.290	-200.000	-0.025	0.872
-196.275	115.076	0.012	-0.014
-195.260	37.960	0.520	0.458
-194.246	-2.324	0.414	-0.287
-193.231	104.932	0.272	0.318
-192.217	109.965	0.234	0.278
-191.202	-111.156	-0.143	0.029
-190.187	84.411	0.406	-0.440
-189.173	-65.483	0.277	-0.110
-188.158	434.465	0.351	0.756
-187.144	116.213	-0.182	0.221
-186.129	78.690	0.344	0.364
-185.114	-200.000	1.024	-0.004
-184.100	414.024	-0.436	0.920
-183.085	-200.000	-0.177	1.532
-182.071	627.799	-0.090	0.224
-181.056	-93.501	0.956	-0.262
-180.042	110.218	-0.151	-0.179
-179.027	705.654	-0.169	-0.440
-178.012	58.962	-0.081	0.078
-176.998	-93.323	-0.446	-0.123
-175.983	-76.797	1.053	0.365
-174.969	362.369	0.361	0.718
-173.954	-76.907	0.762	-0.264
-172.939	800.000	0.162	-0.690
-171.925	7.309	-0.685	-0.507
-170.910	800.000	0.269	0.920
-169.896	25.364	-0.435	-0.358
-168.881	-150.867	0.399	-0.030
-167.866	-105.492	0.862	0.194
-166.852	-35.216	1.201	-0.647
-165.837	93.546	0.842	-0.944
-164.823	124.560	0.112	0.139
-163.808	13.259	0.147	-0.113
-162.793	-56.246	0.650	0.286
-161.779	-33.169	-0.051	0.028
-160.764	15.110	0.516	-0.400
-159.750	70.037	0.575	0.588
-158.735	-87.836	0.393	-0.117
-157.720	-99.374	-0.380	-0.095
-156.706	-143.725	0.418	0.039
-155.691	-12.226	0.483	0.313
-154.677	192.853	-0.238	0.356
-153.662	-200.000	-0.003	0.393
-152.647	61.795	0.192	0.189
-151.633	49.208	0.305	0.283
-150.618	-200.000	-0.123	0.676
-149.604	7.344	0.111	-0.082
-148.589	800.000	0.218	0.814
-147.574	-101.348	-0.209	-0.050
-146.560	-153.160	0.423	-0.029
-145.545	-6.331	0.192	-0.130
-144.531	203.618	-0.270	0.413
-143.516	207.529	-0.191	0.295
-142.502	304.721	-0.352	-0.645
-141.487	-200.000	-0.186	-0.820
-140.472	55.001	-0.052	0.049
-139.458	16.105	0.721	0.562
-138.443	75.997	-0.195	-0.204
-137.429	181.991	-0.207	0.301
-136.414	-49.528	-0.335	-0.158
-135.399	-19.214	0.391	-0.240
-134.385	-200.000	0.030	-0.664
-133.370	-200.000	-0.035	-0.758
-132.356	-97.075	-0.545	0.141
-131.341	-200.000	-0.031	0.211
-130.326	-80.936	1.137	0.372
-129.312	-131.492	-0.429	-0.056
-128.297	-130.713	-0.516	-0.069
-127.283	27.414	-0.044	0.037
-126.268	13.848	-0.762	-0.586
-125.253	541.094	0.194	-0.457
-124.239	485.478	-0.498	1.121
-123.224	-200.000	-0.099	0.585
-122.210	36.126	0.372	-0.324
-121.195	-75.075	0.164	0.058
