DTS Sentinel unit serial number:	SN413079Multiplexer serial number:	ORYXHardware model number:	OX4-SRSoftware version number:	ORYX F/W v4.00 Oryx Data Collector v3.7.2.0data status	okinstallation	princeton_trtdifferential loss correction	single-endedforward channel	channel 3reverse channel	N/Adate	2019/09/13time	05:44:35forward acquisition time	60.00reverse acquisition time	0.00gamma	496.2192k internal	0.2338k external	0.2338temperature offset calibration	1.0134default loss term (dB/km)	0.3790temperature slope calibration	1.0000multiplexer offset coefficient	1.0000multiplexer slope coefficient	1.0000fibre end	0.00T internal ref (°C)	26.19T ext. ref 1 (°C)	4.05T ext. ref 2 (°C)	20.89length (m)	temperature (°C)	Stokes	anti-Stokes-747.200	800.000	0.006	0.025
-746.185	-200.000	0.014	0.338
-745.171	800.000	-0.053	0.189
-744.156	-149.871	-0.524	0.041
-743.142	18.612	0.038	-0.030
-742.127	76.863	-0.097	-0.103
-741.112	-200.000	-0.025	0.204
-740.098	-200.000	-0.025	0.216
-739.083	800.000	0.027	-0.108
-738.069	-120.516	-0.101	-0.017
-737.054	45.986	-0.087	0.080
-736.039	-25.091	-0.325	0.193
-735.025	620.099	-0.126	-0.318
-734.010	-112.133	-0.477	-0.096
-732.996	265.373	-0.133	-0.233
-731.981	17.528	-0.122	-0.097
-730.966	800.000	0.048	0.143
-729.952	-42.626	-0.321	-0.164
-728.937	-200.000	-0.012	-0.153
-727.923	182.365	0.164	-0.242
-726.908	-200.000	0.024	0.235
-725.894	2.670	-0.169	-0.123
-724.879	-200.000	-0.034	-0.277
-723.864	-200.000	-0.034	0.198
-722.850	800.000	0.038	0.135
-721.835	-163.713	0.133	0.006
-720.821	-3.002	0.224	-0.156
-719.806	-78.474	-0.309	0.106
-718.791	-39.966	-0.067	-0.035
-717.777	396.443	0.047	-0.098
-716.762	-200.000	-0.026	-0.227
-715.748	192.729	-0.178	-0.270
-714.733	-200.000	0.018	-0.256
-713.718	26.405	0.098	0.082
-712.704	-153.421	-0.320	0.022
-711.689	-200.000	0.008	-0.126
-710.675	-33.815	-0.237	-0.131
-709.660	601.643	-0.036	-0.088
-708.645	-113.716	0.172	0.034
-707.631	293.340	0.080	-0.146
-706.616	394.036	0.072	0.151
-705.602	-200.000	-0.002	-0.091
-704.587	-135.516	0.161	0.019
-703.572	212.437	0.136	-0.216
-702.558	53.653	-0.153	0.147
-701.543	-200.000	-0.013	0.152
-700.529	-67.088	0.192	0.076
-699.514	-200.000	0.077	0.467
-698.499	-102.702	-0.204	-0.049
-697.485	684.528	-0.015	-0.039
-696.470	125.049	-0.081	-0.102
-695.456	800.000	-0.042	0.151
-694.441	138.391	-0.220	0.290
-693.426	-19.156	-0.182	-0.113
-692.412	-200.000	0.037	-0.297
-691.397	800.000	-0.149	0.461
-690.383	80.071	-0.341	-0.367
-689.368	116.842	0.298	0.366
-688.354	-43.220	-0.189	0.096
-687.339	-4.031	0.094	-0.066
-686.324	-195.719	0.086	0.001
-685.310	-89.434	0.088	-0.026
-684.295	800.000	-0.049	-0.175
-683.281	800.000	-0.059	0.247
-682.266	191.036	0.109	0.164
-681.251	800.000	0.070	-0.216
-680.237	-114.434	0.148	-0.028
-679.222	-168.545	-0.061	-0.002
-678.208	604.314	-0.077	-0.191
-677.193	800.000	-0.021	-0.088
-676.178	-200.000	0.029	0.145
-675.164	800.000	-0.041	-0.150
-674.149	60.063	0.237	0.234
-673.135	800.000	-0.065	-0.221
-672.120	422.110	0.114	0.245
-671.105	-111.782	0.113	-0.023
-670.091	-122.125	-0.141	-0.023
-669.076	-200.000	-0.073	-0.328
-668.062	-115.286	0.217	-0.041
-667.047	161.931	-0.110	0.154
-666.032	-98.541	0.404	0.103
-665.018	112.889	-0.157	-0.191
-664.003	-200.000	-0.017	0.323
-662.989	-89.348	0.273	-0.081
-661.974	-178.686	-0.092	0.002
-660.959	72.672	-0.121	-0.126
-659.945	17.722	-0.228	0.181
-658.930	348.493	-0.029	0.057
-657.916	800.000	0.022	-0.060
-656.901	566.371	-0.071	-0.173
-655.886	70.080	0.205	0.211
-654.872	-104.809	-0.163	0.037
-653.857	53.046	-0.034	0.032
-652.843	193.951	0.151	-0.228
-651.828	800.000	0.151	0.427
-650.814	-109.732	-0.138	0.029
-649.799	186.824	-0.197	0.293
-648.784	-22.571	0.275	-0.166
-647.770	241.914	0.182	0.305
-646.755	-124.613	0.187	-0.029
-645.741	-109.400	0.093	0.020
-644.726	-9.508	0.114	0.076
-643.711	-200.000	0.015	0.163
-642.697	-24.084	0.294	0.175
-641.682	-107.570	-0.202	0.044
-640.668	81.549	-0.068	0.073
-639.653	-173.931	-0.211	-0.006
-638.638	-200.000	-0.002	-0.083
-637.624	200.929	-0.133	-0.205
-636.609	800.000	0.086	0.282
-635.595	16.828	0.157	0.124
-634.580	10.320	-0.366	-0.278
-633.565	-115.197	0.380	-0.072
-632.551	-1.754	-0.135	0.095
-631.536	-42.860	0.167	-0.085
-630.522	77.427	0.104	-0.111
-629.507	800.000	-0.080	0.341
-628.492	-21.194	-0.190	0.116
-627.478	-47.802	-0.362	-0.175
-626.463	-200.000	-0.023	0.151
-625.449	185.116	-0.161	-0.238
-624.434	61.121	-0.144	0.142
-623.419	800.000	-0.014	-0.041
-622.405	-168.369	-0.221	0.008
-621.390	-200.000	-0.010	-0.237
-620.376	-49.637	0.134	-0.064
-619.361	185.870	-0.077	-0.114
-618.346	-200.000	0.002	0.113
-617.332	-154.008	0.241	0.016
-616.317	-141.096	0.650	0.066
-615.303	221.577	0.015	0.023
-614.288	-68.369	-0.207	0.080
-613.273	-118.803	0.138	-0.024
-612.259	32.745	-0.039	-0.033
-611.244	62.080	-0.259	-0.257
-610.230	-92.093	-0.126	-0.035
-609.215	300.519	-0.111	-0.205
-608.201	-182.950	-0.148	-0.003
-607.186	-200.000	-0.102	-0.000
-606.171	-85.544	-0.339	-0.105
-605.157	139.820	-0.199	-0.262
-604.142	-106.321	-0.102	-0.023
-603.128	753.981	0.050	0.136
-602.113	22.463	0.131	-0.107
-601.098	-200.000	0.020	-0.136
-600.084	193.848	-0.033	-0.049
-599.069	644.582	-0.079	-0.201
-598.055	800.000	0.048	0.205
-597.040	-44.514	-0.175	0.087
-596.025	-53.187	0.082	0.037
-595.011	71.889	0.166	-0.172
-593.996	-78.844	-0.189	0.064
-592.982	253.976	0.081	0.139
-591.967	800.000	0.097	-0.284
-590.952	4.864	0.196	0.144
-589.938	0.326	0.220	-0.157
-588.923	419.931	-0.109	0.232
-587.909	-64.207	0.210	0.085
-586.894	58.135	-0.115	0.112
-585.879	-118.230	0.115	0.020
-584.865	243.224	-0.027	0.046
-583.850	60.990	-0.274	-0.271
-582.836	333.015	0.195	-0.375
-581.821	364.993	-0.052	0.104
-580.806	-107.682	-0.369	-0.080
-579.792	33.895	-0.099	-0.086
-578.777	-179.699	-0.153	0.003
-577.763	-200.000	0.031	-0.134
-576.748	93.010	0.079	0.089
-575.733	473.795	-0.140	-0.314
-574.719	81.795	-0.288	0.310
-573.704	24.560	0.124	0.102
-572.690	-168.766	-0.111	0.004
-571.675	-54.978	0.155	0.070
-570.661	800.000	-0.132	0.492
-569.646	-3.688	0.268	-0.185
-568.631	-160.096	-0.094	0.005
-567.617	-45.525	0.210	0.104
-566.602	800.000	0.028	-0.092
-565.588	281.993	-0.156	-0.279
-564.573	-200.000	-0.014	-0.082
-563.558	537.437	-0.119	-0.282
-562.544	-200.000	0.288	0.001
-561.529	116.211	0.042	0.051
-560.515	-200.000	-0.088	-0.000
-559.500	1.622	0.102	0.073
-558.485	0.307	0.217	-0.154
-557.471	221.695	0.102	0.164
-556.456	17.415	-0.196	0.155
-555.442	-63.568	0.386	0.158
-554.427	-52.439	0.254	0.117
-553.412	196.886	-0.063	0.095
-552.398	-9.186	0.211	0.140
-551.383	32.210	-0.122	0.105
-550.369	-56.179	0.228	0.101
-549.354	-101.446	0.145	-0.035
-548.339	800.000	0.077	0.221
-547.325	-11.625	-0.361	0.236
-546.310	34.841	-0.131	0.114
-545.296	89.682	0.039	0.044
-544.281	210.656	0.246	0.385
-543.266	-26.407	-0.081	0.047
-542.252	-200.000	-0.010	0.270
-541.237	245.189	0.103	-0.172
-540.223	-200.000	-0.045	-0.483
-539.208	-200.000	-0.040	-0.187
-538.193	-185.598	0.402	-0.006
-537.179	-129.783	-0.422	-0.058
-536.164	-1.279	0.267	-0.188
-535.150	-200.000	-0.019	-0.246
-534.135	-141.800	0.102	-0.010
-533.121	-71.319	0.090	0.033
-532.106	119.996	-0.193	0.238
-531.091	-2.105	-0.237	-0.165
-530.077	-84.058	-0.170	0.054
-529.062	800.000	-0.127	-0.446
-528.048	37.893	-0.114	0.101
-527.033	-84.969	0.370	-0.115
-526.018	-133.508	-0.354	0.044
-525.004	99.844	-0.354	0.407
-523.989	113.997	0.181	-0.219
-522.975	-200.000	-0.044	-0.206
-521.960	51.550	-0.142	-0.134
-520.945	800.000	0.060	0.190
-519.931	800.000	0.029	0.112
-518.916	169.931	0.087	0.124
-517.902	-117.057	0.190	-0.034
-516.887	-22.872	0.308	0.185
-515.872	800.000	-0.088	-0.262
-514.858	196.625	-0.145	0.220
-513.843	-27.039	0.077	-0.045
-512.829	-30.975	-0.133	0.075
-511.814	-200.000	0.020	-0.117
-510.799	800.000	0.021	-0.065
-509.785	-3.890	0.238	-0.164
-508.770	-200.000	0.008	0.189
-507.756	86.792	-0.112	0.122
-506.741	-13.146	-0.203	0.131
-505.726	-17.620	0.245	0.153
-504.712	113.140	-0.155	0.187
-503.697	-192.725	-0.486	-0.004
-502.683	-200.000	-0.073	-0.321
-501.668	-98.412	-0.355	0.090
-500.653	-116.059	0.204	-0.038
-499.639	-200.000	-0.012	0.184
-498.624	-2.031	0.307	0.214
-497.610	-52.632	-0.085	-0.039
-496.595	-154.802	0.237	0.016
-495.581	300.923	0.087	-0.160
-494.566	79.647	0.206	-0.219
-493.551	-200.000	0.046	-0.208
-492.537	195.171	0.132	-0.199
-491.522	725.483	-0.034	-0.091
-490.508	-32.859	-0.334	0.185
-489.493	-60.659	0.431	0.182
-488.478	24.618	-0.315	0.259
-487.464	90.301	-0.152	-0.169
-486.449	-55.552	0.064	0.028
-485.435	-200.000	-0.021	0.136
-484.420	800.000	0.124	-0.447
-483.405	-200.000	0.025	-0.169
-482.391	-200.000	-0.026	0.152
-481.376	-200.000	0.006	0.155
-480.362	-160.756	0.201	0.011
-479.347	-197.165	0.229	-0.001
-478.332	-200.000	-0.045	-0.416
-477.318	800.000	-0.066	0.271
-476.303	-118.223	0.305	-0.054
-475.289	-0.117	-0.243	0.172
-474.274	228.056	-0.357	-0.577
-473.259	800.000	-0.035	0.149
-472.245	-200.000	0.031	0.135
-471.230	-122.729	0.167	0.027
-470.216	563.876	0.021	-0.052
-469.201	163.573	-0.178	-0.249
-468.186	800.000	0.038	0.146
-467.172	493.584	-0.036	-0.083
-466.157	-200.000	0.069	0.302
-465.143	-48.993	0.134	0.064
-464.128	392.930	-0.149	0.308
-463.113	-33.562	-0.234	-0.128
-462.099	-22.840	0.180	-0.108
-461.084	361.739	-0.085	0.170
-460.070	23.810	0.252	-0.206
-459.055	-154.024	0.136	-0.009
-458.040	192.312	-0.039	0.059
-457.026	133.939	-0.286	-0.367
-456.011	-135.677	0.232	0.027
-454.997	116.831	-0.198	-0.241
-453.982	-14.470	0.153	-0.098
-452.968	800.000	-0.070	-0.211
-451.953	-200.000	0.026	-0.141
-450.938	104.234	0.103	-0.120
-449.924	-79.082	0.419	0.141
-448.909	-200.000	0.019	0.224
-447.895	-200.000	0.009	-0.097
-446.880	64.581	0.136	-0.135
-445.865	110.179	-0.191	-0.227
-444.851	-200.000	0.020	0.104
-443.836	-41.104	-0.199	0.102
-442.822	421.226	-0.186	-0.395
-441.807	284.700	-0.086	-0.154
-440.792	43.190	-0.070	0.063
-439.778	91.530	0.220	0.246
-438.763	-200.000	-0.010	0.236
-437.749	130.051	-0.208	0.264
-436.734	-64.688	-0.355	-0.143
-435.719	-79.082	-0.089	0.030
-434.705	456.686	-0.048	-0.105
-433.690	-89.218	0.256	0.075
-432.676	-78.731	-0.312	-0.106
-431.661	-200.000	-0.032	0.286
-430.646	-70.607	0.259	-0.097
-429.632	-132.517	-0.168	0.021
-428.617	242.241	-0.156	0.258
-427.603	-106.711	0.222	0.049
-426.588	-200.000	0.027	0.213
-425.573	800.000	0.050	-0.153
-424.559	629.199	0.096	0.240
-423.544	102.105	-0.057	0.065
-422.530	464.723	-0.047	-0.103
-421.515	81.261	0.258	-0.276
-420.500	-7.615	-0.022	-0.015
-419.486	-200.000	0.009	0.060
-418.471	-16.644	0.091	-0.057
-417.457	291.917	-0.168	-0.302
-416.442	-43.089	0.158	0.079
-415.428	-90.194	0.047	-0.014
-414.413	163.633	-0.121	-0.169
-413.398	-200.000	0.018	-0.105
-412.384	37.164	-0.052	-0.046
-411.369	335.445	-0.032	0.062
-410.355	264.975	-0.303	-0.523
-409.340	97.046	-0.083	0.094
-408.325	82.526	-0.150	-0.161
-407.311	89.646	-0.095	-0.105
-406.296	5.168	-0.103	-0.075
-405.282	-200.000	0.068	0.382
-404.267	-192.434	-0.211	0.002
-403.252	-36.007	-0.420	0.225
-402.238	800.000	0.039	-0.126
-401.223	97.949	0.034	0.038
-400.209	-200.000	-0.015	-0.310
-399.194	-126.489	-0.281	0.041
-398.179	800.000	0.092	0.274
-397.165	-55.693	-0.366	-0.162
-396.150	165.100	0.088	-0.123
-395.136	-82.356	0.104	-0.034
-394.121	800.000	0.026	-0.109
-393.106	190.429	0.043	0.064
-392.092	800.000	-0.042	0.163
-391.077	483.675	0.168	-0.379
-390.063	-200.000	0.048	-0.222
-389.048	286.097	0.110	-0.197
-388.033	749.770	0.125	0.332
-387.019	-72.036	0.145	0.053
-386.004	-200.000	-0.007	-0.114
-384.990	155.804	-0.156	-0.213
-383.975	800.000	-0.039	-0.163
-382.960	-129.659	-0.123	0.017
-381.946	30.995	0.206	0.174
-380.931	-112.815	0.503	-0.099
-379.917	-4.844	-0.299	0.204
-378.902	198.095	-0.095	0.144
-377.888	116.851	-0.111	0.135
-376.873	-25.751	0.237	0.138
-375.858	-135.172	0.113	0.013
-374.844	800.000	-0.036	-0.131
-373.829	-17.879	0.258	-0.160
-372.815	4.643	-0.029	-0.021
-371.800	-163.053	-0.125	0.006
-370.785	200.508	-0.190	0.289
-369.771	-61.682	0.464	-0.192
-368.756	37.305	-0.110	0.097
-367.742	-200.000	-0.010	0.078
-366.727	-157.978	-0.135	-0.008
-365.712	114.601	0.180	0.217
-364.698	73.666	-0.239	-0.248
-363.683	-26.917	-0.342	-0.198
-362.669	-200.000	0.011	0.339
-361.654	77.402	0.112	-0.118
-360.639	53.157	0.041	-0.039
-359.625	360.617	-0.170	0.337
-358.610	-67.362	0.060	0.023
-357.596	263.244	0.073	-0.126
-356.581	73.199	-0.167	-0.172
-355.566	-51.144	-0.380	0.176
-354.552	-100.923	-0.103	-0.025
-353.537	-54.528	0.192	-0.086
-352.523	-200.000	0.025	-0.245
-351.508	624.036	0.100	0.249
-350.493	-200.000	0.012	-0.109
-349.479	-64.911	-0.162	-0.065
-348.464	729.124	0.078	-0.207
-347.450	800.000	0.060	-0.204
-346.435	-200.000	-0.019	0.174
-345.420	42.197	-0.214	-0.192
-344.406	-131.916	0.112	0.014
-343.391	8.530	0.135	0.100
-342.377	260.023	0.051	-0.088
-341.362	311.840	0.173	0.321
-340.348	588.144	0.013	-0.031
-339.333	139.090	0.264	0.343
-338.318	27.581	0.158	0.131
-337.304	1.446	-0.193	0.137
-336.289	-114.783	0.237	0.045
-335.275	-200.000	0.000	0.265
-334.260	-200.000	-0.030	0.157
-333.245	-28.306	0.070	0.040
-332.231	189.070	-0.098	-0.145
-331.216	800.000	-0.031	0.100
-330.202	-166.080	-0.225	-0.009
-329.187	-77.741	0.281	-0.096
-328.172	159.254	0.117	-0.161
-327.158	-129.998	-0.176	0.024
-326.143	37.431	0.095	-0.083
-325.129	-133.542	0.063	-0.008
-324.114	-154.462	-0.185	0.012
-323.099	206.783	-0.044	0.068
-322.085	-200.000	0.034	0.215
-321.070	-5.083	0.038	-0.025
-320.056	-62.746	-0.204	0.084
-319.041	213.690	0.055	-0.086
-318.026	800.000	-0.025	-0.068
-317.012	75.773	0.230	0.240
-315.997	-149.810	-0.131	0.010
-314.983	86.041	-0.187	0.203
-313.968	-130.967	0.037	0.005
-312.953	31.595	0.254	-0.215
-311.939	-68.373	-0.360	0.138
-310.924	-95.609	-0.213	-0.056
-309.910	-58.018	-0.126	0.054
-308.895	139.167	0.177	-0.230
-307.880	-200.000	-0.011	0.158
-306.866	48.056	0.186	0.171
-305.851	-200.000	0.018	0.111
-304.837	128.416	0.100	0.126
-303.822	-73.355	0.125	-0.045
-302.807	-200.000	0.049	-0.293
-301.793	25.354	0.143	0.117
-300.778	267.886	0.081	0.140
-299.764	-200.000	0.013	-0.262
-298.749	-93.316	0.231	0.063
-297.735	63.473	-0.290	0.287
-296.720	-200.000	-0.013	0.075
-295.705	-75.345	0.323	-0.114
-294.691	-56.591	-0.043	-0.019
-293.676	-63.497	0.163	-0.066
-292.662	800.000	0.069	-0.191
-291.647	-105.325	-0.208	0.047
-290.632	-200.000	0.012	-0.126
-289.618	-91.114	0.328	0.093
-288.603	-137.806	-0.365	0.040
-287.589	-62.435	0.484	-0.198
-286.574	-36.971	0.211	0.112
-285.559	161.165	-0.158	0.218
-284.545	800.000	-0.050	-0.159
-283.530	-153.970	-0.341	0.023
-282.516	-200.000	-0.016	-0.443
-281.501	-200.000	0.014	-0.247
-280.486	152.807	-0.143	0.193
-279.472	86.092	-0.182	0.198
-278.457	73.636	-0.209	0.216
-277.443	-72.446	0.096	0.035
-276.428	744.683	-0.077	0.204
-275.413	241.161	0.069	0.114
-274.399	-200.000	-0.017	-0.129
-273.384	800.000	-0.079	-0.245
-272.370	70.147	-0.077	-0.078
-271.355	25.124	-0.174	-0.142
-270.340	21.783	-0.235	-0.189
-269.326	-200.000	-0.021	0.227
-268.311	-179.537	-0.116	-0.002
-267.297	-200.000	-0.031	0.168
-266.282	-61.412	-0.210	0.087
-265.267	-200.000	0.041	0.206
-264.253	492.819	-0.021	-0.048
-263.238	-88.746	-0.179	-0.053
-262.224	-200.000	0.116	0.537
-261.209	-114.759	-0.135	0.025
-260.195	-145.646	0.314	0.028
-259.180	121.439	-0.023	0.029
-258.165	-200.000	0.002	-0.262
-257.151	-28.822	-0.046	0.026
-256.136	-200.000	-0.001	-0.179
-255.122	617.146	-0.107	0.264
-254.107	-200.000	0.030	-0.274
-253.092	800.000	-0.063	0.258
-252.078	-200.000	-0.034	-0.439
-251.063	331.857	-0.124	-0.236
-250.049	-200.000	-0.007	0.275
-249.034	-177.553	-0.329	0.008
-248.019	13.830	-0.177	0.135
-247.005	-36.821	0.190	-0.100
-245.990	144.706	0.025	-0.033
-244.976	636.412	0.134	0.335
-243.961	-200.000	-0.002	-0.075
-242.946	404.003	-0.011	-0.022
-241.932	-75.632	-0.445	0.156
-240.917	25.339	-0.086	0.070
-239.903	-98.073	0.134	0.034
-238.888	800.000	-0.025	-0.082
-237.873	-162.582	-0.059	0.003
-236.859	-58.664	0.173	0.074
-235.844	-63.871	-0.258	-0.104
-234.830	319.916	0.091	0.171
-233.815	-64.071	0.262	0.105
-232.800	-168.204	0.116	-0.004
-231.786	-97.525	-0.022	-0.006
-230.771	-195.553	-0.120	-0.001
-229.757	-134.704	0.180	0.022
-228.742	154.637	-0.209	0.283
-227.727	117.932	-0.084	-0.102
-226.713	-5.457	0.122	0.082
-225.698	800.000	0.034	0.123
-224.684	367.109	-0.056	-0.111
-223.669	-108.065	0.095	-0.020
-222.655	-83.447	0.298	0.094
-221.640	-84.969	0.197	-0.061
-220.625	-115.817	0.225	-0.041
-219.611	-200.000	0.050	-0.280
-218.596	-87.956	-0.207	-0.061
-217.582	-200.000	0.005	-0.052
-216.567	-200.000	-0.015	0.093
-215.552	6.447	0.360	0.263
-214.538	261.376	0.065	-0.111
-213.523	-104.664	-0.274	-0.062
-212.509	15.372	-0.286	-0.220
-211.494	-185.931	0.314	-0.005
-210.479	424.678	-0.078	-0.165
-209.465	48.536	-0.198	-0.183
-208.450	-164.049	-0.156	-0.007
-207.436	-45.448	-0.242	-0.118
-206.421	-140.396	-0.400	0.041
-205.406	-156.516	0.195	0.012
-204.392	5.074	0.195	0.141
-203.377	-76.851	0.215	0.074
-202.363	-185.336	-0.126	-0.002
-201.348	3.673	0.117	0.084
-200.333	57.065	-0.328	-0.314
-199.319	-17.042	0.042	0.026
-198.304	-151.410	0.215	-0.016
-197.290	-24.626	0.249	0.146
-196.275	122.647	0.157	-0.193
-195.260	-86.923	0.215	0.064
-194.246	331.224	0.181	-0.343
-193.231	123.424	0.287	0.353
-192.217	-200.000	0.011	0.067
-191.202	-200.000	0.033	0.157
-190.187	125.756	0.084	0.104
-189.173	59.830	0.120	0.116
-188.158	-132.129	-0.114	-0.015
-187.144	224.393	0.157	-0.248
-186.129	-96.015	-0.084	0.022
-185.114	-101.385	0.345	-0.083
-184.100	185.612	-0.083	0.120
-183.085	35.326	0.137	-0.118
-182.071	-55.545	-0.062	-0.027
-181.056	235.890	-0.068	-0.110
-180.042	-88.376	-0.365	0.107
-179.027	-112.331	-0.205	-0.040
-178.012	-151.092	0.344	0.025
-176.998	-57.962	0.388	-0.166
-175.983	-37.833	0.244	-0.127
-174.969	-200.000	-0.019	0.416
-173.954	-109.301	0.315	0.066
-172.939	800.000	-0.056	-0.166
-171.925	-200.000	0.005	0.232
-170.910	-200.000	0.037	-0.322
-169.896	278.735	-0.041	-0.071
-168.881	313.873	-0.053	-0.098
-167.866	230.769	0.074	-0.118
-166.852	-104.877	-0.079	-0.018
-165.837	73.104	-0.032	-0.033
-164.823	335.719	-0.050	-0.096
-163.808	-47.958	0.210	0.100
-162.793	800.000	0.080	0.219
-161.779	80.499	-0.089	0.094
-160.764	19.331	-0.041	0.032
-159.750	-8.565	-0.222	-0.146
-158.735	168.969	-0.249	0.349
-157.720	-83.420	0.208	-0.065
-156.706	-106.559	-0.170	0.037
-155.691	54.099	0.028	-0.027
-154.677	-148.626	0.273	-0.022
-153.662	144.694	0.109	-0.142
-152.647	-127.461	-0.216	0.031
-151.633	-35.193	0.169	0.090
-150.618	-131.728	0.299	0.038
-149.604	800.000	-0.091	0.249
-148.589	800.000	-0.039	-0.110
-147.574	100.200	0.110	0.125
-146.560	-48.291	0.193	-0.091
-145.545	-48.668	-0.144	-0.068
-144.531	106.003	-0.054	-0.062
-143.516	76.731	-0.104	0.108
-142.502	-106.793	0.279	0.061
-141.487	-200.000	0.004	-0.302
-140.472	-200.000	0.025	-0.123
-139.458	-13.734	-0.108	-0.068
-138.443	444.682	0.046	0.098
-137.429	33.099	-0.083	0.070
-136.414	653.796	0.069	0.175
-135.399	-65.920	-0.273	0.107
-134.385	79.069	0.250	-0.262
-133.370	-200.000	-0.019	-0.106
-132.356	-91.276	-0.241	0.068
-131.341	438.168	-0.132	-0.282
-130.326	-15.784	-0.100	-0.062
-129.312	800.000	0.052	-0.209
-128.297	85.621	-0.188	-0.203
-127.283	102.439	-0.146	0.167
-126.268	179.647	0.084	0.121
-125.253	-200.000	-0.081	0.399
-124.239	54.866	-0.097	0.092
-123.224	800.000	0.127	-0.390
-122.210	-200.000	-0.076	0.351
