DTS Sentinel unit serial number:	SN413079Multiplexer serial number:	ORYXHardware model number:	OX4-SRSoftware version number:	ORYX F/W v4.00 Oryx Data Collector v3.7.2.0data status	okinstallation	princeton_trtdifferential loss correction	single-endedforward channel	channel 3reverse channel	N/Adate	2019/09/15time	12:28:35forward acquisition time	60.00reverse acquisition time	0.00gamma	496.2192k internal	0.2300k external	0.2300temperature offset calibration	0.9977default loss term (dB/km)	0.3790temperature slope calibration	1.0000multiplexer offset coefficient	1.0000multiplexer slope coefficient	1.0000fibre end	0.00T internal ref (°C)	35.06T ext. ref 1 (°C)	5.05T ext. ref 2 (°C)	32.70length (m)	temperature (°C)	Stokes	anti-Stokes-747.200	108.161	-0.161	0.196
-746.185	-51.813	-0.371	-0.176
-745.171	221.217	0.144	0.237
-744.156	800.000	0.035	0.154
-743.142	125.789	-0.084	-0.108
-742.127	800.000	0.019	-0.066
-741.112	-144.652	0.216	-0.020
-740.098	-200.000	0.043	0.301
-739.083	24.594	0.137	-0.116
-738.069	-112.121	0.340	0.070
-737.054	800.000	0.080	0.336
-736.039	636.513	-0.074	-0.191
-735.025	-89.280	0.154	0.046
-734.010	-200.000	-0.461	0.002
-732.996	326.130	0.135	-0.263
-731.981	-186.910	-0.135	0.002
-730.966	148.278	0.107	0.147
-729.952	-132.705	-0.039	-0.005
-728.937	11.514	-0.306	-0.239
-727.923	80.875	-0.249	-0.273
-726.908	-58.934	-0.278	-0.123
-725.894	-200.000	-0.021	0.286
-724.879	-139.557	0.109	-0.012
-723.864	-92.295	-0.527	-0.151
-722.850	800.000	-0.080	0.287
-721.835	-50.493	-0.306	-0.147
-720.821	800.000	0.164	-0.474
-719.806	-11.277	-0.147	-0.099
-718.791	-51.108	-0.405	-0.194
-717.777	174.152	-0.169	0.249
-716.762	64.447	-0.174	-0.179
-715.748	-90.551	-0.286	0.084
-714.733	-131.732	0.248	0.033
-713.718	114.247	-0.179	0.221
-712.704	764.273	0.106	-0.293
-711.689	106.470	-0.166	-0.200
-710.675	-200.000	0.032	-0.164
-709.660	-46.491	0.364	-0.182
-708.645	800.000	0.035	0.123
-707.631	-58.160	-0.201	-0.089
-706.616	-78.701	0.401	-0.140
-705.602	-78.834	0.145	-0.050
-704.587	-185.658	0.091	0.001
-703.572	800.000	0.045	-0.175
-702.558	32.033	-0.284	-0.249
-701.543	-147.081	-0.375	0.033
-700.529	218.381	-0.038	0.062
-699.514	40.332	0.335	0.307
-698.499	241.567	0.102	0.174
-697.485	800.000	0.069	0.226
-696.470	162.149	0.111	0.158
-695.456	-123.985	0.166	0.027
-694.441	21.869	0.049	0.041
-693.426	496.239	-0.033	0.078
-692.412	22.918	-0.237	-0.198
-691.397	-146.265	0.057	-0.005
-690.383	-87.379	0.008	-0.002
-689.368	-138.017	0.279	0.032
-688.354	569.089	-0.089	0.220
-687.339	472.055	-0.014	0.033
-686.324	-128.792	-0.260	-0.037
-685.310	-200.000	-0.002	-0.024
-684.295	-90.417	0.248	-0.073
-683.281	492.405	-0.150	0.349
-682.266	-200.000	0.026	0.207
-681.251	454.685	0.094	-0.211
-680.237	800.000	0.045	-0.133
-679.222	-200.000	0.017	-0.285
-678.208	-200.000	0.071	-0.453
-677.193	379.150	0.215	-0.448
-676.178	-12.357	-0.155	0.103
-675.164	349.668	0.087	0.174
-674.149	7.175	0.104	-0.079
-673.135	-200.000	-0.004	0.254
-672.120	-85.464	0.137	-0.043
-671.105	63.140	0.236	0.240
-670.091	53.657	0.200	-0.196
-669.076	-77.802	0.117	-0.041
-668.062	297.845	-0.012	0.022
-667.047	-130.418	0.253	-0.035
-666.032	-200.000	0.011	0.138
-665.018	11.920	-0.125	0.097
-664.003	4.546	-0.043	-0.032
-662.989	-63.927	0.394	0.164
-661.974	-200.000	0.273	0.000
-660.959	424.914	-0.040	0.087
-659.945	-53.372	0.324	0.151
-658.930	293.375	0.211	-0.391
-657.916	-128.534	-0.367	-0.053
-656.901	178.313	-0.114	-0.169
-655.886	-113.242	0.250	0.050
-654.872	153.157	0.196	-0.272
-653.857	47.068	-0.049	0.046
-652.843	-200.000	0.032	-0.242
-651.828	543.995	0.058	-0.140
-650.814	-102.548	-0.271	0.066
-649.799	60.506	-0.024	0.024
-648.784	-62.555	0.173	-0.073
-647.770	246.703	0.143	0.246
-646.755	-2.825	0.137	0.097
-645.741	800.000	-0.053	-0.207
-644.726	-124.937	0.079	0.012
-643.711	30.321	0.167	0.145
-642.697	-109.800	-0.076	0.016
-641.682	-200.000	-0.036	-0.252
-640.668	-200.000	-0.040	0.238
-639.653	800.000	-0.081	-0.270
-638.638	-74.636	-0.160	-0.059
-637.624	-122.472	-0.489	-0.081
-636.609	-54.619	0.212	-0.097
-635.595	-139.048	-0.341	0.037
-634.580	95.670	-0.233	-0.270
-633.565	-200.000	-0.007	0.224
-632.551	-58.594	-0.297	-0.131
-631.536	-40.450	0.041	0.021
-630.522	-200.000	0.033	0.238
-629.507	-194.075	-0.082	-0.001
-628.492	214.539	-0.139	-0.223
-627.478	-151.757	-0.339	0.025
-626.463	-200.000	0.000	-0.018
-625.449	-102.230	-0.148	0.036
-624.434	-51.500	-0.090	0.043
-623.419	-200.000	-0.020	-0.112
-622.405	-104.007	-0.283	-0.067
-621.390	362.427	-0.040	-0.081
-620.376	-56.468	0.086	-0.039
-619.361	274.420	-0.122	0.220
-618.346	-133.030	-0.387	-0.050
-617.332	-116.869	-0.139	-0.026
-616.317	121.376	-0.193	0.244
-615.303	-84.020	0.017	-0.006
-614.288	-200.000	0.009	-0.063
-613.273	129.485	0.140	-0.181
-612.259	-44.010	0.160	-0.082
-611.244	13.353	0.191	-0.150
-610.230	-2.953	-0.111	-0.078
-609.215	60.241	-0.126	0.126
-608.201	269.922	-0.125	-0.222
-607.186	-61.435	0.060	-0.026
-606.171	375.010	0.144	0.298
-605.157	3.249	0.182	-0.134
-604.142	-200.000	0.040	-0.177
-603.128	236.913	0.303	-0.509
-602.113	-119.222	-0.068	0.012
-601.098	-170.927	-0.104	0.004
-600.084	42.966	-0.121	-0.112
-599.069	-27.767	-0.028	0.017
-598.055	130.267	0.096	0.125
-597.040	-67.450	-0.057	-0.023
-596.025	-200.000	0.008	-0.122
-595.011	46.831	0.211	-0.199
-593.996	-88.196	-0.214	-0.065
-592.982	39.079	0.236	0.214
-591.967	510.761	0.077	-0.182
-590.952	88.683	-0.152	-0.171
-589.938	-87.850	0.045	-0.014
-588.923	-90.846	-0.237	0.069
-587.909	124.087	-0.027	0.034
-586.894	183.006	-0.051	0.076
-585.879	-200.000	0.040	0.311
-584.865	-149.005	-0.163	0.013
-583.850	-69.963	-0.026	-0.010
-582.836	215.390	-0.275	-0.442
-581.821	-22.999	-0.154	-0.094
-580.806	-104.065	0.231	-0.055
-579.792	28.436	-0.130	-0.111
-578.777	-88.619	0.220	-0.066
-577.763	151.024	-0.318	-0.438
-576.748	-113.383	-0.160	-0.032
-575.733	-72.013	0.319	-0.120
-574.719	-84.608	0.149	-0.047
-573.704	-107.122	0.319	-0.071
-572.690	-4.794	-0.165	0.115
-571.675	330.850	-0.018	0.034
-570.661	-200.000	0.004	-0.314
-569.646	53.259	0.150	-0.145
-568.631	-200.000	-0.053	0.248
-567.617	-94.572	0.234	0.064
-566.602	-92.531	-0.177	0.050
-565.588	78.542	0.103	0.111
-564.573	800.000	0.115	0.336
-563.558	800.000	0.111	0.342
-562.544	370.821	-0.141	0.289
-561.529	-5.643	0.177	-0.123
-560.515	15.105	0.266	0.211
-559.500	-25.535	0.152	0.091
-558.485	-0.678	0.163	0.117
-557.471	800.000	-0.081	0.344
-556.456	147.792	-0.012	0.017
-555.442	800.000	0.082	-0.346
-554.427	-138.069	-0.380	0.043
-553.412	-31.125	0.308	-0.176
-552.398	55.104	-0.096	0.093
-551.383	117.095	-0.064	0.080
-550.369	-162.593	-0.133	-0.007
-549.354	-71.688	0.184	-0.070
-548.339	-58.139	-0.193	0.085
-547.325	218.314	-0.227	0.366
-546.310	-29.359	-0.434	0.251
-545.296	469.360	-0.029	0.066
-544.281	-18.128	0.023	-0.015
-543.266	-99.586	-0.151	-0.038
-542.252	-200.000	-0.038	0.174
-541.237	800.000	-0.079	0.272
-540.223	-20.483	0.233	-0.145
-539.208	49.654	0.161	0.154
-538.193	-99.930	-0.331	-0.084
-537.179	-94.096	0.309	-0.086
-536.164	124.570	-0.194	0.247
-535.150	150.629	-0.187	-0.258
-534.135	212.631	0.161	-0.257
-533.121	-96.731	-0.141	0.038
-532.106	111.496	0.142	-0.174
-531.091	-85.175	-0.188	0.060
-530.077	-200.000	0.007	-0.253
-529.062	62.275	0.053	-0.053
-528.048	106.031	-0.126	0.151
-527.033	50.219	-0.293	-0.280
-526.018	-119.585	0.325	-0.057
-525.004	-54.131	-0.256	0.118
-523.989	280.027	0.130	-0.234
-522.975	140.815	-0.086	-0.115
-521.960	-71.704	-0.130	-0.049
-520.945	111.165	-0.301	0.366
-519.931	-200.000	-0.006	0.156
-518.916	-80.933	0.312	-0.104
-517.902	92.773	0.293	-0.334
-516.887	-200.000	-0.011	-0.213
-515.872	-193.424	0.214	-0.002
-514.858	-200.000	0.009	0.236
-513.843	103.940	0.054	-0.065
-512.829	-153.296	0.190	-0.013
-511.814	-97.783	0.058	0.015
-510.799	168.002	-0.115	0.166
-509.785	800.000	0.045	0.144
-508.770	33.543	0.251	-0.220
-507.756	24.756	0.143	-0.120
-506.741	-157.611	0.072	-0.004
-505.726	-170.007	0.357	-0.013
-504.712	-200.000	0.022	-0.182
-503.697	-81.315	-0.264	-0.088
-502.683	300.826	0.210	0.391
-501.668	2.887	0.403	0.295
-500.653	251.364	0.156	0.267
-499.639	-5.489	-0.288	-0.200
-498.624	322.130	-0.123	0.237
-497.610	-200.000	-0.038	0.329
-496.595	800.000	-0.033	0.124
-495.581	-79.667	0.261	-0.089
-494.566	86.348	0.095	-0.106
-493.551	-174.758	-0.357	-0.010
-492.537	800.000	-0.058	0.204
-491.522	-160.032	0.317	0.017
-490.508	800.000	0.092	-0.280
-489.493	256.017	-0.093	0.161
-488.478	247.561	-0.086	-0.147
-487.464	-32.800	-0.131	-0.073
-486.449	-10.231	0.333	-0.224
-485.435	-75.539	0.035	0.013
-484.420	-107.583	-0.210	-0.046
-483.405	12.578	0.183	0.143
-482.391	-67.702	0.380	-0.150
-481.376	29.198	-0.134	-0.115
-480.362	800.000	-0.062	-0.201
-479.347	-155.924	-0.436	-0.028
-478.332	-200.000	0.028	0.191
-477.318	109.502	-0.028	0.034
-476.303	-125.834	0.225	0.034
-475.289	-200.000	-0.060	-0.557
-474.274	212.834	-0.208	-0.331
-473.259	-200.000	0.039	0.203
-472.245	-200.000	0.005	-0.441
-471.230	-154.615	-0.586	0.039
-470.216	-113.685	-0.349	-0.069
-469.201	800.000	0.055	-0.182
-468.186	78.603	-0.234	-0.252
-467.172	-121.496	-0.133	-0.022
-466.157	126.473	-0.212	0.271
-465.143	-15.582	-0.084	0.054
-464.128	318.579	0.071	0.136
-463.113	-200.000	0.030	-0.159
-462.099	-37.409	0.179	0.096
-461.084	275.478	0.142	0.254
-460.070	-171.748	0.189	-0.006
-459.055	270.970	-0.060	0.106
-458.040	23.509	-0.110	0.091
-457.026	-151.355	0.109	0.008
-456.011	-8.405	0.298	0.202
-454.997	57.826	0.146	-0.144
-453.982	42.967	-0.241	0.221
-452.968	47.086	0.058	-0.054
-451.953	40.591	-0.269	0.244
-450.938	-139.393	0.050	-0.005
-449.924	-88.993	-0.193	0.058
-448.909	-36.876	0.232	0.126
-447.895	-84.991	-0.225	-0.071
-446.880	124.300	-0.154	0.195
-445.865	-190.899	0.055	0.001
-444.851	440.822	-0.073	0.161
-443.836	185.248	0.160	-0.240
-442.822	-200.000	-0.020	-0.346
-441.807	203.041	0.146	0.227
-440.792	132.481	-0.059	0.077
-439.778	800.000	-0.147	-0.579
-438.763	-200.000	-0.003	-0.159
-437.749	100.447	0.076	0.089
-436.734	17.366	-0.305	0.244
-435.719	-94.673	0.081	0.022
-434.705	30.516	-0.231	0.199
-433.690	-200.000	0.006	-0.146
-432.676	-44.685	0.357	0.179
-431.661	68.183	-0.265	0.273
-430.646	319.117	0.051	0.098
-429.632	80.763	-0.013	0.014
-428.617	97.290	-0.100	0.115
-427.603	614.527	-0.064	-0.162
-426.588	-88.309	-0.249	-0.075
-425.573	800.000	-0.079	-0.348
-424.559	-90.545	0.520	-0.152
-423.544	-144.763	-0.400	0.037
-422.530	183.418	-0.112	0.167
-421.515	359.877	0.113	-0.229
-420.500	64.033	0.148	-0.150
-419.486	645.533	0.097	0.250
-418.471	800.000	-0.081	-0.257
-417.457	45.794	-0.232	0.216
-416.442	-65.246	-0.107	0.043
-415.428	-107.079	-0.250	0.056
-414.413	-44.433	-0.381	0.192
-413.398	-83.174	0.199	-0.064
-412.384	153.654	-0.044	0.060
-411.369	175.790	-0.181	-0.264
-410.355	-160.396	-0.273	0.015
-409.340	21.542	-0.246	-0.202
-408.325	-52.069	0.095	-0.044
-407.311	-200.000	0.029	-0.293
-406.296	-41.763	0.392	-0.202
-405.282	800.000	0.040	-0.160
-404.267	-99.572	-0.144	-0.036
-403.252	-200.000	-0.033	0.183
-402.238	10.767	0.098	0.075
-401.223	348.779	0.047	0.093
-400.209	-93.768	0.207	0.058
-399.194	70.108	-0.190	-0.198
-398.179	-163.767	0.413	0.020
-397.165	-200.000	-0.018	0.245
-396.150	-200.000	0.010	0.134
-395.136	28.943	0.193	-0.164
-394.121	-38.011	-0.099	-0.053
-393.106	770.458	0.122	0.336
-392.092	-32.033	0.191	0.108
-391.077	800.000	0.036	0.133
-390.063	-6.006	0.235	0.161
-389.048	250.051	0.113	-0.193
-388.033	270.075	-0.114	-0.201
-387.019	120.142	0.189	0.236
-386.004	-138.898	-0.282	-0.031
-384.990	-200.000	0.006	-0.235
-383.975	308.136	0.132	-0.248
-382.960	-19.810	-0.158	-0.098
-381.946	465.189	0.294	0.663
-380.931	74.876	0.162	0.171
-379.917	-108.073	-0.152	0.033
-378.902	632.073	0.086	0.220
-377.888	-200.000	0.014	-0.140
-376.873	89.913	0.052	0.058
-375.858	665.637	-0.093	-0.240
-374.844	93.433	-0.111	0.126
-373.829	-200.000	-0.017	-0.271
-372.815	-36.038	0.275	-0.149
-371.800	-200.000	-0.005	-0.125
-370.785	-49.354	-0.327	0.157
-369.771	-129.795	-0.228	-0.032
-368.756	8.380	0.402	0.304
-367.742	-15.200	-0.156	0.100
-366.727	-200.000	0.011	0.269
-365.712	-200.000	0.185	0.001
-364.698	-41.881	-0.166	-0.085
-363.683	779.214	-0.018	-0.051
-362.669	-120.052	-0.197	-0.034
-361.654	133.951	0.055	0.072
-360.639	439.422	-0.050	0.110
-359.625	307.914	0.083	0.155
-358.610	2.569	-0.182	-0.133
-357.596	30.404	0.163	-0.140
-356.581	14.515	0.082	-0.065
-355.566	-200.000	0.020	0.177
-354.552	64.871	0.162	-0.164
-353.537	44.305	0.161	0.148
-352.523	-68.974	-0.181	0.070
-351.508	24.858	0.248	-0.207
-350.493	104.242	0.242	0.286
-349.479	-52.741	0.323	0.150
-348.464	694.684	0.088	-0.232
-347.450	546.496	-0.090	-0.217
-346.435	-200.000	0.001	0.041
-345.420	28.344	-0.300	0.255
-344.406	-172.871	0.253	-0.008
-343.391	308.503	-0.125	0.234
-342.377	-99.247	0.150	-0.038
-341.362	-51.141	0.052	-0.024
-340.348	3.139	-0.232	-0.170
-339.333	-176.840	0.161	-0.004
-338.318	222.395	-0.143	0.230
-337.304	-106.100	0.061	-0.014
-336.289	-34.208	-0.061	-0.033
-335.275	-169.157	-0.097	0.004
-334.260	800.000	0.037	-0.143
-333.245	-17.540	-0.079	-0.050
-332.231	-200.000	-0.002	-0.035
-331.216	800.000	-0.097	0.354
-330.202	-41.163	-0.315	-0.163
-329.187	136.746	-0.098	0.129
-328.172	38.780	0.250	0.224
-327.158	344.507	-0.091	-0.180
-326.143	-25.268	-0.145	-0.086
-325.129	800.000	-0.054	-0.166
-324.114	255.442	-0.207	-0.356
-323.099	106.241	0.238	-0.283
-322.085	701.834	0.052	0.136
-321.070	-200.000	0.023	-0.218
-320.056	20.920	0.314	-0.255
-319.041	-200.000	-0.039	0.209
-318.026	-67.579	0.149	0.059
-317.012	-110.440	0.189	0.039
-315.997	182.950	-0.234	-0.346
-314.983	31.929	-0.215	-0.186
-313.968	423.534	-0.035	0.075
-312.953	-200.000	0.061	0.457
-311.939	-200.000	0.032	0.418
-310.924	-161.132	-0.302	-0.016
-309.910	-85.151	0.346	0.109
-308.895	-200.000	0.039	0.245
-307.880	-135.870	-0.212	-0.025
-306.866	-97.024	0.227	-0.060
-305.851	-200.000	0.003	0.219
-304.837	-146.143	-0.100	-0.009
-303.822	70.711	0.187	-0.194
-302.807	800.000	-0.025	0.098
-301.793	-200.000	0.025	0.180
-300.778	-200.000	-0.051	0.238
-299.764	146.107	-0.161	0.217
-298.749	800.000	0.065	0.218
-297.735	-45.628	-0.083	0.041
-296.720	800.000	0.034	-0.102
-295.705	-75.778	-0.097	0.035
-294.691	-200.000	0.008	0.235
-293.676	0.131	-0.088	0.063
-292.662	99.065	-0.164	-0.190
-291.647	-188.851	0.401	0.005
-290.632	-157.479	-0.293	-0.018
-289.618	-41.150	0.273	0.141
-288.603	-200.000	0.008	0.170
-287.589	-177.347	0.211	-0.005
-286.574	-19.897	-0.097	-0.060
-285.559	41.058	0.215	0.195
-284.545	-130.572	-0.202	-0.027
-283.530	131.349	-0.054	0.070
-282.516	-146.624	0.389	-0.034
-281.501	800.000	-0.050	-0.213
-280.486	682.654	0.050	-0.130
-279.472	-104.852	-0.342	0.079
-278.457	138.739	-0.169	-0.222
-277.443	622.580	0.133	0.335
-276.428	-86.752	0.291	-0.089
-275.413	190.613	-0.162	-0.244
-274.399	296.471	0.197	-0.363
-273.384	800.000	0.088	-0.252
-272.370	26.379	0.109	-0.092
-271.355	-155.000	0.118	-0.008
-270.340	-134.365	0.058	0.007
-269.326	-98.248	-0.433	0.111
-268.311	-38.407	0.216	-0.114
-267.297	-200.000	0.023	-0.160
-266.282	800.000	-0.111	-0.365
-265.267	-100.218	0.267	-0.067
-264.253	765.021	-0.088	-0.240
-263.238	-128.003	0.386	0.056
-262.224	135.989	0.096	0.125
-261.209	-110.490	0.140	-0.029
-260.195	-33.280	0.076	-0.042
-259.180	-55.306	0.128	0.057
-258.165	-200.000	0.079	0.385
-257.151	-25.551	0.115	-0.068
-256.136	164.474	0.047	-0.067
-255.122	45.614	0.178	0.165
-254.107	47.267	-0.073	-0.068
-253.092	216.738	0.104	0.165
-252.078	-65.845	-0.261	0.104
-251.063	-127.094	-0.261	0.038
-250.049	453.859	0.130	-0.288
-249.034	-128.770	0.103	-0.015
-248.019	-103.293	0.166	-0.039
-247.005	699.344	0.174	-0.457
-245.990	81.150	0.022	0.023
-244.976	-51.595	0.357	0.167
-243.961	-55.793	-0.252	-0.113
-242.946	83.321	-0.118	-0.128
-241.932	40.224	0.024	-0.021
-240.917	-65.514	-0.296	0.119
-239.903	142.421	0.139	-0.185
-238.888	101.529	-0.172	0.200
-237.873	665.436	0.037	0.096
-236.859	-200.000	-0.011	0.089
-235.844	-200.000	-0.013	-0.385
-234.830	472.417	0.077	-0.173
-233.815	118.535	-0.129	0.160
-232.800	-200.000	-0.047	-0.253
-231.786	122.302	-0.085	0.107
-230.771	800.000	-0.033	0.126
-229.757	-160.811	0.212	0.011
-228.742	800.000	0.015	0.052
-227.727	-200.000	0.032	-0.247
-226.713	-200.000	-0.020	0.264
-225.698	-95.241	0.193	0.052
-224.684	607.722	-0.095	0.237
-223.669	-157.940	-0.142	0.008
-222.655	-142.002	-0.323	0.032
-221.640	-105.053	-0.117	-0.027
-220.625	-200.000	-0.019	0.170
-219.611	233.871	0.059	0.097
-218.596	38.804	-0.122	0.109
-217.582	-76.832	0.318	0.111
-216.567	-156.201	-0.246	-0.015
-215.552	491.195	0.092	0.210
-214.538	-200.000	-0.007	-0.048
-213.523	-95.353	0.237	0.064
-212.509	522.603	0.153	-0.359
-211.494	-200.000	-0.011	-0.060
-210.479	172.078	0.122	-0.175
-209.465	-200.000	-0.229	0.000
-208.450	194.744	-0.026	-0.039
-207.436	-77.777	-0.099	0.034
-206.421	-32.382	0.350	0.195
-205.406	13.914	-0.209	0.162
-204.392	-118.718	-0.046	-0.008
-203.377	-8.380	0.107	0.072
-202.363	44.389	-0.180	0.165
-201.348	129.109	0.180	0.229
-200.333	-100.833	-0.375	0.092
-199.319	-108.835	0.264	0.056
-198.304	-81.067	-0.212	0.070
-197.290	-51.113	0.180	-0.084
-196.275	160.206	0.173	-0.241
-195.260	-63.176	0.121	-0.050
-194.246	-131.996	0.088	-0.011
-193.231	-7.130	-0.170	0.115
-192.217	204.271	0.061	0.095
-191.202	135.658	-0.533	0.693
-190.187	-141.803	0.224	0.022
-189.173	-200.000	0.031	-0.179
-188.158	-22.932	-0.072	-0.043
-187.144	-33.278	0.223	-0.123
-186.129	-106.081	0.109	0.024
-185.114	639.627	-0.050	0.126
-184.100	-159.806	0.268	-0.015
-183.085	16.986	-0.186	-0.147
-182.071	-22.136	0.130	0.079
-181.056	121.263	0.152	0.189
-180.042	178.248	0.074	0.107
-179.027	-200.000	-0.003	-0.033
-178.012	-200.000	0.020	0.174
-176.998	-27.334	0.232	-0.134
-175.983	-133.956	0.263	0.033
-174.969	800.000	0.018	-0.074
-173.954	-18.558	0.100	-0.062
-172.939	-200.000	0.015	-0.174
-171.925	-6.655	-0.172	-0.117
-170.910	-72.454	-0.365	0.134
-169.896	-154.397	-0.213	-0.014
-168.881	800.000	-0.106	-0.389
-167.866	74.978	-0.099	0.104
-166.852	80.581	0.163	0.175
-165.837	26.065	-0.203	0.169
-164.823	800.000	0.069	0.203
-163.808	70.580	0.166	0.172
-162.793	-70.900	0.190	-0.071
-161.779	-14.264	-0.067	0.043
-160.764	183.539	-0.151	0.223
-159.750	800.000	-0.087	-0.270
-158.735	109.843	0.322	-0.385
-157.720	-200.000	0.016	-0.192
-156.706	86.784	-0.117	-0.129
-155.691	-37.916	0.242	0.128
-154.677	-25.547	0.215	0.127
-153.662	-200.000	-0.075	-0.352
-152.647	320.255	-0.137	0.259
-151.633	401.960	-0.078	-0.164
-150.618	741.075	-0.091	-0.243
-149.604	-200.000	-0.023	-0.120
-148.589	-100.166	0.379	0.094
-147.574	60.877	-0.146	0.144
-146.560	-119.292	-0.334	0.058
-145.545	9.094	0.124	0.093
-144.531	-200.000	-0.017	-0.144
-143.516	-179.358	-0.176	-0.004
-142.502	800.000	0.025	-0.074
-141.487	145.012	-0.046	-0.061
-140.472	37.997	-0.082	-0.072
-139.458	-92.013	0.160	0.045
-138.443	-147.340	-0.365	-0.031
-137.429	-16.716	-0.129	0.081
-136.414	556.570	0.062	0.149
-135.399	209.849	0.013	0.020
-134.385	25.154	-0.211	-0.174
-133.370	-40.974	0.102	-0.053
-132.356	102.497	0.217	0.253
-131.341	218.560	0.026	0.041
-130.326	-0.713	0.204	0.144
-129.312	-49.760	0.169	0.080
-128.297	561.799	-0.146	0.352
-127.283	13.663	0.228	0.176
-126.268	-122.921	0.093	0.015
-125.253	-112.151	-0.079	-0.016
-124.239	88.875	-0.247	-0.274
-123.224	-162.391	-0.253	-0.012
-122.210	-200.000	0.045	0.351
-121.195	800.000	0.085	0.299
