DTS Sentinel unit serial number:	SN413079Multiplexer serial number:	ORYXHardware model number:	OX4-SRSoftware version number:	ORYX F/W v4.00 Oryx Data Collector v3.7.2.0data status	okinstallation	princeton_trtdifferential loss correction	single-endedforward channel	channel 3reverse channel	N/Adate	2019/09/14time	14:12:35forward acquisition time	60.00reverse acquisition time	0.00gamma	496.2192k internal	0.2292k external	0.2292temperature offset calibration	1.0064default loss term (dB/km)	0.3790temperature slope calibration	1.0000multiplexer offset coefficient	1.0000multiplexer slope coefficient	1.0000fibre end	0.00T internal ref (°C)	38.53T ext. ref 1 (°C)	5.08T ext. ref 2 (°C)	37.12length (m)	temperature (°C)	Stokes	anti-Stokes-747.200	-200.000	-0.039	0.294
-746.185	-59.256	-0.227	0.100
-745.171	191.578	0.204	-0.314
-744.156	-161.482	0.214	-0.011
-743.142	-136.976	-0.144	-0.017
-742.127	140.234	0.051	0.069
-741.112	-200.000	0.042	-0.234
-740.098	-135.168	0.233	-0.029
-739.083	-9.642	0.196	-0.134
-738.069	-200.000	-0.001	0.088
-737.054	800.000	0.028	-0.090
-736.039	-75.661	-0.254	-0.092
-735.025	800.000	0.051	0.175
-734.010	259.911	-0.078	-0.137
-732.996	-200.000	0.018	-0.194
-731.981	117.525	-0.302	-0.380
-730.966	1.749	0.046	0.034
-729.952	-166.593	0.119	-0.005
-728.937	75.842	0.078	-0.085
-727.923	-200.000	-0.029	-0.288
-726.908	-140.645	-0.708	-0.075
-725.894	-75.304	-0.463	0.169
-724.879	-45.314	-0.281	-0.143
-723.864	-200.000	-0.014	0.081
-722.850	-75.576	-0.121	0.044
-721.835	638.337	0.076	-0.197
-720.821	136.472	-0.189	0.252
-719.806	-3.954	-0.134	-0.095
-718.791	-116.129	-0.185	0.035
-717.777	588.330	0.044	0.111
-716.762	-48.657	0.076	-0.037
-715.748	-56.015	0.135	0.062
-714.733	-78.506	-0.421	0.147
-713.718	175.554	0.041	0.061
-712.704	-160.729	-0.249	0.014
-711.689	-84.288	-0.264	0.086
-710.675	275.329	0.044	-0.080
-709.660	-32.776	-0.034	0.019
-708.645	-200.000	0.036	-0.199
-707.631	-138.641	-0.603	0.067
-706.616	-95.989	0.141	-0.038
-705.602	-160.746	-0.293	-0.016
-704.587	-162.194	0.241	0.012
-703.572	4.806	0.199	-0.150
-702.558	-200.000	-0.043	-0.231
-701.543	-63.138	0.105	-0.044
-700.529	-147.406	-0.197	0.017
-699.514	449.275	0.093	0.209
-698.499	800.000	0.039	-0.154
-697.485	-33.027	-0.088	0.050
-696.470	80.837	-0.124	-0.136
-695.456	4.388	-0.049	0.036
-694.441	-200.000	0.096	0.662
-693.426	-156.134	-0.219	0.014
-692.412	679.019	0.105	-0.279
-691.397	-93.694	-0.289	0.082
-690.383	293.579	-0.125	-0.233
-689.368	-36.114	-0.259	0.143
-688.354	-49.572	-0.212	0.103
-687.339	-81.934	-0.106	0.035
-686.324	-200.000	0.003	0.032
-685.310	-98.444	-0.084	-0.022
-684.295	273.096	0.163	0.295
-683.281	268.989	-0.143	0.256
-682.266	237.449	-0.186	0.314
-681.251	178.981	-0.193	0.288
-680.237	-200.000	0.015	-0.197
-679.222	-200.000	0.051	-0.587
-678.208	-200.000	-0.028	0.184
-677.193	-140.165	-0.569	0.061
-676.178	69.908	-0.193	-0.203
-675.164	509.583	-0.133	-0.316
-674.149	-189.194	-0.477	0.006
-673.135	-20.990	-0.422	-0.263
-672.120	-200.000	0.060	-0.269
-671.105	181.583	0.223	-0.335
-670.091	-200.000	0.015	0.382
-669.076	-200.000	0.024	0.266
-668.062	626.633	0.083	-0.214
-667.047	800.000	0.141	0.457
-666.032	25.738	-0.146	-0.124
-665.018	212.738	-0.107	-0.172
-664.003	-200.000	-0.015	-0.306
-662.989	60.868	0.055	-0.056
-661.974	125.094	-0.204	-0.262
-660.959	268.073	0.204	0.365
-659.945	-97.244	-0.025	0.007
-658.930	57.976	-0.308	0.308
-657.916	47.835	0.144	-0.137
-656.901	-66.726	-0.048	-0.019
-655.886	186.677	-0.065	0.099
-654.872	-100.881	-0.278	-0.070
-653.857	83.933	-0.157	-0.174
-652.843	800.000	-0.030	0.112
-651.828	602.968	-0.069	-0.174
-650.814	84.869	0.170	-0.190
-649.799	-130.409	-0.032	-0.004
-648.784	172.391	-0.034	-0.050
-647.770	133.041	-0.248	-0.327
-646.755	217.959	0.167	-0.271
-645.741	-81.177	-0.193	0.065
-644.726	-200.000	-0.014	0.275
-643.711	791.407	-0.130	-0.363
-642.697	441.252	-0.164	-0.365
-641.682	-101.857	-0.324	-0.080
-640.668	800.000	0.038	-0.155
-639.653	-79.960	0.214	-0.073
-638.638	-200.000	-0.031	-0.147
-637.624	-70.057	-0.309	0.120
-636.609	85.583	-0.071	-0.080
-635.595	253.529	0.227	0.394
-634.580	-163.752	0.077	0.004
-633.565	-101.134	0.139	0.035
-632.551	-200.000	-0.006	0.052
-631.536	-86.724	-0.085	-0.027
-630.522	-72.581	0.122	-0.046
-629.507	254.593	-0.173	-0.301
-628.492	-200.000	-0.005	0.143
-627.478	-18.505	0.189	-0.120
-626.463	-37.895	-0.279	0.151
-625.449	8.372	0.232	0.178
-624.434	-32.423	0.207	0.118
-623.419	79.643	-0.182	0.199
-622.405	800.000	-0.006	-0.018
-621.390	800.000	-0.031	0.132
-620.376	35.035	-0.042	-0.037
-619.361	-200.000	-0.023	-0.483
-618.346	-47.890	0.145	-0.072
-617.332	142.322	-0.184	0.249
-616.317	437.126	-0.173	0.383
-615.303	408.619	0.081	0.175
-614.288	41.818	-0.024	-0.022
-613.273	-43.951	0.322	0.165
-612.259	385.303	0.145	0.305
-611.244	-121.055	-0.456	0.078
-610.230	130.267	0.110	-0.143
-609.215	159.888	0.274	-0.389
-608.201	-5.566	-0.122	-0.085
-607.186	101.384	0.089	-0.106
-606.171	48.243	0.211	0.201
-605.157	800.000	-0.064	0.222
-604.142	-55.462	-0.416	-0.190
-603.128	42.130	-0.128	-0.118
-602.113	-199.074	-0.082	-0.000
-601.098	754.583	0.016	0.044
-600.084	800.000	-0.086	-0.264
-599.069	505.260	0.124	0.293
-598.055	114.539	-0.133	-0.165
-597.040	127.875	0.125	0.161
-596.025	-134.933	0.274	0.034
-595.011	-200.000	-0.030	-0.317
-593.996	-73.942	0.302	-0.111
-592.982	-25.595	-0.162	0.097
-591.967	-186.310	-0.131	-0.002
-590.952	365.244	-0.090	0.185
-589.938	-32.704	0.391	-0.221
-588.923	-102.380	-0.273	0.066
-587.909	-77.710	-0.172	0.060
-586.894	407.594	-0.053	-0.114
-585.879	-188.218	0.298	0.004
-584.865	180.308	-0.106	-0.158
-583.850	-200.000	0.003	0.166
-582.836	-172.598	0.231	-0.007
-581.821	-200.000	-0.010	-0.230
-580.806	-1.602	-0.315	-0.226
-579.792	-116.959	-0.431	-0.080
-578.777	293.511	-0.073	-0.136
-577.763	56.778	-0.083	0.082
-576.748	398.152	0.101	-0.216
-575.733	120.515	0.149	0.188
-574.719	800.000	-0.039	-0.156
-573.704	-74.896	-0.135	0.049
-572.690	800.000	0.057	0.177
-571.675	443.331	0.187	0.416
-570.661	-30.570	-0.259	0.149
-569.646	190.072	0.086	-0.132
-568.631	285.621	0.175	-0.322
-567.617	-64.445	-0.231	0.096
-566.602	-21.318	0.356	0.221
-565.588	-144.170	-0.298	0.028
-564.573	164.926	0.058	0.083
-563.558	800.000	-0.127	0.414
-562.544	404.342	-0.053	0.112
-561.529	-116.291	0.333	0.063
-560.515	290.498	-0.100	-0.184
-559.500	-81.927	-0.184	0.061
-558.485	51.292	0.306	0.295
-557.471	328.113	-0.219	-0.426
-556.456	239.376	-0.163	0.276
-555.442	80.759	0.165	0.181
-554.427	-200.000	0.002	0.207
-553.412	800.000	-0.123	0.365
-552.398	112.225	0.008	0.010
-551.383	-151.181	0.205	-0.016
-550.369	118.964	0.180	0.226
-549.354	-68.097	-0.064	0.025
-548.339	800.000	0.098	0.322
-547.325	324.161	-0.231	0.449
-546.310	-164.472	-0.128	-0.006
-545.296	-200.000	0.000	-0.095
-544.281	-200.000	0.027	-0.197
-543.266	413.209	0.032	-0.070
-542.252	528.249	0.028	-0.067
-541.237	-155.013	0.316	-0.021
-540.223	13.947	-0.254	0.201
-539.208	206.252	0.233	-0.368
-538.193	207.888	0.026	-0.041
-537.179	-200.000	-0.011	-0.083
-536.164	800.000	-0.078	0.235
-535.150	54.505	-0.065	0.063
-534.135	-200.000	-0.004	0.071
-533.121	-46.324	-0.108	0.054
-532.106	-200.000	-0.038	-0.260
-531.091	800.000	-0.110	-0.354
-530.077	-29.501	-0.301	-0.175
-529.062	-62.355	0.226	-0.096
-528.048	144.832	0.184	-0.250
-527.033	179.881	-0.233	-0.347
-526.018	129.234	-0.118	0.153
-525.004	-200.000	-0.009	-0.139
-523.989	279.584	-0.256	-0.463
-522.975	-65.453	-0.254	-0.103
-521.960	-200.000	0.058	0.262
-520.945	-94.519	-0.254	-0.070
-519.931	256.925	0.087	0.151
-518.916	-13.634	0.072	0.048
-517.902	82.446	-0.113	0.124
-516.887	0.923	-0.133	0.097
-515.872	800.000	0.101	-0.298
-514.858	800.000	0.095	0.288
-513.843	211.347	0.108	-0.173
-512.829	-200.000	0.099	-0.445
-511.814	-200.000	0.020	-0.106
-510.799	345.563	0.086	-0.171
-509.785	104.942	0.237	-0.284
-508.770	17.209	-0.138	0.111
-507.756	363.384	0.044	-0.089
-506.741	800.000	0.008	0.029
-505.726	-73.892	-0.229	0.084
-504.712	199.334	0.052	0.081
-503.697	472.312	0.117	0.268
-502.683	412.613	-0.196	-0.422
-501.668	-72.129	0.237	-0.089
-500.653	487.103	0.138	0.320
-499.639	-45.027	0.050	-0.025
-498.624	257.783	0.081	-0.142
-497.610	-58.848	0.317	0.139
-496.595	775.479	0.126	0.349
-495.581	179.287	0.234	0.347
-494.566	119.152	-0.162	-0.204
-493.551	772.025	-0.083	-0.230
-492.537	159.081	0.039	0.055
-491.522	-44.827	-0.096	0.049
-490.508	-200.000	-0.008	-0.085
-489.493	83.628	0.014	0.016
-488.478	800.000	0.065	0.207
-487.464	155.865	0.083	-0.116
-486.449	57.975	0.123	-0.122
-485.435	45.089	-0.248	-0.232
-484.420	231.716	0.150	-0.249
-483.405	-200.000	-0.002	-0.319
-482.391	140.345	-0.192	0.256
-481.376	-200.000	-0.000	0.078
-480.362	-127.234	0.160	0.024
-479.347	800.000	-0.103	-0.426
-478.332	800.000	0.066	0.200
-477.318	-200.000	-0.006	-0.078
-476.303	-200.000	0.012	0.248
-475.289	-200.000	0.037	0.390
-474.274	-161.134	-0.384	-0.020
-473.259	-162.506	0.323	0.016
-472.245	605.380	0.036	0.092
-471.230	-115.064	0.211	0.040
-470.216	-200.000	0.029	-0.149
-469.201	-191.900	-0.330	-0.003
-468.186	-59.346	0.102	0.044
-467.172	640.854	0.063	0.163
-466.157	-8.213	0.354	0.241
-465.143	-43.834	-0.270	0.137
-464.128	-119.409	-0.192	-0.034
-463.113	18.671	-0.378	0.306
-462.099	-98.230	0.242	0.063
-461.084	147.266	-0.272	-0.371
-460.070	304.919	-0.078	0.146
-459.055	46.767	-0.149	-0.140
-458.040	229.796	-0.090	-0.149
-457.026	245.967	0.115	0.196
-456.011	-38.827	-0.333	0.178
-454.997	136.884	0.043	-0.057
-453.982	-136.011	0.175	0.021
-452.968	-200.000	0.007	0.127
-451.953	-16.841	-0.038	-0.024
-450.938	-19.918	-0.045	-0.028
-449.924	-200.000	-0.078	0.360
-448.909	800.000	-0.103	0.291
-447.895	-138.093	0.170	0.019
-446.880	-34.020	0.138	-0.077
-445.865	-114.144	0.167	0.033
-444.851	800.000	-0.068	-0.200
-443.836	47.254	-0.200	-0.189
-442.822	43.864	0.230	-0.213
-441.807	-55.575	0.175	-0.079
-440.792	32.335	-0.221	-0.193
-439.778	768.453	-0.058	-0.160
-438.763	-138.586	0.277	-0.031
-437.749	526.715	0.145	0.346
-436.734	362.729	-0.072	-0.146
-435.719	34.743	-0.207	-0.183
-434.705	-22.794	-0.042	-0.025
-433.690	784.667	-0.052	0.143
-432.676	334.373	0.133	0.260
-431.661	-12.661	0.212	0.140
-430.646	155.909	0.031	-0.043
-429.632	-200.000	-0.003	0.121
-428.617	33.792	0.095	0.083
-427.603	-113.480	0.170	-0.034
-426.588	131.468	0.151	0.196
-425.573	-141.481	-0.086	-0.009
-424.559	458.042	-0.154	0.347
-423.544	-78.539	-0.172	-0.059
-422.530	21.839	0.167	0.138
-421.515	-22.111	0.190	-0.116
-420.500	174.145	0.250	-0.366
-419.486	-31.703	-0.160	-0.091
-418.471	-200.000	0.028	-0.189
-417.457	-24.650	0.209	0.125
-416.442	13.080	-0.233	0.182
-415.428	85.371	-0.062	0.069
-414.413	-133.003	-0.176	-0.023
-413.398	800.000	-0.079	-0.347
-412.384	189.273	-0.111	-0.168
-411.369	-200.000	-0.059	-0.353
-410.355	-114.387	-0.154	-0.030
-409.340	-124.434	-0.238	-0.037
-408.325	-127.983	-0.414	-0.060
-407.311	220.190	-0.052	-0.084
-406.296	-12.195	0.207	0.137
-405.282	61.881	-0.129	0.130
-404.267	143.382	0.076	0.102
-403.252	343.472	-0.035	0.069
-402.238	17.148	0.107	0.086
-401.223	260.892	0.189	0.331
-400.209	47.386	0.093	-0.087
-399.194	800.000	-0.050	-0.204
-398.179	-16.206	0.084	0.054
-397.165	-148.728	0.213	0.017
-396.150	-200.000	-0.027	0.302
-395.136	276.200	-0.033	0.059
-394.121	-25.017	-0.308	0.185
-393.106	-200.000	-0.023	0.167
-392.092	-146.918	0.161	0.014
-391.077	-37.970	0.082	0.044
-390.063	270.834	0.121	-0.215
-389.048	118.535	-0.009	-0.011
-388.033	484.223	-0.112	0.258
-387.019	-6.423	0.295	0.203
-386.004	158.809	-0.049	-0.069
-384.990	266.318	0.113	0.200
-383.975	-68.672	-0.460	-0.180
-382.960	-39.793	-0.048	-0.025
-381.946	346.002	-0.159	0.315
-380.931	-128.972	-0.348	0.049
-379.917	-96.641	-0.126	-0.034
-378.902	-200.000	0.046	-0.334
-377.888	-129.732	0.206	0.029
-376.873	264.966	-0.059	0.104
-375.858	800.000	-0.056	-0.170
-374.844	-200.000	-0.003	-0.068
-373.829	-200.000	-0.039	0.191
-372.815	147.885	0.130	0.177
-371.800	468.141	0.047	-0.106
-370.785	-18.544	-0.158	-0.099
-369.771	-200.000	-0.029	0.147
-368.756	-30.023	-0.092	-0.053
-367.742	-200.000	0.013	0.154
-366.727	171.804	0.101	-0.146
-365.712	21.733	-0.091	-0.075
-364.698	-171.284	-0.267	-0.009
-363.683	-200.000	0.038	0.371
-362.669	-200.000	0.024	0.129
-361.654	-96.266	0.177	0.047
-360.639	42.858	-0.136	-0.125
-359.625	-200.000	-0.025	0.186
-358.610	-79.112	0.072	0.025
-357.596	-170.800	-0.214	-0.007
-356.581	-7.169	-0.084	0.057
-355.566	-117.412	0.258	-0.047
-354.552	-46.698	-0.230	0.114
-353.537	-162.361	-0.006	0.000
-352.523	-73.567	0.375	-0.138
-351.508	-200.000	-0.041	0.316
-350.493	800.000	0.043	0.140
-349.479	800.000	-0.139	-0.396
-348.464	-200.000	0.011	0.187
-347.450	51.317	-0.096	0.092
-346.435	76.187	0.123	-0.131
-345.420	-188.387	-0.105	-0.001
-344.406	800.000	-0.068	0.199
-343.391	800.000	-0.056	-0.227
-342.377	-200.000	-0.073	-0.388
-341.362	646.356	-0.181	-0.466
-340.348	648.338	0.120	-0.310
-339.333	-200.000	-0.057	-0.359
-338.318	36.043	0.167	-0.148
-337.304	20.580	-0.193	0.158
-336.289	191.744	-0.106	-0.162
-335.275	-108.123	0.301	0.066
-334.260	66.970	-0.043	0.044
-333.245	-28.036	0.064	0.037
-332.231	51.907	-0.142	0.137
-331.216	-20.575	-0.280	-0.173
-330.202	-200.000	0.024	-0.217
-329.187	43.806	-0.223	0.206
-328.172	124.906	-0.078	0.098
-327.158	-200.000	-0.027	-0.171
-326.143	580.077	-0.056	0.137
-325.129	-200.000	-0.096	0.438
-324.114	-168.044	0.314	-0.012
-323.099	143.691	-0.070	-0.094
-322.085	-136.688	0.028	-0.003
-321.070	275.489	-0.042	0.076
-320.056	-21.716	0.357	0.219
-319.041	-200.000	-0.005	0.354
-318.026	-200.000	-0.003	-0.113
-317.012	800.000	0.033	-0.120
-315.997	-133.305	-0.374	0.047
-314.983	-20.805	0.238	0.147
-313.968	-31.368	0.262	-0.148
-312.953	-156.141	0.472	-0.030
-311.939	24.328	0.254	-0.212
-310.924	-200.000	-0.029	-0.151
-309.910	-105.672	0.319	0.073
-308.895	-72.533	-0.151	0.056
-307.880	-200.000	-0.012	0.130
-306.866	134.576	0.170	-0.222
-305.851	123.027	-0.096	0.121
-304.837	165.009	0.043	0.061
-303.822	-196.757	0.313	-0.002
-302.807	26.768	-0.070	0.059
-301.793	757.442	-0.102	-0.277
-300.778	-62.550	0.206	-0.086
-299.764	-73.369	0.550	-0.202
-298.749	234.616	0.097	-0.161
-297.735	-200.000	0.059	0.000
-296.720	-104.920	-0.185	-0.043
-295.705	67.889	0.200	-0.205
-294.691	800.000	0.049	-0.139
-293.676	245.466	0.128	-0.217
-292.662	-72.841	-0.194	0.072
-291.647	-61.959	0.185	-0.078
-290.632	-200.000	0.017	-0.146
-289.618	-200.000	-0.006	0.376
-288.603	62.576	-0.242	0.243
-287.589	-26.234	0.118	0.070
-286.574	-24.972	-0.138	0.082
-285.559	-200.000	0.005	0.055
-284.545	-67.169	0.155	-0.062
-283.530	800.000	0.168	0.490
-282.516	-125.683	0.199	-0.030
-281.501	-111.113	-0.268	0.055
-280.486	10.768	0.187	-0.144
-279.472	-6.457	0.246	-0.168
-278.457	-200.000	-0.011	0.053
-277.443	31.226	-0.291	-0.251
-276.428	137.447	0.175	0.230
-275.413	-72.172	-0.196	-0.073
-274.399	-26.735	0.293	-0.172
-273.384	-200.000	-0.029	0.165
-272.370	-200.000	0.004	0.219
-271.355	464.594	0.064	-0.143
-270.340	-124.228	-0.368	0.058
-269.326	117.477	-0.156	0.193
-268.311	-4.781	-0.328	-0.227
-267.297	800.000	-0.116	-0.396
-266.282	-90.844	-0.085	-0.024
-265.267	310.824	0.181	0.341
-264.253	32.337	0.099	0.086
-263.238	34.574	-0.181	0.159
-262.224	-131.391	0.466	-0.062
-261.209	-54.100	-0.246	-0.112
-260.195	2.161	0.177	-0.128
-259.180	188.858	0.114	0.172
-258.165	-111.721	0.273	-0.056
-257.151	13.381	-0.122	0.095
-256.136	98.390	0.151	0.175
-255.122	376.193	0.084	-0.173
-254.107	491.538	0.100	0.229
-253.092	-113.775	-0.203	0.040
-252.078	-78.008	-0.109	0.038
-251.063	171.214	0.137	0.198
-250.049	61.923	-0.292	-0.293
-249.034	-2.347	-0.246	-0.173
-248.019	-78.121	0.361	0.125
-247.005	641.199	-0.022	0.057
-245.990	-140.871	0.144	-0.015
-244.976	-16.306	0.258	0.165
-243.961	-168.126	-0.205	0.008
-242.946	-54.095	-0.360	-0.165
-241.932	-93.109	0.245	0.068
-240.917	23.222	0.147	0.121
-239.903	82.280	-0.202	0.220
-238.888	87.240	0.120	-0.133
-237.873	-140.403	-0.156	-0.016
-236.859	-68.912	-0.146	-0.056
-235.844	-200.000	-0.003	-0.246
-234.830	-85.301	-0.395	-0.124
-233.815	555.320	0.128	0.310
-232.800	-185.856	-0.178	0.003
-231.786	35.175	-0.117	0.103
-230.771	-35.360	0.086	-0.047
-229.757	298.014	-0.086	-0.158
-228.742	800.000	-0.104	-0.360
-227.727	-48.768	-0.280	-0.135
-226.713	-200.000	0.006	-0.036
-225.698	107.031	0.355	0.423
-224.684	590.492	0.059	-0.147
-223.669	-200.000	0.028	-0.268
-222.655	533.771	0.120	0.284
-221.640	-88.449	0.141	0.042
-220.625	164.985	0.073	0.103
-219.611	-99.519	-0.102	0.026
-218.596	-200.000	0.257	-0.001
-217.582	600.184	0.148	-0.368
-216.567	-103.394	-0.076	-0.018
-215.552	77.051	0.069	0.073
-214.538	-127.713	-0.177	-0.026
-213.523	-200.000	0.050	-0.375
-212.509	-72.168	0.145	0.054
-211.494	-200.000	0.035	-0.239
-210.479	-161.397	0.195	-0.010
-209.465	-2.316	0.229	-0.161
-208.450	-200.000	0.017	0.220
-207.436	124.091	0.081	0.102
-206.421	119.251	0.115	0.143
-205.406	297.155	0.149	-0.274
-204.392	-200.000	0.025	0.405
-203.377	800.000	0.050	0.151
-202.363	-200.000	-0.380	-0.000
-201.348	26.438	-0.123	0.103
-200.333	-56.201	0.123	0.055
-199.319	106.926	-0.124	-0.148
-198.304	52.442	0.144	-0.138
-197.290	-200.000	0.001	-0.089
-196.275	50.022	-0.093	-0.088
-195.260	-185.525	0.166	0.003
-194.246	-66.112	-0.039	-0.015
-193.231	-200.000	0.014	0.131
-192.217	645.188	-0.201	0.513
-191.202	-53.920	-0.221	-0.101
-190.187	101.904	-0.095	-0.112
-189.173	-133.076	-0.110	-0.014
-188.158	-200.000	-0.009	-0.107
-187.144	-12.672	0.076	0.049
-186.129	35.981	0.156	-0.137
-185.114	158.309	-0.266	0.370
-184.100	-123.305	0.097	-0.016
-183.085	-11.304	0.164	-0.108
-182.071	415.934	0.094	-0.201
-181.056	-154.680	-0.241	0.016
-180.042	-200.000	-0.003	0.036
-179.027	129.228	0.130	-0.166
-178.012	-200.000	-0.003	0.293
-176.998	368.475	-0.202	0.408
-175.983	-16.527	-0.210	0.133
-174.969	123.993	-0.242	0.304
-173.954	121.606	-0.084	-0.104
-172.939	-200.000	0.011	0.165
-171.925	800.000	0.048	-0.183
-170.910	-2.846	0.249	-0.174
-169.896	-123.998	-0.104	0.016
-168.881	-200.000	-0.013	0.184
-167.866	97.544	-0.167	0.192
-166.852	-64.028	0.154	-0.063
-165.837	-137.176	-0.141	-0.016
-164.823	-133.286	0.398	-0.050
-163.808	-200.000	0.028	-0.121
-162.793	-109.197	0.211	0.045
-161.779	-17.505	-0.310	-0.195
-160.764	800.000	0.075	-0.327
-159.750	800.000	0.028	-0.082
-158.735	-64.247	0.490	-0.200
-157.720	235.134	0.076	-0.126
-156.706	-200.000	-0.025	-0.319
-155.691	129.582	-0.145	-0.186
-154.677	730.917	0.018	-0.048
-153.662	49.757	-0.223	0.211
-152.647	-200.000	-0.032	0.204
-151.633	-47.459	0.401	-0.195
-150.618	201.341	-0.109	0.168
-149.604	-200.000	0.010	-0.111
-148.589	-92.373	0.268	-0.076
-147.574	526.149	-0.139	0.327
-146.560	194.720	-0.199	-0.302
-145.545	-200.000	-0.025	0.306
-144.531	239.873	0.132	0.221
-143.516	-200.000	-0.019	0.354
-142.502	800.000	0.045	-0.159
-141.487	143.158	0.033	-0.044
-140.472	800.000	-0.059	0.181
-139.458	-200.000	0.009	-0.124
-138.443	800.000	0.058	0.160
-137.429	-82.638	-0.396	0.128
-136.414	165.493	0.072	0.102
-135.399	-200.000	0.022	0.117
-134.385	-200.000	0.012	0.102
-133.370	157.729	0.134	0.186
-132.356	800.000	0.099	-0.342
-131.341	477.294	-0.120	-0.271
-130.326	439.451	0.119	0.260
-129.312	800.000	0.119	0.511
-128.297	800.000	-0.086	0.273
-127.283	31.710	-0.083	0.071
-126.268	-60.814	0.094	-0.040
-125.253	-24.142	-0.155	-0.093
-124.239	-200.000	-0.068	0.297
-123.224	-55.649	0.334	0.150
-122.210	-200.000	0.014	0.078
