DTS Sentinel unit serial number:	SN413079Multiplexer serial number:	ORYXHardware model number:	OX4-SRSoftware version number:	ORYX F/W v4.00 Oryx Data Collector v3.7.2.0data status	okinstallation	princeton_trtdifferential loss correction	single-endedforward channel	channel 3reverse channel	N/Adate	2019/09/11time	00:30:10forward acquisition time	60.00reverse acquisition time	0.00gamma	496.2192k internal	0.2332k external	0.2332temperature offset calibration	0.9916default loss term (dB/km)	0.3790temperature slope calibration	1.0000multiplexer offset coefficient	1.0000multiplexer slope coefficient	1.0000fibre end	0.00T internal ref (°C)	29.25T ext. ref 1 (°C)	-0.31T ext. ref 2 (°C)	23.00length (m)	temperature (°C)	Stokes	anti-Stokes-747.200	18.871	-0.138	0.112
-746.185	35.793	0.141	0.125
-745.171	-2.617	-0.289	0.203
-744.156	463.026	-0.208	0.467
-743.142	113.104	0.305	0.372
-742.127	-18.459	-0.270	-0.169
-741.112	132.474	-0.049	0.064
-740.098	125.902	-0.059	0.075
-739.083	-99.744	0.239	0.060
-738.069	2.969	0.136	0.099
-737.054	252.876	0.177	-0.304
-736.039	-7.485	0.081	-0.055
-735.025	-128.477	-0.053	-0.008
-734.010	-86.483	0.101	0.031
-732.996	-97.911	-0.305	0.079
-731.981	-25.576	0.248	-0.147
-730.966	23.777	0.200	-0.165
-729.952	-29.500	-0.322	-0.185
-728.937	-90.311	-0.100	0.029
-727.923	-200.000	0.032	-0.234
-726.908	-102.409	-0.248	-0.060
-725.894	-126.523	0.424	0.063
-724.879	-89.229	-0.261	0.077
-723.864	-178.992	-0.202	-0.005
-722.850	-148.039	0.017	0.001
-721.835	-147.073	-0.272	-0.023
-720.821	48.970	-0.130	0.122
-719.806	11.304	-0.299	0.230
-718.791	-195.041	0.247	0.002
-717.777	-200.000	-0.055	0.292
-716.762	88.411	-0.171	-0.191
-715.748	-126.649	0.579	0.086
-714.733	-49.033	-0.213	-0.103
-713.718	12.233	-0.243	-0.188
-712.704	-16.666	0.378	0.241
-711.689	-85.929	0.067	-0.021
-710.675	-107.170	0.250	-0.055
-709.660	-200.000	-0.000	-0.471
-708.645	282.694	-0.089	0.160
-707.631	-53.553	0.269	-0.124
-706.616	2.481	-0.113	0.082
-705.602	800.000	-0.016	-0.057
-704.587	-16.028	-0.120	0.077
-703.572	-61.510	-0.167	-0.070
-702.558	351.611	-0.075	-0.150
-701.543	-27.986	-0.222	-0.129
-700.529	20.580	-0.194	0.158
-699.514	70.872	-0.122	0.127
-698.499	-116.205	-0.174	-0.032
-697.485	-41.790	-0.420	-0.217
-696.470	503.856	0.092	0.214
-695.456	-35.277	0.256	-0.140
-694.441	278.587	-0.175	-0.313
-693.426	622.992	0.158	-0.399
-692.412	-200.000	-0.087	-0.398
-691.397	-200.000	-0.002	-0.045
-690.383	111.562	-0.238	-0.289
-689.368	93.505	-0.255	-0.290
-688.354	201.549	0.021	0.033
-687.339	202.516	0.111	0.173
-686.324	-141.095	0.146	-0.015
-685.310	-150.038	0.070	-0.005
-684.295	57.469	0.200	0.196
-683.281	800.000	0.066	-0.232
-682.266	-75.761	0.339	-0.121
-681.251	-118.307	-0.186	0.033
-680.237	-200.000	0.008	-0.234
-679.222	27.176	-0.150	-0.126
-678.208	104.693	-0.166	0.196
-677.193	-28.046	-0.410	-0.238
-676.178	-200.000	-0.012	0.087
-675.164	-200.000	-0.016	-0.106
-674.149	-200.000	-0.034	-0.251
-673.135	96.728	-0.168	-0.194
-672.120	-40.910	0.182	0.094
-671.105	-158.758	-0.248	-0.014
-670.091	179.785	-0.086	-0.127
-669.076	-200.000	-0.100	-0.451
-668.062	800.000	-0.066	0.201
-667.047	119.884	0.067	-0.083
-666.032	-69.370	-0.242	-0.093
-665.018	-77.001	-0.089	-0.031
-664.003	49.542	0.137	0.129
-662.989	-200.000	0.011	-0.122
-661.974	800.000	-0.080	-0.275
-660.959	800.000	0.071	0.250
-659.945	31.886	0.171	-0.147
-658.930	109.873	-0.086	-0.103
-657.916	-200.000	-0.031	-0.252
-656.901	188.115	-0.258	-0.386
-655.886	-200.000	-0.012	-0.205
-654.872	-76.181	0.183	0.065
-653.857	193.318	0.047	0.071
-652.843	-28.511	-0.191	0.111
-651.828	622.119	0.060	0.151
-650.814	24.299	-0.109	0.090
-649.799	-88.450	-0.025	-0.007
-648.784	-21.090	0.121	0.074
-647.770	-18.046	-0.356	-0.223
-646.755	603.484	0.089	0.221
-645.741	-51.487	-0.343	-0.161
-644.726	-75.117	0.218	-0.078
-643.711	439.118	0.144	-0.316
-642.697	158.803	0.052	0.073
-641.682	-173.792	-0.258	0.008
-640.668	-100.536	0.123	-0.030
-639.653	69.911	0.087	0.090
-638.638	-121.059	-0.086	-0.015
-637.624	43.259	-0.089	0.082
-636.609	-159.996	0.127	-0.007
-635.595	-112.860	0.111	0.022
-634.580	152.584	0.043	-0.058
-633.565	-31.357	-0.273	-0.154
-632.551	60.534	-0.076	0.076
-631.536	82.599	0.243	-0.264
-630.522	647.291	-0.039	-0.101
-629.507	29.763	-0.149	-0.127
-628.492	0.150	0.180	-0.129
-627.478	115.279	-0.204	0.249
-626.463	355.600	-0.119	-0.238
-625.449	468.602	-0.048	0.108
-624.434	-88.939	-0.295	-0.088
-623.419	13.456	-0.229	0.178
-622.405	-200.000	0.011	0.064
-621.390	128.669	-0.100	-0.128
-620.376	278.676	-0.144	-0.257
-619.361	-20.227	0.068	0.042
-618.346	800.000	-0.048	-0.198
-617.332	-65.017	0.309	-0.125
-616.317	-112.713	-0.237	-0.047
-615.303	-200.000	0.001	0.214
-614.288	-200.000	0.022	0.200
-613.273	201.064	0.186	-0.286
-612.259	129.124	-0.341	-0.436
-611.244	166.598	0.057	0.080
-610.230	-200.000	0.034	0.259
-609.215	307.516	-0.017	0.031
-608.201	68.130	0.099	0.101
-607.186	96.651	0.184	-0.211
-606.171	-14.523	0.237	-0.152
-605.157	643.654	-0.084	-0.215
-604.142	800.000	0.030	-0.129
-603.128	51.342	0.044	-0.042
-602.113	143.769	0.065	0.086
-601.098	-147.615	-0.241	0.020
-600.084	-130.251	0.327	0.045
-599.069	800.000	-0.084	-0.249
-598.055	-134.873	0.176	0.021
-597.040	445.801	0.139	-0.306
-596.025	-102.782	-0.296	0.070
-595.011	-200.000	-0.040	0.392
-593.996	-55.297	-0.262	-0.118
-592.982	-161.733	0.280	-0.014
-591.967	-78.157	-0.159	0.055
-590.952	-56.506	-0.196	0.087
-589.938	-84.466	0.476	-0.151
-588.923	220.075	0.031	-0.049
-587.909	-84.321	-0.125	-0.040
-586.894	-200.000	0.056	-0.247
-585.879	268.506	0.129	0.227
-584.865	-171.801	0.155	-0.005
-583.850	322.280	-0.200	-0.380
-582.836	759.850	-0.050	0.134
-581.821	-44.017	-0.112	-0.056
-580.806	59.263	0.280	0.276
-579.792	-200.000	0.029	0.137
-578.777	474.719	-0.068	-0.154
-577.763	-117.730	-0.067	0.012
-576.748	-40.363	-0.241	0.125
-575.733	-0.738	0.263	0.187
-574.719	-102.331	-0.127	-0.030
-573.704	52.633	0.088	-0.084
-572.690	-158.278	-0.062	-0.004
-571.675	133.185	-0.074	0.096
-570.661	-2.019	-0.212	0.149
-569.646	556.150	0.075	-0.181
-568.631	-147.268	0.240	0.020
-567.617	-72.524	0.280	0.103
-566.602	18.001	-0.173	-0.138
-565.588	419.276	-0.110	0.236
-564.573	-46.169	-0.285	-0.140
-563.558	117.385	0.176	-0.216
-562.544	-134.999	0.235	0.028
-561.529	-21.033	0.276	0.169
-560.515	-131.867	0.220	0.029
-559.500	20.811	-0.110	0.089
-558.485	-85.284	-0.028	-0.009
-557.471	156.903	-0.133	-0.184
-556.456	248.047	-0.033	0.056
-555.442	-200.000	-0.044	0.396
-554.427	182.222	0.104	-0.154
-553.412	800.000	0.061	0.232
-552.398	-19.044	-0.188	-0.116
-551.383	-200.000	-0.033	0.341
-550.369	76.892	-0.103	0.110
-549.354	342.173	0.030	0.059
-548.339	390.769	0.070	-0.145
-547.325	-60.848	-0.268	-0.113
-546.310	800.000	0.059	-0.180
-545.296	-104.100	-0.195	-0.045
-544.281	-149.750	-0.106	-0.008
-543.266	106.573	0.211	0.250
-542.252	-63.161	-0.185	0.076
-541.237	-15.931	0.283	0.180
-540.223	800.000	-0.046	-0.168
-539.208	72.688	-0.260	-0.270
-538.193	202.433	0.136	0.210
-537.179	-84.354	-0.201	-0.063
-536.164	368.661	-0.150	-0.302
-535.150	352.207	-0.103	-0.203
-534.135	-46.396	0.140	-0.069
-533.121	-150.705	-0.337	-0.026
-532.106	-200.000	0.048	-0.269
-531.091	-39.706	-0.134	-0.070
-530.077	-200.000	-0.041	0.242
-529.062	49.485	-0.243	0.229
-528.048	326.408	-0.128	0.244
-527.033	158.009	0.177	-0.245
-526.018	-82.999	0.191	-0.061
-525.004	-112.516	-0.078	0.016
-523.989	33.332	-0.239	-0.207
-522.975	-30.843	-0.256	0.144
-521.960	128.786	-0.095	0.121
-520.945	-14.798	-0.279	0.178
-519.931	-126.477	-0.173	0.026
-518.916	800.000	-0.074	-0.228
-517.902	-200.000	0.046	-0.289
-516.887	559.670	-0.096	-0.231
-515.872	800.000	0.086	-0.302
-514.858	-200.000	0.025	0.404
-513.843	-200.000	0.025	-0.174
-512.829	208.123	-0.163	0.254
-511.814	-94.101	-0.167	-0.046
-510.799	-72.052	-0.310	-0.115
-509.785	240.473	0.090	-0.150
-508.770	556.607	-0.066	0.159
-507.756	-115.768	-0.243	-0.045
-506.741	62.684	0.120	0.119
-505.726	24.489	-0.131	0.108
-504.712	-112.548	0.124	0.025
-503.697	175.372	0.111	0.160
-502.683	-89.113	-0.279	-0.082
-501.668	-46.152	-0.163	-0.080
-500.653	669.317	-0.064	0.165
-499.639	117.874	-0.104	0.128
-498.624	-116.701	-0.066	0.012
-497.610	-49.316	0.307	-0.146
-496.595	-93.601	0.350	0.096
-495.581	212.352	0.041	0.064
-494.566	800.000	-0.058	0.228
-493.551	211.705	-0.082	-0.128
-492.537	210.730	0.089	-0.139
-491.522	-79.376	-0.314	0.106
-490.508	29.474	-0.102	-0.086
-489.493	103.990	0.132	0.154
-488.478	-65.841	-0.053	0.021
-487.464	800.000	-0.040	-0.129
-486.449	-12.194	0.229	0.150
-485.435	167.808	-0.101	-0.143
-484.420	202.424	0.067	0.104
-483.405	229.638	-0.118	-0.191
-482.391	367.661	0.041	-0.083
-481.376	20.830	0.128	0.104
-480.362	342.385	0.037	-0.072
-479.347	-57.769	0.178	-0.078
-478.332	167.701	0.165	-0.233
-477.318	800.000	-0.055	0.161
-476.303	270.267	-0.234	0.409
-475.289	-51.943	0.327	0.151
-474.274	28.551	-0.246	-0.208
-473.259	-144.121	0.213	0.020
-472.245	-115.354	0.108	0.020
-471.230	-142.092	0.522	-0.052
-470.216	-137.157	0.422	-0.048
-469.201	27.051	0.029	0.024
-468.186	-22.342	-0.318	-0.192
-467.172	308.425	-0.021	0.039
-466.157	41.627	-0.212	0.191
-465.143	18.891	-0.060	-0.048
-464.128	800.000	-0.125	-0.345
-463.113	-106.146	0.165	-0.037
-462.099	707.583	-0.175	-0.460
-461.084	20.393	0.082	0.066
-460.070	-137.773	-0.267	-0.030
-459.055	308.203	0.156	0.289
-458.040	-167.415	-0.456	-0.018
-457.026	800.000	-0.076	-0.269
-456.011	6.683	-0.041	0.030
-454.997	133.654	0.185	0.238
-453.982	-193.121	-0.283	-0.003
-452.968	60.565	-0.309	-0.305
-451.953	217.032	0.129	0.205
-450.938	-11.664	0.278	0.182
-449.924	264.036	-0.197	0.341
-448.909	-123.029	0.398	-0.064
-447.895	164.560	-0.146	0.204
-446.880	-200.000	-0.006	0.067
-445.865	-103.431	0.022	0.005
-444.851	-156.153	-0.307	0.019
-443.836	15.954	0.249	-0.195
-442.822	-9.099	0.032	0.022
-441.807	480.718	-0.051	0.115
-440.792	-200.000	-0.032	0.180
-439.778	54.876	0.375	-0.360
-438.763	170.913	-0.060	-0.086
-437.749	-54.037	0.271	-0.123
-436.734	213.084	-0.096	-0.151
-435.719	-52.852	0.010	0.004
-434.705	-162.905	0.185	-0.009
-433.690	-179.263	-0.624	-0.014
-432.676	-134.716	0.617	0.075
-431.661	411.718	-0.023	0.048
-430.646	800.000	0.054	-0.162
-429.632	-95.563	0.308	-0.082
-428.617	-83.368	0.197	-0.063
-427.603	-58.489	0.120	0.052
-426.588	712.769	-0.062	-0.164
-425.573	79.045	0.100	0.107
-424.559	13.736	-0.120	0.093
-423.544	-97.208	0.188	0.049
-422.530	800.000	-0.088	-0.316
-421.515	800.000	0.055	-0.227
-420.500	-76.413	-0.119	-0.042
-419.486	54.102	-0.097	0.093
-418.471	32.051	-0.127	-0.108
-417.457	-187.554	0.024	0.000
-416.442	60.412	0.171	0.168
-415.428	314.373	0.067	0.125
-414.413	-58.889	-0.243	0.104
-413.398	-88.658	-0.274	-0.081
-412.384	141.642	0.197	-0.259
-411.369	800.000	0.040	0.159
-410.355	122.526	0.051	-0.063
-409.340	21.913	0.213	0.172
-408.325	-200.000	0.004	-0.025
-407.311	87.532	-0.173	-0.190
-406.296	-98.413	0.243	-0.062
-405.282	66.238	0.181	-0.183
-404.267	161.153	0.048	0.067
-403.252	-100.917	-0.249	-0.061
-402.238	96.217	-0.125	0.142
-401.223	68.208	0.063	-0.064
-400.209	-20.136	-0.043	-0.027
-399.194	800.000	0.076	-0.249
-398.179	-200.000	-0.008	0.098
-397.165	-200.000	0.042	0.207
-396.150	-121.961	-0.273	0.045
-395.136	-200.000	-0.014	-0.506
-394.121	-152.048	-0.263	-0.019
-393.106	48.057	-0.077	-0.071
-392.092	-200.000	0.005	-0.026
-391.077	800.000	0.018	0.076
-390.063	150.226	0.183	-0.246
-389.048	-157.183	0.163	0.010
-388.033	239.901	-0.071	0.118
-387.019	263.381	0.152	0.262
-386.004	800.000	-0.047	-0.182
-384.990	266.546	0.058	0.101
-383.975	-126.249	-0.115	0.017
-382.960	33.503	-0.178	-0.154
-381.946	-47.047	-0.241	0.117
-380.931	136.948	0.128	0.166
-379.917	-200.000	-0.027	-0.138
-378.902	-200.000	-0.009	0.052
-377.888	-158.642	0.324	0.019
-376.873	-82.010	-0.152	-0.049
-375.858	575.517	-0.047	-0.115
-374.844	-167.784	0.071	-0.003
-373.829	-8.271	-0.297	0.199
-372.815	800.000	0.071	-0.226
-371.800	50.455	-0.132	-0.124
-370.785	800.000	0.061	-0.263
-369.771	-34.432	-0.134	0.073
-368.756	388.801	-0.086	-0.176
-367.742	-40.035	0.103	0.053
-366.727	176.539	0.039	0.056
-365.712	-136.985	-0.292	-0.033
-364.698	-16.162	0.084	0.053
-363.683	-200.000	-0.032	0.311
-362.669	-70.918	0.087	-0.033
-361.654	-78.230	0.127	-0.043
-360.639	194.763	-0.091	0.136
-359.625	-17.864	-0.345	0.214
-358.610	298.306	0.236	0.430
-357.596	185.142	-0.111	0.164
-356.581	-200.000	0.035	0.251
-355.566	-24.427	0.042	0.025
-354.552	26.030	0.119	-0.098
-353.537	-15.380	0.178	0.113
-352.523	800.000	-0.022	-0.072
-351.508	284.644	0.134	-0.239
-350.493	-111.394	0.277	-0.056
-349.479	42.525	-0.327	-0.295
-348.464	60.208	0.204	-0.200
-347.450	-93.916	0.150	-0.041
-346.435	-112.406	-0.178	0.035
-345.420	800.000	-0.052	0.178
-344.406	-200.000	0.025	0.483
-343.391	-96.739	-0.187	0.049
-342.377	-119.975	-0.213	-0.036
-341.362	92.593	0.164	-0.184
-340.348	-200.000	-0.024	-0.227
-339.333	71.169	-0.074	-0.076
-338.318	-57.502	-0.299	-0.130
-337.304	-200.000	0.011	-0.175
-336.289	-40.770	0.037	0.019
-335.275	-200.000	-0.000	-0.365
-334.260	-44.198	0.113	-0.056
-333.245	62.931	0.071	0.071
-332.231	52.409	0.039	0.037
-331.216	254.082	-0.272	-0.461
-330.202	35.659	-0.037	-0.032
-329.187	800.000	0.118	0.373
-328.172	9.322	0.137	0.103
-327.158	-33.062	-0.110	0.060
-326.143	-200.000	0.013	0.241
-325.129	-185.526	-0.140	-0.002
-324.114	800.000	0.026	0.103
-323.099	-51.577	0.083	0.038
-322.085	131.179	-0.121	-0.154
-321.070	-40.360	-0.070	-0.036
-320.056	146.554	0.313	-0.416
-319.041	95.261	-0.133	-0.150
-318.026	232.546	-0.058	-0.094
-317.012	-57.979	-0.153	0.066
-315.997	114.172	0.170	0.205
-314.983	-133.636	0.173	-0.021
-313.968	-65.289	-0.168	0.067
-312.953	18.966	-0.137	0.109
-311.939	223.077	-0.148	0.236
-310.924	578.484	-0.061	0.149
-309.910	61.204	0.136	-0.133
-308.895	800.000	-0.057	-0.190
-307.880	-106.627	-0.212	-0.047
-306.866	698.150	-0.087	0.227
-305.851	-37.102	0.280	0.148
-304.837	-197.198	0.311	-0.002
-303.822	800.000	-0.129	-0.553
-302.807	-65.397	-0.420	-0.167
-301.793	-74.168	-0.216	0.077
-300.778	120.087	0.177	0.217
-299.764	-123.248	-0.617	0.098
-298.749	-50.354	0.313	0.146
-297.735	-200.000	0.046	0.252
-296.720	566.938	-0.092	0.220
-295.705	-76.008	0.277	-0.097
-294.691	11.014	-0.189	0.143
-293.676	-200.000	-0.008	-0.065
-292.662	101.572	-0.165	0.190
-291.647	791.836	0.158	0.429
-290.632	136.436	0.092	0.118
-289.618	-88.949	0.093	0.027
-288.603	137.299	0.138	0.178
-287.589	-133.002	0.310	0.039
-286.574	-88.304	-0.197	0.058
-285.559	-25.499	-0.081	0.047
-284.545	154.904	-0.162	-0.220
-283.530	-64.265	0.269	-0.108
-282.516	78.914	-0.216	0.228
-281.501	-200.000	0.028	-0.175
-280.486	-24.626	-0.507	-0.298
-279.472	-109.235	-0.489	0.103
-278.457	-162.028	0.253	0.013
-277.443	-128.766	-0.359	0.050
-276.428	-72.350	-0.144	0.053
-275.413	-200.000	0.045	-0.326
-274.399	202.971	-0.086	-0.132
-273.384	-137.264	0.395	0.044
-272.370	-200.000	0.006	0.156
-271.355	-138.496	-0.052	0.006
-270.340	-163.183	0.269	-0.013
-269.326	-152.203	0.269	-0.019
-268.311	-122.982	0.219	-0.035
-267.297	146.824	0.033	0.043
-266.282	8.619	-0.056	0.041
-265.267	-66.349	0.138	0.054
-264.253	-200.000	-0.006	0.202
-263.238	65.874	-0.277	0.277
-262.224	-120.076	-0.277	0.047
-261.209	148.963	0.035	-0.047
-260.195	646.870	0.050	0.125
-259.180	-198.084	-0.277	-0.002
-258.165	-177.141	0.131	0.003
-257.151	-149.821	-0.041	0.003
-256.136	-128.686	0.353	0.049
-255.122	-200.000	-0.015	-0.104
-254.107	-20.331	-0.278	-0.169
-253.092	-200.000	0.025	-0.237
-252.078	-147.368	0.365	0.031
-251.063	286.787	-0.069	-0.122
-250.049	8.955	0.288	0.214
-249.034	-200.000	0.019	0.255
-248.019	800.000	-0.060	0.261
-247.005	-125.726	0.247	0.037
-245.990	16.060	0.491	0.382
-244.976	539.074	-0.162	-0.381
-243.961	-200.000	0.033	0.164
-242.946	-66.099	0.255	0.100
-241.932	190.268	0.039	0.058
-240.917	99.769	-0.087	0.100
-239.903	364.493	0.138	-0.273
-238.888	-83.774	0.338	-0.106
-237.873	-45.970	-0.304	0.148
-236.859	-200.000	0.001	-0.012
-235.844	210.608	-0.157	-0.244
-234.830	-36.027	0.261	0.139
-233.815	800.000	0.038	0.145
-232.800	-87.084	0.245	0.074
-231.786	-74.103	-0.165	-0.059
-230.771	-186.313	-0.175	-0.003
-229.757	166.011	0.176	0.246
-228.742	466.996	0.115	-0.255
-227.727	109.069	-0.070	-0.082
-226.713	-50.802	0.228	0.106
-225.698	199.940	0.156	-0.236
-224.684	234.432	-0.091	0.148
-223.669	-83.657	0.219	0.069
-222.655	-111.810	-0.073	0.015
-221.640	165.266	0.222	-0.309
-220.625	153.638	-0.185	0.250
-219.611	-11.761	0.203	0.132
-218.596	-152.439	-0.021	0.002
-217.582	-82.532	-0.304	0.097
-216.567	800.000	-0.024	0.102
-215.552	-95.661	-0.174	0.046
-214.538	54.690	-0.081	0.077
-213.523	-69.640	0.144	-0.054
-212.509	-31.766	0.167	-0.093
-211.494	-200.000	-0.033	-0.301
-210.479	-135.864	-0.329	0.038
-209.465	-200.000	-0.004	-0.142
-208.450	-146.476	0.454	0.039
-207.436	-200.000	-0.076	-0.364
-206.421	-47.769	0.285	0.136
-205.406	-200.000	0.013	0.164
-204.392	77.378	-0.176	0.185
-203.377	-52.935	0.201	0.091
-202.363	800.000	0.013	-0.055
-201.348	73.433	-0.145	-0.150
-200.333	-139.648	-0.044	-0.005
-199.319	91.718	0.147	0.163
-198.304	-68.304	-0.395	-0.151
-197.290	800.000	0.015	0.041
-196.275	113.561	-0.170	0.204
-195.260	-200.000	-0.024	0.268
-194.246	800.000	0.038	-0.137
-193.231	37.079	-0.082	-0.071
-192.217	756.802	-0.029	0.078
-191.202	-88.757	0.300	-0.088
-190.187	263.121	0.049	0.084
-189.173	800.000	0.053	0.169
-188.158	800.000	0.014	-0.046
-187.144	-46.630	0.247	0.119
-186.129	-185.717	0.322	0.005
-185.114	-184.524	-0.011	-0.000
-184.100	-49.330	-0.144	-0.067
-183.085	-162.644	-0.116	0.006
-182.071	-200.000	-0.015	-0.089
-181.056	315.911	-0.129	0.239
-180.042	319.018	-0.073	0.136
-179.027	161.491	0.219	0.302
-178.012	283.500	-0.076	-0.134
-176.998	-66.502	0.239	0.093
-175.983	-182.833	0.267	-0.005
-174.969	800.000	-0.085	0.273
-173.954	-114.711	0.126	-0.024
-172.939	-95.885	0.246	0.065
-171.925	-25.026	-0.087	-0.051
-170.910	800.000	0.056	-0.160
-169.896	-60.039	0.125	-0.053
-168.881	-200.000	0.030	0.260
-167.866	168.309	0.164	-0.230
-166.852	800.000	0.034	0.119
-165.837	135.671	0.131	0.168
-164.823	65.245	0.212	-0.211
-163.808	-109.128	-0.113	-0.024
-162.793	-119.278	-0.163	0.028
-161.779	-138.649	0.125	-0.013
-160.764	251.561	0.176	0.294
-159.750	102.846	-0.086	0.099
-158.735	406.406	0.068	-0.142
-157.720	-200.000	0.025	-0.477
-156.706	-200.000	-0.006	-0.094
-155.691	-8.126	0.387	0.256
-154.677	130.909	0.210	0.264
-153.662	45.477	0.225	-0.204
-152.647	176.993	-0.191	0.273
-151.633	-131.991	-0.327	-0.042
-150.618	41.808	-0.142	0.126
-149.604	-153.047	-0.123	0.008
-148.589	56.109	0.366	-0.349
-147.574	-200.000	0.056	-0.312
-146.560	93.324	-0.061	-0.068
-145.545	199.684	0.050	-0.076
-144.531	196.039	0.112	0.167
-143.516	-105.209	0.091	0.020
-142.502	33.823	0.349	0.299
-141.487	-120.927	-0.301	0.050
-140.472	-17.192	-0.298	-0.185
-139.458	-130.059	-0.328	0.044
-138.443	-157.541	0.004	0.000
-137.429	800.000	-0.026	0.104
-136.414	15.712	-0.073	0.056
-135.399	214.627	0.174	-0.270
-134.385	12.817	0.040	0.030
-133.370	-83.484	0.253	-0.080
-132.356	800.000	0.081	-0.341
-131.341	-44.736	0.087	0.043
-130.326	-200.000	-0.011	0.145
-129.312	114.500	0.324	0.388
-128.297	800.000	-0.093	0.328
-127.283	-200.000	0.054	0.369
-126.268	10.412	-0.163	0.122
-125.253	-161.368	-0.038	-0.002
-124.239	-66.299	-0.148	0.058
-123.224	-65.271	-0.207	-0.082
-122.210	171.347	-0.159	-0.224
-121.195	-63.233	-0.308	0.125
