DTS Sentinel unit serial number:	SN413079Multiplexer serial number:	ORYXHardware model number:	OX4-SRSoftware version number:	ORYX F/W v4.00 Oryx Data Collector v3.7.2.0data status	okinstallation	princeton_trtdifferential loss correction	single-endedforward channel	channel 3reverse channel	N/Adate	2019/09/14time	02:36:35forward acquisition time	60.00reverse acquisition time	0.00gamma	496.2192k internal	0.2339k external	0.2339temperature offset calibration	1.0058default loss term (dB/km)	0.3790temperature slope calibration	1.0000multiplexer offset coefficient	1.0000multiplexer slope coefficient	1.0000fibre end	0.00T internal ref (°C)	26.53T ext. ref 1 (°C)	3.23T ext. ref 2 (°C)	21.56length (m)	temperature (°C)	Stokes	anti-Stokes-747.200	-200.000	0.005	0.096
-746.185	-200.000	-0.010	-0.240
-745.171	-124.424	0.209	-0.033
-744.156	142.289	-0.028	0.037
-743.142	-24.151	-0.176	-0.105
-742.127	21.025	0.127	-0.103
-741.112	-56.507	0.246	0.110
-740.098	-66.652	-0.154	-0.061
-739.083	800.000	0.030	-0.090
-738.069	800.000	-0.010	-0.033
-737.054	71.916	0.075	-0.079
-736.039	-200.000	-0.011	-0.135
-735.025	687.406	0.005	-0.013
-734.010	128.467	-0.250	-0.319
-732.996	-113.444	-0.087	-0.017
-731.981	-200.000	-0.013	-0.374
-730.966	48.434	0.200	0.187
-729.952	-64.693	-0.012	-0.005
-728.937	800.000	-0.043	-0.143
-727.923	-0.242	-0.078	0.056
-726.908	800.000	-0.023	-0.092
-725.894	-200.000	-0.053	-0.393
-724.879	-71.442	-0.293	-0.110
-723.864	38.727	0.111	-0.099
-722.850	-200.000	0.014	-0.141
-721.835	28.733	-0.041	-0.035
-720.821	-200.000	-0.008	-0.112
-719.806	-200.000	0.012	-0.299
-718.791	-46.044	-0.236	-0.117
-717.777	201.009	0.115	-0.178
-716.762	-67.198	-0.321	-0.127
-715.748	800.000	-0.058	-0.225
-714.733	800.000	-0.103	-0.352
-713.718	128.421	0.280	-0.357
-712.704	295.099	-0.149	-0.273
-711.689	396.657	0.048	0.101
-710.675	-24.954	0.209	0.124
-709.660	166.739	0.106	-0.150
-708.645	-15.644	0.134	-0.086
-707.631	800.000	0.047	-0.197
-706.616	-200.000	-0.024	-0.150
-705.602	230.957	0.145	-0.237
-704.587	-200.000	0.006	0.182
-703.572	49.828	0.134	-0.127
-702.558	-111.193	-0.257	0.053
-701.543	384.155	0.096	-0.199
-700.529	-200.000	-0.006	0.113
-699.514	131.594	-0.119	-0.153
-698.499	299.766	0.263	-0.485
-697.485	129.104	0.179	-0.229
-696.470	800.000	-0.000	-0.001
-695.456	303.613	0.155	-0.287
-694.441	-200.000	-0.007	0.176
-693.426	-200.000	0.043	-0.267
-692.412	-174.152	-0.199	-0.006
-691.397	21.696	0.209	0.171
-690.383	353.705	0.062	-0.124
-689.368	115.335	0.195	-0.239
-688.354	-64.866	-0.243	-0.098
-687.339	346.130	-0.102	-0.201
-686.324	149.114	0.361	0.489
-685.310	-158.692	-0.336	-0.019
-684.295	332.390	0.104	-0.200
-683.281	391.190	0.135	-0.281
-682.266	201.223	0.203	-0.313
-681.251	-71.909	-0.440	-0.164
-680.237	10.927	-0.357	0.273
-679.222	306.158	-0.031	-0.058
-678.208	800.000	0.023	-0.091
-677.193	65.851	-0.126	-0.128
-676.178	-5.047	0.092	-0.063
-675.164	-71.509	0.066	0.025
-674.149	0.890	0.178	-0.127
-673.135	694.367	-0.068	-0.179
-672.120	-104.737	-0.073	0.017
-671.105	-61.316	-0.094	-0.039
-670.091	23.116	0.053	0.044
-669.076	-125.164	-0.249	0.038
-668.062	63.511	0.205	-0.205
-667.047	800.000	0.132	-0.381
-666.032	-104.727	-0.272	-0.063
-665.018	157.772	0.152	0.210
-664.003	-113.339	0.317	0.062
-662.989	800.000	-0.044	0.149
-661.974	-115.248	-0.350	-0.066
-660.959	172.344	0.242	-0.348
-659.945	-70.403	0.227	0.086
-658.930	-63.060	0.346	-0.143
-657.916	445.094	-0.017	-0.038
-656.901	299.627	0.258	0.476
-655.886	-71.066	-0.161	-0.061
-654.872	6.898	0.162	-0.120
-653.857	25.789	-0.062	0.052
-652.843	800.000	0.058	-0.225
-651.828	397.669	0.136	-0.285
-650.814	-6.507	0.206	0.140
-649.799	800.000	-0.106	0.367
-648.784	-31.725	-0.144	0.080
-647.770	-57.796	0.058	0.025
-646.755	183.079	0.199	0.294
-645.741	-132.416	-0.211	0.027
-644.726	800.000	-0.083	-0.245
-643.711	-200.000	0.004	-0.188
-642.697	-200.000	-0.032	0.168
-641.682	800.000	0.041	-0.121
-640.668	-189.116	0.127	-0.002
-639.653	800.000	-0.038	0.107
-638.638	33.227	-0.112	-0.097
-637.624	92.429	-0.263	0.296
-636.609	593.537	-0.112	0.276
-635.595	686.288	0.054	-0.140
-634.580	-35.117	-0.211	0.115
-633.565	220.233	0.030	0.047
-632.551	534.123	0.058	0.136
-631.536	-200.000	-0.038	0.241
-630.522	35.649	0.086	0.075
-629.507	-123.670	-0.247	-0.039
-628.492	12.930	-0.190	-0.147
-627.478	310.419	0.090	-0.168
-626.463	129.954	0.016	-0.020
-625.449	124.753	0.182	-0.228
-624.434	-79.420	-0.184	0.062
-623.419	-18.746	0.149	0.093
-622.405	800.000	0.113	-0.431
-621.390	-71.400	-0.135	-0.050
-620.376	-168.680	-0.336	0.013
-619.361	349.420	0.044	0.086
-618.346	-44.845	-0.332	-0.165
-617.332	404.094	0.084	0.176
-616.317	-180.454	-0.173	-0.004
-615.303	-100.159	0.216	-0.054
-614.288	102.645	-0.269	0.314
-613.273	-152.486	0.246	0.018
-612.259	800.000	0.036	-0.110
-611.244	800.000	-0.053	0.160
-610.230	-112.325	0.336	-0.067
-609.215	-200.000	-0.014	-0.359
-608.201	-104.314	-0.040	0.009
-607.186	451.609	0.123	-0.271
-606.171	800.000	-0.104	-0.311
-605.157	-142.117	-0.234	-0.023
-604.142	-200.000	-0.024	0.306
-603.128	-200.000	-0.044	0.227
-602.113	-173.838	0.140	0.004
-601.098	548.127	-0.056	-0.133
-600.084	-185.611	-0.303	0.005
-599.069	-157.974	-0.234	0.014
-598.055	-4.177	0.089	-0.061
-597.040	-62.868	-0.065	0.027
-596.025	-106.449	-0.346	-0.077
-595.011	-24.692	-0.236	0.140
-593.996	153.400	0.097	-0.132
-592.982	-200.000	0.000	-0.456
-591.967	67.843	0.087	-0.088
-590.952	52.788	0.074	0.070
-589.938	-81.828	0.343	-0.112
-588.923	-157.127	-0.178	0.011
-587.909	-200.000	-0.002	0.288
-586.894	-200.000	0.037	0.295
-585.879	-171.114	-0.287	-0.010
-584.865	-92.610	0.428	0.120
-583.850	154.373	-0.170	0.232
-582.836	-66.930	-0.109	-0.043
-581.821	-137.635	-0.394	-0.044
-580.806	-112.837	-0.192	-0.038
-579.792	800.000	-0.052	-0.182
-578.777	-184.679	-0.177	-0.003
-577.763	-200.000	0.009	-0.093
-576.748	-23.999	-0.149	0.089
-575.733	-68.255	0.123	-0.048
-574.719	-110.071	0.206	-0.043
-573.704	-161.116	0.390	0.020
-572.690	30.457	0.141	0.120
-571.675	-26.592	-0.092	0.054
-570.661	159.373	0.174	0.241
-569.646	22.327	0.361	-0.294
-568.631	31.517	-0.033	0.028
-567.617	-62.412	-0.175	-0.073
-566.602	57.367	0.190	-0.184
-565.588	-200.000	0.090	-0.416
-564.573	89.529	0.144	-0.160
-563.558	352.231	-0.074	-0.146
-562.544	-200.000	0.036	0.278
-561.529	-110.347	-0.138	-0.029
-560.515	800.000	-0.103	-0.321
-559.500	612.281	0.083	-0.207
-558.485	-31.943	-0.318	-0.178
-557.471	101.137	0.065	-0.075
-556.456	-200.000	-0.007	0.174
-555.442	-112.029	0.174	0.035
-554.427	800.000	-0.040	0.131
-553.412	-36.750	-0.262	0.140
-552.398	-200.000	-0.026	-0.194
-551.383	158.698	-0.122	-0.168
-550.369	800.000	-0.036	0.129
-549.354	303.178	-0.098	-0.181
-548.339	100.360	0.061	0.070
-547.325	-85.459	-0.394	-0.122
-546.310	157.442	0.165	0.228
-545.296	443.823	-0.204	-0.444
-544.281	226.098	-0.045	-0.073
-543.266	154.645	0.118	-0.161
-542.252	-49.068	-0.292	-0.139
-541.237	-80.399	-0.026	-0.008
-540.223	250.917	-0.071	0.121
-539.208	-50.789	0.086	0.040
-538.193	-200.000	-0.006	0.051
-537.179	36.969	-0.271	0.239
-536.164	53.412	-0.054	0.052
-535.150	-125.746	0.041	-0.006
-534.135	-83.937	-0.266	-0.084
-533.121	-200.000	-0.013	0.085
-532.106	210.214	0.053	0.083
-531.091	-136.141	-0.137	0.016
-530.077	-26.969	-0.319	-0.185
-529.062	700.963	0.047	0.122
-528.048	37.978	-0.059	-0.052
-527.033	41.002	0.321	-0.288
-526.018	-106.779	-0.333	-0.073
-525.004	508.567	-0.116	-0.268
-523.989	-43.460	0.147	0.074
-522.975	-15.704	-0.266	0.169
-521.960	-200.000	-0.031	-0.164
-520.945	129.257	0.299	-0.379
-519.931	454.345	-0.110	-0.241
-518.916	-79.191	-0.053	0.018
-517.902	-51.160	-0.398	0.186
-516.887	-135.578	-0.100	0.012
-515.872	93.222	-0.314	-0.353
-514.858	-43.235	-0.057	0.029
-513.843	75.029	-0.051	0.053
-512.829	-200.000	-0.004	-0.296
-511.814	-118.784	0.213	-0.037
-510.799	161.637	-0.139	-0.193
-509.785	57.898	0.088	-0.085
-508.770	-141.337	0.194	-0.020
-507.756	149.618	0.217	-0.292
-506.741	512.487	0.042	0.098
-505.726	128.257	0.191	0.242
-504.712	-78.944	-0.336	0.114
-503.697	-200.000	-0.029	0.367
-502.683	-117.907	-0.252	0.045
-501.668	169.850	0.138	0.195
-500.653	-62.948	-0.490	-0.201
-499.639	-46.737	-0.234	0.114
-498.624	541.639	-0.144	-0.341
-497.610	-200.000	0.001	-0.233
-496.595	123.265	-0.086	-0.107
-495.581	-124.697	-0.149	-0.023
-494.566	349.224	0.062	-0.122
-493.551	-168.179	0.100	0.004
-492.537	174.175	-0.098	-0.141
-491.522	76.520	-0.265	-0.279
-490.508	-133.547	-0.215	-0.027
-489.493	-200.000	0.023	0.151
-488.478	57.131	0.028	0.028
-487.464	-200.000	-0.004	-0.123
-486.449	304.245	0.151	-0.278
-485.435	-200.000	0.009	0.288
-484.420	-34.868	-0.229	0.124
-483.405	-87.469	0.120	-0.036
-482.391	355.473	0.223	0.441
-481.376	-75.547	-0.304	-0.107
-480.362	-200.000	-0.017	-0.080
-479.347	28.893	0.184	-0.155
-478.332	800.000	-0.065	0.223
-477.318	-42.440	-0.089	-0.045
-476.303	-200.000	-0.009	-0.106
-475.289	800.000	-0.102	-0.297
-474.274	-200.000	0.010	0.165
-473.259	21.124	-0.254	0.205
-472.245	92.073	-0.122	0.136
-471.230	17.528	-0.046	0.036
-470.216	546.835	0.082	0.195
-469.201	-200.000	-0.024	-0.168
-468.186	-78.276	-0.338	-0.115
-467.172	62.659	-0.123	-0.122
-466.157	-98.354	-0.213	-0.054
-465.143	366.297	-0.074	0.148
-464.128	-136.618	-0.329	-0.038
-463.113	800.000	-0.037	0.153
-462.099	800.000	0.009	-0.034
-461.084	393.599	-0.067	0.138
-460.070	371.078	0.094	-0.189
-459.055	149.866	-0.238	-0.321
-458.040	64.571	0.081	0.081
-457.026	800.000	-0.068	0.258
-456.011	86.228	0.090	-0.099
-454.997	-135.208	0.159	0.019
-453.982	-200.000	-0.005	-0.052
-452.968	56.720	0.343	-0.331
-451.953	-200.000	0.002	-0.462
-450.938	-200.000	0.039	-0.297
-449.924	1.796	0.069	0.049
-448.909	0.766	0.091	0.064
-447.895	24.199	0.131	-0.107
-446.880	230.820	0.106	-0.172
-445.865	-167.757	0.166	0.006
-444.851	-200.000	-0.004	0.121
-443.836	-172.410	0.150	0.005
-442.822	-143.639	-0.350	0.033
-441.807	72.521	-0.223	0.231
-440.792	361.977	-0.119	-0.238
-439.778	52.580	0.111	0.105
-438.763	800.000	-0.062	0.221
-437.749	220.759	0.062	0.098
-436.734	-69.982	-0.551	-0.208
-435.719	337.526	0.058	0.113
-434.705	223.141	-0.105	0.168
-433.690	800.000	0.067	0.188
-432.676	242.120	-0.038	0.063
-431.661	-200.000	0.362	-0.000
-430.646	687.339	-0.033	0.086
-429.632	65.079	0.052	-0.052
-428.617	-103.929	-0.032	0.007
-427.603	83.712	0.125	0.135
-426.588	305.819	0.089	0.164
-425.573	274.602	-0.113	0.199
-424.559	290.222	-0.034	-0.062
-423.544	-35.286	0.257	0.138
-422.530	800.000	-0.103	0.419
-421.515	94.705	0.089	0.101
-420.500	-47.810	-0.136	0.065
-419.486	800.000	-0.109	-0.351
-418.471	-109.092	0.282	-0.059
-417.457	8.862	-0.102	-0.076
-416.442	-108.449	0.531	-0.113
-415.428	294.968	-0.035	0.063
-414.413	384.675	0.060	0.123
-413.398	-200.000	-0.005	0.138
-412.384	-200.000	-0.014	0.087
-411.369	-200.000	-0.002	-0.116
-410.355	-52.617	-0.259	-0.118
-409.340	276.865	-0.086	-0.152
-408.325	800.000	0.025	-0.106
-407.311	29.300	0.085	0.071
-406.296	-151.639	0.236	-0.017
-405.282	-200.000	0.007	-0.446
-404.267	3.053	-0.117	-0.084
-403.252	303.198	0.103	-0.188
-402.238	-200.000	-0.047	-0.289
-401.223	-128.308	-0.316	0.045
-400.209	-107.183	0.097	0.021
-399.194	-73.490	0.228	0.082
-398.179	-90.837	-0.376	-0.107
-397.165	13.473	-0.213	0.164
-396.150	199.834	0.161	0.244
-395.136	-200.000	-0.003	0.053
-394.121	-200.000	-0.010	-0.119
-393.106	1.491	0.210	0.150
-392.092	44.174	-0.123	0.112
-391.077	-143.145	0.175	-0.017
-390.063	800.000	-0.059	-0.191
-389.048	-95.554	0.189	-0.050
-388.033	-200.000	-0.055	-0.319
-387.019	-200.000	0.014	0.108
-386.004	-200.000	0.045	-0.343
-384.990	800.000	0.028	0.085
-383.975	252.255	0.127	0.213
-382.960	-71.735	0.223	0.082
-381.946	-200.000	-0.028	0.299
-380.931	317.441	-0.061	-0.113
-379.917	8.595	0.177	-0.132
-378.902	800.000	0.079	-0.221
-377.888	18.232	-0.173	0.136
-376.873	-64.578	0.213	-0.085
-375.858	-34.915	0.263	0.142
-374.844	-60.510	0.209	0.088
-373.829	724.483	-0.091	-0.239
-372.815	-200.000	0.002	0.142
-371.800	-6.852	0.179	0.120
-370.785	-200.000	0.008	0.202
-369.771	317.375	-0.088	-0.164
-368.756	-200.000	0.030	0.185
-367.742	736.015	0.132	-0.350
-366.727	-200.000	-0.029	0.299
-365.712	800.000	0.022	-0.085
-364.698	246.151	-0.122	-0.203
-363.683	377.474	-0.065	-0.131
-362.669	161.108	0.164	-0.226
-361.654	480.137	0.085	-0.191
-360.639	191.712	-0.039	0.058
-359.625	-83.045	0.002	0.001
-358.610	37.922	0.238	0.209
-357.596	-200.000	0.005	-0.162
-356.581	-166.620	0.444	0.018
-355.566	6.647	-0.220	0.162
-354.552	84.730	0.174	0.188
-353.537	163.864	0.041	0.057
-352.523	64.755	-0.191	0.190
-351.508	257.483	-0.075	-0.127
-350.493	52.872	-0.102	-0.096
-349.479	349.374	-0.082	-0.159
-348.464	-39.714	0.251	0.130
-347.450	-54.897	-0.345	0.154
-346.435	-59.678	-0.250	-0.106
-345.420	-200.000	0.044	0.277
-344.406	800.000	-0.016	-0.053
-343.391	-200.000	0.075	-0.335
-342.377	-62.283	-0.031	-0.013
-341.362	-0.974	0.337	-0.236
-340.348	-200.000	-0.072	0.525
-339.333	-89.288	-0.188	-0.055
-338.318	800.000	0.042	-0.147
-337.304	-45.696	0.057	-0.028
-336.289	-93.337	0.302	0.083
-335.275	-15.809	0.153	0.096
-334.260	-72.442	0.342	-0.125
-333.245	35.389	0.300	0.260
-332.231	-200.000	0.014	-0.114
-331.216	-200.000	0.015	-0.299
-330.202	-143.926	-0.322	0.030
-329.187	267.786	0.303	-0.524
-328.172	-69.189	-0.431	-0.164
-327.158	229.072	-0.062	-0.100
-326.143	-60.421	0.125	-0.052
-325.129	-25.953	-0.309	-0.179
-324.114	357.445	-0.044	0.087
-323.099	126.912	-0.038	-0.048
-322.085	207.513	0.084	-0.129
-321.070	92.734	0.087	-0.097
-320.056	-174.117	-0.498	0.014
-319.041	-128.963	-0.190	-0.026
-318.026	13.132	0.155	-0.118
-317.012	-121.553	0.655	0.107
-315.997	128.415	-0.324	-0.407
-314.983	4.070	0.137	0.099
-313.968	794.571	0.063	0.171
-312.953	243.706	0.146	-0.241
-311.939	51.007	-0.195	0.182
-310.924	-175.880	-0.298	0.008
-309.910	24.998	0.283	0.231
-308.895	-120.599	0.214	-0.036
-307.880	167.570	-0.171	-0.240
-306.866	71.908	0.080	-0.082
-305.851	800.000	-0.083	-0.279
-304.837	111.981	-0.079	-0.095
-303.822	-200.000	-0.007	0.300
-302.807	18.882	0.230	-0.182
-301.793	-54.926	0.320	-0.142
-300.778	485.789	-0.112	0.251
-299.764	-200.000	-0.012	0.076
-298.749	21.195	-0.166	0.133
-297.735	31.845	-0.175	-0.149
-296.720	-42.730	0.057	-0.028
-295.705	60.686	0.170	-0.166
-294.691	-200.000	0.006	-0.043
-293.676	800.000	0.069	0.243
-292.662	243.940	0.166	-0.275
-291.647	50.386	-0.239	0.222
-290.632	193.490	0.120	0.179
-289.618	-11.979	-0.245	-0.158
-288.603	-49.296	-0.341	0.160
-287.589	-37.955	-0.241	0.126
-286.574	3.613	0.042	-0.030
-285.559	194.422	0.177	-0.264
-284.545	22.915	-0.114	-0.092
-283.530	130.145	-0.047	-0.059
-282.516	-53.869	-0.217	0.097
-281.501	28.641	-0.072	0.060
-280.486	165.094	0.119	0.165
-279.472	-133.020	0.148	0.019
-278.457	-52.429	0.189	-0.086
-277.443	-131.307	0.365	-0.048
-276.428	-200.000	0.022	0.381
-275.413	-107.572	0.354	0.076
-274.399	-200.000	0.007	-0.298
-273.384	-103.341	0.177	-0.041
-272.370	-114.864	-0.167	-0.031
-271.355	-121.695	-0.175	0.028
-270.340	78.659	0.016	0.017
-269.326	-171.354	-0.131	-0.004
-268.311	24.420	0.094	-0.077
-267.297	49.381	0.401	-0.371
-266.282	-39.741	0.146	-0.075
-265.267	44.574	0.154	0.140
-264.253	-15.641	0.183	0.115
-263.238	-65.371	-0.104	0.041
-262.224	-112.504	-0.161	0.032
-261.209	-200.000	-0.001	0.309
-260.195	-74.128	0.353	0.126
-259.180	64.604	-0.084	0.084
-258.165	-195.895	-0.045	-0.000
-257.151	318.967	0.134	-0.249
-256.136	800.000	-0.095	0.271
-255.122	41.571	0.050	0.045
-254.107	-200.000	-0.002	-0.010
-253.092	164.466	0.181	-0.251
-252.078	800.000	0.070	0.206
-251.063	117.105	0.101	-0.122
-250.049	-169.093	0.267	0.010
-249.034	-200.000	-0.003	-0.016
-248.019	-146.058	0.278	0.024
-247.005	301.238	0.176	0.319
-245.990	167.246	0.216	0.301
-244.976	-10.289	-0.069	-0.045
-243.961	691.471	0.054	0.139
-242.946	40.599	-0.251	0.222
-241.932	-94.205	0.192	0.052
-240.917	-7.681	0.155	0.103
-239.903	-200.000	-0.065	-0.309
-238.888	-56.262	0.154	0.067
-237.873	775.807	0.062	0.168
-236.859	-151.473	0.157	-0.011
-235.844	-69.999	-0.246	0.092
-234.830	12.410	0.210	0.159
-233.815	-1.611	-0.210	0.145
-232.800	-48.361	0.071	0.034
-231.786	-160.348	0.019	0.001
-230.771	-107.552	-0.269	-0.058
-229.757	-5.620	-0.014	0.010
-228.742	160.485	0.155	0.213
-227.727	59.809	0.172	0.167
-226.713	-137.350	0.280	0.031
-225.698	645.707	-0.057	-0.144
-224.684	-158.629	0.165	0.009
-223.669	-129.833	0.327	0.044
-222.655	488.612	0.091	-0.205
-221.640	17.624	-0.353	-0.276
-220.625	-57.584	0.335	0.144
-219.611	236.827	0.058	0.095
-218.596	-70.236	0.313	0.117
-217.582	-165.703	0.279	0.012
-216.567	501.091	0.080	0.181
-215.552	155.206	-0.195	-0.264
-214.538	-121.120	-0.119	-0.020
-213.523	-51.228	0.394	-0.181
-212.509	747.998	-0.044	0.117
-211.494	-162.568	-0.408	-0.020
-210.479	-200.000	0.059	0.281
-209.465	800.000	-0.068	0.282
-208.450	-60.929	0.132	0.055
-207.436	-109.788	-0.428	-0.088
-206.421	-20.541	0.114	0.069
-205.406	3.851	-0.136	0.098
-204.392	186.915	0.222	0.325
-203.377	-200.000	-0.041	0.260
-202.363	-179.044	-0.066	0.001
-201.348	-184.339	0.404	0.007
-200.333	-129.653	0.323	-0.044
-199.319	151.463	0.129	0.172
-198.304	161.764	-0.097	0.133
-197.290	199.775	-0.108	0.163
-196.275	-160.682	0.225	-0.012
-195.260	-184.633	-0.235	-0.004
-194.246	565.349	-0.074	0.177
-193.231	-93.471	-0.212	-0.058
-192.217	227.021	-0.036	-0.057
-191.202	-69.155	0.128	0.048
-190.187	-171.426	0.312	0.010
-189.173	800.000	-0.082	0.286
-188.158	102.638	0.034	-0.039
-187.144	-35.063	0.380	-0.203
-186.129	557.420	-0.095	-0.224
-185.114	285.532	-0.108	0.191
-184.100	-52.232	-0.195	-0.089
-183.085	800.000	0.065	0.267
-182.071	68.405	0.104	0.105
-181.056	-48.172	0.116	-0.055
-180.042	-30.736	-0.233	0.130
-179.027	111.108	0.266	0.314
-178.012	0.705	0.114	-0.080
-176.998	469.602	0.078	-0.173
-175.983	132.416	-0.175	0.221
-174.969	-106.018	0.038	0.008
-173.954	72.871	0.030	0.031
-172.939	401.437	0.150	0.310
-171.925	-200.000	0.007	0.107
-170.910	-97.871	-0.385	-0.097
-169.896	276.418	0.036	0.062
-168.881	-25.290	0.150	0.087
-167.866	-123.143	-0.446	0.070
-166.852	-83.244	0.359	-0.113
-165.837	204.719	0.112	-0.171
-164.823	215.127	0.108	-0.169
-163.808	220.532	-0.063	0.098
-162.793	295.641	-0.022	-0.040
-161.779	166.211	0.080	0.111
-160.764	-41.366	0.134	-0.068
-159.750	105.637	-0.087	-0.101
-158.735	-200.000	-0.111	0.496
-157.720	800.000	-0.148	0.622
-156.706	-77.390	0.121	0.041
-155.691	800.000	0.058	-0.226
-154.677	-42.380	0.339	0.170
-153.662	236.598	-0.185	-0.301
-152.647	32.415	0.199	0.169
-151.633	49.559	-0.319	0.295
-150.618	512.796	0.157	-0.359
-149.604	280.359	-0.193	-0.337
-148.589	-187.153	0.356	-0.005
-147.574	-67.663	-0.125	0.048
-146.560	350.467	0.055	-0.107
-145.545	800.000	-0.026	0.106
-144.531	88.779	0.104	0.113
-143.516	-200.000	-0.002	-0.079
-142.502	-91.072	0.204	-0.057
-141.487	-39.250	-0.202	0.104
-140.472	-26.292	0.354	0.204
-139.458	-117.321	0.226	0.040
-138.443	39.166	0.210	-0.184
-137.429	-200.000	-0.051	0.275
-136.414	-70.255	0.290	-0.108
-135.399	-93.207	0.191	0.052
-134.385	362.210	0.121	-0.237
-133.370	374.895	0.047	-0.094
-132.356	174.078	-0.040	0.057
-131.341	-48.513	0.217	-0.102
-130.326	-0.794	0.054	-0.038
-129.312	159.732	0.084	0.114
-128.297	305.702	0.056	-0.101
-127.283	-200.000	0.011	-0.460
-126.268	800.000	0.083	-0.321
-125.253	489.143	0.133	-0.299
-124.239	-78.351	0.405	0.136
-123.224	-174.789	0.171	0.005
-122.210	-200.000	-0.046	-0.209
-121.195	42.146	0.370	0.329
