DTS Sentinel unit serial number:	SN413079Multiplexer serial number:	ORYXHardware model number:	OX4-SRSoftware version number:	ORYX F/W v4.00 Oryx Data Collector v3.7.2.0data status	okinstallation	princeton_trtdifferential loss correction	single-endedforward channel	channel 3reverse channel	N/Adate	2019/09/10time	18:14:11forward acquisition time	60.00reverse acquisition time	0.00gamma	496.2192k internal	0.2303k external	0.2303temperature offset calibration	0.9908default loss term (dB/km)	0.3790temperature slope calibration	1.0000multiplexer offset coefficient	1.0000multiplexer slope coefficient	1.0000fibre end	0.00T internal ref (°C)	36.58T ext. ref 1 (°C)	-0.35T ext. ref 2 (°C)	28.72length (m)	temperature (°C)	Stokes	anti-Stokes-747.200	800.000	-0.094	-0.364
-746.185	40.374	0.105	0.096
-745.171	-194.254	0.241	0.002
-744.156	-17.132	-0.138	0.089
-743.142	723.685	-0.050	0.137
-742.127	83.865	-0.151	0.168
-741.112	-200.000	-0.096	-0.600
-740.098	-191.355	-0.395	0.004
-739.083	94.544	0.201	-0.232
-738.069	0.772	-0.160	-0.117
-737.054	-153.757	-0.135	-0.009
-736.039	-200.000	-0.059	0.294
-735.025	-137.195	0.062	0.007
-734.010	-200.000	0.024	-0.201
-732.996	-71.030	0.182	0.070
-731.981	56.921	-0.245	-0.243
-730.966	28.982	0.084	0.072
-729.952	-200.000	0.009	0.059
-728.937	-39.220	-0.080	0.043
-727.923	800.000	-0.056	-0.206
-726.908	-48.828	-0.222	-0.108
-725.894	800.000	-0.132	-0.423
-724.879	188.477	0.097	-0.148
-723.864	561.078	-0.164	-0.404
-722.850	800.000	0.061	0.258
-721.835	-65.559	-0.380	-0.155
-720.821	-36.334	-0.175	0.096
-719.806	-4.948	-0.285	0.200
-718.791	383.094	0.116	0.244
-717.777	-200.000	-0.021	-0.173
-716.762	-200.000	0.027	0.530
-715.748	51.868	0.023	-0.022
-714.733	4.302	0.143	-0.107
-713.718	800.000	-0.023	-0.069
-712.704	-6.165	-0.226	-0.157
-711.689	-200.000	-0.002	0.123
-710.675	-176.932	-0.107	-0.003
-709.660	-200.000	-0.058	-0.300
-708.645	-81.892	0.300	-0.100
-707.631	351.853	-0.135	0.271
-706.616	194.813	0.093	-0.143
-705.602	-136.410	0.369	0.044
-704.587	800.000	-0.029	-0.103
-703.572	-31.337	-0.050	0.028
-702.558	155.304	-0.130	0.183
-701.543	-56.991	-0.174	0.078
-700.529	22.682	0.148	0.123
-699.514	57.411	-0.215	-0.213
-698.499	-200.000	-0.024	0.107
-697.485	293.818	-0.105	-0.196
-696.470	271.675	0.108	-0.194
-695.456	-200.000	-0.011	0.251
-694.441	149.503	-0.093	-0.128
-693.426	-96.786	0.288	-0.077
-692.412	-9.765	-0.136	-0.092
-691.397	-200.000	-0.118	-0.000
-690.383	-51.361	0.294	-0.140
-689.368	-200.000	0.011	-0.095
-688.354	-103.947	-0.214	-0.051
-687.339	235.392	-0.137	0.230
-686.324	-54.187	0.130	0.060
-685.310	-97.753	-0.243	-0.064
-684.295	14.879	0.177	0.141
-683.281	730.296	0.081	-0.220
-682.266	197.655	-0.105	-0.163
-681.251	215.732	0.114	-0.185
-680.237	143.050	0.054	0.073
-679.222	-118.180	0.091	-0.017
-678.208	269.726	0.259	0.462
-677.193	-101.288	-0.216	0.053
-676.178	132.490	-0.196	-0.257
-675.164	90.395	-0.205	-0.233
-674.149	-0.827	-0.138	-0.100
-673.135	-45.529	0.189	0.095
-672.120	-44.155	-0.075	-0.038
-671.105	800.000	0.030	-0.113
-670.091	7.793	-0.281	0.214
-669.076	-200.000	-0.040	-0.341
-668.062	108.437	0.094	-0.114
-667.047	-106.619	0.161	0.036
-666.032	-199.550	-0.182	0.001
-665.018	374.597	-0.153	0.316
-664.003	5.372	0.167	0.125
-662.989	614.295	0.047	-0.119
-661.974	306.354	-0.110	0.208
-660.959	85.601	-0.262	0.292
-659.945	-93.565	-0.183	-0.051
-658.930	-80.147	0.120	0.041
-657.916	171.172	-0.033	-0.048
-656.901	-138.806	0.190	0.021
-655.886	-81.397	0.265	0.089
-654.872	8.978	-0.207	0.158
-653.857	-200.000	0.016	0.070
-652.843	467.920	0.147	-0.334
-651.828	25.165	0.139	0.117
-650.814	-200.000	0.003	-0.086
-649.799	800.000	-0.142	-0.401
-648.784	345.818	0.029	0.058
-647.770	-150.059	-0.086	-0.007
-646.755	173.783	-0.158	-0.232
-645.741	-147.919	0.461	-0.039
-644.726	-128.357	-0.473	-0.068
-643.711	36.977	-0.298	-0.267
-642.697	-200.000	-0.002	-0.047
-641.682	-59.871	-0.230	0.100
-640.668	1.647	-0.247	0.180
-639.653	-72.755	0.156	-0.058
-638.638	119.511	-0.163	-0.205
-637.624	110.576	0.114	0.139
-636.609	-134.516	0.300	0.037
-635.595	-200.000	0.005	0.152
-634.580	325.580	-0.084	-0.163
-633.565	201.234	0.127	-0.199
-632.551	-63.963	0.248	0.103
-631.536	-200.000	0.016	-0.316
-630.522	50.427	-0.097	0.093
-629.507	127.483	-0.073	-0.094
-628.492	-76.725	0.136	0.048
-627.478	-150.377	0.225	0.018
-626.463	23.004	-0.130	0.108
-625.449	-81.008	0.280	0.094
-624.434	-101.833	-0.243	-0.060
-623.419	-119.346	-0.105	-0.018
-622.405	-200.000	0.019	0.104
-621.390	-57.973	0.166	-0.074
-620.376	800.000	0.051	-0.160
-619.361	800.000	0.103	-0.354
-618.346	192.889	-0.140	-0.214
-617.332	-200.000	0.020	0.327
-616.317	-121.725	-0.291	-0.049
-615.303	-23.384	0.057	0.034
-614.288	-118.407	-0.143	-0.026
-613.273	384.952	0.094	-0.196
-612.259	13.848	-0.076	0.060
-611.244	-65.461	-0.193	-0.078
-610.230	201.470	0.064	-0.099
-609.215	-71.929	-0.173	0.065
-608.201	-41.357	-0.265	-0.138
-607.186	800.000	-0.057	0.191
-606.171	96.207	0.170	-0.197
-605.157	39.082	0.098	-0.089
-604.142	7.399	-0.329	-0.249
-603.128	-200.000	0.001	-0.099
-602.113	195.885	0.154	-0.238
-601.098	-59.681	0.144	-0.062
-600.084	-200.000	-0.052	-0.253
-599.069	-133.501	0.398	-0.051
-598.055	-135.956	0.223	0.027
-597.040	38.050	-0.152	-0.137
-596.025	-200.000	0.008	0.091
-595.011	-163.373	0.109	0.005
-593.996	103.699	0.090	0.107
-592.982	136.729	0.150	-0.198
-591.967	711.361	-0.098	0.263
-590.952	324.921	-0.082	-0.159
-589.938	800.000	-0.057	0.243
-588.923	4.247	-0.107	-0.079
-587.909	-45.791	-0.252	0.126
-586.894	8.654	0.075	-0.057
-585.879	257.245	0.166	-0.288
-584.865	-164.212	-0.247	-0.012
-583.850	-200.000	0.087	0.450
-582.836	800.000	0.073	0.275
-581.821	-72.442	0.109	-0.041
-580.806	15.227	-0.352	-0.279
-579.792	256.273	0.107	0.186
-578.777	-158.770	0.229	0.013
-577.763	-29.623	0.189	-0.109
-576.748	-200.000	0.049	0.238
-575.733	-200.000	0.024	-0.303
-574.719	-43.692	0.212	-0.108
-573.704	-200.000	0.014	-0.164
-572.690	-112.300	0.295	-0.060
-571.675	-200.000	0.066	0.447
-570.661	-94.962	0.143	-0.039
-569.646	110.980	-0.263	-0.321
-568.631	-33.566	0.217	-0.121
-567.617	272.481	-0.212	0.379
-566.602	-5.496	0.218	0.151
-565.588	-200.000	0.068	0.379
-564.573	133.494	0.061	-0.079
-563.558	-200.000	-0.011	-0.180
-562.544	757.620	0.095	-0.260
-561.529	-89.473	-0.286	-0.085
-560.515	-113.338	0.139	0.028
-559.500	-38.386	-0.112	-0.060
-558.485	122.838	-0.098	-0.124
-557.471	-91.733	0.177	-0.051
-556.456	-83.990	0.167	-0.054
-555.442	174.471	0.050	0.074
-554.427	-108.351	-0.023	0.005
-553.412	-106.191	-0.204	-0.046
-552.398	800.000	0.068	-0.275
-551.383	-37.523	0.179	-0.096
-550.369	140.408	-0.317	-0.423
-549.354	-51.494	0.403	-0.190
-548.339	800.000	0.081	0.317
-547.325	800.000	0.039	-0.172
-546.310	49.793	0.235	-0.224
-545.296	-18.785	0.094	-0.059
-544.281	106.676	-0.144	0.173
-543.266	59.526	-0.287	0.286
-542.252	-13.016	-0.194	-0.128
-541.237	148.271	-0.232	-0.317
-540.223	17.710	-0.181	0.145
-539.208	-85.194	-0.128	0.040
-538.193	-170.280	0.327	0.012
-537.179	-53.400	0.174	-0.081
-536.164	-200.000	-0.038	-0.215
-535.150	-118.678	-0.051	-0.009
-534.135	-27.984	-0.354	-0.207
-533.121	800.000	0.052	-0.199
-532.106	38.867	0.068	-0.062
-531.091	-200.000	-0.019	-0.134
-530.077	329.826	0.126	0.244
-529.062	4.101	0.158	0.117
-528.048	-101.660	0.187	0.046
-527.033	642.850	0.075	0.194
-526.018	800.000	0.073	0.279
-525.004	149.728	-0.228	-0.312
-523.989	139.718	-0.194	-0.258
-522.975	-78.945	0.197	0.068
-521.960	124.098	-0.053	-0.067
-520.945	211.398	0.176	0.280
-519.931	-114.579	-0.122	-0.024
-518.916	12.955	-0.057	0.044
-517.902	-200.000	0.006	0.134
-516.887	22.078	-0.059	0.049
-515.872	65.865	0.145	-0.148
-514.858	-150.479	0.114	0.009
-513.843	-200.000	0.027	-0.409
-512.829	800.000	-0.020	0.062
-511.814	-91.049	0.344	0.100
-510.799	-54.199	0.177	0.081
-509.785	-82.050	0.331	0.109
-508.770	-43.459	-0.171	0.087
-507.756	58.187	-0.050	-0.050
-506.741	394.971	-0.100	-0.211
-505.726	186.856	0.153	-0.231
-504.712	800.000	-0.048	0.211
-503.697	62.096	0.164	-0.165
-502.683	74.563	-0.250	-0.265
-501.668	-51.022	-0.211	0.100
-500.653	-156.027	0.138	0.009
-499.639	-173.902	-0.331	-0.010
-498.624	334.652	0.074	0.145
-497.610	-200.000	0.062	0.336
-496.595	-100.001	-0.059	0.015
-495.581	-27.861	-0.058	-0.034
-494.566	38.337	-0.066	-0.059
-493.551	-200.000	-0.025	0.168
-492.537	92.588	-0.091	-0.104
-491.522	-90.879	0.351	-0.102
-490.508	-200.000	0.058	-0.346
-489.493	3.544	-0.048	0.035
-488.478	70.072	0.259	0.269
-487.464	800.000	-0.039	0.115
-486.449	267.347	-0.073	0.128
-485.435	-89.787	-0.542	-0.160
-484.420	-36.961	-0.193	-0.104
-483.405	-96.099	-0.352	-0.094
-482.391	137.593	-0.242	-0.319
-481.376	-53.669	0.481	0.221
-480.362	-15.617	-0.137	-0.088
-479.347	-78.181	0.075	-0.026
-478.332	144.132	0.084	0.113
-477.318	-52.269	-0.188	-0.088
-476.303	800.000	0.056	-0.245
-475.289	3.487	-0.010	0.007
-474.274	800.000	-0.154	-0.508
-473.259	-139.333	-0.264	-0.029
-472.245	800.000	0.077	-0.245
-471.230	-173.477	0.086	-0.003
-470.216	8.471	0.171	0.130
-469.201	-163.506	0.275	-0.013
-468.186	-77.900	0.194	0.068
-467.172	70.300	0.112	-0.116
-466.157	57.569	0.298	-0.293
-465.143	73.601	-0.239	0.252
-464.128	-96.006	-0.150	-0.040
-463.113	-200.000	0.109	-0.611
-462.099	57.353	0.143	-0.140
-461.084	-12.865	-0.286	0.188
-460.070	112.723	0.142	-0.174
-459.055	343.242	-0.110	-0.218
-458.040	102.616	0.263	-0.310
-457.026	76.933	0.166	-0.178
-456.011	103.522	-0.087	0.103
-454.997	-40.717	-0.241	-0.126
-453.982	148.417	0.027	0.037
-452.968	-156.974	0.174	0.011
-451.953	-88.369	-0.244	-0.073
-450.938	114.549	-0.064	0.078
-449.924	-107.122	0.145	-0.032
-448.909	169.700	0.111	-0.160
-447.895	1.296	0.263	-0.190
-446.880	-200.000	-0.023	0.157
-445.865	190.896	0.126	-0.191
-444.851	-200.000	-0.023	-0.263
-443.836	-200.000	0.035	-0.353
-442.822	619.453	-0.101	0.256
-441.807	-200.000	-0.071	0.321
-440.792	-184.327	-0.498	0.008
-439.778	-119.011	0.136	0.024
-438.763	125.703	0.095	0.120
-437.749	662.114	-0.088	-0.228
-436.734	-82.662	0.142	0.046
-435.719	-76.693	-0.158	0.056
-434.705	261.792	0.069	-0.121
-433.690	117.547	0.118	-0.146
-432.676	-104.064	0.152	-0.036
-431.661	800.000	0.065	0.200
-430.646	800.000	0.003	-0.010
-429.632	800.000	0.074	0.294
-428.617	350.792	0.161	-0.320
-427.603	-152.522	-0.090	0.006
-426.588	368.948	0.060	-0.122
-425.573	-200.000	-0.018	0.110
-424.559	-142.655	-0.375	0.037
-423.544	-1.607	-0.141	-0.100
-422.530	96.601	-0.091	0.105
-421.515	2.304	-0.166	-0.121
-420.500	-18.477	-0.159	0.100
-419.486	45.950	-0.060	-0.056
-418.471	4.291	0.258	0.190
-417.457	232.429	-0.136	0.225
-416.442	528.774	-0.069	-0.164
-415.428	-200.000	-0.048	-0.292
-414.413	-73.663	-0.388	0.142
-413.398	54.126	0.257	0.248
-412.384	-44.562	-0.477	0.240
-411.369	-200.000	0.077	0.374
-410.355	-42.687	0.163	0.083
-409.340	800.000	-0.063	0.232
-408.325	59.631	0.285	0.283
-407.311	-51.817	0.138	-0.064
-406.296	-21.477	0.117	0.072
-405.282	59.635	0.085	-0.084
-404.267	8.409	-0.050	0.038
-403.252	-200.000	-0.013	0.142
-402.238	-157.882	0.300	0.018
-401.223	333.775	0.077	-0.151
-400.209	-109.717	0.060	-0.013
-399.194	-200.000	0.011	-0.053
-398.179	-58.143	-0.378	-0.165
-397.165	-200.000	0.039	0.343
-396.150	37.923	0.258	-0.231
-395.136	225.530	-0.086	-0.140
-394.121	746.838	-0.050	-0.136
-393.106	-86.912	0.217	0.067
-392.092	-15.967	0.042	0.027
-391.077	-143.180	-0.348	0.034
-390.063	104.278	-0.191	-0.226
-389.048	-12.821	-0.144	-0.094
-388.033	-93.789	-0.169	0.047
-387.019	-76.903	-0.307	0.108
-386.004	800.000	-0.072	-0.270
-384.990	-111.175	0.321	0.066
-383.975	800.000	-0.061	0.219
-382.960	-89.258	0.153	0.045
-381.946	66.255	0.111	0.113
-380.931	-200.000	0.031	0.321
-379.917	-77.589	-0.168	-0.058
-378.902	726.021	-0.038	0.103
-377.888	517.547	0.146	0.343
-376.873	-34.708	0.265	0.145
-375.858	-26.903	0.225	-0.132
-374.844	-109.720	0.113	-0.024
-373.829	229.738	0.013	0.022
-372.815	800.000	0.045	0.181
-371.800	-25.300	-0.176	0.105
-370.785	-102.970	-0.195	-0.046
-369.771	423.092	-0.040	-0.086
-368.756	800.000	0.058	-0.177
-367.742	58.099	-0.095	-0.093
-366.727	52.873	0.007	-0.007
-365.712	-124.100	-0.170	-0.027
-364.698	-200.000	0.004	-0.075
-363.683	4.158	0.140	0.103
-362.669	-57.153	0.128	0.057
-361.654	168.644	-0.188	0.269
-360.639	-135.338	0.051	0.006
-359.625	-38.227	-0.113	0.060
-358.610	67.345	0.077	0.079
-357.596	-57.783	0.337	0.148
-356.581	90.796	0.037	0.042
-355.566	112.958	0.014	-0.017
-354.552	-200.000	0.020	0.209
-353.537	38.693	0.217	-0.194
-352.523	-200.000	0.039	-0.286
-351.508	35.419	-0.187	0.164
-350.493	68.127	-0.165	-0.170
-349.479	-87.941	0.139	0.042
-348.464	0.139	-0.276	0.198
-347.450	-111.938	-0.239	0.048
-346.435	-200.000	0.059	-0.333
-345.420	-122.830	0.105	-0.017
-344.406	111.935	-0.128	-0.156
-343.391	800.000	-0.058	0.245
-342.377	37.509	0.112	-0.100
-341.362	-200.000	-0.034	-0.302
-340.348	102.782	0.094	0.111
-339.333	18.396	-0.091	-0.073
-338.318	329.682	-0.018	0.035
-337.304	-113.480	0.117	0.023
-336.289	184.685	0.162	0.240
-335.275	-56.184	-0.253	-0.113
-334.260	-33.288	0.139	-0.077
-333.245	382.372	-0.064	0.131
-332.231	192.473	0.111	0.168
-331.216	800.000	-0.090	-0.253
-330.202	800.000	-0.022	0.062
-329.187	205.434	0.090	-0.140
-328.172	-100.972	-0.188	0.046
-327.158	-97.518	-0.171	0.044
-326.143	-200.000	-0.015	0.132
-325.129	-10.857	-0.318	-0.211
-324.114	95.677	0.107	0.122
-323.099	220.648	0.207	-0.333
-322.085	-64.224	-0.529	0.216
-321.070	-136.221	-0.211	0.025
-320.056	341.012	0.059	-0.115
-319.041	150.733	-0.201	0.274
-318.026	-200.000	0.267	-0.001
-317.012	-65.332	0.442	-0.178
-315.997	-200.000	0.031	-0.338
-314.983	55.927	-0.145	0.141
-313.968	42.997	-0.143	-0.130
-312.953	-3.649	-0.186	0.130
-311.939	-86.092	0.304	0.094
-310.924	207.265	0.107	-0.167
-309.910	-200.000	0.010	-0.118
-308.895	261.903	0.198	0.344
-307.880	-192.261	-0.196	0.002
-306.866	800.000	0.059	0.255
-305.851	53.201	-0.268	0.257
-304.837	107.258	-0.099	0.118
-303.822	25.035	0.266	0.221
-302.807	327.947	-0.132	0.254
-301.793	374.559	-0.027	-0.055
-300.778	-200.000	0.014	0.174
-299.764	-200.000	-0.009	-0.153
-298.749	-30.477	0.173	0.098
-297.735	-144.910	0.467	-0.043
-296.720	287.503	-0.122	-0.220
-295.705	129.548	-0.044	0.056
-294.691	-64.207	0.101	0.041
-293.676	413.673	0.133	0.284
-292.662	-95.802	0.272	0.073
-291.647	45.169	0.204	0.188
-290.632	-11.077	-0.197	0.130
-289.618	-83.353	0.132	-0.042
-288.603	-54.942	0.271	0.122
-287.589	253.343	0.149	-0.254
-286.574	-20.408	0.075	0.046
-285.559	-45.202	-0.146	-0.073
-284.545	-89.857	0.131	0.038
-283.530	-44.434	-0.166	0.083
-282.516	-200.000	-0.073	0.349
-281.501	306.880	-0.059	0.110
-280.486	30.965	-0.024	-0.020
-279.472	17.932	0.069	0.055
-278.457	800.000	0.065	0.248
-277.443	800.000	-0.036	-0.116
-276.428	800.000	0.110	-0.460
-275.413	488.257	0.080	-0.184
-274.399	-40.261	-0.298	0.155
-273.384	225.691	0.078	0.126
-272.370	-200.000	0.012	0.167
-271.355	126.122	-0.180	0.227
-270.340	-200.000	-0.043	0.212
-269.326	182.365	-0.220	0.325
-268.311	93.337	0.168	-0.191
-267.297	-200.000	-0.029	-0.177
-266.282	23.115	-0.322	-0.264
-265.267	385.905	0.167	0.345
-264.253	737.486	-0.125	0.334
-263.238	-153.983	-0.040	-0.003
-262.224	144.054	-0.129	-0.172
-261.209	-121.648	0.198	0.033
-260.195	257.491	-0.220	0.378
-259.180	74.705	-0.063	0.066
-258.165	-200.000	0.057	0.326
-257.151	-4.042	0.179	0.124
-256.136	-14.315	-0.250	-0.161
-255.122	49.476	-0.105	0.099
-254.107	800.000	-0.043	0.132
-253.092	-200.000	-0.037	0.170
-252.078	-107.925	-0.101	0.022
-251.063	-200.000	-0.005	-0.187
-250.049	429.645	0.096	-0.208
-249.034	-136.845	0.162	0.019
-248.019	570.113	0.059	-0.143
-247.005	62.799	-0.020	0.020
-245.990	-200.000	0.051	0.278
-244.976	-95.611	0.173	-0.046
-243.961	-200.000	0.078	0.399
-242.946	-115.319	-0.135	-0.025
-241.932	-200.000	-0.036	0.382
-240.917	-145.412	-0.313	0.028
-239.903	570.115	0.151	-0.368
-238.888	122.104	-0.058	0.073
-237.873	800.000	0.044	0.135
-236.859	111.271	-0.167	0.201
-235.844	-93.531	0.161	-0.044
-234.830	-86.870	-0.205	0.062
-233.815	17.864	-0.325	0.258
-232.800	800.000	0.018	-0.065
-231.786	800.000	0.041	0.118
-230.771	-91.758	-0.305	-0.087
-229.757	74.733	0.161	-0.169
-228.742	-147.632	0.202	-0.017
-227.727	338.588	-0.034	-0.066
-226.713	98.685	-0.211	-0.243
-225.698	35.214	-0.194	0.170
-224.684	-39.534	-0.171	0.089
-223.669	111.391	-0.148	-0.178
-222.655	42.480	0.332	0.302
-221.640	-176.854	-0.173	-0.004
-220.625	-200.000	0.036	0.291
-219.611	-200.000	0.038	0.329
-218.596	378.861	-0.245	-0.500
-217.582	-12.517	-0.065	0.043
-216.567	-99.607	-0.115	0.029
-215.552	85.969	0.177	-0.195
-214.538	110.141	0.181	-0.217
-213.523	800.000	0.048	-0.206
-212.509	-39.607	0.209	-0.109
-211.494	-200.000	-0.015	-0.100
-210.479	9.857	-0.151	0.115
-209.465	30.457	-0.228	0.195
-208.450	124.056	-0.066	-0.083
-207.436	68.460	0.158	-0.161
-206.421	201.903	0.087	-0.133
-205.406	-112.187	0.125	-0.025
-204.392	-111.244	0.065	0.013
-203.377	-76.469	0.100	0.035
-202.363	-125.822	-0.186	0.028
-201.348	-200.000	-0.021	-0.234
-200.333	-200.000	-0.028	0.393
-199.319	-92.999	-0.178	-0.050
-198.304	-200.000	0.036	-0.181
-197.290	52.499	-0.095	0.090
-196.275	54.497	0.059	0.057
-195.260	294.606	0.132	0.241
-194.246	149.257	-0.147	0.198
-193.231	800.000	0.098	-0.328
-192.217	419.068	0.196	-0.417
-191.202	800.000	-0.079	0.245
-190.187	800.000	0.064	-0.199
-189.173	-126.683	0.198	0.029
-188.158	-200.000	0.000	-0.011
-187.144	585.570	0.099	-0.242
-186.129	314.357	0.133	0.250
-185.114	42.708	0.108	0.098
-184.100	-75.185	0.111	-0.040
-183.085	-82.227	-0.128	-0.041
-182.071	284.168	-0.140	0.252
-181.056	-117.990	0.040	0.007
-180.042	57.357	0.096	0.094
-179.027	-99.452	0.236	0.059
-178.012	172.346	-0.112	0.160
-176.998	-200.000	0.002	-0.047
-175.983	645.230	-0.149	0.379
-174.969	-61.984	-0.395	0.164
-173.954	30.070	0.053	0.045
-172.939	-200.000	-0.044	0.283
-171.925	-169.822	0.491	0.018
-170.910	286.027	0.093	-0.168
-169.896	-200.000	0.000	0.077
-168.881	-89.975	0.180	0.052
-167.866	-106.212	-0.207	-0.046
-166.852	686.229	-0.210	0.546
-165.837	-94.189	-0.103	0.028
-164.823	-119.532	-0.185	-0.032
-163.808	-4.542	0.180	-0.123
-162.793	28.812	0.210	-0.177
-161.779	-153.124	-0.214	0.015
-160.764	800.000	-0.036	-0.115
-159.750	42.623	0.125	0.113
-158.735	-41.127	-0.240	-0.123
-157.720	-200.000	0.018	-0.083
-156.706	-200.000	0.053	0.271
-155.691	-87.800	0.075	-0.023
-154.677	-1.787	0.346	0.242
-153.662	-63.841	0.208	-0.085
-152.647	134.529	-0.148	0.192
-151.633	-69.791	-0.208	-0.079
-150.618	238.932	0.264	-0.438
-149.604	-84.061	-0.136	-0.043
-148.589	56.584	-0.017	-0.017
-147.574	510.329	-0.123	-0.284
-146.560	800.000	0.074	-0.233
-145.545	105.878	0.122	-0.144
-144.531	-102.251	-0.214	0.051
-143.516	549.642	0.110	-0.263
-142.502	-118.186	0.267	0.047
-141.487	-6.710	-0.079	0.053
-140.472	-18.104	-0.164	0.102
-139.458	-200.000	0.024	-0.117
-138.443	800.000	-0.031	-0.105
-137.429	800.000	0.112	-0.327
-136.414	-31.984	0.235	0.131
-135.399	54.863	0.147	0.141
-134.385	-200.000	0.008	-0.135
-133.370	-200.000	-0.004	0.029
-132.356	-105.042	-0.110	0.025
-131.341	800.000	0.101	0.347
-130.326	115.223	-0.033	-0.041
-129.312	-200.000	-0.029	0.227
-128.297	718.506	-0.080	-0.210
-127.283	532.664	0.151	-0.354
-126.268	63.256	-0.123	0.123
-125.253	-200.000	0.022	-0.103
-124.239	-200.000	-0.044	0.377
-123.224	342.523	0.063	0.122
-122.210	-40.105	0.155	-0.080
-121.195	353.767	-0.090	-0.177
-120.180	-42.036	0.255	0.130
