DTS Sentinel unit serial number:	SN413079Multiplexer serial number:	ORYXHardware model number:	OX4-SRSoftware version number:	ORYX F/W v4.00 Oryx Data Collector v3.7.2.0data status	okinstallation	princeton_trtdifferential loss correction	single-endedforward channel	channel 3reverse channel	N/Adate	2019/09/14time	11:28:35forward acquisition time	60.00reverse acquisition time	0.00gamma	496.2192k internal	0.2298k external	0.2298temperature offset calibration	1.0067default loss term (dB/km)	0.3790temperature slope calibration	1.0000multiplexer offset coefficient	1.0000multiplexer slope coefficient	1.0000fibre end	0.00T internal ref (°C)	36.78T ext. ref 1 (°C)	4.55T ext. ref 2 (°C)	32.70length (m)	temperature (°C)	Stokes	anti-Stokes-747.200	-8.694	-0.171	-0.117
-746.185	-200.000	0.036	0.367
-745.171	-200.000	0.020	0.173
-744.156	193.264	0.180	0.277
-743.142	-95.596	-0.180	-0.049
-742.127	-34.945	0.031	0.017
-741.112	78.977	0.218	-0.238
-740.098	800.000	-0.090	-0.257
-739.083	800.000	0.058	-0.173
-738.069	-200.000	0.071	0.573
-737.054	-25.157	0.191	0.116
-736.039	6.653	0.284	-0.216
-735.025	-200.000	0.009	-0.239
-734.010	478.198	-0.130	0.301
-732.996	-100.927	-0.351	-0.088
-731.981	-66.744	0.208	0.084
-730.966	184.881	-0.098	0.148
-729.952	-200.000	-0.052	-0.352
-728.937	107.501	-0.270	-0.328
-727.923	477.015	0.101	-0.233
-726.908	-24.913	0.185	0.112
-725.894	800.000	0.071	-0.231
-724.879	-54.013	-0.058	-0.027
-723.864	139.640	0.030	-0.040
-722.850	2.837	0.113	-0.084
-721.835	167.394	0.134	0.194
-720.821	-114.383	0.072	0.014
-719.806	-55.407	-0.130	0.059
-718.791	-47.318	-0.276	-0.137
-717.777	-74.722	-0.220	-0.081
-716.762	157.363	0.114	0.161
-715.748	-200.000	-0.022	0.273
-714.733	-63.573	0.179	-0.075
-713.718	-200.000	0.015	-0.120
-712.704	-2.008	-0.310	-0.222
-711.689	-36.184	-0.178	0.098
-710.675	-4.609	-0.254	-0.179
-709.660	91.330	-0.098	0.112
-708.645	-170.949	0.095	-0.003
-707.631	-4.809	0.159	0.112
-706.616	-86.422	-0.364	-0.114
-705.602	-200.000	-0.030	0.157
-704.587	-157.307	-0.214	0.013
-703.572	-200.000	0.037	-0.221
-702.558	270.947	-0.095	-0.170
-701.543	596.337	0.047	-0.119
-700.529	-74.367	0.178	0.065
-699.514	23.971	0.096	-0.081
-698.499	800.000	-0.035	-0.125
-697.485	-7.717	0.177	0.122
-696.470	-88.829	-0.172	-0.052
-695.456	-84.151	0.368	0.119
-694.441	-200.000	-0.051	0.305
-693.426	111.253	-0.121	0.149
-692.412	800.000	-0.034	-0.144
-691.397	-188.203	0.306	0.004
-690.383	-0.137	0.099	0.072
-689.368	-200.000	-0.006	0.218
-688.354	-127.513	0.204	0.030
-687.339	800.000	0.028	0.123
-686.324	-200.000	-0.033	-0.329
-685.310	-116.705	-0.184	-0.035
-684.295	-200.000	-0.020	0.116
-683.281	-130.050	-0.170	-0.024
-682.266	-21.169	-0.228	-0.142
-681.251	-200.000	0.013	-0.102
-680.237	-52.323	0.074	0.035
-679.222	413.069	-0.081	0.175
-678.208	0.817	0.307	-0.224
-677.193	190.012	-0.228	-0.349
-676.178	-97.386	-0.122	-0.032
-675.164	-80.022	-0.436	0.149
-674.149	791.241	-0.071	0.199
-673.135	-120.801	-0.130	0.022
-672.120	-11.488	-0.235	-0.157
-671.105	347.412	-0.114	0.228
-670.091	117.568	-0.292	0.365
-669.076	-200.000	0.002	-0.218
-668.062	-200.000	0.064	0.482
-667.047	-26.945	-0.167	0.099
-666.032	-66.993	-0.392	-0.157
-665.018	-200.000	-0.009	0.189
-664.003	318.100	0.055	-0.106
-662.989	-156.959	0.076	0.005
-661.974	180.946	0.167	0.250
-660.959	800.000	-0.063	0.225
-659.945	-65.155	0.097	-0.040
-658.930	800.000	0.104	0.386
-657.916	-123.363	-0.119	-0.019
-656.901	-200.000	-0.013	0.430
-655.886	114.111	0.082	-0.102
-654.872	-155.703	0.218	0.014
-653.857	-200.000	-0.044	0.212
-652.843	800.000	0.095	0.356
-651.828	-57.481	-0.221	-0.099
-650.814	59.686	0.319	0.321
-649.799	-50.433	0.350	-0.168
-648.784	314.781	-0.099	-0.189
-647.770	-200.000	0.052	0.270
-646.755	-135.784	0.177	0.021
-645.741	-200.000	-0.013	0.186
-644.726	135.834	-0.131	0.174
-643.711	334.748	-0.088	0.174
-642.697	8.623	0.070	0.053
-641.682	-22.807	-0.376	0.231
-640.668	-140.226	0.032	-0.003
-639.653	-200.000	-0.006	-0.053
-638.638	-155.290	0.226	0.015
-637.624	-68.608	0.387	0.152
-636.609	-200.000	-0.009	0.345
-635.595	-200.000	0.000	0.079
-634.580	800.000	-0.039	-0.158
-633.565	122.233	0.049	-0.063
-632.551	-95.619	-0.163	0.044
-631.536	-49.597	0.292	0.141
-630.522	-12.649	-0.061	0.041
-629.507	26.568	-0.254	-0.216
-628.492	165.618	-0.048	-0.069
-627.478	45.188	-0.055	0.052
-626.463	-13.595	-0.139	0.091
-625.449	800.000	-0.111	0.315
-624.434	-9.050	0.137	-0.093
-623.419	301.710	-0.132	-0.248
-622.405	-127.299	-0.227	-0.034
-621.390	-200.000	0.034	0.211
-620.376	-7.479	0.194	-0.134
-619.361	119.558	0.024	0.030
-618.346	286.438	0.136	-0.250
-617.332	-200.000	0.056	-0.287
-616.317	-200.000	-0.004	0.156
-615.303	-200.000	-0.028	-0.305
-614.288	-200.000	-0.025	-0.186
-613.273	-200.000	0.020	-0.230
-612.259	215.158	0.172	-0.277
-611.244	24.900	-0.229	-0.193
-610.230	-200.000	-0.006	0.029
-609.215	95.378	-0.101	0.117
-608.201	249.309	-0.297	-0.511
-607.186	800.000	-0.093	-0.304
-606.171	-32.441	0.139	-0.079
-605.157	800.000	-0.034	0.112
-604.142	131.531	-0.196	0.256
-603.128	-165.153	0.346	0.016
-602.113	43.800	0.228	0.212
-601.098	205.780	-0.148	0.234
-600.084	-163.046	0.061	-0.003
-599.069	-200.000	0.050	-0.291
-598.055	-200.000	-0.057	0.335
-597.040	-200.000	-0.023	0.367
-596.025	459.351	-0.081	-0.183
-595.011	175.180	0.085	0.125
-593.996	-137.230	0.190	0.022
-592.982	189.321	-0.186	0.283
-591.967	-54.748	0.065	-0.030
-590.952	-182.919	0.145	0.003
-589.938	71.423	-0.153	-0.161
-588.923	144.455	0.056	-0.076
-587.909	-84.894	-0.287	0.091
-586.894	-51.228	0.157	0.075
-585.879	210.015	-0.083	0.133
-584.865	-89.239	-0.262	0.079
-583.850	-91.773	0.295	0.085
-582.836	366.656	0.059	-0.122
-581.821	800.000	0.069	-0.257
-580.806	13.534	0.034	0.026
-579.792	800.000	0.025	-0.086
-578.777	590.243	0.070	0.175
-577.763	-18.245	-0.093	-0.059
-576.748	-5.900	-0.326	-0.227
-575.733	30.823	-0.211	0.183
-574.719	-156.812	0.114	0.007
-573.704	-43.808	-0.217	0.111
-572.690	-132.034	-0.478	-0.063
-571.675	800.000	0.115	-0.360
-570.661	-70.069	-0.163	0.063
-569.646	-200.000	-0.040	-0.204
-568.631	-82.752	-0.125	-0.041
-567.617	-200.000	-0.020	-0.184
-566.602	-86.647	0.269	0.083
-565.588	374.650	0.080	0.166
-564.573	-42.098	-0.422	0.219
-563.558	370.573	0.252	0.517
-562.544	-28.588	-0.116	-0.068
-561.529	-30.311	0.233	0.134
-560.515	49.206	-0.178	0.170
-559.500	77.318	-0.224	-0.242
-558.485	297.036	-0.125	-0.232
-557.471	-200.000	-0.022	0.202
-556.456	800.000	0.049	0.200
-555.442	471.113	-0.068	0.155
-554.427	180.999	0.080	-0.119
-553.412	-200.000	0.028	0.313
-552.398	-57.919	-0.382	0.169
-551.383	144.079	-0.021	0.028
-550.369	-200.000	0.030	-0.288
-549.354	-128.245	0.246	0.036
-548.339	358.489	0.108	0.218
-547.325	-200.000	0.040	-0.185
-546.310	-110.498	-0.298	-0.063
-545.296	112.811	0.137	0.168
-544.281	457.435	-0.033	0.074
-543.266	225.798	-0.062	-0.101
-542.252	-40.410	-0.260	0.137
-541.237	88.452	-0.229	0.258
-540.223	-109.839	-0.130	0.028
-539.208	139.285	0.238	-0.318
-538.193	-200.000	0.000	0.120
-537.179	-200.000	0.014	0.263
-536.164	-37.720	-0.139	-0.075
-535.150	157.556	-0.073	0.102
-534.135	-166.356	0.069	0.003
-533.121	57.423	-0.189	-0.187
-532.106	151.991	0.053	-0.073
-531.091	37.652	0.050	-0.045
-530.077	622.066	-0.049	0.125
-529.062	-2.106	0.230	0.164
-528.048	-200.000	0.010	0.101
-527.033	92.887	-0.270	-0.309
-526.018	488.692	-0.083	0.191
-525.004	-143.062	0.207	-0.020
-523.989	470.529	0.121	0.275
-522.975	-58.879	0.254	-0.111
-521.960	294.486	-0.130	-0.241
-520.945	78.677	-0.049	0.053
-519.931	-200.000	0.003	-0.510
-518.916	-108.824	0.299	0.065
-517.902	196.034	0.123	-0.190
-516.887	-200.000	-0.063	-0.407
-515.872	245.689	0.087	0.148
-514.858	-87.191	0.199	0.061
-513.843	253.504	0.077	-0.132
-512.829	-88.245	0.222	0.067
-511.814	-3.922	0.291	-0.204
-510.799	800.000	0.023	-0.073
-509.785	-28.159	-0.138	0.080
-508.770	-130.689	0.298	-0.041
-507.756	-65.434	-0.163	0.066
-506.741	-170.132	0.061	0.002
-505.726	-74.441	-0.020	-0.007
-504.712	-126.735	0.253	-0.038
-503.697	-200.000	0.017	0.251
-502.683	-116.810	0.155	0.029
-501.668	800.000	0.064	0.232
-500.653	-67.070	0.126	0.050
-499.639	-3.880	0.129	-0.090
-498.624	-32.174	-0.298	-0.168
-497.610	-117.712	0.206	0.038
-496.595	-182.712	0.083	-0.002
-495.581	-88.408	-0.051	0.015
-494.566	-136.325	-0.138	-0.016
-493.551	-118.907	0.387	0.069
-492.537	-19.816	0.244	0.152
-491.522	-200.000	0.009	-0.109
-490.508	-56.768	-0.033	-0.015
-489.493	-108.988	0.339	0.073
-488.478	-200.000	0.030	0.284
-487.464	-173.291	-0.240	0.007
-486.449	-37.919	-0.012	0.006
-485.435	174.304	0.154	-0.225
-484.420	-200.000	0.020	-0.198
-483.405	147.180	0.065	-0.088
-482.391	-8.507	-0.141	-0.096
-481.376	-115.378	0.131	0.025
-480.362	6.586	-0.206	-0.155
-479.347	-200.000	0.025	-0.455
-478.332	-200.000	0.041	-0.243
-477.318	800.000	-0.052	0.211
-476.303	-0.598	0.130	-0.093
-475.289	-200.000	-0.037	-0.197
-474.274	74.464	-0.098	-0.104
-473.259	-200.000	0.001	-0.042
-472.245	-137.610	-0.397	-0.045
-471.230	800.000	0.095	0.336
-470.216	-200.000	0.095	-0.458
-469.201	116.785	0.384	-0.476
-468.186	-107.765	-0.219	-0.048
-467.172	-50.784	-0.403	-0.191
-466.157	-200.000	0.014	0.082
-465.143	98.940	-0.281	0.328
-464.128	2.820	-0.429	-0.314
-463.113	42.875	-0.178	0.164
-462.099	800.000	0.061	0.206
-461.084	27.396	-0.112	-0.095
-460.070	-200.000	0.029	0.650
-459.055	208.642	0.158	-0.250
-458.040	784.659	-0.014	-0.038
-457.026	-200.000	-0.009	-0.089
-456.011	-43.612	0.144	-0.073
-454.997	-137.468	-0.033	-0.004
-453.982	303.528	-0.070	0.131
-452.968	198.784	-0.131	-0.203
-451.953	-17.939	0.100	0.063
-450.938	-21.746	-0.344	-0.211
-449.924	-115.589	-0.169	-0.032
-448.909	-200.000	-0.009	0.087
-447.895	800.000	-0.053	-0.148
-446.880	192.430	0.084	-0.128
-445.865	-69.214	-0.410	-0.159
-444.851	-126.661	-0.039	0.006
-443.836	-19.414	-0.337	-0.211
-442.822	773.517	-0.123	0.340
-441.807	-41.859	0.089	0.046
-440.792	29.022	0.109	0.093
-439.778	-8.358	0.259	-0.175
-438.763	-100.865	-0.260	0.065
-437.749	17.926	0.270	-0.217
-436.734	-77.129	0.341	-0.120
-435.719	-200.000	-0.054	-0.508
-434.705	-157.165	-0.224	-0.014
-433.690	241.642	0.109	0.183
-432.676	-80.344	0.208	0.070
-431.661	4.587	0.240	0.177
-430.646	-72.521	0.146	-0.055
-429.632	239.984	0.134	-0.225
-428.617	246.376	0.122	-0.208
-427.603	-192.767	-0.069	-0.001
-426.588	-200.000	0.008	-0.056
-425.573	800.000	-0.034	0.099
-424.559	-44.358	-0.150	0.076
-423.544	-177.808	0.200	0.005
-422.530	-15.038	0.141	-0.091
-421.515	-136.379	-0.150	0.018
-420.500	-73.741	-0.113	-0.041
-419.486	286.437	-0.044	-0.080
-418.471	-120.102	-0.059	0.010
-417.457	353.587	0.046	0.093
-416.442	-69.349	-0.131	-0.051
-415.428	-200.000	0.002	0.179
-414.413	-88.682	-0.099	0.030
-413.398	63.907	0.345	-0.350
-412.384	-111.903	-0.369	0.075
-411.369	22.637	-0.073	0.060
-410.355	-200.000	-0.032	0.164
-409.340	-80.609	-0.198	0.066
-408.325	447.663	0.012	0.028
-407.311	-159.897	-0.045	0.002
-406.296	-1.907	0.277	0.196
-405.282	800.000	-0.017	-0.062
-404.267	337.703	-0.219	0.428
-403.252	-48.966	-0.273	0.132
-402.238	288.966	0.042	0.077
-401.223	101.823	0.153	-0.180
-400.209	-200.000	-0.088	-0.557
-399.194	-88.289	-0.355	0.107
-398.179	306.950	-0.099	-0.185
-397.165	152.531	0.058	0.079
-396.150	104.890	-0.169	0.201
-395.136	59.980	0.149	0.148
-394.121	800.000	0.101	0.362
-393.106	-105.634	0.048	-0.011
-392.092	-42.762	-0.162	0.083
-391.077	8.881	-0.123	0.094
-390.063	16.706	-0.231	0.184
-389.048	-98.853	-0.284	-0.073
-388.033	239.167	-0.177	-0.297
-387.019	9.583	-0.082	-0.063
-386.004	-200.000	0.023	-0.264
-384.990	-39.582	-0.332	-0.175
-383.975	800.000	-0.106	0.309
-382.960	173.001	-0.245	0.356
-381.946	-86.749	-0.192	-0.059
-380.931	784.308	0.080	-0.220
-379.917	213.174	-0.129	-0.205
-378.902	-27.864	0.438	0.256
-377.888	-130.089	0.066	-0.009
-376.873	178.933	-0.074	0.110
-375.858	-151.212	0.032	-0.002
-374.844	800.000	0.047	0.181
-373.829	-50.519	0.177	0.084
-372.815	127.318	-0.042	-0.053
-371.800	96.613	0.047	-0.055
-370.785	158.016	-0.252	-0.351
-369.771	87.550	0.177	0.197
-368.756	357.781	0.075	-0.150
-367.742	197.662	0.118	-0.182
-366.727	-41.777	0.255	0.132
-365.712	-118.116	-0.062	0.011
-364.698	800.000	0.153	0.484
-363.683	-33.432	-0.139	0.077
-362.669	19.095	0.060	0.048
-361.654	-139.627	0.346	0.037
-360.639	800.000	-0.110	-0.350
-359.625	30.720	-0.205	-0.176
-358.610	290.589	-0.133	0.244
-357.596	-77.596	0.455	0.158
-356.581	144.732	-0.342	-0.460
-355.566	-65.895	-0.220	0.089
-354.552	231.553	0.199	0.328
-353.537	800.000	0.131	0.410
-352.523	439.152	0.105	0.231
-351.508	156.677	0.083	0.116
-350.493	19.750	0.118	-0.096
-349.479	-98.882	0.327	-0.084
-348.464	-115.094	-0.382	0.073
-347.450	-148.944	-0.144	0.012
-346.435	-137.342	0.060	0.007
-345.420	-171.337	0.103	-0.003
-344.406	-51.983	-0.154	0.072
-343.391	6.784	-0.205	0.153
-342.377	800.000	-0.075	-0.318
-341.362	-120.276	0.464	0.080
-340.348	394.718	-0.052	0.108
-339.333	-200.000	0.028	-0.169
-338.318	474.393	0.012	0.028
-337.304	745.436	-0.036	-0.096
-336.289	110.333	0.056	-0.067
-335.275	-75.872	-0.189	0.067
-334.260	198.727	0.118	-0.181
-333.245	-11.660	0.206	-0.136
-332.231	-133.518	-0.210	-0.026
-331.216	-173.598	0.433	0.013
-330.202	-200.000	0.002	-0.213
-329.187	800.000	0.080	0.310
-328.172	-200.000	0.012	0.326
-327.158	210.991	-0.047	0.073
-326.143	-124.328	-0.149	0.023
-325.129	166.153	0.158	-0.225
-324.114	36.781	-0.075	-0.067
-323.099	249.363	0.059	0.100
-322.085	800.000	0.031	-0.098
-321.070	166.006	0.064	0.091
-320.056	73.761	0.037	0.039
-319.041	-12.263	0.124	-0.081
-318.026	279.282	0.084	-0.150
-317.012	240.364	0.051	0.085
-315.997	222.589	-0.117	-0.190
-314.983	109.911	0.178	-0.214
-313.968	-19.880	0.182	0.113
-312.953	130.078	-0.139	-0.178
-311.939	64.333	0.197	-0.199
-310.924	66.335	0.150	0.153
-309.910	520.013	-0.027	-0.063
-308.895	467.315	0.148	0.334
-307.880	323.497	0.082	-0.157
-306.866	800.000	0.092	-0.362
-305.851	-200.000	0.023	-0.273
-304.837	591.893	-0.087	-0.215
-303.822	-200.000	-0.017	0.151
-302.807	-80.989	0.108	-0.036
-301.793	-80.496	0.208	0.070
-300.778	96.034	-0.136	0.156
-299.764	208.002	-0.270	-0.423
-298.749	-200.000	0.011	0.058
-297.735	800.000	-0.064	0.207
-296.720	25.128	0.063	-0.052
-295.705	-43.367	-0.165	0.084
-294.691	-91.707	0.277	0.079
-293.676	-137.548	0.252	0.028
-292.662	246.237	-0.034	-0.057
-291.647	155.245	-0.114	0.157
-290.632	800.000	-0.057	0.188
-289.618	-167.916	0.299	-0.012
-288.603	149.366	0.110	-0.150
-287.589	-200.000	-0.014	0.165
-286.574	-7.305	0.186	0.127
-285.559	-85.852	0.244	0.076
-284.545	11.659	0.125	-0.096
-283.530	-46.900	-0.113	0.055
-282.516	-104.898	0.246	0.057
-281.501	-95.601	0.177	-0.048
-280.486	502.762	-0.041	-0.096
-279.472	-80.361	-0.265	-0.089
-278.457	40.793	-0.203	-0.184
-277.443	183.177	-0.203	0.301
-276.428	-200.000	0.010	0.295
-275.413	136.753	0.111	0.146
-274.399	-47.004	-0.175	0.086
-273.384	-102.391	-0.109	0.026
-272.370	108.201	-0.168	-0.201
-271.355	-73.417	0.291	-0.107
-270.340	-27.526	-0.097	0.056
-269.326	800.000	-0.049	0.156
-268.311	-200.000	-0.000	-0.049
-267.297	800.000	0.036	-0.127
-266.282	28.201	-0.221	-0.187
-265.267	-200.000	0.014	0.323
-264.253	-46.685	-0.095	-0.047
-263.238	-200.000	0.006	-0.293
-262.224	172.156	-0.020	0.029
-261.209	266.862	0.090	-0.157
-260.195	232.794	-0.130	-0.215
-259.180	800.000	0.014	-0.058
-258.165	-90.720	0.125	-0.036
-257.151	-200.000	-0.006	0.229
-256.136	275.592	-0.105	0.187
-255.122	-200.000	0.012	0.107
-254.107	-31.745	0.218	-0.123
-253.092	-42.235	-0.166	-0.085
-252.078	-115.066	-0.074	0.014
-251.063	25.828	0.054	0.045
-250.049	-2.337	0.269	-0.189
-249.034	-200.000	-0.041	-0.269
-248.019	118.888	0.154	-0.190
-247.005	-200.000	0.011	0.195
-245.990	161.065	-0.047	0.066
-244.976	-148.643	-0.410	-0.033
-243.961	-82.099	-0.173	0.056
-242.946	315.359	0.168	0.317
-241.932	-30.234	0.063	0.036
-240.917	-58.096	-0.229	-0.100
-239.903	124.151	0.431	-0.543
-238.888	-200.000	0.003	0.020
-237.873	338.565	-0.095	0.186
-236.859	14.539	0.207	0.162
-235.844	-200.000	0.025	-0.127
-234.830	200.604	-0.195	-0.300
-233.815	-147.605	-0.288	-0.024
-232.800	-200.000	0.051	0.362
-231.786	-105.080	-0.189	0.043
-230.771	-146.427	-0.225	-0.020
-229.757	139.642	0.111	0.147
-228.742	800.000	-0.132	0.401
-227.727	-200.000	-0.008	-0.037
-226.713	-24.310	-0.164	0.098
-225.698	-35.200	-0.161	0.088
-224.684	-139.117	0.342	0.037
-223.669	800.000	0.057	0.176
-222.655	730.692	-0.099	0.265
-221.640	-21.957	-0.069	-0.042
-220.625	322.252	0.054	0.103
-219.611	-200.000	0.041	0.277
-218.596	56.648	-0.229	-0.223
-217.582	64.645	-0.213	0.215
-216.567	292.218	-0.053	0.097
-215.552	433.531	0.051	0.112
-214.538	-200.000	-0.015	-0.092
-213.523	-200.000	-0.018	0.085
-212.509	4.955	0.106	-0.078
-211.494	161.198	-0.050	-0.070
-210.479	265.030	-0.172	0.300
-209.465	554.770	0.039	0.094
-208.450	-53.237	0.397	-0.182
-207.436	72.227	-0.255	-0.266
-206.421	19.285	0.167	0.134
-205.406	431.624	0.238	-0.516
-204.392	89.459	-0.276	-0.307
-203.377	800.000	-0.052	-0.175
-202.363	244.655	0.096	-0.161
-201.348	-200.000	0.018	0.120
-200.333	800.000	0.052	0.162
-199.319	-3.742	0.167	0.116
-198.304	800.000	0.024	0.075
-197.290	117.125	0.005	0.006
-196.275	-200.000	-0.069	0.395
-195.260	-78.904	-0.297	0.101
-194.246	116.600	-0.140	-0.172
-193.231	-89.975	0.432	-0.126
-192.217	324.709	0.122	0.233
-191.202	-200.000	-0.099	0.482
-190.187	108.814	-0.186	0.222
-189.173	-68.815	0.030	-0.012
-188.158	305.063	0.133	-0.247
-187.144	-177.981	0.145	-0.003
-186.129	-200.000	0.066	-0.324
-185.114	113.988	-0.230	-0.279
-184.100	-200.000	0.001	-0.285
-183.085	12.198	-0.178	0.137
-182.071	-65.405	0.040	0.016
-181.056	-14.945	0.208	0.133
-180.042	800.000	0.116	0.342
-179.027	800.000	-0.064	0.210
-178.012	22.158	0.173	0.141
-176.998	-111.444	0.075	-0.015
-175.983	-136.714	-0.294	0.034
-174.969	-200.000	-0.051	0.245
-173.954	800.000	-0.056	0.192
-172.939	-200.000	0.049	-0.217
-171.925	-102.432	0.085	0.020
-170.910	-54.327	-0.194	0.088
-169.896	202.555	-0.191	0.294
-168.881	692.960	0.109	0.285
-167.866	-112.104	0.182	0.036
-166.852	237.647	0.106	0.175
-165.837	-65.139	0.199	0.080
-164.823	-200.000	0.041	-0.423
-163.808	-20.433	0.085	0.052
-162.793	800.000	-0.066	0.250
-161.779	-105.205	-0.345	-0.079
-160.764	800.000	0.140	-0.421
-159.750	41.918	0.256	-0.232
-158.735	-48.131	0.129	-0.062
-157.720	-89.396	-0.062	0.018
-156.706	-200.000	-0.035	-0.358
-155.691	-27.017	0.185	-0.108
-154.677	800.000	0.137	-0.380
-153.662	-200.000	0.004	0.283
-152.647	-30.016	0.235	-0.133
-151.633	800.000	0.062	-0.258
-150.618	207.603	0.180	0.280
-149.604	283.569	-0.183	0.327
-148.589	541.335	0.122	-0.289
-147.574	-129.521	-0.135	0.019
-146.560	-82.570	-0.451	-0.146
-145.545	30.924	0.067	-0.057
-144.531	-37.939	0.131	-0.069
-143.516	-200.000	0.018	0.194
-142.502	-56.919	-0.382	0.168
-141.487	800.000	-0.061	-0.236
-140.472	-80.114	-0.141	-0.047
-139.458	-68.404	-0.215	0.083
-138.443	176.956	-0.068	0.099
-137.429	-114.365	0.129	-0.025
-136.414	-122.288	0.152	-0.025
-135.399	800.000	-0.060	0.168
-134.385	14.271	0.155	0.121
-133.370	395.202	0.168	0.349
-132.356	363.766	-0.115	0.231
-131.341	295.602	-0.077	0.140
-130.326	-68.472	-0.210	-0.081
-129.312	116.967	0.082	-0.100
-128.297	-81.259	-0.159	0.052
-127.283	-6.968	-0.131	-0.088
-126.268	36.550	0.051	0.045
-125.253	-150.653	-0.231	-0.018
-124.239	708.263	0.046	0.121
-123.224	-200.000	0.001	0.163
-122.210	-91.229	-0.099	0.028
-121.195	777.294	0.062	-0.168
