DTS Sentinel unit serial number:	SN413079Multiplexer serial number:	ORYXHardware model number:	OX4-SRSoftware version number:	ORYX F/W v4.00 Oryx Data Collector v3.7.2.0data status	okinstallation	princeton_trtdifferential loss correction	single-endedforward channel	channel 3reverse channel	N/Adate	2019/09/13time	20:32:35forward acquisition time	60.00reverse acquisition time	0.00gamma	496.2192k internal	0.2331k external	0.2331temperature offset calibration	1.0070default loss term (dB/km)	0.3790temperature slope calibration	1.0000multiplexer offset coefficient	1.0000multiplexer slope coefficient	1.0000fibre end	0.00T internal ref (°C)	29.06T ext. ref 1 (°C)	3.33T ext. ref 2 (°C)	23.49length (m)	temperature (°C)	Stokes	anti-Stokes-747.200	-200.000	-0.023	-0.105
-746.185	-200.000	-0.078	0.387
-745.171	-57.657	-0.241	-0.106
-744.156	377.005	0.114	0.235
-743.142	-200.000	0.012	-0.382
-742.127	-49.574	-0.269	0.129
-741.112	45.678	-0.097	-0.090
-740.098	-200.000	-0.041	0.381
-739.083	258.215	0.201	0.349
-738.069	-63.114	-0.140	0.058
-737.054	520.772	0.042	-0.099
-736.039	-39.623	-0.247	0.130
-735.025	-18.147	0.338	0.213
-734.010	-200.000	-0.013	-0.073
-732.996	101.858	0.169	-0.198
-731.981	19.390	-0.214	0.173
-730.966	-82.390	-0.254	0.083
-729.952	-23.923	0.138	0.083
-728.937	-200.000	-0.056	0.469
-727.923	32.850	0.162	0.141
-726.908	-136.093	-0.244	0.029
-725.894	800.000	0.052	-0.221
-724.879	393.008	-0.076	-0.159
-723.864	800.000	-0.094	-0.296
-722.850	-130.536	0.175	-0.024
-721.835	-128.243	-0.057	-0.008
-720.821	-157.521	0.047	0.003
-719.806	800.000	0.081	-0.309
-718.791	800.000	-0.109	-0.313
-717.777	-136.537	-0.340	-0.040
-716.762	800.000	-0.024	0.072
-715.748	-2.078	0.406	0.286
-714.733	78.261	-0.316	-0.339
-713.718	-186.190	-0.380	0.006
-712.704	-85.019	0.222	-0.070
-711.689	-144.161	-0.189	0.018
-710.675	142.520	-0.284	-0.379
-709.660	56.272	-0.214	-0.209
-708.645	356.391	0.044	-0.089
-707.631	-183.886	0.302	0.005
-706.616	119.434	-0.203	-0.253
-705.602	-49.484	0.068	0.033
-704.587	210.024	-0.124	-0.196
-703.572	0.716	-0.078	0.056
-702.558	-64.067	0.373	0.153
-701.543	-200.000	-0.030	0.197
-700.529	51.031	0.145	0.138
-699.514	-70.484	-0.191	-0.073
-698.499	142.952	-0.125	0.167
-697.485	696.036	-0.144	0.381
-696.470	541.985	-0.123	0.294
-695.456	43.750	-0.177	0.163
-694.441	52.242	0.258	0.247
-693.426	-57.731	0.062	0.027
-692.412	-200.000	0.021	-0.107
-691.397	-75.831	-0.140	-0.050
-690.383	-80.894	-0.157	0.052
-689.368	-200.000	0.018	-0.114
-688.354	-89.882	0.352	-0.103
-687.339	-171.465	-0.242	-0.008
-686.324	234.159	-0.199	-0.329
-685.310	178.692	0.195	-0.285
-684.295	-12.058	-0.211	-0.139
-683.281	800.000	-0.041	0.119
-682.266	611.620	0.018	-0.046
-681.251	470.295	-0.117	0.264
-680.237	-3.647	-0.175	-0.122
-679.222	800.000	-0.022	-0.081
-678.208	-200.000	0.033	-0.286
-677.193	-44.442	-0.043	-0.022
-676.178	114.049	-0.093	0.114
-675.164	-121.580	0.085	-0.014
-674.149	-137.054	0.110	0.013
-673.135	612.844	-0.026	-0.064
-672.120	279.631	-0.157	-0.281
-671.105	619.221	0.117	-0.295
-670.091	-69.798	0.307	0.118
-669.076	-170.337	0.069	-0.002
-668.062	508.762	-0.081	0.189
-667.047	-200.000	-0.029	-0.290
-666.032	800.000	0.019	0.070
-665.018	-133.858	0.105	-0.013
-664.003	714.703	-0.074	-0.196
-662.989	800.000	-0.015	-0.065
-661.974	-200.000	0.033	0.184
-660.959	-62.522	-0.140	0.058
-659.945	-85.117	0.079	0.025
-658.930	385.423	0.168	-0.347
-657.916	182.605	0.189	0.279
-656.901	-101.029	-0.530	-0.130
-655.886	545.304	-0.103	0.247
-654.872	23.728	0.142	-0.118
-653.857	-200.000	0.014	-0.080
-652.843	800.000	-0.074	0.222
-651.828	15.491	-0.238	0.187
-650.814	-22.888	0.242	-0.147
-649.799	53.792	-0.139	-0.134
-648.784	349.403	-0.071	0.140
-647.770	10.546	-0.092	-0.070
-646.755	151.158	-0.100	-0.136
-645.741	247.867	-0.288	-0.488
-644.726	190.908	0.199	-0.301
-643.711	-117.070	-0.325	0.059
-642.697	-178.757	-0.308	0.007
-641.682	800.000	0.111	0.415
-640.668	-200.000	-0.007	0.093
-639.653	-200.000	-0.033	0.199
-638.638	136.405	-0.074	-0.097
-637.624	144.051	0.264	-0.353
-636.609	-10.480	0.168	0.111
-635.595	-200.000	0.027	-0.127
-634.580	-3.127	0.114	-0.080
-633.565	160.152	-0.095	-0.132
-632.551	392.125	0.041	0.085
-631.536	-30.555	0.229	-0.130
-630.522	-37.007	0.134	-0.072
-629.507	-57.672	0.241	0.106
-628.492	-174.697	0.400	-0.011
-627.478	5.226	0.060	0.045
-626.463	-200.000	-0.002	-0.182
-625.449	-164.643	-0.048	-0.002
-624.434	469.040	0.103	0.232
-623.419	-200.000	-0.022	0.211
-622.405	-200.000	-0.022	-0.241
-621.390	6.362	-0.158	0.117
-620.376	-101.552	0.219	-0.053
-619.361	63.061	0.209	-0.210
-618.346	-146.471	0.370	0.032
-617.332	6.327	-0.079	0.059
-616.317	-32.581	0.059	0.033
-615.303	-200.000	0.023	0.165
-614.288	144.115	0.077	-0.103
-613.273	-1.551	-0.084	0.060
-612.259	800.000	0.073	-0.266
-611.244	-96.380	0.193	0.051
-610.230	-200.000	0.000	0.080
-609.215	-102.755	-0.069	0.017
-608.201	-159.564	0.092	0.005
-607.186	800.000	0.050	-0.169
-606.171	409.909	-0.107	0.227
-605.157	62.974	0.232	-0.233
-604.142	246.936	-0.202	-0.341
-603.128	-200.000	0.043	-0.236
-602.113	-80.263	-0.099	-0.033
-601.098	-200.000	-0.002	0.128
-600.084	-200.000	0.007	0.205
-599.069	-200.000	0.044	0.216
-598.055	562.986	0.015	-0.037
-597.040	4.584	-0.345	0.253
-596.025	-63.528	0.475	-0.195
-595.011	-200.000	-0.008	-0.052
-593.996	-200.000	-0.007	0.248
-592.982	284.298	0.054	0.097
-591.967	-80.937	-0.120	-0.040
-590.952	-69.896	-0.075	0.029
-589.938	-72.545	-0.111	0.041
-588.923	-29.460	-0.205	0.117
-587.909	-88.599	-0.114	0.034
-586.894	46.027	0.073	0.067
-585.879	-120.520	-0.115	-0.020
-584.865	750.319	0.091	-0.246
-583.850	19.608	-0.283	0.227
-582.836	-11.867	-0.136	-0.089
-581.821	-113.588	-0.221	0.043
-580.806	-200.000	-0.011	0.186
-579.792	208.878	-0.069	0.108
-578.777	55.451	-0.093	0.090
-577.763	250.117	0.072	0.123
-576.748	-71.361	-0.185	-0.069
-575.733	248.867	-0.146	-0.248
-574.719	-158.986	0.201	-0.011
-573.704	800.000	-0.060	-0.233
-572.690	-54.750	-0.211	-0.095
-571.675	-139.983	-0.105	0.011
-570.661	800.000	0.122	0.342
-569.646	800.000	0.010	0.028
-568.631	61.425	-0.087	-0.086
-567.617	301.031	-0.081	-0.150
-566.602	-19.079	0.113	-0.070
-565.588	800.000	-0.059	-0.175
-564.573	-200.000	0.003	-0.195
-563.558	-4.773	0.369	0.254
-562.544	-200.000	-0.013	0.208
-561.529	-150.889	0.084	0.006
-560.515	-40.591	-0.182	0.094
-559.500	28.308	0.279	0.235
-558.485	249.410	-0.116	-0.196
-557.471	-84.502	-0.130	0.041
-556.456	-200.000	-0.010	0.099
-555.442	-137.762	-0.195	0.022
-554.427	310.436	-0.034	-0.064
-553.412	111.224	0.050	0.061
-552.398	-156.852	-0.109	0.007
-551.383	781.422	-0.063	-0.173
-550.369	39.430	0.115	-0.103
-549.354	-35.943	-0.182	-0.098
-548.339	-58.587	0.155	0.067
-547.325	-144.245	-0.109	0.010
-546.310	193.617	-0.100	0.151
-545.296	35.982	-0.265	0.233
-544.281	-93.151	-0.065	-0.018
-543.266	-5.050	0.057	0.039
-542.252	-24.772	0.102	0.060
-541.237	-150.758	0.205	0.016
-540.223	-24.258	0.194	0.116
-539.208	-200.000	-0.031	0.202
-538.193	514.235	-0.098	0.228
-537.179	55.306	-0.448	0.433
-536.164	-200.000	0.012	-0.159
-535.150	41.087	-0.076	-0.068
-534.135	261.201	-0.030	0.052
-533.121	-200.000	-0.012	-0.094
-532.106	-200.000	-0.030	0.428
-531.091	23.840	0.171	0.141
-530.077	-12.760	0.205	-0.134
-529.062	222.366	-0.027	-0.043
-528.048	74.654	-0.180	-0.189
-527.033	58.209	-0.102	0.099
-526.018	107.158	0.129	0.153
-525.004	199.825	-0.105	0.161
-523.989	-28.425	-0.103	-0.060
-522.975	-124.242	-0.243	-0.038
-521.960	-54.323	-0.519	-0.235
-520.945	-171.676	0.111	-0.004
-519.931	304.663	0.175	-0.324
-518.916	-200.000	0.067	0.426
-517.902	-101.267	-0.224	-0.054
-516.887	800.000	0.051	0.201
-515.872	800.000	-0.047	-0.174
-514.858	-76.635	-0.212	-0.074
-513.843	-200.000	0.008	0.290
-512.829	-87.428	-0.198	0.060
-511.814	-104.449	-0.375	-0.087
-510.799	-14.878	-0.318	-0.203
-509.785	256.520	-0.135	0.232
-508.770	526.473	0.015	0.035
-507.756	800.000	0.088	-0.300
-506.741	88.403	0.078	0.086
-505.726	800.000	0.011	0.047
-504.712	-200.000	0.037	-0.168
-503.697	63.330	-0.253	-0.253
-502.683	-64.006	-0.161	0.066
-501.668	-168.479	-0.139	-0.005
-500.653	800.000	-0.020	0.061
-499.639	800.000	-0.071	0.279
-498.624	78.629	0.179	-0.191
-497.610	742.760	-0.039	0.106
-496.595	-86.929	-0.274	0.083
-495.581	800.000	0.031	-0.131
-494.566	235.246	-0.126	0.208
-493.551	4.958	-0.140	0.103
-492.537	-108.605	-0.125	0.027
-491.522	-200.000	-0.068	0.307
-490.508	478.873	0.152	0.343
-489.493	153.176	0.109	-0.149
-488.478	7.202	0.141	0.105
-487.464	187.665	0.071	-0.105
-486.449	800.000	-0.048	0.210
-485.435	-7.301	-0.187	0.126
-484.420	581.246	-0.073	-0.178
-483.405	800.000	-0.063	-0.231
-482.391	13.018	0.226	0.174
-481.376	494.450	-0.048	0.109
-480.362	85.463	-0.112	0.123
-479.347	-200.000	0.018	-0.256
-478.332	800.000	0.084	0.238
-477.318	408.695	0.102	0.215
-476.303	213.217	0.167	0.263
-475.289	4.944	-0.109	-0.080
-474.274	-138.891	-0.264	0.029
-473.259	-18.299	0.362	-0.226
-472.245	244.852	-0.154	0.257
-471.230	4.878	0.092	0.067
-470.216	383.944	-0.114	0.233
-469.201	224.205	-0.100	-0.161
-468.186	800.000	-0.067	-0.202
-467.172	297.469	0.100	-0.182
-466.157	461.826	0.128	-0.285
-465.143	800.000	-0.066	-0.234
-464.128	72.429	0.127	-0.131
-463.113	-186.150	0.033	0.000
-462.099	56.540	0.200	-0.194
-461.084	311.077	-0.069	-0.129
-460.070	-81.036	-0.053	-0.018
-459.055	-40.051	0.110	0.057
-458.040	566.460	-0.042	0.101
-457.026	800.000	0.081	-0.292
-456.011	262.393	-0.094	0.162
-454.997	-95.109	0.039	-0.011
-453.982	95.844	-0.300	0.341
-452.968	22.177	-0.165	0.134
-451.953	-3.784	0.241	-0.166
-450.938	-200.000	-0.018	-0.238
-449.924	-37.206	0.209	-0.111
-448.909	-200.000	0.031	0.185
-447.895	-200.000	-0.049	0.328
-446.880	345.157	-0.176	-0.343
-445.865	215.561	0.145	0.228
-444.851	-200.000	0.009	0.285
-443.836	51.849	0.206	0.195
-442.822	-200.000	-0.041	-0.262
-441.807	177.973	-0.224	-0.325
-440.792	800.000	0.067	-0.243
-439.778	-123.426	-0.174	-0.028
-438.763	-45.673	-0.064	0.031
-437.749	800.000	0.070	0.290
-436.734	70.969	0.124	-0.128
-435.719	-181.075	-0.295	-0.006
-434.705	-200.000	-0.036	0.176
-433.690	-200.000	-0.031	-0.177
-432.676	40.060	-0.254	0.227
-431.661	800.000	-0.030	-0.103
-430.646	193.949	0.155	0.234
-429.632	-200.000	-0.055	-0.420
-428.617	-31.926	-0.182	-0.101
-427.603	-151.330	-0.059	-0.004
-426.588	509.093	0.142	-0.329
-425.573	-88.890	-0.059	-0.017
-424.559	26.172	0.351	0.291
-423.544	-200.000	-0.047	-0.256
-422.530	-154.896	0.086	-0.006
-421.515	37.442	0.046	0.041
-420.500	-105.686	-0.045	-0.010
-419.486	-18.837	0.151	-0.093
-418.471	-11.220	0.233	-0.152
-417.457	309.095	-0.167	-0.311
-416.442	-200.000	0.005	-0.280
-415.428	34.653	0.282	0.245
-414.413	150.965	-0.123	0.166
-413.398	-79.831	-0.275	-0.092
-412.384	800.000	0.066	-0.199
-411.369	-200.000	0.009	0.199
-410.355	-200.000	-0.014	-0.065
-409.340	258.473	-0.135	-0.230
-408.325	-70.920	-0.318	0.119
-407.311	-53.607	-0.145	-0.066
-406.296	800.000	-0.077	0.290
-405.282	103.420	0.151	0.176
-404.267	-200.000	0.060	0.309
-403.252	279.619	0.195	0.345
-402.238	-85.320	0.123	-0.038
-401.223	-58.361	0.207	-0.089
-400.209	164.280	-0.188	0.263
-399.194	-1.048	0.108	-0.076
-398.179	419.934	0.074	-0.157
-397.165	76.599	0.222	-0.234
-396.150	-200.000	-0.023	0.126
-395.136	-200.000	0.002	0.072
-394.121	-174.253	0.274	0.008
-393.106	-12.998	0.181	-0.117
-392.092	42.772	-0.107	0.097
-391.077	800.000	-0.038	-0.135
-390.063	769.052	0.081	-0.218
-389.048	153.902	-0.260	-0.353
-388.033	-200.000	-0.017	-0.508
-387.019	800.000	-0.048	-0.198
-386.004	-37.915	0.213	0.112
-384.990	-171.997	0.376	-0.012
-383.975	-200.000	0.003	-0.274
-382.960	137.294	0.135	0.175
-381.946	-93.592	-0.297	0.081
-380.931	-86.884	0.531	-0.161
-379.917	1.477	0.217	0.155
-378.902	-200.000	0.004	0.303
-377.888	625.597	0.100	0.249
-376.873	28.295	-0.245	0.205
-375.858	-141.745	-0.081	0.008
-374.844	800.000	-0.066	0.189
-373.829	-192.642	0.110	-0.001
-372.815	-200.000	-0.075	-0.362
-371.800	41.718	0.099	-0.089
-370.785	69.768	-0.344	-0.352
-369.771	-154.181	0.343	-0.023
-368.756	-5.380	0.294	-0.200
-367.742	-32.593	-0.091	0.050
-366.727	-56.566	0.160	0.070
-365.712	800.000	-0.115	0.332
-364.698	-200.000	-0.055	0.266
-363.683	122.578	-0.265	-0.329
-362.669	186.589	-0.099	-0.147
-361.654	800.000	0.026	0.109
-360.639	-58.179	-0.152	0.066
-359.625	-189.982	-0.277	-0.003
-358.610	-96.699	0.081	0.021
-357.596	800.000	-0.012	-0.043
-356.581	-200.000	0.042	0.245
-355.566	275.824	0.142	-0.251
-354.552	27.035	-0.024	0.020
-353.537	-200.000	0.002	0.160
-352.523	-4.632	0.361	-0.247
-351.508	302.666	-0.230	0.422
-350.493	-200.000	-0.009	0.085
-349.479	97.686	-0.184	-0.210
-348.464	-200.000	0.010	-0.115
-347.450	10.124	-0.328	-0.247
-346.435	254.163	-0.194	-0.328
-345.420	-200.000	0.049	0.293
-344.406	-7.214	0.152	0.102
-343.391	-62.573	-0.066	0.027
-342.377	66.592	-0.097	-0.097
-341.362	-102.778	0.502	-0.118
-340.348	42.132	-0.239	0.215
-339.333	-200.000	-0.004	0.323
-338.318	-107.977	0.206	0.044
-337.304	323.699	-0.077	-0.145
-336.289	780.334	-0.121	-0.327
-335.275	-80.143	-0.357	-0.119
-334.260	800.000	-0.032	0.102
-333.245	-140.962	-0.041	-0.004
-332.231	54.117	0.106	0.101
-331.216	-200.000	0.010	-0.491
-330.202	-200.000	-0.080	-0.361
-329.187	-200.000	-0.038	0.503
-328.172	444.679	0.077	-0.167
-327.158	58.422	-0.027	0.026
-326.143	-135.237	0.048	0.006
-325.129	292.857	-0.173	0.312
-324.114	208.083	-0.121	-0.187
-323.099	800.000	0.027	0.096
-322.085	167.563	0.095	0.134
-321.070	357.562	-0.092	0.182
-320.056	-48.070	0.330	0.158
-319.041	84.585	0.145	-0.157
-318.026	-37.159	-0.244	-0.129
-317.012	-200.000	-0.123	0.552
-315.997	6.347	0.556	0.409
-314.983	-127.939	0.244	0.035
-313.968	412.086	0.067	-0.140
-312.953	110.313	-0.185	-0.220
-311.939	261.792	-0.158	-0.271
-310.924	655.326	0.089	0.225
-309.910	-63.284	-0.115	-0.047
-308.895	-34.473	0.245	-0.133
-307.880	15.348	-0.078	0.061
-306.866	-48.380	0.187	-0.089
-305.851	160.109	-0.105	-0.145
-304.837	221.942	-0.050	-0.080
-303.822	-200.000	-0.061	-0.307
-302.807	-200.000	-0.013	0.076
-301.793	800.000	0.118	-0.374
-300.778	15.394	0.245	-0.190
-299.764	-200.000	-0.020	0.306
-298.749	19.878	0.193	0.153
-297.735	225.807	-0.155	0.248
-296.720	670.277	-0.085	-0.218
-295.705	-200.000	-0.023	0.123
-294.691	-49.114	-0.151	0.071
-293.676	67.306	-0.289	-0.292
-292.662	-132.079	-0.492	0.063
-291.647	-200.000	-0.012	-0.203
-290.632	-30.316	0.166	-0.093
-289.618	31.834	-0.127	-0.108
-288.603	-44.963	0.135	-0.066
-287.589	17.278	0.136	0.107
-286.574	13.402	-0.127	0.097
-285.559	-97.775	0.115	0.029
-284.545	800.000	-0.034	-0.139
-283.530	-200.000	-0.014	0.239
-282.516	-23.526	0.144	-0.085
-281.501	-99.074	0.051	-0.013
-280.486	-200.000	-0.002	0.013
-279.472	-158.421	-0.038	-0.002
-278.457	13.028	-0.244	-0.186
-277.443	-20.934	-0.247	-0.149
-276.428	403.362	0.084	0.176
-275.413	-200.000	0.075	0.343
-274.399	78.059	-0.231	0.243
-273.384	-65.596	-0.208	0.082
-272.370	8.165	0.276	-0.205
-271.355	92.677	0.062	0.069
-270.340	53.945	0.126	-0.119
-269.326	355.700	-0.091	-0.179
-268.311	449.117	-0.231	0.502
-267.297	-200.000	0.002	0.202
-266.282	-93.311	0.106	-0.029
-265.267	800.000	0.105	0.336
-264.253	43.394	0.077	0.069
-263.238	-200.000	0.027	0.136
-262.224	800.000	-0.117	-0.332
-261.209	646.114	0.094	-0.236
-260.195	-189.145	0.331	0.004
-259.180	-6.633	0.236	0.158
-258.165	317.535	0.036	0.067
-257.151	78.309	0.047	0.049
-256.136	800.000	0.065	-0.191
-255.122	101.938	-0.183	0.211
-254.107	-48.933	-0.262	0.124
-253.092	-200.000	-0.001	-0.225
-252.078	-55.637	0.238	0.105
-251.063	637.615	0.141	0.354
-250.049	637.274	0.033	0.083
-249.034	-200.000	-0.009	0.228
-248.019	565.270	0.113	0.271
-247.005	-18.183	0.264	0.163
-245.990	8.417	0.166	-0.123
-244.976	-200.000	0.038	-0.366
-243.961	93.313	0.183	0.204
-242.946	64.923	0.121	-0.120
-241.932	25.650	0.288	-0.236
-240.917	56.694	-0.181	-0.174
-239.903	-200.000	0.086	0.374
-238.888	-200.000	-0.014	0.346
-237.873	231.117	0.086	0.139
-236.859	126.379	0.029	-0.036
-235.844	-169.002	-0.118	0.004
-234.830	90.504	0.098	-0.108
-233.815	-195.136	0.234	-0.002
-232.800	112.671	-0.080	-0.096
-231.786	55.498	-0.170	-0.162
-230.771	-129.349	0.205	0.028
-229.757	-200.000	-0.076	-0.370
-228.742	-102.137	0.201	0.048
-227.727	33.706	-0.040	0.034
-226.713	-31.412	-0.036	-0.020
-225.698	524.232	-0.033	-0.077
-224.684	-88.169	-0.159	-0.047
-223.669	-88.658	0.222	0.065
-222.655	28.634	0.150	0.125
-221.640	-150.079	-0.529	-0.041
-220.625	800.000	0.133	-0.377
-219.611	800.000	0.051	-0.187
-218.596	774.181	-0.006	-0.016
-217.582	-200.000	-0.018	0.225
-216.567	210.135	0.031	0.048
-215.552	-33.485	-0.323	0.176
-214.538	135.745	-0.105	0.134
-213.523	98.468	0.174	-0.197
-212.509	-200.000	0.008	0.236
-211.494	-186.508	0.541	0.008
-210.479	800.000	0.017	-0.059
-209.465	542.970	0.147	0.346
-208.450	-73.366	-0.094	0.034
-207.436	-63.835	-0.196	0.079
-206.421	800.000	0.132	0.543
-205.406	119.792	-0.178	0.218
-204.392	271.164	-0.194	-0.336
-203.377	198.623	-0.216	-0.326
-202.363	800.000	-0.024	-0.074
-201.348	800.000	0.029	0.110
-200.333	134.732	-0.089	-0.114
-199.319	800.000	0.124	-0.369
-198.304	-200.000	-0.011	-0.440
-197.290	-117.541	0.364	-0.065
-196.275	-200.000	-0.002	-0.276
-195.260	259.250	-0.025	-0.042
-194.246	-11.336	-0.117	-0.076
-193.231	23.827	-0.205	-0.166
-192.217	-200.000	-0.013	0.192
-191.202	64.748	0.088	-0.088
-190.187	13.656	-0.078	-0.059
-189.173	413.020	-0.167	-0.349
-188.158	181.144	0.167	0.241
-187.144	-120.367	-0.198	0.033
-186.129	-142.366	-0.203	-0.020
-185.114	124.555	-0.144	0.179
-184.100	-75.382	-0.217	0.076
-183.085	153.563	0.168	0.227
-182.071	71.856	-0.205	-0.210
-181.056	228.128	0.044	0.070
-180.042	800.000	0.088	0.239
-179.027	233.520	0.100	0.161
-178.012	800.000	-0.052	-0.157
-176.998	-40.576	-0.189	-0.096
-175.983	28.822	0.184	-0.153
-174.969	-57.116	0.315	-0.136
-173.954	45.206	0.085	-0.077
-172.939	-119.103	0.184	-0.032
-171.925	-26.903	0.025	0.015
-170.910	-193.764	-0.103	-0.001
-169.896	-128.989	-0.278	-0.038
-168.881	-98.881	0.282	0.071
-167.866	28.497	0.085	-0.071
-166.852	-102.923	0.069	-0.016
-165.837	-126.880	0.266	0.039
-164.823	-88.759	0.198	0.058
-163.808	405.270	0.123	-0.255
-162.793	-23.876	0.217	-0.128
-161.779	-99.543	0.319	-0.079
-160.764	25.560	0.160	0.131
-159.750	279.436	-0.051	0.090
-158.735	-66.794	0.266	-0.103
-157.720	-200.000	0.018	-0.094
-156.706	-200.000	-0.069	0.314
-155.691	-200.000	-0.013	0.223
-154.677	296.732	0.073	0.132
-153.662	-200.000	-0.041	-0.338
-152.647	15.589	-0.121	-0.094
-151.633	152.857	0.058	-0.078
-150.618	-80.190	-0.417	0.137
-149.604	-7.648	0.134	-0.089
-148.589	116.049	0.307	-0.369
-147.574	30.100	-0.306	0.256
-146.560	-117.754	0.163	0.029
-145.545	-200.000	0.017	0.134
-144.531	9.794	0.246	-0.183
-143.516	-74.729	0.182	0.064
-142.502	-58.734	-0.212	0.090
-141.487	-18.275	-0.208	-0.128
-140.472	-13.406	0.228	-0.146
-139.458	800.000	0.007	0.025
-138.443	-200.000	-0.034	0.257
-137.429	-33.130	0.326	-0.178
-136.414	292.753	0.093	0.167
-135.399	-200.000	0.021	-0.189
-134.385	800.000	0.037	0.113
-133.370	342.998	0.048	-0.092
-132.356	59.585	0.217	0.211
-131.341	707.020	0.068	0.177
-130.326	5.132	0.152	0.110
-129.312	-161.294	0.322	-0.016
-128.297	429.928	-0.118	0.250
-127.283	-61.731	0.123	-0.051
-126.268	119.486	-0.076	-0.092
-125.253	105.437	-0.160	0.186
-124.239	-96.481	0.462	-0.120
-123.224	232.109	0.166	-0.267
-122.210	48.216	-0.297	-0.273
-121.195	-19.324	0.149	0.091
