DTS Sentinel unit serial number:	SN413079Multiplexer serial number:	ORYXHardware model number:	OX4-SRSoftware version number:	ORYX F/W v4.00 Oryx Data Collector v3.7.2.0data status	okinstallation	princeton_trtdifferential loss correction	single-endedforward channel	channel 3reverse channel	N/Adate	2019/09/14time	20:16:34forward acquisition time	60.00reverse acquisition time	0.00gamma	496.2192k internal	0.2315k external	0.2315temperature offset calibration	1.0009default loss term (dB/km)	0.3790temperature slope calibration	1.0000multiplexer offset coefficient	1.0000multiplexer slope coefficient	1.0000fibre end	0.00T internal ref (°C)	33.77T ext. ref 1 (°C)	4.84T ext. ref 2 (°C)	28.23length (m)	temperature (°C)	Stokes	anti-Stokes-747.200	-103.285	0.234	-0.056
-746.185	34.546	0.195	0.173
-745.171	49.233	0.224	-0.213
-744.156	-108.231	0.159	-0.035
-743.142	340.809	0.035	0.070
-742.127	14.988	0.095	0.076
-741.112	12.286	0.052	0.041
-740.098	800.000	0.053	0.220
-739.083	156.225	-0.138	0.193
-738.069	-148.795	0.301	-0.025
-737.054	-51.737	-0.141	-0.067
-736.039	-112.568	-0.407	-0.082
-735.025	141.555	0.164	-0.220
-734.010	102.574	-0.128	0.152
-732.996	117.599	0.082	0.103
-731.981	-75.519	-0.345	-0.124
-730.966	-21.462	0.089	-0.055
-729.952	-129.041	-0.317	-0.045
-728.937	-99.844	-0.242	-0.061
-727.923	-92.934	0.035	0.010
-726.908	-200.000	-0.037	0.318
-725.894	-24.795	-0.347	0.209
-724.879	-144.347	-0.237	0.022
-723.864	-141.096	0.105	-0.011
-722.850	-110.482	0.149	0.031
-721.835	455.018	-0.190	-0.426
-720.821	323.976	-0.059	-0.114
-719.806	800.000	0.131	-0.396
-718.791	-129.043	-0.379	0.054
-717.777	800.000	-0.129	0.380
-716.762	-159.619	0.234	-0.013
-715.748	-94.773	-0.184	0.051
-714.733	236.112	-0.132	0.220
-713.718	562.967	-0.059	-0.144
-712.704	-76.626	-0.105	-0.037
-711.689	-155.013	0.166	0.011
-710.675	800.000	0.021	-0.081
-709.660	-127.353	0.340	-0.050
-708.645	-47.004	-0.244	-0.120
-707.631	-29.799	0.474	-0.273
-706.616	116.458	0.233	-0.290
-705.602	-106.720	-0.316	0.071
-704.587	38.428	0.084	-0.075
-703.572	800.000	0.014	-0.044
-702.558	-101.308	0.356	0.088
-701.543	800.000	0.028	0.080
-700.529	-134.599	0.104	0.013
-699.514	-200.000	-0.034	-0.232
-698.499	-83.504	0.238	0.077
-697.485	-118.195	-0.278	0.050
-696.470	800.000	0.046	-0.143
-695.456	-200.000	0.007	-0.179
-694.441	-50.004	0.206	-0.099
-693.426	-141.614	-0.219	0.022
-692.412	187.782	0.241	-0.364
-691.397	800.000	0.103	-0.348
-690.383	294.691	-0.118	-0.218
-689.368	-91.208	0.266	-0.077
-688.354	307.814	-0.073	-0.137
-687.339	99.348	0.113	-0.132
-686.324	-118.119	-0.193	0.035
-685.310	-23.992	-0.312	-0.188
-684.295	233.728	0.080	-0.133
-683.281	-176.725	0.176	0.005
-682.266	-18.925	0.030	0.019
-681.251	6.436	-0.125	0.094
-680.237	204.526	-0.004	-0.006
-679.222	4.741	0.078	0.058
-678.208	67.307	0.103	-0.106
-677.193	247.531	-0.087	-0.148
-676.178	-90.370	-0.219	-0.064
-675.164	127.872	0.107	0.137
-674.149	201.434	-0.211	-0.329
-673.135	-161.867	-0.300	0.015
-672.120	37.460	-0.189	-0.170
-671.105	-147.567	-0.166	-0.014
-670.091	163.568	-0.157	-0.223
-669.076	794.891	0.057	-0.158
-668.062	-73.448	-0.300	-0.111
-667.047	142.899	-0.116	0.155
-666.032	-131.864	-0.132	-0.017
-665.018	-59.000	0.115	-0.050
-664.003	181.634	-0.034	0.051
-662.989	-105.890	-0.299	0.068
-661.974	-30.669	-0.319	-0.182
-660.959	23.766	-0.101	-0.084
-659.945	-73.846	-0.132	-0.049
-658.930	800.000	0.063	-0.270
-657.916	-200.000	-0.001	-0.127
-656.901	-53.333	-0.258	0.119
-655.886	18.674	-0.261	0.211
-654.872	-200.000	-0.027	-0.513
-653.857	537.892	-0.177	-0.425
-652.843	195.199	0.126	0.194
-651.828	179.006	-0.120	0.177
-650.814	183.133	0.048	0.072
-649.799	-46.509	0.138	0.068
-648.784	-200.000	0.020	-0.209
-647.770	454.889	-0.070	0.157
-646.755	800.000	0.017	0.072
-645.741	-57.212	-0.287	-0.127
-644.726	-200.000	-0.007	0.074
-643.711	-66.884	0.347	0.139
-642.697	-146.430	-0.397	0.035
-641.682	-165.075	0.150	-0.007
-640.668	71.636	0.137	-0.143
-639.653	160.440	0.169	-0.238
-638.638	9.681	0.207	0.158
-637.624	-200.000	-0.073	-0.484
-636.609	140.182	-0.231	-0.307
-635.595	-47.451	0.115	0.057
-634.580	-149.732	0.364	0.029
-633.565	-200.000	-0.003	-0.187
-632.551	-78.980	0.116	0.040
-631.536	-107.408	-0.164	0.036
-630.522	-140.109	0.236	0.025
-629.507	557.985	-0.070	0.171
-628.492	-200.000	0.017	0.218
-627.478	-117.738	0.148	0.027
-626.463	-87.705	0.153	0.047
-625.449	36.247	-0.193	-0.172
-624.434	2.086	-0.239	-0.174
-623.419	33.600	-0.098	-0.086
-622.405	-104.952	-0.073	-0.017
-621.390	-56.978	0.267	-0.119
-620.376	-37.191	-0.112	-0.060
-619.361	-200.000	-0.045	0.258
-618.346	35.529	0.216	-0.192
-617.332	136.187	0.272	0.357
-616.317	400.203	0.112	0.237
-615.303	-95.434	-0.203	-0.055
-614.288	-105.939	0.174	0.040
-613.273	800.000	-0.146	0.426
-612.259	86.550	0.111	-0.123
-611.244	390.634	-0.094	0.198
-610.230	197.107	-0.074	0.113
-609.215	-200.000	0.006	0.088
-608.201	-48.319	-0.113	-0.055
-607.186	-138.082	0.083	-0.009
-606.171	-6.215	-0.118	-0.081
-605.157	304.158	-0.148	-0.276
-604.142	-23.711	0.154	-0.093
-603.128	-74.972	0.362	0.131
-602.113	26.576	-0.057	-0.048
-601.098	-200.000	-0.013	0.106
-600.084	-22.591	0.105	-0.064
-599.069	42.820	-0.093	0.086
-598.055	-200.000	-0.043	0.205
-597.040	450.983	-0.069	0.153
-596.025	-200.000	0.041	-0.264
-595.011	-200.000	0.004	-0.260
-593.996	800.000	-0.021	-0.091
-592.982	575.868	0.112	0.276
-591.967	140.385	-0.055	0.073
-590.952	-81.820	-0.057	-0.019
-589.938	-119.200	-0.361	-0.064
-588.923	209.502	-0.020	0.031
-587.909	19.330	0.148	0.119
-586.894	-45.785	-0.379	-0.188
-585.879	-146.321	0.552	-0.049
-584.865	-12.377	0.301	-0.198
-583.850	-78.903	0.191	0.066
-582.836	-1.924	-0.149	0.105
-581.821	-121.718	0.359	0.060
-580.806	106.435	0.163	-0.194
-579.792	-43.036	-0.105	0.053
-578.777	-162.501	-0.123	-0.006
-577.763	87.944	0.099	0.111
-576.748	-105.931	-0.228	-0.052
-575.733	70.811	-0.120	-0.125
-574.719	800.000	0.039	0.158
-573.704	208.281	-0.096	0.152
-572.690	-178.519	0.258	0.006
-571.675	-45.981	-0.215	-0.107
-570.661	479.413	-0.166	0.378
-569.646	388.990	0.014	-0.029
-568.631	621.154	-0.066	0.168
-567.617	71.712	0.061	0.064
-566.602	-98.968	0.517	0.132
-565.588	-90.251	0.273	0.080
-564.573	-70.515	-0.243	0.092
-563.558	800.000	-0.092	0.372
-562.544	47.008	-0.143	-0.133
-561.529	44.990	-0.232	-0.215
-560.515	130.877	-0.082	0.106
-559.500	-87.026	-0.096	-0.029
-558.485	-21.636	-0.105	-0.064
-557.471	-113.557	-0.076	-0.015
-556.456	-162.868	-0.452	-0.022
-555.442	800.000	0.035	0.104
-554.427	16.447	0.190	-0.151
-553.412	174.390	-0.185	-0.268
-552.398	-200.000	-0.025	-0.229
-551.383	-180.330	0.131	0.003
-550.369	-200.000	-0.010	-0.098
-549.354	41.986	0.059	0.054
-548.339	-200.000	-0.002	-0.065
-547.325	40.393	0.030	-0.027
-546.310	-152.090	0.200	0.015
-545.296	-139.252	-0.064	-0.007
-544.281	128.030	-0.081	-0.104
-543.266	800.000	-0.058	0.224
-542.252	680.704	-0.070	0.183
-541.237	-11.872	-0.181	0.119
-540.223	111.068	0.164	0.198
-539.208	323.359	0.096	-0.185
-538.193	-15.305	-0.465	0.299
-537.179	70.169	0.164	0.170
-536.164	13.836	-0.148	0.116
-535.150	-47.844	0.064	0.031
-534.135	800.000	0.024	0.068
-533.121	48.835	-0.093	0.087
-532.106	9.548	-0.197	-0.150
-531.091	800.000	-0.009	-0.028
-530.077	800.000	0.104	0.398
-529.062	-193.054	0.176	0.002
-528.048	456.869	-0.202	-0.451
-527.033	83.038	0.269	0.294
-526.018	-149.842	-0.158	0.012
-525.004	-120.844	-0.130	-0.022
-523.989	651.293	-0.107	-0.276
-522.975	95.663	0.097	0.111
-521.960	292.662	-0.002	-0.003
-520.945	-30.199	-0.189	0.108
-519.931	800.000	-0.030	0.090
-518.916	-200.000	-0.021	-0.252
-517.902	-121.484	0.227	0.038
-516.887	230.484	0.230	-0.377
-515.872	-200.000	0.062	-0.340
-514.858	-200.000	-0.004	0.105
-513.843	-19.851	0.165	-0.102
-512.829	-200.000	0.004	-0.105
-511.814	16.698	-0.227	-0.180
-510.799	-72.691	-0.293	-0.108
-509.785	49.248	-0.131	0.124
-508.770	-97.326	0.324	-0.085
-507.756	-92.860	-0.165	0.046
-506.741	-109.013	0.170	-0.036
-505.726	-200.000	-0.043	0.417
-504.712	-8.399	0.016	-0.011
-503.697	-95.122	0.234	-0.063
-502.683	-165.129	0.132	0.006
-501.668	19.201	0.141	-0.114
-500.653	386.829	-0.094	-0.196
-499.639	0.858	0.152	0.109
-498.624	-140.484	0.151	-0.016
-497.610	800.000	0.055	-0.193
-496.595	800.000	-0.019	-0.058
-495.581	-200.000	-0.023	-0.245
-494.566	468.929	-0.128	0.289
-493.551	19.920	0.237	0.192
-492.537	534.308	0.123	0.292
-491.522	-200.000	-0.023	-0.116
-490.508	515.753	0.076	0.179
-489.493	-200.000	0.068	0.518
-488.478	-132.644	-0.441	-0.057
-487.464	198.354	-0.130	-0.199
-486.449	-59.075	0.081	0.035
-485.435	111.374	-0.172	0.209
-484.420	398.409	0.037	-0.078
-483.405	188.485	0.238	-0.357
-482.391	-200.000	0.001	0.299
-481.376	-8.305	-0.235	-0.159
-480.362	77.692	0.126	0.135
-479.347	-9.006	-0.222	0.149
-478.332	-85.966	-0.194	-0.060
-477.318	-162.995	0.322	-0.016
-476.303	-124.922	-0.217	0.033
-475.289	-155.394	0.243	-0.016
-474.274	571.081	0.053	-0.131
-473.259	-13.827	-0.215	-0.139
-472.245	-200.000	0.011	-0.234
-471.230	-200.000	-0.013	-0.105
-470.216	800.000	0.074	0.259
-469.201	800.000	0.020	0.082
-468.186	452.401	0.165	0.365
-467.172	-5.781	0.318	-0.218
-466.157	-133.900	-0.183	-0.023
-465.143	-51.277	0.308	-0.145
-464.128	-1.569	-0.143	-0.101
-463.113	-200.000	0.030	-0.137
-462.099	-137.464	-0.343	-0.039
-461.084	-200.000	0.000	-0.169
-460.070	-162.532	-0.236	0.012
-459.055	16.763	-0.226	-0.179
-458.040	183.458	0.202	0.299
-457.026	-200.000	-0.034	-0.224
-456.011	-65.798	-0.448	-0.179
-454.997	-133.376	0.042	-0.005
-453.982	-132.271	0.125	-0.016
-452.968	179.822	-0.077	-0.114
-451.953	185.189	0.063	-0.094
-450.938	-200.000	-0.018	-0.096
-449.924	-147.088	-0.196	-0.017
-448.909	-57.419	0.138	-0.061
-447.895	353.384	-0.064	-0.127
-446.880	800.000	0.138	-0.390
-445.865	-200.000	-0.037	-0.257
-444.851	-200.000	0.008	-0.179
-443.836	15.755	-0.289	-0.228
-442.822	-128.107	-0.248	0.036
-441.807	30.103	-0.267	-0.228
-440.792	94.605	0.204	-0.233
-439.778	-3.643	-0.279	-0.194
-438.763	-200.000	-0.089	-0.478
-437.749	-10.814	0.073	-0.048
-436.734	223.253	0.079	-0.127
-435.719	238.401	0.112	0.186
-434.705	-25.998	-0.058	0.034
-433.690	-155.601	-0.117	0.008
-432.676	-200.000	0.002	-0.210
-431.661	-50.933	-0.147	0.069
-430.646	276.192	-0.116	-0.207
-429.632	-73.177	-0.195	-0.072
-428.617	800.000	0.090	-0.305
-427.603	47.871	-0.102	-0.095
-426.588	61.037	-0.035	0.035
-425.573	-200.000	0.027	0.129
-424.559	-87.745	0.366	0.110
-423.544	-151.032	0.109	-0.008
-422.530	37.230	0.128	-0.114
-421.515	-72.895	-0.183	-0.067
-420.500	-18.058	-0.050	-0.031
-419.486	-159.213	0.310	0.017
-418.471	392.899	0.089	-0.185
-417.457	-121.422	-0.097	0.016
-416.442	800.000	0.027	0.092
-415.428	160.301	-0.250	-0.348
-414.413	209.694	-0.164	-0.258
-413.398	271.657	-0.146	-0.258
-412.384	202.982	-0.117	-0.182
-411.369	-76.742	-0.052	-0.018
-410.355	314.554	0.120	-0.227
-409.340	-122.787	0.273	0.044
-408.325	-25.026	0.261	0.155
-407.311	27.806	0.181	0.152
-406.296	-200.000	0.011	-0.367
-405.282	-139.404	-0.283	0.030
-404.267	-33.833	0.075	0.041
-403.252	-200.000	-0.031	-0.276
-402.238	-18.458	-0.240	-0.150
-401.223	-19.174	0.038	0.024
-400.209	-200.000	0.087	0.476
-399.194	-14.715	0.273	0.175
-398.179	560.978	-0.092	-0.222
-397.165	-37.569	-0.235	-0.125
-396.150	-179.940	-0.192	0.004
-395.136	41.314	-0.115	0.104
-394.121	-129.730	0.293	-0.040
-393.106	228.791	0.057	0.092
-392.092	630.700	0.071	0.180
-391.077	-200.000	-0.025	0.126
-390.063	-200.000	0.040	0.185
-389.048	95.641	0.258	0.294
-388.033	800.000	-0.048	-0.156
-387.019	-200.000	0.099	-0.000
-386.004	129.336	0.191	0.244
-384.990	106.393	-0.145	0.172
-383.975	734.768	-0.161	0.432
-382.960	-16.377	0.026	0.017
-381.946	561.430	0.019	-0.045
-380.931	42.684	0.171	0.155
-379.917	326.761	0.094	-0.179
-378.902	203.483	0.106	-0.163
-377.888	47.263	-0.095	0.088
-376.873	4.004	-0.376	0.274
-375.858	-129.971	0.226	-0.031
-374.844	44.903	0.325	-0.298
-373.829	561.962	0.043	0.104
-372.815	-37.073	-0.213	0.114
-371.800	-200.000	0.099	0.500
-370.785	58.713	-0.138	0.135
-369.771	-19.317	0.109	0.067
-368.756	730.570	-0.112	0.299
-367.742	467.930	0.069	0.155
-366.727	-24.433	0.337	-0.201
-365.712	340.749	0.224	-0.436
-364.698	-57.553	-0.193	-0.084
-363.683	36.755	-0.076	-0.067
-362.669	-112.096	-0.093	-0.019
-361.654	-93.619	0.071	0.020
-360.639	-32.424	0.330	0.184
-359.625	133.094	0.132	0.170
-358.610	453.443	-0.113	0.249
-357.596	-128.479	-0.383	0.054
-356.581	305.904	0.127	0.235
-355.566	-66.281	-0.195	0.078
-354.552	-29.237	0.298	-0.170
-353.537	-200.000	0.027	0.134
-352.523	62.284	-0.173	0.172
-351.508	-45.906	-0.235	0.116
-350.493	-38.100	0.223	0.118
-349.479	-60.954	0.222	0.094
-348.464	-42.485	0.143	0.073
-347.450	800.000	-0.045	0.174
-346.435	-123.323	-0.082	0.013
-345.420	-106.061	-0.185	-0.042
-344.406	-106.913	-0.062	0.014
-343.391	-74.049	-0.259	-0.094
-342.377	-91.212	0.059	-0.017
-341.362	-200.000	-0.006	-0.060
-340.348	800.000	-0.067	0.257
-339.333	800.000	0.122	-0.356
-338.318	315.691	0.099	-0.186
-337.304	280.075	-0.073	0.131
-336.289	800.000	0.037	0.116
-335.275	61.124	-0.084	0.083
-334.260	-58.174	0.170	0.074
-333.245	-200.000	-0.025	-0.117
-332.231	-55.403	-0.052	-0.023
-331.216	-1.833	0.277	-0.194
-330.202	73.145	-0.074	-0.077
-329.187	116.937	-0.033	-0.041
-328.172	157.583	-0.121	0.166
-327.158	-126.811	0.235	0.035
-326.143	-124.326	-0.084	0.013
-325.129	58.410	0.137	-0.134
-324.114	36.062	-0.164	0.144
-323.099	428.596	0.129	0.279
-322.085	89.879	-0.147	0.164
-321.070	-200.000	0.063	0.502
-320.056	258.662	-0.131	-0.226
-319.041	109.235	0.021	0.025
-318.026	-48.616	-0.173	0.083
-317.012	453.430	-0.050	0.110
-315.997	92.610	-0.077	0.086
-314.983	-28.468	-0.146	0.084
-313.968	-70.632	-0.204	0.077
-312.953	-200.000	-0.042	0.253
-311.939	800.000	-0.047	0.153
-310.924	-39.838	-0.035	-0.018
-309.910	-200.000	0.019	-0.249
-308.895	-200.000	0.028	0.236
-307.880	-116.316	-0.254	-0.047
-306.866	287.511	-0.112	0.203
-305.851	800.000	0.036	-0.108
-304.837	800.000	0.067	-0.258
-303.822	-92.180	0.052	0.015
-302.807	103.888	0.024	0.028
-301.793	204.718	-0.044	-0.069
-300.778	28.895	0.116	0.098
-299.764	800.000	0.066	-0.243
-298.749	-43.280	-0.194	0.098
-297.735	26.993	-0.237	-0.198
-296.720	-73.370	0.290	0.106
-295.705	-106.189	0.188	-0.042
-294.691	-140.537	0.282	-0.029
-293.676	-110.851	0.124	-0.025
-292.662	-200.000	0.033	-0.191
-291.647	-2.676	-0.336	-0.234
-290.632	58.651	0.182	-0.178
-289.618	-48.047	0.155	0.075
-288.603	-200.000	-0.049	-0.279
-287.589	-200.000	-0.026	-0.260
-286.574	-43.103	-0.211	-0.107
-285.559	-117.065	0.186	-0.034
-284.545	800.000	0.028	0.115
-283.530	-138.084	-0.144	-0.016
-282.516	422.537	-0.137	-0.292
-281.501	137.215	0.223	-0.290
-280.486	-92.849	-0.517	0.144
-279.472	-146.768	0.136	0.012
-278.457	-200.000	-0.038	0.253
-277.443	120.612	-0.043	0.054
-276.428	-200.000	0.016	0.323
-275.413	-4.501	-0.172	0.118
-274.399	-104.761	-0.103	-0.023
-273.384	-7.944	0.209	-0.140
-272.370	800.000	-0.050	0.140
-271.355	-114.585	0.082	-0.016
-270.340	-200.000	0.046	-0.376
-269.326	800.000	0.115	-0.341
-268.311	392.885	-0.139	0.287
-267.297	-59.994	-0.083	0.035
-266.282	61.107	0.041	-0.040
-265.267	-82.700	0.244	-0.079
-264.253	-164.991	0.155	-0.007
-263.238	-92.465	-0.038	-0.011
-262.224	-118.814	-0.363	0.064
-261.209	-84.874	-0.104	0.033
-260.195	310.800	0.164	-0.306
-259.180	-7.746	-0.300	0.202
-258.165	800.000	0.071	-0.202
-257.151	-129.513	-0.231	0.032
-256.136	800.000	-0.076	0.256
-255.122	-200.000	-0.030	0.174
-254.107	404.280	-0.072	0.150
-253.092	-61.828	0.324	-0.135
-252.078	261.356	0.126	0.216
-251.063	303.634	0.091	0.168
-250.049	78.015	-0.102	-0.108
-249.034	109.287	-0.162	-0.193
-248.019	80.640	0.114	-0.122
-247.005	-200.000	0.056	-0.351
-245.990	-74.464	0.045	0.016
-244.976	-130.368	-0.186	0.025
-243.961	800.000	-0.034	0.130
-242.946	-115.054	0.140	0.026
-241.932	800.000	-0.010	0.029
-240.917	-53.562	0.207	0.094
-239.903	94.015	-0.085	0.095
-238.888	758.006	-0.121	-0.325
-237.873	-57.792	-0.212	-0.092
-236.859	-44.885	0.067	0.033
-235.844	-82.844	-0.261	-0.084
-234.830	116.163	0.080	0.097
-233.815	62.193	-0.111	-0.110
-232.800	507.433	0.079	-0.182
-231.786	143.678	0.099	-0.131
-230.771	-94.372	0.164	0.045
-229.757	-9.230	-0.318	-0.211
-228.742	-121.469	0.177	0.029
-227.727	-94.950	0.077	-0.021
-226.713	800.000	0.105	-0.317
-225.698	-41.322	-0.074	-0.038
-224.684	-133.872	0.111	-0.014
-223.669	15.632	0.076	-0.059
-222.655	800.000	0.067	0.263
-221.640	117.427	0.080	-0.098
-220.625	-200.000	0.028	-0.208
-219.611	-56.668	0.173	-0.076
-218.596	103.864	-0.271	0.316
-217.582	-28.398	0.192	-0.110
-216.567	-17.347	0.308	-0.193
-215.552	-59.249	0.198	0.085
-214.538	-200.000	-0.020	0.257
-213.523	-157.669	0.124	-0.007
-212.509	-87.596	-0.179	0.054
-211.494	-149.459	-0.212	-0.017
-210.479	-200.000	-0.045	0.200
-209.465	112.527	0.154	0.185
-208.450	8.892	-0.255	0.191
-207.436	800.000	-0.120	0.428
-206.421	-6.153	-0.304	0.206
-205.406	132.204	0.214	0.273
-204.392	-105.255	0.285	-0.064
-203.377	121.484	0.142	0.176
-202.363	125.095	-0.106	-0.133
-201.348	456.565	-0.153	-0.336
-200.333	-108.692	-0.060	0.013
-199.319	-128.493	-0.300	-0.042
-198.304	-200.000	-0.003	-0.114
-197.290	-9.300	-0.268	0.177
-196.275	-183.214	0.267	-0.005
-195.260	-200.000	-0.032	0.204
-194.246	29.900	0.169	0.142
-193.231	-85.725	-0.242	0.075
-192.217	-200.000	0.011	-0.110
-191.202	698.075	-0.014	0.035
-190.187	309.351	-0.079	0.146
-189.173	184.763	0.110	0.161
-188.158	-91.830	-0.198	-0.056
-187.144	-125.090	0.028	0.004
-186.129	-30.041	-0.334	0.188
-185.114	-152.115	0.182	-0.013
-184.100	43.845	-0.177	0.160
-183.085	-200.000	-0.038	0.231
-182.071	-200.000	-0.007	-0.176
-181.056	123.107	0.196	0.244
-180.042	258.050	-0.041	-0.069
-179.027	-51.241	0.275	-0.128
-178.012	7.750	0.195	0.144
-176.998	-200.000	-0.345	-0.000
-175.983	99.399	0.210	-0.240
-174.969	-200.000	-0.004	0.030
-173.954	800.000	-0.095	-0.392
-172.939	-193.001	-0.174	-0.002
-171.925	468.200	0.107	0.238
-170.910	287.798	0.093	-0.167
-169.896	118.949	0.096	0.118
-168.881	130.642	-0.058	0.073
-167.866	75.931	-0.057	0.060
-166.852	-200.000	0.012	0.205
-165.837	85.859	0.129	0.141
-164.823	-157.055	0.131	-0.008
-163.808	5.579	0.226	-0.166
-162.793	-59.696	-0.158	0.067
-161.779	-64.236	0.329	0.133
-160.764	131.368	-0.130	0.166
-159.750	195.485	0.146	0.219
-158.735	401.711	-0.069	-0.143
-157.720	800.000	-0.076	0.261
-156.706	-179.226	0.090	-0.002
-155.691	-200.000	-0.011	-0.299
-154.677	-38.628	0.218	0.114
-153.662	508.358	0.104	-0.239
-152.647	-114.834	0.172	0.033
-151.633	-200.000	0.046	-0.239
-150.618	377.154	-0.055	0.110
-149.604	620.789	-0.057	-0.143
-148.589	60.807	0.051	0.050
-147.574	6.999	-0.173	-0.127
-146.560	-70.882	0.498	-0.186
-145.545	-92.369	-0.097	0.027
-144.531	152.466	-0.106	0.143
-143.516	16.436	-0.179	0.140
-142.502	-72.069	0.206	0.076
-141.487	-69.172	0.174	0.066
-140.472	210.908	0.138	-0.214
-139.458	-200.000	-0.005	-0.294
-138.443	-68.444	0.238	-0.092
-137.429	-6.922	-0.081	0.054
-136.414	296.460	-0.140	0.255
-135.399	12.056	0.125	0.095
-134.385	14.766	0.136	0.106
-133.370	-200.000	-0.072	-0.311
-132.356	-200.000	0.001	-0.309
-131.341	115.757	-0.132	-0.160
-130.326	-118.276	-0.237	0.042
-129.312	-54.144	0.162	-0.073
-128.297	-0.151	-0.236	-0.166
-127.283	-91.110	-0.137	0.039
-126.268	51.160	-0.422	0.396
-125.253	-173.768	-0.350	-0.010
-124.239	-97.936	-0.310	-0.079
-123.224	-43.515	0.099	-0.050
-122.210	-103.986	0.335	0.077
