DTS Sentinel unit serial number:	SN413079Multiplexer serial number:	ORYXHardware model number:	OX4-SRSoftware version number:	ORYX F/W v4.00 Oryx Data Collector v3.7.2.0data status	okinstallation	princeton_trtdifferential loss correction	single-endedforward channel	channel 3reverse channel	N/Adate	2019/09/19time	08:52:35forward acquisition time	60.00reverse acquisition time	0.00gamma	496.2192k internal	0.2347k external	0.2347temperature offset calibration	0.9976default loss term (dB/km)	0.3790temperature slope calibration	1.0000multiplexer offset coefficient	1.0000multiplexer slope coefficient	1.0000fibre end	0.00T internal ref (°C)	21.25T ext. ref 1 (°C)	0.59T ext. ref 2 (°C)	16.99length (m)	temperature (°C)	Stokes	anti-Stokes-747.200	-59.820	-0.205	-0.088
-746.185	-109.096	-0.326	0.069
-745.171	489.608	-0.115	0.263
-744.156	24.180	0.107	0.088
-743.142	-13.737	0.385	0.249
-742.127	-4.733	-0.102	0.070
-741.112	-64.741	0.283	0.115
-740.098	-38.675	0.312	0.165
-739.083	390.789	0.018	-0.038
-738.069	-112.239	-0.323	0.065
-737.054	93.948	0.156	0.177
-736.039	-200.000	-0.025	0.000
-735.025	-151.483	-0.239	0.018
-734.010	-121.987	-0.131	0.022
-732.996	-114.661	-0.471	-0.090
-731.981	13.489	-0.082	0.064
-730.966	-11.794	-0.328	-0.215
-729.952	196.487	-0.190	0.289
-728.937	200.041	-0.156	0.240
-727.923	3.094	-0.223	-0.162
-726.908	424.953	0.060	-0.130
-725.894	-145.471	-0.245	0.022
-724.879	306.039	-0.067	-0.125
-723.864	169.828	0.177	0.253
-722.850	-32.100	-0.245	-0.137
-721.835	-38.564	-0.103	-0.055
-720.821	33.361	-0.218	0.189
-719.806	800.000	-0.078	0.267
-718.791	-120.788	-0.188	0.032
-717.777	800.000	0.036	-0.128
-716.762	-96.331	-0.163	-0.043
-715.748	35.421	0.236	-0.207
-714.733	-79.777	0.314	0.105
-713.718	388.116	-0.193	-0.399
-712.704	-200.000	0.013	-0.300
-711.689	-200.000	-0.021	0.298
-710.675	282.864	-0.206	-0.370
-709.660	-200.000	0.005	0.078
-708.645	800.000	0.057	0.170
-707.631	784.192	0.108	0.296
-706.616	800.000	-0.089	0.253
-705.602	-52.802	0.286	-0.132
-704.587	280.372	0.117	0.208
-703.572	55.298	0.277	0.268
-702.558	38.976	0.114	0.102
-701.543	-127.576	0.249	-0.036
-700.529	-89.062	-0.189	-0.056
-699.514	-63.309	0.181	0.074
-698.499	-165.628	0.170	0.007
-697.485	-139.393	0.097	0.010
-696.470	800.000	-0.100	0.297
-695.456	22.121	0.171	-0.139
-694.441	800.000	-0.005	-0.018
-693.426	800.000	-0.022	0.079
-692.412	-20.784	0.033	0.020
-691.397	-47.356	0.205	-0.099
-690.383	14.637	-0.140	-0.109
-689.368	800.000	-0.026	-0.102
-688.354	-30.653	0.085	-0.048
-687.339	189.327	-0.061	-0.092
-686.324	-38.345	-0.239	0.126
-685.310	31.876	0.093	0.080
-684.295	-163.126	-0.369	0.018
-683.281	185.224	-0.254	0.376
-682.266	-43.205	0.099	-0.050
-681.251	-125.866	-0.203	-0.031
-680.237	-155.921	0.315	0.020
-679.222	-58.928	0.076	-0.033
-678.208	94.856	-0.047	0.053
-677.193	160.789	-0.092	0.128
-676.178	14.883	0.139	0.108
-675.164	-110.393	-0.172	-0.036
-674.149	-143.587	-0.260	-0.025
-673.135	600.035	-0.076	0.188
-672.120	-101.679	-0.128	0.031
-671.105	178.636	-0.232	0.338
-670.091	30.700	0.042	-0.036
-669.076	13.046	0.121	0.093
-668.062	29.720	0.167	-0.142
-667.047	-200.000	0.064	-0.295
-666.032	9.483	0.230	-0.174
-665.018	800.000	-0.116	-0.357
-664.003	178.343	-0.084	-0.122
-662.989	800.000	-0.039	-0.124
-661.974	-61.000	-0.135	0.057
-660.959	-200.000	-0.003	0.135
-659.945	-200.000	-0.008	0.481
-658.930	-121.618	-0.125	-0.021
-657.916	-59.453	-0.209	-0.089
-656.901	800.000	-0.086	-0.242
-655.886	-200.000	-0.010	0.047
-654.872	-79.325	-0.240	-0.081
-653.857	-171.033	-0.314	0.011
-652.843	93.269	-0.324	-0.365
-651.828	58.923	-0.278	-0.272
-650.814	-200.000	0.001	-0.185
-649.799	-154.748	0.174	0.012
-648.784	48.214	0.149	0.139
-647.770	40.502	-0.058	-0.052
-646.755	-46.864	-0.217	-0.106
-645.741	-144.311	-0.047	0.004
-644.726	54.124	0.102	0.097
-643.711	-200.000	0.008	0.187
-642.697	-187.043	-0.066	0.001
-641.682	30.703	0.064	-0.054
-640.668	-29.762	-0.070	0.040
-639.653	-163.305	-0.235	-0.011
-638.638	-118.601	0.157	0.028
-637.624	47.816	0.109	-0.101
-636.609	-200.000	-0.041	-0.333
-635.595	800.000	0.031	0.084
-634.580	-67.398	0.323	-0.126
-633.565	800.000	0.111	-0.338
-632.551	160.063	-0.169	-0.235
-631.536	-92.076	-0.231	0.065
-630.522	158.574	-0.034	0.047
-629.507	-200.000	-0.055	-0.343
-628.492	411.532	0.103	0.218
-627.478	-44.888	0.177	0.088
-626.463	-156.771	-0.125	-0.008
-625.449	-135.579	0.069	0.008
-624.434	0.452	0.168	0.120
-623.419	217.202	-0.031	-0.048
-622.405	21.729	-0.079	-0.064
-621.390	326.261	-0.150	0.286
-620.376	800.000	0.034	-0.097
-619.361	336.191	0.059	-0.115
-618.346	41.749	-0.146	-0.132
-617.332	-200.000	0.013	-0.170
-616.317	-41.003	0.247	-0.127
-615.303	-141.432	0.111	0.011
-614.288	22.209	-0.122	0.099
-613.273	322.160	0.135	-0.255
-612.259	56.534	0.108	0.105
-611.244	-106.180	-0.239	-0.053
-610.230	800.000	0.080	-0.250
-609.215	-88.899	-0.148	-0.044
-608.201	16.478	-0.081	-0.064
-607.186	374.719	-0.189	-0.383
-606.171	-49.915	-0.069	-0.033
-605.157	-164.623	-0.332	0.015
-604.142	800.000	0.068	-0.251
-603.128	241.146	0.271	-0.450
-602.113	12.161	-0.106	-0.081
-601.098	-200.000	-0.053	0.362
-600.084	41.413	0.209	-0.188
-599.069	-47.850	-0.146	0.070
-598.055	-69.966	0.069	0.026
-597.040	-200.000	0.005	-0.375
-596.025	264.887	-0.046	-0.080
-595.011	563.873	0.089	0.215
-593.996	-159.350	0.160	-0.009
-592.982	-136.284	0.268	-0.031
-591.967	-200.000	0.020	0.287
-590.952	138.808	0.015	-0.019
-589.938	-174.822	0.026	-0.001
-588.923	240.011	0.107	0.177
-587.909	-117.824	-0.237	0.042
-586.894	232.115	0.026	-0.043
-585.879	-200.000	0.001	-0.126
-584.865	800.000	0.055	-0.172
-583.850	78.439	0.228	0.242
-582.836	203.036	-0.028	0.044
-581.821	247.269	-0.172	-0.289
-580.806	-63.706	-0.126	0.051
-579.792	-143.319	0.171	-0.016
-578.777	244.106	0.103	-0.172
-577.763	136.852	-0.099	0.128
-576.748	315.053	-0.031	-0.057
-575.733	45.541	0.114	0.105
-574.719	142.340	0.105	-0.138
-573.704	327.087	-0.116	-0.220
-572.690	127.503	0.174	0.219
-571.675	583.505	-0.055	-0.135
-570.661	-200.000	-0.115	0.000
-569.646	245.928	0.082	0.137
-568.631	248.248	-0.097	-0.164
-567.617	-52.048	-0.370	-0.171
-566.602	-5.215	-0.205	-0.140
-565.588	91.116	-0.133	-0.148
-564.573	800.000	0.071	-0.224
-563.558	-200.000	0.015	0.194
-562.544	596.744	0.123	0.303
-561.529	796.213	-0.098	0.269
-560.515	800.000	-0.106	-0.343
-559.500	-138.444	-0.171	-0.019
-558.485	85.952	-0.227	0.248
-557.471	-54.192	-0.305	0.137
-556.456	-200.000	-0.014	0.097
-555.442	204.621	0.232	-0.357
-554.427	-20.809	0.116	0.070
-553.412	435.469	0.086	-0.186
-552.398	-76.530	0.244	-0.085
-551.383	20.720	-0.145	0.117
-550.369	-98.722	0.088	0.022
-549.354	-162.318	0.186	-0.009
-548.339	800.000	-0.062	-0.233
-547.325	-12.628	-0.153	0.099
-546.310	-106.183	0.241	0.054
-545.296	-43.649	-0.361	-0.180
-544.281	800.000	-0.132	-0.369
-543.266	-94.490	-0.262	0.071
-542.252	-159.514	-0.039	-0.002
-541.237	204.452	0.049	-0.076
-540.223	-200.000	-0.004	-0.102
-539.208	107.217	-0.061	0.072
-538.193	-200.000	0.022	0.172
-537.179	-76.732	0.256	-0.089
-536.164	-11.006	-0.186	0.121
-535.150	-81.095	0.205	-0.067
-534.135	107.323	0.113	0.133
-533.121	-133.183	0.386	0.048
-532.106	-200.000	0.007	-0.218
-531.091	-34.767	0.017	-0.009
-530.077	-140.478	0.035	0.004
-529.062	-72.658	-0.427	0.156
-528.048	-172.998	-0.341	-0.010
-527.033	-200.000	-0.051	-0.286
-526.018	129.238	-0.075	0.095
-525.004	92.982	-0.358	0.400
-523.989	-37.458	-0.304	-0.161
-522.975	36.441	0.159	-0.139
-521.960	28.750	0.174	-0.146
-520.945	185.694	0.063	0.093
-519.931	-200.000	-0.033	0.327
-518.916	-106.168	-0.087	0.019
-517.902	530.445	0.150	0.351
-516.887	98.488	0.094	0.107
-515.872	23.618	-0.227	-0.185
-514.858	-93.343	-0.299	-0.082
-513.843	259.585	0.133	-0.228
-512.829	-39.924	0.117	-0.060
-511.814	520.951	-0.109	-0.254
-510.799	-5.820	-0.314	-0.213
-509.785	-70.319	0.162	-0.061
-508.770	-79.626	0.085	0.028
-507.756	-53.474	0.413	-0.187
-506.741	9.859	-0.172	-0.129
-505.726	-95.407	-0.405	-0.108
-504.712	-178.796	-0.198	0.004
-503.697	9.707	-0.073	-0.055
-502.683	-114.088	0.375	-0.072
-501.668	-124.430	0.302	0.047
-500.653	-184.078	-0.082	0.001
-499.639	54.371	-0.110	-0.105
-498.624	523.036	0.134	0.311
-497.610	130.533	-0.091	-0.116
-496.595	-53.615	-0.036	-0.016
-495.581	-81.954	-0.307	0.099
-494.566	209.780	-0.104	-0.162
-493.551	249.389	-0.101	0.169
-492.537	-200.000	0.008	0.073
-491.522	-32.335	-0.200	-0.111
-490.508	12.773	-0.210	0.161
-489.493	-132.803	0.503	0.064
-488.478	-139.965	-0.182	-0.019
-487.464	20.497	0.148	-0.119
-486.449	34.429	0.264	0.228
-485.435	800.000	0.033	-0.115
-484.420	-38.348	0.164	-0.086
-483.405	-81.080	0.158	-0.052
-482.391	15.729	-0.325	-0.253
-481.376	-28.781	0.068	0.039
-480.362	-107.673	-0.152	0.033
-479.347	250.340	0.047	0.078
-478.332	473.559	-0.042	0.093
-477.318	699.343	0.035	-0.091
-476.303	-200.000	-0.058	-0.287
-475.289	-177.837	-0.235	0.006
-474.274	104.160	0.061	0.071
-473.259	-34.989	-0.243	-0.131
-472.245	9.275	-0.097	-0.073
-471.230	-150.592	0.322	-0.024
-470.216	442.818	-0.054	-0.117
-469.201	397.200	-0.156	-0.322
-468.186	65.241	0.050	-0.050
-467.172	11.225	-0.118	-0.089
-466.157	10.611	-0.154	0.116
-465.143	-86.007	0.127	-0.039
-464.128	800.000	-0.122	0.347
-463.113	488.424	-0.055	-0.124
-462.099	-138.375	0.152	-0.017
-461.084	2.978	-0.283	0.203
-460.070	800.000	-0.059	-0.228
-459.055	-154.076	-0.246	-0.017
-458.040	-200.000	0.023	0.114
-457.026	800.000	0.030	0.091
-456.011	-14.906	-0.290	-0.184
-454.997	-200.000	-0.013	0.203
-453.982	19.580	-0.278	-0.221
-452.968	668.084	-0.020	-0.051
-451.953	662.969	-0.088	-0.223
-450.938	69.795	0.112	-0.114
-449.924	-50.933	-0.212	-0.098
-448.909	609.674	0.083	-0.205
-447.895	-135.242	-0.331	-0.039
-446.880	-58.136	0.245	0.105
-445.865	-200.000	0.039	0.322
-444.851	39.822	-0.186	0.165
-443.836	800.000	0.058	0.159
-442.822	-154.710	-0.101	0.007
-441.807	-62.327	0.235	0.097
-440.792	-200.000	-0.034	0.314
-439.778	-200.000	-0.032	-0.172
-438.763	-200.000	-0.021	0.170
-437.749	-64.721	0.072	-0.029
-436.734	800.000	-0.052	-0.208
-435.719	-200.000	0.015	-0.145
-434.705	36.076	-0.044	-0.038
-433.690	-133.914	-0.145	-0.018
-432.676	432.450	-0.046	0.098
-431.661	-75.636	0.138	-0.048
-430.646	800.000	0.089	0.264
-429.632	-22.216	-0.098	0.058
-428.617	12.465	0.233	0.177
-427.603	-27.681	0.165	-0.095
-426.588	281.332	-0.210	-0.371
-425.573	-20.498	0.141	-0.085
-424.559	81.185	-0.098	0.104
-423.544	0.560	-0.078	-0.055
-422.530	-200.000	0.017	0.120
-421.515	-70.761	0.061	0.023
-420.500	-169.807	-0.281	-0.010
-419.486	403.519	0.002	0.005
-418.471	45.669	-0.174	0.159
-417.457	-200.000	0.027	-0.217
-416.442	-4.943	0.250	0.170
-415.428	-200.000	0.013	-0.078
-414.413	-65.971	-0.383	-0.151
-413.398	-200.000	-0.035	0.422
-412.384	-106.923	-0.176	0.038
-411.369	-200.000	0.018	0.260
-410.355	-135.908	0.406	0.047
-409.340	-176.713	0.366	0.009
-408.325	-32.002	0.389	0.215
-407.311	-60.693	-0.184	-0.077
-406.296	354.476	0.070	0.136
-405.282	140.145	-0.153	0.199
-404.267	-200.000	-0.019	0.442
-403.252	-200.000	0.027	-0.157
-402.238	-118.704	-0.072	-0.013
-401.223	-200.000	-0.041	-0.488
-400.209	-124.556	0.140	0.021
-399.194	-200.000	-0.001	-0.134
-398.179	-156.634	0.116	0.007
-397.165	108.270	0.193	-0.227
-396.150	-84.831	-0.367	0.114
-395.136	-116.652	-0.179	-0.032
-394.121	-200.000	0.045	-0.681
-393.106	14.606	-0.197	-0.152
-392.092	185.511	-0.192	0.282
-391.077	65.430	-0.139	-0.139
-390.063	-161.017	-0.285	-0.015
-389.048	-93.262	0.312	0.085
-388.033	367.364	-0.050	0.100
-387.019	252.468	0.085	0.143
-386.004	-200.000	0.003	0.122
-384.990	26.599	0.273	-0.225
-383.975	-45.870	-0.251	-0.122
-382.960	-100.996	-0.289	0.070
-381.946	-200.000	0.032	-0.201
-380.931	148.019	0.261	-0.347
-379.917	-39.909	-0.064	0.033
-378.902	-75.878	0.187	0.065
-377.888	49.541	0.145	-0.135
-376.873	-177.979	0.095	0.002
-375.858	-88.373	0.135	-0.040
-374.844	-156.126	0.038	0.002
-373.829	-69.570	-0.140	-0.053
-372.815	-65.711	0.503	-0.199
-371.800	-200.000	-0.006	0.045
-370.785	507.999	0.143	0.328
-369.771	344.716	0.110	0.213
-368.756	-200.000	-0.030	-0.149
-367.742	56.296	-0.061	-0.058
-366.727	17.865	0.088	-0.069
-365.712	-27.320	-0.220	0.126
-364.698	800.000	-0.108	0.295
-363.683	13.955	-0.047	-0.036
-362.669	-57.602	0.198	-0.085
-361.654	-9.403	-0.177	-0.117
-360.639	-119.695	0.252	0.043
-359.625	66.648	0.224	0.224
-358.610	-3.784	0.086	-0.059
-357.596	-200.000	-0.162	0.000
-356.581	-37.238	-0.246	0.130
-355.566	-12.254	-0.211	-0.136
-354.552	-200.000	0.107	-0.000
-353.537	-50.580	0.121	-0.056
-352.523	1.899	0.208	0.147
-351.508	24.052	0.110	-0.089
-350.493	-166.720	0.070	0.003
-349.479	-100.152	0.093	-0.023
-348.464	-48.312	-0.068	-0.032
-347.450	689.076	0.113	0.290
-346.435	289.395	-0.032	-0.057
-345.420	82.847	0.156	0.167
-344.406	574.512	-0.057	0.137
-343.391	209.582	-0.261	-0.402
-342.377	-31.217	0.103	-0.057
-341.362	-83.871	-0.111	-0.035
-340.348	27.266	-0.123	0.102
-339.333	-4.782	-0.071	0.048
-338.318	139.277	-0.026	-0.034
-337.304	45.713	0.248	0.225
-336.289	777.863	-0.102	-0.274
-335.275	-200.000	0.019	0.141
-334.260	800.000	0.025	0.071
-333.245	-200.000	-0.052	0.246
-332.231	128.843	-0.121	0.152
-331.216	-200.000	-0.071	0.482
-330.202	32.324	0.198	0.168
-329.187	-114.930	-0.180	0.034
-328.172	160.618	0.076	-0.105
-327.158	800.000	0.075	-0.264
-326.143	27.064	-0.257	0.212
-325.129	474.042	-0.056	0.125
-324.114	602.309	0.073	0.178
-323.099	110.737	-0.236	-0.279
-322.085	65.336	0.105	0.105
-321.070	-200.000	0.007	0.295
-320.056	-102.998	-0.138	-0.032
-319.041	-105.021	-0.287	-0.065
-318.026	508.153	0.049	0.112
-317.012	-83.023	0.380	0.120
-315.997	-177.562	0.105	-0.003
-314.983	493.149	-0.075	0.169
-313.968	-114.968	-0.104	-0.019
-312.953	-80.162	-0.203	-0.067
-311.939	769.330	0.071	0.189
-310.924	64.742	-0.199	0.197
-309.910	-150.889	0.339	0.025
-308.895	800.000	-0.080	-0.229
-307.880	-1.364	0.149	0.103
-306.866	800.000	-0.027	0.085
-305.851	369.586	0.167	0.332
-304.837	415.345	0.064	0.134
-303.822	-30.962	-0.338	-0.187
-302.807	-200.000	-0.003	-0.263
-301.793	-63.410	-0.213	0.086
-300.778	70.610	-0.278	0.283
-299.764	-200.000	0.045	-0.325
-298.749	199.792	-0.193	0.292
-297.735	31.677	-0.118	0.100
-296.720	158.286	-0.213	0.290
-295.705	20.439	-0.257	-0.204
-294.691	138.400	0.281	0.362
-293.676	42.354	0.180	0.160
-292.662	800.000	0.024	0.092
-291.647	-200.000	-0.003	0.364
-290.632	293.750	-0.070	0.126
-289.618	-57.626	0.069	0.030
-288.603	755.342	0.021	-0.056
-287.589	32.801	0.116	0.099
-286.574	-200.000	-0.018	-0.214
-285.559	497.916	0.057	-0.129
-284.545	-200.000	0.076	0.328
-283.530	141.245	-0.226	0.294
-282.516	-74.724	0.142	-0.050
-281.501	800.000	0.083	0.256
-280.486	-200.000	0.037	0.298
-279.472	-119.408	-0.271	0.046
-278.457	676.723	0.121	0.308
-277.443	-200.000	-0.007	0.120
-276.428	220.582	0.118	-0.186
-275.413	484.780	-0.154	0.345
-274.399	625.291	-0.117	-0.291
-273.384	239.237	-0.071	-0.116
-272.370	175.453	0.072	-0.103
-271.355	-59.019	-0.206	0.087
-270.340	757.237	-0.045	0.121
-269.326	-112.342	-0.181	-0.036
-268.311	475.990	0.091	0.201
-267.297	62.807	0.057	-0.056
-266.282	84.755	-0.222	0.239
-265.267	356.894	-0.151	0.295
-264.253	-5.262	-0.278	-0.187
-263.238	22.968	0.174	0.140
-262.224	800.000	0.040	-0.150
-261.209	-125.196	-0.027	-0.004
-260.195	311.443	0.043	0.079
-259.180	23.587	0.155	-0.125
-258.165	-99.478	0.156	0.039
-257.151	-27.229	0.268	0.153
-256.136	3.766	0.332	0.238
-255.122	-87.149	-0.271	-0.081
-254.107	107.586	0.117	-0.137
-253.092	800.000	0.030	0.097
-252.078	-200.000	-0.010	-0.205
-251.063	-34.074	0.202	-0.109
-250.049	341.938	0.139	0.267
-249.034	168.291	-0.119	0.166
-248.019	-200.000	0.003	-0.141
-247.005	303.114	0.056	-0.102
-245.990	87.174	-0.300	0.326
-244.976	-73.696	0.088	-0.031
-243.961	256.091	0.164	-0.277
-242.946	-118.288	0.376	0.066
-241.932	-200.000	-0.001	0.270
-240.917	98.247	0.146	0.165
-239.903	-74.587	0.121	0.043
-238.888	67.601	-0.115	-0.115
-237.873	-200.000	0.267	-0.001
-236.859	800.000	-0.027	0.118
-235.844	-40.430	-0.242	-0.123
-234.830	-28.733	0.071	-0.040
-233.815	-71.489	0.213	-0.078
-232.800	-78.959	-0.092	0.031
-231.786	-200.000	-0.008	-0.119
-230.771	800.000	0.061	0.216
-229.757	-53.748	-0.175	-0.078
-228.742	-114.987	-0.044	-0.008
-227.727	-154.308	0.241	-0.016
-226.713	-200.000	-0.277	0.000
-225.698	-24.032	0.296	-0.173
-224.684	-43.737	0.218	-0.108
-223.669	37.068	0.092	0.080
-222.655	-157.506	0.096	-0.006
-221.640	-200.000	0.014	0.222
-220.625	-98.759	-0.272	0.068
-219.611	-200.000	0.045	-0.231
-218.596	-32.224	0.263	-0.144
-217.582	-4.912	0.220	-0.148
-216.567	-110.157	-0.099	-0.020
-215.552	25.740	0.076	0.062
-214.538	326.174	-0.057	0.106
-213.523	800.000	-0.046	-0.136
-212.509	151.934	0.192	0.257
-211.494	-200.000	0.017	0.237
-210.479	57.355	0.030	0.028
-209.465	79.630	0.267	0.281
-208.450	800.000	-0.079	-0.227
-207.436	507.212	-0.111	-0.253
-206.421	16.075	-0.060	-0.046
-205.406	-102.980	0.493	0.115
-204.392	-99.475	0.376	0.093
-203.377	-200.000	-0.027	-0.378
-202.363	-200.000	-0.222	0.000
-201.348	800.000	0.053	-0.193
-200.333	-200.000	0.053	-0.309
-199.319	473.180	0.060	-0.132
-198.304	330.486	-0.042	0.080
-197.290	-181.903	0.268	0.005
-196.275	477.014	0.231	-0.511
-195.260	4.754	0.322	-0.232
-194.246	-200.000	0.033	0.163
-193.231	-99.823	0.304	-0.074
-192.217	529.837	0.056	-0.130
-191.202	-52.682	-0.274	-0.124
-190.187	54.774	-0.177	-0.167
-189.173	-200.000	0.022	-0.134
-188.158	-108.866	0.221	-0.046
-187.144	271.424	-0.052	0.090
-186.129	-169.626	-0.100	-0.004
-185.114	-57.651	-0.148	-0.063
-184.100	-84.391	0.089	-0.027
-183.085	-38.089	-0.108	-0.056
-182.071	-7.836	-0.202	-0.133
-181.056	183.422	-0.021	0.030
-180.042	614.691	0.024	0.060
-179.027	800.000	-0.047	-0.136
-178.012	277.368	-0.113	0.196
-176.998	-200.000	-0.003	0.146
-175.983	-80.662	0.167	-0.054
-174.969	-114.773	-0.173	0.032
-173.954	93.225	-0.040	-0.045
-172.939	35.061	-0.155	0.133
-171.925	-192.876	-0.119	0.001
-170.910	158.567	0.102	-0.138
-169.896	800.000	0.128	0.379
-168.881	-142.287	0.376	0.036
-167.866	337.280	0.065	0.123
-166.852	20.185	0.085	0.067
-165.837	-200.000	-0.030	0.240
-164.823	-143.973	0.238	-0.022
-163.808	-33.927	-0.028	0.015
-162.793	82.592	-0.025	-0.027
-161.779	-200.000	0.032	-0.193
-160.764	21.066	0.093	0.074
-159.750	421.257	0.097	0.203
-158.735	-89.351	-0.235	0.068
-157.720	-21.220	0.183	0.109
-156.706	-200.000	0.022	0.138
-155.691	800.000	-0.033	0.136
-154.677	-98.346	-0.225	-0.056
-153.662	-134.633	0.192	-0.023
-152.647	-48.187	0.236	0.111
-151.633	-200.000	-0.002	-0.379
-150.618	-200.000	-0.004	-0.086
-149.604	133.850	-0.021	0.026
-148.589	800.000	-0.104	0.283
-147.574	542.397	0.034	0.080
-146.560	187.563	-0.192	0.280
-145.545	800.000	0.023	-0.087
-144.531	-122.594	0.145	0.023
-143.516	-15.245	-0.143	-0.089
-142.502	800.000	0.090	0.263
-141.487	800.000	0.019	0.064
-140.472	168.152	-0.303	0.421
-139.458	-134.781	-0.325	-0.039
-138.443	-6.351	0.082	0.055
-137.429	-65.539	0.148	-0.058
-136.414	-60.715	-0.306	0.126
-135.399	-200.000	-0.020	-0.231
-134.385	800.000	-0.067	-0.254
-133.370	-157.730	0.153	0.009
-132.356	-102.778	-0.276	0.064
-131.341	-200.000	-0.046	0.202
-130.326	-106.056	0.150	0.033
-129.312	-84.945	-0.091	0.028
-128.297	-58.931	-0.353	0.149
-127.283	-200.000	0.014	-0.063
-126.268	231.331	0.137	0.220
-125.253	800.000	0.069	0.193
-124.239	118.581	0.106	-0.128
-123.224	-103.179	-0.084	-0.019
-122.210	-139.449	0.169	-0.018
-121.195	226.473	-0.053	0.085
