DTS Sentinel unit serial number:	SN413079Multiplexer serial number:	ORYXHardware model number:	OX4-SRSoftware version number:	ORYX F/W v4.00 Oryx Data Collector v3.7.2.0data status	okinstallation	princeton_trtdifferential loss correction	single-endedforward channel	channel 3reverse channel	N/Adate	2019/09/13time	23:04:35forward acquisition time	60.00reverse acquisition time	0.00gamma	496.2192k internal	0.2338k external	0.2338temperature offset calibration	1.0056default loss term (dB/km)	0.3790temperature slope calibration	1.0000multiplexer offset coefficient	1.0000multiplexer slope coefficient	1.0000fibre end	0.00T internal ref (°C)	27.28T ext. ref 1 (°C)	3.20T ext. ref 2 (°C)	21.24length (m)	temperature (°C)	Stokes	anti-Stokes-747.200	93.362	0.138	-0.157
-746.185	356.629	-0.104	0.207
-745.171	18.547	-0.416	-0.334
-744.156	108.976	0.079	-0.094
-743.142	156.834	0.175	0.243
-742.127	-24.387	-0.560	0.335
-741.112	-13.257	0.176	0.115
-740.098	345.165	0.129	0.254
-739.083	-15.181	-0.048	-0.031
-738.069	800.000	-0.089	0.333
-737.054	-71.248	0.167	-0.063
-736.039	-200.000	-0.018	-0.351
-735.025	56.616	-0.121	-0.118
-734.010	-200.000	0.009	-0.218
-732.996	87.384	-0.114	0.126
-731.981	472.070	-0.059	0.133
-730.966	132.383	-0.270	0.348
-729.952	-80.437	-0.051	-0.017
-728.937	-5.667	-0.229	0.157
-727.923	-101.465	0.040	-0.010
-726.908	280.292	0.166	0.297
-725.894	55.415	0.036	0.035
-724.879	-120.379	-0.010	0.002
-723.864	259.200	-0.131	-0.227
-722.850	1.865	0.075	0.054
-721.835	-200.000	0.012	-0.302
-720.821	150.802	-0.133	0.182
-719.806	-10.904	0.120	0.079
-718.791	68.921	0.148	0.152
-717.777	-200.000	-0.002	-0.401
-716.762	-158.734	0.249	-0.014
-715.748	2.053	-0.111	-0.080
-714.733	-25.688	-0.379	-0.224
-713.718	-200.000	-0.028	-0.217
-712.704	-83.785	-0.196	0.063
-711.689	800.000	-0.055	0.164
-710.675	800.000	0.129	-0.446
-709.660	-62.387	0.345	-0.144
-708.645	-200.000	0.022	-0.175
-707.631	283.034	-0.149	-0.268
-706.616	-200.000	0.027	-0.222
-705.602	164.346	0.055	0.078
-704.587	181.974	-0.072	-0.106
-703.572	30.307	-0.312	-0.267
-702.558	-200.000	0.064	-0.391
-701.543	-20.722	0.100	-0.062
-700.529	-25.617	0.125	0.074
-699.514	-99.307	0.189	0.048
-698.499	-152.687	-0.267	-0.019
-697.485	-200.000	0.002	-0.205
-696.470	-200.000	-0.059	-0.267
-695.456	217.603	-0.065	-0.104
-694.441	-200.000	0.005	-0.258
-693.426	78.672	-0.122	-0.131
-692.412	-81.167	0.184	0.061
-691.397	-200.000	0.018	0.114
-690.383	-63.734	-0.114	-0.047
-689.368	46.143	-0.114	0.106
-688.354	-200.000	-0.002	0.064
-687.339	43.325	0.200	-0.183
-686.324	-118.418	-0.255	0.045
-685.310	800.000	-0.103	-0.345
-684.295	316.440	-0.084	-0.159
-683.281	-179.133	0.122	0.003
-682.266	-101.138	-0.207	-0.051
-681.251	281.675	0.027	-0.049
-680.237	-200.000	-0.026	0.184
-679.222	67.887	0.175	0.179
-678.208	79.403	0.063	-0.067
-677.193	56.661	-0.090	-0.088
-676.178	-200.000	-0.007	0.037
-675.164	25.006	0.261	0.217
-674.149	-166.342	0.131	-0.006
-673.135	-133.390	0.144	0.018
-672.120	-200.000	0.034	-0.176
-671.105	192.497	0.100	0.150
-670.091	-200.000	-0.226	-0.001
-669.076	195.229	0.132	0.200
-668.062	9.666	0.144	0.110
-667.047	-198.113	0.090	-0.001
-666.032	656.088	-0.067	0.171
-665.018	-190.216	-0.341	0.004
-664.003	-101.929	0.103	0.025
-662.989	97.210	0.170	-0.196
-661.974	-200.000	0.036	-0.256
-660.959	-65.370	0.176	-0.071
-659.945	69.683	0.177	0.182
-658.930	14.872	-0.105	0.082
-657.916	800.000	0.105	-0.392
-656.901	436.426	0.127	0.277
-655.886	-74.328	-0.115	-0.042
-654.872	-77.662	-0.174	0.060
-653.857	265.284	-0.078	-0.135
-652.843	-102.712	-0.275	0.065
-651.828	-64.678	-0.093	-0.038
-650.814	3.064	0.289	0.210
-649.799	-45.797	-0.088	-0.043
-648.784	35.150	0.343	-0.301
-647.770	476.234	-0.046	0.104
-646.755	179.532	-0.071	0.104
-645.741	-156.133	0.025	0.002
-644.726	219.492	-0.161	-0.258
-643.711	122.115	0.146	-0.182
-642.697	-200.000	-0.016	0.107
-641.682	-132.413	-0.107	-0.014
-640.668	198.498	0.175	0.268
-639.653	-74.128	-0.217	0.079
-638.638	67.887	0.066	0.068
-637.624	-84.634	0.404	0.127
-636.609	103.958	0.101	-0.119
-635.595	23.132	-0.149	-0.122
-634.580	800.000	0.064	-0.273
-633.565	-92.887	0.123	-0.034
-632.551	16.064	0.018	-0.014
-631.536	423.641	0.089	-0.192
-630.522	-200.000	-0.026	0.126
-629.507	-66.721	0.501	-0.198
-628.492	-200.000	-0.427	0.001
-627.478	-200.000	-0.013	-0.061
-626.463	173.740	-0.135	-0.194
-625.449	86.025	0.199	-0.218
-624.434	-200.000	-0.004	-0.140
-623.419	-65.051	0.284	0.114
-622.405	111.085	0.120	0.144
-621.390	-15.627	-0.200	-0.127
-620.376	800.000	-0.060	-0.238
-619.361	-10.359	-0.279	-0.185
-618.346	129.036	0.324	-0.412
-617.332	-200.000	0.038	0.236
-616.317	800.000	0.055	0.207
-615.303	316.436	-0.074	-0.140
-614.288	-200.000	-0.051	0.258
-613.273	-170.335	0.251	-0.009
-612.259	-59.060	0.163	0.070
-611.244	-129.909	-0.291	-0.040
-610.230	-200.000	-0.061	-0.344
-609.215	-119.869	0.255	-0.044
-608.201	-36.240	-0.121	-0.065
-607.186	137.679	0.185	-0.242
-606.171	82.278	0.102	0.110
-605.157	-141.855	-0.321	-0.032
-604.142	7.090	-0.290	-0.216
-603.128	557.981	-0.007	0.016
-602.113	370.958	-0.037	-0.075
-601.098	122.610	-0.066	0.082
-600.084	-41.409	-0.204	-0.105
-599.069	-117.168	0.294	0.053
-598.055	65.448	0.014	-0.014
-597.040	-66.322	0.217	0.086
-596.025	-200.000	0.000	0.018
-595.011	188.786	-0.157	0.234
-593.996	-104.299	-0.185	-0.043
-592.982	173.422	-0.202	0.290
-591.967	-78.606	-0.144	-0.049
-590.952	-130.389	0.003	0.000
-589.938	-56.764	0.266	-0.118
-588.923	-200.000	-0.028	0.228
-587.909	211.030	0.103	0.162
-586.894	-79.982	-0.148	0.049
-585.879	-30.984	0.397	-0.224
-584.865	-75.930	-0.116	-0.041
-583.850	-200.000	0.009	0.191
-582.836	800.000	0.031	0.134
-581.821	800.000	0.058	0.189
-580.806	246.662	-0.121	-0.204
-579.792	-200.000	-0.061	-0.403
-578.777	-121.355	-0.214	-0.036
-577.763	46.881	0.182	0.169
-576.748	-22.636	0.385	-0.232
-575.733	-15.960	0.030	-0.019
-574.719	30.505	0.304	0.259
-573.704	-30.424	-0.121	-0.068
-572.690	63.076	-0.260	0.260
-571.675	-134.040	-0.218	0.027
-570.661	76.919	0.119	0.125
-569.646	-189.579	0.147	0.002
-568.631	800.000	0.145	0.514
-567.617	-7.908	-0.267	-0.180
-566.602	478.551	-0.129	0.290
-565.588	-79.145	-0.210	0.071
-564.573	-17.366	0.100	-0.063
-563.558	-200.000	-0.015	0.199
-562.544	209.329	0.118	-0.184
-561.529	-200.000	0.046	-0.319
-560.515	800.000	-0.054	-0.233
-559.500	-200.000	-0.064	-0.291
-558.485	-67.561	-0.164	0.064
-557.471	305.251	0.169	0.312
-556.456	-200.000	-0.002	0.226
-555.442	-132.216	0.155	-0.020
-554.427	800.000	0.110	0.335
-553.412	503.851	0.067	0.154
-552.398	10.749	-0.294	0.223
-551.383	721.515	-0.058	-0.153
-550.369	-9.411	-0.127	-0.085
-549.354	145.324	-0.090	-0.119
-548.339	-51.856	0.240	-0.111
-547.325	52.197	0.135	-0.128
-546.310	-87.388	-0.358	0.108
-545.296	-35.743	-0.202	0.109
-544.281	-141.333	-0.325	0.033
-543.266	-121.163	0.059	0.010
-542.252	168.120	0.247	0.350
-541.237	-57.200	0.249	-0.109
-540.223	319.478	0.065	0.122
-539.208	74.012	-0.104	-0.109
-538.193	78.960	0.069	0.074
-537.179	-61.879	0.087	-0.036
-536.164	-200.000	-0.022	0.145
-535.150	-93.961	-0.299	-0.082
-534.135	-80.601	-0.227	-0.075
-533.121	800.000	-0.074	0.240
-532.106	-200.000	-0.053	-0.305
-531.091	766.308	0.066	0.178
-530.077	326.404	0.183	-0.348
-529.062	279.074	-0.086	-0.152
-528.048	800.000	0.095	0.351
-527.033	-129.293	-0.209	0.029
-526.018	-103.725	0.210	0.049
-525.004	-15.062	0.305	-0.194
-523.989	-114.188	-0.227	0.044
-522.975	-27.866	0.077	-0.044
-521.960	-60.965	0.275	0.115
-520.945	-101.599	-0.429	-0.104
-519.931	-109.172	0.256	-0.054
-518.916	-200.000	-0.010	-0.164
-517.902	270.149	0.123	0.215
-516.887	85.491	-0.134	-0.146
-515.872	-76.953	-0.153	0.053
-514.858	-36.110	0.102	0.055
-513.843	-200.000	-0.060	-0.326
-512.829	-200.000	-0.026	0.244
-511.814	76.251	-0.352	-0.370
-510.799	-75.105	-0.214	-0.076
-509.785	217.970	0.101	-0.161
-508.770	-200.000	0.002	-0.312
-507.756	800.000	0.110	-0.399
-506.741	122.494	-0.109	-0.136
-505.726	-200.000	-0.010	-0.104
-504.712	-200.000	-0.002	0.185
-503.697	800.000	-0.063	0.179
-502.683	800.000	-0.105	-0.295
-501.668	112.452	0.198	0.238
-500.653	532.248	-0.021	0.050
-499.639	-200.000	-0.005	-0.243
-498.624	-161.955	-0.285	0.014
-497.610	181.999	-0.214	0.313
-496.595	241.183	-0.002	0.004
-495.581	-200.000	-0.021	-0.339
-494.566	190.010	0.036	0.053
-493.551	17.638	-0.068	0.054
-492.537	239.353	-0.208	0.344
-491.522	-151.760	-0.244	-0.018
-490.508	-83.068	0.127	0.041
-489.493	-102.396	-0.083	-0.020
-488.478	-92.543	-0.052	-0.015
-487.464	-200.000	0.043	-0.196
-486.449	800.000	-0.052	0.145
-485.435	-86.575	0.583	-0.178
-484.420	163.356	0.300	-0.419
-483.405	683.027	-0.048	0.125
-482.391	75.182	-0.098	0.103
-481.376	-48.021	-0.042	0.020
-480.362	-200.000	0.086	0.434
-479.347	-94.990	-0.328	0.088
-478.332	800.000	0.005	-0.017
-477.318	65.099	-0.087	0.087
-476.303	54.264	-0.177	-0.169
-475.289	-200.000	0.003	-0.139
-474.274	-200.000	0.012	-0.209
-473.259	-161.305	0.349	-0.018
-472.245	-150.464	-0.157	-0.012
-471.230	63.357	-0.134	0.133
-470.216	-74.680	0.378	0.135
-469.201	-181.335	-0.294	0.006
-468.186	-200.000	-0.027	0.295
-467.172	-101.054	-0.048	-0.012
-466.157	50.450	-0.132	-0.124
-465.143	-42.352	-0.314	-0.159
-464.128	-126.790	-0.114	0.017
-463.113	27.059	-0.401	-0.334
-462.099	-52.858	0.113	-0.052
-461.084	784.542	-0.163	-0.444
-460.070	19.997	0.143	0.115
-459.055	103.629	0.061	0.071
-458.040	-128.692	-0.102	0.014
-457.026	-165.213	-0.060	0.003
-456.011	246.150	0.130	0.218
-454.997	434.993	0.038	-0.081
-453.982	-89.186	0.029	0.008
-452.968	799.002	0.047	-0.130
-451.953	85.462	0.039	0.043
-450.938	15.542	-0.154	0.120
-449.924	-92.191	-0.155	-0.044
-448.909	-200.000	0.059	0.431
-447.895	-46.485	0.070	-0.034
-446.880	-171.775	0.277	0.009
-445.865	34.229	0.115	0.100
-444.851	-49.072	0.588	0.279
-443.836	-162.758	-0.194	-0.009
-442.822	44.895	0.202	-0.185
-441.807	-104.157	-0.181	-0.042
-440.792	449.546	0.191	-0.417
-439.778	-65.432	0.264	0.105
-438.763	369.514	-0.086	0.173
-437.749	-200.000	0.028	0.358
-436.734	315.530	-0.027	-0.050
-435.719	175.652	0.115	-0.166
-434.705	800.000	-0.047	0.194
-433.690	396.513	0.068	0.140
-432.676	-168.829	0.017	-0.001
-431.661	249.295	-0.156	-0.262
-430.646	91.085	-0.171	-0.191
-429.632	60.370	0.179	-0.176
-428.617	-35.267	0.340	-0.183
-427.603	800.000	-0.026	0.074
-426.588	-111.942	-0.234	-0.047
-425.573	224.588	-0.020	0.032
-424.559	22.781	0.227	-0.184
-423.544	137.357	0.133	0.172
-422.530	90.206	-0.220	0.243
-421.515	-9.929	0.201	0.132
-420.500	-17.782	0.257	-0.160
-419.486	522.952	0.080	0.187
-418.471	3.412	0.113	-0.082
-417.457	800.000	0.062	0.259
-416.442	41.309	-0.157	-0.141
-415.428	228.173	0.053	-0.086
-414.413	-121.596	-0.218	-0.036
-413.398	279.515	-0.159	0.281
-412.384	-143.094	0.273	0.026
-411.369	-25.417	-0.326	0.191
-410.355	-119.062	-0.229	-0.040
-409.340	339.859	-0.082	-0.159
-408.325	-200.000	-0.032	0.181
-407.311	-54.978	-0.141	-0.063
-406.296	-56.599	-0.348	0.153
-405.282	800.000	0.114	0.351
-404.267	-76.597	0.159	-0.055
-403.252	-200.000	-0.014	-0.143
-402.238	0.832	0.063	-0.045
-401.223	800.000	0.048	-0.175
-400.209	-200.000	-0.021	0.224
-399.194	-81.536	0.135	0.044
-398.179	499.398	-0.022	0.051
-397.165	255.217	-0.162	-0.274
-396.150	13.717	0.065	-0.050
-395.136	98.950	-0.102	0.116
-394.121	800.000	-0.086	0.283
-393.106	-55.674	-0.263	-0.117
-392.092	-200.000	-0.012	-0.093
-391.077	309.448	-0.153	0.282
-390.063	-200.000	0.058	-0.335
-389.048	19.821	-0.072	0.058
-388.033	-156.267	-0.200	0.012
-387.019	-19.515	-0.247	0.151
-386.004	413.792	-0.104	0.220
-384.990	96.943	0.097	-0.110
-383.975	69.138	-0.272	-0.277
-382.960	-200.000	-0.053	0.249
-381.946	203.414	-0.072	0.110
-380.931	-138.583	-0.098	0.011
-379.917	800.000	0.086	0.295
-378.902	-74.277	-0.215	-0.077
-377.888	-200.000	-0.032	0.193
-376.873	36.352	0.072	-0.063
-375.858	800.000	0.065	0.195
-374.844	17.525	0.154	0.121
-373.829	-145.884	0.196	-0.017
-372.815	-33.266	-0.325	0.178
-371.800	443.802	-0.104	-0.226
-370.785	-54.813	0.028	-0.013
-369.771	-200.000	-0.010	0.095
-368.756	-4.085	0.307	0.210
-367.742	-200.000	-0.007	-0.060
-366.727	21.178	0.244	0.195
-365.712	91.650	0.182	-0.202
-364.698	800.000	0.057	0.203
-363.683	-103.207	-0.108	0.025
-362.669	-119.810	-0.136	-0.023
-361.654	130.423	-0.123	0.156
-360.639	800.000	0.090	0.360
-359.625	800.000	0.042	0.142
-358.610	41.011	-0.209	-0.187
-357.596	-200.000	0.029	-0.264
-356.581	-136.354	-0.015	0.002
-355.566	-76.501	-0.254	0.088
-354.552	-200.000	0.008	-0.282
-353.537	-94.887	0.233	-0.062
-352.523	-84.310	-0.204	-0.064
-351.508	-170.198	0.288	0.010
-350.493	-89.156	-0.339	-0.099
-349.479	-16.284	0.107	-0.067
-348.464	-200.000	0.033	0.224
-347.450	288.269	0.072	-0.129
-346.435	-200.000	-0.046	-0.208
-345.420	-76.714	0.276	-0.096
-344.406	210.718	0.070	-0.108
-343.391	-42.447	0.166	-0.084
-342.377	474.175	0.150	-0.334
-341.362	-78.622	-0.323	-0.109
-340.348	-173.111	-0.154	-0.005
-339.333	-19.823	0.379	-0.231
-338.318	-200.000	0.017	-0.336
-337.304	-200.000	0.297	-0.001
-336.289	-165.717	0.127	0.005
-335.275	-145.568	0.317	-0.028
-334.260	314.430	0.048	-0.090
-333.245	-36.211	-0.182	-0.097
-332.231	-183.169	-0.182	0.003
-331.216	-131.166	0.046	0.006
-330.202	132.032	-0.283	-0.359
-329.187	10.681	-0.268	0.202
-328.172	121.705	-0.158	0.194
-327.158	85.165	-0.135	-0.146
-326.143	91.964	0.185	-0.206
-325.129	-130.585	-0.084	0.011
-324.114	5.330	0.133	-0.096
-323.099	-200.000	-0.031	0.159
-322.085	158.426	-0.086	-0.118
-321.070	-71.122	-0.283	-0.105
-320.056	-65.566	0.034	-0.013
-319.041	-16.679	0.113	0.071
-318.026	14.925	0.312	0.241
-317.012	60.803	0.203	0.199
-315.997	203.402	-0.124	0.189
-314.983	-34.309	0.398	0.215
-313.968	206.106	0.218	-0.334
-312.953	-34.452	-0.078	0.042
-311.939	278.952	0.199	0.351
-310.924	522.027	-0.053	-0.123
-309.910	-49.648	-0.301	-0.141
-308.895	-200.000	-0.082	0.365
-307.880	-63.983	-0.242	-0.097
-306.866	684.756	-0.074	-0.191
-305.851	532.713	-0.137	0.320
-304.837	-94.899	-0.257	-0.069
-303.822	245.272	0.068	0.113
-302.807	149.193	0.072	-0.096
-301.793	-49.742	-0.431	0.202
-300.778	176.277	0.190	-0.272
-299.764	72.533	-0.101	-0.103
-298.749	740.153	-0.069	-0.182
-297.735	76.309	-0.038	-0.039
-296.720	-200.000	-0.009	-0.106
-295.705	-116.993	-0.292	0.053
-294.691	-112.573	0.192	0.038
-293.676	-108.048	-0.181	0.039
-292.662	163.624	-0.180	0.250
-291.647	-200.000	0.045	0.480
-290.632	-148.615	-0.263	-0.021
-289.618	-110.489	0.290	-0.059
-288.603	62.112	-0.053	0.052
-287.589	-31.805	0.125	-0.069
-286.574	-110.981	0.218	0.044
-285.559	174.890	0.142	0.202
-284.545	125.968	0.134	0.167
-283.530	800.000	0.147	-0.416
-282.516	234.804	0.090	0.147
-281.501	1.677	-0.292	0.207
-280.486	-161.471	-0.233	0.012
-279.472	432.620	0.126	0.270
-278.457	-108.728	0.454	-0.096
-277.443	48.380	0.167	0.154
-276.428	-200.000	0.070	0.367
-275.413	114.793	0.112	-0.134
-274.399	224.993	-0.099	-0.159
-273.384	528.577	0.107	0.250
-272.370	237.240	0.072	-0.117
-271.355	-75.518	-0.182	0.064
-270.340	-90.949	-0.165	-0.047
-269.326	66.593	0.156	0.156
-268.311	20.130	-0.131	0.104
-267.297	-65.090	0.234	-0.093
-266.282	161.263	0.234	0.322
-265.267	-200.000	0.001	0.024
-264.253	7.479	0.069	0.051
-263.238	-95.742	-0.244	0.064
-262.224	33.473	-0.176	-0.150
-261.209	-87.011	0.317	0.095
-260.195	432.505	-0.118	0.253
-259.180	1.167	-0.317	-0.224
-258.165	130.311	0.111	-0.140
-257.151	-105.720	0.307	-0.068
-256.136	87.259	0.187	0.203
-255.122	-85.612	-0.218	-0.067
-254.107	389.805	-0.147	0.301
-253.092	800.000	-0.039	-0.108
-252.078	-16.979	-0.286	-0.178
-251.063	-200.000	0.006	0.143
-250.049	-200.000	-0.085	0.401
-249.034	800.000	0.099	-0.295
-248.019	-183.076	0.108	0.002
-247.005	-113.147	-0.136	-0.026
-245.990	-94.620	0.062	0.017
-244.976	-101.933	0.069	0.016
-243.961	70.111	-0.193	-0.196
-242.946	126.822	0.047	-0.059
-241.932	-200.000	0.014	-0.113
-240.917	133.199	0.139	0.176
-239.903	508.192	-0.047	-0.107
-238.888	203.400	-0.090	-0.136
-237.873	236.755	0.185	-0.301
-236.859	-200.000	-0.025	-0.224
-235.844	-136.948	0.278	-0.031
-234.830	-32.991	0.083	0.045
-233.815	-128.429	-0.215	0.030
-232.800	-200.000	-0.016	-0.325
-231.786	-171.821	-0.123	0.004
-230.771	-64.835	-0.071	-0.028
-229.757	-83.165	0.077	-0.024
-228.742	800.000	0.163	0.518
-227.727	773.756	0.108	-0.290
-226.713	199.154	0.133	-0.201
-225.698	-200.000	0.037	-0.282
-224.684	126.071	0.265	-0.330
-223.669	-90.055	-0.129	-0.037
-222.655	314.992	-0.271	0.503
-221.640	542.747	0.076	0.178
-220.625	12.063	-0.250	0.189
-219.611	-6.656	-0.172	0.115
-218.596	139.417	0.151	0.196
-217.582	-84.647	0.089	-0.027
-216.567	204.774	0.191	-0.292
-215.552	437.423	-0.048	-0.102
-214.538	103.063	-0.113	-0.130
-213.523	-20.568	-0.219	-0.132
-212.509	-70.514	0.408	0.152
-211.494	-160.316	0.106	0.006
-210.479	796.008	0.045	0.123
-209.465	409.468	-0.142	-0.295
-208.450	-24.196	0.193	0.113
-207.436	-200.000	-0.001	0.140
-206.421	491.084	-0.099	-0.224
-205.406	-108.815	-0.046	0.010
-204.392	800.000	0.166	0.467
-203.377	37.370	-0.283	0.247
-202.363	-200.000	0.001	-0.183
-201.348	-126.436	-0.296	-0.043
-200.333	-70.705	0.067	-0.025
-199.319	513.444	-0.098	0.224
-198.304	48.893	-0.089	-0.082
-197.290	-200.000	-0.044	-0.297
-196.275	30.887	0.215	-0.181
-195.260	800.000	0.058	-0.200
-194.246	-200.000	-0.009	0.161
-193.231	-113.579	0.022	-0.004
-192.217	-200.000	-0.004	-0.083
-191.202	-200.000	-0.097	0.438
-190.187	123.216	0.210	-0.259
-189.173	29.548	0.116	0.096
-188.158	-12.252	0.418	0.268
-187.144	174.856	0.224	0.318
-186.129	800.000	0.058	0.158
-185.114	658.229	-0.119	-0.299
-184.100	498.738	0.116	-0.263
-183.085	800.000	0.062	0.186
-182.071	-147.189	0.192	0.016
-181.056	52.070	0.222	-0.207
-180.042	-23.971	0.192	0.113
-179.027	800.000	-0.110	0.299
-178.012	-158.566	0.379	-0.021
-176.998	-112.555	0.199	-0.039
-175.983	51.623	0.169	-0.157
-174.969	-68.740	0.096	0.037
-173.954	-97.116	-0.262	0.067
-172.939	-200.000	-0.015	-0.105
-171.925	-200.000	-0.008	-0.248
-170.910	-37.286	-0.354	-0.186
-169.896	-35.935	-0.346	0.184
-168.881	-52.240	0.223	0.101
-167.866	-126.092	0.392	-0.058
-166.852	-200.000	-0.029	-0.139
-165.837	38.977	-0.068	-0.060
-164.823	-63.009	0.286	-0.116
-163.808	131.579	-0.146	0.184
-162.793	-88.244	-0.256	-0.075
-161.779	9.459	0.067	-0.050
-160.764	800.000	0.088	0.243
-159.750	-150.169	-0.223	-0.017
-158.735	313.364	-0.164	0.303
-157.720	-61.053	0.335	0.139
-156.706	19.831	0.248	-0.196
-155.691	312.147	0.147	-0.270
-154.677	-79.672	-0.284	-0.094
-153.662	36.362	-0.259	0.224
-152.647	39.144	-0.101	-0.088
-151.633	-107.024	-0.257	-0.056
-150.618	16.666	0.110	0.086
-149.604	-120.589	-0.215	0.036
-148.589	-110.867	0.584	0.118
-147.574	360.199	0.081	-0.159
-146.560	28.686	0.172	-0.143
-145.545	-125.100	0.326	0.049
-144.531	165.204	-0.275	0.381
-143.516	756.271	0.101	0.267
-142.502	14.587	0.190	0.145
-141.487	-200.000	0.017	-0.344
-140.472	-100.023	-0.189	-0.046
-139.458	-200.000	-0.014	0.456
-138.443	-115.910	-0.056	0.010
-137.429	800.000	0.064	0.242
-136.414	-200.000	0.013	0.130
-135.399	800.000	0.115	-0.481
-134.385	50.597	-0.402	0.373
-133.370	323.933	0.121	0.226
-132.356	-5.251	-0.151	0.102
-131.341	198.467	0.056	-0.083
-130.326	120.184	-0.156	0.190
-129.312	-200.000	-0.028	-0.201
-128.297	110.288	0.075	-0.088
-127.283	158.475	0.106	0.143
-126.268	-200.000	-0.019	-0.129
-125.253	-102.540	-0.104	0.024
-124.239	797.488	-0.110	0.297
-123.224	-55.332	-0.032	-0.014
-122.210	-200.000	-0.048	-0.264
