DTS Sentinel unit serial number:	SN413079Multiplexer serial number:	ORYXHardware model number:	OX4-SRSoftware version number:	ORYX F/W v4.00 Oryx Data Collector v3.7.2.0data status	okinstallation	princeton_trtdifferential loss correction	single-endedforward channel	channel 3reverse channel	N/Adate	2019/09/16time	16:44:35forward acquisition time	60.00reverse acquisition time	0.00gamma	496.2192k internal	0.2295k external	0.2295temperature offset calibration	0.9946default loss term (dB/km)	0.3790temperature slope calibration	1.0000multiplexer offset coefficient	1.0000multiplexer slope coefficient	1.0000fibre end	0.00T internal ref (°C)	39.75T ext. ref 1 (°C)	15.18T ext. ref 2 (°C)	33.87length (m)	temperature (°C)	Stokes	anti-Stokes-747.200	-5.250	0.099	-0.070
-746.185	617.499	0.090	0.231
-745.171	-188.152	0.245	-0.003
-744.156	9.969	-0.273	0.212
-743.142	-88.533	0.173	0.053
-742.127	118.062	-0.158	-0.199
-741.112	-200.000	-0.029	-0.135
-740.098	-131.925	0.219	0.029
-739.083	-48.529	0.247	0.121
-738.069	-200.000	-0.022	0.110
-737.054	-161.061	0.332	0.018
-736.039	40.105	-0.296	-0.272
-735.025	8.839	-0.091	0.070
-734.010	107.441	-0.029	0.035
-732.996	800.000	0.095	-0.373
-731.981	564.270	-0.079	0.195
-730.966	-34.987	-0.358	-0.199
-729.952	-98.621	-0.182	0.047
-728.937	-200.000	-0.075	-0.469
-727.923	-7.975	0.232	-0.160
-726.908	-200.000	-0.018	-0.182
-725.894	27.002	-0.174	0.149
-724.879	800.000	0.178	0.538
-723.864	-200.000	-0.023	-0.128
-722.850	-200.000	0.003	0.075
-721.835	-42.800	0.251	0.130
-720.821	30.982	0.279	0.244
-719.806	-147.415	0.304	-0.026
-718.791	59.770	-0.063	-0.063
-717.777	337.757	0.043	-0.086
-716.762	468.386	0.115	-0.263
-715.748	-119.726	-0.175	-0.031
-714.733	531.580	-0.058	0.141
-713.718	2.680	0.165	-0.122
-712.704	-107.542	-0.286	-0.064
-711.689	-21.568	0.342	-0.213
-710.675	-134.026	0.145	-0.018
-709.660	-200.000	-0.221	0.001
-708.645	-200.000	0.015	-0.317
-707.631	-92.094	-0.305	-0.088
-706.616	-80.508	-0.181	-0.062
-705.602	-113.729	-0.292	-0.058
-704.587	-123.499	0.426	-0.069
-703.572	-24.215	0.202	0.123
-702.558	-24.746	0.192	-0.116
-701.543	-200.000	-0.066	-0.295
-700.529	-45.228	0.133	-0.068
-699.514	800.000	0.102	0.324
-698.499	-152.484	0.222	0.016
-697.485	-120.418	0.150	0.026
-696.470	-167.726	0.120	-0.005
-695.456	63.057	0.079	0.081
-694.441	-7.092	-0.205	0.142
-693.426	354.461	0.133	0.269
-692.412	455.418	-0.053	0.119
-691.397	-129.139	0.090	-0.013
-690.383	-155.413	-0.082	-0.005
-689.368	-53.929	-0.375	0.174
-688.354	-200.000	0.001	0.193
-687.339	800.000	0.063	-0.273
-686.324	-59.725	-0.097	-0.042
-685.310	-112.885	0.183	0.037
-684.295	-18.404	0.217	0.138
-683.281	-200.000	-0.036	0.306
-682.266	-112.213	0.146	-0.030
-681.251	71.699	0.050	-0.053
-680.237	93.628	-0.223	-0.257
-679.222	155.989	-0.099	-0.139
-678.208	-200.000	-0.050	0.278
-677.193	-200.000	0.013	-0.091
-676.178	28.492	-0.213	-0.183
-675.164	310.674	0.124	-0.238
-674.149	-71.279	-0.228	-0.087
-673.135	-145.984	-0.158	-0.014
-672.120	-82.617	-0.335	0.111
-671.105	38.176	-0.213	0.193
-670.091	-60.972	0.364	0.157
-669.076	367.087	-0.138	0.284
-668.062	-200.000	-0.010	0.217
-667.047	-62.372	-0.365	0.155
-666.032	111.307	-0.294	-0.362
-665.018	32.803	-0.038	-0.034
-664.003	-200.000	-0.045	0.250
-662.989	-200.000	0.022	-0.134
-661.974	71.350	-0.055	-0.058
-660.959	-60.673	0.259	0.112
-659.945	-144.479	0.138	0.013
-658.930	96.051	-0.078	-0.091
-657.916	800.000	0.054	-0.151
-656.901	-197.804	-0.223	-0.001
-655.886	-131.246	-0.321	0.043
-654.872	34.909	0.216	-0.192
-653.857	800.000	-0.067	-0.252
-652.843	-46.408	0.123	0.061
-651.828	-200.000	-0.020	-0.265
-650.814	-200.000	-0.004	-0.209
-649.799	-173.735	0.194	-0.006
-648.784	-200.000	-0.014	0.219
-647.770	-200.000	0.026	-0.254
-646.755	79.057	-0.121	-0.131
-645.741	-200.000	0.054	-0.384
-644.726	-200.000	0.007	-0.169
-643.711	-13.130	-0.196	-0.129
-642.697	240.080	0.206	0.349
-641.682	-40.876	-0.105	0.055
-640.668	-6.441	-0.127	-0.088
-639.653	51.105	-0.098	-0.094
-638.638	-200.000	0.077	-0.412
-637.624	199.349	-0.074	-0.116
-636.609	22.762	-0.144	-0.120
-635.595	-178.408	-0.267	-0.006
-634.580	-56.090	-0.211	0.095
-633.565	53.251	-0.254	0.248
-632.551	-69.273	0.237	0.093
-631.536	425.503	-0.130	-0.285
-630.522	501.271	-0.125	-0.293
-629.507	103.343	-0.095	0.113
-628.492	-18.343	0.094	0.060
-627.478	594.482	-0.004	-0.011
-626.463	-82.852	-0.189	-0.062
-625.449	-62.445	0.116	-0.049
-624.434	-200.000	-0.015	-0.356
-623.419	-102.026	-0.120	-0.029
-622.405	-200.000	-0.001	-0.035
-621.390	242.059	0.123	-0.209
-620.376	-59.518	-0.057	0.025
-619.361	-93.233	0.314	-0.089
-618.346	-200.000	0.326	0.001
-617.332	29.529	0.150	-0.130
-616.317	-200.000	-0.004	-0.303
-615.303	46.545	-0.060	-0.057
-614.288	-122.572	0.294	0.049
-613.273	-109.933	0.387	0.082
-612.259	-51.871	-0.053	-0.025
-611.244	-154.975	-0.230	-0.015
-610.230	-200.000	-0.024	-0.128
-609.215	608.366	0.006	-0.016
-608.201	324.262	0.097	-0.187
-607.186	-177.552	0.194	0.005
-606.171	800.000	0.058	-0.173
-605.157	142.674	-0.235	-0.317
-604.142	-35.047	0.257	0.142
-603.128	-200.000	0.020	-0.355
-602.113	60.669	-0.163	0.164
-601.098	-200.000	0.042	-0.474
-600.084	-60.152	0.289	-0.125
-599.069	116.277	-0.066	0.082
-598.055	5.819	0.068	0.051
-597.040	172.843	-0.059	0.086
-596.025	-200.000	0.011	-0.106
-595.011	-200.000	0.035	-0.284
-593.996	417.624	-0.031	0.068
-592.982	72.846	-0.169	0.179
-591.967	-12.358	0.172	0.114
-590.952	341.565	-0.188	-0.374
-589.938	531.855	0.022	0.053
-588.923	55.038	-0.301	0.296
-587.909	-92.445	-0.258	0.074
-586.894	800.000	-0.030	-0.092
-585.879	-178.738	0.126	0.003
-584.865	282.520	-0.213	0.388
-583.850	-200.000	0.026	-0.201
-582.836	800.000	-0.030	0.112
-581.821	-200.000	0.023	0.178
-580.806	-150.517	-0.331	-0.026
-579.792	439.435	-0.186	0.412
-578.777	-76.930	-0.118	-0.042
-577.763	-145.021	-0.336	-0.031
-576.748	-168.824	-0.060	-0.002
-575.733	80.111	-0.122	-0.133
-574.719	-92.826	-0.241	-0.068
-573.704	11.915	0.319	0.249
-572.690	-200.000	0.052	-0.238
-571.675	-186.691	0.200	-0.003
-570.661	18.469	-0.035	0.029
-569.646	-118.050	-0.070	-0.013
-568.631	-193.700	-0.249	0.002
-567.617	-200.000	-0.035	-0.535
-566.602	41.994	0.160	-0.148
-565.588	-75.540	-0.201	0.073
-564.573	379.480	-0.047	-0.098
-563.558	-200.000	-0.003	0.079
-562.544	441.089	-0.051	0.112
-561.529	-67.015	0.236	-0.095
-560.515	-200.000	-0.043	-0.207
-559.500	800.000	-0.022	0.084
-558.485	238.155	0.085	-0.143
-557.471	28.052	0.241	0.206
-556.456	-17.486	0.087	-0.056
-555.442	93.767	-0.069	-0.079
-554.427	800.000	0.044	-0.130
-553.412	-41.540	-0.269	-0.140
-552.398	264.721	-0.129	-0.227
-551.383	-200.000	0.013	-0.295
-550.369	-108.504	-0.126	0.027
-549.354	-99.724	-0.257	-0.065
-548.339	181.489	0.087	-0.130
-547.325	-66.338	0.177	0.072
-546.310	558.571	0.059	-0.144
-545.296	7.583	-0.206	0.156
-544.281	-134.962	0.278	0.034
-543.266	372.431	0.142	0.292
-542.252	484.825	-0.075	-0.172
-541.237	25.426	0.173	0.146
-540.223	-200.000	-0.079	0.379
-539.208	-83.166	0.303	-0.099
-538.193	-42.105	0.236	-0.122
-537.179	179.651	-0.014	0.021
-536.164	800.000	0.035	-0.139
-535.150	-200.000	-0.009	-0.070
-534.135	-200.000	0.054	0.438
-533.121	13.601	-0.283	0.223
-532.106	409.301	0.066	0.141
-531.091	-69.888	-0.119	0.046
-530.077	-200.000	0.026	0.181
-529.062	-33.830	-0.050	0.028
-528.048	-200.000	0.073	-0.379
-527.033	800.000	-0.068	-0.226
-526.018	-200.000	-0.071	0.387
-525.004	67.491	-0.163	0.169
-523.989	-57.953	-0.093	0.041
-522.975	33.103	0.135	0.118
-521.960	-12.498	0.234	0.155
-520.945	-180.892	-0.422	-0.009
-519.931	14.932	-0.218	0.173
-518.916	161.926	-0.224	-0.319
-517.902	-200.000	-0.018	0.153
-516.887	-200.000	-0.029	-0.312
-515.872	104.037	-0.065	-0.077
-514.858	-200.000	0.023	0.145
-513.843	-22.489	-0.047	0.029
-512.829	57.270	-0.279	-0.276
-511.814	-16.176	0.169	-0.109
-510.799	326.296	0.163	0.317
-509.785	-25.046	-0.254	0.152
-508.770	25.654	-0.236	0.199
-507.756	-200.000	-0.052	0.309
-506.741	-134.980	0.206	0.025
-505.726	-200.000	-0.026	0.256
-504.712	-43.018	0.400	0.206
-503.697	-54.880	0.163	-0.074
-502.683	800.000	-0.076	0.328
-501.668	-114.078	-0.323	-0.063
-500.653	-75.675	0.105	-0.038
-499.639	44.222	-0.171	-0.158
-498.624	800.000	-0.051	0.217
-497.610	-200.000	-0.019	0.543
-496.595	-200.000	0.008	-0.109
-495.581	-38.938	0.234	0.125
-494.566	-143.732	0.074	0.007
-493.551	66.896	0.159	-0.163
-492.537	92.823	-0.172	-0.196
-491.522	-2.605	-0.092	-0.065
-490.508	-6.561	0.243	-0.167
-489.493	432.241	0.114	-0.250
-488.478	-39.019	0.087	0.047
-487.464	-163.409	0.196	0.009
-486.449	-89.744	-0.176	0.052
-485.435	-82.246	0.251	0.083
-484.420	-200.000	-0.003	0.027
-483.405	540.820	-0.223	-0.536
-482.391	-200.000	-0.069	-0.428
-481.376	-200.000	0.027	-0.378
-480.362	-96.914	-0.066	-0.017
-479.347	49.949	-0.148	0.142
-478.332	-5.134	-0.101	0.070
-477.318	-104.579	-0.070	-0.016
-476.303	-60.740	-0.086	0.037
-475.289	-67.209	0.271	0.108
-474.274	-40.046	-0.157	0.083
-473.259	339.327	-0.184	0.362
-472.245	-142.161	-0.140	0.014
-471.230	-144.873	-0.185	0.017
-470.216	-60.560	0.146	-0.063
-469.201	13.333	-0.168	0.132
-468.186	-139.479	0.210	-0.023
-467.172	-36.856	0.329	-0.178
-466.157	-200.000	-0.022	-0.290
-465.143	130.415	0.127	-0.165
-464.128	800.000	0.114	0.334
-463.113	120.627	-0.053	-0.067
-462.099	148.987	-0.271	-0.371
-461.084	-200.000	0.031	-0.224
-460.070	-200.000	-0.032	-0.154
-459.055	-98.603	0.303	-0.078
-458.040	367.666	0.055	0.112
-457.026	268.428	-0.127	0.224
-456.011	-32.288	-0.276	-0.156
-454.997	-200.000	-0.005	0.148
-453.982	-44.287	0.175	-0.089
-452.968	-97.943	0.225	0.059
-451.953	123.094	-0.307	0.388
-450.938	-200.000	0.043	0.206
-449.924	-200.000	-0.047	0.278
-448.909	-200.000	-0.017	0.113
-447.895	-200.000	0.010	-0.334
-446.880	-141.052	-0.052	-0.005
-445.865	800.000	0.131	0.430
-444.851	-106.836	0.122	-0.027
-443.836	-107.163	-0.151	0.034
-442.822	-200.000	0.043	-0.226
-441.807	65.657	0.126	0.129
-440.792	0.009	0.044	-0.032
-439.778	-200.000	-0.027	0.190
-438.763	-42.007	0.413	-0.214
-437.749	-200.000	0.018	-0.229
-436.734	-63.444	0.121	0.050
-435.719	-200.000	-0.005	-0.052
-434.705	368.352	-0.079	0.161
-433.690	182.279	-0.144	0.215
-432.676	765.113	-0.087	0.238
-431.661	400.759	-0.059	0.125
-430.646	-36.339	0.162	-0.088
-429.632	-45.863	-0.349	0.174
-428.617	177.794	0.072	-0.106
-427.603	-140.260	-0.194	-0.021
-426.588	280.967	-0.038	0.069
-425.573	640.705	0.091	-0.234
-424.559	800.000	0.034	0.127
-423.544	-149.455	0.148	0.012
-422.530	-21.047	0.279	-0.173
-421.515	-200.000	0.039	-0.297
-420.500	-87.667	0.112	-0.034
-419.486	-200.000	-0.020	-0.279
-418.471	87.813	-0.084	0.094
-417.457	193.985	0.146	0.223
-416.442	7.603	-0.143	-0.108
-415.428	-21.093	-0.169	-0.104
-414.413	-40.457	0.216	0.113
-413.398	374.153	-0.104	-0.213
-412.384	549.370	-0.203	0.492
-411.369	-88.713	0.293	-0.088
-410.355	-12.267	0.107	-0.071
-409.340	-34.950	-0.080	-0.044
-408.325	59.642	0.160	0.160
-407.311	502.833	0.055	-0.127
-406.296	-44.316	-0.147	0.074
-405.282	-92.195	-0.151	-0.043
-404.267	53.683	0.155	-0.151
-403.252	42.805	-0.083	-0.077
-402.238	-200.000	0.009	0.086
-401.223	-200.000	-0.058	0.281
-400.209	-61.787	0.182	0.077
-399.194	800.000	0.089	0.259
-398.179	331.629	0.203	-0.394
-397.165	-104.769	0.405	-0.094
-396.150	41.512	0.082	-0.075
-395.136	73.640	0.207	0.219
-394.121	-34.926	0.266	0.146
-393.106	480.497	-0.011	0.025
-392.092	-200.000	-0.021	0.107
-391.077	689.712	-0.095	-0.251
-390.063	-200.000	-0.015	0.233
-389.048	154.653	-0.104	-0.143
-388.033	-116.164	0.086	-0.016
-387.019	-200.000	0.028	0.444
-386.004	74.042	-0.178	0.189
-384.990	-104.812	-0.099	-0.023
-383.975	-63.115	-0.262	-0.109
-382.960	232.616	0.102	-0.169
-381.946	37.981	0.058	0.052
-380.931	-76.655	-0.130	0.046
-379.917	-200.000	-0.011	-0.199
-378.902	7.758	-0.180	0.136
-377.888	-84.661	0.448	0.142
-376.873	86.123	-0.287	0.318
-375.858	24.065	0.077	0.064
-374.844	-154.674	-0.089	-0.006
-373.829	-89.514	-0.249	0.074
-372.815	-94.329	-0.228	-0.063
-371.800	800.000	0.053	-0.221
-370.785	176.222	-0.090	-0.132
-369.771	-54.429	-0.393	0.180
-368.756	-200.000	0.031	0.184
-367.742	399.380	-0.081	0.171
-366.727	151.130	0.202	0.277
-365.712	58.401	-0.157	0.155
-364.698	-200.000	-0.015	0.122
-363.683	-175.621	0.286	0.008
-362.669	67.590	0.097	0.100
-361.654	-136.051	0.154	0.018
-360.639	428.227	0.085	0.186
-359.625	-200.000	0.012	-0.073
-358.610	-75.690	0.305	-0.109
-357.596	-111.992	-0.072	0.015
-356.581	-123.382	-0.083	-0.013
-355.566	-41.987	0.064	-0.033
-354.552	-200.000	-0.035	0.207
-353.537	-112.994	-0.259	-0.052
-352.523	275.251	0.053	0.095
-351.508	-98.062	0.077	0.020
-350.493	-200.000	0.009	0.155
-349.479	-78.945	0.214	-0.073
-348.464	-200.000	0.047	-0.343
-347.450	-200.000	0.009	-0.266
-346.435	-17.256	0.018	0.012
-345.420	-126.383	-0.352	0.053
-344.406	16.086	0.260	-0.206
-343.391	-119.874	0.092	0.016
-342.377	-200.000	0.026	-0.155
-341.362	647.560	-0.052	-0.133
-340.348	-86.221	-0.200	-0.062
-339.333	-134.882	-0.316	0.039
-338.318	-57.493	0.118	0.052
-337.304	103.031	0.095	-0.112
-336.289	-200.000	-0.029	0.151
-335.275	53.496	-0.260	0.251
-334.260	-149.711	0.424	0.034
-333.245	-150.544	0.041	0.003
-332.231	-48.775	-0.143	0.069
-331.216	-200.000	-0.038	-0.288
-330.202	-150.909	0.281	0.021
-329.187	-200.000	0.012	0.228
-328.172	-50.534	0.106	-0.050
-327.158	800.000	0.062	0.222
-326.143	312.796	0.082	-0.155
-325.129	-200.000	0.000	-0.063
-324.114	-200.000	-0.045	0.420
-323.099	800.000	-0.061	0.204
-322.085	-200.000	-0.011	0.134
-321.070	-200.000	-0.008	0.290
-320.056	41.643	-0.181	0.165
-319.041	365.478	-0.101	-0.204
-318.026	-200.000	0.003	0.082
-317.012	-119.447	0.250	0.044
-315.997	-67.402	-0.310	0.122
-314.983	-21.255	0.156	-0.096
-313.968	19.297	-0.205	-0.166
-312.953	-35.326	-0.260	-0.142
-311.939	124.238	-0.129	0.163
-310.924	348.273	0.113	0.223
-309.910	-200.000	-0.017	0.106
-308.895	-200.000	-0.023	0.164
-307.880	-81.065	0.412	0.137
-306.866	107.472	-0.161	0.193
-305.851	166.587	-0.258	0.367
-304.837	284.442	0.148	0.267
-303.822	313.220	0.060	-0.114
-302.807	-200.000	-0.000	-0.142
-301.793	175.310	-0.171	0.249
-300.778	445.375	0.029	-0.063
-299.764	-105.146	-0.235	0.054
-298.749	-52.174	-0.277	-0.129
-297.735	5.033	-0.301	0.223
-296.720	-78.713	-0.296	0.101
-295.705	23.624	-0.211	0.174
-294.691	107.528	0.156	-0.186
-293.676	89.405	0.248	-0.278
-292.662	66.848	-0.068	0.069
-291.647	500.367	-0.180	-0.416
-290.632	-183.138	0.372	0.007
-289.618	88.520	0.219	0.244
-288.603	-200.000	-0.027	0.422
-287.589	-200.000	-0.011	0.164
-286.574	-20.284	0.175	-0.108
-285.559	-41.558	0.199	-0.102
-284.545	-109.050	0.229	0.049
-283.530	204.649	0.172	-0.268
-282.516	-109.955	-0.369	-0.078
-281.501	-44.129	0.220	0.111
-280.486	-19.723	-0.357	0.221
-279.472	106.303	0.147	-0.175
-278.457	9.910	0.212	-0.162
-277.443	95.194	0.280	-0.320
-276.428	63.392	0.038	0.039
-275.413	-28.582	-0.049	-0.028
-274.399	-200.000	-0.018	-0.115
-273.384	73.740	0.152	-0.160
-272.370	51.327	0.117	0.112
-271.355	135.587	0.171	0.224
-270.340	800.000	0.095	0.349
-269.326	-9.388	0.264	-0.177
-268.311	-93.750	-0.437	-0.121
-267.297	800.000	-0.089	-0.249
-266.282	-68.273	0.191	-0.074
-265.267	-200.000	-0.010	-0.113
-264.253	295.199	0.080	-0.148
-263.238	-82.592	-0.374	-0.122
-262.224	-105.679	0.296	0.067
-261.209	46.030	0.061	0.057
-260.195	-200.000	0.026	-0.191
-259.180	-200.000	0.011	-0.222
-258.165	-53.142	0.107	0.049
-257.151	573.895	-0.094	0.230
-256.136	800.000	0.081	-0.267
-255.122	-200.000	-0.022	0.098
-254.107	-30.783	-0.173	0.098
-253.092	-13.623	-0.100	0.065
-252.078	129.806	0.026	-0.033
-251.063	-200.000	-0.012	-0.350
-250.049	-123.122	-0.285	0.046
-249.034	-15.986	-0.536	0.342
-248.019	-70.847	-0.211	-0.080
-247.005	99.661	-0.356	-0.413
-245.990	200.598	0.190	0.293
-244.976	-49.681	0.242	-0.115
-243.961	-179.807	-0.230	0.005
-242.946	800.000	0.097	0.299
-241.932	46.863	-0.097	0.090
-240.917	222.382	0.246	0.397
-239.903	-200.000	-0.011	-0.353
-238.888	9.532	-0.040	-0.030
-237.873	-200.000	0.010	0.097
-236.859	-200.000	-0.054	0.242
-235.844	-200.000	-0.016	-0.096
-234.830	-113.965	0.299	0.058
-233.815	-200.000	-0.019	0.132
-232.800	59.117	0.226	0.223
-231.786	4.984	0.100	0.074
-230.771	-16.476	-0.266	-0.169
-229.757	447.979	0.199	-0.438
-228.742	-42.331	0.257	0.132
-227.727	800.000	-0.024	0.078
-226.713	534.117	-0.162	-0.384
-225.698	-43.815	0.163	-0.082
-224.684	-200.000	-0.008	-0.085
-223.669	-113.616	-0.333	0.065
-222.655	-200.000	-0.015	0.375
-221.640	144.338	-0.082	-0.110
-220.625	800.000	0.041	-0.165
-219.611	177.736	-0.106	0.155
-218.596	-102.961	0.127	-0.030
-217.582	118.027	0.249	0.307
-216.567	231.921	-0.076	-0.125
-215.552	231.007	0.045	0.073
-214.538	-200.000	0.022	0.194
-213.523	-200.000	0.010	0.136
-212.509	-159.257	0.149	-0.008
-211.494	-153.429	-0.285	-0.020
-210.479	-106.265	0.169	-0.038
-209.465	-8.759	0.286	-0.192
-208.450	-91.645	0.265	0.075
-207.436	-200.000	-0.004	0.139
-206.421	106.693	0.184	0.219
-205.406	72.169	-0.273	-0.284
-204.392	-157.862	-0.250	0.015
-203.377	56.392	0.029	0.028
-202.363	800.000	0.140	-0.435
-201.348	-2.643	0.340	0.238
-200.333	105.916	-0.055	-0.065
-199.319	397.191	0.212	-0.443
-198.304	800.000	0.036	-0.109
-197.290	165.679	0.180	0.255
-196.275	302.961	-0.090	-0.167
-195.260	800.000	-0.030	-0.099
-194.246	-66.988	0.320	-0.127
-193.231	800.000	0.095	-0.302
-192.217	-1.662	-0.179	-0.126
-191.202	-200.000	0.004	0.028
-190.187	-200.000	0.032	-0.229
-189.173	-106.179	-0.041	-0.009
-188.158	286.393	0.062	0.112
-187.144	63.415	-0.109	-0.110
-186.129	-95.841	-0.146	-0.039
-185.114	-200.000	-0.015	0.163
-184.100	-173.896	-0.147	-0.004
-183.085	-139.540	0.187	0.020
-182.071	50.328	-0.330	-0.312
-181.056	-104.789	-0.220	-0.051
-180.042	-5.028	-0.169	-0.117
-179.027	-139.424	-0.271	0.029
-178.012	-200.000	-0.019	-0.205
-176.998	-83.743	-0.181	-0.058
-175.983	11.002	0.110	-0.084
-174.969	-200.000	-0.026	-0.313
-173.954	-169.765	-0.275	0.010
-172.939	-200.000	0.075	0.369
-171.925	65.105	0.075	-0.076
-170.910	-168.344	0.129	0.005
-169.896	-198.525	-0.020	0.000
-168.881	108.028	-0.188	-0.224
-167.866	-200.000	0.013	0.202
-166.852	28.003	0.287	0.242
-165.837	606.592	0.036	0.090
-164.823	86.240	-0.090	-0.100
-163.808	130.467	0.120	-0.153
-162.793	-200.000	-0.024	0.169
-161.779	40.988	0.404	0.364
-160.764	37.257	0.230	0.204
-159.750	-74.417	0.357	-0.129
-158.735	122.358	0.064	0.080
-157.720	155.371	-0.101	0.139
-156.706	-87.324	0.185	0.056
-155.691	-100.893	0.200	-0.049
-154.677	-176.988	-0.162	0.004
-153.662	-23.452	-0.294	0.176
-152.647	-200.000	-0.010	0.227
-151.633	220.621	0.058	-0.093
-150.618	-3.265	0.109	-0.076
-149.604	-200.000	0.042	0.269
-148.589	800.000	0.072	0.219
-147.574	-142.569	0.152	-0.015
-146.560	49.946	0.062	-0.058
-145.545	-76.936	-0.258	-0.090
-144.531	0.580	0.214	0.152
-143.516	800.000	-0.018	-0.078
-142.502	58.656	0.192	-0.188
-141.487	-200.000	0.048	-0.336
-140.472	249.925	-0.045	-0.076
-139.458	8.473	-0.138	0.103
-138.443	-200.000	-0.010	0.304
-137.429	741.157	0.090	0.241
-136.414	62.344	0.052	-0.052
-135.399	154.657	0.154	0.212
-134.385	191.888	0.129	0.194
-133.370	-76.308	-0.195	0.068
-132.356	800.000	0.011	0.037
-131.341	-176.085	0.185	0.005
-130.326	25.046	0.279	-0.231
-129.312	-200.000	-0.005	0.059
-128.297	-52.812	0.246	0.113
-127.283	-200.000	0.015	-0.067
-126.268	18.868	0.174	0.139
-125.253	-55.179	-0.148	-0.066
-124.239	133.408	-0.043	0.055
-123.224	613.322	-0.097	0.242
-122.210	-106.255	-0.201	0.045
