DTS Sentinel unit serial number:	SN413079Multiplexer serial number:	ORYXHardware model number:	OX4-SRSoftware version number:	ORYX F/W v4.00 Oryx Data Collector v3.7.2.0data status	okinstallation	princeton_trtdifferential loss correction	single-endedforward channel	channel 3reverse channel	N/Adate	2019/09/12time	12:26:11forward acquisition time	60.00reverse acquisition time	0.00gamma	496.2192k internal	0.2292k external	0.2292temperature offset calibration	1.0041default loss term (dB/km)	0.3790temperature slope calibration	1.0000multiplexer offset coefficient	1.0000multiplexer slope coefficient	1.0000fibre end	0.00T internal ref (°C)	40.56T ext. ref 1 (°C)	2.04T ext. ref 2 (°C)	35.11length (m)	temperature (°C)	Stokes	anti-Stokes-747.200	-200.000	-0.027	-0.135
-746.185	-141.365	-0.036	0.004
-745.171	800.000	0.042	-0.141
-744.156	-40.675	-0.295	0.156
-743.142	184.361	0.241	0.365
-742.127	-200.000	-0.021	0.483
-741.112	285.284	0.103	0.190
-740.098	800.000	-0.068	0.271
-739.083	-200.000	0.015	-0.096
-738.069	-54.184	0.110	-0.051
-737.054	-84.868	0.384	-0.123
-736.039	-75.192	-0.420	-0.154
-735.025	-90.664	0.294	0.087
-734.010	-200.000	-0.003	0.054
-732.996	50.270	-0.127	-0.122
-731.981	59.115	0.114	-0.115
-730.966	-55.576	-0.116	-0.053
-729.952	60.479	-0.097	-0.098
-728.937	-141.455	-0.384	0.040
-727.923	800.000	-0.045	0.189
-726.908	-51.234	-0.105	0.050
-725.894	-48.683	-0.135	-0.066
-724.879	-35.087	0.041	0.023
-723.864	487.294	0.117	0.272
-722.850	28.082	0.073	-0.063
-721.835	-24.559	0.145	0.088
-720.821	-200.000	0.011	0.052
-719.806	12.258	0.174	-0.137
-718.791	406.321	-0.171	-0.369
-717.777	-13.210	0.150	-0.099
-716.762	800.000	-0.097	0.315
-715.748	426.963	0.181	0.399
-714.733	-200.000	-0.240	0.000
-713.718	800.000	-0.084	0.327
-712.704	20.348	-0.041	0.034
-711.689	-80.761	0.115	-0.039
-710.675	84.124	0.172	0.193
-709.660	227.306	0.105	0.175
-708.645	-31.854	-0.179	0.102
-707.631	-126.972	-0.073	0.011
-706.616	568.889	-0.071	-0.175
-705.602	306.061	-0.110	0.209
-704.587	497.528	-0.051	0.121
-703.572	800.000	-0.027	0.098
-702.558	144.584	-0.093	0.127
-701.543	323.594	0.110	0.215
-700.529	63.338	0.101	0.104
-699.514	-155.965	0.350	0.023
-698.499	-148.239	0.273	0.023
-697.485	173.907	-0.184	-0.271
-696.470	693.356	-0.127	-0.340
-695.456	578.648	0.090	-0.225
-694.441	-148.889	-0.029	0.002
-693.426	174.474	0.078	0.116
-692.412	125.372	-0.140	0.181
-691.397	800.000	0.066	-0.256
-690.383	-82.161	-0.088	-0.029
-689.368	-85.630	-0.353	-0.112
-688.354	-126.305	-0.199	-0.030
-687.339	633.936	-0.017	-0.044
-686.324	800.000	0.053	-0.204
-685.310	444.669	0.018	0.041
-684.295	-200.000	0.042	-0.260
-683.281	-7.437	0.132	0.091
-682.266	-144.168	-0.576	-0.055
-681.251	122.517	-0.097	-0.124
-680.237	-145.045	0.056	0.005
-679.222	-200.000	-0.016	0.230
-678.208	-142.454	-0.511	0.051
-677.193	-50.797	0.209	-0.100
-676.178	-200.000	0.001	0.111
-675.164	89.107	0.128	-0.146
-674.149	130.125	0.184	-0.241
-673.135	390.826	-0.096	-0.202
-672.120	800.000	0.131	0.472
-671.105	-59.875	-0.139	-0.061
-670.091	-29.971	-0.115	0.067
-669.076	800.000	0.089	-0.380
-668.062	164.772	0.145	-0.209
-667.047	-80.963	0.182	-0.062
-666.032	42.577	0.224	-0.208
-665.018	-115.459	0.213	0.041
-664.003	713.620	-0.138	-0.372
-662.989	6.798	-0.298	0.227
-661.974	102.340	-0.123	0.146
-660.959	155.224	0.018	0.025
-659.945	-200.000	-0.039	0.185
-658.930	43.089	-0.182	0.169
-657.916	-92.145	-0.309	0.089
-656.901	-118.908	0.104	0.019
-655.886	529.745	-0.030	-0.071
-654.872	-74.580	0.288	0.106
-653.857	-129.393	0.154	-0.022
-652.843	-200.000	-0.014	0.184
-651.828	-173.061	0.189	-0.006
-650.814	-200.000	-0.027	-0.330
-649.799	800.000	0.046	0.192
-648.784	-156.430	0.259	0.016
-647.770	-23.483	-0.168	-0.103
-646.755	90.755	0.088	-0.100
-645.741	-200.000	-0.024	-0.142
-644.726	-200.000	-0.016	0.293
-643.711	148.453	0.053	0.074
-642.697	-52.289	-0.104	-0.049
-641.682	353.024	-0.227	0.458
-640.668	-200.000	-0.013	0.000
-639.653	-17.517	-0.093	-0.060
-638.638	-135.635	0.392	-0.047
-637.624	136.755	-0.055	-0.073
-636.609	-137.216	0.168	0.019
-635.595	800.000	-0.073	0.230
-634.580	42.022	-0.039	-0.036
-633.565	-120.750	-0.211	0.036
-632.551	-200.000	-0.019	0.280
-631.536	800.000	-0.134	0.399
-630.522	-107.823	0.334	-0.074
-629.507	-200.000	-0.064	0.366
-628.492	-200.000	-0.025	0.408
-627.478	89.026	-0.052	-0.059
-626.463	-12.386	-0.173	-0.115
-625.449	-200.000	-0.019	-0.266
-624.434	53.195	-0.132	-0.128
-623.419	55.585	-0.259	0.256
-622.405	-114.186	-0.281	-0.055
-621.390	-69.068	0.264	-0.103
-620.376	-200.000	-0.023	-0.434
-619.361	-101.725	-0.336	-0.083
-618.346	-200.000	0.028	-0.390
-617.332	455.091	-0.130	-0.293
-616.317	-91.651	0.184	0.053
-615.303	-89.922	0.101	-0.030
-614.288	-200.000	0.014	0.157
-613.273	102.431	-0.227	-0.270
-612.259	-89.130	0.051	0.015
-611.244	800.000	0.042	0.182
-610.230	-42.191	0.065	-0.034
-609.215	456.379	0.057	0.128
-608.201	127.261	0.105	-0.135
-607.186	-200.000	0.048	-0.216
-606.171	-160.471	-0.069	0.004
-605.157	-126.527	-0.222	0.033
-604.142	216.777	-0.233	-0.377
-603.128	653.537	0.082	0.214
-602.113	28.722	0.080	0.069
-601.098	16.661	0.321	-0.258
-600.084	189.235	-0.158	0.241
-599.069	218.796	-0.063	0.102
-598.055	200.367	0.272	-0.425
-597.040	170.124	0.021	-0.031
-596.025	24.610	-0.180	-0.152
-595.011	-200.000	-0.046	0.247
-593.996	-99.769	-0.213	-0.054
-592.982	-200.000	0.031	0.274
-591.967	289.047	0.097	0.179
-590.952	155.607	0.229	0.321
-589.938	59.436	-0.139	-0.139
-588.923	66.080	-0.153	-0.158
-587.909	193.355	-0.148	0.227
-586.894	491.865	0.056	0.130
-585.879	-63.202	-0.402	0.169
-584.865	88.871	-0.103	0.116
-583.850	800.000	-0.039	-0.147
-582.836	-200.000	-0.016	-0.442
-581.821	-200.000	0.009	-0.089
-580.806	-40.843	0.078	0.041
-579.792	-103.242	-0.062	-0.015
-578.777	800.000	-0.049	0.138
-577.763	-32.164	0.064	-0.036
-576.748	-200.000	0.034	-0.361
-575.733	154.489	-0.119	0.167
-574.719	-158.866	-0.141	0.008
-573.704	-69.059	0.060	0.023
-572.690	-36.558	-0.166	0.091
-571.675	304.838	-0.156	-0.294
-570.661	-110.975	0.193	-0.040
-569.646	-98.657	-0.171	-0.044
-568.631	-105.046	-0.149	0.035
-567.617	353.996	0.024	0.049
-566.602	-200.000	0.078	0.593
-565.588	800.000	-0.089	0.249
-564.573	342.841	0.180	0.358
-563.558	-18.175	0.042	-0.027
-562.544	-55.574	-0.234	-0.106
-561.529	89.641	-0.066	-0.075
-560.515	46.385	0.229	-0.216
-559.500	-149.154	0.243	0.020
-558.485	-63.105	-0.062	0.026
-557.471	-125.999	-0.243	-0.037
-556.456	800.000	-0.044	-0.166
-555.442	82.248	0.222	-0.244
-554.427	-200.000	0.016	0.079
-553.412	47.175	-0.415	-0.393
-552.398	-163.916	-0.319	0.015
-551.383	-101.068	-0.291	-0.072
-550.369	-14.048	0.270	-0.177
-549.354	96.136	-0.173	-0.200
-548.339	595.801	-0.067	-0.168
-547.325	-90.916	0.106	-0.031
-546.310	-49.183	0.139	0.067
-545.296	347.411	-0.150	-0.300
-544.281	800.000	-0.043	-0.176
-543.266	-200.000	0.016	-0.125
-542.252	-19.529	-0.065	0.041
-541.237	345.198	-0.099	-0.197
-540.223	103.666	-0.172	-0.205
-539.208	-156.286	0.091	0.006
-538.193	282.079	0.059	-0.107
-537.179	-83.999	-0.089	-0.029
-536.164	14.817	0.094	0.074
-535.150	272.492	-0.096	0.171
-534.135	-200.000	-0.018	-0.139
-533.121	182.331	-0.107	-0.161
-532.106	-101.005	0.192	-0.048
-531.091	227.948	-0.231	0.382
-530.077	-190.579	-0.231	0.003
-529.062	-59.616	-0.135	-0.059
-528.048	403.601	0.026	0.055
-527.033	46.579	0.298	-0.280
-526.018	83.318	-0.179	0.198
-525.004	800.000	-0.041	-0.152
-523.989	800.000	-0.124	-0.374
-522.975	-129.870	-0.255	-0.036
-521.960	-66.303	-0.342	0.138
-520.945	140.215	-0.003	0.004
-519.931	398.846	0.097	-0.207
-518.916	-157.209	-0.170	-0.010
-517.902	800.000	-0.060	-0.229
-516.887	118.344	0.083	-0.104
-515.872	-110.033	0.089	0.019
-514.858	182.780	0.137	0.206
-513.843	-64.691	0.284	0.117
-512.829	-113.381	0.218	0.043
-511.814	-83.772	-0.128	-0.041
-510.799	-200.000	0.036	0.174
-509.785	800.000	0.084	0.337
-508.770	315.010	-0.013	-0.026
-507.756	336.267	-0.071	-0.141
-506.741	143.479	0.193	-0.261
-505.726	140.912	-0.190	-0.254
-504.712	800.000	0.018	0.062
-503.697	-58.260	0.231	0.102
-502.683	501.813	-0.039	-0.092
-501.668	-200.000	0.001	0.266
-500.653	800.000	-0.040	0.119
-499.639	-35.043	0.088	0.049
-498.624	-170.697	0.202	-0.007
-497.610	118.494	0.181	0.227
-496.595	12.555	-0.209	0.163
-495.581	45.331	-0.266	-0.249
-494.566	-58.182	0.257	-0.114
-493.551	800.000	0.082	0.349
-492.537	-32.217	-0.187	0.106
-491.522	-39.227	0.188	0.100
-490.508	800.000	0.103	-0.299
-489.493	-200.000	-0.010	-0.086
-488.478	44.087	-0.131	-0.122
-487.464	-200.000	0.007	-0.086
-486.449	457.474	-0.115	-0.259
-485.435	-100.388	0.221	0.056
-484.420	-108.150	0.517	-0.113
-483.405	800.000	0.008	-0.025
-482.391	35.314	-0.017	-0.015
-481.376	-14.438	0.146	-0.095
-480.362	-137.217	-0.189	0.022
-479.347	12.417	0.159	0.124
-478.332	63.591	-0.052	0.053
-477.318	-133.692	0.098	0.012
-476.303	551.723	0.012	-0.028
-475.289	463.014	0.102	0.231
-474.274	-91.228	0.018	0.005
-473.259	-28.667	0.210	0.122
-472.245	-200.000	-0.051	-0.395
-471.230	127.597	0.080	-0.102
-470.216	144.947	-0.037	0.050
-469.201	244.575	0.100	0.169
-468.186	800.000	0.044	0.177
-467.172	61.858	-0.266	-0.269
-466.157	276.936	0.177	0.318
-465.143	305.250	0.159	-0.298
-464.128	-25.595	-0.274	-0.163
-463.113	485.128	-0.156	-0.359
-462.099	-200.000	-0.019	0.189
-461.084	800.000	0.031	-0.130
-460.070	67.497	-0.115	0.119
-459.055	21.072	-0.252	-0.207
-458.040	122.589	0.122	-0.154
-457.026	-200.000	0.020	0.211
-456.011	-200.000	-0.033	-0.201
-454.997	-75.375	0.359	-0.130
-453.982	-65.667	0.112	0.046
-452.968	52.357	0.288	0.278
-451.953	166.719	-0.065	0.094
-450.938	36.360	-0.295	-0.263
-449.924	-88.860	-0.258	-0.077
-448.909	64.680	0.253	0.258
-447.895	188.830	0.134	-0.203
-446.880	-200.000	0.040	0.317
-445.865	119.835	0.098	0.123
-444.851	-200.000	0.053	-0.428
-443.836	84.764	-0.269	0.298
-442.822	71.159	-0.165	0.173
-441.807	-109.847	0.428	-0.091
-440.792	10.496	-0.020	-0.015
-439.778	-126.368	0.306	0.046
-438.763	173.571	0.159	0.232
-437.749	-200.000	0.041	0.210
-436.734	430.774	0.158	0.347
-435.719	183.940	-0.260	-0.389
-434.705	-79.066	-0.213	0.073
-433.690	-200.000	0.020	-0.175
-432.676	403.554	-0.060	0.127
-431.661	-53.165	0.276	0.128
-430.646	23.565	0.159	0.132
-429.632	195.099	-0.094	0.145
-428.617	220.730	0.198	-0.321
-427.603	-0.359	-0.075	-0.054
-426.588	223.015	-0.055	-0.089
-425.573	-126.230	-0.124	0.019
-424.559	107.821	0.272	-0.328
-423.544	-26.148	-0.209	0.124
-422.530	-154.590	0.187	0.013
-421.515	-18.708	0.225	-0.142
-420.500	-110.751	-0.123	-0.026
-419.486	-146.432	0.202	0.018
-418.471	800.000	-0.023	-0.090
-417.457	-17.159	0.366	-0.233
-416.442	-149.328	-0.175	-0.014
-415.428	-113.898	-0.332	-0.065
-414.413	-66.118	0.212	0.085
-413.398	283.730	-0.122	0.221
-412.384	277.231	0.070	0.125
-411.369	394.062	-0.109	0.230
-410.355	71.081	-0.269	0.281
-409.340	-200.000	0.009	-0.080
-408.325	200.380	-0.050	0.077
-407.311	340.264	0.116	0.229
-406.296	127.851	-0.060	-0.077
-405.282	-16.319	0.308	-0.197
-404.267	492.607	0.129	0.299
-403.252	191.162	-0.228	0.346
-402.238	10.392	0.300	0.230
-401.223	-200.000	-0.008	-0.277
-400.209	107.713	0.070	-0.084
-399.194	-35.924	0.128	0.070
-398.179	-191.615	-0.236	-0.002
-397.165	-200.000	-0.021	0.164
-396.150	11.818	-0.026	-0.020
-395.136	-10.972	-0.130	-0.087
-394.121	800.000	0.047	-0.198
-393.106	800.000	0.033	0.130
-392.092	-166.009	0.237	0.010
-391.077	-200.000	-0.032	-0.152
-390.063	165.557	-0.057	0.081
-389.048	-54.523	-0.226	0.103
-388.033	800.000	0.139	-0.388
-387.019	-122.968	0.163	0.026
-386.004	-133.450	-0.057	-0.007
-384.990	800.000	-0.095	0.383
-383.975	-200.000	0.002	0.057
-382.960	-167.006	0.156	0.006
-381.946	50.918	-0.148	0.141
-380.931	800.000	-0.026	0.093
-379.917	25.333	0.060	0.050
-378.902	-200.000	0.016	0.303
-377.888	-116.965	0.177	0.033
-376.873	800.000	-0.057	-0.205
-375.858	65.803	-0.147	0.151
-374.844	-200.000	0.007	0.068
-373.829	-7.142	-0.120	-0.082
-372.815	491.016	0.113	0.261
-371.800	-66.943	-0.024	-0.009
-370.785	-200.000	0.047	-0.251
-369.771	106.820	0.101	-0.120
-368.756	-129.094	-0.202	0.028
-367.742	-17.136	-0.175	-0.111
-366.727	152.899	0.299	-0.412
-365.712	-140.453	0.308	-0.032
-364.698	-39.252	-0.201	-0.107
-363.683	-135.212	0.229	-0.028
-362.669	-50.963	0.293	0.139
-361.654	-152.491	0.336	0.024
-360.639	-200.000	-0.021	0.239
-359.625	-126.033	-0.156	0.024
-358.610	-149.820	0.195	-0.015
-357.596	568.718	-0.067	-0.164
-356.581	107.468	-0.172	-0.206
-355.566	50.882	-0.151	0.144
-354.552	-190.149	0.235	-0.003
-353.537	-1.488	-0.156	0.111
-352.523	-200.000	-0.002	-0.268
-351.508	24.488	0.238	0.198
-350.493	-140.028	0.520	-0.055
-349.479	-94.570	-0.417	-0.114
-348.464	-200.000	-0.031	-0.408
-347.450	202.847	0.062	-0.096
-346.435	-65.353	0.195	0.079
-345.420	-97.136	-0.032	-0.008
-344.406	164.362	0.135	-0.191
-343.391	-133.707	-0.192	-0.024
-342.377	-96.293	0.124	0.033
-341.362	-103.065	-0.238	0.057
-340.348	-200.000	-0.037	-0.352
-339.333	619.868	0.057	0.143
-338.318	-200.000	0.012	0.109
-337.304	-75.052	0.192	-0.069
-336.289	-97.329	-0.279	0.073
-335.275	-162.295	0.561	-0.028
-334.260	-3.091	0.141	-0.099
-333.245	324.684	0.148	0.284
-332.231	44.668	-0.359	0.332
-331.216	800.000	0.033	0.095
-330.202	-200.000	0.001	0.145
-329.187	800.000	0.071	0.305
-328.172	108.459	-0.109	0.131
-327.158	94.790	0.152	-0.174
-326.143	-148.299	0.145	0.012
-325.129	-128.631	-0.402	-0.057
-324.114	800.000	-0.098	0.342
-323.099	75.322	0.241	0.256
-322.085	-59.541	-0.094	0.041
-321.070	46.050	-0.041	0.038
-320.056	-43.919	0.249	0.126
-319.041	119.333	-0.231	0.287
-318.026	154.817	-0.067	-0.093
-317.012	51.833	0.050	0.048
-315.997	-24.661	0.407	-0.244
-314.983	642.059	-0.027	-0.070
-313.968	-73.008	0.515	-0.190
-312.953	337.122	-0.237	-0.463
-311.939	-118.615	0.225	0.040
-310.924	-200.000	-0.001	0.242
-309.910	307.560	-0.093	-0.175
-308.895	42.358	0.093	0.085
-307.880	-200.000	-0.019	0.162
-306.866	-146.427	0.133	0.012
-305.851	-200.000	-0.027	0.252
-304.837	-88.605	-0.198	0.059
-303.822	-144.095	-0.292	-0.028
-302.807	-200.000	0.038	-0.237
-301.793	386.206	0.115	0.238
-300.778	800.000	0.015	-0.060
-299.764	-5.091	0.182	-0.126
-298.749	-157.065	0.348	-0.021
-297.735	23.852	-0.051	0.042
-296.720	800.000	-0.082	0.279
-295.705	-200.000	-0.003	0.161
-294.691	-145.762	-0.129	-0.012
-293.676	128.997	-0.109	-0.139
-292.662	22.921	0.280	0.230
-291.647	800.000	0.189	0.596
-290.632	117.237	-0.127	0.156
-289.618	-125.194	-0.186	0.029
-288.603	60.706	0.052	-0.052
-287.589	-200.000	-0.011	-0.203
-286.574	-200.000	-0.035	-0.333
-285.559	-16.599	-0.126	-0.080
-284.545	800.000	0.049	-0.212
-283.530	800.000	-0.017	0.050
-282.516	543.626	-0.126	-0.301
-281.501	213.809	-0.173	-0.276
-280.486	49.800	0.077	0.073
-279.472	159.904	0.062	0.087
-278.457	-29.879	0.202	0.115
-277.443	560.612	0.113	-0.274
-276.428	-11.816	0.111	-0.073
-275.413	-135.541	-0.045	0.005
-274.399	-62.239	0.083	-0.035
-273.384	-110.959	0.377	-0.078
-272.370	38.667	-0.156	-0.139
-271.355	-152.241	-0.194	0.014
-270.340	536.871	0.082	-0.197
-269.326	-200.000	0.043	0.327
-268.311	85.478	0.173	-0.191
-267.297	-32.051	-0.181	0.102
-266.282	-129.116	-0.153	0.021
-265.267	-9.799	-0.428	-0.286
-264.253	162.527	-0.114	-0.161
-263.238	-147.539	0.400	-0.034
-262.224	73.306	-0.109	-0.115
-261.209	3.028	-0.270	0.197
-260.195	122.232	-0.169	-0.212
-259.180	-200.000	-0.007	0.054
-258.165	-158.593	-0.354	0.020
-257.151	-47.063	0.342	-0.168
-256.136	-173.782	-0.050	0.001
-255.122	-18.055	0.216	0.136
-254.107	800.000	0.097	0.304
-253.092	800.000	-0.114	0.456
-252.078	800.000	-0.060	-0.231
-251.063	-57.122	-0.108	0.048
-250.049	28.288	0.211	0.179
-249.034	-53.523	-0.167	-0.077
-248.019	-200.000	0.018	0.082
-247.005	-130.953	-0.426	0.057
-245.990	-117.760	0.272	0.049
-244.976	683.018	-0.004	0.011
-243.961	-169.851	-0.107	0.004
-242.946	94.178	0.233	0.266
-241.932	-200.000	-0.028	-0.346
-240.917	800.000	-0.043	-0.142
-239.903	142.936	-0.293	-0.391
-238.888	-164.614	-0.379	0.017
-237.873	800.000	-0.068	0.237
-236.859	31.705	-0.182	0.157
-235.844	-152.382	0.088	0.006
-234.830	-91.184	-0.141	0.041
-233.815	800.000	-0.094	-0.335
-232.800	800.000	0.086	0.237
-231.786	260.278	-0.070	0.122
-230.771	-2.916	-0.161	-0.113
-229.757	-105.566	0.394	0.090
-228.742	-113.848	-0.275	0.054
-227.727	187.419	-0.061	0.092
-226.713	-149.765	0.148	-0.012
-225.698	440.083	0.072	-0.159
-224.684	-2.875	0.081	0.057
-223.669	135.732	0.068	0.088
-222.655	-200.000	0.034	0.274
-221.640	30.334	-0.129	0.110
-220.625	-133.629	0.470	-0.059
-219.611	800.000	0.075	-0.232
-218.596	-200.000	-0.033	-0.187
-217.582	258.098	-0.084	-0.144
-216.567	-69.028	0.244	-0.094
-215.552	-200.000	0.052	-0.280
-214.538	17.708	0.133	0.106
-213.523	62.356	-0.258	-0.259
-212.509	-184.554	-0.061	-0.001
-211.494	-200.000	-0.015	-0.293
-210.479	49.694	-0.184	0.173
-209.465	127.058	0.097	0.123
-208.450	377.345	-0.079	0.162
-207.436	-37.545	0.236	0.126
-206.421	132.879	0.091	-0.118
-205.406	370.080	-0.132	-0.267
-204.392	-181.240	0.114	0.002
-203.377	183.548	0.110	0.163
-202.363	308.796	-0.033	0.061
-201.348	-80.518	-0.174	0.058
-200.333	800.000	0.063	-0.185
-199.319	-21.248	-0.089	0.055
-198.304	29.704	-0.290	-0.247
-197.290	-200.000	-0.012	0.097
-196.275	800.000	-0.011	-0.035
-195.260	723.402	0.173	-0.462
-194.246	-181.917	-0.508	0.010
-193.231	83.420	0.206	0.225
-192.217	405.243	-0.098	-0.207
-191.202	56.537	0.225	-0.219
-190.187	-200.000	0.001	-0.008
-189.173	-182.552	-0.364	-0.007
-188.158	-114.957	-0.219	0.042
-187.144	-153.711	-0.127	0.009
-186.129	800.000	0.085	0.258
-185.114	-86.198	0.165	0.051
-184.100	-200.000	0.019	0.585
-183.085	167.778	0.029	-0.041
-182.071	23.592	-0.112	-0.092
-181.056	-68.906	-0.101	0.039
-180.042	303.915	0.121	0.224
-179.027	49.254	-0.314	0.295
-178.012	800.000	0.089	0.313
-176.998	-150.637	0.128	-0.010
-175.983	52.789	0.271	-0.259
-174.969	-22.048	-0.398	0.242
-173.954	-53.610	0.387	0.177
-172.939	-88.421	-0.260	0.078
-171.925	-194.783	0.242	-0.002
-170.910	83.284	-0.042	0.046
-169.896	-186.432	0.230	0.003
-168.881	1.310	-0.278	0.200
-167.866	-200.000	0.002	0.032
-166.852	800.000	-0.126	-0.448
-165.837	82.802	-0.088	0.096
-164.823	-200.000	0.005	0.123
-163.808	-200.000	-0.012	-0.083
-162.793	130.318	-0.088	-0.113
-161.779	-95.911	0.275	-0.073
-160.764	90.958	-0.143	-0.160
-159.750	218.161	-0.043	-0.069
-158.735	-200.000	0.007	0.099
-157.720	-38.671	-0.263	0.139
-156.706	-118.556	0.463	0.082
-155.691	-109.907	0.187	-0.039
-154.677	-116.290	0.214	-0.040
-153.662	-174.659	0.145	-0.004
-152.647	-149.064	-0.057	0.005
-151.633	-72.001	-0.465	0.173
-150.618	-200.000	-0.021	-0.327
-149.604	-200.000	0.028	-0.127
-148.589	-187.944	0.218	-0.003
-147.574	-7.507	-0.087	-0.059
-146.560	-200.000	-0.034	-0.169
-145.545	800.000	0.012	-0.045
-144.531	-200.000	-0.026	0.338
-143.516	191.613	0.096	-0.145
-142.502	18.547	-0.070	0.056
-141.487	-65.169	0.012	0.005
-140.472	147.787	-0.295	0.398
-139.458	47.026	-0.191	-0.178
-138.443	-126.910	0.205	0.030
-137.429	-22.676	0.135	-0.081
-136.414	800.000	0.060	0.219
-135.399	468.453	0.063	-0.140
-134.385	800.000	0.065	-0.238
-133.370	-73.544	-0.320	-0.117
-132.356	29.855	-0.248	-0.211
-131.341	73.761	0.233	-0.243
-130.326	26.248	0.255	0.213
-129.312	-116.026	0.034	-0.006
-128.297	-141.565	0.072	-0.007
-127.283	800.000	-0.029	-0.105
-126.268	75.903	0.292	0.308
-125.253	-35.361	0.124	-0.067
-124.239	-142.890	0.351	0.034
-123.224	-189.007	-0.361	0.004
-122.210	-164.752	0.208	0.009
