DTS Sentinel unit serial number:	SN413079Multiplexer serial number:	ORYXHardware model number:	OX4-SRSoftware version number:	ORYX F/W v4.00 Oryx Data Collector v3.7.2.0data status	okinstallation	princeton_trtdifferential loss correction	single-endedforward channel	channel 3reverse channel	N/Adate	2019/09/15time	15:36:35forward acquisition time	60.00reverse acquisition time	0.00gamma	496.2192k internal	0.2291k external	0.2291temperature offset calibration	0.9943default loss term (dB/km)	0.3790temperature slope calibration	1.0000multiplexer offset coefficient	1.0000multiplexer slope coefficient	1.0000fibre end	0.00T internal ref (°C)	41.47T ext. ref 1 (°C)	5.16T ext. ref 2 (°C)	39.20length (m)	temperature (°C)	Stokes	anti-Stokes-747.200	800.000	0.044	0.133
-746.185	210.111	0.053	0.086
-745.171	-200.000	-0.021	0.186
-744.156	737.024	0.103	0.281
-743.142	-55.974	-0.024	-0.011
-742.127	288.121	0.058	0.108
-741.112	311.007	-0.053	-0.101
-740.098	160.233	-0.233	-0.332
-739.083	54.197	0.150	0.148
-738.069	800.000	-0.099	0.334
-737.054	-178.762	-0.121	-0.003
-736.039	120.066	-0.148	0.187
-735.025	800.000	-0.020	-0.087
-734.010	503.205	-0.193	-0.458
-732.996	92.152	-0.232	-0.268
-731.981	116.405	0.124	0.156
-730.966	35.875	0.125	0.113
-729.952	-120.076	0.438	0.077
-728.937	-200.000	0.014	-0.095
-727.923	-93.463	0.342	0.097
-726.908	-77.629	0.112	-0.040
-725.894	800.000	-0.086	-0.299
-724.879	13.458	0.087	-0.069
-723.864	-83.495	0.125	0.041
-722.850	97.830	0.064	0.075
-721.835	-200.000	0.031	0.215
-720.821	-42.556	-0.250	-0.130
-719.806	48.011	-0.141	-0.135
-718.791	485.527	-0.123	-0.287
-717.777	-24.262	-0.201	-0.123
-716.762	160.859	0.089	-0.127
-715.748	-200.000	0.027	-0.182
-714.733	-9.043	-0.191	-0.131
-713.718	337.674	-0.152	-0.303
-712.704	800.000	-0.083	-0.274
-711.689	74.337	-0.090	0.097
-710.675	-76.275	-0.215	-0.077
-709.660	-128.104	-0.098	0.014
-708.645	39.597	-0.071	-0.065
-707.631	71.671	-0.133	0.142
-706.616	-147.596	-0.424	0.037
-705.602	-77.710	-0.421	0.149
-704.587	10.428	0.168	-0.131
-703.572	-101.245	-0.238	0.060
-702.558	-21.763	0.154	-0.096
-701.543	800.000	0.078	-0.225
-700.529	-49.007	-0.157	0.077
-699.514	-91.142	0.324	0.095
-698.499	-200.000	0.022	0.182
-697.485	348.668	-0.205	-0.413
-696.470	471.003	0.051	-0.117
-695.456	-133.481	0.185	-0.024
-694.441	-200.000	-0.003	0.080
-693.426	-47.918	0.344	-0.170
-692.412	-137.921	0.070	-0.008
-691.397	224.734	-0.050	0.083
-690.383	800.000	-0.092	-0.298
-689.368	26.703	0.122	-0.104
-688.354	679.033	0.118	-0.314
-687.339	-74.110	-0.546	0.202
-686.324	-200.000	0.036	0.308
-685.310	79.454	-0.241	-0.264
-684.295	72.345	-0.025	-0.027
-683.281	-67.205	0.413	0.166
-682.266	-200.000	-0.030	0.364
-681.251	-200.000	0.011	-0.292
-680.237	-37.888	0.009	-0.005
-679.222	142.287	-0.101	-0.137
-678.208	-200.000	-0.006	-0.224
-677.193	-200.000	0.010	-0.184
-676.178	227.303	-0.069	-0.114
-675.164	57.118	-0.208	-0.207
-674.149	91.405	0.091	-0.104
-673.135	800.000	-0.057	-0.206
-672.120	-200.000	-0.043	0.368
-671.105	159.034	0.136	0.193
-670.091	-48.134	-0.239	0.118
-669.076	-47.213	0.194	0.097
-668.062	-119.164	0.157	0.028
-667.047	-28.199	-0.127	-0.075
-666.032	-48.185	-0.229	0.113
-665.018	95.498	0.217	0.252
-664.003	-22.914	-0.164	0.101
-662.989	-200.000	0.038	0.185
-661.974	-69.605	0.293	-0.115
-660.959	-200.000	0.038	-0.219
-659.945	506.551	0.083	-0.197
-658.930	-181.211	-0.609	-0.012
-657.916	278.591	0.153	-0.279
-656.901	-169.134	-0.168	0.006
-655.886	15.284	-0.198	-0.158
-654.872	-200.000	-0.012	-0.259
-653.857	91.466	0.143	-0.164
-652.843	171.188	-0.148	-0.217
-651.828	228.027	0.151	-0.252
-650.814	175.478	-0.110	-0.163
-649.799	-69.310	-0.420	0.165
-648.784	95.623	0.035	-0.041
-647.770	800.000	-0.042	-0.136
-646.755	174.123	-0.205	-0.302
-645.741	-154.797	-0.273	-0.018
-644.726	79.837	-0.019	-0.021
-643.711	196.431	0.088	-0.137
-642.697	-200.000	-0.052	-0.274
-641.682	-67.281	0.307	-0.123
-640.668	-130.870	-0.238	-0.033
-639.653	1.006	0.106	-0.078
-638.638	28.717	0.126	-0.109
-637.624	-54.144	0.108	0.050
-636.609	148.073	0.184	0.253
-635.595	-36.975	-0.327	0.179
-634.580	-200.000	0.006	0.131
-633.565	-81.746	-0.268	-0.090
-632.551	800.000	-0.056	-0.164
-631.536	19.421	0.194	-0.159
-630.522	-200.000	-0.029	0.220
-629.507	-200.000	-0.052	0.265
-628.492	16.279	-0.271	-0.218
-627.478	-105.315	-0.047	-0.011
-626.463	-200.000	0.003	-0.307
-625.449	-21.172	-0.211	0.132
-624.434	-200.000	0.050	0.352
-623.419	-200.000	0.011	-0.248
-622.405	65.787	0.202	0.209
-621.390	-33.184	-0.143	-0.081
-620.376	673.409	0.094	-0.249
-619.361	102.590	0.108	0.128
-618.346	295.475	0.085	0.158
-617.332	800.000	-0.052	-0.215
-616.317	123.672	-0.241	0.308
-615.303	345.021	0.074	-0.147
-614.288	-37.406	-0.162	0.088
-613.273	208.299	-0.163	0.259
-612.259	-4.376	0.269	0.189
-611.244	145.965	-0.172	0.234
-610.230	800.000	-0.094	-0.269
-609.215	-130.092	-0.237	-0.033
-608.201	54.161	0.030	-0.030
-607.186	-110.927	0.428	-0.090
-606.171	800.000	-0.016	-0.057
-605.157	-200.000	0.007	-0.256
-604.142	-166.962	-0.356	0.015
-603.128	-29.101	-0.136	0.079
-602.113	-200.000	0.017	-0.151
-601.098	-115.036	-0.170	0.033
-600.084	-67.211	0.502	-0.201
-599.069	52.036	0.084	0.082
-598.055	115.423	-0.046	0.057
-597.040	87.091	-0.105	0.119
-596.025	384.585	-0.042	-0.088
-595.011	-200.000	-0.002	0.215
-593.996	-87.706	-0.221	0.068
-592.982	-85.331	0.248	-0.079
-591.967	14.530	0.262	-0.208
-590.952	-200.000	0.004	-0.116
-589.938	499.894	0.103	-0.243
-588.923	-200.000	-0.032	0.173
-587.909	-200.000	0.014	0.076
-586.894	668.845	0.086	-0.227
-585.879	-78.802	0.322	-0.112
-584.865	800.000	-0.082	0.233
-583.850	-52.741	-0.184	0.086
-582.836	800.000	0.066	-0.209
-581.821	256.196	0.217	-0.378
-580.806	-200.000	-0.009	0.041
-579.792	-137.351	0.092	-0.011
-578.777	-162.484	0.136	-0.007
-577.763	428.246	-0.021	0.047
-576.748	342.037	-0.058	-0.115
-575.733	-48.579	-0.024	-0.012
-574.719	770.478	0.058	-0.161
-573.704	126.557	0.100	0.129
-572.690	13.974	0.294	0.233
-571.675	187.639	-0.153	0.233
-570.661	444.219	-0.119	0.266
-569.646	709.417	0.017	-0.044
-568.631	-71.223	0.033	-0.013
-567.617	613.615	-0.017	0.045
-566.602	379.060	-0.186	0.387
-565.588	-160.353	-0.242	-0.013
-564.573	-110.632	0.172	-0.036
-563.558	79.330	-0.140	0.153
-562.544	7.521	-0.201	-0.153
-561.529	-200.000	0.004	0.139
-560.515	94.031	0.132	-0.152
-559.500	-104.815	-0.357	0.083
-558.485	-38.874	-0.144	-0.077
-557.471	347.237	-0.122	0.244
-556.456	-82.098	-0.054	-0.018
-555.442	-18.904	-0.143	-0.090
-554.427	-25.573	0.143	-0.086
-553.412	-200.000	0.026	-0.255
-552.398	139.260	0.190	0.255
-551.383	64.207	0.166	0.170
-550.369	-112.477	0.066	-0.013
-549.354	105.966	-0.117	0.140
-548.339	638.129	-0.082	-0.213
-547.325	-200.000	0.024	0.198
-546.310	-200.000	0.019	-0.110
-545.296	33.882	-0.313	0.277
-544.281	-43.828	-0.206	0.106
-543.266	-62.633	0.335	0.141
-542.252	-84.570	-0.174	0.056
-541.237	15.462	0.140	-0.112
-540.223	-24.823	0.136	0.082
-539.208	-23.430	0.119	0.073
-538.193	125.688	0.049	0.063
-537.179	-83.159	-0.209	0.068
-536.164	-75.439	-0.322	0.116
-535.150	187.673	-0.094	0.143
-534.135	-200.000	-0.049	0.288
-533.121	36.309	0.034	-0.031
-532.106	-98.052	0.242	-0.063
-531.091	-103.773	0.195	-0.046
-530.077	127.536	0.191	0.247
-529.062	96.755	0.060	0.069
-528.048	127.059	-0.089	0.115
-527.033	344.720	-0.136	0.272
-526.018	46.594	-0.157	-0.148
-525.004	-76.584	0.335	0.119
-523.989	78.647	-0.307	0.334
-522.975	800.000	-0.043	0.144
-521.960	-200.000	-0.053	0.236
-520.945	-200.000	-0.030	-0.190
-519.931	-62.656	-0.215	-0.091
-518.916	208.732	0.148	0.236
-517.902	113.956	-0.107	0.132
-516.887	-200.000	-0.017	0.087
-515.872	-200.000	0.039	-0.427
-514.858	-100.765	-0.310	0.078
-513.843	-200.000	-0.013	0.246
-512.829	-177.686	-0.091	-0.002
-511.814	-111.468	0.531	-0.110
-510.799	80.342	0.093	0.101
-509.785	-163.099	-0.176	0.009
-508.770	-200.000	-0.012	-0.159
-507.756	-192.396	0.126	-0.001
-506.741	800.000	0.086	0.243
-505.726	580.789	0.085	0.210
-504.712	-87.290	-0.301	0.093
-503.697	83.454	-0.125	0.138
-502.683	-12.633	0.223	0.148
-501.668	-115.982	-0.303	0.057
-500.653	800.000	0.086	0.336
-499.639	21.662	0.260	-0.215
-498.624	-180.992	-0.329	-0.007
-497.610	-55.510	-0.129	0.059
-496.595	102.229	0.075	-0.089
-495.581	167.377	0.068	-0.098
-494.566	-200.000	0.073	-0.344
-493.551	-200.000	0.045	-0.814
-492.537	-197.798	0.482	0.003
-491.522	-200.000	0.014	-0.215
-490.508	194.251	0.143	-0.220
-489.493	11.693	-0.315	0.245
-488.478	-27.969	-0.164	0.096
-487.464	-59.525	0.088	-0.038
-486.449	-200.000	0.018	-0.201
-485.435	61.398	0.137	-0.138
-484.420	800.000	0.081	0.264
-483.405	187.624	-0.189	0.286
-482.391	-69.953	0.125	-0.048
-481.376	26.374	0.343	0.291
-480.362	32.512	0.243	-0.213
-479.347	302.682	0.100	0.188
-478.332	-119.627	-0.174	0.031
-477.318	-58.742	0.120	-0.053
-476.303	-200.000	0.008	-0.076
-475.289	4.589	-0.199	0.148
-474.274	-200.000	0.087	0.557
-473.259	413.751	-0.075	0.162
-472.245	-119.818	0.244	-0.043
-471.230	-200.000	0.040	0.265
-470.216	-192.650	-0.237	0.002
-469.201	-16.117	0.174	0.112
-468.186	-81.381	0.343	-0.115
-467.172	800.000	-0.029	-0.117
-466.157	-133.441	-0.215	-0.027
-465.143	-200.000	-0.008	-0.153
-464.128	800.000	-0.049	0.184
-463.113	268.213	0.070	0.124
-462.099	-36.647	-0.114	0.062
-461.084	800.000	0.088	-0.246
-460.070	-129.605	-0.268	0.038
-459.055	-78.627	-0.148	-0.051
-458.040	80.626	-0.175	-0.191
-457.026	-65.229	0.163	-0.067
-456.011	-21.106	-0.237	-0.147
-454.997	-200.000	0.024	-0.128
-453.982	800.000	0.062	0.194
-452.968	-153.509	-0.362	0.025
-451.953	-46.305	0.128	-0.064
-450.938	-83.612	-0.265	0.086
-449.924	145.718	0.032	0.043
-448.909	-116.499	0.449	-0.084
-447.895	236.675	-0.052	-0.087
-446.880	237.478	-0.097	0.162
-445.865	-53.488	0.138	0.064
-444.851	800.000	-0.073	0.205
-443.836	-187.167	-0.055	-0.001
-442.822	172.945	-0.029	0.042
-441.807	-200.000	0.010	0.183
-440.792	283.078	-0.086	0.157
-439.778	800.000	-0.007	-0.021
-438.763	-200.000	0.007	-0.077
-437.749	278.212	0.165	-0.297
-436.734	-74.983	-0.334	-0.121
-435.719	233.486	-0.127	0.212
-434.705	-123.393	0.219	0.035
-433.690	-42.261	-0.339	-0.175
-432.676	278.542	0.107	-0.193
-431.661	461.324	-0.151	0.342
-430.646	-153.239	0.235	0.017
-429.632	-200.000	-0.063	-0.293
-428.617	-138.073	-0.383	0.043
-427.603	312.076	0.109	0.206
-426.588	-200.000	0.017	-0.160
-425.573	298.947	0.040	-0.074
-424.559	-200.000	-0.007	-0.220
-423.544	-23.260	-0.105	-0.064
-422.530	753.939	-0.142	0.388
-421.515	-56.274	0.285	-0.128
-420.500	-55.961	-0.210	-0.095
-419.486	-33.804	-0.201	0.112
-418.471	-106.985	-0.250	-0.056
-417.457	13.846	-0.194	0.152
-416.442	545.426	-0.132	-0.318
-415.428	-200.000	-0.002	-0.052
-414.413	295.523	-0.165	0.306
-413.398	800.000	-0.005	-0.018
-412.384	465.603	0.104	-0.236
-411.369	-200.000	0.050	-0.303
-410.355	-71.513	-0.461	0.174
-409.340	65.113	-0.191	-0.195
-408.325	-120.258	0.164	0.028
-407.311	-83.765	0.353	0.114
-406.296	-107.743	-0.297	0.065
-405.282	-200.000	-0.036	0.269
-404.267	-38.901	0.087	0.046
-403.252	800.000	0.048	-0.147
-402.238	800.000	0.029	-0.093
-401.223	800.000	0.065	0.196
-400.209	-73.105	-0.115	0.043
-399.194	-119.532	-0.109	-0.019
-398.179	-200.000	0.005	-0.114
-397.165	-50.742	-0.217	0.103
-396.150	-171.681	0.192	-0.006
-395.136	-74.703	0.349	-0.127
-394.121	-36.743	-0.307	0.167
-393.106	42.582	-0.220	-0.202
-392.092	33.314	0.358	0.314
-391.077	800.000	-0.016	-0.069
-390.063	-81.942	0.235	-0.078
-389.048	-78.436	0.130	0.045
-388.033	296.306	0.020	-0.037
-387.019	-27.835	-0.056	-0.033
-386.004	118.563	-0.209	-0.261
-384.990	-43.017	-0.294	0.150
-383.975	-15.978	0.328	-0.211
-382.960	800.000	0.034	-0.110
-381.946	552.216	-0.074	-0.180
-380.931	167.983	-0.185	-0.266
-379.917	-160.654	-0.030	0.002
-378.902	-29.804	0.296	0.170
-377.888	-83.045	0.131	-0.043
-376.873	-200.000	0.056	0.266
-375.858	-95.871	-0.210	-0.056
-374.844	-200.000	-0.021	0.203
-373.829	-145.296	-0.347	0.032
-372.815	800.000	-0.023	-0.100
-371.800	-200.000	0.042	-0.291
-370.785	-3.767	-0.028	0.019
-369.771	324.325	0.126	-0.242
-368.756	800.000	0.084	0.318
-367.742	800.000	0.078	0.267
-366.727	-40.351	-0.048	0.025
-365.712	-200.000	0.016	-0.079
-364.698	-200.000	0.041	-0.209
-363.683	-200.000	-0.051	-0.318
-362.669	153.816	0.234	-0.324
-361.654	219.621	-0.168	-0.271
-360.639	-170.554	0.084	0.003
-359.625	-27.604	0.245	-0.144
-358.610	-200.000	-0.002	-0.093
-357.596	71.327	0.195	0.204
-356.581	-57.892	0.241	-0.106
-355.566	6.229	-0.268	-0.200
-354.552	38.368	0.129	0.116
-353.537	-200.000	0.045	0.278
-352.523	-200.000	-0.014	-0.061
-351.508	-200.000	-0.043	-0.358
-350.493	800.000	-0.087	-0.313
-349.479	112.401	-0.070	0.085
-348.464	-200.000	0.012	0.157
-347.450	31.665	-0.329	0.286
-346.435	730.803	-0.107	0.288
-345.420	-68.893	0.026	0.010
-344.406	-98.619	-0.106	-0.027
-343.391	800.000	-0.001	0.004
-342.377	-115.220	-0.455	0.087
-341.362	492.315	0.044	0.101
-340.348	234.234	0.117	-0.194
-339.333	141.349	-0.126	0.168
-338.318	91.920	-0.170	0.193
-337.304	54.875	-0.098	-0.096
-336.289	-200.000	-0.013	-0.118
-335.275	-148.707	-0.290	-0.024
-334.260	800.000	0.046	0.135
-333.245	7.722	0.210	-0.158
-332.231	30.108	-0.036	-0.031
-331.216	-116.274	-0.008	0.001
-330.202	-6.369	-0.125	-0.086
-329.187	800.000	0.083	0.333
-328.172	46.964	-0.117	-0.109
-327.158	176.573	-0.192	-0.281
-326.143	49.934	0.182	-0.173
-325.129	-39.785	0.096	-0.051
-324.114	-67.913	-0.183	0.072
-323.099	216.769	0.103	-0.166
-322.085	281.125	0.122	-0.220
-321.070	-200.000	-0.057	0.334
-320.056	159.012	-0.107	-0.149
-319.041	-200.000	0.030	-0.154
-318.026	-124.364	0.223	0.035
-317.012	-200.000	0.010	0.212
-315.997	55.015	-0.107	-0.104
-314.983	-200.000	-0.037	-0.175
-313.968	-200.000	-0.159	-0.000
-312.953	380.037	0.151	0.312
-311.939	249.288	0.044	0.076
-310.924	-76.810	0.202	-0.071
-309.910	28.332	0.177	-0.151
-308.895	181.005	-0.204	0.302
-307.880	-4.537	-0.262	-0.182
-306.866	-105.901	-0.336	-0.076
-305.851	-200.000	-0.050	-0.484
-304.837	-168.292	-0.130	0.005
-303.822	-116.112	0.221	-0.041
-302.807	18.401	0.228	0.183
-301.793	-88.106	-0.181	0.055
-300.778	-163.130	0.205	0.010
-299.764	-200.000	-0.031	0.154
-298.749	226.516	0.083	0.136
-297.735	-81.214	0.285	-0.095
-296.720	-200.000	-0.015	-0.146
-295.705	9.555	0.116	0.089
-294.691	433.092	-0.079	0.173
-293.676	38.713	-0.065	0.059
-292.662	7.515	-0.166	0.125
-291.647	112.628	-0.048	-0.058
-290.632	-200.000	0.015	-0.245
-289.618	-156.301	-0.183	0.012
-288.603	297.329	-0.049	-0.091
-287.589	56.857	0.295	-0.289
-286.574	81.864	-0.350	-0.381
-285.559	-86.505	0.168	-0.052
-284.545	-68.557	0.300	-0.117
-283.530	-157.060	-0.244	0.015
-282.516	12.524	0.279	-0.217
-281.501	-39.476	-0.159	0.084
-280.486	-200.000	-0.069	0.346
-279.472	2.230	0.267	0.194
-278.457	273.777	-0.048	0.085
-277.443	570.208	0.032	0.079
-276.428	485.800	0.029	0.067
-275.413	800.000	0.044	-0.177
-274.399	-200.000	-0.049	-0.344
-273.384	800.000	0.042	-0.173
-272.370	202.927	0.165	0.256
-271.355	-48.231	-0.384	-0.186
-270.340	-39.912	0.400	0.210
-269.326	-122.091	-0.254	-0.042
-268.311	-160.841	-0.202	-0.011
-267.297	383.525	-0.068	0.141
-266.282	170.002	0.169	-0.242
-265.267	-19.336	0.181	-0.113
-264.253	478.322	-0.125	0.283
-263.238	-200.000	-0.013	0.178
-262.224	269.409	0.076	0.134
-261.209	800.000	0.049	0.187
-260.195	800.000	-0.083	-0.260
-259.180	85.712	0.028	0.031
-258.165	-200.000	-0.022	0.192
-257.151	-200.000	-0.016	-0.090
-256.136	-200.000	-0.053	0.398
-255.122	-116.962	-0.216	0.040
-254.107	-200.000	0.019	0.147
-253.092	755.545	-0.008	-0.022
-252.078	43.507	0.347	-0.319
-251.063	-45.612	0.382	-0.190
-250.049	96.414	0.163	0.188
-249.034	-200.000	-0.016	-0.100
-248.019	-11.103	0.445	-0.295
-247.005	39.959	0.306	-0.276
-245.990	113.882	0.355	-0.434
-244.976	38.732	-0.108	-0.097
-243.961	129.379	-0.132	0.169
-242.946	-200.000	0.003	0.340
-241.932	138.599	-0.025	0.033
-240.917	406.537	-0.063	-0.133
-239.903	-69.034	0.460	-0.178
-238.888	-200.000	0.033	-0.250
-237.873	160.706	0.115	0.162
-236.859	-153.451	0.040	0.003
-235.844	-200.000	-0.030	-0.241
-234.830	-185.462	0.137	-0.002
-233.815	-200.000	-0.047	0.252
-232.800	-93.764	0.229	0.063
-231.786	-72.743	0.247	-0.091
-230.771	-200.000	0.013	-0.262
-229.757	-200.000	0.035	0.216
-228.742	-8.117	0.287	-0.194
-227.727	-149.782	-0.368	-0.029
-226.713	-200.000	-0.024	0.311
-225.698	-149.250	0.262	-0.021
-224.684	-79.457	0.399	0.135
-223.669	800.000	0.045	0.130
-222.655	-30.946	0.062	-0.035
-221.640	-200.000	-0.003	-0.115
-220.625	-160.839	0.149	-0.008
-219.611	53.094	0.194	-0.187
-218.596	800.000	0.067	0.230
-217.582	800.000	0.096	0.403
-216.567	-44.276	0.176	0.088
-215.552	-21.629	-0.254	0.155
-214.538	16.688	-0.047	0.037
-213.523	-142.342	-0.101	-0.010
-212.509	-200.000	-0.009	-0.409
-211.494	-200.000	-0.027	-0.248
-210.479	-74.930	-0.533	-0.192
-209.465	-200.000	-0.005	0.370
-208.450	667.537	-0.062	-0.161
-207.436	-200.000	0.005	-0.073
-206.421	108.088	-0.046	0.056
-205.406	243.169	0.078	-0.132
-204.392	-124.080	-0.226	0.036
-203.377	-76.645	0.216	0.076
-202.363	-41.360	0.331	-0.171
-201.348	237.850	0.124	-0.206
-200.333	100.989	-0.351	0.409
-199.319	-200.000	-0.016	0.238
-198.304	45.176	0.192	0.177
-197.290	-19.325	-0.117	-0.072
-196.275	60.399	0.169	-0.168
-195.260	800.000	0.085	0.258
-194.246	40.145	-0.181	0.163
-193.231	78.253	0.377	-0.403
-192.217	-120.549	0.392	0.067
-191.202	800.000	0.018	0.061
-190.187	800.000	0.033	-0.107
-189.173	-64.805	-0.192	-0.078
-188.158	32.310	0.082	0.071
-187.144	407.711	-0.113	-0.240
-186.129	-139.419	-0.167	-0.018
-185.114	27.550	0.033	0.028
-184.100	143.815	-0.143	0.191
-183.085	-139.117	0.111	-0.012
-182.071	-143.556	0.094	-0.009
-181.056	-146.633	-0.027	0.002
-180.042	800.000	-0.109	0.352
-179.027	800.000	0.050	-0.202
-178.012	192.781	0.059	0.089
-176.998	-64.169	-0.101	0.041
-175.983	344.943	-0.099	0.195
-174.969	-52.375	-0.115	0.053
-173.954	222.419	-0.068	-0.109
-172.939	735.139	-0.090	0.242
-171.925	101.955	-0.137	0.160
-170.910	-77.583	0.269	0.093
-169.896	-200.000	-0.004	-0.327
-168.881	727.806	0.052	-0.140
-167.866	-200.000	-0.016	-0.383
-166.852	82.523	0.181	-0.197
-165.837	199.538	-0.158	-0.242
-164.823	332.561	0.140	-0.270
-163.808	-108.146	-0.244	0.053
-162.793	-78.604	-0.087	0.030
-161.779	115.291	-0.102	-0.124
-160.764	113.817	0.157	-0.190
-159.750	800.000	0.038	0.165
-158.735	-179.040	-0.258	-0.006
-157.720	-120.865	0.299	0.050
-156.706	-200.000	-0.001	0.010
-155.691	-97.812	0.388	-0.100
-154.677	-71.604	-0.131	-0.049
-153.662	12.236	-0.247	0.190
-152.647	-163.651	0.403	0.019
-151.633	-200.000	0.063	0.374
-150.618	17.353	0.253	-0.201
-149.604	-133.598	0.065	-0.008
-148.589	-119.827	-0.231	0.040
-147.574	-75.117	0.187	-0.067
-146.560	52.902	0.371	-0.355
-145.545	-200.000	-0.036	-0.503
-144.531	-0.562	-0.302	-0.214
-143.516	-51.228	0.248	0.116
-142.502	461.337	-0.074	-0.166
-141.487	36.064	0.130	0.114
-140.472	561.909	-0.044	-0.106
-139.458	-144.519	0.430	0.040
-138.443	-80.564	0.309	0.103
-137.429	43.550	0.056	-0.051
-136.414	-200.000	-0.077	-0.402
-135.399	27.771	-0.111	-0.093
-134.385	-50.127	0.238	0.113
-133.370	-29.373	0.170	-0.097
-132.356	-115.051	0.180	0.034
-131.341	800.000	0.030	-0.100
-130.326	-191.473	0.311	-0.003
-129.312	-200.000	-0.001	-0.096
-128.297	-24.087	0.103	-0.062
-127.283	-6.466	-0.149	0.102
-126.268	112.799	-0.111	0.135
-125.253	-147.297	0.267	0.023
-124.239	66.141	0.104	-0.106
-123.224	-59.747	-0.281	-0.120
-122.210	-184.613	0.231	-0.004
