DTS Sentinel unit serial number:	SN413079Multiplexer serial number:	ORYXHardware model number:	OX4-SRSoftware version number:	ORYX F/W v4.00 Oryx Data Collector v3.7.2.0data status	okinstallation	princeton_trtdifferential loss correction	single-endedforward channel	channel 3reverse channel	N/Adate	2019/09/12time	16:10:11forward acquisition time	60.00reverse acquisition time	0.00gamma	496.2192k internal	0.2299k external	0.2299temperature offset calibration	1.0069default loss term (dB/km)	0.3790temperature slope calibration	1.0000multiplexer offset coefficient	1.0000multiplexer slope coefficient	1.0000fibre end	0.00T internal ref (°C)	38.47T ext. ref 1 (°C)	2.54T ext. ref 2 (°C)	31.32length (m)	temperature (°C)	Stokes	anti-Stokes-747.200	49.993	0.119	0.115
-746.185	-70.588	-0.314	0.121
-745.171	-200.000	-0.030	0.487
-744.156	-200.000	0.023	0.253
-743.142	800.000	-0.027	0.116
-742.127	-99.431	-0.201	0.052
-741.112	800.000	-0.039	0.122
-740.098	800.000	-0.032	-0.092
-739.083	11.331	-0.120	-0.094
-738.069	-12.963	0.198	0.131
-737.054	157.760	-0.120	-0.169
-736.039	724.028	-0.106	-0.288
-735.025	-74.524	0.152	-0.056
-734.010	800.000	0.077	-0.272
-732.996	-200.000	-0.017	-0.100
-731.981	-61.863	-0.153	-0.065
-730.966	315.604	-0.061	-0.117
-729.952	121.105	-0.103	0.131
-728.937	-200.000	-0.053	-0.360
-727.923	-200.000	0.010	-0.106
-726.908	-200.000	-0.003	0.033
-725.894	73.109	0.252	-0.268
-724.879	-200.000	0.042	0.247
-723.864	298.027	0.063	0.118
-722.850	-54.833	-0.204	0.094
-721.835	-1.995	-0.149	0.107
-720.821	754.083	0.041	0.114
-719.806	-55.646	0.254	-0.116
-718.791	-170.766	-0.342	-0.012
-717.777	-149.947	-0.210	0.017
-716.762	-65.725	-0.236	-0.096
-715.748	-6.214	0.068	-0.047
-714.733	215.445	-0.048	-0.077
-713.718	-200.000	-0.000	-0.181
-712.704	204.667	-0.072	-0.114
-711.689	27.188	-0.273	0.234
-710.675	-16.727	0.132	-0.085
-709.660	44.500	0.198	0.185
-708.645	19.844	-0.173	-0.142
-707.631	-18.447	-0.280	-0.178
-706.616	72.449	0.103	0.109
-705.602	-200.000	0.001	-0.142
-704.587	448.748	0.095	0.213
-703.572	-93.968	0.120	-0.034
-702.558	-200.000	0.011	0.094
-701.543	-200.000	-0.038	-0.190
-700.529	-200.000	-0.015	-0.181
-699.514	-146.381	-0.297	-0.026
-698.499	133.033	-0.021	-0.027
-697.485	152.560	0.139	0.193
-696.470	56.620	0.198	0.196
-695.456	-149.562	-0.137	-0.011
-694.441	-34.518	0.097	0.054
-693.426	28.603	-0.247	-0.213
-692.412	-103.851	0.055	-0.013
-691.397	-200.000	-0.026	0.194
-690.383	800.000	0.026	0.093
-689.368	-114.592	0.551	-0.108
-688.354	47.157	-0.443	-0.420
-687.339	-32.235	-0.280	-0.159
-686.324	-200.000	-0.012	0.227
-685.310	148.310	0.181	0.249
-684.295	14.253	0.087	-0.069
-683.281	-29.455	-0.069	-0.040
-682.266	69.514	-0.301	-0.315
-681.251	-15.120	-0.240	-0.156
-680.237	747.570	-0.080	0.220
-679.222	171.652	0.092	0.134
-678.208	800.000	0.013	-0.049
-677.193	-4.472	0.283	0.199
-676.178	-200.000	0.022	-0.478
-675.164	16.616	-0.132	-0.106
-674.149	-30.013	-0.165	0.096
-673.135	-138.410	-0.167	0.019
-672.120	-131.001	0.091	0.012
-671.105	152.749	0.037	0.051
-670.091	-200.000	-0.021	-0.191
-669.076	-3.502	-0.025	0.018
-668.062	-200.000	0.020	-0.249
-667.047	101.980	-0.155	0.184
-666.032	295.524	0.060	0.112
-665.018	202.810	-0.182	-0.286
-664.003	131.105	0.090	-0.118
-662.989	-108.734	-0.349	0.076
-661.974	292.780	-0.253	0.469
-660.959	-134.184	-0.192	-0.024
-659.945	373.556	0.128	-0.266
-658.930	-200.000	0.004	0.174
-657.916	123.051	-0.224	0.285
-656.901	-200.000	-0.044	-0.206
-655.886	-62.955	0.198	-0.083
-654.872	-200.000	0.004	0.403
-653.857	2.219	-0.145	-0.107
-652.843	-46.923	0.087	-0.043
-651.828	-25.507	-0.140	-0.084
-650.814	26.014	-0.208	-0.177
-649.799	-71.326	-0.263	-0.100
-648.784	140.496	-0.187	0.251
-647.770	484.417	-0.064	0.149
-646.755	800.000	0.044	0.156
-645.741	-151.067	-0.227	0.017
-644.726	-65.252	-0.170	0.069
-643.711	359.151	0.180	-0.366
-642.697	-77.210	0.126	0.044
-641.682	71.991	0.144	-0.152
-640.668	489.747	-0.027	-0.062
-639.653	-38.158	0.421	-0.227
-638.638	-103.164	-0.064	-0.015
-637.624	25.454	-0.099	-0.083
-636.609	298.884	-0.107	-0.200
-635.595	452.414	-0.077	-0.173
-634.580	-29.888	-0.118	-0.068
-633.565	247.694	0.020	-0.034
-632.551	419.982	0.180	0.392
-631.536	-39.249	-0.218	-0.116
-630.522	800.000	0.050	-0.201
-629.507	800.000	-0.088	-0.278
-628.492	80.535	-0.050	-0.055
-627.478	115.048	-0.106	-0.132
-626.463	87.317	0.127	0.143
-625.449	249.849	-0.117	-0.202
-624.434	-200.000	-0.015	-0.277
-623.419	-103.752	-0.126	-0.030
-622.405	-4.762	-0.204	-0.143
-621.390	-155.410	0.543	-0.036
-620.376	119.522	0.055	-0.069
-619.361	800.000	-0.086	-0.357
-618.346	188.911	-0.060	-0.091
-617.332	-2.633	-0.103	0.073
-616.317	469.575	-0.061	-0.140
-615.303	-76.840	0.092	0.033
-614.288	136.404	0.043	-0.057
-613.273	-200.000	0.043	-0.235
-612.259	177.337	0.115	0.170
-611.244	-159.313	-0.148	-0.008
-610.230	800.000	0.068	-0.293
-609.215	800.000	0.046	0.190
-608.201	111.291	0.062	-0.076
-607.186	-47.376	-0.153	0.075
-606.171	31.481	-0.062	-0.054
-605.157	18.675	-0.027	0.022
-604.142	-147.997	0.196	0.017
-603.128	167.195	0.195	-0.281
-602.113	66.253	0.058	-0.060
-601.098	-137.599	-0.171	0.020
-600.084	-123.808	-0.327	0.052
-599.069	65.425	-0.226	-0.233
-598.055	-200.000	0.001	-0.187
-597.040	81.740	0.206	0.226
-596.025	262.350	0.117	-0.206
-595.011	33.607	0.129	-0.114
-593.996	515.893	0.068	-0.162
-592.982	-122.972	-0.261	-0.043
-591.967	-5.129	-0.184	-0.128
-590.952	3.759	0.226	0.168
-589.938	-5.246	0.310	0.216
-588.923	390.727	0.087	0.182
-587.909	15.686	-0.236	-0.188
-586.894	5.978	0.155	0.116
-585.879	331.355	-0.045	0.087
-584.865	-168.276	0.190	0.007
-583.850	-91.775	-0.204	0.059
-582.836	18.047	-0.052	0.042
-581.821	181.678	-0.090	0.135
-580.806	800.000	-0.060	0.226
-579.792	-38.768	-0.302	0.161
-578.777	-41.699	0.265	-0.138
-577.763	657.804	-0.042	-0.109
-576.748	98.614	0.190	-0.222
-575.733	38.609	-0.147	-0.133
-574.719	-97.648	-0.392	-0.103
-573.704	-98.932	0.238	-0.061
-572.690	13.185	-0.394	-0.309
-571.675	-200.000	-0.034	-0.195
-570.661	790.907	-0.069	0.193
-569.646	-200.000	0.015	-0.250
-568.631	55.361	-0.222	-0.217
-567.617	800.000	-0.055	-0.189
-566.602	-58.169	-0.242	0.107
-565.588	-200.000	0.077	-0.359
-564.573	800.000	-0.111	-0.315
-563.558	355.181	0.147	-0.297
-562.544	-200.000	-0.026	0.224
-561.529	800.000	-0.046	0.134
-560.515	-121.815	0.266	0.045
-559.500	317.371	-0.033	-0.063
-558.485	800.000	0.015	-0.067
-557.471	127.936	-0.119	-0.153
-556.456	197.962	0.035	-0.054
-555.442	-44.278	-0.119	-0.060
-554.427	504.809	0.059	0.139
-553.412	-68.419	0.109	0.043
-552.398	-1.567	-0.191	-0.136
-551.383	-33.076	-0.235	0.132
-550.369	-3.944	0.274	0.193
-549.354	-155.401	-0.130	0.009
-548.339	-171.370	0.122	-0.004
-547.325	-127.919	-0.134	0.020
-546.310	414.465	0.054	0.117
-545.296	133.411	0.165	-0.216
-544.281	-69.856	-0.107	0.041
-543.266	347.023	-0.077	-0.153
-542.252	528.805	-0.098	0.233
-541.237	-81.341	0.202	-0.068
-540.223	94.578	0.213	-0.245
-539.208	52.170	0.089	-0.086
-538.193	178.304	0.042	0.062
-537.179	138.025	0.149	-0.197
-536.164	120.153	0.120	-0.151
-535.150	800.000	0.063	0.196
-534.135	-93.664	-0.103	0.029
-533.121	26.064	-0.064	0.054
-532.106	75.009	0.130	0.139
-531.091	-67.146	0.052	0.021
-530.077	-32.651	0.171	0.097
-529.062	-2.026	0.089	-0.064
-528.048	135.488	-0.144	0.190
-527.033	-155.685	0.282	-0.018
-526.018	113.577	0.058	0.072
-525.004	-1.629	0.309	-0.221
-523.989	-135.135	0.091	-0.011
-522.975	559.097	0.199	-0.485
-521.960	-200.000	-0.043	-0.194
-520.945	139.281	-0.329	-0.437
-519.931	-31.665	-0.257	0.146
-518.916	-112.468	-0.287	-0.058
-517.902	-168.658	-0.287	0.011
-516.887	-2.870	0.314	0.222
-515.872	195.942	0.080	-0.123
-514.858	198.122	0.088	0.136
-513.843	-62.579	0.240	0.101
-512.829	-200.000	0.036	0.232
-511.814	-97.440	0.197	-0.052
-510.799	157.780	0.121	0.169
-509.785	-123.422	0.143	-0.023
-508.770	249.686	-0.162	-0.277
-507.756	-200.000	-0.061	-0.285
-506.741	123.530	0.173	-0.220
-505.726	-200.000	0.021	0.117
-504.712	-81.360	-0.075	-0.025
-503.697	10.684	0.161	-0.124
-502.683	-200.000	0.073	-0.352
-501.668	417.789	0.091	-0.196
-500.653	-103.429	0.144	-0.034
-499.639	-200.000	0.037	-0.278
-498.624	-5.684	-0.156	-0.108
-497.610	97.255	0.059	-0.069
-496.595	-142.530	0.158	0.016
-495.581	462.249	0.067	-0.150
-494.566	-200.000	-0.016	-0.130
-493.551	-200.000	-0.030	0.187
-492.537	-127.130	0.175	-0.026
-491.522	31.051	0.277	0.240
-490.508	69.433	0.129	-0.134
-489.493	94.724	-0.146	-0.168
-488.478	29.937	-0.037	0.032
-487.464	43.063	-0.344	0.317
-486.449	-67.647	0.147	0.058
-485.435	800.000	0.088	-0.301
-484.420	-200.000	0.012	-0.495
-483.405	-50.710	0.105	0.050
-482.391	-102.443	0.331	-0.080
-481.376	161.662	-0.061	0.086
-480.362	-49.987	0.227	-0.109
-479.347	66.657	-0.223	0.229
-478.332	21.435	-0.362	0.297
-477.318	-106.734	-0.167	0.037
-476.303	344.411	-0.170	-0.337
-475.289	-20.094	0.281	-0.175
-474.274	-200.000	0.000	0.293
-473.259	-77.794	-0.141	-0.049
-472.245	-200.000	0.018	-0.086
-471.230	586.626	-0.057	-0.141
-470.216	800.000	-0.025	-0.072
-469.201	158.763	-0.066	0.093
-468.186	341.395	0.068	-0.135
-467.172	483.300	0.107	-0.246
-466.157	-200.000	0.060	0.294
-465.143	-79.243	-0.331	-0.113
-464.128	-94.496	-0.550	0.151
-463.113	-200.000	0.010	0.247
-462.099	94.998	-0.180	-0.207
-461.084	-88.889	0.075	-0.022
-460.070	-141.091	0.041	-0.004
-459.055	121.219	-0.106	-0.134
-458.040	657.234	0.050	-0.130
-457.026	-75.433	0.143	-0.051
-456.011	687.598	0.051	-0.134
-454.997	800.000	0.024	0.104
-453.982	-158.538	0.282	0.016
-452.968	-84.031	-0.258	0.083
-451.953	-143.051	0.303	-0.030
-450.938	-72.479	-0.330	-0.123
-449.924	153.569	0.188	-0.260
-448.909	-86.425	0.172	0.053
-447.895	171.505	0.040	0.059
-446.880	-23.890	0.087	0.052
-445.865	15.097	-0.108	-0.085
-444.851	-200.000	-0.061	-0.345
-443.836	-127.164	-0.100	0.015
-442.822	800.000	-0.038	0.112
-441.807	-17.168	-0.152	-0.097
-440.792	14.186	0.104	0.082
-439.778	-174.044	-0.590	0.017
-438.763	473.174	-0.038	0.086
-437.749	800.000	-0.019	0.069
-436.734	342.651	-0.094	0.186
-435.719	-68.096	-0.277	-0.109
-434.705	136.796	0.073	-0.096
-433.690	-4.552	0.101	0.070
-432.676	678.990	0.057	0.151
-431.661	18.366	0.059	-0.047
-430.646	233.373	-0.208	-0.345
-429.632	582.381	0.037	0.090
-428.617	385.455	0.073	-0.151
-427.603	97.392	-0.323	-0.374
-426.588	800.000	0.073	-0.290
-425.573	137.236	0.033	0.044
-424.559	-200.000	0.036	0.197
-423.544	-13.287	-0.274	0.179
-422.530	240.947	-0.038	-0.064
-421.515	16.426	-0.235	0.187
-420.500	37.406	0.083	0.074
-419.486	800.000	0.077	-0.260
-418.471	800.000	-0.050	-0.155
-417.457	-32.137	0.208	-0.117
-416.442	-61.213	0.156	0.066
-415.428	60.149	0.221	0.221
-414.413	-200.000	-0.074	0.430
-413.398	-137.007	0.394	0.045
-412.384	436.819	-0.043	-0.095
-411.369	-141.227	0.147	-0.015
-410.355	7.961	0.155	-0.117
-409.340	393.025	-0.108	-0.226
-408.325	74.980	-0.187	-0.198
-407.311	-200.000	0.115	0.000
-406.296	-119.553	0.359	-0.063
-405.282	-124.724	0.247	-0.038
-404.267	124.725	0.097	-0.123
-403.252	800.000	-0.051	0.165
-402.238	-13.513	0.054	-0.035
-401.223	-200.000	0.066	-0.404
-400.209	255.068	0.090	-0.156
-399.194	65.090	0.120	-0.122
-398.179	137.291	-0.103	0.135
-397.165	705.013	-0.052	0.138
-396.150	298.376	-0.141	0.262
-395.136	356.255	-0.225	0.452
-394.121	42.746	-0.010	0.010
-393.106	15.068	-0.057	0.045
-392.092	206.314	0.023	0.035
-391.077	306.473	-0.081	-0.153
-390.063	256.754	0.254	-0.440
-389.048	-147.767	-0.103	-0.009
-388.033	-63.295	0.217	0.090
-387.019	-50.079	-0.219	-0.104
-386.004	-17.189	-0.147	-0.093
-384.990	800.000	0.081	0.265
-383.975	-200.000	-0.014	0.510
-382.960	38.908	0.265	0.239
-381.946	115.565	0.005	-0.006
-380.931	-21.933	0.091	0.056
-379.917	-97.658	0.349	-0.091
-378.902	-162.645	-0.286	-0.014
-377.888	-97.435	0.354	-0.093
-376.873	676.129	-0.066	0.172
-375.858	120.615	0.218	0.272
-374.844	-40.589	0.216	0.113
-373.829	800.000	0.057	-0.168
-372.815	582.506	-0.024	0.058
-371.800	-93.963	-0.289	-0.080
-370.785	60.005	-0.115	0.114
-369.771	207.348	0.219	0.344
-368.756	-159.902	0.066	-0.004
-367.742	-200.000	-0.005	-0.058
-366.727	-77.994	0.115	-0.040
-365.712	-200.000	0.028	0.208
-364.698	-77.554	-0.345	-0.120
-363.683	228.834	-0.144	-0.235
-362.669	-71.123	0.187	-0.071
-361.654	-80.161	0.138	0.047
-360.639	81.754	-0.040	-0.044
-359.625	-136.425	-0.205	0.024
-358.610	-79.477	-0.156	0.053
-357.596	468.817	0.049	0.111
-356.581	-200.000	-0.015	0.089
-355.566	81.654	-0.092	0.100
-354.552	266.620	0.125	0.219
-353.537	-38.812	0.175	-0.093
-352.523	105.321	0.110	0.131
-351.508	32.808	0.176	0.153
-350.493	-200.000	0.000	-0.035
-349.479	-145.141	-0.112	0.010
-348.464	-26.091	0.224	0.133
-347.450	-200.000	-0.079	0.420
-346.435	11.250	0.264	-0.203
-345.420	391.958	-0.097	0.202
-344.406	-104.242	-0.241	0.056
-343.391	564.526	-0.090	-0.220
-342.377	-90.034	-0.280	0.082
-341.362	-200.000	-0.062	-0.308
-340.348	-158.287	-0.323	0.019
-339.333	-79.005	-0.158	-0.054
-338.318	800.000	0.082	0.298
-337.304	-161.667	0.156	0.008
-336.289	-125.953	0.190	0.029
-335.275	-102.464	-0.406	0.098
-334.260	-200.000	0.038	0.211
-333.245	-103.838	-0.077	-0.018
-332.231	-200.000	-0.063	-0.341
-331.216	-94.930	-0.208	-0.057
-330.202	22.124	-0.140	0.114
-329.187	-29.088	-0.154	-0.089
-328.172	-200.000	0.000	0.146
-327.158	-135.286	0.195	0.023
-326.143	-26.622	-0.226	0.133
-325.129	430.745	-0.095	0.207
-324.114	-200.000	0.012	0.158
-323.099	800.000	-0.043	0.146
-322.085	-200.000	-0.010	0.091
-321.070	-142.490	-0.131	0.013
-320.056	-200.000	0.022	-0.177
-319.041	33.937	-0.035	-0.031
-318.026	-126.688	-0.151	0.022
-317.012	267.128	-0.173	0.304
-315.997	-80.525	-0.335	-0.112
-314.983	-200.000	-0.037	-0.363
-313.968	374.555	-0.185	-0.378
-312.953	-135.694	0.328	-0.039
-311.939	-35.237	0.191	0.104
-310.924	124.522	-0.192	0.243
-309.910	-68.792	-0.121	0.047
-308.895	800.000	0.104	0.435
-307.880	800.000	-0.019	0.060
-306.866	-10.629	-0.079	-0.053
-305.851	-83.058	-0.269	0.087
-304.837	631.480	-0.063	0.159
-303.822	-16.444	0.228	0.145
-302.807	355.357	0.072	-0.144
-301.793	-166.287	-0.128	-0.005
-300.778	278.618	-0.217	0.388
-299.764	124.147	-0.066	-0.083
-298.749	71.176	0.152	-0.158
-297.735	204.078	-0.023	-0.035
-296.720	30.782	0.219	-0.188
-295.705	-83.350	-0.295	0.095
-294.691	77.752	0.079	0.084
-293.676	275.515	-0.103	0.184
-292.662	-200.000	0.040	-0.201
-291.647	6.631	0.057	-0.042
-290.632	-19.543	0.113	-0.070
-289.618	-15.229	0.163	0.105
-288.603	-12.828	-0.171	-0.111
-287.589	-129.446	0.146	-0.020
-286.574	-200.000	-0.030	0.154
-285.559	-109.443	-0.292	-0.062
-284.545	-10.170	-0.191	0.127
-283.530	-152.909	-0.047	0.003
-282.516	-148.699	-0.085	-0.007
-281.501	-200.000	0.015	0.204
-280.486	-135.841	0.216	0.026
-279.472	-159.337	-0.184	-0.010
-278.457	800.000	0.184	0.591
-277.443	800.000	-0.089	0.296
-276.428	56.816	-0.250	0.244
-275.413	39.208	-0.180	0.162
-274.399	657.796	-0.088	0.227
-273.384	-147.621	0.062	-0.005
-272.370	-90.967	0.178	-0.051
-271.355	-22.571	0.280	0.170
-270.340	659.196	-0.061	-0.157
-269.326	-170.981	0.141	-0.005
-268.311	108.576	-0.125	0.149
-267.297	-31.213	0.208	0.117
-266.282	114.014	0.135	0.165
-265.267	800.000	0.017	0.056
-264.253	-105.241	-0.218	-0.050
-263.238	761.495	0.058	-0.158
-262.224	-200.000	-0.048	0.290
-261.209	-200.000	-0.039	0.339
-260.195	-130.675	0.283	0.038
-259.180	665.962	0.105	0.272
-258.165	23.197	0.315	0.259
-257.151	-200.000	-0.094	0.501
-256.136	52.641	0.132	0.127
-255.122	800.000	0.069	-0.231
-254.107	-200.000	-0.045	-0.459
-253.092	47.522	0.162	0.151
-252.078	95.704	-0.093	-0.106
-251.063	150.281	-0.294	-0.399
-250.049	162.129	0.177	0.249
-249.034	-62.792	0.183	0.076
-248.019	137.508	0.077	-0.101
-247.005	-200.000	-0.005	-0.134
-245.990	-172.697	-0.152	0.005
-244.976	800.000	0.094	0.289
-243.961	87.912	-0.050	0.056
-242.946	340.357	0.099	-0.194
-241.932	-127.090	0.302	-0.044
-240.917	-79.438	-0.189	0.064
-239.903	-23.557	-0.241	-0.145
-238.888	88.833	-0.139	0.155
-237.873	-200.000	0.033	0.222
-236.859	8.839	0.129	-0.097
-235.844	800.000	-0.058	-0.241
-234.830	510.338	-0.075	-0.174
-233.815	439.174	-0.107	0.233
-232.800	-44.508	-0.176	0.088
-231.786	800.000	-0.061	-0.183
-230.771	-200.000	-0.033	-0.193
-229.757	449.778	-0.055	0.121
-228.742	71.594	0.080	-0.083
-227.727	167.896	0.126	-0.179
-226.713	140.199	0.182	0.240
-225.698	-140.455	0.296	-0.031
-224.684	800.000	-0.009	-0.030
-223.669	-200.000	0.032	-0.149
-222.655	-3.329	0.274	0.190
-221.640	-77.669	-0.220	0.076
-220.625	-75.778	0.340	-0.120
-219.611	202.716	0.282	-0.436
-218.596	-151.851	-0.234	0.017
-217.582	-200.000	0.029	0.456
-216.567	800.000	-0.041	0.178
-215.552	-200.000	0.023	0.195
-214.538	151.131	0.171	0.232
-213.523	365.637	0.192	0.388
-212.509	-78.562	-0.272	0.093
-211.494	668.027	-0.086	-0.223
-210.479	800.000	-0.009	0.035
-209.465	-93.069	0.096	-0.027
-208.450	-156.776	0.127	0.008
-207.436	800.000	-0.013	-0.054
-206.421	800.000	0.065	0.227
-205.406	73.982	0.034	0.036
-204.392	-103.138	-0.128	-0.030
-203.377	-96.380	0.195	-0.052
-202.363	-62.475	0.150	-0.062
-201.348	-128.606	-0.170	-0.024
-200.333	-14.909	0.473	0.303
-199.319	-97.537	0.042	0.011
-198.304	-155.646	-0.517	-0.033
-197.290	-105.415	0.298	-0.068
-196.275	800.000	-0.084	0.273
-195.260	-99.942	0.354	-0.088
-194.246	-20.042	0.248	-0.153
-193.231	-194.049	0.147	0.001
-192.217	-91.790	0.051	-0.014
-191.202	43.330	0.078	-0.071
-190.187	-100.405	0.149	0.037
-189.173	172.902	-0.171	-0.246
-188.158	-200.000	-0.039	0.517
-187.144	372.947	-0.029	-0.060
-186.129	-168.457	0.200	0.008
-185.114	-171.732	-0.408	0.013
-184.100	127.021	0.063	0.079
-183.085	-108.706	-0.259	-0.055
-182.071	-165.964	0.527	0.022
-181.056	-12.786	-0.220	-0.143
-180.042	83.058	0.239	-0.260
-179.027	249.884	-0.183	-0.310
-178.012	-155.816	-0.290	-0.018
-176.998	-200.000	0.025	0.308
-175.983	-200.000	0.053	0.267
-174.969	-36.896	0.159	-0.085
-173.954	800.000	-0.019	-0.059
-172.939	-200.000	0.016	-0.076
-171.925	-200.000	0.002	0.018
-170.910	-200.000	0.001	0.464
-169.896	14.083	0.233	-0.181
-168.881	57.865	0.081	0.079
-167.866	630.093	-0.108	0.273
-166.852	-22.481	-0.126	-0.076
-165.837	-200.000	-0.063	0.556
-164.823	184.742	-0.199	0.295
-163.808	53.283	0.107	0.103
-162.793	-200.000	0.030	0.322
-161.779	-60.704	-0.311	0.131
-160.764	-109.104	-0.346	0.073
-159.750	-84.819	0.099	0.031
-158.735	-111.266	-0.208	0.042
-157.720	-19.038	0.041	-0.025
-156.706	-13.514	-0.142	-0.092
-155.691	155.804	-0.266	-0.365
-154.677	-37.056	-0.162	0.086
-153.662	800.000	-0.046	-0.178
-152.647	-33.384	0.289	-0.159
-151.633	354.234	0.136	0.269
-150.618	250.199	0.050	-0.085
-149.604	11.446	-0.388	0.297
-148.589	-200.000	-0.046	0.226
-147.574	-200.000	-0.068	-0.302
-146.560	800.000	-0.042	-0.131
-145.545	58.928	0.179	0.176
-144.531	-6.436	-0.098	-0.066
-143.516	14.216	-0.138	0.107
-142.502	186.654	-0.064	0.096
-141.487	-179.387	-0.232	-0.005
-140.472	-39.821	0.148	0.077
-139.458	-200.000	-0.004	0.120
-138.443	42.148	-0.150	-0.136
-137.429	-87.287	-0.147	0.044
-136.414	26.801	0.313	-0.261
-135.399	-200.000	0.012	0.262
-134.385	-97.914	0.039	0.010
-133.370	-1.919	-0.293	0.205
-132.356	-162.199	0.166	-0.008
-131.341	-200.000	-0.060	-0.269
-130.326	186.596	-0.052	0.077
-129.312	-86.761	0.372	0.113
-128.297	-200.000	0.012	0.452
-127.283	-95.778	-0.168	0.045
-126.268	-200.000	-0.010	-0.125
-125.253	99.912	0.087	-0.100
-124.239	-36.074	0.275	0.148
-123.224	-155.368	0.343	0.022
-122.210	-106.717	-0.192	0.042
-121.195	-52.134	-0.199	-0.092
