DTS Sentinel unit serial number:	SN413079Multiplexer serial number:	ORYXHardware model number:	OX4-SRSoftware version number:	ORYX F/W v4.00 Oryx Data Collector v3.7.2.0data status	okinstallation	princeton_trtdifferential loss correction	single-endedforward channel	channel 3reverse channel	N/Adate	2019/09/13time	00:12:34forward acquisition time	60.00reverse acquisition time	0.00gamma	496.2192k internal	0.2330k external	0.2330temperature offset calibration	1.0122default loss term (dB/km)	0.3790temperature slope calibration	1.0000multiplexer offset coefficient	1.0000multiplexer slope coefficient	1.0000fibre end	0.00T internal ref (°C)	28.56T ext. ref 1 (°C)	3.77T ext. ref 2 (°C)	23.17length (m)	temperature (°C)	Stokes	anti-Stokes-747.200	166.296	-0.124	-0.176
-746.185	-35.069	0.102	0.056
-745.171	86.138	-0.094	0.105
-744.156	800.000	-0.053	0.194
-743.142	83.537	0.197	-0.217
-742.127	-200.000	0.002	0.156
-741.112	131.043	0.087	-0.112
-740.098	-79.348	-0.546	0.186
-739.083	268.489	0.149	-0.263
-738.069	21.526	0.186	0.152
-737.054	-111.935	0.188	-0.038
-736.039	203.900	-0.205	0.320
-735.025	-61.424	0.135	-0.057
-734.010	644.091	-0.054	0.138
-732.996	548.717	-0.118	-0.286
-731.981	-200.000	-0.058	0.333
-730.966	19.634	-0.110	0.089
-729.952	50.104	0.154	-0.147
-728.937	115.097	-0.048	0.058
-727.923	-178.762	-0.159	-0.004
-726.908	-75.549	0.232	0.083
-725.894	-200.000	-0.010	0.278
-724.879	-65.895	-0.247	0.099
-723.864	582.588	-0.053	0.130
-722.850	-50.344	-0.288	0.137
-721.835	-22.580	-0.338	0.205
-720.821	-113.194	-0.200	0.040
-719.806	-200.000	0.071	-0.398
-718.791	414.745	0.064	0.138
-717.777	-200.000	-0.018	-0.167
-716.762	103.131	0.162	0.191
-715.748	25.326	0.095	0.080
-714.733	-60.302	-0.196	-0.084
-713.718	-128.632	0.113	-0.016
-712.704	-0.737	0.131	-0.094
-711.689	-77.493	0.186	0.065
-710.675	98.344	-0.152	0.176
-709.660	-83.418	0.105	0.034
-708.645	-164.975	0.185	0.008
-707.631	-51.415	-0.088	0.041
-706.616	91.321	-0.135	0.152
-705.602	-200.000	-0.006	-0.070
-704.587	474.112	-0.046	0.105
-703.572	-2.015	-0.159	-0.113
-702.558	-98.729	-0.336	-0.086
-701.543	-61.596	0.170	0.072
-700.529	205.253	0.092	-0.143
-699.514	-129.770	0.105	-0.014
-698.499	160.904	0.111	-0.156
-697.485	-137.956	-0.387	-0.043
-696.470	800.000	-0.005	-0.019
-695.456	-200.000	0.024	-0.133
-694.441	-51.974	0.122	-0.057
-693.426	800.000	-0.100	-0.358
-692.412	-200.000	-0.015	-0.429
-691.397	255.948	-0.112	-0.193
-690.383	-128.012	0.204	-0.029
-689.368	-200.000	-0.025	-0.142
-688.354	-75.213	-0.272	-0.097
-687.339	614.754	0.070	-0.177
-686.324	-26.944	0.185	-0.108
-685.310	80.564	0.192	0.208
-684.295	800.000	0.122	0.403
-683.281	226.472	0.125	-0.203
-682.266	-200.000	0.050	0.271
-681.251	-75.036	-0.090	-0.032
-680.237	16.443	0.229	-0.182
-679.222	800.000	-0.066	-0.222
-678.208	505.108	-0.024	0.055
-677.193	131.146	-0.235	-0.303
-676.178	-46.080	-0.153	-0.076
-675.164	119.919	0.166	-0.207
-674.149	-59.163	0.202	0.088
-673.135	326.229	0.078	-0.150
-672.120	347.567	-0.038	-0.075
-671.105	96.428	-0.241	0.277
-670.091	174.963	-0.077	0.112
-669.076	16.824	-0.142	0.113
-668.062	-200.000	0.034	0.182
-667.047	8.157	0.061	-0.046
-666.032	800.000	-0.140	-0.451
-665.018	88.556	0.056	0.062
-664.003	52.369	0.361	-0.346
-662.989	-98.910	0.255	0.065
-661.974	-200.000	0.041	-0.381
-660.959	-102.325	0.094	-0.023
-659.945	-123.885	0.204	-0.032
-658.930	-163.592	-0.408	-0.019
-657.916	800.000	0.082	0.244
-656.901	68.808	0.150	0.155
-655.886	28.696	-0.184	0.156
-654.872	88.903	-0.178	0.199
-653.857	163.378	0.187	-0.264
-652.843	129.981	-0.148	-0.189
-651.828	30.126	0.051	0.043
-650.814	-200.000	-0.088	-0.528
-649.799	173.813	-0.100	-0.144
-648.784	436.410	-0.025	-0.055
-647.770	-200.000	-0.049	-0.354
-646.755	-160.884	0.114	-0.006
-645.741	-200.000	0.073	-0.326
-644.726	86.429	-0.119	-0.131
-643.711	-200.000	0.002	0.148
-642.697	246.013	0.088	-0.149
-641.682	-100.300	0.558	0.139
-640.668	70.931	-0.258	-0.268
-639.653	600.241	-0.015	-0.037
-638.638	-94.507	0.321	0.088
-637.624	215.199	-0.258	-0.410
-636.609	-200.000	0.006	-0.198
-635.595	530.828	-0.062	0.146
-634.580	110.238	-0.388	0.467
-633.565	144.730	0.179	-0.240
-632.551	7.578	-0.299	-0.224
-631.536	-5.210	-0.097	0.067
-630.522	-200.000	0.004	0.040
-629.507	-200.000	0.037	-0.221
-628.492	800.000	0.032	0.107
-627.478	276.803	-0.044	-0.078
-626.463	-133.718	0.234	0.029
-625.449	427.183	0.035	-0.076
-624.434	-200.000	0.002	-0.251
-623.419	-112.346	-0.302	0.061
-622.405	-91.284	0.229	-0.066
-621.390	555.733	-0.059	0.142
-620.376	-200.000	0.001	0.172
-619.361	800.000	-0.114	0.406
-618.346	118.159	-0.044	-0.055
-617.332	-56.659	0.278	-0.123
-616.317	-200.000	0.028	-0.265
-615.303	93.648	0.140	-0.158
-614.288	-71.678	0.470	0.176
-613.273	298.888	-0.204	0.377
-612.259	171.539	0.144	-0.206
-611.244	800.000	0.027	-0.100
-610.230	-169.727	0.170	0.006
-609.215	800.000	-0.004	0.015
-608.201	-93.254	-0.117	0.033
-607.186	39.775	-0.251	-0.226
-606.171	432.066	0.126	0.273
-605.157	-7.782	-0.125	0.085
-604.142	28.502	0.120	-0.102
-603.128	36.190	0.058	-0.051
-602.113	5.760	-0.110	0.081
-601.098	116.929	0.099	0.121
-600.084	-200.000	-0.012	0.082
-599.069	20.239	0.192	-0.155
-598.055	307.667	0.039	0.073
-597.040	-129.848	-0.312	-0.043
-596.025	17.285	0.108	-0.086
-595.011	800.000	-0.113	0.333
-593.996	-17.088	0.096	0.061
-592.982	-76.016	0.331	-0.117
-591.967	233.694	0.129	-0.213
-590.952	22.659	0.276	-0.226
-589.938	-200.000	0.031	-0.172
-588.923	546.370	0.055	-0.131
-587.909	16.917	0.028	0.022
-586.894	238.081	-0.161	-0.267
-585.879	91.786	-0.156	0.176
-584.865	42.049	-0.176	-0.160
-583.850	-150.977	0.296	-0.022
-582.836	-200.000	0.019	0.247
-581.821	-104.781	-0.113	-0.026
-580.806	-101.405	-0.299	-0.073
-579.792	-200.000	-0.291	-0.000
-578.777	-106.275	0.369	-0.083
-577.763	-200.000	-0.054	-0.276
-576.748	800.000	-0.072	-0.210
-575.733	61.271	0.179	0.177
-574.719	238.252	-0.052	-0.087
-573.704	572.593	-0.019	0.047
-572.690	800.000	-0.130	-0.363
-571.675	-52.211	-0.153	-0.071
-570.661	-113.770	-0.174	0.034
-569.646	287.442	-0.077	-0.139
-568.631	-200.000	-0.041	-0.314
-567.617	-24.430	0.232	-0.138
-566.602	75.092	0.102	0.107
-565.588	133.126	0.134	-0.173
-564.573	800.000	-0.072	0.289
-563.558	-124.718	0.067	-0.010
-562.544	32.733	0.193	0.167
-561.529	-200.000	0.114	-0.533
-560.515	-200.000	-0.037	-0.314
-559.500	-25.826	-0.323	0.190
-558.485	-83.287	0.140	-0.045
-557.471	800.000	0.098	-0.276
-556.456	-59.024	0.176	-0.076
-555.442	-126.013	-0.140	0.021
-554.427	-200.000	0.007	0.139
-553.412	-200.000	-0.009	0.231
-552.398	-103.867	0.445	0.104
-551.383	-200.000	0.038	0.174
-550.369	-111.405	0.121	0.025
-549.354	-28.562	0.137	0.079
-548.339	179.575	-0.135	0.198
-547.325	800.000	-0.072	0.270
-546.310	-200.000	-0.001	-0.235
-545.296	-200.000	0.007	-0.403
-544.281	800.000	-0.017	-0.058
-543.266	-200.000	-0.004	0.329
-542.252	-40.281	0.078	-0.041
-541.237	-62.528	0.452	-0.188
-540.223	499.039	0.138	0.318
-539.208	378.184	0.062	0.126
-538.193	-37.060	0.093	0.050
-537.179	97.895	0.018	-0.020
-536.164	70.514	0.303	-0.312
-535.150	62.373	-0.343	-0.342
-534.135	-200.000	-0.011	-0.061
-533.121	-39.721	-0.296	0.155
-532.106	5.105	0.272	0.200
-531.091	373.647	-0.151	0.306
-530.077	80.588	-0.282	0.303
-529.062	-200.000	0.027	-0.151
-528.048	298.317	-0.022	0.041
-527.033	-49.140	0.012	-0.006
-526.018	-127.473	-0.157	0.023
-525.004	-27.480	0.234	-0.136
-523.989	800.000	0.079	-0.238
-522.975	-36.671	-0.209	-0.112
-521.960	-180.946	0.214	0.004
-520.945	158.732	-0.115	-0.159
-519.931	-40.465	-0.187	0.097
-518.916	-200.000	0.010	0.217
-517.902	800.000	-0.008	-0.023
-516.887	385.764	0.098	-0.202
-515.872	95.647	0.066	0.075
-514.858	-60.108	0.483	0.206
-513.843	383.561	-0.183	-0.376
-512.829	-77.105	-0.193	-0.067
-511.814	35.232	0.207	0.181
-510.799	-49.632	0.226	0.107
-509.785	-200.000	0.006	0.051
-508.770	-1.025	-0.175	0.124
-507.756	167.814	-0.141	0.200
-506.741	-60.680	-0.288	-0.122
-505.726	-92.974	0.345	0.096
-504.712	197.342	-0.170	0.259
-503.697	-99.973	-0.138	-0.034
-502.683	-42.590	-0.249	0.126
-501.668	-119.677	-0.326	0.056
-500.653	-40.035	-0.219	-0.114
-499.639	-200.000	0.003	0.169
-498.624	137.645	-0.066	0.086
-497.610	-123.850	0.200	0.031
-496.595	135.869	-0.335	0.435
-495.581	43.326	0.153	0.140
-494.566	15.809	0.242	-0.190
-493.551	139.494	-0.224	-0.293
-492.537	284.796	0.084	0.151
-491.522	23.392	-0.088	0.072
-490.508	-102.580	-0.328	-0.078
-489.493	800.000	0.041	-0.143
-488.478	289.208	0.158	-0.285
-487.464	9.084	0.350	-0.263
-486.449	800.000	-0.021	0.091
-485.435	-200.000	0.018	0.170
-484.420	-145.332	0.118	-0.011
-483.405	223.496	-0.141	-0.226
-482.391	-200.000	0.010	0.281
-481.376	-115.494	0.100	0.019
-480.362	114.060	-0.092	-0.111
-479.347	-200.000	0.014	-0.335
-478.332	106.408	-0.128	-0.151
-477.318	-200.000	-0.011	-0.384
-476.303	800.000	0.005	0.019
-475.289	247.312	0.091	0.153
-474.274	-132.002	0.241	-0.031
-473.259	800.000	-0.136	-0.556
-472.245	-180.918	0.388	-0.008
-471.230	31.073	-0.104	-0.089
-470.216	-14.273	0.119	-0.077
-469.201	528.853	0.107	0.251
-468.186	516.405	-0.077	0.179
-467.172	380.855	0.084	-0.171
-466.157	142.464	-0.181	-0.239
-465.143	102.179	-0.004	0.004
-464.128	-17.327	0.057	-0.036
-463.113	21.385	-0.057	0.046
-462.099	-117.946	-0.320	0.057
-461.084	-114.586	-0.211	-0.040
-460.070	23.416	0.214	-0.176
-459.055	-119.419	-0.084	0.015
-458.040	-200.000	0.012	-0.115
-457.026	-111.485	-0.094	0.019
-456.011	-3.334	0.122	-0.085
-454.997	-37.237	-0.372	0.198
-453.982	458.210	-0.033	0.072
-452.968	204.857	0.085	-0.132
-451.953	-200.000	0.020	-0.243
-450.938	145.624	-0.186	0.248
-449.924	-92.150	0.241	0.068
-448.909	154.259	-0.041	-0.055
-447.895	32.918	-0.035	-0.030
-446.880	113.479	0.078	-0.094
-445.865	-65.125	0.094	0.038
-444.851	-7.067	-0.211	0.142
-443.836	-78.425	0.360	-0.123
-442.822	-114.412	-0.206	-0.039
-441.807	246.450	0.063	-0.105
-440.792	800.000	-0.050	-0.192
-439.778	-200.000	0.037	-0.172
-438.763	-51.944	-0.126	0.058
-437.749	-47.826	0.117	-0.056
-436.734	-200.000	0.007	0.079
-435.719	-1.578	-0.094	0.066
-434.705	581.631	-0.150	0.365
-433.690	71.775	-0.144	0.149
-432.676	-156.620	0.226	0.014
-431.661	269.441	0.169	-0.296
-430.646	-157.327	-0.313	-0.019
-429.632	-38.894	0.309	0.162
-428.617	-164.084	-0.505	-0.023
-427.603	-166.702	0.106	0.004
-426.588	323.414	0.065	0.123
-425.573	-200.000	0.004	-0.072
-424.559	-159.015	-0.108	-0.006
-423.544	800.000	0.041	-0.161
-422.530	301.035	0.043	0.078
-421.515	-152.381	-0.258	-0.018
-420.500	552.315	-0.169	0.405
-419.486	800.000	0.067	0.201
-418.471	-142.619	0.207	0.020
-417.457	57.751	-0.218	0.212
-416.442	18.911	0.289	0.230
-415.428	-166.063	0.110	0.005
-414.413	342.800	0.061	-0.120
-413.398	3.538	-0.114	0.083
-412.384	115.073	-0.110	0.134
-411.369	230.496	-0.029	0.047
-410.355	42.519	0.078	0.070
-409.340	-200.000	0.009	0.120
-408.325	84.566	-0.134	0.146
-407.311	-88.524	-0.176	0.052
-406.296	481.990	0.113	0.255
-405.282	14.308	-0.109	-0.084
-404.267	-54.801	-0.429	0.193
-403.252	39.529	0.286	0.255
-402.238	183.081	0.071	0.104
-401.223	-200.000	0.001	-0.032
-400.209	76.942	0.129	-0.136
-399.194	-200.000	-0.014	-0.100
-398.179	156.175	-0.138	-0.189
-397.165	-23.142	0.334	0.200
-396.150	133.829	0.043	-0.056
-395.136	-95.799	0.358	-0.095
-394.121	-113.389	0.152	-0.030
-393.106	-57.810	-0.086	-0.037
-392.092	-86.380	0.203	-0.062
-391.077	269.557	0.041	0.072
-390.063	154.931	-0.087	-0.118
-389.048	-200.000	0.088	-0.411
-388.033	-117.888	-0.205	0.036
-387.019	-200.000	0.004	-0.035
-386.004	222.531	-0.124	-0.199
-384.990	303.851	0.039	0.072
-383.975	574.585	0.101	0.245
-382.960	86.080	-0.088	0.096
-381.946	-53.757	-0.346	0.157
-380.931	44.507	-0.272	-0.248
-379.917	12.601	-0.052	0.040
-378.902	292.204	-0.073	0.133
-377.888	63.672	-0.351	-0.350
-376.873	58.846	-0.155	-0.152
-375.858	52.481	0.018	-0.017
-374.844	-105.101	-0.164	-0.037
-373.829	774.776	0.112	-0.302
-372.815	-151.803	-0.085	-0.006
-371.800	38.479	0.161	0.142
-370.785	268.283	0.108	0.188
-369.771	46.513	0.383	0.353
-368.756	41.425	-0.323	-0.290
-367.742	124.963	-0.133	-0.166
-366.727	-200.000	-0.016	-0.249
-365.712	520.222	0.085	0.197
-364.698	-63.644	-0.417	-0.170
-363.683	147.468	0.197	0.264
-362.669	-52.906	-0.072	-0.033
-361.654	-77.215	-0.145	-0.050
-360.639	-139.518	0.215	0.023
-359.625	-91.519	0.182	-0.052
-358.610	163.364	0.106	0.148
-357.596	-144.988	0.141	-0.013
-356.581	-182.916	-0.404	0.007
-355.566	-200.000	0.015	0.152
-354.552	-121.989	0.076	-0.012
-353.537	37.881	0.111	-0.098
-352.523	-140.437	0.239	0.025
-351.508	296.987	-0.098	-0.179
-350.493	-102.574	0.266	-0.063
-349.479	185.817	0.239	0.353
-348.464	-57.249	-0.366	0.159
-347.450	170.285	-0.173	0.245
-346.435	800.000	-0.069	0.190
-345.420	-126.890	0.316	0.046
-344.406	-31.509	0.265	-0.148
-343.391	738.519	-0.193	-0.513
-342.377	800.000	-0.063	0.177
-341.362	-185.395	-0.098	0.001
-340.348	800.000	-0.069	-0.191
-339.333	-200.000	0.044	0.220
-338.318	103.359	0.175	-0.204
-337.304	-107.695	-0.169	-0.036
-336.289	103.367	-0.247	-0.287
-335.275	53.784	-0.079	-0.075
-334.260	420.320	0.057	-0.121
-333.245	800.000	0.017	-0.048
-332.231	-30.538	0.269	0.151
-331.216	18.530	0.096	-0.076
-330.202	129.635	-0.135	-0.171
-329.187	-49.170	-0.193	0.091
-328.172	269.302	-0.166	0.288
-327.158	-20.533	0.036	0.022
-326.143	-42.117	-0.162	0.082
-325.129	149.645	-0.242	-0.325
-324.114	438.707	0.096	0.208
-323.099	-137.956	0.216	0.024
-322.085	-200.000	0.006	0.325
-321.070	-99.212	-0.171	0.043
-320.056	-182.394	-0.102	-0.002
-319.041	159.437	0.151	0.209
-318.026	111.995	-0.058	0.070
-317.012	-150.852	-0.326	-0.024
-315.997	-148.215	-0.228	0.019
-314.983	-67.869	-0.318	0.123
-313.968	-129.814	-0.056	-0.008
-312.953	62.788	0.125	0.124
-311.939	185.342	-0.131	-0.192
-310.924	-155.797	0.326	0.021
-309.910	190.309	0.185	-0.275
-308.895	115.620	-0.222	-0.269
-307.880	-75.362	0.112	0.040
-306.866	800.000	-0.047	0.166
-305.851	-158.605	-0.298	-0.017
-304.837	153.384	0.203	0.275
-303.822	-200.000	-0.039	0.311
-302.807	-114.636	-0.253	0.048
-301.793	-200.000	-0.017	-0.254
-300.778	413.986	0.064	0.135
-299.764	-2.090	-0.318	0.221
-298.749	80.689	0.129	0.137
-297.735	-165.977	0.306	0.013
-296.720	32.070	-0.346	-0.295
-295.705	79.370	0.128	0.136
-294.691	271.361	0.155	0.270
-293.676	-200.000	0.002	0.026
-292.662	-89.236	0.324	0.095
-291.647	-137.094	0.175	0.020
-290.632	307.697	-0.124	-0.228
-289.618	-116.237	0.427	-0.078
-288.603	336.139	-0.071	0.136
-287.589	71.562	0.101	0.104
-286.574	92.791	-0.158	0.176
-285.559	-200.000	0.041	-0.231
-284.545	233.399	0.058	0.095
-283.530	173.439	-0.226	-0.322
-282.516	-200.000	0.062	-0.427
-281.501	53.333	0.270	-0.256
-280.486	-40.380	-0.145	0.075
-279.472	-74.859	0.199	-0.071
-278.457	172.118	-0.149	0.212
-277.443	-25.523	0.260	0.152
-276.428	-85.411	-0.235	-0.073
-275.413	-112.196	-0.200	0.040
-274.399	348.205	0.158	0.307
-273.384	-154.015	0.155	0.010
-272.370	-95.879	0.276	0.073
-271.355	6.028	0.181	-0.133
-270.340	800.000	0.056	-0.205
-269.326	65.761	-0.212	0.212
-268.311	-23.681	0.210	0.124
-267.297	109.319	0.154	0.183
-266.282	-200.000	0.030	0.261
-265.267	20.288	-0.154	0.123
-264.253	-154.098	0.389	0.026
-263.238	292.612	-0.027	0.048
-262.224	-7.179	0.308	-0.206
-261.209	-128.774	0.254	-0.035
-260.195	315.517	0.102	0.191
-259.180	272.126	-0.117	-0.204
-258.165	21.496	-0.179	-0.144
-257.151	800.000	0.081	-0.284
-256.136	-50.569	0.150	-0.070
-255.122	800.000	-0.112	0.441
-254.107	274.059	0.065	0.113
-253.092	537.736	-0.050	0.116
-252.078	373.476	-0.073	0.147
-251.063	718.287	-0.100	-0.263
-250.049	-200.000	-0.039	0.495
-249.034	-61.118	-0.367	0.153
-248.019	-104.581	0.047	-0.011
-247.005	-114.622	-0.303	-0.057
-245.990	-124.083	0.107	-0.017
-244.976	-200.000	0.026	0.212
-243.961	-5.009	0.103	-0.070
-242.946	-121.979	-0.343	-0.056
-241.932	315.214	0.034	-0.062
-240.917	777.721	-0.062	-0.168
-239.903	541.835	-0.059	-0.138
-238.888	524.023	-0.062	0.144
-237.873	-149.099	0.296	0.023
-236.859	-200.000	0.049	0.279
-235.844	25.492	-0.086	0.071
-234.830	-52.699	-0.264	-0.120
-233.815	-81.677	-0.115	-0.037
-232.800	524.609	0.040	-0.093
-231.786	205.012	-0.085	0.131
-230.771	800.000	-0.058	-0.199
-229.757	-200.000	-0.037	-0.438
-228.742	-108.652	0.218	0.046
-227.727	-82.903	-0.229	-0.073
-226.713	-99.021	-0.349	0.087
-225.698	-200.000	0.035	0.000
-224.684	-89.003	0.416	-0.121
-223.669	262.143	-0.091	0.156
-222.655	223.864	-0.122	0.194
-221.640	-200.000	0.018	0.199
-220.625	279.252	0.173	-0.305
-219.611	147.737	0.021	0.027
-218.596	471.908	0.008	0.018
-217.582	-200.000	0.025	-0.167
-216.567	-200.000	-0.019	-0.202
-215.552	-72.702	-0.157	-0.057
-214.538	-119.799	0.090	-0.015
-213.523	-200.000	0.004	0.132
-212.509	142.434	-0.077	0.101
-211.494	-115.091	0.120	0.022
-210.479	-19.482	0.219	0.134
-209.465	-0.339	-0.154	-0.108
-208.450	610.215	0.063	0.155
-207.436	-130.597	-0.269	0.036
-206.421	92.286	0.120	-0.133
-205.406	-0.424	0.080	-0.056
-204.392	382.541	0.055	0.111
-203.377	507.129	-0.083	0.191
-202.363	35.030	-0.103	0.089
-201.348	46.038	-0.162	-0.148
-200.333	-200.000	0.014	0.068
-199.319	136.919	0.189	0.244
-198.304	-125.670	-0.340	0.051
-197.290	11.505	0.151	-0.114
-196.275	169.751	-0.115	0.162
-195.260	800.000	-0.061	-0.212
-194.246	623.409	-0.057	0.140
-193.231	-14.315	-0.139	-0.088
-192.217	170.173	-0.044	0.062
-191.202	-85.002	0.111	0.034
-190.187	109.205	-0.224	0.264
-189.173	-18.187	0.154	0.095
-188.158	104.108	0.103	-0.119
-187.144	260.692	-0.117	-0.199
-186.129	493.227	-0.034	-0.078
-185.114	-128.662	-0.416	-0.058
-184.100	-113.574	-0.121	-0.023
-183.085	112.335	-0.020	0.023
-182.071	256.365	0.211	0.356
-181.056	104.303	0.158	0.184
-180.042	178.276	-0.011	0.015
-179.027	113.438	-0.086	-0.103
-178.012	-200.000	0.030	0.201
-176.998	-6.681	0.233	0.156
-175.983	22.911	-0.288	0.233
-174.969	-200.000	0.059	0.276
-173.954	-200.000	0.028	-0.180
-172.939	729.483	-0.091	-0.240
-171.925	800.000	-0.042	-0.127
-170.910	17.605	-0.145	0.114
-169.896	163.739	-0.074	0.103
-168.881	-124.299	-0.122	0.019
-167.866	486.867	0.103	0.232
-166.852	-200.000	0.027	0.184
-165.837	-200.000	-0.032	0.197
-164.823	164.577	-0.106	0.148
-163.808	800.000	-0.068	0.216
-162.793	-23.459	0.211	-0.125
-161.779	29.827	-0.201	-0.168
-160.764	81.555	0.220	-0.235
-159.750	800.000	-0.029	0.108
-158.735	-114.415	0.357	-0.067
-157.720	433.925	0.178	-0.381
-156.706	369.914	0.050	-0.101
-155.691	125.599	0.240	0.298
-154.677	-112.456	0.270	-0.053
-153.662	80.518	0.150	0.159
-152.647	800.000	0.085	-0.344
-151.633	29.075	0.089	0.074
-150.618	-69.752	-0.408	-0.153
-149.604	-200.000	0.017	0.552
-148.589	800.000	0.103	0.292
-147.574	153.969	0.234	-0.316
-146.560	147.596	0.172	0.228
-145.545	14.532	-0.239	-0.184
-144.531	800.000	0.038	-0.141
-143.516	47.167	-0.360	-0.330
-142.502	-200.000	0.010	-0.358
-141.487	-39.670	0.452	0.232
-140.472	-68.706	-0.075	0.028
-139.458	-162.513	-0.132	0.006
-138.443	435.991	0.074	-0.158
-137.429	-140.197	0.190	0.020
-136.414	117.412	0.201	0.242
-135.399	230.197	-0.118	-0.189
-134.385	-129.906	0.339	-0.046
-133.370	57.855	-0.014	-0.014
-132.356	-200.000	0.015	0.267
-131.341	249.268	0.150	-0.249
-130.326	-147.595	0.265	-0.022
-129.312	-71.747	0.196	0.072
-128.297	-123.179	-0.161	-0.025
-127.283	800.000	-0.085	-0.339
-126.268	131.410	-0.114	0.144
-125.253	278.673	-0.051	-0.089
-124.239	71.816	-0.239	-0.245
-123.224	-138.055	0.265	0.029
-122.210	56.305	-0.242	0.231
-121.195	-71.384	0.172	-0.063
-120.180	171.910	-0.129	0.182
