DTS Sentinel unit serial number:	SN413079Multiplexer serial number:	ORYXHardware model number:	OX4-SRSoftware version number:	ORYX F/W v4.00 Oryx Data Collector v3.7.2.0data status	okinstallation	princeton_trtdifferential loss correction	single-endedforward channel	channel 3reverse channel	N/Adate	2019/09/15time	14:40:34forward acquisition time	60.00reverse acquisition time	0.00gamma	496.2192k internal	0.2290k external	0.2290temperature offset calibration	0.9946default loss term (dB/km)	0.3790temperature slope calibration	1.0000multiplexer offset coefficient	1.0000multiplexer slope coefficient	1.0000fibre end	0.00T internal ref (°C)	39.62T ext. ref 1 (°C)	4.86T ext. ref 2 (°C)	36.79length (m)	temperature (°C)	Stokes	anti-Stokes-747.200	800.000	-0.049	0.166
-746.185	-200.000	-0.030	0.167
-745.171	800.000	0.079	0.252
-744.156	-114.503	-0.426	-0.084
-743.142	-200.000	0.016	-0.206
-742.127	86.016	0.190	0.214
-741.112	-96.007	0.388	0.106
-740.098	-126.489	-0.389	0.059
-739.083	-133.539	0.169	-0.022
-738.069	49.304	0.362	0.348
-737.054	299.626	-0.178	0.336
-736.039	-30.459	-0.299	0.174
-735.025	-57.124	0.564	0.255
-734.010	-200.000	-0.020	0.130
-732.996	265.931	-0.203	-0.362
-731.981	-78.766	-0.171	0.060
-730.966	-200.000	0.007	0.082
-729.952	-61.701	0.369	0.158
-728.937	254.363	-0.189	-0.331
-727.923	-143.476	-0.246	0.024
-726.908	-62.565	-0.444	-0.189
-725.894	-80.733	0.240	0.082
-724.879	-200.000	0.052	-0.336
-723.864	-157.100	0.553	-0.034
-722.850	-200.000	-0.025	-0.294
-721.835	-0.740	0.156	0.113
-720.821	98.946	0.273	0.322
-719.806	-126.763	0.147	0.022
-718.791	-73.915	-0.162	-0.060
-717.777	-69.274	-0.149	0.059
-716.762	-200.000	0.001	0.059
-715.748	-61.283	0.193	-0.083
-714.733	-97.184	-0.191	0.051
-713.718	-200.000	0.038	-0.218
-712.704	106.683	-0.304	0.369
-711.689	-129.488	0.191	0.027
-710.675	-121.325	-0.085	0.014
-709.660	594.976	-0.069	-0.175
-708.645	-200.000	0.021	-0.163
-707.631	381.714	-0.067	0.141
-706.616	-67.155	-0.313	0.126
-705.602	137.160	-0.052	-0.069
-704.587	-200.000	0.026	0.126
-703.572	-200.000	0.036	-0.214
-702.558	16.476	-0.092	-0.074
-701.543	171.030	-0.118	-0.174
-700.529	99.151	-0.111	0.131
-699.514	184.229	0.173	0.263
-698.499	-107.899	-0.158	-0.035
-697.485	-200.000	0.041	-0.202
-696.470	-200.000	-0.003	-0.247
-695.456	-42.486	-0.057	-0.030
-694.441	353.630	0.129	0.263
-693.426	-69.323	-0.057	-0.022
-692.412	-33.754	-0.383	-0.216
-691.397	80.747	-0.156	-0.171
-690.383	95.107	0.012	-0.014
-689.368	-43.167	0.220	-0.114
-688.354	-162.899	-0.204	0.010
-687.339	-34.298	-0.058	0.032
-686.324	145.115	-0.038	0.052
-685.310	181.769	-0.072	0.108
-684.295	-200.000	-0.058	0.262
-683.281	-130.077	-0.153	-0.021
-682.266	16.159	-0.143	-0.115
-681.251	702.862	0.110	-0.297
-680.237	-111.688	0.214	0.044
-679.222	-200.000	0.019	-0.351
-678.208	110.065	0.251	-0.307
-677.193	-123.927	0.408	-0.066
-676.178	-59.177	0.086	0.038
-675.164	-200.000	-0.031	-0.192
-674.149	-200.000	0.010	-0.414
-673.135	766.207	-0.052	-0.144
-672.120	390.332	-0.092	-0.194
-671.105	444.301	0.020	0.044
-670.091	140.934	-0.136	0.183
-669.076	800.000	-0.055	-0.176
-668.062	25.699	0.257	-0.218
-667.047	-55.729	0.285	0.130
-666.032	800.000	0.036	0.111
-665.018	147.622	0.081	-0.112
-664.003	19.067	0.396	0.325
-662.989	800.000	0.137	-0.473
-661.974	-200.000	-0.006	0.145
-660.959	252.551	-0.219	0.381
-659.945	-81.201	-0.141	-0.047
-658.930	321.778	0.134	-0.259
-657.916	510.530	-0.201	-0.478
-656.901	231.165	0.018	0.030
-655.886	-154.213	-0.212	-0.015
-654.872	107.094	-0.206	-0.249
-653.857	7.159	0.244	-0.186
-652.843	-200.000	0.010	0.217
-651.828	188.065	-0.143	-0.218
-650.814	800.000	-0.138	-0.444
-649.799	-200.000	0.025	-0.175
-648.784	800.000	-0.056	-0.195
-647.770	-33.560	0.086	-0.049
-646.755	-37.912	0.355	0.192
-645.741	-200.000	-0.042	0.297
-644.726	-41.475	0.260	0.136
-643.711	-10.875	0.091	0.061
-642.697	-161.938	0.207	0.011
-641.682	-116.427	0.230	0.043
-640.668	-200.000	0.017	0.298
-639.653	175.239	-0.116	0.172
-638.638	-127.727	-0.072	-0.011
-637.624	-87.350	0.274	0.085
-636.609	24.310	-0.290	0.245
-635.595	554.181	0.173	0.424
-634.580	205.679	-0.104	-0.165
-633.565	436.992	0.073	-0.162
-632.551	241.239	0.067	-0.114
-631.536	126.961	-0.047	-0.060
-630.522	18.056	0.215	-0.175
-629.507	-200.000	0.019	-0.118
-628.492	22.553	-0.207	0.173
-627.478	124.521	0.114	-0.146
-626.463	-137.193	0.191	0.022
-625.449	-200.000	0.001	0.239
-624.434	-118.040	-0.241	-0.044
-623.419	472.783	-0.139	-0.318
-622.405	-200.000	0.031	-0.192
-621.390	-200.000	0.051	-0.342
-620.376	-90.160	-0.211	0.063
-619.361	-173.313	-0.509	0.016
-618.346	59.631	-0.182	0.183
-617.332	-57.139	-0.247	-0.111
-616.317	148.718	0.202	-0.278
-615.303	-11.313	-0.106	0.071
-614.288	-25.776	-0.216	-0.130
-613.273	-13.163	-0.259	-0.171
-612.259	-20.435	0.225	0.141
-611.244	-85.942	-0.175	-0.055
-610.230	-200.000	-0.028	-0.192
-609.215	708.752	0.079	-0.212
-608.201	-132.372	0.155	0.020
-607.186	78.596	0.177	0.192
-606.171	-45.261	0.056	-0.029
-605.157	364.737	-0.115	-0.235
-604.142	-183.999	0.106	-0.002
-603.128	427.534	-0.117	-0.258
-602.113	-90.790	0.153	-0.045
-601.098	800.000	-0.070	-0.224
-600.084	-125.930	-0.321	0.049
-599.069	-95.632	0.481	-0.131
-598.055	5.188	0.044	0.033
-597.040	116.689	0.196	-0.245
-596.025	176.410	-0.091	0.134
-595.011	12.381	0.145	-0.114
-593.996	-200.000	-0.001	-0.394
-592.982	59.778	0.206	0.207
-591.967	-200.000	-0.028	0.318
-590.952	-93.964	-0.209	0.059
-589.938	7.841	-0.241	-0.184
-588.923	689.309	0.082	-0.219
-587.909	800.000	-0.024	0.081
-586.894	800.000	-0.043	0.135
-585.879	206.549	-0.191	0.303
-584.865	-25.593	-0.027	-0.016
-583.850	-72.733	0.361	0.135
-582.836	180.060	0.115	0.172
-581.821	-200.000	-0.001	-0.117
-580.806	41.138	0.084	-0.078
-579.792	-73.994	0.165	-0.061
-578.777	35.620	0.188	-0.168
-577.763	800.000	-0.035	-0.131
-576.748	-200.000	0.016	-0.072
-575.733	333.865	0.028	0.056
-574.719	75.923	0.133	0.143
-573.704	-200.000	-0.010	-0.507
-572.690	800.000	0.026	0.104
-571.675	142.059	0.194	0.262
-570.661	-58.175	0.263	-0.117
-569.646	89.429	-0.068	0.077
-568.631	222.935	0.043	-0.070
-567.617	-78.562	0.160	0.056
-566.602	-119.204	-0.605	-0.107
-565.588	800.000	-0.024	0.077
-564.573	-123.021	0.186	-0.030
-563.558	-160.941	-0.402	0.021
-562.544	-92.223	0.348	0.100
-561.529	-30.224	0.085	0.049
-560.515	10.319	0.102	-0.079
-559.500	-165.437	0.394	-0.018
-558.485	129.614	-0.098	0.128
-557.471	-200.000	0.074	-0.372
-556.456	280.576	-0.038	0.068
-555.442	-64.455	0.372	0.154
-554.427	-200.000	-0.058	0.315
-553.412	-6.103	0.177	-0.123
-552.398	-167.476	-0.254	-0.010
-551.383	506.757	0.029	-0.069
-550.369	152.406	-0.037	0.052
-549.354	8.019	-0.050	0.038
-548.339	-160.946	-0.034	0.002
-547.325	-21.996	0.159	-0.098
-546.310	-144.471	-0.433	-0.041
-545.296	-200.000	-0.032	0.155
-544.281	591.563	-0.094	0.236
-543.266	11.993	0.365	0.285
-542.252	497.790	0.034	0.080
-541.237	800.000	0.005	0.017
-540.223	-155.954	0.150	0.010
-539.208	-200.000	0.009	-0.077
-538.193	-86.434	0.275	-0.086
-537.179	-163.517	-0.238	-0.011
-536.164	-137.214	-0.115	-0.013
-535.150	25.425	-0.227	0.192
-534.135	-200.000	-0.039	0.338
-533.121	-164.642	-0.287	0.013
-532.106	-137.939	-0.293	-0.033
-531.091	196.376	0.045	-0.070
-530.077	-77.102	-0.029	-0.010
-529.062	800.000	0.058	-0.236
-528.048	183.157	-0.024	-0.036
-527.033	17.258	0.201	-0.162
-526.018	69.304	-0.329	0.344
-525.004	-3.480	0.211	0.149
-523.989	-200.000	0.006	0.082
-522.975	-200.000	-0.009	-0.183
-521.960	-2.662	-0.163	0.116
-520.945	391.223	-0.080	0.169
-519.931	-200.000	0.007	0.213
-518.916	-83.056	-0.161	-0.053
-517.902	513.827	-0.056	0.132
-516.887	-20.891	0.138	0.086
-515.872	-58.279	0.124	-0.055
-514.858	-7.315	0.030	0.020
-513.843	57.535	-0.076	-0.075
-512.829	800.000	-0.075	-0.250
-511.814	-24.618	0.165	-0.100
-510.799	30.513	0.139	-0.121
-509.785	390.337	0.092	-0.193
-508.770	54.379	0.132	0.129
-507.756	185.658	-0.227	-0.342
-506.741	-45.658	-0.344	0.173
-505.726	-12.054	0.342	0.228
-504.712	16.249	-0.219	0.175
-503.697	27.258	-0.351	-0.299
-502.683	-150.499	-0.176	-0.014
-501.668	125.635	-0.203	0.260
-500.653	357.564	-0.079	-0.160
-499.639	-96.929	0.324	0.086
-498.624	513.737	0.166	-0.394
-497.610	-200.000	0.394	-0.001
-496.595	-200.000	0.001	0.089
-495.581	476.669	-0.193	-0.442
-494.566	-200.000	0.002	-0.268
-493.551	-124.404	-0.140	0.022
-492.537	-38.658	-0.118	0.063
-491.522	-53.832	0.237	0.110
-490.508	-200.000	-0.016	0.159
-489.493	32.163	-0.299	-0.261
-488.478	-114.933	-0.120	0.023
-487.464	155.825	-0.156	0.218
-486.449	-200.000	0.012	-0.181
-485.435	-200.000	0.011	-0.296
-484.420	-200.000	0.024	-0.342
-483.405	482.184	0.076	-0.175
-482.391	252.786	0.027	0.046
-481.376	42.538	-0.192	0.177
-480.362	-86.079	-0.228	-0.071
-479.347	-15.654	-0.283	-0.183
-478.332	-132.072	-0.205	0.027
-477.318	-27.145	-0.063	0.037
-476.303	-12.317	0.391	0.259
-475.289	260.886	0.161	-0.283
-474.274	-99.043	0.339	-0.087
-473.259	-31.428	-0.177	0.101
-472.245	-200.000	-0.032	-0.203
-471.230	115.911	0.207	-0.257
-470.216	124.258	-0.169	-0.215
-469.201	-200.000	0.070	-0.341
-468.186	-50.315	0.195	0.093
-467.172	-200.000	0.026	-0.132
-466.157	-169.150	0.530	-0.020
-465.143	-158.101	0.323	0.019
-464.128	-200.000	-0.032	0.244
-463.113	-200.000	-0.333	-0.000
-462.099	-86.367	-0.258	-0.080
-461.084	134.649	0.128	-0.168
-460.070	-92.149	0.088	0.025
-459.055	-93.822	0.040	0.011
-458.040	93.693	0.157	0.180
-457.026	-124.134	0.313	-0.050
-456.011	-121.956	0.117	0.020
-454.997	5.576	0.187	0.140
-453.982	-200.000	0.035	-0.176
-452.968	-111.161	0.260	0.054
-451.953	-159.597	-0.499	0.028
-450.938	184.373	0.080	0.120
-449.924	-200.000	-0.010	0.240
-448.909	96.138	-0.026	0.030
-447.895	-76.229	0.215	-0.077
-446.880	-33.475	-0.252	-0.141
-445.865	-29.469	-0.088	0.051
-444.851	-40.045	0.240	-0.127
-443.836	-17.938	-0.210	0.133
-442.822	97.792	-0.289	0.336
-441.807	-200.000	-0.005	0.027
-440.792	-200.000	-0.120	-0.000
-439.778	-51.445	0.180	-0.085
-438.763	397.486	-0.110	0.232
-437.749	89.796	0.086	-0.097
-436.734	-43.694	-0.165	-0.084
-435.719	-99.904	-0.182	0.046
-434.705	-200.000	0.041	-0.326
-433.690	-200.000	-0.018	-0.117
-432.676	8.343	-0.216	-0.164
-431.661	128.123	0.252	-0.325
-430.646	308.436	-0.116	-0.219
-429.632	-81.634	-0.495	0.164
-428.617	-85.565	-0.312	0.098
-427.603	388.307	0.057	0.120
-426.588	558.916	-0.044	0.108
-425.573	74.474	-0.122	-0.129
-424.559	-105.927	0.345	-0.079
-423.544	89.631	-0.194	0.219
-422.530	51.717	0.195	-0.187
-421.515	-132.037	0.127	0.017
-420.500	-111.317	-0.207	-0.043
-419.486	-151.299	0.132	-0.010
-418.471	-63.355	-0.083	0.035
-417.457	-132.530	-0.120	0.016
-416.442	-60.495	-0.188	0.081
-415.428	-54.683	0.174	0.079
-414.413	-88.886	0.085	-0.025
-413.398	-98.125	-0.330	0.086
-412.384	737.589	-0.032	0.088
-411.369	-200.000	-0.052	0.319
-410.355	265.822	0.019	-0.034
-409.340	-52.525	-0.251	0.117
-408.325	-30.605	-0.104	0.060
-407.311	-200.000	0.011	0.086
-406.296	-64.042	0.129	-0.053
-405.282	800.000	0.027	0.111
-404.267	-200.000	-0.026	-0.223
-403.252	49.298	0.104	-0.099
-402.238	124.884	0.072	-0.092
-401.223	-59.630	-0.147	-0.064
-400.209	142.243	-0.128	-0.171
-399.194	-200.000	0.026	-0.192
-398.179	-141.213	0.306	-0.032
-397.165	210.115	0.147	-0.233
-396.150	0.058	0.267	-0.192
-395.136	-200.000	0.012	-0.092
-394.121	-171.780	-0.083	-0.003
-393.106	312.796	-0.147	-0.279
-392.092	800.000	0.094	-0.264
-391.077	141.125	-0.171	-0.229
-390.063	-126.629	-0.128	-0.019
-389.048	-200.000	-0.007	-0.065
-388.033	-47.542	0.232	-0.114
-387.019	47.725	-0.452	0.426
-386.004	-181.938	-0.283	-0.005
-384.990	-56.932	-0.097	0.043
-383.975	-88.319	0.143	-0.043
-382.960	-21.152	-0.132	-0.081
-381.946	-49.668	0.146	0.070
-380.931	-200.000	-0.046	0.242
-379.917	-107.437	0.333	0.074
-378.902	-200.000	0.009	0.101
-377.888	-86.566	-0.335	0.104
-376.873	-62.485	0.337	-0.142
-375.858	345.308	-0.133	0.264
-374.844	168.053	0.209	0.300
-373.829	-40.131	0.207	0.109
-372.815	547.620	-0.056	-0.136
-371.800	754.647	0.042	0.116
-370.785	-182.907	-0.318	0.006
-369.771	728.122	0.086	-0.232
-368.756	800.000	0.029	0.095
-367.742	-7.443	0.167	-0.114
-366.727	-200.000	-0.057	-0.319
-365.712	59.254	0.070	0.069
-364.698	-8.099	-0.112	-0.076
-363.683	309.649	-0.082	0.154
-362.669	-200.000	-0.014	0.075
-361.654	50.471	-0.205	0.196
-360.639	89.851	0.131	-0.148
-359.625	-44.488	-0.179	-0.090
-358.610	21.372	-0.271	0.222
-357.596	-200.000	-0.008	0.043
-356.581	303.864	0.161	0.301
-355.566	68.354	0.299	0.309
-354.552	18.477	0.148	-0.120
-353.537	-28.685	0.154	-0.090
-352.523	-200.000	-0.007	-0.181
-351.508	106.337	0.096	0.114
-350.493	-129.532	0.092	0.013
-349.479	800.000	-0.086	0.275
-348.464	-200.000	0.107	0.594
-347.450	55.229	-0.056	0.054
-346.435	800.000	0.084	0.280
-345.420	-120.828	0.408	-0.069
-344.406	581.873	-0.070	-0.172
-343.391	-69.163	-0.137	-0.053
-342.377	247.801	-0.174	0.296
-341.362	85.785	-0.047	0.052
-340.348	2.191	0.411	-0.299
-339.333	312.799	0.143	-0.271
-338.318	-33.323	0.194	-0.108
-337.304	352.732	0.209	0.417
-336.289	-77.890	-0.120	0.042
-335.275	7.413	-0.136	0.102
-334.260	-200.000	-0.046	0.551
-333.245	-49.601	-0.452	0.217
-332.231	-95.536	0.101	-0.027
-331.216	32.524	-0.075	0.065
-330.202	-52.496	-0.296	-0.138
-329.187	187.922	-0.070	-0.106
-328.172	-134.931	0.522	0.064
-327.158	-10.077	0.106	-0.071
-326.143	514.110	0.026	-0.062
-325.129	-107.590	-0.564	0.124
-324.114	-91.245	0.138	-0.040
-323.099	19.523	0.372	-0.301
-322.085	57.403	0.158	0.155
-321.070	-200.000	-0.018	0.196
-320.056	-74.162	0.138	0.050
-319.041	-160.024	0.337	-0.018
-318.026	-200.000	0.014	-0.155
-317.012	204.835	-0.047	-0.074
-315.997	800.000	0.063	0.262
-314.983	44.690	0.146	-0.136
-313.968	800.000	-0.013	0.053
-312.953	108.254	0.163	0.196
-311.939	292.770	0.046	-0.084
-310.924	249.265	0.080	-0.137
-309.910	385.460	0.085	-0.177
-308.895	162.907	-0.132	0.187
-307.880	800.000	-0.065	-0.207
-306.866	800.000	-0.028	-0.081
-305.851	-51.921	0.153	0.071
-304.837	426.722	-0.043	0.094
-303.822	83.911	0.079	0.087
-302.807	800.000	-0.087	0.354
-301.793	66.860	-0.164	0.168
-300.778	166.431	0.225	0.322
-299.764	-133.914	0.184	0.023
-298.749	219.975	-0.155	-0.250
-297.735	144.257	0.143	-0.192
-296.720	-87.290	0.058	-0.018
-295.705	-200.000	0.019	0.331
-294.691	-65.145	0.038	-0.015
-293.676	-113.607	-0.248	-0.049
-292.662	132.484	0.089	-0.115
-291.647	-200.000	-0.003	0.148
-290.632	137.933	-0.262	0.346
-289.618	199.983	0.108	0.166
-288.603	325.627	-0.110	-0.213
-287.589	800.000	0.069	0.198
-286.574	-14.019	-0.103	-0.067
-285.559	-48.579	-0.301	-0.146
-284.545	-200.000	-0.036	0.208
-283.530	-57.080	0.192	0.085
-282.516	604.490	0.041	0.103
-281.501	18.130	-0.182	-0.146
-280.486	800.000	-0.065	-0.279
-279.472	336.241	-0.084	-0.164
-278.457	-200.000	-0.049	-0.482
-277.443	-200.000	0.015	-0.077
-276.428	154.157	0.132	-0.182
-275.413	-12.288	-0.344	-0.226
-274.399	34.287	-0.271	0.238
-273.384	-200.000	0.008	0.069
-272.370	1.665	0.352	0.255
-271.355	-175.375	-0.039	-0.001
-270.340	-146.645	0.225	0.020
-269.326	530.810	0.043	-0.102
-268.311	146.356	-0.246	0.332
-267.297	-200.000	0.011	-0.110
-266.282	395.004	-0.063	0.132
-265.267	756.683	-0.063	-0.171
-264.253	749.165	0.039	-0.105
-263.238	800.000	-0.058	0.184
-262.224	210.540	0.121	0.191
-261.209	650.096	-0.045	0.115
-260.195	-28.319	-0.336	-0.195
-259.180	800.000	0.008	-0.035
-258.165	39.920	0.500	-0.452
-257.151	261.166	-0.105	-0.183
-256.136	-102.697	-0.222	-0.053
-255.122	-200.000	0.041	-0.301
-254.107	-200.000	0.005	0.517
-253.092	-11.420	-0.408	0.270
-252.078	-88.021	-0.236	0.071
-251.063	-200.000	-0.001	0.247
-250.049	-184.603	0.562	0.009
-249.034	361.500	-0.104	-0.209
-248.019	-147.186	0.387	-0.033
-247.005	800.000	-0.081	0.327
-245.990	800.000	-0.068	0.236
-244.976	5.135	0.210	-0.155
-243.961	301.565	-0.149	-0.277
-242.946	-3.858	-0.286	0.200
-241.932	147.892	-0.064	0.087
-240.917	124.616	0.254	0.321
-239.903	-51.414	0.306	-0.144
-238.888	33.859	0.074	0.065
-237.873	800.000	-0.063	0.219
-236.859	124.406	0.151	0.191
-235.844	-104.302	0.229	0.053
-234.830	-191.769	0.207	0.002
-233.815	239.825	-0.129	0.215
-232.800	-91.642	-0.220	-0.063
-231.786	206.855	-0.202	-0.316
-230.771	-150.745	0.737	-0.056
-229.757	27.688	-0.220	-0.186
-228.742	800.000	-0.019	-0.073
-227.727	-111.342	0.169	0.035
-226.713	-97.669	-0.189	-0.049
-225.698	800.000	0.080	0.252
-224.684	800.000	-0.016	-0.063
-223.669	-200.000	0.009	0.090
-222.655	-21.964	0.112	0.068
-221.640	-99.716	0.052	-0.013
-220.625	256.214	-0.190	-0.327
-219.611	26.942	-0.322	-0.271
-218.596	800.000	0.069	-0.278
-217.582	800.000	-0.057	0.243
-216.567	-141.328	0.263	0.027
-215.552	-200.000	0.092	-0.496
-214.538	31.951	0.151	-0.130
-213.523	29.960	0.300	0.257
-212.509	-200.000	0.012	-0.062
-211.494	-200.000	-0.012	-0.266
-210.479	-13.643	-0.138	0.089
-209.465	95.944	0.057	-0.066
-208.450	-138.671	-0.384	-0.042
-207.436	-85.119	0.153	0.048
-206.421	35.049	-0.177	-0.155
-205.406	800.000	-0.127	0.362
-204.392	-31.009	-0.255	0.144
-203.377	504.357	-0.087	-0.202
-202.363	-200.000	-0.026	0.245
-201.348	-200.000	0.016	0.095
-200.333	-84.516	-0.364	0.115
-199.319	800.000	-0.049	0.174
-198.304	480.588	0.119	-0.271
-197.290	800.000	-0.022	-0.076
-196.275	-200.000	-0.014	-0.080
-195.260	-74.280	0.149	-0.054
-194.246	-200.000	0.049	-0.270
-193.231	-103.615	-0.094	0.022
-192.217	-200.000	-0.001	0.102
-191.202	-135.044	0.090	0.011
-190.187	800.000	-0.026	-0.076
-189.173	-23.207	-0.232	0.140
-188.158	651.657	-0.136	0.350
-187.144	206.760	0.220	0.344
-186.129	-200.000	-0.021	0.184
-185.114	800.000	-0.057	-0.210
-184.100	-200.000	-0.009	0.199
-183.085	188.626	-0.225	0.338
-182.071	-72.419	0.204	-0.076
-181.056	330.853	0.020	0.038
-180.042	453.024	-0.075	-0.167
-179.027	64.279	-0.200	-0.202
-178.012	17.898	0.069	-0.055
-176.998	-145.346	0.189	0.017
-175.983	-200.000	-0.005	-0.034
-174.969	169.152	-0.198	0.283
-173.954	-109.620	-0.245	-0.052
-172.939	-108.647	0.043	-0.009
-171.925	-58.669	0.229	-0.099
-170.910	140.439	0.172	0.228
-169.896	-108.887	-0.420	0.090
-168.881	-62.684	-0.253	0.105
-167.866	-135.492	-0.261	0.031
-166.852	26.988	-0.294	0.247
-165.837	-200.000	-0.004	-0.022
-164.823	151.223	0.214	0.291
-163.808	-34.430	0.347	-0.190
-162.793	-169.350	-0.179	0.007
-161.779	-42.016	0.267	-0.137
-160.764	800.000	-0.089	-0.371
-159.750	-31.982	0.188	-0.106
-158.735	445.590	-0.091	-0.200
-157.720	-140.477	0.089	0.009
-156.706	29.111	-0.175	0.148
-155.691	-194.815	-0.130	0.001
-154.677	800.000	-0.049	-0.136
-153.662	800.000	0.026	-0.107
-152.647	29.595	0.198	-0.168
-151.633	-137.584	-0.118	0.013
-150.618	-47.316	0.117	-0.057
-149.604	-68.595	-0.183	-0.071
-148.589	-112.894	0.226	0.045
-147.574	-43.249	0.120	-0.061
-146.560	-60.687	-0.044	-0.018
-145.545	500.393	-0.076	0.176
-144.531	96.709	-0.094	-0.108
-143.516	15.757	-0.224	0.176
-142.502	-9.950	0.284	0.189
-141.487	800.000	-0.130	-0.453
-140.472	-114.114	0.171	0.033
-139.458	1.300	-0.071	0.051
-138.443	43.352	-0.059	0.054
-137.429	-53.135	0.288	0.132
-136.414	57.547	-0.022	0.021
-135.399	49.952	0.112	-0.106
-134.385	486.054	0.149	0.340
-133.370	76.097	0.219	-0.232
-132.356	-118.632	-0.276	-0.049
-131.341	-165.605	-0.240	-0.010
-130.326	-200.000	-0.135	0.001
-129.312	237.177	0.139	-0.230
-128.297	-123.460	0.099	0.016
-127.283	582.605	-0.241	-0.591
-126.268	53.800	-0.144	0.138
-125.253	-200.000	-0.003	0.063
-124.239	-24.457	-0.138	-0.082
-123.224	-171.589	0.180	-0.006
-122.210	100.176	0.042	-0.049
