DTS Sentinel unit serial number:	SN413079Multiplexer serial number:	ORYXHardware model number:	OX4-SRSoftware version number:	ORYX F/W v4.00 Oryx Data Collector v3.7.2.0data status	okinstallation	princeton_trtdifferential loss correction	single-endedforward channel	channel 3reverse channel	N/Adate	2019/09/13time	08:48:35forward acquisition time	60.00reverse acquisition time	0.00gamma	496.2192k internal	0.2329k external	0.2329temperature offset calibration	1.0141default loss term (dB/km)	0.3790temperature slope calibration	1.0000multiplexer offset coefficient	1.0000multiplexer slope coefficient	1.0000fibre end	0.00T internal ref (°C)	28.00T ext. ref 1 (°C)	4.32T ext. ref 2 (°C)	24.97length (m)	temperature (°C)	Stokes	anti-Stokes-747.200	356.319	0.037	0.074
-746.185	-126.740	0.127	-0.019
-745.171	3.992	0.266	0.196
-744.156	-91.275	-0.562	0.162
-743.142	36.577	0.102	-0.091
-742.127	11.378	-0.125	-0.097
-741.112	-52.513	-0.069	-0.032
-740.098	38.955	0.154	0.139
-739.083	-168.308	-0.389	0.015
-738.069	76.633	0.192	0.206
-737.054	-200.000	0.007	-0.056
-736.039	-12.504	-0.137	0.090
-735.025	-47.128	0.184	-0.090
-734.010	-36.181	-0.204	-0.111
-732.996	-108.950	0.159	-0.034
-731.981	-73.112	-0.217	0.080
-730.966	-53.651	0.111	0.051
-729.952	-30.415	0.321	0.183
-728.937	-120.248	-0.076	-0.013
-727.923	203.744	-0.025	-0.039
-726.908	-132.944	-0.399	0.051
-725.894	-100.355	0.153	0.038
-724.879	-126.254	-0.302	-0.045
-723.864	-101.793	-0.278	0.068
-722.850	-131.978	0.045	-0.006
-721.835	-109.807	0.223	-0.047
-720.821	-200.000	0.000	-0.108
-719.806	-200.000	-0.021	-0.307
-718.791	128.736	0.059	-0.076
-717.777	-74.650	0.054	0.020
-716.762	122.645	-0.089	0.112
-715.748	-17.661	0.079	-0.050
-714.733	-104.025	0.312	-0.073
-713.718	-101.908	0.072	-0.017
-712.704	-200.000	-0.034	-0.300
-711.689	18.411	0.159	-0.128
-710.675	84.373	0.119	0.131
-709.660	299.390	0.068	-0.125
-708.645	-34.840	-0.314	-0.173
-707.631	-138.655	-0.114	-0.013
-706.616	186.748	-0.147	-0.221
-705.602	-35.917	0.153	-0.083
-704.587	542.285	-0.040	-0.097
-703.572	800.000	0.080	0.264
-702.558	463.358	-0.105	0.235
-701.543	-200.000	0.064	0.281
-700.529	371.184	-0.095	-0.194
-699.514	-200.000	0.002	-0.275
-698.499	-9.015	0.134	-0.090
-697.485	-200.000	-0.040	-0.282
-696.470	408.819	0.084	-0.178
-695.456	-200.000	-0.049	-0.246
-694.441	95.343	0.065	0.075
-693.426	-200.000	0.018	0.091
-692.412	-109.332	-0.257	0.055
-691.397	255.459	0.097	0.167
-690.383	101.723	0.232	-0.272
-689.368	140.149	-0.079	-0.104
-688.354	800.000	-0.053	-0.200
-687.339	-200.000	0.031	-0.357
-686.324	594.577	0.089	0.221
-685.310	-144.894	-0.313	-0.029
-684.295	-200.000	-0.036	-0.254
-683.281	-200.000	-0.005	-0.087
-682.266	-71.320	0.129	0.048
-681.251	68.803	0.194	0.200
-680.237	12.115	-0.315	0.243
-679.222	75.199	-0.172	-0.183
-678.208	800.000	0.192	0.575
-677.193	-200.000	-0.045	0.307
-676.178	106.108	-0.084	0.100
-675.164	52.238	-0.095	0.091
-674.149	-200.000	0.043	0.269
-673.135	-102.715	-0.474	0.114
-672.120	-101.248	0.313	-0.077
-671.105	-101.929	-0.403	-0.098
-670.091	-65.787	-0.136	-0.055
-669.076	55.186	-0.021	-0.020
-668.062	-125.712	-0.409	0.062
-667.047	51.963	-0.051	0.048
-666.032	332.655	-0.106	0.205
-665.018	-135.942	0.379	0.045
-664.003	-200.000	-0.017	0.144
-662.989	-200.000	-0.007	-0.042
-661.974	-21.406	-0.168	0.103
-660.959	-200.000	-0.037	-0.366
-659.945	-200.000	-0.005	0.032
-658.930	-200.000	-0.007	-0.065
-657.916	-96.026	-0.204	0.054
-656.901	-29.710	-0.192	0.110
-655.886	-133.140	-0.244	-0.031
-654.872	515.303	-0.097	-0.228
-653.857	-200.000	0.013	0.084
-652.843	455.341	-0.074	-0.165
-651.828	-115.840	-0.269	-0.050
-650.814	-151.193	0.219	-0.016
-649.799	-97.408	0.261	0.068
-648.784	713.574	0.158	-0.421
-647.770	800.000	-0.108	0.432
-646.755	-36.439	-0.361	0.195
-645.741	601.853	0.150	0.375
-644.726	-200.000	-0.010	0.112
-643.711	-57.418	-0.356	-0.157
-642.697	479.884	-0.097	-0.220
-641.682	-33.861	-0.102	-0.056
-640.668	-200.000	0.014	0.115
-639.653	-72.651	-0.158	0.058
-638.638	221.185	0.099	0.159
-637.624	-200.000	-0.053	-0.309
-636.609	-200.000	-0.018	-0.424
-635.595	800.000	-0.059	-0.223
-634.580	300.748	-0.046	0.085
-633.565	-200.000	0.015	0.397
-632.551	-104.757	0.080	-0.018
-631.536	800.000	0.094	0.263
-630.522	800.000	0.032	0.105
-629.507	529.963	0.096	0.228
-628.492	-200.000	-0.024	0.200
-627.478	800.000	0.047	-0.150
-626.463	196.216	-0.033	-0.051
-625.449	109.025	-0.249	0.299
-624.434	-89.973	0.120	0.035
-623.419	-200.000	-0.317	-0.001
-622.405	337.969	0.151	0.295
-621.390	-200.000	-0.044	0.316
-620.376	-170.102	-0.434	0.015
-619.361	9.416	0.098	0.074
-618.346	26.650	-0.054	0.046
-617.332	641.390	-0.032	-0.080
-616.317	8.298	-0.099	0.074
-615.303	800.000	0.101	-0.318
-614.288	-200.000	-0.028	0.236
-613.273	310.722	-0.175	0.328
-612.259	-200.000	0.005	-0.111
-611.244	-14.979	-0.242	-0.156
-610.230	-200.000	0.029	-0.174
-609.215	-200.000	-0.011	0.074
-608.201	257.892	0.196	-0.338
-607.186	-43.014	-0.263	-0.134
-606.171	291.204	-0.021	0.038
-605.157	-148.268	0.129	0.011
-604.142	-57.178	0.266	-0.117
-603.128	-58.340	-0.142	0.062
-602.113	-200.000	0.032	-0.335
-601.098	-7.275	-0.109	-0.074
-600.084	78.411	-0.098	0.105
-599.069	-84.362	0.198	0.063
-598.055	800.000	-0.108	-0.330
-597.040	158.190	0.021	0.030
-596.025	-84.702	-0.515	-0.162
-595.011	-55.637	0.285	-0.128
-593.996	-31.193	-0.231	0.130
-592.982	-133.656	-0.226	-0.028
-591.967	-57.854	-0.216	-0.094
-590.952	-67.262	0.119	0.047
-589.938	-110.811	-0.329	0.068
-588.923	-123.293	-0.510	-0.082
-587.909	168.360	-0.113	-0.161
-586.894	-69.130	-0.068	0.026
-585.879	13.811	-0.199	0.155
-584.865	246.151	0.238	-0.401
-583.850	800.000	0.059	-0.242
-582.836	109.134	0.283	0.339
-581.821	800.000	-0.092	0.312
-580.806	-82.154	0.070	-0.023
-579.792	88.391	-0.092	-0.102
-578.777	137.094	0.153	0.200
-577.763	446.243	-0.065	0.142
-576.748	160.702	-0.148	0.207
-575.733	-17.022	0.233	0.147
-574.719	0.713	0.124	0.089
-573.704	800.000	-0.067	-0.287
-572.690	71.325	-0.225	-0.234
-571.675	-149.689	-0.271	-0.021
-570.661	-200.000	-0.013	0.215
-569.646	-200.000	-0.028	0.222
-568.631	-152.309	0.360	-0.026
-567.617	57.524	0.268	0.262
-566.602	-52.196	0.187	-0.087
-565.588	-179.466	-0.291	0.006
-564.573	178.172	0.063	-0.092
-563.558	-132.113	0.222	0.029
-562.544	800.000	0.073	-0.241
-561.529	-59.265	-0.174	0.075
-560.515	167.075	0.044	-0.063
-559.500	-200.000	-0.101	0.592
-558.485	-40.620	-0.096	0.050
-557.471	0.180	0.136	-0.097
-556.456	155.326	0.178	-0.245
-555.442	800.000	0.050	-0.183
-554.427	-55.487	0.291	0.130
-553.412	800.000	-0.107	-0.345
-552.398	498.078	0.139	-0.319
-551.383	800.000	-0.098	-0.293
-550.369	147.569	-0.174	0.234
-549.354	-194.654	-0.209	0.002
-548.339	-200.000	0.029	0.189
-547.325	-116.824	-0.101	0.019
-546.310	138.565	0.036	-0.048
-545.296	150.312	0.179	0.243
-544.281	317.276	-0.088	-0.167
-543.266	-109.175	-0.423	-0.090
-542.252	-124.869	0.221	0.034
-541.237	23.261	-0.167	0.137
-540.223	800.000	-0.047	-0.200
-539.208	-200.000	0.025	-0.168
-538.193	36.795	0.186	0.164
-537.179	-200.000	0.024	-0.244
-536.164	-160.755	0.431	0.023
-535.150	251.256	-0.082	0.140
-534.135	-18.718	-0.327	0.204
-533.121	-32.296	0.267	-0.149
-532.106	-200.000	-0.002	-0.456
-531.091	-118.580	-0.450	-0.080
-530.077	-200.000	0.044	-0.340
-529.062	176.418	-0.058	0.084
-528.048	-135.470	-0.229	0.027
-527.033	-107.788	0.338	-0.074
-526.018	800.000	-0.049	0.159
-525.004	-101.797	-0.245	-0.059
-523.989	-63.119	0.251	0.103
-522.975	595.598	-0.026	0.063
-521.960	800.000	-0.060	0.171
-520.945	221.656	-0.211	0.339
-519.931	-136.542	-0.156	0.018
-518.916	-200.000	-0.013	0.083
-517.902	-140.365	-0.434	0.045
-516.887	-79.630	0.097	-0.033
-515.872	800.000	-0.089	0.279
-514.858	-108.383	-0.283	-0.061
-513.843	61.790	-0.106	-0.105
-512.829	-200.000	-0.031	0.335
-511.814	800.000	-0.030	0.113
-510.799	494.504	0.050	0.115
-509.785	800.000	0.119	-0.336
-508.770	108.200	-0.075	0.089
-507.756	223.312	0.203	0.327
-506.741	83.539	-0.086	0.094
-505.726	151.945	-0.126	0.171
-504.712	-113.360	0.444	0.087
-503.697	800.000	-0.070	-0.254
-502.683	-10.760	0.196	0.129
-501.668	800.000	-0.017	0.073
-500.653	-1.442	0.267	-0.188
-499.639	-65.787	0.099	0.040
-498.624	-94.423	0.050	-0.013
-497.610	-200.000	0.016	0.125
-496.595	64.746	-0.020	-0.021
-495.581	-200.000	0.060	0.281
-494.566	-180.116	-0.119	-0.003
-493.551	-163.850	0.117	0.005
-492.537	-46.263	0.108	0.053
-491.522	10.836	-0.253	-0.192
-490.508	54.755	-0.263	-0.253
-489.493	800.000	-0.043	-0.158
-488.478	-59.415	-0.136	0.058
-487.464	-90.030	-0.376	-0.109
-486.449	-93.613	-0.351	-0.097
-485.435	376.756	0.114	0.232
-484.420	-43.756	0.361	-0.181
-483.405	800.000	-0.092	0.263
-482.391	105.384	-0.062	-0.073
-481.376	484.451	-0.121	-0.275
-480.362	-187.189	0.261	-0.004
-479.347	351.266	-0.094	0.185
-478.332	68.848	-0.119	-0.122
-477.318	-200.000	0.002	-0.134
-476.303	-123.064	-0.100	-0.016
-475.289	-200.000	0.005	0.203
-474.274	-200.000	-0.003	0.212
-473.259	-122.165	-0.121	0.020
-472.245	-33.404	0.160	0.088
-471.230	184.961	0.055	0.081
-470.216	-58.350	-0.092	0.040
-469.201	-200.000	-0.019	0.110
-468.186	-47.642	0.258	-0.125
-467.172	800.000	0.033	0.128
-466.157	106.867	0.131	0.155
-465.143	-171.306	0.114	0.004
-464.128	-118.183	0.079	0.014
-463.113	-5.816	0.277	-0.189
-462.099	-105.322	0.459	0.104
-461.084	-200.000	0.065	0.296
-460.070	115.339	0.144	-0.176
-459.055	252.920	-0.125	-0.213
-458.040	-45.543	-0.207	0.102
-457.026	374.875	-0.063	-0.127
-456.011	512.157	-0.097	0.226
-454.997	-23.808	0.188	-0.112
-453.982	-200.000	0.001	0.041
-452.968	161.183	0.241	-0.335
-451.953	-16.840	0.112	-0.071
-450.938	120.770	0.062	-0.076
-449.924	-150.361	-0.346	-0.027
-448.909	-108.526	-0.280	0.060
-447.895	-154.378	-0.346	-0.023
-446.880	377.777	0.009	-0.018
-445.865	104.195	0.150	0.176
-444.851	21.216	0.146	-0.118
-443.836	800.000	-0.100	-0.288
-442.822	-77.403	-0.584	0.202
-441.807	367.643	0.072	0.145
-440.792	-168.844	0.375	0.014
-439.778	-129.716	0.324	-0.044
-438.763	661.998	-0.058	-0.150
-437.749	-79.970	0.157	-0.052
-436.734	-200.000	0.005	-0.076
-435.719	20.829	-0.188	0.152
-434.705	800.000	0.030	-0.100
-433.690	398.783	0.096	-0.200
-432.676	-103.352	0.157	0.037
-431.661	393.210	-0.116	0.241
-430.646	-3.892	0.314	0.217
-429.632	180.750	0.190	-0.278
-428.617	-27.928	-0.119	-0.068
-427.603	-200.000	-0.015	0.124
-426.588	469.813	0.108	-0.241
-425.573	18.125	0.405	-0.321
-424.559	194.881	0.259	-0.391
-423.544	-50.225	-0.052	0.025
-422.530	150.294	0.078	-0.105
-421.515	-97.912	-0.300	-0.077
-420.500	-115.435	0.280	0.052
-419.486	-200.000	0.024	-0.245
-418.471	-194.892	-0.363	0.003
-417.457	-84.750	-0.361	0.113
-416.442	87.794	-0.115	-0.126
-415.428	470.694	0.088	0.197
-414.413	152.116	0.181	-0.245
-413.398	295.580	0.073	-0.133
-412.384	140.304	-0.240	0.315
-411.369	255.511	0.177	0.301
-410.355	-132.542	-0.190	-0.024
-409.340	-105.832	0.292	-0.066
-408.325	-200.000	-0.044	0.317
-407.311	-200.000	0.031	0.203
-406.296	-80.814	0.403	-0.133
-405.282	-200.000	-0.046	-0.415
-404.267	75.899	-0.034	-0.036
-403.252	34.951	0.155	0.135
-402.238	251.137	0.162	-0.274
-401.223	-169.895	-0.254	0.009
-400.209	-47.639	-0.100	-0.048
-399.194	144.218	-0.267	-0.354
-398.179	-148.202	-0.262	0.021
-397.165	-200.000	-0.015	-0.237
-396.150	-104.200	-0.182	0.042
-395.136	-200.000	-0.023	-0.209
-394.121	-33.670	0.333	0.182
-393.106	-15.836	0.247	-0.157
-392.092	-49.059	0.133	0.063
-391.077	-10.983	-0.234	0.154
-390.063	175.158	-0.142	-0.204
-389.048	-200.000	0.084	-0.410
-388.033	-82.316	0.180	-0.058
-387.019	-102.113	-0.183	-0.044
-386.004	800.000	-0.069	-0.227
-384.990	800.000	0.052	-0.177
-383.975	226.540	0.182	-0.293
-382.960	-131.731	-0.187	0.024
-381.946	-110.048	0.122	-0.025
-380.931	-200.000	0.034	-0.260
-379.917	216.903	-0.088	0.139
-378.902	392.443	-0.046	-0.095
-377.888	61.474	-0.067	0.066
-376.873	-200.000	-0.008	0.182
-375.858	-200.000	0.012	0.101
-374.844	-2.287	0.231	-0.161
-373.829	196.175	-0.028	-0.042
-372.815	6.285	-0.167	-0.123
-371.800	-124.608	-0.140	0.022
-370.785	-67.919	0.075	0.029
-369.771	221.087	0.071	-0.113
-368.756	-200.000	-0.009	-0.142
-367.742	0.727	-0.324	0.230
-366.727	-131.575	0.212	0.028
-365.712	124.972	0.113	-0.141
-364.698	13.774	0.175	-0.135
-363.683	800.000	0.036	0.147
-362.669	-200.000	0.025	0.208
-361.654	800.000	-0.102	0.328
-360.639	-200.000	0.012	0.354
-359.625	-72.649	0.232	0.085
-358.610	115.913	-0.293	-0.356
-357.596	-200.000	0.042	0.296
-356.581	4.501	-0.108	0.079
-355.566	-75.953	0.086	0.030
-354.552	588.032	-0.085	0.209
-353.537	800.000	0.075	0.232
-352.523	-200.000	-0.003	0.293
-351.508	-26.802	0.195	0.113
-350.493	161.405	-0.136	0.189
-349.479	-64.255	0.138	0.056
-348.464	-200.000	0.055	0.307
-347.450	-200.000	-0.017	-0.135
-346.435	49.745	-0.197	0.184
-345.420	-48.010	0.119	0.057
-344.406	-145.643	-0.201	-0.018
-343.391	-200.000	0.003	-0.150
-342.377	-109.699	-0.265	0.055
-341.362	-34.019	0.186	0.102
-340.348	-84.841	-0.088	0.027
-339.333	-142.496	-0.115	-0.011
-338.318	-165.971	-0.238	-0.010
-337.304	127.328	-0.192	0.241
-336.289	-77.914	0.128	0.044
-335.275	-81.711	0.183	0.059
-334.260	-1.812	0.215	0.150
-333.245	-120.309	-0.031	-0.005
-332.231	57.486	-0.332	-0.321
-331.216	-200.000	0.016	-0.253
-330.202	-40.606	-0.197	0.101
-329.187	800.000	-0.115	-0.388
-328.172	-192.600	-0.099	0.001
-327.158	-200.000	0.043	0.275
-326.143	-47.442	0.306	-0.148
-325.129	-131.187	-0.283	-0.037
-324.114	-88.560	0.121	-0.036
-323.099	-135.746	-0.315	0.037
-322.085	-70.677	0.109	0.041
-321.070	-109.456	-0.351	0.073
-320.056	167.677	0.189	-0.266
-319.041	-59.098	-0.198	-0.085
-318.026	357.669	-0.081	0.161
-317.012	-42.057	-0.235	-0.119
-315.997	-200.000	0.036	0.351
-314.983	286.527	0.016	0.028
-313.968	181.405	0.087	0.126
-312.953	-85.360	-0.196	-0.061
-311.939	447.305	0.132	-0.287
-310.924	12.910	-0.155	-0.119
-309.910	166.528	-0.078	0.110
-308.895	33.143	0.374	0.321
-307.880	-74.112	0.099	0.035
-306.866	-20.669	-0.037	0.022
-305.851	-78.150	0.250	0.085
-304.837	-200.000	-0.006	-0.073
-303.822	12.536	0.045	0.034
-302.807	-125.456	-0.162	0.024
-301.793	-84.520	0.552	-0.173
-300.778	5.761	-0.264	-0.193
-299.764	-200.000	-0.022	-0.155
-298.749	-45.612	0.220	0.108
-297.735	-31.247	0.255	-0.142
-296.720	75.440	-0.312	-0.326
-295.705	-91.005	0.353	0.100
-294.691	370.520	0.066	0.133
-293.676	-200.000	-0.004	0.088
-292.662	21.548	0.022	-0.018
-291.647	-125.706	0.139	-0.021
-290.632	-147.783	-0.164	0.014
-289.618	800.000	0.065	-0.182
-288.603	-200.000	0.001	0.095
-287.589	-75.699	0.137	0.048
-286.574	-19.973	-0.323	-0.197
-285.559	353.982	0.109	0.215
-284.545	217.506	-0.056	-0.089
-283.530	-200.000	-0.039	-0.261
-282.516	-135.994	-0.087	-0.010
-281.501	-25.709	-0.038	0.022
-280.486	-156.418	-0.176	-0.011
-279.472	-76.311	-0.100	0.035
-278.457	-200.000	-0.003	0.267
-277.443	182.569	-0.115	-0.168
-276.428	63.746	0.288	0.286
-275.413	232.353	-0.170	-0.277
-274.399	23.972	-0.120	0.098
-273.384	-58.460	0.030	-0.013
-272.370	-90.955	0.026	-0.007
-271.355	800.000	-0.064	0.182
-270.340	800.000	-0.145	-0.405
-269.326	-200.000	0.066	0.295
-268.311	-11.927	0.323	0.209
-267.297	218.349	0.092	0.145
-266.282	-61.635	0.399	-0.165
-265.267	-54.215	-0.240	0.108
-264.253	467.598	-0.013	0.029
-263.238	800.000	-0.035	0.107
-262.224	96.117	0.239	-0.270
-261.209	-63.920	0.274	-0.111
-260.195	173.814	0.287	-0.410
-259.180	294.715	0.085	0.153
-258.165	-154.083	-0.106	0.007
-257.151	-200.000	0.025	0.186
-256.136	494.863	-0.122	-0.277
-255.122	-51.345	-0.193	-0.089
-254.107	-47.680	0.151	0.072
-253.092	-84.531	-0.335	0.104
-252.078	-28.679	0.185	0.105
-251.063	122.487	-0.194	-0.240
-250.049	-13.721	0.165	-0.106
-249.034	147.497	-0.172	0.229
-248.019	-145.575	0.073	0.006
-247.005	-200.000	-0.025	0.198
-245.990	36.362	-0.119	0.104
-244.976	161.402	0.317	0.437
-243.961	-59.857	0.174	-0.073
-242.946	-112.316	0.075	0.015
-241.932	138.451	-0.087	0.113
-240.917	-57.541	-0.109	0.047
-239.903	171.557	0.350	0.496
-238.888	-200.000	-0.032	0.235
-237.873	64.611	0.012	-0.012
-236.859	406.678	-0.183	0.382
-235.844	-76.055	0.104	0.036
-234.830	-200.000	-0.010	0.138
-233.815	-200.000	0.013	-0.110
-232.800	-88.121	0.214	-0.063
-231.786	0.662	-0.153	-0.108
-230.771	-63.573	0.206	0.083
-229.757	34.784	-0.182	-0.157
-228.742	153.886	0.086	0.116
-227.727	274.269	-0.077	-0.135
-226.713	-83.147	0.260	-0.083
-225.698	-200.000	0.258	-0.001
-224.684	243.272	0.077	-0.128
-223.669	-26.239	-0.143	-0.083
-222.655	-200.000	0.021	0.110
-221.640	-46.748	0.127	0.061
-220.625	26.839	-0.149	0.123
-219.611	-118.938	-0.253	0.044
-218.596	-138.922	0.254	-0.027
-217.582	800.000	0.013	0.049
-216.567	-200.000	0.068	-0.475
-215.552	119.933	0.272	0.333
-214.538	-200.000	-0.018	-0.258
-213.523	496.402	-0.041	-0.092
-212.509	221.257	-0.039	0.062
-211.494	101.047	0.138	0.158
-210.479	-122.856	0.262	-0.042
-209.465	-139.499	-0.374	0.039
-208.450	173.354	-0.161	0.229
-207.436	-118.390	0.061	-0.011
-206.421	284.419	-0.032	-0.057
-205.406	-45.656	-0.312	-0.152
-204.392	-55.014	0.372	0.165
-203.377	584.469	-0.031	0.076
-202.363	152.698	0.217	-0.293
-201.348	118.165	-0.060	-0.073
-200.333	611.068	-0.039	-0.095
-199.319	-32.217	-0.113	0.062
-198.304	-26.779	0.225	-0.130
-197.290	-200.000	-0.051	-0.324
-196.275	144.229	0.214	0.281
-195.260	-67.972	0.250	0.096
-194.246	273.573	-0.105	-0.183
-193.231	-79.755	-0.038	0.013
-192.217	110.544	-0.047	0.055
-191.202	-113.210	0.203	0.039
-190.187	-119.243	0.123	0.021
-189.173	389.520	0.098	-0.201
-188.158	-32.540	0.229	-0.126
-187.144	114.101	0.070	0.083
-186.129	-126.107	-0.078	-0.012
-185.114	800.000	0.057	0.217
-184.100	800.000	0.066	0.202
-183.085	328.696	-0.091	-0.172
-182.071	292.278	-0.153	-0.274
-181.056	800.000	-0.046	0.134
-180.042	66.095	-0.098	-0.098
-179.027	558.237	-0.092	-0.219
-178.012	-92.936	-0.210	0.058
-176.998	-39.376	-0.178	0.092
-175.983	-154.888	0.404	-0.026
-174.969	-60.332	-0.213	0.089
-173.954	-126.370	0.310	-0.046
-172.939	31.065	0.144	-0.121
-171.925	423.110	-0.019	0.041
-170.910	-11.150	0.253	-0.164
-169.896	-163.250	0.101	0.005
-168.881	-200.000	-0.004	0.053
-167.866	-200.000	-0.077	-0.519
-166.852	-119.924	-0.109	0.018
-165.837	800.000	0.118	0.489
-164.823	71.013	-0.225	-0.229
-163.808	152.236	-0.085	-0.114
-162.793	86.562	0.108	0.117
-161.779	-43.858	0.191	0.095
-160.764	0.316	0.228	-0.160
-159.750	-125.082	-0.222	0.034
-158.735	125.479	0.090	-0.112
-157.720	36.734	-0.021	-0.018
-156.706	-200.000	0.020	0.259
-155.691	-111.998	0.028	-0.005
-154.677	800.000	0.054	-0.224
-153.662	800.000	0.033	0.113
-152.647	-47.786	0.113	0.054
-151.633	155.049	-0.219	-0.297
-150.618	11.794	0.249	0.188
-149.604	39.268	0.091	-0.080
-148.589	-200.000	0.008	-0.117
-147.574	800.000	0.019	0.057
-146.560	29.470	-0.137	0.114
-145.545	-145.487	0.091	0.008
-144.531	170.301	0.148	0.209
-143.516	-14.943	0.150	-0.094
-142.502	-200.000	-0.004	0.138
-141.487	116.554	0.214	0.258
-140.472	191.002	0.074	0.109
-139.458	-107.609	0.072	-0.015
-138.443	-82.265	0.144	0.046
-137.429	-200.000	0.036	-0.320
-136.414	83.897	0.219	-0.235
-135.399	349.099	0.078	-0.152
-134.385	242.064	-0.159	-0.262
-133.370	443.892	0.193	0.416
-132.356	-9.874	-0.126	0.083
-131.341	800.000	-0.107	0.316
-130.326	392.257	-0.094	0.193
-129.312	-113.968	-0.069	-0.013
-128.297	67.150	0.013	0.013
-127.283	-60.752	0.326	0.136
-126.268	-200.000	-0.006	0.336
-125.253	800.000	0.160	-0.480
-124.239	-145.700	0.078	-0.007
-123.224	154.884	0.147	0.199
-122.210	-169.720	-0.158	0.006
