DTS Sentinel unit serial number:	SN413079Multiplexer serial number:	ORYXHardware model number:	OX4-SRSoftware version number:	ORYX F/W v4.00 Oryx Data Collector v3.7.2.0data status	okinstallation	princeton_trtdifferential loss correction	single-endedforward channel	channel 3reverse channel	N/Adate	2019/09/14time	09:08:35forward acquisition time	60.00reverse acquisition time	0.00gamma	496.2192k internal	0.2324k external	0.2324temperature offset calibration	1.0051default loss term (dB/km)	0.3790temperature slope calibration	1.0000multiplexer offset coefficient	1.0000multiplexer slope coefficient	1.0000fibre end	0.00T internal ref (°C)	30.39T ext. ref 1 (°C)	3.77T ext. ref 2 (°C)	28.55length (m)	temperature (°C)	Stokes	anti-Stokes-747.200	52.821	-0.145	0.140
-746.185	548.340	-0.051	0.124
-745.171	800.000	0.056	-0.167
-744.156	710.158	0.091	0.243
-743.142	2.002	0.122	0.089
-742.127	-46.067	0.160	0.079
-741.112	-107.468	0.180	-0.040
-740.098	-200.000	0.023	0.205
-739.083	800.000	-0.041	0.128
-738.069	100.105	-0.098	-0.115
-737.054	124.648	0.077	0.098
-736.039	148.708	0.204	-0.279
-735.025	-38.329	0.173	-0.092
-734.010	-200.000	0.043	-0.267
-732.996	-150.901	-0.431	-0.033
-731.981	-106.487	-0.172	0.039
-730.966	193.511	0.104	-0.159
-729.952	-111.113	-0.125	-0.026
-728.937	-57.763	0.155	-0.068
-727.923	800.000	-0.067	-0.287
-726.908	188.249	0.008	-0.012
-725.894	-63.575	-0.120	-0.050
-724.879	7.200	-0.287	0.216
-723.864	-54.834	0.128	-0.058
-722.850	90.090	0.199	-0.224
-721.835	16.885	0.033	-0.027
-720.821	-200.000	-0.007	0.042
-719.806	14.037	-0.097	0.076
-718.791	-71.196	-0.330	-0.125
-717.777	-171.595	0.137	0.005
-716.762	-164.472	-0.228	-0.010
-715.748	-63.336	-0.150	0.062
-714.733	71.160	0.121	0.127
-713.718	-134.408	0.293	-0.036
-712.704	-200.000	0.013	-0.142
-711.689	-113.260	0.145	-0.029
-710.675	-200.000	0.005	0.111
-709.660	174.643	-0.021	0.031
-708.645	635.478	-0.028	0.072
-707.631	-58.839	0.267	-0.116
-706.616	800.000	0.049	-0.208
-705.602	381.295	0.088	0.183
-704.587	-8.500	-0.104	0.071
-703.572	344.419	0.175	0.346
-702.558	-200.000	-0.047	0.353
-701.543	-93.696	-0.251	0.070
-700.529	-200.000	-0.044	-0.364
-699.514	-95.132	0.337	-0.092
-698.499	199.762	-0.185	-0.286
-697.485	119.194	0.209	-0.260
-696.470	-52.687	-0.092	0.043
-695.456	78.802	0.231	-0.249
-694.441	-200.000	0.029	-0.266
-693.426	-2.163	0.149	-0.105
-692.412	224.052	-0.026	-0.042
-691.397	158.979	-0.117	0.164
-690.383	6.870	0.084	0.063
-689.368	-82.878	0.320	-0.104
-688.354	-122.168	0.173	0.029
-687.339	424.263	-0.025	0.054
-686.324	-8.973	0.057	-0.038
-685.310	-200.000	0.026	-0.450
-684.295	612.644	-0.156	-0.393
-683.281	-32.083	-0.242	-0.136
-682.266	7.627	0.064	-0.048
-681.251	800.000	0.041	0.135
-680.237	-113.866	0.135	-0.026
-679.222	-125.122	-0.207	-0.032
-678.208	398.732	-0.071	-0.150
-677.193	-59.576	0.106	-0.046
-676.178	-15.835	-0.055	-0.035
-675.164	-200.000	0.011	-0.254
-674.149	-145.077	0.283	0.026
-673.135	-200.000	-0.052	0.251
-672.120	-200.000	0.027	0.245
-671.105	-129.546	-0.245	0.034
-670.091	203.283	0.181	-0.281
-669.076	-200.000	-0.047	-0.377
-668.062	-21.667	-0.196	-0.120
-667.047	-15.151	0.060	-0.039
-666.032	102.998	0.122	-0.144
-665.018	255.951	-0.120	-0.207
-664.003	11.232	-0.353	0.271
-662.989	-200.000	0.002	0.094
-661.974	397.275	-0.142	0.298
-660.959	-85.921	-0.139	-0.043
-659.945	464.666	-0.058	0.130
-658.930	-154.437	-0.096	0.007
-657.916	-126.861	0.242	-0.036
-656.901	800.000	0.131	0.403
-655.886	800.000	0.107	-0.318
-654.872	-88.949	-0.300	0.089
-653.857	-93.277	0.174	-0.048
-652.843	-134.780	0.279	-0.034
-651.828	179.814	-0.060	-0.088
-650.814	-104.606	0.230	-0.053
-649.799	-194.583	-0.380	0.003
-648.784	142.612	-0.135	-0.180
-647.770	-200.000	-0.029	-0.350
-646.755	800.000	0.101	-0.352
-645.741	440.910	-0.051	-0.112
-644.726	13.503	0.316	0.247
-643.711	-33.268	0.083	0.046
-642.697	54.405	0.256	0.248
-641.682	800.000	-0.050	-0.201
-640.668	-200.000	-0.019	-0.098
-639.653	117.430	-0.118	-0.145
-638.638	-185.936	-0.237	0.004
-637.624	-200.000	0.006	0.032
-636.609	691.699	-0.086	0.226
-635.595	-44.317	0.307	-0.155
-634.580	592.261	-0.074	0.185
-633.565	-42.862	0.456	0.233
-632.551	510.818	-0.130	-0.305
-631.536	-135.511	-0.327	-0.039
-630.522	-21.799	-0.172	-0.105
-629.507	121.493	-0.082	-0.103
-628.492	-112.523	-0.219	0.044
-627.478	128.383	0.112	-0.143
-626.463	-200.000	-0.025	-0.122
-625.449	800.000	0.093	0.287
-624.434	-129.170	-0.476	0.067
-623.419	462.990	0.138	-0.311
-622.405	-180.469	-0.334	0.007
-621.390	-172.259	-0.187	-0.006
-620.376	-161.369	-0.343	-0.018
-619.361	125.307	0.211	-0.267
-618.346	800.000	-0.047	0.185
-617.332	74.277	0.136	-0.143
-616.317	43.517	-0.059	0.055
-615.303	-103.888	-0.301	-0.071
-614.288	3.522	0.249	-0.182
-613.273	163.453	-0.176	-0.248
-612.259	57.360	0.314	0.308
-611.244	-200.000	-0.051	-0.239
-610.230	-15.793	-0.069	-0.044
-609.215	-152.044	0.314	0.023
-608.201	214.701	-0.130	0.207
-607.186	-26.976	-0.273	-0.160
-606.171	800.000	0.067	-0.204
-605.157	-200.000	0.020	-0.135
-604.142	-2.774	0.205	0.144
-603.128	800.000	0.121	0.362
-602.113	480.732	-0.031	-0.071
-601.098	800.000	-0.121	0.465
-600.084	552.431	0.128	0.308
-599.069	-76.784	0.217	0.076
-598.055	281.870	0.017	0.031
-597.040	800.000	-0.016	0.051
-596.025	141.255	-0.129	-0.171
-595.011	-122.280	-0.220	0.036
-593.996	73.735	-0.225	0.237
-592.982	42.548	0.237	-0.216
-591.967	39.438	-0.302	0.271
-590.952	392.153	0.060	0.126
-589.938	-200.000	0.007	-0.040
-588.923	800.000	-0.081	-0.244
-587.909	255.244	-0.089	-0.152
-586.894	-200.000	0.001	-0.071
-585.879	480.322	-0.186	-0.424
-584.865	55.555	-0.186	-0.180
-583.850	800.000	0.001	0.003
-582.836	-92.130	-0.140	0.040
-581.821	800.000	0.122	0.356
-580.806	107.360	0.185	0.221
-579.792	-200.000	0.043	-0.263
-578.777	-103.143	0.192	0.045
-577.763	-18.135	-0.170	-0.106
-576.748	-37.114	-0.281	0.151
-575.733	-86.079	-0.115	0.036
-574.719	-85.552	0.522	0.163
-573.704	-200.000	0.001	0.351
-572.690	107.135	-0.163	-0.194
-571.675	-200.000	-0.071	0.410
-570.661	-55.153	0.311	0.140
-569.646	-200.000	-0.013	-0.205
-568.631	67.120	0.095	0.097
-567.617	-71.093	-0.269	-0.101
-566.602	34.045	-0.253	0.221
-565.588	192.191	-0.061	-0.092
-564.573	-120.471	-0.103	-0.018
-563.558	-200.000	0.001	-0.180
-562.544	-200.000	-0.073	0.418
-561.529	623.687	-0.014	-0.034
-560.515	800.000	0.020	0.067
-559.500	-0.666	0.097	-0.069
-558.485	-88.860	-0.166	-0.049
-557.471	25.183	-0.380	-0.316
-556.456	-200.000	0.005	0.285
-555.442	169.902	0.081	0.116
-554.427	-41.878	0.283	-0.145
-553.412	36.967	0.127	0.113
-552.398	800.000	-0.095	-0.361
-551.383	301.502	0.212	-0.392
-550.369	-45.703	0.184	0.091
-549.354	-125.160	0.482	-0.074
-548.339	57.136	-0.264	0.258
-547.325	-76.314	0.237	-0.084
-546.310	18.776	0.134	-0.107
-545.296	-127.543	-0.315	0.046
-544.281	118.890	0.139	-0.173
-543.266	-50.004	-0.123	0.059
-542.252	-91.291	-0.428	-0.123
-541.237	-168.159	0.076	0.003
-540.223	250.001	-0.067	-0.114
-539.208	164.408	-0.154	-0.217
-538.193	350.492	0.084	0.166
-537.179	-200.000	-0.008	-0.047
-536.164	800.000	0.081	-0.283
-535.150	218.739	0.089	-0.142
-534.135	-78.699	-0.322	-0.110
-533.121	48.082	0.297	-0.278
-532.106	-200.000	-0.042	-0.310
-531.091	-200.000	0.017	-0.383
-530.077	28.922	-0.412	-0.350
-529.062	-107.211	-0.259	0.057
-528.048	330.029	-0.108	0.208
-527.033	-200.000	-0.027	-0.193
-526.018	-126.173	-0.246	0.037
-525.004	800.000	0.063	0.205
-523.989	466.767	0.036	-0.081
-522.975	800.000	-0.032	-0.096
-521.960	800.000	0.098	0.283
-520.945	-51.686	-0.228	0.106
-519.931	31.349	-0.240	0.206
-518.916	-64.407	-0.251	0.102
-517.902	41.038	-0.117	0.106
-516.887	-200.000	-0.001	-0.021
-515.872	-147.696	0.254	0.021
-514.858	800.000	0.022	0.091
-513.843	80.167	0.082	0.088
-512.829	174.951	-0.079	-0.114
-511.814	-100.304	0.150	-0.037
-510.799	-200.000	-0.002	0.281
-509.785	-24.160	0.165	0.099
-508.770	-81.192	0.180	-0.060
-507.756	18.296	-0.132	-0.105
-506.741	144.286	-0.044	0.058
-505.726	-200.000	0.056	-0.428
-504.712	-200.000	0.018	0.117
-503.697	-200.000	-0.016	-0.234
-502.683	-45.424	0.328	-0.163
-501.668	-2.632	-0.128	0.089
-500.653	-108.699	-0.030	-0.006
-499.639	-111.135	0.337	-0.069
-498.624	-14.848	0.122	-0.078
-497.610	137.279	-0.123	-0.160
-496.595	-53.946	0.530	0.241
-495.581	-98.956	-0.220	-0.056
-494.566	-200.000	-0.049	0.267
-493.551	340.366	0.028	0.055
-492.537	-88.431	0.164	-0.049
-491.522	-107.752	-0.131	-0.029
-490.508	76.368	0.320	0.338
-489.493	8.086	-0.053	0.040
-488.478	-9.552	0.058	-0.038
-487.464	-11.121	-0.351	0.232
-486.449	273.146	-0.067	0.118
-485.435	51.640	0.109	-0.104
-484.420	140.064	-0.256	-0.337
-483.405	-133.636	0.209	0.026
-482.391	-160.349	0.130	-0.007
-481.376	-59.714	-0.101	-0.043
-480.362	-104.357	-0.135	-0.031
-479.347	422.125	0.150	0.322
-478.332	-126.189	-0.137	0.020
-477.318	-32.606	0.303	0.169
-476.303	-102.844	0.066	0.016
-475.289	378.471	-0.070	-0.143
-474.274	58.544	-0.093	-0.091
-473.259	-66.475	0.129	-0.051
-472.245	-200.000	0.011	-0.095
-471.230	488.744	-0.028	0.064
-470.216	453.067	-0.134	0.296
-469.201	-70.053	-0.491	0.187
-468.186	800.000	-0.062	-0.260
-467.172	-40.915	0.079	0.041
-466.157	800.000	-0.141	-0.401
-465.143	24.811	0.186	-0.154
-464.128	663.985	-0.067	-0.173
-463.113	-40.953	0.250	0.129
-462.099	7.711	-0.036	0.027
-461.084	-200.000	-0.004	-0.143
-460.070	-147.636	-0.235	0.020
-459.055	-70.967	-0.208	0.078
-458.040	632.823	-0.041	0.103
-457.026	-102.414	-0.290	-0.069
-456.011	10.524	-0.125	-0.095
-454.997	28.427	0.280	-0.236
-453.982	-59.826	-0.117	-0.050
-452.968	-200.000	-0.031	0.194
-451.953	-26.644	0.079	0.046
-450.938	-73.520	-0.445	-0.162
-449.924	-151.593	0.248	-0.018
-448.909	-10.545	0.245	0.162
-447.895	-200.000	-0.034	-0.187
-446.880	84.204	0.173	-0.188
-445.865	-90.077	0.297	0.086
-444.851	-103.734	0.052	0.012
-443.836	214.775	-0.216	-0.341
-442.822	116.732	-0.195	-0.239
-441.807	58.319	0.117	-0.114
-440.792	70.239	-0.053	0.055
-439.778	291.160	-0.060	0.109
-438.763	-200.000	-0.021	-0.172
-437.749	5.466	0.244	0.180
-436.734	113.238	-0.195	0.235
-435.719	40.241	-0.049	0.044
-434.705	-69.536	0.337	0.129
-433.690	59.196	0.196	-0.192
-432.676	25.492	0.123	-0.102
-431.661	-200.000	0.003	0.393
-430.646	800.000	0.045	0.191
-429.632	282.571	0.172	-0.307
-428.617	496.071	-0.098	0.224
-427.603	273.754	0.026	0.046
-426.588	105.539	-0.179	-0.211
-425.573	68.616	0.150	-0.153
-424.559	8.618	0.198	-0.149
-423.544	-156.887	-0.333	-0.020
-422.530	-200.000	0.038	-0.405
-421.515	-143.219	-0.188	-0.018
-420.500	92.173	-0.133	0.149
-419.486	-200.000	0.002	0.076
-418.471	-75.695	-0.105	-0.037
-417.457	31.115	0.105	0.090
-416.442	237.612	-0.107	0.177
-415.428	-79.098	0.204	-0.069
-414.413	800.000	0.042	0.153
-413.398	61.031	-0.198	0.195
-412.384	148.238	0.246	-0.330
-411.369	-107.523	0.140	-0.030
-410.355	124.633	-0.154	-0.193
-409.340	-77.901	-0.195	-0.067
-408.325	-171.480	0.191	-0.006
-407.311	-200.000	0.038	-0.235
-406.296	-200.000	-0.044	0.198
-405.282	-200.000	0.106	0.516
-404.267	-200.000	0.011	0.279
-403.252	-89.020	0.210	0.062
-402.238	-155.291	-0.434	0.028
-401.223	295.043	-0.101	0.184
-400.209	-200.000	-0.004	0.116
-399.194	-51.823	0.232	0.107
-398.179	245.121	-0.082	0.137
-397.165	-200.000	-0.021	0.126
-396.150	117.503	-0.129	0.158
-395.136	800.000	0.035	0.123
-394.121	589.179	-0.182	-0.445
-393.106	426.013	0.019	0.042
-392.092	533.720	0.065	-0.153
-391.077	-82.045	-0.365	-0.119
-390.063	-200.000	0.069	0.352
-389.048	800.000	-0.111	-0.362
-388.033	263.324	-0.101	0.175
-387.019	78.964	0.101	-0.108
-386.004	-200.000	0.020	-0.239
-384.990	74.012	-0.274	-0.286
-383.975	12.497	-0.059	-0.045
-382.960	-169.757	-0.303	-0.011
-381.946	-200.000	0.024	0.314
-380.931	-130.024	-0.335	-0.046
-379.917	800.000	-0.021	0.060
-378.902	82.512	0.156	0.169
-377.888	-71.848	0.206	0.076
-376.873	-200.000	0.017	0.232
-375.858	-39.233	0.206	0.107
-374.844	139.193	-0.222	0.291
-373.829	171.061	0.148	0.211
-372.815	-198.165	0.132	-0.001
-371.800	101.341	0.239	0.277
-370.785	303.300	0.159	-0.293
-369.771	-200.000	-0.020	-0.101
-368.756	-80.278	-0.201	-0.067
-367.742	-35.538	-0.152	-0.082
-366.727	3.862	-0.243	0.177
-365.712	512.128	0.042	-0.096
-364.698	-122.745	-0.184	-0.030
-363.683	14.616	-0.136	0.105
-362.669	-142.342	0.308	0.030
-361.654	99.533	0.122	0.141
-360.639	-44.750	-0.153	0.076
-359.625	36.800	0.384	0.338
-358.610	483.934	-0.057	0.129
-357.596	20.286	-0.273	-0.220
-356.581	33.044	0.059	0.050
-355.566	-6.090	0.169	0.115
-354.552	-200.000	-0.018	0.225
-353.537	195.123	0.154	0.232
-352.523	10.177	-0.065	-0.049
-351.508	800.000	-0.029	-0.098
-350.493	167.399	0.093	-0.131
-349.479	240.621	-0.109	-0.182
-348.464	800.000	-0.177	-0.495
-347.450	-200.000	-0.033	-0.249
-346.435	-200.000	0.036	-0.384
-345.420	-127.664	-0.316	0.045
-344.406	35.012	-0.167	0.145
-343.391	-126.571	0.076	0.011
-342.377	-199.046	0.226	-0.001
-341.362	-66.706	0.109	-0.043
-340.348	188.626	-0.255	0.379
-339.333	-115.748	-0.039	0.007
-338.318	800.000	-0.087	-0.299
-337.304	152.160	0.128	-0.174
-336.289	10.530	0.158	-0.120
-335.275	134.735	-0.135	0.174
-334.260	-57.854	0.057	0.025
-333.245	-200.000	0.176	0.000
-332.231	-200.000	0.012	0.066
-331.216	-200.000	0.045	0.268
-330.202	-146.349	-0.480	-0.042
-329.187	45.965	-0.099	-0.091
-328.172	-142.771	0.112	0.011
-327.158	-20.790	-0.259	0.158
-326.143	-57.107	-0.190	-0.083
-325.129	800.000	-0.038	0.162
-324.114	-200.000	-0.004	0.093
-323.099	14.803	-0.063	0.049
-322.085	-114.589	-0.035	-0.007
-321.070	-200.000	-0.040	0.198
-320.056	-21.955	-0.165	0.100
-319.041	-45.065	0.333	0.164
-318.026	-200.000	-0.011	0.201
-317.012	203.294	0.056	0.086
-315.997	162.741	-0.081	0.113
-314.983	-107.268	0.151	0.033
-313.968	800.000	0.085	0.321
-312.953	-114.151	-0.260	-0.050
-311.939	-200.000	0.044	-0.324
-310.924	61.634	0.192	0.189
-309.910	248.839	0.080	0.134
-308.895	-67.948	-0.136	-0.053
-307.880	-50.302	-0.228	0.107
-306.866	163.999	-0.269	0.376
-305.851	-200.000	0.042	0.282
-304.837	-3.236	-0.144	0.100
-303.822	67.084	0.333	-0.337
-302.807	99.764	-0.184	-0.211
-301.793	-200.000	-0.091	0.462
-300.778	-200.000	0.034	-0.194
-299.764	-200.000	-0.002	0.200
-298.749	-200.000	-0.003	0.072
-297.735	-200.000	0.009	0.041
-296.720	800.000	-0.090	0.292
-295.705	16.612	0.253	0.199
-294.691	102.398	0.092	0.107
-293.676	-69.047	-0.212	0.081
-292.662	168.908	0.137	-0.193
-291.647	-33.081	0.129	-0.071
-290.632	189.690	-0.347	-0.516
-289.618	402.086	0.091	-0.190
-288.603	-100.852	0.702	-0.171
-287.589	272.012	-0.159	0.279
-286.574	277.117	0.122	0.215
-285.559	114.211	-0.140	0.169
-284.545	-117.817	0.037	0.007
-283.530	351.039	0.062	0.121
-282.516	-200.000	0.013	-0.062
-281.501	98.025	0.192	-0.219
-280.486	245.360	0.237	-0.396
-279.472	-169.663	0.284	0.010
-278.457	-200.000	0.041	-0.281
-277.443	-1.116	0.216	0.151
-276.428	-200.000	-0.011	0.155
-275.413	-200.000	-0.021	-0.192
-274.399	-84.242	-0.329	-0.103
-273.384	800.000	-0.082	-0.255
-272.370	-73.158	0.248	-0.090
-271.355	31.538	-0.166	-0.141
-270.340	-69.522	0.207	0.079
-269.326	-125.565	0.062	0.009
-268.311	-167.785	0.150	-0.006
-267.297	106.600	0.191	0.225
-266.282	-56.104	-0.187	-0.083
-265.267	-200.000	-0.001	-0.094
-264.253	182.335	-0.078	0.113
-263.238	-67.581	0.142	-0.055
-262.224	-177.778	-0.022	-0.001
-261.209	-58.886	0.215	0.092
-260.195	-200.000	0.010	0.184
-259.180	81.393	0.201	0.215
-258.165	-200.000	-0.033	-0.358
-257.151	-200.000	0.438	0.000
-256.136	287.387	-0.054	0.097
-255.122	34.831	-0.068	-0.059
-254.107	-200.000	-0.019	-0.383
-253.092	117.153	-0.156	0.190
-252.078	-200.000	0.008	-0.081
-251.063	800.000	-0.050	-0.190
-250.049	213.021	0.114	-0.178
-249.034	85.283	0.087	-0.095
-248.019	3.832	-0.189	0.136
-247.005	800.000	0.087	-0.375
-245.990	-200.000	0.045	0.215
-244.976	-49.387	-0.096	0.045
-243.961	211.771	0.104	0.163
-242.946	-93.859	0.339	-0.092
-241.932	205.852	0.070	-0.108
-240.917	-58.237	0.335	0.144
-239.903	-200.000	-0.025	0.112
-238.888	-200.000	-0.033	-0.210
-237.873	-76.422	0.228	0.079
-236.859	-200.000	0.018	-0.200
-235.844	-100.560	-0.170	0.041
-234.830	800.000	-0.042	-0.120
-233.815	-176.381	-0.159	-0.004
-232.800	49.917	0.208	0.194
-231.786	-200.000	-0.004	-0.019
-230.771	800.000	0.046	0.166
-229.757	-200.000	0.067	0.308
-228.742	145.189	0.112	-0.149
-227.727	-60.095	-0.239	-0.101
-226.713	-146.100	0.257	-0.022
-225.698	800.000	0.052	0.158
-224.684	-32.839	0.183	0.100
-223.669	149.582	0.158	0.212
-222.655	-49.420	-0.272	-0.128
-221.640	-72.768	0.346	0.126
-220.625	800.000	0.064	0.220
-219.611	345.311	-0.148	0.288
-218.596	37.014	0.156	0.137
-217.582	-20.777	-0.099	0.060
-216.567	800.000	-0.083	-0.240
-215.552	71.269	0.187	-0.191
-214.538	21.066	-0.158	-0.127
-213.523	800.000	0.048	0.198
-212.509	253.624	0.128	-0.215
-211.494	92.655	0.153	-0.171
-210.479	47.045	-0.068	0.062
-209.465	-200.000	0.004	0.086
-208.450	-200.000	0.009	-0.121
-207.436	458.771	0.124	-0.273
-206.421	800.000	-0.110	-0.396
-205.406	-58.448	-0.445	0.191
-204.392	-200.000	-0.019	0.094
-203.377	62.594	0.096	0.095
-202.363	-61.711	0.094	-0.039
-201.348	476.179	0.061	0.136
-200.333	-112.717	0.259	0.051
-199.319	358.301	0.045	-0.090
-198.304	163.071	0.255	0.353
-197.290	-20.890	-0.138	-0.084
-196.275	54.322	0.049	-0.047
-195.260	48.195	-0.163	0.150
-194.246	451.925	-0.032	0.070
-193.231	378.912	0.038	-0.078
-192.217	188.693	-0.131	0.194
-191.202	43.490	0.096	0.087
-190.187	-130.931	-0.131	-0.017
-189.173	99.411	-0.086	-0.098
-188.158	-33.452	0.034	0.019
-187.144	42.700	-0.078	0.070
-186.129	-175.729	0.135	-0.004
-185.114	800.000	0.074	-0.228
-184.100	-100.511	0.082	-0.020
-183.085	-165.664	0.321	0.014
-182.071	-200.000	-0.017	-0.359
-181.056	-34.941	-0.110	-0.059
-180.042	-74.132	0.189	-0.068
-179.027	96.782	-0.112	-0.127
-178.012	220.130	-0.113	0.179
-176.998	-45.981	-0.201	0.098
-175.983	339.777	-0.138	-0.266
-174.969	354.710	-0.038	0.075
-173.954	-91.502	-0.350	0.099
-172.939	300.355	0.141	-0.256
-171.925	10.822	0.260	0.196
-170.910	348.767	0.136	-0.264
-169.896	800.000	0.072	0.296
-168.881	800.000	0.040	-0.163
-167.866	-200.000	0.003	-0.013
-166.852	-107.374	0.127	-0.028
-165.837	-200.000	0.017	0.313
-164.823	-119.790	-0.402	-0.068
-163.808	81.628	-0.086	0.092
-162.793	157.679	0.267	0.365
-161.779	-45.799	0.158	0.077
-160.764	-134.040	-0.087	-0.011
-159.750	26.021	0.026	-0.022
-158.735	6.086	0.330	0.241
-157.720	800.000	0.018	-0.057
-156.706	800.000	-0.062	-0.249
-155.691	-200.000	0.017	0.094
-154.677	196.631	0.155	-0.233
-153.662	-64.663	-0.038	0.015
-152.647	-2.564	0.017	0.012
-151.633	29.486	0.164	-0.137
-150.618	-94.488	0.233	-0.063
-149.604	184.324	0.097	-0.142
-148.589	-200.000	-0.014	0.105
-147.574	-200.000	-0.029	0.358
-146.560	-139.672	0.176	0.018
-145.545	-36.084	0.191	-0.102
-144.531	27.159	0.108	-0.089
-143.516	-77.485	0.263	-0.090
-142.502	-144.127	0.344	-0.032
-141.487	114.462	0.103	-0.124
-140.472	-200.000	-0.057	0.290
-139.458	-37.219	-0.216	0.114
-138.443	32.929	0.211	0.180
-137.429	460.093	-0.120	0.263
-136.414	-109.316	0.098	-0.021
-135.399	55.629	0.174	-0.166
-134.385	-125.795	-0.274	-0.041
-133.370	-200.000	-0.061	-0.317
-132.356	-200.000	-0.011	0.264
-131.341	-125.038	-0.183	-0.028
-130.326	787.478	0.110	-0.297
-129.312	-100.891	-0.037	-0.009
-128.297	-200.000	-0.021	0.184
-127.283	112.726	0.253	0.302
-126.268	658.983	0.091	0.230
-125.253	-179.381	-0.129	0.003
-124.239	278.605	0.137	-0.240
-123.224	-135.668	0.143	0.017
-122.210	-200.000	0.003	0.072
-121.195	-200.000	0.010	0.143
