DTS Sentinel unit serial number:	SN413079Multiplexer serial number:	ORYXHardware model number:	OX4-SRSoftware version number:	ORYX F/W v4.00 Oryx Data Collector v3.7.2.0data status	okinstallation	princeton_trtdifferential loss correction	single-endedforward channel	channel 3reverse channel	N/Adate	2019/09/19time	00:32:35forward acquisition time	60.00reverse acquisition time	0.00gamma	496.2192k internal	0.2346k external	0.2346temperature offset calibration	0.9992default loss term (dB/km)	0.3790temperature slope calibration	1.0000multiplexer offset coefficient	1.0000multiplexer slope coefficient	1.0000fibre end	0.00T internal ref (°C)	22.42T ext. ref 1 (°C)	0.73T ext. ref 2 (°C)	15.36length (m)	temperature (°C)	Stokes	anti-Stokes-747.200	81.555	0.138	0.149
-746.185	68.396	-0.168	0.172
-745.171	-143.710	0.067	0.006
-744.156	-22.608	-0.212	0.128
-743.142	784.555	0.129	0.355
-742.127	-180.990	-0.213	-0.004
-741.112	800.000	0.051	0.203
-740.098	103.745	0.256	0.301
-739.083	61.331	0.219	-0.217
-738.069	-200.000	-0.078	0.347
-737.054	-103.909	0.027	0.006
-736.039	44.560	-0.405	-0.372
-735.025	266.592	0.129	0.226
-734.010	-200.000	-0.029	-0.172
-732.996	-200.000	0.010	0.282
-731.981	24.703	-0.230	-0.190
-730.966	-172.471	0.429	0.014
-729.952	43.011	-0.178	-0.162
-728.937	86.763	0.174	-0.191
-727.923	-96.850	-0.370	0.097
-726.908	87.250	0.146	-0.162
-725.894	-72.665	-0.113	0.042
-724.879	775.771	0.099	0.270
-723.864	800.000	-0.124	-0.370
-722.850	-81.795	0.098	-0.032
-721.835	328.553	-0.168	0.322
-720.821	-200.000	0.014	0.342
-719.806	-47.210	0.209	-0.102
-718.791	800.000	-0.060	0.217
-717.777	800.000	0.067	-0.203
-716.762	-107.315	0.137	-0.030
-715.748	-200.000	0.031	-0.378
-714.733	417.775	-0.182	-0.389
-713.718	157.734	-0.156	0.215
-712.704	-91.203	-0.116	-0.033
-711.689	128.873	-0.085	-0.108
-710.675	-178.184	0.103	-0.002
-709.660	-96.388	0.167	-0.044
-708.645	22.448	0.154	-0.126
-707.631	132.750	-0.258	-0.332
-706.616	-200.000	0.006	0.028
-705.602	-74.164	-0.257	0.093
-704.587	-150.224	-0.089	-0.007
-703.572	-144.926	0.093	0.008
-702.558	123.293	-0.167	-0.208
-701.543	-200.000	0.029	0.171
-700.529	38.350	0.027	-0.024
-699.514	383.558	-0.142	0.292
-698.499	15.009	-0.245	-0.191
-697.485	-73.448	0.102	0.037
-696.470	-82.959	0.146	-0.047
-695.456	619.406	-0.091	-0.228
-694.441	-152.243	-0.354	-0.026
-693.426	-200.000	-0.046	-0.243
-692.412	-41.400	-0.168	-0.086
-691.397	800.000	0.054	-0.210
-690.383	-42.590	0.099	-0.050
-689.368	-137.341	0.174	0.020
-688.354	-129.715	-0.338	0.047
-687.339	-135.430	-0.250	0.030
-686.324	150.491	0.161	0.218
-685.310	-11.745	0.119	-0.078
-684.295	-57.752	0.068	0.030
-683.281	606.428	0.093	-0.230
-682.266	117.157	0.114	0.140
-681.251	219.072	0.139	-0.222
-680.237	123.983	-0.395	-0.495
-679.222	-83.479	-0.111	-0.035
-678.208	-200.000	0.011	-0.165
-677.193	-156.999	0.228	-0.014
-676.178	-46.872	-0.326	-0.159
-675.164	-159.051	0.158	0.009
-674.149	-153.080	-0.236	0.017
-673.135	800.000	-0.006	-0.022
-672.120	-158.549	-0.216	0.012
-671.105	-200.000	-0.020	0.215
-670.091	-45.572	-0.033	0.016
-669.076	-81.442	0.207	-0.068
-668.062	-183.360	-0.284	-0.005
-667.047	121.587	0.062	-0.077
-666.032	-132.585	0.277	-0.035
-665.018	-200.000	0.035	-0.276
-664.003	-200.000	-0.017	0.193
-662.989	0.859	0.237	-0.169
-661.974	86.535	-0.317	-0.349
-660.959	-144.988	-0.323	0.029
-659.945	-41.462	-0.157	0.080
-658.930	-66.080	0.141	-0.056
-657.916	37.000	0.171	-0.151
-656.901	-70.664	-0.145	-0.055
-655.886	180.320	0.098	0.144
-654.872	8.063	-0.299	-0.223
-653.857	-129.006	0.202	-0.028
-652.843	307.225	-0.074	-0.137
-651.828	-10.680	0.277	0.182
-650.814	-99.531	-0.200	-0.050
-649.799	92.916	0.174	0.196
-648.784	800.000	0.027	-0.103
-647.770	-200.000	0.000	-0.046
-646.755	-57.116	-0.099	-0.043
-645.741	-106.999	-0.042	0.009
-644.726	68.960	-0.319	-0.326
-643.711	-200.000	0.053	0.239
-642.697	430.661	0.075	0.162
-641.682	-68.803	-0.183	0.071
-640.668	774.726	0.075	-0.203
-639.653	-84.342	0.154	-0.049
-638.638	166.999	0.150	-0.212
-637.624	-36.574	-0.188	-0.101
-636.609	51.674	-0.160	-0.151
-635.595	-85.481	0.159	-0.049
-634.580	-200.000	0.006	0.078
-633.565	-200.000	0.051	0.226
-632.551	-44.264	-0.098	-0.049
-631.536	69.729	-0.196	0.201
-630.522	147.524	0.183	-0.245
-629.507	-131.633	-0.207	0.027
-628.492	-200.000	0.030	-0.198
-627.478	113.826	-0.118	0.143
-626.463	54.626	0.063	-0.060
-625.449	800.000	0.014	0.039
-624.434	-81.512	-0.295	0.096
-623.419	40.218	-0.112	-0.100
-622.405	21.823	0.188	0.152
-621.390	168.112	0.076	0.107
-620.376	133.196	-0.181	0.233
-619.361	-200.000	0.001	-0.073
-618.346	-200.000	0.035	0.362
-617.332	-92.042	-0.185	-0.052
-616.317	138.984	-0.173	0.226
-615.303	-148.309	-0.058	-0.005
-614.288	276.956	-0.139	-0.245
-613.273	212.161	-0.171	-0.269
-612.259	800.000	0.102	0.387
-611.244	-200.000	-0.029	-0.219
-610.230	-200.000	0.004	0.201
-609.215	430.997	-0.096	0.206
-608.201	-14.851	-0.237	0.151
-607.186	-97.900	0.099	0.025
-606.171	-57.327	0.169	-0.074
-605.157	-11.503	0.228	0.149
-604.142	-51.869	0.122	-0.056
-603.128	800.000	-0.123	-0.348
-602.113	67.538	-0.076	-0.077
-601.098	-109.921	0.240	0.050
-600.084	800.000	0.058	0.221
-599.069	-68.950	-0.413	-0.159
-598.055	113.927	0.332	0.402
-597.040	115.905	0.221	0.269
-596.025	-164.725	-0.208	-0.009
-595.011	181.487	-0.217	0.317
-593.996	252.569	-0.085	0.144
-592.982	-28.093	0.497	0.286
-591.967	-77.180	-0.436	0.151
-590.952	-200.000	0.029	-0.234
-589.938	15.149	-0.196	-0.153
-588.923	373.388	-0.155	0.313
-587.909	800.000	-0.064	0.214
-586.894	42.786	-0.259	0.235
-585.879	58.183	0.135	0.132
-584.865	204.350	-0.090	0.138
-583.850	-68.930	-0.086	0.033
-582.836	61.537	0.141	0.140
-581.821	-129.177	-0.100	-0.014
-580.806	-200.000	-0.030	-0.156
-579.792	231.940	0.082	-0.134
-578.777	-105.061	-0.080	-0.018
-577.763	-15.473	-0.074	-0.047
-576.748	-21.666	0.194	-0.117
-575.733	-200.000	-0.001	-0.136
-574.719	61.351	-0.175	-0.173
-573.704	-200.000	-0.038	-0.181
-572.690	-14.747	0.035	0.022
-571.675	258.853	0.054	0.092
-570.661	-115.045	0.060	0.011
-569.646	653.971	-0.176	-0.449
-568.631	-139.437	-0.181	0.019
-567.617	295.761	0.141	0.257
-566.602	-172.143	-0.205	-0.007
-565.588	800.000	-0.081	-0.333
-564.573	-111.496	-0.134	-0.027
-563.558	-119.725	0.157	0.027
-562.544	-83.575	0.438	0.139
-561.529	-157.936	0.418	0.024
-560.515	-117.156	-0.054	-0.010
-559.500	-94.470	-0.477	0.129
-558.485	-111.579	-0.306	-0.062
-557.471	800.000	-0.119	0.359
-556.456	762.679	-0.064	-0.171
-555.442	51.824	-0.305	-0.288
-554.427	286.161	-0.077	-0.139
-553.412	69.428	0.089	-0.090
-552.398	693.568	0.137	0.357
-551.383	-200.000	-0.018	-0.206
-550.369	-82.958	-0.158	-0.050
-549.354	720.362	-0.096	-0.252
-548.339	-0.302	0.159	-0.112
-547.325	-192.446	0.158	-0.001
-546.310	-200.000	0.017	0.085
-545.296	78.241	-0.148	-0.157
-544.281	-74.303	0.124	-0.045
-543.266	-4.283	0.054	-0.037
-542.252	800.000	0.089	-0.276
-541.237	-158.500	-0.082	-0.005
-540.223	-70.956	0.111	-0.041
-539.208	10.073	-0.115	-0.087
-538.193	136.506	0.142	-0.184
-537.179	-200.000	0.009	-0.118
-536.164	-167.524	-0.231	0.009
-535.150	547.765	-0.051	0.121
-534.135	-121.624	-0.117	0.019
-533.121	45.740	0.233	-0.214
-532.106	-200.000	-0.014	0.234
-531.091	-157.347	-0.394	0.024
-530.077	-72.379	0.309	-0.113
-529.062	800.000	0.091	-0.269
-528.048	228.228	-0.050	0.080
-527.033	-200.000	-0.000	0.180
-526.018	-116.878	-0.389	0.071
-525.004	64.138	0.067	-0.067
-523.989	382.292	-0.055	-0.112
-522.975	800.000	0.118	0.438
-521.960	-29.416	0.252	0.143
-520.945	394.107	0.046	0.096
-519.931	509.925	-0.043	-0.099
-518.916	-200.000	0.087	-0.385
-517.902	479.866	-0.130	0.292
-516.887	219.392	-0.162	-0.257
-515.872	4.735	0.345	-0.252
-514.858	-121.353	-0.231	-0.038
-513.843	-120.783	0.132	-0.022
-512.829	-25.802	-0.340	-0.198
-511.814	-120.278	0.216	0.037
-510.799	257.268	0.221	0.376
-509.785	-200.000	0.236	-0.000
-508.770	800.000	0.055	-0.220
-507.756	78.534	-0.086	-0.091
-506.741	-200.000	-0.016	-0.201
-505.726	66.473	0.235	0.237
-504.712	693.560	-0.113	-0.293
-503.697	-88.705	-0.131	0.039
-502.683	-200.000	0.034	-0.285
-501.668	-62.248	0.135	-0.056
-500.653	-17.444	0.223	0.139
-499.639	187.652	0.047	-0.069
-498.624	-104.810	0.195	-0.044
-497.610	-115.773	-0.453	0.084
-496.595	-126.402	-0.210	-0.031
-495.581	-79.191	0.077	-0.026
-494.566	-90.257	0.443	0.128
-493.551	-83.855	-0.058	0.018
-492.537	126.439	-0.184	-0.230
-491.522	-21.539	0.196	-0.118
-490.508	593.381	-0.138	-0.338
-489.493	-200.000	0.006	-0.138
-488.478	-50.694	-0.103	-0.048
-487.464	-196.150	0.028	-0.000
-486.449	364.645	-0.040	-0.080
-485.435	-182.313	-0.115	-0.002
-484.420	76.488	0.217	-0.228
-483.405	633.509	0.099	0.248
-482.391	-200.000	-0.012	-0.210
-481.376	-200.000	-0.007	-0.044
-480.362	800.000	0.094	0.325
-479.347	-200.000	-0.016	0.215
-478.332	253.622	0.212	0.358
-477.318	-21.730	-0.182	0.110
-476.303	270.993	0.196	0.341
-475.289	-110.345	-0.131	0.027
-474.274	-56.260	-0.176	-0.077
-473.259	286.906	0.057	-0.101
-472.245	-104.417	-0.022	0.005
-471.230	216.013	-0.199	0.313
-470.216	27.174	0.297	-0.246
-469.201	-70.080	-0.292	-0.110
-468.186	38.946	0.213	-0.189
-467.172	-200.000	-0.052	-0.274
-466.157	-200.000	0.058	-0.361
-465.143	78.349	-0.172	-0.181
-464.128	7.112	-0.270	0.199
-463.113	20.746	0.236	0.189
-462.099	289.763	0.149	0.267
-461.084	170.118	0.017	0.024
-460.070	-200.000	-0.036	0.162
-459.055	-121.701	-0.290	0.047
-458.040	760.515	-0.125	0.335
-457.026	-147.739	0.242	-0.020
-456.011	-200.000	-0.007	0.045
-454.997	800.000	0.063	-0.254
-453.982	248.439	-0.068	-0.113
-452.968	87.181	0.062	0.068
-451.953	-112.624	-0.034	-0.007
-450.938	43.781	-0.045	0.040
-449.924	-161.519	0.321	-0.016
-448.909	-65.443	0.180	0.071
-447.895	-140.429	0.219	0.023
-446.880	800.000	0.066	0.199
-445.865	-200.000	-0.000	-0.184
-444.851	-200.000	-0.006	0.223
-443.836	-200.000	0.058	-0.431
-442.822	-110.459	0.123	0.025
-441.807	-108.127	0.406	-0.087
-440.792	118.643	0.265	-0.323
-439.778	551.488	0.028	-0.066
-438.763	148.095	-0.143	-0.191
-437.749	87.590	-0.174	-0.190
-436.734	-200.000	-0.035	-0.297
-435.719	-133.335	-0.267	-0.033
-434.705	92.249	-0.146	0.163
-433.690	128.301	0.177	-0.222
-432.676	-168.001	-0.237	0.009
-431.661	-161.600	0.159	0.008
-430.646	79.710	0.122	0.130
-429.632	731.227	-0.169	0.446
-428.617	111.485	-0.123	-0.147
-427.603	-82.341	0.193	-0.062
-426.588	-121.496	-0.335	-0.055
-425.573	437.490	0.133	0.287
-424.559	-129.284	-0.178	0.024
-423.544	38.433	-0.225	0.198
-422.530	-200.000	0.000	0.087
-421.515	-41.309	-0.027	0.014
-420.500	135.376	-0.053	0.068
-419.486	-93.035	0.148	-0.041
-418.471	-92.655	0.382	-0.106
-417.457	-200.000	-0.043	0.227
-416.442	-200.000	-0.018	-0.089
-415.428	90.199	-0.163	-0.180
-414.413	-200.000	-0.011	0.088
-413.398	196.900	-0.103	-0.155
-412.384	-158.920	-0.300	0.017
-411.369	-90.521	-0.371	0.106
-410.355	-196.470	0.171	0.001
-409.340	209.915	-0.074	0.115
-408.325	7.235	0.126	0.093
-407.311	173.660	0.091	0.129
-406.296	140.244	0.193	-0.251
-405.282	-129.049	0.086	0.012
-404.267	-200.000	0.011	-0.317
-403.252	159.569	0.075	-0.103
-402.238	52.871	-0.167	0.157
-401.223	800.000	-0.094	0.325
-400.209	-4.377	0.115	-0.079
-399.194	-153.421	-0.052	0.004
-398.179	-200.000	0.004	0.146
-397.165	-200.000	0.035	-0.298
-396.150	800.000	0.102	0.313
-395.136	158.029	-0.094	0.128
-394.121	-200.000	-0.009	0.376
-393.106	244.503	0.181	0.300
-392.092	-72.594	-0.206	-0.075
-391.077	-200.000	0.035	0.170
-390.063	-99.482	0.096	0.024
-389.048	269.283	0.187	0.323
-388.033	-107.228	-0.187	-0.041
-387.019	-200.000	-0.011	-0.226
-386.004	526.443	-0.160	0.372
-384.990	-200.000	-0.021	0.396
-383.975	-56.454	-0.141	0.062
-382.960	-200.000	0.028	0.465
-381.946	-52.413	-0.451	0.206
-380.931	-76.855	0.426	-0.147
-379.917	137.020	-0.200	-0.257
-378.902	-42.371	-0.154	0.078
-377.888	22.807	-0.329	-0.266
-376.873	-109.877	0.248	-0.051
-375.858	-76.389	0.207	0.072
-374.844	-200.000	0.009	-0.274
-373.829	86.705	0.059	-0.064
-372.815	800.000	0.032	-0.092
-371.800	27.600	0.134	-0.111
-370.785	368.116	-0.072	-0.144
-369.771	-200.000	0.022	-0.323
-368.756	23.426	-0.220	-0.179
-367.742	-200.000	-0.009	0.041
-366.727	800.000	-0.040	0.116
-365.712	66.176	-0.028	-0.028
-364.698	85.704	0.102	-0.110
-363.683	800.000	-0.095	-0.366
-362.669	230.698	0.097	0.157
-361.654	412.880	0.076	0.160
-360.639	35.042	-0.280	-0.241
-359.625	-85.519	-0.334	0.102
-358.610	-59.887	-0.294	-0.124
-357.596	-96.344	-0.041	-0.011
-356.581	674.647	-0.035	-0.090
-355.566	214.377	-0.073	-0.115
-354.552	800.000	0.037	0.140
-353.537	-152.287	-0.109	-0.008
-352.523	800.000	-0.030	0.094
-351.508	323.547	0.101	0.189
-350.493	800.000	0.092	0.317
-349.479	-57.619	-0.103	0.044
-348.464	-12.571	-0.378	-0.243
-347.450	-105.916	0.383	0.085
-346.435	-65.911	0.161	0.063
-345.420	-200.000	-0.021	0.123
-344.406	-63.298	-0.207	0.084
-343.391	423.484	0.027	0.058
-342.377	800.000	0.099	0.285
-341.362	235.203	0.112	0.182
-340.348	-50.177	0.351	0.163
-339.333	675.237	0.133	-0.341
-338.318	31.492	0.266	-0.225
-337.304	800.000	-0.058	0.199
-336.289	205.722	0.077	-0.117
-335.275	48.214	-0.101	-0.093
-334.260	-200.000	-0.073	-0.491
-333.245	-200.000	0.033	0.222
-332.231	254.716	-0.090	0.151
-331.216	324.657	-0.068	0.127
-330.202	-20.212	-0.197	0.120
-329.187	800.000	0.031	0.086
-328.172	354.135	-0.091	-0.178
-327.158	60.916	0.074	0.072
-326.143	-17.632	-0.089	0.055
-325.129	-160.657	-0.093	0.005
-324.114	451.161	-0.082	0.178
-323.099	97.492	0.274	-0.309
-322.085	127.471	-0.169	0.211
-321.070	109.263	0.286	0.337
-320.056	-200.000	0.194	-0.001
-319.041	378.486	-0.022	-0.044
-318.026	-45.529	0.013	-0.006
-317.012	-200.000	-0.031	-0.435
-315.997	800.000	0.075	0.316
-314.983	85.488	-0.231	0.249
-313.968	79.084	0.081	0.086
-312.953	800.000	-0.089	-0.241
-311.939	237.943	-0.134	-0.219
-310.924	-84.966	-0.075	0.023
-309.910	166.344	0.136	-0.190
-308.895	-10.573	0.226	0.147
-307.880	-133.155	-0.365	-0.045
-306.866	-200.000	-0.001	0.237
-305.851	10.086	-0.102	-0.076
-304.837	-26.251	0.127	0.073
-303.822	-94.258	-0.311	-0.083
-302.807	-122.661	0.296	-0.047
-301.793	43.474	-0.318	0.285
-300.778	113.730	-0.100	-0.120
-299.764	244.012	0.079	0.130
-298.749	-98.237	-0.286	-0.072
-297.735	333.038	0.189	0.359
-296.720	-49.799	0.233	0.109
-295.705	800.000	-0.107	0.358
-294.691	62.886	-0.132	-0.130
-293.676	66.351	-0.163	-0.163
-292.662	122.332	0.210	0.258
-291.647	235.186	-0.044	-0.072
-290.632	-106.879	0.191	0.042
-289.618	207.058	0.199	0.305
-288.603	84.134	0.328	0.352
-287.589	-200.000	-0.025	0.387
-286.574	372.576	0.059	0.118
-285.559	-80.860	0.197	0.064
-284.545	-17.858	-0.162	-0.100
-283.530	98.288	-0.201	-0.227
-282.516	800.000	0.082	-0.349
-281.501	-200.000	-0.002	0.044
-280.486	181.569	-0.143	0.206
-279.472	-115.916	-0.114	0.021
-278.457	169.744	0.155	-0.218
-277.443	248.581	-0.107	-0.178
-276.428	115.347	0.077	0.093
-275.413	-120.100	-0.289	0.049
-274.399	800.000	0.030	0.100
-273.384	-132.415	0.286	-0.036
-272.370	-66.470	0.192	0.075
-271.355	40.740	-0.226	0.200
-270.340	-114.696	0.146	-0.027
-269.326	-200.000	0.209	0.001
-268.311	333.449	0.080	-0.152
-267.297	800.000	-0.062	0.262
-266.282	-0.802	0.158	0.110
-265.267	-200.000	0.022	-0.204
-264.253	402.563	-0.056	-0.115
-263.238	-200.000	0.000	-0.023
-262.224	800.000	-0.104	-0.368
-261.209	180.767	0.081	0.117
-260.195	-92.990	-0.317	-0.087
-259.180	-200.000	-0.019	-0.237
-258.165	-39.226	-0.055	-0.028
-257.151	-200.000	-0.034	-0.255
-256.136	-95.585	0.117	-0.031
-255.122	208.280	-0.051	-0.078
-254.107	40.812	0.062	-0.055
-253.092	-104.965	0.182	-0.041
-252.078	306.162	-0.053	-0.096
-251.063	100.304	-0.075	0.086
-250.049	-94.344	-0.197	-0.053
-249.034	300.108	-0.114	0.207
-248.019	57.971	0.121	-0.116
-247.005	-145.925	0.152	0.013
-245.990	-200.000	-0.012	-0.175
-244.976	-200.000	0.060	0.280
-243.961	-200.000	0.018	0.144
-242.946	41.712	0.108	-0.096
-241.932	58.309	-0.079	0.076
-240.917	800.000	-0.043	-0.125
-239.903	578.761	0.144	0.344
-238.888	183.032	-0.128	0.185
-237.873	-100.425	0.108	0.026
-236.859	-200.000	0.007	0.275
-235.844	56.929	0.215	0.205
-234.830	151.517	0.135	0.180
-233.815	-108.649	-0.061	-0.013
-232.800	13.673	0.173	-0.132
-231.786	800.000	-0.087	-0.295
-230.771	-76.031	0.112	-0.039
-229.757	-62.704	0.165	-0.067
-228.742	29.020	0.029	-0.024
-227.727	254.369	0.059	-0.098
-226.713	-84.416	-0.292	-0.090
-225.698	-190.382	0.226	-0.002
-224.684	-56.864	-0.365	-0.158
-223.669	101.306	0.147	-0.168
-222.655	-15.485	0.305	0.191
-221.640	-200.000	0.039	0.166
-220.625	52.872	0.343	-0.321
-219.611	49.018	-0.139	-0.128
-218.596	-62.657	-0.172	0.070
-217.582	-113.022	0.204	-0.039
-216.567	-85.370	0.105	-0.032
-215.552	401.232	-0.132	-0.271
-214.538	30.377	0.112	-0.094
-213.523	-25.960	-0.262	-0.151
-212.509	-62.127	0.315	-0.129
-211.494	-27.553	-0.407	0.231
-210.479	-60.332	0.213	-0.089
-209.465	-32.974	-0.171	-0.093
-208.450	220.786	-0.115	0.181
-207.436	-200.000	0.034	-0.238
-206.421	-46.240	-0.255	-0.123
-205.406	551.086	0.147	0.345
-204.392	9.452	-0.188	0.140
-203.377	195.109	-0.045	-0.067
-202.363	-200.000	0.004	0.036
-201.348	-200.000	-0.007	-0.306
-200.333	-102.518	0.336	0.079
-199.319	-102.875	0.213	0.050
-198.304	-200.000	-0.016	-0.151
-197.290	-200.000	-0.042	-0.299
-196.275	-200.000	0.024	-0.124
-195.260	-1.836	0.260	-0.179
-194.246	114.131	-0.097	-0.116
-193.231	203.309	-0.099	-0.150
-192.217	-167.324	0.373	0.015
-191.202	-136.044	-0.248	-0.029
-190.187	-102.412	-0.089	-0.021
-189.173	-113.308	-0.394	0.076
-188.158	-37.352	0.104	-0.054
-187.144	10.751	-0.126	0.094
-186.129	-197.786	0.128	0.001
-185.114	17.247	0.281	0.218
-184.100	800.000	0.071	-0.233
-183.085	-56.458	-0.226	-0.098
-182.071	-59.498	0.175	-0.073
-181.056	800.000	0.034	0.143
-180.042	-62.574	0.321	0.130
-179.027	22.675	-0.255	-0.204
-178.012	113.696	-0.205	-0.243
-176.998	172.333	-0.061	0.086
-175.983	-200.000	-0.030	0.176
-174.969	800.000	0.016	0.049
-173.954	-96.632	-0.085	0.022
-172.939	800.000	0.035	-0.100
-171.925	-200.000	-0.029	0.529
-170.910	800.000	0.016	0.052
-169.896	-186.618	0.416	-0.006
-168.881	123.824	-0.107	0.131
-167.866	451.391	-0.041	-0.088
-166.852	503.934	0.092	0.208
-165.837	-120.663	0.129	-0.021
-164.823	-159.700	0.399	-0.022
-163.808	19.837	-0.318	0.250
-162.793	-46.468	0.162	-0.078
-161.779	165.301	-0.287	-0.397
-160.764	60.664	0.284	-0.275
-159.750	800.000	0.045	-0.173
-158.735	85.023	0.157	-0.168
-157.720	18.041	0.162	-0.126
-156.706	800.000	0.036	0.129
-155.691	-107.599	0.341	0.073
-154.677	22.425	0.194	-0.155
-153.662	32.565	-0.161	-0.136
-152.647	800.000	0.025	-0.106
-151.633	134.793	0.122	0.155
-150.618	117.733	0.197	0.237
-149.604	223.919	-0.061	-0.096
-148.589	57.155	-0.195	-0.186
-147.574	800.000	-0.048	-0.148
-146.560	800.000	0.068	0.203
-145.545	-52.553	-0.198	-0.090
-144.531	8.803	0.239	-0.176
-143.516	-200.000	-0.295	-0.000
-142.502	204.008	0.061	-0.092
-141.487	115.823	-0.255	0.305
-140.472	-200.000	0.009	-0.325
-139.458	312.950	0.122	0.224
-138.443	-125.861	-0.358	0.053
-137.429	-200.000	0.008	-0.044
-136.414	108.824	-0.143	-0.167
-135.399	346.217	0.144	0.277
-134.385	-200.000	0.048	-0.209
-133.370	800.000	-0.119	0.392
-132.356	368.469	0.197	0.389
-131.341	-147.872	-0.175	-0.014
-130.326	14.340	-0.070	-0.053
-129.312	800.000	0.038	-0.113
-128.297	523.052	-0.078	0.180
-127.283	197.244	0.150	0.223
-126.268	800.000	-0.061	-0.204
-125.253	-8.540	0.565	-0.370
-124.239	8.539	-0.258	0.190
-123.224	598.484	0.107	0.259
-122.210	562.454	-0.141	0.334
