DTS Sentinel unit serial number:	SN413079Multiplexer serial number:	ORYXHardware model number:	OX4-SRSoftware version number:	ORYX F/W v4.00 Oryx Data Collector v3.7.2.0data status	okinstallation	princeton_trtdifferential loss correction	single-endedforward channel	channel 3reverse channel	N/Adate	2019/09/13time	16:08:34forward acquisition time	60.00reverse acquisition time	0.00gamma	496.2192k internal	0.2304k external	0.2304temperature offset calibration	1.0142default loss term (dB/km)	0.3790temperature slope calibration	1.0000multiplexer offset coefficient	1.0000multiplexer slope coefficient	1.0000fibre end	0.00T internal ref (°C)	34.75T ext. ref 1 (°C)	4.84T ext. ref 2 (°C)	31.52length (m)	temperature (°C)	Stokes	anti-Stokes-747.200	145.455	-0.185	-0.252
-746.185	800.000	-0.054	-0.196
-745.171	800.000	0.029	0.090
-744.156	-200.000	-0.004	0.169
-743.142	-200.000	-0.047	0.210
-742.127	-33.294	-0.386	0.217
-741.112	-200.000	-0.061	-0.447
-740.098	-97.056	-0.297	0.079
-739.083	-44.299	-0.296	-0.151
-738.069	106.718	0.169	0.205
-737.054	114.724	0.139	-0.173
-736.039	-44.701	-0.363	0.184
-735.025	507.326	0.156	0.367
-734.010	-17.868	0.170	0.109
-732.996	50.652	-0.288	-0.277
-731.981	23.033	-0.108	0.090
-730.966	-200.000	-0.048	-0.363
-729.952	729.995	0.167	-0.454
-728.937	100.992	-0.202	-0.239
-727.923	-183.605	-0.395	-0.007
-726.908	494.514	0.156	-0.364
-725.894	-52.298	-0.393	-0.185
-724.879	-42.414	-0.068	-0.035
-723.864	78.765	-0.016	-0.017
-722.850	-129.937	-0.218	0.030
-721.835	-93.466	0.076	-0.021
-720.821	-56.834	-0.137	0.062
-719.806	45.275	-0.200	-0.188
-718.791	593.460	0.106	-0.267
-717.777	-5.669	-0.123	0.086
-716.762	-64.984	0.101	-0.042
-715.748	-129.577	-0.208	0.029
-714.733	-105.665	0.297	0.068
-713.718	-177.028	0.549	0.014
-712.704	26.062	-0.155	-0.132
-711.689	-47.359	0.238	-0.118
-710.675	56.561	0.160	-0.158
-709.660	128.792	-0.272	0.353
-708.645	751.375	-0.082	0.225
-707.631	-200.000	0.019	-0.344
-706.616	242.880	0.065	-0.111
-705.602	800.000	0.089	0.352
-704.587	-200.000	0.029	-0.305
-703.572	-200.000	0.023	0.259
-702.558	-60.623	-0.103	-0.044
-701.543	40.088	-0.231	0.211
-700.529	-132.019	0.481	-0.064
-699.514	-200.000	0.042	0.373
-698.499	311.478	0.076	0.144
-697.485	-21.477	-0.132	-0.082
-696.470	67.162	0.158	-0.163
-695.456	523.558	-0.010	-0.023
-694.441	174.229	0.140	0.206
-693.426	151.858	0.106	-0.147
-692.412	-59.514	-0.407	-0.178
-691.397	-60.325	0.210	-0.091
-690.383	-155.598	-0.207	0.014
-689.368	-30.579	-0.269	0.155
-688.354	-99.278	-0.235	0.060
-687.339	102.119	-0.182	-0.216
-686.324	232.043	-0.370	-0.617
-685.310	-8.318	0.207	-0.141
-684.295	69.121	-0.203	-0.212
-683.281	306.112	-0.021	-0.040
-682.266	189.882	-0.188	-0.286
-681.251	138.786	-0.247	-0.329
-680.237	208.253	0.118	0.188
-679.222	-52.901	-0.117	0.055
-678.208	-117.025	0.334	-0.062
-677.193	360.240	0.062	0.127
-676.178	157.725	0.093	-0.130
-675.164	-126.019	-0.379	-0.058
-674.149	-77.867	0.253	0.089
-673.135	-79.992	-0.271	0.092
-672.120	-200.000	0.015	-0.182
-671.105	555.695	-0.073	-0.178
-670.091	55.672	-0.104	-0.102
-669.076	800.000	0.016	-0.048
-668.062	-200.000	-0.007	-0.216
-667.047	146.421	-0.159	-0.216
-666.032	-78.241	0.077	-0.027
-665.018	800.000	-0.109	0.310
-664.003	127.812	-0.251	0.324
-662.989	282.644	0.212	-0.386
-661.974	143.188	0.179	-0.241
-660.959	126.337	0.172	0.220
-659.945	190.498	0.195	-0.297
-658.930	-13.310	-0.123	0.081
-657.916	203.773	-0.006	-0.009
-656.901	800.000	-0.037	-0.162
-655.886	-200.000	-0.046	-0.302
-654.872	80.290	-0.230	-0.251
-653.857	47.415	0.148	0.140
-652.843	-111.922	0.138	-0.028
-651.828	-200.000	-0.062	-0.374
-650.814	-127.950	-0.216	0.031
-649.799	800.000	-0.083	0.321
-648.784	282.176	0.106	-0.192
-647.770	-17.038	-0.184	-0.118
-646.755	-15.372	0.183	-0.118
-645.741	-75.721	-0.116	-0.042
-644.726	800.000	-0.048	0.150
-643.711	49.961	-0.070	-0.067
-642.697	-200.000	-0.002	0.202
-641.682	800.000	-0.020	-0.085
-640.668	192.091	-0.149	-0.228
-639.653	-65.856	-0.287	0.117
-638.638	-200.000	0.047	-0.339
-637.624	-200.000	0.021	0.391
-636.609	-175.444	-0.282	-0.008
-635.595	-94.223	0.246	-0.068
-634.580	-85.430	0.082	-0.026
-633.565	-42.081	-0.132	-0.069
-632.551	-36.582	0.204	-0.111
-631.536	-24.555	-0.140	-0.085
-630.522	-30.554	-0.302	-0.174
-629.507	-16.585	-0.167	0.107
-628.492	612.590	0.067	0.170
-627.478	258.573	0.029	0.050
-626.463	27.732	-0.208	0.178
-625.449	4.337	0.102	-0.076
-624.434	-158.036	-0.201	-0.012
-623.419	232.656	-0.081	-0.135
-622.405	-200.000	-0.006	0.120
-621.390	-68.105	-0.229	-0.090
-620.376	-38.753	0.270	-0.144
-619.361	-187.919	0.157	-0.002
-618.346	-30.710	-0.321	-0.184
-617.332	435.233	0.082	0.182
-616.317	-53.059	0.202	-0.094
-615.303	6.664	0.199	0.150
-614.288	-6.268	0.164	-0.113
-613.273	-42.062	0.255	-0.132
-612.259	-200.000	0.012	0.128
-611.244	-200.000	0.047	-0.222
-610.230	-106.771	0.188	0.042
-609.215	-91.783	-0.130	0.037
-608.201	777.228	-0.027	0.074
-607.186	73.907	-0.367	0.390
-606.171	203.812	0.183	-0.286
-605.157	-136.205	-0.330	-0.039
-604.142	404.054	-0.050	-0.106
-603.128	-74.619	0.170	-0.062
-602.113	-60.169	-0.114	-0.049
-601.098	-162.785	-0.305	-0.015
-600.084	-200.000	0.032	0.221
-599.069	246.337	-0.219	-0.373
-598.055	173.477	-0.045	-0.066
-597.040	-8.152	-0.182	-0.124
-596.025	352.415	0.136	-0.273
-595.011	-49.165	0.170	-0.082
-593.996	-52.960	-0.174	0.081
-592.982	39.375	0.053	0.048
-591.967	-200.000	0.001	0.169
-590.952	564.494	0.010	-0.024
-589.938	381.418	-0.086	-0.180
-588.923	170.994	-0.010	0.015
-587.909	-32.231	-0.237	0.134
-586.894	203.487	-0.093	0.146
-585.879	331.406	0.101	0.197
-584.865	800.000	-0.093	-0.344
-583.850	-34.575	0.133	0.074
-582.836	8.436	-0.126	0.096
-581.821	222.753	0.127	0.207
-580.806	402.616	0.036	-0.076
-579.792	-200.000	0.482	-0.001
-578.777	42.228	-0.178	0.164
-577.763	489.085	-0.050	-0.116
-576.748	159.353	0.231	-0.326
-575.733	174.505	-0.091	0.133
-574.719	-200.000	0.014	-0.094
-573.704	283.422	-0.057	-0.104
-572.690	145.520	0.150	-0.203
-571.675	-129.421	0.064	-0.009
-570.661	-200.000	0.003	0.177
-569.646	-176.569	0.236	0.006
-568.631	-200.000	0.066	0.360
-567.617	-200.000	-0.007	-0.171
-566.602	-146.063	-0.165	0.015
-565.588	-160.138	-0.264	-0.014
-564.573	-200.000	-0.032	-0.171
-563.558	10.232	-0.141	-0.108
-562.544	102.815	-0.097	-0.114
-561.529	800.000	-0.012	0.048
-560.515	-42.421	0.091	-0.047
-559.500	-107.399	-0.373	0.083
-558.485	368.612	-0.112	-0.228
-557.471	800.000	-0.030	0.110
-556.456	630.986	0.048	-0.124
-555.442	-24.909	-0.183	-0.110
-554.427	462.829	-0.047	-0.106
-553.412	-39.281	-0.446	0.237
-552.398	-200.000	-0.035	-0.219
-551.383	-142.176	0.100	0.010
-550.369	-0.856	-0.174	-0.125
-549.354	-200.000	0.083	-0.409
-548.339	6.366	0.300	-0.225
-547.325	-110.488	-0.133	-0.028
-546.310	-200.000	0.026	0.468
-545.296	-173.974	0.203	-0.006
-544.281	800.000	-0.033	0.115
-543.266	-161.868	-0.291	0.015
-542.252	-200.000	-0.071	-0.415
-541.237	800.000	-0.127	-0.430
-540.223	-200.000	0.067	-0.306
-539.208	-200.000	-0.004	0.029
-538.193	281.455	0.055	-0.099
-537.179	-200.000	0.024	0.135
-536.164	180.303	0.080	-0.118
-535.150	-47.908	-0.359	0.175
-534.135	-112.053	-0.342	-0.070
-533.121	-109.948	0.119	0.025
-532.106	800.000	-0.038	0.116
-531.091	-145.968	0.326	0.029
-530.077	-89.219	0.235	0.070
-529.062	8.044	-0.123	-0.093
-528.048	28.886	-0.272	-0.232
-527.033	236.066	-0.140	0.234
-526.018	-122.215	-0.332	-0.055
-525.004	-128.947	-0.176	-0.025
-523.989	105.002	0.045	0.053
-522.975	-200.000	0.010	-0.102
-521.960	354.116	-0.063	-0.126
-520.945	83.794	0.149	0.164
-519.931	-200.000	-0.048	-0.239
-518.916	800.000	0.140	-0.461
-517.902	772.731	-0.090	0.248
-516.887	667.156	0.084	0.219
-515.872	451.271	0.178	0.397
-514.858	-183.089	-0.254	-0.005
-513.843	50.942	-0.151	-0.144
-512.829	8.059	-0.210	0.159
-511.814	59.666	-0.016	-0.016
-510.799	244.143	0.207	0.351
-509.785	446.892	-0.075	0.167
-508.770	30.690	0.042	-0.036
-507.756	-200.000	0.005	0.136
-506.741	-25.866	0.374	0.222
-505.726	-16.937	-0.279	-0.177
-504.712	800.000	0.079	-0.245
-503.697	61.089	-0.163	-0.164
-502.683	800.000	0.027	0.085
-501.668	800.000	-0.034	-0.126
-500.653	-124.554	0.340	0.053
-499.639	325.844	-0.141	-0.273
-498.624	185.717	0.062	-0.092
-497.610	800.000	-0.034	0.118
-496.595	101.871	-0.107	0.126
-495.581	42.971	0.274	-0.251
-494.566	-4.450	0.210	-0.146
-493.551	800.000	0.114	0.325
-492.537	258.831	0.141	0.244
-491.522	9.795	-0.188	-0.143
-490.508	328.921	0.072	0.139
-489.493	32.905	-0.272	0.238
-488.478	-60.356	-0.091	0.039
-487.464	-8.243	-0.179	-0.121
-486.449	341.856	-0.162	0.319
-485.435	39.085	0.040	-0.036
-484.420	800.000	-0.100	0.296
-483.405	800.000	0.025	0.090
-482.391	62.814	0.195	-0.197
-481.376	-109.564	0.191	0.041
-480.362	108.171	0.172	0.207
-479.347	-17.670	0.072	0.045
-478.332	-111.074	0.032	0.007
-477.318	-94.351	-0.190	-0.052
-476.303	86.855	0.265	-0.295
-475.289	-200.000	-0.036	-0.418
-474.274	293.633	0.123	0.226
-473.259	-39.621	0.368	-0.194
-472.245	800.000	-0.051	0.189
-471.230	-129.384	-0.326	0.046
-470.216	-165.366	-0.321	-0.014
-469.201	-112.663	0.212	0.043
-468.186	-41.583	0.175	0.091
-467.172	800.000	0.100	0.388
-466.157	-16.981	-0.159	-0.101
-465.143	34.349	-0.215	-0.189
-464.128	44.411	-0.136	0.125
-463.113	-200.000	-0.001	0.185
-462.099	800.000	-0.024	-0.069
-461.084	-153.657	0.056	0.004
-460.070	800.000	-0.089	-0.280
-459.055	16.906	0.183	0.146
-458.040	-200.000	0.003	-0.118
-457.026	-73.697	-0.118	-0.043
-456.011	-111.643	0.230	0.047
-454.997	288.020	-0.120	-0.218
-453.982	-62.899	0.020	0.009
-452.968	-30.092	0.172	0.099
-451.953	130.562	0.067	0.086
-450.938	-8.242	-0.202	0.137
-449.924	-200.000	-0.087	0.411
-448.909	161.634	0.329	0.464
-447.895	183.915	-0.133	0.197
-446.880	-100.893	0.155	-0.038
-445.865	-62.504	-0.334	0.139
-444.851	234.399	0.162	-0.269
-443.836	-32.039	-0.127	-0.072
-442.822	-59.491	0.100	0.043
-441.807	147.258	0.086	-0.117
-440.792	-86.012	-0.210	0.065
-439.778	-31.903	0.271	-0.153
-438.763	-62.949	0.190	-0.079
-437.749	475.535	-0.032	-0.073
-436.734	-166.543	0.318	-0.013
-435.719	252.881	-0.089	0.152
-434.705	28.462	-0.122	-0.103
-433.690	88.045	-0.058	-0.065
-432.676	-200.000	-0.023	-0.230
-431.661	-39.477	-0.177	0.093
-430.646	92.953	-0.112	-0.127
-429.632	339.312	0.141	0.277
-428.617	-123.981	0.420	0.066
-427.603	143.969	0.116	0.155
-426.588	736.175	-0.105	-0.282
-425.573	230.232	0.046	0.076
-424.559	84.986	0.196	-0.216
-423.544	800.000	0.024	-0.072
-422.530	-28.185	-0.176	0.102
-421.515	567.417	-0.206	-0.502
-420.500	800.000	-0.107	0.327
-419.486	-152.197	0.211	-0.015
-418.471	267.614	-0.234	-0.412
-417.457	118.768	-0.140	-0.173
-416.442	-200.000	0.024	0.126
-415.428	222.687	-0.201	-0.325
-414.413	323.716	0.146	-0.281
-413.398	-186.237	-0.230	-0.003
-412.384	117.685	0.134	0.165
-411.369	-200.000	0.030	-0.154
-410.355	-166.951	0.129	-0.005
-409.340	59.204	0.352	0.349
-408.325	-56.192	0.046	-0.021
-407.311	341.497	-0.081	0.160
-406.296	-30.893	0.327	0.186
-405.282	500.525	0.103	0.239
-404.267	800.000	0.035	-0.140
-403.252	-45.719	-0.142	0.070
-402.238	-51.164	0.185	-0.087
-401.223	-35.229	0.356	0.195
-400.209	800.000	0.015	0.046
-399.194	44.876	-0.207	-0.192
-398.179	800.000	0.049	0.188
-397.165	13.648	0.265	-0.207
-396.150	-66.763	-0.038	0.015
-395.136	-200.000	0.017	0.261
-394.121	106.935	0.128	0.153
-393.106	-2.557	0.123	0.086
-392.092	197.873	-0.098	-0.151
-391.077	800.000	-0.020	0.067
-390.063	-57.621	-0.048	-0.021
-389.048	-89.009	-0.120	-0.036
-388.033	-98.674	-0.261	-0.067
-387.019	332.779	0.072	0.139
-386.004	-166.002	-0.236	0.010
-384.990	85.856	-0.093	-0.103
-383.975	-124.621	0.262	0.041
-382.960	715.309	0.030	0.081
-381.946	-200.000	0.036	-0.327
-380.931	-69.027	0.397	-0.154
-379.917	61.249	0.132	0.132
-378.902	-80.174	0.362	0.122
-377.888	-154.220	-0.162	0.011
-376.873	-106.753	-0.159	0.036
-375.858	-200.000	-0.011	0.115
-374.844	369.139	-0.146	0.296
-373.829	800.000	0.015	0.048
-372.815	-101.067	-0.059	0.015
-371.800	-107.044	-0.446	-0.099
-370.785	-179.651	-0.227	0.005
-369.771	705.867	0.083	-0.221
-368.756	-154.240	-0.290	0.020
-367.742	-23.908	0.051	-0.031
-366.727	-200.000	0.003	0.070
-365.712	117.461	0.010	0.013
-364.698	800.000	-0.025	-0.071
-363.683	-89.588	-0.059	-0.017
-362.669	-97.998	-0.362	0.093
-361.654	-42.357	0.347	0.178
-360.639	-74.672	-0.101	-0.036
-359.625	127.645	-0.296	-0.377
-358.610	-138.717	-0.202	0.022
-357.596	800.000	0.062	0.222
-356.581	-200.000	0.000	0.008
-355.566	19.940	-0.216	0.175
-354.552	48.853	0.146	-0.138
-353.537	39.123	0.191	-0.171
-352.523	-200.000	-0.001	-0.280
-351.508	-53.212	-0.349	-0.161
-350.493	94.201	-0.145	-0.165
-349.479	800.000	0.054	0.207
-348.464	622.423	0.151	0.380
-347.450	-200.000	-0.013	0.059
-346.435	53.070	0.196	0.188
-345.420	-200.000	-0.002	-0.101
-344.406	-122.877	0.168	-0.027
-343.391	-33.241	-0.069	-0.038
-342.377	-50.702	0.103	0.049
-341.362	-150.666	-0.284	0.022
-340.348	551.085	-0.091	-0.219
-339.333	265.744	-0.078	0.136
-338.318	-200.000	-0.093	-0.556
-337.304	0.199	-0.258	-0.184
-336.289	-200.000	0.055	0.324
-335.275	-200.000	-0.007	-0.437
-334.260	309.262	0.059	0.110
-333.245	-200.000	0.063	0.294
-332.231	-38.110	0.021	0.011
-331.216	-200.000	0.036	0.216
-330.202	770.250	-0.068	0.185
-329.187	-135.045	0.296	-0.036
-328.172	249.881	-0.179	-0.304
-327.158	14.621	0.143	0.112
-326.143	179.585	0.219	0.322
-325.129	360.171	-0.139	0.278
-324.114	-43.199	-0.257	0.130
-323.099	-14.352	0.372	0.240
-322.085	-118.107	-0.268	-0.048
-321.070	57.910	0.116	0.113
-320.056	800.000	0.061	-0.207
-319.041	-16.972	0.402	0.254
-318.026	-200.000	-0.002	0.215
-317.012	34.817	-0.329	0.288
-315.997	-200.000	-0.045	-0.349
-314.983	800.000	0.070	-0.240
-313.968	-71.181	0.013	0.005
-312.953	-65.353	0.285	-0.115
-311.939	-148.292	-0.177	-0.015
-310.924	800.000	-0.070	0.207
-309.910	722.512	-0.066	0.177
-308.895	-200.000	-0.032	-0.154
-307.880	-15.118	-0.189	-0.121
-306.866	223.501	0.066	0.107
-305.851	-7.291	-0.160	-0.109
-304.837	-102.183	-0.143	0.034
-303.822	111.633	0.226	0.272
-302.807	-108.750	0.230	0.049
-301.793	-25.765	0.437	-0.258
-300.778	36.669	-0.281	-0.249
-299.764	60.426	0.128	-0.127
-298.749	256.814	-0.054	-0.092
-297.735	-200.000	0.003	0.048
-296.720	708.161	-0.044	-0.117
-295.705	-83.410	0.456	-0.146
-294.691	-200.000	0.002	0.094
-293.676	800.000	0.063	-0.178
-292.662	-86.061	0.448	-0.138
-291.647	-200.000	-0.001	0.155
-290.632	79.054	-0.061	-0.066
-289.618	30.360	-0.214	-0.183
-288.603	800.000	-0.052	-0.194
-287.589	176.644	0.118	-0.172
-286.574	-120.355	0.130	0.022
-285.559	64.246	-0.231	-0.232
-284.545	-148.498	0.332	0.027
-283.530	233.051	-0.072	-0.118
-282.516	-29.396	-0.111	-0.064
-281.501	397.424	-0.076	-0.159
-280.486	159.002	0.133	-0.185
-279.472	178.254	0.141	-0.205
-278.457	-57.916	0.106	0.046
-277.443	-26.791	0.192	-0.112
-276.428	-200.000	0.220	0.001
-275.413	-200.000	0.053	0.294
-274.399	-59.281	-0.373	-0.161
-273.384	-112.923	-0.425	-0.084
-272.370	204.734	-0.121	-0.188
-271.355	-200.000	-0.077	-0.348
-270.340	-123.718	-0.240	-0.038
-269.326	197.074	-0.074	0.114
-268.311	-131.071	0.278	0.037
-267.297	602.009	-0.084	-0.208
-266.282	-45.007	0.053	-0.026
-265.267	232.552	-0.189	0.310
-264.253	470.090	-0.059	-0.132
-263.238	-22.648	0.163	-0.098
-262.224	2.385	0.083	0.060
-261.209	800.000	-0.168	0.526
-260.195	38.085	0.126	-0.112
-259.180	48.032	0.282	-0.264
-258.165	244.708	0.176	-0.296
-257.151	247.513	0.135	0.228
-256.136	-70.212	0.075	-0.028
-255.122	-51.937	0.416	-0.193
-254.107	-4.770	-0.053	0.036
-253.092	314.591	-0.068	-0.128
-252.078	-200.000	0.008	0.161
-251.063	-12.043	0.134	-0.088
-250.049	-155.080	-0.315	-0.021
-249.034	-136.608	-0.192	0.022
-248.019	-200.000	-0.025	0.174
-247.005	178.919	0.127	0.185
-245.990	-77.262	0.232	-0.081
-244.976	-84.249	0.169	-0.053
-243.961	-200.000	-0.055	0.386
-242.946	30.031	0.536	-0.456
-241.932	-128.570	-0.164	0.023
-240.917	407.844	0.100	0.211
-239.903	-30.003	0.405	0.230
-238.888	-35.950	-0.086	-0.046
-237.873	336.983	0.078	0.152
-236.859	-26.604	-0.090	0.053
-235.844	36.692	0.149	-0.131
-234.830	119.975	-0.172	-0.213
-233.815	-52.608	0.124	0.057
-232.800	-34.401	-0.261	-0.143
-231.786	66.786	-0.064	0.065
-230.771	-85.573	0.251	0.078
-229.757	800.000	-0.030	0.098
-228.742	479.735	-0.064	-0.144
-227.727	25.399	0.182	0.151
-226.713	234.250	-0.107	-0.176
-225.698	-200.000	0.020	0.174
-224.684	200.196	0.166	0.255
-223.669	-24.082	-0.104	0.062
-222.655	-139.794	0.393	0.042
-221.640	81.145	0.131	-0.141
-220.625	-200.000	-0.005	-0.275
-219.611	84.678	-0.212	0.232
-218.596	7.891	0.159	-0.119
-217.582	-32.706	0.174	-0.097
-216.567	-43.709	-0.450	0.226
-215.552	-200.000	0.011	0.320
-214.538	205.109	0.039	0.060
-213.523	-200.000	-0.030	0.308
-212.509	184.530	-0.011	-0.016
-211.494	800.000	-0.056	-0.158
-210.479	368.484	-0.253	-0.510
-209.465	-95.128	-0.246	-0.066
-208.450	88.857	0.175	0.194
-207.436	36.076	-0.074	0.065
-206.421	-36.172	-0.268	-0.144
-205.406	-158.143	-0.259	-0.015
-204.392	-200.000	-0.042	0.294
-203.377	800.000	-0.069	0.238
-202.363	415.174	-0.073	0.155
-201.348	41.726	0.344	0.311
-200.333	-99.100	-0.275	0.069
-199.319	97.335	-0.146	-0.167
-198.304	131.041	0.238	0.305
-197.290	723.594	0.088	-0.233
-196.275	-200.000	-0.010	0.059
-195.260	800.000	-0.041	0.149
-194.246	485.997	-0.069	-0.157
-193.231	-88.037	-0.217	-0.065
-192.217	566.096	-0.069	0.166
-191.202	-159.541	-0.209	0.012
-190.187	-133.607	0.290	0.036
-189.173	-200.000	0.006	0.142
-188.158	429.714	-0.132	0.285
-187.144	256.759	-0.026	0.045
-186.129	-90.416	0.377	0.109
-185.114	57.750	0.037	0.036
-184.100	-63.348	-0.235	-0.096
-183.085	-175.246	-0.426	-0.012
-182.071	-200.000	-0.065	0.336
-181.056	-200.000	-0.021	0.278
-180.042	-46.628	-0.049	-0.024
-179.027	276.428	0.077	0.136
-178.012	37.991	0.156	0.138
-176.998	-170.617	0.150	-0.005
-175.983	-156.846	-0.163	0.010
-174.969	-200.000	0.010	0.213
-173.954	800.000	-0.050	-0.165
-172.939	-86.863	0.290	0.088
-171.925	520.855	0.082	-0.192
-170.910	-144.806	0.297	-0.027
-169.896	27.735	0.094	0.079
-168.881	-97.395	0.146	0.038
-167.866	-63.818	-0.109	0.045
-166.852	109.788	0.176	0.210
-165.837	-129.669	0.053	0.007
-164.823	62.694	0.146	-0.145
-163.808	8.957	-0.042	0.032
-162.793	-84.768	0.463	0.145
-161.779	98.614	0.204	-0.235
-160.764	188.246	0.104	0.155
-159.750	-111.643	-0.293	0.059
-158.735	-18.459	-0.264	0.164
-157.720	-146.095	0.100	0.009
-156.706	67.656	-0.157	-0.160
-155.691	800.000	0.041	0.113
-154.677	-74.584	0.064	-0.023
-153.662	-126.683	0.142	-0.021
-152.647	26.385	0.161	0.134
-151.633	-200.000	-0.064	-0.289
-150.618	-93.733	0.160	0.044
-149.604	35.774	-0.074	-0.065
-148.589	15.423	-0.046	0.036
-147.574	-125.590	0.230	0.035
-146.560	800.000	-0.221	-0.688
-145.545	-125.465	-0.187	-0.028
-144.531	-166.365	-0.422	-0.018
-143.516	168.043	0.093	-0.131
-142.502	-200.000	-0.005	0.143
-141.487	34.081	-0.180	0.156
-140.472	159.387	0.149	0.206
-139.458	-200.000	0.034	-0.303
-138.443	-117.524	0.307	0.055
-137.429	334.434	0.262	0.504
-136.414	0.976	0.338	0.241
-135.399	1.603	0.189	0.135
-134.385	-37.266	-0.028	0.015
-133.370	-200.000	-0.100	0.560
-132.356	-73.619	-0.145	0.053
-131.341	279.066	0.159	0.282
-130.326	52.075	0.145	-0.137
-129.312	-96.290	0.267	0.070
-128.297	440.526	-0.048	0.103
-127.283	-30.290	-0.186	0.105
-126.268	800.000	-0.087	-0.240
-125.253	-80.912	-0.173	-0.057
-124.239	-114.469	-0.388	-0.074
-123.224	-200.000	0.055	-0.451
-122.210	-52.820	0.119	-0.055
-121.195	391.360	0.058	0.120
