DTS Sentinel unit serial number:	SN413079Multiplexer serial number:	ORYXHardware model number:	OX4-SRSoftware version number:	ORYX F/W v4.00 Oryx Data Collector v3.7.2.0data status	okinstallation	princeton_trtdifferential loss correction	single-endedforward channel	channel 3reverse channel	N/Adate	2019/09/14time	07:28:35forward acquisition time	60.00reverse acquisition time	0.00gamma	496.2192k internal	0.2339k external	0.2339temperature offset calibration	1.0059default loss term (dB/km)	0.3790temperature slope calibration	1.0000multiplexer offset coefficient	1.0000multiplexer slope coefficient	1.0000fibre end	0.00T internal ref (°C)	26.19T ext. ref 1 (°C)	3.46T ext. ref 2 (°C)	21.12length (m)	temperature (°C)	Stokes	anti-Stokes-747.200	538.975	-0.068	0.163
-746.185	331.445	-0.149	0.289
-745.171	800.000	-0.115	0.475
-744.156	-200.000	0.007	0.266
-743.142	66.204	0.089	0.090
-742.127	-64.914	-0.246	0.100
-741.112	-200.000	0.051	-0.336
-740.098	-200.000	0.036	0.190
-739.083	-144.234	0.218	0.020
-738.069	36.277	0.274	0.242
-737.054	-34.161	0.232	0.128
-736.039	273.631	0.048	0.085
-735.025	22.512	0.275	0.225
-734.010	55.102	-0.263	-0.255
-732.996	69.881	0.363	-0.375
-731.981	-102.969	-0.081	-0.019
-730.966	800.000	-0.066	0.225
-729.952	-11.466	-0.059	-0.039
-728.937	800.000	0.021	-0.068
-727.923	-41.679	0.145	-0.075
-726.908	-56.067	0.221	-0.099
-725.894	800.000	-0.043	0.143
-724.879	-78.894	0.087	0.030
-723.864	-77.072	0.183	0.064
-722.850	65.804	0.111	-0.113
-721.835	-13.068	-0.144	0.094
-720.821	65.158	-0.191	0.194
-719.806	32.406	0.439	-0.380
-718.791	-200.000	0.001	-0.198
-717.777	12.070	-0.132	-0.102
-716.762	98.628	-0.123	-0.142
-715.748	-21.862	0.215	0.131
-714.733	-106.063	-0.074	0.017
-713.718	34.145	-0.094	-0.082
-712.704	-186.583	0.302	-0.004
-711.689	47.699	0.211	-0.197
-710.675	-85.803	-0.261	0.081
-709.660	-69.990	-0.129	-0.049
-708.645	-200.000	0.083	0.372
-707.631	-20.980	0.147	-0.090
-706.616	75.476	-0.235	-0.248
-705.602	343.226	-0.045	-0.087
-704.587	-114.989	0.497	-0.095
-703.572	-200.000	0.012	-0.313
-702.558	800.000	0.072	-0.284
-701.543	800.000	-0.088	-0.325
-700.529	82.725	0.142	0.154
-699.514	-101.709	0.350	0.085
-698.499	65.426	0.122	-0.123
-697.485	1.165	0.087	-0.062
-696.470	-158.057	-0.424	-0.025
-695.456	800.000	0.090	0.271
-694.441	88.731	0.071	0.079
-693.426	-114.218	-0.127	-0.025
-692.412	266.982	0.073	-0.128
-691.397	-115.107	-0.219	-0.042
-690.383	800.000	-0.078	-0.245
-689.368	-107.669	0.249	0.054
-688.354	229.431	0.079	0.129
-687.339	88.687	-0.155	0.173
-686.324	-46.606	-0.308	0.151
-685.310	-131.926	0.083	-0.011
-684.295	-48.551	-0.283	0.136
-683.281	72.530	-0.183	-0.191
-682.266	-57.297	0.163	-0.072
-681.251	9.324	-0.131	0.099
-680.237	-48.660	-0.052	0.025
-679.222	-164.747	-0.318	0.014
-678.208	-26.433	-0.233	-0.136
-677.193	-87.068	0.098	0.030
-676.178	-45.480	0.358	0.177
-675.164	800.000	-0.056	-0.192
-674.149	-107.386	-0.184	-0.041
-673.135	-200.000	-0.032	-0.279
-672.120	121.360	-0.174	0.216
-671.105	3.822	0.045	0.033
-670.091	253.671	0.073	-0.125
-669.076	26.556	0.165	-0.138
-668.062	79.918	-0.039	0.041
-667.047	800.000	0.020	0.068
-666.032	-200.000	-0.000	0.183
-665.018	-91.448	0.285	0.081
-664.003	15.128	0.326	0.255
-662.989	65.341	-0.045	-0.046
-661.974	-89.569	0.145	0.043
-660.959	-72.516	0.296	0.109
-659.945	-168.202	0.073	0.003
-658.930	-200.000	0.059	-0.263
-657.916	-23.678	-0.175	0.105
-656.901	123.320	0.128	0.161
-655.886	112.540	-0.155	-0.188
-654.872	57.310	0.307	-0.299
-653.857	-144.242	0.121	0.011
-652.843	103.271	-0.039	0.045
-651.828	-157.685	-0.287	0.017
-650.814	-165.253	-0.326	0.014
-649.799	800.000	0.076	0.217
-648.784	274.428	0.128	0.227
-647.770	44.176	-0.181	0.166
-646.755	800.000	-0.057	-0.182
-645.741	-68.041	-0.144	-0.056
-644.726	102.340	-0.222	-0.259
-643.711	-72.358	-0.252	0.093
-642.697	-200.000	-0.015	-0.294
-641.682	-165.548	0.089	0.004
-640.668	105.663	-0.050	-0.059
-639.653	-111.436	0.037	0.007
-638.638	-200.000	0.005	0.232
-637.624	-194.570	0.186	-0.001
-636.609	201.679	0.192	-0.296
-635.595	504.270	-0.162	-0.374
-634.580	375.887	0.074	-0.150
-633.565	307.192	-0.115	0.215
-632.551	52.390	-0.042	0.040
-631.536	-200.000	0.064	0.307
-630.522	-200.000	0.038	-0.356
-629.507	-200.000	-0.005	-0.215
-628.492	800.000	-0.037	-0.111
-627.478	102.536	0.197	0.230
-626.463	558.282	0.039	0.093
-625.449	800.000	-0.053	0.177
-624.434	800.000	0.045	-0.147
-623.419	460.074	0.102	-0.227
-622.405	800.000	0.165	0.472
-621.390	-200.000	0.030	0.130
-620.376	-200.000	-0.003	0.137
-619.361	800.000	-0.012	-0.050
-618.346	193.045	0.132	-0.199
-617.332	152.082	0.207	-0.282
-616.317	-200.000	0.011	-0.275
-615.303	-27.451	-0.222	0.129
-614.288	-84.786	0.041	0.013
-613.273	-125.208	0.303	0.046
-612.259	-61.035	0.307	-0.129
-611.244	-200.000	0.005	0.023
-610.230	407.131	-0.053	-0.112
-609.215	800.000	-0.043	0.156
-608.201	-95.363	-0.138	-0.037
-607.186	107.751	-0.176	0.210
-606.171	12.980	-0.109	0.084
-605.157	151.904	-0.143	-0.194
-604.142	40.814	-0.090	-0.081
-603.128	-99.347	-0.361	0.091
-602.113	-15.789	0.243	-0.154
-601.098	-7.288	-0.265	-0.179
-600.084	-92.438	-0.163	-0.046
-599.069	800.000	-0.064	0.188
-598.055	-119.536	0.143	-0.025
-597.040	563.670	-0.070	0.169
-596.025	-61.215	0.195	-0.082
-595.011	-200.000	-0.010	-0.133
-593.996	189.451	0.105	0.157
-592.982	-6.983	0.284	0.192
-591.967	800.000	0.063	-0.216
-590.952	3.542	-0.031	-0.023
-589.938	-6.402	0.201	-0.136
-588.923	-200.000	0.028	0.129
-587.909	-86.082	-0.044	-0.014
-586.894	-63.947	0.374	-0.152
-585.879	119.455	-0.125	0.155
-584.865	461.022	0.042	-0.094
-583.850	-109.627	-0.255	0.054
-582.836	800.000	-0.025	0.075
-581.821	-200.000	0.008	-0.142
-580.806	61.086	0.102	-0.101
-579.792	-129.148	0.163	-0.023
-578.777	80.478	-0.100	0.107
-577.763	-200.000	-0.000	-0.193
-576.748	-60.115	0.123	-0.052
-575.733	122.916	-0.247	-0.308
-574.719	-94.871	0.308	0.083
-573.704	-162.877	0.075	-0.004
-572.690	-72.493	-0.078	-0.029
-571.675	124.297	-0.120	0.150
-570.661	-123.088	0.083	-0.013
-569.646	800.000	0.069	-0.234
-568.631	-92.658	0.284	-0.079
-567.617	-200.000	0.005	-0.230
-566.602	51.880	0.258	-0.245
-565.588	26.120	-0.087	0.072
-564.573	-61.190	-0.203	0.085
-563.558	-73.332	-0.248	0.090
-562.544	-20.625	0.224	-0.137
-561.529	-92.864	-0.354	0.099
-560.515	295.871	0.184	-0.336
-559.500	-24.508	0.346	-0.205
-558.485	-35.781	-0.168	-0.091
-557.471	-200.000	-0.017	-0.119
-556.456	9.444	-0.162	-0.122
-555.442	37.908	0.145	-0.128
-554.427	800.000	0.120	-0.431
-553.412	150.621	0.007	0.009
-552.398	-32.941	0.401	-0.222
-551.383	-43.982	0.192	-0.096
-550.369	-89.780	-0.081	0.023
-549.354	-200.000	-0.021	-0.124
-548.339	-200.000	-0.041	0.207
-547.325	49.531	0.105	-0.098
-546.310	-3.822	0.190	0.131
-545.296	-118.799	-0.190	0.033
-544.281	-200.000	-0.003	-0.069
-543.266	-131.013	-0.605	-0.080
-542.252	-200.000	-0.045	0.285
-541.237	-49.428	-0.296	-0.141
-540.223	-200.000	0.008	-0.379
-539.208	16.564	0.151	-0.119
-538.193	212.673	0.071	0.111
-537.179	-82.146	-0.339	0.110
-536.164	352.635	-0.260	-0.513
-535.150	800.000	0.053	-0.219
-534.135	67.778	0.203	0.206
-533.121	29.217	-0.010	-0.009
-532.106	155.279	-0.082	0.112
-531.091	-56.422	0.120	0.053
-530.077	228.632	-0.258	-0.417
-529.062	114.677	0.178	0.216
-528.048	-92.797	-0.303	0.084
-527.033	2.509	0.073	0.052
-526.018	-112.000	-0.210	0.042
-525.004	-147.786	0.345	0.029
-523.989	237.261	0.057	-0.094
-522.975	-161.832	0.333	-0.017
-521.960	-58.911	-0.082	0.035
-520.945	205.901	-0.085	-0.132
-519.931	627.410	0.035	0.087
-518.916	-57.336	-0.335	0.147
-517.902	-106.325	0.258	-0.057
-516.887	44.992	-0.348	0.319
-515.872	-23.003	-0.283	0.169
-514.858	-200.000	-0.004	0.374
-513.843	800.000	-0.094	-0.315
-512.829	-25.605	0.114	-0.067
-511.814	74.256	-0.038	-0.039
-510.799	-71.996	-0.073	-0.027
-509.785	-165.301	0.241	0.011
-508.770	-200.000	-0.001	-0.012
-507.756	40.438	-0.182	-0.162
-506.741	-79.476	-0.235	0.079
-505.726	-39.980	-0.123	0.064
-504.712	-34.075	0.271	-0.148
-503.697	-20.966	-0.089	0.054
-502.683	-85.303	0.064	0.020
-501.668	33.839	-0.024	0.021
-500.653	381.158	-0.087	0.177
-499.639	-200.000	0.006	0.308
-498.624	-43.695	0.507	0.254
-497.610	-21.753	0.225	0.136
-496.595	-166.499	-0.055	-0.002
-495.581	-118.033	-0.052	0.009
-494.566	-200.000	0.032	0.172
-493.551	2.109	-0.267	0.191
-492.537	576.456	0.069	0.169
-491.522	-65.864	-0.083	0.033
-490.508	207.926	0.252	0.391
-489.493	-29.678	-0.172	-0.098
-488.478	-200.000	-0.023	-0.144
-487.464	199.605	-0.339	-0.516
-486.449	220.198	0.120	0.191
-485.435	-71.401	0.144	0.054
-484.420	-121.385	0.065	0.011
-483.405	-200.000	0.030	0.138
-482.391	-88.617	0.146	-0.043
-481.376	170.289	0.156	0.222
-480.362	800.000	-0.089	0.290
-479.347	244.617	-0.023	0.039
-478.332	59.044	0.168	-0.164
-477.318	-34.310	-0.337	0.184
-476.303	165.749	0.215	-0.302
-475.289	-108.868	0.015	-0.003
-474.274	-67.143	0.271	0.106
-473.259	800.000	0.057	-0.163
-472.245	1.824	0.247	-0.177
-471.230	-88.923	-0.106	-0.031
-470.216	800.000	0.063	0.197
-469.201	-18.555	0.358	-0.221
-468.186	140.114	0.236	0.309
-467.172	-99.874	0.087	-0.022
-466.157	-54.138	0.268	0.121
-465.143	-200.000	-0.011	0.053
-464.128	369.570	0.042	-0.084
-463.113	-137.592	0.095	-0.011
-462.099	-30.053	-0.281	-0.159
-461.084	68.516	0.138	0.141
-460.070	800.000	0.096	-0.291
-459.055	-2.363	0.066	-0.046
-458.040	190.842	-0.061	-0.090
-457.026	-41.129	-0.231	-0.118
-456.011	-44.394	0.208	0.103
-454.997	-200.000	0.035	0.314
-453.982	393.070	-0.091	0.188
-452.968	94.329	-0.052	-0.059
-451.953	-59.987	-0.372	0.157
-450.938	-73.256	0.429	-0.156
-449.924	-11.978	0.125	-0.081
-448.909	-49.659	0.205	-0.097
-447.895	49.246	-0.212	0.198
-446.880	-20.808	-0.265	0.161
-445.865	-38.678	-0.173	0.091
-444.851	-200.000	0.040	-0.360
-443.836	60.498	0.045	-0.044
-442.822	-131.529	0.484	-0.063
-441.807	-71.993	-0.100	0.037
-440.792	-131.056	-0.084	-0.011
-439.778	59.330	-0.097	-0.095
-438.763	144.347	-0.178	0.235
-437.749	-200.000	0.021	0.125
-436.734	800.000	0.102	-0.287
-435.719	398.555	-0.114	0.236
-434.705	-200.000	0.019	-0.191
-433.690	113.508	-0.102	-0.123
-432.676	-89.265	0.331	-0.097
-431.661	-59.952	-0.339	0.143
-430.646	38.681	0.321	0.284
-429.632	-200.000	-0.002	-0.065
-428.617	800.000	-0.066	-0.206
-427.603	-119.720	-0.291	0.050
-426.588	315.889	0.093	-0.173
-425.573	192.448	0.173	0.258
-424.559	-50.339	-0.391	0.183
-423.544	-121.372	-0.156	0.026
-422.530	-37.002	-0.117	0.062
-421.515	68.266	-0.193	0.196
-420.500	529.413	0.083	-0.193
-419.486	677.248	0.010	-0.025
-418.471	516.693	0.125	-0.290
-417.457	151.767	0.068	-0.091
-416.442	-191.506	0.404	0.004
-415.428	-200.000	-0.289	0.001
-414.413	-178.237	0.127	-0.003
-413.398	217.709	0.051	0.081
-412.384	79.323	0.137	-0.146
-411.369	-200.000	-0.038	0.339
-410.355	77.500	-0.142	-0.150
-409.340	-102.802	0.117	-0.028
-408.325	292.613	0.168	-0.303
-407.311	-76.541	0.110	0.038
-406.296	134.592	-0.027	0.034
-405.282	-97.343	-0.302	-0.078
-404.267	-61.163	-0.260	0.109
-403.252	-130.853	0.127	-0.017
-402.238	-200.000	0.001	-0.223
-401.223	0.768	0.237	-0.168
-400.209	-64.969	-0.310	-0.124
-399.194	-131.942	0.258	0.033
-398.179	-150.285	-0.171	-0.013
-397.165	340.063	-0.141	0.271
-396.150	-143.143	0.212	-0.020
-395.136	90.856	-0.215	-0.238
-394.121	130.568	0.281	-0.356
-393.106	548.496	-0.050	-0.119
-392.092	222.949	-0.067	0.107
-391.077	-40.001	0.204	-0.105
-390.063	-146.472	0.427	0.037
-389.048	457.354	0.154	-0.338
-388.033	637.673	0.110	-0.277
-387.019	18.740	0.092	-0.073
-386.004	23.663	-0.273	0.222
-384.990	-11.550	0.276	0.179
-383.975	-56.241	0.349	-0.154
-382.960	-13.655	-0.167	-0.107
-381.946	-200.000	0.022	-0.250
-380.931	-200.000	-0.029	-0.139
-379.917	-32.331	0.188	0.103
-378.902	-97.862	-0.202	0.052
-377.888	37.319	-0.141	-0.124
-376.873	800.000	-0.101	-0.280
-375.858	-15.608	0.055	-0.035
-374.844	74.364	-0.094	-0.097
-373.829	-200.000	0.004	0.034
-372.815	-39.310	0.201	-0.104
-371.800	800.000	0.049	0.199
-370.785	-144.560	-0.298	-0.027
-369.771	62.356	-0.108	0.106
-368.756	112.196	-0.083	-0.099
-367.742	300.838	-0.090	-0.164
-366.727	-45.042	0.222	0.109
-365.712	800.000	0.167	-0.466
-364.698	-63.225	0.361	0.147
-363.683	-94.983	-0.284	-0.076
-362.669	-200.000	-0.072	-0.349
-361.654	-142.456	-0.160	-0.016
-360.639	-200.000	-0.018	-0.307
-359.625	800.000	0.046	0.158
-358.610	580.119	-0.070	0.169
-357.596	-55.483	-0.030	-0.013
-356.581	-200.000	-0.042	0.229
-355.566	-92.181	-0.245	0.068
-354.552	-66.295	0.047	-0.019
-353.537	491.610	0.117	0.265
-352.523	258.780	0.110	0.187
-351.508	-77.934	0.170	0.058
-350.493	-29.050	0.171	-0.097
-349.479	108.495	-0.277	0.326
-348.464	-173.657	-0.098	-0.003
-347.450	-139.541	-0.336	0.035
-346.435	-109.731	-0.070	-0.014
-345.420	-13.421	0.135	0.087
-344.406	111.194	0.072	-0.085
-343.391	103.565	-0.040	-0.047
-342.377	-132.926	-0.307	0.039
-341.362	-200.000	-0.033	0.203
-340.348	88.086	-0.146	0.160
-339.333	-200.000	0.003	0.307
-338.318	-127.399	0.134	0.019
-337.304	-200.000	0.026	-0.192
-336.289	-36.264	0.330	-0.176
-335.275	598.092	-0.019	-0.047
-334.260	215.300	0.247	-0.387
-333.245	-200.000	0.005	0.197
-332.231	58.276	-0.162	-0.157
-331.216	-200.000	0.029	-0.265
-330.202	106.202	-0.191	0.224
-329.187	-20.426	0.301	0.183
-328.172	-125.438	-0.226	-0.034
-327.158	-89.774	-0.208	0.060
-326.143	-42.677	0.374	0.188
-325.129	62.034	-0.187	0.184
-324.114	2.660	-0.459	0.328
-323.099	243.233	0.021	-0.034
-322.085	372.108	0.108	-0.216
-321.070	-200.000	-0.091	0.615
-320.056	435.866	0.102	-0.218
-319.041	521.009	-0.097	-0.224
-318.026	156.059	0.126	0.171
-317.012	80.415	0.127	0.135
-315.997	-89.387	-0.349	-0.101
-314.983	241.920	0.061	0.101
-313.968	-8.526	-0.310	0.206
-312.953	-74.796	0.247	-0.087
-311.939	-200.000	0.008	0.216
-310.924	-16.646	0.100	-0.062
-309.910	-78.210	-0.226	-0.077
-308.895	63.434	0.370	-0.366
-307.880	-62.528	-0.010	0.004
-306.866	82.684	-0.195	0.209
-305.851	14.135	0.364	0.280
-304.837	160.981	-0.071	0.098
-303.822	41.954	-0.314	-0.281
-302.807	-65.166	0.227	-0.090
-301.793	-49.953	-0.069	-0.032
-300.778	800.000	0.087	0.304
-299.764	134.759	-0.180	0.230
-298.749	-74.965	0.039	-0.014
-297.735	-118.744	-0.147	-0.026
-296.720	-200.000	0.007	-0.134
-295.705	-112.523	-0.192	0.038
-294.691	119.442	-0.121	0.148
-293.676	-200.000	0.041	0.190
-292.662	121.558	-0.188	0.231
-291.647	21.396	0.140	0.112
-290.632	-112.883	-0.274	-0.054
-289.618	-126.989	0.156	0.023
-288.603	-200.000	0.015	0.082
-287.589	264.689	-0.171	-0.293
-286.574	30.928	-0.229	-0.194
-285.559	-153.385	0.016	0.001
-284.545	-75.660	0.199	-0.070
-283.530	-165.014	-0.018	-0.001
-282.516	20.869	0.166	0.133
-281.501	-119.079	-0.100	0.017
-280.486	56.274	0.145	0.139
-279.472	-155.579	0.289	0.018
-278.457	11.614	0.198	-0.150
-277.443	-138.746	0.191	-0.021
-276.428	-178.629	0.111	-0.003
-275.413	-100.749	0.174	0.042
-274.399	-60.307	-0.220	0.092
-273.384	153.299	0.243	0.328
-272.370	175.799	0.127	-0.182
-271.355	206.244	0.075	-0.116
-270.340	393.908	0.182	-0.373
-269.326	745.084	0.128	0.339
-268.311	-200.000	-0.006	-0.121
-267.297	-100.359	-0.129	0.032
-266.282	213.341	0.149	-0.232
-265.267	232.614	0.046	-0.074
-264.253	-95.719	-0.438	-0.115
-263.238	-108.169	-0.123	0.026
-262.224	699.759	-0.031	0.081
-261.209	725.403	0.118	-0.309
-260.195	-200.000	0.014	-0.362
-259.180	-103.442	0.175	-0.040
-258.165	-95.148	-0.115	0.030
-257.151	-168.458	0.361	0.014
-256.136	693.013	-0.107	-0.277
-255.122	-118.127	0.160	0.028
-254.107	199.374	-0.068	-0.102
-253.092	-24.658	-0.074	-0.043
-252.078	-2.543	0.046	0.032
-251.063	-106.970	0.170	0.037
-250.049	248.979	0.113	0.188
-249.034	-135.055	-0.110	0.013
-248.019	-200.000	0.015	0.204
-247.005	800.000	0.074	0.239
-245.990	-200.000	-0.027	-0.240
-244.976	-50.681	0.180	-0.083
-243.961	-129.598	-0.257	-0.035
-242.946	-36.240	0.174	-0.093
-241.932	89.293	-0.137	0.150
-240.917	-130.111	-0.048	0.006
-239.903	402.168	0.062	0.128
-238.888	-79.079	-0.256	0.086
-237.873	71.880	-0.246	0.252
-236.859	40.383	-0.097	0.086
-235.844	-40.780	0.162	0.083
-234.830	-175.664	-0.114	-0.003
-233.815	202.193	0.245	0.372
-232.800	800.000	-0.052	0.190
-231.786	800.000	0.128	0.364
-230.771	181.936	0.137	-0.199
-229.757	81.981	0.148	-0.157
-228.742	-54.486	-0.099	0.044
-227.727	46.914	-0.179	-0.163
-226.713	634.820	0.053	0.133
-225.698	-1.630	0.244	-0.169
-224.684	76.847	-0.150	0.157
-223.669	-69.981	-0.525	0.197
-222.655	-115.711	0.174	-0.032
-221.640	-134.887	-0.235	-0.028
-220.625	31.186	-0.121	0.102
-219.611	414.903	-0.146	0.306
-218.596	56.794	-0.297	-0.284
-217.582	-41.610	0.167	0.084
-216.567	-200.000	0.042	0.380
-215.552	223.545	-0.210	-0.333
-214.538	-21.177	0.182	-0.109
-213.523	465.302	-0.055	0.121
-212.509	694.730	-0.067	0.171
-211.494	800.000	-0.027	0.078
-210.479	-13.952	0.201	-0.127
-209.465	39.659	-0.189	0.166
-208.450	52.787	-0.064	0.060
-207.436	298.233	0.158	0.286
-206.421	-13.379	0.338	-0.216
-205.406	800.000	-0.039	0.115
-204.392	-0.520	0.145	-0.101
-203.377	432.740	-0.041	0.087
-202.363	-200.000	0.065	0.370
-201.348	-146.057	0.171	-0.015
-200.333	-193.096	-0.129	0.001
-199.319	-37.957	-0.198	0.103
-198.304	-4.152	-0.214	-0.145
-197.290	65.493	-0.084	0.084
-196.275	-109.151	-0.202	0.042
-195.260	-124.312	0.085	-0.013
-194.246	709.692	-0.060	-0.157
-193.231	-146.188	-0.093	0.008
-192.217	169.812	0.104	-0.146
-191.202	157.282	0.177	0.241
-190.187	-99.574	0.059	-0.014
-189.173	-200.000	-0.001	-0.130
-188.158	-200.000	0.008	0.336
-187.144	10.000	0.378	-0.282
-186.129	-63.718	-0.496	-0.199
-185.114	-158.630	-0.163	-0.009
-184.100	-39.668	0.158	0.081
-183.085	179.458	-0.089	-0.128
-182.071	-110.700	0.056	0.011
-181.056	345.477	-0.013	-0.026
-180.042	-102.493	0.079	-0.018
-179.027	-178.285	-0.227	0.005
-178.012	-69.100	-0.182	-0.069
-176.998	171.190	-0.167	0.234
-175.983	-200.000	0.003	0.091
-174.969	12.697	0.161	-0.122
-173.954	470.735	-0.145	-0.320
-172.939	800.000	-0.017	-0.047
-171.925	-130.016	-0.197	-0.026
-170.910	-139.002	0.063	-0.007
-169.896	-53.941	0.178	0.080
-168.881	-200.000	0.017	-0.176
-167.866	16.586	-0.307	-0.238
-166.852	225.715	0.132	0.209
-165.837	-95.403	0.137	-0.036
-164.823	210.186	-0.015	0.023
-163.808	800.000	0.092	0.260
-162.793	-200.000	-0.012	0.139
-161.779	-130.555	-0.208	-0.028
-160.764	94.140	0.158	0.176
-159.750	-200.000	-0.007	0.383
-158.735	180.763	-0.073	0.106
-157.720	161.586	-0.211	0.290
-156.706	2.141	-0.252	0.178
-155.691	-130.601	-0.076	-0.010
-154.677	53.825	-0.349	0.328
-153.662	177.664	-0.132	-0.188
-152.647	267.775	-0.036	-0.062
-151.633	122.338	0.063	0.077
-150.618	-93.909	0.069	-0.019
-149.604	800.000	0.124	0.352
-148.589	-179.321	-0.123	-0.003
-147.574	-41.261	0.199	-0.101
-146.560	-15.099	0.209	-0.131
-145.545	-138.134	-0.075	0.008
-144.531	-193.745	0.306	0.003
-143.516	165.622	-0.124	0.172
-142.502	5.647	0.028	0.020
-141.487	-54.000	0.138	-0.061
-140.472	-200.000	0.032	0.282
-139.458	242.374	0.066	-0.108
-138.443	19.174	-0.182	-0.143
-137.429	-36.430	0.199	-0.105
-136.414	40.806	0.092	-0.081
-135.399	800.000	0.052	0.201
-134.385	316.416	0.096	-0.178
-133.370	-172.717	-0.147	-0.005
-132.356	800.000	-0.031	0.098
-131.341	111.005	-0.176	0.207
-130.326	693.632	-0.097	-0.248
-129.312	161.734	-0.177	0.243
-128.297	779.789	0.097	0.258
-127.283	-68.969	0.153	0.058
-126.268	86.577	-0.071	-0.077
-125.253	275.553	0.058	-0.101
-124.239	639.518	-0.067	-0.167
-123.224	54.463	-0.189	0.178
-122.210	-83.948	-0.075	0.023
-121.195	-137.826	-0.255	0.028
-120.180	134.171	0.215	-0.272
