DTS Sentinel unit serial number:	SN413079Multiplexer serial number:	ORYXHardware model number:	OX4-SRSoftware version number:	ORYX F/W v4.00 Oryx Data Collector v3.7.2.0data status	okinstallation	princeton_trtdifferential loss correction	single-endedforward channel	channel 3reverse channel	N/Adate	2019/09/18time	10:36:35forward acquisition time	60.00reverse acquisition time	0.00gamma	496.2192k internal	0.2329k external	0.2329temperature offset calibration	0.9956default loss term (dB/km)	0.3790temperature slope calibration	1.0000multiplexer offset coefficient	1.0000multiplexer slope coefficient	1.0000fibre end	0.00T internal ref (°C)	28.56T ext. ref 1 (°C)	0.36T ext. ref 2 (°C)	25.25length (m)	temperature (°C)	Stokes	anti-Stokes-747.200	-15.065	-0.161	0.104
-746.185	-200.000	0.030	-0.229
-745.171	-123.741	0.135	0.022
-744.156	231.201	-0.069	0.114
-743.142	-32.240	0.233	-0.131
-742.127	-95.611	0.228	0.062
-741.112	15.435	-0.129	-0.102
-740.098	-86.201	0.265	0.082
-739.083	19.315	-0.082	0.067
-738.069	179.016	-0.091	0.134
-737.054	20.240	-0.083	0.067
-736.039	-200.000	-0.051	-0.302
-735.025	216.524	0.185	-0.296
-734.010	-89.771	-0.186	-0.055
-732.996	3.416	-0.248	-0.182
-731.981	606.469	0.104	-0.261
-730.966	800.000	-0.126	-0.410
-729.952	-15.548	-0.157	0.101
-728.937	-35.427	0.339	-0.186
-727.923	249.953	-0.106	0.180
-726.908	27.738	-0.110	0.093
-725.894	-58.000	-0.264	-0.116
-724.879	-19.563	-0.100	0.063
-723.864	114.732	0.071	0.087
-722.850	-88.042	-0.164	0.049
-721.835	52.532	-0.202	0.194
-720.821	4.703	-0.334	-0.247
-719.806	-82.820	-0.258	0.084
-718.791	-25.267	-0.126	-0.075
-717.777	-146.115	-0.369	-0.033
-716.762	-112.538	0.002	-0.000
-715.748	602.299	0.144	-0.359
-714.733	28.321	-0.176	0.150
-713.718	-200.000	-0.041	-0.192
-712.704	-200.000	0.021	-0.181
-711.689	73.863	-0.222	-0.235
-710.675	1.450	-0.205	-0.148
-709.660	-104.812	0.019	0.004
-708.645	765.881	0.027	0.073
-707.631	-71.975	0.160	-0.060
-706.616	32.164	-0.158	-0.137
-705.602	-112.701	-0.198	0.040
-704.587	80.511	-0.268	-0.291
-703.572	142.906	-0.096	0.128
-702.558	267.413	-0.080	-0.142
-701.543	42.525	0.140	0.128
-700.529	67.883	-0.303	-0.311
-699.514	-104.429	-0.395	-0.092
-698.499	16.458	-0.104	0.082
-697.485	-27.304	-0.176	-0.103
-696.470	-200.000	0.013	0.096
-695.456	-64.593	0.375	0.153
-694.441	-56.766	0.108	-0.048
-693.426	131.939	-0.163	0.211
-692.412	-200.000	-0.001	-0.045
-691.397	-37.897	0.181	0.097
-690.383	468.983	0.130	-0.294
-689.368	-6.662	0.096	-0.066
-688.354	198.509	-0.165	-0.254
-687.339	-48.126	-0.453	-0.220
-686.324	-13.962	0.096	-0.062
-685.310	-78.277	-0.138	-0.048
-684.295	-8.489	-0.284	0.192
-683.281	-5.098	-0.117	0.081
-682.266	-122.439	-0.172	-0.028
-681.251	-92.465	-0.209	-0.059
-680.237	76.624	0.211	0.224
-679.222	-112.647	-0.173	0.035
-678.208	800.000	0.083	-0.285
-677.193	800.000	0.068	-0.284
-676.178	-73.512	0.061	-0.022
-675.164	-114.545	-0.275	-0.053
-674.149	51.250	0.220	-0.209
-673.135	26.412	-0.025	0.021
-672.120	235.008	-0.130	-0.216
-671.105	-81.865	-0.254	-0.083
-670.091	-87.448	0.110	0.033
-669.076	205.054	0.251	0.391
-668.062	-188.866	0.121	-0.001
-667.047	-72.360	0.145	0.054
-666.032	-59.690	-0.111	0.048
-665.018	-82.826	0.353	-0.115
-664.003	-97.462	-0.243	-0.063
-662.989	246.159	0.059	-0.099
-661.974	30.651	0.147	-0.127
-660.959	800.000	-0.029	0.108
-659.945	-200.000	0.008	0.388
-658.930	-61.343	0.243	0.103
-657.916	-119.427	0.280	-0.049
-656.901	281.563	0.065	0.116
-655.886	84.017	0.176	-0.193
-654.872	-173.417	-0.170	-0.005
-653.857	-0.241	-0.078	0.056
-652.843	-124.232	-0.469	0.074
-651.828	165.931	-0.137	0.194
-650.814	-22.814	0.389	0.236
-649.799	-138.431	-0.242	-0.027
-648.784	42.103	-0.130	0.119
-647.770	-66.828	0.093	-0.037
-646.755	-160.091	-0.146	-0.008
-645.741	571.114	0.079	-0.194
-644.726	800.000	0.044	0.123
-643.711	-108.461	0.266	-0.058
-642.697	156.719	0.048	-0.066
-641.682	630.903	0.052	-0.133
-640.668	800.000	-0.114	0.407
-639.653	93.757	0.174	0.197
-638.638	-200.000	-0.006	0.154
-637.624	-104.600	-0.240	0.055
-636.609	800.000	0.065	-0.248
-635.595	155.203	-0.058	-0.080
-634.580	-200.000	0.006	-0.044
-633.565	-132.969	0.257	-0.033
-632.551	-77.338	-0.141	0.049
-631.536	762.658	0.027	-0.073
-630.522	218.266	-0.153	0.244
-629.507	-35.990	0.230	-0.125
-628.492	-200.000	-0.036	-0.180
-627.478	-44.592	0.278	0.139
-626.463	-5.177	-0.212	-0.146
-625.449	-0.982	0.239	-0.170
-624.434	-122.986	0.184	0.030
-623.419	-14.373	-0.409	-0.264
-622.405	25.259	0.180	-0.150
-621.390	377.676	0.148	-0.304
-620.376	-28.804	0.045	-0.026
-619.361	-55.751	0.159	-0.071
-618.346	-200.000	-0.018	0.422
-617.332	47.876	0.213	0.200
-616.317	427.775	-0.078	0.168
-615.303	388.898	-0.049	0.101
-614.288	-15.300	0.120	0.077
-613.273	-145.700	-0.075	0.007
-612.259	224.436	-0.116	-0.188
-611.244	-56.659	-0.212	0.094
-610.230	-50.974	-0.178	-0.084
-609.215	373.980	-0.127	-0.259
-608.201	-65.015	-0.080	0.032
-607.186	209.610	0.174	0.273
-606.171	567.463	0.066	-0.160
-605.157	-98.845	0.252	-0.064
-604.142	-73.944	-0.165	-0.060
-603.128	65.133	0.049	-0.050
-602.113	-146.667	-0.067	0.006
-601.098	-200.000	0.007	0.054
-600.084	-25.779	-0.278	-0.164
-599.069	558.424	-0.057	0.137
-598.055	159.177	0.026	-0.037
-597.040	-200.000	-0.020	0.288
-596.025	-76.718	0.134	-0.047
-595.011	204.859	0.177	-0.274
-593.996	452.066	0.056	0.125
-592.982	-173.787	-0.110	-0.003
-591.967	-16.339	-0.069	-0.044
-590.952	-76.286	0.168	0.059
-589.938	-41.784	-0.222	-0.114
-588.923	217.862	0.055	0.089
-587.909	-200.000	-0.016	0.082
-586.894	-66.979	-0.158	-0.062
-585.879	277.413	0.148	0.263
-584.865	-22.222	-0.436	-0.265
-583.850	-125.177	-0.520	-0.080
-582.836	-200.000	-0.111	0.000
-581.821	800.000	0.033	-0.127
-580.806	11.382	-0.174	-0.134
-579.792	-148.875	-0.049	-0.004
-578.777	-200.000	0.013	0.313
-577.763	-43.875	0.124	0.063
-576.748	1.112	-0.250	-0.179
-575.733	-200.000	0.058	0.392
-574.719	-200.000	-0.023	0.213
-573.704	800.000	0.014	-0.041
-572.690	9.915	0.083	0.063
-571.675	3.812	0.179	-0.131
-570.661	-158.995	0.277	0.016
-569.646	108.727	0.253	0.302
-568.631	29.136	0.089	-0.076
-567.617	-12.428	0.223	0.146
-566.602	-26.370	0.046	0.027
-565.588	-148.708	-0.251	-0.020
-564.573	442.907	-0.077	0.169
-563.558	120.900	0.194	-0.241
-562.544	-80.617	-0.148	0.049
-561.529	489.595	-0.097	0.222
-560.515	-167.072	0.131	0.005
-559.500	800.000	-0.072	0.278
-558.485	19.653	0.161	0.130
-557.471	-200.000	0.084	-0.416
-556.456	6.391	-0.106	-0.079
-555.442	-9.178	0.272	-0.182
-554.427	-200.000	0.055	-0.446
-553.412	-100.767	0.246	-0.060
-552.398	800.000	-0.067	0.268
-551.383	-14.684	-0.211	0.136
-550.369	12.737	0.258	-0.200
-549.354	800.000	0.056	0.221
-548.339	800.000	-0.053	-0.158
-547.325	-200.000	0.017	-0.150
-546.310	-70.125	0.311	0.118
-545.296	-10.308	-0.429	-0.284
-544.281	-22.136	-0.134	0.081
-543.266	-200.000	0.028	-0.341
-542.252	-200.000	0.227	-0.000
-541.237	113.289	-0.256	-0.311
-540.223	-68.774	-0.174	-0.067
-539.208	121.231	-0.185	0.230
-538.193	44.203	0.158	0.145
-537.179	-200.000	0.053	-0.364
-536.164	-200.000	0.011	0.219
-535.150	77.445	0.273	-0.290
-534.135	-90.561	0.383	-0.111
-533.121	-200.000	0.006	-0.036
-532.106	-88.649	-0.606	0.180
-531.091	-200.000	-0.021	-0.358
-530.077	-200.000	-0.075	-0.396
-529.062	-200.000	0.012	0.106
-528.048	108.910	0.093	0.111
-527.033	-113.848	0.303	-0.059
-526.018	-24.060	-0.286	-0.171
-525.004	-200.000	-0.008	0.336
-523.989	-200.000	-0.006	0.137
-522.975	108.724	0.119	0.142
-521.960	523.648	0.078	0.183
-520.945	-43.394	-0.097	0.049
-519.931	44.893	0.126	0.116
-518.916	98.472	0.146	0.168
-517.902	-130.572	-0.301	-0.040
-516.887	-200.000	0.006	0.087
-515.872	-6.603	-0.115	-0.078
-514.858	-9.301	0.139	-0.093
-513.843	55.535	0.137	0.132
-512.829	61.157	0.118	-0.117
-511.814	-112.675	0.184	0.036
-510.799	-82.027	0.168	0.055
-509.785	-109.879	0.374	-0.078
-508.770	326.925	-0.092	-0.176
-507.756	-116.651	-0.179	0.033
-506.741	-200.000	-0.015	-0.129
-505.726	-67.268	0.298	0.117
-504.712	800.000	-0.087	0.275
-503.697	184.015	-0.062	-0.092
-502.683	-90.370	0.088	0.025
-501.668	331.752	0.100	0.193
-500.653	-34.811	0.097	-0.053
-499.639	99.427	0.089	-0.102
-498.624	-106.894	0.117	-0.026
-497.610	-37.799	0.140	0.074
-496.595	-10.388	0.131	-0.087
-495.581	-200.000	0.023	-0.177
-494.566	93.700	0.083	0.094
-493.551	-29.037	0.320	-0.183
-492.537	89.925	-0.177	-0.197
-491.522	-200.000	-0.054	0.261
-490.508	62.824	-0.284	0.284
-489.493	-194.864	-0.384	-0.003
-488.478	-9.920	0.166	-0.110
-487.464	88.060	-0.119	-0.131
-486.449	-96.292	0.098	-0.026
-485.435	-200.000	-0.050	0.353
-484.420	-74.035	0.221	-0.080
-483.405	-200.000	0.009	-0.047
-482.391	-142.464	0.187	0.018
-481.376	0.135	-0.151	0.107
-480.362	-111.205	0.110	0.022
-479.347	-63.341	-0.323	-0.132
-478.332	769.935	-0.049	-0.132
-477.318	50.372	0.041	-0.038
-476.303	-170.023	-0.248	0.009
-475.289	234.018	0.172	-0.282
-474.274	191.968	0.155	0.233
-473.259	-200.000	0.029	0.153
-472.245	-112.726	0.235	0.047
-471.230	669.481	0.053	-0.136
-470.216	-200.000	-0.057	-0.354
-469.201	-200.000	0.003	-0.438
-468.186	154.240	0.167	-0.228
-467.172	52.469	-0.262	-0.249
-466.157	87.921	0.234	-0.259
-465.143	-62.808	-0.332	0.137
-464.128	511.128	0.206	0.477
-463.113	-200.000	-0.054	0.279
-462.099	-15.618	-0.162	-0.103
-461.084	-121.262	-0.282	0.047
-460.070	-1.359	-0.260	0.183
-459.055	-163.471	0.197	-0.009
-458.040	-200.000	0.031	-0.172
-457.026	-87.185	-0.220	0.067
-456.011	-200.000	-0.012	0.211
-454.997	800.000	-0.023	-0.068
-453.982	800.000	0.033	0.103
-452.968	185.580	-0.070	0.103
-451.953	-200.000	-0.023	0.249
-450.938	26.073	-0.091	0.076
-449.924	41.599	-0.169	-0.152
-448.909	-48.324	0.181	-0.087
-447.895	-94.372	0.152	0.041
-446.880	-81.322	0.138	-0.045
-445.865	14.759	0.285	0.222
-444.851	-48.273	-0.311	-0.149
-443.836	558.594	0.034	-0.081
-442.822	-200.000	-0.035	0.180
-441.807	-200.000	0.000	0.081
-440.792	800.000	-0.031	0.108
-439.778	-200.000	-0.255	-0.001
-438.763	-200.000	-0.064	-0.303
-437.749	48.507	0.124	0.115
-436.734	9.744	0.081	-0.061
-435.719	297.159	0.110	0.200
-434.705	-200.000	-0.017	-0.400
-433.690	-34.183	-0.277	-0.151
-432.676	176.826	0.104	-0.150
-431.661	106.710	0.088	-0.104
-430.646	-13.054	0.196	-0.127
-429.632	4.164	-0.184	0.134
-428.617	-83.830	-0.201	0.064
-427.603	35.592	0.203	0.177
-426.588	115.914	-0.144	0.175
-425.573	-121.574	0.229	0.038
-424.559	172.874	-0.067	-0.096
-423.544	180.442	0.078	0.113
-422.530	800.000	-0.078	0.260
-421.515	269.456	-0.020	-0.035
-420.500	547.723	-0.153	-0.365
-419.486	800.000	0.030	-0.091
-418.471	90.386	-0.197	0.219
-417.457	456.871	0.112	-0.246
-416.442	-200.000	-0.001	0.085
-415.428	314.211	-0.045	-0.085
-414.413	800.000	0.107	0.307
-413.398	-118.477	-0.180	0.032
-412.384	-137.502	-0.337	-0.038
-411.369	152.191	0.126	-0.172
-410.355	-54.245	0.029	-0.013
-409.340	-130.539	0.273	0.037
-408.325	49.569	-0.263	0.246
-407.311	63.823	-0.097	-0.097
-406.296	-68.668	-0.111	-0.043
-405.282	90.070	0.100	-0.112
-404.267	800.000	-0.037	-0.127
-403.252	-169.145	-0.230	0.008
-402.238	-137.385	0.079	0.009
-401.223	-38.504	0.113	-0.059
-400.209	303.859	-0.098	0.181
-399.194	800.000	0.046	-0.130
-398.179	-200.000	-0.001	-0.069
-397.165	-59.501	0.128	-0.055
-396.150	-200.000	-0.047	-0.543
-395.136	800.000	0.093	-0.281
-394.121	-71.240	-0.125	-0.047
-393.106	19.481	0.282	0.225
-392.092	-165.108	0.333	-0.015
-391.077	-172.961	0.387	0.012
-390.063	-187.067	-0.141	0.002
-389.048	85.621	0.207	0.226
-388.033	9.709	-0.114	0.086
-387.019	62.238	0.158	0.157
-386.004	64.044	0.140	0.140
-384.990	-116.657	-0.133	0.024
-383.975	149.778	-0.200	-0.270
-382.960	-120.209	-0.175	0.030
-381.946	-7.290	-0.346	0.233
-380.931	-200.000	-0.009	-0.283
-379.917	-47.413	0.205	-0.099
-378.902	533.304	-0.168	-0.396
-377.888	-200.000	0.020	0.339
-376.873	-23.408	-0.177	-0.106
-375.858	-116.562	0.114	0.021
-374.844	-200.000	0.067	-0.355
-373.829	-87.575	-0.152	0.046
-372.815	-200.000	0.016	0.188
-371.800	-139.254	-0.631	-0.067
-370.785	74.613	0.083	0.087
-369.771	-200.000	0.070	0.315
-368.756	12.534	-0.096	0.074
-367.742	203.249	0.203	-0.312
-366.727	440.618	-0.140	-0.305
-365.712	194.659	0.085	-0.127
-364.698	-150.556	-0.417	0.032
-363.683	-200.000	-0.065	-0.287
-362.669	-153.051	-0.395	-0.028
-361.654	-89.979	-0.064	-0.018
-360.639	164.197	-0.255	0.357
-359.625	-48.933	0.148	-0.070
-358.610	47.510	0.296	0.274
-357.596	-135.773	0.075	0.009
-356.581	-200.000	0.005	0.165
-355.566	-200.000	-0.053	-0.284
-354.552	-143.360	-0.064	0.006
-353.537	38.472	0.143	0.127
-352.523	0.009	-0.131	0.093
-351.508	-200.000	0.017	-0.086
-350.493	82.081	-0.215	0.231
-349.479	1.339	0.181	-0.129
-348.464	-57.498	-0.265	0.115
-347.450	104.605	-0.087	-0.102
-346.435	45.499	0.197	-0.180
-345.420	696.302	0.168	0.437
-344.406	-77.553	0.193	-0.066
-343.391	-112.850	-0.237	0.047
-342.377	-128.655	0.301	0.042
-341.362	-200.000	0.008	0.199
-340.348	200.252	-0.261	-0.398
-339.333	88.692	0.206	0.227
-338.318	-200.000	0.004	-0.375
-337.304	-55.130	0.356	0.159
-336.289	-200.000	-0.017	0.295
-335.275	133.143	-0.211	0.270
-334.260	-138.673	-0.093	-0.010
-333.245	-11.515	-0.178	-0.116
-332.231	123.064	-0.073	-0.091
-331.216	-200.000	0.001	0.162
-330.202	-200.000	0.024	0.202
-329.187	-62.396	0.109	-0.045
-328.172	176.045	-0.048	-0.069
-327.158	188.015	-0.074	0.109
-326.143	800.000	0.091	0.387
-325.129	41.569	0.202	-0.181
-324.114	-24.172	-0.142	-0.084
-323.099	19.717	-0.144	0.115
-322.085	67.630	-0.285	-0.288
-321.070	161.623	-0.049	-0.067
-320.056	49.551	0.099	-0.092
-319.041	394.726	-0.109	0.225
-318.026	148.521	0.050	-0.066
-317.012	-200.000	-0.007	-0.134
-315.997	-40.868	0.223	-0.114
-314.983	800.000	-0.120	-0.399
-313.968	14.497	-0.156	0.121
-312.953	-162.556	0.100	0.005
-311.939	800.000	0.076	0.257
-310.924	-31.015	0.409	0.228
-309.910	106.356	-0.451	0.529
-308.895	800.000	-0.078	0.252
-307.880	-13.245	-0.235	-0.151
-306.866	-91.203	-0.099	0.028
-305.851	-111.408	-0.146	0.030
-304.837	-113.496	-0.397	0.077
-303.822	-142.496	0.250	-0.024
-302.807	-45.333	0.203	0.100
-301.793	79.506	-0.014	0.015
-300.778	-89.178	0.069	0.020
-299.764	-43.028	-0.073	-0.037
-298.749	350.176	-0.103	0.202
-297.735	355.245	0.086	0.170
-296.720	-16.539	0.254	0.159
-295.705	13.118	0.133	-0.102
-294.691	-39.890	0.226	-0.117
-293.676	-32.955	-0.251	0.138
-292.662	-2.541	-0.416	0.288
-291.647	115.558	0.164	-0.199
-290.632	-200.000	0.025	-0.152
-289.618	-90.294	-0.298	0.086
-288.603	283.614	-0.258	-0.460
-287.589	442.124	0.058	-0.125
-286.574	800.000	0.067	0.211
-285.559	62.397	0.214	0.212
-284.545	-78.014	-0.104	-0.035
-283.530	101.068	0.145	0.167
-282.516	261.018	0.158	-0.270
-281.501	171.761	0.158	0.224
-280.486	-125.908	0.429	0.064
-279.472	37.047	0.260	-0.228
-278.457	83.769	-0.193	0.208
-277.443	-36.712	0.257	0.137
-276.428	-192.022	0.373	0.004
-275.413	-200.000	0.030	-0.229
-274.399	-200.000	-0.031	-0.186
-273.384	-3.977	-0.119	0.082
-272.370	-172.980	0.175	0.005
-271.355	800.000	-0.056	-0.221
-270.340	-78.411	0.399	0.135
-269.326	-108.971	0.269	-0.057
-268.311	-200.000	-0.017	0.213
-267.297	120.441	-0.044	-0.054
-266.282	262.562	0.074	-0.128
-265.267	791.561	0.070	0.191
-264.253	39.852	0.058	-0.051
-263.238	24.579	-0.097	-0.079
-262.224	50.524	0.054	0.051
-261.209	-200.000	0.021	0.121
-260.195	-8.042	0.243	0.162
-259.180	127.844	0.259	-0.326
-258.165	329.036	-0.191	0.363
-257.151	-200.000	-0.012	0.065
-256.136	464.322	-0.055	0.122
-255.122	332.877	0.068	-0.130
-254.107	-200.000	-0.031	-0.321
-253.092	-200.000	0.109	0.000
-252.078	8.720	-0.159	0.118
-251.063	-87.426	-0.277	0.083
-250.049	800.000	0.083	0.276
-249.034	-200.000	-0.043	0.225
-248.019	-86.030	0.312	0.095
-247.005	87.124	-0.352	-0.385
-245.990	-200.000	0.006	0.200
-244.976	-135.354	0.223	0.026
-243.961	106.706	-0.227	0.267
-242.946	177.371	-0.112	-0.161
-241.932	430.810	-0.066	-0.141
-240.917	-200.000	0.029	0.232
-239.903	-200.000	0.022	-0.144
-238.888	-200.000	0.006	-0.222
-237.873	-7.139	-0.161	0.108
-236.859	166.816	0.085	0.120
-235.844	-11.071	-0.154	-0.100
-234.830	536.995	-0.106	0.249
-233.815	455.214	0.086	-0.188
-232.800	-64.118	-0.182	0.073
-231.786	800.000	-0.063	-0.183
-230.771	-24.305	-0.198	0.116
-229.757	335.950	0.142	0.271
-228.742	-122.856	0.158	-0.025
-227.727	-52.808	-0.037	-0.017
-226.713	-20.637	-0.054	0.033
-225.698	-108.932	0.180	-0.038
-224.684	-200.000	-0.006	-0.216
-223.669	232.551	-0.302	0.490
-222.655	-126.322	0.589	-0.087
-221.640	125.040	0.049	-0.061
-220.625	-144.331	0.152	0.014
-219.611	-200.000	0.009	-0.040
-218.596	-200.000	-0.014	-0.081
-217.582	-50.556	-0.295	0.137
-216.567	155.196	-0.070	0.095
-215.552	-200.000	0.059	-0.414
-214.538	-23.225	0.089	-0.053
-213.523	435.343	-0.047	-0.102
-212.509	695.021	0.034	-0.087
-211.494	-200.000	-0.018	-0.319
-210.479	800.000	0.044	-0.149
-209.465	-111.814	-0.184	0.037
-208.450	41.489	-0.435	0.388
-207.436	-63.418	0.311	0.126
-206.421	509.982	0.062	-0.142
-205.406	47.326	0.168	-0.154
-204.392	193.258	-0.194	0.290
-203.377	-200.000	-0.018	-0.263
-202.363	-145.253	-0.019	-0.002
-201.348	-200.000	0.020	0.553
-200.333	386.346	0.009	0.017
-199.319	618.963	0.086	-0.213
-198.304	-116.807	-0.369	0.067
-197.290	-152.776	-0.210	0.015
-196.275	27.176	0.037	0.031
-195.260	262.023	-0.057	-0.098
-194.246	374.765	-0.061	0.123
-193.231	800.000	0.059	0.172
-192.217	108.195	-0.244	-0.287
-191.202	-112.456	0.385	0.076
-190.187	-183.988	-0.038	0.001
-189.173	-200.000	-0.033	0.142
-188.158	-139.007	0.268	0.029
-187.144	-77.174	0.223	-0.077
-186.129	548.155	0.059	-0.140
-185.114	188.402	-0.193	-0.284
-184.100	-200.000	0.033	0.155
-183.085	-68.856	-0.130	0.049
-182.071	392.282	0.057	-0.117
-181.056	-73.944	0.078	-0.028
-180.042	-51.877	0.111	0.051
-179.027	800.000	0.073	-0.258
-178.012	-200.000	0.008	-0.075
-176.998	-83.211	-0.146	-0.046
-175.983	128.538	-0.170	0.214
-174.969	-3.162	-0.219	-0.150
-173.954	96.704	-0.162	-0.183
-172.939	-62.469	0.129	-0.053
-171.925	218.791	0.078	-0.123
-170.910	47.215	0.116	-0.106
-169.896	-200.000	0.009	0.192
-168.881	28.974	0.294	0.246
-167.866	76.009	-0.086	-0.090
-166.852	-200.000	-0.004	-0.432
-165.837	-200.000	0.010	0.235
-164.823	48.098	-0.069	0.064
-163.808	-200.000	-0.024	0.213
-162.793	800.000	-0.074	0.312
-161.779	249.373	-0.126	-0.211
-160.764	-200.000	-0.052	-0.514
-159.750	14.494	-0.141	-0.109
-158.735	-15.559	0.144	-0.091
-157.720	800.000	-0.113	0.423
-156.706	318.185	-0.194	0.362
-155.691	35.421	0.206	-0.178
-154.677	-37.046	0.234	0.124
-153.662	800.000	0.063	-0.208
-152.647	16.356	-0.114	-0.088
-151.633	-74.900	-0.199	-0.070
-150.618	-37.184	0.336	0.177
-149.604	-54.480	-0.082	-0.037
-148.589	58.250	-0.135	0.130
-147.574	-127.326	-0.057	-0.008
-146.560	-56.388	-0.125	-0.055
-145.545	186.761	0.128	-0.188
-144.531	-88.728	0.346	-0.101
-143.516	-9.443	0.226	0.148
-142.502	273.429	0.156	-0.271
-141.487	800.000	0.022	-0.071
-140.472	520.872	-0.065	-0.150
-139.458	80.335	0.067	0.071
-138.443	-200.000	0.022	0.139
-137.429	-200.000	0.025	-0.394
-136.414	231.066	0.074	0.119
-135.399	-26.900	-0.167	-0.096
-134.385	-132.216	-0.271	-0.035
-133.370	-44.135	0.072	-0.035
-132.356	-200.000	-0.036	-0.352
-131.341	55.541	-0.016	0.015
-130.326	-10.832	0.058	0.038
-129.312	-65.269	0.270	-0.107
-128.297	-200.000	-0.008	0.275
-127.283	699.651	0.081	0.209
-126.268	28.720	0.200	-0.167
-125.253	800.000	0.071	0.224
-124.239	-39.584	0.182	0.094
-123.224	174.659	0.048	0.068
-122.210	278.314	-0.067	-0.117
-121.195	237.762	-0.142	0.232
-120.180	209.073	0.067	-0.103
