DTS Sentinel unit serial number:	SN413079Multiplexer serial number:	ORYXHardware model number:	OX4-SRSoftware version number:	ORYX F/W v4.00 Oryx Data Collector v3.7.2.0data status	okinstallation	princeton_trtdifferential loss correction	single-endedforward channel	channel 3reverse channel	N/Adate	2019/09/15time	09:00:34forward acquisition time	60.00reverse acquisition time	0.00gamma	496.2192k internal	0.2313k external	0.2313temperature offset calibration	0.9970default loss term (dB/km)	0.3790temperature slope calibration	1.0000multiplexer offset coefficient	1.0000multiplexer slope coefficient	1.0000fibre end	0.00T internal ref (°C)	32.75T ext. ref 1 (°C)	4.96T ext. ref 2 (°C)	29.75length (m)	temperature (°C)	Stokes	anti-Stokes-747.200	413.696	-0.205	-0.443
-746.185	-200.000	0.004	0.095
-745.171	337.927	0.190	0.375
-744.156	67.307	0.038	0.040
-743.142	180.592	-0.123	-0.184
-742.127	151.415	0.196	0.271
-741.112	208.859	-0.159	-0.253
-740.098	-37.006	-0.170	0.092
-739.083	-3.666	0.094	-0.066
-738.069	35.683	-0.135	-0.120
-737.054	146.028	-0.163	0.222
-736.039	-156.936	-0.190	-0.012
-735.025	-200.000	-0.021	0.344
-734.010	-200.000	-0.022	-0.128
-732.996	32.056	0.148	0.129
-731.981	-97.803	-0.110	-0.029
-730.966	-200.000	-0.004	0.184
-729.952	800.000	-0.016	-0.063
-728.937	800.000	0.117	-0.346
-727.923	-200.000	-0.012	-0.090
-726.908	800.000	-0.037	-0.119
-725.894	-200.000	-0.056	-0.274
-724.879	-16.241	0.140	0.090
-723.864	800.000	-0.038	-0.142
-722.850	310.284	-0.180	-0.342
-721.835	-200.000	-0.037	-0.361
-720.821	-200.000	-0.012	0.214
-719.806	18.135	-0.220	-0.178
-718.791	163.814	0.015	-0.021
-717.777	-98.907	-0.222	0.057
-716.762	228.544	-0.085	0.140
-715.748	330.480	0.067	-0.131
-714.733	142.905	-0.245	-0.330
-713.718	-31.896	-0.314	-0.178
-712.704	-107.907	0.180	-0.040
-711.689	-24.765	-0.169	-0.102
-710.675	-33.900	-0.117	-0.065
-709.660	10.362	-0.157	0.121
-708.645	-80.453	-0.120	-0.040
-707.631	-3.538	0.162	0.114
-706.616	-138.373	-0.075	-0.008
-705.602	159.836	-0.061	0.087
-704.587	-178.608	-0.333	-0.008
-703.572	-60.554	0.149	0.064
-702.558	192.967	0.175	-0.268
-701.543	-11.830	0.305	0.202
-700.529	-63.546	-0.176	-0.073
-699.514	81.729	0.140	-0.153
-698.499	372.355	0.106	0.218
-697.485	78.840	-0.148	-0.160
-696.470	-7.105	0.141	0.097
-695.456	-77.465	0.241	-0.085
-694.441	-87.591	0.115	0.035
-693.426	-108.300	0.042	0.009
-692.412	182.709	-0.044	0.066
-691.397	781.038	0.075	0.208
-690.383	800.000	-0.038	0.119
-689.368	-22.605	-0.120	-0.074
-688.354	-200.000	-0.026	0.160
-687.339	13.774	0.067	-0.053
-686.324	-44.553	0.144	-0.073
-685.310	-62.308	-0.226	0.095
-684.295	373.576	-0.176	0.361
-683.281	47.892	-0.121	-0.115
-682.266	-200.000	0.026	-0.348
-681.251	14.513	0.247	0.195
-680.237	800.000	0.057	-0.232
-679.222	-155.009	0.403	0.027
-678.208	149.467	-0.137	0.188
-677.193	-108.421	-0.115	-0.025
-676.178	-50.711	-0.278	-0.132
-675.164	-101.981	-0.133	-0.032
-674.149	-78.655	0.488	0.169
-673.135	-200.000	0.032	0.154
-672.120	133.826	0.284	-0.372
-671.105	-200.000	-0.022	0.124
-670.091	-107.368	-0.481	0.107
-669.076	68.308	-0.301	-0.312
-668.062	-118.885	0.132	-0.023
-667.047	800.000	-0.074	0.217
-666.032	-177.838	0.118	-0.003
-665.018	-116.937	-0.109	-0.020
-664.003	-65.758	-0.141	0.057
-662.989	800.000	0.029	0.120
-661.974	-133.229	-0.329	0.042
-660.959	-5.961	0.120	0.083
-659.945	-29.097	0.225	0.130
-658.930	-103.298	0.200	0.048
-657.916	800.000	0.038	-0.109
-656.901	-17.285	0.233	-0.149
-655.886	-178.195	0.101	-0.002
-654.872	-29.542	-0.205	0.118
-653.857	270.186	-0.208	0.369
-652.843	57.756	0.126	-0.124
-651.828	-161.671	0.093	-0.005
-650.814	-200.000	0.000	-0.284
-649.799	-6.159	-0.053	-0.037
-648.784	-143.925	-0.100	0.010
-647.770	385.382	-0.023	0.048
-646.755	-200.000	-0.014	-0.237
-645.741	-200.000	-0.045	-0.334
-644.726	197.637	-0.150	-0.231
-643.711	91.545	-0.109	-0.124
-642.697	648.903	-0.033	-0.085
-641.682	85.146	0.045	0.049
-640.668	244.383	0.123	-0.209
-639.653	-200.000	-0.020	-0.168
-638.638	-29.677	-0.196	0.113
-637.624	-200.000	0.012	0.132
-636.609	-200.000	0.021	0.230
-635.595	-64.855	-0.051	0.021
-634.580	-51.617	-0.153	0.072
-633.565	20.246	-0.301	0.246
-632.551	-200.000	0.008	0.155
-631.536	-200.000	0.018	0.097
-630.522	-5.440	0.177	-0.123
-629.507	112.556	-0.123	-0.151
-628.492	-126.083	0.224	0.034
-627.478	-200.000	-0.025	-0.180
-626.463	800.000	-0.084	0.335
-625.449	368.487	-0.064	-0.130
-624.434	20.952	0.305	-0.250
-623.419	376.133	-0.106	-0.218
-622.405	238.169	0.028	0.046
-621.390	800.000	0.042	0.159
-620.376	129.212	0.086	0.111
-619.361	66.302	-0.056	-0.057
-618.346	138.344	-0.054	0.072
-617.332	63.253	0.130	-0.131
-616.317	169.650	-0.143	-0.207
-615.303	418.689	-0.102	0.221
-614.288	-200.000	0.030	-0.160
-613.273	781.742	0.049	0.134
-612.259	-60.143	-0.164	-0.071
-611.244	-200.000	0.035	0.166
-610.230	159.783	0.135	-0.190
-609.215	101.794	-0.149	-0.175
-608.201	9.580	-0.200	0.153
-607.186	800.000	0.031	-0.104
-606.171	53.014	-0.138	0.133
-605.157	-170.256	0.243	-0.009
-604.142	800.000	-0.029	0.122
-603.128	-61.002	-0.203	-0.087
-602.113	192.971	0.071	-0.108
-601.098	-7.986	0.226	0.154
-600.084	104.826	0.175	-0.208
-599.069	-45.442	-0.180	-0.090
-598.055	333.442	0.016	0.031
-597.040	-44.531	-0.028	0.014
-596.025	583.425	0.033	-0.081
-595.011	0.929	-0.159	-0.115
-593.996	12.335	0.148	0.115
-592.982	-34.411	-0.033	0.018
-591.967	800.000	0.048	0.211
-590.952	38.360	-0.203	0.182
-589.938	47.377	0.129	-0.121
-588.923	29.042	0.121	0.104
-587.909	110.124	0.286	-0.346
-586.894	477.921	-0.094	-0.214
-585.879	-35.933	0.114	-0.062
-584.865	-52.735	-0.066	0.031
-583.850	110.440	-0.147	-0.178
-582.836	4.760	0.454	-0.336
-581.821	213.939	-0.195	-0.312
-580.806	-61.622	0.257	0.109
-579.792	-102.451	-0.543	0.131
-578.777	-107.111	-0.127	-0.028
-577.763	-101.928	0.207	0.050
-576.748	-42.001	-0.198	0.102
-575.733	129.460	0.237	0.305
-574.719	493.413	-0.089	0.205
-573.704	295.297	-0.058	0.107
-572.690	-200.000	0.018	-0.167
-571.675	121.482	-0.166	0.208
-570.661	95.248	0.160	-0.183
-569.646	-80.619	0.259	-0.087
-568.631	-200.000	0.032	-0.169
-567.617	-78.179	-0.363	-0.126
-566.602	306.780	0.222	0.417
-565.588	-146.469	-0.141	0.012
-564.573	800.000	-0.065	-0.276
-563.558	-25.332	0.162	-0.097
-562.544	-200.000	0.020	-0.220
-561.529	-34.078	0.168	-0.093
-560.515	-64.773	0.244	-0.100
-559.500	-200.000	-0.020	-0.314
-558.485	-200.000	0.026	-0.243
-557.471	-200.000	0.023	0.238
-556.456	-111.252	-0.408	0.084
-555.442	-74.986	0.318	0.115
-554.427	202.421	-0.019	0.030
-553.412	-51.788	-0.098	-0.046
-552.398	-200.000	0.006	0.059
-551.383	800.000	0.049	0.162
-550.369	728.234	0.055	0.149
-549.354	-91.649	0.218	0.062
-548.339	-149.889	-0.143	0.011
-547.325	25.198	0.358	0.299
-546.310	-177.050	0.280	0.007
-545.296	8.510	-0.217	-0.165
-544.281	98.529	0.125	-0.145
-543.266	778.982	-0.094	-0.258
-542.252	112.268	-0.255	0.310
-541.237	-200.000	0.048	0.340
-540.223	129.428	0.202	0.260
-539.208	-114.585	0.130	-0.025
-538.193	800.000	-0.081	0.304
-537.179	-55.979	0.038	0.017
-536.164	26.381	0.192	-0.161
-535.150	299.970	-0.135	0.251
-534.135	-168.519	-0.040	-0.002
-533.121	462.338	-0.118	-0.266
-532.106	-12.181	-0.067	0.044
-531.091	800.000	0.067	-0.272
-530.077	800.000	0.040	-0.172
-529.062	-200.000	0.038	-0.207
-528.048	-32.994	0.176	0.098
-527.033	800.000	0.120	0.378
-526.018	-108.713	-0.253	-0.055
-525.004	176.171	0.066	0.096
-523.989	800.000	-0.059	0.181
-522.975	-200.000	0.061	0.305
-521.960	-112.536	0.128	0.026
-520.945	-107.630	-0.274	-0.060
-519.931	232.159	-0.036	-0.060
-518.916	59.227	-0.338	0.334
-517.902	-163.041	-0.136	0.007
-516.887	81.022	0.225	-0.245
-515.872	187.488	-0.017	0.025
-514.858	45.804	-0.128	-0.119
-513.843	49.633	-0.248	0.235
-512.829	-42.318	0.109	0.056
-511.814	27.667	-0.199	-0.168
-510.799	626.056	-0.096	-0.242
-509.785	-94.836	-0.230	0.063
-508.770	26.104	-0.320	-0.268
-507.756	-141.903	-0.339	0.034
-506.741	-87.417	0.654	0.199
-505.726	321.121	-0.096	0.183
-504.712	-200.000	-0.013	0.079
-503.697	-82.271	-0.055	-0.018
-502.683	-200.000	0.007	-0.149
-501.668	-41.720	-0.299	0.154
-500.653	-140.799	0.197	-0.020
-499.639	-200.000	-0.030	0.140
-498.624	477.818	-0.167	0.380
-497.610	-200.000	-0.037	0.188
-496.595	46.430	-0.134	-0.125
-495.581	-83.804	0.327	0.105
-494.566	-24.900	-0.093	0.056
-493.551	-14.076	-0.232	-0.150
-492.537	10.318	-0.330	0.252
-491.522	-137.340	-0.149	0.017
-490.508	-200.000	-0.019	-0.247
-489.493	-200.000	-0.003	0.024
-488.478	800.000	-0.056	-0.206
-487.464	-79.225	-0.230	0.078
-486.449	-61.715	0.037	0.016
-485.435	-110.696	-0.087	-0.018
-484.420	227.750	0.166	-0.270
-483.405	-152.024	-0.187	-0.014
-482.391	46.196	-0.155	0.144
-481.376	211.748	0.114	-0.180
-480.362	800.000	-0.039	0.117
-479.347	-173.641	0.078	0.002
-478.332	-200.000	0.030	-0.255
-477.318	-88.027	0.069	-0.021
-476.303	-20.312	0.088	0.054
-475.289	-200.000	-0.017	0.098
-474.274	-200.000	0.000	-0.132
-473.259	145.313	0.120	-0.161
-472.245	-200.000	-0.025	-0.112
-471.230	800.000	0.089	0.294
-470.216	-99.229	0.392	0.099
-469.201	-42.537	-0.316	-0.162
-468.186	-200.000	-0.071	0.453
-467.172	-118.232	0.284	-0.051
-466.157	-163.101	-0.131	-0.006
-465.143	418.037	0.097	0.208
-464.128	640.560	-0.082	-0.210
-463.113	-43.545	0.052	-0.026
-462.099	800.000	-0.074	-0.245
-461.084	-117.639	0.068	-0.012
-460.070	358.929	0.019	0.038
-459.055	234.132	0.286	-0.472
-458.040	-121.363	-0.413	-0.069
-457.026	-57.839	-0.116	0.051
-456.011	518.056	-0.106	0.249
-454.997	-52.959	0.373	0.172
-453.982	-19.724	0.152	-0.094
-452.968	186.108	-0.101	-0.151
-451.953	224.994	0.062	-0.100
-450.938	-17.970	-0.263	0.165
-449.924	8.892	0.227	0.172
-448.909	-175.955	0.338	0.009
-447.895	-1.557	0.069	-0.049
-446.880	800.000	-0.122	0.423
-445.865	90.872	0.115	0.129
-444.851	126.253	0.091	-0.116
-443.836	-59.454	-0.025	-0.011
-442.822	-121.374	0.182	-0.030
-441.807	-62.902	0.246	0.102
-440.792	640.444	0.108	0.276
-439.778	194.041	0.213	-0.323
-438.763	-126.490	0.386	-0.058
-437.749	-76.262	-0.180	-0.064
-436.734	-37.949	0.291	-0.155
-435.719	-200.000	0.087	0.405
-434.705	644.498	-0.058	0.149
-433.690	-109.364	0.281	0.060
-432.676	-200.000	0.016	0.218
-431.661	-12.629	-0.129	-0.084
-430.646	800.000	-0.091	0.279
-429.632	-125.752	-0.271	0.041
-428.617	739.534	-0.169	-0.454
-427.603	-115.567	0.118	0.022
-426.588	-63.144	0.173	0.072
-425.573	26.495	-0.065	-0.054
-424.559	800.000	0.050	-0.180
-423.544	285.512	-0.154	-0.279
-422.530	138.284	0.256	0.336
-421.515	-6.175	-0.079	-0.054
-420.500	-163.342	0.333	-0.016
-419.486	-36.948	0.242	0.130
-418.471	-106.525	0.232	0.052
-417.457	-109.002	-0.109	0.023
-416.442	-147.049	0.365	-0.031
-415.428	185.177	0.139	0.206
-414.413	255.346	-0.056	0.096
-413.398	-144.837	0.150	-0.014
-412.384	66.542	-0.244	-0.248
-411.369	-2.747	-0.256	0.179
-410.355	-65.708	-0.275	0.110
-409.340	198.468	0.058	0.088
-408.325	-83.882	0.139	0.044
-407.311	-121.607	-0.249	0.041
-406.296	180.134	-0.164	-0.241
-405.282	-140.533	-0.366	0.038
-404.267	-142.384	0.315	-0.031
-403.252	68.540	0.142	-0.146
-402.238	-55.039	-0.193	-0.087
-401.223	-149.394	0.134	-0.011
-400.209	-45.767	-0.140	0.069
-399.194	-50.806	0.203	0.096
-398.179	-34.492	0.136	-0.075
-397.165	104.829	-0.224	-0.264
-396.150	800.000	0.016	0.052
-395.136	512.370	0.013	0.031
-394.121	195.533	-0.087	-0.132
-393.106	165.187	0.185	0.261
-392.092	-200.000	-0.001	0.189
-391.077	180.185	0.188	-0.275
-390.063	86.224	-0.147	0.162
-389.048	485.735	-0.092	-0.210
-388.033	-200.000	-0.040	0.214
-387.019	270.729	0.017	-0.031
-386.004	-174.163	-0.060	0.002
-384.990	-200.000	-0.013	0.108
-383.975	68.506	0.153	-0.157
-382.960	-200.000	-0.008	-0.435
-381.946	-22.743	-0.128	-0.077
-380.931	7.064	-0.053	0.039
-379.917	-200.000	0.040	-0.314
-378.902	-84.637	-0.186	-0.059
-377.888	-200.000	-0.016	-0.104
-376.873	-109.980	-0.113	-0.024
-375.858	-74.416	0.231	0.083
-374.844	-135.088	0.318	0.038
-373.829	121.818	-0.144	-0.179
-372.815	-39.253	-0.075	0.039
-371.800	-91.847	-0.223	0.063
-370.785	2.196	-0.089	0.064
-369.771	-84.470	0.158	-0.050
-368.756	-200.000	0.030	-0.321
-367.742	-74.212	0.137	0.049
-366.727	18.929	0.164	0.131
-365.712	325.528	-0.190	-0.363
-364.698	58.121	0.154	-0.150
-363.683	7.370	-0.093	0.069
-362.669	800.000	-0.049	0.192
-361.654	135.698	-0.174	0.226
-360.639	330.666	-0.078	0.151
-359.625	-146.610	0.085	0.007
-358.610	-16.732	0.173	-0.109
-357.596	-167.873	0.246	-0.010
-356.581	-200.000	-0.018	0.288
-355.566	-200.000	-0.028	-0.230
-354.552	-135.233	0.238	-0.029
-353.537	-135.167	0.229	0.028
-352.523	-200.000	-0.098	0.468
-351.508	526.211	-0.131	-0.308
-350.493	56.992	0.044	-0.042
-349.479	219.616	0.077	0.123
-348.464	-71.556	-0.018	0.007
-347.450	-85.156	0.171	-0.053
-346.435	526.289	-0.053	0.125
-345.420	800.000	0.055	0.178
-344.406	-37.297	-0.239	0.127
-343.391	800.000	-0.089	0.263
-342.377	408.610	0.114	-0.241
-341.362	65.223	-0.157	0.159
-340.348	650.958	0.054	0.139
-339.333	332.207	0.107	0.206
-338.318	157.909	-0.092	-0.128
-337.304	790.032	0.050	0.137
-336.289	215.175	-0.047	-0.074
-335.275	-81.370	-0.232	0.076
-334.260	-200.000	0.077	0.405
-333.245	-26.252	-0.191	0.112
-332.231	-171.664	-0.129	-0.004
-331.216	-6.048	-0.094	0.064
-330.202	106.502	-0.001	-0.001
-329.187	800.000	-0.065	-0.229
-328.172	-16.232	-0.267	0.169
-327.158	-104.513	-0.085	-0.020
-326.143	-24.481	-0.134	-0.080
-325.129	-116.336	-0.107	-0.020
-324.114	800.000	-0.049	-0.207
-323.099	-200.000	0.057	-0.261
-322.085	643.257	0.122	0.311
-321.070	-200.000	0.019	-0.096
-320.056	-162.455	0.070	0.003
-319.041	-163.439	-0.198	-0.009
-318.026	-200.000	0.001	-0.197
-317.012	-25.061	-0.212	-0.126
-315.997	255.242	0.132	-0.225
-314.983	-200.000	0.011	0.215
-313.968	-200.000	-0.031	0.149
-312.953	-96.797	0.255	-0.067
-311.939	800.000	0.084	-0.245
-310.924	800.000	0.024	-0.072
-309.910	81.226	-0.119	0.128
-308.895	-122.502	-0.218	-0.035
-307.880	-51.532	0.441	-0.205
-306.866	240.356	-0.107	0.179
-305.851	800.000	0.100	-0.373
-304.837	366.740	0.277	0.557
-303.822	128.196	0.093	0.118
-302.807	323.183	0.070	-0.133
-301.793	-121.205	0.219	-0.036
-300.778	382.028	-0.086	-0.175
-299.764	-24.049	0.057	-0.034
-298.749	800.000	0.026	-0.114
-297.735	40.425	-0.255	-0.229
-296.720	-200.000	-0.055	-0.448
-295.705	99.539	0.204	0.236
-294.691	-77.201	-0.302	0.105
-293.676	800.000	-0.060	0.197
-292.662	800.000	0.054	-0.208
-291.647	800.000	-0.037	-0.120
-290.632	205.363	0.143	0.221
-289.618	-101.587	0.186	0.045
-288.603	-95.899	0.292	0.078
-287.589	-13.807	0.184	0.119
-286.574	-200.000	0.039	-0.464
-285.559	-74.465	-0.431	-0.155
-284.545	-97.482	-0.237	0.061
-283.530	145.059	-0.113	0.150
-282.516	493.402	0.064	0.146
-281.501	-80.629	0.315	-0.104
-280.486	5.710	-0.332	0.245
-279.472	-52.208	0.146	-0.067
-278.457	-54.628	-0.171	-0.077
-277.443	-200.000	0.015	-0.184
-276.428	52.816	-0.234	-0.223
-275.413	-59.920	0.215	-0.091
-274.399	-42.635	0.275	-0.139
-273.384	-200.000	-0.016	0.077
-272.370	-119.464	-0.590	-0.102
-271.355	784.147	0.082	-0.224
-270.340	-200.000	0.040	-0.242
-269.326	313.339	-0.044	0.082
-268.311	-182.828	0.022	0.000
-267.297	21.178	-0.167	0.135
-266.282	-116.812	-0.178	-0.033
-265.267	-53.891	-0.265	-0.120
-264.253	11.570	-0.261	-0.199
-263.238	99.312	0.089	0.103
-262.224	395.255	0.063	-0.130
-261.209	-116.532	-0.062	-0.011
-260.195	800.000	0.066	-0.199
-259.180	39.816	-0.169	-0.151
-258.165	-91.219	0.112	0.032
-257.151	238.853	0.138	0.228
-256.136	-11.578	0.126	0.082
-255.122	800.000	0.041	0.146
-254.107	-200.000	0.010	-0.086
-253.092	77.639	-0.102	0.108
-252.078	37.638	-0.099	0.087
-251.063	-78.674	0.059	0.020
-250.049	800.000	-0.046	-0.134
-249.034	-200.000	0.004	-0.288
-248.019	-53.435	0.098	0.045
-247.005	63.004	0.073	0.073
-245.990	-113.750	0.346	0.067
-244.976	-173.046	-0.389	0.012
-243.961	180.477	0.066	0.096
-242.946	260.893	0.145	0.249
-241.932	-177.133	0.115	-0.003
-240.917	563.383	-0.054	0.130
-239.903	72.082	0.049	0.051
-238.888	-200.000	-0.010	0.125
-237.873	104.652	0.128	0.150
-236.859	-136.164	0.275	-0.032
-235.844	131.870	0.216	0.277
-234.830	51.911	-0.328	0.310
-233.815	317.525	0.208	0.391
-232.800	559.711	-0.096	0.231
-231.786	57.609	-0.184	0.178
-230.771	-29.467	0.211	0.120
-229.757	-79.072	-0.294	0.099
-228.742	-120.074	-0.251	0.043
-227.727	-57.197	0.291	-0.127
-226.713	-27.099	-0.239	-0.139
-225.698	33.441	-0.061	-0.053
-224.684	-47.098	0.060	-0.029
-223.669	14.126	-0.351	0.272
-222.655	-12.081	0.207	0.135
-221.640	-44.365	0.271	-0.135
-220.625	301.649	-0.145	-0.265
-219.611	130.247	-0.144	0.183
-218.596	800.000	0.080	-0.274
-217.582	800.000	0.052	-0.206
-216.567	70.643	0.213	0.218
-215.552	-77.665	0.163	-0.056
-214.538	800.000	0.073	0.219
-213.523	137.305	-0.174	0.227
-212.509	260.559	-0.083	-0.143
-211.494	-200.000	-0.060	-0.459
-210.479	-83.406	-0.242	0.077
-209.465	143.317	0.202	0.267
-208.450	-162.797	-0.451	0.022
-207.436	-58.841	0.198	-0.085
-206.421	44.018	0.102	-0.093
-205.406	-52.667	0.069	-0.031
-204.392	-27.501	-0.053	0.031
-203.377	328.295	0.202	-0.385
-202.363	-117.975	-0.143	-0.025
-201.348	-105.356	-0.309	0.070
-200.333	24.337	0.132	-0.108
-199.319	800.000	0.045	0.147
-198.304	-149.045	-0.434	0.035
-197.290	49.650	0.112	-0.104
-196.275	-103.110	0.032	0.007
-195.260	502.601	-0.010	0.022
-194.246	101.803	-0.091	-0.106
-193.231	61.819	0.103	-0.102
-192.217	-200.000	-0.008	-0.159
-191.202	-171.347	-0.376	-0.012
-190.187	-138.976	-0.058	0.006
-189.173	800.000	0.016	-0.069
-188.158	-83.803	-0.138	0.044
-187.144	-52.015	-0.145	-0.067
-186.129	8.533	-0.399	-0.298
-185.114	-200.000	-0.035	-0.388
-184.100	728.378	0.143	-0.379
-183.085	800.000	-0.038	0.136
-182.071	800.000	0.056	0.176
-181.056	-137.532	0.218	-0.024
-180.042	-200.000	-0.030	0.202
-179.027	-47.797	0.137	0.066
-178.012	310.450	0.081	0.151
-176.998	-37.043	0.254	-0.135
-175.983	-168.614	0.050	-0.002
-174.969	-34.488	0.211	0.114
-173.954	-19.119	-0.268	-0.165
-172.939	31.836	0.161	0.137
-171.925	185.771	-0.072	-0.107
-170.910	-200.000	-0.050	-0.294
-169.896	269.873	0.055	0.096
-168.881	-173.192	-0.199	0.006
-167.866	135.051	0.154	0.199
-166.852	280.613	0.292	0.518
-165.837	-200.000	0.021	0.363
-164.823	-26.279	-0.390	-0.227
-163.808	182.793	0.184	-0.270
-162.793	-200.000	-0.007	0.132
-161.779	50.201	0.083	-0.078
-160.764	72.399	0.043	0.044
-159.750	-72.885	-0.219	-0.080
-158.735	75.438	0.166	0.173
-157.720	-107.943	0.276	0.059
-156.706	184.672	0.132	0.194
-155.691	743.602	0.054	0.145
-154.677	-66.579	0.295	0.116
-153.662	24.812	0.091	0.075
-152.647	-200.000	-0.052	-0.253
-151.633	-200.000	-0.007	-0.082
-150.618	11.279	-0.163	-0.124
-149.604	10.502	0.289	0.218
-148.589	-99.954	0.339	-0.084
-147.574	-75.704	0.209	-0.073
-146.560	-200.000	-0.025	-0.410
-145.545	-0.282	0.298	0.210
-144.531	230.323	-0.050	-0.081
-143.516	-200.000	0.021	0.102
-142.502	-59.254	0.027	-0.011
-141.487	167.753	-0.028	-0.039
-140.472	-146.805	-0.282	-0.024
-139.458	451.817	-0.124	-0.271
-138.443	702.158	-0.087	-0.226
-137.429	106.954	0.025	-0.030
-136.414	-125.983	0.041	-0.006
-135.399	800.000	0.022	-0.091
-134.385	53.542	-0.164	0.155
-133.370	-119.006	-0.348	-0.060
-132.356	-13.079	0.335	0.216
-131.341	800.000	-0.024	-0.082
-130.326	-153.731	-0.062	-0.004
-129.312	-200.000	-0.007	0.174
-128.297	-169.285	-0.299	0.011
-127.283	-112.947	0.286	-0.056
-126.268	154.843	0.100	-0.136
-125.253	-200.000	-0.028	-0.601
-124.239	-200.000	-0.005	-0.198
-123.224	612.155	0.143	-0.353
-122.210	46.137	-0.153	0.141
