DTS Sentinel unit serial number:	SN413079Multiplexer serial number:	ORYXHardware model number:	OX4-SRSoftware version number:	ORYX F/W v4.00 Oryx Data Collector v3.7.2.0data status	okinstallation	princeton_trtdifferential loss correction	single-endedforward channel	channel 3reverse channel	N/Adate	2019/09/18time	02:20:35forward acquisition time	60.00reverse acquisition time	0.00gamma	496.2192k internal	0.2344k external	0.2344temperature offset calibration	0.9948default loss term (dB/km)	0.3790temperature slope calibration	1.0000multiplexer offset coefficient	1.0000multiplexer slope coefficient	1.0000fibre end	0.00T internal ref (°C)	22.81T ext. ref 1 (°C)	0.16T ext. ref 2 (°C)	16.74length (m)	temperature (°C)	Stokes	anti-Stokes-747.200	-89.402	0.267	0.079
-746.185	-171.506	-0.256	0.009
-745.171	187.411	0.109	0.163
-744.156	-200.000	0.042	0.215
-743.142	51.008	0.222	-0.210
-742.127	-200.000	-0.074	0.474
-741.112	71.847	0.057	0.060
-740.098	51.424	-0.042	0.040
-739.083	-200.000	-0.468	-0.002
-738.069	-200.000	0.022	0.182
-737.054	7.912	0.201	0.151
-736.039	26.579	-0.331	-0.277
-735.025	800.000	-0.066	0.245
-734.010	-104.062	-0.347	-0.081
-732.996	64.331	-0.064	0.064
-731.981	800.000	-0.034	-0.127
-730.966	-186.865	-0.234	-0.003
-729.952	23.063	-0.282	0.231
-728.937	-151.118	-0.166	-0.012
-727.923	-200.000	-0.012	-0.316
-726.908	669.192	-0.039	-0.100
-725.894	800.000	-0.049	0.200
-724.879	-20.418	0.067	0.041
-723.864	-200.000	0.014	-0.183
-722.850	-200.000	-0.017	0.076
-721.835	-14.206	0.046	-0.030
-720.821	-105.524	-0.132	-0.030
-719.806	-34.351	-0.110	-0.060
-718.791	-200.000	-0.020	-0.108
-717.777	-64.803	-0.099	-0.040
-716.762	-35.278	-0.418	-0.227
-715.748	364.342	0.069	-0.138
-714.733	-97.929	0.212	0.055
-713.718	409.077	-0.140	-0.295
-712.704	-27.129	-0.281	-0.164
-711.689	-3.646	-0.076	0.053
-710.675	179.549	-0.234	-0.342
-709.660	800.000	0.054	0.180
-708.645	33.348	-0.200	-0.174
-707.631	68.754	0.057	-0.058
-706.616	-95.128	-0.149	-0.040
-705.602	-147.342	-0.013	-0.001
-704.587	198.209	-0.160	0.244
-703.572	145.149	0.068	-0.091
-702.558	314.919	-0.060	-0.114
-701.543	2.439	-0.095	0.069
-700.529	43.729	-0.211	0.193
-699.514	34.549	-0.139	-0.121
-698.499	-16.882	0.044	-0.028
-697.485	331.336	0.034	0.065
-696.470	212.816	-0.274	-0.432
-695.456	-49.212	-0.099	-0.047
-694.441	-200.000	-0.023	0.294
-693.426	-179.084	0.341	0.008
-692.412	-42.839	0.115	-0.058
-691.397	-77.295	0.211	-0.073
-690.383	-88.805	0.186	-0.055
-689.368	437.956	0.118	0.256
-688.354	-183.382	0.230	0.004
-687.339	-89.817	-0.290	-0.085
-686.324	137.224	0.080	-0.104
-685.310	-68.870	0.251	0.097
-684.295	223.317	-0.121	0.195
-683.281	230.314	0.054	0.088
-682.266	294.867	0.112	-0.205
-681.251	-72.268	-0.277	-0.102
-680.237	-200.000	-0.059	-0.263
-679.222	269.138	0.139	-0.244
-678.208	50.055	-0.171	0.162
-677.193	-200.000	-0.008	-0.125
-676.178	118.634	-0.145	0.179
-675.164	-87.703	-0.266	0.080
-674.149	-137.597	-0.235	0.026
-673.135	129.694	-0.310	-0.395
-672.120	-200.000	0.033	0.289
-671.105	-21.957	-0.206	0.125
-670.091	-200.000	-0.022	0.411
-669.076	163.494	0.122	0.171
-668.062	27.243	0.105	0.088
-667.047	66.819	0.167	-0.170
-666.032	-124.451	-0.050	0.008
-665.018	352.241	0.025	0.050
-664.003	-200.000	-0.033	-0.281
-662.989	-1.699	-0.044	-0.031
-661.974	-37.817	-0.205	0.109
-660.959	401.698	-0.144	0.301
-659.945	-20.990	0.182	0.111
-658.930	-112.729	0.235	-0.047
-657.916	-200.000	0.004	0.398
-656.901	800.000	-0.172	0.556
-655.886	-95.332	-0.023	-0.006
-654.872	-199.415	0.268	0.001
-653.857	-56.353	0.365	0.162
-652.843	98.874	-0.111	-0.128
-651.828	-172.723	0.522	-0.016
-650.814	25.646	-0.127	-0.105
-649.799	300.314	0.065	-0.120
-648.784	-200.000	-0.032	0.228
-647.770	94.707	-0.210	-0.238
-646.755	-2.757	0.145	-0.101
-645.741	-39.064	0.102	0.054
-644.726	86.398	-0.229	0.252
-643.711	-200.000	0.005	-0.106
-642.697	-92.472	-0.058	0.016
-641.682	-13.443	-0.167	0.108
-640.668	-97.309	-0.353	-0.092
-639.653	-140.647	-0.016	0.002
-638.638	320.117	0.145	0.274
-637.624	112.133	-0.175	-0.211
-636.609	47.980	-0.309	-0.288
-635.595	32.756	0.125	0.108
-634.580	150.981	0.024	0.033
-633.565	800.000	-0.192	-0.559
-632.551	-200.000	0.024	-0.301
-631.536	800.000	0.071	0.273
-630.522	800.000	0.012	-0.037
-629.507	-130.289	0.311	-0.042
-628.492	183.662	-0.373	0.550
-627.478	193.731	0.152	-0.230
-626.463	73.498	0.058	0.060
-625.449	373.850	-0.137	-0.278
-624.434	-200.000	-0.024	-0.335
-623.419	-110.602	-0.198	-0.041
-622.405	-98.853	0.126	0.032
-621.390	-200.000	-0.019	0.123
-620.376	-200.000	0.006	-0.434
-619.361	800.000	-0.147	0.406
-618.346	-34.585	0.017	-0.009
-617.332	-200.000	-0.012	0.191
-616.317	-200.000	-0.067	0.359
-615.303	159.076	-0.046	-0.064
-614.288	-114.545	0.270	0.052
-613.273	9.247	0.081	0.061
-612.259	494.663	-0.080	0.182
-611.244	-200.000	0.003	0.155
-610.230	8.064	-0.168	0.125
-609.215	-200.000	-0.027	-0.154
-608.201	209.972	0.115	0.179
-607.186	-119.162	0.311	-0.054
-606.171	-21.890	0.095	0.058
-605.157	170.585	0.150	-0.213
-604.142	-200.000	-0.014	0.128
-603.128	72.686	0.056	0.059
-602.113	-200.000	0.041	0.210
-601.098	-69.646	-0.333	-0.127
-600.084	-200.000	-0.033	0.285
-599.069	264.100	0.146	0.252
-598.055	114.072	-0.154	-0.186
-597.040	-68.483	-0.215	0.083
-596.025	-113.297	0.403	0.079
-595.011	-36.869	-0.254	-0.136
-593.996	-200.000	0.005	-0.197
-592.982	-200.000	-0.026	-0.237
-591.967	19.630	0.080	0.064
-590.952	-123.575	0.192	-0.030
-589.938	-49.444	-0.166	0.079
-588.923	-200.000	-0.017	-0.214
-587.909	145.968	-0.286	-0.381
-586.894	-200.000	-0.015	-0.092
-585.879	149.538	-0.126	-0.170
-584.865	-115.107	-0.435	-0.082
-583.850	-121.437	0.198	0.033
-582.836	-200.000	-0.022	-0.362
-581.821	-116.714	-0.056	-0.010
-580.806	800.000	0.073	-0.258
-579.792	206.439	0.049	0.076
-578.777	572.008	0.079	0.191
-577.763	-48.013	-0.129	-0.062
-576.748	525.957	-0.075	-0.175
-575.733	-30.144	-0.260	0.147
-574.719	131.410	-0.160	-0.204
-573.704	800.000	0.051	-0.207
-572.690	-35.050	0.261	0.141
-571.675	800.000	-0.087	-0.326
-570.661	-136.402	0.322	0.037
-569.646	62.450	0.107	-0.106
-568.631	-200.000	-0.035	0.223
-567.617	-200.000	0.049	0.304
-566.602	109.268	-0.102	-0.121
-565.588	176.273	-0.052	-0.074
-564.573	-15.908	-0.291	0.184
-563.558	-200.000	0.000	-0.234
-562.544	-200.000	-0.043	-0.533
-561.529	-118.171	-0.033	-0.006
-560.515	800.000	0.047	-0.195
-559.500	-200.000	-0.038	0.389
-558.485	64.073	0.130	-0.130
-557.471	-87.625	0.273	0.082
-556.456	-200.000	-0.036	-0.182
-555.442	800.000	0.092	0.298
-554.427	-94.535	0.246	-0.067
-553.412	800.000	0.026	-0.078
-552.398	-200.000	0.011	0.264
-551.383	96.734	0.115	0.131
-550.369	-128.152	0.302	0.043
-549.354	-200.000	-0.019	0.255
-548.339	-58.206	0.288	0.124
-547.325	-200.000	0.014	-0.083
-546.310	27.577	-0.173	-0.145
-545.296	-56.624	0.168	0.074
-544.281	-94.957	0.235	-0.063
-543.266	-200.000	0.040	-0.193
-542.252	7.239	0.297	-0.220
-541.237	-200.000	-0.007	-0.386
-540.223	796.209	0.089	-0.242
-539.208	51.047	-0.058	-0.055
-538.193	323.769	0.042	0.079
-537.179	204.057	0.170	0.261
-536.164	-190.296	-0.313	-0.003
-535.150	114.367	0.300	-0.362
-534.135	-9.954	-0.304	-0.201
-533.121	722.522	0.102	0.270
-532.106	-93.495	0.157	0.043
-531.091	-200.000	0.024	0.179
-530.077	-125.015	-0.204	-0.031
-529.062	800.000	-0.089	-0.280
-528.048	440.357	0.082	-0.177
-527.033	46.425	-0.143	-0.132
-526.018	-24.534	0.002	0.001
-525.004	-32.542	0.320	-0.177
-523.989	37.271	-0.293	-0.258
-522.975	800.000	0.058	0.248
-521.960	-200.000	0.025	0.143
-520.945	-96.962	0.069	-0.018
-519.931	-6.561	-0.334	-0.226
-518.916	-94.114	-0.247	0.067
-517.902	-122.377	0.320	-0.052
-516.887	-59.650	-0.216	-0.092
-515.872	-200.000	-0.058	-0.300
-514.858	150.944	-0.183	-0.247
-513.843	-200.000	0.001	-0.122
-512.829	81.443	-0.172	0.184
-511.814	-197.203	0.165	0.001
-510.799	62.786	0.080	0.079
-509.785	-143.868	0.162	0.015
-508.770	233.106	0.122	-0.198
-507.756	-96.664	0.237	-0.062
-506.741	771.681	-0.053	-0.144
-505.726	30.256	0.223	-0.189
-504.712	23.256	-0.082	0.067
-503.697	-23.276	-0.241	-0.144
-502.683	-200.000	-0.060	0.267
-501.668	154.959	0.182	0.248
-500.653	15.896	-0.134	0.105
-499.639	800.000	0.112	0.370
-498.624	-200.000	0.012	-0.085
-497.610	80.338	-0.199	-0.213
-496.595	347.559	-0.055	0.107
-495.581	52.790	0.160	0.151
-494.566	-46.648	-0.117	0.057
-493.551	-13.493	-0.189	-0.121
-492.537	157.234	-0.195	0.267
-491.522	-200.000	0.011	0.098
-490.508	-62.733	-0.111	-0.045
-489.493	476.242	-0.116	0.260
-488.478	220.112	0.157	-0.250
-487.464	427.185	-0.081	0.174
-486.449	26.746	-0.190	0.158
-485.435	11.143	-0.134	-0.102
-484.420	-200.000	-0.045	0.242
-483.405	-200.000	-0.040	0.189
-482.391	-82.820	-0.053	0.017
-481.376	800.000	-0.208	-0.658
-480.362	32.922	-0.092	-0.079
-479.347	800.000	-0.099	0.395
-478.332	36.162	-0.220	-0.192
-477.318	-200.000	-0.056	0.329
-476.303	508.461	0.120	0.276
-475.289	-169.185	-0.408	0.015
-474.274	418.789	-0.070	0.148
-473.259	-200.000	-0.002	0.245
-472.245	40.744	0.225	-0.201
-471.230	29.087	-0.177	0.149
-470.216	158.543	0.127	-0.175
-469.201	-200.000	0.003	0.088
-468.186	151.128	-0.084	0.113
-467.172	-146.813	0.059	0.005
-466.157	-123.162	-0.127	0.020
-465.143	345.164	-0.156	-0.304
-464.128	-60.075	0.236	-0.100
-463.113	-82.895	0.037	-0.012
-462.099	119.955	0.121	-0.148
-461.084	-63.130	-0.212	-0.087
-460.070	237.554	0.094	0.155
-459.055	-200.000	-0.021	0.158
-458.040	-200.000	-0.002	0.057
-457.026	-88.359	0.146	0.043
-456.011	-70.423	0.098	0.037
-454.997	-71.539	-0.438	-0.162
-453.982	-23.437	-0.227	-0.135
-452.968	57.903	-0.079	0.077
-451.953	-97.846	-0.054	0.014
-450.938	-59.586	0.347	0.147
-449.924	5.293	0.083	-0.060
-448.909	506.830	0.115	0.265
-447.895	-200.000	0.016	0.242
-446.880	50.385	-0.233	0.218
-445.865	113.887	0.225	-0.270
-444.851	5.635	-0.189	0.138
-443.836	-200.000	0.044	0.212
-442.822	284.846	0.106	-0.188
-441.807	473.545	0.019	-0.042
-440.792	-200.000	-0.020	0.129
-439.778	-88.335	0.178	0.053
-438.763	-94.727	-0.212	-0.057
-437.749	800.000	0.046	0.178
-436.734	435.962	-0.053	0.114
-435.719	-8.126	0.134	0.089
-434.705	-146.304	-0.156	-0.013
-433.690	-34.374	0.219	0.119
-432.676	19.147	-0.108	-0.086
-431.661	-138.355	-0.286	-0.031
-430.646	800.000	-0.064	-0.188
-429.632	800.000	0.065	-0.220
-428.617	-123.119	-0.137	-0.022
-427.603	-53.147	-0.075	-0.034
-426.588	-142.771	-0.182	-0.018
-425.573	-174.559	0.391	0.011
-424.559	53.220	-0.189	0.179
-423.544	-120.433	-0.338	0.057
-422.530	-188.137	0.317	0.004
-421.515	-21.354	-0.098	-0.059
-420.500	-119.857	-0.216	-0.037
-419.486	-78.748	0.164	-0.055
-418.471	516.689	-0.160	0.369
-417.457	179.641	-0.095	0.137
-416.442	242.036	-0.162	0.267
-415.428	-119.906	-0.146	0.025
-414.413	-116.316	-0.062	-0.011
-413.398	-200.000	-0.019	0.235
-412.384	3.933	0.192	0.139
-411.369	-108.957	0.281	0.059
-410.355	-22.587	-0.048	0.029
-409.340	-80.759	-0.070	0.023
-408.325	27.184	-0.126	0.104
-407.311	622.986	0.111	-0.277
-406.296	-92.772	0.067	0.019
-405.282	734.695	-0.023	0.061
-404.267	800.000	0.032	0.132
-403.252	190.289	0.043	-0.064
-402.238	-117.516	-0.114	0.020
-401.223	12.382	0.104	-0.079
-400.209	-91.381	0.261	-0.074
-399.194	-200.000	0.042	-0.437
-398.179	-22.907	-0.112	-0.067
-397.165	60.193	0.070	-0.068
-396.150	-8.761	-0.174	0.115
-395.136	-65.149	-0.189	0.075
-394.121	166.877	-0.029	-0.040
-393.106	-200.000	0.002	-0.030
-392.092	228.396	0.059	-0.095
-391.077	-125.192	-0.243	0.037
-390.063	50.048	0.235	0.219
-389.048	-51.578	-0.216	0.100
-388.033	71.237	-0.219	0.224
-387.019	-3.515	-0.233	0.160
-386.004	-188.424	-0.276	0.003
-384.990	-126.074	-0.195	-0.029
-383.975	-193.985	0.181	-0.001
-382.960	204.106	0.157	-0.241
-381.946	451.766	0.037	-0.081
-380.931	211.212	0.022	-0.034
-379.917	800.000	-0.015	-0.046
-378.902	-200.000	0.016	-0.081
-377.888	-200.000	0.025	0.417
-376.873	-52.674	-0.172	0.078
-375.858	285.842	-0.102	0.181
-374.844	-200.000	-0.040	-0.345
-373.829	57.812	0.266	0.256
-372.815	155.773	-0.079	0.108
-371.800	124.513	0.118	0.146
-370.785	57.917	0.100	0.096
-369.771	-88.242	0.165	0.049
-368.756	-53.419	-0.221	0.100
-367.742	-59.604	-0.172	0.073
-366.727	163.814	0.036	-0.050
-365.712	793.751	0.085	-0.231
-364.698	-108.945	0.250	0.053
-363.683	-64.953	-0.215	0.086
-362.669	-200.000	-0.004	-0.197
-361.654	82.536	0.081	-0.087
-360.639	99.361	0.108	-0.123
-359.625	-14.929	0.113	0.072
-358.610	-159.647	-0.189	-0.010
-357.596	-200.000	0.054	0.245
-356.581	512.603	0.205	-0.472
-355.566	-124.204	-0.464	0.072
-354.552	800.000	-0.133	-0.554
-353.537	-200.000	-0.068	0.515
-352.523	-4.767	-0.168	-0.114
-351.508	-19.771	-0.167	-0.102
-350.493	-107.884	0.337	-0.072
-349.479	-200.000	-0.043	0.215
-348.464	-64.269	-0.129	0.052
-347.450	185.300	-0.097	-0.142
-346.435	59.715	0.432	-0.420
-345.420	-200.000	0.005	-0.139
-344.406	-62.877	-0.150	-0.061
-343.391	92.202	0.210	0.233
-342.377	-143.435	0.144	-0.014
-341.362	-41.369	0.244	-0.124
-340.348	800.000	0.073	-0.235
-339.333	-16.611	-0.079	0.049
-338.318	-35.909	-0.232	0.124
-337.304	800.000	-0.027	-0.107
-336.289	69.984	0.133	0.136
-335.275	43.607	-0.258	-0.232
-334.260	82.994	-0.122	0.131
-333.245	-200.000	-0.031	-0.451
-332.231	-12.892	0.156	0.100
-331.216	-108.646	0.286	-0.061
-330.202	-72.532	0.387	-0.141
-329.187	-137.059	-0.441	0.050
-328.172	-146.333	0.176	-0.015
-327.158	191.922	-0.131	-0.195
-326.143	-46.428	-0.190	-0.092
-325.129	-200.000	0.034	-0.434
-324.114	800.000	0.075	0.222
-323.099	800.000	-0.092	0.304
-322.085	-1.067	-0.280	0.195
-321.070	192.279	-0.087	0.130
-320.056	162.586	0.126	0.173
-319.041	-80.547	-0.156	0.051
-318.026	286.779	-0.194	0.345
-317.012	175.517	0.091	-0.129
-315.997	800.000	-0.054	0.231
-314.983	274.995	0.109	0.191
-313.968	-139.428	0.099	0.010
-312.953	196.402	-0.012	0.018
-311.939	21.118	0.190	0.152
-310.924	128.517	0.158	-0.198
-309.910	-42.427	-0.374	-0.188
-308.895	-14.742	0.239	0.151
-307.880	311.116	-0.105	0.194
-306.866	-200.000	-0.036	-0.352
-305.851	402.686	-0.143	0.297
-304.837	-163.068	0.203	-0.010
-303.822	-200.000	0.066	-0.304
-302.807	-200.000	-0.009	-0.040
-301.793	-200.000	-0.033	-0.306
-300.778	-200.000	-0.007	0.105
-299.764	-107.710	0.220	-0.047
-298.749	-200.000	-0.009	-0.095
-297.735	800.000	-0.045	0.159
-296.720	-200.000	0.029	-0.150
-295.705	111.559	0.234	0.278
-294.691	-65.927	-0.087	0.034
-293.676	-89.051	-0.171	0.050
-292.662	-48.599	-0.417	-0.197
-291.647	8.484	-0.356	-0.264
-290.632	58.300	-0.024	0.023
-289.618	45.449	0.035	-0.032
-288.603	-12.064	0.071	0.046
-287.589	-120.253	0.493	-0.083
-286.574	-16.902	-0.157	0.098
-285.559	-200.000	0.042	0.330
-284.545	-91.620	-0.260	-0.073
-283.530	-200.000	-0.017	-0.205
-282.516	61.450	0.101	0.099
-281.501	-55.938	-0.101	0.044
-280.486	-56.325	0.099	0.043
-279.472	160.105	-0.018	-0.024
-278.457	115.485	0.106	0.127
-277.443	192.689	0.088	-0.131
-276.428	123.206	-0.061	0.075
-275.413	-200.000	0.043	0.234
-274.399	25.252	-0.096	-0.078
-273.384	-124.465	-0.229	-0.035
-272.370	-89.388	0.270	-0.078
-271.355	-21.983	0.169	0.101
-270.340	800.000	-0.060	0.175
-269.326	-200.000	-0.005	-0.346
-268.311	-3.120	0.256	0.175
-267.297	31.785	0.146	-0.124
-266.282	-129.550	0.238	0.032
-265.267	75.378	0.113	-0.118
-264.253	-200.000	-0.015	-0.315
-263.238	-200.000	-0.003	-0.115
-262.224	30.385	0.137	0.115
-261.209	34.067	-0.152	0.130
-260.195	188.861	0.089	0.131
-259.180	107.495	0.180	-0.211
-258.165	800.000	-0.048	-0.196
-257.151	127.949	-0.202	0.252
-256.136	-6.416	-0.160	0.107
-255.122	-76.714	-0.160	0.055
-254.107	-49.629	0.198	-0.093
-253.092	72.511	0.223	-0.228
-252.078	392.158	-0.078	0.160
-251.063	-200.000	0.038	0.385
-250.049	100.193	-0.223	0.254
-249.034	10.302	-0.113	-0.084
-248.019	-123.867	0.144	-0.022
-247.005	-10.619	0.076	0.049
-245.990	800.000	-0.063	0.226
-244.976	91.210	0.057	-0.063
-243.961	-174.943	-0.307	-0.008
-242.946	-200.000	0.014	-0.094
-241.932	-200.000	-0.006	-0.080
-240.917	92.098	0.118	0.130
-239.903	800.000	0.058	0.211
-238.888	442.731	0.053	-0.113
-237.873	800.000	-0.102	-0.332
-236.859	75.325	0.286	-0.296
-235.844	47.932	0.052	0.048
-234.830	-62.810	-0.113	-0.046
-233.815	-200.000	-0.036	-0.302
-232.800	256.687	-0.118	0.200
-231.786	-200.000	0.019	-0.091
-230.771	-133.194	-0.346	0.043
-229.757	-75.909	0.059	0.021
-228.742	400.705	0.130	0.268
-227.727	266.123	0.057	-0.097
-226.713	-60.984	-0.166	0.069
-225.698	-92.250	0.484	0.134
-224.684	-35.327	-0.198	0.106
-223.669	625.632	0.102	0.252
-222.655	800.000	0.089	0.255
-221.640	416.432	0.050	0.106
-220.625	-200.000	-0.002	-0.070
-219.611	-55.580	0.388	0.170
-218.596	800.000	-0.088	-0.294
-217.582	104.436	0.089	-0.103
-216.567	-200.000	-0.093	-0.525
-215.552	-63.901	0.272	0.109
-214.538	42.427	0.199	0.177
-213.523	333.820	0.248	0.470
-212.509	56.777	-0.228	-0.218
-211.494	-104.468	0.242	0.055
-210.479	-78.559	-0.045	0.015
-209.465	-200.000	0.007	-0.046
-208.450	239.713	-0.169	-0.277
-207.436	-133.602	0.350	-0.043
-206.421	321.315	0.174	-0.324
-205.406	159.775	0.119	-0.162
-204.392	97.112	0.102	0.115
-203.377	-104.695	0.239	0.054
-202.363	93.099	0.175	0.193
-201.348	800.000	0.048	0.178
-200.333	-22.404	-0.059	0.035
-199.319	-192.622	-0.065	-0.001
-198.304	52.802	-0.260	0.244
-197.290	-21.541	0.193	-0.115
-196.275	-74.601	0.332	0.117
-195.260	-22.652	0.173	0.102
-194.246	20.098	0.171	0.135
-193.231	178.403	0.111	0.158
-192.217	85.787	0.292	0.314
-191.202	-200.000	-0.022	-0.112
-190.187	32.463	0.215	-0.182
-189.173	-3.125	-0.109	0.075
-188.158	-69.357	0.188	-0.071
-187.144	97.282	0.240	-0.270
-186.129	293.682	0.016	0.029
-185.114	-11.335	-0.164	0.106
-184.100	-52.916	0.140	0.063
-183.085	-12.281	-0.251	-0.161
-182.071	-158.470	0.132	-0.008
-181.056	-200.000	0.025	0.229
-180.042	-200.000	-0.066	-0.372
-179.027	358.475	0.112	-0.219
-178.012	-84.740	0.127	-0.039
-176.998	800.000	-0.111	0.381
-175.983	297.781	-0.058	-0.105
-174.969	81.062	0.164	-0.173
-173.954	236.573	-0.117	0.189
-172.939	800.000	-0.018	-0.056
-171.925	800.000	0.045	0.168
-170.910	-176.536	0.194	0.005
-169.896	55.246	-0.130	0.123
-168.881	800.000	0.054	-0.167
-167.866	360.795	-0.091	-0.178
-166.852	-8.690	-0.251	-0.165
-165.837	800.000	0.078	0.281
-164.823	97.986	-0.126	-0.142
-163.808	296.103	-0.204	-0.366
-162.793	-60.954	0.130	0.054
-161.779	694.529	0.045	-0.116
-160.764	-103.766	0.082	0.019
-159.750	-200.000	-0.008	0.244
-158.735	292.814	0.171	-0.305
-157.720	-24.178	0.284	0.166
-156.706	800.000	-0.072	0.268
-155.691	-14.460	-0.158	0.099
-154.677	-153.555	0.191	-0.013
-153.662	-16.816	-0.149	0.092
-152.647	82.879	0.126	0.134
-151.633	-189.626	-0.361	0.004
-150.618	272.065	0.189	0.326
-149.604	158.012	0.153	0.207
-148.589	425.593	0.128	0.269
-147.574	337.425	0.064	-0.121
-146.560	473.516	0.116	0.255
-145.545	74.777	-0.143	-0.147
-144.531	270.086	0.118	0.202
-143.516	-149.735	0.179	-0.014
-142.502	17.329	0.173	-0.134
-141.487	800.000	-0.049	0.178
-140.472	-78.981	-0.122	-0.040
-139.458	-1.737	-0.345	-0.237
-138.443	800.000	0.011	-0.044
-137.429	10.797	0.192	0.143
-136.414	120.247	0.140	0.170
-135.399	-200.000	-0.069	0.303
-134.385	30.055	-0.019	-0.016
-133.370	-46.653	0.252	0.121
-132.356	283.958	0.108	0.190
-131.341	42.832	0.101	0.090
-130.326	437.329	-0.065	-0.138
-129.312	-135.364	0.323	0.038
-128.297	63.131	-0.104	0.101
-127.283	-119.921	-0.235	-0.039
-126.268	-128.913	0.276	0.038
-125.253	-196.591	-0.032	0.000
-124.239	800.000	-0.030	0.090
-123.224	0.413	-0.075	-0.052
-122.210	39.395	-0.117	-0.103
-121.195	-166.140	-0.069	0.003
-120.180	-36.661	0.260	0.136
