DTS Sentinel unit serial number:	SN413079Multiplexer serial number:	ORYXHardware model number:	OX4-SRSoftware version number:	ORYX F/W v4.00 Oryx Data Collector v3.7.2.0data status	okinstallation	princeton_trtdifferential loss correction	single-endedforward channel	channel 3reverse channel	N/Adate	2019/09/18time	23:48:35forward acquisition time	60.00reverse acquisition time	0.00gamma	496.2192k internal	0.2346k external	0.2346temperature offset calibration	0.9991default loss term (dB/km)	0.3790temperature slope calibration	1.0000multiplexer offset coefficient	1.0000multiplexer slope coefficient	1.0000fibre end	0.00T internal ref (°C)	23.33T ext. ref 1 (°C)	0.77T ext. ref 2 (°C)	16.18length (m)	temperature (°C)	Stokes	anti-Stokes-747.200	476.877	0.015	-0.035
-746.185	47.905	0.152	0.142
-745.171	568.194	0.168	-0.408
-744.156	-123.022	-0.212	-0.034
-743.142	-69.720	-0.261	0.100
-742.127	800.000	-0.120	0.345
-741.112	646.113	-0.136	-0.348
-740.098	-200.000	0.003	0.203
-739.083	-200.000	0.044	0.454
-738.069	96.676	0.088	-0.100
-737.054	205.997	0.196	-0.304
-736.039	-140.764	0.279	-0.029
-735.025	41.876	-0.134	-0.121
-734.010	218.081	0.051	-0.082
-732.996	-108.446	0.046	-0.010
-731.981	-126.138	-0.370	-0.055
-730.966	-101.166	0.361	-0.088
-729.952	-14.442	0.329	-0.211
-728.937	-105.183	-0.354	-0.081
-727.923	-200.000	-0.005	-0.101
-726.908	3.731	-0.101	-0.074
-725.894	-115.299	-0.182	-0.034
-724.879	446.268	-0.135	-0.297
-723.864	-7.081	-0.129	0.088
-722.850	-131.252	-0.239	-0.032
-721.835	-56.944	-0.266	-0.117
-720.821	-200.000	0.004	0.163
-719.806	-13.694	0.380	-0.246
-718.791	-115.909	-0.239	-0.045
-717.777	-139.192	-0.158	-0.017
-716.762	-79.512	-0.149	0.050
-715.748	25.830	-0.243	-0.202
-714.733	102.430	-0.231	-0.270
-713.718	197.154	-0.127	-0.194
-712.704	289.036	-0.115	-0.208
-711.689	-55.746	-0.285	-0.127
-710.675	-36.442	0.290	-0.156
-709.660	-149.425	-0.180	0.014
-708.645	-58.275	-0.066	-0.029
-707.631	737.621	-0.091	-0.245
-706.616	-46.691	-0.126	-0.062
-705.602	354.890	-0.114	0.227
-704.587	800.000	0.073	-0.221
-703.572	72.427	0.107	-0.112
-702.558	175.759	-0.171	-0.248
-701.543	-151.202	-0.057	-0.004
-700.529	-24.040	-0.085	-0.051
-699.514	-44.072	0.182	-0.091
-698.499	111.589	-0.196	-0.236
-697.485	-200.000	-0.025	-0.179
-696.470	-172.663	0.164	-0.005
-695.456	-86.643	-0.198	-0.060
-694.441	158.214	-0.176	-0.243
-693.426	-200.000	-0.017	-0.099
-692.412	800.000	0.098	0.296
-691.397	-179.367	0.208	-0.005
-690.383	17.905	0.088	0.070
-689.368	107.212	-0.051	-0.061
-688.354	-84.528	0.062	0.020
-687.339	-19.606	-0.105	-0.065
-686.324	-139.156	-0.245	0.026
-685.310	-167.304	0.093	0.004
-684.295	180.200	-0.181	-0.265
-683.281	-54.585	-0.145	-0.066
-682.266	243.923	0.125	-0.210
-681.251	-70.020	0.304	0.116
-680.237	800.000	0.071	-0.281
-679.222	-200.000	0.008	0.216
-678.208	659.045	0.112	0.287
-677.193	-133.408	-0.161	0.020
-676.178	11.873	-0.221	-0.170
-675.164	-33.567	0.226	-0.124
-674.149	-118.108	-0.206	0.037
-673.135	800.000	-0.017	-0.068
-672.120	-85.000	0.197	-0.062
-671.105	-200.000	0.057	0.271
-670.091	499.308	-0.147	-0.339
-669.076	-146.329	-0.393	-0.034
-668.062	164.496	-0.151	-0.213
-667.047	-71.072	0.119	0.045
-666.032	72.643	-0.073	-0.076
-665.018	-132.082	-0.069	-0.009
-664.003	800.000	0.017	-0.066
-662.989	113.141	0.076	0.092
-661.974	-63.482	-0.257	-0.105
-660.959	-86.416	0.559	0.171
-659.945	137.649	-0.111	0.145
-658.930	-200.000	0.005	-0.252
-657.916	55.366	0.136	-0.131
-656.901	-83.478	-0.105	0.034
-655.886	31.961	-0.080	-0.069
-654.872	190.965	0.101	-0.151
-653.857	-31.426	-0.084	0.047
-652.843	-200.000	0.005	0.031
-651.828	-151.271	-0.182	0.014
-650.814	214.089	0.112	0.177
-649.799	149.600	-0.120	-0.162
-648.784	-67.256	0.163	-0.064
-647.770	523.596	0.063	-0.148
-646.755	402.093	-0.188	-0.394
-645.741	170.180	0.095	0.136
-644.726	-24.613	-0.157	0.093
-643.711	397.619	-0.049	-0.101
-642.697	-41.917	-0.339	0.173
-641.682	126.817	-0.110	0.139
-640.668	63.333	-0.058	0.058
-639.653	-69.761	-0.361	0.137
-638.638	-200.000	0.004	0.151
-637.624	-1.831	0.239	0.168
-636.609	-150.654	-0.092	-0.007
-635.595	111.283	-0.136	-0.163
-634.580	-33.980	-0.125	-0.069
-633.565	-200.000	-0.006	-0.080
-632.551	800.000	-0.010	-0.031
-631.536	456.594	0.131	0.289
-630.522	152.418	-0.258	-0.351
-629.507	-50.011	0.098	-0.046
-628.492	176.302	0.137	0.199
-627.478	-200.000	-0.070	0.361
-626.463	-162.055	0.220	0.011
-625.449	123.943	-0.050	0.063
-624.434	-200.000	-0.017	-0.178
-623.419	102.287	-0.031	0.036
-622.405	-41.493	-0.392	0.201
-621.390	51.784	-0.157	-0.149
-620.376	-200.000	0.015	-0.304
-619.361	-200.000	-0.030	0.152
-618.346	-9.808	-0.152	0.101
-617.332	-161.757	0.125	-0.006
-616.317	118.056	0.223	0.273
-615.303	-42.446	-0.125	-0.063
-614.288	134.889	0.169	0.219
-613.273	-77.726	-0.295	-0.101
-612.259	-85.345	-0.238	0.074
-611.244	-200.000	-0.022	-0.190
-610.230	197.565	0.225	-0.342
-609.215	563.483	-0.060	-0.144
-608.201	38.502	0.189	0.168
-607.186	-105.028	0.225	-0.051
-606.171	95.782	0.192	0.218
-605.157	243.442	-0.102	-0.170
-604.142	172.716	0.061	0.087
-603.128	-50.194	-0.660	0.310
-602.113	-200.000	-0.010	0.177
-601.098	367.512	0.068	0.136
-600.084	560.267	-0.049	0.117
-599.069	607.345	0.134	-0.333
-598.055	-200.000	0.007	0.389
-597.040	285.148	-0.198	-0.355
-596.025	-200.000	-0.001	-0.077
-595.011	28.165	0.308	0.258
-593.996	39.878	-0.290	-0.259
-592.982	-200.000	0.005	0.449
-591.967	-113.447	-0.172	0.033
-590.952	-42.873	0.069	0.035
-589.938	-36.619	-0.225	0.120
-588.923	585.565	-0.177	-0.434
-587.909	-200.000	-0.030	-0.240
-586.894	800.000	-0.022	-0.061
-585.879	-10.732	0.122	-0.080
-584.865	-65.345	-0.093	-0.037
-583.850	-13.964	0.258	-0.166
-582.836	-200.000	0.037	-0.316
-581.821	312.438	-0.257	-0.480
-580.806	603.487	-0.099	-0.245
-579.792	800.000	0.117	0.391
-578.777	-70.182	0.182	-0.069
-577.763	-200.000	-0.024	0.133
-576.748	-200.000	-0.024	-0.120
-575.733	40.348	-0.134	0.120
-574.719	-101.520	0.168	-0.041
-573.704	356.929	-0.064	-0.127
-572.690	330.599	0.070	-0.134
-571.675	-200.000	-0.001	-0.127
-570.661	-200.000	0.188	0.000
-569.646	-20.247	-0.164	0.100
-568.631	-76.388	0.282	0.099
-567.617	-200.000	-0.003	-0.164
-566.602	538.300	-0.047	0.112
-565.588	-142.501	0.287	0.028
-564.573	192.094	-0.040	0.061
-563.558	289.900	-0.023	0.041
-562.544	-89.819	-0.433	-0.126
-561.529	268.073	-0.171	-0.298
-560.515	-27.032	-0.333	0.193
-559.500	800.000	0.104	0.314
-558.485	-200.000	0.130	0.000
-557.471	-161.272	-0.127	0.007
-556.456	367.099	-0.045	-0.090
-555.442	65.322	-0.300	-0.301
-554.427	-200.000	-0.015	0.078
-553.412	-200.000	-0.008	-0.372
-552.398	224.547	0.067	-0.107
-551.383	255.846	-0.110	-0.188
-550.369	-102.233	-0.071	0.017
-549.354	-1.806	-0.089	-0.062
-548.339	-200.000	0.013	0.150
-547.325	-200.000	-0.024	-0.223
-546.310	800.000	0.043	0.167
-545.296	-186.535	-0.306	0.004
-544.281	98.091	-0.054	-0.062
-543.266	-43.160	0.114	0.057
-542.252	184.576	-0.218	-0.320
-541.237	31.253	0.151	-0.128
-540.223	370.760	-0.065	0.130
-539.208	-200.000	0.006	-0.527
-538.193	800.000	0.101	-0.291
-537.179	-111.843	-0.260	-0.052
-536.164	-200.000	-0.017	0.092
-535.150	800.000	-0.072	0.204
-534.135	-200.000	-0.042	0.185
-533.121	-60.755	-0.002	0.001
-532.106	155.874	0.206	0.282
-531.091	-200.000	-0.020	0.107
-530.077	-8.278	-0.118	0.079
-529.062	-200.000	-0.035	0.226
-528.048	-200.000	-0.012	-0.126
-527.033	278.502	0.039	0.069
-526.018	293.583	0.045	0.082
-525.004	103.281	0.119	0.138
-523.989	375.099	-0.036	0.073
-522.975	56.520	0.276	-0.267
-521.960	-10.847	0.085	-0.055
-520.945	-200.000	0.019	-0.217
-519.931	-19.989	0.127	0.077
-518.916	-200.000	-0.053	0.332
-517.902	-200.000	0.010	-0.400
-516.887	457.210	-0.168	-0.371
-515.872	290.137	-0.039	-0.070
-514.858	8.857	0.499	0.373
-513.843	-74.701	-0.146	0.052
-512.829	-200.000	-0.014	0.066
-511.814	-151.975	-0.346	0.025
-510.799	-56.051	0.045	-0.020
-509.785	800.000	-0.022	0.086
-508.770	-148.790	0.238	-0.019
-507.756	-200.000	0.023	-0.148
-506.741	266.242	-0.056	0.097
-505.726	-168.168	-0.334	0.013
-504.712	-66.035	-0.216	-0.085
-503.697	-8.769	0.018	-0.012
-502.683	-200.000	-0.020	-0.193
-501.668	-125.101	-0.151	0.023
-500.653	-200.000	0.027	-0.197
-499.639	-7.770	0.172	-0.115
-498.624	-33.105	-0.142	-0.078
-497.610	-67.056	0.173	0.068
-496.595	-200.000	0.001	0.154
-495.581	315.397	-0.079	-0.148
-494.566	26.457	0.157	-0.130
-493.551	-200.000	0.006	-0.153
-492.537	800.000	-0.099	-0.321
-491.522	800.000	-0.070	0.253
-490.508	-63.851	0.336	0.136
-489.493	-200.000	0.005	-0.089
-488.478	685.890	-0.056	-0.144
-487.464	800.000	0.048	-0.152
-486.449	-200.000	0.009	0.091
-485.435	216.756	-0.077	0.121
-484.420	-200.000	0.023	0.191
-483.405	167.988	0.118	0.165
-482.391	-200.000	0.067	0.292
-481.376	800.000	-0.054	-0.187
-480.362	455.628	0.110	0.241
-479.347	86.813	-0.189	0.206
-478.332	219.216	0.036	-0.056
-477.318	-101.712	0.205	0.049
-476.303	-200.000	-0.007	0.175
-475.289	290.125	-0.058	0.105
-474.274	-200.000	0.001	-0.274
-473.259	-200.000	0.020	-0.142
-472.245	-53.643	-0.435	0.197
-471.230	174.884	0.075	0.107
-470.216	-60.560	-0.288	0.121
-469.201	-200.000	0.042	-0.273
-468.186	800.000	-0.032	-0.129
-467.172	-200.000	0.009	0.127
-466.157	209.401	0.228	0.353
-465.143	59.785	0.169	0.165
-464.128	-200.000	-0.066	0.376
-463.113	89.750	-0.037	0.040
-462.099	-200.000	-0.030	0.516
-461.084	-77.894	0.090	-0.031
-460.070	800.000	-0.066	-0.243
-459.055	-74.504	0.319	-0.114
-458.040	201.272	-0.127	0.193
-457.026	800.000	-0.012	0.048
-456.011	51.155	0.056	0.052
-454.997	-153.657	-0.110	-0.008
-453.982	-200.000	-0.012	-0.117
-452.968	-132.473	0.235	0.030
-451.953	27.289	0.160	-0.133
-450.938	-200.000	0.022	0.405
-449.924	-178.384	0.252	0.006
-448.909	-200.000	0.025	-0.122
-447.895	-200.000	-0.031	-0.201
-446.880	25.211	0.122	-0.100
-445.865	110.424	0.085	-0.101
-444.851	-41.472	0.292	-0.149
-443.836	-200.000	0.034	-0.189
-442.822	800.000	-0.099	0.352
-441.807	-137.193	0.217	0.024
-440.792	800.000	-0.117	-0.360
-439.778	-25.273	-0.050	0.029
-438.763	68.703	0.362	-0.367
-437.749	-30.440	0.121	-0.068
-436.734	1.891	-0.058	-0.042
-435.719	-6.312	-0.152	0.102
-434.705	21.652	-0.184	0.148
-433.690	122.568	-0.035	-0.044
-432.676	-3.217	-0.302	-0.208
-431.661	40.101	0.177	-0.157
-430.646	334.264	-0.093	0.178
-429.632	28.683	0.191	0.159
-428.617	10.802	0.185	0.140
-427.603	800.000	0.084	0.252
-426.588	-14.847	0.319	-0.202
-425.573	-163.558	-0.394	0.018
-424.559	46.395	0.093	0.085
-423.544	-200.000	-0.010	-0.277
-422.530	-200.000	-0.024	-0.192
-421.515	83.107	0.264	-0.283
-420.500	-11.428	-0.131	-0.085
-419.486	-56.293	0.140	0.061
-418.471	-157.723	-0.244	-0.014
-417.457	108.692	0.183	0.216
-416.442	-23.105	-0.193	-0.115
-415.428	-32.967	-0.048	-0.026
-414.413	79.859	-0.239	0.254
-413.398	-200.000	-0.008	-0.293
-412.384	-200.000	0.036	-0.318
-411.369	-40.137	-0.094	-0.048
-410.355	-144.369	0.263	0.024
-409.340	114.917	0.190	0.229
-408.325	-104.148	0.101	-0.023
-407.311	424.243	0.167	0.355
-406.296	-87.957	0.261	-0.077
-405.282	-68.377	0.131	0.050
-404.267	-87.244	0.189	-0.057
-403.252	-200.000	0.020	-0.275
-402.238	388.731	-0.246	0.502
-401.223	125.391	-0.278	-0.346
-400.209	800.000	-0.029	0.105
-399.194	-168.983	-0.395	0.015
-398.179	139.410	0.179	-0.233
-397.165	-25.109	0.024	0.014
-396.150	280.369	0.104	-0.184
-395.136	-52.228	0.186	-0.085
-394.121	800.000	-0.080	0.309
-393.106	800.000	0.067	-0.186
-392.092	-200.000	-0.078	0.357
-391.077	56.148	-0.192	-0.184
-390.063	-79.764	0.242	0.080
-389.048	-200.000	0.007	0.073
-388.033	33.313	0.081	0.070
-387.019	-120.462	0.293	0.049
-386.004	-118.628	0.146	0.025
-384.990	-91.875	0.175	0.049
-383.975	343.661	-0.183	-0.353
-382.960	362.368	-0.067	-0.132
-381.946	-200.000	0.047	-0.283
-380.931	101.578	-0.110	0.126
-379.917	-200.000	-0.042	0.257
-378.902	-200.000	0.009	0.042
-377.888	-14.688	-0.185	-0.117
-376.873	61.190	-0.103	0.101
-375.858	37.944	-0.102	0.090
-374.844	-11.828	-0.352	-0.227
-373.829	34.676	-0.269	-0.232
-372.815	-22.078	-0.128	-0.077
-371.800	-35.850	0.262	0.140
-370.785	-200.000	0.038	-0.295
-369.771	577.242	0.117	-0.282
-368.756	86.989	-0.085	0.092
-367.742	-175.985	0.195	0.005
-366.727	532.857	0.072	-0.168
-365.712	-200.000	0.050	-0.340
-364.698	216.174	0.180	-0.281
-363.683	-52.224	-0.185	-0.084
-362.669	107.486	0.141	0.166
-361.654	-200.000	-0.055	-0.434
-360.639	-66.843	0.072	-0.028
-359.625	721.827	-0.083	-0.217
-358.610	325.675	-0.030	-0.057
-357.596	64.035	-0.034	-0.034
-356.581	-87.068	-0.204	-0.061
-355.566	220.117	0.115	0.181
-354.552	-200.000	0.020	0.158
-353.537	-200.000	0.009	-0.111
-352.523	-200.000	-0.003	0.014
-351.508	345.201	-0.117	0.227
-350.493	-109.477	0.159	0.033
-349.479	-84.901	0.080	0.025
-348.464	-200.000	-0.032	0.197
-347.450	800.000	0.081	0.339
-346.435	281.016	-0.132	0.233
-345.420	-41.567	-0.330	-0.167
-344.406	526.596	0.078	0.182
-343.391	-100.956	-0.091	-0.022
-342.377	-46.522	-0.289	0.140
-341.362	-196.029	0.116	0.001
-340.348	-61.013	0.100	0.041
-339.333	-140.029	-0.144	-0.015
-338.318	-123.089	0.149	-0.024
-337.304	238.518	0.167	0.273
-336.289	-161.398	0.230	-0.012
-335.275	800.000	-0.094	-0.260
-334.260	-68.242	-0.424	0.162
-333.245	203.322	-0.166	-0.253
-332.231	328.876	0.123	0.233
-331.216	278.545	0.071	0.125
-330.202	-62.578	0.030	-0.012
-329.187	-153.119	-0.085	0.006
-328.172	5.144	0.037	0.027
-327.158	-200.000	0.002	0.066
-326.143	8.942	-0.234	0.174
-325.129	-200.000	-0.115	-0.000
-324.114	67.348	0.033	0.033
-323.099	-38.613	0.113	-0.059
-322.085	-124.857	0.032	-0.005
-321.070	800.000	-0.025	0.097
-320.056	8.391	-0.120	-0.089
-319.041	-151.385	0.113	-0.008
-318.026	-200.000	0.006	-0.193
-317.012	800.000	-0.074	0.232
-315.997	-58.367	-0.325	-0.139
-314.983	25.361	-0.152	-0.124
-313.968	-168.475	-0.285	0.011
-312.953	437.034	-0.067	0.143
-311.939	95.073	-0.210	-0.235
-310.924	-83.205	0.402	-0.127
-309.910	286.713	-0.094	0.167
-308.895	-200.000	-0.010	0.140
-307.880	800.000	0.097	0.405
-306.866	164.339	-0.078	0.108
-305.851	-200.000	-0.017	-0.105
-304.837	-200.000	-0.001	0.006
-303.822	800.000	-0.090	-0.303
-302.807	-80.893	0.291	0.095
-301.793	-151.611	0.192	-0.014
-300.778	-200.000	-0.055	0.299
-299.764	-50.328	-0.180	-0.083
-298.749	-79.501	0.433	0.144
-297.735	-80.786	-0.073	0.024
-296.720	116.681	0.048	0.058
-295.705	347.665	0.185	-0.359
-294.691	800.000	0.050	0.147
-293.676	579.008	-0.059	0.141
-292.662	-200.000	0.181	0.000
-291.647	246.644	-0.151	-0.249
-290.632	37.434	-0.080	0.070
-289.618	673.808	0.068	0.173
-288.603	800.000	0.129	0.370
-287.589	-120.989	0.173	-0.028
-286.574	-200.000	-0.059	-0.261
-285.559	-64.088	-0.061	-0.024
-284.545	-43.531	0.108	-0.054
-283.530	800.000	0.034	-0.139
-282.516	800.000	-0.059	-0.238
-281.501	-200.000	0.027	-0.268
-280.486	-63.173	0.247	0.100
-279.472	486.802	0.120	0.269
-278.457	-200.000	-0.061	0.271
-277.443	246.042	-0.088	-0.146
-276.428	538.799	0.122	0.284
-275.413	800.000	0.134	0.446
-274.399	489.436	0.084	0.189
-273.384	20.173	0.120	0.095
-272.370	-132.573	-0.251	0.032
-271.355	-82.978	-0.221	-0.070
-270.340	800.000	-0.146	-0.469
-269.326	155.976	0.124	0.168
-268.311	800.000	-0.104	0.313
-267.297	126.999	-0.094	-0.117
-266.282	800.000	0.102	-0.318
-265.267	-108.834	0.177	-0.037
-264.253	-78.107	-0.163	0.055
-263.238	334.572	-0.139	0.264
-262.224	-46.946	0.060	0.029
-261.209	-141.422	-0.538	0.053
-260.195	-200.000	0.012	0.119
-259.180	2.791	0.185	0.131
-258.165	169.128	-0.093	0.130
-257.151	399.294	-0.112	0.230
-256.136	-110.241	0.146	-0.030
-255.122	105.563	0.295	0.342
-254.107	-38.160	0.201	-0.104
-253.092	-138.751	0.078	0.008
-252.078	-0.530	-0.161	-0.112
-251.063	800.000	-0.037	0.134
-250.049	-130.911	0.052	-0.007
-249.034	-200.000	0.032	-0.278
-248.019	800.000	0.113	0.333
-247.005	-200.000	-0.012	-0.052
-245.990	-21.045	0.215	0.129
-244.976	27.016	0.261	0.215
-243.961	-200.000	-0.057	-0.256
-242.946	-92.236	-0.090	-0.025
-241.932	-79.894	-0.126	0.041
-240.917	22.932	-0.145	-0.117
-239.903	-100.442	0.262	0.064
-238.888	667.393	0.181	0.458
-237.873	10.222	0.139	0.104
-236.859	28.514	-0.169	0.140
-235.844	509.647	-0.118	-0.270
-234.830	-200.000	0.037	-0.212
-233.815	-200.000	-0.033	0.249
-232.800	-16.070	0.285	0.178
-231.786	-87.711	-0.058	0.017
-230.771	-5.128	-0.098	-0.066
-229.757	-148.538	-0.375	0.030
-228.742	64.611	0.284	-0.280
-227.727	-133.571	0.379	-0.047
-226.713	405.758	-0.036	-0.075
-225.698	6.757	0.256	0.186
-224.684	-158.832	-0.074	-0.004
-223.669	-71.467	0.388	-0.142
-222.655	127.495	-0.225	-0.280
-221.640	-152.194	-0.221	-0.016
-220.625	-42.765	0.265	-0.132
-219.611	98.503	-0.132	0.149
-218.596	406.274	-0.069	-0.142
-217.582	800.000	-0.061	-0.228
-216.567	-93.346	0.241	-0.065
-215.552	483.187	0.059	-0.131
-214.538	-200.000	-0.035	0.300
-213.523	800.000	0.075	0.226
-212.509	-45.500	0.255	-0.124
-211.494	-13.075	-0.388	-0.247
-210.479	-68.187	-0.145	0.055
-209.465	-2.999	0.053	-0.036
-208.450	800.000	-0.084	-0.256
-207.436	325.781	-0.090	-0.169
-206.421	-113.955	0.263	0.050
-205.406	281.266	0.019	0.034
-204.392	296.431	-0.133	0.239
-203.377	-82.477	-0.166	-0.053
-202.363	-45.101	0.259	-0.126
-201.348	63.260	0.079	0.077
-200.333	-200.000	0.035	-0.156
-199.319	-41.700	0.181	0.091
-198.304	736.052	0.082	0.216
-197.290	221.409	-0.075	0.119
-196.275	407.588	0.100	0.207
-195.260	-28.732	-0.130	-0.073
-194.246	-133.773	0.421	-0.051
-193.231	34.243	0.210	-0.179
-192.217	288.582	0.129	-0.229
-191.202	-69.160	-0.140	-0.053
-190.187	-169.712	0.190	0.007
-189.173	-129.476	0.106	-0.014
-188.158	398.720	-0.167	-0.341
-187.144	-200.000	-0.001	-0.082
-186.129	141.884	-0.134	-0.173
-185.114	665.168	-0.145	0.366
-184.100	37.041	-0.153	0.133
-183.085	800.000	-0.023	0.072
-182.071	-134.301	0.413	0.050
-181.056	109.322	-0.205	-0.240
-180.042	800.000	0.011	0.031
-179.027	800.000	-0.052	0.183
-178.012	-157.372	-0.292	0.017
-176.998	-200.000	0.107	0.000
-175.983	-154.744	-0.263	-0.017
-174.969	-200.000	-0.003	-0.062
-173.954	120.325	0.149	-0.181
-172.939	-142.584	0.100	0.010
-171.925	-193.593	-0.192	-0.002
-170.910	-200.000	0.026	0.208
-169.896	800.000	-0.101	0.420
-168.881	-200.000	0.028	0.198
-167.866	98.779	0.191	0.215
-166.852	84.327	0.052	0.055
-165.837	247.202	0.240	-0.396
-164.823	322.791	-0.176	-0.329
-163.808	142.569	-0.129	0.168
-162.793	-7.103	0.192	-0.127
-161.779	239.705	-0.057	-0.092
-160.764	493.820	-0.044	0.099
-159.750	-27.651	-0.105	-0.059
-158.735	108.265	-0.128	0.149
-157.720	-200.000	0.015	-0.229
-156.706	800.000	-0.070	0.223
-155.691	92.058	0.198	0.218
-154.677	-107.510	0.248	-0.053
-153.662	27.808	0.229	0.188
-152.647	-33.116	-0.236	-0.128
-151.633	-200.000	0.065	0.331
-150.618	30.137	0.281	-0.234
-149.604	35.405	0.300	-0.257
-148.589	-65.823	-0.149	-0.058
-147.574	402.409	0.120	-0.246
-146.560	-70.408	-0.295	0.109
-145.545	452.377	-0.077	-0.165
-144.531	111.361	-0.099	-0.116
-143.516	-82.527	-0.184	0.058
-142.502	-200.000	-0.051	0.329
-141.487	581.295	0.116	-0.278
-140.472	43.035	0.190	-0.169
-139.458	188.004	0.188	0.274
-138.443	118.619	0.073	0.088
-137.429	106.036	-0.124	-0.143
-136.414	174.999	-0.094	0.132
-135.399	800.000	0.047	0.148
-134.385	-96.598	-0.048	-0.012
-133.370	-92.380	0.257	0.071
-132.356	425.601	-0.089	0.188
-131.341	35.495	-0.038	-0.033
-130.326	95.914	-0.076	-0.085
-129.312	-200.000	0.008	-0.255
-128.297	379.181	0.028	0.056
-127.283	-200.000	0.057	0.268
-126.268	-27.985	0.401	0.227
-125.253	28.496	0.194	-0.161
-124.239	-102.338	-0.361	-0.085
-123.224	-70.676	0.105	-0.039
