DTS Sentinel unit serial number:	SN413079Multiplexer serial number:	ORYXHardware model number:	OX4-SRSoftware version number:	ORYX F/W v4.00 Oryx Data Collector v3.7.2.0data status	okinstallation	princeton_trtdifferential loss correction	single-endedforward channel	channel 3reverse channel	N/Adate	2019/09/16time	03:12:35forward acquisition time	60.00reverse acquisition time	0.00gamma	496.2192k internal	0.2334k external	0.2334temperature offset calibration	0.9953default loss term (dB/km)	0.3790temperature slope calibration	1.0000multiplexer offset coefficient	1.0000multiplexer slope coefficient	1.0000fibre end	0.00T internal ref (°C)	27.75T ext. ref 1 (°C)	10.48T ext. ref 2 (°C)	22.06length (m)	temperature (°C)	Stokes	anti-Stokes-747.200	-111.961	0.213	-0.043
-746.185	55.774	0.201	0.196
-745.171	-14.855	-0.216	0.140
-744.156	-69.250	-0.217	0.084
-743.142	-200.000	0.014	0.398
-742.127	-123.541	0.064	0.010
-741.112	12.077	-0.113	0.087
-740.098	-151.021	-0.147	0.011
-739.083	-200.000	-0.018	0.316
-738.069	161.047	-0.245	0.344
-737.054	-75.995	0.182	-0.065
-736.039	-117.482	-0.346	0.063
-735.025	141.466	-0.089	-0.119
-734.010	-106.665	-0.469	0.105
-732.996	-200.000	-0.007	-0.038
-731.981	162.616	0.122	-0.172
-730.966	-53.496	-0.340	0.156
-729.952	800.000	-0.071	-0.254
-728.937	-200.000	0.059	-0.306
-727.923	137.751	-0.185	0.243
-726.908	-79.171	0.284	-0.097
-725.894	-108.176	-0.058	-0.013
-724.879	47.804	0.111	0.104
-723.864	-47.370	-0.354	-0.173
-722.850	248.515	0.058	-0.099
-721.835	115.819	-0.093	0.115
-720.821	-86.640	-0.405	-0.125
-719.806	62.892	-0.240	-0.241
-718.791	61.177	-0.091	0.091
-717.777	481.355	-0.117	0.266
-716.762	59.561	-0.248	0.245
-715.748	-75.042	0.111	-0.040
-714.733	-93.962	-0.425	-0.117
-713.718	-147.982	-0.016	-0.001
-712.704	-129.759	0.126	-0.017
-711.689	-78.630	-0.137	-0.047
-710.675	139.413	-0.159	-0.211
-709.660	-79.857	-0.187	-0.063
-708.645	-46.763	0.258	0.127
-707.631	-175.585	0.180	-0.005
-706.616	739.809	-0.177	0.478
-705.602	42.677	-0.279	0.255
-704.587	219.725	0.046	-0.074
-703.572	-100.823	0.157	0.039
-702.558	-200.000	0.060	-0.277
-701.543	109.784	0.131	-0.157
-700.529	183.933	0.022	0.032
-699.514	-124.335	0.370	0.058
-698.499	-5.771	-0.171	0.118
-697.485	-69.229	-0.253	-0.098
-696.470	190.974	-0.070	-0.106
-695.456	-50.812	0.123	0.058
-694.441	137.390	0.224	-0.294
-693.426	230.703	-0.098	-0.161
-692.412	-82.732	-0.264	0.086
-691.397	-7.302	0.233	-0.159
-690.383	120.966	-0.269	0.336
-689.368	98.136	0.265	0.306
-688.354	-115.262	-0.084	-0.016
-687.339	458.017	0.049	-0.109
-686.324	25.851	-0.150	0.125
-685.310	800.000	-0.102	0.324
-684.295	569.868	-0.119	0.291
-683.281	138.774	-0.069	-0.091
-682.266	712.897	0.011	0.030
-681.251	800.000	-0.109	0.356
-680.237	-22.047	0.042	-0.025
-679.222	-77.214	-0.293	0.102
-678.208	-115.123	-0.223	-0.042
-677.193	382.626	-0.063	-0.129
-676.178	224.175	0.174	-0.281
-675.164	-200.000	0.008	0.057
-674.149	153.627	0.086	0.118
-673.135	9.448	0.109	0.083
-672.120	81.240	0.135	0.146
-671.105	282.679	0.068	0.121
-670.091	-125.345	0.397	0.061
-669.076	-100.884	-0.196	0.048
-668.062	33.203	0.062	-0.054
-667.047	116.192	0.121	0.148
-666.032	-125.232	-0.284	0.044
-665.018	716.435	0.030	-0.080
-664.003	-151.697	-0.237	-0.017
-662.989	-172.228	0.448	0.014
-661.974	800.000	-0.140	-0.440
-660.959	433.311	0.022	-0.049
-659.945	-128.141	-0.433	-0.062
-658.930	228.939	0.326	-0.532
-657.916	307.800	0.036	0.067
-656.901	-96.316	0.258	0.068
-655.886	-181.790	0.230	-0.004
-654.872	602.435	0.046	0.116
-653.857	-189.226	0.146	-0.002
-652.843	569.979	-0.145	-0.352
-651.828	-133.562	-0.163	-0.020
-650.814	665.504	0.088	-0.227
-649.799	-200.000	-0.092	-0.521
-648.784	307.698	-0.118	0.220
-647.770	-200.000	0.035	0.241
-646.755	37.652	0.076	-0.067
-645.741	23.008	0.095	0.078
-644.726	-52.994	0.077	-0.035
-643.711	96.745	0.126	0.144
-642.697	18.065	0.068	-0.054
-641.682	-1.426	0.016	-0.012
-640.668	236.538	-0.248	0.411
-639.653	-66.207	0.459	0.183
-638.638	19.731	-0.167	-0.134
-637.624	-52.202	-0.134	-0.062
-636.609	-9.703	0.173	-0.115
-635.595	-67.294	-0.283	0.111
-634.580	800.000	0.052	0.211
-633.565	60.631	0.233	-0.231
-632.551	465.599	0.160	0.358
-631.536	-200.000	0.005	0.102
-630.522	293.762	-0.174	0.317
-629.507	-37.725	-0.278	0.148
-628.492	60.443	0.122	-0.121
-627.478	218.175	0.062	0.099
-626.463	100.743	-0.104	-0.121
-625.449	-24.869	-0.316	-0.188
-624.434	71.078	0.089	-0.092
-623.419	147.047	-0.206	0.277
-622.405	19.301	0.079	-0.064
-621.390	-28.539	0.165	-0.095
-620.376	146.545	-0.095	-0.127
-619.361	-34.602	-0.085	0.047
-618.346	-77.010	0.286	-0.100
-617.332	106.017	0.187	0.222
-616.317	-200.000	0.034	-0.384
-615.303	-200.000	0.004	-0.102
-614.288	-79.079	0.200	0.068
-613.273	0.015	-0.129	0.092
-612.259	165.252	0.127	0.179
-611.244	105.665	-0.285	-0.337
-610.230	243.811	0.049	-0.082
-609.215	-2.556	-0.147	-0.103
-608.201	29.340	-0.146	-0.124
-607.186	-27.030	0.252	-0.147
-606.171	800.000	-0.096	-0.308
-605.157	-200.000	0.025	0.120
-604.142	-183.103	0.276	0.005
-603.128	-200.000	-0.030	0.134
-602.113	-20.839	-0.159	0.097
-601.098	800.000	-0.109	0.414
-600.084	-200.000	-0.009	-0.276
-599.069	191.634	0.178	-0.268
-598.055	-86.885	0.099	-0.030
-597.040	568.470	0.026	-0.062
-596.025	427.889	0.129	-0.278
-595.011	297.207	-0.223	0.410
-593.996	800.000	0.066	-0.183
-592.982	-102.932	-0.283	-0.067
-591.967	-200.000	-0.031	-0.211
-590.952	-134.036	0.118	0.015
-589.938	57.824	0.301	-0.294
-588.923	185.534	0.171	0.254
-587.909	-105.428	-0.210	0.048
-586.894	-108.918	-0.115	-0.025
-585.879	-200.000	0.010	0.174
-584.865	429.703	0.047	-0.101
-583.850	3.085	-0.136	0.098
-582.836	-65.045	0.181	-0.073
-581.821	-200.000	0.064	-0.298
-580.806	-200.000	-0.006	0.034
-579.792	197.467	0.165	0.252
-578.777	540.309	-0.066	-0.156
-577.763	-43.164	-0.320	-0.162
-576.748	-81.433	0.238	-0.078
-575.733	-200.000	0.010	-0.139
-574.719	449.551	0.074	-0.163
-573.704	-11.684	0.025	-0.017
-572.690	-26.351	0.308	0.180
-571.675	183.388	0.131	0.193
-570.661	-91.993	0.258	0.073
-569.646	-200.000	0.044	-0.195
-568.631	-36.778	-0.034	-0.018
-567.617	63.352	-0.293	0.293
-566.602	-200.000	-0.014	-0.358
-565.588	-33.131	-0.086	0.048
-564.573	-9.704	-0.142	0.094
-563.558	-62.216	-0.315	0.131
-562.544	32.547	0.199	0.172
-561.529	215.882	-0.082	-0.129
-560.515	-200.000	0.019	0.122
-559.500	99.646	-0.077	0.089
-558.485	-200.000	-0.022	-0.229
-557.471	69.698	0.043	0.044
-556.456	208.766	-0.041	-0.063
-555.442	800.000	0.072	-0.295
-554.427	-200.000	0.056	0.369
-553.412	-200.000	0.041	0.294
-552.398	-200.000	-0.104	0.000
-551.383	-200.000	-0.002	0.048
-550.369	128.462	-0.246	-0.312
-549.354	23.034	0.300	-0.245
-548.339	320.746	-0.162	-0.306
-547.325	800.000	0.057	-0.214
-546.310	109.507	0.055	-0.065
-545.296	-156.626	-0.089	-0.005
-544.281	73.711	-0.105	-0.109
-543.266	528.057	0.127	0.299
-542.252	-80.614	-0.030	-0.010
-541.237	800.000	-0.140	-0.419
-540.223	-17.247	0.200	-0.126
-539.208	530.467	-0.107	0.251
-538.193	-200.000	0.012	0.211
-537.179	-18.125	-0.320	0.200
-536.164	-82.655	-0.429	-0.138
-535.150	-151.446	-0.409	-0.030
-534.135	-200.000	0.002	0.248
-533.121	-200.000	-0.035	-0.183
-532.106	-200.000	-0.003	-0.039
-531.091	800.000	-0.073	-0.302
-530.077	-200.000	-0.056	-0.296
-529.062	15.608	-0.179	0.141
-528.048	-77.774	0.164	0.056
-527.033	800.000	-0.049	-0.187
-526.018	-200.000	0.013	-0.146
-525.004	-200.000	0.049	-0.487
-523.989	-67.183	0.273	-0.107
-522.975	175.378	-0.350	0.505
-521.960	-200.000	-0.032	-0.143
-520.945	-200.000	0.054	0.251
-519.931	-200.000	0.000	0.128
-518.916	60.024	0.141	-0.139
-517.902	71.734	-0.355	-0.368
-516.887	380.976	-0.012	0.025
-515.872	-117.082	0.241	0.044
-514.858	-200.000	0.154	-0.001
-513.843	800.000	-0.174	-0.546
-512.829	502.982	-0.157	0.361
-511.814	800.000	-0.027	0.107
-510.799	-111.537	0.099	-0.020
-509.785	37.855	-0.143	0.126
-508.770	525.518	0.013	0.032
-507.756	-200.000	0.007	-0.324
-506.741	760.360	-0.104	-0.280
-505.726	398.181	-0.151	-0.314
-504.712	-108.994	0.225	-0.048
-503.697	-43.172	-0.201	0.101
-502.683	245.800	-0.086	-0.143
-501.668	-123.182	0.125	0.020
-500.653	24.969	-0.164	0.136
-499.639	106.363	-0.067	-0.079
-498.624	-200.000	-0.029	-0.322
-497.610	207.327	-0.049	-0.075
-496.595	101.104	0.156	0.180
-495.581	-200.000	0.047	-0.209
-494.566	269.949	-0.078	0.136
-493.551	800.000	-0.132	0.369
-492.537	103.765	-0.099	-0.116
-491.522	-31.798	0.294	0.164
-490.508	99.003	0.253	0.290
-489.493	16.953	0.105	-0.082
-488.478	126.231	-0.036	-0.045
-487.464	-141.965	-0.337	0.033
-486.449	-48.020	0.109	-0.052
-485.435	-86.610	0.236	-0.072
-484.420	657.855	-0.104	-0.265
-483.405	1.475	-0.099	0.071
-482.391	800.000	0.196	0.543
-481.376	44.993	-0.202	-0.185
-480.362	-29.172	-0.049	0.028
-479.347	-18.829	-0.246	0.152
-478.332	532.038	0.074	0.175
-477.318	365.582	-0.177	-0.355
-476.303	-114.231	0.220	-0.042
-475.289	-131.859	-0.162	-0.021
-474.274	-93.645	-0.335	0.092
-473.259	178.823	0.057	0.082
-472.245	121.656	0.084	-0.104
-471.230	-86.936	-0.395	-0.120
-470.216	800.000	-0.087	-0.333
-469.201	-200.000	0.012	0.077
-468.186	-200.000	-0.061	-0.281
-467.172	-144.904	-0.095	0.009
-466.157	416.311	0.065	-0.139
-465.143	-200.000	0.012	0.142
-464.128	-200.000	0.003	-0.049
-463.113	-21.039	0.274	0.167
-462.099	119.658	-0.243	-0.299
-461.084	213.971	-0.172	-0.271
-460.070	-200.000	0.025	0.168
-459.055	429.765	0.145	-0.312
-458.040	-200.000	-0.003	-0.021
-457.026	5.760	-0.022	0.016
-456.011	319.547	-0.168	0.317
-454.997	292.947	0.068	-0.124
-453.982	217.240	0.150	-0.237
-452.968	444.529	0.118	0.258
-451.953	155.729	0.084	0.115
-450.938	71.893	0.096	-0.100
-449.924	-112.060	0.275	0.055
-448.909	-22.858	-0.211	0.127
-447.895	-200.000	0.013	0.148
-446.880	774.988	-0.051	-0.140
-445.865	427.335	0.129	-0.276
-444.851	-70.513	-0.167	0.063
-443.836	-122.651	-0.218	-0.035
-442.822	-200.000	0.021	0.266
-441.807	1.118	0.145	0.103
-440.792	-93.671	-0.331	0.091
-439.778	7.786	-0.281	0.209
-438.763	85.153	-0.147	-0.161
-437.749	-46.033	-0.092	-0.045
-436.734	-200.000	-0.017	-0.174
-435.719	-200.000	0.037	-0.305
-434.705	61.613	0.059	0.059
-433.690	259.852	0.022	0.038
-432.676	-82.898	0.057	-0.018
-431.661	-83.522	0.364	0.116
-430.646	-82.784	-0.063	-0.020
-429.632	177.225	-0.243	0.351
-428.617	-115.854	-0.303	0.056
-427.603	283.851	-0.177	0.315
-426.588	-200.000	0.058	-0.363
-425.573	800.000	-0.025	0.081
-424.559	-79.560	0.503	-0.169
-423.544	-49.255	0.372	0.176
-422.530	53.986	-0.141	0.135
-421.515	415.981	0.174	-0.367
-420.500	-70.828	-0.165	0.062
-419.486	-200.000	0.027	0.406
-418.471	-21.924	-0.255	-0.154
-417.457	-200.000	-0.018	0.091
-416.442	122.593	0.118	-0.147
-415.428	800.000	-0.025	0.096
-414.413	116.024	-0.137	-0.166
-413.398	-200.000	0.021	-0.310
-412.384	757.777	0.121	-0.325
-411.369	-200.000	-0.019	-0.177
-410.355	-57.806	0.119	-0.051
-409.340	240.062	0.165	-0.272
-408.325	-19.810	0.339	0.208
-407.311	-200.000	-0.039	0.286
-406.296	-200.000	-0.014	-0.108
-405.282	-200.000	0.005	-0.249
-404.267	-8.201	0.088	-0.059
-403.252	-200.000	-0.006	-0.162
-402.238	522.820	0.070	0.164
-401.223	-200.000	0.029	-0.185
-400.209	-41.883	0.093	-0.047
-399.194	-5.237	-0.372	-0.253
-398.179	1.323	-0.177	0.126
-397.165	-131.608	0.457	0.060
-396.150	67.815	-0.183	-0.185
-395.136	-37.137	-0.382	0.203
-394.121	-27.644	0.174	0.100
-393.106	-28.370	-0.214	-0.122
-392.092	-200.000	0.036	0.219
-391.077	-200.000	0.023	0.228
-390.063	-17.475	0.120	0.075
-389.048	342.439	0.053	-0.103
-388.033	-166.254	0.157	0.007
-387.019	800.000	-0.097	0.323
-386.004	-200.000	0.009	-0.145
-384.990	-200.000	-0.040	-0.256
-383.975	-55.843	0.174	0.077
-382.960	34.834	-0.074	0.064
-381.946	-61.175	0.421	0.176
-380.931	-79.861	-0.093	0.031
-379.917	-140.367	0.416	-0.043
-378.902	-71.770	-0.336	0.124
-377.888	-200.000	0.039	0.252
-376.873	69.042	-0.122	-0.124
-375.858	800.000	0.061	-0.171
-374.844	-48.002	0.353	-0.169
-373.829	-11.332	0.145	0.095
-372.815	155.051	-0.136	0.185
-371.800	453.523	0.114	0.251
-370.785	-122.427	-0.236	-0.038
-369.771	-200.000	0.026	0.138
-368.756	800.000	-0.095	-0.277
-367.742	435.342	-0.033	0.071
-366.727	200.837	0.254	0.387
-365.712	-101.783	-0.138	-0.033
-364.698	-200.000	-0.018	0.161
-363.683	-200.000	0.018	-0.330
-362.669	-62.077	0.263	-0.109
-361.654	-114.184	-0.311	-0.059
-360.639	-200.000	0.020	0.192
-359.625	800.000	0.024	0.088
-358.610	373.796	0.034	0.068
-357.596	109.901	-0.168	0.199
-356.581	-200.000	-0.003	0.175
-355.566	0.591	-0.255	-0.180
-354.552	-71.799	-0.121	0.045
-353.537	-66.739	0.061	0.024
-352.523	-172.779	-0.480	-0.015
-351.508	9.971	0.211	0.159
-350.493	-14.378	0.267	-0.170
-349.479	800.000	0.029	0.111
-348.464	800.000	0.118	-0.325
-347.450	114.569	0.223	0.269
-346.435	-200.000	0.004	0.187
-345.420	-142.200	0.375	-0.037
-344.406	-200.000	0.032	0.350
-343.391	12.752	-0.232	0.177
-342.377	84.542	0.094	-0.101
-341.362	42.542	-0.159	0.143
-340.348	-200.000	0.028	-0.226
-339.333	-100.318	0.049	0.012
-338.318	116.400	0.057	-0.069
-337.304	-99.500	0.194	-0.048
-336.289	9.127	-0.034	0.026
-335.275	-162.134	-0.162	0.008
-334.260	-200.000	0.090	-0.412
-333.245	100.729	-0.116	0.133
-332.231	-3.545	-0.102	-0.070
-331.216	-186.951	0.268	-0.004
-330.202	-95.224	0.077	0.020
-329.187	-200.000	-0.059	0.340
-328.172	-9.030	0.321	-0.212
-327.158	-64.330	0.161	0.065
-326.143	17.051	0.102	-0.080
-325.129	204.428	0.056	0.085
-324.114	-200.000	-0.001	0.289
-323.099	6.740	0.110	-0.081
-322.085	163.529	0.233	0.324
-321.070	-78.216	-0.172	-0.058
-320.056	-200.000	0.019	0.434
-319.041	800.000	0.027	-0.080
-318.026	-44.037	0.106	0.053
-317.012	-69.397	-0.166	-0.063
-315.997	800.000	0.034	0.116
-314.983	-9.846	-0.128	0.084
-313.968	-110.010	-0.283	0.058
-312.953	800.000	-0.028	0.099
-311.939	-24.721	-0.381	0.224
-310.924	64.064	-0.056	-0.055
-309.910	158.803	0.231	-0.318
-308.895	603.151	0.062	-0.154
-307.880	-200.000	0.003	0.080
-306.866	-32.352	0.136	-0.075
-305.851	36.125	-0.329	-0.286
-304.837	-132.251	-0.434	-0.055
-303.822	-23.967	-0.271	-0.160
-302.807	146.866	0.047	-0.063
-301.793	345.360	-0.080	0.156
-300.778	-200.000	0.007	0.367
-299.764	-51.702	0.142	0.065
-298.749	303.729	-0.004	-0.007
-297.735	737.806	0.080	-0.212
-296.720	-120.628	0.147	-0.025
-295.705	800.000	0.118	0.381
-294.691	-84.386	-0.252	0.079
-293.676	-91.935	-0.382	0.107
-292.662	-19.828	-0.084	-0.051
-291.647	-163.905	0.422	-0.019
-290.632	27.300	-0.180	-0.150
-289.618	-157.604	0.206	0.012
-288.603	-200.000	0.019	0.172
-287.589	-162.076	-0.138	-0.007
-286.574	-108.165	0.170	-0.036
-285.559	800.000	-0.032	-0.089
-284.545	138.270	-0.019	0.025
-283.530	137.406	0.103	0.134
-282.516	69.803	0.212	0.216
-281.501	200.888	0.091	-0.139
-280.486	232.121	-0.120	0.194
-279.472	-27.559	0.136	0.078
-278.457	-112.142	-0.334	0.066
-277.443	-17.158	0.343	0.213
-276.428	149.398	-0.104	0.139
-275.413	136.820	-0.114	-0.147
-274.399	-139.198	0.206	-0.022
-273.384	233.158	0.054	0.088
-272.370	800.000	-0.029	0.091
-271.355	800.000	-0.075	-0.256
-270.340	134.132	0.282	-0.361
-269.326	-132.009	0.156	-0.020
-268.311	347.240	0.139	0.270
-267.297	-25.932	0.310	0.180
-266.282	105.327	0.128	-0.150
-265.267	419.862	-0.079	0.167
-264.253	-38.237	0.161	-0.084
-263.238	-125.702	0.096	-0.014
-262.224	69.455	0.142	-0.144
-261.209	800.000	0.069	-0.245
-260.195	-168.118	0.295	0.011
-259.180	-44.456	0.169	0.084
-258.165	-110.061	-0.109	-0.023
-257.151	-164.208	0.157	0.007
-256.136	7.628	-0.175	-0.129
-255.122	118.476	0.287	0.349
-254.107	-200.000	-0.008	-0.357
-253.092	-47.139	-0.066	-0.032
-252.078	-163.320	0.188	-0.009
-251.063	-38.428	-0.495	0.258
-250.049	178.688	-0.078	-0.112
-249.034	9.631	-0.193	0.144
-248.019	297.263	0.047	0.084
-247.005	90.242	0.206	0.227
-245.990	-68.706	0.390	0.149
-244.976	-147.540	0.141	-0.012
-243.961	-1.610	0.023	0.016
-242.946	113.636	-0.073	0.087
-241.932	-155.524	0.381	0.024
-240.917	-66.468	-0.334	-0.131
-239.903	-21.436	0.101	-0.061
-238.888	800.000	0.061	-0.232
-237.873	800.000	0.014	-0.047
-236.859	-109.874	0.081	-0.017
-235.844	800.000	0.088	0.369
-234.830	495.245	0.026	0.059
-233.815	-75.183	0.133	-0.047
-232.800	2.720	0.152	-0.108
-231.786	-38.192	0.118	-0.062
-230.771	-133.955	0.147	-0.018
-229.757	800.000	0.065	-0.233
-228.742	166.299	-0.020	0.028
-227.727	-200.000	0.075	0.386
-226.713	-115.905	-0.223	-0.041
-225.698	92.334	-0.273	-0.303
-224.684	-160.911	-0.243	-0.013
-223.669	69.573	-0.107	0.108
-222.655	-61.201	0.061	0.025
-221.640	-22.791	0.062	-0.037
-220.625	187.052	-0.270	-0.396
-219.611	-98.501	-0.152	0.038
-218.596	100.060	0.175	-0.200
-217.582	-9.216	-0.379	-0.250
-216.567	51.156	-0.137	-0.128
-215.552	-167.352	-0.308	0.012
-214.538	-115.960	-0.275	-0.050
-213.523	-200.000	-0.003	0.118
-212.509	314.163	0.172	0.319
-211.494	22.211	-0.137	0.110
-210.479	-146.888	-0.082	-0.007
-209.465	38.518	-0.057	-0.050
-208.450	-119.123	0.292	-0.050
-207.436	607.485	-0.091	-0.223
-206.421	-144.226	-0.320	0.029
-205.406	114.513	-0.057	-0.069
-204.392	287.348	0.100	0.178
-203.377	-48.790	0.311	0.147
-202.363	-21.633	-0.219	0.131
-201.348	800.000	0.046	0.164
-200.333	319.730	-0.167	-0.313
-199.319	155.751	0.103	-0.139
-198.304	-160.911	0.263	0.014
-197.290	60.038	-0.007	-0.006
-196.275	544.430	0.162	0.380
-195.260	-87.125	-0.119	0.036
-194.246	800.000	-0.077	-0.217
-193.231	264.722	-0.069	0.118
-192.217	800.000	0.063	-0.263
-191.202	-200.000	0.034	0.163
-190.187	-44.398	-0.167	-0.082
-189.173	-100.553	0.195	-0.047
-188.158	135.453	-0.245	0.313
-187.144	161.989	0.145	0.200
-186.129	-89.723	0.214	-0.062
-185.114	-43.676	-0.299	0.148
-184.100	105.700	0.225	0.262
-183.085	-155.690	-0.164	-0.010
-182.071	-200.000	0.009	-0.175
-181.056	-13.877	-0.187	-0.119
-180.042	457.273	0.143	0.313
-179.027	-114.674	0.068	-0.013
-178.012	-57.174	0.082	-0.035
-176.998	-200.000	0.001	-0.011
-175.983	-47.855	0.130	0.062
-174.969	-46.732	0.133	-0.064
-173.954	126.195	0.151	0.188
-172.939	76.982	-0.160	0.167
-171.925	800.000	-0.066	-0.192
-170.910	-147.646	0.276	-0.023
-169.896	-200.000	0.004	0.071
-168.881	-200.000	0.000	-0.082
-167.866	779.694	0.036	-0.098
-166.852	-200.000	-0.018	0.186
-165.837	-115.696	-0.220	-0.041
-164.823	-84.687	0.112	0.035
-163.808	800.000	0.050	0.164
-162.793	546.349	-0.047	-0.111
-161.779	89.324	-0.237	0.260
-160.764	-200.000	-0.035	0.361
-159.750	-200.000	0.046	-0.267
-158.735	-182.816	0.090	-0.002
-157.720	-140.019	0.069	-0.007
-156.706	-100.087	-0.315	-0.077
-155.691	-60.002	-0.240	-0.101
-154.677	-79.175	0.184	0.061
-153.662	-131.105	0.275	0.036
-152.647	432.273	-0.102	0.218
-151.633	-23.026	-0.175	-0.103
-150.618	88.747	-0.130	-0.142
-149.604	271.005	-0.279	0.482
-148.589	800.000	-0.067	0.194
-147.574	-154.915	-0.236	0.015
-146.560	99.633	0.088	-0.100
-145.545	-200.000	-0.020	0.153
-144.531	-200.000	0.069	0.402
-143.516	800.000	0.135	0.415
-142.502	800.000	0.162	0.550
-141.487	82.262	-0.176	0.188
-140.472	-136.933	0.205	-0.023
-139.458	-151.008	0.289	0.021
-138.443	171.549	0.037	-0.052
-137.429	228.180	0.080	-0.127
-136.414	-200.000	0.014	-0.064
-135.399	356.403	-0.064	-0.125
-134.385	-34.861	-0.193	-0.104
-133.370	181.305	0.349	0.504
-132.356	8.775	0.137	-0.101
-131.341	-12.749	-0.306	0.196
-130.326	-78.349	0.058	0.019
-129.312	-200.000	0.032	-0.257
-128.297	-113.153	0.371	0.072
-127.283	102.778	0.282	-0.324
-126.268	485.772	-0.023	-0.050
-125.253	-142.084	0.186	0.018
-124.239	800.000	-0.050	-0.152
-123.224	36.927	0.339	0.294
-122.210	197.794	-0.073	-0.109
-121.195	213.079	-0.177	0.274
