DTS Sentinel unit serial number:	SN413079Multiplexer serial number:	ORYXHardware model number:	OX4-SRSoftware version number:	ORYX F/W v4.00 Oryx Data Collector v3.7.2.0data status	okinstallation	princeton_trtdifferential loss correction	single-endedforward channel	channel 3reverse channel	N/Adate	2019/09/15time	04:08:35forward acquisition time	60.00reverse acquisition time	0.00gamma	496.2192k internal	0.2323k external	0.2323temperature offset calibration	0.9968default loss term (dB/km)	0.3790temperature slope calibration	1.0000multiplexer offset coefficient	1.0000multiplexer slope coefficient	1.0000fibre end	0.00T internal ref (°C)	30.94T ext. ref 1 (°C)	4.64T ext. ref 2 (°C)	25.80length (m)	temperature (°C)	Stokes	anti-Stokes-747.200	-102.614	0.433	-0.105
-746.185	-200.000	0.071	0.503
-745.171	-0.666	-0.258	-0.185
-744.156	506.275	0.098	0.230
-743.142	83.616	0.045	-0.049
-742.127	4.072	0.435	0.322
-741.112	-155.250	0.359	0.024
-740.098	-6.545	-0.257	-0.177
-739.083	-100.946	0.280	-0.070
-738.069	500.608	-0.074	0.172
-737.054	-188.994	-0.302	-0.004
-736.039	-8.275	-0.114	-0.077
-735.025	-110.447	0.099	0.021
-734.010	-3.353	-0.336	-0.236
-732.996	18.309	-0.394	-0.318
-731.981	223.907	0.075	0.123
-730.966	-83.246	-0.079	-0.025
-729.952	-200.000	-0.046	0.225
-728.937	146.257	0.097	-0.131
-727.923	-122.018	0.048	-0.008
-726.908	279.984	-0.200	0.360
-725.894	262.794	-0.170	-0.298
-724.879	-103.176	-0.110	-0.026
-723.864	-200.000	-0.079	0.362
-722.850	-23.130	0.034	-0.021
-721.835	124.480	-0.147	-0.187
-720.821	-10.127	0.043	0.029
-719.806	327.236	0.067	-0.129
-718.791	-200.000	-0.010	0.076
-717.777	105.236	-0.040	0.047
-716.762	33.385	-0.180	-0.158
-715.748	-200.000	-0.068	0.330
-714.733	-132.564	0.557	-0.072
-713.718	221.719	-0.055	-0.089
-712.704	-25.567	-0.001	-0.001
-711.689	453.852	-0.071	-0.158
-710.675	-152.444	0.116	-0.008
-709.660	-104.611	-0.495	-0.115
-708.645	-200.000	-0.030	-0.345
-707.631	-22.156	0.196	0.120
-706.616	156.639	0.171	-0.238
-705.602	555.223	-0.142	-0.344
-704.587	98.229	-0.118	-0.137
-703.572	-5.927	-0.308	-0.212
-702.558	-200.000	0.002	0.038
-701.543	-90.209	0.254	-0.074
-700.529	800.000	-0.038	-0.109
-699.514	347.970	-0.074	0.148
-698.499	-12.852	-0.161	-0.106
-697.485	-200.000	0.030	0.221
-696.470	-27.321	0.156	-0.091
-695.456	202.223	0.170	-0.264
-694.441	112.786	-0.226	-0.276
-693.426	288.067	0.092	-0.169
-692.412	10.412	-0.064	-0.049
-691.397	-17.133	-0.160	0.102
-690.383	19.706	0.203	0.164
-689.368	-163.432	0.206	-0.010
-688.354	800.000	-0.159	-0.458
-687.339	-28.688	0.222	-0.129
-686.324	-62.559	-0.187	-0.078
-685.310	85.537	-0.263	-0.292
-684.295	194.721	-0.144	-0.220
-683.281	77.499	-0.140	0.150
-682.266	9.501	-0.213	0.163
-681.251	800.000	-0.072	0.299
-680.237	194.078	0.330	-0.503
-679.222	-200.000	0.020	-0.119
-678.208	217.038	-0.087	-0.140
-677.193	77.252	-0.075	-0.080
-676.178	-82.827	0.189	-0.061
-675.164	-200.000	-0.058	-0.356
-674.149	77.551	0.375	-0.402
-673.135	188.524	-0.219	-0.330
-672.120	302.284	-0.043	-0.080
-671.105	130.009	0.123	0.158
-670.091	40.180	0.044	0.040
-669.076	-74.733	-0.469	0.170
-668.062	-200.000	-0.003	0.076
-667.047	-42.318	0.139	-0.071
-666.032	229.283	0.203	-0.334
-665.018	-93.894	-0.039	0.011
-664.003	-17.475	0.172	0.109
-662.989	74.604	-0.076	0.081
-661.974	2.085	-0.169	-0.123
-660.959	62.415	0.073	-0.073
-659.945	176.674	0.217	-0.318
-658.930	-2.514	0.259	-0.183
-657.916	523.051	0.067	-0.159
-656.901	-141.351	0.146	-0.015
-655.886	-27.551	-0.100	-0.058
-654.872	-91.880	0.224	0.064
-653.857	697.005	0.067	-0.177
-652.843	7.217	0.049	0.037
-651.828	-111.129	-0.341	-0.070
-650.814	-200.000	0.016	-0.136
-649.799	43.306	-0.077	-0.071
-648.784	-200.000	-0.050	0.301
-647.770	-200.000	0.090	-0.496
-646.755	-9.316	0.090	-0.061
-645.741	273.137	-0.045	0.081
-644.726	-200.000	0.000	0.003
-643.711	-200.000	-0.018	-0.124
-642.697	-200.000	-0.005	0.126
-641.682	800.000	-0.073	-0.239
-640.668	-3.863	0.272	-0.190
-639.653	-1.148	0.165	-0.117
-638.638	800.000	-0.022	-0.092
-637.624	-200.000	-0.016	0.131
-636.609	702.900	-0.029	-0.077
-635.595	101.001	-0.126	-0.147
-634.580	51.896	0.125	0.120
-633.565	-48.279	-0.361	-0.175
-632.551	800.000	-0.092	-0.280
-631.536	156.202	0.105	-0.145
-630.522	-92.267	-0.136	0.039
-629.507	-113.430	-0.189	0.037
-628.492	-79.330	-0.238	-0.081
-627.478	-200.000	-0.001	0.265
-626.463	-200.000	0.034	0.317
-625.449	63.841	-0.277	-0.280
-624.434	184.646	-0.390	-0.581
-623.419	313.108	0.166	-0.314
-622.405	-63.493	-0.422	0.174
-621.390	-200.000	0.001	-0.169
-620.376	59.518	0.340	0.337
-619.361	560.146	-0.046	-0.111
-618.346	329.899	0.090	0.174
-617.332	-101.611	-0.409	0.100
-616.317	-200.000	-0.033	0.180
-615.303	369.829	-0.143	0.292
-614.288	587.594	-0.090	-0.222
-613.273	-185.263	-0.165	0.003
-612.259	589.308	-0.166	0.411
-611.244	568.739	0.018	-0.044
-610.230	-4.924	-0.223	0.154
-609.215	-36.430	-0.238	0.129
-608.201	18.394	-0.187	0.150
-607.186	-88.206	0.077	0.023
-606.171	83.129	-0.226	-0.247
-605.157	14.331	0.197	-0.154
-604.142	-200.000	-0.000	-0.039
-603.128	283.380	-0.037	0.067
-602.113	800.000	-0.075	0.241
-601.098	-200.000	0.019	0.411
-600.084	-120.426	-0.642	0.110
-599.069	357.189	0.061	-0.122
-598.055	-200.000	-0.062	0.300
-597.040	136.379	0.088	0.115
-596.025	160.461	-0.069	0.097
-595.011	-110.925	0.184	-0.038
-593.996	-81.061	-0.212	-0.070
-592.982	-200.000	-0.026	0.123
-591.967	-47.772	0.191	-0.093
-590.952	-9.997	-0.258	-0.172
-589.938	-200.000	0.055	-0.325
-588.923	-81.487	-0.007	-0.002
-587.909	-200.000	0.015	0.104
-586.894	451.515	-0.120	0.266
-585.879	-119.474	-0.167	0.029
-584.865	-200.000	0.007	0.107
-583.850	-167.162	0.072	-0.003
-582.836	53.534	-0.173	0.166
-581.821	-48.397	0.155	-0.075
-580.806	-120.045	-0.105	0.018
-579.792	-200.000	-0.101	-0.480
-578.777	-29.285	-0.249	0.143
-577.763	-120.374	-0.218	0.037
-576.748	-189.782	-0.535	0.006
-575.733	-20.834	-0.181	-0.111
-574.719	-66.223	0.423	-0.169
-573.704	-200.000	-0.040	-0.367
-572.690	738.943	-0.030	0.081
-571.675	-4.939	0.175	0.121
-570.661	74.777	-0.186	-0.197
-569.646	144.675	0.005	-0.007
-568.631	-110.720	0.296	0.061
-567.617	-128.598	0.195	0.028
-566.602	-138.122	0.077	-0.009
-565.588	-155.119	-0.137	-0.009
-564.573	800.000	0.064	0.198
-563.558	392.007	-0.139	0.289
-562.544	-200.000	-0.002	0.088
-561.529	17.643	-0.182	0.145
-560.515	-200.000	-0.277	0.001
-559.500	-185.641	-0.394	0.006
-558.485	166.498	-0.240	-0.341
-557.471	-126.690	0.198	0.029
-556.456	87.020	-0.142	-0.157
-555.442	-111.300	-0.243	-0.050
-554.427	149.400	-0.180	-0.245
-553.412	240.839	-0.106	-0.178
-552.398	98.381	0.154	-0.178
-551.383	-36.792	0.238	0.128
-550.369	-18.714	-0.128	0.080
-549.354	37.181	-0.074	-0.066
-548.339	159.530	-0.228	0.318
-547.325	231.214	-0.050	-0.082
-546.310	800.000	-0.103	-0.292
-545.296	-131.551	0.058	0.008
-544.281	-200.000	0.030	-0.281
-543.266	-200.000	-0.004	-0.211
-542.252	-200.000	0.010	-0.193
-541.237	338.516	0.003	0.006
-540.223	-114.728	-0.251	-0.048
-539.208	21.555	-0.097	-0.079
-538.193	-73.126	-0.116	-0.043
-537.179	287.757	0.101	-0.183
-536.164	-87.462	-0.098	-0.030
-535.150	-140.011	-0.173	0.018
-534.135	-149.070	0.165	0.013
-533.121	-172.328	-0.143	-0.005
-532.106	5.627	0.173	-0.128
-531.091	2.288	-0.240	0.174
-530.077	-60.641	-0.464	0.197
-529.062	-76.826	0.183	-0.064
-528.048	-93.139	-0.308	0.086
-527.033	-200.000	-0.033	0.162
-526.018	-11.606	0.094	-0.062
-525.004	-36.158	-0.191	-0.103
-523.989	-82.622	0.092	0.030
-522.975	-200.000	-0.006	-0.286
-521.960	491.674	-0.108	-0.248
-520.945	239.700	0.086	-0.143
-519.931	-108.362	-0.430	-0.093
-518.916	-200.000	0.107	-0.650
-517.902	33.485	-0.246	0.214
-516.887	35.747	-0.038	0.033
-515.872	-79.869	0.075	-0.025
-514.858	-200.000	-0.021	0.210
-513.843	-67.679	-0.248	-0.097
-512.829	95.538	-0.184	-0.210
-511.814	800.000	-0.075	-0.285
-510.799	366.447	0.224	0.452
-509.785	43.906	0.021	-0.019
-508.770	-50.599	0.109	0.051
-507.756	800.000	-0.137	0.417
-506.741	-137.537	0.497	-0.056
-505.726	-147.884	-0.407	0.034
-504.712	746.993	-0.086	0.231
-503.697	426.454	-0.025	-0.054
-502.683	-6.882	0.188	0.128
-501.668	-106.832	0.089	-0.020
-500.653	800.000	-0.065	0.214
-499.639	-200.000	0.077	-0.498
-498.624	20.416	0.193	-0.156
-497.610	-41.043	0.231	-0.119
-496.595	101.270	-0.147	0.171
-495.581	-9.765	0.036	-0.024
-494.566	-62.275	-0.320	-0.133
-493.551	6.671	0.299	-0.223
-492.537	10.974	0.382	0.292
-491.522	800.000	-0.051	0.209
-490.508	365.582	-0.071	-0.142
-489.493	455.048	0.127	-0.282
-488.478	-200.000	-0.005	0.335
-487.464	-200.000	0.001	-0.160
-486.449	18.885	0.234	0.187
-485.435	-200.000	0.042	0.374
-484.420	-83.081	0.280	-0.090
-483.405	-116.990	0.159	0.029
-482.391	110.998	0.171	-0.206
-481.376	-108.133	-0.352	-0.076
-480.362	-86.895	-0.119	0.036
-479.347	-124.204	0.107	-0.017
-478.332	-65.997	0.353	-0.141
-477.318	227.714	-0.131	-0.214
-476.303	-104.382	0.058	-0.013
-475.289	-112.797	0.244	-0.048
-474.274	524.139	-0.053	0.124
-473.259	107.922	0.159	0.190
-472.245	-20.853	-0.230	-0.141
-471.230	38.740	-0.106	-0.094
-470.216	-109.656	-0.205	0.043
-469.201	27.417	0.207	-0.174
-468.186	-125.046	0.144	0.022
-467.172	-39.767	0.121	0.063
-466.157	-138.174	-0.167	-0.019
-465.143	-16.649	-0.211	-0.133
-464.128	687.263	0.055	0.144
-463.113	127.568	-0.067	-0.085
-462.099	-167.842	-0.282	-0.011
-461.084	-200.000	0.015	0.362
-460.070	800.000	-0.028	-0.110
-459.055	100.150	-0.150	0.173
-458.040	98.007	0.205	0.235
-457.026	-126.050	0.035	-0.005
-456.011	163.503	0.135	0.190
-454.997	114.168	0.045	0.055
-453.982	-200.000	-0.071	-0.542
-452.968	-38.632	0.250	-0.132
-451.953	129.286	0.117	0.149
-450.938	-200.000	0.110	0.573
-449.924	-97.141	0.155	0.041
-448.909	147.691	0.250	-0.336
-447.895	-149.074	-0.078	0.006
-446.880	-12.642	-0.278	0.181
-445.865	-6.309	-0.074	-0.050
-444.851	-133.887	0.337	-0.042
-443.836	160.511	0.086	0.119
-442.822	106.481	0.047	-0.056
-441.807	134.306	-0.035	-0.046
-440.792	-78.071	0.382	0.131
-439.778	-126.980	0.235	0.034
-438.763	-200.000	0.004	-0.053
-437.749	-67.825	0.261	-0.102
-436.734	-172.783	-0.084	-0.003
-435.719	-92.634	-0.411	-0.115
-434.705	-200.000	0.075	-0.600
-433.690	219.494	-0.166	0.266
-432.676	-200.000	0.010	-0.356
-431.661	191.039	-0.308	-0.462
-430.646	222.254	0.176	0.283
-429.632	-64.200	-0.421	0.171
-428.617	-200.000	0.054	-0.389
-427.603	63.060	-0.246	0.245
-426.588	800.000	-0.094	-0.265
-425.573	-138.056	-0.429	-0.048
-424.559	-200.000	0.032	0.211
-423.544	-39.669	0.168	-0.088
-422.530	800.000	0.034	-0.103
-421.515	65.998	-0.209	0.211
-420.500	-19.790	-0.138	0.085
-419.486	83.905	-0.092	-0.100
-418.471	219.184	-0.182	-0.290
-417.457	-49.885	-0.129	-0.061
-416.442	-154.543	0.142	-0.009
-415.428	47.015	0.239	0.221
-414.413	93.240	0.193	0.217
-413.398	103.873	-0.158	-0.185
-412.384	86.058	0.103	0.113
-411.369	108.848	-0.192	-0.229
-410.355	-171.852	0.135	-0.004
-409.340	44.576	-0.255	-0.234
-408.325	-72.790	0.106	0.039
-407.311	48.671	0.160	0.150
-406.296	240.039	-0.163	-0.270
-405.282	800.000	0.032	0.136
-404.267	108.215	-0.205	-0.244
-403.252	-200.000	-0.004	-0.037
-402.238	800.000	0.017	0.049
-401.223	-96.670	0.262	0.069
-400.209	-200.000	0.008	-0.237
-399.194	524.985	-0.129	-0.302
-398.179	174.329	-0.079	-0.114
-397.165	800.000	0.024	-0.084
-396.150	15.929	0.372	-0.292
-395.136	-200.000	0.008	0.092
-394.121	-58.450	-0.179	-0.077
-393.106	-2.494	0.174	0.121
-392.092	-150.719	-0.215	-0.016
-391.077	413.500	-0.046	-0.098
-390.063	-200.000	0.028	-0.234
-389.048	-174.779	-0.407	0.011
-388.033	-164.334	0.355	0.016
-387.019	-200.000	0.027	0.121
-386.004	-66.423	-0.063	0.025
-384.990	269.289	0.075	0.132
-383.975	262.743	-0.096	-0.166
-382.960	-117.292	-0.052	0.009
-381.946	-112.305	-0.471	-0.094
-380.931	800.000	-0.062	0.177
-379.917	273.735	-0.109	-0.192
-378.902	162.334	0.203	0.283
-377.888	11.978	0.195	0.149
-376.873	-134.184	0.318	-0.039
-375.858	-200.000	0.138	0.000
-374.844	-93.044	0.142	0.039
-373.829	103.317	0.217	-0.253
-372.815	-108.732	0.228	0.049
-371.800	517.851	-0.088	0.206
-370.785	-3.456	0.310	-0.215
-369.771	262.155	0.087	-0.149
-368.756	452.399	0.065	-0.142
-367.742	800.000	-0.068	0.250
-366.727	-38.657	0.240	0.126
-365.712	-72.696	0.305	0.112
-364.698	-160.833	0.215	0.011
-363.683	267.939	0.047	-0.082
-362.669	-3.232	-0.078	-0.054
-361.654	179.496	0.153	0.223
-360.639	-141.682	0.152	-0.015
-359.625	240.659	-0.145	-0.240
-358.610	800.000	0.064	0.202
-357.596	-200.000	0.004	0.098
-356.581	17.912	-0.127	-0.101
-355.566	-83.143	0.056	-0.018
-354.552	-200.000	0.008	0.253
-353.537	-200.000	-0.029	0.203
-352.523	100.118	-0.121	-0.139
-351.508	777.920	-0.105	-0.286
-350.493	8.344	0.068	-0.051
-349.479	800.000	-0.025	0.087
-348.464	-134.190	0.390	0.048
-347.450	2.483	-0.287	0.206
-346.435	-26.725	0.351	0.204
-345.420	158.179	-0.266	0.367
-344.406	-27.032	0.409	0.237
-343.391	42.123	0.152	-0.137
-342.377	-200.000	-0.035	0.321
-341.362	485.261	0.155	-0.351
-340.348	146.683	0.061	0.082
-339.333	656.811	0.065	0.166
-338.318	-104.919	0.282	0.064
-337.304	194.121	-0.093	0.141
-336.289	-128.241	-0.180	-0.025
-335.275	-150.066	0.403	0.031
-334.260	21.385	0.310	-0.250
-333.245	-200.000	-0.014	0.252
-332.231	122.065	-0.076	-0.095
-331.216	-34.994	0.173	-0.094
-330.202	56.404	-0.151	0.146
-329.187	-79.942	0.150	0.050
-328.172	-200.000	-0.022	0.131
-327.158	322.216	0.100	-0.189
-326.143	-92.856	-0.370	-0.103
-325.129	-60.387	-0.187	-0.079
-324.114	-97.082	-0.364	0.094
-323.099	-135.129	-0.080	0.010
-322.085	-58.851	0.113	-0.049
-321.070	518.438	-0.074	0.172
-320.056	331.638	0.079	-0.151
-319.041	136.905	-0.177	0.230
-318.026	-200.000	-0.013	-0.305
-317.012	23.693	-0.116	-0.095
-315.997	-102.367	-0.180	-0.043
-314.983	-88.017	0.166	-0.050
-313.968	800.000	-0.083	-0.351
-312.953	-39.845	0.143	-0.074
-311.939	-136.939	0.357	0.041
-310.924	496.650	0.019	0.042
-309.910	-42.728	0.302	-0.153
-308.895	-8.868	0.139	-0.092
-307.880	-200.000	-0.046	-0.322
-306.866	-171.645	-0.218	0.007
-305.851	151.726	0.108	-0.146
-304.837	159.388	-0.108	-0.149
-303.822	530.601	-0.163	0.382
-302.807	800.000	0.088	0.343
-301.793	-200.000	-0.008	-0.072
-300.778	800.000	0.027	-0.082
-299.764	-49.959	0.529	-0.249
-298.749	463.889	-0.029	-0.064
-297.735	184.512	0.166	0.244
-296.720	4.210	0.185	0.134
-295.705	800.000	0.046	-0.160
-294.691	204.901	0.099	-0.153
-293.676	800.000	-0.078	0.224
-292.662	-11.139	-0.283	-0.185
-291.647	800.000	-0.063	0.269
-290.632	-200.000	-0.029	0.185
-289.618	-200.000	-0.002	0.050
-288.603	-51.231	0.228	-0.106
-287.589	-200.000	-0.008	0.264
-286.574	768.729	-0.055	0.148
-285.559	263.269	-0.109	-0.188
-284.545	-58.479	0.185	-0.080
-283.530	-25.550	0.254	-0.149
-282.516	-109.075	0.186	0.039
-281.501	-190.983	0.404	0.004
-280.486	-68.738	0.213	0.082
-279.472	-128.333	0.201	0.028
-278.457	64.861	0.270	0.270
-277.443	-156.864	0.137	0.008
-276.428	-1.978	-0.263	0.183
-275.413	228.502	0.209	0.337
-274.399	141.131	-0.097	0.127
-273.384	206.667	0.147	-0.227
-272.370	-92.928	-0.322	0.089
-271.355	-200.000	0.001	-0.112
-270.340	595.032	0.128	0.313
-269.326	-121.925	-0.240	-0.039
-268.311	-54.862	-0.027	0.012
-267.297	250.772	-0.151	-0.255
-266.282	291.952	-0.087	0.156
-265.267	-61.101	-0.215	0.090
-264.253	-200.000	0.021	0.104
-263.238	-3.567	-0.133	-0.091
-262.224	-25.689	0.272	0.159
-261.209	674.187	-0.063	0.162
-260.195	-88.582	0.143	0.042
-259.180	-7.046	-0.253	0.170
-258.165	484.346	-0.094	0.212
-257.151	-17.126	-0.237	-0.148
-256.136	-41.327	0.050	0.026
-255.122	124.632	0.169	0.210
-254.107	800.000	-0.079	-0.241
-253.092	800.000	-0.077	0.291
-252.078	-31.634	-0.153	-0.085
-251.063	84.239	-0.079	0.086
-250.049	-116.561	0.312	0.057
-249.034	-43.878	-0.156	0.078
-248.019	-200.000	0.022	0.133
-247.005	800.000	0.113	0.347
-245.990	174.016	0.038	-0.054
-244.976	61.054	0.109	-0.107
-243.961	-200.000	-0.016	0.178
-242.946	28.868	-0.097	0.082
-241.932	469.047	-0.092	0.205
-240.917	128.502	-0.061	-0.077
-239.903	77.300	-0.080	0.084
-238.888	-44.368	0.300	0.149
-237.873	800.000	0.020	0.066
-236.859	68.966	-0.180	-0.184
-235.844	96.580	-0.148	0.168
-234.830	140.913	0.240	0.314
-233.815	18.492	0.152	-0.120
-232.800	6.305	-0.202	-0.148
-231.786	800.000	0.091	0.258
-230.771	-183.946	-0.417	-0.007
-229.757	-132.063	0.177	0.023
-228.742	16.572	0.089	0.070
-227.727	-200.000	0.034	0.210
-226.713	800.000	-0.123	0.448
-225.698	293.862	0.058	-0.106
-224.684	462.027	-0.037	0.081
-223.669	-47.220	-0.180	-0.087
-222.655	-200.000	-0.068	-0.323
-221.640	-111.797	0.215	-0.043
-220.625	-200.000	0.025	-0.382
-219.611	-123.923	-0.221	0.034
-218.596	7.363	0.128	-0.095
-217.582	-25.515	-0.118	0.069
-216.567	-109.303	0.270	-0.057
-215.552	-90.365	0.177	0.051
-214.538	-65.873	0.252	-0.100
-213.523	244.907	0.084	0.140
-212.509	-25.597	-0.044	-0.026
-211.494	800.000	0.043	-0.144
-210.479	-16.403	0.160	0.101
-209.465	0.210	-0.057	0.040
-208.450	-96.076	-0.084	0.022
-207.436	-199.309	0.121	0.001
-206.421	88.930	0.022	0.025
-205.406	13.002	-0.008	-0.006
-204.392	21.708	0.168	-0.135
-203.377	-42.791	-0.252	0.127
-202.363	57.290	-0.111	-0.107
-201.348	79.345	0.242	0.256
-200.333	-71.678	0.270	-0.100
-199.319	-55.996	0.247	0.109
-198.304	50.523	0.149	-0.140
-197.290	554.070	0.054	0.128
-196.275	-200.000	0.098	-0.428
-195.260	543.040	0.147	-0.347
-194.246	245.207	-0.059	0.098
-193.231	78.452	-0.122	-0.129
-192.217	63.308	0.203	-0.201
-191.202	-106.280	0.056	-0.012
-190.187	-85.766	-0.219	-0.067
-189.173	800.000	0.106	0.377
-188.158	-158.433	-0.329	0.019
-187.144	800.000	-0.044	0.158
-186.129	25.012	0.202	0.166
-185.114	-200.000	-0.065	0.321
-184.100	-164.040	0.140	0.006
-183.085	-200.000	0.078	0.370
-182.071	-196.761	0.300	0.002
-181.056	-32.309	0.084	0.046
-180.042	-200.000	-0.012	0.146
-179.027	800.000	-0.054	0.155
-178.012	-76.897	0.174	-0.060
-176.998	-200.000	0.005	-0.293
-175.983	283.739	0.136	-0.241
-174.969	-97.165	0.560	0.145
-173.954	-72.827	-0.237	-0.086
-172.939	13.895	0.239	0.183
-171.925	120.088	-0.064	-0.079
-170.910	800.000	-0.025	0.106
-169.896	-200.000	-0.016	0.131
-168.881	800.000	0.029	-0.084
-167.866	-91.525	-0.308	0.087
-166.852	-200.000	-0.035	-0.222
-165.837	-38.244	-0.079	0.041
-164.823	800.000	-0.079	-0.278
-163.808	-47.466	0.224	-0.107
-162.793	-200.000	-0.046	0.289
-161.779	-200.000	-0.034	-0.191
-160.764	45.222	0.140	0.128
-159.750	-200.000	0.001	0.010
-158.735	89.640	0.017	-0.018
-157.720	664.884	0.106	-0.270
-156.706	-180.419	0.356	0.007
-155.691	143.601	0.029	0.038
-154.677	-139.977	-0.099	-0.010
-153.662	192.720	0.124	0.184
-152.647	-200.000	-0.046	0.223
-151.633	-126.335	-0.167	-0.025
-150.618	-200.000	-0.052	-0.260
-149.604	-73.032	-0.122	-0.044
-148.589	-25.996	0.178	-0.103
-147.574	33.676	0.213	-0.183
-146.560	-200.000	-0.035	-0.208
-145.545	800.000	0.084	0.242
-144.531	42.438	-0.096	-0.087
-143.516	59.212	0.048	-0.047
-142.502	202.534	-0.135	0.205
-141.487	28.600	0.200	0.167
-140.472	-200.000	0.023	0.136
-139.458	-46.295	-0.150	0.073
-138.443	-188.690	-0.131	-0.002
-137.429	-200.000	0.009	0.383
-136.414	505.046	0.104	0.237
-135.399	800.000	0.174	0.485
-134.385	-200.000	-0.006	0.239
-133.370	60.976	-0.149	0.146
-132.356	-200.000	0.001	0.086
-131.341	154.290	-0.092	-0.124
-130.326	136.476	-0.109	0.140
-129.312	-64.697	0.436	-0.174
-128.297	-46.775	-0.064	-0.031
-127.283	-82.176	0.130	0.042
-126.268	138.139	0.162	0.210
-125.253	132.660	-0.008	-0.010
-124.239	-8.303	-0.023	0.015
-123.224	-200.000	0.022	0.267
-122.210	-199.276	0.362	-0.002
-121.195	-200.000	-0.032	0.277
