DTS Sentinel unit serial number:	SN413079Multiplexer serial number:	ORYXHardware model number:	OX4-SRSoftware version number:	ORYX F/W v4.00 Oryx Data Collector v3.7.2.0data status	okinstallation	princeton_trtdifferential loss correction	single-endedforward channel	channel 3reverse channel	N/Adate	2019/09/14time	16:28:35forward acquisition time	60.00reverse acquisition time	0.00gamma	496.2192k internal	0.2295k external	0.2295temperature offset calibration	1.0040default loss term (dB/km)	0.3790temperature slope calibration	1.0000multiplexer offset coefficient	1.0000multiplexer slope coefficient	1.0000fibre end	0.00T internal ref (°C)	38.00T ext. ref 1 (°C)	5.05T ext. ref 2 (°C)	33.54length (m)	temperature (°C)	Stokes	anti-Stokes-747.200	-200.000	-0.011	-0.075
-746.185	633.160	0.110	0.285
-745.171	-31.239	0.123	0.071
-744.156	793.015	0.082	0.229
-743.142	62.030	0.122	-0.124
-742.127	-200.000	-0.031	-0.245
-741.112	-124.595	-0.273	-0.043
-740.098	91.870	-0.131	-0.150
-739.083	60.033	-0.115	-0.117
-738.069	-200.000	0.014	0.205
-737.054	1.180	0.081	-0.060
-736.039	123.344	-0.143	-0.183
-735.025	-200.000	-0.014	-0.098
-734.010	671.289	-0.115	-0.303
-732.996	-200.000	-0.001	0.115
-731.981	-134.476	-0.171	-0.021
-730.966	-96.182	-0.083	-0.022
-729.952	-44.174	-0.166	0.085
-728.937	800.000	0.095	-0.371
-727.923	-200.000	0.028	-0.145
-726.908	2.924	-0.081	0.060
-725.894	-200.000	-0.044	-0.249
-724.879	800.000	0.039	-0.161
-723.864	30.014	0.392	-0.341
-722.850	473.626	-0.109	0.250
-721.835	-5.310	0.156	0.110
-720.821	-166.637	0.083	0.004
-719.806	-15.908	-0.155	-0.101
-718.791	-70.954	-0.124	0.048
-717.777	-188.708	0.201	-0.003
-716.762	268.872	0.106	-0.189
-715.748	-29.552	0.205	-0.120
-714.733	156.466	0.008	0.011
-713.718	800.000	-0.021	0.066
-712.704	69.039	-0.096	-0.100
-711.689	162.584	0.026	-0.037
-710.675	475.008	-0.064	-0.148
-709.660	-64.030	0.419	-0.175
-708.645	7.293	-0.285	-0.217
-707.631	83.560	0.192	0.214
-706.616	309.205	-0.102	-0.195
-705.602	800.000	0.061	-0.189
-704.587	110.109	0.149	-0.183
-703.572	800.000	0.102	-0.412
-702.558	95.271	-0.220	-0.256
-701.543	-61.462	-0.090	0.038
-700.529	-46.959	-0.353	-0.176
-699.514	28.990	0.118	-0.102
-698.499	-151.018	-0.098	0.008
-697.485	-0.503	0.216	0.156
-696.470	-29.610	0.210	0.122
-695.456	696.438	-0.070	0.187
-694.441	-200.000	-0.024	0.258
-693.426	-200.000	-0.083	-0.440
-692.412	141.581	-0.125	0.169
-691.397	-10.560	-0.268	0.181
-690.383	13.021	-0.088	-0.070
-689.368	-40.566	-0.122	0.065
-688.354	-49.557	0.134	0.065
-687.339	119.227	0.058	-0.073
-686.324	-89.057	-0.372	-0.112
-685.310	20.516	0.114	-0.094
-684.295	-155.125	-0.306	0.020
-683.281	-200.000	0.018	0.151
-682.266	-8.182	0.309	0.212
-681.251	-200.000	0.017	-0.093
-680.237	-84.222	0.053	0.017
-679.222	98.478	-0.234	0.276
-678.208	-200.000	-0.201	-0.001
-677.193	-200.000	-0.016	-0.234
-676.178	-31.439	-0.200	-0.115
-675.164	99.249	-0.082	0.097
-674.149	-24.821	-0.443	0.269
-673.135	-73.853	-0.421	0.156
-672.120	-131.990	-0.246	-0.033
-671.105	471.650	0.059	-0.135
-670.091	55.350	-0.046	-0.045
-669.076	-149.755	-0.076	-0.006
-668.062	-200.000	0.017	-0.120
-667.047	-21.400	0.035	0.022
-666.032	800.000	0.065	-0.200
-665.018	-101.036	-0.253	-0.063
-664.003	-200.000	-0.040	0.263
-662.989	23.466	-0.136	-0.114
-661.974	86.391	-0.019	-0.021
-660.959	7.173	0.064	0.048
-659.945	54.778	-0.125	-0.123
-658.930	-47.248	0.303	-0.150
-657.916	659.181	0.058	-0.151
-656.901	-48.379	-0.321	-0.158
-655.886	43.041	-0.181	-0.168
-654.872	-165.150	-0.237	-0.011
-653.857	-200.000	-0.058	0.359
-652.843	800.000	-0.034	0.112
-651.828	-59.730	0.154	-0.067
-650.814	262.519	0.071	-0.126
-649.799	347.059	-0.151	0.303
-648.784	1.023	0.105	-0.076
-647.770	86.736	-0.191	-0.215
-646.755	179.409	0.034	0.050
-645.741	710.416	0.084	0.227
-644.726	-200.000	-0.006	-0.047
-643.711	358.468	0.079	0.160
-642.697	133.039	0.082	-0.108
-641.682	5.597	-0.262	0.197
-640.668	91.787	0.285	0.326
-639.653	-112.451	0.339	0.069
-638.638	-104.153	0.190	-0.045
-637.624	-200.000	0.019	0.201
-636.609	-47.794	-0.107	0.053
-635.595	330.593	-0.146	-0.285
-634.580	132.176	0.079	0.103
-633.565	-17.030	0.103	0.066
-632.551	-75.704	0.064	0.023
-631.536	-77.052	-0.082	0.029
-630.522	-77.556	-0.441	-0.156
-629.507	-32.342	-0.180	-0.102
-628.492	800.000	-0.093	0.412
-627.478	116.582	0.131	-0.164
-626.463	121.112	0.250	0.317
-625.449	-200.000	0.012	0.121
-624.434	519.329	0.154	-0.368
-623.419	272.357	0.205	-0.369
-622.405	-42.069	-0.105	0.055
-621.390	-78.237	0.297	-0.104
-620.376	157.990	-0.038	-0.054
-619.361	-63.954	-0.254	0.106
-618.346	-130.460	-0.170	-0.023
-617.332	800.000	-0.089	-0.285
-616.317	140.255	-0.061	-0.082
-615.303	800.000	0.056	-0.200
-614.288	-51.430	-0.162	0.077
-613.273	326.240	-0.059	0.115
-612.259	-200.000	-0.010	-0.214
-611.244	102.707	-0.062	-0.074
-610.230	-144.856	-0.115	-0.011
-609.215	0.775	0.078	0.057
-608.201	800.000	0.127	-0.418
-607.186	131.849	-0.240	0.314
-606.171	-167.888	0.301	0.012
-605.157	-31.649	-0.087	0.050
-604.142	124.011	0.027	0.034
-603.128	-124.489	0.319	-0.050
-602.113	-60.789	-0.163	0.070
-601.098	8.589	-0.083	-0.063
-600.084	-83.099	-0.096	-0.031
-599.069	-49.689	-0.093	0.045
-598.055	-200.000	-0.009	-0.192
-597.040	-200.000	0.024	0.496
-596.025	-96.920	-0.063	-0.017
-595.011	194.479	-0.063	-0.097
-593.996	-97.250	0.078	0.021
-592.982	800.000	0.043	0.138
-591.967	800.000	-0.023	-0.098
-590.952	-13.438	-0.084	0.055
-589.938	186.495	0.087	0.132
-588.923	201.988	-0.154	-0.241
-587.909	524.268	0.051	-0.123
-586.894	443.800	0.073	0.162
-585.879	-200.000	0.002	0.163
-584.865	800.000	-0.039	0.140
-583.850	-78.641	-0.151	-0.052
-582.836	-85.637	0.101	-0.032
-581.821	466.072	0.027	-0.061
-580.806	800.000	-0.063	0.238
-579.792	-200.000	-0.039	0.192
-578.777	57.193	0.055	-0.054
-577.763	-200.000	0.037	0.231
-576.748	301.974	-0.209	-0.393
-575.733	800.000	0.152	-0.435
-574.719	-101.311	-0.169	-0.042
-573.704	-52.254	-0.292	-0.138
-572.690	-7.790	-0.231	0.158
-571.675	800.000	-0.040	-0.151
-570.661	154.211	0.069	0.096
-569.646	268.990	-0.095	-0.170
-568.631	-58.847	-0.037	0.016
-567.617	-89.828	-0.245	0.073
-566.602	800.000	-0.080	0.243
-565.588	800.000	-0.033	0.139
-564.573	342.662	-0.054	-0.107
-563.558	133.174	0.080	-0.105
-562.544	-101.694	0.231	0.057
-561.529	-48.275	-0.386	-0.189
-560.515	71.960	-0.058	-0.061
-559.500	23.833	-0.181	0.151
-558.485	-2.926	0.259	0.184
-557.471	125.195	-0.132	-0.169
-556.456	154.822	0.075	-0.105
-555.442	800.000	0.039	-0.131
-554.427	-200.000	0.009	-0.060
-553.412	-18.395	-0.098	-0.062
-552.398	558.797	-0.136	0.332
-551.383	800.000	0.078	0.223
-550.369	-100.232	-0.408	-0.103
-549.354	-0.214	0.211	0.153
-548.339	-115.208	0.081	-0.016
-547.325	-91.533	-0.425	-0.123
-546.310	-200.000	-0.004	0.302
-545.296	800.000	-0.032	-0.099
-544.281	0.977	-0.117	0.085
-543.266	800.000	0.046	-0.137
-542.252	153.831	-0.098	0.136
-541.237	11.719	-0.208	-0.162
-540.223	-200.000	0.019	-0.530
-539.208	14.298	-0.212	0.168
-538.193	46.309	-0.198	-0.186
-537.179	-200.000	0.002	0.033
-536.164	564.023	0.074	0.181
-535.150	581.179	-0.061	0.152
-534.135	167.576	-0.092	0.133
-533.121	97.612	-0.134	-0.156
-532.106	-1.077	-0.086	-0.062
-531.091	-48.169	0.245	0.120
-530.077	378.515	-0.156	0.324
-529.062	-200.000	-0.059	-0.449
-528.048	6.914	0.130	0.098
-527.033	300.809	-0.216	0.405
-526.018	-6.066	-0.179	-0.124
-525.004	48.515	0.091	-0.087
-523.989	-47.639	0.065	-0.032
-522.975	-97.939	-0.078	0.020
-521.960	-138.568	-0.444	0.049
-520.945	-135.673	0.180	0.022
-519.931	174.886	0.099	-0.145
-518.916	800.000	-0.144	0.477
-517.902	165.125	0.358	0.512
-516.887	-68.009	-0.138	0.055
-515.872	-200.000	-0.013	0.284
-514.858	10.893	0.123	0.095
-513.843	800.000	-0.044	-0.179
-512.829	-70.811	0.198	-0.075
-511.814	-87.912	0.398	0.121
-510.799	57.210	-0.225	-0.222
-509.785	-93.081	0.444	-0.125
-508.770	80.623	-0.210	0.229
-507.756	258.509	-0.138	-0.241
-506.741	251.393	0.093	-0.161
-505.726	-22.367	-0.015	0.009
-504.712	157.033	0.135	-0.189
-503.697	490.977	0.085	0.198
-502.683	-9.072	0.229	-0.155
-501.668	-93.336	0.211	-0.059
-500.653	-110.749	0.467	-0.098
-499.639	-22.572	-0.051	-0.031
-498.624	13.225	0.110	0.086
-497.610	-200.000	0.003	0.105
-496.595	-0.118	0.243	0.175
-495.581	-115.335	0.470	0.090
-494.566	34.027	0.093	-0.082
-493.551	-200.000	-0.005	-0.166
-492.537	269.654	0.072	-0.128
-491.522	-10.968	-0.278	-0.186
-490.508	-200.000	0.045	0.243
-489.493	800.000	-0.092	-0.300
-488.478	201.509	-0.172	-0.268
-487.464	-200.000	0.050	-0.317
-486.449	-200.000	-0.027	0.265
-485.435	342.908	-0.048	0.095
-484.420	800.000	0.123	-0.363
-483.405	351.892	0.099	0.198
-482.391	-200.000	-0.021	0.197
-481.376	-97.094	0.241	-0.064
-480.362	523.523	-0.026	0.061
-479.347	-44.588	-0.296	0.150
-478.332	-200.000	-0.028	0.161
-477.318	-200.000	-0.021	0.377
-476.303	-51.947	0.185	-0.087
-475.289	12.012	-0.123	-0.096
-474.274	-30.584	0.077	0.044
-473.259	-200.000	0.017	0.292
-472.245	800.000	-0.032	-0.137
-471.230	252.693	0.083	-0.144
-470.216	-96.146	-0.101	0.027
-469.201	97.764	0.153	0.178
-468.186	131.742	0.223	-0.290
-467.172	273.880	0.120	0.215
-466.157	270.956	-0.134	-0.239
-465.143	48.494	-0.416	-0.394
-464.128	-37.672	-0.114	-0.061
-463.113	-102.919	-0.338	0.081
-462.099	21.832	-0.107	-0.088
-461.084	-200.000	-0.006	-0.084
-460.070	800.000	-0.005	0.019
-459.055	-106.868	-0.007	0.002
-458.040	800.000	0.054	-0.214
-457.026	527.333	-0.053	0.127
-456.011	348.180	-0.114	0.227
-454.997	145.673	-0.025	-0.034
-453.982	77.416	0.169	0.182
-452.968	-27.006	0.224	0.132
-451.953	-48.304	0.250	0.122
-450.938	-38.621	-0.172	0.092
-449.924	-200.000	0.040	0.347
-448.909	33.206	0.046	-0.040
-447.895	461.668	-0.090	0.203
-446.880	15.727	-0.111	0.088
-445.865	246.810	0.119	0.203
-444.851	174.118	0.048	0.069
-443.836	-200.000	0.056	0.419
-442.822	-196.304	-0.110	-0.001
-441.807	-121.512	0.016	-0.003
-440.792	-112.716	0.082	-0.016
-439.778	109.324	0.093	0.113
-438.763	-38.538	-0.301	0.161
-437.749	154.349	-0.240	-0.332
-436.734	3.338	0.385	-0.283
-435.719	-200.000	-0.008	-0.051
-434.705	98.789	-0.062	0.072
-433.690	-149.739	0.428	-0.034
-432.676	-200.000	-0.011	-0.189
-431.661	-44.470	-0.159	-0.080
-430.646	13.351	-0.165	-0.129
-429.632	80.267	0.171	-0.186
-428.617	-200.000	-0.001	0.223
-427.603	-12.605	-0.139	0.092
-426.588	106.876	0.138	-0.165
-425.573	487.917	0.089	0.205
-424.559	-137.777	-0.388	-0.044
-423.544	726.758	0.114	0.307
-422.530	-200.000	0.005	-0.104
-421.515	-26.172	0.074	0.044
-420.500	800.000	-0.076	-0.221
-419.486	-69.653	-0.108	-0.042
-418.471	800.000	-0.052	-0.212
-417.457	-67.701	0.145	0.057
-416.442	358.698	0.035	0.070
-415.428	52.342	-0.111	-0.107
-414.413	-198.837	-0.164	-0.001
-413.398	-200.000	0.010	0.346
-412.384	62.461	-0.178	0.179
-411.369	-122.565	0.504	0.083
-410.355	800.000	0.079	0.239
-409.340	31.606	0.188	-0.163
-408.325	-200.000	-0.031	-0.141
-407.311	-20.906	-0.106	0.065
-406.296	800.000	-0.110	-0.379
-405.282	-118.615	0.122	0.022
-404.267	51.685	0.060	-0.057
-403.252	-200.000	-0.059	0.288
-402.238	-200.000	0.048	-0.287
-401.223	48.861	0.308	-0.291
-400.209	530.099	0.055	-0.131
-399.194	-94.291	0.102	-0.028
-398.179	431.836	-0.029	0.063
-397.165	-200.000	-0.006	-0.353
-396.150	-200.000	-0.017	-0.082
-395.136	70.763	0.271	-0.283
-394.121	122.368	-0.274	-0.346
-393.106	-200.000	-0.046	0.410
-392.092	800.000	0.010	-0.040
-391.077	-131.664	-0.406	-0.054
-390.063	-9.787	-0.321	-0.216
-389.048	-200.000	0.006	0.000
-388.033	-200.000	0.005	0.341
-387.019	-200.000	-0.067	0.383
-386.004	-124.993	0.246	0.038
-384.990	162.555	-0.162	0.229
-383.975	384.911	-0.180	0.373
-382.960	40.152	0.139	0.126
-381.946	231.107	-0.079	0.130
-380.931	115.299	-0.093	0.115
-379.917	72.508	0.174	-0.183
-378.902	-200.000	-0.067	-0.331
-377.888	-89.898	0.278	-0.082
-376.873	-200.000	-0.044	0.207
-375.858	300.770	0.064	0.118
-374.844	110.238	-0.253	0.306
-373.829	409.659	-0.034	-0.074
-372.815	474.598	-0.035	-0.081
-371.800	-200.000	0.013	-0.061
-370.785	-200.000	-0.021	0.485
-369.771	-194.666	-0.222	0.002
-368.756	163.488	0.120	-0.170
-367.742	-158.223	-0.118	0.007
-366.727	89.673	-0.199	0.223
-365.712	-101.221	0.205	0.051
-364.698	148.773	0.047	-0.064
-363.683	-22.288	-0.268	-0.164
-362.669	94.984	0.042	-0.049
-361.654	-200.000	0.032	0.296
-360.639	-200.000	0.017	-0.119
-359.625	285.182	0.162	0.294
-358.610	-81.137	0.214	0.071
-357.596	59.255	0.081	0.080
-356.581	214.559	0.090	0.144
-355.566	-0.931	0.100	-0.072
-354.552	46.185	-0.290	0.270
-353.537	347.300	-0.152	0.301
-352.523	127.627	-0.215	-0.275
-351.508	-102.951	-0.426	0.102
-350.493	103.674	0.165	0.195
-349.479	-200.000	-0.038	-0.229
-348.464	-200.000	0.002	0.012
-347.450	-57.753	-0.299	0.132
-346.435	152.499	-0.066	0.090
-345.420	36.727	0.266	0.236
-344.406	-64.903	-0.345	0.140
-343.391	-167.269	0.212	-0.009
-342.377	316.030	-0.088	0.167
-341.362	-91.091	-0.097	-0.028
-340.348	-200.000	0.046	0.296
-339.333	420.564	0.119	-0.257
-338.318	-200.000	-0.023	-0.205
-337.304	-200.000	-0.022	0.242
-336.289	247.855	0.078	0.132
-335.275	-13.933	-0.184	0.119
-334.260	-122.925	-0.287	0.047
-333.245	55.840	-0.122	-0.119
-332.231	-200.000	0.004	-0.310
-331.216	-200.000	-0.017	-0.275
-330.202	-103.211	-0.066	0.016
-329.187	56.791	0.120	0.117
-328.172	82.016	0.173	0.189
-327.158	-84.429	0.118	0.037
-326.143	-20.271	0.152	0.094
-325.129	-200.000	0.020	0.163
-324.114	483.158	0.053	-0.122
-323.099	-154.926	0.383	-0.025
-322.085	800.000	0.129	-0.370
-321.070	128.473	-0.175	0.224
-320.056	-86.008	0.094	-0.029
-319.041	-7.399	-0.142	0.097
-318.026	-200.000	0.006	0.028
-317.012	244.531	0.251	-0.423
-315.997	-200.000	0.004	0.068
-314.983	-0.205	0.278	0.199
-313.968	-119.647	0.278	-0.048
-312.953	-116.797	-0.107	-0.020
-311.939	-48.788	-0.108	0.052
-310.924	-123.740	0.321	0.051
-309.910	-147.200	-0.154	-0.013
-308.895	-107.209	-0.143	-0.032
-307.880	-72.040	0.290	0.108
-306.866	170.659	-0.171	-0.246
-305.851	-16.464	-0.165	-0.105
-304.837	-49.656	0.178	0.085
-303.822	-17.334	0.097	0.061
-302.807	-136.754	-0.190	-0.022
-301.793	-200.000	0.049	0.229
-300.778	-200.000	-0.007	-0.113
-299.764	-165.131	-0.283	-0.013
-298.749	-45.765	-0.436	-0.216
-297.735	491.454	0.077	-0.177
-296.720	-8.866	0.240	0.161
-295.705	14.879	-0.120	-0.095
-294.691	-50.844	0.275	-0.130
-293.676	-200.000	0.023	-0.380
-292.662	144.386	0.062	-0.083
-291.647	-2.486	-0.120	0.084
-290.632	221.133	-0.130	-0.210
-289.618	-191.013	-0.170	-0.002
-288.603	1.911	0.163	0.118
-287.589	-200.000	0.065	-0.290
-286.574	-30.689	0.443	-0.252
-285.559	-200.000	0.007	-0.101
-284.545	-19.530	-0.156	-0.097
-283.530	-200.000	-0.002	-0.264
-282.516	-98.185	-0.279	-0.072
-281.501	-170.364	0.185	-0.007
-280.486	8.056	-0.047	0.035
-279.472	185.353	0.177	-0.264
-278.457	-88.459	0.272	-0.081
-277.443	-200.000	-0.031	-0.247
-276.428	349.558	-0.065	-0.128
-275.413	64.462	-0.094	-0.095
-274.399	-149.547	0.259	0.021
-273.384	-200.000	0.000	0.025
-272.370	213.135	-0.149	0.236
-271.355	333.529	-0.171	-0.332
-270.340	-200.000	0.016	-0.240
-269.326	-124.479	0.416	0.065
-268.311	800.000	0.009	-0.029
-267.297	-85.471	0.258	0.081
-266.282	-43.507	0.236	-0.120
-265.267	-164.396	-0.278	-0.013
-264.253	-141.115	0.506	0.052
-263.238	195.324	-0.237	-0.361
-262.224	32.420	-0.108	0.094
-261.209	-16.731	0.175	0.111
-260.195	-47.777	-0.116	0.056
-259.180	800.000	-0.208	0.576
-258.165	24.485	0.266	-0.220
-257.151	36.024	0.223	0.197
-256.136	-200.000	0.030	0.177
-255.122	800.000	-0.016	-0.060
-254.107	41.255	-0.160	0.145
-253.092	-200.000	-0.043	0.219
-252.078	245.296	0.094	-0.159
-251.063	-125.509	-0.309	-0.047
-250.049	-151.824	-0.284	0.021
-249.034	115.531	-0.079	-0.097
-248.019	-200.000	0.007	-0.303
-247.005	278.127	-0.076	-0.136
-245.990	202.098	0.033	-0.051
-244.976	-37.828	-0.217	-0.116
-243.961	158.105	0.098	-0.137
-242.946	-8.175	-0.226	0.153
-241.932	-26.675	0.119	0.070
-240.917	-58.642	-0.282	-0.122
-239.903	-19.014	0.465	-0.290
-238.888	-32.264	-0.312	0.175
-237.873	97.283	0.085	-0.098
-236.859	72.482	0.086	0.090
-235.844	763.187	0.189	0.515
-234.830	-124.804	0.280	-0.043
-233.815	-115.858	0.116	-0.022
-232.800	-143.107	-0.143	-0.014
-231.786	145.263	-0.109	0.147
-230.771	-84.320	0.210	0.067
-229.757	67.405	-0.117	-0.120
-228.742	131.276	-0.082	0.106
-227.727	61.531	-0.098	-0.097
-226.713	-200.000	0.004	-0.181
-225.698	800.000	-0.040	0.126
-224.684	153.091	0.057	0.078
-223.669	-35.835	-0.192	0.104
-222.655	-57.112	-0.404	-0.178
-221.640	213.499	0.236	-0.374
-220.625	329.719	0.176	-0.340
-219.611	759.622	-0.116	-0.315
-218.596	-36.123	0.134	0.073
-217.582	-200.000	-0.021	0.172
-216.567	800.000	0.114	0.351
-215.552	94.352	0.019	-0.022
-214.538	138.466	0.052	0.069
-213.523	250.349	-0.081	-0.139
-212.509	338.325	-0.123	0.239
-211.494	800.000	-0.021	-0.071
-210.479	-20.911	0.312	-0.191
-209.465	273.040	-0.019	-0.034
-208.450	56.848	0.137	0.134
-207.436	-200.000	0.024	-0.196
-206.421	127.678	0.225	-0.286
-205.406	148.919	0.120	0.162
-204.392	-200.000	-0.013	0.082
-203.377	800.000	-0.019	0.060
-202.363	800.000	-0.038	-0.125
-201.348	145.800	0.133	0.178
-200.333	800.000	-0.092	-0.297
-199.319	-184.218	0.181	-0.003
-198.304	36.470	-0.179	0.158
-197.290	46.524	0.248	0.230
-196.275	-65.732	0.188	-0.075
-195.260	211.447	-0.170	-0.268
-194.246	69.838	0.074	-0.077
-193.231	-15.752	0.064	-0.041
-192.217	-200.000	-0.000	0.127
-191.202	-76.686	-0.346	0.121
-190.187	-63.638	-0.320	0.131
-189.173	-44.739	0.280	-0.140
-188.158	-96.936	-0.257	-0.067
-187.144	-94.013	-0.255	0.070
-186.129	167.828	0.079	-0.112
-185.114	-79.787	0.375	-0.126
-184.100	664.583	-0.075	-0.192
-183.085	114.685	0.032	-0.039
-182.071	800.000	-0.023	0.089
-181.056	-80.697	0.356	0.118
-180.042	-181.277	0.090	-0.002
-179.027	72.370	-0.168	0.175
-178.012	4.986	-0.080	-0.059
-176.998	121.932	0.076	-0.095
-175.983	52.135	-0.172	-0.164
-174.969	5.720	-0.037	0.028
-173.954	-200.000	0.026	0.160
-172.939	-109.367	0.079	-0.017
-171.925	-164.369	0.217	0.010
-170.910	-153.560	-0.183	-0.013
-169.896	-200.000	-0.027	-0.126
-168.881	-137.582	-0.067	0.008
-167.866	283.710	-0.022	-0.040
-166.852	19.517	-0.176	-0.141
-165.837	223.847	-0.029	-0.047
-164.823	-57.575	0.191	-0.084
-163.808	-57.354	0.115	-0.050
-162.793	18.768	0.119	-0.095
-161.779	800.000	0.099	0.307
-160.764	800.000	-0.095	0.329
-159.750	-145.656	-0.060	-0.005
-158.735	-10.695	-0.106	-0.070
-157.720	800.000	0.085	-0.304
-156.706	-200.000	0.059	0.284
-155.691	-150.426	-0.079	-0.006
-154.677	389.170	-0.058	-0.121
-153.662	5.991	0.323	0.239
-152.647	-200.000	0.020	-0.159
-151.633	-1.041	0.263	-0.186
-150.618	15.779	-0.165	-0.129
-149.604	800.000	0.122	0.362
-148.589	-58.722	0.099	0.043
-147.574	-200.000	-0.017	-0.167
-146.560	800.000	0.131	-0.452
-145.545	-33.652	0.190	0.105
-144.531	-76.632	0.246	0.086
-143.516	-142.920	0.054	-0.005
-142.502	51.419	-0.180	0.170
-141.487	-200.000	0.046	-0.616
-140.472	-200.000	-0.003	-0.078
-139.458	-75.592	0.275	-0.098
-138.443	-2.896	-0.093	0.065
-137.429	53.471	-0.149	0.142
-136.414	77.775	0.270	0.287
-135.399	-29.680	0.080	0.045
-134.385	410.779	0.105	0.222
-133.370	24.946	-0.097	-0.080
-132.356	800.000	-0.058	0.251
-131.341	331.627	0.127	0.244
-130.326	-200.000	0.010	0.096
-129.312	11.492	-0.108	0.083
-128.297	-24.525	0.199	0.118
-127.283	-32.528	0.124	-0.069
-126.268	268.166	-0.071	0.124
-125.253	-116.174	0.141	0.026
-124.239	377.620	0.087	-0.178
-123.224	-72.987	0.167	-0.061
-122.210	800.000	0.046	0.172
-121.195	-3.670	0.275	-0.191
