DTS Sentinel unit serial number:	SN413079Multiplexer serial number:	ORYXHardware model number:	OX4-SRSoftware version number:	ORYX F/W v4.00 Oryx Data Collector v3.7.2.0data status	okinstallation	princeton_trtdifferential loss correction	single-endedforward channel	channel 3reverse channel	N/Adate	2019/09/12time	13:02:11forward acquisition time	60.00reverse acquisition time	0.00gamma	496.2192k internal	0.2291k external	0.2291temperature offset calibration	1.0039default loss term (dB/km)	0.3790temperature slope calibration	1.0000multiplexer offset coefficient	1.0000multiplexer slope coefficient	1.0000fibre end	0.00T internal ref (°C)	40.94T ext. ref 1 (°C)	2.09T ext. ref 2 (°C)	37.32length (m)	temperature (°C)	Stokes	anti-Stokes-747.200	89.926	-0.248	0.284
-746.185	-200.000	-0.064	0.503
-745.171	-150.466	-0.219	0.017
-744.156	-121.810	0.234	0.040
-743.142	-83.903	0.270	-0.088
-742.127	62.135	0.142	0.145
-741.112	336.867	-0.135	-0.268
-740.098	-115.638	0.173	0.033
-739.083	-200.000	0.040	0.192
-738.069	800.000	-0.035	0.148
-737.054	28.786	0.115	0.099
-736.039	63.225	-0.072	-0.074
-735.025	800.000	0.060	0.230
-734.010	-37.618	0.036	0.020
-732.996	-68.530	-0.146	0.058
-731.981	-86.061	0.048	-0.015
-730.966	-51.837	-0.345	0.165
-729.952	-48.485	-0.203	0.100
-728.937	7.835	-0.167	-0.128
-727.923	-164.568	0.214	0.010
-726.908	190.592	0.096	0.148
-725.894	-122.236	-0.167	-0.028
-724.879	800.000	-0.078	-0.274
-723.864	-118.646	-0.401	0.072
-722.850	128.062	0.125	-0.163
-721.835	-63.531	0.190	-0.080
-720.821	-200.000	0.033	-0.259
-719.806	-39.615	-0.279	-0.149
-718.791	-31.182	-0.107	0.062
-717.777	-115.401	0.053	-0.010
-716.762	-200.000	0.046	0.413
-715.748	-163.486	0.092	-0.004
-714.733	370.579	-0.149	-0.310
-713.718	800.000	0.073	-0.240
-712.704	15.553	-0.187	-0.150
-711.689	-71.348	0.153	-0.059
-710.675	-145.021	0.098	-0.009
-709.660	800.000	-0.054	-0.211
-708.645	800.000	-0.108	-0.330
-707.631	-200.000	0.032	0.186
-706.616	-84.056	-0.271	0.088
-705.602	197.425	-0.231	-0.360
-704.587	-200.000	0.010	-0.048
-703.572	385.098	0.157	-0.332
-702.558	-84.984	0.117	-0.038
-701.543	-122.343	-0.296	-0.049
-700.529	-200.000	0.018	-0.138
-699.514	-113.099	-0.187	0.038
-698.499	39.680	0.099	-0.091
-697.485	-75.919	0.101	-0.037
-696.470	-200.000	-0.002	-0.166
-695.456	99.140	0.139	-0.164
-694.441	84.323	0.091	0.102
-693.426	-200.000	0.004	0.176
-692.412	800.000	-0.104	0.359
-691.397	303.247	0.075	0.142
-690.383	-124.007	-0.239	0.038
-689.368	152.994	-0.137	0.192
-688.354	40.865	0.085	0.078
-687.339	-114.282	0.283	0.056
-686.324	800.000	-0.060	-0.215
-685.310	189.314	-0.230	-0.352
-684.295	-54.516	-0.312	-0.145
-683.281	65.014	-0.157	0.161
-682.266	-77.578	-0.325	-0.115
-681.251	2.766	-0.218	-0.162
-680.237	-152.029	-0.176	0.013
-679.222	-16.528	-0.276	0.179
-678.208	136.286	-0.184	0.245
-677.193	594.451	-0.141	0.357
-676.178	-3.591	0.095	0.068
-675.164	75.971	-0.138	-0.149
-674.149	-200.000	-0.047	0.231
-673.135	-152.378	0.099	0.007
-672.120	-31.729	0.349	-0.200
-671.105	-128.660	-0.293	0.042
-670.091	527.379	-0.099	0.239
-669.076	244.516	-0.074	-0.127
-668.062	135.098	-0.121	0.161
-667.047	-69.301	-0.153	0.060
-666.032	-100.668	-0.053	0.013
-665.018	113.101	0.122	-0.151
-664.003	-200.000	0.005	-0.044
-662.989	-113.748	-0.300	0.060
-661.974	-13.549	-0.355	0.235
-660.959	91.186	0.201	-0.230
-659.945	-200.000	-0.009	-0.212
-658.930	679.773	-0.053	0.141
-657.916	493.069	0.128	0.300
-656.901	-148.807	-0.210	-0.017
-655.886	556.737	-0.125	-0.307
-654.872	800.000	-0.079	0.320
-653.857	-200.000	0.011	-0.060
-652.843	287.035	0.026	0.048
-651.828	318.579	0.081	0.157
-650.814	-200.000	-0.014	-0.334
-649.799	-33.974	-0.269	-0.151
-648.784	76.080	-0.128	-0.138
-647.770	800.000	-0.088	-0.353
-646.755	-112.209	0.201	-0.041
-645.741	681.914	-0.041	0.109
-644.726	-12.292	0.271	-0.181
-643.711	360.376	0.096	-0.197
-642.697	-23.232	-0.259	0.159
-641.682	112.529	0.180	0.222
-640.668	-110.908	0.109	-0.023
-639.653	277.715	-0.062	0.113
-638.638	91.230	0.175	-0.201
-637.624	-36.205	0.148	0.082
-636.609	-106.069	0.215	0.049
-635.595	-114.165	-0.432	0.085
-634.580	691.538	0.110	0.295
-633.565	-200.000	0.026	0.135
-632.551	78.742	0.254	-0.277
-631.536	-122.185	-0.179	-0.030
-630.522	181.905	0.130	-0.195
-629.507	0.324	0.189	0.138
-628.492	181.596	-0.027	0.040
-627.478	-194.525	-0.413	-0.003
-626.463	800.000	-0.092	-0.378
-625.449	34.938	0.221	0.197
-624.434	-18.218	0.177	0.113
-623.419	-200.000	-0.016	-0.139
-622.405	-119.655	-0.270	0.048
-621.390	800.000	-0.028	-0.118
-620.376	-160.596	-0.145	0.008
-619.361	71.577	-0.121	-0.128
-618.346	33.288	-0.076	0.067
-617.332	800.000	0.050	-0.156
-616.317	501.692	0.121	0.285
-615.303	-17.777	-0.196	0.125
-614.288	-57.401	0.091	-0.041
-613.273	-30.085	0.024	0.014
-612.259	-200.000	-0.025	0.340
-611.244	23.229	0.183	0.153
-610.230	-155.879	0.025	0.002
-609.215	-109.602	0.295	-0.063
-608.201	109.668	-0.186	-0.227
-607.186	7.864	-0.327	-0.250
-606.171	-16.628	-0.265	0.171
-605.157	282.401	0.082	0.150
-604.142	553.225	0.087	0.213
-603.128	129.522	-0.167	-0.217
-602.113	81.324	-0.005	-0.006
-601.098	306.089	0.179	0.340
-600.084	-142.040	-0.162	0.016
-599.069	130.439	-0.101	-0.132
-598.055	-64.673	-0.265	-0.109
-597.040	-67.425	-0.162	0.065
-596.025	392.637	-0.067	-0.143
-595.011	-71.727	0.221	0.084
-593.996	-200.000	0.060	-0.394
-592.982	-84.638	0.082	0.026
-591.967	274.316	-0.096	-0.173
-590.952	76.119	0.043	0.046
-589.938	-200.000	-0.032	0.201
-588.923	163.889	-0.129	0.185
-587.909	800.000	0.009	-0.027
-586.894	-63.729	-0.032	-0.013
-585.879	175.887	0.198	0.292
-584.865	-82.916	-0.477	0.157
-583.850	-200.000	-0.035	0.477
-582.836	-6.911	-0.168	0.116
-581.821	30.769	0.286	0.249
-580.806	557.443	-0.083	0.203
-579.792	185.717	0.145	0.219
-578.777	20.579	0.043	-0.036
-577.763	98.866	0.056	-0.065
-576.748	97.761	0.129	-0.151
-575.733	-200.000	-0.014	0.383
-574.719	168.143	0.215	0.311
-573.704	-101.766	-0.126	-0.031
-572.690	-97.631	-0.096	-0.025
-571.675	-149.333	-0.060	-0.005
-570.661	105.439	-0.087	0.105
-569.646	-99.911	-0.051	0.013
-568.631	-28.836	0.113	0.066
-567.617	-57.796	0.286	0.127
-566.602	132.103	0.094	0.124
-565.588	800.000	-0.074	-0.236
-564.573	-39.399	0.105	-0.056
-563.558	48.549	0.200	-0.190
-562.544	619.302	-0.017	0.043
-561.529	-17.004	0.172	-0.111
-560.515	11.668	0.046	0.036
-559.500	-122.651	0.346	-0.057
-558.485	742.130	-0.050	-0.138
-557.471	718.906	-0.079	-0.214
-556.456	-200.000	-0.001	0.023
-555.442	-35.626	-0.050	-0.028
-554.427	-75.248	0.155	-0.056
-553.412	45.354	-0.270	-0.253
-552.398	-94.776	-0.172	0.047
-551.383	135.618	-0.145	0.192
-550.369	-136.075	-0.319	-0.038
-549.354	-200.000	-0.024	0.234
-548.339	-113.713	0.206	-0.041
-547.325	800.000	0.125	-0.434
-546.310	-107.449	-0.284	-0.063
-545.296	-179.152	-0.320	0.007
-544.281	-112.473	0.547	0.111
-543.266	93.268	-0.229	0.263
-542.252	-27.191	-0.187	-0.111
-541.237	-200.000	0.033	0.326
-540.223	84.993	0.191	0.212
-539.208	42.672	-0.099	-0.092
-538.193	6.202	-0.121	0.091
-537.179	81.348	-0.150	0.164
-536.164	243.595	-0.097	-0.165
-535.150	211.089	0.127	-0.203
-534.135	-200.000	0.036	-0.177
-533.121	58.575	-0.067	-0.067
-532.106	800.000	-0.029	0.103
-531.091	-97.439	0.187	-0.049
-530.077	301.388	-0.104	0.196
-529.062	-200.000	0.010	-0.131
-528.048	-108.779	0.077	-0.017
-527.033	-96.802	-0.109	-0.029
-526.018	-200.000	-0.027	0.126
-525.004	800.000	0.009	0.041
-523.989	3.349	-0.111	0.082
-522.975	-105.382	-0.328	0.076
-521.960	800.000	-0.042	-0.173
-520.945	-78.684	0.105	-0.036
-519.931	-51.285	0.352	0.167
-518.916	-96.629	0.054	-0.014
-517.902	-62.084	-0.304	0.129
-516.887	-91.952	-0.038	0.011
-515.872	49.442	0.250	0.238
-514.858	221.235	0.075	0.123
-513.843	-148.025	0.279	-0.024
-512.829	-47.328	0.241	0.119
-511.814	53.089	0.108	0.105
-510.799	14.726	-0.297	-0.235
-509.785	243.658	0.256	0.437
-508.770	-200.000	-0.045	-0.241
-507.756	397.924	0.067	-0.142
-506.741	484.528	0.018	0.041
-505.726	791.960	0.122	-0.341
-504.712	751.417	-0.045	0.123
-503.697	-77.540	-0.143	-0.050
-502.683	27.504	0.144	0.123
-501.668	-200.000	0.012	0.515
-500.653	-12.458	-0.089	0.059
-499.639	-200.000	0.075	-0.368
-498.624	-200.000	0.201	-0.000
-497.610	149.186	0.131	-0.179
-496.595	-200.000	0.006	0.065
-495.581	-47.000	0.052	0.026
-494.566	-104.489	-0.267	-0.063
-493.551	294.516	-0.078	0.145
-492.537	-200.000	0.019	0.249
-491.522	245.112	0.054	0.093
-490.508	9.994	0.176	-0.135
-489.493	512.747	-0.073	0.171
-488.478	296.469	0.138	0.256
-487.464	-81.806	-0.397	0.132
-486.449	800.000	0.031	-0.116
-485.435	226.484	-0.079	0.129
-484.420	10.800	-0.070	-0.054
-483.405	56.740	0.166	0.164
-482.391	-144.505	0.483	0.045
-481.376	82.925	-0.052	-0.057
-480.362	82.332	0.109	-0.120
-479.347	-162.958	0.204	-0.010
-478.332	-200.000	0.015	0.161
-477.318	-76.957	-0.333	0.118
-476.303	-127.076	-0.498	0.074
-475.289	-36.240	-0.118	-0.065
-474.274	142.293	-0.042	0.056
-473.259	800.000	0.038	-0.110
-472.245	-61.990	-0.131	-0.055
-471.230	-113.531	-0.268	0.053
-470.216	-67.831	-0.211	0.084
-469.201	800.000	-0.108	0.319
-468.186	-200.000	0.021	-0.196
-467.172	415.450	-0.158	-0.342
-466.157	165.264	0.149	0.214
-465.143	-126.023	-0.311	-0.047
-464.128	229.942	0.120	-0.199
-463.113	800.000	-0.040	-0.172
-462.099	-48.186	0.191	-0.093
-461.084	266.244	-0.045	-0.079
-460.070	-16.249	0.114	-0.073
-459.055	-200.000	-0.023	0.152
-458.040	-52.507	-0.324	0.152
-457.026	-69.555	0.114	-0.044
-456.011	800.000	0.076	-0.255
-454.997	-66.716	-0.163	0.065
-453.982	91.937	-0.131	0.150
-452.968	180.925	-0.063	0.094
-451.953	-191.826	-0.149	0.001
-450.938	800.000	-0.121	-0.537
-449.924	8.284	-0.094	0.071
-448.909	137.381	-0.069	-0.091
-447.895	-200.000	0.016	-0.144
-446.880	-140.975	0.222	0.023
-445.865	244.879	-0.104	0.176
-444.851	246.481	-0.066	-0.113
-443.836	-36.380	-0.201	-0.109
-442.822	161.439	0.177	-0.251
-441.807	-200.000	-0.011	-0.051
-440.792	98.566	0.170	0.198
-439.778	7.137	-0.143	0.108
-438.763	800.000	-0.040	0.148
-437.749	800.000	0.019	-0.070
-436.734	-81.018	-0.147	-0.049
-435.719	-8.542	-0.104	0.071
-434.705	-112.827	0.264	-0.053
-433.690	-79.947	0.094	-0.032
-432.676	-110.322	-0.069	-0.014
-431.661	-200.000	-0.034	0.166
-430.646	-128.665	0.079	-0.011
-429.632	44.347	-0.202	-0.188
-428.617	800.000	0.030	0.122
-427.603	-143.214	-0.268	0.026
-426.588	424.571	-0.038	-0.082
-425.573	-5.431	-0.147	-0.102
-424.559	-161.162	-0.170	0.009
-423.544	800.000	0.070	0.212
-422.530	-116.166	-0.172	0.032
-421.515	90.688	0.141	0.160
-420.500	-53.288	-0.229	0.106
-419.486	800.000	0.076	0.217
-418.471	80.929	-0.288	0.314
-417.457	-120.789	-0.338	-0.058
-416.442	-156.372	-0.430	-0.027
-415.428	-200.000	-0.041	-0.188
-414.413	237.790	-0.031	-0.052
-413.398	-89.297	-0.334	-0.100
-412.384	445.856	0.029	-0.065
-411.369	-126.885	-0.020	0.003
-410.355	800.000	-0.054	-0.177
-409.340	359.425	-0.080	-0.161
-408.325	3.482	0.129	-0.095
-407.311	800.000	0.070	-0.222
-406.296	-85.433	-0.378	-0.119
-405.282	-78.421	0.298	-0.103
-404.267	288.071	0.085	-0.156
-403.252	6.331	-0.049	0.037
-402.238	-200.000	0.020	-0.223
-401.223	-200.000	-0.262	0.000
-400.209	14.182	0.232	0.183
-399.194	-59.801	-0.482	0.208
-398.179	-71.842	-0.347	-0.131
-397.165	-200.000	0.013	-0.282
-396.150	122.488	0.063	-0.080
-395.136	-6.569	-0.202	0.139
-394.121	-102.851	0.157	-0.038
-393.106	-200.000	-0.073	0.400
-392.092	-44.190	-0.433	0.219
-391.077	375.532	0.157	0.323
-390.063	-200.000	-0.056	-0.389
-389.048	-60.160	0.104	0.045
-388.033	-91.254	0.188	0.054
-387.019	291.645	-0.133	-0.245
-386.004	170.866	0.061	0.088
-384.990	800.000	0.029	0.110
-383.975	270.569	0.072	-0.128
-382.960	41.542	-0.142	0.130
-381.946	-2.012	0.058	0.041
-380.931	419.804	-0.070	0.151
-379.917	-88.084	0.143	-0.043
-378.902	354.533	-0.172	-0.345
-377.888	-64.069	0.262	0.108
-376.873	61.987	-0.161	-0.161
-375.858	-13.387	0.208	-0.136
-374.844	-1.287	0.159	0.113
-373.829	295.776	-0.171	0.315
-372.815	-9.614	-0.019	0.013
-371.800	-56.714	-0.062	-0.028
-370.785	-41.097	0.367	0.191
-369.771	-200.000	0.010	-0.160
-368.756	214.984	-0.120	-0.192
-367.742	-200.000	-0.030	0.244
-366.727	-41.981	0.028	0.015
-365.712	-89.845	-0.206	-0.061
-364.698	-31.398	-0.286	-0.162
-363.683	5.077	-0.073	-0.054
-362.669	-200.000	-0.091	-0.494
-361.654	-94.098	-0.516	-0.143
-360.639	800.000	0.051	0.190
-359.625	294.173	0.044	-0.081
-358.610	-99.255	0.159	-0.040
-357.596	-22.393	-0.230	0.140
-356.581	-35.967	-0.091	-0.049
-355.566	214.151	0.079	0.126
-354.552	118.704	0.176	0.219
-353.537	-124.510	0.178	0.028
-352.523	175.432	-0.091	0.133
-351.508	1.520	0.194	0.141
-350.493	-66.555	0.418	0.167
-349.479	-86.345	0.205	-0.064
-348.464	-151.615	0.147	0.011
-347.450	-200.000	-0.012	0.312
-346.435	-200.000	-0.016	-0.127
-345.420	26.997	-0.355	-0.300
-344.406	800.000	0.091	-0.289
-343.391	12.413	0.080	0.062
-342.377	323.562	0.250	0.481
-341.362	-200.000	-0.053	-0.304
-340.348	800.000	0.031	0.136
-339.333	800.000	0.123	0.401
-338.318	-20.987	0.036	-0.022
-337.304	800.000	0.031	-0.123
-336.289	-200.000	-0.066	-0.313
-335.275	21.162	0.363	0.297
-334.260	-200.000	-0.012	-0.208
-333.245	-103.240	0.394	0.094
-332.231	300.580	-0.174	-0.324
-331.216	-19.451	0.111	0.069
-330.202	-200.000	0.022	-0.111
-329.187	35.094	-0.186	0.164
-328.172	117.124	0.157	0.194
-327.158	800.000	-0.006	0.017
-326.143	194.713	-0.031	0.048
-325.129	-42.214	0.236	-0.121
-324.114	-26.083	0.119	0.071
-323.099	-200.000	-0.004	-0.026
-322.085	-81.485	0.197	0.065
-321.070	9.546	-0.369	-0.282
-320.056	-200.000	0.036	0.231
-319.041	-200.000	0.000	0.161
-318.026	132.737	-0.136	0.177
-317.012	-140.854	-0.161	0.017
-315.997	163.898	-0.090	-0.128
-314.983	800.000	-0.047	-0.154
-313.968	82.991	-0.124	0.136
-312.953	-200.000	-0.052	-0.326
-311.939	-200.000	0.022	0.171
-310.924	-57.104	0.455	-0.202
-309.910	-96.536	0.095	0.025
-308.895	54.781	0.143	0.139
-307.880	267.919	-0.165	-0.292
-306.866	-37.501	-0.221	-0.119
-305.851	175.051	-0.221	-0.322
-304.837	800.000	0.052	-0.184
-303.822	-89.614	0.183	0.054
-302.807	450.216	-0.129	-0.286
-301.793	-4.077	0.147	0.103
-300.778	-122.586	0.144	-0.024
-299.764	-28.733	0.130	-0.075
-298.749	171.040	0.111	0.160
-297.735	-9.843	0.335	-0.224
-296.720	120.237	-0.318	0.397
-295.705	226.467	-0.241	0.394
-294.691	-25.490	0.185	0.110
-293.676	74.380	-0.193	0.204
-292.662	217.728	-0.072	-0.116
-291.647	-200.000	0.001	-0.129
-290.632	278.460	-0.108	0.193
-289.618	177.848	-0.103	-0.151
-288.603	-73.131	0.126	-0.047
-287.589	359.796	0.020	0.041
-286.574	-158.377	-0.113	-0.007
-285.559	800.000	-0.058	-0.163
-284.545	-198.074	-0.284	0.002
-283.530	529.528	0.040	-0.095
-282.516	-26.819	0.256	0.151
-281.501	304.554	0.091	0.171
-280.486	37.065	0.103	-0.092
-279.472	131.066	-0.126	0.163
-278.457	-23.522	0.156	-0.094
-277.443	20.621	-0.071	0.058
-276.428	800.000	0.075	0.316
-275.413	-167.946	-0.361	-0.014
-274.399	-66.054	0.242	0.097
-273.384	180.532	0.078	-0.116
-272.370	667.660	0.113	0.293
-271.355	-125.611	-0.250	-0.038
-270.340	-90.170	0.206	-0.060
-269.326	-133.548	-0.249	-0.031
-268.311	265.910	0.077	0.135
-267.297	-136.673	-0.211	-0.024
-266.282	35.304	0.099	-0.088
-265.267	-47.346	-0.152	-0.074
-264.253	800.000	0.132	-0.480
-263.238	-77.203	-0.181	0.063
-262.224	-200.000	0.040	0.290
-261.209	-200.000	0.029	0.246
-260.195	23.963	-0.090	0.075
-259.180	-29.748	0.124	-0.071
-258.165	-200.000	0.063	-0.329
-257.151	122.604	-0.136	0.170
-256.136	-73.716	0.106	0.039
-255.122	11.691	-0.042	-0.033
-254.107	-149.163	-0.078	0.006
-253.092	-200.000	0.023	0.121
-252.078	-92.797	-0.380	0.107
-251.063	-70.295	0.473	0.180
-250.049	-47.064	0.210	-0.103
-249.034	-122.372	0.244	-0.040
-248.019	-24.121	0.197	-0.118
-247.005	-153.776	-0.114	0.008
-245.990	11.685	-0.310	-0.239
-244.976	479.148	0.027	-0.061
-243.961	-92.062	-0.257	-0.073
-242.946	800.000	-0.030	-0.118
-241.932	-86.883	-0.101	0.031
-240.917	-200.000	0.048	-0.211
-239.903	216.421	0.084	-0.135
-238.888	364.078	-0.196	-0.396
-237.873	800.000	-0.049	-0.141
-236.859	771.660	0.093	0.254
-235.844	75.056	-0.102	-0.108
-234.830	-40.729	0.034	-0.018
-233.815	-40.072	-0.131	0.068
-232.800	207.603	0.099	-0.155
-231.786	800.000	-0.070	0.197
-230.771	138.160	-0.147	-0.193
-229.757	263.816	-0.121	0.211
-228.742	-9.478	0.044	-0.030
-227.727	130.019	0.317	-0.407
-226.713	-193.400	0.357	0.003
-225.698	-133.065	-0.189	0.024
-224.684	51.994	-0.058	-0.055
-223.669	48.590	-0.128	0.120
-222.655	152.426	0.128	0.175
-221.640	395.935	0.161	0.337
-220.625	-139.391	0.399	-0.043
-219.611	178.644	0.161	0.236
-218.596	-28.264	0.219	-0.127
-217.582	59.514	0.248	-0.245
-216.567	800.000	-0.010	0.032
-215.552	800.000	0.070	0.287
-214.538	-43.633	-0.161	-0.082
-213.523	-7.400	0.164	-0.112
-212.509	-63.620	-0.222	-0.091
-211.494	-113.461	0.247	0.049
-210.479	-115.607	0.098	-0.019
-209.465	204.307	0.154	0.239
-208.450	38.280	-0.146	0.130
-207.436	268.179	0.146	-0.256
-206.421	-103.256	0.273	-0.065
-205.406	-62.709	-0.059	-0.025
-204.392	229.158	0.066	0.108
-203.377	-60.230	-0.201	-0.086
-202.363	29.331	0.181	-0.155
-201.348	-200.000	-0.077	-0.384
-200.333	-165.386	0.185	0.008
-199.319	-200.000	0.003	0.040
-198.304	46.562	0.161	-0.149
-197.290	91.931	0.197	0.222
-196.275	-120.776	0.132	0.022
-195.260	-190.599	-0.325	-0.003
-194.246	-200.000	-0.023	0.137
-193.231	-200.000	-0.007	0.260
-192.217	-200.000	-0.017	0.081
-191.202	-85.863	-0.070	0.022
-190.187	28.212	0.210	-0.178
-189.173	-114.194	-0.114	0.022
-188.158	-200.000	0.002	-0.081
-187.144	-200.000	0.009	-0.085
-186.129	-154.725	0.461	-0.031
-185.114	289.724	0.079	-0.144
-184.100	-200.000	0.024	0.152
-183.085	-107.814	0.281	-0.061
-182.071	7.902	-0.038	-0.028
-181.056	-200.000	0.029	0.403
-180.042	-200.000	0.023	0.389
-179.027	800.000	-0.061	-0.210
-178.012	-177.275	-0.048	-0.001
-176.998	40.216	0.189	-0.170
-175.983	-200.000	0.022	-0.098
-174.969	-56.208	0.014	0.006
-173.954	328.810	0.114	0.219
-172.939	164.306	0.135	-0.191
-171.925	-140.611	0.056	-0.006
-170.910	-74.978	0.134	0.048
-169.896	217.750	0.019	-0.031
-168.881	-52.653	0.150	0.069
-167.866	-200.000	-0.028	0.146
-166.852	274.126	-0.069	-0.123
-165.837	-200.000	-0.049	-0.266
-164.823	65.316	-0.187	-0.190
-163.808	-200.000	0.009	-0.068
-162.793	183.563	-0.173	-0.257
-161.779	613.365	-0.055	-0.137
-160.764	316.253	0.177	-0.334
-159.750	-151.309	0.228	-0.017
-158.735	200.739	0.218	-0.336
-157.720	-200.000	-0.015	-0.236
-156.706	-131.592	0.295	-0.039
-155.691	-10.213	-0.197	-0.131
-154.677	800.000	0.091	-0.257
-153.662	180.336	0.064	0.095
-152.647	-13.516	0.260	0.169
-151.633	115.781	0.150	0.183
-150.618	-82.817	-0.102	0.033
-149.604	560.627	0.122	-0.296
-148.589	-146.328	-0.143	-0.013
-147.574	-28.096	0.181	0.105
-146.560	-180.255	0.174	-0.004
-145.545	800.000	-0.065	-0.221
-144.531	-93.487	0.202	0.056
-143.516	-144.467	-0.171	-0.016
-142.502	-115.355	-0.190	0.036
-141.487	-200.000	0.047	0.291
-140.472	-200.000	-0.091	0.432
-139.458	-55.018	0.118	-0.053
-138.443	14.631	-0.178	-0.139
-137.429	-92.550	0.220	0.062
-136.414	-62.902	-0.307	0.127
-135.399	-200.000	0.043	-0.457
-134.385	62.441	0.163	-0.163
-133.370	-126.023	0.242	-0.036
-132.356	142.125	-0.188	0.249
-131.341	800.000	-0.030	-0.113
-130.326	367.447	-0.171	0.345
-129.312	-39.439	0.158	-0.083
-128.297	-51.840	-0.235	0.109
-127.283	-151.520	0.330	0.024
-126.268	-30.914	-0.053	0.030
-125.253	-200.000	-0.030	-0.298
-124.239	-147.458	-0.029	0.002
-123.224	59.721	-0.229	0.226
-122.210	-171.893	0.362	-0.012
-121.195	-5.273	0.183	0.126
