DTS Sentinel unit serial number:	SN413079Multiplexer serial number:	ORYXHardware model number:	OX4-SRSoftware version number:	ORYX F/W v4.00 Oryx Data Collector v3.7.2.0data status	okinstallation	princeton_trtdifferential loss correction	single-endedforward channel	channel 3reverse channel	N/Adate	2019/09/12time	17:26:11forward acquisition time	60.00reverse acquisition time	0.00gamma	496.2192k internal	0.2314k external	0.2314temperature offset calibration	1.0093default loss term (dB/km)	0.3790temperature slope calibration	1.0000multiplexer offset coefficient	1.0000multiplexer slope coefficient	1.0000fibre end	0.00T internal ref (°C)	34.75T ext. ref 1 (°C)	2.89T ext. ref 2 (°C)	28.72length (m)	temperature (°C)	Stokes	anti-Stokes-747.200	-101.206	-0.166	-0.041
-746.185	-200.000	-0.028	-0.130
-745.171	3.535	0.105	0.078
-744.156	-200.000	-0.022	0.222
-743.142	-200.000	-0.048	-0.290
-742.127	88.058	0.141	0.159
-741.112	695.212	0.198	-0.526
-740.098	-200.000	0.028	-0.153
-739.083	80.754	-0.136	-0.149
-738.069	-26.586	0.199	0.118
-737.054	-127.957	0.127	0.018
-736.039	800.000	0.018	-0.078
-735.025	99.801	0.158	-0.185
-734.010	800.000	-0.049	-0.173
-732.996	800.000	-0.095	-0.410
-731.981	-200.000	0.015	-0.413
-730.966	-200.000	0.026	-0.186
-729.952	-200.000	-0.030	-0.183
-728.937	-159.664	-0.035	-0.002
-727.923	800.000	-0.090	-0.284
-726.908	-20.261	-0.224	-0.140
-725.894	424.747	0.044	0.097
-724.879	67.598	0.317	0.328
-723.864	147.963	-0.058	-0.079
-722.850	36.842	0.169	0.151
-721.835	140.341	-0.094	0.125
-720.821	-125.871	-0.245	0.037
-719.806	-10.485	0.337	-0.226
-718.791	-60.180	-0.101	0.044
-717.777	-171.366	0.345	-0.012
-716.762	4.075	-0.043	-0.032
-715.748	-5.572	0.110	-0.076
-714.733	-90.963	0.142	0.041
-713.718	800.000	-0.118	0.400
-712.704	800.000	-0.037	-0.114
-711.689	-200.000	-0.348	0.000
-710.675	114.788	-0.183	0.225
-709.660	248.053	-0.174	-0.298
-708.645	43.409	0.195	-0.180
-707.631	-148.290	0.241	0.020
-706.616	-200.000	0.147	0.000
-705.602	64.291	0.151	0.154
-704.587	-27.422	-0.207	0.122
-703.572	-200.000	0.041	-0.192
-702.558	-200.000	-0.027	-0.140
-701.543	56.724	0.080	-0.079
-700.529	-165.080	0.212	-0.010
-699.514	-82.793	0.273	-0.089
-698.499	-33.663	0.366	-0.204
-697.485	705.975	-0.079	-0.212
-696.470	-200.000	0.026	-0.116
-695.456	-129.422	-0.251	0.035
-694.441	20.587	-0.121	0.099
-693.426	-161.247	0.278	-0.015
-692.412	-200.000	-0.059	-0.363
-691.397	-181.691	-0.329	0.006
-690.383	-112.396	0.181	-0.037
-689.368	341.402	-0.052	0.102
-688.354	-117.414	0.230	-0.042
-687.339	-110.339	0.240	0.050
-686.324	-200.000	-0.066	-0.338
-685.310	5.175	0.214	0.160
-684.295	-200.000	0.039	-0.275
-683.281	8.656	0.241	-0.183
-682.266	92.810	0.184	-0.210
-681.251	-200.000	0.029	0.155
-680.237	-121.944	-0.266	-0.044
-679.222	-178.698	0.152	-0.004
-678.208	-1.402	0.091	-0.065
-677.193	-200.000	0.010	0.197
-676.178	-200.000	-0.014	0.167
-675.164	-32.093	-0.199	-0.112
-674.149	-152.274	-0.235	0.017
-673.135	-200.000	0.002	-0.098
-672.120	207.536	-0.149	-0.235
-671.105	-200.000	0.048	-0.352
-670.091	54.535	0.123	-0.120
-669.076	-43.188	-0.398	0.203
-668.062	-64.737	-0.178	0.073
-667.047	-144.184	-0.266	0.025
-666.032	264.168	0.085	0.150
-665.018	13.252	-0.044	0.035
-664.003	187.075	0.061	-0.092
-662.989	-200.000	0.056	0.249
-661.974	365.947	-0.184	0.374
-660.959	-141.947	-0.236	-0.024
-659.945	-2.675	-0.155	0.109
-658.930	82.757	0.253	-0.278
-657.916	15.886	-0.132	-0.105
-656.901	-20.144	0.188	0.117
-655.886	-102.240	0.094	0.023
-654.872	-64.463	-0.341	0.140
-653.857	-99.413	0.014	-0.004
-652.843	800.000	0.084	0.295
-651.828	240.088	0.091	-0.153
-650.814	198.491	0.020	0.031
-649.799	-104.168	0.219	-0.052
-648.784	614.638	-0.092	-0.232
-647.770	2.995	0.113	-0.083
-646.755	176.460	-0.223	0.327
-645.741	662.081	0.052	-0.134
-644.726	-65.838	-0.218	0.088
-643.711	69.156	-0.250	-0.260
-642.697	676.961	0.065	-0.170
-641.682	625.022	0.103	0.263
-640.668	3.790	0.131	-0.097
-639.653	-104.477	-0.164	-0.038
-638.638	-57.559	-0.107	-0.047
-637.624	800.000	0.018	-0.059
-636.609	122.072	0.276	0.347
-635.595	-39.765	-0.257	-0.136
-634.580	-200.000	0.023	-0.180
-633.565	-164.484	0.334	0.015
-632.551	12.670	-0.180	-0.140
-631.536	800.000	-0.059	-0.226
-630.522	58.043	0.006	0.006
-629.507	-143.621	0.209	-0.020
-628.492	-44.201	0.166	0.084
-627.478	180.504	0.206	0.305
-626.463	-200.000	0.062	-0.337
-625.449	-15.265	0.202	0.130
-624.434	-61.857	0.118	0.050
-623.419	800.000	-0.058	-0.167
-622.405	-200.000	-0.005	-0.323
-621.390	206.059	-0.042	0.065
-620.376	35.920	-0.093	-0.082
-619.361	34.421	0.213	-0.187
-618.346	-46.754	0.322	0.159
-617.332	-185.852	0.312	0.005
-616.317	-200.000	-0.099	-0.449
-615.303	-200.000	0.060	-0.327
-614.288	-12.834	0.263	-0.173
-613.273	438.502	0.190	0.419
-612.259	-10.616	-0.087	0.058
-611.244	-80.123	-0.245	0.083
-610.230	-200.000	-0.037	-0.473
-609.215	800.000	-0.044	0.183
-608.201	-59.191	0.081	0.035
-607.186	-200.000	0.024	0.202
-606.171	-81.666	0.307	0.101
-605.157	-0.732	0.056	0.040
-604.142	-200.000	-0.010	-0.194
-603.128	-90.210	-0.036	-0.010
-602.113	-57.390	0.340	-0.151
-601.098	-200.000	-0.049	0.251
-600.084	-178.204	-0.139	0.003
-599.069	-191.414	-0.154	0.002
-598.055	-11.204	0.300	0.199
-597.040	117.962	-0.089	-0.111
-596.025	243.605	0.037	0.063
-595.011	516.394	0.183	-0.431
-593.996	-102.058	0.056	0.014
-592.982	132.343	0.175	0.227
-591.967	-97.237	-0.111	0.029
-590.952	800.000	0.082	0.287
-589.938	800.000	0.049	0.155
-588.923	-6.495	-0.233	-0.160
-587.909	50.466	-0.084	0.080
-586.894	-200.000	0.042	-0.250
-585.879	-55.618	-0.102	0.046
-584.865	-111.670	0.415	-0.085
-583.850	37.455	-0.082	0.073
-582.836	-10.256	-0.160	0.107
-581.821	-180.964	0.207	0.004
-580.806	111.653	0.137	0.166
-579.792	-200.000	-0.013	-0.102
-578.777	-22.419	-0.147	-0.090
-577.763	-25.393	-0.114	0.068
-576.748	-128.914	-0.177	0.025
-575.733	-158.374	0.110	0.006
-574.719	-200.000	-0.007	-0.166
-573.704	-200.000	0.086	-0.400
-572.690	-200.000	0.072	-0.410
-571.675	-200.000	-0.002	0.106
-570.661	252.884	0.142	-0.244
-569.646	255.689	0.041	0.070
-568.631	-42.904	0.321	0.164
-567.617	188.581	-0.175	-0.264
-566.602	412.874	-0.102	-0.218
-565.588	-94.210	0.168	0.046
-564.573	68.390	-0.279	-0.288
-563.558	-28.838	0.134	-0.077
-562.544	-200.000	-0.002	-0.095
-561.529	-17.371	-0.053	0.034
-560.515	287.003	0.088	-0.159
-559.500	-60.026	-0.136	-0.058
-558.485	-6.590	-0.318	-0.218
-557.471	-130.411	0.366	0.050
-556.456	39.663	-0.285	0.257
-555.442	62.775	-0.104	-0.105
-554.427	-200.000	0.005	-0.402
-553.412	-16.016	-0.054	-0.035
-552.398	-200.000	0.007	-0.094
-551.383	23.318	-0.020	0.017
-550.369	-87.720	0.180	0.055
-549.354	89.912	0.121	0.135
-548.339	636.446	0.058	-0.148
-547.325	-143.792	-0.106	-0.010
-546.310	17.890	-0.096	0.077
-545.296	41.733	0.212	0.193
-544.281	279.271	0.101	-0.182
-543.266	597.270	0.166	-0.414
-542.252	-200.000	-0.128	0.000
-541.237	-72.850	-0.454	0.168
-540.223	-161.888	-0.109	0.006
-539.208	-153.833	0.223	-0.015
-538.193	101.060	-0.194	0.227
-537.179	-129.055	0.179	0.025
-536.164	46.047	0.040	-0.037
-535.150	-56.235	-0.108	-0.048
-534.135	75.790	0.094	-0.100
-533.121	800.000	-0.030	-0.122
-532.106	800.000	0.045	0.176
-531.091	94.206	-0.159	-0.182
-530.077	112.188	0.111	0.135
-529.062	121.337	0.158	-0.198
-528.048	-37.167	0.017	-0.009
-527.033	168.241	-0.170	-0.243
-526.018	800.000	-0.071	-0.277
-525.004	254.784	-0.136	0.234
-523.989	359.246	-0.022	0.045
-522.975	133.790	-0.157	-0.204
-521.960	-118.446	-0.630	-0.112
-520.945	-200.000	-0.003	0.138
-519.931	331.189	0.090	-0.175
-518.916	-147.417	-0.256	-0.022
-517.902	50.418	0.104	0.099
-516.887	206.380	-0.102	0.159
-515.872	214.136	-0.038	-0.061
-514.858	-1.635	-0.196	0.139
-513.843	-200.000	0.007	0.399
-512.829	-164.039	0.309	0.014
-511.814	-200.000	0.028	-0.226
-510.799	-195.007	-0.159	0.001
-509.785	66.386	0.112	-0.114
-508.770	-200.000	-0.022	0.210
-507.756	800.000	0.069	0.199
-506.741	150.322	-0.157	0.214
-505.726	-5.791	-0.171	-0.118
-504.712	-193.751	-0.284	0.002
-503.697	-22.463	0.184	-0.112
-502.683	116.255	-0.064	-0.079
-501.668	58.942	0.134	-0.133
-500.653	-115.179	-0.225	-0.043
-499.639	87.575	-0.118	0.131
-498.624	-67.777	-0.148	-0.058
-497.610	63.103	-0.252	0.253
-496.595	155.687	0.086	-0.119
-495.581	21.582	-0.169	-0.138
-494.566	-93.490	-0.146	0.041
-493.551	-97.609	0.159	0.041
-492.537	-23.706	-0.244	-0.147
-491.522	67.803	0.335	0.343
-490.508	47.702	-0.159	0.149
-489.493	-137.132	-0.293	0.034
-488.478	144.166	0.151	-0.202
-487.464	34.469	0.200	0.176
-486.449	-62.653	0.336	0.140
-485.435	-82.167	-0.273	0.089
-484.420	800.000	-0.076	-0.242
-483.405	-17.014	0.109	0.069
-482.391	-200.000	0.005	0.302
-481.376	-200.000	0.008	-0.091
-480.362	-184.189	-0.105	-0.002
-479.347	-82.194	-0.195	0.064
-478.332	133.478	-0.184	-0.239
-477.318	53.181	-0.213	0.205
-476.303	-60.890	-0.366	0.155
-475.289	-141.328	-0.281	-0.029
-474.274	4.752	0.294	-0.217
-473.259	-65.888	-0.113	0.045
-472.245	-200.000	-0.031	0.498
-471.230	-120.989	0.210	-0.035
-470.216	-55.270	-0.123	0.055
-469.201	-107.482	0.219	0.048
-468.186	141.422	0.069	0.092
-467.172	-200.000	-0.006	-0.131
-466.157	-115.055	0.139	-0.027
-465.143	-127.863	-0.296	0.043
-464.128	438.320	-0.069	0.151
-463.113	362.591	0.279	-0.561
-462.099	-100.924	-0.172	-0.042
-461.084	394.734	-0.060	-0.125
-460.070	-87.309	-0.200	-0.061
-459.055	3.083	-0.314	0.229
-458.040	144.582	0.165	0.221
-457.026	-168.348	-0.355	-0.014
-456.011	-32.807	0.164	-0.092
-454.997	-200.000	-0.032	0.180
-453.982	347.609	0.097	-0.192
-452.968	-200.000	0.009	-0.170
-451.953	42.757	-0.167	-0.153
-450.938	171.167	0.013	0.019
-449.924	165.094	0.136	0.192
-448.909	283.303	-0.130	-0.234
-447.895	-200.000	-0.018	-0.117
-446.880	-153.546	-0.067	-0.005
-445.865	131.680	0.073	0.094
-444.851	22.253	0.222	-0.181
-443.836	12.559	-0.554	-0.428
-442.822	-200.000	0.051	-0.330
-441.807	758.164	0.124	0.336
-440.792	678.375	0.157	-0.409
-439.778	-200.000	-0.015	0.316
-438.763	74.982	-0.092	-0.097
-437.749	-200.000	-0.002	-0.339
-436.734	180.717	-0.081	0.119
-435.719	800.000	-0.055	-0.224
-434.705	402.241	-0.076	0.159
-433.690	-77.099	0.101	-0.035
-432.676	144.496	0.092	0.123
-431.661	-62.379	0.279	-0.116
-430.646	-121.954	0.240	-0.040
-429.632	-55.851	-0.120	0.054
-428.617	-86.882	-0.213	0.065
-427.603	15.983	-0.057	-0.045
-426.588	87.026	0.252	-0.279
-425.573	117.247	-0.091	0.112
-424.559	-61.769	0.244	0.102
-423.544	235.639	-0.121	0.200
-422.530	-42.126	-0.125	0.064
-421.515	198.705	0.162	0.248
-420.500	68.000	0.276	0.283
-419.486	-200.000	-0.007	0.035
-418.471	-111.396	0.074	-0.015
-417.457	-0.872	0.327	0.232
-416.442	-200.000	0.048	0.305
-415.428	-158.616	-0.330	0.019
-414.413	432.859	0.113	-0.246
-413.398	-2.310	-0.115	-0.081
-412.384	-200.000	-0.101	0.558
-411.369	667.172	0.114	0.295
-410.355	-52.124	0.098	-0.045
-409.340	101.397	-0.092	0.107
-408.325	796.308	-0.025	0.068
-407.311	-109.826	0.272	-0.057
-406.296	-0.034	-0.198	-0.141
-405.282	-76.147	-0.178	-0.063
-404.267	180.798	-0.075	-0.111
-403.252	-66.279	0.298	0.119
-402.238	-96.127	-0.297	0.079
-401.223	800.000	-0.048	-0.133
-400.209	190.375	0.019	0.029
-399.194	242.999	-0.128	0.214
-398.179	-200.000	0.018	-0.143
-397.165	64.139	0.071	-0.071
-396.150	-28.748	-0.295	0.170
-395.136	800.000	0.062	0.267
-394.121	420.257	-0.186	0.397
-393.106	-10.947	-0.222	-0.146
-392.092	47.252	0.162	0.150
-391.077	-23.286	0.074	0.044
-390.063	99.996	-0.039	-0.045
-389.048	-151.354	-0.312	-0.023
-388.033	5.001	0.171	0.126
-387.019	-200.000	0.055	0.264
-386.004	800.000	0.027	0.107
-384.990	-8.996	0.148	-0.099
-383.975	191.277	-0.115	0.173
-382.960	-119.922	-0.267	-0.046
-381.946	-200.000	0.007	-0.304
-380.931	256.205	-0.274	-0.470
-379.917	-30.090	0.343	0.195
-378.902	67.529	0.252	0.257
-377.888	800.000	-0.055	-0.225
-376.873	25.001	0.194	0.160
-375.858	99.909	0.329	-0.381
-374.844	9.385	-0.458	-0.346
-373.829	-132.620	-0.324	-0.042
-372.815	217.155	0.166	-0.265
-371.800	-50.737	-0.479	0.225
-370.785	-200.000	-0.030	0.282
-369.771	-15.510	0.192	0.122
-368.756	-69.005	-0.239	-0.092
-367.742	800.000	0.103	0.448
-366.727	-200.000	-0.020	-0.266
-365.712	-84.522	-0.363	0.115
-364.698	-168.130	0.242	0.009
-363.683	108.186	-0.243	-0.290
-362.669	-79.149	0.096	0.033
-361.654	99.681	0.076	-0.088
-360.639	-131.841	0.262	-0.034
-359.625	-119.157	-0.046	0.008
-358.610	32.939	-0.254	0.220
-357.596	-200.000	-0.014	-0.093
-356.581	-200.000	-0.017	-0.192
-355.566	-169.228	0.279	-0.010
-354.552	-28.473	0.122	-0.070
-353.537	546.985	0.014	0.034
-352.523	120.706	0.035	0.044
-351.508	144.330	0.142	0.189
-350.493	-200.000	-0.045	-0.280
-349.479	-119.715	0.245	0.042
-348.464	146.560	0.119	0.160
-347.450	195.632	-0.167	0.253
-346.435	-200.000	0.029	0.280
-345.420	800.000	-0.015	0.060
-344.406	35.549	0.114	-0.100
-343.391	-121.733	-0.217	-0.036
-342.377	24.428	0.249	0.205
-341.362	117.622	0.086	0.105
-340.348	225.589	-0.088	-0.143
-339.333	-28.069	0.080	0.046
-338.318	-125.356	-0.441	-0.067
-337.304	-200.000	-0.019	0.191
-336.289	290.331	-0.069	-0.125
-335.275	-200.000	0.073	-0.484
-334.260	-83.661	0.317	-0.101
-333.245	800.000	-0.022	-0.095
-332.231	-62.019	-0.206	0.086
-331.216	-114.462	0.251	-0.048
-330.202	341.446	-0.158	0.308
-329.187	-200.000	0.017	0.192
-328.172	372.839	0.092	0.187
-327.158	77.879	0.150	0.160
-326.143	-156.146	-0.157	-0.010
-325.129	-100.436	-0.202	-0.050
-324.114	24.675	0.296	-0.244
-323.099	-49.689	0.361	0.171
-322.085	-200.000	0.056	0.285
-321.070	-13.181	-0.183	0.119
-320.056	-200.000	0.003	0.077
-319.041	-116.311	-0.181	0.033
-318.026	-200.000	-0.005	0.265
-317.012	-31.582	0.143	-0.080
-315.997	-200.000	-0.027	-0.358
-314.983	-200.000	-0.066	-0.458
-313.968	-4.397	0.162	-0.111
-312.953	27.026	-0.475	0.397
-311.939	-99.489	0.109	-0.027
-310.924	430.453	0.116	-0.250
-309.910	-9.265	-0.018	-0.012
-308.895	475.804	0.057	0.129
-307.880	302.589	-0.082	-0.152
-306.866	-71.819	0.375	0.139
-305.851	-200.000	-0.006	-0.053
-304.837	264.647	0.056	-0.097
-303.822	-90.721	0.153	0.044
-302.807	-87.801	0.277	0.083
-301.793	-127.970	0.194	0.028
-300.778	56.506	-0.207	0.201
-299.764	800.000	0.055	-0.161
-298.749	-200.000	-0.016	-0.148
-297.735	800.000	0.044	0.126
-296.720	-200.000	0.018	0.301
-295.705	-200.000	-0.012	0.295
-294.691	281.941	-0.172	0.307
-293.676	-200.000	0.080	0.422
-292.662	-179.901	-0.102	0.002
-291.647	385.327	0.076	0.157
-290.632	-107.164	0.239	-0.052
-289.618	-120.922	0.221	0.037
-288.603	-200.000	-0.012	0.433
-287.589	156.335	0.048	-0.065
-286.574	455.909	-0.033	0.073
-285.559	-10.780	0.008	-0.005
-284.545	-53.196	0.318	0.146
-283.530	-159.449	0.403	-0.022
-282.516	515.346	0.155	0.361
-281.501	-81.624	0.089	-0.029
-280.486	500.416	-0.192	-0.441
-279.472	-129.334	0.104	0.014
-278.457	93.522	0.093	-0.105
-277.443	-200.000	-0.005	-0.113
-276.428	46.873	0.143	-0.133
-275.413	-131.854	-0.094	0.012
-274.399	-15.233	-0.275	0.175
-273.384	-200.000	0.017	-0.201
-272.370	378.781	-0.102	-0.207
-271.355	-92.247	-0.157	-0.044
-270.340	800.000	-0.045	0.126
-269.326	-193.436	0.297	0.003
-268.311	-200.000	-0.004	-0.052
-267.297	298.486	-0.113	-0.207
-266.282	800.000	0.071	-0.253
-265.267	154.396	0.050	0.068
-264.253	-51.933	0.239	0.111
-263.238	-44.779	-0.033	0.016
-262.224	23.351	-0.069	0.056
-261.209	800.000	0.044	0.127
-260.195	-200.000	0.063	-0.276
-259.180	800.000	-0.109	-0.388
-258.165	176.089	-0.093	-0.135
-257.151	-200.000	-0.009	-0.039
-256.136	-71.744	0.317	0.118
-255.122	-99.241	-0.304	0.076
-254.107	-35.038	0.417	-0.226
-253.092	-200.000	-0.012	0.072
-252.078	-47.488	-0.094	-0.046
-251.063	27.476	0.121	0.101
-250.049	-200.000	0.004	0.156
-249.034	-200.000	0.066	0.423
-248.019	120.972	-0.070	0.087
-247.005	-200.000	-0.013	-0.228
-245.990	800.000	0.066	0.230
-244.976	-200.000	0.008	0.082
-243.961	242.134	-0.155	0.258
-242.946	-49.641	-0.251	-0.119
-241.932	453.050	-0.125	-0.276
-240.917	-132.361	-0.263	0.034
-239.903	156.687	0.012	-0.017
-238.888	-52.792	-0.201	0.092
-237.873	-77.895	-0.402	-0.138
-236.859	800.000	0.051	-0.166
-235.844	-200.000	-0.005	-0.111
-234.830	-200.000	0.026	-0.194
-233.815	-66.947	-0.293	0.115
-232.800	-12.848	0.223	0.144
-231.786	-161.079	-0.116	0.006
-230.771	-72.358	-0.427	-0.157
-229.757	3.495	-0.459	0.332
-228.742	-200.000	0.007	0.215
-227.727	110.420	-0.041	0.049
-226.713	65.365	-0.185	0.186
-225.698	273.394	-0.161	-0.282
-224.684	17.498	-0.301	-0.238
-223.669	-145.475	-0.180	-0.016
-222.655	150.772	-0.143	0.193
-221.640	66.447	-0.100	-0.100
-220.625	-200.000	0.001	-0.042
-219.611	37.173	-0.125	0.110
-218.596	-139.753	-0.270	-0.028
-217.582	135.294	-0.080	0.104
-216.567	280.712	0.073	-0.130
-215.552	-129.614	0.413	0.057
-214.538	146.631	0.220	0.293
-213.523	800.000	-0.021	-0.066
-212.509	-130.380	0.082	0.011
-211.494	-200.000	0.092	-0.406
-210.479	-200.000	-0.043	-0.285
-209.465	-14.638	-0.075	0.048
-208.450	800.000	-0.008	-0.023
-207.436	122.139	-0.028	-0.035
-206.421	26.937	-0.168	-0.140
-205.406	-200.000	-0.041	0.300
-204.392	-1.966	0.101	0.070
-203.377	-44.636	0.488	-0.242
-202.363	157.774	-0.020	0.028
-201.348	-165.862	0.548	-0.023
-200.333	68.381	-0.071	0.072
-199.319	800.000	-0.015	-0.050
-198.304	-36.499	0.352	0.188
-197.290	-10.516	-0.267	0.176
-196.275	-72.662	0.177	-0.065
-195.260	93.079	0.156	-0.175
-194.246	-32.562	0.260	0.144
-193.231	140.435	-0.380	0.497
-192.217	162.160	-0.184	-0.255
-191.202	71.000	-0.210	0.216
-190.187	-17.177	0.167	-0.104
-189.173	46.844	-0.054	-0.050
-188.158	-200.000	-0.006	-0.156
-187.144	-20.162	0.291	0.178
-186.129	395.586	-0.125	-0.259
-185.114	37.502	-0.145	0.127
-184.100	32.805	-0.141	0.121
-183.085	-79.255	0.175	0.059
-182.071	524.581	-0.043	0.100
-181.056	115.697	-0.073	-0.089
-180.042	-148.576	0.163	-0.013
-179.027	180.577	0.252	-0.366
-178.012	-45.809	0.240	-0.118
-176.998	285.047	-0.108	0.192
-175.983	-14.709	0.145	0.092
-174.969	242.775	0.129	-0.215
-173.954	99.100	0.115	-0.132
-172.939	35.797	0.038	0.033
-171.925	-49.138	0.158	-0.075
-170.910	186.531	0.087	-0.129
-169.896	256.262	0.007	0.012
-168.881	20.840	0.125	-0.100
-167.866	549.546	0.110	0.262
-166.852	191.010	0.068	0.101
-165.837	77.015	-0.144	0.152
-164.823	561.656	-0.143	-0.342
-163.808	-200.000	0.004	0.350
-162.793	17.542	0.189	0.149
-161.779	132.244	-0.092	0.118
-160.764	172.910	0.045	-0.064
-159.750	65.340	0.068	-0.068
-158.735	278.015	-0.116	-0.205
-157.720	-200.000	-0.041	0.373
-156.706	216.406	-0.113	0.178
-155.691	-200.000	-0.230	0.001
-154.677	-200.000	-0.060	-0.286
-153.662	-119.259	0.231	-0.040
-152.647	26.453	0.169	0.140
-151.633	-200.000	0.005	0.194
-150.618	36.069	-0.188	0.164
-149.604	31.216	-0.229	0.195
-148.589	-108.892	-0.161	-0.034
-147.574	-85.855	0.032	0.010
-146.560	-117.337	0.177	-0.032
-145.545	-32.706	0.065	0.036
-144.531	-95.781	0.289	0.076
-143.516	800.000	0.063	-0.178
-142.502	20.701	-0.287	-0.230
-141.487	800.000	-0.013	0.048
-140.472	13.363	0.290	-0.222
-139.458	-200.000	-0.012	-0.075
-138.443	-22.307	0.241	-0.145
-137.429	-200.000	0.007	-0.225
-136.414	163.370	0.113	-0.157
-135.399	-200.000	-0.033	0.220
-134.385	800.000	0.042	-0.119
-133.370	-160.993	0.091	-0.005
-132.356	800.000	0.104	0.299
-131.341	-8.048	0.196	-0.130
-130.326	-83.578	0.161	0.051
-129.312	800.000	0.037	0.103
-128.297	-110.108	0.085	-0.018
-127.283	800.000	-0.049	0.153
-126.268	100.570	0.094	-0.108
-125.253	52.734	0.091	0.086
-124.239	-76.005	0.133	-0.046
-123.224	-79.984	0.205	0.068
-122.210	-200.000	-0.008	-0.120
-121.195	-200.000	-0.039	-0.426
