DTS Sentinel unit serial number:	SN413079Multiplexer serial number:	ORYXHardware model number:	OX4-SRSoftware version number:	ORYX F/W v4.00 Oryx Data Collector v3.7.2.0data status	okinstallation	princeton_trtdifferential loss correction	single-endedforward channel	channel 3reverse channel	N/Adate	2019/09/15time	13:32:35forward acquisition time	60.00reverse acquisition time	0.00gamma	496.2192k internal	0.2293k external	0.2293temperature offset calibration	0.9949default loss term (dB/km)	0.3790temperature slope calibration	1.0000multiplexer offset coefficient	1.0000multiplexer slope coefficient	1.0000fibre end	0.00T internal ref (°C)	37.62T ext. ref 1 (°C)	4.84T ext. ref 2 (°C)	34.85length (m)	temperature (°C)	Stokes	anti-Stokes-747.200	-99.804	0.180	-0.046
-746.185	50.193	-0.111	-0.107
-745.171	-117.377	-0.126	0.023
-744.156	44.276	-0.307	0.288
-743.142	500.094	-0.124	0.293
-742.127	-12.886	-0.221	0.147
-741.112	-167.470	0.170	0.007
-740.098	-200.000	-0.005	0.055
-739.083	205.106	-0.195	0.310
-738.069	-85.595	0.080	0.025
-737.054	-95.668	0.181	-0.050
-736.039	-34.562	-0.154	0.086
-735.025	-200.000	-0.013	0.324
-734.010	800.000	-0.038	-0.119
-732.996	-68.300	-0.162	0.064
-731.981	-200.000	-0.009	-0.316
-730.966	77.810	0.100	0.109
-729.952	-42.829	-0.138	0.072
-728.937	800.000	-0.021	0.079
-727.923	800.000	-0.013	0.037
-726.908	-54.565	-0.082	0.038
-725.894	-66.346	-0.302	-0.123
-724.879	35.869	-0.153	-0.137
-723.864	105.727	0.051	-0.062
-722.850	184.618	0.058	-0.088
-721.835	-42.448	0.111	0.058
-720.821	63.437	-0.102	-0.104
-719.806	169.999	-0.074	-0.108
-718.791	-56.041	0.138	-0.063
-717.777	-15.596	-0.263	0.171
-716.762	246.749	-0.145	-0.250
-715.748	87.227	0.160	0.181
-714.733	800.000	-0.056	0.238
-713.718	714.704	-0.076	-0.207
-712.704	800.000	0.029	-0.096
-711.689	-27.697	0.116	0.069
-710.675	800.000	-0.045	0.166
-709.660	-70.044	0.361	0.141
-708.645	145.954	0.142	-0.195
-707.631	-200.000	-0.042	0.364
-706.616	-170.627	-0.341	-0.012
-705.602	641.698	-0.091	-0.238
-704.587	-200.000	-0.040	-0.405
-703.572	-41.366	-0.046	0.024
-702.558	-41.179	-0.147	-0.078
-701.543	273.758	-0.110	-0.199
-700.529	603.135	0.082	0.209
-699.514	800.000	-0.071	0.216
-698.499	126.705	0.199	-0.257
-697.485	289.636	0.117	0.217
-696.470	38.668	-0.259	0.236
-695.456	-42.285	-0.188	-0.098
-694.441	-200.000	-0.038	-0.324
-693.426	-200.000	0.020	-0.094
-692.412	-39.087	0.137	0.074
-691.397	-110.860	-0.159	-0.033
-690.383	800.000	0.063	-0.236
-689.368	6.014	0.024	-0.018
-688.354	800.000	0.041	-0.117
-687.339	-55.595	0.336	-0.154
-686.324	87.849	-0.111	-0.126
-685.310	800.000	-0.054	0.238
-684.295	180.339	-0.135	0.202
-683.281	119.308	-0.256	-0.323
-682.266	-200.000	0.016	-0.155
-681.251	-74.535	0.403	-0.148
-680.237	86.082	0.028	-0.031
-679.222	7.774	-0.069	-0.053
-678.208	36.978	0.209	-0.189
-677.193	74.068	0.038	0.041
-676.178	-85.976	0.260	-0.082
-675.164	65.238	0.142	-0.146
-674.149	35.524	-0.036	0.032
-673.135	9.879	0.186	-0.144
-672.120	140.490	0.148	0.200
-671.105	800.000	0.031	0.105
-670.091	93.820	0.200	0.232
-669.076	522.933	-0.157	0.375
-668.062	462.312	0.089	0.204
-667.047	80.717	-0.174	0.192
-666.032	800.000	0.023	0.080
-665.018	163.461	0.113	0.162
-664.003	-122.425	-0.210	-0.035
-662.989	-16.280	-0.152	-0.098
-661.974	37.434	-0.199	0.180
-660.959	60.005	-0.192	-0.194
-659.945	-99.537	-0.245	-0.063
-658.930	296.874	0.189	0.353
-657.916	-103.212	-0.029	-0.007
-656.901	-17.038	0.237	-0.152
-655.886	-181.210	-0.292	0.006
-654.872	-137.832	0.185	-0.021
-653.857	800.000	0.115	-0.327
-652.843	-138.385	-0.184	-0.021
-651.828	66.849	-0.080	-0.083
-650.814	84.447	-0.081	-0.090
-649.799	-200.000	0.046	-0.215
-648.784	-17.019	-0.181	0.117
-647.770	340.809	0.018	-0.036
-646.755	800.000	0.032	-0.139
-645.741	-64.785	0.064	-0.027
-644.726	800.000	0.033	-0.122
-643.711	164.586	0.088	0.126
-642.697	-122.241	0.303	0.051
-641.682	-25.393	0.097	-0.059
-640.668	-89.354	0.289	0.087
-639.653	-29.114	-0.125	-0.073
-638.638	-105.422	-0.143	0.033
-637.624	-120.061	0.221	-0.039
-636.609	800.000	-0.085	-0.257
-635.595	-119.016	0.279	-0.050
-634.580	-200.000	-0.043	-0.209
-633.565	173.087	-0.100	-0.147
-632.551	800.000	-0.095	0.274
-631.536	-116.228	0.145	0.027
-630.522	-200.000	0.005	0.354
-629.507	-136.632	-0.252	-0.030
-628.492	-143.292	0.283	0.028
-627.478	538.290	0.029	0.071
-626.463	-200.000	-0.029	-0.136
-625.449	-200.000	-0.030	-0.224
-624.434	225.392	0.108	0.177
-623.419	-127.267	-0.224	-0.033
-622.405	193.025	0.076	-0.118
-621.390	133.759	0.180	0.237
-620.376	-200.000	-0.011	0.053
-619.361	711.950	0.043	-0.115
-618.346	33.781	0.244	0.216
-617.332	391.220	-0.072	0.153
-616.317	105.803	-0.159	0.192
-615.303	-10.887	-0.094	-0.063
-614.288	453.956	0.065	0.146
-613.273	514.324	-0.084	-0.200
-612.259	-70.848	0.414	-0.159
-611.244	-82.202	-0.185	-0.061
-610.230	259.845	0.032	-0.056
-609.215	-92.767	-0.289	-0.082
-608.201	-119.098	-0.097	0.017
-607.186	-80.457	-0.101	0.034
-606.171	226.981	0.195	-0.322
-605.157	-79.463	-0.101	0.035
-604.142	-7.552	-0.236	-0.162
-603.128	776.674	-0.140	0.390
-602.113	436.916	0.080	-0.176
-601.098	329.240	0.103	0.202
-600.084	-200.000	-0.010	-0.225
-599.069	374.787	-0.132	-0.274
-598.055	-82.637	-0.016	-0.005
-597.040	-200.000	0.025	-0.142
-596.025	440.576	0.177	0.394
-595.011	119.888	-0.156	0.197
-593.996	279.291	-0.058	-0.105
-592.982	-47.345	-0.348	-0.172
-591.967	-84.465	0.147	-0.047
-590.952	-84.384	-0.187	0.060
-589.938	800.000	-0.057	0.210
-588.923	273.128	-0.069	0.124
-587.909	-114.306	0.169	-0.033
-586.894	-200.000	-0.034	-0.173
-585.879	-6.739	-0.050	0.034
-584.865	106.600	-0.089	-0.107
-583.850	-200.000	0.000	-0.047
-582.836	-144.833	-0.529	-0.049
-581.821	-153.080	-0.149	-0.011
-580.806	722.579	0.068	0.183
-579.792	800.000	-0.019	0.055
-578.777	-200.000	-0.024	0.374
-577.763	154.178	-0.141	0.197
-576.748	125.421	0.200	-0.257
-575.733	-8.748	-0.204	0.139
-574.719	62.711	0.279	0.283
-573.704	800.000	0.057	0.234
-572.690	-122.679	0.436	0.072
-571.675	-10.731	0.192	-0.129
-570.661	-25.547	-0.114	-0.068
-569.646	-158.319	-0.240	-0.014
-568.631	-200.000	-0.008	-0.166
-567.617	100.660	0.086	0.101
-566.602	192.985	0.149	0.229
-565.588	-79.757	-0.173	-0.059
-564.573	-137.597	-0.312	0.036
-563.558	95.714	-0.129	-0.150
-562.544	800.000	-0.177	0.524
-561.529	-5.986	0.125	-0.087
-560.515	-122.397	-0.126	-0.021
-559.500	137.935	-0.090	-0.120
-558.485	-2.307	-0.441	0.314
-557.471	-131.401	-0.065	0.009
-556.456	108.751	0.087	-0.105
-555.442	-36.628	-0.109	0.059
-554.427	82.055	-0.123	-0.135
-553.412	-84.684	-0.333	0.106
-552.398	-73.119	-0.153	-0.057
-551.383	310.967	-0.024	-0.046
-550.369	-71.824	-0.108	0.041
-549.354	-15.040	-0.354	0.230
-548.339	-57.164	0.005	-0.002
-547.325	-58.717	0.204	-0.090
-546.310	313.230	-0.082	-0.156
-545.296	394.851	0.084	-0.178
-544.281	630.733	0.043	-0.109
-543.266	800.000	-0.151	-0.431
-542.252	-56.164	-0.183	-0.082
-541.237	-2.501	-0.153	-0.109
-540.223	800.000	0.012	-0.041
-539.208	800.000	0.032	0.133
-538.193	-200.000	0.027	-0.147
-537.179	-200.000	-0.019	0.363
-536.164	-200.000	0.018	0.123
-535.150	-145.902	-0.032	0.003
-534.135	-79.216	-0.090	-0.031
-533.121	158.483	-0.182	0.257
-532.106	59.993	-0.302	0.302
-531.091	800.000	-0.070	-0.287
-530.077	-60.303	-0.222	0.096
-529.062	71.023	0.093	-0.098
-528.048	-87.112	0.288	-0.089
-527.033	21.024	-0.353	0.290
-526.018	-106.434	0.278	-0.063
-525.004	424.538	0.114	-0.248
-523.989	17.104	-0.098	-0.078
-522.975	-28.825	0.126	0.073
-521.960	-200.000	-0.016	-0.354
-520.945	46.825	0.234	-0.221
-519.931	-82.696	0.232	0.076
-518.916	-200.000	-0.007	-0.166
-517.902	800.000	-0.175	-0.547
-516.887	655.228	-0.090	-0.235
-515.872	-52.381	0.113	0.053
-514.858	800.000	-0.020	0.077
-513.843	67.970	0.118	0.123
-512.829	93.519	-0.115	0.132
-511.814	97.293	-0.056	-0.065
-510.799	623.275	-0.066	-0.168
-509.785	-26.857	-0.181	-0.107
-508.770	-25.089	0.151	0.091
-507.756	800.000	-0.042	0.184
-506.741	-152.685	-0.112	-0.008
-505.726	-86.510	0.226	-0.070
-504.712	235.289	0.064	-0.107
-503.697	-200.000	-0.038	-0.341
-502.683	120.390	0.010	0.013
-501.668	391.944	-0.062	0.131
-500.653	5.390	0.096	0.072
-499.639	-200.000	-0.004	0.365
-498.624	-112.686	0.214	-0.043
-497.610	43.589	0.161	0.149
-496.595	54.076	0.011	0.010
-495.581	38.829	-0.301	0.273
-494.566	-42.880	-0.119	0.061
-493.551	24.959	-0.126	-0.106
-492.537	354.544	-0.101	0.203
-491.522	1.994	0.123	0.090
-490.508	-33.432	0.153	0.086
-489.493	19.973	-0.116	0.095
-488.478	224.108	0.088	0.144
-487.464	-123.501	-0.386	-0.062
-486.449	99.493	-0.275	-0.322
-485.435	800.000	-0.018	-0.066
-484.420	-53.612	0.227	0.105
-483.405	-200.000	-0.029	-0.180
-482.391	13.594	0.133	0.105
-481.376	-131.307	-0.280	0.038
-480.362	-200.000	0.024	0.171
-479.347	800.000	-0.033	-0.127
-478.332	121.980	-0.124	-0.156
-477.318	8.170	0.170	-0.130
-476.303	25.284	-0.204	-0.172
-475.289	-34.067	0.201	-0.112
-474.274	-120.188	-0.029	0.005
-473.259	56.568	-0.456	-0.449
-472.245	-200.000	-0.011	-0.069
-471.230	18.213	-0.310	-0.250
-470.216	-24.243	-0.331	-0.200
-469.201	-166.430	0.365	-0.015
-468.186	118.473	0.024	0.030
-467.172	-200.000	-0.016	0.216
-466.157	56.377	-0.029	0.028
-465.143	140.593	0.076	-0.102
-464.128	-74.877	-0.105	0.038
-463.113	49.330	0.103	0.098
-462.099	151.480	0.065	0.089
-461.084	318.509	-0.129	0.248
-460.070	-200.000	0.014	-0.280
-459.055	73.023	0.140	-0.148
-458.040	800.000	-0.043	-0.129
-457.026	-147.507	-0.120	0.010
-456.011	587.862	0.047	-0.116
-454.997	-200.000	0.045	0.356
-453.982	800.000	-0.035	-0.138
-452.968	-136.202	0.395	0.047
-451.953	27.868	0.061	-0.052
-450.938	800.000	-0.046	0.151
-449.924	800.000	-0.077	0.315
-448.909	19.377	0.150	-0.122
-447.895	56.256	0.184	0.181
-446.880	499.206	-0.097	0.226
-445.865	-77.026	0.175	-0.062
-444.851	40.351	-0.244	-0.222
-443.836	193.309	0.074	-0.113
-442.822	142.211	-0.062	-0.084
-441.807	800.000	0.060	-0.255
-440.792	-154.348	0.267	-0.018
-439.778	152.416	-0.044	0.061
-438.763	78.941	-0.114	0.123
-437.749	-138.508	0.347	-0.039
-436.734	262.059	0.100	0.175
-435.719	-84.391	-0.163	0.052
-434.705	-200.000	0.008	0.401
-433.690	43.765	-0.128	0.118
-432.676	182.808	-0.105	-0.157
-431.661	15.039	-0.190	-0.150
-430.646	800.000	-0.074	0.211
-429.632	-87.479	-0.294	0.090
-428.617	-44.535	0.073	-0.037
-427.603	421.134	0.083	0.179
-426.588	26.422	-0.161	0.136
-425.573	67.395	0.153	0.158
-424.559	800.000	-0.064	0.274
-423.544	800.000	0.074	0.321
-422.530	-46.347	0.244	0.121
-421.515	-0.763	-0.214	-0.153
-420.500	-110.812	0.273	-0.057
-419.486	800.000	0.006	-0.019
-418.471	-86.948	-0.163	0.050
-417.457	-29.260	-0.094	-0.054
-416.442	-114.703	0.412	0.080
-415.428	800.000	-0.048	-0.157
-414.413	4.593	-0.138	0.103
-413.398	-200.000	0.062	-0.310
-412.384	-200.000	-0.015	-0.224
-411.369	309.935	-0.039	-0.073
-410.355	800.000	0.067	-0.245
-409.340	800.000	0.017	-0.061
-408.325	-151.668	0.429	-0.032
-407.311	-128.207	0.143	-0.021
-406.296	-106.748	-0.136	0.031
-405.282	146.491	0.040	-0.054
-404.267	-92.220	0.095	0.027
-403.252	-200.000	0.007	0.292
-402.238	-109.367	-0.121	-0.026
-401.223	-118.061	0.131	0.024
-400.209	800.000	0.019	-0.062
-399.194	-106.322	0.287	0.065
-398.179	-190.802	0.253	-0.003
-397.165	11.802	0.204	0.158
-396.150	-105.615	0.470	-0.108
-395.136	-153.644	0.296	0.021
-394.121	132.325	-0.215	0.280
-393.106	62.460	0.152	0.153
-392.092	8.911	0.375	0.285
-391.077	800.000	-0.005	-0.014
-390.063	-67.707	0.138	0.054
-389.048	-200.000	0.039	-0.173
-388.033	800.000	-0.033	-0.100
-387.019	429.338	-0.166	0.363
-386.004	46.798	-0.204	0.191
-384.990	-19.020	-0.137	-0.086
-383.975	-45.793	-0.204	-0.102
-382.960	-17.489	0.104	0.066
-381.946	-82.416	-0.118	0.039
-380.931	-170.662	0.279	-0.010
-379.917	62.029	-0.197	-0.198
-378.902	-87.793	-0.088	-0.027
-377.888	134.955	0.204	-0.267
-376.873	-200.000	0.023	-0.232
-375.858	42.704	0.186	-0.170
-374.844	-44.796	0.192	0.096
-373.829	-84.252	0.284	0.091
-372.815	-151.062	0.116	0.009
-371.800	340.162	-0.072	0.141
-370.785	-176.354	-0.110	0.003
-369.771	-200.000	-0.063	0.335
-368.756	-103.256	0.098	-0.023
-367.742	-200.000	-0.030	-0.400
-366.727	-171.331	-0.372	-0.013
-365.712	-48.920	0.250	-0.121
-364.698	0.567	-0.138	-0.100
-363.683	547.280	0.082	-0.197
-362.669	800.000	-0.134	0.391
-361.654	800.000	-0.099	0.294
-360.639	-200.000	-0.019	0.234
-359.625	800.000	-0.057	0.202
-358.610	-200.000	-0.016	0.173
-357.596	310.569	0.042	-0.080
-356.581	-200.000	0.018	0.118
-355.566	-81.126	-0.111	0.037
-354.552	183.526	-0.184	-0.274
-353.537	-159.512	-0.373	0.021
-352.523	-11.928	-0.056	-0.037
-351.508	-200.000	-0.016	-0.296
-350.493	-11.528	-0.232	-0.154
-349.479	-200.000	-0.070	0.354
-348.464	800.000	0.037	0.114
-347.450	113.505	-0.148	-0.181
-346.435	-200.000	-0.077	-0.409
-345.420	50.378	-0.076	-0.073
-344.406	114.204	-0.122	0.149
-343.391	252.691	0.112	0.193
-342.377	20.788	0.398	0.325
-341.362	-200.000	-0.031	0.191
-340.348	195.968	-0.007	0.011
-339.333	-57.361	0.296	0.131
-338.318	34.435	-0.198	0.174
-337.304	-22.678	0.145	0.088
-336.289	-72.016	-0.250	0.094
-335.275	-106.377	-0.147	0.033
-334.260	-79.200	-0.162	-0.055
-333.245	-69.486	-0.260	-0.100
-332.231	-200.000	0.069	-0.401
-331.216	192.090	-0.168	0.255
-330.202	112.609	0.239	0.291
-329.187	81.350	0.091	-0.099
-328.172	-200.000	-0.065	-0.436
-327.158	727.393	0.051	0.138
-326.143	-200.000	-0.010	-0.053
-325.129	-61.024	0.235	-0.100
-324.114	-200.000	-0.025	-0.160
-323.099	-96.980	0.221	-0.058
-322.085	-200.000	0.041	0.240
-321.070	174.105	0.324	0.470
-320.056	-182.131	-0.302	-0.006
-319.041	800.000	0.074	-0.237
-318.026	12.426	0.156	-0.121
-317.012	-132.191	0.263	-0.034
-315.997	-52.412	-0.066	-0.031
-314.983	-40.617	-0.156	0.082
-313.968	746.436	0.060	0.163
-312.953	124.247	-0.169	0.214
-311.939	523.344	-0.077	-0.182
-310.924	99.014	-0.131	0.153
-309.910	361.498	0.052	0.106
-308.895	-34.117	0.366	0.202
-307.880	-29.599	0.160	0.092
-306.866	-81.415	-0.198	0.066
-305.851	29.431	-0.474	0.405
-304.837	-91.513	0.188	-0.054
-303.822	22.375	0.221	0.182
-302.807	3.508	0.169	0.124
-301.793	289.231	-0.067	-0.122
-300.778	93.511	-0.163	0.186
-299.764	-200.000	0.015	0.094
-298.749	800.000	-0.105	-0.364
-297.735	-10.552	-0.366	-0.244
-296.720	-200.000	-0.008	0.122
-295.705	-200.000	-0.010	-0.067
-294.691	56.049	-0.034	-0.033
-293.676	623.758	-0.053	-0.135
-292.662	800.000	0.148	-0.526
-291.647	41.562	0.134	-0.122
-290.632	800.000	0.111	-0.436
-289.618	-8.862	0.376	-0.253
-288.603	800.000	-0.071	-0.228
-287.589	191.354	-0.045	-0.069
-286.574	800.000	-0.219	-0.639
-285.559	16.756	0.306	-0.243
-284.545	340.768	-0.158	-0.311
-283.530	-200.000	-0.015	-0.179
-282.516	305.896	0.193	-0.360
-281.501	82.476	-0.237	-0.259
-280.486	-200.000	0.021	0.169
-279.472	2.402	0.015	-0.011
-278.457	-137.435	0.065	0.007
-277.443	-113.189	0.123	0.024
-276.428	-200.000	0.007	-0.040
-275.413	-33.102	-0.106	-0.059
-274.399	202.808	0.080	-0.124
-273.384	800.000	0.080	0.333
-272.370	-60.513	-0.111	-0.047
-271.355	-200.000	-0.004	0.169
-270.340	6.444	0.100	-0.075
-269.326	169.707	-0.134	-0.192
-268.311	-147.267	0.185	-0.016
-267.297	797.220	-0.094	-0.259
-266.282	-49.448	0.087	-0.041
-265.267	55.545	0.160	-0.155
-264.253	-29.767	-0.165	-0.094
-263.238	5.627	-0.215	0.160
-262.224	-200.000	-0.026	0.300
-261.209	43.582	0.203	0.186
-260.195	-200.000	0.031	0.302
-259.180	-151.321	-0.400	-0.030
-258.165	-178.518	0.276	-0.006
-257.151	734.690	0.025	-0.067
-256.136	-108.743	-0.192	-0.041
-255.122	8.809	-0.089	0.067
-254.107	-142.689	0.425	-0.042
-253.092	-130.233	-0.357	0.049
-252.078	39.899	0.107	-0.096
-251.063	358.356	0.103	-0.205
-250.049	800.000	-0.012	0.037
-249.034	-139.548	0.188	0.020
-248.019	-200.000	-0.017	0.213
-247.005	114.827	0.245	-0.299
-245.990	-80.244	-0.058	-0.019
-244.976	-200.000	0.063	0.404
-243.961	376.637	-0.093	0.190
-242.946	-27.891	0.226	0.131
-241.932	281.504	0.080	-0.143
-240.917	-71.649	0.125	-0.047
-239.903	-106.335	-0.312	-0.070
-238.888	-89.399	0.102	0.030
-237.873	191.590	0.114	-0.173
-236.859	-100.168	0.179	0.045
-235.844	-3.943	0.115	-0.080
-234.830	-9.131	0.268	0.180
-233.815	178.583	0.221	-0.323
-232.800	-172.540	0.307	0.010
-231.786	-200.000	-0.026	0.184
-230.771	-200.000	-0.024	-0.119
-229.757	219.809	0.119	0.191
-228.742	-184.697	-0.171	0.003
-227.727	800.000	0.059	-0.231
-226.713	-51.831	-0.242	-0.113
-225.698	260.259	-0.110	0.191
-224.684	-55.845	-0.286	0.128
-223.669	-3.108	0.111	0.078
-222.655	559.041	0.054	0.131
-221.640	112.579	-0.181	-0.219
-220.625	203.534	-0.098	-0.152
-219.611	-183.526	-0.067	0.001
-218.596	108.733	0.189	0.226
-217.582	-99.973	0.284	0.071
-216.567	-14.279	-0.211	-0.136
-215.552	-95.387	-0.077	-0.021
-214.538	-35.834	-0.166	0.090
-213.523	373.350	0.045	0.091
-212.509	-128.466	0.100	-0.014
-211.494	6.508	-0.260	0.194
-210.479	-200.000	-0.034	-0.159
-209.465	-86.825	-0.133	0.041
-208.450	-100.489	-0.048	-0.012
-207.436	583.318	0.059	0.145
-206.421	197.049	0.024	-0.037
-205.406	67.385	0.280	-0.287
-204.392	18.695	0.060	0.048
-203.377	133.005	0.090	0.116
-202.363	-115.356	-0.278	-0.053
-201.348	-85.752	0.382	-0.119
-200.333	-200.000	0.022	-0.190
-199.319	800.000	-0.050	0.143
-198.304	-168.844	0.093	-0.003
-197.290	800.000	0.057	0.187
-196.275	-200.000	0.006	0.225
-195.260	-6.219	0.290	0.199
-194.246	-28.639	-0.028	0.016
-193.231	292.621	-0.045	-0.081
-192.217	617.612	0.086	0.216
-191.202	50.499	-0.179	0.169
-190.187	-118.827	-0.380	0.067
-189.173	-90.426	-0.206	-0.060
-188.158	-46.244	-0.184	-0.090
-187.144	-111.899	0.250	0.050
-186.129	5.675	0.367	0.272
-185.114	-200.000	-0.001	0.082
-184.100	-46.936	-0.072	0.035
-183.085	68.253	0.021	0.022
-182.071	-89.955	0.252	-0.074
-181.056	800.000	0.067	-0.185
-180.042	629.042	-0.121	-0.306
-179.027	251.970	0.214	-0.364
-178.012	-79.294	0.183	-0.062
-176.998	11.435	-0.053	0.041
-175.983	36.667	-0.267	0.236
-174.969	-200.000	-0.026	0.192
-173.954	-70.855	0.296	-0.112
-172.939	-24.964	-0.357	0.212
-171.925	789.292	0.046	-0.125
-170.910	-121.191	-0.298	-0.050
-169.896	-35.435	0.122	0.066
-168.881	-160.249	-0.324	0.017
-167.866	201.526	0.100	-0.154
-166.852	-56.352	0.308	-0.137
-165.837	-200.000	0.020	0.267
-164.823	164.702	0.153	0.217
-163.808	-94.912	-0.120	0.033
-162.793	392.188	0.151	-0.313
-161.779	-200.000	-0.010	-0.085
-160.764	99.493	-0.165	-0.191
-159.750	-200.000	-0.028	0.496
-158.735	-200.000	0.029	0.186
-157.720	-200.000	0.024	0.113
-156.706	43.281	0.219	-0.200
-155.691	-83.214	0.230	0.074
-154.677	467.856	-0.098	0.219
-153.662	13.672	-0.084	-0.065
-152.647	-53.024	-0.123	-0.056
-151.633	22.894	0.214	-0.175
-150.618	-70.488	-0.243	0.092
-149.604	80.150	0.143	0.153
-148.589	-200.000	0.015	0.080
-147.574	-112.252	0.014	0.003
-146.560	-200.000	-0.062	0.317
-145.545	800.000	-0.110	0.326
-144.531	800.000	0.092	0.334
-143.516	-84.019	-0.208	0.066
-142.502	59.493	-0.080	0.078
-141.487	-86.886	0.110	0.033
-140.472	326.914	-0.090	-0.172
-139.458	464.329	0.088	-0.196
-138.443	343.629	0.122	-0.238
-137.429	431.171	0.051	-0.109
-136.414	-143.862	0.289	-0.027
-135.399	800.000	0.066	-0.211
-134.385	606.692	0.112	-0.279
-133.370	29.296	0.109	0.092
-132.356	-13.311	0.196	-0.127
-131.341	-200.000	-0.071	0.375
-130.326	-87.321	0.326	0.099
-129.312	-70.166	0.146	-0.056
-128.297	-15.022	-0.060	0.038
-127.283	-95.618	0.067	-0.018
-126.268	-142.034	-0.353	-0.035
-125.253	573.627	0.064	0.155
-124.239	-40.102	0.253	0.132
-123.224	-177.203	0.057	-0.001
-122.210	-171.679	0.213	-0.007
-121.195	-61.905	0.246	-0.103
