DTS Sentinel unit serial number:	SN413079Multiplexer serial number:	ORYXHardware model number:	OX4-SRSoftware version number:	ORYX F/W v4.00 Oryx Data Collector v3.7.2.0data status	okinstallation	princeton_trtdifferential loss correction	single-endedforward channel	channel 3reverse channel	N/Adate	2019/09/13time	18:20:35forward acquisition time	60.00reverse acquisition time	0.00gamma	496.2192k internal	0.2312k external	0.2312temperature offset calibration	1.0114default loss term (dB/km)	0.3790temperature slope calibration	1.0000multiplexer offset coefficient	1.0000multiplexer slope coefficient	1.0000fibre end	0.00T internal ref (°C)	33.89T ext. ref 1 (°C)	4.36T ext. ref 2 (°C)	26.82length (m)	temperature (°C)	Stokes	anti-Stokes-747.200	800.000	0.072	-0.217
-746.185	-27.777	0.338	-0.199
-745.171	389.564	-0.189	-0.398
-744.156	-7.088	-0.159	-0.110
-743.142	127.613	0.244	-0.314
-742.127	-148.554	-0.174	0.014
-741.112	315.107	-0.073	0.141
-740.098	-79.319	0.048	-0.017
-739.083	-200.000	0.041	0.345
-738.069	222.657	-0.094	0.153
-737.054	800.000	-0.066	0.252
-736.039	-129.240	-0.079	0.011
-735.025	337.057	-0.088	0.174
-734.010	64.494	-0.249	0.255
-732.996	351.643	-0.090	-0.180
-731.981	-106.017	0.184	-0.042
-730.966	305.999	-0.138	-0.261
-729.952	-81.867	0.251	-0.083
-728.937	6.646	-0.133	0.100
-727.923	-77.567	-0.388	-0.136
-726.908	-100.229	0.173	-0.044
-725.894	-129.015	-0.070	-0.010
-724.879	-93.920	0.252	0.070
-723.864	-112.724	0.037	0.007
-722.850	-200.000	-0.065	-0.301
-721.835	750.208	-0.072	-0.196
-720.821	7.639	0.154	-0.117
-719.806	-200.000	-0.018	0.118
-718.791	800.000	-0.076	0.224
-717.777	103.687	-0.025	-0.030
-716.762	56.470	-0.114	0.112
-715.748	198.278	-0.136	-0.211
-714.733	18.858	-0.285	-0.231
-713.718	39.285	-0.335	0.304
-712.704	-200.000	-0.013	0.158
-711.689	-88.089	0.128	-0.039
-710.675	-41.131	-0.630	0.330
-709.660	147.018	-0.028	0.038
-708.645	-66.101	-0.134	0.054
-707.631	163.485	-0.089	-0.127
-706.616	318.935	-0.074	-0.143
-705.602	357.477	-0.093	0.188
-704.587	-135.426	0.299	-0.036
-703.572	-200.000	0.006	0.124
-702.558	-13.129	-0.181	-0.119
-701.543	50.160	0.118	0.113
-700.529	-200.000	-0.003	0.021
-699.514	800.000	0.110	0.379
-698.499	638.706	-0.107	-0.276
-697.485	461.786	0.112	-0.252
-696.470	390.180	-0.025	-0.053
-695.456	-200.000	0.018	0.086
-694.441	315.677	0.050	0.095
-693.426	-31.050	0.184	-0.105
-692.412	310.596	-0.104	0.196
-691.397	8.922	0.157	-0.120
-690.383	421.443	0.059	-0.128
-689.368	-73.313	-0.194	0.072
-688.354	-200.000	0.028	-0.134
-687.339	-3.288	-0.138	0.097
-686.324	-114.217	-0.209	0.041
-685.310	43.750	-0.123	0.114
-684.295	800.000	0.084	0.264
-683.281	-18.740	-0.222	-0.140
-682.266	-200.000	-0.072	-0.321
-681.251	-92.635	0.206	0.058
-680.237	184.362	0.042	-0.062
-679.222	-62.699	-0.203	-0.085
-678.208	-95.498	0.156	0.042
-677.193	260.296	0.042	0.073
-676.178	-44.538	0.370	0.187
-675.164	158.715	-0.134	0.189
-674.149	-58.331	0.114	-0.050
-673.135	-87.358	-0.296	0.091
-672.120	-112.578	-0.302	0.061
-671.105	195.069	-0.042	0.064
-670.091	-168.249	-0.447	-0.017
-669.076	51.190	-0.125	0.120
-668.062	87.333	-0.100	0.111
-667.047	-81.588	-0.107	0.036
-666.032	-87.630	-0.244	0.075
-665.018	-21.979	0.074	-0.045
-664.003	-52.599	-0.165	0.077
-662.989	424.580	0.021	0.047
-661.974	-39.823	0.141	0.074
-660.959	9.800	0.379	0.291
-659.945	800.000	-0.146	0.414
-658.930	164.957	-0.121	-0.173
-657.916	-200.000	0.022	-0.192
-656.901	-48.338	-0.240	-0.117
-655.886	-200.000	0.028	0.142
-654.872	164.273	0.055	-0.078
-653.857	162.270	-0.055	-0.078
-652.843	-122.532	0.125	-0.021
-651.828	-40.655	-0.409	0.214
-650.814	800.000	0.031	-0.102
-649.799	800.000	0.051	-0.192
-648.784	-110.216	0.177	0.037
-647.770	-200.000	0.007	-0.340
-646.755	-161.567	-0.210	0.011
-645.741	59.771	-0.288	-0.287
-644.726	168.477	0.239	-0.345
-643.711	197.098	-0.147	0.227
-642.697	-19.859	0.066	-0.041
-641.682	-22.679	-0.023	0.014
-640.668	-200.000	0.010	0.172
-639.653	-41.059	-0.217	0.113
-638.638	-136.944	-0.276	-0.032
-637.624	-24.082	-0.122	-0.074
-636.609	105.285	0.108	-0.129
-635.595	800.000	-0.081	-0.279
-634.580	-121.616	-0.278	0.046
-633.565	-200.000	0.022	-0.136
-632.551	-200.000	0.021	-0.182
-631.536	-129.332	0.195	0.027
-630.522	800.000	0.035	0.097
-629.507	-200.000	0.022	-0.184
-628.492	800.000	-0.028	-0.091
-627.478	257.135	-0.065	-0.113
-626.463	98.095	0.178	-0.206
-625.449	800.000	-0.064	-0.204
-624.434	-87.677	-0.357	0.109
-623.419	800.000	0.017	-0.069
-622.405	39.382	0.103	-0.093
-621.390	-4.380	-0.220	-0.153
-620.376	62.560	0.253	0.255
-619.361	-63.446	-0.230	-0.095
-618.346	-200.000	0.046	0.311
-617.332	800.000	-0.055	-0.234
-616.317	-10.421	0.203	0.136
-615.303	-15.172	0.033	0.021
-614.288	500.780	0.031	0.072
-613.273	-200.000	0.024	-0.160
-612.259	-200.000	-0.032	-0.412
-611.244	749.673	0.113	0.308
-610.230	305.077	-0.068	-0.128
-609.215	-123.628	0.106	0.017
-608.201	34.732	-0.060	0.053
-607.186	-74.852	0.213	0.077
-606.171	-200.000	-0.001	0.103
-605.157	174.796	0.053	-0.078
-604.142	75.565	0.110	0.117
-603.128	-72.854	-0.152	0.056
-602.113	-113.448	-0.144	-0.028
-601.098	-200.000	-0.011	-0.298
-600.084	174.242	0.057	0.083
-599.069	-110.424	0.213	-0.045
-598.055	-200.000	-0.019	-0.223
-597.040	-43.685	-0.150	-0.076
-596.025	-68.789	-0.278	-0.108
-595.011	-173.547	0.424	-0.013
-593.996	116.161	0.143	-0.177
-592.982	71.949	-0.192	0.202
-591.967	-200.000	0.025	0.267
-590.952	-70.573	-0.193	-0.074
-589.938	800.000	0.060	-0.208
-588.923	-200.000	0.034	-0.321
-587.909	20.855	0.146	-0.119
-586.894	-103.677	0.419	0.099
-585.879	-98.202	0.116	0.030
-584.865	-200.000	0.006	-0.167
-583.850	1.204	0.227	-0.164
-582.836	-52.388	0.052	0.024
-581.821	149.878	-0.292	-0.399
-580.806	-96.837	-0.187	0.050
-579.792	-32.029	0.126	0.071
-578.777	-3.379	0.319	0.224
-577.763	214.604	0.069	-0.111
-576.748	800.000	0.052	0.150
-575.733	16.594	-0.065	-0.052
-574.719	-83.389	-0.214	-0.069
-573.704	84.764	0.198	0.218
-572.690	-64.195	0.139	0.057
-571.675	800.000	-0.059	-0.234
-570.661	-193.265	-0.029	-0.000
-569.646	196.118	0.035	0.054
-568.631	800.000	-0.024	0.098
-567.617	-143.955	-0.299	0.028
-566.602	800.000	-0.046	-0.140
-565.588	-200.000	-0.023	-0.270
-564.573	214.371	-0.144	0.230
-563.558	800.000	-0.043	0.184
-562.544	361.921	-0.075	0.152
-561.529	800.000	-0.053	0.213
-560.515	347.992	0.042	0.083
-559.500	-183.688	-0.132	0.002
-558.485	-89.712	0.105	0.031
-557.471	171.471	0.025	-0.036
-556.456	266.454	0.142	-0.249
-555.442	-200.000	-0.012	0.088
-554.427	707.477	-0.072	0.193
-553.412	-103.004	0.214	-0.051
-552.398	-121.370	-0.389	-0.065
-551.383	502.860	-0.070	0.162
-550.369	-111.223	0.316	0.065
-549.354	21.040	0.195	-0.160
-548.339	387.492	0.113	-0.236
-547.325	-138.302	0.167	-0.019
-546.310	-44.996	-0.130	-0.065
-545.296	800.000	-0.053	0.154
-544.281	87.201	0.250	0.278
-543.266	-200.000	0.018	0.086
-542.252	102.668	-0.084	0.099
-541.237	800.000	-0.026	0.085
-540.223	6.045	-0.352	-0.263
-539.208	-26.557	0.161	-0.095
-538.193	-121.866	-0.336	-0.056
-537.179	-174.267	0.088	0.003
-536.164	53.564	-0.130	0.125
-535.150	182.399	-0.107	0.159
-534.135	-17.337	-0.262	0.166
-533.121	-7.054	0.298	-0.203
-532.106	57.545	-0.245	-0.241
-531.091	-119.069	0.281	-0.049
-530.077	119.564	-0.160	-0.199
-529.062	-120.980	-0.110	-0.019
-528.048	-10.606	0.288	-0.192
-527.033	-89.117	0.112	0.033
-526.018	-67.294	-0.325	-0.129
-525.004	-49.392	0.474	-0.227
-523.989	113.933	0.241	-0.294
-522.975	-118.473	-0.274	-0.049
-521.960	249.456	-0.127	0.216
-520.945	-98.411	-0.120	-0.031
-519.931	-121.247	-0.252	-0.042
-518.916	39.478	0.224	0.202
-517.902	107.701	0.213	-0.256
-516.887	-31.259	-0.252	0.143
-515.872	507.284	0.116	-0.271
-514.858	164.381	-0.186	-0.264
-513.843	78.318	-0.132	-0.141
-512.829	800.000	-0.081	-0.258
-511.814	68.727	0.251	-0.259
-510.799	142.268	-0.206	0.275
-509.785	223.891	0.039	0.064
-508.770	-121.057	0.086	-0.014
-507.756	88.660	0.056	-0.062
-506.741	800.000	-0.051	-0.188
-505.726	-70.476	-0.071	0.027
-504.712	-63.649	-0.303	-0.125
-503.697	800.000	0.034	-0.130
-502.683	-81.504	-0.408	-0.135
-501.668	-32.453	0.212	-0.119
-500.653	-2.601	0.279	0.197
-499.639	227.916	0.130	0.213
-498.624	-25.432	0.079	0.047
-497.610	394.836	0.139	0.291
-496.595	2.456	-0.143	0.104
-495.581	-30.814	0.257	0.146
-494.566	-85.891	-0.273	0.085
-493.551	-197.259	0.204	-0.001
-492.537	105.607	-0.192	0.228
-491.522	483.573	0.123	-0.281
-490.508	32.274	-0.149	0.129
-489.493	-115.195	-0.204	0.039
-488.478	800.000	0.043	-0.177
-487.464	64.204	-0.253	0.256
-486.449	181.351	0.211	0.312
-485.435	507.901	0.025	0.057
-484.420	544.249	0.029	-0.069
-483.405	800.000	0.072	0.259
-482.391	-200.000	0.002	0.027
-481.376	177.993	0.077	0.113
-480.362	-44.615	-0.238	0.119
-479.347	109.523	-0.165	0.198
-478.332	-149.238	-0.299	-0.024
-477.318	-200.000	0.011	-0.057
-476.303	-37.223	0.217	-0.117
-475.289	529.797	-0.053	-0.126
-474.274	-54.453	-0.081	0.037
-473.259	109.641	-0.056	0.068
-472.245	-102.398	0.317	0.076
-471.230	-45.932	-0.108	-0.054
-470.216	800.000	-0.026	0.085
-469.201	-30.842	-0.098	0.056
-468.186	-200.000	-0.009	0.151
-467.172	-200.000	-0.011	-0.234
-466.157	-142.340	0.556	0.055
-465.143	-200.000	-0.007	0.234
-464.128	3.223	-0.015	0.011
-463.113	266.951	0.027	0.048
-462.099	270.056	0.122	-0.215
-461.084	97.086	0.103	0.118
-460.070	356.399	-0.124	0.249
-459.055	45.688	-0.048	-0.045
-458.040	800.000	-0.054	-0.221
-457.026	217.801	-0.056	-0.090
-456.011	696.111	-0.140	0.369
-454.997	23.747	0.138	-0.114
-453.982	-200.000	-0.041	0.196
-452.968	471.720	0.066	-0.150
-451.953	-200.000	0.036	-0.342
-450.938	10.969	0.140	0.107
-449.924	-34.906	0.408	-0.223
-448.909	-108.835	-0.232	-0.050
-447.895	199.772	0.097	0.149
-446.880	2.107	-0.087	-0.063
-445.865	253.380	-0.062	-0.106
-444.851	-98.335	0.137	0.035
-443.836	143.725	-0.045	0.060
-442.822	18.711	0.166	-0.133
-441.807	-200.000	-0.000	-0.025
-440.792	159.964	0.184	-0.257
-439.778	-91.636	-0.290	0.083
-438.763	115.044	0.142	-0.174
-437.749	19.728	0.269	-0.217
-436.734	-6.469	-0.100	-0.068
-435.719	800.000	0.110	0.420
-434.705	70.230	0.195	0.202
-433.690	-200.000	0.002	-0.156
-432.676	27.725	0.374	-0.316
-431.661	61.173	0.084	0.084
-430.646	-144.918	0.254	-0.023
-429.632	-165.700	-0.292	0.013
-428.617	179.378	-0.245	0.359
-427.603	-200.000	-0.089	-0.396
-426.588	190.985	-0.074	-0.112
-425.573	122.130	0.089	-0.111
-424.559	800.000	-0.022	-0.092
-423.544	800.000	-0.111	0.343
-422.530	19.356	0.095	0.076
-421.515	766.852	-0.155	0.424
-420.500	40.699	-0.157	-0.142
-419.486	-98.841	-0.207	-0.053
-418.471	71.435	0.162	0.168
-417.457	-147.391	-0.210	0.018
-416.442	800.000	0.027	0.076
-415.428	-145.242	-0.302	-0.027
-414.413	89.203	-0.089	0.100
-413.398	251.402	0.151	-0.257
-412.384	82.790	0.229	0.249
-411.369	58.755	-0.258	0.253
-410.355	-0.032	-0.200	0.142
-409.340	44.523	-0.053	0.049
-408.325	19.510	0.181	0.146
-407.311	-4.007	-0.096	-0.067
-406.296	3.776	0.100	-0.073
-405.282	4.912	-0.104	0.077
-404.267	381.501	0.056	0.114
-403.252	-111.729	0.114	0.023
-402.238	-200.000	-0.039	0.216
-401.223	259.908	0.109	0.188
-400.209	-12.352	-0.096	0.063
-399.194	-54.438	-0.087	0.040
-398.179	-147.418	0.408	0.035
-397.165	405.847	-0.186	-0.393
-396.150	9.629	-0.004	0.003
-395.136	93.069	-0.072	-0.081
-394.121	139.809	-0.158	0.208
-393.106	221.058	0.091	0.146
-392.092	7.852	-0.126	0.095
-391.077	-76.789	0.058	-0.020
-390.063	517.955	0.072	0.168
-389.048	262.737	-0.080	0.139
-388.033	-113.689	-0.327	0.064
-387.019	800.000	0.045	0.185
-386.004	-51.627	-0.131	0.061
-384.990	-89.467	-0.086	0.025
-383.975	800.000	-0.061	0.187
-382.960	800.000	-0.073	-0.299
-381.946	189.000	-0.126	-0.189
-380.931	43.060	0.077	0.071
-379.917	167.083	0.096	-0.136
-378.902	800.000	-0.069	-0.221
-377.888	137.903	0.119	0.156
-376.873	-123.601	-0.147	-0.023
-375.858	711.574	0.047	-0.124
-374.844	-200.000	0.023	0.365
-373.829	-168.777	0.217	0.008
-372.815	0.372	0.348	0.249
-371.800	-120.119	-0.359	0.061
-370.785	70.817	-0.110	0.114
-369.771	426.815	0.170	-0.367
-368.756	-21.236	0.278	0.170
-367.742	25.324	-0.133	-0.110
-366.727	219.368	-0.093	-0.149
-365.712	-66.134	0.232	0.092
-364.698	21.524	0.105	-0.085
-363.683	108.801	-0.334	-0.399
-362.669	608.243	-0.077	0.191
-361.654	-92.845	0.103	0.029
-360.639	75.709	0.052	-0.055
-359.625	-169.669	-0.081	-0.003
-358.610	-69.643	-0.136	-0.052
-357.596	800.000	0.128	-0.464
-356.581	269.278	0.107	0.188
-355.566	127.626	-0.276	0.351
-354.552	-50.769	0.150	0.070
-353.537	-98.775	0.122	0.031
-352.523	-74.188	-0.124	-0.045
-351.508	-46.743	-0.129	0.063
-350.493	-106.262	-0.158	-0.035
-349.479	303.416	-0.071	0.132
-348.464	-15.247	0.356	0.227
-347.450	-127.168	0.143	-0.021
-346.435	800.000	-0.054	0.210
-345.420	-200.000	-0.008	-0.284
-344.406	-33.498	-0.142	-0.078
-343.391	11.897	-0.141	-0.109
-342.377	-131.947	-0.048	0.006
-341.362	91.761	-0.142	0.159
-340.348	-47.268	0.058	-0.028
-339.333	-90.276	-0.067	0.019
-338.318	92.331	0.218	-0.245
-337.304	62.345	-0.029	-0.029
-336.289	-200.000	0.020	-0.134
-335.275	-172.675	0.020	0.001
-334.260	-157.574	-0.477	0.029
-333.245	354.863	-0.065	0.128
-332.231	28.263	0.121	0.102
-331.216	347.704	0.082	0.160
-330.202	95.698	-0.153	-0.174
-329.187	5.767	0.229	-0.169
-328.172	114.685	-0.089	-0.109
-327.158	-200.000	-0.003	0.269
-326.143	550.916	-0.163	0.389
-325.129	571.866	-0.116	0.283
-324.114	623.404	-0.088	0.222
-323.099	-69.062	0.123	-0.047
-322.085	-95.908	0.289	-0.077
-321.070	316.625	-0.063	-0.119
-320.056	-8.827	-0.375	0.251
-319.041	-200.000	0.020	0.110
-318.026	322.415	-0.173	0.328
-317.012	-68.968	0.117	0.045
-315.997	-200.000	-0.014	0.328
-314.983	173.250	-0.136	0.195
-313.968	15.228	0.110	0.086
-312.953	-200.000	-0.012	-0.210
-311.939	167.184	-0.050	-0.070
-310.924	253.524	-0.019	0.032
-309.910	-47.072	-0.255	0.124
-308.895	736.967	0.055	0.146
-307.880	-24.280	-0.238	-0.142
-306.866	744.366	-0.096	0.258
-305.851	126.990	0.087	-0.110
-304.837	-36.489	-0.211	0.114
-303.822	-200.000	-0.046	-0.341
-302.807	119.747	0.129	-0.159
-301.793	348.329	0.037	0.073
-300.778	-200.000	0.000	-0.038
-299.764	787.862	-0.093	-0.256
-298.749	-200.000	-0.096	0.503
-297.735	320.829	-0.105	0.200
-296.720	-200.000	0.025	-0.172
-295.705	270.256	0.054	-0.095
-294.691	800.000	-0.088	0.252
-293.676	800.000	0.045	0.178
-292.662	-200.000	-0.010	-0.186
-291.647	-104.830	0.142	-0.033
-290.632	-24.634	0.361	0.214
-289.618	-92.362	0.270	-0.076
-288.603	-32.260	-0.030	-0.017
-287.589	-80.757	0.203	0.067
-286.574	47.274	0.282	0.261
-285.559	-200.000	0.008	0.319
-284.545	-44.664	0.070	-0.035
-283.530	800.000	0.062	-0.243
-282.516	800.000	0.033	-0.107
-281.501	75.973	0.142	-0.150
-280.486	-66.027	0.205	-0.082
-279.472	-200.000	-0.008	0.248
-278.457	-136.854	-0.579	0.066
-277.443	-12.249	-0.254	0.166
-276.428	-200.000	0.062	-0.326
-275.413	-59.838	0.347	-0.148
-274.399	209.340	-0.101	0.157
-273.384	-57.758	-0.179	0.078
-272.370	414.490	0.113	0.239
-271.355	106.031	0.131	-0.155
-270.340	39.362	-0.252	-0.225
-269.326	-200.000	0.005	-0.109
-268.311	-124.592	0.300	0.046
-267.297	-123.981	0.291	-0.046
-266.282	85.231	-0.192	0.210
-265.267	800.000	-0.076	0.230
-264.253	-61.273	-0.090	-0.038
-263.238	-71.069	-0.132	-0.049
-262.224	-200.000	-0.006	0.077
-261.209	151.961	-0.094	-0.128
-260.195	187.916	0.226	-0.337
-259.180	-112.727	-0.240	0.048
-258.165	87.328	0.286	-0.315
-257.151	177.030	0.132	-0.191
-256.136	-58.300	-0.352	0.153
-255.122	-200.000	-0.006	0.037
-254.107	-148.009	0.406	0.034
-253.092	301.110	0.063	-0.116
-252.078	47.678	0.220	-0.205
-251.063	193.630	-0.238	-0.358
-250.049	-156.976	-0.583	0.035
-249.034	-200.000	-0.027	-0.201
-248.019	77.442	0.092	0.098
-247.005	-200.000	0.044	-0.343
-245.990	218.345	0.052	0.083
-244.976	-23.840	0.111	0.066
-243.961	87.178	-0.070	0.077
-242.946	-89.421	0.340	0.099
-241.932	-90.527	0.401	-0.115
-240.917	-150.847	0.168	-0.013
-239.903	377.041	0.157	0.319
-238.888	27.831	0.155	0.130
-237.873	800.000	0.090	0.366
-236.859	-98.905	-0.466	-0.118
-235.844	459.014	0.082	0.182
-234.830	80.164	0.249	0.267
-233.815	-145.407	-0.288	-0.026
-232.800	-31.430	-0.297	-0.166
-231.786	-118.007	0.145	-0.026
-230.771	-88.325	0.346	-0.103
-229.757	297.647	0.100	-0.182
-228.742	86.567	-0.171	-0.188
-227.727	-4.295	0.098	0.068
-226.713	-22.040	-0.347	0.210
-225.698	-92.093	0.311	0.088
-224.684	-200.000	-0.007	-0.359
-223.669	-54.466	-0.179	-0.081
-222.655	-78.103	0.377	0.129
-221.640	50.251	-0.210	0.197
-220.625	399.080	-0.135	-0.280
-219.611	-174.709	0.180	0.005
-218.596	279.236	-0.056	-0.099
-217.582	184.451	0.185	-0.272
-216.567	22.065	-0.192	-0.156
-215.552	-22.818	0.289	0.173
-214.538	-80.728	0.249	-0.082
-213.523	-200.000	-0.036	0.174
-212.509	-200.000	-0.004	-0.028
-211.494	323.319	0.062	0.118
-210.479	30.744	0.273	-0.233
-209.465	-11.279	0.304	0.199
-208.450	-200.000	0.057	0.260
-207.436	-26.508	-0.092	-0.054
-206.421	107.320	0.028	0.033
-205.406	558.928	0.096	-0.229
-204.392	-34.079	-0.170	-0.093
-203.377	800.000	0.028	0.100
-202.363	189.511	0.034	0.051
-201.348	-80.694	0.313	0.103
-200.333	92.689	0.138	-0.155
-199.319	29.870	0.297	0.251
-198.304	53.031	-0.280	-0.267
-197.290	-116.859	0.187	-0.034
-196.275	-25.082	0.317	-0.187
-195.260	-200.000	-0.025	-0.196
-194.246	-200.000	0.175	0.000
-193.231	-34.758	-0.300	0.163
-192.217	-57.234	0.123	0.054
-191.202	-88.666	-0.018	0.005
-190.187	660.570	-0.045	0.114
-189.173	12.857	-0.177	0.136
-188.158	42.904	-0.263	0.238
-187.144	-32.339	0.074	-0.041
-186.129	10.576	0.076	0.057
-185.114	25.741	-0.104	-0.086
-184.100	45.182	0.184	0.169
-183.085	-126.739	-0.394	-0.058
-182.071	-200.000	-0.000	0.082
-181.056	-200.000	-0.034	-0.331
-180.042	-69.866	0.092	0.035
-179.027	-155.844	-0.308	0.019
-178.012	-200.000	0.004	-0.097
-176.998	-37.405	-0.174	0.092
-175.983	-98.741	0.090	-0.023
-174.969	358.741	-0.110	-0.219
-173.954	123.402	0.316	0.393
-172.939	374.674	0.073	-0.148
-171.925	-50.375	-0.503	0.236
-170.910	265.006	-0.053	0.092
-169.896	79.577	0.151	-0.160
-168.881	-47.862	-0.306	-0.147
-167.866	366.951	0.128	-0.256
-166.852	780.828	0.025	0.069
-165.837	800.000	-0.053	0.220
-164.823	84.643	0.079	0.085
-163.808	-200.000	-0.020	0.099
-162.793	-52.556	0.214	0.098
-161.779	-200.000	-0.007	-0.137
-160.764	-53.283	-0.402	-0.183
-159.750	41.642	0.156	-0.141
-158.735	608.199	0.192	0.474
-157.720	370.965	0.034	0.069
-156.706	137.011	-0.164	0.213
-155.691	-111.851	0.171	-0.034
-154.677	-59.529	-0.213	-0.091
-153.662	259.249	-0.112	-0.192
-152.647	184.428	-0.231	-0.339
-151.633	42.901	-0.087	0.079
-150.618	261.207	0.124	-0.212
-149.604	-23.568	0.083	-0.049
-148.589	183.880	-0.021	-0.031
-147.574	800.000	0.044	0.154
-146.560	-100.134	0.257	-0.063
-145.545	-130.548	-0.044	0.006
-144.531	-92.563	0.366	-0.102
-143.516	328.033	-0.018	0.034
-142.502	16.769	-0.315	0.247
-141.487	-66.709	-0.138	-0.054
-140.472	492.129	-0.229	-0.521
-139.458	800.000	-0.053	-0.187
-138.443	-200.000	-0.002	0.384
-137.429	-200.000	-0.025	0.168
-136.414	-119.938	0.117	-0.020
-135.399	-200.000	-0.005	-0.050
-134.385	-176.993	0.159	-0.004
-133.370	28.556	-0.272	-0.228
-132.356	89.806	-0.219	0.243
-131.341	-165.636	0.064	-0.003
-130.326	69.268	0.180	-0.184
-129.312	46.766	-0.153	-0.141
-128.297	265.682	-0.108	-0.187
-127.283	285.228	-0.048	0.086
-126.268	302.743	0.237	0.434
-125.253	297.570	-0.132	-0.239
-124.239	528.578	-0.077	0.180
-123.224	506.782	0.130	-0.298
-122.210	50.734	0.218	-0.205
-121.195	800.000	0.024	-0.082
-120.180	-97.432	0.173	-0.044
