DTS Sentinel unit serial number:	SN413079Multiplexer serial number:	ORYXHardware model number:	OX4-SRSoftware version number:	ORYX F/W v4.00 Oryx Data Collector v3.7.2.0data status	okinstallation	princeton_trtdifferential loss correction	single-endedforward channel	channel 3reverse channel	N/Adate	2019/09/16time	16:52:35forward acquisition time	60.00reverse acquisition time	0.00gamma	496.2192k internal	0.2295k external	0.2295temperature offset calibration	0.9945default loss term (dB/km)	0.3790temperature slope calibration	1.0000multiplexer offset coefficient	1.0000multiplexer slope coefficient	1.0000fibre end	0.00T internal ref (°C)	39.50T ext. ref 1 (°C)	15.22T ext. ref 2 (°C)	33.80length (m)	temperature (°C)	Stokes	anti-Stokes-747.200	-31.517	0.349	0.201
-746.185	75.709	-0.067	0.072
-745.171	587.486	0.078	-0.196
-744.156	-129.294	-0.180	0.026
-743.142	-200.000	0.055	-0.295
-742.127	-61.402	-0.246	0.106
-741.112	149.929	0.049	0.068
-740.098	184.648	-0.129	0.195
-739.083	-200.000	0.054	0.255
-738.069	391.607	0.156	0.331
-737.054	16.461	0.152	0.123
-736.039	-54.189	-0.098	0.045
-735.025	-70.448	0.502	0.194
-734.010	-95.919	-0.376	-0.102
-732.996	77.183	-0.258	-0.280
-731.981	74.673	-0.221	-0.238
-730.966	-105.518	0.111	0.026
-729.952	-71.894	-0.319	-0.121
-728.937	-153.711	-0.410	0.029
-727.923	386.466	-0.022	-0.046
-726.908	137.126	0.132	0.176
-725.894	-80.359	0.156	0.053
-724.879	327.504	0.106	-0.208
-723.864	310.291	-0.169	0.323
-722.850	-200.000	0.005	-0.110
-721.835	20.616	0.210	-0.174
-720.821	-200.000	-0.015	-0.070
-719.806	-135.172	0.178	-0.022
-718.791	-157.675	0.448	0.027
-717.777	139.562	0.053	-0.071
-716.762	-200.000	-0.037	0.301
-715.748	800.000	-0.025	-0.096
-714.733	-26.185	-0.202	-0.121
-713.718	-200.000	0.003	0.035
-712.704	-113.741	0.086	-0.017
-711.689	-68.257	0.104	0.041
-710.675	277.154	-0.060	-0.109
-709.660	89.572	0.114	0.130
-708.645	-200.000	-0.069	0.317
-707.631	285.009	0.087	0.161
-706.616	229.262	-0.046	0.077
-705.602	-188.682	-0.096	0.001
-704.587	24.481	0.191	0.161
-703.572	203.649	0.074	-0.116
-702.558	378.511	-0.117	0.244
-701.543	337.085	0.048	-0.094
-700.529	321.691	-0.136	0.263
-699.514	-22.928	0.073	0.045
-698.499	-72.537	0.290	0.109
-697.485	-125.836	-0.197	-0.030
-696.470	-2.372	-0.221	0.158
-695.456	-95.404	0.339	0.093
-694.441	12.446	0.341	0.268
-693.426	78.928	-0.072	0.079
-692.412	-200.000	-0.008	-0.112
-691.397	-61.709	-0.491	-0.210
-690.383	-200.000	0.030	-0.266
-689.368	222.836	-0.042	-0.070
-688.354	367.650	-0.139	-0.287
-687.339	-46.215	-0.043	0.021
-686.324	-26.180	0.232	-0.139
-685.310	-47.700	-0.160	-0.079
-684.295	621.686	-0.086	0.222
-683.281	107.446	-0.148	0.180
-682.266	36.140	0.104	-0.093
-681.251	800.000	-0.070	-0.308
-680.237	287.206	-0.137	0.253
-679.222	-131.506	0.204	-0.027
-678.208	-150.638	0.237	-0.018
-677.193	387.724	-0.069	-0.145
-676.178	-200.000	0.031	0.316
-675.164	-200.000	0.002	0.031
-674.149	-94.925	-0.222	0.061
-673.135	352.866	-0.038	0.077
-672.120	161.830	-0.132	-0.188
-671.105	-200.000	0.003	-0.279
-670.091	89.105	-0.177	-0.201
-669.076	122.209	-0.083	0.106
-668.062	-70.855	-0.191	0.073
-667.047	-33.646	0.104	0.059
-666.032	-102.031	-0.429	-0.105
-665.018	-71.547	0.362	0.138
-664.003	183.863	0.176	-0.265
-662.989	46.458	-0.177	-0.167
-661.974	-52.232	-0.117	0.055
-660.959	61.546	-0.152	0.154
-659.945	59.956	-0.286	-0.288
-658.930	-200.000	-0.030	-0.170
-657.916	-101.943	0.112	-0.028
-656.901	-48.528	-0.064	-0.032
-655.886	800.000	0.045	0.160
-654.872	-200.000	0.041	-0.199
-653.857	-82.324	-0.145	0.048
-652.843	-131.212	-0.045	0.006
-651.828	-147.980	0.091	-0.008
-650.814	-200.000	-0.005	0.158
-649.799	800.000	0.033	-0.136
-648.784	800.000	0.117	-0.369
-647.770	46.291	-0.276	-0.261
-646.755	-55.256	-0.106	-0.048
-645.741	-200.000	-0.001	-0.171
-644.726	-138.165	-0.224	-0.025
-643.711	-12.065	-0.119	0.079
-642.697	314.945	0.068	-0.131
-641.682	135.783	-0.147	-0.195
-640.668	-200.000	-0.000	0.105
-639.653	109.164	-0.099	0.120
-638.638	100.416	-0.141	-0.167
-637.624	226.712	-0.293	-0.485
-636.609	-109.145	-0.267	-0.058
-635.595	203.319	-0.121	-0.191
-634.580	-200.000	0.026	0.131
-633.565	21.436	-0.107	-0.089
-632.551	144.057	0.067	0.092
-631.536	800.000	-0.034	0.146
-630.522	-158.163	-0.299	0.018
-629.507	-200.000	-0.089	-0.434
-628.492	180.325	-0.145	0.217
-627.478	-200.000	0.016	-0.099
-626.463	800.000	-0.083	-0.291
-625.449	-145.645	0.112	0.010
-624.434	-200.000	-0.193	-0.001
-623.419	-73.022	-0.223	0.083
-622.405	92.851	-0.067	0.077
-621.390	-122.433	-0.119	0.020
-620.376	-39.542	-0.150	0.080
-619.361	43.828	0.143	0.133
-618.346	228.882	-0.116	-0.192
-617.332	-200.000	0.006	-0.127
-616.317	195.016	-0.146	-0.226
-615.303	-200.000	0.009	0.150
-614.288	-173.100	-0.156	-0.005
-613.273	-200.000	-0.021	0.131
-612.259	-36.485	-0.281	-0.154
-611.244	78.196	0.132	-0.143
-610.230	-67.538	0.030	-0.012
-609.215	-200.000	0.032	0.195
-608.201	-160.057	-0.150	-0.008
-607.186	800.000	-0.065	-0.230
-606.171	634.115	-0.088	0.228
-605.157	800.000	-0.043	0.170
-604.142	357.397	-0.046	0.093
-603.128	121.980	-0.119	0.151
-602.113	-104.420	0.256	0.060
-601.098	-200.000	0.030	0.322
-600.084	-124.556	0.185	0.029
-599.069	800.000	0.107	0.348
-598.055	191.867	-0.195	-0.299
-597.040	212.568	0.259	-0.415
-596.025	5.496	-0.201	-0.151
-595.011	-200.000	-0.031	-0.302
-593.996	-142.429	-0.142	-0.014
-592.982	328.369	-0.117	-0.229
-591.967	800.000	-0.021	0.077
-590.952	-34.311	-0.067	0.038
-589.938	43.541	0.158	0.147
-588.923	-200.000	-0.008	-0.165
-587.909	-31.862	0.193	0.110
-586.894	84.312	0.065	-0.073
-585.879	16.117	0.238	0.190
-584.865	89.331	-0.171	0.193
-583.850	79.043	-0.124	-0.135
-582.836	407.817	0.069	0.148
-581.821	44.308	0.083	-0.077
-580.806	63.110	-0.079	-0.080
-579.792	-71.481	-0.253	0.096
-578.777	319.257	0.035	-0.067
-577.763	75.447	0.264	0.283
-576.748	355.800	-0.044	0.090
-575.733	-128.142	0.338	-0.049
-574.719	155.335	-0.073	-0.101
-573.704	-130.828	0.218	-0.030
-572.690	-127.284	-0.228	-0.034
-571.675	-117.654	0.432	0.079
-570.661	-156.286	-0.151	-0.010
-569.646	800.000	-0.102	0.415
-568.631	519.791	-0.119	0.283
-567.617	-60.755	-0.057	-0.024
-566.602	421.057	0.185	-0.403
-565.588	65.934	0.337	0.346
-564.573	-94.455	0.179	0.049
-563.558	-78.444	-0.090	-0.031
-562.544	106.558	-0.117	-0.141
-561.529	-200.000	0.002	-0.148
-560.515	174.338	-0.360	-0.528
-559.500	105.116	-0.047	0.057
-558.485	-109.219	0.259	-0.056
-557.471	-200.000	0.015	0.273
-556.456	-200.000	-0.001	0.264
-555.442	-48.594	-0.204	-0.100
-554.427	-36.015	0.370	0.203
-553.412	103.672	0.128	-0.153
-552.398	144.883	0.164	-0.223
-551.383	-38.167	-0.165	-0.089
-550.369	-200.000	-0.029	0.188
-549.354	552.598	-0.057	-0.140
-548.339	-93.831	-0.392	-0.110
-547.325	149.631	-0.087	-0.120
-546.310	124.156	-0.142	-0.181
-545.296	-89.512	-0.316	-0.094
-544.281	139.929	0.209	0.280
-543.266	-94.705	0.224	-0.062
-542.252	-84.472	0.043	0.014
-541.237	-50.529	0.147	-0.070
-540.223	67.727	-0.386	-0.400
-539.208	-67.897	0.365	-0.145
-538.193	67.929	0.115	-0.120
-537.179	-22.931	-0.252	0.154
-536.164	-40.814	0.390	0.205
-535.150	-200.000	0.003	0.069
-534.135	-200.000	-0.011	-0.058
-533.121	175.425	-0.103	0.151
-532.106	-120.500	-0.134	-0.023
-531.091	-200.000	-0.048	-0.259
-530.077	360.545	-0.177	0.360
-529.062	359.767	-0.154	0.311
-528.048	228.302	0.047	0.077
-527.033	-44.809	0.091	0.046
-526.018	23.879	0.023	0.019
-525.004	352.584	0.143	0.288
-523.989	249.098	-0.125	0.215
-522.975	500.510	-0.037	0.086
-521.960	800.000	-0.036	0.145
-520.945	800.000	-0.032	-0.125
-519.931	285.892	0.096	-0.175
-518.916	-200.000	0.001	-0.280
-517.902	-140.406	-0.246	-0.026
-516.887	-92.459	0.038	-0.011
-515.872	-73.617	0.236	-0.087
-514.858	-69.790	-0.291	-0.113
-513.843	-65.255	-0.240	0.098
-512.829	27.879	-0.222	-0.189
-511.814	-36.033	-0.096	0.052
-510.799	800.000	0.076	-0.300
-509.785	118.631	-0.158	-0.198
-508.770	-154.312	0.331	0.023
-507.756	387.302	-0.138	0.288
-506.741	-135.823	-0.144	-0.017
-505.726	-115.065	0.223	0.043
-504.712	-200.000	0.023	-0.124
-503.697	-57.415	-0.090	0.040
-502.683	98.250	-0.061	0.071
-501.668	169.653	-0.102	-0.147
-500.653	-113.329	0.198	-0.039
-499.639	-165.968	-0.309	-0.013
-498.624	800.000	0.028	-0.096
-497.610	98.802	0.283	0.330
-496.595	58.857	-0.123	0.122
-495.581	800.000	0.050	-0.218
-494.566	-135.440	-0.180	0.022
-493.551	-4.042	-0.111	-0.078
-492.537	-72.281	0.215	-0.081
-491.522	159.866	-0.026	-0.036
-490.508	-5.776	0.120	-0.083
-489.493	-200.000	-0.040	0.406
-488.478	-200.000	-0.018	-0.143
-487.464	313.049	0.102	-0.193
-486.449	-145.012	-0.097	0.009
-485.435	-99.431	0.177	-0.045
-484.420	-189.180	-0.310	0.004
-483.405	-56.069	0.201	0.091
-482.391	-3.691	-0.102	-0.072
-481.376	-200.000	-0.017	-0.092
-480.362	-94.127	0.224	-0.062
-479.347	279.128	-0.093	-0.168
-478.332	-200.000	0.035	-0.181
-477.318	-5.754	0.120	0.083
-476.303	600.682	-0.043	0.109
-475.289	-83.343	0.179	-0.058
-474.274	-31.337	0.158	-0.090
-473.259	-45.499	0.125	0.063
-472.245	-106.332	-0.243	0.055
-471.230	165.980	0.024	-0.035
-470.216	-31.596	-0.222	-0.126
-469.201	-101.665	0.136	-0.033
-468.186	-88.940	-0.061	-0.018
-467.172	-81.952	-0.142	0.047
-466.157	238.195	-0.107	0.180
-465.143	-200.000	-0.044	-0.407
-464.128	-95.423	-0.165	-0.045
-463.113	-200.000	0.009	0.156
-462.099	800.000	0.148	0.423
-461.084	-105.635	0.225	0.051
-460.070	1.144	0.116	-0.084
-459.055	608.645	0.094	0.237
-458.040	800.000	-0.026	0.105
-457.026	347.276	0.234	0.465
-456.011	3.584	-0.059	-0.043
-454.997	-185.152	0.047	0.001
-453.982	-59.848	-0.124	0.054
-452.968	104.889	0.321	-0.382
-451.953	800.000	-0.070	0.265
-450.938	24.874	0.314	-0.263
-449.924	9.873	0.290	0.223
-448.909	-58.737	-0.177	-0.077
-447.895	-200.000	0.009	-0.120
-446.880	-126.551	-0.393	0.059
-445.865	-200.000	0.020	0.338
-444.851	-1.079	0.193	-0.138
-443.836	-154.459	-0.081	-0.005
-442.822	717.942	0.054	-0.145
-441.807	211.202	0.059	-0.094
-440.792	800.000	0.111	-0.403
-439.778	-75.383	-0.093	0.034
-438.763	561.040	-0.054	0.132
-437.749	-200.000	0.025	0.205
-436.734	-200.000	0.006	-0.160
-435.719	17.507	-0.162	0.130
-434.705	-86.769	-0.243	0.075
-433.690	128.067	0.126	-0.162
-432.676	-29.735	-0.217	0.125
-431.661	-80.176	0.484	-0.164
-430.646	-154.995	0.112	0.007
-429.632	743.017	-0.063	-0.171
-428.617	-200.000	0.024	-0.408
-427.603	-97.306	-0.241	0.063
-426.588	800.000	0.111	0.394
-425.573	-138.176	0.133	0.015
-424.559	-80.730	0.152	0.051
-423.544	84.491	0.096	0.106
-422.530	-200.000	-0.013	-0.272
-421.515	-68.794	-0.255	0.099
-420.500	212.745	-0.058	0.093
-419.486	48.956	-0.060	0.057
-418.471	800.000	0.056	-0.172
-417.457	-74.778	-0.056	-0.020
-416.442	-95.771	-0.239	0.065
-415.428	392.571	0.079	-0.166
-414.413	-99.942	-0.021	0.005
-413.398	-200.000	0.034	0.214
-412.384	260.385	0.103	0.180
-411.369	-200.000	-0.018	-0.375
-410.355	68.738	-0.265	0.274
-409.340	-26.696	0.334	0.197
-408.325	800.000	-0.099	-0.422
-407.311	-11.588	-0.175	0.116
-406.296	-200.000	-0.009	0.239
-405.282	-69.181	0.289	-0.112
-404.267	95.636	0.068	0.078
-403.252	218.821	0.163	0.262
-402.238	-65.697	0.213	0.086
-401.223	-200.000	-0.005	0.044
-400.209	705.191	0.080	-0.212
-399.194	383.629	-0.073	-0.152
-398.179	108.482	-0.024	0.029
-397.165	221.176	-0.011	0.019
-396.150	-6.053	-0.229	0.158
-395.136	800.000	0.074	0.252
-394.121	-200.000	-0.000	0.266
-393.106	228.714	0.123	-0.203
-392.092	288.466	-0.032	0.058
-391.077	727.552	-0.021	-0.057
-390.063	-113.432	0.365	0.072
-389.048	46.341	-0.166	-0.155
-388.033	-64.565	-0.208	0.085
-387.019	-126.469	-0.045	0.007
-386.004	-200.000	-0.022	0.102
-384.990	-200.000	0.016	0.329
-383.975	800.000	-0.060	0.231
-382.960	-50.633	0.092	0.044
-381.946	157.322	0.048	-0.067
-380.931	-200.000	-0.005	-0.132
-379.917	-11.858	0.219	-0.145
-378.902	485.825	0.133	-0.305
-377.888	800.000	0.101	-0.370
-376.873	29.599	0.101	0.087
-375.858	337.064	0.029	-0.057
-374.844	108.561	-0.130	-0.157
-373.829	-20.255	0.129	-0.080
-372.815	322.210	0.096	0.185
-371.800	4.681	0.057	0.042
-370.785	-39.071	-0.343	0.182
-369.771	-91.070	0.125	0.036
-368.756	108.892	0.179	0.216
-367.742	142.010	0.118	0.158
-366.727	371.776	0.120	0.245
-365.712	-143.496	0.276	0.027
-364.698	800.000	-0.086	0.361
-363.683	98.018	0.110	0.127
-362.669	34.043	0.048	-0.042
-361.654	-2.713	0.159	-0.112
-360.639	18.737	0.077	-0.062
-359.625	-175.010	-0.121	0.003
-358.610	386.121	0.102	0.212
-357.596	-44.495	-0.233	-0.117
-356.581	249.568	-0.170	0.290
-355.566	-157.402	0.480	-0.029
-354.552	-74.101	-0.150	-0.055
-353.537	-150.002	0.144	-0.011
-352.523	-34.604	0.243	-0.134
-351.508	-200.000	-0.018	0.392
-350.493	228.450	-0.125	0.206
-349.479	429.926	0.062	0.134
-348.464	-200.000	0.020	0.239
-347.450	-200.000	-0.001	0.126
-346.435	-112.491	0.236	0.047
-345.420	-65.083	-0.174	-0.070
-344.406	-38.989	-0.308	0.163
-343.391	287.330	0.022	-0.041
-342.377	-200.000	-0.004	0.140
-341.362	304.141	0.100	0.187
-340.348	64.144	0.198	0.200
-339.333	723.750	-0.064	-0.170
-338.318	212.551	0.084	-0.134
-337.304	10.723	-0.120	-0.092
-336.289	-160.087	-0.101	0.006
-335.275	-74.866	-0.247	-0.089
-334.260	-143.282	-0.258	-0.025
-333.245	-61.004	-0.113	0.048
-332.231	1.831	0.173	-0.125
-331.216	-34.304	-0.245	-0.135
-330.202	800.000	0.058	0.165
-329.187	-146.048	-0.331	0.029
-328.172	800.000	0.081	-0.308
-327.158	-200.000	0.001	0.162
-326.143	-20.845	-0.300	-0.185
-325.129	-200.000	0.037	-0.296
-324.114	-200.000	0.035	-0.293
-323.099	547.550	0.044	-0.107
-322.085	800.000	-0.067	-0.276
-321.070	-41.628	-0.167	-0.086
-320.056	-200.000	-0.012	0.185
-319.041	-136.435	0.055	-0.006
-318.026	99.882	0.177	-0.206
-317.012	-200.000	-0.013	0.118
-315.997	800.000	-0.072	-0.309
-314.983	-30.679	-0.253	-0.144
-313.968	-200.000	-0.013	-0.073
-312.953	-105.563	-0.208	-0.047
-311.939	-21.141	-0.215	-0.132
-310.924	-80.584	0.105	-0.035
-309.910	196.046	-0.062	0.095
-308.895	800.000	0.051	0.143
-307.880	-87.141	0.068	0.021
-306.866	800.000	-0.073	-0.309
-305.851	157.817	-0.070	-0.098
-304.837	17.818	0.144	-0.115
-303.822	137.707	0.056	-0.074
-302.807	-200.000	0.020	-0.161
-301.793	262.134	0.160	0.279
-300.778	-41.736	-0.205	0.106
-299.764	-200.000	0.009	0.263
-298.749	168.411	0.044	-0.064
-297.735	117.288	0.105	-0.130
-296.720	464.255	0.031	0.069
-295.705	-86.114	-0.167	0.052
-294.691	-23.608	0.103	0.062
-293.676	615.926	-0.152	-0.382
-292.662	201.290	-0.072	0.111
-291.647	-200.000	-0.027	0.175
-290.632	-6.387	0.024	-0.016
-289.618	800.000	-0.055	-0.164
-288.603	-110.756	-0.088	-0.018
-287.589	25.961	-0.096	-0.081
-286.574	249.960	-0.041	0.070
-285.559	-6.693	-0.056	-0.039
-284.545	-8.394	-0.150	-0.101
-283.530	310.149	-0.096	0.180
-282.516	-43.315	0.114	-0.058
-281.501	4.164	0.020	0.015
-280.486	55.389	0.192	0.186
-279.472	-200.000	0.008	0.341
-278.457	-13.874	0.056	0.036
-277.443	274.393	0.084	-0.149
-276.428	-28.848	-0.098	-0.056
-275.413	-104.602	-0.098	0.023
-274.399	63.773	0.179	0.180
-273.384	-200.000	0.025	-0.169
-272.370	-200.000	0.008	0.185
-271.355	-200.000	0.002	-0.131
-270.340	-91.677	-0.311	0.089
-269.326	252.020	-0.041	0.070
-268.311	4.754	0.175	-0.129
-267.297	-200.000	0.023	-0.126
-266.282	-200.000	0.001	-0.142
-265.267	-200.000	-0.007	0.159
-264.253	466.254	-0.089	0.199
-263.238	59.262	0.127	0.126
-262.224	-155.962	0.359	0.023
-261.209	586.706	0.048	0.120
-260.195	-111.690	0.285	-0.058
-259.180	800.000	0.059	0.198
-258.165	-200.000	-0.023	0.300
-257.151	800.000	-0.057	0.218
-256.136	-126.404	0.227	-0.034
-255.122	-180.071	-0.397	-0.008
-254.107	-200.000	-0.045	0.206
-253.092	-39.512	0.163	0.086
-252.078	-82.681	0.301	0.098
-251.063	-165.340	0.199	0.009
-250.049	-114.068	0.163	0.032
-249.034	-31.354	0.141	-0.080
-248.019	26.412	-0.238	0.200
-247.005	207.724	0.141	0.220
-245.990	-16.929	0.433	-0.274
-244.976	-113.232	-0.251	-0.050
-243.961	-5.804	-0.096	0.066
-242.946	800.000	0.073	-0.225
-241.932	-82.631	-0.130	-0.042
-240.917	-19.577	-0.277	0.172
-239.903	-134.467	0.450	0.055
-238.888	-132.912	0.477	0.061
-237.873	800.000	0.053	-0.213
-236.859	125.295	-0.101	0.127
-235.844	238.464	-0.111	0.185
-234.830	13.887	0.153	0.119
-233.815	607.334	-0.055	0.138
-232.800	-8.112	0.131	0.088
-231.786	800.000	0.117	-0.384
-230.771	-119.083	0.220	0.039
-229.757	166.550	-0.196	-0.278
-228.742	800.000	-0.054	-0.151
-227.727	-22.255	0.237	0.144
-226.713	-73.770	0.068	-0.025
-225.698	128.103	0.064	0.082
-224.684	97.494	-0.177	-0.204
-223.669	-121.954	0.450	-0.074
-222.655	16.572	-0.113	0.089
-221.640	-200.000	0.048	-0.421
-220.625	-200.000	0.055	-0.252
-219.611	-73.080	0.142	0.052
-218.596	57.558	-0.176	-0.172
-217.582	-59.237	0.160	0.069
-216.567	-200.000	-0.033	-0.147
-215.552	800.000	-0.042	0.138
-214.538	-41.588	0.173	-0.089
-213.523	71.482	-0.023	-0.024
-212.509	35.160	0.214	0.188
-211.494	-90.247	-0.314	-0.091
-210.479	800.000	0.076	-0.212
-209.465	444.293	-0.107	0.235
-208.450	-200.000	0.015	-0.110
-207.436	-200.000	0.074	0.482
-206.421	-200.000	0.046	0.331
-205.406	42.742	0.116	0.106
-204.392	-115.131	0.069	0.013
-203.377	-76.814	-0.435	0.152
-202.363	-138.149	0.471	-0.052
-201.348	371.417	0.071	0.145
-200.333	-200.000	0.004	0.151
-199.319	-121.114	-0.203	0.034
-198.304	109.604	-0.050	-0.059
-197.290	800.000	0.007	0.028
-196.275	800.000	-0.091	0.283
-195.260	517.278	-0.096	0.225
-194.246	-200.000	0.030	0.248
-193.231	-200.000	-0.007	0.331
-192.217	97.674	-0.041	-0.047
-191.202	-84.258	0.130	0.041
-190.187	-3.452	-0.187	0.130
-189.173	151.690	-0.117	0.159
-188.158	111.731	-0.097	-0.117
-187.144	-149.302	-0.238	-0.019
-186.129	451.505	0.087	0.192
-185.114	111.262	-0.148	-0.178
-184.100	-118.703	0.380	-0.067
-183.085	-85.088	-0.263	0.082
-182.071	181.823	0.140	0.206
-181.056	-97.252	0.191	-0.050
-180.042	24.987	0.222	-0.184
-179.027	328.050	0.147	0.282
-178.012	-200.000	-0.015	-0.143
-176.998	-26.780	-0.142	0.083
-175.983	-120.411	0.289	-0.049
-174.969	-176.248	-0.204	0.005
-173.954	-200.000	-0.009	0.121
-172.939	6.500	-0.255	0.190
-171.925	-12.482	-0.310	-0.203
-170.910	-31.496	-0.358	0.201
-169.896	301.138	0.082	-0.152
-168.881	-33.337	0.287	-0.159
-167.866	-3.314	0.155	-0.108
-166.852	800.000	-0.024	0.082
-165.837	-115.550	-0.277	-0.052
-164.823	208.776	-0.192	-0.301
-163.808	-200.000	-0.004	-0.199
-162.793	-68.608	-0.224	0.087
-161.779	800.000	0.084	-0.272
-160.764	-137.595	0.154	0.017
-159.750	-103.735	0.024	-0.006
-158.735	70.600	0.253	-0.261
-157.720	158.301	-0.212	-0.293
-156.706	30.614	0.398	0.340
-155.691	85.784	-0.132	-0.145
-154.677	-138.274	0.158	-0.018
-153.662	-14.957	-0.196	-0.125
-152.647	-200.000	-0.100	-0.568
-151.633	-65.722	0.456	-0.183
-150.618	237.979	-0.026	-0.043
-149.604	398.891	0.192	0.402
-148.589	-181.773	-0.178	0.003
-147.574	-85.882	0.385	-0.119
-146.560	157.013	-0.182	-0.251
-145.545	-62.877	-0.375	-0.155
-144.531	-200.000	-0.011	-0.100
-143.516	-113.092	0.324	-0.064
-142.502	-200.000	-0.085	0.544
-141.487	-115.340	-0.336	0.063
-140.472	-200.000	0.014	-0.165
-139.458	268.698	0.050	-0.087
-138.443	430.752	0.166	-0.360
-137.429	-57.920	0.148	0.064
-136.414	-86.237	-0.164	-0.050
-135.399	-71.790	-0.353	-0.131
-134.385	24.803	0.185	-0.153
-133.370	-66.594	-0.319	0.126
-132.356	800.000	0.075	0.244
-131.341	-200.000	-0.036	0.296
-130.326	-200.000	0.029	0.317
-129.312	36.581	0.053	-0.047
-128.297	-200.000	-0.009	0.042
-127.283	-101.625	-0.191	-0.046
-126.268	-164.162	-0.097	-0.004
-125.253	277.982	-0.061	0.108
-124.239	-200.000	-0.053	0.300
-123.224	-19.428	-0.119	-0.073
-122.210	-200.000	0.006	-0.101
