DTS Sentinel unit serial number:	SN413079Multiplexer serial number:	ORYXHardware model number:	OX4-SRSoftware version number:	ORYX F/W v4.00 Oryx Data Collector v3.7.2.0data status	okinstallation	princeton_trtdifferential loss correction	single-endedforward channel	channel 3reverse channel	N/Adate	2019/09/19time	02:48:35forward acquisition time	60.00reverse acquisition time	0.00gamma	496.2192k internal	0.2348k external	0.2348temperature offset calibration	0.9994default loss term (dB/km)	0.3790temperature slope calibration	1.0000multiplexer offset coefficient	1.0000multiplexer slope coefficient	1.0000fibre end	0.00T internal ref (°C)	20.89T ext. ref 1 (°C)	0.66T ext. ref 2 (°C)	14.68length (m)	temperature (°C)	Stokes	anti-Stokes-747.200	-200.000	-0.019	0.275
-746.185	156.845	-0.155	0.214
-745.171	-33.930	0.154	0.085
-744.156	800.000	-0.060	0.178
-743.142	1.597	0.206	-0.148
-742.127	-107.501	-0.148	-0.032
-741.112	800.000	-0.098	0.378
-740.098	31.070	-0.314	0.269
-739.083	366.609	0.029	-0.058
-738.069	95.966	-0.162	0.185
-737.054	1.127	0.133	0.095
-736.039	36.112	-0.197	-0.173
-735.025	-88.955	0.275	0.081
-734.010	-116.606	-0.183	-0.034
-732.996	-100.085	-0.357	0.089
-731.981	800.000	0.065	-0.185
-730.966	6.896	-0.223	-0.166
-729.952	-144.877	-0.139	0.013
-728.937	78.662	-0.238	-0.254
-727.923	800.000	0.129	-0.358
-726.908	-99.284	-0.180	-0.045
-725.894	64.694	0.212	0.213
-724.879	-42.401	-0.220	0.112
-723.864	800.000	-0.027	0.089
-722.850	-4.032	-0.242	0.168
-721.835	-139.274	-0.286	0.031
-720.821	-120.138	-0.380	0.065
-719.806	-200.000	-0.001	-0.119
-718.791	2.686	-0.229	-0.166
-717.777	94.461	-0.127	-0.144
-716.762	-116.933	0.012	0.002
-715.748	57.013	-0.134	-0.131
-714.733	-36.402	-0.181	0.097
-713.718	-112.455	-0.178	0.035
-712.704	226.698	-0.047	0.077
-711.689	263.496	-0.241	0.418
-710.675	-151.491	0.128	-0.010
-709.660	-200.000	-0.169	0.001
-708.645	-200.000	-0.009	-0.119
-707.631	-200.000	0.007	0.076
-706.616	-183.251	-0.195	0.003
-705.602	-200.000	-0.046	0.400
-704.587	-98.194	0.349	-0.089
-703.572	657.180	-0.108	-0.276
-702.558	-88.202	0.294	0.088
-701.543	-118.542	-0.213	-0.038
-700.529	473.358	0.076	-0.172
-699.514	28.447	0.233	-0.197
-698.499	-160.851	0.087	0.005
-697.485	-81.478	0.193	-0.063
-696.470	-200.000	-0.046	0.229
-695.456	-200.000	0.002	0.136
-694.441	-138.711	0.155	-0.017
-693.426	-200.000	-0.006	0.239
-692.412	-100.322	0.218	-0.054
-691.397	562.681	0.118	-0.284
-690.383	-25.705	-0.215	-0.127
-689.368	-24.445	-0.141	-0.084
-688.354	-75.532	-0.041	0.015
-687.339	-188.079	-0.067	0.001
-686.324	-106.786	-0.237	0.052
-685.310	-20.869	0.205	0.125
-684.295	-200.000	0.078	-0.372
-683.281	568.693	-0.100	-0.243
-682.266	127.135	0.318	-0.402
-681.251	80.325	0.138	-0.148
-680.237	6.254	0.145	-0.107
-679.222	10.490	0.144	-0.110
-678.208	76.444	-0.166	-0.176
-677.193	-55.444	0.181	-0.081
-676.178	-36.359	0.116	-0.062
-675.164	-200.000	-0.040	0.223
-674.149	271.795	0.044	0.077
-673.135	-200.000	0.049	-0.267
-672.120	-52.248	0.296	-0.137
-671.105	605.178	0.112	-0.279
-670.091	-191.079	-0.202	-0.002
-669.076	-175.281	-0.481	0.013
-668.062	-200.000	-0.009	0.239
-667.047	-127.346	-0.199	0.029
-666.032	-40.541	0.226	0.117
-665.018	-51.025	-0.092	-0.043
-664.003	152.547	-0.111	-0.151
-662.989	26.513	-0.034	0.028
-661.974	143.236	-0.044	-0.058
-660.959	-200.000	0.024	0.138
-659.945	-172.530	-0.236	-0.007
-658.930	-163.336	-0.127	0.006
-657.916	-200.000	-0.070	0.434
-656.901	-15.498	0.212	0.135
-655.886	-200.000	-0.004	0.032
-654.872	800.000	-0.099	-0.421
-653.857	800.000	0.140	0.457
-652.843	-10.526	-0.177	0.117
-651.828	19.623	0.219	-0.176
-650.814	-200.000	0.003	-0.215
-649.799	107.743	-0.231	-0.274
-648.784	-200.000	-0.010	-0.121
-647.770	677.266	0.042	0.109
-646.755	800.000	-0.070	0.232
-645.741	132.602	0.152	-0.195
-644.726	56.189	0.300	-0.290
-643.711	512.077	-0.116	-0.268
-642.697	292.392	0.133	-0.241
-641.682	800.000	0.181	-0.594
-640.668	348.784	0.109	-0.214
-639.653	33.146	-0.105	0.091
-638.638	257.757	0.101	0.172
-637.624	-37.580	-0.168	0.089
-636.609	-130.088	-0.221	0.030
-635.595	-26.897	0.264	-0.153
-634.580	-200.000	0.039	0.173
-633.565	-140.002	-0.230	0.024
-632.551	-200.000	0.026	0.177
-631.536	-75.244	0.212	0.075
-630.522	-104.784	0.154	0.035
-629.507	-7.662	0.266	-0.179
-628.492	-80.412	-0.316	-0.105
-627.478	-200.000	-0.036	0.258
-626.463	-200.000	0.001	0.276
-625.449	174.815	0.120	0.173
-624.434	-4.788	-0.137	0.094
-623.419	21.137	-0.309	-0.249
-622.405	-200.000	0.001	-0.067
-621.390	-178.737	0.216	-0.005
-620.376	56.616	-0.086	0.083
-619.361	-57.604	-0.357	0.155
-618.346	479.815	-0.080	0.180
-617.332	-15.366	-0.043	0.027
-616.317	88.084	-0.145	-0.160
-615.303	702.024	-0.074	0.194
-614.288	-89.180	0.352	-0.103
-613.273	-65.824	-0.376	-0.150
-612.259	-200.000	-0.021	-0.361
-611.244	800.000	-0.036	-0.157
-610.230	119.749	-0.055	-0.068
-609.215	800.000	-0.050	-0.173
-608.201	-4.608	0.283	0.194
-607.186	-118.238	-0.259	0.046
-606.171	-82.447	0.357	0.115
-605.157	23.380	0.053	-0.043
-604.142	270.512	0.082	-0.144
-603.128	-67.381	-0.451	0.176
-602.113	171.133	-0.057	0.081
-601.098	-5.382	-0.119	-0.081
-600.084	-200.000	-0.017	-0.152
-599.069	142.015	-0.107	0.142
-598.055	143.668	0.162	-0.215
-597.040	149.706	0.075	0.101
-596.025	800.000	0.087	-0.245
-595.011	-62.616	-0.447	-0.184
-593.996	-42.106	0.426	0.217
-592.982	117.028	-0.195	0.238
-591.967	-178.480	-0.220	-0.005
-590.952	-100.123	0.356	-0.088
-589.938	-158.739	0.123	-0.007
-588.923	68.000	0.182	0.185
-587.909	-200.000	-0.045	-0.386
-586.894	129.786	0.141	-0.179
-585.879	80.420	-0.093	-0.100
-584.865	-200.000	0.008	-0.047
-583.850	443.577	0.084	0.182
-582.836	-111.499	-0.118	-0.024
-581.821	-134.980	-0.453	0.054
-580.806	-200.000	-0.004	-0.265
-579.792	800.000	-0.077	0.267
-578.777	41.754	0.145	0.131
-577.763	6.062	0.091	0.067
-576.748	-118.072	0.361	-0.064
-575.733	30.570	0.134	-0.114
-574.719	278.598	-0.163	-0.288
-573.704	-17.350	0.352	-0.220
-572.690	21.800	-0.171	-0.139
-571.675	-141.988	0.201	0.020
-570.661	-200.000	0.025	-0.404
-569.646	501.276	0.174	-0.398
-568.631	-200.000	0.023	0.118
-567.617	-4.274	-0.313	-0.215
-566.602	-200.000	-0.003	0.024
-565.588	199.140	-0.114	-0.174
-564.573	800.000	0.109	0.403
-563.558	-76.805	-0.312	-0.108
-562.544	36.978	-0.286	-0.251
-561.529	89.656	0.224	-0.248
-560.515	220.957	0.216	-0.344
-559.500	294.568	-0.117	0.213
-558.485	-200.000	0.021	0.144
-557.471	-79.548	-0.239	-0.080
-556.456	86.615	0.102	0.112
-555.442	293.865	0.149	-0.269
-554.427	-110.083	-0.191	0.040
-553.412	-200.000	0.026	0.185
-552.398	264.394	-0.123	-0.213
-551.383	-81.030	0.227	-0.075
-550.369	-131.855	-0.460	0.060
-549.354	-78.313	0.056	0.019
-548.339	-200.000	0.020	0.154
-547.325	-24.854	0.215	-0.127
-546.310	788.804	0.039	0.105
-545.296	-200.000	-0.010	0.276
-544.281	82.407	0.191	0.206
-543.266	67.920	-0.213	0.216
-542.252	355.382	0.114	-0.224
-541.237	-200.000	0.013	-0.219
-540.223	-19.769	0.381	0.233
-539.208	-61.741	0.262	0.109
-538.193	-200.000	-0.048	0.296
-537.179	292.143	0.055	0.099
-536.164	-200.000	-0.021	0.111
-535.150	-200.000	0.010	0.097
-534.135	128.460	0.031	-0.039
-533.121	-200.000	0.015	-0.148
-532.106	157.548	0.160	0.219
-531.091	-200.000	0.022	0.139
-530.077	511.889	-0.095	0.219
-529.062	516.204	-0.102	0.237
-528.048	-200.000	0.007	0.344
-527.033	512.201	0.087	-0.200
-526.018	-120.997	0.531	-0.088
-525.004	34.980	0.128	0.111
-523.989	-75.400	-0.135	0.048
-522.975	-200.000	-0.034	-0.356
-521.960	800.000	0.028	0.121
-520.945	-95.949	-0.291	0.077
-519.931	-74.291	0.376	0.134
-518.916	81.550	-0.195	-0.209
-517.902	-200.000	0.067	0.324
-516.887	-9.755	0.430	-0.284
-515.872	266.799	-0.094	-0.163
-514.858	226.372	-0.014	-0.023
-513.843	-175.788	0.106	-0.003
-512.829	-80.152	0.155	0.051
-511.814	404.649	0.118	-0.247
-510.799	9.416	-0.056	-0.042
-509.785	-200.000	-0.016	0.130
-508.770	-49.200	-0.219	-0.104
-507.756	5.453	-0.276	-0.202
-506.741	-124.126	-0.097	-0.015
-505.726	-40.415	-0.093	-0.048
-504.712	740.770	0.039	0.104
-503.697	-18.742	-0.114	0.070
-502.683	227.913	0.156	-0.251
-501.668	119.395	-0.192	-0.235
-500.653	-200.000	0.013	-0.109
-499.639	-114.894	0.181	-0.034
-498.624	-144.513	0.264	0.024
-497.610	-137.746	0.101	0.011
-496.595	-25.351	-0.195	0.114
-495.581	237.911	-0.079	-0.129
-494.566	-147.280	-0.104	-0.009
-493.551	-37.678	-0.302	-0.159
-492.537	-200.000	-0.030	-0.192
-491.522	800.000	-0.069	-0.207
-490.508	487.298	-0.057	-0.129
-489.493	800.000	-0.030	-0.085
-488.478	-107.073	0.195	0.043
-487.464	-200.000	-0.024	-0.142
-486.449	10.028	0.306	-0.230
-485.435	-200.000	0.018	0.196
-484.420	18.851	0.335	0.265
-483.405	453.487	-0.098	-0.214
-482.391	92.596	0.104	0.116
-481.376	140.215	0.161	0.210
-480.362	-200.000	0.019	-0.172
-479.347	463.922	0.020	0.044
-478.332	-24.514	-0.284	0.167
-477.318	102.647	-0.077	-0.089
-476.303	800.000	-0.079	-0.281
-475.289	-106.706	-0.165	0.036
-474.274	-57.452	-0.178	0.077
-473.259	41.958	-0.088	0.079
-472.245	-55.508	-0.082	-0.037
-471.230	403.597	-0.044	0.091
-470.216	489.713	-0.121	0.274
-469.201	-11.750	0.300	0.195
-468.186	-175.480	-0.390	0.011
-467.172	271.097	0.152	0.265
-466.157	-17.113	-0.461	-0.288
-465.143	-167.234	0.367	0.015
-464.128	50.088	-0.084	0.078
-463.113	-200.000	-0.054	-0.309
-462.099	-200.000	-0.056	0.587
-461.084	756.331	-0.053	-0.141
-460.070	236.590	-0.055	-0.090
-459.055	-127.516	-0.184	-0.026
-458.040	-95.460	0.181	-0.048
-457.026	176.159	0.070	0.100
-456.011	800.000	-0.064	0.240
-454.997	-121.820	-0.187	0.030
-453.982	-54.690	0.331	0.148
-452.968	267.948	0.079	0.137
-451.953	-34.814	0.123	-0.067
-450.938	603.098	-0.012	-0.030
-449.924	-136.707	0.125	0.014
-448.909	552.706	0.067	-0.158
-447.895	-17.661	-0.153	0.095
-446.880	184.043	0.230	0.336
-445.865	-33.562	-0.249	-0.136
-444.851	20.776	-0.091	0.072
-443.836	800.000	0.066	0.235
-442.822	-200.000	0.019	0.301
-441.807	-110.957	-0.211	-0.043
-440.792	-184.667	0.074	0.001
-439.778	-57.330	-0.193	-0.084
-438.763	477.077	-0.143	0.318
-437.749	-42.399	0.178	-0.090
-436.734	-200.000	0.015	-0.067
-435.719	-35.479	0.312	0.167
-434.705	199.423	-0.253	0.383
-433.690	186.864	-0.131	-0.193
-432.676	-42.096	-0.206	-0.104
-431.661	251.041	-0.019	0.032
-430.646	-119.547	0.149	-0.026
-429.632	-130.065	-0.214	0.029
-428.617	-200.000	-0.017	0.083
-427.603	646.589	0.206	0.519
-426.588	164.549	-0.175	0.243
-425.573	800.000	0.011	-0.045
-424.559	-200.000	-0.018	-0.097
-423.544	5.948	-0.091	0.067
-422.530	-118.008	0.273	0.048
-421.515	392.245	0.183	0.375
-420.500	-57.367	0.275	0.119
-419.486	-200.000	-0.012	0.141
-418.471	101.040	0.067	0.077
-417.457	800.000	-0.047	0.178
-416.442	10.572	0.096	-0.072
-415.428	206.793	0.100	-0.154
-414.413	-200.000	-0.035	0.270
-413.398	14.732	0.140	-0.108
-412.384	-87.633	0.279	-0.083
-411.369	101.906	0.243	-0.280
-410.355	-104.572	0.108	0.025
-409.340	84.828	-0.200	-0.216
-408.325	800.000	-0.021	-0.060
-407.311	-200.000	0.041	-0.291
-406.296	-38.130	0.224	0.117
-405.282	-133.899	-0.453	0.055
-404.267	23.525	0.237	0.192
-403.252	5.119	0.138	-0.100
-402.238	-32.854	-0.195	-0.107
-401.223	-51.594	0.039	-0.018
-400.209	-200.000	0.001	0.333
-399.194	-82.855	0.421	0.134
-398.179	-130.627	-0.198	0.026
-397.165	-93.575	-0.267	-0.073
-396.150	376.614	-0.083	-0.166
-395.136	-200.000	-0.006	-0.195
-394.121	-200.000	0.041	-0.230
-393.106	11.825	0.086	-0.065
-392.092	75.949	0.143	0.149
-391.077	127.704	0.254	0.318
-390.063	-97.105	0.087	-0.022
-389.048	687.902	-0.041	0.107
-388.033	-54.876	-0.072	0.032
-387.019	-200.000	0.001	-0.249
-386.004	331.039	0.078	0.148
-384.990	800.000	0.058	0.207
-383.975	-86.638	-0.301	-0.091
-382.960	72.493	0.241	0.247
-381.946	-187.933	-0.302	0.004
-380.931	-200.000	-0.007	0.321
-379.917	800.000	0.049	0.177
-378.902	24.760	-0.086	0.070
-377.888	210.160	0.130	0.202
-376.873	-27.027	-0.331	0.190
-375.858	239.968	-0.157	-0.258
-374.844	-125.435	-0.085	-0.013
-373.829	344.160	-0.126	0.244
-372.815	-200.000	0.048	0.272
-371.800	315.369	0.058	0.108
-370.785	-79.369	-0.074	-0.025
-369.771	-200.000	-0.012	-0.150
-368.756	-117.400	-0.137	-0.024
-367.742	800.000	0.113	0.421
-366.727	-94.751	-0.295	-0.079
-365.712	-200.000	0.014	-0.062
-364.698	-157.474	-0.103	-0.006
-363.683	-72.240	0.017	0.006
-362.669	128.202	-0.133	0.167
-361.654	548.420	0.116	0.275
-360.639	-136.717	0.076	-0.009
-359.625	-33.678	-0.318	0.173
-358.610	-17.461	-0.327	-0.202
-357.596	800.000	-0.047	0.192
-356.581	298.398	0.112	-0.203
-355.566	-130.208	0.201	0.027
-354.552	-200.000	0.017	0.176
-353.537	208.104	-0.149	0.229
-352.523	-200.000	-0.035	-0.390
-351.508	-200.000	0.014	0.098
-350.493	-26.862	-0.435	0.250
-349.479	800.000	0.057	0.198
-348.464	800.000	-0.071	-0.295
-347.450	-113.284	0.185	-0.036
-346.435	-200.000	0.024	-0.140
-345.420	-73.738	-0.032	0.011
-344.406	-28.816	-0.094	0.053
-343.391	-200.000	0.003	0.230
-342.377	83.149	0.133	0.142
-341.362	401.346	-0.116	0.239
-340.348	11.516	-0.145	-0.109
-339.333	-200.000	-0.016	-0.141
-338.318	420.952	-0.060	0.126
-337.304	132.526	-0.173	0.219
-336.289	125.905	0.109	-0.135
-335.275	-40.136	0.139	-0.071
-334.260	-200.000	-0.027	0.157
-333.245	37.971	-0.263	0.230
-332.231	376.340	0.149	0.299
-331.216	-27.459	0.308	-0.176
-330.202	-200.000	0.006	0.200
-329.187	389.065	0.065	-0.133
-328.172	-134.711	-0.171	0.020
-327.158	38.967	-0.220	0.193
-326.143	-200.000	-0.056	0.244
-325.129	0.104	0.094	0.066
-324.114	-54.285	0.098	0.044
-323.099	-200.000	-0.014	0.256
-322.085	-124.434	0.246	0.038
-321.070	92.209	0.083	-0.092
-320.056	129.205	-0.194	0.244
-319.041	-200.000	-0.029	-0.337
-318.026	-80.780	-0.167	0.054
-317.012	-72.035	0.081	-0.030
-315.997	-200.000	0.003	-0.132
-314.983	329.705	-0.089	0.169
-313.968	129.113	0.149	0.187
-312.953	-89.234	0.431	-0.125
-311.939	800.000	0.035	0.116
-310.924	-57.958	0.268	-0.115
-309.910	-200.000	0.056	0.251
-308.895	216.764	-0.134	-0.209
-307.880	-122.408	-0.524	0.084
-306.866	64.517	-0.181	0.179
-305.851	-134.120	-0.306	0.037
-304.837	116.469	-0.069	-0.083
-303.822	4.759	0.038	0.028
-302.807	-200.000	-0.032	-0.193
-301.793	246.819	-0.126	-0.209
-300.778	-81.887	0.220	0.071
-299.764	-200.000	0.074	-0.456
-298.749	521.389	-0.174	-0.400
-297.735	-157.162	-0.238	0.014
-296.720	57.253	0.103	-0.099
-295.705	275.023	-0.150	0.261
-294.691	59.068	0.153	-0.148
-293.676	723.879	0.028	-0.073
-292.662	-104.739	-0.188	0.043
-291.647	-200.000	-0.005	-0.055
-290.632	-200.000	-0.006	0.100
-289.618	31.968	-0.124	0.105
-288.603	800.000	0.065	0.252
-287.589	-44.271	0.129	0.063
-286.574	18.992	0.182	-0.143
-285.559	-12.890	-0.127	0.081
-284.545	-200.000	-0.008	0.093
-283.530	-84.720	0.243	0.075
-282.516	-101.299	-0.332	0.080
-281.501	55.374	0.210	0.200
-280.486	-35.668	0.238	0.127
-279.472	40.826	-0.240	-0.212
-278.457	-3.534	-0.234	-0.160
-277.443	497.485	0.077	-0.173
-276.428	349.765	0.029	0.056
-275.413	72.469	0.093	0.095
-274.399	-200.000	-0.047	-0.400
-273.384	66.757	0.251	0.251
-272.370	47.301	0.112	-0.102
-271.355	-91.295	-0.164	-0.046
-270.340	-200.000	-0.043	-0.425
-269.326	-134.334	-0.058	0.007
-268.311	63.328	0.099	-0.097
-267.297	800.000	0.022	-0.069
-266.282	-200.000	-0.034	-0.145
-265.267	800.000	-0.064	0.248
-264.253	55.574	0.121	-0.115
-263.238	-200.000	0.040	-0.320
-262.224	40.651	-0.180	-0.159
-261.209	98.009	-0.102	0.115
-260.195	-42.379	-0.230	-0.115
-259.180	-53.655	-0.204	0.091
-258.165	-176.609	-0.319	-0.008
-257.151	-95.427	0.029	-0.008
-256.136	306.770	-0.237	-0.432
-255.122	540.827	0.106	0.248
-254.107	74.818	-0.102	0.105
-253.092	75.166	-0.176	-0.182
-252.078	800.000	-0.045	0.126
-251.063	800.000	-0.042	0.172
-250.049	800.000	-0.058	-0.234
-249.034	-95.096	0.214	-0.057
-248.019	60.050	0.213	0.206
-247.005	-73.412	0.134	-0.048
-245.990	-79.438	0.306	-0.101
-244.976	337.704	0.080	-0.152
-243.961	21.281	0.242	-0.193
-242.946	461.480	0.089	0.194
-241.932	-42.709	-0.290	0.145
-240.917	-70.051	0.202	0.075
-239.903	-168.911	-0.274	0.010
-238.888	800.000	-0.072	-0.267
-237.873	755.386	-0.164	0.436
-236.859	-200.000	0.054	-0.240
-235.844	-200.000	0.000	-0.187
-234.830	-46.346	-0.204	-0.098
-233.815	-59.375	0.082	0.035
-232.800	27.532	-0.116	-0.095
-231.786	-109.234	0.319	-0.066
-230.771	13.840	0.099	0.076
-229.757	-64.960	0.346	0.137
-228.742	484.886	-0.068	0.152
-227.727	-16.951	0.302	0.187
-226.713	-200.000	0.082	-0.514
-225.698	-79.347	-0.114	0.038
-224.684	-27.281	0.238	0.136
-223.669	-200.000	0.025	-0.561
-222.655	800.000	0.127	-0.398
-221.640	-169.009	-0.142	-0.005
-220.625	109.779	0.094	0.111
-219.611	562.269	-0.104	-0.247
-218.596	-92.343	0.160	-0.044
-217.582	800.000	0.099	0.275
-216.567	104.119	-0.173	0.199
-215.552	-162.017	0.412	0.020
-214.538	-131.559	0.199	0.026
-213.523	-42.732	0.236	0.118
-212.509	302.117	0.092	0.167
-211.494	-31.062	-0.151	-0.083
-210.479	800.000	0.083	0.259
-209.465	251.963	0.229	-0.382
-208.450	41.334	-0.075	0.066
-207.436	156.269	0.183	0.247
-206.421	66.808	0.249	0.248
-205.406	339.527	0.074	0.141
-204.392	-200.000	0.003	-0.216
-203.377	-82.863	-0.313	-0.099
-202.363	800.000	0.086	-0.314
-201.348	447.397	-0.069	0.148
-200.333	155.051	0.073	0.098
-199.319	-200.000	0.070	-0.582
-198.304	800.000	-0.037	-0.125
-197.290	-200.000	0.052	0.383
-196.275	-200.000	-0.021	-0.465
-195.260	-200.000	0.021	-0.313
-194.246	64.002	0.092	-0.091
-193.231	12.250	0.211	0.159
-192.217	-29.980	-0.069	0.039
-191.202	-188.388	0.241	0.003
-190.187	-200.000	-0.099	0.000
-189.173	-79.232	-0.256	0.085
-188.158	150.227	0.198	0.263
-187.144	-27.500	0.172	0.097
-186.129	55.509	-0.140	-0.132
-185.114	-77.357	-0.200	0.068
-184.100	-200.000	-0.013	-0.082
-183.085	-135.548	0.036	-0.004
-182.071	165.516	0.031	-0.043
-181.056	-59.284	-0.023	0.009
-180.042	210.223	-0.179	0.275
-179.027	800.000	-0.104	-0.310
-178.012	-50.580	0.216	-0.099
-176.998	-96.523	-0.233	-0.060
-175.983	-5.518	-0.117	0.078
-174.969	494.506	0.034	-0.075
-173.954	-140.713	0.270	0.027
-172.939	341.151	0.100	0.190
-171.925	-200.000	-0.043	-0.385
-170.910	-200.000	0.103	0.000
-169.896	-1.507	-0.354	0.244
-168.881	800.000	0.044	-0.185
-167.866	-35.812	-0.097	0.051
-166.852	-200.000	-0.053	-0.449
-165.837	-133.783	0.172	-0.021
-164.823	90.864	-0.203	0.222
-163.808	-62.650	0.421	0.171
-162.793	97.929	-0.085	0.096
-161.779	800.000	-0.067	-0.199
-160.764	-90.847	-0.244	-0.069
-159.750	172.495	-0.287	0.403
-158.735	13.372	0.101	0.077
-157.720	72.143	-0.020	0.020
-156.706	800.000	0.055	-0.219
-155.691	207.830	-0.061	-0.093
-154.677	800.000	-0.038	-0.114
-153.662	800.000	-0.080	-0.239
-152.647	-200.000	-0.050	-0.436
-151.633	-122.129	-0.081	0.013
-150.618	-200.000	-0.027	0.216
-149.604	-27.887	-0.382	0.216
-148.589	-200.000	0.073	0.364
-147.574	109.071	0.317	0.370
-146.560	319.282	0.088	0.162
-145.545	306.834	-0.123	0.224
-144.531	392.997	-0.106	0.216
-143.516	-75.318	-0.183	-0.064
-142.502	41.532	-0.179	-0.158
-141.487	84.489	-0.080	-0.085
-140.472	83.269	0.019	0.020
-139.458	74.476	0.079	-0.081
-138.443	-200.000	0.039	0.196
-137.429	238.783	0.076	0.124
-136.414	-200.000	0.031	-0.391
-135.399	-160.685	0.118	-0.006
-134.385	-200.000	-0.017	0.233
-133.370	489.209	-0.077	0.172
-132.356	-26.052	0.068	0.039
-131.341	-137.149	0.309	0.034
-130.326	-200.000	0.031	0.286
-129.312	-138.381	0.083	-0.009
-128.297	800.000	-0.065	0.208
-127.283	125.998	0.161	0.198
-126.268	14.545	0.388	-0.296
-125.253	15.541	-0.203	0.155
-124.239	800.000	0.128	0.367
-123.224	800.000	0.169	0.483
-122.210	-200.000	-0.009	-0.349
-121.195	800.000	0.146	-0.499
