DTS Sentinel unit serial number:	SN413079Multiplexer serial number:	ORYXHardware model number:	OX4-SRSoftware version number:	ORYX F/W v4.00 Oryx Data Collector v3.7.2.0data status	okinstallation	princeton_trtdifferential loss correction	single-endedforward channel	channel 3reverse channel	N/Adate	2019/09/17time	20:44:35forward acquisition time	60.00reverse acquisition time	0.00gamma	496.2192k internal	0.2333k external	0.2333temperature offset calibration	0.9955default loss term (dB/km)	0.3790temperature slope calibration	1.0000multiplexer offset coefficient	1.0000multiplexer slope coefficient	1.0000fibre end	0.00T internal ref (°C)	29.62T ext. ref 1 (°C)	0.21T ext. ref 2 (°C)	20.82length (m)	temperature (°C)	Stokes	anti-Stokes-747.200	-102.503	0.334	0.080
-746.185	800.000	0.077	0.295
-745.171	-93.517	0.290	0.081
-744.156	-138.740	-0.549	0.060
-743.142	517.396	0.058	-0.137
-742.127	-162.913	-0.059	-0.003
-741.112	3.718	0.137	-0.101
-740.098	192.150	0.082	0.125
-739.083	-150.296	-0.215	-0.017
-738.069	800.000	-0.066	0.184
-737.054	54.930	0.042	-0.040
-736.039	-138.503	-0.155	-0.017
-735.025	800.000	0.056	0.220
-734.010	355.197	-0.117	-0.234
-732.996	-37.735	0.095	-0.051
-731.981	-40.805	0.102	-0.053
-730.966	800.000	0.033	-0.127
-729.952	121.541	-0.106	-0.133
-728.937	-64.162	0.322	0.132
-727.923	-6.180	-0.093	0.064
-726.908	-200.000	0.039	-0.270
-725.894	-200.000	0.022	-0.100
-724.879	48.183	-0.112	-0.105
-723.864	-200.000	-0.018	-0.150
-722.850	-200.000	-0.003	-0.155
-721.835	465.415	0.036	0.081
-720.821	-130.963	-0.347	-0.047
-719.806	-75.882	-0.180	-0.064
-718.791	-1.359	0.014	-0.010
-717.777	621.916	-0.135	0.342
-716.762	-200.000	-0.032	-0.253
-715.748	800.000	-0.105	-0.296
-714.733	-117.221	0.142	0.026
-713.718	-200.000	0.060	-0.330
-712.704	133.639	-0.162	0.211
-711.689	-149.502	0.308	0.025
-710.675	215.786	-0.116	-0.184
-709.660	28.330	0.071	0.060
-708.645	98.872	0.203	-0.235
-707.631	800.000	-0.064	-0.248
-706.616	81.369	0.127	0.138
-705.602	486.102	-0.164	0.374
-704.587	26.986	-0.213	-0.180
-703.572	-115.601	0.378	0.071
-702.558	58.383	0.178	-0.176
-701.543	-112.660	-0.132	0.026
-700.529	241.768	0.139	-0.233
-699.514	-41.370	0.070	-0.036
-698.499	-152.772	-0.168	0.012
-697.485	86.533	-0.027	-0.030
-696.470	254.845	0.157	-0.270
-695.456	266.743	0.159	-0.279
-694.441	46.031	-0.189	-0.175
-693.426	201.363	-0.221	0.342
-692.412	-145.929	0.202	-0.018
-691.397	325.223	0.222	-0.427
-690.383	-145.609	0.255	0.023
-689.368	-91.437	-0.351	0.100
-688.354	-52.754	-0.223	0.103
-687.339	201.461	0.146	0.225
-686.324	-25.429	-0.260	-0.154
-685.310	-200.000	-0.069	0.309
-684.295	-85.312	-0.141	0.044
-683.281	800.000	0.077	-0.313
-682.266	247.640	-0.148	0.250
-681.251	-20.174	0.289	0.179
-680.237	-112.282	-0.277	-0.056
-679.222	-70.105	-0.160	-0.061
-678.208	-200.000	0.002	-0.070
-677.193	-91.548	-0.183	0.052
-676.178	800.000	-0.071	0.221
-675.164	98.701	0.120	0.139
-674.149	-94.698	-0.186	-0.051
-673.135	47.595	-0.320	-0.299
-672.120	-200.000	-0.057	0.281
-671.105	-91.618	-0.098	-0.028
-670.091	800.000	-0.079	0.281
-669.076	178.401	-0.125	-0.183
-668.062	-200.000	-0.033	-0.171
-667.047	83.061	0.133	-0.145
-666.032	-41.699	0.091	-0.047
-665.018	-52.199	0.218	-0.101
-664.003	158.783	-0.128	0.178
-662.989	-200.000	0.058	-0.254
-661.974	-104.804	-0.330	-0.076
-660.959	-200.000	0.024	0.452
-659.945	-200.000	-0.005	0.431
-658.930	800.000	0.006	0.019
-657.916	-70.838	0.125	0.047
-656.901	-164.796	0.038	0.002
-655.886	-85.948	0.258	-0.080
-654.872	-30.741	0.175	0.099
-653.857	-98.382	-0.309	0.079
-652.843	157.512	-0.196	-0.272
-651.828	208.507	0.085	0.133
-650.814	-16.636	0.134	-0.085
-649.799	-96.408	-0.163	-0.043
-648.784	800.000	-0.103	-0.409
-647.770	800.000	-0.022	0.092
-646.755	739.017	0.012	0.033
-645.741	-16.175	0.066	0.042
-644.726	135.258	-0.099	-0.129
-643.711	-140.779	0.239	0.025
-642.697	800.000	0.129	-0.377
-641.682	-109.352	-0.421	0.089
-640.668	401.119	0.089	-0.187
-639.653	71.648	-0.233	-0.242
-638.638	26.803	0.296	0.248
-637.624	800.000	-0.017	-0.065
-636.609	36.532	0.346	0.306
-635.595	-132.547	-0.026	-0.003
-634.580	-200.000	0.006	0.101
-633.565	63.458	-0.347	-0.349
-632.551	-101.150	-0.357	-0.087
-631.536	-120.816	0.186	-0.031
-630.522	46.109	-0.194	-0.180
-629.507	-130.415	0.052	0.007
-628.492	800.000	0.015	0.062
-627.478	-200.000	0.032	-0.503
-626.463	183.864	0.160	-0.238
-625.449	28.340	-0.319	0.270
-624.434	17.485	-0.242	-0.193
-623.419	341.412	-0.065	0.127
-622.405	76.422	0.182	-0.193
-621.390	-52.885	-0.114	0.053
-620.376	745.603	-0.114	0.306
-619.361	53.234	-0.046	0.044
-618.346	330.438	-0.104	-0.201
-617.332	286.358	0.151	-0.272
-616.317	274.921	-0.024	0.043
-615.303	-168.993	0.086	0.003
-614.288	722.671	-0.042	-0.113
-613.273	-53.308	-0.102	-0.047
-612.259	800.000	-0.074	-0.263
-611.244	629.122	0.094	-0.237
-610.230	800.000	0.048	-0.165
-609.215	9.028	0.071	0.054
-608.201	126.393	-0.088	0.112
-607.186	-37.003	-0.114	-0.061
-606.171	800.000	0.033	0.124
-605.157	720.336	0.086	-0.230
-604.142	-200.000	0.066	-0.531
-603.128	-78.519	-0.332	0.114
-602.113	786.389	-0.078	-0.213
-601.098	85.875	0.247	-0.272
-600.084	220.308	-0.115	0.185
-599.069	-200.000	-0.016	-0.147
-598.055	78.477	-0.125	-0.134
-597.040	36.158	-0.217	0.192
-596.025	-131.874	0.246	0.032
-595.011	126.370	0.048	-0.061
-593.996	325.986	-0.136	0.261
-592.982	800.000	-0.016	-0.049
-591.967	117.183	-0.231	0.283
-590.952	-127.852	-0.203	-0.029
-589.938	31.520	-0.238	0.204
-588.923	-111.184	0.166	0.034
-587.909	-200.000	0.009	-0.129
-586.894	111.235	0.157	-0.189
-585.879	-51.064	-0.353	0.165
-584.865	-96.436	0.194	0.051
-583.850	39.470	0.168	0.151
-582.836	-104.998	-0.269	0.062
-581.821	139.566	0.109	-0.143
-580.806	800.000	-0.064	-0.207
-579.792	2.023	-0.145	-0.105
-578.777	-51.335	-0.168	-0.079
-577.763	314.794	-0.033	0.063
-576.748	-75.450	-0.149	-0.053
-575.733	-101.400	0.162	0.040
-574.719	800.000	0.042	-0.141
-573.704	-91.975	-0.243	-0.069
-572.690	-71.224	0.310	0.116
-571.675	138.963	0.151	0.198
-570.661	-164.029	-0.392	0.018
-569.646	458.153	-0.055	0.122
-568.631	10.920	-0.024	0.018
-567.617	-77.497	0.415	0.144
-566.602	-117.204	0.240	-0.044
-565.588	800.000	-0.062	0.231
-564.573	161.855	0.116	-0.162
-563.558	255.897	-0.121	-0.208
-562.544	-200.000	0.006	0.039
-561.529	-71.852	-0.377	-0.140
-560.515	697.919	0.073	0.192
-559.500	-135.960	0.209	-0.025
-558.485	-5.839	-0.085	0.058
-557.471	800.000	-0.050	-0.181
-556.456	-117.949	0.284	0.051
-555.442	136.982	-0.128	-0.168
-554.427	-67.546	-0.270	-0.106
-553.412	-175.236	-0.212	0.006
-552.398	618.719	-0.010	0.024
-551.383	-88.951	-0.280	0.083
-550.369	161.090	-0.108	-0.151
-549.354	149.015	0.095	0.128
-548.339	-200.000	-0.043	0.331
-547.325	-86.165	-0.212	0.065
-546.310	-36.743	0.192	-0.103
-545.296	146.603	-0.149	-0.200
-544.281	-119.645	0.370	0.064
-543.266	-22.198	-0.244	0.147
-542.252	800.000	-0.057	-0.188
-541.237	431.191	0.085	0.183
-540.223	-200.000	0.051	-0.318
-539.208	273.376	0.086	-0.152
-538.193	35.908	0.197	-0.173
-537.179	101.083	-0.028	-0.033
-536.164	0.016	0.247	-0.176
-535.150	-27.777	-0.110	-0.064
-534.135	-111.628	-0.180	0.036
-533.121	350.894	-0.035	-0.068
-532.106	-200.000	-0.031	-0.190
-531.091	-3.234	0.167	0.116
-530.077	-200.000	-0.035	0.254
-529.062	208.418	0.192	0.299
-528.048	24.237	-0.083	0.068
-527.033	-200.000	-0.010	-0.265
-526.018	-0.549	-0.147	0.104
-525.004	-12.489	0.061	-0.040
-523.989	-129.781	-0.023	-0.003
-522.975	-200.000	-0.017	0.261
-521.960	-200.000	0.006	-0.389
-520.945	-200.000	-0.009	-0.204
-519.931	-131.657	0.316	-0.041
-518.916	-200.000	-0.062	-0.336
-517.902	114.360	-0.116	-0.140
-516.887	-200.000	0.007	0.257
-515.872	800.000	0.083	0.229
-514.858	22.436	-0.153	-0.125
-513.843	-19.841	0.085	-0.052
-512.829	17.865	0.194	-0.154
-511.814	50.776	0.248	-0.235
-510.799	-26.259	0.214	-0.125
-509.785	800.000	0.069	0.205
-508.770	-200.000	0.030	0.204
-507.756	80.808	0.306	-0.329
-506.741	-117.528	0.086	-0.016
-505.726	-200.000	0.031	-0.292
-504.712	-29.546	-0.234	0.133
-503.697	-40.281	-0.299	0.155
-502.683	-200.000	-0.038	-0.173
-501.668	-130.572	0.118	0.016
-500.653	-133.492	-0.246	-0.031
-499.639	626.484	0.020	0.049
-498.624	168.409	0.059	-0.084
-497.610	-17.360	-0.321	-0.201
-496.595	-45.455	0.203	0.100
-495.581	-200.000	0.003	-0.316
-494.566	197.669	-0.176	0.268
-493.551	136.972	0.100	0.131
-492.537	800.000	-0.037	-0.109
-491.522	167.107	-0.144	0.204
-490.508	139.023	-0.151	0.198
-489.493	-200.000	0.001	0.120
-488.478	-200.000	0.034	-0.239
-487.464	-80.806	0.119	-0.039
-486.449	-66.132	-0.163	0.065
-485.435	-200.000	-0.006	0.036
-484.420	66.002	-0.190	-0.192
-483.405	603.862	-0.046	0.113
-482.391	88.973	0.167	0.185
-481.376	-200.000	0.050	0.336
-480.362	800.000	0.062	0.224
-479.347	-200.000	0.029	0.130
-478.332	-173.118	0.250	-0.008
-477.318	-200.000	0.016	0.072
-476.303	-64.278	0.071	0.029
-475.289	370.772	0.047	0.095
-474.274	-167.285	-0.289	0.012
-473.259	97.699	-0.269	-0.307
-472.245	-7.163	-0.264	0.178
-471.230	-200.000	0.055	0.265
-470.216	-46.094	-0.201	-0.099
-469.201	-200.000	0.001	-0.209
-468.186	338.157	0.066	-0.128
-467.172	-25.194	-0.140	-0.082
-466.157	800.000	-0.066	0.233
-465.143	-79.757	0.134	0.045
-464.128	-20.251	0.250	-0.153
-463.113	-200.000	-0.021	0.267
-462.099	79.157	0.211	0.225
-461.084	64.894	0.208	-0.209
-460.070	122.262	-0.147	0.182
-459.055	-73.404	0.297	-0.108
-458.040	340.128	-0.063	-0.121
-457.026	800.000	-0.069	0.278
-456.011	30.815	0.211	-0.180
-454.997	192.323	0.135	0.203
-453.982	42.524	0.023	0.021
-452.968	33.192	0.098	-0.085
-451.953	49.469	0.126	0.118
-450.938	800.000	-0.045	0.185
-449.924	-200.000	-0.003	0.048
-448.909	-23.612	-0.162	0.096
-447.895	-38.273	0.178	-0.094
-446.880	89.742	-0.150	-0.166
-445.865	-19.096	0.150	0.093
-444.851	26.267	-0.070	0.058
-443.836	-80.483	0.276	-0.091
-442.822	55.814	-0.060	0.058
-441.807	-200.000	-0.008	-0.075
-440.792	-200.000	0.035	0.266
-439.778	41.071	0.099	-0.089
-438.763	-30.014	-0.203	0.115
-437.749	196.766	-0.114	-0.173
-436.734	287.498	-0.064	0.116
-435.719	264.032	0.161	0.278
-434.705	-200.000	0.053	0.493
-433.690	642.121	0.051	-0.130
-432.676	-76.594	0.156	0.055
-431.661	-91.619	0.121	-0.034
-430.646	-92.466	0.150	0.042
-429.632	-80.828	-0.210	-0.069
-428.617	42.701	0.122	-0.110
-427.603	-108.054	0.268	-0.058
-426.588	-186.557	0.123	0.002
-425.573	97.408	0.070	-0.080
-424.559	-177.061	-0.270	-0.007
-423.544	164.819	-0.223	-0.313
-422.530	271.805	0.124	0.218
-421.515	8.115	0.120	0.089
-420.500	161.283	0.107	0.148
-419.486	-81.259	0.294	-0.096
-418.471	-14.830	-0.225	0.144
-417.457	48.446	-0.147	0.137
-416.442	13.107	-0.101	-0.078
-415.428	-86.274	0.310	-0.095
-414.413	15.812	-0.048	0.037
-413.398	7.928	0.058	-0.043
-412.384	-200.000	-0.030	-0.223
-411.369	19.272	-0.208	0.166
-410.355	168.261	-0.123	0.174
-409.340	-78.301	0.038	-0.013
-408.325	473.697	0.078	-0.175
-407.311	-56.261	-0.085	0.037
-406.296	-200.000	-0.054	-0.285
-405.282	17.192	-0.213	0.168
-404.267	284.122	-0.061	0.109
-403.252	496.906	-0.060	-0.137
-402.238	13.929	0.293	-0.226
-401.223	168.212	-0.025	-0.035
-400.209	-200.000	-0.029	-0.273
-399.194	336.195	0.123	0.237
-398.179	727.715	-0.047	0.125
-397.165	-117.949	-0.044	0.008
-396.150	-200.000	-0.021	0.177
-395.136	-114.422	-0.221	0.042
-394.121	-200.000	-0.007	-0.064
-393.106	-200.000	-0.007	-0.097
-392.092	-200.000	0.020	0.107
-391.077	3.688	-0.363	0.263
-390.063	65.651	0.133	0.133
-389.048	681.962	-0.015	-0.040
-388.033	800.000	0.095	0.306
-387.019	-200.000	0.045	-0.224
-386.004	-69.922	0.150	-0.057
-384.990	-112.118	0.103	0.021
-383.975	-89.276	0.081	0.024
-382.960	-127.447	-0.127	0.018
-381.946	77.469	0.061	-0.065
-380.931	-61.274	0.131	0.055
-379.917	-200.000	-0.042	-0.309
-378.902	-53.185	0.106	0.048
-377.888	-200.000	-0.003	0.321
-376.873	-45.379	0.370	0.182
-375.858	782.854	-0.033	-0.089
-374.844	-200.000	0.029	-0.255
-373.829	124.443	-0.112	0.140
-372.815	-52.442	0.514	0.236
-371.800	-54.880	-0.049	-0.022
-370.785	117.947	0.080	-0.097
-369.771	111.024	-0.024	-0.028
-368.756	-1.162	0.257	0.180
-367.742	61.478	0.074	-0.073
-366.727	453.606	-0.028	0.061
-365.712	-159.020	0.308	0.017
-364.698	-104.079	-0.268	-0.062
-363.683	166.950	0.189	-0.266
-362.669	-179.884	0.149	0.003
-361.654	94.196	-0.026	-0.029
-360.639	-53.490	-0.168	-0.076
-359.625	16.037	-0.046	-0.036
-358.610	7.610	-0.265	-0.196
-357.596	-68.985	0.293	0.112
-356.581	-167.351	-0.393	-0.016
-355.566	582.901	-0.176	-0.427
-354.552	140.816	-0.207	0.271
-353.537	800.000	0.038	0.142
-352.523	195.335	0.135	0.203
-351.508	-88.865	0.212	0.062
-350.493	-18.051	0.237	-0.147
-349.479	-147.107	-0.192	-0.016
-348.464	178.906	-0.147	-0.212
-347.450	-3.162	0.072	-0.050
-346.435	-101.047	0.178	-0.043
-345.420	490.820	0.035	0.079
-344.406	87.205	-0.117	0.128
-343.391	-148.615	-0.096	-0.008
-342.377	639.313	0.088	-0.222
-341.362	55.420	0.262	-0.251
-340.348	-102.281	-0.161	0.038
-339.333	-83.083	0.259	0.082
-338.318	800.000	-0.046	0.157
-337.304	86.423	-0.051	0.055
-336.289	24.268	-0.105	0.085
-335.275	-76.673	-0.241	-0.084
-334.260	-20.780	0.277	0.168
-333.245	186.765	-0.038	0.055
-332.231	-200.000	-0.052	0.244
-331.216	-200.000	-0.012	-0.056
-330.202	24.706	-0.207	-0.170
-329.187	72.337	0.171	-0.176
-328.172	800.000	0.066	-0.236
-327.158	152.737	-0.172	0.232
-326.143	102.841	-0.074	-0.085
-325.129	110.568	-0.151	0.180
-324.114	-101.601	-0.373	-0.090
-323.099	200.175	0.107	0.162
-322.085	-17.498	0.282	-0.176
-321.070	20.630	0.092	-0.074
-320.056	-106.939	-0.061	0.013
-319.041	-79.833	0.126	0.042
-318.026	-125.521	0.207	-0.031
-317.012	350.003	-0.028	-0.055
-315.997	-142.227	-0.126	0.012
-314.983	161.448	-0.212	0.294
-313.968	-200.000	0.006	-0.290
-312.953	176.957	-0.225	-0.324
-311.939	371.425	0.079	-0.158
-310.924	-52.424	0.209	-0.096
-309.910	800.000	-0.129	0.353
-308.895	299.886	-0.161	-0.293
-307.880	32.554	0.327	0.279
-306.866	63.932	0.224	-0.223
-305.851	-24.948	-0.442	0.259
-304.837	-87.882	0.268	0.080
-303.822	-200.000	0.001	-0.102
-302.807	86.230	0.127	0.138
-301.793	122.784	-0.121	0.149
-300.778	-27.049	-0.150	0.086
-299.764	-126.131	-0.148	0.022
-298.749	205.408	-0.207	0.318
-297.735	-79.207	0.382	-0.128
-296.720	237.794	-0.159	0.261
-295.705	-103.851	-0.336	-0.078
-294.691	-190.750	-0.089	-0.001
-293.676	-28.665	-0.195	0.111
-292.662	114.014	0.260	0.312
-291.647	-152.192	-0.177	-0.013
-290.632	-200.000	-0.015	0.065
-289.618	-157.819	-0.138	-0.008
-288.603	175.969	0.028	-0.040
-287.589	72.352	0.254	-0.262
-286.574	93.887	-0.040	0.045
-285.559	-200.000	0.016	-0.252
-284.545	-160.681	0.199	-0.010
-283.530	-39.686	0.252	0.130
-282.516	39.375	-0.143	-0.126
-281.501	139.561	-0.153	-0.199
-280.486	-200.000	0.002	0.464
-279.472	89.587	0.238	-0.262
-278.457	800.000	0.080	-0.327
-277.443	-200.000	-0.041	0.237
-276.428	-166.030	-0.178	0.008
-275.413	-200.000	0.002	0.303
-274.399	158.606	0.171	0.235
-273.384	-4.746	-0.333	-0.227
-272.370	343.791	0.234	-0.452
-271.355	630.397	-0.060	0.150
-270.340	163.878	-0.264	0.367
-269.326	21.135	-0.132	-0.106
-268.311	-57.942	-0.100	0.043
-267.297	94.529	-0.223	-0.250
-266.282	-29.688	0.026	-0.015
-265.267	-185.210	-0.228	-0.003
-264.253	762.245	0.147	-0.394
-263.238	2.432	0.145	-0.103
-262.224	-177.504	-0.041	0.001
-261.209	-200.000	0.007	0.185
-260.195	-88.927	-0.374	-0.109
-259.180	-81.882	0.235	-0.076
-258.165	-72.189	0.140	-0.051
-257.151	89.869	0.229	0.252
-256.136	58.496	-0.108	-0.105
-255.122	217.136	0.021	0.034
-254.107	133.833	0.187	0.239
-253.092	440.551	-0.076	0.164
-252.078	-106.778	0.173	0.038
-251.063	-35.297	0.404	0.217
-250.049	-138.776	0.093	-0.010
-249.034	428.913	0.117	0.250
-248.019	-200.000	0.025	-0.296
-247.005	-27.135	0.328	0.189
-245.990	-80.691	-0.125	0.041
-244.976	800.000	-0.036	0.131
-243.961	-73.492	-0.261	0.094
-242.946	-200.000	-0.054	0.396
-241.932	-200.000	-0.006	-0.055
-240.917	800.000	-0.115	-0.327
-239.903	-13.705	-0.154	0.098
-238.888	-79.702	0.088	0.029
-237.873	283.622	0.020	0.036
-236.859	18.991	-0.045	0.036
-235.844	-69.096	-0.285	0.108
-234.830	588.790	-0.063	0.154
-233.815	161.056	0.098	0.135
-232.800	-142.874	0.179	0.017
-231.786	298.453	0.087	-0.158
-230.771	-200.000	-0.013	0.372
-229.757	-13.054	-0.202	-0.129
-228.742	-200.000	-0.022	0.152
-227.727	714.265	-0.034	-0.088
-226.713	-131.133	-0.105	-0.014
-225.698	-200.000	-0.144	0.001
-224.684	197.174	0.325	-0.489
-223.669	-200.000	0.010	-0.115
-222.655	464.960	-0.082	-0.180
-221.640	-200.000	-0.014	0.167
-220.625	338.486	0.119	0.228
-219.611	800.000	-0.056	0.222
-218.596	800.000	-0.128	-0.382
-217.582	12.150	-0.141	0.107
-216.567	0.328	0.124	-0.087
-215.552	9.692	-0.233	-0.174
-214.538	800.000	0.030	0.102
-213.523	-121.500	0.212	-0.035
-212.509	-14.847	-0.134	-0.085
-211.494	10.407	-0.249	-0.186
-210.479	-140.974	-0.085	-0.009
-209.465	-143.591	-0.069	-0.006
-208.450	162.413	-0.133	-0.183
-207.436	-47.195	0.301	0.144
-206.421	-143.290	-0.253	0.024
-205.406	307.941	0.050	-0.091
-204.392	-200.000	0.029	-0.455
-203.377	800.000	0.071	-0.248
-202.363	-200.000	-0.018	0.282
-201.348	8.376	-0.277	0.205
-200.333	745.359	-0.025	-0.068
-199.319	-115.267	0.244	-0.045
-198.304	800.000	-0.071	0.196
-197.290	-42.332	0.201	0.101
-196.275	-72.265	0.383	-0.140
-195.260	-38.003	-0.511	0.267
-194.246	-200.000	-0.002	-0.129
-193.231	-188.247	-0.079	0.001
-192.217	49.440	-0.081	-0.075
-191.202	-50.239	0.230	-0.107
-190.187	-22.168	0.167	-0.099
-189.173	-31.533	0.200	-0.111
-188.158	-45.007	0.145	-0.071
-187.144	800.000	-0.048	0.187
-186.129	-42.116	0.204	-0.103
-185.114	206.710	-0.085	0.131
-184.100	-41.420	-0.180	0.091
-183.085	-200.000	0.023	0.127
-182.071	-74.436	0.365	0.130
-181.056	-200.000	0.016	0.265
-180.042	12.938	-0.165	0.126
-179.027	-98.039	0.165	0.042
-178.012	-101.374	0.089	0.021
-176.998	-65.861	-0.154	-0.061
-175.983	193.966	0.061	0.091
-174.969	-34.567	0.108	0.058
-173.954	96.387	0.078	-0.087
-172.939	321.037	-0.062	-0.116
-171.925	-66.172	-0.197	-0.077
-170.910	-200.000	0.177	-0.000
-169.896	-87.005	0.184	-0.055
-168.881	-123.674	0.452	0.070
-167.866	92.013	-0.082	0.091
-166.852	-200.000	0.025	0.314
-165.837	-77.733	0.297	0.101
-164.823	104.047	0.227	-0.263
-163.808	31.548	0.125	-0.106
-162.793	-200.000	-0.310	-0.001
-161.779	-143.804	0.184	-0.017
-160.764	128.513	0.098	-0.122
-159.750	16.102	0.098	-0.076
-158.735	-59.512	-0.181	-0.076
-157.720	-200.000	0.026	0.137
-156.706	48.808	-0.114	0.105
-155.691	800.000	-0.133	0.460
-154.677	-65.354	-0.368	0.145
-153.662	-200.000	-0.018	0.249
-152.647	-200.000	0.029	0.179
-151.633	296.548	0.047	0.085
-150.618	-200.000	0.020	0.296
-149.604	-150.213	0.282	0.021
-148.589	331.246	0.057	0.107
-147.574	800.000	-0.039	0.113
-146.560	-125.516	-0.460	0.069
-145.545	-171.944	-0.277	-0.009
-144.531	800.000	-0.043	-0.135
-143.516	-200.000	0.026	-0.145
-142.502	-4.744	-0.154	-0.104
-141.487	10.162	-0.048	0.036
-140.472	234.879	-0.032	-0.051
-139.458	322.834	-0.115	0.215
-138.443	33.856	0.219	0.188
-137.429	706.356	-0.058	0.150
-136.414	62.170	-0.103	-0.101
-135.399	-18.703	0.036	0.022
-134.385	800.000	-0.105	-0.369
-133.370	-200.000	0.077	-0.390
-132.356	-147.076	0.242	-0.020
-131.341	195.391	0.114	0.171
-130.326	800.000	0.072	-0.256
-129.312	37.980	-0.199	-0.174
-128.297	78.389	0.135	0.141
-127.283	76.026	0.233	-0.242
-126.268	466.266	-0.102	-0.224
-125.253	-200.000	0.035	0.151
-124.239	-188.926	0.091	-0.001
-123.224	28.252	-0.108	-0.089
-122.210	-200.000	0.014	-0.068
-121.195	389.778	0.053	0.107
