DTS Sentinel unit serial number:	SN413079Multiplexer serial number:	ORYXHardware model number:	OX4-SRSoftware version number:	ORYX F/W v4.00 Oryx Data Collector v3.7.2.0data status	okinstallation	princeton_trtdifferential loss correction	single-endedforward channel	channel 3reverse channel	N/Adate	2019/09/15time	07:16:35forward acquisition time	60.00reverse acquisition time	0.00gamma	496.2192k internal	0.2324k external	0.2324temperature offset calibration	0.9976default loss term (dB/km)	0.3790temperature slope calibration	1.0000multiplexer offset coefficient	1.0000multiplexer slope coefficient	1.0000fibre end	0.00T internal ref (°C)	30.55T ext. ref 1 (°C)	4.88T ext. ref 2 (°C)	25.84length (m)	temperature (°C)	Stokes	anti-Stokes-747.200	21.327	-0.214	0.175
-746.185	-200.000	-0.076	0.450
-745.171	-200.000	0.001	-0.297
-744.156	800.000	0.047	-0.170
-743.142	-51.932	0.284	0.133
-742.127	45.183	0.117	0.109
-741.112	-5.529	0.163	0.113
-740.098	65.553	-0.151	-0.154
-739.083	216.975	-0.189	0.304
-738.069	-127.350	-0.068	0.010
-737.054	56.304	0.050	-0.049
-736.039	-200.000	0.046	-0.300
-735.025	-38.779	-0.154	-0.082
-734.010	-200.000	-0.079	-0.380
-732.996	-143.210	-0.322	0.031
-731.981	484.102	-0.081	-0.187
-730.966	-11.052	0.234	0.155
-729.952	547.914	-0.069	-0.167
-728.937	-200.000	-0.045	-0.272
-727.923	-102.410	-0.393	-0.095
-726.908	-76.918	-0.419	0.148
-725.894	-114.516	-0.236	0.046
-724.879	-174.490	-0.236	-0.007
-723.864	-115.030	-0.279	0.054
-722.850	-200.000	-0.040	0.265
-721.835	502.144	0.079	-0.184
-720.821	36.611	-0.218	-0.194
-719.806	-42.232	-0.133	-0.068
-718.791	-99.984	-0.176	0.044
-717.777	-5.130	-0.020	0.014
-716.762	532.267	-0.065	0.155
-715.748	72.616	-0.141	-0.148
-714.733	-20.331	-0.238	-0.148
-713.718	-200.000	-0.020	-0.181
-712.704	-132.367	-0.547	-0.071
-711.689	-86.475	0.113	0.035
-710.675	-44.918	-0.225	0.113
-709.660	-107.150	0.252	0.056
-708.645	15.942	-0.207	0.164
-707.631	340.058	0.217	-0.427
-706.616	51.609	-0.257	0.246
-705.602	14.152	0.106	0.083
-704.587	-200.000	0.007	0.076
-703.572	800.000	-0.012	0.050
-702.558	51.492	0.306	-0.293
-701.543	389.781	-0.087	-0.182
-700.529	-59.353	0.106	0.046
-699.514	800.000	-0.060	-0.197
-698.499	-200.000	-0.014	-0.258
-697.485	-141.736	-0.113	-0.011
-696.470	-193.519	0.240	0.002
-695.456	-126.135	0.197	0.030
-694.441	573.477	-0.112	0.276
-693.426	800.000	0.016	0.070
-692.412	-109.334	-0.306	-0.065
-691.397	-34.601	-0.406	0.224
-690.383	46.122	0.054	-0.051
-689.368	33.571	0.335	0.293
-688.354	-87.239	-0.447	0.137
-687.339	800.000	-0.090	0.253
-686.324	-200.000	0.116	-0.526
-685.310	98.420	-0.251	-0.292
-684.295	-80.681	-0.292	-0.098
-683.281	-125.898	-0.227	-0.034
-682.266	-74.518	-0.056	0.020
-681.251	60.926	-0.259	-0.258
-680.237	4.978	0.182	-0.135
-679.222	-200.000	-0.049	-0.230
-678.208	-31.416	0.072	-0.041
-677.193	-200.000	-0.021	-0.115
-676.178	86.817	-0.209	-0.232
-675.164	102.901	0.077	0.091
-674.149	533.001	0.037	-0.087
-673.135	325.627	0.081	-0.156
-672.120	-48.654	0.166	-0.080
-671.105	156.145	-0.144	0.200
-670.091	61.627	-0.055	0.055
-669.076	-200.000	0.020	-0.089
-668.062	-140.305	-0.321	-0.034
-667.047	-200.000	-0.062	0.285
-666.032	-200.000	0.012	-0.064
-665.018	-45.231	0.178	-0.089
-664.003	-185.106	0.113	-0.002
-662.989	148.788	-0.228	-0.310
-661.974	347.163	0.171	0.339
-660.959	-200.000	-0.005	0.503
-659.945	-129.094	-0.100	0.014
-658.930	533.599	-0.084	0.199
-657.916	22.913	0.182	0.150
-656.901	554.357	0.085	-0.206
-655.886	-86.314	0.114	-0.035
-654.872	-68.262	-0.175	0.068
-653.857	800.000	0.055	0.190
-652.843	390.293	0.052	0.108
-651.828	-200.000	-0.226	-0.001
-650.814	21.263	-0.068	0.056
-649.799	35.564	0.247	0.218
-648.784	-200.000	-0.007	0.347
-647.770	-200.000	0.023	0.273
-646.755	-66.659	-0.497	0.198
-645.741	14.883	-0.042	-0.033
-644.726	-69.909	0.055	-0.021
-643.711	189.905	-0.344	0.519
-642.697	-183.652	-0.248	0.004
-641.682	-200.000	0.025	0.233
-640.668	-139.450	-0.164	-0.018
-639.653	621.982	-0.034	-0.086
-638.638	686.325	0.022	-0.059
-637.624	9.263	-0.137	0.104
-636.609	-200.000	0.002	0.021
-635.595	-108.482	-0.252	-0.054
-634.580	-139.035	-0.117	0.013
-633.565	800.000	-0.088	-0.305
-632.551	749.837	0.108	-0.293
-631.536	95.524	-0.022	-0.025
-630.522	-60.379	0.094	0.040
-629.507	800.000	-0.111	0.351
-628.492	-115.173	0.141	0.027
-627.478	-200.000	-0.006	0.139
-626.463	341.793	0.087	0.171
-625.449	363.021	-0.068	0.136
-624.434	44.181	-0.178	-0.164
-623.419	-52.886	-0.441	0.204
-622.405	-80.650	-0.282	0.094
-621.390	-200.000	0.024	-0.258
-620.376	-41.809	-0.173	0.089
-619.361	-66.251	0.288	0.115
-618.346	-95.926	-0.138	-0.037
-617.332	-70.618	-0.285	-0.108
-616.317	-133.049	0.340	-0.043
-615.303	-138.587	-0.164	-0.018
-614.288	800.000	0.037	0.112
-613.273	-200.000	-0.015	-0.159
-612.259	-58.898	-0.301	0.131
-611.244	-200.000	-0.015	-0.098
-610.230	274.807	-0.114	0.203
-609.215	-142.928	-0.094	-0.009
-608.201	-104.593	-0.028	0.006
-607.186	-146.737	0.290	0.025
-606.171	297.216	0.116	-0.213
-605.157	33.597	-0.256	0.224
-604.142	-200.000	-0.021	0.255
-603.128	-135.724	0.187	-0.022
-602.113	800.000	0.059	-0.231
-601.098	33.067	-0.321	-0.279
-600.084	-200.000	0.033	-0.348
-599.069	-108.698	0.408	0.088
-598.055	-147.582	0.291	0.025
-597.040	-106.589	-0.088	-0.020
-596.025	-157.525	0.035	-0.002
-595.011	-146.631	0.153	-0.013
-593.996	-110.936	0.277	0.057
-592.982	-157.237	-0.288	-0.017
-591.967	-177.974	-0.216	0.005
-590.952	19.307	0.097	-0.078
-589.938	577.710	-0.097	0.238
-588.923	-200.000	0.015	-0.213
-587.909	-6.896	-0.123	-0.084
-586.894	-200.000	-0.312	-0.000
-585.879	-200.000	-0.002	0.090
-584.865	84.925	-0.171	-0.188
-583.850	12.130	0.082	-0.063
-582.836	42.088	0.258	0.235
-581.821	-122.073	0.240	0.040
-580.806	800.000	-0.045	0.132
-579.792	-2.250	0.173	-0.122
-578.777	-142.211	-0.285	0.028
-577.763	119.315	0.086	0.107
-576.748	773.817	0.036	-0.098
-575.733	-87.723	0.298	0.090
-574.719	-127.705	0.110	0.016
-573.704	-6.341	0.105	-0.072
-572.690	45.584	0.069	-0.064
-571.675	-169.156	0.081	-0.003
-570.661	-200.000	-0.012	0.124
-569.646	-1.948	0.429	0.302
-568.631	-93.859	0.247	0.068
-567.617	4.678	0.261	0.192
-566.602	344.661	-0.053	0.105
-565.588	-140.383	-0.087	-0.009
-564.573	-121.029	0.103	0.017
-563.558	800.000	-0.034	-0.117
-562.544	706.642	-0.045	-0.119
-561.529	132.184	-0.152	-0.197
-560.515	-46.625	-0.121	-0.059
-559.500	266.107	-0.198	-0.346
-558.485	120.303	-0.158	0.197
-557.471	-41.881	0.134	0.069
-556.456	312.353	-0.113	-0.213
-555.442	94.712	0.211	-0.241
-554.427	-3.305	0.159	-0.111
-553.412	-71.863	0.165	0.062
-552.398	-18.221	-0.368	-0.231
-551.383	63.863	0.160	-0.161
-550.369	133.197	0.237	-0.307
-549.354	-146.462	0.224	0.020
-548.339	-19.343	0.131	0.081
-547.325	-70.854	-0.101	0.038
-546.310	-163.580	0.282	0.013
-545.296	-79.476	0.102	-0.035
-544.281	-119.117	0.131	0.023
-543.266	30.768	0.201	-0.173
-542.252	-200.000	0.013	0.065
-541.237	-140.425	0.483	-0.050
-540.223	409.479	0.012	-0.026
-539.208	-108.505	0.385	-0.083
-538.193	-75.627	0.460	-0.164
-537.179	426.031	-0.211	-0.455
-536.164	800.000	0.072	0.223
-535.150	600.945	-0.076	0.189
-534.135	276.671	0.058	-0.103
-533.121	140.882	-0.235	-0.311
-532.106	-200.000	-0.004	-0.051
-531.091	246.137	-0.049	-0.083
-530.077	-200.000	0.040	-0.494
-529.062	227.406	-0.111	-0.180
-528.048	108.336	0.171	0.204
-527.033	-16.172	-0.160	0.102
-526.018	305.636	-0.071	-0.132
-525.004	732.579	0.078	0.208
-523.989	644.545	-0.149	0.380
-522.975	-200.000	0.023	0.338
-521.960	-26.652	0.389	0.228
-520.945	-39.415	0.104	-0.054
-519.931	381.007	-0.115	0.236
-518.916	222.499	-0.082	-0.133
-517.902	-96.241	-0.154	-0.041
-516.887	-90.062	0.376	0.110
-515.872	9.648	0.238	-0.181
-514.858	567.655	-0.057	0.137
-513.843	-86.709	-0.311	0.095
-512.829	563.434	0.095	0.229
-511.814	800.000	-0.066	-0.184
-510.799	-144.912	-0.168	0.015
-509.785	-142.570	0.321	-0.031
-508.770	-157.974	0.369	0.022
-507.756	-17.043	0.158	-0.100
-506.741	-89.437	-0.156	-0.046
-505.726	207.076	0.063	0.099
-504.712	556.253	0.063	-0.152
-503.697	800.000	-0.092	0.372
-502.683	46.898	0.048	0.045
-501.668	522.089	0.008	0.018
-500.653	-200.000	0.061	0.361
-499.639	-109.251	0.184	-0.039
-498.624	-96.114	0.367	0.098
-497.610	144.961	0.097	-0.129
-496.595	252.240	-0.092	0.156
-495.581	128.995	-0.048	-0.062
-494.566	431.360	-0.127	0.275
-493.551	-200.000	-0.034	0.243
-492.537	-200.000	-0.035	-0.216
-491.522	795.783	-0.069	-0.189
-490.508	-128.313	0.054	0.008
-489.493	-200.000	0.036	0.256
-488.478	-200.000	0.030	0.327
-487.464	-200.000	-0.034	0.209
-486.449	22.480	0.160	-0.130
-485.435	656.424	0.050	-0.128
-484.420	-200.000	0.016	0.208
-483.405	-200.000	-0.004	0.136
-482.391	192.808	-0.163	-0.246
-481.376	-200.000	-0.030	-0.335
-480.362	196.713	-0.044	0.067
-479.347	184.328	0.223	-0.329
-478.332	800.000	0.039	0.127
-477.318	728.182	0.060	0.161
-476.303	-200.000	-0.004	0.340
-475.289	-86.672	-0.220	0.067
-474.274	361.642	-0.090	0.181
-473.259	-7.800	-0.180	-0.121
-472.245	34.879	-0.240	0.210
-471.230	-200.000	-0.040	0.251
-470.216	-22.442	-0.089	-0.054
-469.201	-113.758	0.056	0.011
-468.186	-77.302	0.326	-0.113
-467.172	-122.789	0.059	-0.009
-466.157	800.000	0.010	0.032
-465.143	-200.000	-0.011	-0.502
-464.128	28.892	-0.127	0.107
-463.113	-200.000	0.045	0.394
-462.099	-200.000	0.015	0.458
-461.084	-200.000	-0.015	-0.236
-460.070	47.558	-0.144	0.134
-459.055	-200.000	0.036	0.168
-458.040	70.475	0.195	0.201
-457.026	-200.000	0.018	0.081
-456.011	-76.474	0.532	-0.187
-454.997	-200.000	-0.065	-0.289
-453.982	279.007	-0.121	-0.215
-452.968	-20.816	0.228	-0.139
-451.953	-63.590	-0.170	-0.069
-450.938	-75.153	-0.128	0.046
-449.924	166.244	-0.108	0.153
-448.909	318.714	-0.066	0.125
-447.895	-200.000	0.018	0.150
-446.880	13.047	0.287	0.222
-445.865	61.555	-0.263	0.261
-444.851	800.000	0.052	0.175
-443.836	800.000	-0.134	-0.529
-442.822	105.691	-0.179	-0.211
-441.807	-136.949	-0.224	0.026
-440.792	60.749	0.232	-0.229
-439.778	1.608	-0.096	0.069
-438.763	-135.640	0.089	-0.011
-437.749	-34.723	0.145	-0.079
-436.734	-200.000	0.055	0.289
-435.719	800.000	0.070	-0.221
-434.705	-173.452	0.310	0.009
-433.690	407.750	-0.065	0.138
-432.676	-41.296	0.205	0.105
-431.661	34.233	-0.219	-0.191
-430.646	-200.000	0.298	-0.000
-429.632	-132.718	0.315	-0.040
-428.617	800.000	0.124	0.346
-427.603	-9.028	-0.158	0.105
-426.588	31.712	-0.352	0.302
-425.573	-200.000	0.012	0.145
-424.559	-13.167	0.335	0.217
-423.544	-157.686	0.293	-0.017
-422.530	174.374	0.243	-0.351
-421.515	209.886	-0.155	0.242
-420.500	-108.919	-0.199	0.042
-419.486	-200.000	0.004	0.283
-418.471	-165.566	-0.304	-0.013
-417.457	162.081	-0.133	0.185
-416.442	-127.944	0.077	-0.011
-415.428	-33.871	-0.260	0.143
-414.413	-131.229	0.120	-0.016
-413.398	234.268	0.123	-0.202
-412.384	-57.215	0.313	0.137
-411.369	3.005	0.098	0.071
-410.355	-80.825	-0.104	-0.035
-409.340	-115.830	0.162	-0.030
-408.325	126.713	0.054	0.068
-407.311	173.781	-0.120	0.173
-406.296	-122.359	0.116	-0.019
-405.282	150.548	0.073	-0.099
-404.267	-176.928	-0.213	0.005
-403.252	-200.000	-0.004	0.109
-402.238	-1.190	-0.340	-0.239
-401.223	-4.184	0.120	-0.083
-400.209	-125.246	-0.131	0.020
-399.194	195.682	0.073	-0.110
-398.179	-200.000	-0.009	-0.107
-397.165	176.900	-0.207	-0.300
-396.150	-56.250	-0.108	-0.048
-395.136	-159.432	0.369	-0.020
-394.121	-126.016	-0.380	-0.057
-393.106	-186.182	-0.237	-0.003
-392.092	-200.000	-0.015	0.114
-391.077	-200.000	-0.027	0.282
-390.063	664.696	-0.088	0.227
-389.048	465.853	0.106	0.237
-388.033	800.000	0.045	-0.175
-387.019	-72.438	-0.213	0.078
-386.004	601.071	-0.046	0.113
-384.990	800.000	0.019	-0.062
-383.975	-2.674	-0.097	-0.067
-382.960	423.710	0.161	-0.345
-381.946	-25.846	-0.301	0.176
-380.931	-157.209	0.255	0.015
-379.917	-18.290	0.123	-0.077
-378.902	-118.685	-0.114	0.020
-377.888	159.770	-0.095	0.131
-376.873	-41.232	0.195	-0.100
-375.858	800.000	-0.050	-0.188
-374.844	-200.000	-0.040	0.183
-373.829	-152.221	-0.185	0.013
-372.815	-122.582	0.157	0.025
-371.800	-200.000	-0.017	0.314
-370.785	297.348	-0.106	-0.193
-369.771	219.723	0.128	-0.203
-368.756	-145.056	-0.151	-0.014
-367.742	191.561	0.215	0.322
-366.727	110.655	0.236	-0.283
-365.712	601.411	-0.079	0.195
-364.698	-200.000	-0.010	0.275
-363.683	-186.859	-0.085	-0.001
-362.669	179.587	0.186	0.270
-361.654	64.503	0.172	0.172
-360.639	-110.278	0.102	-0.021
-359.625	56.513	-0.231	-0.223
-358.610	80.659	-0.162	-0.173
-357.596	-97.573	-0.321	0.083
-356.581	-124.513	-0.050	0.008
-355.566	744.298	0.085	0.227
-354.552	120.388	0.030	-0.037
-353.537	-200.000	-0.007	-0.190
-352.523	32.723	-0.250	-0.215
-351.508	152.335	0.054	-0.074
-350.493	163.180	-0.077	0.107
-349.479	482.755	-0.076	-0.172
-348.464	-107.995	0.070	-0.015
-347.450	-158.393	-0.105	-0.006
-346.435	108.728	0.277	-0.329
-345.420	-13.545	-0.151	-0.097
-344.406	88.177	-0.160	0.176
-343.391	325.822	0.039	0.075
-342.377	-200.000	-0.005	0.026
-341.362	800.000	0.082	-0.324
-340.348	-61.273	-0.321	0.134
-339.333	58.384	0.259	0.252
-338.318	800.000	0.057	-0.198
-337.304	173.637	-0.134	-0.192
-336.289	-80.058	0.091	-0.030
-335.275	-180.875	-0.501	-0.010
-334.260	434.712	-0.034	-0.072
-333.245	334.451	0.205	0.393
-332.231	-200.000	-0.059	0.271
-331.216	-200.000	0.003	-0.242
-330.202	102.122	-0.113	-0.131
-329.187	39.369	-0.096	-0.085
-328.172	207.882	-0.050	-0.077
-327.158	324.658	-0.245	0.464
-326.143	800.000	0.076	0.304
-325.129	165.232	0.069	0.097
-324.114	27.656	-0.086	-0.072
-323.099	-200.000	-0.020	-0.284
-322.085	-157.538	-0.139	0.008
-321.070	-200.000	-0.045	-0.322
-320.056	-179.255	-0.308	0.007
-319.041	-120.613	0.146	0.024
-318.026	20.216	0.185	0.148
-317.012	-102.392	-0.249	0.059
-315.997	6.044	0.083	-0.061
-314.983	-200.000	0.003	-0.044
-313.968	-71.324	-0.174	0.065
-312.953	212.102	-0.135	0.212
-311.939	268.692	-0.072	-0.125
-310.924	-200.000	-0.007	0.051
-309.910	121.711	0.152	-0.188
-308.895	7.636	-0.193	-0.143
-307.880	-200.000	-0.001	0.023
-306.866	483.452	0.018	0.040
-305.851	-115.683	0.074	-0.014
-304.837	-41.439	-0.129	-0.066
-303.822	-37.448	0.310	-0.164
-302.807	-47.099	0.290	-0.140
-301.793	-121.089	-0.206	-0.034
-300.778	-32.995	-0.252	0.139
-299.764	800.000	-0.051	-0.173
-298.749	-121.909	-0.130	0.021
-297.735	-173.059	0.198	0.006
-296.720	666.946	-0.075	-0.191
-295.705	-73.304	-0.240	0.087
-294.691	464.724	-0.135	0.300
-293.676	-52.732	0.319	-0.146
-292.662	56.111	-0.252	-0.243
-291.647	-149.370	0.185	-0.015
-290.632	-200.000	-0.026	0.178
-289.618	213.007	0.169	0.264
-288.603	53.026	0.150	0.142
-287.589	240.044	-0.023	-0.039
-286.574	-86.435	0.072	-0.022
-285.559	800.000	-0.081	0.348
-284.545	-90.944	-0.105	0.030
-283.530	361.275	0.096	-0.191
-282.516	-1.008	0.031	-0.022
-281.501	-47.603	0.167	0.080
-280.486	-34.944	-0.215	0.116
-279.472	216.422	-0.073	-0.115
-278.457	88.927	0.153	-0.169
-277.443	-26.799	0.152	-0.088
-276.428	-62.699	0.207	-0.085
-275.413	-200.000	-0.041	0.258
-274.399	19.409	-0.061	0.048
-273.384	800.000	-0.127	-0.425
-272.370	800.000	-0.035	-0.104
-271.355	-200.000	0.041	-0.226
-270.340	-175.098	0.302	-0.008
-269.326	-200.000	-0.045	0.304
-268.311	-193.536	-0.017	-0.000
-267.297	3.746	0.140	-0.101
-266.282	-132.991	0.286	0.036
-265.267	-200.000	-0.002	-0.144
-264.253	-138.106	0.197	0.022
-263.238	545.836	-0.082	0.195
-262.224	-119.194	0.372	-0.064
-261.209	-2.492	-0.172	-0.119
-260.195	122.992	-0.421	-0.522
-259.180	84.125	-0.289	0.312
-258.165	-120.137	-0.418	0.071
-257.151	-200.000	-0.026	-0.249
-256.136	583.703	0.091	-0.221
-255.122	9.013	-0.155	-0.116
-254.107	64.253	0.168	-0.167
-253.092	256.430	-0.054	0.091
-252.078	205.084	-0.098	0.150
-251.063	3.371	-0.198	-0.143
-250.049	797.989	-0.050	0.137
-249.034	-30.001	-0.113	-0.064
-248.019	-200.000	0.005	-0.117
-247.005	-32.002	0.512	-0.284
-245.990	80.232	-0.257	-0.273
-244.976	417.749	-0.097	-0.205
-243.961	91.485	0.191	0.213
-242.946	-155.083	-0.419	-0.027
-241.932	-200.000	0.044	-0.260
-240.917	-83.672	-0.051	0.016
-239.903	-8.311	-0.360	-0.239
-238.888	166.355	0.102	-0.142
-237.873	165.133	0.180	-0.252
-236.859	-15.757	-0.167	0.105
-235.844	-83.683	0.221	-0.070
-234.830	800.000	-0.028	-0.093
-233.815	199.436	0.202	-0.307
-232.800	-200.000	0.007	0.148
-231.786	15.189	-0.190	0.148
-230.771	59.197	-0.183	0.179
-229.757	-142.295	0.211	0.021
-228.742	566.505	0.056	-0.134
-227.727	-75.471	-0.328	0.115
-226.713	-200.000	-0.007	-0.306
-225.698	617.454	0.033	-0.082
-224.684	120.190	0.084	-0.104
-223.669	338.515	0.195	-0.375
-222.655	80.489	-0.252	0.268
-221.640	-42.031	-0.113	-0.057
-220.625	142.741	0.197	-0.258
-219.611	-167.596	0.139	0.005
-218.596	-200.000	0.025	-0.129
-217.582	800.000	0.042	0.132
-216.567	-200.000	0.034	-0.168
-215.552	-52.993	0.273	-0.124
-214.538	-200.000	0.014	0.194
-213.523	-17.370	0.204	-0.127
-212.509	400.261	0.024	0.051
-211.494	-19.030	-0.421	0.259
-210.479	-200.000	0.000	0.068
-209.465	-142.600	0.352	0.034
-208.450	190.166	-0.171	-0.254
-207.436	299.146	0.141	0.256
-206.421	-137.944	0.045	-0.005
-205.406	800.000	-0.027	-0.092
-204.392	35.568	-0.091	0.079
-203.377	394.470	-0.063	0.130
-202.363	-200.000	-0.016	-0.104
-201.348	-28.519	0.310	0.176
-200.333	-200.000	-0.005	-0.106
-199.319	800.000	-0.046	-0.156
-198.304	-89.531	0.097	-0.028
-197.290	-66.919	0.318	0.124
-196.275	173.193	-0.107	-0.153
-195.260	-200.000	-0.001	-0.244
-194.246	40.172	0.104	-0.093
-193.231	270.142	0.079	-0.137
-192.217	626.100	-0.089	0.221
-191.202	177.770	-0.218	0.313
-190.187	-153.887	-0.069	-0.005
-189.173	-200.000	-0.015	0.078
-188.158	-45.472	-0.018	0.009
-187.144	800.000	-0.026	-0.071
-186.129	-13.319	-0.090	0.058
-185.114	-200.000	-0.012	0.162
-184.100	-200.000	0.056	0.362
-183.085	-7.417	0.363	0.242
-182.071	403.722	-0.064	-0.133
-181.056	-102.655	-0.060	-0.014
-180.042	-200.000	0.017	-0.343
-179.027	-83.506	0.116	-0.037
-178.012	-105.003	-0.311	0.070
-176.998	173.106	-0.099	-0.141
-175.983	35.634	-0.171	-0.148
-174.969	252.173	-0.065	-0.109
-173.954	-116.434	-0.291	-0.053
-172.939	-200.000	-0.005	-0.083
-171.925	-15.187	0.146	0.092
-170.910	-45.297	0.063	-0.031
-169.896	317.249	-0.058	-0.107
-168.881	30.077	-0.144	0.121
-167.866	-12.158	-0.261	-0.168
-166.852	-38.703	-0.059	-0.031
-165.837	-196.609	0.063	0.000
-164.823	-116.120	0.128	0.023
-163.808	99.152	0.115	-0.131
-162.793	-200.000	0.011	0.087
-161.779	17.186	-0.233	0.183
-160.764	151.502	0.120	0.161
-159.750	770.787	0.086	-0.230
-158.735	-52.499	-0.154	-0.070
-157.720	268.557	0.186	0.322
-156.706	246.263	0.168	-0.279
-155.691	-49.924	-0.342	0.160
-154.677	-49.521	-0.181	-0.085
-153.662	800.000	-0.095	-0.393
-152.647	-89.700	0.225	-0.065
-151.633	72.726	0.182	0.187
-150.618	-42.315	0.115	-0.058
-149.604	-143.486	0.195	0.018
-148.589	-200.000	0.295	0.001
-147.574	-119.996	-0.231	0.039
-146.560	800.000	-0.072	-0.203
-145.545	16.700	-0.227	-0.177
-144.531	684.064	-0.050	0.129
-143.516	800.000	-0.077	0.318
-142.502	-159.745	-0.325	-0.018
-141.487	800.000	0.007	-0.019
-140.472	-200.000	-0.054	0.302
-139.458	800.000	0.089	0.290
-138.443	-200.000	-0.059	0.272
-137.429	121.587	-0.138	-0.170
-136.414	-47.818	-0.238	0.114
-135.399	-145.416	-0.356	-0.032
-134.385	-37.116	0.394	-0.208
-133.370	-200.000	0.014	0.107
-132.356	-200.000	-0.242	-0.001
-131.341	-200.000	-0.013	-0.157
-130.326	132.152	-0.162	0.206
-129.312	326.495	0.043	-0.081
-128.297	-120.741	-0.029	0.005
-127.283	-75.663	0.175	-0.061
-126.268	-23.566	-0.367	0.217
-125.253	-146.488	-0.480	0.041
-124.239	147.337	0.238	0.315
-123.224	-200.000	0.004	-0.120
