DTS Sentinel unit serial number:	SN413079Multiplexer serial number:	ORYXHardware model number:	OX4-SRSoftware version number:	ORYX F/W v4.00 Oryx Data Collector v3.7.2.0data status	okinstallation	princeton_trtdifferential loss correction	single-endedforward channel	channel 3reverse channel	N/Adate	2019/09/15time	21:12:35forward acquisition time	60.00reverse acquisition time	0.00gamma	496.2192k internal	0.2329k external	0.2329temperature offset calibration	0.9933default loss term (dB/km)	0.3790temperature slope calibration	1.0000multiplexer offset coefficient	1.0000multiplexer slope coefficient	1.0000fibre end	0.00T internal ref (°C)	31.31T ext. ref 1 (°C)	8.15T ext. ref 2 (°C)	24.22length (m)	temperature (°C)	Stokes	anti-Stokes-747.200	-77.801	-0.155	-0.054
-746.185	800.000	0.099	0.295
-745.171	1.395	-0.056	0.041
-744.156	668.686	-0.130	0.339
-743.142	-200.000	0.035	-0.232
-742.127	579.208	-0.149	0.368
-741.112	112.327	0.237	-0.289
-740.098	-200.000	-0.069	0.335
-739.083	-58.306	-0.383	0.168
-738.069	800.000	0.063	0.196
-737.054	-112.040	-0.405	-0.082
-736.039	800.000	-0.029	-0.084
-735.025	-200.000	0.043	0.250
-734.010	-135.259	-0.228	-0.028
-732.996	-200.000	-0.026	-0.148
-731.981	706.683	0.155	0.411
-730.966	-200.000	0.005	-0.031
-729.952	-61.936	0.215	-0.091
-728.937	-111.232	0.049	0.010
-727.923	-120.757	-0.207	0.035
-726.908	-98.145	-0.178	-0.046
-725.894	-102.048	0.074	0.018
-724.879	307.102	-0.168	-0.315
-723.864	-142.513	-0.192	-0.019
-722.850	15.172	0.060	0.047
-721.835	-120.354	-0.114	0.019
-720.821	-200.000	-0.027	0.224
-719.806	-73.667	-0.369	-0.135
-718.791	77.800	-0.152	0.163
-717.777	-126.534	0.171	0.026
-716.762	-14.261	-0.049	-0.032
-715.748	40.490	0.060	-0.055
-714.733	-118.795	-0.330	-0.058
-713.718	-105.001	-0.191	-0.044
-712.704	651.173	-0.070	0.181
-711.689	-172.268	-0.565	-0.018
-710.675	-140.986	0.133	-0.014
-709.660	-14.947	0.291	-0.187
-708.645	71.348	-0.166	0.173
-707.631	-60.726	0.093	-0.040
-706.616	-86.184	0.342	0.106
-705.602	155.152	0.123	0.170
-704.587	-85.760	0.192	-0.060
-703.572	-51.053	-0.370	0.175
-702.558	-200.000	-0.064	-0.309
-701.543	-34.577	0.266	0.147
-700.529	40.763	0.169	-0.153
-699.514	73.202	0.239	0.252
-698.499	-24.492	-0.104	0.062
-697.485	-27.100	-0.139	0.081
-696.470	208.219	-0.087	0.137
-695.456	800.000	0.102	-0.408
-694.441	-95.875	-0.364	-0.098
-693.426	311.237	-0.065	-0.122
-692.412	-160.372	-0.319	0.017
-691.397	-89.133	-0.298	-0.089
-690.383	800.000	0.105	0.299
-689.368	-200.000	0.021	-0.279
-688.354	503.646	0.020	0.047
-687.339	-82.272	0.016	0.005
-686.324	50.832	-0.071	0.067
-685.310	6.572	0.176	0.132
-684.295	163.364	0.146	0.206
-683.281	-76.837	0.273	0.096
-682.266	-80.678	0.100	-0.034
-681.251	-113.027	0.213	0.042
-680.237	478.083	-0.098	0.223
-679.222	146.830	-0.050	-0.068
-678.208	-106.626	-0.313	-0.070
-677.193	104.450	-0.099	-0.118
-676.178	-95.862	0.293	0.079
-675.164	-16.973	-0.246	-0.156
-674.149	-97.992	0.175	-0.045
-673.135	-44.822	0.113	-0.056
-672.120	78.764	-0.143	0.154
-671.105	-28.138	-0.077	0.045
-670.091	740.125	-0.063	0.170
-669.076	-200.000	0.006	0.126
-668.062	-33.985	0.026	-0.014
-667.047	-62.653	-0.144	0.060
-666.032	24.694	0.197	-0.164
-665.018	139.420	-0.227	-0.300
-664.003	-42.764	-0.235	0.120
-662.989	299.801	0.060	-0.111
-661.974	75.112	-0.016	-0.017
-660.959	800.000	0.106	0.346
-659.945	-104.981	0.275	0.063
-658.930	97.009	-0.096	-0.110
-657.916	-200.000	-0.084	0.384
-656.901	-93.552	-0.145	-0.040
-655.886	-200.000	-0.025	0.156
-654.872	429.356	-0.136	0.295
-653.857	800.000	0.114	-0.457
-652.843	-41.713	-0.403	0.208
-651.828	608.982	-0.080	-0.201
-650.814	419.643	-0.157	-0.337
-649.799	-9.339	0.056	-0.038
-648.784	-187.514	-0.262	-0.004
-647.770	800.000	0.047	-0.146
-646.755	-200.000	-0.026	-0.124
-645.741	463.316	0.123	0.277
-644.726	-101.080	-0.178	0.044
-643.711	578.575	-0.141	0.345
-642.697	800.000	-0.050	-0.158
-641.682	-74.522	0.158	-0.057
-640.668	57.390	0.024	-0.023
-639.653	3.925	0.301	-0.221
-638.638	-200.000	0.025	-0.227
-637.624	-200.000	-0.028	0.159
-636.609	315.131	0.184	0.349
-635.595	58.926	-0.063	-0.062
-634.580	495.162	0.055	0.126
-633.565	32.254	-0.039	-0.034
-632.551	-2.738	0.292	-0.205
-631.536	375.452	0.027	-0.055
-630.522	440.446	0.060	0.133
-629.507	-33.616	0.010	0.006
-628.492	-120.259	-0.210	-0.036
-627.478	161.581	0.173	-0.243
-626.463	45.441	0.055	0.051
-625.449	-130.258	-0.093	-0.013
-624.434	-200.000	-0.024	0.188
-623.419	-200.000	-0.035	-0.269
-622.405	-33.740	-0.191	-0.106
-621.390	439.584	0.067	0.146
-620.376	-133.933	-0.378	-0.047
-619.361	-72.532	0.112	-0.042
-618.346	-55.867	-0.359	0.161
-617.332	800.000	0.051	-0.160
-616.317	586.403	-0.010	0.025
-615.303	12.004	-0.235	-0.181
-614.288	-106.927	0.201	0.045
-613.273	-200.000	-0.031	-0.460
-612.259	401.682	-0.173	-0.364
-611.244	-107.547	-0.134	-0.029
-610.230	-200.000	-0.013	0.175
-609.215	-200.000	0.065	-0.435
-608.201	-5.641	-0.185	-0.127
-607.186	-45.766	-0.190	0.094
-606.171	357.737	-0.118	-0.235
-605.157	-200.000	0.065	-0.457
-604.142	-135.219	-0.092	0.011
-603.128	-200.000	0.045	-0.238
-602.113	160.477	-0.082	-0.114
-601.098	-200.000	-0.017	0.158
-600.084	163.738	-0.288	-0.406
-599.069	800.000	0.128	0.534
-598.055	-80.839	-0.230	-0.076
-597.040	31.547	-0.068	-0.059
-596.025	-64.661	0.197	0.080
-595.011	-91.588	-0.328	-0.094
-593.996	127.923	0.090	-0.115
-592.982	-200.000	-0.022	-0.169
-591.967	-89.388	0.269	0.079
-590.952	310.997	-0.088	-0.165
-589.938	-88.679	-0.373	-0.111
-588.923	12.897	-0.228	-0.176
-587.909	-106.883	0.031	-0.007
-586.894	191.889	-0.065	-0.098
-585.879	-61.273	0.475	0.200
-584.865	89.501	-0.124	0.138
-583.850	-111.831	0.327	-0.066
-582.836	-200.000	0.009	-0.266
-581.821	-200.000	-0.007	-0.114
-580.806	-200.000	-0.057	-0.277
-579.792	16.239	-0.231	-0.183
-578.777	449.068	-0.188	-0.416
-577.763	386.712	0.014	0.029
-576.748	738.892	0.128	-0.344
-575.733	94.806	-0.189	-0.215
-574.719	45.932	0.076	0.071
-573.704	-90.299	0.337	0.098
-572.690	-200.000	0.027	-0.174
-571.675	-200.000	-0.007	0.348
-570.661	141.704	0.084	-0.111
-569.646	-200.000	-0.034	0.274
-568.631	-86.834	0.197	0.060
-567.617	-200.000	0.033	-0.160
-566.602	-0.341	0.411	-0.292
-565.588	-89.770	0.285	-0.084
-564.573	112.290	-0.189	-0.229
-563.558	234.052	-0.126	0.208
-562.544	-10.360	0.040	-0.026
-561.529	2.294	0.079	0.057
-560.515	-199.433	0.214	-0.001
-559.500	-72.030	0.130	-0.048
-558.485	800.000	-0.048	0.136
-557.471	-15.711	-0.097	0.062
-556.456	15.904	-0.260	0.205
-555.442	-110.072	0.331	-0.069
-554.427	-134.452	0.268	-0.033
-553.412	768.264	0.011	-0.029
-552.398	26.026	-0.166	-0.139
-551.383	42.741	0.115	-0.105
-550.369	800.000	-0.098	0.298
-549.354	-15.499	-0.263	-0.168
-548.339	800.000	-0.100	-0.314
-547.325	-200.000	0.236	0.001
-546.310	387.805	-0.050	0.104
-545.296	132.283	0.171	-0.220
-544.281	213.755	-0.379	-0.599
-543.266	415.033	-0.043	0.091
-542.252	62.884	-0.099	0.099
-541.237	-28.511	-0.100	0.058
-540.223	-69.227	0.124	0.048
-539.208	-20.033	0.125	-0.077
-538.193	-200.000	0.042	-0.194
-537.179	-200.000	-0.040	0.228
-536.164	-34.640	-0.128	-0.070
-535.150	29.407	0.175	-0.149
-534.135	781.517	0.081	-0.223
-533.121	16.535	-0.036	-0.029
-532.106	-200.000	-0.029	0.177
-531.091	432.024	-0.106	-0.230
-530.077	-78.519	-0.299	0.102
-529.062	-200.000	-0.042	-0.186
-528.048	99.369	0.159	0.184
-527.033	280.924	0.009	-0.016
-526.018	626.405	-0.068	0.172
-525.004	-124.808	0.134	0.021
-523.989	14.187	0.399	-0.310
-522.975	374.823	0.081	-0.164
-521.960	369.294	0.071	0.143
-520.945	-59.572	-0.047	0.020
-519.931	-68.861	0.324	-0.125
-518.916	800.000	0.046	-0.170
-517.902	-200.000	0.004	-0.164
-516.887	240.815	-0.106	0.177
-515.872	62.898	0.233	0.233
-514.858	-74.828	0.334	-0.120
-513.843	80.790	-0.190	0.205
-512.829	62.173	-0.064	0.064
-511.814	-200.000	0.055	0.267
-510.799	293.109	-0.137	-0.250
-509.785	-116.094	-0.127	-0.024
-508.770	712.902	0.126	-0.333
-507.756	-110.850	-0.053	0.011
-506.741	311.123	-0.127	-0.237
-505.726	138.918	0.069	0.090
-504.712	-106.552	-0.230	-0.051
-503.697	292.586	0.078	-0.141
-502.683	800.000	0.078	0.230
-501.668	-200.000	0.038	-0.241
-500.653	-4.866	0.104	-0.071
-499.639	3.728	0.146	0.106
-498.624	29.435	0.186	0.158
-497.610	112.908	0.068	-0.082
-496.595	14.489	0.176	-0.137
-495.581	-17.122	-0.060	0.038
-494.566	-46.915	0.182	-0.089
-493.551	-19.410	-0.172	-0.106
-492.537	22.306	0.199	0.162
-491.522	603.634	-0.076	0.189
-490.508	34.140	0.162	0.141
-489.493	-200.000	-0.009	-0.207
-488.478	113.782	0.088	0.107
-487.464	-188.260	-0.112	-0.001
-486.449	-200.000	-0.036	-0.199
-485.435	-135.702	-0.102	0.012
-484.420	4.421	0.172	0.126
-483.405	-74.162	-0.081	-0.029
-482.391	557.963	-0.029	0.069
-481.376	-200.000	0.041	0.186
-480.362	-73.366	-0.165	-0.060
-479.347	73.926	0.129	-0.135
-478.332	-154.925	0.143	0.009
-477.318	-200.000	-0.024	-0.281
-476.303	372.397	0.133	0.268
-475.289	-200.000	0.001	-0.242
-474.274	315.490	-0.144	-0.270
-473.259	89.048	-0.052	0.057
-472.245	378.533	-0.170	0.346
-471.230	-12.541	-0.111	0.072
-470.216	31.553	-0.134	-0.115
-469.201	-200.000	0.002	0.211
-468.186	-46.624	0.055	-0.027
-467.172	-200.000	-0.008	0.057
-466.157	142.923	-0.106	-0.141
-465.143	206.497	0.129	-0.201
-464.128	-143.651	-0.144	-0.014
-463.113	27.752	-0.165	0.138
-462.099	-200.000	-0.023	0.300
-461.084	-18.158	0.086	0.054
-460.070	-200.000	-0.000	-0.104
-459.055	-100.282	-0.148	0.037
-458.040	96.866	-0.181	-0.206
-457.026	-200.000	0.000	-0.188
-456.011	-53.360	0.110	0.050
-454.997	-143.972	-0.208	0.019
-453.982	108.230	-0.256	-0.304
-452.968	519.741	-0.103	-0.241
-451.953	-58.222	0.306	-0.133
-450.938	-27.102	-0.215	-0.125
-449.924	-78.956	-0.371	0.126
-448.909	-125.212	-0.281	0.043
-447.895	-200.000	-0.016	-0.221
-446.880	-185.926	0.155	0.002
-445.865	-200.000	0.005	-0.087
-444.851	-92.375	-0.293	-0.082
-443.836	-31.968	0.273	0.152
-442.822	101.206	0.065	-0.076
-441.807	800.000	0.028	0.090
-440.792	-200.000	0.002	-0.038
-439.778	78.777	0.268	0.286
-438.763	-200.000	0.035	0.478
-437.749	31.090	0.161	0.137
-436.734	800.000	-0.084	0.298
-435.719	-200.000	0.053	-0.359
-434.705	62.467	-0.124	0.123
-433.690	588.559	-0.055	0.135
-432.676	327.666	0.101	0.193
-431.661	55.931	0.242	0.233
-430.646	69.758	-0.346	0.355
-429.632	-97.679	0.262	0.068
-428.617	784.695	0.080	0.217
-427.603	-82.851	-0.067	0.021
-426.588	316.759	-0.034	0.063
-425.573	20.636	-0.047	-0.038
-424.559	159.852	-0.190	0.264
-423.544	70.432	0.082	-0.085
-422.530	-97.430	-0.188	0.049
-421.515	310.563	-0.139	-0.259
-420.500	-112.236	-0.069	0.014
-419.486	3.829	0.222	0.161
-418.471	70.023	0.167	0.172
-417.457	547.764	-0.052	-0.125
-416.442	-121.089	0.182	-0.030
-415.428	578.052	-0.144	-0.351
-414.413	516.962	0.002	0.004
-413.398	-50.107	0.244	-0.115
-412.384	83.216	0.206	0.223
-411.369	-101.698	-0.145	0.035
-410.355	-26.754	0.209	-0.121
-409.340	-200.000	-0.001	-0.167
-408.325	-200.000	-0.072	-0.316
-407.311	-68.698	0.257	0.099
-406.296	32.133	0.193	0.165
-405.282	497.593	-0.077	-0.176
-404.267	-147.001	-0.168	-0.014
-403.252	-56.713	0.234	-0.103
-402.238	297.332	-0.092	0.167
-401.223	175.912	-0.085	0.122
-400.209	-12.273	0.139	-0.090
-399.194	407.121	0.135	-0.283
-398.179	113.119	-0.062	-0.074
-397.165	-170.198	-0.056	0.002
-396.150	-169.618	-0.179	-0.006
-395.136	225.290	-0.132	0.213
-394.121	-200.000	0.015	0.107
-393.106	-78.019	-0.181	-0.062
-392.092	-66.125	0.156	0.062
-391.077	800.000	-0.030	-0.123
-390.063	-24.590	0.141	-0.083
-389.048	-137.047	-0.282	0.032
-388.033	-200.000	0.013	0.278
-387.019	189.172	-0.153	0.228
-386.004	100.572	-0.098	-0.113
-384.990	91.836	-0.148	-0.166
-383.975	168.462	-0.188	-0.266
-382.960	-36.328	0.232	0.124
-381.946	65.765	0.201	0.202
-380.931	564.155	-0.128	0.309
-379.917	244.311	0.087	-0.146
-378.902	-200.000	-0.005	0.348
-377.888	152.900	0.138	0.187
-376.873	-151.354	-0.254	-0.019
-375.858	-64.979	-0.117	0.047
-374.844	-151.421	-0.320	0.024
-373.829	-161.978	-0.173	0.009
-372.815	18.576	-0.221	-0.175
-371.800	114.063	0.032	0.039
-370.785	131.609	0.144	-0.183
-369.771	737.802	0.024	0.064
-368.756	308.030	-0.250	-0.463
-367.742	71.436	-0.161	0.166
-366.727	165.099	-0.098	-0.137
-365.712	546.993	0.156	0.369
-364.698	-145.758	0.129	-0.011
-363.683	140.319	0.090	0.118
-362.669	-192.232	0.272	0.003
-361.654	118.424	-0.124	0.151
-360.639	3.538	0.247	0.179
-359.625	362.202	0.015	0.029
-358.610	-129.458	0.041	-0.006
-357.596	33.958	-0.221	0.191
-356.581	135.877	0.152	-0.196
-355.566	-200.000	0.030	0.193
-354.552	311.822	0.034	-0.064
-353.537	800.000	-0.074	0.242
-352.523	364.197	0.171	-0.341
-351.508	482.769	-0.055	0.124
-350.493	-120.391	-0.483	0.081
-349.479	-178.823	0.069	0.002
-348.464	45.534	0.183	0.167
-347.450	-200.000	-0.013	0.251
-346.435	-41.686	-0.202	0.103
-345.420	-94.222	0.051	0.014
-344.406	402.476	-0.191	-0.399
-343.391	9.962	-0.245	-0.184
-342.377	800.000	-0.049	0.154
-341.362	800.000	-0.005	-0.020
-340.348	-112.925	0.334	-0.066
-339.333	5.645	0.149	0.109
-338.318	800.000	-0.032	-0.098
-337.304	128.139	0.224	0.282
-336.289	-200.000	0.023	-0.270
-335.275	356.689	0.103	-0.203
-334.260	746.612	-0.047	0.126
-333.245	-81.506	-0.123	0.040
-332.231	14.030	-0.194	-0.150
-331.216	-200.000	0.004	-0.160
-330.202	-31.575	-0.084	0.047
-329.187	-200.000	-0.008	-0.082
-328.172	134.249	-0.190	0.244
-327.158	97.017	0.155	-0.176
-326.143	76.070	-0.218	-0.229
-325.129	206.238	-0.028	0.043
-324.114	-104.673	-0.240	-0.055
-323.099	-200.000	-0.034	0.263
-322.085	-200.000	0.034	0.486
-321.070	169.534	-0.053	0.074
-320.056	-200.000	0.041	0.261
-319.041	800.000	0.015	0.064
-318.026	800.000	-0.019	0.062
-317.012	800.000	-0.101	0.437
-315.997	-49.555	-0.081	-0.038
-314.983	-179.393	0.221	-0.005
-313.968	-90.634	-0.138	-0.039
-312.953	23.963	-0.351	0.286
-311.939	59.482	0.067	0.065
-310.924	-200.000	0.043	0.342
-309.910	-20.836	0.332	-0.201
-308.895	800.000	-0.025	0.093
-307.880	-104.203	-0.038	-0.009
-306.866	-134.941	0.177	-0.021
-305.851	800.000	-0.036	0.142
-304.837	248.860	0.029	0.048
-303.822	542.575	0.117	0.277
-302.807	800.000	0.043	-0.143
-301.793	-73.052	-0.130	-0.047
-300.778	-156.924	0.160	0.010
-299.764	-200.000	0.022	0.172
-298.749	800.000	-0.128	0.358
-297.735	800.000	0.031	0.121
-296.720	-54.780	-0.257	-0.115
-295.705	26.915	0.241	-0.200
-294.691	800.000	-0.120	-0.426
-293.676	-200.000	0.023	-0.181
-292.662	-200.000	0.017	0.249
-291.647	564.671	-0.103	-0.247
-290.632	256.763	-0.172	0.292
-289.618	276.366	-0.052	0.091
-288.603	54.757	0.246	-0.235
-287.589	-200.000	-0.024	-0.477
-286.574	-75.185	0.484	-0.171
-285.559	-32.948	0.169	-0.093
-284.545	88.051	0.123	-0.135
-283.530	47.651	0.011	0.010
-282.516	-50.677	0.208	0.097
-281.501	-39.365	-0.350	0.181
-280.486	-200.000	-0.012	-0.178
-279.472	-16.062	0.192	0.121
-278.457	-123.106	-0.171	-0.027
-277.443	-103.015	0.378	0.089
-276.428	800.000	0.033	-0.115
-275.413	-13.373	-0.255	0.164
-274.399	-200.000	0.008	0.061
-273.384	-200.000	-0.001	0.220
-272.370	663.219	-0.122	0.310
-271.355	-200.000	-0.054	0.268
-270.340	-200.000	0.010	0.089
-269.326	-158.166	-0.394	-0.023
-268.311	73.465	-0.034	0.036
-267.297	327.942	0.096	0.183
-266.282	-1.187	0.094	0.066
-265.267	-176.885	-0.176	-0.004
-264.253	800.000	-0.050	0.171
-263.238	-96.680	-0.053	-0.014
-262.224	191.768	-0.115	-0.172
-261.209	110.364	0.253	0.301
-260.195	-21.555	0.187	-0.113
-259.180	-200.000	0.049	-0.234
-258.165	321.246	-0.107	-0.201
-257.151	800.000	0.020	-0.071
-256.136	-122.652	0.127	-0.020
-255.122	-9.599	-0.211	-0.139
-254.107	800.000	-0.070	0.225
-253.092	-200.000	0.024	0.312
-252.078	35.921	0.103	-0.090
-251.063	-200.000	0.050	0.246
-250.049	-87.504	0.207	-0.062
-249.034	22.413	0.094	-0.076
-248.019	800.000	-0.065	-0.190
-247.005	18.535	0.098	-0.077
-245.990	-37.815	0.320	-0.168
-244.976	-182.525	-0.128	-0.002
-243.961	27.343	-0.229	-0.190
-242.946	-121.931	-0.295	0.048
-241.932	800.000	-0.080	0.277
-240.917	-70.391	0.152	-0.057
-239.903	-122.594	0.340	0.054
-238.888	-62.328	-0.133	-0.055
-237.873	800.000	0.039	0.108
-236.859	39.980	0.105	-0.094
-235.844	743.226	-0.094	-0.250
-234.830	-45.666	-0.279	0.136
-233.815	342.803	0.057	-0.111
-232.800	102.564	-0.126	0.145
-231.786	255.327	-0.049	-0.083
-230.771	-40.650	-0.089	-0.045
-229.757	-200.000	-0.027	0.322
-228.742	-128.992	0.070	0.010
-227.727	-200.000	0.002	-0.011
-226.713	-200.000	-0.021	-0.166
-225.698	800.000	0.012	-0.045
-224.684	278.342	-0.093	-0.163
-223.669	-34.019	0.165	-0.089
-222.655	800.000	-0.121	0.368
-221.640	163.273	-0.160	-0.222
-220.625	-200.000	-0.008	-0.235
-219.611	800.000	0.058	0.228
-218.596	-73.888	0.140	0.050
-217.582	8.217	0.162	0.120
-216.567	65.798	-0.244	0.244
-215.552	678.009	-0.089	-0.228
-214.538	-59.106	0.268	0.114
-213.523	61.011	0.151	-0.148
-212.509	-165.032	0.065	0.003
-211.494	-81.230	-0.026	0.008
-210.479	502.995	0.047	0.107
-209.465	396.611	0.032	0.066
-208.450	3.396	0.318	-0.229
-207.436	363.155	0.031	-0.061
-206.421	-192.613	0.103	0.001
-205.406	-200.000	0.024	-0.107
-204.392	800.000	0.146	0.550
-203.377	-159.958	-0.197	0.011
-202.363	-200.000	0.015	0.234
-201.348	-200.000	-0.026	-0.335
-200.333	546.934	-0.166	0.391
-199.319	-200.000	0.008	-0.081
-198.304	18.453	0.284	0.224
-197.290	-162.132	-0.127	0.006
-196.275	90.375	0.079	-0.087
-195.260	339.666	-0.105	0.203
-194.246	800.000	0.058	0.206
-193.231	-153.571	0.199	0.014
-192.217	-94.334	-0.015	-0.004
-191.202	-200.000	-0.048	-0.246
-190.187	44.826	0.082	-0.074
-189.173	-165.515	-0.098	0.004
-188.158	545.573	0.099	0.234
-187.144	-200.000	-0.041	-0.361
-186.129	375.076	0.049	-0.098
-185.114	-114.136	-0.164	0.031
-184.100	282.562	0.181	0.321
-183.085	-200.000	-0.009	-0.432
-182.071	9.042	-0.277	-0.206
-181.056	-26.458	-0.295	0.170
-180.042	572.635	0.051	-0.123
-179.027	-77.598	0.265	-0.090
-178.012	88.687	-0.162	0.177
-176.998	74.830	-0.052	0.054
-175.983	-43.402	0.154	0.077
-174.969	0.310	0.072	-0.051
-173.954	103.874	-0.115	-0.134
-172.939	292.561	0.038	0.068
-171.925	14.118	-0.175	-0.135
-170.910	165.765	0.170	0.237
-169.896	-200.000	0.017	0.270
-168.881	-102.117	-0.229	-0.054
-167.866	67.030	-0.067	-0.067
-166.852	-112.913	0.223	0.044
-165.837	-62.945	0.093	-0.038
-164.823	-3.433	0.305	0.209
-163.808	800.000	-0.019	-0.072
-162.793	546.321	0.084	0.198
-161.779	800.000	0.102	0.373
-160.764	174.549	0.185	0.263
-159.750	-200.000	-0.002	0.067
-158.735	102.752	0.084	0.097
-157.720	-4.824	-0.126	-0.086
-156.706	46.748	0.193	0.176
-155.691	800.000	0.150	0.599
-154.677	236.263	-0.083	0.135
-153.662	112.844	-0.092	-0.110
-152.647	-84.566	-0.175	0.054
-151.633	238.113	0.172	-0.281
-150.618	452.607	0.061	0.134
-149.604	-200.000	0.006	0.096
-148.589	-200.000	0.005	-0.072
-147.574	-22.689	-0.220	0.131
-146.560	-59.010	-0.227	-0.097
-145.545	439.768	-0.093	0.201
-144.531	800.000	0.113	0.326
-143.516	-112.696	0.187	0.037
-142.502	-56.429	-0.255	0.111
-141.487	163.607	-0.079	-0.109
-140.472	443.320	-0.087	-0.188
-139.458	-200.000	0.055	-0.287
-138.443	225.342	0.020	-0.032
-137.429	-152.034	-0.114	0.008
-136.414	35.236	-0.107	0.092
-135.399	-69.422	0.151	-0.057
-134.385	-0.906	0.201	-0.140
-133.370	57.801	0.073	0.070
-132.356	-49.077	-0.112	-0.053
-131.341	-200.000	0.009	0.041
-130.326	546.186	-0.100	0.235
-129.312	-61.041	0.214	-0.089
-128.297	-145.523	0.275	-0.024
-127.283	464.243	0.069	-0.151
-126.268	41.955	-0.095	0.084
-125.253	-140.906	0.080	-0.008
-124.239	187.615	-0.121	0.178
-123.224	40.464	0.362	0.320
-122.210	-200.000	-0.040	0.227
-121.195	-200.000	0.043	0.325
