DTS Sentinel unit serial number:	SN413079Multiplexer serial number:	ORYXHardware model number:	OX4-SRSoftware version number:	ORYX F/W v4.00 Oryx Data Collector v3.7.2.0data status	okinstallation	princeton_trtdifferential loss correction	single-endedforward channel	channel 3reverse channel	N/Adate	2019/09/15time	17:04:35forward acquisition time	60.00reverse acquisition time	0.00gamma	496.2192k internal	0.2286k external	0.2286temperature offset calibration	0.9923default loss term (dB/km)	0.3790temperature slope calibration	1.0000multiplexer offset coefficient	1.0000multiplexer slope coefficient	1.0000fibre end	0.00T internal ref (°C)	44.56T ext. ref 1 (°C)	5.89T ext. ref 2 (°C)	40.87length (m)	temperature (°C)	Stokes	anti-Stokes-747.200	-35.747	-0.194	0.108
-746.185	-33.592	-0.176	0.100
-745.171	121.856	-0.235	-0.301
-744.156	800.000	0.015	0.059
-743.142	70.523	0.109	0.115
-742.127	166.160	-0.144	0.210
-741.112	-200.000	-0.039	0.413
-740.098	138.399	0.227	0.305
-739.083	601.029	-0.082	-0.210
-738.069	-136.565	-0.204	0.024
-737.054	21.054	0.206	0.171
-736.039	593.198	-0.081	0.206
-735.025	206.512	0.093	0.148
-734.010	800.000	0.034	0.152
-732.996	-47.891	0.037	-0.018
-731.981	-81.408	-0.238	-0.080
-730.966	800.000	-0.045	-0.134
-729.952	-159.972	-0.140	-0.008
-728.937	-43.833	0.139	0.072
-727.923	800.000	0.068	-0.227
-726.908	800.000	0.022	-0.099
-725.894	-25.953	-0.333	0.201
-724.879	-200.000	0.051	-0.353
-723.864	-200.000	0.004	-0.079
-722.850	800.000	0.049	-0.188
-721.835	184.061	0.066	0.100
-720.821	-20.058	-0.287	-0.181
-719.806	522.063	0.031	0.075
-718.791	800.000	0.046	-0.195
-717.777	65.886	-0.193	-0.200
-716.762	13.090	0.186	-0.148
-715.748	-70.216	0.196	-0.076
-714.733	107.169	-0.358	-0.436
-713.718	800.000	-0.067	0.250
-712.704	-1.321	0.351	0.254
-711.689	121.077	-0.007	0.009
-710.675	233.678	-0.170	-0.286
-709.660	8.390	-0.245	0.189
-708.645	-200.000	0.013	0.150
-707.631	9.942	-0.123	0.096
-706.616	-66.432	0.218	0.089
-705.602	-200.000	0.021	-0.103
-704.587	-200.000	-0.002	-0.011
-703.572	595.341	0.061	0.153
-702.558	-200.000	0.001	0.275
-701.543	-200.000	-0.010	-0.220
-700.529	800.000	-0.061	-0.234
-699.514	-134.636	-0.242	-0.030
-698.499	-200.000	-0.001	0.178
-697.485	-63.292	0.209	-0.088
-696.470	15.250	-0.098	-0.079
-695.456	-88.174	0.117	0.036
-694.441	-200.000	0.065	-0.304
-693.426	123.871	-0.114	-0.146
-692.412	-156.229	-0.294	0.019
-691.397	767.715	-0.065	0.182
-690.383	-123.344	0.166	-0.027
-689.368	89.098	-0.143	0.163
-688.354	-162.454	-0.060	-0.003
-687.339	141.363	0.166	-0.224
-686.324	-200.000	0.050	0.227
-685.310	-200.000	-0.048	0.342
-684.295	-92.664	-0.292	-0.084
-683.281	-180.607	-0.051	0.001
-682.266	36.074	0.051	-0.046
-681.251	-200.000	0.034	0.163
-680.237	39.130	-0.157	-0.144
-679.222	123.197	0.161	0.206
-678.208	132.821	0.213	0.281
-677.193	738.236	0.030	-0.084
-676.178	54.443	-0.135	0.133
-675.164	-57.984	-0.102	0.046
-674.149	-88.240	-0.106	-0.032
-673.135	51.835	0.049	-0.047
-672.120	181.867	-0.103	0.155
-671.105	193.235	0.152	0.235
-670.091	60.192	-0.267	0.270
-669.076	201.714	-0.111	0.175
-668.062	315.976	0.049	0.095
-667.047	-117.430	-0.269	0.050
-666.032	38.499	-0.259	-0.236
-665.018	53.142	-0.177	0.174
-664.003	-106.936	-0.337	0.076
-662.989	800.000	-0.020	0.074
-661.974	800.000	0.051	-0.181
-660.959	-200.000	0.013	-0.201
-659.945	101.725	-0.131	0.156
-658.930	-200.000	-0.012	0.101
-657.916	140.193	-0.184	-0.249
-656.901	-74.566	-0.572	0.211
-655.886	322.418	-0.127	-0.248
-654.872	-200.000	-0.330	-0.001
-653.857	124.582	-0.110	-0.141
-652.843	41.389	0.177	-0.164
-651.828	-30.656	-0.378	-0.219
-650.814	467.952	0.048	0.110
-649.799	70.785	0.114	-0.120
-648.784	-21.442	-0.162	0.101
-647.770	-106.798	0.136	-0.031
-646.755	-93.346	-0.146	-0.041
-645.741	-52.412	0.082	0.039
-644.726	227.368	0.055	-0.092
-643.711	-200.000	0.004	0.023
-642.697	-200.000	-0.065	-0.414
-641.682	78.185	0.349	-0.381
-640.668	-134.496	0.129	-0.016
-639.653	-18.659	0.224	0.143
-638.638	-10.666	0.097	-0.066
-637.624	107.673	-0.182	-0.222
-636.609	-200.000	-0.002	-0.159
-635.595	800.000	0.094	-0.320
-634.580	-80.989	0.106	-0.036
-633.565	-76.408	-0.180	0.065
-632.551	-130.718	-0.279	-0.038
-631.536	-200.000	-0.012	-0.236
-630.522	-200.000	-0.008	-0.099
-629.507	32.510	-0.072	-0.063
-628.492	800.000	-0.092	0.359
-627.478	-21.952	-0.174	-0.108
-626.463	-3.031	0.123	0.088
-625.449	61.710	0.262	0.267
-624.434	-200.000	-0.028	-0.166
-623.419	-130.920	0.233	0.032
-622.405	205.585	0.218	0.346
-621.390	38.978	0.099	0.090
-620.376	-200.000	-0.017	0.322
-619.361	-45.394	-0.239	-0.121
-618.346	61.640	0.154	0.157
-617.332	-4.109	0.324	0.229
-616.317	-102.264	0.104	0.026
-615.303	-6.892	-0.200	0.139
-614.288	-97.460	-0.183	0.049
-613.273	-57.401	0.223	0.100
-612.259	92.500	0.121	0.140
-611.244	166.784	0.204	0.295
-610.230	62.566	0.136	-0.139
-609.215	-74.657	-0.328	-0.120
-608.201	2.567	-0.168	-0.125
-607.186	535.040	0.086	-0.208
-606.171	-200.000	-0.024	0.183
-605.157	-122.223	-0.062	0.010
-604.142	-114.782	0.156	0.030
-603.128	-200.000	-0.093	-0.477
-602.113	133.830	0.076	-0.101
-601.098	151.269	-0.099	0.138
-600.084	-200.000	-0.020	-0.088
-599.069	800.000	-0.095	-0.292
-598.055	-200.000	0.027	-0.259
-597.040	72.550	0.180	-0.192
-596.025	-200.000	0.024	0.142
-595.011	257.078	0.055	0.096
-593.996	9.003	0.052	-0.040
-592.982	-90.008	-0.308	-0.092
-591.967	800.000	-0.050	0.176
-590.952	800.000	-0.045	0.163
-589.938	-137.722	0.235	0.027
-588.923	-161.551	-0.268	0.014
-587.909	-114.672	-0.048	-0.009
-586.894	187.407	-0.177	0.270
-585.879	132.023	-0.090	0.118
-584.865	-15.836	0.156	-0.101
-583.850	-200.000	0.029	-0.205
-582.836	-173.249	0.422	-0.013
-581.821	-97.429	0.203	-0.054
-580.806	800.000	-0.027	0.116
-579.792	44.162	-0.169	-0.158
-578.777	3.938	-0.076	-0.057
-577.763	-20.752	-0.194	0.121
-576.748	-43.229	0.380	-0.196
-575.733	4.214	0.041	-0.031
-574.719	302.552	-0.054	0.101
-573.704	251.434	0.056	0.096
-572.690	189.221	0.063	0.096
-571.675	-172.377	-0.214	-0.007
-570.661	-200.000	-0.016	0.139
-569.646	-162.578	0.035	-0.002
-568.631	-200.000	-0.020	-0.222
-567.617	198.611	0.114	0.177
-566.602	-41.727	-0.345	-0.181
-565.588	-10.618	0.074	-0.050
-564.573	800.000	-0.102	0.316
-563.558	-109.150	0.152	-0.033
-562.544	-56.933	-0.148	-0.067
-561.529	-198.751	-0.308	-0.002
-560.515	-57.679	0.273	-0.122
-559.500	189.583	-0.109	-0.167
-558.485	431.466	-0.105	0.232
-557.471	322.110	0.105	-0.203
-556.456	-69.984	0.092	-0.036
-555.442	32.876	0.101	-0.089
-554.427	677.285	-0.119	0.316
-553.412	398.141	0.100	0.214
-552.398	-34.342	-0.185	0.104
-551.383	-173.181	-0.512	-0.016
-550.369	-74.930	-0.128	0.047
-549.354	-90.679	0.287	-0.084
-548.339	114.156	-0.252	-0.312
-547.325	-146.356	-0.238	0.021
-546.310	46.240	-0.049	0.046
-545.296	165.100	-0.089	0.128
-544.281	25.887	-0.081	-0.069
-543.266	-137.223	-0.071	0.008
-542.252	124.030	0.164	0.209
-541.237	-2.558	0.262	-0.187
-540.223	-200.000	0.021	-0.161
-539.208	-200.000	-0.004	-0.369
-538.193	-79.073	0.180	0.062
-537.179	687.428	-0.142	0.379
-536.164	-128.973	0.044	-0.006
-535.150	-67.919	-0.070	0.028
-534.135	-200.000	0.031	0.263
-533.121	-200.000	-0.001	0.006
-532.106	25.968	-0.219	0.186
-531.091	-146.302	-0.275	0.024
-530.077	77.447	0.091	-0.099
-529.062	-200.000	-0.004	-0.149
-528.048	-1.267	-0.136	-0.098
-527.033	667.767	-0.004	-0.011
-526.018	23.622	-0.350	-0.293
-525.004	-83.566	0.336	-0.109
-523.989	30.793	0.072	0.062
-522.975	316.276	-0.171	-0.329
-521.960	-55.458	0.150	-0.068
-520.945	-27.424	-0.138	-0.082
-519.931	550.826	0.069	0.169
-518.916	800.000	-0.048	0.185
-517.902	-164.604	-0.378	-0.017
-516.887	-189.638	-0.162	-0.002
-515.872	-43.831	0.151	0.077
-514.858	-116.894	-0.217	-0.040
-513.843	-144.940	-0.136	-0.013
-512.829	-16.456	-0.079	-0.051
-511.814	521.817	0.027	0.065
-510.799	26.023	-0.262	-0.222
-509.785	215.144	-0.046	0.073
-508.770	40.635	0.213	0.195
-507.756	800.000	0.033	-0.108
-506.741	-73.802	0.151	-0.056
-505.726	-133.274	0.263	-0.034
-504.712	800.000	-0.051	-0.225
-503.697	583.619	0.011	-0.028
-502.683	-95.029	0.202	0.055
-501.668	-85.787	-0.464	0.146
-500.653	243.401	-0.130	0.221
-499.639	34.195	0.181	-0.161
-498.624	-43.221	-0.239	-0.123
-497.610	-65.429	-0.217	-0.088
-496.595	304.068	0.184	-0.347
-495.581	-200.000	-0.041	0.208
-494.566	54.119	-0.134	0.131
-493.551	4.155	0.114	-0.085
-492.537	58.533	0.087	-0.087
-491.522	-86.456	0.549	-0.171
-490.508	67.530	0.067	0.069
-489.493	800.000	-0.064	-0.191
-488.478	-14.525	0.117	-0.077
-487.464	-94.371	0.210	0.058
-486.449	22.405	0.421	0.349
-485.435	-22.134	-0.129	-0.080
-484.420	37.028	0.129	0.116
-483.405	-15.204	-0.072	0.046
-482.391	-200.000	-0.011	-0.302
-481.376	187.290	-0.076	0.116
-480.362	-76.094	0.218	-0.078
-479.347	304.224	0.054	0.101
-478.332	91.775	-0.256	-0.293
-477.318	-200.000	0.021	-0.261
-476.303	93.098	-0.146	-0.167
-475.289	-174.515	-0.105	0.003
-474.274	421.258	-0.063	-0.137
-473.259	118.716	-0.164	-0.206
-472.245	-26.196	-0.157	0.093
-471.230	-200.000	0.024	0.129
-470.216	-200.000	-0.034	-0.238
-469.201	528.913	0.045	0.109
-468.186	126.124	0.084	-0.108
-467.172	159.999	-0.198	-0.279
-466.157	-8.317	-0.111	0.076
-465.143	800.000	-0.072	0.269
-464.128	-108.419	-0.105	-0.023
-463.113	-200.000	-0.008	0.061
-462.099	-200.000	0.033	0.380
-461.084	-101.514	0.256	-0.063
-460.070	-200.000	-0.001	0.180
-459.055	-119.212	-0.197	0.035
-458.040	250.198	-0.093	0.160
-457.026	149.194	0.116	-0.160
-456.011	-80.288	0.158	-0.054
-454.997	-100.812	-0.297	0.074
-453.982	123.439	-0.139	-0.177
-452.968	16.819	0.247	-0.198
-451.953	25.605	-0.193	0.163
-450.938	-200.000	0.011	-0.188
-449.924	-162.774	-0.185	-0.009
-448.909	-118.872	-0.158	-0.028
-447.895	5.625	0.210	-0.158
-446.880	-200.000	0.046	0.302
-445.865	95.276	0.155	0.179
-444.851	-129.804	-0.073	-0.010
-443.836	87.094	0.040	0.045
-442.822	-200.000	0.026	0.195
-441.807	23.605	0.241	0.201
-440.792	-136.542	0.361	0.042
-439.778	380.423	-0.071	0.147
-438.763	-164.702	0.339	-0.015
-437.749	-200.000	-0.004	-0.065
-436.734	-61.360	-0.048	-0.020
-435.719	-18.252	-0.083	-0.053
-434.705	79.421	-0.170	-0.185
-433.690	-21.789	0.145	-0.090
-432.676	800.000	-0.029	-0.096
-431.661	800.000	-0.122	0.498
-430.646	606.309	-0.055	0.140
-429.632	39.839	-0.129	0.117
-428.617	664.075	-0.090	0.236
-427.603	23.435	-0.069	0.057
-426.588	5.217	-0.249	0.186
-425.573	-45.767	-0.167	0.084
-424.559	-200.000	-0.014	0.255
-423.544	-200.000	0.026	-0.142
-422.530	800.000	0.031	0.101
-421.515	-74.110	0.231	-0.085
-420.500	35.607	-0.301	-0.268
-419.486	219.494	-0.088	-0.143
-418.471	60.521	0.079	0.079
-417.457	15.073	0.311	-0.247
-416.442	800.000	-0.054	-0.196
-415.428	447.352	-0.139	-0.309
-414.413	-200.000	0.024	0.220
-413.398	4.768	-0.198	0.147
-412.384	800.000	0.124	-0.420
-411.369	-64.220	0.117	0.048
-410.355	-200.000	0.000	-0.122
-409.340	-200.000	0.014	-0.109
-408.325	-36.354	0.081	-0.044
-407.311	-14.130	0.123	-0.081
-406.296	36.773	-0.059	-0.053
-405.282	141.910	-0.083	0.111
-404.267	138.215	-0.291	-0.386
-403.252	-200.000	0.006	0.072
-402.238	-200.000	0.077	-0.477
-401.223	793.880	0.076	0.210
-400.209	90.320	0.247	0.280
-399.194	-146.619	-0.266	-0.023
-398.179	800.000	-0.075	0.218
-397.165	163.916	0.231	-0.330
-396.150	-13.890	-0.214	0.140
-395.136	-35.427	-0.153	-0.084
-394.121	29.814	0.141	-0.122
-393.106	-108.162	-0.124	-0.027
-392.092	-200.000	-0.015	-0.225
-391.077	8.855	-0.109	0.083
-390.063	207.071	0.008	-0.013
-389.048	-130.701	0.205	-0.028
-388.033	51.586	0.285	0.275
-387.019	288.087	0.092	-0.169
-386.004	-2.349	0.239	0.170
-384.990	-130.956	-0.206	0.028
-383.975	-200.000	0.002	0.010
-382.960	-125.729	0.243	-0.037
-381.946	-200.000	-0.074	0.328
-380.931	-22.548	0.268	0.164
-379.917	21.011	0.120	-0.098
-378.902	669.263	0.118	-0.309
-377.888	447.149	-0.085	-0.190
-376.873	-173.665	-0.077	-0.002
-375.858	99.154	-0.291	-0.340
-374.844	247.204	-0.201	-0.343
-373.829	-121.368	-0.128	0.022
-372.815	-175.350	0.183	0.005
-371.800	578.722	0.025	0.063
-370.785	-200.000	0.010	-0.057
-369.771	800.000	0.129	0.468
-368.756	265.378	0.106	-0.188
-367.742	180.346	0.059	-0.087
-366.727	98.896	0.126	-0.147
-365.712	82.633	0.083	0.091
-364.698	-99.153	-0.144	-0.037
-363.683	-129.250	-0.146	0.021
-362.669	-9.807	0.356	-0.240
-361.654	312.549	0.092	0.174
-360.639	103.647	-0.078	0.093
-359.625	-200.000	0.008	0.036
-358.610	-147.880	0.305	0.026
-357.596	800.000	0.033	0.122
-356.581	522.302	0.057	0.136
-355.566	34.699	0.074	-0.065
-354.552	68.335	0.200	0.207
-353.537	19.188	0.182	-0.148
-352.523	7.948	-0.005	0.003
-351.508	-104.202	0.101	0.024
-350.493	-200.000	0.012	0.393
-349.479	800.000	-0.005	0.016
-348.464	800.000	-0.008	-0.032
-347.450	-99.940	-0.108	0.027
-346.435	-15.262	0.133	0.086
-345.420	-93.640	0.329	0.092
-344.406	-150.888	-0.234	-0.018
-343.391	-200.000	0.020	-0.147
-342.377	-108.284	0.228	0.050
-341.362	73.219	-0.101	-0.106
-340.348	187.382	0.105	-0.158
-339.333	-29.533	0.185	0.107
-338.318	-49.264	0.130	0.063
-337.304	-57.415	0.125	-0.055
-336.289	-0.374	0.146	-0.105
-335.275	-200.000	-0.006	0.207
-334.260	800.000	-0.056	-0.157
-333.245	800.000	0.070	-0.254
-332.231	-200.000	0.049	0.233
-331.216	591.113	0.102	0.254
-330.202	79.811	-0.085	0.092
-329.187	-57.550	0.085	-0.038
-328.172	-167.349	0.214	-0.009
-327.158	-107.535	-0.171	-0.038
-326.143	-66.183	0.285	0.115
-325.129	-41.470	0.241	0.125
-324.114	-117.284	-0.347	-0.064
-323.099	-136.640	-0.154	0.018
-322.085	-23.422	-0.127	0.077
-321.070	114.466	0.041	0.050
-320.056	143.489	0.150	0.202
-319.041	-138.936	-0.109	-0.012
-318.026	203.325	-0.086	-0.135
-317.012	-65.181	-0.346	-0.141
-315.997	-200.000	0.019	0.102
-314.983	443.780	-0.070	-0.156
-313.968	21.934	0.116	0.096
-312.953	123.547	0.341	0.431
-311.939	6.451	-0.003	0.002
-310.924	618.747	-0.064	0.162
-309.910	101.143	-0.150	0.176
-308.895	-55.703	-0.120	-0.054
-307.880	-137.022	0.250	-0.029
-306.866	-167.384	0.064	-0.003
-305.851	20.864	-0.024	-0.020
-304.837	-200.000	0.036	0.212
-303.822	25.151	-0.118	-0.099
-302.807	248.831	0.178	-0.304
-301.793	133.932	-0.226	0.295
-300.778	48.724	0.323	0.305
-299.764	-200.000	-0.021	-0.156
-298.749	-200.000	-0.025	-0.144
-297.735	-117.011	-0.179	-0.033
-296.720	8.887	-0.194	0.147
-295.705	493.555	-0.072	0.167
-294.691	257.680	0.012	0.021
-293.676	77.912	-0.107	-0.115
-292.662	-88.528	0.219	0.066
-291.647	800.000	-0.065	0.189
-290.632	-36.420	-0.367	0.199
-289.618	800.000	-0.040	-0.157
-288.603	39.357	0.128	-0.116
-287.589	-200.000	-0.059	-0.334
-286.574	359.446	0.077	-0.155
-285.559	35.549	0.185	-0.164
-284.545	-188.672	-0.316	-0.004
-283.530	582.862	0.026	0.063
-282.516	-200.000	0.079	0.395
-281.501	-33.351	0.259	0.144
-280.486	-200.000	0.044	0.219
-279.472	82.355	-0.059	-0.064
-278.457	-160.697	0.165	0.009
-277.443	-88.534	0.030	-0.009
-276.428	-200.000	-0.001	0.127
-275.413	-200.000	-0.000	0.092
-274.399	489.070	0.031	0.071
-273.384	186.698	-0.102	0.153
-272.370	-200.000	0.007	-0.072
-271.355	299.220	-0.223	0.413
-270.340	-77.420	-0.639	-0.224
-269.326	-74.077	-0.185	0.067
-268.311	-140.377	0.352	0.037
-267.297	-200.000	0.019	0.140
-266.282	800.000	0.037	-0.105
-265.267	619.305	0.031	0.078
-264.253	-40.713	0.205	-0.107
-263.238	-154.707	-0.293	0.020
-262.224	276.638	-0.099	-0.178
-261.209	-200.000	0.081	0.387
-260.195	664.828	-0.091	0.236
-259.180	-200.000	-0.011	0.062
-258.165	-21.580	-0.138	-0.085
-257.151	-60.750	0.182	-0.078
-256.136	-60.792	0.231	0.099
-255.122	-200.000	0.010	0.183
-254.107	-61.296	0.144	-0.061
-253.092	-94.011	0.313	0.086
-252.078	-74.513	-0.153	-0.056
-251.063	57.956	0.234	0.231
-250.049	215.532	-0.176	0.282
-249.034	800.000	-0.061	0.182
-248.019	113.499	0.131	0.161
-247.005	-107.839	0.148	0.033
-245.990	135.293	0.035	0.045
-244.976	576.115	0.043	0.105
-243.961	800.000	-0.048	0.172
-242.946	-70.813	0.212	0.081
-241.932	54.022	-0.217	0.210
-240.917	-59.425	0.210	0.091
-239.903	-67.251	0.247	0.098
-238.888	-200.000	-0.006	0.071
-237.873	800.000	-0.093	0.271
-236.859	-137.361	0.221	-0.025
-235.844	606.719	-0.083	-0.209
-234.830	800.000	-0.096	-0.368
-233.815	-168.829	-0.178	-0.007
-232.800	800.000	0.087	-0.322
-231.786	-121.500	0.279	0.047
-230.771	-56.452	-0.352	0.157
-229.757	-133.755	-0.203	-0.025
-228.742	153.307	0.139	-0.191
-227.727	800.000	0.111	-0.415
-226.713	-162.103	-0.174	0.009
-225.698	800.000	-0.045	0.153
-224.684	-200.000	0.042	0.345
-223.669	-84.283	0.199	-0.063
-222.655	800.000	0.012	0.045
-221.640	-74.606	-0.080	-0.029
-220.625	151.046	-0.140	-0.192
-219.611	78.076	-0.043	-0.047
-218.596	-116.953	-0.485	-0.089
-217.582	-85.749	0.244	0.076
-216.567	-152.623	-0.198	-0.014
-215.552	-96.333	0.042	0.011
-214.538	800.000	0.078	-0.246
-213.523	-139.464	-0.200	-0.022
-212.509	-26.465	-0.314	-0.185
-211.494	-200.000	-0.010	-0.305
-210.479	-120.478	-0.097	0.016
-209.465	-184.569	-0.269	-0.004
-208.450	-70.963	0.246	-0.093
-207.436	118.406	-0.146	-0.181
-206.421	-200.000	-0.008	0.226
-205.406	-10.000	0.313	-0.209
-204.392	800.000	-0.010	0.041
-203.377	-72.353	0.227	-0.084
-202.363	18.789	0.190	0.152
-201.348	30.192	0.188	-0.162
-200.333	-126.019	0.319	0.048
-199.319	800.000	-0.059	0.169
-198.304	-54.080	-0.343	0.157
-197.290	800.000	0.031	0.115
-196.275	55.875	-0.088	0.086
-195.260	-52.043	-0.198	-0.092
-194.246	-129.023	0.282	-0.040
-193.231	534.988	-0.061	-0.146
-192.217	800.000	-0.009	-0.032
-191.202	87.212	-0.100	-0.111
-190.187	530.919	0.083	-0.198
-189.173	-86.551	-0.144	0.044
-188.158	-97.004	-0.277	0.073
-187.144	-200.000	0.029	-0.224
-186.129	-117.460	0.285	-0.052
-185.114	-181.606	-0.377	-0.007
-184.100	-200.000	0.025	-0.232
-183.085	-14.114	0.094	0.061
-182.071	-81.617	0.178	-0.059
-181.056	800.000	-0.107	0.394
-180.042	-200.000	-0.001	-0.070
-179.027	-200.000	-0.011	-0.184
-178.012	56.618	0.096	0.093
-176.998	267.109	0.043	0.075
-175.983	-161.634	-0.211	0.011
-174.969	87.699	0.178	0.198
-173.954	-78.413	-0.301	-0.103
-172.939	772.147	-0.047	0.129
-171.925	-43.043	0.379	0.193
-170.910	800.000	0.098	-0.304
-169.896	-100.116	0.085	0.021
-168.881	188.322	0.148	0.222
-167.866	134.718	-0.201	0.262
-166.852	-154.755	-0.104	0.007
-165.837	-200.000	-0.021	-0.163
-164.823	102.391	0.125	-0.147
-163.808	-69.428	-0.204	0.078
-162.793	61.070	-0.202	-0.202
-161.779	-128.434	-0.406	0.058
-160.764	21.175	-0.162	0.132
-159.750	-164.521	-0.150	0.007
-158.735	5.129	0.132	-0.097
-157.720	-200.000	0.016	0.079
-156.706	-14.551	-0.096	-0.062
-155.691	-101.803	0.160	0.039
-154.677	190.584	0.105	0.158
-153.662	-200.000	0.006	-0.385
-152.647	454.910	-0.105	-0.233
-151.633	-5.665	-0.262	-0.180
-150.618	-200.000	0.011	-0.203
-149.604	-142.320	0.203	0.020
-148.589	21.330	-0.140	0.114
-147.574	-140.198	-0.303	-0.032
-146.560	26.230	0.079	0.066
-145.545	-117.837	-0.156	-0.028
-144.531	116.566	0.214	-0.264
-143.516	-101.525	-0.076	0.018
-142.502	73.411	0.142	-0.148
-141.487	306.280	-0.006	0.010
-140.472	800.000	0.147	-0.452
-139.458	800.000	0.051	-0.224
-138.443	-88.971	0.052	0.015
-137.429	77.369	0.126	0.134
-136.414	-65.476	0.317	-0.128
-135.399	-200.000	0.009	-0.141
-134.385	138.463	0.184	0.242
-133.370	-200.000	0.035	0.443
-132.356	800.000	-0.036	-0.144
-131.341	135.979	0.261	0.341
-130.326	-200.000	0.026	-0.380
-129.312	-200.000	0.035	0.172
-128.297	38.537	-0.386	0.344
-127.283	-200.000	0.004	0.121
-126.268	-200.000	-0.016	-0.146
-125.253	375.727	-0.099	-0.202
-124.239	-132.316	0.122	-0.016
-123.224	-73.238	-0.288	0.105
-122.210	161.875	0.127	0.178
-121.195	-50.955	0.246	-0.116
