DTS Sentinel unit serial number:	SN413079Multiplexer serial number:	ORYXHardware model number:	OX4-SRSoftware version number:	ORYX F/W v4.00 Oryx Data Collector v3.7.2.0data status	okinstallation	princeton_trtdifferential loss correction	single-endedforward channel	channel 3reverse channel	N/Adate	2019/09/12time	19:14:04forward acquisition time	15.00reverse acquisition time	0.00gamma	496.2192k internal	0.2320k external	0.2320temperature offset calibration	1.0099default loss term (dB/km)	0.3790temperature slope calibration	1.0000multiplexer offset coefficient	1.0000multiplexer slope coefficient	1.0000fibre end	0.00T internal ref (°C)	32.56T ext. ref 1 (°C)	3.23T ext. ref 2 (°C)	27.10length (m)	temperature (°C)	Stokes	anti-Stokes-747.200	-46.495	0.111	0.055
-746.185	47.762	-0.586	0.553
-745.171	-119.218	-0.456	-0.080
-744.156	-159.562	0.588	0.033
-743.142	67.036	-0.636	0.655
-742.127	-200.000	0.112	-0.701
-741.112	30.778	-0.302	0.261
-740.098	-61.705	-0.160	0.068
-739.083	-17.213	0.875	0.558
-738.069	-13.978	0.825	0.539
-737.054	-47.285	-0.810	0.399
-736.039	174.253	0.281	0.411
-735.025	800.000	-0.168	0.599
-734.010	22.630	0.749	-0.619
-732.996	-200.000	-0.167	-1.061
-731.981	-153.891	-0.694	-0.048
-730.966	22.681	0.634	0.525
-729.952	800.000	-0.141	-0.410
-728.937	-82.181	0.148	0.049
-727.923	393.910	-0.285	0.599
-726.908	31.971	-0.233	-0.203
-725.894	800.000	0.049	-0.190
-724.879	768.867	-0.083	-0.229
-723.864	85.595	0.467	0.518
-722.850	-31.689	-0.077	-0.043
-721.835	371.790	0.133	0.273
-720.821	165.746	-0.341	-0.488
-719.806	-111.585	0.717	0.147
-718.791	-200.000	-0.009	0.209
-717.777	754.893	-0.128	-0.349
-716.762	29.296	-0.073	-0.062
-715.748	42.843	0.479	-0.441
-714.733	-200.000	-0.022	0.126
-713.718	27.807	0.129	0.109
-712.704	-200.000	-0.258	1.151
-711.689	800.000	-0.219	-0.742
-710.675	-164.666	-0.563	0.026
-709.660	-84.052	-0.469	-0.150
-708.645	-200.000	0.139	-0.720
-707.631	-113.794	-0.305	-0.060
-706.616	-60.242	0.603	0.260
-705.602	88.975	-0.234	0.263
-704.587	-200.000	0.113	-0.597
-703.572	-45.716	-0.525	-0.262
-702.558	66.191	0.621	0.636
-701.543	-136.621	0.444	-0.052
-700.529	800.000	0.316	0.982
-699.514	520.397	-0.366	0.867
-698.499	108.435	-0.167	0.201
-697.485	-98.446	0.362	-0.094
-696.470	-200.000	-0.110	1.125
-695.456	353.635	0.547	1.097
-694.441	360.751	0.199	0.401
-693.426	800.000	0.173	-0.683
-692.412	55.663	-0.365	-0.357
-691.397	800.000	-0.082	0.258
-690.383	51.551	-0.440	0.422
-689.368	-85.281	-0.212	0.067
-688.354	-130.878	0.475	0.064
-687.339	-167.444	-0.684	-0.028
-686.324	-62.452	0.858	-0.360
-685.310	2.701	-0.486	-0.356
-684.295	-1.819	-0.486	0.345
-683.281	-156.170	0.876	-0.056
-682.266	236.070	-0.268	0.447
-681.251	-200.000	0.068	0.510
-680.237	-174.193	-0.577	-0.017
-679.222	-117.703	-0.157	0.029
-678.208	-140.898	0.258	-0.027
-677.193	210.283	0.311	0.492
-676.178	119.133	-0.231	0.288
-675.164	-16.284	0.606	-0.388
-674.149	163.746	-0.527	-0.748
-673.135	-16.925	-0.458	-0.292
-672.120	382.562	-0.220	0.457
-671.105	800.000	-0.055	0.199
-670.091	800.000	0.092	0.335
-669.076	1.596	-0.621	-0.451
-668.062	77.924	0.209	-0.225
-667.047	-146.412	0.497	0.044
-666.032	614.020	-0.079	0.201
-665.018	-161.356	-0.743	0.039
-664.003	-56.258	-0.923	-0.414
-662.989	31.799	-0.206	-0.179
-661.974	354.137	-0.259	0.518
-660.959	-140.873	-0.337	0.035
-659.945	170.929	0.472	-0.682
-658.930	-46.494	1.011	-0.500
-657.916	125.329	-0.354	0.450
-656.901	136.933	-0.604	0.795
-655.886	800.000	0.082	0.264
-654.872	-28.326	0.360	0.210
-653.857	-200.000	-0.097	-0.779
-652.843	41.161	0.356	-0.324
-651.828	800.000	-0.177	0.546
-650.814	113.493	-0.265	-0.324
-649.799	306.127	0.164	0.307
-648.784	-200.000	0.084	0.528
-647.770	-119.452	-0.465	0.081
-646.755	193.760	-0.278	0.424
-645.741	-105.752	-0.544	-0.124
-644.726	313.736	-0.121	0.230
-643.711	212.945	0.345	-0.548
-642.697	-111.251	0.461	0.095
-641.682	-79.560	-0.844	0.287
-640.668	-45.344	-0.838	0.419
-639.653	-200.000	-0.017	0.804
-638.638	-94.115	0.730	-0.202
-637.624	387.269	-0.281	-0.585
-636.609	-200.000	0.066	-1.146
-635.595	-85.101	-0.699	-0.221
-634.580	-65.408	0.537	0.217
-633.565	313.052	0.093	0.177
-632.551	-38.477	-0.479	-0.255
-631.536	266.172	0.443	-0.778
-630.522	39.751	0.324	0.293
-629.507	260.511	0.215	-0.375
-628.492	-63.335	-0.192	0.080
-627.478	234.556	-0.407	0.675
-626.463	-31.393	-0.685	-0.388
-625.449	800.000	0.134	-0.476
-624.434	378.872	-0.119	-0.245
-623.419	800.000	0.093	-0.361
-622.405	59.555	-0.711	0.705
-621.390	-147.123	0.573	0.049
-620.376	-200.000	-0.005	0.719
-619.361	-200.000	0.012	-0.378
-618.346	106.798	0.537	-0.642
-617.332	42.582	-0.565	0.517
-616.317	243.078	-0.528	0.890
-615.303	-200.000	0.090	-0.447
-614.288	199.544	-0.410	-0.632
-613.273	800.000	-0.159	-0.578
-612.259	-26.817	-0.433	0.255
-611.244	-200.000	0.087	-0.670
-610.230	-200.000	0.126	0.578
-609.215	-200.000	0.006	0.207
-608.201	378.042	-0.394	-0.811
-607.186	-46.881	0.314	0.154
-606.171	273.523	-0.503	-0.894
-605.157	-143.145	0.249	0.024
-604.142	81.806	-0.247	-0.269
-603.128	75.805	-0.147	-0.156
-602.113	-30.491	0.240	-0.137
-601.098	239.930	-0.301	-0.505
-600.084	-200.000	-0.018	0.204
-599.069	-131.763	-0.171	-0.023
-598.055	-66.808	-0.101	-0.040
-597.040	-45.916	-0.258	-0.128
-596.025	-200.000	0.103	-0.677
-595.011	-200.000	0.024	0.314
-593.996	800.000	0.140	-0.432
-592.982	8.396	-0.674	-0.510
-591.967	247.030	0.121	0.205
-590.952	-78.624	0.438	0.151
-589.938	605.422	-0.311	0.778
-588.923	-14.667	0.496	0.320
-587.909	-200.000	-0.019	-0.726
-586.894	-132.158	0.487	-0.064
-585.879	-200.000	0.017	-0.305
-584.865	-0.244	-0.615	-0.440
-583.850	135.278	0.459	-0.599
-582.836	277.466	0.061	-0.110
-581.821	-200.000	0.077	1.155
-580.806	130.941	-0.438	-0.565
-579.792	-33.857	-0.283	-0.157
-578.777	64.257	-0.242	-0.244
-577.763	800.000	0.175	-0.540
-576.748	-109.478	1.140	0.242
-575.733	-117.653	-1.080	0.196
-574.719	-48.736	-0.789	0.380
-573.704	800.000	-0.078	0.218
-572.690	-81.716	-0.131	-0.043
-571.675	-119.282	-0.342	0.060
-570.661	-60.922	0.705	0.300
-569.646	329.585	0.431	0.832
-568.631	170.386	-0.363	0.522
-567.617	-134.578	-0.585	0.072
-566.602	-200.000	0.146	-0.788
-565.588	40.368	0.063	-0.057
-564.573	75.191	0.232	0.246
-563.558	-7.011	-0.416	0.283
-562.544	49.207	-0.269	-0.254
-561.529	411.483	0.334	0.712
-560.515	-50.723	-0.347	-0.164
-559.500	390.115	-0.426	-0.887
-558.485	405.978	0.311	0.660
-557.471	159.628	0.323	0.451
-556.456	-171.721	-0.509	0.017
-555.442	171.716	-0.524	0.756
-554.427	607.923	-0.174	0.436
-553.412	-6.489	-0.557	-0.381
-552.398	26.133	-0.510	-0.427
-551.383	621.750	0.192	-0.486
-550.369	-114.216	-0.521	0.101
-549.354	-98.879	-0.782	-0.200
-548.339	26.842	-0.391	-0.329
-547.325	48.512	0.545	-0.513
-546.310	131.382	-0.155	-0.199
-545.296	-200.000	-0.033	0.193
-544.281	195.880	-0.085	-0.130
-543.266	288.827	0.472	-0.859
-542.252	-200.000	-0.046	0.485
-541.237	-200.000	0.040	-0.408
-540.223	800.000	0.076	0.216
-539.208	224.165	0.669	1.085
-538.193	800.000	0.255	-1.018
-537.179	-124.503	-0.231	-0.036
-536.164	-4.157	0.206	-0.143
-535.150	-99.971	-0.436	-0.109
-534.135	-150.200	0.126	-0.010
-533.121	136.607	-0.506	-0.663
-532.106	-110.789	-0.161	0.033
-531.091	241.154	-0.116	-0.195
-530.077	-47.411	-0.393	0.192
-529.062	36.386	0.850	-0.751
-528.048	-187.875	-0.468	0.006
-527.033	-166.123	0.349	-0.015
-526.018	-182.008	0.451	0.009
-525.004	544.473	-0.274	0.656
-523.989	-140.996	-0.610	-0.063
-522.975	-18.134	0.568	0.357
-521.960	-77.488	-0.673	-0.234
-520.945	-157.798	-0.315	0.019
-519.931	235.100	0.391	0.648
-518.916	42.208	0.396	-0.361
-517.902	-93.744	-1.072	-0.296
-516.887	-118.609	-0.294	0.052
-515.872	-86.667	-0.962	-0.295
-514.858	-81.294	0.418	0.138
-513.843	-8.014	-0.161	0.109
-512.829	-54.005	0.468	0.213
-511.814	800.000	0.105	-0.328
-510.799	-40.737	0.700	0.364
-509.785	114.004	0.338	-0.412
-508.770	800.000	0.228	0.762
-507.756	-33.200	0.286	-0.159
-506.741	45.988	-0.818	-0.758
-505.726	-12.405	-0.657	0.430
-504.712	777.811	-0.326	-0.891
-503.697	-21.517	-0.647	-0.395
-502.683	-93.930	0.277	-0.076
-501.668	355.231	0.292	-0.582
-500.653	-81.623	0.738	0.243
-499.639	-39.768	-0.303	-0.159
-498.624	788.840	-0.280	0.770
-497.610	275.392	-0.074	-0.132
-496.595	-200.000	-0.002	0.279
-495.581	-104.877	-0.166	-0.038
-494.566	-106.605	0.662	0.148
-493.551	800.000	-0.266	0.882
-492.537	-200.000	-0.137	-0.660
-491.522	471.446	0.112	-0.252
-490.508	-100.917	0.626	-0.154
-489.493	-32.220	-0.250	0.140
-488.478	-7.808	-0.157	-0.106
-487.464	608.186	-0.182	-0.455
-486.449	-15.438	0.904	-0.578
-485.435	10.129	-0.915	0.696
-484.420	478.626	0.400	-0.907
-483.405	53.050	0.264	0.253
-482.391	2.291	-0.148	0.107
-481.376	21.946	-0.387	-0.316
-480.362	183.120	-0.197	0.291
-479.347	137.991	-0.512	0.672
-478.332	352.607	0.326	0.647
-477.318	800.000	0.123	-0.369
-476.303	-59.844	0.414	-0.177
-475.289	368.968	-0.411	0.832
-474.274	-21.385	0.406	-0.248
-473.259	-83.696	0.745	-0.238
-472.245	-70.181	-0.480	0.183
-471.230	-200.000	0.001	0.831
-470.216	325.210	-0.177	-0.338
-469.201	-49.591	0.395	0.188
-468.186	-12.643	0.345	-0.225
-467.172	-44.282	0.320	-0.161
-466.157	2.999	-0.495	-0.360
-465.143	-108.697	-0.230	0.049
-464.128	-82.946	0.143	0.046
-463.113	1.336	-0.625	-0.450
-462.099	-73.827	-0.279	-0.101
-461.084	-151.161	-0.116	0.009
-460.070	-90.735	0.594	0.171
-459.055	-194.109	0.607	0.005
-458.040	317.287	0.066	0.125
-457.026	-143.049	-0.702	0.068
-456.011	-20.098	-0.564	-0.347
-454.997	-85.929	0.187	-0.058
-453.982	160.725	-0.313	0.437
-452.968	-166.417	0.278	0.012
-451.953	-162.603	-0.790	0.039
-450.938	-200.000	-0.015	0.752
-449.924	-60.147	1.171	-0.499
-448.909	89.563	-0.183	0.205
-447.895	-200.000	0.082	0.898
-446.880	-200.000	-0.011	0.309
-445.865	279.285	-0.385	0.688
-444.851	-14.252	-0.123	0.079
-443.836	-170.711	-0.089	-0.003
-442.822	-91.538	0.256	0.073
-441.807	-146.071	-0.268	0.024
-440.792	-42.354	0.339	-0.173
-439.778	-71.164	-0.389	0.146
-438.763	-145.308	-0.383	0.035
-437.749	63.036	0.469	0.469
-436.734	135.763	0.118	0.153
-435.719	-6.029	-0.522	-0.356
-434.705	-49.930	-0.592	-0.280
-433.690	-86.505	-0.609	-0.187
-432.676	-117.691	0.787	-0.142
-431.661	-200.000	-0.016	-0.551
-430.646	-42.413	1.035	-0.527
-429.632	106.311	-0.261	0.308
-428.617	209.052	-0.085	0.133
-427.603	-36.284	0.490	-0.264
-426.588	30.280	0.693	-0.591
-425.573	-200.000	-0.130	-0.769
-424.559	-200.000	0.039	0.396
-423.544	-200.000	0.001	0.175
-422.530	800.000	-0.068	-0.215
-421.515	-200.000	0.036	0.622
-420.500	-200.000	-0.082	0.438
-419.486	-74.799	1.197	0.429
-418.471	37.682	-0.261	-0.231
-417.457	469.883	-0.141	-0.317
-416.442	-190.672	-0.294	-0.003
-415.428	70.559	0.211	0.218
-414.413	-166.302	0.441	0.019
-413.398	-146.057	0.679	0.060
-412.384	278.134	0.312	-0.555
-411.369	-200.000	-0.009	-0.116
-410.355	800.000	-0.115	-0.357
-409.340	-126.851	0.213	0.031
-408.325	-200.000	-0.006	-0.350
-407.311	-90.588	0.859	0.248
-406.296	-200.000	-0.019	0.589
-405.282	-198.863	0.090	0.000
-404.267	-200.000	-0.099	-0.866
-403.252	800.000	0.233	0.844
-402.238	800.000	0.244	0.688
-401.223	-150.351	0.586	0.045
-400.209	-200.000	-0.125	0.578
-399.194	13.146	-0.111	0.085
-398.179	36.107	0.229	0.201
-397.165	652.339	0.378	-0.967
-396.150	-72.225	0.418	-0.155
-395.136	800.000	0.186	-0.595
-394.121	-78.875	-0.345	0.117
-393.106	-65.434	0.803	-0.322
-392.092	429.429	-0.133	-0.287
-391.077	-48.766	-1.033	0.494
-390.063	-15.538	-0.847	0.540
-389.048	105.138	0.148	-0.174
-388.033	-4.203	-0.582	0.402
-387.019	8.487	0.630	-0.473
-386.004	-106.374	0.354	0.079
-384.990	-27.251	-0.423	0.246
-383.975	340.752	0.108	0.210
-382.960	190.562	-0.564	0.845
-381.946	-200.000	-0.044	-0.250
-380.931	-200.000	0.021	0.706
-379.917	244.503	0.160	-0.268
-378.902	235.456	-0.205	-0.337
-377.888	-176.920	0.154	0.004
-376.873	33.629	-0.485	-0.421
-375.858	25.500	0.457	0.379
-374.844	404.187	0.344	-0.723
-373.829	370.616	-0.308	0.622
-372.815	-200.000	0.068	0.367
-371.800	150.440	0.194	-0.263
-370.785	180.708	0.091	-0.133
-369.771	-35.977	0.674	-0.363
-368.756	-20.822	0.372	-0.227
-367.742	-200.000	0.031	-0.361
-366.727	-36.076	0.022	0.012
-365.712	-200.000	-0.031	0.452
-364.698	-119.083	0.387	0.067
-363.683	-105.089	0.827	-0.188
-362.669	-167.677	-0.379	0.015
-361.654	-200.000	-0.027	-0.674
-360.639	16.405	0.739	-0.581
-359.625	400.692	-0.127	-0.266
-358.610	606.023	-0.374	-0.929
-357.596	-4.517	0.269	0.185
-356.581	-200.000	-0.106	0.576
-355.566	-200.000	0.090	0.556
-354.552	22.529	0.170	-0.139
-353.537	143.069	-0.148	-0.196
-352.523	-59.387	-0.325	0.139
-351.508	105.138	-0.205	-0.241
-350.493	-100.987	-0.642	-0.157
-349.479	-57.678	0.334	-0.146
-348.464	-52.342	0.389	0.179
-347.450	346.834	0.230	0.451
-346.435	-185.766	0.078	0.001
-345.420	-86.883	0.564	0.171
-344.406	229.299	0.168	0.274
-343.391	-139.726	0.493	0.052
-342.377	164.915	-0.625	0.878
-341.362	-63.061	0.649	0.267
-340.348	-138.253	-0.074	-0.008
-339.333	-63.769	0.203	-0.083
-338.318	-200.000	-0.025	-0.664
-337.304	-126.407	0.394	0.058
-336.289	73.083	0.414	-0.431
-335.275	-200.000	-0.011	0.148
-334.260	59.597	-0.223	0.219
-333.245	-151.266	1.181	-0.088
-332.231	184.414	-0.332	0.490
-331.216	-157.654	0.780	0.046
-330.202	-200.000	-0.014	-0.329
-329.187	-107.860	0.991	0.215
-328.172	272.956	-0.311	-0.547
-327.158	-200.000	0.024	0.259
-326.143	752.534	-0.220	0.590
-325.129	186.834	0.314	0.465
-324.114	433.442	-0.492	-1.064
-323.099	-33.212	-0.113	0.062
-322.085	42.625	0.472	-0.428
-321.070	-148.033	-0.388	-0.032
-320.056	-200.000	0.045	-0.555
-319.041	-21.692	-0.539	-0.326
-318.026	800.000	0.172	0.584
-317.012	-18.824	0.184	-0.114
-315.997	134.570	0.398	0.513
-314.983	-170.326	-1.124	0.039
-313.968	800.000	-0.263	-0.737
-312.953	204.987	-0.262	-0.404
-311.939	21.475	0.879	-0.711
-310.924	64.563	0.470	-0.471
-309.910	-200.000	-0.022	-0.321
-308.895	29.719	-0.366	0.310
-307.880	2.139	0.399	-0.286
-306.866	86.227	0.237	-0.259
-305.851	800.000	-0.136	-0.423
-304.837	117.215	0.129	-0.158
-303.822	-65.906	-0.696	0.277
-302.807	-200.000	-0.041	-0.632
-301.793	137.340	0.516	-0.672
-300.778	-200.000	-0.059	-0.727
-299.764	-30.234	0.070	-0.040
-298.749	724.366	-0.149	0.395
-297.735	-46.198	0.136	0.067
-296.720	433.610	-0.612	1.321
-295.705	23.069	0.300	0.244
-294.691	-30.682	0.988	-0.556
-293.676	-80.591	-0.349	-0.116
-292.662	-170.080	0.331	-0.012
-291.647	800.000	0.120	-0.477
-290.632	-200.000	0.024	-0.440
-289.618	800.000	0.126	-0.400
-288.603	800.000	-0.214	-0.921
-287.589	-65.143	-0.454	0.182
-286.574	-37.374	-0.856	0.454
-285.559	-200.000	0.029	0.941
-284.545	-24.740	0.249	0.147
-283.530	-17.546	-0.444	-0.277
-282.516	145.634	0.509	-0.678
-281.501	-21.945	-0.452	0.273
-280.486	-64.113	1.032	-0.418
-279.472	-20.247	0.556	-0.340
-278.457	-200.000	0.017	0.133
-277.443	-11.759	-0.449	0.293
-276.428	240.675	-0.381	0.631
-275.413	-200.000	0.057	0.709
-274.399	800.000	0.156	0.488
-273.384	367.616	0.436	0.875
-272.370	-91.343	0.499	0.142
-271.355	-80.694	0.527	-0.174
-270.340	144.076	-0.200	0.265
-269.326	109.831	-0.199	0.236
-268.311	-124.347	0.544	0.084
-267.297	-200.000	-0.025	-0.337
-266.282	242.860	0.105	0.175
-265.267	-79.418	-0.816	0.274
-264.253	-104.394	0.446	-0.102
-263.238	-121.548	0.140	-0.023
-262.224	327.842	-0.221	0.421
-261.209	19.115	-0.238	-0.190
-260.195	432.788	-0.184	0.396
-259.180	-200.000	0.157	-0.865
-258.165	-81.910	-0.620	0.201
-257.151	-125.066	-0.723	0.110
-256.136	800.000	-0.148	0.469
-255.122	154.285	-0.074	-0.100
-254.107	-200.000	-0.116	0.525
-253.092	-38.954	0.486	-0.254
-252.078	-136.881	-0.560	-0.064
-251.063	-148.322	0.699	0.057
-250.049	55.712	0.356	-0.342
-249.034	800.000	0.148	-0.455
-248.019	207.838	-0.306	-0.474
-247.005	112.714	0.303	-0.364
-245.990	-66.848	0.402	0.158
-244.976	-181.927	-1.301	0.025
-243.961	188.892	0.479	0.711
-242.946	263.918	-0.241	-0.415
-241.932	186.254	0.291	-0.429
-240.917	-186.771	-0.244	-0.003
-239.903	209.645	0.247	0.383
-238.888	65.156	0.204	-0.204
-237.873	10.133	0.683	0.515
-236.859	153.087	0.605	0.820
-235.844	552.421	0.107	-0.255
-234.830	160.067	-0.412	0.570
-233.815	17.569	0.440	-0.347
-232.800	-200.000	-0.236	1.095
-231.786	5.698	-0.170	-0.125
-230.771	-200.000	-0.003	0.287
-229.757	198.965	0.094	0.142
-228.742	101.249	0.150	0.173
-227.727	-61.671	0.423	0.176
-226.713	37.149	0.142	-0.124
-225.698	-102.840	0.199	-0.047
-224.684	-30.846	-0.911	0.510
-223.669	800.000	0.017	0.060
-222.655	-27.915	0.083	-0.048
-221.640	-30.014	-0.665	0.375
-220.625	23.242	-0.200	-0.162
-219.611	245.790	0.182	-0.303
-218.596	242.837	0.268	0.444
-217.582	-200.000	-0.039	-0.551
-216.567	232.503	0.450	0.732
-215.552	240.830	-0.299	-0.493
-214.538	-110.069	0.202	-0.042
-213.523	32.065	-0.508	0.434
-212.509	60.614	0.675	0.662
-211.494	-132.132	0.521	-0.067
-210.479	191.096	0.124	-0.185
-209.465	11.942	-0.701	0.534
-208.450	12.290	0.382	-0.291
-207.436	-131.853	1.039	-0.135
-206.421	-32.309	-0.285	0.158
-205.406	26.828	-0.245	0.203
-204.392	-133.218	0.781	0.098
-203.377	23.088	-0.284	0.231
-202.363	800.000	-0.233	0.653
-201.348	-140.631	-0.657	-0.067
-200.333	-14.928	0.372	-0.236
-199.319	435.919	0.368	0.793
-198.304	-129.181	-0.288	0.040
-197.290	-171.103	0.507	0.017
-196.275	-88.527	-1.041	0.307
-195.260	-142.651	0.449	-0.043
-194.246	428.057	0.179	-0.382
-193.231	800.000	0.108	0.307
-192.217	-200.000	0.017	0.445
-191.202	-88.554	-0.254	0.075
-190.187	662.960	-0.094	0.240
-189.173	-200.000	0.097	0.647
-188.158	189.290	-0.281	-0.416
-187.144	-26.230	1.023	-0.595
-186.129	-200.000	0.032	-0.183
-185.114	-200.000	-0.005	0.670
-184.100	189.179	-0.287	0.426
-183.085	-3.793	-0.456	-0.314
-182.071	-108.902	0.494	0.104
-181.056	43.347	-0.085	-0.077
-180.042	-200.000	-0.009	-0.150
-179.027	-20.974	-1.414	-0.857
-178.012	-74.857	-0.225	0.080
-176.998	-160.127	-0.396	-0.021
-175.983	195.118	-0.049	0.074
-174.969	233.875	0.221	-0.360
-173.954	174.967	0.413	-0.591
-172.939	543.437	0.289	-0.683
-171.925	-22.117	0.311	0.186
-170.910	800.000	0.155	0.668
-169.896	267.908	-0.141	-0.244
-168.881	6.518	-0.613	-0.450
-167.866	222.427	0.122	-0.194
-166.852	93.002	-0.208	0.232
-165.837	-114.999	-0.311	0.058
-164.823	-63.023	0.598	-0.244
-163.808	354.912	-0.447	0.879
-162.793	-200.000	-0.540	-0.001
-161.779	-35.989	-0.445	0.238
-160.764	147.619	0.236	0.314
-159.750	313.087	-0.040	-0.075
-158.735	-200.000	0.032	0.148
-157.720	-70.956	-0.655	0.244
-156.706	-97.380	0.340	0.087
-155.691	38.612	0.260	0.229
-154.677	-200.000	-0.038	0.304
-153.662	515.676	0.187	0.431
-152.647	-166.901	-0.264	-0.011
-151.633	124.017	-0.155	-0.193
-150.618	-24.182	0.138	0.081
-149.604	-200.000	0.012	0.982
-148.589	116.225	-0.454	-0.549
-147.574	3.895	0.328	-0.237
-146.560	-113.665	-0.387	-0.075
-145.545	198.625	0.223	-0.338
-144.531	-79.009	0.796	0.267
-143.516	-53.623	0.486	0.219
-142.502	-200.000	0.101	-1.255
-141.487	-55.778	0.434	0.192
-140.472	166.214	0.060	0.084
-139.458	-200.000	0.136	-1.133
-138.443	800.000	0.046	0.158
-137.429	-187.176	-0.723	-0.010
-136.414	800.000	-0.053	0.225
-135.399	800.000	0.111	0.451
-134.385	288.002	0.281	-0.501
-133.370	-200.000	0.062	-0.334
-132.356	-53.801	-0.370	0.167
-131.341	96.248	0.326	0.368
-130.326	-121.634	0.273	-0.045
-129.312	800.000	-0.171	-0.571
-128.297	79.122	-0.352	-0.373
-127.283	193.092	-0.523	0.781
-126.268	-200.000	0.083	0.637
-125.253	-200.000	0.026	0.121
-124.239	-165.758	0.466	-0.020
-123.224	-97.024	0.745	-0.193
-122.210	149.685	0.378	0.505
-121.195	800.000	-0.085	-0.284
