DTS Sentinel unit serial number:	SN413079Multiplexer serial number:	ORYXHardware model number:	OX4-SRSoftware version number:	ORYX F/W v4.00 Oryx Data Collector v3.7.2.0data status	okinstallation	princeton_trtdifferential loss correction	single-endedforward channel	channel 3reverse channel	N/Adate	2019/09/13time	14:52:34forward acquisition time	60.00reverse acquisition time	0.00gamma	496.2192k internal	0.2298k external	0.2298temperature offset calibration	1.0144default loss term (dB/km)	0.3790temperature slope calibration	1.0000multiplexer offset coefficient	1.0000multiplexer slope coefficient	1.0000fibre end	0.00T internal ref (°C)	35.59T ext. ref 1 (°C)	4.69T ext. ref 2 (°C)	31.82length (m)	temperature (°C)	Stokes	anti-Stokes-747.200	132.319	-0.051	0.067
-746.185	-66.360	-0.240	0.097
-745.171	145.102	-0.054	-0.073
-744.156	-101.039	0.232	0.058
-743.142	-200.000	0.014	0.218
-742.127	-200.000	0.006	0.302
-741.112	-128.552	0.107	-0.015
-740.098	800.000	0.058	0.243
-739.083	-74.948	-0.333	-0.122
-738.069	-200.000	-0.091	0.449
-737.054	-68.175	0.030	0.012
-736.039	-113.843	-0.323	-0.064
-735.025	-60.188	0.332	0.145
-734.010	-61.358	-0.445	0.191
-732.996	-99.851	-0.431	-0.110
-731.981	-47.001	-0.212	-0.106
-730.966	-79.881	-0.196	-0.067
-729.952	-118.570	-0.211	-0.038
-728.937	13.371	-0.122	0.097
-727.923	-26.155	-0.065	0.039
-726.908	-11.894	-0.321	-0.214
-725.894	147.928	-0.133	0.183
-724.879	-89.131	0.108	-0.033
-723.864	-200.000	0.041	-0.421
-722.850	-125.288	-0.251	0.039
-721.835	158.361	0.104	-0.147
-720.821	-88.830	0.316	-0.096
-719.806	-30.027	-0.122	-0.071
-718.791	800.000	-0.076	-0.301
-717.777	-155.581	-0.235	0.015
-716.762	-0.005	0.128	0.093
-715.748	-121.626	-0.281	-0.047
-714.733	-60.946	0.261	-0.113
-713.718	-141.793	-0.234	-0.024
-712.704	478.063	0.143	-0.331
-711.689	-38.468	0.073	-0.039
-710.675	-129.859	0.443	-0.062
-709.660	-81.166	0.174	-0.059
-708.645	383.705	0.074	0.155
-707.631	498.294	-0.048	-0.113
-706.616	-85.677	0.201	0.064
-705.602	552.937	-0.178	-0.437
-704.587	-200.000	0.002	-0.143
-703.572	57.591	0.110	0.109
-702.558	-200.000	-0.022	0.227
-701.543	-133.347	0.183	-0.023
-700.529	800.000	0.023	-0.077
-699.514	-200.000	0.020	0.487
-698.499	42.628	-0.036	-0.033
-697.485	450.769	0.061	-0.137
-696.470	-56.038	0.319	0.145
-695.456	-21.313	-0.218	-0.135
-694.441	644.614	0.131	-0.342
-693.426	66.503	-0.174	-0.180
-692.412	-106.602	0.195	-0.044
-691.397	-28.695	-0.119	0.070
-690.383	-167.789	0.380	-0.015
-689.368	23.498	-0.345	-0.289
-688.354	-200.000	-0.015	0.115
-687.339	364.216	0.044	0.089
-686.324	800.000	-0.084	-0.370
-685.310	55.209	-0.319	-0.315
-684.295	231.022	-0.111	0.184
-683.281	-119.258	-0.170	-0.030
-682.266	176.405	0.193	-0.286
-681.251	-108.291	-0.038	0.008
-680.237	800.000	0.073	-0.227
-679.222	-192.330	-0.202	-0.002
-678.208	-31.585	-0.218	0.125
-677.193	-150.656	0.315	0.024
-676.178	-8.737	-0.149	-0.101
-675.164	362.002	-0.174	-0.356
-674.149	-16.272	0.123	-0.079
-673.135	-128.594	-0.143	0.021
-672.120	76.552	-0.252	-0.272
-671.105	-67.147	0.052	-0.021
-670.091	-8.648	0.172	-0.117
-669.076	-69.429	-0.292	0.114
-668.062	45.032	-0.193	-0.181
-667.047	82.872	0.126	-0.139
-666.032	-111.004	-0.399	-0.083
-665.018	-133.276	0.300	-0.039
-664.003	-92.626	-0.272	0.078
-662.989	-22.621	-0.215	0.132
-661.974	-103.380	-0.152	0.036
-660.959	-20.240	0.058	0.036
-659.945	11.903	0.164	0.128
-658.930	-60.456	0.331	-0.143
-657.916	-104.308	0.142	-0.034
-656.901	-11.843	0.185	-0.123
-655.886	-114.396	-0.261	-0.051
-654.872	-107.125	-0.252	-0.057
-653.857	-28.879	-0.210	0.123
-652.843	800.000	-0.101	0.435
-651.828	539.791	0.103	0.248
-650.814	-200.000	0.005	-0.330
-649.799	24.384	-0.035	-0.029
-648.784	-65.326	-0.286	0.117
-647.770	-98.382	-0.177	-0.046
-646.755	800.000	0.070	-0.255
-645.741	218.612	0.160	-0.261
-644.726	27.323	-0.170	0.146
-643.711	-200.000	0.024	-0.248
-642.697	446.551	-0.089	0.199
-641.682	-169.269	0.213	-0.008
-640.668	160.813	0.133	-0.189
-639.653	-200.000	0.015	0.069
-638.638	800.000	-0.067	-0.249
-637.624	-200.000	-0.016	0.158
-636.609	-200.000	-0.043	-0.244
-635.595	-36.953	0.094	-0.051
-634.580	800.000	0.069	0.199
-633.565	-200.000	-0.059	0.280
-632.551	-84.647	-0.058	0.019
-631.536	-136.250	-0.146	0.017
-630.522	800.000	0.064	-0.274
-629.507	-200.000	-0.065	-0.392
-628.492	-200.000	-0.011	0.059
-627.478	800.000	0.132	0.582
-626.463	-77.606	-0.410	0.144
-625.449	229.865	0.183	-0.304
-624.434	800.000	0.026	-0.078
-623.419	-66.771	-0.267	0.107
-622.405	-83.379	-0.264	0.086
-621.390	10.874	0.026	-0.020
-620.376	-11.858	0.210	-0.140
-619.361	651.760	0.036	0.094
-618.346	-200.000	0.005	0.148
-617.332	219.077	-0.199	-0.323
-616.317	-63.818	0.146	-0.061
-615.303	-200.000	0.008	0.231
-614.288	61.826	-0.126	-0.127
-613.273	-46.672	-0.136	-0.068
-612.259	-74.408	-0.252	0.092
-611.244	-50.789	0.294	0.140
-610.230	-13.201	0.216	0.142
-609.215	430.522	-0.146	0.322
-608.201	-82.807	-0.224	0.074
-607.186	-92.001	-0.300	0.086
-606.171	186.787	0.011	-0.016
-605.157	129.632	0.304	0.395
-604.142	800.000	-0.066	-0.202
-603.128	-94.583	-0.205	-0.057
-602.113	-67.473	-0.267	0.106
-601.098	-40.755	-0.201	0.105
-600.084	18.996	0.148	0.120
-599.069	-99.691	-0.059	-0.015
-598.055	88.398	-0.190	0.214
-597.040	219.288	0.058	-0.094
-596.025	691.857	0.043	0.115
-595.011	-200.000	-0.003	0.305
-593.996	-85.319	0.356	-0.113
-592.982	778.424	-0.020	0.057
-591.967	5.062	0.125	0.093
-590.952	33.842	-0.082	-0.072
-589.938	-3.956	-0.154	0.108
-588.923	9.698	-0.273	-0.210
-587.909	-104.051	-0.048	-0.011
-586.894	79.414	-0.193	0.210
-585.879	-160.351	-0.157	0.009
-584.865	45.361	0.096	0.090
-583.850	23.174	0.085	0.071
-582.836	-143.901	-0.275	0.026
-581.821	2.109	0.049	-0.036
-580.806	-45.309	0.091	-0.046
-579.792	-53.900	-0.335	0.155
-578.777	800.000	0.120	0.460
-577.763	-200.000	0.027	0.135
-576.748	-200.000	-0.009	-0.170
-575.733	94.334	0.129	0.149
-574.719	433.413	-0.048	-0.106
-573.704	-170.987	-0.116	0.004
-572.690	800.000	-0.054	0.153
-571.675	-128.540	0.195	0.028
-570.661	-113.368	-0.116	-0.023
-569.646	34.525	0.158	-0.140
-568.631	155.414	0.025	-0.035
-567.617	800.000	0.038	-0.111
-566.602	46.843	-0.203	0.191
-565.588	800.000	-0.052	0.177
-564.573	80.238	0.143	0.156
-563.558	-64.757	0.219	-0.090
-562.544	-200.000	-0.016	0.197
-561.529	-94.507	-0.219	-0.060
-560.515	49.250	-0.266	-0.253
-559.500	-17.240	0.348	-0.222
-558.485	49.160	0.058	0.055
-557.471	800.000	0.081	-0.277
-556.456	-200.000	-0.079	0.366
-555.442	-8.643	-0.146	-0.099
-554.427	800.000	-0.044	0.181
-553.412	-200.000	-0.000	-0.207
-552.398	-4.218	0.070	-0.049
-551.383	-125.776	-0.174	-0.027
-550.369	-200.000	-0.005	-0.331
-549.354	-141.910	0.346	-0.035
-548.339	467.631	0.039	0.089
-547.325	-115.056	-0.038	-0.007
-546.310	-13.563	-0.364	-0.239
-545.296	93.672	0.192	0.221
-544.281	-86.839	0.215	0.067
-543.266	45.297	0.043	0.040
-542.252	-200.000	0.016	0.245
-541.237	61.846	-0.062	0.063
-540.223	-136.310	0.201	0.024
-539.208	-46.297	-0.327	0.163
-538.193	-2.138	-0.237	0.168
-537.179	-96.841	-0.112	-0.030
-536.164	-38.279	-0.181	0.097
-535.150	13.183	0.181	0.142
-534.135	800.000	0.034	-0.102
-533.121	-30.739	-0.122	-0.070
-532.106	46.983	-0.226	0.213
-531.091	-178.338	0.095	-0.002
-530.077	117.642	-0.186	0.232
-529.062	596.175	-0.128	0.320
-528.048	449.347	0.083	0.186
-527.033	233.017	0.130	0.216
-526.018	800.000	-0.051	0.173
-525.004	534.430	0.049	0.118
-523.989	-200.000	0.013	0.153
-522.975	55.227	-0.037	0.036
-521.960	-122.674	0.109	0.018
-520.945	109.621	0.257	-0.312
-519.931	-88.527	0.217	0.066
-518.916	457.986	-0.088	0.198
-517.902	38.229	0.318	0.286
-516.887	275.466	-0.128	-0.229
-515.872	-144.843	-0.200	0.019
-514.858	-109.819	-0.356	0.076
-513.843	258.660	0.136	-0.237
-512.829	-104.487	0.202	0.047
-511.814	79.649	0.130	-0.141
-510.799	-32.421	0.250	0.141
-509.785	-102.468	-0.357	0.086
-508.770	-83.152	-0.275	0.089
-507.756	-200.000	0.058	-0.654
-506.741	-200.000	-0.041	-0.315
-505.726	800.000	0.039	-0.124
-504.712	-159.458	0.373	0.021
-503.697	219.692	0.139	-0.225
-502.683	-94.675	0.214	0.059
-501.668	164.398	-0.176	-0.251
-500.653	202.119	-0.116	0.181
-499.639	800.000	0.039	-0.165
-498.624	-200.000	0.019	-0.436
-497.610	-200.000	-0.014	0.310
-496.595	-57.375	-0.253	-0.112
-495.581	261.244	0.070	-0.122
-494.566	-106.789	0.113	0.025
-493.551	150.784	0.098	-0.134
-492.537	-93.202	-0.162	0.046
-491.522	-184.912	0.203	-0.003
-490.508	92.166	0.207	0.235
-489.493	-134.584	-0.341	-0.042
-488.478	87.942	-0.089	0.100
-487.464	2.803	0.200	-0.147
-486.449	63.503	0.138	0.140
-485.435	198.300	-0.084	-0.130
-484.420	800.000	0.046	-0.139
-483.405	-38.923	0.362	-0.193
-482.391	128.291	-0.249	0.320
-481.376	-50.514	0.088	-0.042
-480.362	800.000	-0.066	-0.221
-479.347	-174.786	-0.057	-0.002
-478.332	-14.677	-0.238	0.155
-477.318	-64.875	0.242	-0.099
-476.303	408.907	-0.078	0.166
-475.289	800.000	-0.065	-0.223
-474.274	110.038	-0.017	-0.021
-473.259	-32.371	0.183	-0.103
-472.245	20.887	0.298	0.244
-471.230	-83.987	-0.195	0.063
-470.216	288.685	0.159	-0.291
-469.201	-174.678	-0.362	-0.010
-468.186	800.000	-0.048	0.144
-467.172	800.000	0.109	-0.316
-466.157	89.156	-0.139	-0.156
-465.143	59.511	-0.211	-0.210
-464.128	800.000	-0.108	-0.414
-463.113	-200.000	-0.048	0.527
-462.099	85.976	-0.112	0.124
-461.084	38.196	-0.238	-0.214
-460.070	-100.398	0.168	0.042
-459.055	800.000	0.010	0.033
-458.040	62.220	-0.203	-0.204
-457.026	113.684	-0.143	0.176
-456.011	-200.000	0.022	-0.523
-454.997	-40.244	0.084	0.044
-453.982	171.511	0.162	-0.235
-452.968	526.293	0.154	0.367
-451.953	432.047	-0.109	0.239
-450.938	-196.599	0.239	-0.002
-449.924	-200.000	0.011	0.161
-448.909	363.593	-0.075	0.153
-447.895	-143.936	0.317	-0.030
-446.880	260.629	-0.067	-0.118
-445.865	-132.826	0.319	0.041
-444.851	35.128	-0.134	-0.118
-443.836	268.168	0.189	0.333
-442.822	-76.583	-0.131	0.046
-441.807	-200.000	-0.019	-0.089
-440.792	3.756	0.269	-0.198
-439.778	-200.000	0.025	-0.194
-438.763	-48.039	-0.175	0.085
-437.749	800.000	0.077	-0.245
-436.734	-200.000	0.002	0.098
-435.719	800.000	-0.070	0.261
-434.705	6.734	0.061	-0.046
-433.690	-159.625	-0.345	0.019
-432.676	7.176	-0.242	-0.182
-431.661	10.260	0.102	-0.078
-430.646	187.810	-0.112	-0.169
-429.632	800.000	-0.024	0.074
-428.617	108.977	-0.181	0.219
-427.603	105.205	-0.174	0.208
-426.588	-200.000	0.049	-0.229
-425.573	160.414	-0.282	-0.397
-424.559	-153.921	0.313	0.022
-423.544	496.306	-0.135	0.313
-422.530	-63.461	-0.336	0.139
-421.515	-91.743	-0.540	-0.155
-420.500	-200.000	0.009	-0.343
-419.486	221.152	0.074	-0.120
-418.471	-131.513	0.200	0.027
-417.457	188.751	-0.101	0.152
-416.442	429.330	0.007	0.016
-415.428	-124.432	0.129	-0.020
-414.413	-200.000	-0.014	-0.219
-413.398	-153.510	0.323	-0.023
-412.384	83.115	-0.231	0.254
-411.369	-58.889	-0.381	-0.166
-410.355	575.006	-0.035	-0.086
-409.340	-20.739	-0.148	0.092
-408.325	214.138	0.120	0.192
-407.311	-22.872	-0.159	0.096
-406.296	410.068	0.092	-0.196
-405.282	438.539	0.046	-0.101
-404.267	-77.810	-0.118	0.041
-403.252	-100.828	0.037	0.009
-402.238	-6.091	-0.024	0.016
-401.223	228.144	-0.173	0.284
-400.209	28.979	-0.138	0.118
-399.194	756.514	0.193	-0.526
-398.179	-200.000	-0.025	0.247
-397.165	-178.318	0.264	0.006
-396.150	800.000	0.055	0.163
-395.136	150.676	-0.218	0.298
-394.121	653.040	-0.100	0.257
-393.106	8.175	0.136	0.102
-392.092	24.131	0.221	-0.184
-391.077	225.961	-0.116	0.189
-390.063	10.628	0.113	0.086
-389.048	40.236	0.070	0.064
-388.033	293.896	0.028	0.051
-387.019	-31.090	-0.161	0.092
-386.004	-34.950	-0.080	-0.044
-384.990	-39.707	0.262	-0.138
-383.975	27.041	0.357	-0.302
-382.960	1.547	0.124	-0.090
-381.946	13.177	0.220	-0.172
-380.931	-165.202	-0.254	-0.011
-379.917	-137.723	-0.547	-0.062
-378.902	-200.000	0.028	-0.180
-377.888	3.606	-0.097	0.071
-376.873	796.597	0.050	-0.140
-375.858	114.305	0.149	-0.182
-374.844	800.000	0.091	0.361
-373.829	-81.321	0.509	-0.169
-372.815	-156.239	0.225	0.014
-371.800	-73.430	0.351	-0.129
-370.785	-86.279	-0.096	-0.030
-369.771	800.000	0.027	0.100
-368.756	131.538	0.078	-0.100
-367.742	-24.976	0.289	0.173
-366.727	-61.255	-0.094	0.040
-365.712	56.545	0.127	0.124
-364.698	18.248	-0.212	-0.170
-363.683	103.014	-0.259	0.306
-362.669	400.563	-0.114	0.241
-361.654	148.751	0.158	0.215
-360.639	132.161	-0.266	-0.344
-359.625	800.000	0.051	0.159
-358.610	-0.182	0.265	-0.189
-357.596	-43.661	-0.101	-0.051
-356.581	74.106	0.145	0.153
-355.566	-95.642	0.252	-0.068
-354.552	178.785	-0.187	-0.275
-353.537	568.265	-0.044	-0.107
-352.523	-200.000	-0.048	0.211
-351.508	109.510	-0.098	0.118
-350.493	-104.130	-0.096	-0.022
-349.479	-200.000	-0.009	0.075
-348.464	-1.580	0.201	0.143
-347.450	-54.246	-0.173	-0.079
-346.435	64.533	-0.192	-0.194
-345.420	34.467	-0.243	-0.213
-344.406	403.154	-0.015	-0.032
-343.391	-25.170	-0.023	-0.014
-342.377	-50.442	-0.234	-0.111
-341.362	800.000	-0.091	-0.334
-340.348	-200.000	0.059	-0.348
-339.333	-127.661	0.260	-0.038
-338.318	-34.231	-0.362	-0.199
-337.304	-4.950	0.103	0.071
-336.289	384.907	0.124	0.257
-335.275	-71.453	-0.416	-0.157
-334.260	-105.395	0.191	-0.044
-333.245	-146.465	0.434	0.038
-332.231	9.930	0.160	0.122
-331.216	-200.000	-0.009	0.053
-330.202	62.710	-0.126	0.126
-329.187	-122.508	0.110	0.018
-328.172	800.000	-0.045	-0.175
-327.158	-7.531	-0.253	0.172
-326.143	-54.654	0.123	0.056
-325.129	4.616	-0.254	-0.187
-324.114	-67.124	0.294	0.116
-323.099	302.484	-0.139	0.257
-322.085	-88.533	-0.163	-0.049
-321.070	196.440	-0.075	-0.115
-320.056	49.343	0.058	-0.055
-319.041	-137.210	0.192	0.022
-318.026	-200.000	-0.002	-0.364
-317.012	460.310	0.125	-0.280
-315.997	-200.000	-0.016	0.257
-314.983	-120.880	0.393	-0.066
-313.968	-107.410	-0.122	0.027
-312.953	44.305	0.148	0.136
-311.939	-140.618	0.237	0.025
-310.924	-133.069	-0.201	-0.026
-309.910	-86.742	-0.271	0.083
-308.895	800.000	-0.065	0.189
-307.880	800.000	-0.037	-0.155
-306.866	-59.922	0.169	-0.073
-305.851	-81.424	-0.077	0.025
-304.837	-97.614	-0.250	-0.065
-303.822	-172.569	-0.427	-0.014
-302.807	800.000	-0.027	-0.115
-301.793	28.676	-0.213	0.181
-300.778	0.929	-0.158	-0.113
-299.764	81.907	-0.095	0.104
-298.749	120.940	-0.097	0.121
-297.735	-200.000	0.029	-0.293
-296.720	581.674	-0.070	-0.172
-295.705	68.495	0.241	0.247
-294.691	-200.000	0.024	-0.304
-293.676	-64.835	-0.227	0.092
-292.662	-120.327	0.531	0.091
-291.647	-200.000	0.058	0.262
-290.632	92.185	-0.106	0.120
-289.618	467.087	-0.113	0.255
-288.603	88.459	0.102	0.114
-287.589	114.765	0.169	0.207
-286.574	-200.000	-0.031	0.148
-285.559	-112.726	-0.027	0.005
-284.545	183.154	0.173	-0.257
-283.530	-72.608	0.200	-0.074
-282.516	546.903	-0.062	-0.149
-281.501	-88.471	-0.240	-0.072
-280.486	-200.000	-0.000	0.114
-279.472	-200.000	0.039	0.195
-278.457	-80.412	0.065	0.022
-277.443	800.000	0.037	0.157
-276.428	29.108	-0.220	0.187
-275.413	-200.000	0.039	0.257
-274.399	512.329	0.143	0.335
-273.384	-200.000	0.004	0.056
-272.370	-93.696	-0.046	0.013
-271.355	800.000	0.109	0.397
-270.340	-200.000	0.017	-0.290
-269.326	-70.789	0.291	0.110
-268.311	-200.000	-0.021	-0.164
-267.297	-101.067	0.204	-0.050
-266.282	-125.990	0.244	0.037
-265.267	131.935	-0.191	-0.247
-264.253	800.000	0.014	0.055
-263.238	-124.115	0.384	0.060
-262.224	800.000	-0.040	0.134
-261.209	467.427	0.075	0.168
-260.195	246.091	-0.132	0.223
-259.180	146.883	0.071	-0.095
-258.165	-20.077	-0.073	-0.045
-257.151	238.674	0.155	0.258
-256.136	-200.000	0.008	0.109
-255.122	624.803	0.057	-0.144
-254.107	54.573	-0.352	0.340
-253.092	10.918	0.164	-0.126
-252.078	800.000	0.114	-0.320
-251.063	-200.000	-0.008	0.065
-250.049	-82.550	-0.079	-0.025
-249.034	98.149	-0.153	-0.177
-248.019	-146.031	-0.340	0.030
-247.005	-46.646	0.086	0.042
-245.990	274.283	0.050	-0.088
-244.976	284.130	-0.104	0.187
-243.961	800.000	0.060	0.218
-242.946	-200.000	-0.025	0.164
-241.932	181.344	-0.077	-0.114
-240.917	-14.789	0.499	-0.320
-239.903	-200.000	-0.005	0.029
-238.888	508.364	0.187	-0.435
-237.873	130.498	-0.109	-0.140
-236.859	158.736	-0.173	-0.240
-235.844	-200.000	-0.002	-0.297
-234.830	6.334	0.024	0.018
-233.815	-200.000	0.183	0.000
-232.800	176.258	0.115	0.167
-231.786	101.365	-0.061	-0.071
-230.771	155.161	0.257	0.354
-229.757	170.413	0.164	0.234
-228.742	-160.954	-0.448	-0.024
-227.727	-200.000	0.014	0.147
-226.713	199.653	0.075	-0.115
-225.698	-86.155	0.167	-0.052
-224.684	63.978	-0.074	-0.074
-223.669	422.253	0.028	0.060
-222.655	-200.000	-0.031	0.198
-221.640	-166.001	0.288	-0.012
-220.625	800.000	0.032	-0.129
-219.611	628.627	-0.095	0.240
-218.596	-32.946	0.238	0.132
-217.582	-200.000	-0.001	-0.040
-216.567	-200.000	-0.014	-0.086
-215.552	-55.706	-0.426	-0.191
-214.538	-161.294	0.180	0.009
-213.523	69.706	-0.145	0.149
-212.509	-200.000	-0.015	0.198
-211.494	167.077	0.102	-0.144
-210.479	555.604	0.076	-0.184
-209.465	-182.679	0.156	0.003
-208.450	-158.837	0.125	0.007
-207.436	-57.954	0.113	-0.049
-206.421	-76.475	0.179	0.063
-205.406	-200.000	0.014	0.169
-204.392	287.255	0.200	-0.362
-203.377	290.459	-0.072	0.131
-202.363	49.740	-0.105	-0.099
-201.348	8.263	-0.150	-0.112
-200.333	-200.000	0.034	0.168
-199.319	-200.000	-0.041	-0.215
-198.304	160.487	-0.149	-0.208
-197.290	8.479	0.144	-0.108
-196.275	-101.075	0.340	-0.083
-195.260	410.114	-0.131	-0.278
-194.246	0.392	0.090	-0.065
-193.231	-200.000	-0.031	0.250
-192.217	310.184	-0.062	0.116
-191.202	122.283	0.121	0.150
-190.187	-43.192	0.145	-0.073
-189.173	108.993	-0.212	-0.253
-188.158	-132.293	-0.285	0.037
-187.144	517.470	0.090	-0.210
-186.129	-27.679	0.089	-0.051
-185.114	51.853	0.080	0.076
-184.100	-26.230	0.083	-0.049
-183.085	308.855	0.117	-0.218
-182.071	-26.713	-0.051	0.030
-181.056	800.000	0.086	-0.295
-180.042	-103.166	-0.291	0.069
-179.027	69.298	0.127	-0.130
-178.012	-200.000	-0.035	0.218
-176.998	-30.394	-0.137	0.078
-175.983	-50.364	0.060	0.028
-174.969	102.855	0.116	0.136
-173.954	-76.111	-0.196	-0.069
-172.939	-200.000	0.036	0.164
-171.925	-200.000	0.062	-0.288
-170.910	-149.014	0.404	-0.032
-169.896	-200.000	-0.001	-0.359
-168.881	497.049	-0.092	-0.211
-167.866	158.525	0.079	-0.109
-166.852	-200.000	-0.005	0.091
-165.837	-12.204	0.149	-0.097
-164.823	71.750	0.165	0.171
-163.808	499.701	0.093	-0.214
-162.793	159.493	0.122	-0.169
-161.779	26.257	0.234	-0.195
-160.764	130.864	0.054	-0.069
-159.750	-200.000	0.016	0.087
-158.735	94.248	0.138	0.156
-157.720	17.630	-0.248	0.197
-156.706	-91.759	-0.115	0.033
-155.691	-200.000	0.038	0.304
-154.677	-35.337	0.156	-0.085
-153.662	-178.992	-0.138	0.003
-152.647	371.472	0.091	-0.184
-151.633	431.951	0.085	-0.183
-150.618	173.982	0.133	-0.192
-149.604	-22.328	0.137	-0.083
-148.589	672.414	0.058	0.151
-147.574	-200.000	-0.000	0.161
-146.560	220.701	-0.179	0.287
-145.545	800.000	-0.020	-0.078
-144.531	135.838	0.237	-0.308
-143.516	-71.135	-0.361	0.135
-142.502	-32.106	0.243	0.135
-141.487	-130.656	0.136	-0.018
-140.472	203.786	0.092	-0.142
-139.458	335.083	-0.143	0.276
-138.443	-138.136	0.175	-0.019
-137.429	-71.577	0.165	0.062
-136.414	658.044	-0.015	-0.039
-135.399	234.946	-0.128	-0.210
-134.385	-200.000	0.004	0.293
-133.370	517.955	0.061	-0.142
-132.356	21.326	0.049	0.039
-131.341	-200.000	0.096	-0.466
-130.326	-163.051	-0.213	0.010
-129.312	103.772	-0.186	0.218
-128.297	800.000	-0.057	0.244
-127.283	-121.593	0.058	0.010
-126.268	-102.363	0.344	-0.082
-125.253	-200.000	0.004	-0.158
-124.239	-200.000	0.031	0.364
-123.224	-75.989	-0.146	-0.051
-122.210	193.742	-0.183	0.276
-121.195	-86.224	-0.264	-0.081
