DTS Sentinel unit serial number:	SN413079Multiplexer serial number:	ORYXHardware model number:	OX4-SRSoftware version number:	ORYX F/W v4.00 Oryx Data Collector v3.7.2.0data status	okinstallation	princeton_trtdifferential loss correction	single-endedforward channel	channel 3reverse channel	N/Adate	2019/09/15time	04:20:34forward acquisition time	60.00reverse acquisition time	0.00gamma	496.2192k internal	0.2323k external	0.2323temperature offset calibration	0.9969default loss term (dB/km)	0.3790temperature slope calibration	1.0000multiplexer offset coefficient	1.0000multiplexer slope coefficient	1.0000fibre end	0.00T internal ref (°C)	30.87T ext. ref 1 (°C)	4.62T ext. ref 2 (°C)	25.64length (m)	temperature (°C)	Stokes	anti-Stokes-747.200	-40.959	0.147	0.077
-746.185	-26.416	-0.196	0.116
-745.171	97.831	-0.078	0.091
-744.156	-1.736	-0.435	0.310
-743.142	800.000	0.037	-0.161
-742.127	-48.703	0.346	0.168
-741.112	-200.000	-0.044	0.218
-740.098	-158.649	-0.127	-0.007
-739.083	-200.000	-0.089	-0.000
-738.069	800.000	-0.136	0.424
-737.054	232.653	0.081	0.134
-736.039	-105.725	0.077	-0.018
-735.025	800.000	-0.075	-0.251
-734.010	132.947	-0.231	-0.301
-732.996	-51.956	-0.187	0.088
-731.981	57.863	-0.111	-0.110
-730.966	-33.514	0.248	0.138
-729.952	-87.023	-0.135	0.041
-728.937	-5.242	-0.312	-0.216
-727.923	-200.000	-0.067	-0.316
-726.908	-200.000	0.000	-0.014
-725.894	800.000	0.097	0.317
-724.879	341.551	-0.178	-0.350
-723.864	-51.464	-0.089	-0.042
-722.850	11.831	-0.210	-0.163
-721.835	-200.000	0.012	-0.385
-720.821	-79.793	-0.460	0.156
-719.806	-200.000	-0.008	0.107
-718.791	-45.805	0.187	0.093
-717.777	9.687	0.169	-0.129
-716.762	-148.979	-0.134	0.011
-715.748	-200.000	0.048	-0.364
-714.733	258.308	-0.115	0.201
-713.718	800.000	-0.059	0.255
-712.704	61.309	0.087	-0.087
-711.689	281.540	0.193	-0.349
-710.675	-200.000	0.039	-0.374
-709.660	-115.712	0.187	-0.035
-708.645	-117.958	-0.142	-0.026
-707.631	-66.497	0.321	-0.128
-706.616	-200.000	-0.000	0.092
-705.602	99.566	-0.144	-0.168
-704.587	800.000	-0.042	-0.133
-703.572	677.507	-0.043	-0.114
-702.558	58.225	-0.186	0.184
-701.543	168.168	-0.072	0.104
-700.529	-200.000	0.060	0.381
-699.514	-39.442	-0.064	-0.034
-698.499	123.391	0.284	0.359
-697.485	29.857	0.136	-0.117
-696.470	160.028	0.171	-0.241
-695.456	-200.000	-0.020	-0.094
-694.441	-61.212	0.374	0.159
-693.426	3.082	0.098	0.072
-692.412	60.827	-0.199	0.199
-691.397	-200.000	0.002	-0.051
-690.383	-50.553	-0.117	-0.056
-689.368	128.069	0.165	0.212
-688.354	-79.566	-0.249	0.085
-687.339	299.366	0.256	-0.475
-686.324	523.356	-0.161	0.380
-685.310	6.434	0.089	0.067
-684.295	-112.459	-0.211	-0.042
-683.281	71.386	0.107	0.112
-682.266	-112.354	0.274	-0.055
-681.251	610.441	-0.131	-0.329
-680.237	153.586	-0.102	0.141
-679.222	-134.711	-0.039	0.005
-678.208	-97.897	-0.269	-0.070
-677.193	-200.000	-0.001	-0.115
-676.178	-90.958	0.042	0.012
-675.164	-200.000	-0.010	-0.111
-674.149	-200.000	-0.021	-0.297
-673.135	-107.708	-0.146	0.032
-672.120	800.000	0.041	0.167
-671.105	211.963	0.110	0.175
-670.091	0.193	0.089	0.064
-669.076	800.000	-0.101	-0.313
-668.062	243.026	-0.155	-0.262
-667.047	-200.000	0.005	-0.074
-666.032	106.285	-0.092	-0.110
-665.018	-47.457	0.345	0.169
-664.003	800.000	-0.099	-0.330
-662.989	48.977	0.250	0.236
-661.974	-129.824	-0.231	-0.032
-660.959	800.000	0.060	0.254
-659.945	633.468	-0.027	-0.070
-658.930	-106.335	-0.215	-0.048
-657.916	10.214	-0.170	0.131
-656.901	-142.471	0.199	-0.020
-655.886	69.490	0.207	0.215
-654.872	50.048	-0.233	0.221
-653.857	215.293	-0.080	-0.128
-652.843	109.204	0.356	-0.429
-651.828	-200.000	-0.006	-0.095
-650.814	-30.029	-0.204	0.117
-649.799	93.050	0.050	0.056
-648.784	800.000	0.046	-0.138
-647.770	-42.476	0.184	-0.095
-646.755	-70.708	-0.207	0.079
-645.741	800.000	0.044	-0.143
-644.726	-40.146	-0.208	0.109
-643.711	-200.000	0.029	-0.175
-642.697	-200.000	-0.044	0.289
-641.682	-109.585	0.009	-0.002
-640.668	-29.999	-0.420	-0.241
-639.653	33.428	-0.196	-0.171
-638.638	800.000	-0.092	-0.315
-637.624	86.585	0.247	-0.274
-636.609	-200.000	0.017	-0.108
-635.595	-68.977	-0.060	-0.023
-634.580	-200.000	-0.012	0.262
-633.565	800.000	-0.078	0.332
-632.551	-12.160	-0.148	-0.097
-631.536	-162.955	0.192	0.009
-630.522	384.633	-0.050	-0.103
-629.507	30.622	-0.292	-0.251
-628.492	800.000	0.065	0.256
-627.478	144.784	-0.251	-0.337
-626.463	-39.087	-0.071	0.038
-625.449	-200.000	-0.002	-0.081
-624.434	497.012	-0.162	0.374
-623.419	800.000	0.082	-0.245
-622.405	-193.761	-0.213	0.002
-621.390	-93.879	0.079	0.022
-620.376	37.367	-0.119	0.106
-619.361	800.000	-0.017	0.075
-618.346	-74.046	-0.127	-0.046
-617.332	154.891	0.074	-0.102
-616.317	-29.696	0.058	-0.033
-615.303	522.154	0.001	0.003
-614.288	83.799	0.085	-0.094
-613.273	170.346	-0.102	-0.146
-612.259	-55.718	-0.210	-0.094
-611.244	-96.251	0.203	0.054
-610.230	730.518	-0.100	-0.268
-609.215	-70.029	-0.260	-0.099
-608.201	-200.000	-0.037	-0.299
-607.186	-200.000	-0.033	0.252
-606.171	-200.000	-0.029	0.130
-605.157	-32.758	-0.203	0.113
-604.142	52.023	0.072	0.069
-603.128	-34.747	-0.223	0.123
-602.113	2.717	-0.218	0.159
-601.098	-106.013	-0.142	-0.032
-600.084	-200.000	0.002	-0.154
-599.069	622.662	0.046	0.116
-598.055	102.571	0.357	0.420
-597.040	-41.156	-0.007	0.004
-596.025	-43.901	-0.111	-0.056
-595.011	-200.000	0.019	0.228
-593.996	225.646	0.190	-0.309
-592.982	269.717	-0.137	0.242
-591.967	-200.000	-0.001	0.228
-590.952	-95.518	-0.134	-0.036
-589.938	-112.765	-0.138	-0.028
-588.923	-27.585	-0.259	-0.151
-587.909	-183.704	0.261	0.004
-586.894	-200.000	-0.008	-0.260
-585.879	-200.000	0.019	-0.240
-584.865	38.954	-0.135	-0.121
-583.850	-194.053	-0.068	-0.001
-582.836	335.521	-0.075	0.146
-581.821	672.836	0.089	-0.231
-580.806	696.807	-0.066	0.173
-579.792	-200.000	0.005	-0.157
-578.777	-122.020	-0.188	0.031
-577.763	-116.548	0.207	0.038
-576.748	-200.000	-0.011	-0.054
-575.733	151.956	-0.180	-0.246
-574.719	50.005	-0.369	0.349
-573.704	468.719	-0.112	-0.253
-572.690	127.605	0.091	-0.115
-571.675	-200.000	-0.029	0.196
-570.661	-112.055	0.371	-0.075
-569.646	-9.012	-0.245	-0.165
-568.631	-170.831	0.182	0.006
-567.617	61.528	-0.044	0.044
-566.602	-200.000	0.081	0.533
-565.588	-200.000	0.031	0.283
-564.573	-154.770	0.235	0.016
-563.558	31.805	-0.166	-0.144
-562.544	-200.000	-0.002	0.148
-561.529	-199.640	0.311	-0.002
-560.515	-200.000	-0.004	-0.022
-559.500	7.877	-0.303	0.228
-558.485	75.190	0.119	0.126
-557.471	-67.345	0.307	0.121
-556.456	-61.714	0.147	-0.062
-555.442	-52.084	0.208	-0.097
-554.427	-57.213	0.217	-0.096
-553.412	-3.124	-0.123	0.086
-552.398	150.592	-0.290	-0.395
-551.383	-67.194	0.212	-0.084
-550.369	127.820	-0.031	0.040
-549.354	255.988	0.112	0.193
-548.339	-54.311	-0.152	0.069
-547.325	177.460	0.085	-0.125
-546.310	800.000	-0.040	0.148
-545.296	-200.000	-0.015	0.126
-544.281	-150.764	-0.090	0.007
-543.266	106.521	-0.192	-0.228
-542.252	-200.000	-0.003	0.134
-541.237	70.380	0.067	0.069
-540.223	39.622	0.132	0.118
-539.208	-151.914	-0.241	0.018
-538.193	27.641	-0.107	0.091
-537.179	-200.000	0.040	-0.680
-536.164	610.906	0.106	-0.265
-535.150	175.809	0.049	-0.072
-534.135	46.378	-0.120	0.111
-533.121	-74.303	-0.207	0.075
-532.106	800.000	0.089	-0.263
-531.091	-86.185	-0.053	0.016
-530.077	135.865	-0.241	0.314
-529.062	-83.979	-0.134	0.043
-528.048	171.806	-0.149	0.214
-527.033	-34.601	-0.161	0.088
-526.018	800.000	-0.025	0.071
-525.004	-200.000	-0.011	-0.089
-523.989	135.653	-0.260	0.339
-522.975	-200.000	0.010	0.062
-521.960	-44.161	0.220	-0.111
-520.945	-51.138	-0.129	-0.060
-519.931	-89.787	0.110	0.032
-518.916	16.425	0.238	-0.188
-517.902	-176.276	-0.231	-0.006
-516.887	-38.592	0.338	-0.179
-515.872	681.869	0.174	-0.455
-514.858	589.395	0.110	0.272
-513.843	800.000	-0.059	-0.169
-512.829	-13.658	-0.435	-0.282
-511.814	-200.000	0.056	-0.278
-510.799	9.298	-0.117	-0.088
-509.785	125.626	-0.210	-0.265
-508.770	-169.415	-0.320	0.012
-507.756	800.000	0.078	0.256
-506.741	-6.360	-0.325	0.222
-505.726	-152.824	-0.211	-0.015
-504.712	13.071	-0.048	-0.037
-503.697	39.769	0.170	0.153
-502.683	122.417	0.106	-0.132
-501.668	-126.462	-0.141	0.021
-500.653	800.000	0.113	0.432
-499.639	799.753	0.071	-0.197
-498.624	800.000	-0.021	0.089
-497.610	-200.000	-0.026	-0.126
-496.595	-110.656	-0.062	0.013
-495.581	221.052	-0.134	-0.215
-494.566	55.565	0.073	-0.070
-493.551	-53.776	0.243	0.111
-492.537	71.361	-0.219	-0.227
-491.522	517.520	0.138	-0.322
-490.508	150.221	-0.250	-0.340
-489.493	-110.743	-0.405	0.084
-488.478	523.492	0.088	-0.207
-487.464	160.750	-0.149	-0.208
-486.449	429.804	-0.130	0.281
-485.435	76.347	0.173	0.183
-484.420	34.815	-0.114	-0.099
-483.405	215.790	0.108	0.171
-482.391	196.927	0.247	-0.376
-481.376	-200.000	-0.047	0.350
-480.362	168.723	-0.075	-0.107
-479.347	84.142	-0.118	0.129
-478.332	198.514	0.211	0.322
-477.318	89.688	0.350	-0.390
-476.303	62.915	0.018	0.018
-475.289	155.691	-0.109	0.150
-474.274	297.944	-0.094	0.173
-473.259	-75.742	0.286	-0.102
-472.245	-107.844	-0.292	-0.063
-471.230	392.546	-0.091	0.189
-470.216	-200.000	-0.036	0.254
-469.201	-105.452	0.292	-0.066
-468.186	-100.231	-0.311	0.077
-467.172	-145.061	-0.181	0.016
-466.157	178.382	-0.117	0.171
-465.143	81.781	0.224	-0.243
-464.128	-89.679	0.042	-0.012
-463.113	-89.920	0.101	-0.029
-462.099	30.979	-0.105	-0.090
-461.084	-78.679	-0.188	0.064
-460.070	800.000	0.037	0.131
-459.055	-106.770	-0.188	-0.042
-458.040	-40.909	0.215	0.111
-457.026	213.009	-0.041	0.064
-456.011	193.085	0.109	-0.165
-454.997	7.481	-0.403	-0.301
-453.982	800.000	-0.047	0.165
-452.968	212.925	0.149	-0.235
-451.953	142.021	0.109	-0.145
-450.938	22.788	-0.207	-0.169
-449.924	-5.431	0.168	-0.115
-448.909	-92.232	0.254	-0.071
-447.895	-200.000	0.001	-0.344
-446.880	800.000	-0.062	0.176
-445.865	210.499	0.057	0.089
-444.851	235.016	-0.165	-0.272
-443.836	-80.155	0.398	0.133
-442.822	-38.620	-0.130	-0.069
-441.807	555.819	0.113	0.273
-440.792	-24.483	0.342	0.203
-439.778	391.832	-0.051	-0.105
-438.763	-200.000	0.006	-0.201
-437.749	174.038	0.203	0.293
-436.734	188.509	-0.168	0.251
-435.719	113.199	0.236	-0.285
-434.705	-115.644	0.346	-0.065
-433.690	-192.230	-0.175	0.002
-432.676	-56.283	-0.262	-0.116
-431.661	-148.550	-0.196	-0.016
-430.646	-96.331	0.309	-0.082
-429.632	71.992	0.097	0.101
-428.617	-200.000	0.001	-0.075
-427.603	-47.079	-0.187	-0.091
-426.588	178.512	-0.058	-0.084
-425.573	-17.519	0.185	0.116
-424.559	42.248	-0.096	0.087
-423.544	113.104	0.125	0.152
-422.530	221.175	-0.062	0.099
-421.515	-73.461	0.066	0.024
-420.500	8.823	0.148	0.112
-419.486	800.000	0.022	-0.077
-418.471	-15.798	-0.080	0.051
-417.457	-200.000	0.038	0.190
-416.442	308.279	0.057	0.106
-415.428	-45.101	-0.353	0.175
-414.413	608.890	0.088	-0.220
-413.398	128.427	0.145	0.184
-412.384	-28.867	0.152	0.087
-411.369	-72.946	0.058	0.021
-410.355	22.937	-0.182	-0.149
-409.340	16.418	0.251	-0.198
-408.325	-180.682	0.267	-0.005
-407.311	16.271	0.172	-0.135
-406.296	-200.000	-0.019	-0.083
-405.282	-171.883	-0.320	0.010
-404.267	149.398	0.366	-0.494
-403.252	57.357	-0.265	-0.258
-402.238	-47.986	-0.244	-0.118
-401.223	77.318	-0.044	-0.047
-400.209	800.000	0.027	0.109
-399.194	78.924	-0.272	0.290
-398.179	95.598	-0.231	0.263
-397.165	-165.536	0.127	0.006
-396.150	-200.000	-0.001	-0.121
-395.136	403.427	0.139	0.292
-394.121	561.281	0.074	0.178
-393.106	168.364	-0.130	-0.184
-392.092	92.133	0.271	-0.305
-391.077	-156.744	0.278	0.017
-390.063	10.951	-0.047	-0.036
-389.048	-29.385	-0.251	-0.143
-388.033	-89.129	0.442	-0.130
-387.019	434.762	0.186	-0.403
-386.004	216.186	0.048	0.076
-384.990	-200.000	-0.036	0.256
-383.975	-61.814	0.224	0.093
-382.960	-164.403	0.394	-0.018
-381.946	124.743	-0.056	-0.070
-380.931	800.000	0.139	0.467
-379.917	76.346	-0.199	0.210
-378.902	-84.224	0.038	0.012
-377.888	800.000	0.028	-0.114
-376.873	800.000	-0.040	-0.113
-375.858	800.000	0.048	-0.170
-374.844	-9.817	0.009	0.006
-373.829	74.640	0.228	-0.238
-372.815	191.018	-0.219	0.328
-371.800	28.584	-0.327	0.275
-370.785	-45.242	-0.164	0.081
-369.771	-139.166	-0.178	-0.019
-368.756	-172.869	0.298	0.009
-367.742	800.000	-0.187	0.601
-366.727	-200.000	-0.099	-0.439
-365.712	800.000	0.056	-0.199
-364.698	2.124	-0.002	-0.001
-363.683	-10.169	-0.350	0.232
-362.669	-63.417	0.314	0.128
-361.654	6.599	0.062	0.046
-360.639	800.000	0.069	0.262
-359.625	-36.260	-0.066	0.035
-358.610	195.003	0.136	-0.205
-357.596	45.848	0.097	-0.090
-356.581	800.000	0.067	-0.195
-355.566	-200.000	0.000	-0.076
-354.552	-200.000	0.045	0.316
-353.537	-41.876	0.277	0.141
-352.523	-90.639	0.136	0.039
-351.508	-47.640	0.102	-0.049
-350.493	-109.263	0.024	-0.005
-349.479	107.523	0.177	-0.210
-348.464	201.008	-0.142	-0.218
-347.450	223.303	0.138	0.221
-346.435	151.622	0.064	0.087
-345.420	60.623	0.035	-0.035
-344.406	-122.966	-0.338	0.054
-343.391	-200.000	0.016	-0.342
-342.377	-94.039	0.028	-0.008
-341.362	-5.616	0.157	-0.107
-340.348	-153.341	0.249	0.017
-339.333	212.540	-0.106	-0.166
-338.318	-31.032	-0.176	0.099
-337.304	-66.729	0.240	-0.094
-336.289	4.613	0.247	0.180
-335.275	800.000	0.037	0.106
-334.260	666.946	0.067	0.173
-333.245	218.631	0.083	0.132
-332.231	32.851	0.157	0.135
-331.216	130.170	0.115	-0.146
-330.202	39.371	-0.127	-0.113
-329.187	-188.224	-0.326	-0.004
-328.172	800.000	-0.065	-0.241
-327.158	-200.000	-0.020	-0.160
-326.143	-85.866	-0.393	-0.121
-325.129	-200.000	0.045	-0.292
-324.114	151.918	-0.092	-0.125
-323.099	-148.678	0.092	0.007
-322.085	8.453	-0.160	-0.119
-321.070	-34.488	0.315	0.171
-320.056	87.725	0.285	0.313
-319.041	-200.000	-0.037	0.327
-318.026	110.276	0.047	-0.056
-317.012	800.000	0.102	0.425
-315.997	-200.000	-0.025	-0.156
-314.983	6.223	0.066	-0.049
-313.968	-135.625	-0.177	-0.021
-312.953	-135.991	0.228	0.027
-311.939	148.267	0.178	-0.239
-310.924	-200.000	0.007	-0.076
-309.910	-148.869	-0.180	0.014
-308.895	264.725	0.049	-0.084
-307.880	-162.351	0.289	0.014
-306.866	-89.103	-0.174	0.051
-305.851	394.018	0.043	-0.088
-304.837	16.556	-0.065	0.051
-303.822	-200.000	0.007	0.299
-302.807	4.104	0.131	0.095
-301.793	55.349	-0.175	0.168
-300.778	-6.277	-0.106	0.072
-299.764	-38.958	0.322	-0.168
-298.749	-107.106	-0.053	-0.012
-297.735	2.216	0.435	-0.312
-296.720	265.806	0.156	0.271
-295.705	-200.000	0.009	-0.400
-294.691	-75.570	0.031	0.011
-293.676	41.706	-0.071	-0.064
-292.662	100.819	-0.039	0.045
-291.647	-197.349	-0.138	-0.001
-290.632	-138.459	0.169	0.018
-289.618	113.992	-0.097	-0.117
-288.603	-200.000	0.079	-0.526
-287.589	196.494	-0.196	0.296
-286.574	800.000	0.071	-0.281
-285.559	-200.000	0.022	-0.109
-284.545	39.350	0.069	0.061
-283.530	82.156	-0.264	0.284
-282.516	-57.176	-0.257	0.112
-281.501	-154.956	-0.234	0.015
-280.486	800.000	0.023	0.079
-279.472	-200.000	0.054	0.350
-278.457	-83.041	-0.054	0.017
-277.443	-7.347	0.210	-0.141
-276.428	63.558	0.229	0.228
-275.413	800.000	0.062	-0.216
-274.399	800.000	-0.053	0.155
-273.384	195.220	0.108	0.162
-272.370	130.051	-0.267	0.339
-271.355	-92.485	0.054	0.015
-270.340	-200.000	-0.043	-0.218
-269.326	-106.702	-0.328	-0.072
-268.311	109.200	-0.084	0.100
-267.297	289.420	0.114	0.205
-266.282	140.981	-0.088	0.115
-265.267	82.603	0.160	-0.172
-264.253	-57.374	0.062	0.027
-263.238	63.148	0.042	0.042
-262.224	800.000	-0.079	-0.259
-261.209	800.000	0.051	0.207
-260.195	75.733	-0.127	0.133
-259.180	800.000	0.030	-0.131
-258.165	-108.324	0.204	0.044
-257.151	800.000	-0.063	-0.187
-256.136	-38.897	-0.134	-0.070
-255.122	715.662	0.041	-0.109
-254.107	-50.838	0.239	0.111
-253.092	800.000	0.032	-0.123
-252.078	28.778	-0.212	-0.178
-251.063	261.987	0.077	-0.133
-250.049	-123.654	-0.400	0.063
-249.034	-105.207	-0.465	-0.105
-248.019	-200.000	-0.011	-0.052
-247.005	188.121	0.232	-0.344
-245.990	-19.797	-0.119	0.073
-244.976	-87.441	-0.172	0.052
-243.961	-39.917	-0.186	0.096
-242.946	-113.066	0.134	0.026
-241.932	-94.748	-0.357	-0.096
-240.917	2.747	0.056	0.040
-239.903	800.000	-0.130	0.381
-238.888	800.000	0.073	-0.252
-237.873	-27.368	-0.283	0.163
-236.859	177.138	-0.086	0.124
-235.844	-43.628	-0.014	-0.007
-234.830	-8.483	0.415	0.276
-233.815	-200.000	-0.010	-0.070
-232.800	800.000	-0.034	-0.144
-231.786	-200.000	0.018	0.095
-230.771	138.893	0.165	0.214
-229.757	-61.121	0.390	-0.163
-228.742	-200.000	-0.023	0.193
-227.727	-87.541	-0.114	-0.034
-226.713	100.981	-0.080	0.092
-225.698	-157.567	0.127	-0.008
-224.684	54.662	-0.085	-0.081
-223.669	-200.000	0.008	0.508
-222.655	-6.364	0.177	-0.120
-221.640	96.045	-0.058	0.066
-220.625	-20.610	-0.349	0.212
-219.611	206.053	0.142	0.219
-218.596	-200.000	0.017	0.215
-217.582	54.592	-0.234	-0.224
-216.567	-108.168	0.272	0.058
-215.552	-60.834	0.217	-0.091
-214.538	-157.742	0.195	0.011
-213.523	-34.861	0.172	0.093
-212.509	-200.000	0.011	-0.181
-211.494	-34.113	-0.237	-0.129
-210.479	176.962	-0.073	0.106
-209.465	-84.230	0.350	-0.110
-208.450	-92.073	-0.153	0.043
-207.436	9.821	0.092	0.069
-206.421	-23.024	0.093	-0.055
-205.406	-176.102	-0.414	-0.011
-204.392	232.313	-0.058	-0.095
-203.377	-135.222	0.161	-0.019
-202.363	-200.000	0.039	0.464
-201.348	362.533	-0.101	0.199
-200.333	-84.687	-0.113	0.035
-199.319	366.953	0.210	0.420
-198.304	-200.000	0.021	0.122
-197.290	-200.000	-0.038	-0.343
-196.275	-200.000	0.029	-0.160
-195.260	-55.455	-0.113	-0.050
-194.246	274.776	-0.028	0.050
-193.231	178.764	-0.168	0.243
-192.217	-58.589	-0.245	-0.105
-191.202	57.804	-0.139	-0.134
-190.187	-200.000	0.022	-0.133
-189.173	93.988	0.196	-0.219
-188.158	39.922	0.294	0.261
-187.144	-44.863	-0.073	0.036
-186.129	676.890	0.114	-0.292
-185.114	-65.945	0.383	-0.151
-184.100	9.341	0.165	-0.124
-183.085	-200.000	-0.042	0.277
-182.071	-13.722	-0.234	-0.150
-181.056	443.804	-0.133	0.288
-180.042	230.201	-0.064	-0.104
-179.027	500.959	-0.093	-0.212
-178.012	-200.000	0.015	0.108
-176.998	-90.721	0.256	0.073
-175.983	-200.000	-0.010	0.254
-174.969	-158.246	0.169	-0.010
-173.954	-105.025	0.189	0.043
-172.939	-171.201	-0.068	0.002
-171.925	-64.404	-0.235	-0.094
-170.910	530.504	-0.056	0.131
-169.896	716.241	0.126	0.331
-168.881	77.478	-0.172	-0.181
-167.866	-126.441	-0.131	0.019
-166.852	44.458	0.116	-0.105
-165.837	-64.520	0.385	0.154
-164.823	157.124	0.124	0.169
-163.808	-200.000	0.018	0.122
-162.793	-37.748	0.302	0.159
-161.779	-200.000	0.012	0.176
-160.764	-106.596	-0.093	-0.020
-159.750	-3.875	0.137	-0.094
-158.735	10.882	0.219	0.165
-157.720	-53.810	0.214	0.097
-156.706	-200.000	-0.013	0.100
-155.691	-13.370	0.247	0.158
-154.677	-53.200	-0.191	-0.087
-153.662	645.148	0.196	-0.493
-152.647	318.495	0.144	-0.269
-151.633	75.005	-0.110	0.114
-150.618	800.000	0.035	-0.110
-149.604	800.000	-0.043	-0.128
-148.589	-200.000	0.012	-0.409
-147.574	-4.833	-0.083	-0.056
-146.560	-200.000	-0.025	-0.206
-145.545	-110.752	-0.289	0.059
-144.531	-200.000	0.062	-0.330
-143.516	-200.000	-0.013	0.072
-142.502	-14.836	-0.281	0.178
-141.487	800.000	-0.020	-0.086
-140.472	-26.900	-0.198	-0.114
-139.458	54.704	0.209	-0.199
-138.443	-37.980	-0.110	0.058
-137.429	125.264	0.269	-0.334
-136.414	88.894	-0.106	0.116
-135.399	147.696	-0.105	-0.140
-134.385	-96.122	-0.116	-0.030
-133.370	-42.490	-0.400	0.201
-132.356	-158.068	-0.169	0.010
-131.341	-200.000	0.049	-0.309
-130.326	-200.000	0.007	-0.218
-129.312	-153.330	-0.185	-0.013
-128.297	-200.000	-0.047	-0.591
-127.283	16.166	0.394	-0.306
-126.268	800.000	-0.042	0.141
-125.253	-13.672	-0.141	-0.090
-124.239	-36.600	-0.059	-0.031
-123.224	-200.000	-0.064	0.348
-122.210	23.377	0.129	0.105
-121.195	-200.000	-0.020	0.199
