DTS Sentinel unit serial number:	SN413079Multiplexer serial number:	ORYXHardware model number:	OX4-SRSoftware version number:	ORYX F/W v4.00 Oryx Data Collector v3.7.2.0data status	okinstallation	princeton_trtdifferential loss correction	single-endedforward channel	channel 3reverse channel	N/Adate	2019/09/17time	04:40:34forward acquisition time	60.00reverse acquisition time	0.00gamma	496.2192k internal	0.2323k external	0.2323temperature offset calibration	0.9942default loss term (dB/km)	0.3790temperature slope calibration	1.0000multiplexer offset coefficient	1.0000multiplexer slope coefficient	1.0000fibre end	0.00T internal ref (°C)	29.61T ext. ref 1 (°C)	0.13T ext. ref 2 (°C)	24.05length (m)	temperature (°C)	Stokes	anti-Stokes-747.200	424.440	-0.024	0.053
-746.185	-62.491	0.351	-0.147
-745.171	436.366	-0.082	0.180
-744.156	800.000	-0.111	0.368
-743.142	800.000	0.029	-0.125
-742.127	145.276	-0.209	-0.282
-741.112	-11.960	-0.027	0.018
-740.098	-88.682	0.118	0.035
-739.083	-108.736	0.172	-0.037
-738.069	-200.000	-0.041	0.183
-737.054	-200.000	-0.019	0.158
-736.039	328.437	-0.040	-0.077
-735.025	-200.000	-0.008	0.146
-734.010	-107.607	-0.176	-0.039
-732.996	-163.242	-0.323	0.016
-731.981	800.000	0.042	0.181
-730.966	-112.334	-0.185	0.037
-729.952	-127.339	0.082	0.012
-728.937	-200.000	0.005	-0.039
-727.923	183.022	0.102	0.152
-726.908	155.212	0.051	0.071
-725.894	-88.204	0.228	0.069
-724.879	-200.000	0.070	-0.322
-723.864	-200.000	-0.076	-0.466
-722.850	63.322	-0.198	-0.200
-721.835	-102.567	-0.452	-0.109
-720.821	-200.000	-0.051	0.309
-719.806	800.000	-0.088	0.315
-718.791	66.012	-0.162	-0.166
-717.777	-73.407	-0.381	-0.140
-716.762	-200.000	-0.012	-0.147
-715.748	-200.000	-0.013	-0.232
-714.733	278.008	-0.242	-0.435
-713.718	230.276	-0.052	0.085
-712.704	800.000	0.055	-0.221
-711.689	51.725	-0.253	0.243
-710.675	-111.752	-0.281	-0.057
-709.660	744.749	0.042	-0.113
-708.645	-200.000	0.002	0.054
-707.631	-91.955	-0.148	-0.042
-706.616	369.386	-0.078	-0.160
-705.602	9.944	0.192	0.147
-704.587	-19.375	0.211	-0.132
-703.572	162.166	-0.240	0.339
-702.558	-95.183	-0.134	0.036
-701.543	-91.385	-0.202	0.058
-700.529	-200.000	-0.013	0.125
-699.514	-107.458	0.469	-0.104
-698.499	308.312	0.101	-0.189
-697.485	-54.667	-0.213	-0.097
-696.470	209.813	-0.017	-0.026
-695.456	23.049	-0.177	-0.147
-694.441	-3.047	-0.215	-0.151
-693.426	-192.187	0.205	0.002
-692.412	-176.902	-0.241	0.006
-691.397	-200.000	-0.014	-0.152
-690.383	-158.680	-0.132	0.008
-689.368	-144.291	-0.243	-0.023
-688.354	-58.536	-0.279	-0.122
-687.339	-200.000	0.001	-0.403
-686.324	718.812	-0.100	-0.267
-685.310	529.202	-0.014	-0.034
-684.295	13.344	0.262	0.205
-683.281	188.529	0.046	0.070
-682.266	-23.740	-0.393	0.237
-681.251	28.988	0.342	0.292
-680.237	159.068	0.071	-0.100
-679.222	521.931	0.142	-0.335
-678.208	-200.000	0.022	0.227
-677.193	-16.915	0.161	-0.102
-676.178	-42.104	-0.219	0.113
-675.164	-200.000	0.100	0.465
-674.149	560.251	0.145	-0.352
-673.135	-5.195	0.096	-0.067
-672.120	-135.135	-0.217	0.026
-671.105	-135.766	-0.283	-0.034
-670.091	156.536	-0.282	0.392
-669.076	-57.087	-0.073	-0.032
-668.062	800.000	0.135	-0.403
-667.047	-127.846	-0.296	0.043
-666.032	-23.505	-0.182	-0.110
-665.018	523.018	0.070	-0.166
-664.003	-1.619	-0.068	-0.048
-662.989	-101.383	-0.167	-0.041
-661.974	-0.344	-0.294	0.210
-660.959	102.562	0.276	0.325
-659.945	-174.905	-0.659	-0.019
-658.930	800.000	0.054	0.214
-657.916	-200.000	-0.247	0.001
-656.901	532.245	-0.109	-0.260
-655.886	-23.716	-0.047	-0.028
-654.872	-200.000	0.026	0.150
-653.857	184.469	0.186	-0.277
-652.843	-96.652	0.311	-0.083
-651.828	113.151	0.224	0.273
-650.814	-200.000	0.019	-0.346
-649.799	800.000	-0.051	-0.205
-648.784	-149.599	0.164	-0.013
-647.770	-200.000	0.023	0.105
-646.755	-100.922	-0.386	-0.095
-645.741	800.000	0.055	0.197
-644.726	53.999	-0.177	0.171
-643.711	168.902	0.129	0.185
-642.697	359.587	-0.115	0.231
-641.682	83.124	-0.140	-0.154
-640.668	-171.677	0.238	0.008
-639.653	-200.000	-0.050	-0.238
-638.638	-180.901	0.239	-0.005
-637.624	800.000	-0.078	0.302
-636.609	-71.370	0.262	-0.099
-635.595	-90.117	-0.092	0.027
-634.580	101.973	-0.087	0.102
-633.565	800.000	0.145	-0.421
-632.551	334.214	0.123	0.239
-631.536	-38.992	0.182	0.096
-630.522	-11.561	-0.097	0.064
-629.507	800.000	0.074	0.250
-628.492	-69.205	-0.182	-0.071
-627.478	-128.374	0.130	-0.019
-626.463	12.099	-0.186	0.144
-625.449	-0.923	0.230	0.164
-624.434	-81.499	-0.267	-0.088
-623.419	-23.186	0.242	0.146
-622.405	800.000	0.107	0.470
-621.390	-200.000	0.046	0.268
-620.376	-69.933	-0.177	0.068
-619.361	132.708	0.031	0.040
-618.346	-105.414	-0.022	0.005
-617.332	-200.000	0.030	-0.274
-616.317	800.000	-0.065	-0.228
-615.303	-135.737	0.090	-0.011
-614.288	-169.892	0.207	0.007
-613.273	800.000	0.067	-0.194
-612.259	-70.398	-0.401	0.153
-611.244	565.463	0.076	-0.186
-610.230	-94.059	-0.071	-0.020
-609.215	800.000	-0.050	-0.164
-608.201	-100.487	0.139	0.034
-607.186	252.015	0.113	0.194
-606.171	-200.000	0.029	-0.144
-605.157	-193.490	-0.024	0.000
-604.142	-60.739	-0.131	-0.056
-603.128	-1.947	-0.044	-0.031
-602.113	450.310	0.116	-0.257
-601.098	193.938	0.038	0.058
-600.084	786.616	-0.057	-0.158
-599.069	-200.000	-0.019	-0.091
-598.055	180.452	-0.165	-0.243
-597.040	-16.018	-0.111	0.071
-596.025	800.000	-0.048	-0.200
-595.011	106.825	-0.202	-0.241
-593.996	-62.509	0.074	-0.031
-592.982	64.680	0.111	0.112
-591.967	41.092	-0.082	0.074
-590.952	-59.700	-0.289	-0.124
-589.938	-176.805	-0.077	0.002
-588.923	717.214	0.026	0.068
-587.909	-79.316	-0.228	-0.078
-586.894	-103.732	0.145	0.034
-585.879	800.000	-0.107	-0.330
-584.865	-95.391	-0.065	-0.017
-583.850	208.246	0.101	0.158
-582.836	-45.220	0.143	-0.071
-581.821	-113.180	-0.102	-0.020
-580.806	-118.905	0.173	0.030
-579.792	195.576	0.298	0.454
-578.777	-24.057	0.184	0.110
-577.763	-19.325	-0.278	0.173
-576.748	-14.742	-0.129	-0.083
-575.733	83.701	-0.169	-0.184
-574.719	-47.296	-0.335	0.164
-573.704	164.867	0.129	-0.183
-572.690	-200.000	0.001	-0.147
-571.675	-83.195	-0.115	-0.037
-570.661	800.000	-0.018	0.073
-569.646	264.428	-0.111	0.195
-568.631	6.583	0.218	-0.163
-567.617	-119.657	0.189	-0.033
-566.602	-167.176	0.253	0.010
-565.588	-143.531	-0.280	0.027
-564.573	-134.420	-0.221	0.027
-563.558	-173.820	-0.186	0.006
-562.544	385.542	-0.066	-0.137
-561.529	-200.000	0.010	0.446
-560.515	67.735	0.231	0.237
-559.500	6.119	0.153	-0.114
-558.485	133.109	-0.137	0.178
-557.471	-5.797	0.188	-0.129
-556.456	800.000	-0.073	0.257
-555.442	-200.000	-0.007	-0.307
-554.427	-175.534	0.079	0.002
-553.412	155.492	-0.124	0.172
-552.398	-13.383	0.262	-0.170
-551.383	106.050	0.118	0.139
-550.369	800.000	-0.060	0.227
-549.354	432.570	-0.024	-0.051
-548.339	-23.995	0.213	-0.128
-547.325	-200.000	-0.026	-0.128
-546.310	-200.000	0.045	-0.456
-545.296	14.579	-0.053	0.041
-544.281	-200.000	-0.036	0.192
-543.266	-41.149	-0.064	-0.033
-542.252	-200.000	-0.032	0.279
-541.237	-193.156	0.439	0.004
-540.223	142.392	0.207	-0.275
-539.208	281.966	-0.164	-0.294
-538.193	-43.194	0.124	-0.063
-537.179	-60.905	0.259	-0.110
-536.164	-98.777	0.229	0.058
-535.150	-60.797	-0.280	-0.119
-534.135	-50.802	0.482	-0.227
-533.121	800.000	-0.053	0.166
-532.106	-64.373	0.040	0.016
-531.091	800.000	0.053	0.169
-530.077	16.390	-0.463	-0.366
-529.062	22.288	-0.034	0.028
-528.048	-99.238	0.284	0.072
-527.033	1.518	0.326	0.235
-526.018	-3.217	0.223	0.156
-525.004	-103.355	-0.371	-0.087
-523.989	30.882	0.266	0.228
-522.975	-55.635	0.274	0.123
-521.960	-200.000	0.035	0.315
-520.945	800.000	0.109	0.318
-519.931	-200.000	0.041	0.233
-518.916	-111.094	0.085	0.017
-517.902	-93.056	0.310	0.087
-516.887	429.153	-0.104	0.226
-515.872	-155.562	-0.401	0.026
-514.858	34.990	0.194	-0.170
-513.843	377.615	0.216	-0.442
-512.829	270.702	0.145	-0.254
-511.814	146.400	-0.196	-0.263
-510.799	15.819	-0.140	0.111
-509.785	197.301	0.123	0.188
-508.770	82.118	0.134	-0.145
-507.756	-116.467	0.245	-0.045
-506.741	-23.858	0.242	-0.145
-505.726	262.919	0.155	-0.270
-504.712	-130.215	-0.462	0.063
-503.697	-200.000	-0.004	-0.226
-502.683	-41.706	0.201	-0.103
-501.668	-98.233	0.117	0.030
-500.653	-200.000	0.022	-0.219
-499.639	30.852	0.164	0.141
-498.624	-200.000	0.032	0.294
-497.610	738.676	0.089	-0.238
-496.595	-152.211	0.320	0.023
-495.581	-105.256	-0.257	-0.059
-494.566	74.101	-0.062	0.065
-493.551	-3.589	0.422	0.293
-492.537	800.000	0.044	0.131
-491.522	23.576	-0.062	-0.051
-490.508	126.756	-0.088	-0.112
-489.493	615.578	-0.159	0.398
-488.478	-81.122	0.155	0.051
-487.464	-154.275	-0.305	-0.021
-486.449	45.115	-0.174	0.160
-485.435	675.351	-0.099	-0.258
-484.420	-40.222	-0.010	-0.005
-483.405	-101.911	0.478	0.115
-482.391	46.269	-0.051	0.047
-481.376	-8.310	-0.057	-0.038
-480.362	335.657	-0.190	0.368
-479.347	-61.436	-0.226	-0.095
-478.332	800.000	0.037	0.147
-477.318	-39.632	0.167	0.087
-476.303	800.000	0.033	0.091
-475.289	-91.481	0.375	0.107
-474.274	38.959	0.074	0.066
-473.259	11.359	-0.191	0.146
-472.245	-1.980	0.195	0.137
-471.230	800.000	-0.057	-0.204
-470.216	128.882	0.121	-0.155
-469.201	-200.000	-0.015	-0.238
-468.186	-200.000	0.049	0.302
-467.172	-68.382	-0.334	0.129
-466.157	-32.943	-0.168	0.093
-465.143	-99.660	0.139	-0.035
-464.128	-200.000	0.013	-0.065
-463.113	800.000	0.065	0.250
-462.099	-156.057	-0.118	0.007
-461.084	-84.287	0.225	0.071
-460.070	46.934	0.102	0.095
-459.055	-183.342	-0.132	-0.002
-458.040	-8.429	-0.064	-0.043
-457.026	-4.396	0.074	-0.051
-456.011	4.371	0.130	-0.095
-454.997	-78.356	0.357	0.122
-453.982	509.899	0.082	-0.189
-452.968	-7.680	0.230	-0.155
-451.953	-118.267	0.482	-0.086
-450.938	-200.000	-0.006	0.133
-449.924	379.322	0.096	-0.197
-448.909	92.848	0.253	0.285
-447.895	75.417	-0.061	-0.065
-446.880	-200.000	-0.002	0.030
-445.865	49.152	0.071	-0.067
-444.851	-200.000	-0.055	-0.294
-443.836	-200.000	-0.029	-0.270
-442.822	-49.419	0.221	-0.105
-441.807	-113.942	0.029	0.006
-440.792	112.101	-0.116	0.139
-439.778	143.732	0.150	0.200
-438.763	101.777	0.141	-0.164
-437.749	26.312	-0.197	-0.164
-436.734	378.699	0.044	0.089
-435.719	800.000	-0.039	-0.148
-434.705	46.713	-0.062	0.057
-433.690	413.498	-0.056	0.119
-432.676	-200.000	-0.025	-0.433
-431.661	800.000	0.027	-0.079
-430.646	-56.816	-0.156	0.069
-429.632	82.564	-0.082	-0.089
-428.617	104.683	-0.045	0.053
-427.603	-98.226	-0.358	0.092
-426.588	218.078	0.067	-0.107
-425.573	-40.786	0.041	0.021
-424.559	-200.000	-0.001	-0.175
-423.544	-200.000	-0.019	-0.419
-422.530	77.155	-0.160	-0.170
-421.515	16.592	0.213	-0.168
-420.500	317.104	-0.096	-0.181
-419.486	-200.000	-0.003	-0.090
-418.471	-6.536	0.099	0.067
-417.457	-79.514	0.346	0.116
-416.442	403.315	-0.156	0.326
-415.428	145.585	-0.033	0.045
-414.413	-82.182	-0.102	-0.033
-413.398	800.000	-0.101	0.309
-412.384	-50.596	0.158	0.074
-411.369	28.741	-0.165	0.139
-410.355	-88.156	0.322	-0.096
-409.340	-185.265	0.315	-0.005
-408.325	477.414	0.052	0.117
-407.311	219.371	-0.161	-0.256
-406.296	-37.143	-0.300	-0.160
-405.282	-200.000	-0.005	0.029
-404.267	-137.377	0.171	-0.019
-403.252	800.000	0.052	-0.168
-402.238	800.000	-0.050	-0.150
-401.223	-15.996	-0.066	-0.042
-400.209	116.961	0.043	0.052
-399.194	11.444	-0.108	-0.082
-398.179	-200.000	0.012	-0.130
-397.165	800.000	-0.054	0.201
-396.150	39.038	0.125	-0.112
-395.136	-200.000	0.051	-0.668
-394.121	13.357	0.102	-0.079
-393.106	493.108	0.056	0.128
-392.092	-11.403	-0.264	0.173
-391.077	-12.661	-0.197	0.128
-390.063	644.864	0.026	0.066
-389.048	-64.907	-0.342	0.138
-388.033	158.573	-0.269	-0.372
-387.019	148.470	0.142	0.191
-386.004	73.711	-0.104	0.108
-384.990	-44.369	-0.063	-0.032
-383.975	131.385	-0.050	0.064
-382.960	-161.890	-0.048	0.002
-381.946	-39.682	0.271	-0.141
-380.931	-21.614	-0.053	-0.032
-379.917	94.887	-0.088	-0.099
-378.902	-200.000	-0.008	-0.171
-377.888	-6.861	0.255	-0.173
-376.873	137.595	-0.101	0.131
-375.858	-200.000	-0.075	0.332
-374.844	800.000	-0.010	0.034
-373.829	526.603	0.125	-0.294
-372.815	-77.958	-0.222	0.076
-371.800	7.732	-0.261	0.194
-370.785	211.618	-0.219	0.343
-369.771	-148.218	0.219	-0.018
-368.756	-51.630	0.031	0.014
-367.742	49.339	0.080	0.075
-366.727	-200.000	-0.002	0.221
-365.712	285.392	-0.025	-0.045
-364.698	471.910	-0.091	0.204
-363.683	-89.278	0.097	-0.028
-362.669	-200.000	0.011	0.070
-361.654	-157.281	-0.300	-0.018
-360.639	64.411	0.058	0.058
-359.625	182.877	0.101	0.148
-358.610	-103.157	0.233	0.055
-357.596	-127.919	-0.360	0.052
-356.581	-135.130	-0.127	-0.015
-355.566	-2.864	0.186	0.129
-354.552	-152.184	0.378	-0.027
-353.537	-16.465	-0.316	-0.199
-352.523	46.384	0.042	0.039
-351.508	313.410	-0.051	0.095
-350.493	800.000	0.007	-0.024
-349.479	11.673	-0.200	-0.153
-348.464	-200.000	0.067	0.465
-347.450	-70.101	0.127	-0.048
-346.435	-152.422	0.228	-0.016
-345.420	800.000	-0.027	-0.105
-344.406	-125.206	-0.339	-0.052
-343.391	706.688	-0.082	-0.215
-342.377	-200.000	0.015	-0.174
-341.362	-14.156	-0.296	0.190
-340.348	-67.517	-0.276	-0.108
-339.333	-71.917	-0.027	-0.010
-338.318	117.454	-0.144	0.177
-337.304	-200.000	0.033	-0.168
-336.289	188.101	0.148	-0.219
-335.275	51.292	-0.082	-0.078
-334.260	-200.000	-0.018	-0.113
-333.245	800.000	-0.059	-0.241
-332.231	800.000	-0.129	-0.371
-331.216	401.030	0.063	0.131
-330.202	324.220	0.027	0.051
-329.187	385.922	-0.090	-0.185
-328.172	23.716	0.239	-0.195
-327.158	162.491	-0.035	0.049
-326.143	-55.910	0.110	-0.049
-325.129	-91.115	-0.154	0.044
-324.114	-200.000	0.001	0.092
-323.099	800.000	0.084	0.288
-322.085	-200.000	-0.011	0.346
-321.070	-50.460	-0.491	-0.230
-320.056	-6.311	0.147	0.100
-319.041	800.000	0.028	0.080
-318.026	-37.612	-0.222	-0.118
-317.012	-5.694	0.194	-0.132
-315.997	800.000	-0.013	0.042
-314.983	371.402	-0.155	0.311
-313.968	-200.000	0.081	0.396
-312.953	461.362	0.035	-0.077
-311.939	-200.000	-0.026	0.134
-310.924	-8.782	0.138	-0.092
-309.910	-105.206	-0.364	-0.083
-308.895	81.597	-0.023	0.025
-307.880	-26.054	-0.139	0.081
-306.866	177.114	-0.261	0.377
-305.851	-158.867	0.339	0.019
-304.837	244.551	0.132	0.220
-303.822	-200.000	0.003	-0.120
-302.807	155.388	-0.185	-0.253
-301.793	-200.000	-0.007	-0.083
-300.778	-104.413	0.451	-0.104
-299.764	-9.886	0.168	-0.111
-298.749	-200.000	0.033	0.281
-297.735	-124.987	0.042	0.006
-296.720	800.000	0.067	-0.218
-295.705	-11.121	0.119	-0.078
-294.691	222.557	0.112	-0.178
-293.676	18.478	0.186	-0.148
-292.662	-7.638	-0.162	0.109
-291.647	551.119	-0.033	-0.079
-290.632	-43.464	-0.128	0.064
-289.618	800.000	0.054	0.164
-288.603	800.000	-0.039	0.154
-287.589	85.678	0.135	-0.147
-286.574	501.069	0.165	0.378
-285.559	800.000	-0.095	0.370
-284.545	230.133	-0.107	-0.174
-283.530	-26.558	0.065	0.038
-282.516	-200.000	-0.032	0.326
-281.501	-28.118	0.115	0.066
-280.486	-200.000	0.060	0.369
-279.472	150.126	-0.104	0.140
-278.457	123.667	-0.090	0.112
-277.443	246.724	-0.064	0.108
-276.428	-108.312	-0.246	-0.053
-275.413	-200.000	0.004	-0.103
-274.399	-109.628	0.063	0.013
-273.384	800.000	0.064	0.240
-272.370	89.511	-0.350	0.387
-271.355	-57.513	-0.212	0.092
-270.340	-143.272	-0.121	-0.012
-269.326	-1.409	0.145	0.101
-268.311	190.314	0.107	0.159
-267.297	-47.831	-0.041	0.020
-266.282	421.862	0.078	-0.166
-265.267	244.757	-0.070	0.117
-264.253	-154.917	-0.172	-0.011
-263.238	-22.084	-0.176	-0.106
-262.224	-40.943	-0.144	-0.074
-261.209	-200.000	0.070	0.333
-260.195	248.219	-0.176	-0.295
-259.180	-94.384	-0.136	-0.037
-258.165	-200.000	-0.008	-0.066
-257.151	20.536	-0.139	-0.111
-256.136	-78.309	0.469	-0.159
-255.122	-51.478	0.207	0.096
-254.107	-200.000	0.066	0.396
-253.092	-200.000	0.042	-0.254
-252.078	-26.483	0.238	0.138
-251.063	674.731	0.075	-0.193
-250.049	201.259	0.059	0.090
-249.034	-200.000	0.017	-0.267
-248.019	-200.000	0.004	0.078
-247.005	800.000	0.091	-0.258
-245.990	-47.736	-0.195	0.093
-244.976	106.851	0.199	-0.234
-243.961	215.681	-0.280	-0.441
-242.946	-200.000	0.050	-0.331
-241.932	-20.721	-0.152	-0.092
-240.917	-37.625	-0.220	0.116
-239.903	786.304	0.097	0.265
-238.888	595.252	0.041	-0.100
-237.873	126.192	-0.034	0.042
-236.859	-200.000	0.028	-0.179
-235.844	-50.048	0.233	-0.109
-234.830	232.416	-0.193	0.314
-233.815	-28.684	0.065	0.037
-232.800	-200.000	-0.006	-0.342
-231.786	199.569	0.184	-0.280
-230.771	75.888	0.145	-0.151
-229.757	-127.402	-0.283	-0.041
-228.742	800.000	0.167	0.602
-227.727	173.874	0.034	0.048
-226.713	800.000	-0.076	-0.247
-225.698	-127.328	-0.313	0.045
-224.684	56.910	-0.175	0.169
-223.669	-40.834	0.011	0.006
-222.655	239.818	0.120	-0.199
-221.640	-7.753	-0.082	-0.055
-220.625	210.289	-0.073	-0.114
-219.611	-200.000	0.005	0.141
-218.596	78.559	0.320	0.339
-217.582	800.000	0.017	-0.061
-216.567	-45.252	-0.356	0.175
-215.552	-93.654	-0.241	-0.066
-214.538	800.000	-0.100	-0.385
-213.523	-200.000	-0.017	-0.151
-212.509	-7.539	-0.296	0.198
-211.494	800.000	-0.046	0.149
-210.479	31.189	0.148	0.126
-209.465	-4.995	-0.139	0.095
-208.450	130.499	0.235	-0.298
-207.436	-200.000	0.058	-0.258
-206.421	-145.242	-0.238	-0.021
-205.406	26.658	-0.033	-0.027
-204.392	-200.000	0.000	-0.216
-203.377	-135.894	-0.368	-0.043
-202.363	-36.101	0.153	0.082
-201.348	800.000	0.091	0.248
-200.333	469.495	-0.160	-0.356
-199.319	-153.718	0.149	0.010
-198.304	101.472	-0.175	-0.202
-197.290	-16.295	-0.179	0.112
-196.275	-101.356	-0.251	0.061
-195.260	193.903	-0.160	0.240
-194.246	288.109	0.093	-0.167
-193.231	777.316	0.061	0.164
-192.217	57.419	-0.142	0.137
-191.202	46.156	-0.127	-0.116
-190.187	10.007	0.107	-0.080
-189.173	263.884	0.136	-0.233
-188.158	800.000	-0.065	-0.271
-187.144	100.126	-0.171	-0.195
-186.129	-46.470	-0.149	-0.072
-185.114	800.000	0.059	0.183
-184.100	370.790	0.138	-0.276
-183.085	-92.532	-0.390	0.108
-182.071	-68.945	0.394	0.150
-181.056	800.000	-0.045	-0.167
-180.042	-123.414	-0.297	-0.047
-179.027	-6.587	0.108	0.073
-178.012	170.077	0.155	0.219
-176.998	395.614	0.052	0.108
-175.983	82.417	0.084	0.090
-174.969	-23.583	-0.130	0.077
-173.954	548.028	-0.104	0.245
-172.939	-90.944	-0.167	-0.047
-171.925	81.658	-0.046	-0.049
-170.910	14.154	-0.085	0.065
-169.896	-5.290	0.226	-0.153
-168.881	170.077	-0.064	0.091
-167.866	-200.000	-0.054	0.404
-166.852	-39.594	-0.184	0.095
-165.837	800.000	0.094	0.403
-164.823	-41.295	-0.304	-0.155
-163.808	-200.000	0.017	-0.215
-162.793	-200.000	-0.023	-0.277
-161.779	28.485	0.154	0.128
-160.764	-120.859	0.108	-0.018
-159.750	418.448	-0.077	-0.163
-158.735	800.000	-0.064	-0.260
-157.720	106.519	0.286	-0.335
-156.706	15.976	-0.280	-0.217
-155.691	67.204	0.173	-0.174
-154.677	-200.000	0.010	0.290
-153.662	287.119	0.054	0.096
-152.647	-13.787	0.145	0.093
-151.633	140.613	0.071	-0.093
-150.618	374.752	0.171	-0.345
-149.604	-4.569	-0.205	-0.140
-148.589	-200.000	-0.024	-0.270
-147.574	800.000	-0.059	0.234
-146.560	56.355	-0.192	0.185
-145.545	800.000	0.001	0.003
-144.531	373.275	-0.091	-0.182
-143.516	-200.000	0.052	-0.358
-142.502	41.845	-0.025	0.022
-141.487	-200.000	0.022	-0.443
-140.472	-200.000	0.014	-0.244
-139.458	-200.000	0.015	0.231
-138.443	-88.010	-0.287	0.085
-137.429	232.785	-0.066	0.108
-136.414	120.708	-0.086	0.105
-135.399	-0.924	0.298	-0.208
-134.385	-200.000	0.016	0.147
-133.370	-200.000	0.015	-0.160
-132.356	-129.295	-0.312	0.043
-131.341	-200.000	0.060	0.418
-130.326	-89.673	-0.117	0.034
-129.312	54.352	0.113	-0.107
-128.297	-92.093	0.242	0.068
-127.283	22.752	-0.160	0.129
-126.268	548.723	-0.070	0.164
-125.253	-35.273	-0.173	-0.093
-124.239	155.613	0.291	0.395
-123.224	-17.158	0.043	0.027
-122.210	-140.610	0.127	-0.013
-121.195	-200.000	0.039	-0.234
