DTS Sentinel unit serial number:	SN413079Multiplexer serial number:	ORYXHardware model number:	OX4-SRSoftware version number:	ORYX F/W v4.00 Oryx Data Collector v3.7.2.0data status	okinstallation	princeton_trtdifferential loss correction	single-endedforward channel	channel 3reverse channel	N/Adate	2019/09/18time	06:36:35forward acquisition time	60.00reverse acquisition time	0.00gamma	496.2192k internal	0.2343k external	0.2343temperature offset calibration	0.9948default loss term (dB/km)	0.3790temperature slope calibration	1.0000multiplexer offset coefficient	1.0000multiplexer slope coefficient	1.0000fibre end	0.00T internal ref (°C)	23.31T ext. ref 1 (°C)	0.19T ext. ref 2 (°C)	17.18length (m)	temperature (°C)	Stokes	anti-Stokes-747.200	-11.023	-0.173	-0.114
-746.185	272.147	0.066	0.116
-745.171	-9.746	-0.146	-0.097
-744.156	-154.356	-0.236	-0.016
-743.142	51.202	0.187	0.178
-742.127	-95.791	0.108	0.029
-741.112	-124.145	0.284	-0.045
-740.098	366.109	-0.217	0.437
-739.083	93.069	0.234	0.265
-738.069	216.630	0.119	0.190
-737.054	-0.928	0.072	-0.051
-736.039	297.867	-0.156	-0.286
-735.025	-5.039	0.103	-0.071
-734.010	122.552	-0.271	-0.339
-732.996	-200.000	-0.075	-0.400
-731.981	188.512	-0.126	0.189
-730.966	373.090	0.091	0.184
-729.952	3.285	0.226	-0.164
-728.937	-140.966	0.084	-0.009
-727.923	800.000	-0.087	0.379
-726.908	-200.000	-0.024	-0.381
-725.894	-103.354	-0.440	-0.104
-724.879	800.000	-0.056	0.166
-723.864	-117.323	0.255	0.046
-722.850	65.437	0.110	0.111
-721.835	-17.157	0.276	-0.174
-720.821	-95.281	-0.300	0.081
-719.806	800.000	0.083	-0.343
-718.791	-142.960	0.303	-0.029
-717.777	45.008	-0.289	-0.266
-716.762	-26.070	0.179	0.105
-715.748	12.035	-0.220	-0.169
-714.733	34.254	-0.207	-0.181
-713.718	48.528	-0.154	-0.144
-712.704	800.000	-0.034	-0.133
-711.689	-60.269	-0.279	0.119
-710.675	-112.376	0.357	0.071
-709.660	-200.000	-0.008	-0.321
-708.645	-200.000	0.002	-0.404
-707.631	-99.966	0.397	0.099
-706.616	247.483	0.239	-0.403
-705.602	627.171	-0.165	-0.416
-704.587	-200.000	0.271	0.000
-703.572	399.277	-0.083	-0.174
-702.558	165.010	-0.075	-0.105
-701.543	800.000	0.067	0.278
-700.529	-200.000	0.002	0.126
-699.514	-200.000	-0.045	-0.434
-698.499	800.000	-0.082	-0.267
-697.485	-200.000	-0.038	-0.369
-696.470	-123.699	-0.165	-0.026
-695.456	-86.668	0.186	-0.057
-694.441	21.352	-0.069	0.056
-693.426	-27.831	-0.098	-0.057
-692.412	-66.300	-0.483	0.192
-691.397	78.138	-0.114	-0.122
-690.383	11.535	0.100	-0.076
-689.368	-173.618	-0.124	-0.004
-688.354	800.000	-0.044	0.182
-687.339	-92.023	0.160	0.045
-686.324	-200.000	0.022	0.200
-685.310	800.000	0.109	0.455
-684.295	-200.000	-0.005	-0.363
-683.281	-51.040	-0.174	-0.081
-682.266	248.781	-0.132	0.224
-681.251	183.607	-0.155	-0.229
-680.237	-151.029	-0.146	0.011
-679.222	-200.000	-0.032	-0.273
-678.208	-97.831	0.081	0.021
-677.193	90.791	-0.106	0.118
-676.178	-112.402	0.190	-0.038
-675.164	800.000	-0.050	-0.183
-674.149	520.339	-0.188	0.440
-673.135	-43.351	-0.287	-0.145
-672.120	19.995	-0.334	-0.269
-671.105	-91.101	-0.089	-0.026
-670.091	205.973	-0.089	0.139
-669.076	-40.336	0.218	-0.113
-668.062	800.000	0.060	-0.181
-667.047	308.157	0.152	0.283
-666.032	-113.217	-0.483	-0.095
-665.018	112.741	0.088	0.107
-664.003	25.606	-0.084	-0.070
-662.989	55.123	-0.189	-0.183
-661.974	-55.804	0.219	0.098
-660.959	439.422	0.055	-0.120
-659.945	-200.000	0.009	0.107
-658.930	394.987	-0.106	0.221
-657.916	-200.000	0.016	-0.164
-656.901	800.000	-0.046	-0.190
-655.886	-70.171	0.066	0.025
-654.872	800.000	0.056	-0.198
-653.857	33.934	-0.174	0.151
-652.843	-155.913	0.105	0.007
-651.828	44.826	0.069	0.063
-650.814	202.141	-0.279	-0.429
-649.799	-125.793	-0.060	0.009
-648.784	-11.867	0.422	-0.276
-647.770	-40.377	-0.062	0.032
-646.755	-200.000	-0.027	0.272
-645.741	-34.843	-0.049	-0.027
-644.726	-88.446	0.284	-0.085
-643.711	587.646	-0.075	-0.184
-642.697	29.197	-0.015	-0.012
-641.682	-52.588	0.221	-0.102
-640.668	-95.435	0.422	-0.113
-639.653	-53.959	-0.100	0.045
-638.638	403.446	0.085	0.179
-637.624	-141.641	-0.012	-0.001
-636.609	-24.380	0.246	-0.146
-635.595	-162.362	0.093	0.005
-634.580	15.735	0.227	0.178
-633.565	-63.706	0.234	-0.095
-632.551	66.691	-0.050	-0.051
-631.536	323.670	0.102	-0.194
-630.522	-108.961	-0.589	0.125
-629.507	-193.770	-0.226	-0.002
-628.492	-123.551	0.248	-0.039
-627.478	25.600	0.060	-0.050
-626.463	-112.703	-0.361	-0.072
-625.449	281.376	-0.083	-0.149
-624.434	-127.234	-0.204	-0.030
-623.419	-72.551	-0.247	0.091
-622.405	134.144	0.157	-0.202
-621.390	800.000	0.073	0.225
-620.376	129.548	-0.230	0.293
-619.361	-80.805	-0.149	-0.049
-618.346	35.365	0.285	0.249
-617.332	138.493	0.119	0.155
-616.317	-186.807	0.128	0.002
-615.303	-1.201	-0.074	-0.052
-614.288	303.667	-0.103	-0.190
-613.273	-172.372	-0.399	0.013
-612.259	-50.788	0.271	0.127
-611.244	800.000	-0.019	0.054
-610.230	155.738	0.271	0.372
-609.215	-200.000	-0.043	0.194
-608.201	104.996	0.037	-0.043
-607.186	-114.271	-0.281	0.054
-606.171	64.779	-0.208	-0.209
-605.157	-58.651	0.212	-0.092
-604.142	800.000	0.083	0.268
-603.128	267.710	-0.048	0.084
-602.113	-95.081	-0.157	-0.042
-601.098	362.448	-0.008	-0.016
-600.084	-7.557	-0.261	0.176
-599.069	30.711	0.103	-0.087
-598.055	287.289	-0.175	-0.315
-597.040	61.776	0.124	-0.123
-596.025	-100.508	0.175	0.043
-595.011	-88.961	-0.086	-0.025
-593.996	406.103	-0.014	0.030
-592.982	800.000	0.028	-0.112
-591.967	51.890	0.062	0.058
-590.952	396.500	-0.076	0.158
-589.938	-104.764	-0.119	-0.027
-588.923	800.000	0.068	0.257
-587.909	-34.918	-0.260	-0.141
-586.894	-108.043	0.087	0.019
-585.879	123.601	0.176	-0.220
-584.865	476.666	0.094	0.210
-583.850	-114.889	-0.199	0.038
-582.836	-92.070	-0.153	-0.043
-581.821	-200.000	-0.018	0.494
-580.806	103.810	0.107	0.125
-579.792	-38.590	0.117	0.061
-578.777	800.000	-0.069	-0.279
-577.763	-200.000	-0.011	-0.207
-576.748	-200.000	0.061	0.000
-575.733	-200.000	-0.045	0.331
-574.719	800.000	0.077	0.218
-573.704	-124.542	0.140	0.022
-572.690	-85.112	0.233	-0.072
-571.675	22.640	-0.066	0.054
-570.661	65.073	-0.184	-0.185
-569.646	261.380	0.031	0.054
-568.631	-200.000	0.001	0.125
-567.617	-132.140	0.341	-0.044
-566.602	-200.000	-0.007	0.085
-565.588	-34.845	-0.390	-0.212
-564.573	191.818	-0.292	-0.438
-563.558	-146.753	-0.278	0.024
-562.544	-137.021	0.452	0.051
-561.529	104.873	-0.269	-0.315
-560.515	-158.111	0.152	-0.009
-559.500	800.000	-0.032	-0.135
-558.485	653.127	0.116	-0.296
-557.471	-123.857	0.144	-0.023
-556.456	1.919	-0.055	-0.039
-555.442	800.000	0.043	-0.157
-554.427	-141.586	0.155	-0.016
-553.412	-72.722	0.187	-0.068
-552.398	-118.939	-0.148	-0.026
-551.383	584.130	-0.054	-0.131
-550.369	-85.176	-0.534	-0.166
-549.354	-127.174	0.359	-0.052
-548.339	440.233	-0.060	0.130
-547.325	-200.000	0.052	-0.388
-546.310	-86.298	-0.204	0.062
-545.296	-21.001	0.331	-0.201
-544.281	-200.000	-0.029	0.372
-543.266	76.409	-0.268	-0.282
-542.252	3.486	-0.064	-0.046
-541.237	-154.345	-0.093	-0.006
-540.223	105.713	-0.070	-0.082
-539.208	-200.000	0.011	0.096
-538.193	70.159	-0.232	-0.238
-537.179	261.535	0.222	-0.382
-536.164	86.267	-0.079	0.087
-535.150	-7.233	-0.208	0.140
-534.135	-200.000	0.008	0.190
-533.121	-200.000	-0.051	0.297
-532.106	-77.113	-0.025	0.009
-531.091	-137.618	0.201	0.022
-530.077	-200.000	-0.003	-0.303
-529.062	800.000	0.026	-0.090
-528.048	-124.104	0.292	0.045
-527.033	-164.036	0.252	0.012
-526.018	121.859	0.063	0.078
-525.004	-153.920	-0.366	0.025
-523.989	-78.074	0.109	0.037
-522.975	199.395	-0.090	-0.137
-521.960	-200.000	-0.014	0.235
-520.945	-27.802	-0.232	-0.134
-519.931	-149.358	0.207	0.016
-518.916	20.044	-0.176	0.141
-517.902	800.000	-0.068	0.213
-516.887	-50.044	0.182	0.086
-515.872	118.987	0.067	-0.082
-514.858	-71.276	-0.065	-0.024
-513.843	33.970	-0.284	-0.246
-512.829	102.422	-0.009	-0.011
-511.814	1.635	0.326	0.233
-510.799	-158.883	-0.360	-0.020
-509.785	182.377	-0.286	0.419
-508.770	197.307	-0.136	-0.206
-507.756	61.838	0.074	0.073
-506.741	-11.895	0.171	-0.111
-505.726	800.000	0.132	0.426
-504.712	315.326	0.105	0.196
-503.697	282.438	-0.105	0.186
-502.683	-42.952	0.046	-0.023
-501.668	587.592	0.073	-0.179
-500.653	39.736	-0.217	-0.193
-499.639	800.000	0.059	0.171
-498.624	402.268	-0.091	0.190
-497.610	-37.451	0.019	-0.010
-496.595	800.000	-0.051	-0.193
-495.581	-136.179	0.374	-0.043
-494.566	-145.193	0.192	0.017
-493.551	37.857	0.096	0.085
-492.537	-174.658	-0.116	0.003
-491.522	-195.120	0.194	-0.001
-490.508	-82.017	0.188	-0.061
-489.493	-107.504	0.264	0.057
-488.478	-200.000	0.103	0.453
-487.464	-104.902	-0.250	-0.057
-486.449	-200.000	0.020	0.278
-485.435	-142.674	0.407	0.039
-484.420	800.000	0.017	-0.061
-483.405	-200.000	-0.036	-0.523
-482.391	800.000	-0.030	0.096
-481.376	-2.330	0.246	0.171
-480.362	443.210	0.066	-0.143
-479.347	-200.000	-0.043	0.287
-478.332	36.573	0.321	0.281
-477.318	60.822	-0.151	0.149
-476.303	-6.531	0.528	-0.356
-475.289	-175.754	0.308	0.008
-474.274	145.242	0.068	0.090
-473.259	-171.097	0.296	-0.010
-472.245	109.782	0.069	-0.082
-471.230	111.711	-0.145	-0.173
-470.216	16.917	-0.322	0.253
-469.201	405.674	0.036	-0.075
-468.186	800.000	-0.034	-0.134
-467.172	-200.000	0.068	-0.304
-466.157	-68.071	-0.168	0.065
-465.143	-200.000	0.009	0.231
-464.128	-118.207	-0.328	0.058
-463.113	20.813	-0.353	-0.283
-462.099	800.000	-0.049	-0.182
-461.084	-70.305	0.011	-0.004
-460.070	623.130	-0.060	0.149
-459.055	-112.824	0.315	0.062
-458.040	800.000	0.033	-0.111
-457.026	-200.000	0.056	0.336
-456.011	-200.000	-0.027	-0.289
-454.997	-37.942	0.196	-0.103
-453.982	134.473	0.165	-0.212
-452.968	-200.000	-0.055	-0.455
-451.953	164.395	-0.102	0.142
-450.938	-3.237	-0.219	-0.151
-449.924	95.276	0.178	0.201
-448.909	-72.185	-0.257	-0.094
-447.895	-85.651	-0.058	0.018
-446.880	-100.802	-0.031	0.007
-445.865	-36.306	0.199	-0.106
-444.851	101.646	0.029	0.034
-443.836	-115.358	-0.129	-0.024
-442.822	43.082	0.242	-0.218
-441.807	655.262	-0.136	0.346
-440.792	-25.055	-0.173	0.102
-439.778	436.486	0.129	0.279
-438.763	265.853	-0.020	0.035
-437.749	-71.219	-0.188	0.070
-436.734	24.306	-0.297	-0.243
-435.719	-200.000	0.062	0.383
-434.705	-103.954	0.111	0.026
-433.690	29.295	-0.183	0.154
-432.676	-122.404	-0.243	-0.039
-431.661	731.112	0.082	0.217
-430.646	-59.224	-0.233	0.099
-429.632	800.000	0.009	-0.040
-428.617	209.834	0.127	-0.198
-427.603	-122.081	-0.369	-0.060
-426.588	-90.355	0.063	-0.018
-425.573	-200.000	0.020	-0.088
-424.559	45.755	-0.140	-0.128
-423.544	165.616	-0.250	-0.349
-422.530	800.000	-0.038	-0.136
-421.515	-45.195	0.252	0.124
-420.500	-200.000	-0.002	0.025
-419.486	463.205	0.150	0.332
-418.471	-14.267	0.106	0.068
-417.457	-200.000	0.005	0.205
-416.442	-25.574	-0.299	-0.174
-415.428	-3.943	-0.138	0.095
-414.413	-200.000	-0.000	-0.058
-413.398	-200.000	-0.004	-0.201
-412.384	13.486	-0.202	-0.155
-411.369	344.639	0.252	0.488
-410.355	-200.000	0.033	0.319
-409.340	800.000	-0.128	0.382
-408.325	228.665	-0.151	-0.244
-407.311	13.575	0.284	-0.218
-406.296	224.591	-0.080	-0.127
-405.282	-200.000	-0.307	-0.001
-404.267	-46.649	0.368	0.178
-403.252	-200.000	-0.017	-0.280
-402.238	71.743	-0.237	-0.243
-401.223	-200.000	0.015	-0.178
-400.209	800.000	0.056	-0.161
-399.194	166.314	0.207	0.289
-398.179	-111.774	-0.033	0.007
-397.165	318.805	0.173	-0.324
-396.150	-91.948	-0.409	0.114
-395.136	196.197	-0.096	-0.144
-394.121	648.239	-0.128	-0.324
-393.106	296.865	0.098	-0.178
-392.092	-58.646	0.081	0.035
-391.077	-20.052	-0.439	0.267
-390.063	-104.042	0.122	0.028
-389.048	-91.367	-0.227	0.064
-388.033	-200.000	0.028	0.308
-387.019	-105.370	0.282	0.063
-386.004	229.880	-0.083	-0.133
-384.990	-200.000	-0.005	0.240
-383.975	133.622	-0.235	0.300
-382.960	122.474	-0.155	-0.192
-381.946	-186.263	0.095	0.001
-380.931	800.000	-0.044	-0.177
-379.917	-87.348	0.232	-0.069
-378.902	13.308	0.150	-0.115
-377.888	67.853	0.018	0.018
-376.873	-101.621	-0.133	0.032
-375.858	800.000	0.012	-0.039
-374.844	71.242	0.108	-0.110
-373.829	-32.209	-0.238	-0.131
-372.815	-89.865	0.211	-0.061
-371.800	-121.588	-0.213	0.035
-370.785	-9.172	-0.351	0.231
-369.771	314.586	-0.091	-0.170
-368.756	114.312	-0.098	-0.118
-367.742	23.486	0.256	-0.208
-366.727	245.418	0.079	-0.131
-365.712	-67.657	0.188	0.073
-364.698	-200.000	-0.007	0.150
-363.683	-200.000	-0.021	-0.202
-362.669	-133.130	0.220	-0.027
-361.654	8.171	0.228	0.169
-360.639	73.377	0.061	0.063
-359.625	-41.016	0.020	-0.010
-358.610	-70.926	-0.223	0.083
-357.596	-62.442	-0.252	-0.103
-356.581	-200.000	0.014	0.141
-355.566	-200.000	0.070	-0.330
-354.552	-101.308	-0.069	-0.017
-353.537	568.505	-0.017	-0.041
-352.523	-89.792	-0.101	-0.029
-351.508	-200.000	0.078	0.340
-350.493	58.701	-0.072	-0.069
-349.479	62.900	-0.079	-0.078
-348.464	-56.696	-0.320	-0.140
-347.450	800.000	0.079	-0.250
-346.435	34.225	0.107	0.092
-345.420	-147.911	-0.148	-0.012
-344.406	-200.000	0.020	0.228
-343.391	800.000	0.074	-0.271
-342.377	-43.928	-0.278	-0.138
-341.362	-99.447	-0.072	-0.018
-340.348	-131.624	-0.164	-0.021
-339.333	52.965	0.047	-0.045
-338.318	-33.872	-0.149	-0.081
-337.304	164.651	0.066	-0.091
-336.289	-20.362	-0.394	-0.239
-335.275	-200.000	0.018	0.313
-334.260	-200.000	0.040	-0.186
-333.245	611.471	-0.006	-0.016
-332.231	221.092	-0.093	0.147
-331.216	-200.000	0.047	0.341
-330.202	66.755	0.070	0.070
-329.187	-200.000	-0.037	-0.509
-328.172	-38.423	0.046	0.024
-327.158	800.000	-0.016	0.066
-326.143	153.085	0.141	0.190
-325.129	-57.544	-0.098	-0.042
-324.114	93.608	0.052	-0.058
-323.099	800.000	-0.057	0.205
-322.085	487.895	0.085	0.192
-321.070	42.577	0.136	0.122
-320.056	-42.933	-0.064	0.032
-319.041	-61.151	0.197	0.082
-318.026	245.879	-0.090	0.149
-317.012	117.158	0.086	-0.104
-315.997	-200.000	0.026	-0.179
-314.983	-72.316	0.110	-0.040
-313.968	107.258	-0.207	-0.243
-312.953	-10.895	0.077	0.050
-311.939	-200.000	0.026	0.120
-310.924	800.000	0.039	0.148
-309.910	489.274	0.075	-0.168
-308.895	115.537	0.193	0.232
-307.880	-83.102	-0.262	-0.083
-306.866	315.097	-0.115	-0.213
-305.851	-109.138	-0.117	-0.025
-304.837	11.246	0.105	-0.079
-303.822	343.324	-0.100	-0.192
-302.807	-90.716	0.266	0.075
-301.793	2.310	-0.187	0.133
-300.778	482.016	0.015	-0.034
-299.764	258.345	0.094	-0.160
-298.749	8.386	0.257	0.190
-297.735	-45.386	-0.081	0.040
-296.720	-10.330	0.195	-0.127
-295.705	-126.286	-0.247	-0.036
-294.691	-32.365	-0.195	0.107
-293.676	-29.564	-0.153	0.086
-292.662	-200.000	0.005	0.087
-291.647	-158.610	-0.357	-0.020
-290.632	-84.770	0.154	-0.048
-289.618	-176.643	-0.100	-0.003
-288.603	-200.000	-0.009	0.340
-287.589	-200.000	0.040	0.241
-286.574	800.000	0.075	0.216
-285.559	-38.709	-0.030	-0.016
-284.545	85.051	0.094	-0.102
-283.530	-134.080	0.103	-0.012
-282.516	-31.663	-0.305	-0.169
-281.501	30.697	0.376	0.317
-280.486	-19.028	0.108	-0.066
-279.472	729.750	0.053	-0.138
-278.457	134.168	-0.059	0.075
-277.443	-200.000	0.010	-0.053
-276.428	800.000	-0.029	0.120
-275.413	-72.805	0.348	0.126
-274.399	193.738	-0.131	-0.196
-273.384	-31.482	-0.144	0.079
-272.370	-200.000	0.001	-0.019
-271.355	-50.335	0.042	-0.019
-270.340	-200.000	-0.034	0.508
-269.326	-0.721	-0.252	0.175
-268.311	32.652	0.145	-0.123
-267.297	324.754	0.160	-0.300
-266.282	-98.766	0.142	0.036
-265.267	77.360	-0.075	-0.078
-264.253	67.403	0.168	0.168
-263.238	606.347	0.032	-0.079
-262.224	800.000	0.014	-0.055
-261.209	800.000	-0.047	0.163
-260.195	254.882	0.108	0.181
-259.180	204.662	-0.101	-0.155
-258.165	481.663	0.125	0.279
-257.151	-200.000	-0.011	0.212
-256.136	-46.446	-0.325	0.157
-255.122	44.648	0.072	0.065
-254.107	96.518	0.097	-0.109
-253.092	229.476	-0.165	-0.265
-252.078	106.945	-0.135	-0.157
-251.063	-158.913	0.170	0.010
-250.049	-82.500	-0.421	0.134
-249.034	-200.000	-0.027	0.288
-248.019	-21.771	0.066	0.040
-247.005	0.471	-0.046	0.033
-245.990	652.833	-0.083	0.209
-244.976	90.774	-0.117	0.128
-243.961	-81.774	-0.234	0.075
-242.946	699.358	0.080	-0.206
-241.932	-141.268	0.401	-0.040
-240.917	107.167	0.193	0.225
-239.903	-200.000	-0.034	-0.242
-238.888	-200.000	0.008	-0.243
-237.873	274.322	-0.045	0.077
-236.859	-92.150	0.357	-0.099
-235.844	-140.667	-0.525	-0.053
-234.830	419.150	0.088	0.185
-233.815	-110.066	0.208	-0.043
-232.800	19.296	0.163	-0.129
-231.786	-166.660	0.138	-0.006
-230.771	-46.492	0.096	0.046
-229.757	288.980	0.111	0.198
-228.742	-200.000	0.027	-0.123
-227.727	360.989	0.113	0.222
-226.713	-200.000	-0.016	-0.451
-225.698	-145.458	-0.106	0.009
-224.684	-140.627	-0.395	0.040
-223.669	-171.498	-0.475	0.015
-222.655	-105.346	0.144	-0.032
-221.640	-200.000	0.027	-0.220
-220.625	-15.693	0.312	0.195
-219.611	0.712	-0.285	-0.200
-218.596	-28.140	0.159	-0.090
-217.582	126.655	0.033	-0.041
-216.567	19.868	0.217	-0.171
-215.552	800.000	0.072	-0.211
-214.538	-200.000	-0.059	-0.315
-213.523	188.999	-0.170	-0.249
-212.509	101.075	0.203	0.231
-211.494	-200.000	-0.046	0.213
-210.479	800.000	-0.148	0.407
-209.465	104.388	0.133	0.154
-208.450	477.939	0.044	-0.097
-207.436	-100.979	-0.252	-0.061
-206.421	-66.838	0.132	-0.051
-205.406	-86.284	-0.419	-0.126
-204.392	-200.000	-0.039	-0.255
-203.377	294.055	0.068	-0.122
-202.363	89.176	-0.186	-0.203
-201.348	44.765	-0.169	-0.153
-200.333	118.772	0.182	-0.220
-199.319	-58.998	0.033	-0.014
-198.304	800.000	-0.081	-0.227
-197.290	136.420	0.265	0.339
-196.275	112.565	0.146	-0.173
-195.260	-200.000	0.013	-0.410
-194.246	616.183	0.082	0.202
-193.231	172.878	-0.064	-0.090
-192.217	-157.031	-0.194	-0.012
-191.202	1.742	0.178	-0.126
-190.187	6.779	0.202	-0.147
-189.173	800.000	0.092	0.249
-188.158	11.003	-0.239	0.179
-187.144	-30.524	-0.116	0.064
-186.129	-200.000	0.031	0.184
-185.114	-11.123	0.116	-0.075
-184.100	-50.619	0.411	0.190
-183.085	-72.939	0.126	0.045
-182.071	282.357	0.126	0.221
-181.056	213.728	-0.082	0.126
-180.042	800.000	0.086	0.244
-179.027	-24.372	0.113	0.066
-178.012	-31.680	-0.260	-0.143
-176.998	282.761	0.188	0.330
-175.983	800.000	0.061	-0.188
-174.969	368.552	0.180	-0.356
-173.954	-200.000	0.010	-0.240
-172.939	800.000	-0.028	0.109
-171.925	-17.380	-0.101	0.062
-170.910	322.961	-0.060	0.111
-169.896	-99.291	-0.183	-0.045
-168.881	217.004	0.136	-0.213
-167.866	37.187	-0.011	0.010
-166.852	-84.263	-0.169	-0.052
-165.837	-159.401	0.329	0.018
-164.823	6.036	0.392	-0.285
-163.808	800.000	0.053	0.179
-162.793	-200.000	-0.425	0.002
-161.779	-146.628	0.138	0.012
-160.764	-169.724	0.186	0.007
-159.750	-91.083	0.132	-0.037
-158.735	-137.921	0.113	0.012
-157.720	-83.654	-0.220	0.069
-156.706	281.035	-0.100	0.175
-155.691	-138.401	0.315	-0.034
-154.677	-200.000	0.039	0.382
-153.662	609.979	0.070	0.172
-152.647	-200.000	-0.026	0.256
-151.633	-118.536	-0.114	-0.020
-150.618	143.238	-0.140	0.182
-149.604	73.501	-0.097	0.100
-148.589	-115.080	0.250	-0.046
-147.574	-65.589	0.049	0.019
-146.560	461.019	0.182	0.396
-145.545	-109.323	0.433	-0.090
-144.531	115.673	0.121	0.145
-143.516	800.000	0.051	-0.160
-142.502	10.385	-0.082	0.061
-141.487	-200.000	-0.034	-0.170
-140.472	-62.644	-0.510	-0.207
-139.458	92.780	0.102	0.112
-138.443	800.000	0.077	0.307
-137.429	-16.104	-0.156	-0.097
-136.414	-200.000	0.014	0.254
-135.399	-38.842	-0.164	-0.084
-134.385	61.475	0.108	-0.105
-133.370	-6.823	0.262	0.174
-132.356	138.271	0.238	0.305
-131.341	-22.548	0.161	0.095
-130.326	-200.000	-0.043	-0.267
-129.312	93.263	0.031	-0.034
-128.297	-73.764	0.369	0.131
-127.283	207.758	0.084	0.129
-126.268	65.651	-0.452	0.447
-125.253	-105.484	0.068	-0.015
-124.239	703.164	-0.055	0.140
-123.224	78.157	0.227	0.236
-122.210	800.000	0.057	0.234
-121.195	110.374	0.173	0.204
