DTS Sentinel unit serial number:	SN413079Multiplexer serial number:	ORYXHardware model number:	OX4-SRSoftware version number:	ORYX F/W v4.00 Oryx Data Collector v3.7.2.0data status	okinstallation	princeton_trtdifferential loss correction	single-endedforward channel	channel 3reverse channel	N/Adate	2019/09/15time	22:24:35forward acquisition time	60.00reverse acquisition time	0.00gamma	496.2192k internal	0.2331k external	0.2331temperature offset calibration	0.9939default loss term (dB/km)	0.3790temperature slope calibration	1.0000multiplexer offset coefficient	1.0000multiplexer slope coefficient	1.0000fibre end	0.00T internal ref (°C)	29.28T ext. ref 1 (°C)	8.70T ext. ref 2 (°C)	22.70length (m)	temperature (°C)	Stokes	anti-Stokes-747.200	-74.882	-0.409	-0.148
-746.185	103.678	0.121	-0.143
-745.171	755.935	-0.022	-0.060
-744.156	800.000	-0.041	0.119
-743.142	-148.686	-0.225	0.018
-742.127	0.369	-0.316	-0.227
-741.112	-66.972	-0.341	-0.135
-740.098	209.861	0.047	0.074
-739.083	-200.000	0.010	0.271
-738.069	-200.000	0.006	0.258
-737.054	-29.746	0.169	-0.097
-736.039	-121.624	-0.190	0.032
-735.025	-52.358	0.231	-0.107
-734.010	-88.990	-0.295	0.088
-732.996	-200.000	-0.041	-0.237
-731.981	21.670	-0.397	-0.325
-730.966	576.939	-0.101	0.248
-729.952	-29.468	0.033	-0.019
-728.937	34.330	-0.023	0.021
-727.923	-200.000	-0.010	-0.082
-726.908	222.021	-0.062	0.101
-725.894	-55.221	0.265	-0.120
-724.879	-200.000	-0.116	-0.518
-723.864	800.000	-0.015	-0.058
-722.850	656.750	0.081	-0.209
-721.835	-42.664	-0.058	-0.029
-720.821	315.809	0.081	-0.153
-719.806	454.122	0.071	-0.159
-718.791	507.550	-0.067	-0.157
-717.777	-200.000	0.041	-0.341
-716.762	-39.918	-0.230	-0.121
-715.748	-200.000	-0.034	-0.150
-714.733	-78.308	0.189	-0.065
-713.718	-40.039	-0.229	-0.120
-712.704	648.384	0.105	-0.269
-711.689	-200.000	0.033	0.311
-710.675	-56.338	-0.304	-0.136
-709.660	25.386	0.209	-0.175
-708.645	-66.802	-0.476	0.189
-707.631	-91.190	0.246	-0.071
-706.616	-200.000	0.015	-0.296
-705.602	164.803	-0.073	-0.104
-704.587	655.804	-0.035	-0.090
-703.572	244.681	0.116	0.196
-702.558	-200.000	0.037	-0.169
-701.543	800.000	-0.048	0.178
-700.529	-69.046	-0.223	-0.086
-699.514	-126.581	-0.240	-0.036
-698.499	-66.886	0.256	-0.102
-697.485	-87.335	0.060	0.018
-696.470	-131.114	0.208	0.028
-695.456	-52.234	-0.145	0.068
-694.441	95.191	-0.124	0.142
-693.426	-200.000	0.032	-0.147
-692.412	800.000	0.057	-0.185
-691.397	-200.000	0.058	-0.315
-690.383	193.793	0.111	-0.169
-689.368	-110.801	0.412	0.085
-688.354	108.789	-0.170	0.204
-687.339	800.000	0.067	-0.244
-686.324	800.000	-0.029	-0.117
-685.310	800.000	0.096	0.304
-684.295	800.000	0.037	0.121
-683.281	184.773	-0.327	0.486
-682.266	-75.785	-0.087	-0.031
-681.251	67.765	-0.219	0.224
-680.237	231.377	-0.091	0.149
-679.222	-200.000	-0.026	0.143
-678.208	754.804	0.138	0.374
-677.193	-26.201	-0.314	0.185
-676.178	-64.666	-0.743	-0.302
-675.164	51.157	0.060	-0.057
-674.149	0.617	0.056	-0.040
-673.135	800.000	-0.061	0.188
-672.120	-200.000	0.002	-0.192
-671.105	-20.848	-0.060	-0.037
-670.091	-127.494	0.217	0.032
-669.076	77.014	0.094	0.100
-668.062	-200.000	-0.024	-0.167
-667.047	-20.051	-0.127	0.079
-666.032	2.218	0.080	0.058
-665.018	34.667	-0.181	0.159
-664.003	-150.826	-0.164	-0.012
-662.989	-200.000	-0.067	-0.357
-661.974	645.138	0.016	-0.041
-660.959	209.337	-0.151	0.237
-659.945	43.482	-0.124	-0.113
-658.930	-115.667	0.237	0.045
-657.916	800.000	-0.066	-0.198
-656.901	114.901	0.130	-0.159
-655.886	-62.790	-0.157	0.065
-654.872	201.150	-0.126	-0.195
-653.857	-1.167	0.167	0.118
-652.843	86.633	-0.081	0.090
-651.828	-102.796	-0.109	-0.026
-650.814	97.531	0.209	0.240
-649.799	402.208	0.051	-0.108
-648.784	-12.474	0.450	0.294
-647.770	-33.792	0.293	-0.162
-646.755	-134.485	0.206	0.025
-645.741	-120.718	-0.313	0.053
-644.726	19.756	-0.237	-0.191
-643.711	-102.128	0.186	0.045
-642.697	582.818	0.066	-0.163
-641.682	38.919	0.202	0.181
-640.668	81.152	0.093	0.101
-639.653	4.419	-0.195	-0.144
-638.638	-200.000	-0.011	0.107
-637.624	-2.454	0.007	-0.005
-636.609	600.362	0.055	-0.137
-635.595	181.779	-0.149	0.219
-634.580	-142.751	0.166	-0.016
-633.565	21.333	-0.189	0.153
-632.551	118.750	0.258	-0.319
-631.536	-44.870	-0.262	-0.131
-630.522	53.653	-0.095	0.092
-629.507	23.251	-0.146	-0.120
-628.492	-200.000	-0.002	0.013
-627.478	-100.725	-0.267	-0.066
-626.463	-72.124	-0.279	0.104
-625.449	11.879	-0.134	0.103
-624.434	778.523	0.066	0.180
-623.419	800.000	0.066	-0.192
-622.405	165.898	0.059	0.083
-621.390	96.019	0.037	-0.043
-620.376	496.370	-0.030	0.069
-619.361	29.823	-0.198	-0.169
-618.346	-200.000	0.005	-0.103
-617.332	-97.617	0.040	-0.010
-616.317	16.661	-0.284	-0.225
-615.303	-60.611	-0.142	0.061
-614.288	-200.000	-0.046	0.260
-613.273	23.972	0.490	-0.404
-612.259	14.872	0.241	-0.189
-611.244	800.000	-0.027	0.075
-610.230	-57.852	-0.048	0.021
-609.215	-105.021	0.213	0.049
-608.201	-106.879	-0.150	-0.033
-607.186	-74.540	0.223	-0.080
-606.171	16.364	0.060	0.048
-605.157	-30.577	0.101	-0.057
-604.142	54.771	-0.179	-0.173
-603.128	-52.459	-0.206	-0.096
-602.113	76.437	0.186	-0.197
-601.098	-200.000	0.002	-0.089
-600.084	800.000	0.072	-0.210
-599.069	-172.105	-0.133	-0.004
-598.055	-146.361	-0.206	-0.018
-597.040	800.000	-0.053	0.205
-596.025	-200.000	-0.089	-0.463
-595.011	-200.000	-0.016	-0.144
-593.996	182.426	-0.019	0.029
-592.982	-12.014	-0.148	-0.097
-591.967	-135.402	-0.281	0.034
-590.952	-11.719	-0.383	-0.252
-589.938	-200.000	-0.016	-0.087
-588.923	70.066	-0.113	0.117
-587.909	100.037	0.211	0.244
-586.894	-135.598	-0.242	0.029
-585.879	-161.266	-0.102	-0.005
-584.865	627.537	0.072	0.183
-583.850	-79.745	-0.331	0.112
-582.836	68.134	0.078	-0.080
-581.821	118.991	-0.125	0.154
-580.806	334.234	-0.116	-0.225
-579.792	66.088	-0.155	0.158
-578.777	93.335	0.158	-0.178
-577.763	-29.114	0.095	-0.055
-576.748	28.174	0.156	0.132
-575.733	140.753	0.077	-0.102
-574.719	11.519	-0.056	0.043
-573.704	800.000	-0.016	0.061
-572.690	-95.551	0.340	-0.091
-571.675	800.000	-0.097	-0.375
-570.661	-200.000	0.035	0.259
-569.646	151.802	0.240	-0.327
-568.631	-200.000	0.066	-0.589
-567.617	-200.000	-0.062	-0.322
-566.602	-200.000	-0.027	0.175
-565.588	-200.000	-0.019	0.258
-564.573	-200.000	-0.015	-0.076
-563.558	-200.000	0.013	0.240
-562.544	-200.000	0.012	-0.176
-561.529	-200.000	-0.018	-0.243
-560.515	-172.745	0.147	0.005
-559.500	800.000	0.049	0.158
-558.485	-92.766	0.066	-0.018
-557.471	215.499	0.254	-0.403
-556.456	800.000	-0.066	-0.241
-555.442	-33.223	-0.046	-0.025
-554.427	-200.000	0.002	-0.097
-553.412	19.414	-0.154	-0.123
-552.398	17.437	-0.239	-0.189
-551.383	800.000	0.124	0.416
-550.369	-98.634	-0.284	-0.072
-549.354	-74.037	0.303	0.110
-548.339	800.000	-0.081	-0.273
-547.325	800.000	0.047	0.159
-546.310	-200.000	-0.005	-0.209
-545.296	-79.439	-0.340	-0.115
-544.281	-200.000	0.091	0.396
-543.266	-200.000	-0.057	0.447
-542.252	269.152	-0.042	-0.074
-541.237	-86.474	-0.477	0.146
-540.223	-140.120	0.351	-0.037
-539.208	-159.837	-0.199	-0.011
-538.193	-142.150	-0.416	-0.041
-537.179	-82.153	-0.382	0.124
-536.164	-200.000	0.027	-0.305
-535.150	-200.000	0.028	-0.296
-534.135	-200.000	0.003	-0.199
-533.121	-200.000	-0.009	0.140
-532.106	-196.001	-0.210	0.001
-531.091	-200.000	0.013	0.129
-530.077	-38.315	-0.022	-0.012
-529.062	188.575	-0.056	0.084
-528.048	-200.000	0.015	-0.306
-527.033	-200.000	0.003	-0.181
-526.018	146.669	-0.084	0.112
-525.004	33.099	0.124	-0.107
-523.989	112.598	-0.295	-0.356
-522.975	-147.429	0.082	-0.007
-521.960	-126.447	-0.093	0.014
-520.945	27.245	0.090	-0.075
-519.931	33.834	-0.193	-0.167
-518.916	-83.809	0.101	0.032
-517.902	-111.447	0.042	-0.009
-516.887	-81.339	-0.113	-0.037
-515.872	-200.000	-0.002	0.116
-514.858	-38.039	0.232	-0.123
-513.843	331.592	0.115	0.220
-512.829	-146.412	0.312	0.027
-511.814	-200.000	-0.039	-0.183
-510.799	275.895	0.132	0.234
-509.785	-87.217	-0.443	0.134
-508.770	25.792	-0.086	-0.072
-507.756	-94.555	0.144	0.039
-506.741	-14.940	-0.178	-0.114
-505.726	52.601	-0.085	0.081
-504.712	800.000	-0.067	-0.278
-503.697	173.812	0.101	-0.145
-502.683	524.642	0.066	0.154
-501.668	-200.000	-0.010	0.304
-500.653	376.140	-0.036	0.073
-499.639	-44.507	-0.312	0.156
-498.624	-99.954	-0.369	-0.092
-497.610	-2.597	0.386	0.269
-496.595	800.000	0.093	0.339
-495.581	107.984	-0.104	-0.124
-494.566	42.519	0.193	0.175
-493.551	-100.198	-0.056	-0.014
-492.537	800.000	0.105	0.456
-491.522	265.258	0.117	0.203
-490.508	218.430	-0.140	0.223
-489.493	178.412	-0.038	0.055
-488.478	48.350	-0.217	0.202
-487.464	442.315	0.105	-0.230
-486.449	-95.973	-0.441	-0.117
-485.435	-167.613	0.225	-0.009
-484.420	-124.851	-0.062	-0.010
-483.405	-111.279	0.164	0.033
-482.391	-82.044	0.322	0.105
-481.376	385.477	0.068	0.139
-480.362	76.527	0.142	0.150
-479.347	-40.643	0.201	0.104
-478.332	94.152	0.259	0.293
-477.318	-86.103	-0.298	-0.092
-476.303	-21.498	-0.347	0.210
-475.289	31.682	0.192	-0.164
-474.274	-56.216	-0.162	0.072
-473.259	-112.450	0.070	-0.014
-472.245	-62.626	-0.189	-0.078
-471.230	231.693	-0.045	-0.073
-470.216	81.468	0.180	-0.194
-469.201	6.887	0.204	0.151
-468.186	-79.368	-0.166	0.056
-467.172	-100.508	-0.379	0.093
-466.157	-200.000	-0.010	0.166
-465.143	436.848	0.130	0.283
-464.128	-138.103	-0.293	-0.032
-463.113	-200.000	0.021	0.197
-462.099	174.370	0.146	0.210
-461.084	34.242	-0.090	-0.078
-460.070	10.979	0.021	-0.016
-459.055	-200.000	-0.025	-0.201
-458.040	-200.000	-0.001	-0.144
-457.026	-57.033	0.344	-0.151
-456.011	344.487	-0.092	-0.180
-454.997	-200.000	0.023	-0.115
-453.982	-200.000	-0.013	0.133
-452.968	-17.721	0.195	-0.122
-451.953	-31.085	-0.032	0.018
-450.938	-200.000	-0.023	-0.235
-449.924	-200.000	-0.030	-0.426
-448.909	624.040	-0.098	-0.246
-447.895	-200.000	0.011	-0.228
-446.880	-10.199	0.141	0.093
-445.865	-54.445	-0.208	0.094
-444.851	800.000	0.148	0.433
-443.836	758.144	0.031	0.082
-442.822	-32.512	0.146	0.081
-441.807	-118.243	0.231	-0.041
-440.792	160.434	0.075	0.104
-439.778	-200.000	0.027	0.127
-438.763	-148.981	-0.333	0.027
-437.749	800.000	0.057	-0.214
-436.734	-97.321	0.230	-0.060
-435.719	-110.858	-0.042	-0.009
-434.705	-75.209	0.171	0.061
-433.690	60.893	0.238	-0.234
-432.676	14.592	0.063	0.049
-431.661	139.838	0.053	0.069
-430.646	-159.169	0.344	0.019
-429.632	800.000	-0.088	-0.242
-428.617	-200.000	0.001	0.192
-427.603	70.829	-0.078	0.080
-426.588	-38.021	0.186	-0.098
-425.573	-155.488	0.246	-0.016
-424.559	96.738	-0.152	-0.173
-423.544	95.023	-0.241	0.273
-422.530	-148.454	0.386	-0.031
-421.515	117.964	0.049	-0.060
-420.500	55.984	0.060	0.058
-419.486	-103.569	0.168	-0.039
-418.471	-200.000	-0.046	0.289
-417.457	-3.807	-0.259	0.179
-416.442	-200.000	0.021	-0.173
-415.428	238.727	0.125	-0.206
-414.413	-200.000	0.007	0.069
-413.398	-37.013	0.209	0.111
-412.384	-68.157	0.247	0.095
-411.369	38.549	0.102	-0.090
-410.355	-200.000	0.015	-0.165
-409.340	-200.000	0.031	0.291
-408.325	-119.809	-0.226	0.039
-407.311	-49.996	-0.092	-0.043
-406.296	-121.288	0.208	-0.034
-405.282	800.000	0.096	-0.301
-404.267	800.000	-0.110	0.400
-403.252	119.166	0.116	0.143
-402.238	-45.477	-0.161	-0.079
-401.223	-200.000	-0.033	0.280
-400.209	203.123	-0.079	0.121
-399.194	-200.000	-0.003	-0.272
-398.179	800.000	0.059	-0.218
-397.165	-200.000	-0.008	-0.196
-396.150	800.000	-0.059	0.173
-395.136	-83.664	-0.406	0.129
-394.121	165.519	0.064	-0.090
-393.106	-200.000	-0.013	-0.446
-392.092	-87.353	-0.091	0.027
-391.077	-123.823	-0.163	-0.026
-390.063	104.964	-0.201	-0.236
-389.048	800.000	-0.045	0.171
-388.033	800.000	-0.080	0.245
-387.019	1.545	-0.160	-0.114
-386.004	-55.845	-0.333	-0.148
-384.990	458.542	-0.002	-0.004
-383.975	38.101	-0.288	0.254
-382.960	800.000	-0.056	0.177
-381.946	-200.000	-0.009	0.192
-380.931	92.404	-0.065	0.073
-379.917	-200.000	0.024	-0.157
-378.902	800.000	-0.045	0.194
-377.888	442.514	-0.136	-0.295
-376.873	193.162	0.208	-0.312
-375.858	-200.000	0.007	-0.302
-374.844	-103.099	0.179	0.042
-373.829	-200.000	0.006	0.177
-372.815	171.576	0.176	0.250
-371.800	-152.854	0.190	-0.013
-370.785	173.579	0.062	-0.088
-369.771	661.067	-0.065	0.167
-368.756	-27.274	0.183	-0.106
-367.742	-31.651	0.211	0.118
-366.727	-20.668	0.279	-0.170
-365.712	29.700	-0.198	-0.167
-364.698	-89.337	-0.457	-0.133
-363.683	-106.788	-0.224	0.049
-362.669	-200.000	-0.020	-0.265
-361.654	-200.000	-0.034	-0.456
-360.639	452.891	0.051	-0.113
-359.625	632.350	-0.062	0.155
-358.610	30.919	0.202	-0.172
-357.596	-77.751	0.230	0.079
-356.581	-80.759	-0.171	0.056
-355.566	251.816	0.122	0.205
-354.552	-200.000	-0.010	0.129
-353.537	585.262	0.163	0.397
-352.523	44.014	-0.064	-0.058
-351.508	782.405	-0.018	0.048
-350.493	-95.470	-0.131	-0.035
-349.479	0.402	-0.112	0.079
-348.464	-200.000	0.002	-0.321
-347.450	800.000	0.094	0.398
-346.435	-200.000	0.019	-0.112
-345.420	-137.774	-0.200	-0.022
-344.406	40.235	0.093	0.083
-343.391	800.000	-0.040	0.164
-342.377	-200.000	0.061	0.330
-341.362	41.265	-0.267	0.239
-340.348	93.568	0.172	-0.193
-339.333	233.736	-0.019	0.031
-338.318	800.000	-0.076	0.252
-337.304	780.375	-0.008	0.021
-336.289	-200.000	-0.011	0.176
-335.275	-200.000	-0.021	-0.292
-334.260	-67.199	-0.171	0.067
-333.245	-200.000	-0.028	0.216
-332.231	-45.968	0.217	0.106
-331.216	-200.000	-0.024	0.142
-330.202	57.756	0.152	0.147
-329.187	-87.997	-0.076	0.023
-328.172	24.444	-0.118	0.097
-327.158	-200.000	-0.017	-0.238
-326.143	415.221	-0.049	0.103
-325.129	325.100	0.168	0.318
-324.114	10.153	-0.117	-0.088
-323.099	-46.171	0.265	0.129
-322.085	124.312	-0.267	-0.333
-321.070	-200.000	0.067	0.362
-320.056	-141.458	0.368	-0.037
-319.041	-113.528	-0.375	-0.073
-318.026	448.313	0.138	0.300
-317.012	-200.000	0.018	0.141
-315.997	-43.790	0.329	-0.164
-314.983	-145.123	0.434	-0.039
-313.968	-137.805	0.168	-0.019
-312.953	52.277	0.052	0.049
-311.939	66.701	-0.051	0.051
-310.924	-13.056	0.208	0.134
-309.910	-71.001	-0.131	0.049
-308.895	305.847	0.111	0.204
-307.880	-200.000	0.003	-0.072
-306.866	800.000	0.059	-0.221
-305.851	-200.000	0.013	0.136
-304.837	493.040	0.097	-0.221
-303.822	-200.000	-0.010	-0.306
-302.807	54.964	0.286	0.273
-301.793	-200.000	0.006	-0.033
-300.778	96.170	-0.078	0.088
-299.764	-69.751	-0.165	0.062
-298.749	800.000	-0.033	0.105
-297.735	-77.079	0.100	0.035
-296.720	-200.000	-0.048	0.222
-295.705	-200.000	-0.066	-0.290
-294.691	-154.215	-0.138	-0.009
-293.676	127.414	0.182	-0.229
-292.662	-79.083	-0.070	-0.024
-291.647	-25.844	-0.136	0.079
-290.632	-86.391	0.340	0.103
-289.618	-85.315	-0.232	-0.072
-288.603	662.618	-0.137	-0.350
-287.589	58.146	0.120	0.116
-286.574	25.314	0.144	0.118
-285.559	39.698	-0.198	0.176
-284.545	-200.000	-0.048	-0.413
-283.530	550.461	0.071	0.168
-282.516	117.744	-0.010	-0.012
-281.501	184.201	-0.161	-0.236
-280.486	-108.908	-0.400	-0.084
-279.472	-57.952	0.111	-0.048
-278.457	-200.000	-0.011	0.439
-277.443	405.338	0.074	-0.155
-276.428	-200.000	-0.058	-0.280
-275.413	430.693	0.058	0.125
-274.399	60.186	-0.060	0.059
-273.384	68.633	0.096	-0.098
-272.370	108.614	0.135	0.159
-271.355	274.362	0.151	-0.264
-270.340	-200.000	-0.013	0.159
-269.326	-48.887	0.204	0.097
-268.311	46.146	-0.321	-0.293
-267.297	800.000	0.031	0.110
-266.282	97.442	0.156	-0.177
-265.267	-200.000	0.004	0.073
-264.253	-121.922	0.332	-0.054
-263.238	-157.047	0.232	0.014
-262.224	72.164	-0.177	0.182
-261.209	-80.940	-0.359	0.118
-260.195	800.000	0.065	-0.195
-259.180	-200.000	-0.002	0.008
-258.165	800.000	0.077	0.268
-257.151	204.686	-0.034	0.052
-256.136	-31.108	0.121	0.067
-255.122	-79.922	0.274	-0.091
-254.107	800.000	0.018	0.077
-253.092	471.553	-0.073	0.162
-252.078	689.100	-0.031	-0.079
-251.063	800.000	-0.113	-0.420
-250.049	-33.366	0.329	0.180
-249.034	-200.000	-0.035	-0.214
-248.019	15.943	-0.198	-0.154
-247.005	-0.484	0.155	0.108
-245.990	13.912	0.219	0.168
-244.976	-147.345	0.258	0.022
-243.961	-97.842	0.204	-0.052
-242.946	-83.868	0.463	0.145
-241.932	800.000	-0.142	0.441
-240.917	444.741	-0.132	-0.286
-239.903	40.857	-0.153	0.136
-238.888	800.000	-0.070	0.245
-237.873	478.521	0.058	-0.129
-236.859	-155.791	0.105	0.007
-235.844	-50.576	-0.081	-0.038
-234.830	-35.972	-0.229	-0.122
-233.815	-16.979	-0.096	-0.060
-232.800	800.000	0.121	-0.342
-231.786	800.000	0.034	-0.145
-230.771	16.773	0.120	0.093
-229.757	31.018	0.184	-0.155
-228.742	-63.677	0.254	0.103
-227.727	-69.894	-0.505	0.190
-226.713	490.516	-0.033	0.075
-225.698	-111.704	0.285	-0.057
-224.684	224.647	-0.037	0.059
-223.669	-23.261	0.149	0.088
-222.655	293.862	0.067	-0.121
-221.640	407.292	0.153	0.318
-220.625	-200.000	0.045	0.280
-219.611	36.644	-0.219	0.191
-218.596	-21.802	-0.074	-0.044
-217.582	800.000	-0.025	0.084
-216.567	-200.000	0.026	0.254
-215.552	519.345	-0.071	-0.163
-214.538	-200.000	0.065	0.414
-213.523	113.556	-0.080	0.095
-212.509	150.702	0.028	-0.037
-211.494	-200.000	0.010	0.170
-210.479	106.246	0.077	0.089
-209.465	-7.296	-0.184	0.123
-208.450	-200.000	0.030	0.207
-207.436	-200.000	0.095	-0.443
-206.421	800.000	-0.016	-0.056
-205.406	-200.000	-0.021	-0.273
-204.392	-200.000	0.020	0.164
-203.377	-166.590	-0.293	0.012
-202.363	221.805	-0.118	-0.187
-201.348	800.000	-0.068	-0.226
-200.333	273.769	0.171	-0.298
-199.319	-53.608	0.154	0.070
-198.304	800.000	-0.049	-0.210
-197.290	-127.527	-0.173	-0.025
-196.275	-187.834	0.305	0.004
-195.260	800.000	-0.038	0.130
-194.246	454.819	-0.040	-0.087
-193.231	800.000	0.091	0.382
-192.217	-58.286	-0.132	-0.056
-191.202	800.000	-0.039	0.111
-190.187	547.727	-0.044	0.104
-189.173	162.262	-0.147	-0.203
-188.158	-34.455	-0.193	-0.104
-187.144	-150.644	0.249	-0.019
-186.129	59.095	-0.288	0.279
-185.114	800.000	-0.047	-0.191
-184.100	54.635	0.121	0.115
-183.085	-99.290	0.112	0.028
-182.071	-200.000	-0.047	-0.235
-181.056	-30.451	0.123	0.069
-180.042	-200.000	-0.050	0.297
-179.027	-57.091	0.143	-0.062
-178.012	-166.716	0.363	-0.015
-176.998	260.647	0.099	0.169
-175.983	443.113	-0.153	0.331
-174.969	-110.192	0.127	0.026
-173.954	-90.767	0.043	0.012
-172.939	17.249	-0.155	-0.121
-171.925	142.057	-0.048	-0.063
-170.910	238.652	0.016	-0.025
-169.896	405.699	-0.067	0.139
-168.881	-112.881	0.167	-0.033
-167.866	97.114	-0.142	0.161
-166.852	169.917	0.077	-0.109
-165.837	-106.702	-0.014	-0.003
-164.823	-186.271	0.323	-0.005
-163.808	-168.274	-0.334	-0.013
-162.793	130.194	-0.107	-0.134
-161.779	29.649	-0.167	-0.140
-160.764	-200.000	-0.036	-0.159
-159.750	-76.260	0.098	0.034
-158.735	-200.000	-0.046	0.285
-157.720	-182.949	0.089	-0.002
-156.706	-114.519	-0.149	0.028
-155.691	131.517	0.103	-0.130
-154.677	398.618	0.028	-0.057
-153.662	99.139	-0.177	-0.201
-152.647	800.000	-0.169	-0.477
-151.633	-200.000	0.011	0.075
-150.618	406.801	0.060	-0.124
-149.604	-37.169	0.143	-0.075
-148.589	-57.665	-0.293	0.126
-147.574	-200.000	-0.011	-0.276
-146.560	434.090	-0.088	0.188
-145.545	-61.347	-0.090	-0.037
-144.531	-29.082	0.088	-0.049
-143.516	-200.000	-0.016	0.189
-142.502	62.869	-0.058	0.057
-141.487	-126.283	0.162	-0.024
-140.472	-200.000	-0.016	-0.189
-139.458	675.833	-0.100	0.256
-138.443	-200.000	0.024	0.401
-137.429	462.356	-0.044	0.096
-136.414	73.153	-0.085	0.087
-135.399	-123.251	0.344	0.054
-134.385	-37.521	0.448	-0.235
-133.370	-65.550	-0.505	-0.199
-132.356	145.967	0.251	0.331
-131.341	53.179	0.277	-0.260
-130.326	396.060	-0.086	-0.176
-129.312	-132.025	0.292	0.037
-128.297	-195.593	-0.062	-0.000
-127.283	20.263	0.210	0.167
-126.268	192.653	-0.164	0.243
-125.253	-150.958	0.295	0.022
-124.239	800.000	-0.056	0.241
-123.224	-45.639	-0.068	-0.033
-122.210	-61.985	0.105	0.043
