DTS Sentinel unit serial number:	SN413079Multiplexer serial number:	ORYXHardware model number:	OX4-SRSoftware version number:	ORYX F/W v4.00 Oryx Data Collector v3.7.2.0data status	okinstallation	princeton_trtdifferential loss correction	single-endedforward channel	channel 3reverse channel	N/Adate	2019/09/14time	13:00:35forward acquisition time	60.00reverse acquisition time	0.00gamma	496.2192k internal	0.2294k external	0.2294temperature offset calibration	1.0069default loss term (dB/km)	0.3790temperature slope calibration	1.0000multiplexer offset coefficient	1.0000multiplexer slope coefficient	1.0000fibre end	0.00T internal ref (°C)	38.00T ext. ref 1 (°C)	4.85T ext. ref 2 (°C)	33.13length (m)	temperature (°C)	Stokes	anti-Stokes-747.200	-17.831	-0.256	0.165
-746.185	-29.468	0.148	-0.087
-745.171	-200.000	0.024	-0.226
-744.156	-107.882	-0.306	-0.068
-743.142	-113.945	0.368	-0.073
-742.127	243.233	0.098	0.169
-741.112	-83.392	0.088	0.029
-740.098	-200.000	0.055	0.250
-739.083	-73.478	0.062	0.023
-738.069	135.366	0.197	0.262
-737.054	-200.000	0.009	0.081
-736.039	-1.882	-0.086	-0.062
-735.025	800.000	0.055	0.164
-734.010	800.000	0.089	-0.280
-732.996	448.584	0.113	-0.256
-731.981	-200.000	-0.041	-0.411
-730.966	93.031	0.195	-0.225
-729.952	-32.031	-0.069	0.040
-728.937	33.423	-0.153	-0.136
-727.923	-48.804	-0.376	0.184
-726.908	-100.862	-0.174	-0.044
-725.894	-63.843	-0.228	0.095
-724.879	-139.933	0.527	0.057
-723.864	-89.753	-0.124	-0.037
-722.850	-113.294	-0.164	-0.033
-721.835	15.506	0.221	0.177
-720.821	800.000	0.034	-0.106
-719.806	-200.000	-0.033	-0.177
-718.791	-200.000	0.030	0.239
-717.777	-47.818	0.311	-0.154
-716.762	-32.382	0.196	-0.112
-715.748	-95.068	-0.192	0.053
-714.733	-200.000	0.036	-0.199
-713.718	-66.544	0.299	-0.121
-712.704	-16.177	-0.224	-0.145
-711.689	-36.578	-0.236	0.130
-710.675	-0.445	0.170	0.123
-709.660	56.762	0.248	-0.247
-708.645	-200.000	-0.005	-0.165
-707.631	9.189	0.180	0.139
-706.616	-70.772	-0.288	0.111
-705.602	-200.000	0.002	0.046
-704.587	-50.656	-0.030	0.015
-703.572	-25.189	0.275	-0.166
-702.558	-169.644	-0.430	-0.016
-701.543	800.000	-0.075	-0.235
-700.529	800.000	-0.017	-0.075
-699.514	-44.859	0.181	-0.092
-698.499	800.000	0.049	-0.141
-697.485	800.000	0.117	0.447
-696.470	-140.020	-0.207	-0.022
-695.456	-9.061	0.220	-0.150
-694.441	-128.319	0.152	-0.022
-693.426	-200.000	-0.057	-0.446
-692.412	604.836	0.148	-0.377
-691.397	-75.074	-0.390	-0.143
-690.383	100.473	-0.256	-0.303
-689.368	-120.040	0.126	0.022
-688.354	-117.268	0.276	-0.051
-687.339	256.599	-0.052	-0.091
-686.324	800.000	-0.059	-0.221
-685.310	615.096	0.109	-0.280
-684.295	800.000	-0.034	-0.115
-683.281	-200.000	-0.040	-0.332
-682.266	-112.460	0.204	0.042
-681.251	5.896	-0.142	0.107
-680.237	53.474	0.177	-0.173
-679.222	662.515	-0.090	-0.236
-678.208	-6.578	-0.192	0.133
-677.193	-8.194	-0.087	0.059
-676.178	-200.000	0.025	-0.454
-675.164	-27.438	0.215	-0.127
-674.149	17.381	-0.249	0.202
-673.135	-182.126	0.286	0.005
-672.120	-134.286	-0.244	0.031
-671.105	-200.000	-0.018	-0.234
-670.091	-151.743	-0.228	0.017
-669.076	800.000	-0.040	0.115
-668.062	-1.611	0.070	0.051
-667.047	-79.173	-0.169	-0.059
-666.032	-200.000	0.010	-0.167
-665.018	149.202	0.254	0.351
-664.003	-100.640	-0.231	-0.058
-662.989	64.932	0.175	0.180
-661.974	-47.113	0.115	-0.057
-660.959	-120.820	-0.463	0.080
-659.945	800.000	-0.104	0.390
-658.930	-200.000	0.013	0.139
-657.916	66.210	-0.211	0.219
-656.901	-200.000	-0.006	-0.063
-655.886	800.000	-0.031	0.091
-654.872	581.360	0.071	-0.176
-653.857	105.150	-0.231	0.278
-652.843	-74.132	0.207	0.077
-651.828	47.195	-0.151	0.143
-650.814	45.252	-0.048	-0.045
-649.799	-200.000	-0.011	-0.261
-648.784	86.280	-0.384	-0.431
-647.770	-102.791	0.140	0.034
-646.755	-107.943	-0.063	-0.014
-645.741	-200.000	0.049	-0.388
-644.726	800.000	0.108	-0.308
-643.711	-61.417	-0.393	-0.169
-642.697	-133.141	0.366	-0.047
-641.682	519.214	0.063	0.149
-640.668	-138.731	-0.180	0.020
-639.653	-16.783	0.308	0.198
-638.638	37.851	0.288	0.261
-637.624	63.100	-0.233	-0.238
-636.609	800.000	-0.049	-0.144
-635.595	-32.743	-0.163	0.092
-634.580	667.671	0.010	0.025
-633.565	-200.000	0.048	0.256
-632.551	201.797	0.062	0.097
-631.536	-200.000	-0.015	-0.108
-630.522	443.101	0.049	-0.109
-629.507	-200.000	0.004	0.136
-628.492	-200.000	0.020	0.216
-627.478	-186.635	-0.273	-0.004
-626.463	302.184	0.040	0.075
-625.449	-77.425	0.084	0.030
-624.434	167.816	0.070	-0.102
-623.419	-200.000	0.003	-0.266
-622.405	108.195	0.048	-0.058
-621.390	-45.649	-0.443	0.223
-620.376	-104.703	-0.275	0.065
-619.361	152.468	0.151	-0.210
-618.346	5.833	-0.199	-0.150
-617.332	-37.176	0.095	-0.052
-616.317	215.977	-0.154	-0.249
-615.303	-23.305	-0.328	-0.201
-614.288	-14.994	0.129	0.084
-613.273	205.291	0.052	0.082
-612.259	-33.164	-0.238	0.134
-611.244	800.000	-0.111	-0.468
-610.230	229.722	0.176	-0.292
-609.215	-22.701	-0.272	-0.167
-608.201	-200.000	-0.100	0.465
-607.186	3.524	0.179	0.133
-606.171	253.645	-0.160	0.277
-605.157	-56.006	0.141	0.064
-604.142	-112.617	0.132	0.027
-603.128	-61.136	0.197	0.084
-602.113	-41.162	0.331	-0.174
-601.098	-44.166	-0.145	0.074
-600.084	203.363	0.059	-0.093
-599.069	364.290	-0.068	-0.139
-598.055	-200.000	0.011	-0.139
-597.040	-200.000	-0.007	0.116
-596.025	-140.569	0.576	-0.061
-595.011	-131.169	0.199	0.027
-593.996	-2.475	-0.055	-0.039
-592.982	6.402	0.092	-0.069
-591.967	18.222	0.212	-0.172
-590.952	-148.817	-0.093	-0.008
-589.938	91.923	-0.152	0.173
-588.923	59.829	0.051	0.052
-587.909	-200.000	-0.014	-0.222
-586.894	-200.000	0.018	-0.336
-585.879	-65.217	-0.144	0.059
-584.865	-45.150	-0.160	-0.081
-583.850	90.011	-0.033	-0.038
-582.836	800.000	-0.084	-0.242
-581.821	327.336	0.152	-0.296
-580.806	-200.000	0.012	-0.144
-579.792	-47.824	0.090	0.044
-578.777	12.277	0.095	-0.074
-577.763	-182.042	0.247	0.005
-576.748	101.296	0.058	-0.068
-575.733	113.449	-0.153	0.189
-574.719	291.134	-0.197	0.363
-573.704	-31.458	-0.168	0.096
-572.690	-105.426	-0.253	0.059
-571.675	-200.000	-0.049	0.382
-570.661	-200.000	-0.098	-0.448
-569.646	800.000	0.091	-0.309
-568.631	185.221	-0.204	0.308
-567.617	358.176	-0.072	0.146
-566.602	54.443	0.239	0.234
-565.588	93.507	0.093	0.107
-564.573	219.438	0.059	-0.096
-563.558	151.548	-0.060	0.084
-562.544	-3.798	-0.079	-0.055
-561.529	-200.000	0.002	0.223
-560.515	-5.364	0.183	-0.128
-559.500	-83.333	-0.084	0.027
-558.485	-93.438	0.260	-0.073
-557.471	476.311	-0.146	-0.335
-556.456	5.629	0.227	0.170
-555.442	-124.771	0.359	-0.056
-554.427	-75.007	0.082	0.030
-553.412	-68.819	-0.179	-0.070
-552.398	-98.838	0.173	-0.045
-551.383	95.797	-0.090	-0.104
-550.369	739.217	-0.019	0.052
-549.354	15.141	-0.208	-0.165
-548.339	1.696	-0.540	0.395
-547.325	-124.945	0.019	-0.003
-546.310	-8.330	0.231	-0.158
-545.296	-12.287	-0.164	-0.109
-544.281	277.641	0.094	0.170
-543.266	-36.386	0.019	-0.010
-542.252	800.000	-0.043	0.173
-541.237	800.000	0.114	-0.344
-540.223	-200.000	-0.002	-0.121
-539.208	-60.857	0.210	-0.090
-538.193	800.000	-0.093	-0.296
-537.179	137.808	0.093	0.123
-536.164	87.200	-0.328	0.368
-535.150	-200.000	-0.055	-0.344
-534.135	-200.000	0.013	0.127
-533.121	83.956	0.334	-0.369
-532.106	-155.771	0.129	0.008
-531.091	800.000	0.030	-0.123
-530.077	110.304	0.148	0.180
-529.062	103.428	0.305	0.363
-528.048	800.000	0.040	0.153
-527.033	262.901	0.094	-0.165
-526.018	800.000	0.111	0.415
-525.004	-200.000	-0.018	-0.201
-523.989	-75.599	-0.082	0.029
-522.975	-56.303	0.107	0.048
-521.960	-125.165	0.307	0.048
-520.945	-52.001	0.224	-0.105
-519.931	33.226	0.381	-0.335
-518.916	800.000	0.048	0.140
-517.902	-10.208	0.229	0.154
-516.887	43.539	0.056	0.051
-515.872	-67.023	-0.068	0.027
-514.858	-200.000	-0.044	0.548
-513.843	-171.245	-0.224	-0.008
-512.829	-126.794	-0.316	0.047
-511.814	800.000	-0.030	0.129
-510.799	-123.998	-0.234	-0.037
-509.785	-28.974	-0.078	-0.045
-508.770	-134.624	-0.115	-0.014
-507.756	316.912	-0.218	-0.417
-506.741	-19.070	-0.175	-0.110
-505.726	-54.962	-0.298	-0.136
-504.712	159.811	-0.118	-0.166
-503.697	-93.744	0.126	0.035
-502.683	296.364	0.179	0.333
-501.668	-39.877	-0.106	-0.056
-500.653	97.131	-0.281	-0.327
-499.639	17.172	0.222	-0.178
-498.624	-99.119	-0.302	0.077
-497.610	-153.930	-0.214	-0.015
-496.595	-73.890	-0.297	0.109
-495.581	-200.000	0.018	-0.197
-494.566	-200.000	0.322	0.000
-493.551	-12.281	-0.067	-0.045
-492.537	-60.930	-0.041	-0.018
-491.522	756.982	-0.038	-0.105
-490.508	-200.000	-0.007	-0.129
-489.493	-113.007	-0.152	-0.030
-488.478	800.000	0.069	0.295
-487.464	-86.350	0.365	-0.114
-486.449	-31.635	0.078	-0.044
-485.435	-70.686	0.137	0.052
-484.420	800.000	-0.064	-0.180
-483.405	-136.391	-0.174	-0.021
-482.391	-65.713	-0.170	-0.069
-481.376	-9.792	-0.129	-0.087
-480.362	-30.666	0.244	0.140
-479.347	-200.000	0.003	0.152
-478.332	-43.442	-0.008	0.004
-477.318	-90.313	-0.197	-0.058
-476.303	-157.696	-0.216	0.013
-475.289	-14.262	0.240	-0.156
-474.274	182.852	0.181	-0.271
-473.259	57.870	0.073	0.072
-472.245	-200.000	-0.021	-0.145
-471.230	24.948	0.204	-0.172
-470.216	61.004	-0.150	0.151
-469.201	148.749	-0.098	0.133
-468.186	-198.477	0.230	0.001
-467.172	-179.886	-0.216	-0.005
-466.157	165.037	-0.222	0.317
-465.143	-48.029	0.266	0.130
-464.128	-5.143	-0.156	0.109
-463.113	-117.129	0.173	0.032
-462.099	339.916	-0.193	0.381
-461.084	-48.083	-0.525	-0.256
-460.070	540.226	0.155	-0.373
-459.055	-178.655	0.469	-0.011
-458.040	439.579	0.078	0.173
-457.026	19.782	-0.246	-0.201
-456.011	800.000	-0.152	-0.526
-454.997	126.136	-0.247	-0.316
-453.982	-160.602	-0.264	0.014
-452.968	51.664	0.088	-0.084
-451.953	-200.000	0.010	0.091
-450.938	-47.325	-0.225	0.111
-449.924	-118.010	0.166	-0.030
-448.909	-17.142	-0.084	0.053
-447.895	-94.297	-0.323	-0.089
-446.880	189.285	0.128	-0.193
-445.865	-52.942	-0.200	0.093
-444.851	-13.520	-0.242	-0.159
-443.836	-27.090	0.027	-0.016
-442.822	402.179	-0.079	0.167
-441.807	393.113	-0.077	0.162
-440.792	-168.110	0.096	0.004
-439.778	21.190	0.129	-0.106
-438.763	-57.045	0.078	-0.035
-437.749	61.216	0.144	-0.145
-436.734	128.887	-0.090	0.116
-435.719	-200.000	0.029	-0.201
-434.705	211.614	0.078	0.124
-433.690	-200.000	-0.049	-0.223
-432.676	52.677	-0.040	0.038
-431.661	-200.000	-0.003	0.147
-430.646	-3.594	-0.077	0.054
-429.632	326.876	0.027	-0.052
-428.617	-50.697	-0.401	-0.191
-427.603	3.910	0.202	0.149
-426.588	-200.000	0.021	0.208
-425.573	91.661	0.055	0.063
-424.559	-115.563	-0.124	0.024
-423.544	-36.700	0.335	0.182
-422.530	322.079	-0.102	0.195
-421.515	637.770	0.067	0.173
-420.500	-118.304	0.242	-0.043
-419.486	206.957	-0.087	-0.137
-418.471	327.339	-0.245	0.474
-417.457	423.816	0.063	0.136
-416.442	70.276	-0.102	-0.107
-415.428	24.248	-0.066	-0.055
-414.413	162.275	-0.232	-0.329
-413.398	112.517	-0.082	-0.100
-412.384	11.761	-0.098	0.076
-411.369	-200.000	-0.048	-0.299
-410.355	800.000	0.047	-0.192
-409.340	97.565	-0.121	-0.140
-408.325	-92.137	-0.119	-0.034
-407.311	329.222	0.128	-0.249
-406.296	-200.000	-0.004	-0.133
-405.282	-200.000	-0.050	0.307
-404.267	-121.831	-0.134	0.022
-403.252	-94.580	0.222	0.061
-402.238	-141.442	0.127	0.013
-401.223	120.666	-0.128	0.160
-400.209	-200.000	-0.013	-0.203
-399.194	-97.522	0.302	0.079
-398.179	112.164	-0.189	0.230
-397.165	-106.657	-0.089	-0.020
-396.150	-57.956	0.121	-0.053
-395.136	18.251	-0.227	0.183
-394.121	-200.000	0.001	0.413
-393.106	-23.669	-0.121	0.073
-392.092	800.000	0.029	-0.090
-391.077	79.306	0.127	0.137
-390.063	53.702	0.097	0.094
-389.048	795.488	-0.051	0.141
-388.033	101.224	0.151	-0.177
-387.019	412.211	0.159	0.340
-386.004	13.582	0.018	0.014
-384.990	223.294	0.154	0.250
-383.975	692.921	-0.014	-0.037
-382.960	-152.483	0.129	0.009
-381.946	409.716	-0.125	0.267
-380.931	290.582	0.110	0.202
-379.917	8.195	-0.014	-0.011
-378.902	800.000	0.038	0.119
-377.888	16.587	0.041	-0.033
-376.873	-84.274	0.124	-0.039
-375.858	-149.927	0.240	-0.019
-374.844	-55.201	0.188	0.085
-373.829	264.249	-0.058	0.102
-372.815	800.000	0.047	0.200
-371.800	-138.090	0.072	0.008
-370.785	205.125	-0.039	0.060
-369.771	800.000	0.033	-0.108
-368.756	111.457	-0.106	0.128
-367.742	-200.000	0.021	-0.204
-366.727	-200.000	-0.067	0.296
-365.712	-200.000	-0.021	-0.153
-364.698	800.000	0.060	0.210
-363.683	800.000	0.099	0.306
-362.669	117.768	-0.123	-0.153
-361.654	125.474	0.050	0.063
-360.639	-200.000	0.022	0.219
-359.625	-43.762	-0.192	0.097
-358.610	-146.364	0.197	-0.017
-357.596	-200.000	-0.015	0.158
-356.581	-93.272	-0.170	-0.048
-355.566	89.042	0.185	-0.207
-354.552	315.098	-0.102	0.193
-353.537	332.579	0.038	-0.074
-352.523	-154.278	-0.472	0.032
-351.508	-35.867	-0.176	0.096
-350.493	446.853	-0.256	-0.568
-349.479	116.929	0.166	-0.206
-348.464	-83.930	-0.226	0.072
-347.450	-79.279	0.170	0.058
-346.435	-200.000	0.007	0.103
-345.420	302.156	0.185	0.345
-344.406	59.238	-0.151	0.150
-343.391	-49.060	0.311	0.150
-342.377	-65.539	-0.181	0.073
-341.362	800.000	0.023	0.080
-340.348	39.689	-0.091	0.082
-339.333	-119.771	-0.183	0.032
-338.318	-2.303	0.300	0.212
-337.304	93.499	0.167	0.190
-336.289	376.569	-0.066	0.136
-335.275	-50.763	-0.272	0.129
-334.260	305.640	-0.123	-0.231
-333.245	-188.473	0.254	-0.003
-332.231	16.162	0.165	0.131
-331.216	-200.000	-0.005	0.115
-330.202	-138.078	-0.181	0.020
-329.187	286.943	0.009	-0.016
-328.172	-132.135	-0.347	-0.045
-327.158	-200.000	0.035	-0.300
-326.143	646.587	-0.092	0.237
-325.129	-126.367	-0.145	-0.022
-324.114	-10.635	0.211	0.140
-323.099	67.845	0.219	-0.225
-322.085	110.469	0.108	0.130
-321.070	-170.314	-0.535	0.019
-320.056	-70.023	-0.231	-0.089
-319.041	-200.000	0.002	-0.044
-318.026	450.035	0.033	0.074
-317.012	-200.000	-0.114	-0.571
-315.997	-59.876	-0.216	0.093
-314.983	-22.001	-0.160	0.098
-313.968	30.941	0.182	0.157
-312.953	-200.000	-0.002	0.304
-311.939	-106.932	0.083	0.019
-310.924	-200.000	-0.012	-0.094
-309.910	302.809	-0.198	-0.369
-308.895	46.080	0.251	-0.233
-307.880	425.472	0.081	-0.176
-306.866	163.330	-0.054	-0.076
-305.851	-62.031	-0.178	0.075
-304.837	380.180	-0.087	0.180
-303.822	352.261	0.201	-0.400
-302.807	444.487	-0.125	-0.276
-301.793	800.000	0.043	0.132
-300.778	64.804	0.065	-0.066
-299.764	150.174	0.068	-0.093
-298.749	157.901	0.209	-0.291
-297.735	51.025	-0.090	-0.086
-296.720	-164.619	0.282	0.013
-295.705	-11.800	0.081	0.053
-294.691	303.673	-0.161	0.300
-293.676	-172.978	0.262	0.008
-292.662	-87.969	0.422	0.127
-291.647	70.294	-0.122	-0.127
-290.632	-127.038	0.226	-0.033
-289.618	-200.000	0.002	-0.124
-288.603	-63.272	-0.460	0.190
-287.589	-8.020	-0.129	-0.087
-286.574	-44.553	0.125	0.063
-285.559	-200.000	0.026	-0.190
-284.545	-60.579	-0.276	-0.118
-283.530	382.029	-0.094	0.195
-282.516	179.537	-0.218	0.320
-281.501	354.203	-0.075	-0.149
-280.486	-200.000	-0.006	0.061
-279.472	-80.088	0.100	-0.034
-278.457	-100.174	0.038	-0.010
-277.443	199.801	0.136	0.209
-276.428	-200.000	0.037	-0.190
-275.413	-92.718	0.207	0.058
-274.399	-200.000	0.014	0.424
-273.384	53.007	0.024	0.023
-272.370	66.137	0.173	-0.176
-271.355	-112.598	-0.041	0.008
-270.340	-145.864	-0.112	0.010
-269.326	-86.960	-0.307	0.094
-268.311	34.274	-0.388	0.340
-267.297	-200.000	0.074	-0.329
-266.282	-60.809	-0.122	-0.052
-265.267	800.000	0.031	0.091
-264.253	257.712	-0.051	0.087
-263.238	198.317	-0.237	-0.363
-262.224	-200.000	-0.001	-0.160
-261.209	151.597	-0.050	-0.069
-260.195	196.635	0.118	0.180
-259.180	-87.508	0.233	0.071
-258.165	247.999	-0.114	0.194
-257.151	-200.000	-0.016	-0.074
-256.136	800.000	-0.039	0.166
-255.122	261.399	0.159	0.276
-254.107	-27.105	0.133	-0.078
-253.092	41.103	0.168	0.153
-252.078	800.000	-0.013	-0.046
-251.063	-5.519	0.055	0.038
-250.049	381.110	-0.091	0.187
-249.034	466.047	0.170	-0.381
-248.019	85.110	0.181	0.199
-247.005	777.512	-0.061	-0.166
-245.990	-200.000	-0.045	0.000
-244.976	28.786	-0.149	-0.127
-243.961	139.540	-0.048	0.063
-242.946	-104.194	0.466	0.109
-241.932	800.000	-0.036	-0.119
-240.917	-104.919	0.035	-0.008
-239.903	-43.825	-0.175	-0.088
-238.888	580.997	-0.057	-0.139
-237.873	800.000	-0.028	-0.100
-236.859	-138.980	-0.320	-0.035
-235.844	136.755	0.270	0.353
-234.830	-111.902	-0.111	0.022
-233.815	800.000	0.044	-0.154
-232.800	-42.473	0.098	0.050
-231.786	36.105	0.103	0.091
-230.771	205.644	-0.045	-0.070
-229.757	-143.614	0.139	0.013
-228.742	199.184	0.075	-0.115
-227.727	422.197	0.055	0.118
-226.713	-167.963	0.415	0.016
-225.698	-81.145	-0.053	-0.018
-224.684	-83.928	0.118	0.038
-223.669	78.153	0.069	0.074
-222.655	-59.824	0.253	-0.109
-221.640	47.548	0.171	-0.160
-220.625	-36.763	-0.277	0.149
-219.611	208.982	0.208	0.326
-218.596	59.688	-0.216	0.214
-217.582	45.444	0.092	0.085
-216.567	15.089	0.296	0.232
-215.552	800.000	0.003	-0.009
-214.538	-200.000	-0.011	0.299
-213.523	-200.000	0.252	0.000
-212.509	1.185	-0.227	-0.163
-211.494	718.125	-0.036	-0.095
-210.479	-75.287	-0.332	-0.118
-209.465	-69.800	-0.037	-0.014
-208.450	-118.236	-0.257	0.046
-207.436	-200.000	-0.134	0.000
-206.421	-200.000	-0.012	-0.161
-205.406	43.180	-0.320	0.292
-204.392	140.442	-0.193	0.255
-203.377	60.026	0.081	0.080
-202.363	800.000	-0.003	-0.011
-201.348	-200.000	0.046	0.209
-200.333	434.929	0.068	0.149
-199.319	-70.794	0.194	-0.073
-198.304	-108.446	0.282	0.061
-197.290	800.000	0.080	-0.274
-196.275	-16.668	-0.051	-0.032
-195.260	800.000	0.060	0.212
-194.246	-109.842	-0.125	-0.026
-193.231	-47.890	0.193	0.094
-192.217	-200.000	0.048	-0.211
-191.202	40.284	0.366	-0.329
-190.187	-66.405	0.084	-0.033
-189.173	-200.000	0.026	-0.255
-188.158	-146.503	0.194	0.017
-187.144	-200.000	0.048	-0.271
-186.129	66.147	0.148	0.150
-185.114	-29.330	-0.142	0.081
-184.100	-106.140	-0.265	-0.060
-183.085	800.000	0.092	0.327
-182.071	14.571	0.233	-0.182
-181.056	-29.534	0.029	0.016
-180.042	88.442	0.252	-0.280
-179.027	-200.000	-0.020	0.100
-178.012	-148.011	0.146	-0.012
-176.998	335.507	0.100	-0.195
-175.983	-200.000	-0.007	-0.064
-174.969	800.000	-0.074	0.272
-173.954	-200.000	0.032	0.222
-172.939	344.060	0.092	-0.180
-171.925	-113.821	-0.276	-0.054
-170.910	-133.522	0.237	-0.030
-169.896	-40.127	-0.358	0.186
-168.881	394.739	0.107	-0.224
-167.866	-76.847	-0.160	0.056
-166.852	-44.550	0.170	0.085
-165.837	44.277	-0.131	-0.120
-164.823	389.166	-0.109	-0.225
-163.808	51.950	0.174	-0.166
-162.793	98.690	-0.126	-0.146
-161.779	800.000	0.026	0.114
-160.764	-167.231	-0.046	0.002
-159.750	50.758	0.079	0.074
-158.735	-128.617	-0.046	-0.006
-157.720	-67.190	0.125	0.049
-156.706	-200.000	0.009	-0.129
-155.691	-66.701	0.163	0.065
-154.677	313.861	-0.091	0.170
-153.662	-20.040	0.214	0.132
-152.647	505.613	0.094	0.218
-151.633	-200.000	-0.066	-0.407
-150.618	108.930	0.057	0.068
-149.604	-101.353	-0.091	-0.022
-148.589	800.000	0.101	-0.349
-147.574	543.607	0.227	-0.541
-146.560	202.228	-0.154	0.237
-145.545	685.053	-0.083	0.217
-144.531	-164.393	-0.213	0.010
-143.516	-20.451	0.357	0.219
-142.502	178.540	0.110	0.160
-141.487	-200.000	-0.017	-0.177
-140.472	219.107	0.078	0.125
-139.458	-200.000	0.023	0.106
-138.443	-9.220	-0.145	-0.097
-137.429	-68.104	0.182	0.071
-136.414	-200.000	0.003	0.030
-135.399	178.658	0.146	-0.213
-134.385	800.000	-0.063	-0.194
-133.370	-33.743	-0.194	0.107
-132.356	81.542	0.188	-0.203
-131.341	800.000	-0.061	-0.250
-130.326	-4.709	0.273	-0.188
-129.312	-200.000	-0.017	-0.123
-128.297	10.181	0.395	-0.300
-127.283	-200.000	-0.057	-0.355
-126.268	-127.839	-0.106	-0.015
-125.253	74.658	0.298	-0.313
-124.239	-190.444	0.335	0.004
-123.224	800.000	0.050	-0.168
-122.210	660.610	0.100	0.256
-121.195	800.000	0.044	-0.167
