DTS Sentinel unit serial number:	SN413079Multiplexer serial number:	ORYXHardware model number:	OX4-SRSoftware version number:	ORYX F/W v4.00 Oryx Data Collector v3.7.2.0data status	okinstallation	princeton_trtdifferential loss correction	single-endedforward channel	channel 3reverse channel	N/Adate	2019/09/15time	15:24:35forward acquisition time	60.00reverse acquisition time	0.00gamma	496.2192k internal	0.2291k external	0.2291temperature offset calibration	0.9942default loss term (dB/km)	0.3790temperature slope calibration	1.0000multiplexer offset coefficient	1.0000multiplexer slope coefficient	1.0000fibre end	0.00T internal ref (°C)	41.00T ext. ref 1 (°C)	5.07T ext. ref 2 (°C)	38.44length (m)	temperature (°C)	Stokes	anti-Stokes-747.200	243.134	-0.116	-0.199
-746.185	324.433	-0.036	-0.070
-745.171	-118.647	-0.061	-0.011
-744.156	60.706	0.202	0.205
-743.142	-200.000	0.057	0.296
-742.127	-98.627	-0.364	0.095
-741.112	33.800	-0.198	0.176
-740.098	-73.687	0.179	0.067
-739.083	-200.000	0.014	0.281
-738.069	98.669	-0.268	0.316
-737.054	-96.356	-0.146	0.040
-736.039	30.737	-0.232	-0.203
-735.025	706.015	-0.050	-0.135
-734.010	-151.467	-0.187	0.014
-732.996	-171.618	-0.326	-0.011
-731.981	-140.727	-0.370	0.039
-730.966	-11.537	-0.147	-0.099
-729.952	358.768	-0.325	0.664
-728.937	-141.310	-0.112	-0.012
-727.923	-72.167	-0.341	0.129
-726.908	800.000	-0.085	-0.333
-725.894	266.446	0.098	0.175
-724.879	-10.244	0.155	0.105
-723.864	479.023	0.130	0.301
-722.850	-132.664	-0.050	-0.007
-721.835	-56.410	-0.045	-0.021
-720.821	-125.710	0.210	-0.033
-719.806	93.154	0.076	0.088
-718.791	-200.000	0.027	0.122
-717.777	-200.000	-0.026	0.193
-716.762	-90.021	-0.125	0.037
-715.748	-200.000	0.002	0.083
-714.733	-200.000	-0.004	-0.059
-713.718	-61.859	-0.207	0.089
-712.704	7.935	-0.105	0.081
-711.689	-7.485	-0.033	0.023
-710.675	251.052	-0.091	-0.158
-709.660	-200.000	0.042	-0.208
-708.645	-100.947	0.168	0.042
-707.631	12.142	-0.098	-0.077
-706.616	145.850	-0.276	-0.378
-705.602	-200.000	-0.035	-0.383
-704.587	691.118	-0.085	-0.226
-703.572	-175.017	-0.181	0.005
-702.558	137.921	0.276	0.369
-701.543	476.699	0.219	-0.506
-700.529	247.532	-0.166	0.287
-699.514	-195.729	-0.167	-0.001
-698.499	282.912	-0.266	-0.488
-697.485	93.843	-0.181	-0.209
-696.470	-153.097	-0.648	-0.047
-695.456	696.910	-0.046	0.124
-694.441	-35.475	-0.119	0.066
-693.426	354.022	0.087	-0.176
-692.412	35.758	0.114	-0.103
-691.397	-62.049	-0.099	0.042
-690.383	-28.517	0.184	0.108
-689.368	-67.013	0.219	0.088
-688.354	285.790	0.064	-0.118
-687.339	755.886	-0.052	-0.145
-686.324	671.764	-0.263	-0.696
-685.310	-103.216	-0.171	0.041
-684.295	-21.592	0.305	-0.190
-683.281	-40.147	0.127	0.068
-682.266	-200.000	-0.006	-0.092
-681.251	-200.000	-0.073	0.375
-680.237	-12.404	-0.429	-0.286
-679.222	636.131	-0.073	0.188
-678.208	-200.000	0.172	-0.001
-677.193	526.852	0.073	-0.175
-676.178	732.600	0.126	-0.343
-675.164	335.501	-0.114	0.225
-674.149	-45.744	-0.300	0.151
-673.135	144.550	-0.112	-0.152
-672.120	-111.276	-0.196	0.041
-671.105	-200.000	-0.033	-0.164
-670.091	113.039	-0.082	-0.101
-669.076	322.636	0.117	0.227
-668.062	137.826	-0.121	0.162
-667.047	-118.497	0.289	-0.052
-666.032	800.000	-0.078	-0.237
-665.018	187.782	-0.068	-0.104
-664.003	-97.505	0.463	0.123
-662.989	-130.230	0.195	0.027
-661.974	265.737	0.136	-0.242
-660.959	-200.000	-0.000	-0.071
-659.945	-101.037	-0.206	0.052
-658.930	-200.000	-0.015	-0.110
-657.916	-58.300	-0.375	-0.166
-656.901	-200.000	-0.032	-0.166
-655.886	-200.000	0.005	0.198
-654.872	-200.000	-0.002	0.139
-653.857	-35.571	-0.148	0.082
-652.843	-174.409	-0.381	-0.011
-651.828	-114.722	0.151	0.029
-650.814	-12.024	-0.258	-0.172
-649.799	96.353	-0.059	0.069
-648.784	800.000	-0.072	-0.223
-647.770	-200.000	0.047	-0.279
-646.755	9.100	-0.057	0.044
-645.741	800.000	-0.060	0.229
-644.726	31.975	0.140	-0.123
-643.711	-77.053	-0.123	0.044
-642.697	50.596	0.139	0.134
-641.682	-56.918	0.141	0.063
-640.668	661.192	-0.039	0.102
-639.653	68.893	0.040	-0.042
-638.638	155.770	0.055	0.077
-637.624	-18.581	0.195	0.124
-636.609	800.000	-0.061	0.182
-635.595	705.679	-0.126	0.339
-634.580	62.470	0.139	0.141
-633.565	800.000	0.072	0.293
-632.551	-71.306	-0.151	-0.058
-631.536	129.673	0.078	0.102
-630.522	345.589	-0.134	0.268
-629.507	-104.826	-0.223	0.052
-628.492	185.542	0.241	-0.365
-627.478	140.761	-0.092	0.124
-626.463	-77.377	0.061	0.022
-625.449	-99.325	-0.179	0.046
-624.434	97.333	0.006	0.007
-623.419	-22.775	-0.253	-0.156
-622.405	316.735	-0.088	0.170
-621.390	-50.731	0.211	-0.101
-620.376	25.199	-0.072	-0.061
-619.361	800.000	0.029	-0.090
-618.346	-60.265	-0.151	0.065
-617.332	-200.000	0.010	0.233
-616.317	51.019	-0.084	-0.081
-615.303	42.993	-0.130	-0.120
-614.288	-189.107	0.130	0.002
-613.273	274.469	-0.074	-0.133
-612.259	-105.986	0.322	-0.074
-611.244	-4.201	-0.111	-0.078
-610.230	-91.371	0.275	-0.080
-609.215	30.515	0.153	0.133
-608.201	-200.000	-0.053	0.314
-607.186	-76.010	0.284	0.102
-606.171	-113.306	0.219	0.044
-605.157	349.098	-0.045	0.090
-604.142	264.357	-0.032	0.056
-603.128	-10.582	0.150	0.101
-602.113	-58.847	-0.163	0.072
-601.098	800.000	-0.035	-0.151
-600.084	-200.000	0.039	-0.201
-599.069	-200.000	0.005	-0.162
-598.055	229.745	-0.168	0.279
-597.040	233.605	0.144	0.241
-596.025	87.764	0.047	0.053
-595.011	22.883	-0.149	-0.124
-593.996	147.249	0.088	0.121
-592.982	-118.406	0.100	0.018
-591.967	562.223	-0.052	0.127
-590.952	800.000	0.059	-0.190
-589.938	-125.902	0.308	-0.047
-588.923	800.000	0.122	0.405
-587.909	225.846	-0.019	-0.032
-586.894	-37.171	0.060	-0.033
-585.879	800.000	0.025	-0.086
-584.865	106.613	0.201	-0.243
-583.850	236.451	0.146	-0.246
-582.836	-43.116	-0.214	0.110
-581.821	800.000	-0.024	-0.091
-580.806	517.375	-0.055	-0.132
-579.792	43.403	-0.342	-0.318
-578.777	-16.171	-0.216	0.140
-577.763	800.000	0.038	-0.110
-576.748	50.680	-0.244	-0.235
-575.733	-200.000	-0.060	0.301
-574.719	211.398	0.044	0.071
-573.704	426.456	0.035	-0.077
-572.690	-28.803	0.168	0.098
-571.675	18.106	-0.318	0.258
-570.661	180.217	0.258	0.384
-569.646	198.260	0.061	0.094
-568.631	117.356	-0.097	0.121
-567.617	-200.000	0.010	0.094
-566.602	172.373	0.090	-0.132
-565.588	261.183	0.068	0.119
-564.573	151.566	-0.133	-0.184
-563.558	-200.000	0.032	0.341
-562.544	-61.634	-0.016	-0.007
-561.529	74.972	-0.157	0.169
-560.515	197.359	-0.067	0.104
-559.500	-200.000	0.045	0.232
-558.485	-83.101	0.102	-0.033
-557.471	78.610	0.110	0.120
-556.456	800.000	0.022	-0.095
-555.442	567.744	-0.066	-0.162
-554.427	-7.477	-0.153	0.105
-553.412	800.000	-0.034	0.106
-552.398	-42.740	-0.102	0.053
-551.383	299.055	-0.126	0.235
-550.369	-135.659	0.380	-0.046
-549.354	-92.060	-0.319	0.092
-548.339	271.571	0.063	-0.113
-547.325	-41.154	0.094	0.049
-546.310	800.000	0.076	0.251
-545.296	442.989	0.071	0.159
-544.281	-85.419	0.153	-0.048
-543.266	-200.000	0.036	0.170
-542.252	744.772	-0.114	-0.312
-541.237	-200.000	-0.009	-0.114
-540.223	-174.724	-0.034	0.001
-539.208	-95.289	-0.085	0.023
-538.193	-200.000	0.000	-0.071
-537.179	337.301	-0.061	-0.121
-536.164	-200.000	0.004	-0.109
-535.150	-185.442	-0.357	-0.006
-534.135	-4.722	-0.078	-0.055
-533.121	448.722	-0.106	-0.237
-532.106	11.155	-0.134	0.104
-531.091	141.100	0.094	0.126
-530.077	800.000	0.009	0.039
-529.062	-83.723	-0.417	0.135
-528.048	111.152	-0.106	0.130
-527.033	-112.540	-0.214	-0.043
-526.018	-90.177	-0.252	0.074
-525.004	-34.138	-0.152	-0.085
-523.989	-161.079	0.434	-0.023
-522.975	-74.412	0.303	-0.111
-521.960	-200.000	-0.011	-0.091
-520.945	41.944	0.153	0.141
-519.931	61.662	0.126	-0.127
-518.916	-147.250	-0.241	-0.021
-517.902	800.000	0.093	-0.313
-516.887	-200.000	0.030	-0.155
-515.872	-36.965	-0.173	-0.094
-514.858	-62.318	-0.156	0.066
-513.843	-69.769	-0.142	0.055
-512.829	-63.247	-0.084	0.035
-511.814	-200.000	0.028	-0.197
-510.799	-90.142	0.209	-0.062
-509.785	203.609	0.060	-0.094
-508.770	142.237	-0.127	-0.171
-507.756	-59.312	0.178	0.078
-506.741	273.079	-0.167	-0.299
-505.726	-200.000	-0.014	-0.125
-504.712	800.000	-0.056	-0.216
-503.697	-200.000	-0.010	-0.261
-502.683	-25.186	0.123	-0.074
-501.668	754.824	0.113	-0.311
-500.653	-6.440	-0.138	0.095
-499.639	535.294	-0.070	0.168
-498.624	-36.775	0.382	-0.208
-497.610	-15.396	-0.196	-0.127
-496.595	455.976	-0.175	-0.394
-495.581	-200.000	-0.008	0.214
-494.566	-93.049	-0.301	0.085
-493.551	-101.366	-0.265	0.066
-492.537	437.331	0.113	0.250
-491.522	-9.898	0.150	-0.101
-490.508	440.437	-0.033	0.073
-489.493	800.000	-0.061	0.191
-488.478	174.559	-0.178	0.262
-487.464	-165.238	-0.421	0.019
-486.449	-200.000	0.010	-0.257
-485.435	-164.691	-0.202	-0.009
-484.420	800.000	0.051	-0.165
-483.405	-200.000	0.039	0.250
-482.391	29.282	0.108	-0.093
-481.376	-21.902	0.148	-0.091
-480.362	-49.755	0.432	-0.208
-479.347	-135.917	0.325	-0.039
-478.332	469.494	0.010	-0.022
-477.318	-31.084	-0.155	-0.089
-476.303	-138.414	0.160	-0.018
-475.289	800.000	-0.042	0.119
-474.274	-137.902	0.112	-0.013
-473.259	-89.954	0.173	-0.051
-472.245	145.720	-0.212	0.288
-471.230	-48.442	-0.095	-0.046
-470.216	-200.000	-0.079	-0.413
-469.201	327.859	0.111	-0.216
-468.186	-87.958	0.042	-0.013
-467.172	567.351	-0.017	0.041
-466.157	-200.000	-0.036	0.178
-465.143	-200.000	-0.037	-0.254
-464.128	-200.000	0.019	-0.099
-463.113	-200.000	0.005	-0.562
-462.099	-150.234	-0.308	-0.024
-461.084	-200.000	-0.011	0.053
-460.070	800.000	-0.083	0.369
-459.055	-25.501	0.310	0.185
-458.040	124.970	0.082	-0.105
-457.026	-36.246	-0.061	0.033
-456.011	-127.959	-0.161	-0.023
-454.997	203.326	0.019	-0.029
-453.982	-200.000	-0.025	-0.219
-452.968	-81.903	-0.100	-0.033
-451.953	201.240	0.139	-0.217
-450.938	21.333	-0.108	-0.089
-449.924	-86.496	-0.449	-0.140
-448.909	65.552	-0.104	0.107
-447.895	-112.628	0.409	0.082
-446.880	-131.938	-0.088	-0.012
-445.865	-55.897	0.214	0.097
-444.851	-125.822	0.575	-0.088
-443.836	-116.830	0.065	-0.012
-442.822	-171.356	-0.069	0.002
-441.807	-200.000	0.014	0.080
-440.792	24.269	0.132	-0.110
-439.778	800.000	0.071	0.293
-438.763	-200.000	0.049	0.317
-437.749	-13.439	0.013	0.009
-436.734	-200.000	-0.022	0.176
-435.719	-56.841	-0.058	0.026
-434.705	549.500	0.029	-0.071
-433.690	-167.680	0.199	0.008
-432.676	196.010	0.090	0.138
-431.661	-64.910	0.257	-0.105
-430.646	-58.923	-0.113	-0.049
-429.632	-12.785	-0.147	0.097
-428.617	-200.000	-0.060	-0.358
-427.603	90.128	-0.133	-0.150
-426.588	-100.621	0.278	-0.069
-425.573	-74.601	0.264	0.096
-424.559	-101.589	-0.315	-0.077
-423.544	800.000	-0.030	0.123
-422.530	800.000	-0.031	0.118
-421.515	-55.952	0.149	0.067
-420.500	-8.024	-0.150	-0.102
-419.486	-47.589	-0.220	0.108
-418.471	800.000	-0.053	0.190
-417.457	170.394	-0.122	-0.176
-416.442	-118.862	0.244	-0.043
-415.428	-87.411	0.335	0.103
-414.413	4.068	-0.244	0.180
-413.398	-83.059	-0.307	0.100
-412.384	27.911	0.229	0.195
-411.369	-200.000	0.047	0.240
-410.355	10.012	0.239	-0.183
-409.340	800.000	0.057	0.198
-408.325	-12.334	-0.387	0.255
-407.311	800.000	-0.115	0.323
-406.296	446.028	0.040	-0.090
-405.282	608.936	-0.069	-0.175
-404.267	119.918	0.153	0.191
-403.252	17.480	0.146	-0.117
-402.238	-1.863	0.065	0.046
-401.223	320.490	0.032	-0.062
-400.209	16.820	-0.170	-0.136
-399.194	44.190	-0.262	-0.243
-398.179	-157.644	-0.130	0.008
-397.165	75.584	-0.043	0.046
-396.150	-112.168	-0.199	-0.040
-395.136	16.675	-0.244	-0.195
-394.121	-200.000	0.020	0.158
-393.106	-200.000	0.015	-0.170
-392.092	114.034	-0.059	-0.072
-391.077	-64.351	0.086	-0.035
-390.063	-200.000	-0.036	-0.336
-389.048	2.936	-0.135	0.099
-388.033	13.424	-0.104	0.081
-387.019	87.149	0.068	0.076
-386.004	-200.000	-0.041	-0.195
-384.990	-83.470	-0.131	0.042
-383.975	-132.970	0.152	0.020
-382.960	297.493	-0.113	0.210
-381.946	286.647	-0.127	-0.231
-380.931	800.000	-0.115	0.450
-379.917	800.000	-0.022	0.085
-378.902	-9.162	0.147	-0.099
-377.888	-62.265	-0.251	-0.105
-376.873	800.000	0.057	0.173
-375.858	19.131	0.140	0.113
-374.844	-1.255	-0.177	0.126
-373.829	800.000	0.065	0.199
-372.815	673.502	0.099	-0.259
-371.800	-200.000	0.041	0.222
-370.785	-59.282	-0.227	0.098
-369.771	-157.100	0.188	0.012
-368.756	-68.000	0.104	0.041
-367.742	571.598	-0.146	-0.359
-366.727	65.801	0.192	0.197
-365.712	-177.393	0.375	0.009
-364.698	-95.547	0.273	0.074
-363.683	-144.370	-0.107	-0.010
-362.669	-148.334	-0.126	-0.010
-361.654	800.000	0.044	0.135
-360.639	753.983	-0.057	-0.156
-359.625	37.023	-0.273	0.243
-358.610	-84.871	-0.238	-0.075
-357.596	-161.793	-0.290	-0.015
-356.581	141.830	0.107	-0.143
-355.566	-200.000	-0.018	0.104
-354.552	-200.000	-0.048	0.275
-353.537	-25.762	-0.192	0.114
-352.523	526.638	-0.041	-0.098
-351.508	716.595	0.029	0.078
-350.493	-19.930	-0.157	0.098
-349.479	488.236	0.106	0.245
-348.464	94.447	0.254	0.291
-347.450	-20.485	0.162	-0.100
-346.435	800.000	-0.037	-0.138
-345.420	129.223	0.100	0.129
-344.406	-183.724	0.343	0.006
-343.391	800.000	0.043	0.155
-342.377	-200.000	-0.043	-0.382
-341.362	-107.985	0.126	-0.028
-340.348	-84.135	0.316	0.101
-339.333	314.405	-0.127	-0.240
-338.318	66.640	0.247	-0.254
-337.304	-200.000	-0.005	-0.125
-336.289	-161.676	-0.361	-0.019
-335.275	800.000	0.053	-0.208
-334.260	-161.245	-0.420	-0.022
-333.245	244.864	-0.126	0.214
-332.231	51.629	-0.163	-0.156
-331.216	-80.577	-0.102	0.034
-330.202	96.460	-0.110	-0.126
-329.187	-112.848	0.343	-0.068
-328.172	-37.967	0.300	0.160
-327.158	-99.556	-0.475	0.120
-326.143	-200.000	0.028	-0.128
-325.129	-78.877	-0.034	-0.012
-324.114	800.000	-0.012	0.046
-323.099	422.602	0.124	0.269
-322.085	-200.000	-0.050	0.387
-321.070	102.703	0.092	0.109
-320.056	321.066	-0.065	-0.125
-319.041	-139.513	-0.049	-0.005
-318.026	-68.642	0.124	-0.048
-317.012	194.744	-0.184	-0.281
-315.997	17.251	0.124	-0.099
-314.983	222.713	0.209	-0.339
-313.968	259.918	-0.071	0.123
-312.953	194.516	0.194	-0.296
-311.939	406.528	0.015	0.032
-310.924	164.572	0.111	0.157
-309.910	-200.000	0.037	-0.310
-308.895	-106.825	-0.055	-0.012
-307.880	167.789	-0.161	-0.230
-306.866	-73.737	0.234	-0.086
-305.851	211.777	-0.156	0.247
-304.837	-35.467	0.227	-0.124
-303.822	-200.000	0.012	0.153
-302.807	-38.073	-0.231	-0.124
-301.793	516.801	0.068	-0.160
-300.778	432.614	-0.109	0.238
-299.764	639.434	0.039	-0.099
-298.749	-12.626	0.035	-0.023
-297.735	-79.534	-0.340	0.115
-296.720	-200.000	-0.051	0.281
-295.705	144.267	0.069	0.093
-294.691	-110.465	-0.395	0.082
-293.676	-32.525	0.238	-0.133
-292.662	-200.000	-0.035	-0.225
-291.647	394.802	0.160	-0.335
-290.632	-200.000	-0.001	0.220
-289.618	-18.339	-0.076	0.047
-288.603	-145.019	0.416	0.038
-287.589	184.718	0.148	0.221
-286.574	184.830	-0.096	-0.143
-285.559	-200.000	0.013	-0.295
-284.545	24.681	0.142	0.118
-283.530	-34.374	0.235	0.130
-282.516	-119.970	-0.140	-0.024
-281.501	-171.807	-0.287	0.009
-280.486	322.346	-0.060	-0.114
-279.472	287.400	-0.131	0.239
-278.457	-30.510	-0.150	0.085
-277.443	-33.587	-0.202	0.112
-276.428	-200.000	-0.070	-0.393
-275.413	-41.762	0.149	0.077
-274.399	-28.283	-0.035	-0.021
-273.384	-41.490	-0.195	-0.101
-272.370	-200.000	0.012	-0.319
-271.355	-59.341	0.074	0.032
-270.340	65.658	-0.274	0.279
-269.326	230.482	-0.058	0.096
-268.311	-150.072	-0.124	-0.010
-267.297	124.989	0.102	0.129
-266.282	108.230	-0.127	0.152
-265.267	147.628	0.318	0.430
-264.253	156.511	0.193	0.268
-263.238	26.381	0.309	-0.260
-262.224	-82.616	0.119	0.039
-261.209	800.000	0.017	-0.068
-260.195	80.695	0.116	0.126
-259.180	-143.985	0.301	-0.028
-258.165	-96.505	-0.202	-0.054
-257.151	351.356	0.268	-0.532
-256.136	-74.836	0.146	-0.053
-255.122	-68.684	-0.484	-0.188
-254.107	-107.833	-0.246	-0.054
-253.092	-33.737	0.153	-0.085
-252.078	-77.628	-0.331	-0.115
-251.063	800.000	-0.071	-0.276
-250.049	-56.121	-0.237	-0.106
-249.034	254.533	-0.107	-0.184
-248.019	-13.381	0.190	0.123
-247.005	-200.000	-0.008	-0.143
-245.990	403.208	0.185	0.391
-244.976	508.726	-0.028	0.065
-243.961	256.593	0.087	0.149
-242.946	-133.230	0.236	0.030
-241.932	71.621	0.189	-0.197
-240.917	-99.941	0.336	0.084
-239.903	-200.000	-0.001	-0.121
-238.888	-200.000	-0.010	-0.061
-237.873	73.783	0.128	0.134
-236.859	-108.470	0.081	-0.018
-235.844	114.259	0.197	0.240
-234.830	-111.300	-0.250	-0.051
-233.815	595.108	0.093	0.232
-232.800	-200.000	0.022	0.104
-231.786	-45.061	0.249	0.125
-230.771	-200.000	-0.017	-0.086
-229.757	-200.000	0.004	-0.207
-228.742	357.908	0.125	-0.251
-227.727	355.460	0.088	-0.176
-226.713	-131.292	0.178	0.024
-225.698	-104.982	0.089	0.020
-224.684	327.050	0.029	0.057
-223.669	-62.762	-0.078	-0.032
-222.655	-200.000	-0.065	0.363
-221.640	-200.000	-0.014	-0.174
-220.625	34.431	0.194	0.170
-219.611	117.981	-0.034	0.042
-218.596	-56.785	-0.125	0.055
-217.582	116.581	0.158	-0.194
-216.567	-81.741	-0.405	0.133
-215.552	-200.000	-0.041	-0.405
-214.538	-125.254	-0.170	0.026
-213.523	345.123	-0.117	-0.231
-212.509	-125.598	0.163	-0.025
-211.494	-27.352	0.113	0.066
-210.479	175.598	-0.136	0.198
-209.465	226.829	0.087	0.142
-208.450	362.327	0.126	-0.254
-207.436	-78.819	0.316	0.108
-206.421	-28.798	0.209	0.120
-205.406	-200.000	-0.004	-0.028
-204.392	22.810	0.159	-0.131
-203.377	279.846	-0.103	0.184
-202.363	-200.000	0.022	-0.113
-201.348	159.998	0.075	-0.105
-200.333	106.504	0.141	-0.167
-199.319	2.907	0.134	0.098
-198.304	16.703	-0.096	-0.076
-197.290	-200.000	0.012	0.117
-196.275	-116.808	-0.330	0.061
-195.260	141.031	-0.194	-0.257
-194.246	-200.000	0.002	0.134
-193.231	22.017	0.066	0.054
-192.217	27.329	0.190	-0.160
-191.202	113.188	0.287	-0.348
-190.187	285.717	-0.228	0.411
-189.173	-87.064	-0.331	0.101
-188.158	-200.000	-0.024	0.133
-187.144	-72.644	-0.276	0.102
-186.129	-67.807	0.101	-0.040
-185.114	-200.000	-0.018	0.090
-184.100	203.889	-0.099	0.153
-183.085	-48.410	-0.089	0.043
-182.071	-50.803	0.092	-0.043
-181.056	-200.000	-0.044	-0.385
-180.042	363.124	-0.053	-0.107
-179.027	189.716	-0.132	-0.199
-178.012	88.719	0.230	-0.256
-176.998	-200.000	0.084	0.508
-175.983	-88.393	-0.241	0.072
-174.969	-200.000	0.035	0.227
-173.954	-7.582	0.052	0.035
-172.939	9.446	0.083	0.063
-171.925	-147.212	-0.106	0.009
-170.910	213.786	-0.144	-0.228
-169.896	123.017	-0.105	0.132
-168.881	-2.388	-0.146	0.102
-167.866	800.000	-0.058	0.199
-166.852	-140.900	0.080	-0.008
-165.837	154.808	0.126	-0.174
-164.823	12.877	-0.173	-0.134
-163.808	512.691	0.072	-0.167
-162.793	128.208	-0.066	0.084
-161.779	69.447	0.143	0.148
-160.764	236.252	0.152	0.252
-159.750	-14.137	-0.132	-0.085
-158.735	27.057	0.257	0.216
-157.720	195.162	-0.117	-0.178
-156.706	-70.741	0.028	0.011
-155.691	800.000	0.124	-0.401
-154.677	57.015	-0.084	-0.082
-153.662	-200.000	-0.021	-0.158
-152.647	156.287	0.100	-0.138
-151.633	-44.578	0.399	-0.199
-150.618	305.220	0.063	-0.117
-149.604	-200.000	-0.032	0.190
-148.589	6.894	0.026	0.020
-147.574	16.902	0.163	0.129
-146.560	20.600	0.102	-0.083
-145.545	-200.000	0.019	0.089
-144.531	-156.969	0.152	0.009
-143.516	800.000	0.059	-0.164
-142.502	-117.306	0.186	-0.034
-141.487	-88.290	-0.217	-0.065
-140.472	-34.150	0.034	0.019
-139.458	-159.869	0.012	-0.001
-138.443	298.405	-0.061	-0.112
-137.429	-200.000	0.005	0.072
-136.414	250.827	-0.061	0.104
-135.399	111.091	0.133	-0.160
-134.385	800.000	0.005	-0.019
-133.370	-200.000	-0.075	-0.340
-132.356	800.000	0.002	0.007
-131.341	352.882	-0.105	0.209
-130.326	-9.683	-0.211	0.141
-129.312	-28.017	0.231	0.133
-128.297	-5.574	-0.014	0.010
-127.283	-135.792	-0.019	-0.002
-126.268	645.288	0.090	-0.230
-125.253	-200.000	-0.038	0.231
-124.239	800.000	-0.117	0.453
-123.224	-84.532	0.064	0.020
-122.210	-66.006	0.383	0.153
