DTS Sentinel unit serial number:	SN413079Multiplexer serial number:	ORYXHardware model number:	OX4-SRSoftware version number:	ORYX F/W v4.00 Oryx Data Collector v3.7.2.0data status	okinstallation	princeton_trtdifferential loss correction	single-endedforward channel	channel 3reverse channel	N/Adate	2019/09/12time	11:10:11forward acquisition time	60.00reverse acquisition time	0.00gamma	496.2192k internal	0.2295k external	0.2295temperature offset calibration	1.0036default loss term (dB/km)	0.3790temperature slope calibration	1.0000multiplexer offset coefficient	1.0000multiplexer slope coefficient	1.0000fibre end	0.00T internal ref (°C)	38.75T ext. ref 1 (°C)	1.94T ext. ref 2 (°C)	35.76length (m)	temperature (°C)	Stokes	anti-Stokes-747.200	-65.519	-0.041	0.017
-746.185	-200.000	0.061	0.482
-745.171	94.486	-0.038	-0.044
-744.156	-11.126	0.252	0.170
-743.142	-74.133	0.161	0.060
-742.127	-5.584	0.186	0.130
-741.112	-68.465	-0.331	-0.131
-740.098	-200.000	0.022	0.246
-739.083	-152.400	0.174	0.013
-738.069	24.760	-0.114	-0.097
-737.054	-50.517	-0.307	0.148
-736.039	401.424	-0.105	0.226
-735.025	108.712	0.103	0.126
-734.010	-95.058	-0.224	-0.062
-732.996	800.000	0.074	-0.227
-731.981	680.669	0.035	0.092
-730.966	179.462	0.010	-0.015
-729.952	-89.927	-0.166	0.050
-728.937	184.512	-0.148	0.225
-727.923	-71.769	0.100	-0.038
-726.908	-174.362	0.321	-0.009
-725.894	-149.205	0.185	-0.015
-724.879	113.188	-0.139	-0.172
-723.864	-200.000	0.040	0.194
-722.850	130.352	0.312	0.408
-721.835	691.702	-0.043	0.114
-720.821	800.000	0.066	-0.216
-719.806	197.795	0.061	0.095
-718.791	-52.183	-0.098	-0.046
-717.777	-200.000	0.044	0.233
-716.762	43.738	-0.103	-0.096
-715.748	497.123	0.129	-0.302
-714.733	378.122	-0.053	0.110
-713.718	-67.528	0.134	-0.054
-712.704	32.785	0.155	-0.137
-711.689	568.365	-0.108	-0.268
-710.675	26.794	-0.253	-0.216
-709.660	-16.018	0.237	0.154
-708.645	-200.000	-0.034	-0.330
-707.631	-27.423	0.343	0.204
-706.616	341.777	-0.047	-0.094
-705.602	-9.618	0.068	0.046
-704.587	156.817	0.125	-0.177
-703.572	99.325	0.118	0.140
-702.558	9.474	-0.120	0.093
-701.543	-52.116	-0.051	-0.024
-700.529	-89.111	-0.190	0.057
-699.514	-200.000	0.045	-0.397
-698.499	-46.705	0.101	0.050
-697.485	109.649	0.054	0.066
-696.470	-73.005	0.304	0.114
-695.456	-200.000	-0.061	-0.327
-694.441	-61.136	-0.139	0.060
-693.426	-70.945	0.135	-0.052
-692.412	-90.449	-0.266	-0.079
-691.397	54.326	0.325	-0.319
-690.383	278.212	0.094	-0.170
-689.368	-152.739	0.104	-0.008
-688.354	25.290	-0.133	-0.112
-687.339	-23.222	0.036	-0.022
-686.324	114.240	-0.315	0.391
-685.310	-24.165	0.187	0.114
-684.295	-61.994	0.293	-0.125
-683.281	223.416	0.143	0.235
-682.266	800.000	0.055	-0.162
-681.251	-114.957	-0.168	0.033
-680.237	-47.612	0.079	0.039
-679.222	800.000	0.026	-0.083
-678.208	532.980	-0.151	0.363
-677.193	48.667	0.255	-0.244
-676.178	-200.000	0.015	0.110
-675.164	691.137	-0.140	0.372
-674.149	-35.296	-0.124	0.069
-673.135	-200.000	0.002	-0.257
-672.120	-119.242	-0.085	0.015
-671.105	137.317	-0.094	0.126
-670.091	-69.466	-0.249	-0.097
-669.076	278.821	0.104	-0.190
-668.062	-21.097	0.218	0.136
-667.047	130.416	-0.148	-0.193
-666.032	800.000	-0.042	-0.145
-665.018	-200.000	-0.011	-0.549
-664.003	800.000	0.055	0.199
-662.989	800.000	-0.140	-0.462
-661.974	-88.625	0.120	-0.036
-660.959	800.000	-0.096	-0.273
-659.945	527.984	-0.023	0.054
-658.930	-99.530	-0.109	-0.028
-657.916	-38.244	0.276	0.149
-656.901	-196.888	0.170	-0.001
-655.886	-200.000	0.029	0.196
-654.872	-200.000	-0.041	-0.236
-653.857	110.984	-0.109	-0.134
-652.843	-112.897	0.247	-0.050
-651.828	-98.573	0.199	0.052
-650.814	800.000	-0.055	-0.223
-649.799	101.682	0.180	-0.214
-648.784	-200.000	-0.008	0.082
-647.770	800.000	-0.010	0.038
-646.755	36.797	0.239	-0.215
-645.741	-200.000	-0.027	-0.187
-644.726	-45.423	0.226	-0.114
-643.711	-84.197	-0.390	-0.126
-642.697	-120.220	-0.367	-0.064
-641.682	-200.000	-0.023	0.350
-640.668	54.449	0.102	0.100
-639.653	319.336	0.001	-0.001
-638.638	-200.000	0.026	0.274
-637.624	-39.830	-0.313	-0.167
-636.609	-8.421	0.047	-0.032
-635.595	102.809	-0.080	-0.096
-634.580	13.202	0.240	-0.189
-633.565	188.531	0.118	0.180
-632.551	-52.248	0.106	-0.050
-631.536	-155.986	0.289	-0.019
-630.522	800.000	0.091	-0.324
-629.507	143.694	0.149	-0.202
-628.492	203.804	0.065	-0.102
-627.478	-20.458	-0.345	0.216
-626.463	-116.765	-0.060	0.011
-625.449	-55.555	0.082	-0.037
-624.434	-134.142	-0.125	-0.016
-623.419	-200.000	0.030	-0.219
-622.405	-200.000	0.024	-0.153
-621.390	63.982	-0.191	-0.196
-620.376	24.519	0.040	0.034
-619.361	313.546	-0.007	-0.014
-618.346	140.676	0.076	-0.103
-617.332	230.565	-0.122	-0.203
-616.317	247.092	0.074	-0.127
-615.303	91.266	0.230	-0.262
-614.288	100.037	-0.209	-0.246
-613.273	-200.000	0.010	-0.058
-612.259	800.000	0.008	-0.034
-611.244	-64.651	0.178	0.073
-610.230	13.746	0.101	0.080
-609.215	-200.000	-0.002	-0.033
-608.201	-62.008	0.067	-0.029
-607.186	-67.220	-0.144	-0.058
-606.171	30.868	-0.263	-0.229
-605.157	-144.164	-0.286	0.027
-604.142	2.892	0.156	0.115
-603.128	18.822	0.255	-0.207
-602.113	284.022	-0.173	0.317
-601.098	6.208	-0.073	-0.055
-600.084	22.155	-0.250	-0.207
-599.069	138.506	0.175	-0.234
-598.055	356.288	0.088	-0.179
-597.040	79.023	0.113	0.123
-596.025	330.508	-0.128	0.250
-595.011	-200.000	-0.012	0.256
-593.996	576.015	-0.176	0.437
-592.982	38.207	0.013	0.012
-591.967	-200.000	-0.007	0.377
-590.952	187.373	-0.119	-0.180
-589.938	-42.677	-0.275	0.142
-588.923	355.827	0.044	-0.089
-587.909	26.372	0.114	-0.097
-586.894	-121.664	0.439	0.074
-585.879	689.869	-0.059	-0.157
-584.865	-165.851	0.142	-0.006
-583.850	-158.782	0.063	-0.004
-582.836	389.456	-0.164	0.346
-581.821	-131.297	-0.426	-0.057
-580.806	-23.097	0.198	0.121
-579.792	-107.669	-0.097	-0.022
-578.777	30.895	0.277	0.241
-577.763	-96.352	0.384	0.103
-576.748	-66.995	0.260	0.104
-575.733	110.574	-0.104	0.127
-574.719	-80.594	-0.183	0.062
-573.704	800.000	0.054	0.173
-572.690	167.322	0.107	-0.155
-571.675	800.000	0.033	-0.107
-570.661	233.142	0.086	0.144
-569.646	-200.000	-0.005	0.030
-568.631	-163.702	0.519	0.025
-567.617	113.348	-0.277	0.341
-566.602	203.656	0.110	0.173
-565.588	800.000	0.114	0.344
-564.573	-75.544	0.346	-0.125
-563.558	-23.104	0.105	0.064
-562.544	242.000	0.095	-0.162
-561.529	-192.968	-0.022	0.000
-560.515	-51.898	0.145	0.068
-559.500	-49.028	-0.132	-0.064
-558.485	800.000	0.065	0.274
-557.471	42.209	0.164	0.151
-556.456	-74.909	-0.021	0.008
-555.442	42.170	0.089	0.082
-554.427	-200.000	0.027	-0.232
-553.412	800.000	0.014	-0.060
-552.398	-136.461	-0.245	-0.029
-551.383	-200.000	-0.004	-0.069
-550.369	-200.000	0.015	0.131
-549.354	-93.883	0.103	-0.029
-548.339	800.000	-0.072	-0.286
-547.325	-61.776	-0.104	-0.044
-546.310	123.639	0.086	0.109
-545.296	-200.000	0.011	0.093
-544.281	315.640	-0.182	-0.348
-543.266	18.030	0.270	-0.218
-542.252	229.050	-0.102	0.168
-541.237	-25.646	-0.255	-0.153
-540.223	-175.407	0.408	0.011
-539.208	-18.598	0.146	-0.093
-538.193	64.996	0.051	0.052
-537.179	-200.000	0.046	-0.222
-536.164	309.867	-0.058	-0.110
-535.150	-200.000	0.023	-0.130
-534.135	148.889	0.087	-0.119
-533.121	-32.806	-0.177	0.100
-532.106	-102.508	-0.078	0.019
-531.091	-200.000	0.023	-0.340
-530.077	-0.301	0.176	-0.127
-529.062	449.940	-0.172	-0.384
-528.048	-24.076	-0.203	-0.123
-527.033	-200.000	0.019	-0.149
-526.018	-169.074	0.223	-0.008
-525.004	-128.086	0.303	-0.044
-523.989	34.168	-0.199	-0.176
-522.975	579.344	0.016	-0.040
-521.960	3.364	0.096	-0.071
-520.945	-13.903	-0.113	-0.074
-519.931	505.351	0.139	-0.326
-518.916	800.000	0.095	-0.314
-517.902	-200.000	-0.016	-0.186
-516.887	-155.653	0.331	0.022
-515.872	396.261	0.132	0.278
-514.858	-98.922	-0.371	0.096
-513.843	-73.263	0.144	0.053
-512.829	-153.377	0.251	0.018
-511.814	-200.000	-0.009	0.332
-510.799	-200.000	-0.015	0.201
-509.785	-144.193	-0.089	-0.008
-508.770	-56.277	0.264	-0.119
-507.756	6.035	0.281	-0.211
-506.741	-200.000	0.057	-0.360
-505.726	-146.832	0.378	0.033
-504.712	-200.000	-0.032	0.243
-503.697	93.101	-0.113	0.129
-502.683	-134.996	0.193	0.024
-501.668	-200.000	0.011	-0.262
-500.653	-200.000	0.007	0.072
-499.639	-43.036	0.189	-0.097
-498.624	131.851	0.255	-0.332
-497.610	-200.000	0.019	-0.319
-496.595	-147.968	0.104	0.009
-495.581	800.000	-0.042	-0.141
-494.566	45.912	-0.058	-0.054
-493.551	-200.000	0.002	-0.190
-492.537	-200.000	-0.004	-0.053
-491.522	800.000	-0.072	-0.248
-490.508	90.934	0.071	-0.080
-489.493	516.528	0.115	-0.271
-488.478	744.819	-0.069	0.189
-487.464	-38.226	-0.290	-0.156
-486.449	-104.648	-0.410	-0.096
-485.435	-24.323	-0.354	0.214
-484.420	-171.663	-0.056	-0.002
-483.405	265.662	0.125	0.220
-482.391	800.000	0.076	0.273
-481.376	160.821	0.113	-0.160
-480.362	800.000	-0.076	-0.224
-479.347	54.757	-0.054	0.053
-478.332	-142.883	0.194	-0.019
-477.318	-119.340	-0.294	-0.052
-476.303	131.058	0.362	-0.470
-475.289	-116.365	0.144	0.027
-474.274	-200.000	0.014	-0.144
-473.259	-144.707	-0.109	0.010
-472.245	123.398	-0.017	-0.021
-471.230	28.089	-0.108	0.092
-470.216	-200.000	-0.001	0.162
-469.201	-115.964	-0.264	0.050
-468.186	-19.541	-0.217	-0.136
-467.172	-145.408	-0.273	-0.025
-466.157	-51.880	-0.236	0.111
-465.143	9.010	-0.067	0.052
-464.128	36.595	-0.148	0.132
-463.113	-144.950	0.135	0.013
-462.099	-60.689	-0.427	-0.183
-461.084	4.005	0.077	-0.057
-460.070	-27.285	0.071	-0.042
-459.055	-129.687	0.220	-0.031
-458.040	189.995	-0.091	0.139
-457.026	-200.000	0.002	0.194
-456.011	427.550	0.078	0.170
-454.997	-63.851	-0.183	-0.076
-453.982	188.879	-0.092	0.139
-452.968	59.129	0.102	0.102
-451.953	12.709	-0.046	0.036
-450.938	-110.508	0.136	-0.028
-449.924	-45.658	-0.146	-0.073
-448.909	800.000	-0.061	0.268
-447.895	800.000	0.093	-0.268
-446.880	49.796	0.225	-0.215
-445.865	-173.768	0.125	0.004
-444.851	-19.569	0.020	-0.013
-443.836	-112.392	0.409	-0.083
-442.822	-176.879	-0.143	-0.004
-441.807	800.000	-0.035	0.100
-440.792	-46.557	0.071	0.035
-439.778	-60.913	-0.184	-0.078
-438.763	35.188	0.241	-0.213
-437.749	83.110	-0.245	-0.270
-436.734	-200.000	-0.008	0.141
-435.719	16.713	-0.169	0.135
-434.705	-200.000	-0.024	0.280
-433.690	107.855	0.042	-0.050
-432.676	217.338	0.068	-0.110
-431.661	86.982	0.209	0.233
-430.646	-93.040	0.112	0.032
-429.632	-156.748	-0.587	-0.037
-428.617	800.000	0.106	-0.444
-427.603	147.571	0.240	0.326
-426.588	263.555	-0.098	0.172
-425.573	-25.195	-0.118	-0.071
-424.559	501.522	-0.047	-0.110
-423.544	-200.000	0.220	-0.001
-422.530	77.514	0.099	-0.106
-421.515	800.000	0.034	0.097
-420.500	-160.008	-0.162	0.009
-419.486	800.000	0.052	0.226
-418.471	-124.768	-0.221	-0.035
-417.457	-130.973	-0.297	-0.040
-416.442	778.727	0.133	0.368
-415.428	272.244	-0.174	0.310
-414.413	-200.000	0.058	0.471
-413.398	73.121	-0.203	-0.214
-412.384	-118.650	-0.136	-0.024
-411.369	-200.000	0.045	-0.375
-410.355	652.842	0.161	-0.416
-409.340	101.072	0.183	-0.214
-408.325	172.615	-0.110	-0.159
-407.311	-11.619	-0.185	-0.123
-406.296	-77.673	0.329	-0.115
-405.282	57.490	-0.196	0.193
-404.267	-124.716	0.104	0.016
-403.252	-76.618	0.150	-0.053
-402.238	94.615	0.053	0.061
-401.223	104.014	0.051	-0.061
-400.209	-134.872	0.198	-0.024
-399.194	-200.000	0.022	0.210
-398.179	-131.372	-0.405	0.054
-397.165	-35.704	-0.105	-0.057
-396.150	680.205	0.166	0.437
-395.136	58.429	-0.488	0.483
-394.121	-200.000	0.004	0.155
-393.106	-136.970	0.158	0.018
-392.092	249.302	-0.218	0.373
-391.077	-138.788	-0.124	-0.014
-390.063	-55.453	-0.391	-0.177
-389.048	-196.426	-0.072	0.000
-388.033	16.113	0.434	0.345
-387.019	-147.979	0.063	0.005
-386.004	-54.116	-0.058	-0.027
-384.990	443.276	-0.082	0.180
-383.975	-14.557	-0.112	-0.073
-382.960	102.363	-0.251	0.295
-381.946	800.000	-0.030	0.109
-380.931	-156.773	-0.199	0.012
-379.917	800.000	-0.014	-0.046
-378.902	-10.827	-0.148	-0.099
-377.888	800.000	0.057	0.169
-376.873	-200.000	-0.039	-0.177
-375.858	-87.162	-0.301	0.092
-374.844	757.479	0.067	0.183
-373.829	-186.888	-0.060	-0.001
-372.815	30.646	0.141	0.122
-371.800	45.207	-0.251	-0.233
-370.785	431.637	-0.175	-0.381
-369.771	-14.082	-0.254	0.165
-368.756	-6.124	0.323	0.222
-367.742	-42.148	0.316	-0.163
-366.727	-120.078	-0.309	0.053
-365.712	38.282	0.192	-0.172
-364.698	-90.376	-0.287	-0.084
-363.683	-26.475	-0.128	-0.075
-362.669	-15.209	-0.109	0.071
-361.654	800.000	-0.105	-0.330
-360.639	-113.678	-0.027	-0.005
-359.625	-200.000	0.050	0.283
-358.610	-22.520	-0.325	0.198
-357.596	75.183	0.059	0.062
-356.581	-146.692	-0.062	-0.005
-355.566	584.486	0.058	-0.142
-354.552	-200.000	-0.046	0.255
-353.537	-200.000	-0.003	-0.085
-352.523	800.000	-0.052	0.189
-351.508	-200.000	-0.018	0.101
-350.493	-149.768	0.195	-0.015
-349.479	259.440	-0.155	-0.269
-348.464	617.923	-0.128	-0.323
-347.450	800.000	-0.084	0.276
-346.435	86.246	-0.177	0.196
-345.420	-62.134	-0.117	0.049
-344.406	30.503	0.328	0.283
-343.391	533.198	0.168	0.401
-342.377	119.496	0.224	0.279
-341.362	-32.364	-0.353	-0.198
-340.348	-200.000	0.015	-0.178
-339.333	-200.000	-0.061	-0.289
-338.318	-200.000	0.051	0.232
-337.304	89.149	0.146	0.163
-336.289	53.084	0.077	0.074
-335.275	-200.000	-0.009	0.171
-334.260	-37.482	0.336	-0.181
-333.245	182.237	0.039	0.058
-332.231	32.916	0.092	-0.080
-331.216	666.180	-0.063	-0.165
-330.202	29.916	-0.123	0.105
-329.187	170.092	-0.130	-0.187
-328.172	-104.791	-0.142	-0.033
-327.158	-200.000	0.041	0.261
-326.143	799.430	0.085	0.236
-325.129	800.000	-0.096	0.366
-324.114	726.851	0.081	0.217
-323.099	22.598	0.081	0.067
-322.085	40.000	-0.067	-0.061
-321.070	-115.031	-0.213	-0.041
-320.056	204.571	-0.166	0.258
-319.041	-124.815	0.087	0.014
-318.026	-28.691	0.266	0.154
-317.012	-2.083	-0.194	-0.137
-315.997	212.161	-0.268	-0.424
-314.983	272.839	-0.122	0.216
-313.968	230.046	0.242	0.398
-312.953	667.741	0.110	0.287
-311.939	28.648	0.098	0.083
-310.924	151.846	-0.044	-0.061
-309.910	-107.832	0.307	-0.067
-308.895	155.475	-0.211	0.292
-307.880	8.548	0.111	-0.084
-306.866	-130.607	-0.388	0.053
-305.851	-9.658	-0.213	-0.142
-304.837	-82.169	-0.275	-0.090
-303.822	-67.571	-0.263	-0.104
-302.807	-5.315	0.146	-0.101
-301.793	182.728	0.201	0.298
-300.778	-80.951	0.395	-0.132
-299.764	177.967	-0.193	-0.283
-298.749	-133.872	0.276	0.034
-297.735	-165.425	-0.123	0.005
-296.720	-200.000	-0.020	0.153
-295.705	-129.310	0.233	0.033
-294.691	-128.443	-0.203	0.029
-293.676	76.109	-0.059	0.062
-292.662	-26.331	-0.309	-0.182
-291.647	457.686	0.079	-0.175
-290.632	213.716	0.150	-0.237
-289.618	270.243	0.112	0.197
-288.603	-200.000	-0.010	0.125
-287.589	-36.749	-0.151	-0.081
-286.574	24.748	0.155	-0.129
-285.559	800.000	0.139	0.407
-284.545	800.000	-0.066	0.185
-283.530	45.923	-0.125	-0.116
-282.516	-200.000	-0.029	-0.162
-281.501	-200.000	-0.013	-0.528
-280.486	-38.106	0.208	0.111
-279.472	-170.510	0.092	-0.003
-278.457	-200.000	-0.012	-0.101
-277.443	366.894	0.147	0.297
-276.428	-200.000	-0.026	0.232
-275.413	21.732	-0.153	-0.125
-274.399	211.614	-0.069	0.109
-273.384	556.868	-0.041	0.099
-272.370	619.097	-0.091	-0.229
-271.355	800.000	0.061	-0.223
-270.340	-58.437	-0.140	-0.061
-269.326	-200.000	-0.004	0.447
-268.311	800.000	0.047	-0.143
-267.297	-200.000	0.041	-0.570
-266.282	-200.000	-0.007	0.498
-265.267	179.153	0.122	-0.178
-264.253	-135.064	0.052	0.006
-263.238	73.739	-0.121	0.127
-262.224	-48.411	0.179	-0.086
-261.209	800.000	-0.036	-0.132
-260.195	21.282	0.200	0.163
-259.180	75.011	-0.277	0.292
-258.165	29.536	0.241	0.205
-257.151	-118.333	-0.378	0.067
-256.136	-163.163	0.128	-0.006
-255.122	-46.199	0.193	0.095
-254.107	-112.992	-0.200	-0.040
-253.092	-200.000	-0.084	0.000
-252.078	157.794	-0.057	-0.079
-251.063	101.299	0.386	-0.451
-250.049	402.290	-0.170	0.359
-249.034	-193.826	-0.235	0.002
-248.019	-68.052	-0.356	-0.139
-247.005	-122.085	0.212	-0.035
-245.990	105.295	0.213	0.252
-244.976	-141.330	-0.228	-0.023
-243.961	139.973	0.079	0.104
-242.946	348.006	0.173	-0.343
-241.932	423.368	-0.028	0.061
-240.917	91.955	0.074	-0.084
-239.903	537.145	-0.021	-0.050
-238.888	-200.000	-0.000	-0.064
-237.873	-36.866	-0.076	0.041
-236.859	-81.488	0.158	0.052
-235.844	-200.000	0.013	0.313
-234.830	49.343	0.247	-0.233
-233.815	113.089	0.132	0.160
-232.800	288.898	-0.176	0.320
-231.786	-99.546	0.206	0.052
-230.771	-115.811	0.283	-0.053
-229.757	-26.539	0.051	0.030
-228.742	-68.078	0.088	0.034
-227.727	-200.000	0.020	0.183
-226.713	800.000	-0.108	-0.299
-225.698	800.000	-0.068	-0.256
-224.684	-34.909	-0.095	-0.052
-223.669	587.371	0.018	-0.045
-222.655	517.428	0.081	-0.189
-221.640	76.301	0.020	0.022
-220.625	-13.620	0.153	-0.099
-219.611	-200.000	0.067	-0.457
-218.596	78.666	0.343	0.367
-217.582	2.064	-0.076	-0.055
-216.567	78.851	-0.118	0.126
-215.552	-67.253	0.082	-0.032
-214.538	110.749	-0.140	0.168
-213.523	-185.075	-0.116	0.002
-212.509	-155.705	-0.376	-0.024
-211.494	143.055	-0.195	-0.260
-210.479	800.000	-0.048	-0.190
-209.465	-200.000	0.048	-0.228
-208.450	800.000	0.044	-0.186
-207.436	407.553	-0.050	0.106
-206.421	273.519	0.198	-0.351
-205.406	184.739	-0.233	-0.346
-204.392	48.515	0.207	-0.194
-203.377	-200.000	0.064	0.293
-202.363	66.628	0.133	-0.136
-201.348	-42.534	0.123	-0.063
-200.333	6.319	0.067	0.050
-199.319	-17.426	0.176	-0.111
-198.304	-200.000	0.034	0.281
-197.290	492.120	0.042	0.097
-196.275	-135.309	0.086	-0.010
-195.260	-7.785	-0.114	0.077
-194.246	800.000	0.135	0.472
-193.231	-200.000	0.040	0.188
-192.217	800.000	-0.041	0.120
-191.202	286.890	0.057	0.102
-190.187	-200.000	-0.023	-0.128
-189.173	-200.000	-0.278	0.001
-188.158	-129.125	0.373	0.052
-187.144	-200.000	0.047	0.229
-186.129	138.797	-0.069	0.091
-185.114	-132.671	-0.187	0.024
-184.100	41.935	0.136	-0.123
-183.085	-48.502	0.319	-0.153
-182.071	800.000	0.046	0.183
-181.056	157.100	-0.149	-0.206
-180.042	-200.000	0.015	-0.224
-179.027	63.877	0.259	-0.260
-178.012	-4.629	-0.191	0.132
-176.998	629.013	0.047	-0.119
-175.983	-161.143	0.157	0.008
-174.969	43.697	-0.275	0.251
-173.954	14.696	0.254	0.199
-172.939	70.121	-0.228	0.236
-171.925	-200.000	-0.010	0.107
-170.910	-149.049	-0.187	0.015
-169.896	-181.909	-0.158	0.003
-168.881	-133.175	-0.124	-0.016
-167.866	124.493	-0.112	-0.141
-166.852	800.000	0.124	-0.460
-165.837	104.054	0.052	-0.061
-164.823	-54.036	-0.446	-0.203
-163.808	-50.765	0.212	-0.100
-162.793	353.917	0.083	0.164
-161.779	-42.579	-0.326	0.166
-160.764	-200.000	-0.009	-0.181
-159.750	-174.669	-0.181	-0.005
-158.735	-100.445	-0.327	0.081
-157.720	-73.888	0.173	0.063
-156.706	22.991	-0.147	-0.121
-155.691	18.268	0.303	0.242
-154.677	800.000	-0.133	0.491
-153.662	-96.309	0.118	-0.031
-152.647	22.484	0.318	0.260
-151.633	800.000	-0.063	0.220
-150.618	-100.414	-0.055	0.014
-149.604	-69.102	0.469	0.180
-148.589	82.308	0.062	-0.067
-147.574	-200.000	0.027	-0.137
-146.560	179.675	0.035	-0.051
-145.545	622.591	-0.081	-0.204
-144.531	-121.743	-0.075	-0.012
-143.516	-200.000	0.032	-0.393
-142.502	313.256	0.125	0.235
-141.487	-34.653	-0.119	0.065
-140.472	-85.450	0.188	-0.059
-139.458	239.446	-0.072	0.120
-138.443	93.094	-0.184	-0.208
-137.429	65.479	0.198	0.200
-136.414	376.539	0.117	-0.238
-135.399	-74.256	0.105	-0.038
-134.385	489.688	-0.061	-0.139
-133.370	79.651	-0.185	-0.198
-132.356	-118.631	0.222	0.039
-131.341	-200.000	0.014	0.212
-130.326	-158.854	-0.233	0.013
-129.312	266.486	0.072	-0.125
-128.297	-115.158	0.363	0.069
-127.283	208.049	0.151	0.235
-126.268	800.000	0.079	-0.290
-125.253	-118.291	0.155	0.027
-124.239	229.315	0.036	0.059
-123.224	-192.558	0.091	-0.001
-122.210	-200.000	-0.036	-0.179
-121.195	-81.107	-0.109	0.036
