DTS Sentinel unit serial number:	SN413079Multiplexer serial number:	ORYXHardware model number:	OX4-SRSoftware version number:	ORYX F/W v4.00 Oryx Data Collector v3.7.2.0data status	okinstallation	princeton_trtdifferential loss correction	single-endedforward channel	channel 3reverse channel	N/Adate	2019/09/15time	04:52:35forward acquisition time	60.00reverse acquisition time	0.00gamma	496.2192k internal	0.2324k external	0.2324temperature offset calibration	0.9979default loss term (dB/km)	0.3790temperature slope calibration	1.0000multiplexer offset coefficient	1.0000multiplexer slope coefficient	1.0000fibre end	0.00T internal ref (°C)	30.75T ext. ref 1 (°C)	4.82T ext. ref 2 (°C)	25.27length (m)	temperature (°C)	Stokes	anti-Stokes-747.200	-135.918	-0.220	0.026
-746.185	152.413	-0.171	0.236
-745.171	503.363	0.109	0.255
-744.156	800.000	0.159	0.589
-743.142	-91.924	0.465	-0.133
-742.127	-200.000	-0.052	0.349
-741.112	-116.917	0.265	0.049
-740.098	-77.940	-0.030	0.010
-739.083	59.881	-0.030	0.030
-738.069	768.263	-0.141	0.387
-737.054	-200.000	-0.007	-0.057
-736.039	-200.000	-0.058	-0.296
-735.025	152.437	-0.063	0.087
-734.010	800.000	0.107	0.388
-732.996	-25.842	-0.452	-0.269
-731.981	323.592	-0.020	-0.038
-730.966	246.636	-0.116	-0.197
-729.952	164.074	0.336	-0.477
-728.937	800.000	0.101	-0.346
-727.923	-200.000	0.009	0.284
-726.908	120.744	-0.049	0.061
-725.894	-90.401	0.237	0.069
-724.879	143.626	0.100	-0.134
-723.864	-3.535	0.193	-0.136
-722.850	-200.000	-0.016	0.152
-721.835	270.649	0.104	-0.185
-720.821	-132.969	0.251	-0.032
-719.806	800.000	-0.050	-0.156
-718.791	109.312	-0.092	-0.111
-717.777	283.419	-0.100	0.182
-716.762	-200.000	0.011	-0.196
-715.748	164.310	0.075	-0.107
-714.733	170.111	-0.129	-0.186
-713.718	120.644	-0.311	0.390
-712.704	-76.001	0.051	0.018
-711.689	-198.656	0.508	0.003
-710.675	-136.441	-0.373	0.044
-709.660	26.676	-0.348	0.294
-708.645	-200.000	0.013	-0.266
-707.631	-68.188	0.195	-0.076
-706.616	22.876	-0.158	-0.131
-705.602	-37.393	0.180	-0.097
-704.587	-149.143	-0.026	0.002
-703.572	21.728	-0.108	0.089
-702.558	346.466	-0.019	-0.038
-701.543	-37.146	0.359	-0.194
-700.529	-94.797	-0.111	-0.030
-699.514	19.401	-0.187	-0.151
-698.499	385.827	-0.082	-0.170
-697.485	-144.183	-0.313	-0.029
-696.470	-200.000	-0.058	-0.373
-695.456	-26.103	0.260	0.154
-694.441	600.782	0.169	0.424
-693.426	488.433	-0.106	0.245
-692.412	53.164	-0.292	-0.281
-691.397	76.116	0.067	-0.072
-690.383	-24.743	0.301	-0.180
-689.368	123.912	0.097	-0.123
-688.354	447.304	0.093	0.206
-687.339	-77.574	-0.200	-0.070
-686.324	-27.573	-0.396	-0.231
-685.310	800.000	-0.090	0.329
-684.295	41.769	0.118	-0.108
-683.281	-200.000	-0.062	-0.345
-682.266	-59.629	-0.351	-0.152
-681.251	-119.337	0.242	0.042
-680.237	-200.000	-0.026	-0.169
-679.222	104.818	0.151	-0.179
-678.208	-32.699	-0.151	-0.085
-677.193	800.000	-0.046	0.179
-676.178	26.048	-0.098	-0.082
-675.164	-190.581	0.142	0.002
-674.149	-18.967	0.088	-0.055
-673.135	800.000	0.056	-0.189
-672.120	51.380	0.072	-0.069
-671.105	-200.000	-0.035	-0.204
-670.091	-113.548	0.167	0.033
-669.076	-126.341	-0.192	-0.029
-668.062	210.806	-0.137	-0.216
-667.047	100.379	0.033	-0.038
-666.032	-92.273	0.378	0.107
-665.018	102.200	0.123	-0.144
-664.003	512.409	-0.041	0.095
-662.989	-9.770	-0.180	-0.120
-661.974	650.612	0.057	-0.146
-660.959	34.946	0.205	-0.181
-659.945	-114.455	-0.287	-0.055
-658.930	-108.128	-0.279	0.061
-657.916	-200.000	0.034	0.362
-656.901	213.656	0.153	0.243
-655.886	-200.000	0.018	0.124
-654.872	-19.972	-0.326	0.202
-653.857	95.483	-0.163	-0.187
-652.843	-182.857	-0.028	0.001
-651.828	800.000	-0.046	0.139
-650.814	-107.829	-0.085	0.019
-649.799	99.710	0.107	0.124
-648.784	-117.838	-0.203	0.037
-647.770	433.884	0.095	-0.207
-646.755	-16.500	-0.246	-0.157
-645.741	-78.303	-0.394	-0.136
-644.726	421.513	0.067	0.145
-643.711	57.183	0.080	-0.079
-642.697	-200.000	-0.006	-0.279
-641.682	-156.813	-0.034	0.002
-640.668	-200.000	0.034	-0.240
-639.653	196.368	-0.203	-0.311
-638.638	47.616	0.213	0.200
-637.624	-82.403	-0.237	-0.077
-636.609	-200.000	-0.055	-0.443
-635.595	178.404	-0.114	-0.167
-634.580	-200.000	0.036	-0.223
-633.565	-105.645	0.129	0.029
-632.551	489.384	0.043	-0.098
-631.536	-23.127	-0.257	-0.156
-630.522	271.199	-0.012	-0.022
-629.507	-200.000	0.043	-0.267
-628.492	-118.118	-0.095	0.017
-627.478	107.070	-0.252	0.301
-626.463	-84.315	-0.140	0.044
-625.449	479.503	-0.143	0.326
-624.434	-131.229	-0.123	0.016
-623.419	206.705	0.076	-0.118
-622.405	43.869	0.116	0.107
-621.390	-105.950	0.231	-0.052
-620.376	400.328	0.100	0.211
-619.361	-200.000	-0.022	-0.104
-618.346	57.028	-0.362	-0.354
-617.332	-200.000	-0.019	0.332
-616.317	152.581	0.103	0.141
-615.303	-185.063	-0.186	-0.003
-614.288	-200.000	-0.018	-0.251
-613.273	-193.057	0.293	-0.003
-612.259	42.447	0.038	-0.035
-611.244	12.467	-0.113	-0.087
-610.230	6.135	0.183	-0.136
-609.215	-44.268	0.142	-0.071
-608.201	-200.000	0.052	0.508
-607.186	-127.699	0.159	0.023
-606.171	81.998	-0.016	-0.017
-605.157	45.802	-0.261	-0.243
-604.142	-112.848	-0.161	-0.032
-603.128	51.828	0.239	0.228
-602.113	-43.872	-0.058	-0.029
-601.098	-98.713	-0.108	-0.028
-600.084	508.280	0.166	0.386
-599.069	-161.234	-0.097	0.005
-598.055	11.886	0.058	-0.045
-597.040	115.242	0.191	-0.233
-596.025	-80.190	-0.070	0.024
-595.011	-52.724	0.025	-0.012
-593.996	-18.017	0.121	-0.076
-592.982	471.921	0.045	0.103
-591.967	644.882	0.067	-0.171
-590.952	-182.856	-0.298	0.005
-589.938	146.437	-0.077	-0.103
-588.923	167.780	0.047	0.067
-587.909	-200.000	0.002	-0.311
-586.894	-183.604	-0.376	-0.006
-585.879	-151.305	0.312	0.023
-584.865	56.887	-0.135	0.132
-583.850	234.953	0.145	-0.241
-582.836	-200.000	0.005	-0.100
-581.821	723.239	-0.066	0.176
-580.806	255.949	-0.274	0.472
-579.792	42.908	0.295	0.270
-578.777	-93.265	0.201	-0.056
-577.763	-200.000	0.019	0.232
-576.748	-79.230	0.058	0.020
-575.733	-90.244	-0.250	0.073
-574.719	180.920	-0.103	-0.152
-573.704	97.595	0.074	-0.085
-572.690	466.172	-0.098	-0.221
-571.675	-168.372	0.125	0.005
-570.661	-200.000	0.014	0.088
-569.646	-57.115	-0.219	-0.097
-568.631	5.633	0.114	-0.085
-567.617	297.983	-0.146	-0.269
-566.602	-200.000	0.015	0.109
-565.588	458.083	-0.012	0.027
-564.573	-2.772	0.139	0.097
-563.558	-200.000	-0.006	0.229
-562.544	-115.046	0.233	0.044
-561.529	320.860	0.130	-0.248
-560.515	-92.531	-0.175	0.049
-559.500	-6.909	-0.184	-0.125
-558.485	369.211	0.237	-0.480
-557.471	-188.118	-0.155	0.002
-556.456	-200.000	-0.018	-0.251
-555.442	726.848	-0.084	0.224
-554.427	24.443	0.228	-0.189
-553.412	-111.086	0.055	0.011
-552.398	-200.000	0.013	0.098
-551.383	84.487	0.319	-0.350
-550.369	164.993	-0.103	-0.145
-549.354	-106.672	-0.251	0.056
-548.339	-12.702	0.128	0.083
-547.325	-33.616	0.259	-0.143
-546.310	-200.000	-0.005	-0.136
-545.296	-200.000	-0.006	-0.160
-544.281	-200.000	0.080	-0.469
-543.266	-42.954	-0.058	0.029
-542.252	29.083	-0.186	0.158
-541.237	-200.000	0.042	-0.389
-540.223	-156.641	-0.455	0.028
-539.208	3.513	0.068	0.049
-538.193	-200.000	-0.042	-0.275
-537.179	-164.886	0.075	-0.003
-536.164	-37.069	0.306	0.164
-535.150	-48.271	0.171	-0.083
-534.135	-45.152	-0.203	0.101
-533.121	-34.274	0.299	-0.164
-532.106	-26.849	-0.214	0.125
-531.091	17.486	-0.059	-0.047
-530.077	-31.331	-0.265	-0.149
-529.062	139.752	-0.203	-0.268
-528.048	-200.000	-0.051	-0.252
-527.033	665.164	0.080	-0.206
-526.018	258.442	0.166	-0.287
-525.004	153.455	-0.152	0.209
-523.989	-94.489	0.158	0.043
-522.975	-35.306	-0.191	0.104
-521.960	11.104	-0.186	0.142
-520.945	800.000	-0.035	0.126
-519.931	-1.261	-0.110	0.077
-518.916	-63.617	-0.280	-0.115
-517.902	-138.006	0.591	0.066
-516.887	-200.000	-0.040	0.194
-515.872	118.397	-0.126	-0.155
-514.858	-86.278	0.101	0.031
-513.843	-200.000	0.025	0.263
-512.829	-157.373	-0.196	-0.012
-511.814	-200.000	0.049	-0.263
-510.799	-43.386	-0.238	-0.120
-509.785	292.926	-0.186	0.339
-508.770	-200.000	-0.018	0.153
-507.756	-200.000	0.005	0.149
-506.741	-72.299	0.293	-0.109
-505.726	50.791	-0.249	0.236
-504.712	-81.075	0.293	0.097
-503.697	566.796	-0.111	0.269
-502.683	7.249	-0.175	-0.131
-501.668	-200.000	0.015	-0.117
-500.653	-51.942	-0.389	-0.181
-499.639	-48.852	-0.302	-0.145
-498.624	104.658	0.050	-0.059
-497.610	-42.146	0.341	0.174
-496.595	-200.000	0.075	-0.451
-495.581	-146.998	-0.290	-0.025
-494.566	-99.618	-0.164	-0.041
-493.551	237.857	0.233	0.387
-492.537	-200.000	-0.000	0.148
-491.522	17.848	0.300	0.239
-490.508	84.894	-0.210	0.230
-489.493	800.000	-0.042	0.129
-488.478	-142.453	-0.164	-0.016
-487.464	-24.652	0.190	-0.113
-486.449	389.986	-0.119	0.247
-485.435	-179.609	-0.145	0.003
-484.420	-168.490	0.277	0.011
-483.405	-200.000	0.027	-0.125
-482.391	-29.461	-0.241	0.137
-481.376	418.000	0.057	-0.121
-480.362	-32.579	-0.200	0.111
-479.347	800.000	0.039	-0.153
-478.332	800.000	-0.099	0.281
-477.318	11.898	-0.153	-0.118
-476.303	38.443	0.524	-0.466
-475.289	-83.567	0.050	-0.016
-474.274	-151.365	-0.326	-0.024
-473.259	649.995	-0.077	-0.196
-472.245	110.850	-0.083	-0.099
-471.230	21.152	-0.158	0.128
-470.216	57.484	-0.261	0.255
-469.201	2.373	-0.266	-0.193
-468.186	11.445	0.176	-0.135
-467.172	-200.000	-0.015	0.176
-466.157	50.002	-0.200	0.188
-465.143	439.408	-0.040	0.087
-464.128	-67.520	0.191	0.075
-463.113	390.319	-0.124	0.258
-462.099	-139.912	0.148	-0.016
-461.084	-46.527	0.119	0.058
-460.070	-200.000	-0.023	0.153
-459.055	40.282	0.078	-0.070
-458.040	-11.351	-0.040	-0.026
-457.026	-132.599	0.134	0.017
-456.011	-117.900	0.175	-0.031
-454.997	-170.967	0.084	0.003
-453.982	-24.440	-0.134	0.080
-452.968	-87.608	-0.357	0.108
-451.953	22.907	0.115	0.094
-450.938	33.474	0.132	-0.114
-449.924	15.089	-0.181	0.141
-448.909	179.009	-0.186	0.271
-447.895	38.788	0.154	0.137
-446.880	-200.000	-0.047	-0.299
-445.865	-113.187	0.341	0.067
-444.851	-102.149	0.078	0.019
-443.836	-8.947	-0.111	0.074
-442.822	-200.000	-0.022	0.188
-441.807	50.518	-0.249	-0.235
-440.792	-200.000	0.018	0.187
-439.778	341.298	-0.268	0.523
-438.763	388.523	0.053	0.110
-437.749	320.572	0.193	-0.365
-436.734	97.497	-0.205	0.235
-435.719	-84.339	-0.204	-0.064
-434.705	554.142	-0.025	-0.060
-433.690	-94.427	-0.293	-0.080
-432.676	-100.764	0.273	-0.067
-431.661	-200.000	-0.014	0.137
-430.646	-124.528	0.164	0.025
-429.632	676.532	-0.114	0.295
-428.617	128.390	-0.109	0.138
-427.603	37.755	0.053	-0.047
-426.588	150.490	0.012	-0.016
-425.573	64.499	-0.222	0.223
-424.559	800.000	0.063	-0.184
-423.544	65.120	0.255	0.257
-422.530	-130.588	-0.384	-0.052
-421.515	-200.000	0.035	-0.330
-420.500	559.550	-0.147	-0.353
-419.486	48.635	0.100	0.094
-418.471	-122.430	0.436	-0.071
-417.457	-200.000	-0.036	-0.286
-416.442	-113.132	0.132	0.026
-415.428	423.257	-0.079	0.168
-414.413	394.209	0.087	-0.181
-413.398	78.020	0.175	-0.186
-412.384	-51.515	0.185	-0.086
-411.369	-126.172	-0.194	0.029
-410.355	-135.656	-0.047	-0.006
-409.340	40.483	-0.560	0.502
-408.325	-17.227	-0.191	0.120
-407.311	-200.000	0.015	-0.068
-406.296	-200.000	0.103	-0.000
-405.282	800.000	0.062	-0.233
-404.267	-200.000	-0.006	-0.111
-403.252	800.000	-0.080	-0.268
-402.238	7.674	-0.217	0.162
-401.223	-140.339	0.099	0.010
-400.209	-157.534	-0.091	-0.005
-399.194	-78.604	0.429	-0.146
-398.179	-56.818	0.268	-0.118
-397.165	-175.865	-0.259	0.007
-396.150	-149.527	-0.296	0.023
-395.136	-30.499	0.227	-0.128
-394.121	-200.000	-0.008	-0.210
-393.106	-200.000	0.014	-0.113
-392.092	282.250	0.040	0.071
-391.077	-112.864	0.277	0.055
-390.063	-117.610	0.218	0.039
-389.048	-51.746	-0.367	-0.170
-388.033	382.871	0.087	-0.178
-387.019	-94.691	-0.193	0.052
-386.004	0.219	-0.291	-0.206
-384.990	500.023	-0.051	-0.118
-383.975	-84.971	0.012	0.004
-382.960	-200.000	-0.020	-0.089
-381.946	-94.472	-0.101	0.027
-380.931	-96.190	-0.201	0.053
-379.917	502.653	-0.098	0.226
-378.902	-75.580	0.078	-0.028
-377.888	800.000	0.029	-0.087
-376.873	123.074	0.126	0.157
-375.858	-91.050	0.363	-0.104
-374.844	-7.733	-0.110	-0.074
-373.829	403.146	-0.115	0.242
-372.815	157.998	0.075	0.103
-371.800	-200.000	0.021	0.339
-370.785	64.904	-0.182	-0.183
-369.771	-49.758	-0.148	0.070
-368.756	-200.000	0.039	0.318
-367.742	321.595	0.094	-0.178
-366.727	445.166	-0.034	-0.074
-365.712	95.968	0.115	0.130
-364.698	96.403	0.100	-0.114
-363.683	9.465	0.131	0.099
-362.669	83.174	-0.019	-0.020
-361.654	-84.282	-0.100	0.031
-360.639	-114.236	-0.379	0.073
-359.625	800.000	-0.067	-0.228
-358.610	-200.000	-0.027	0.378
-357.596	-181.764	-0.410	-0.008
-356.581	737.045	0.073	0.195
-355.566	369.681	0.121	-0.243
-354.552	-57.023	0.240	0.105
-353.537	-77.867	-0.262	-0.090
-352.523	800.000	0.081	0.321
-351.508	-200.000	0.006	0.327
-350.493	170.928	-0.013	0.018
-349.479	800.000	0.097	0.321
-348.464	-189.294	-0.198	-0.002
-347.450	18.740	0.157	0.125
-346.435	800.000	-0.031	-0.090
-345.420	800.000	-0.040	-0.113
-344.406	647.631	-0.016	-0.041
-343.391	425.453	-0.058	-0.124
-342.377	-200.000	-0.021	-0.240
-341.362	-105.766	-0.422	-0.095
-340.348	22.038	-0.292	-0.237
-339.333	-168.722	-0.374	-0.014
-338.318	-146.756	0.082	0.007
-337.304	800.000	-0.093	0.346
-336.289	161.512	0.226	-0.314
-335.275	-99.057	-0.323	-0.081
-334.260	-59.948	-0.135	-0.057
-333.245	-200.000	-0.049	-0.314
-332.231	-200.000	0.047	-0.246
-331.216	-7.133	-0.056	-0.038
-330.202	384.794	-0.218	-0.445
-329.187	800.000	0.054	-0.170
-328.172	-200.000	0.024	-0.182
-327.158	-144.054	-0.109	0.010
-326.143	-200.000	0.023	-0.187
-325.129	91.530	-0.299	0.333
-324.114	-134.738	-0.074	0.009
-323.099	800.000	0.059	-0.179
-322.085	710.816	0.148	0.389
-321.070	-30.250	-0.166	-0.094
-320.056	132.314	-0.188	0.241
-319.041	283.071	-0.103	-0.183
-318.026	-128.194	0.231	0.033
-317.012	-98.925	0.074	0.019
-315.997	-57.530	0.225	-0.098
-314.983	279.983	0.101	0.180
-313.968	-24.129	-0.175	-0.104
-312.953	40.381	0.167	0.149
-311.939	397.359	0.094	-0.194
-310.924	71.011	-0.197	-0.202
-309.910	-151.925	-0.185	-0.013
-308.895	69.643	-0.071	-0.073
-307.880	-75.548	-0.102	-0.036
-306.866	-200.000	0.031	0.242
-305.851	-68.115	-0.268	0.104
-304.837	773.616	-0.070	-0.190
-303.822	800.000	-0.050	-0.185
-302.807	-185.203	0.084	-0.001
-301.793	-67.581	0.173	0.067
-300.778	747.077	0.088	0.235
-299.764	43.043	0.222	0.201
-298.749	-57.386	-0.114	0.050
-297.735	-152.619	0.137	-0.010
-296.720	-141.744	-0.310	0.031
-295.705	800.000	0.114	-0.397
-294.691	-71.470	0.194	-0.072
-293.676	130.393	0.142	0.180
-292.662	252.132	0.103	0.174
-291.647	107.623	-0.058	0.068
-290.632	90.916	-0.122	0.136
-289.618	800.000	0.111	0.321
-288.603	677.010	-0.016	-0.041
-287.589	-200.000	0.001	0.285
-286.574	-200.000	-0.030	0.182
-285.559	1.003	-0.318	0.226
-284.545	21.877	0.079	0.064
-283.530	-106.072	0.186	-0.041
-282.516	436.153	0.073	0.157
-281.501	-102.096	-0.128	0.031
-280.486	196.690	0.128	-0.193
-279.472	800.000	-0.043	0.122
-278.457	-31.300	-0.204	0.114
-277.443	-101.742	0.087	-0.021
-276.428	-200.000	0.006	-0.273
-275.413	-200.000	-0.003	-0.264
-274.399	211.881	0.064	0.100
-273.384	467.436	-0.074	0.165
-272.370	154.589	0.042	0.058
-271.355	-1.618	-0.245	-0.171
-270.340	-200.000	0.023	-0.243
-269.326	-160.476	-0.234	-0.012
-268.311	800.000	-0.033	-0.137
-267.297	-200.000	-0.033	0.200
-266.282	367.356	0.077	0.153
-265.267	-50.463	0.275	-0.129
-264.253	33.716	-0.256	0.220
-263.238	328.870	0.132	-0.251
-262.224	-172.512	0.068	0.002
-261.209	-21.506	0.272	0.164
-260.195	800.000	0.087	0.252
-259.180	-69.496	0.134	-0.051
-258.165	41.068	0.265	-0.237
-257.151	-107.574	0.230	-0.050
-256.136	-30.072	0.168	-0.094
-255.122	-200.000	0.057	0.261
-254.107	-29.980	0.201	-0.114
-253.092	-200.000	-0.001	-0.021
-252.078	800.000	0.051	0.162
-251.063	-93.473	0.387	-0.106
-250.049	800.000	-0.084	0.241
-249.034	28.321	-0.045	0.038
-248.019	800.000	0.108	-0.439
-247.005	-104.338	-0.413	0.095
-245.990	43.747	0.110	0.100
-244.976	40.615	0.260	-0.232
-243.961	-200.000	0.000	-0.081
-242.946	800.000	-0.104	0.303
-241.932	-35.595	0.434	0.233
-240.917	23.069	-0.266	-0.216
-239.903	-86.151	0.087	0.026
-238.888	800.000	-0.089	0.275
-237.873	-6.343	0.168	0.114
-236.859	-125.878	-0.077	-0.012
-235.844	-200.000	0.035	0.187
-234.830	-19.526	0.175	0.107
-233.815	-77.843	-0.238	-0.081
-232.800	-130.503	-0.263	-0.035
-231.786	-111.823	0.221	-0.044
-230.771	447.575	-0.154	-0.335
-229.757	-200.000	-0.032	0.157
-228.742	-75.503	-0.118	-0.041
-227.727	196.184	0.083	0.126
-226.713	-55.695	-0.104	-0.046
-225.698	-10.844	0.095	0.062
-224.684	-158.023	0.105	0.006
-223.669	-200.000	0.011	-0.048
-222.655	309.558	0.108	-0.200
-221.640	129.565	0.315	-0.398
-220.625	800.000	0.039	-0.109
-219.611	54.612	0.361	-0.344
-218.596	-35.731	-0.525	-0.281
-217.582	136.063	0.194	-0.250
-216.567	-20.682	-0.239	0.145
-215.552	246.623	0.180	0.301
-214.538	800.000	-0.200	0.775
-213.523	521.336	-0.076	-0.175
-212.509	-200.000	-0.034	0.166
-211.494	23.167	0.090	-0.073
-210.479	-23.355	0.200	0.119
-209.465	42.896	0.109	0.098
-208.450	-79.749	0.414	0.138
-207.436	263.777	0.097	0.168
-206.421	-42.201	0.201	0.102
-205.406	34.806	0.210	0.182
-204.392	-13.887	0.342	0.219
-203.377	34.103	0.314	0.271
-202.363	-32.928	0.177	-0.097
-201.348	23.609	0.232	-0.188
-200.333	-200.000	-0.057	-0.273
-199.319	100.102	-0.171	-0.196
-198.304	-42.031	0.141	0.071
-197.290	-32.828	0.150	0.083
-196.275	254.996	0.019	0.032
-195.260	315.327	0.073	0.137
-194.246	67.913	0.223	0.225
-193.231	-37.337	0.407	0.215
-192.217	-200.000	0.037	-0.169
-191.202	377.675	-0.103	0.208
-190.187	-49.152	0.199	-0.094
-189.173	-200.000	-0.010	-0.116
-188.158	-93.696	0.547	0.149
-187.144	-79.379	-0.262	0.088
-186.129	87.143	0.152	0.165
-185.114	-134.574	0.251	0.030
-184.100	-147.905	0.088	-0.007
-183.085	119.672	-0.124	0.151
-182.071	-137.353	-0.063	-0.007
-181.056	-52.654	-0.117	-0.053
-180.042	112.724	-0.062	0.074
-179.027	800.000	-0.023	-0.101
-178.012	-200.000	0.050	0.324
-176.998	-140.813	0.495	-0.050
-175.983	345.510	0.079	0.153
-174.969	-200.000	-0.044	0.216
-173.954	-95.974	0.476	-0.125
-172.939	-63.825	-0.054	0.022
-171.925	-200.000	0.013	-0.092
-170.910	-200.000	-0.010	-0.204
-169.896	422.919	0.136	0.288
-168.881	-110.109	0.239	-0.049
-167.866	-77.308	0.312	-0.107
-166.852	-37.848	-0.172	0.090
-165.837	-149.130	0.264	-0.021
-164.823	800.000	0.045	-0.192
-163.808	719.344	-0.083	0.218
-162.793	-24.871	-0.252	-0.147
-161.779	262.653	0.067	0.114
-160.764	-200.000	0.010	-0.087
-159.750	63.318	-0.105	-0.104
-158.735	-137.566	-0.164	-0.018
-157.720	-137.089	-0.360	-0.041
-156.706	21.572	0.117	0.094
-155.691	-68.462	-0.181	-0.069
-154.677	800.000	0.045	-0.160
-153.662	-1.081	0.464	0.324
-152.647	-200.000	0.000	0.252
-151.633	-26.439	-0.165	-0.095
-150.618	335.055	0.142	0.271
-149.604	9.580	0.136	0.102
-148.589	64.830	-0.117	0.116
-147.574	-120.066	0.087	-0.015
-146.560	-40.916	0.056	0.029
-145.545	-31.251	-0.188	0.104
-144.531	-200.000	-0.000	0.186
-143.516	-200.000	0.035	-0.156
-142.502	92.680	-0.076	-0.085
-141.487	-74.826	-0.137	0.048
-140.472	-119.895	-0.330	-0.056
-139.458	-101.567	-0.434	0.104
-138.443	219.533	-0.100	0.158
-137.429	-170.593	0.376	-0.013
-136.414	-15.989	-0.315	0.198
-135.399	120.135	0.173	0.211
-134.385	800.000	-0.093	0.281
-133.370	-68.377	0.090	0.035
-132.356	128.169	0.164	0.206
-131.341	-16.241	-0.368	-0.230
-130.326	800.000	0.088	-0.302
-129.312	120.543	-0.107	0.130
-128.297	286.991	0.166	0.296
-127.283	-65.547	-0.568	0.225
-126.268	-61.795	-0.210	-0.087
-125.253	498.535	0.253	0.575
-124.239	-3.186	-0.086	-0.059
-123.224	-134.904	-0.219	-0.026
-122.210	3.942	-0.186	0.134
