DTS Sentinel unit serial number:	SN413079Multiplexer serial number:	ORYXHardware model number:	OX4-SRSoftware version number:	ORYX F/W v4.00 Oryx Data Collector v3.7.2.0data status	okinstallation	princeton_trtdifferential loss correction	single-endedforward channel	channel 3reverse channel	N/Adate	2019/09/19time	12:52:35forward acquisition time	60.00reverse acquisition time	0.00gamma	496.2192k internal	0.2331k external	0.2331temperature offset calibration	0.9994default loss term (dB/km)	0.3790temperature slope calibration	1.0000multiplexer offset coefficient	1.0000multiplexer slope coefficient	1.0000fibre end	0.00T internal ref (°C)	28.19T ext. ref 1 (°C)	0.92T ext. ref 2 (°C)	26.50length (m)	temperature (°C)	Stokes	anti-Stokes-747.200	53.198	0.188	0.181
-746.185	693.779	0.147	0.388
-745.171	-132.169	0.206	0.027
-744.156	-200.000	0.017	0.262
-743.142	559.818	-0.061	0.149
-742.127	-200.000	-0.006	0.164
-741.112	-133.927	-0.119	0.015
-740.098	-200.000	-0.001	0.097
-739.083	2.022	-0.161	-0.117
-738.069	290.291	-0.212	0.388
-737.054	-89.193	0.319	0.095
-736.039	-63.097	-0.392	0.163
-735.025	-42.434	0.268	0.138
-734.010	22.358	-0.052	0.042
-732.996	34.654	-0.143	0.125
-731.981	-79.960	-0.330	-0.112
-730.966	25.431	0.204	-0.171
-729.952	60.693	0.314	-0.313
-728.937	-200.000	-0.046	-0.362
-727.923	-65.746	-0.268	-0.108
-726.908	38.570	-0.069	0.062
-725.894	310.588	-0.072	-0.136
-724.879	72.320	0.096	-0.100
-723.864	800.000	-0.041	0.124
-722.850	-25.212	-0.173	-0.103
-721.835	57.957	-0.112	-0.111
-720.821	509.312	0.123	0.287
-719.806	800.000	-0.081	0.343
-718.791	315.101	0.135	-0.256
-717.777	800.000	0.165	-0.586
-716.762	800.000	0.048	-0.197
-715.748	-142.441	-0.030	-0.003
-714.733	301.085	-0.110	0.205
-713.718	-55.944	0.287	-0.129
-712.704	-172.546	0.178	-0.006
-711.689	800.000	-0.036	0.112
-710.675	-177.981	0.156	-0.004
-709.660	94.957	0.145	0.166
-708.645	265.893	0.166	-0.292
-707.631	-103.645	0.180	-0.042
-706.616	-101.617	-0.052	0.013
-705.602	64.907	0.139	-0.141
-704.587	-56.159	-0.032	0.015
-703.572	179.431	-0.013	-0.019
-702.558	-23.938	-0.218	0.131
-701.543	144.821	0.103	0.139
-700.529	-108.642	-0.217	0.047
-699.514	800.000	-0.072	0.258
-698.499	-33.426	0.048	-0.027
-697.485	-200.000	-0.028	0.272
-696.470	762.339	-0.082	0.222
-695.456	84.268	-0.203	0.223
-694.441	-51.439	0.188	0.088
-693.426	37.753	-0.385	-0.344
-692.412	-23.335	-0.300	-0.181
-691.397	177.192	-0.164	-0.240
-690.383	736.442	0.098	-0.264
-689.368	16.409	0.202	0.161
-688.354	-137.140	0.123	-0.014
-687.339	800.000	0.079	0.227
-686.324	-200.000	-0.137	0.000
-685.310	-49.116	-0.078	-0.037
-684.295	-55.943	0.438	-0.196
-683.281	800.000	0.141	-0.408
-682.266	-164.481	-0.205	-0.009
-681.251	-83.249	0.147	-0.047
-680.237	-82.365	0.424	-0.138
-679.222	-45.665	-0.080	-0.040
-678.208	286.586	-0.024	0.043
-677.193	-33.799	0.132	-0.073
-676.178	800.000	-0.046	-0.194
-675.164	-65.340	0.218	-0.088
-674.149	130.508	-0.286	0.368
-673.135	-59.595	0.227	-0.098
-672.120	800.000	-0.097	-0.383
-671.105	-200.000	0.051	0.321
-670.091	-44.277	-0.203	-0.102
-669.076	155.119	0.067	0.092
-668.062	-173.841	-0.364	0.011
-667.047	53.594	0.057	-0.055
-666.032	74.298	-0.263	0.278
-665.018	-200.000	-0.006	-0.203
-664.003	-114.458	0.126	-0.024
-662.989	150.150	-0.051	-0.070
-661.974	-101.094	0.130	-0.032
-660.959	-33.631	-0.307	-0.170
-659.945	-200.000	-0.041	-0.230
-658.930	-82.213	-0.280	-0.091
-657.916	159.938	-0.118	-0.165
-656.901	395.842	-0.166	-0.348
-655.886	-70.669	-0.187	-0.071
-654.872	-200.000	-0.052	-0.366
-653.857	800.000	0.097	-0.381
-652.843	732.464	-0.134	-0.358
-651.828	-79.076	-0.388	-0.132
-650.814	16.945	0.295	-0.234
-649.799	-200.000	-0.009	0.041
-648.784	-200.000	0.010	-0.047
-647.770	-200.000	0.024	-0.225
-646.755	800.000	-0.055	0.185
-645.741	-31.439	0.041	0.023
-644.726	-136.004	0.088	-0.010
-643.711	1.481	-0.103	-0.074
-642.697	-200.000	-0.063	0.364
-641.682	-116.857	0.063	0.012
-640.668	800.000	0.080	0.239
-639.653	69.096	-0.094	-0.097
-638.638	289.469	0.022	-0.041
-637.624	472.086	0.063	-0.143
-636.609	-141.529	0.158	0.016
-635.595	-17.365	-0.148	-0.093
-634.580	-109.092	0.061	0.013
-633.565	800.000	0.028	-0.124
-632.551	-99.464	0.075	0.019
-631.536	-29.860	-0.266	0.152
-630.522	-5.336	-0.115	-0.079
-629.507	63.059	-0.178	-0.179
-628.492	-144.252	-0.252	0.024
-627.478	2.477	-0.256	0.185
-626.463	-200.000	0.053	0.375
-625.449	-179.721	-0.328	0.007
-624.434	66.570	0.195	-0.199
-623.419	-121.803	0.243	-0.040
-622.405	-79.078	-0.316	0.108
-621.390	-45.134	0.189	-0.094
-620.376	-133.045	0.211	-0.027
-619.361	139.731	-0.082	-0.108
-618.346	21.567	-0.108	-0.088
-617.332	-73.335	0.312	0.114
-616.317	-200.000	0.001	0.340
-615.303	-31.640	-0.315	-0.177
-614.288	-30.258	0.073	-0.042
-613.273	46.292	-0.250	0.232
-612.259	224.085	-0.103	0.167
-611.244	-200.000	-0.016	-0.157
-610.230	295.493	-0.195	0.357
-609.215	-200.000	-0.009	0.053
-608.201	40.117	0.017	0.015
-607.186	-200.000	0.021	-0.123
-606.171	-128.800	-0.118	-0.017
-605.157	38.910	-0.261	0.234
-604.142	0.680	-0.167	0.119
-603.128	-149.691	0.087	-0.007
-602.113	-176.381	0.142	0.004
-601.098	109.693	0.212	-0.254
-600.084	-94.230	-0.120	0.033
-599.069	-200.000	-0.008	-0.240
-598.055	362.311	-0.078	0.157
-597.040	-200.000	-0.004	-0.060
-596.025	-160.331	-0.074	0.004
-595.011	-122.784	0.332	-0.054
-593.996	800.000	0.039	0.129
-592.982	717.841	0.065	-0.173
-591.967	82.036	-0.052	-0.056
-590.952	190.049	0.224	-0.337
-589.938	-200.000	0.008	-0.222
-588.923	800.000	0.058	-0.197
-587.909	800.000	-0.085	0.287
-586.894	800.000	-0.066	0.185
-585.879	61.283	0.208	0.207
-584.865	-59.426	-0.232	-0.100
-583.850	-200.000	-0.009	-0.324
-582.836	800.000	-0.115	0.362
-581.821	593.711	-0.171	-0.423
-580.806	52.967	-0.147	-0.141
-579.792	-37.652	0.236	0.126
-578.777	-200.000	0.018	0.225
-577.763	-143.445	-0.370	0.035
-576.748	800.000	0.020	-0.079
-575.733	800.000	0.086	-0.282
-574.719	127.288	-0.140	0.178
-573.704	24.753	-0.065	-0.054
-572.690	-8.384	0.224	-0.151
-571.675	72.044	0.262	0.273
-570.661	50.866	0.099	-0.093
-569.646	140.023	-0.113	-0.148
-568.631	-179.367	-0.302	0.007
-567.617	591.913	0.136	0.336
-566.602	-78.946	-0.161	-0.055
-565.588	-200.000	-0.021	0.208
-564.573	-1.896	-0.208	0.146
-563.558	8.794	0.096	0.072
-562.544	-3.747	-0.241	-0.167
-561.529	85.420	-0.066	-0.072
-560.515	31.492	0.224	0.193
-559.500	-200.000	-0.031	0.176
-558.485	53.568	0.170	0.163
-557.471	-26.810	0.168	0.098
-556.456	-200.000	0.002	-0.074
-555.442	-74.100	-0.246	-0.089
-554.427	32.872	0.150	0.130
-553.412	344.683	-0.108	0.212
-552.398	79.708	-0.168	-0.180
-551.383	173.621	-0.192	0.277
-550.369	69.772	0.099	-0.102
-549.354	197.867	0.125	-0.191
-548.339	-200.000	0.019	0.176
-547.325	-200.000	-0.001	0.185
-546.310	-67.742	0.097	0.038
-545.296	800.000	0.034	-0.117
-544.281	12.544	-0.139	-0.107
-543.266	-46.839	-0.108	0.053
-542.252	20.354	0.120	-0.097
-541.237	387.074	0.057	-0.118
-540.223	48.544	0.190	0.178
-539.208	601.101	-0.085	-0.210
-538.193	118.393	0.052	-0.065
-537.179	-200.000	-0.008	-0.481
-536.164	-73.460	-0.281	-0.103
-535.150	-38.015	-0.155	0.082
-534.135	141.340	-0.250	-0.330
-533.121	261.874	0.215	-0.373
-532.106	-115.324	0.217	0.041
-531.091	773.819	0.058	0.157
-530.077	136.795	0.157	-0.205
-529.062	-86.037	0.267	0.082
-528.048	-115.473	-0.109	-0.020
-527.033	800.000	-0.045	0.188
-526.018	517.140	0.105	0.244
-525.004	271.508	-0.075	0.131
-523.989	800.000	0.126	-0.367
-522.975	-27.015	-0.429	0.250
-521.960	143.878	-0.112	-0.149
-520.945	-200.000	-0.006	0.106
-519.931	-146.131	0.265	-0.023
-518.916	136.120	0.092	0.120
-517.902	211.510	-0.175	-0.275
-516.887	-127.750	-0.106	0.015
-515.872	-131.664	-0.221	-0.029
-514.858	-200.000	0.005	0.091
-513.843	-71.020	-0.319	-0.120
-512.829	-200.000	0.032	0.266
-511.814	800.000	-0.080	0.351
-510.799	368.116	0.061	-0.123
-509.785	800.000	-0.042	0.135
-508.770	-64.752	0.343	0.138
-507.756	309.909	0.147	0.273
-506.741	-0.326	0.295	0.209
-505.726	32.759	0.177	0.153
-504.712	-200.000	-0.020	-0.423
-503.697	-188.182	-0.270	-0.003
-502.683	799.148	0.136	0.374
-501.668	56.486	-0.141	0.137
-500.653	-45.248	-0.212	0.105
-499.639	297.712	0.049	-0.089
-498.624	6.422	0.068	-0.050
-497.610	-135.072	0.073	-0.009
-496.595	-200.000	-0.013	-0.227
-495.581	-111.451	0.289	0.059
-494.566	676.289	-0.117	-0.303
-493.551	-156.304	0.254	0.016
-492.537	557.914	-0.055	0.131
-491.522	59.920	-0.083	-0.081
-490.508	29.711	-0.369	0.313
-489.493	650.095	0.167	-0.426
-488.478	-200.000	0.084	0.000
-487.464	-35.401	-0.130	0.070
-486.449	-48.467	0.049	0.023
-485.435	29.080	0.182	0.154
-484.420	26.630	-0.036	0.030
-483.405	-17.508	-0.208	0.130
-482.391	93.199	-0.281	0.317
-481.376	-43.815	0.407	0.204
-480.362	800.000	-0.040	-0.168
-479.347	95.367	-0.142	0.162
-478.332	139.428	0.111	-0.146
-477.318	71.964	-0.029	0.030
-476.303	-125.180	0.344	-0.053
-475.289	-200.000	0.019	0.182
-474.274	-164.276	-0.097	-0.004
-473.259	-200.000	0.033	-0.194
-472.245	74.277	-0.281	-0.294
-471.230	395.476	0.285	-0.592
-470.216	800.000	-0.098	-0.294
-469.201	-128.541	0.175	-0.025
-468.186	-99.216	0.395	0.099
-467.172	102.403	0.268	0.311
-466.157	-31.844	0.244	-0.136
-465.143	-64.441	-0.244	-0.099
-464.128	-155.231	0.130	-0.008
-463.113	-107.652	-0.306	0.066
-462.099	-200.000	0.050	0.336
-461.084	-52.585	-0.327	0.150
-460.070	-40.929	-0.156	0.080
-459.055	-200.000	-0.051	-0.234
-458.040	-117.202	-0.470	-0.085
-457.026	-153.245	0.168	0.012
-456.011	180.306	-0.182	-0.265
-454.997	201.640	0.015	-0.023
-453.982	394.522	-0.035	0.073
-452.968	139.109	0.210	0.275
-451.953	-150.353	-0.488	0.037
-450.938	-105.460	-0.377	0.085
-449.924	-9.466	0.140	-0.093
-448.909	198.110	-0.120	0.183
-447.895	0.067	-0.042	-0.030
-446.880	-51.735	0.108	-0.050
-445.865	2.598	0.125	-0.090
-444.851	-5.120	-0.213	-0.146
-443.836	169.440	-0.126	0.180
-442.822	-96.064	-0.227	0.060
-441.807	-115.905	0.332	-0.062
-440.792	-200.000	-0.013	0.150
-439.778	-70.687	0.491	0.184
-438.763	-200.000	0.034	-0.445
-437.749	95.349	-0.104	0.117
-436.734	114.224	0.134	0.163
-435.719	-200.000	-0.062	0.315
-434.705	-139.172	0.346	0.037
-433.690	-157.222	-0.239	-0.014
-432.676	-43.109	0.011	0.005
-431.661	-55.548	-0.058	0.026
-430.646	-200.000	-0.043	0.440
-429.632	-200.000	-0.012	0.097
-428.617	-51.615	-0.019	0.009
-427.603	-194.402	0.280	-0.002
-426.588	-36.317	-0.143	-0.077
-425.573	800.000	-0.034	0.098
-424.559	-83.778	-0.007	0.002
-423.544	-84.475	-0.182	-0.057
-422.530	191.510	0.109	-0.163
-421.515	141.276	-0.084	-0.110
-420.500	-169.442	0.036	0.001
-419.486	-74.795	-0.112	-0.040
-418.471	-57.684	0.241	-0.105
-417.457	755.359	-0.069	-0.184
-416.442	25.295	0.090	0.074
-415.428	27.197	0.320	-0.267
-414.413	109.040	-0.156	-0.186
-413.398	-3.660	-0.219	-0.151
-412.384	-200.000	0.083	-0.389
-411.369	208.935	-0.209	0.325
-410.355	347.309	0.185	-0.362
-409.340	134.558	-0.039	-0.050
-408.325	800.000	-0.076	-0.324
-407.311	153.729	-0.141	-0.191
-406.296	-70.231	-0.284	0.107
-405.282	112.407	-0.247	-0.297
-404.267	-14.234	-0.122	-0.078
-403.252	-27.805	-0.170	-0.098
-402.238	-100.963	0.197	0.048
-401.223	-169.312	0.227	-0.008
-400.209	71.355	-0.229	-0.236
-399.194	-122.516	0.319	0.051
-398.179	556.444	0.023	-0.054
-397.165	-200.000	-0.038	0.382
-396.150	195.893	-0.183	-0.276
-395.136	-200.000	-0.003	0.099
-394.121	-200.000	-0.051	0.263
-393.106	-200.000	0.030	-0.228
-392.092	-59.565	-0.268	0.114
-391.077	-59.151	0.119	0.051
-390.063	-57.008	-0.221	0.097
-389.048	800.000	-0.108	-0.300
-388.033	208.389	-0.067	-0.104
-387.019	-163.681	-0.120	0.006
-386.004	-200.000	-0.033	0.229
-384.990	-100.581	0.237	0.058
-383.975	102.612	0.132	0.154
-382.960	77.417	0.047	0.050
-381.946	64.547	-0.117	-0.117
-380.931	800.000	0.055	-0.177
-379.917	-22.039	0.142	0.086
-378.902	105.549	-0.155	-0.182
-377.888	85.390	-0.205	-0.223
-376.873	33.420	0.105	0.091
-375.858	-84.195	0.102	-0.032
-374.844	800.000	0.079	-0.263
-373.829	-127.036	-0.084	-0.012
-372.815	36.268	0.160	-0.140
-371.800	-155.882	0.402	-0.025
-370.785	43.880	-0.081	0.073
-369.771	206.413	0.044	0.068
-368.756	175.237	-0.173	0.248
-367.742	133.890	-0.237	-0.304
-366.727	-77.717	0.145	0.050
-365.712	-0.465	-0.321	-0.226
-364.698	-200.000	0.044	-0.301
-363.683	-16.131	0.221	0.139
-362.669	120.459	-0.085	0.104
-361.654	-19.968	0.093	0.057
-360.639	-170.657	-0.406	0.014
-359.625	-187.584	0.055	0.001
-358.610	13.313	-0.195	-0.150
-357.596	259.160	0.017	0.028
-356.581	800.000	-0.024	-0.070
-355.566	-98.464	-0.047	-0.012
-354.552	800.000	-0.074	-0.284
-353.537	33.561	-0.170	0.147
-352.523	360.799	-0.117	-0.233
-351.508	211.902	0.015	0.023
-350.493	-200.000	0.048	-0.422
-349.479	-114.762	-0.215	0.041
-348.464	48.824	0.149	0.138
-347.450	-200.000	0.061	0.540
-346.435	-57.648	0.149	0.065
-345.420	88.806	0.105	0.116
-344.406	-34.370	-0.101	0.055
-343.391	236.126	0.220	0.361
-342.377	0.009	0.232	-0.164
-341.362	-164.107	-0.132	0.006
-340.348	-53.880	-0.079	-0.036
-339.333	-171.979	0.489	-0.016
-338.318	-200.000	0.048	-0.275
-337.304	-49.424	-0.098	-0.046
-336.289	7.021	-0.166	0.123
-335.275	-200.000	0.015	0.203
-334.260	-200.000	-0.032	-0.255
-333.245	154.675	0.184	0.250
-332.231	20.392	0.144	-0.115
-331.216	-123.068	-0.164	0.026
-330.202	-0.718	0.193	0.135
-329.187	-76.212	0.228	0.080
-328.172	-18.159	-0.033	-0.020
-327.158	-200.000	0.066	-0.296
-326.143	38.650	-0.173	0.153
-325.129	118.915	-0.087	-0.107
-324.114	-69.013	-0.115	-0.044
-323.099	-113.843	-0.113	0.022
-322.085	-129.870	0.097	-0.013
-321.070	-200.000	0.012	0.242
-320.056	240.619	-0.047	-0.077
-319.041	4.187	-0.226	0.164
-318.026	669.312	0.059	0.152
-317.012	3.859	-0.267	0.193
-315.997	-200.000	0.056	-0.305
-314.983	94.062	0.049	0.055
-313.968	87.072	0.167	-0.183
-312.953	-65.005	0.117	0.047
-311.939	-200.000	0.014	-0.292
-310.924	800.000	0.054	-0.151
-309.910	-200.000	0.057	0.332
-308.895	138.652	-0.066	-0.085
-307.880	530.270	-0.019	0.044
-306.866	-196.628	0.003	0.000
-305.851	202.925	0.289	-0.441
-304.837	-200.000	-0.016	0.000
-303.822	774.540	-0.048	-0.131
-302.807	-200.000	0.041	0.283
-301.793	-72.766	-0.182	0.066
-300.778	-70.786	0.189	-0.070
-299.764	2.634	-0.210	-0.151
-298.749	-6.671	0.067	-0.045
-297.735	162.248	0.063	-0.088
-296.720	-76.114	-0.154	-0.054
-295.705	275.877	-0.071	-0.125
-294.691	-143.458	0.105	0.010
-293.676	578.225	0.129	0.313
-292.662	-79.157	0.172	-0.058
-291.647	93.506	-0.329	0.369
-290.632	187.731	0.075	0.110
-289.618	-106.327	-0.453	0.100
-288.603	-200.000	-0.058	0.502
-287.589	-42.477	0.157	0.079
-286.574	-42.698	-0.271	0.136
-285.559	99.035	-0.029	0.034
-284.545	800.000	-0.056	0.157
-283.530	191.078	0.217	-0.322
-282.516	-105.335	0.100	-0.022
-281.501	111.635	0.258	0.308
-280.486	-161.060	0.072	-0.004
-279.472	720.532	0.030	-0.079
-278.457	800.000	0.034	-0.117
-277.443	-123.368	0.101	0.016
-276.428	23.960	0.141	-0.115
-275.413	98.598	0.060	-0.069
-274.399	-115.692	0.108	-0.020
-273.384	-200.000	0.027	-0.530
-272.370	-200.000	0.018	0.322
-271.355	129.496	0.136	-0.172
-270.340	-23.407	0.103	0.061
-269.326	-52.769	0.121	0.055
-268.311	-46.216	0.147	0.071
-267.297	-84.970	-0.366	-0.113
-266.282	-83.070	0.112	0.036
-265.267	798.437	0.140	0.381
-264.253	-64.028	0.318	-0.128
-263.238	-200.000	-0.015	-0.394
-262.224	112.942	-0.074	-0.089
-261.209	275.228	0.104	0.182
-260.195	632.554	-0.059	0.148
-259.180	800.000	-0.047	0.188
-258.165	5.103	-0.296	0.215
-257.151	-125.268	-0.428	0.065
-256.136	-5.559	-0.415	0.281
-255.122	-113.530	0.182	0.035
-254.107	58.068	-0.366	0.354
-253.092	-140.306	0.216	-0.022
-252.078	101.759	-0.130	0.150
-251.063	800.000	0.109	-0.333
-250.049	175.479	0.014	-0.021
-249.034	-200.000	0.003	0.167
-248.019	14.508	-0.323	0.249
-247.005	-112.406	0.046	-0.009
-245.990	-14.382	0.382	0.243
-244.976	-56.480	-0.301	0.132
-243.961	-200.000	0.014	-0.088
-242.946	-47.931	-0.364	0.174
-241.932	27.145	0.153	0.126
-240.917	-103.508	0.218	0.051
-239.903	-53.499	0.133	-0.060
-238.888	548.642	0.045	-0.107
-237.873	-97.707	-0.237	0.061
-236.859	800.000	0.082	0.333
-235.844	-200.000	-0.007	0.032
-234.830	800.000	-0.107	0.439
-233.815	66.352	-0.067	0.067
-232.800	20.506	-0.217	-0.173
-231.786	133.274	0.090	-0.114
-230.771	-2.264	-0.094	0.065
-229.757	51.958	-0.232	-0.218
-228.742	182.461	-0.158	-0.230
-227.727	-200.000	-0.023	0.124
-226.713	-51.400	-0.112	-0.052
-225.698	-154.041	0.159	0.011
-224.684	593.241	0.031	0.076
-223.669	5.215	0.385	-0.280
-222.655	-130.626	0.078	0.010
-221.640	340.274	-0.100	0.192
-220.625	-72.223	0.274	0.100
-219.611	-132.793	-0.243	0.031
-218.596	-200.000	0.011	0.069
-217.582	-41.003	0.240	-0.122
-216.567	340.711	-0.036	-0.070
-215.552	-43.018	-0.294	-0.147
-214.538	800.000	-0.067	-0.253
-213.523	508.313	0.052	-0.118
-212.509	20.350	-0.235	-0.187
-211.494	1.679	-0.202	-0.143
-210.479	-93.905	0.234	-0.063
-209.465	-55.051	0.423	0.188
-208.450	800.000	0.102	-0.333
-207.436	124.176	-0.041	0.051
-206.421	-200.000	-0.030	0.159
-205.406	-200.000	0.010	-0.168
-204.392	13.473	0.208	0.159
-203.377	-147.187	0.150	0.013
-202.363	800.000	0.125	-0.348
-201.348	-67.868	0.105	0.040
-200.333	-200.000	0.022	-0.286
-199.319	142.747	0.138	0.181
-198.304	22.643	0.387	0.312
-197.290	-25.141	-0.082	0.048
-196.275	491.432	-0.008	0.018
-195.260	81.428	0.276	-0.294
-194.246	-23.972	0.117	-0.069
-193.231	22.272	-0.159	0.128
-192.217	800.000	0.108	-0.300
-191.202	273.459	0.095	0.166
-190.187	-200.000	0.037	0.181
-189.173	-200.000	-0.030	-0.214
-188.158	-134.327	0.251	0.030
-187.144	-75.339	0.051	0.018
-186.129	-128.228	0.193	0.027
-185.114	140.073	0.025	-0.032
-184.100	-200.000	0.048	-0.217
-183.085	-49.525	0.144	-0.068
-182.071	-200.000	-0.008	0.200
-181.056	73.997	0.067	-0.069
-180.042	-200.000	0.034	0.292
-179.027	404.749	0.037	0.076
-178.012	800.000	-0.039	-0.114
-176.998	52.936	0.314	-0.296
-175.983	-123.305	0.173	0.027
-174.969	4.201	0.089	0.064
-173.954	-86.314	0.216	0.065
-172.939	111.668	-0.130	0.155
-171.925	367.235	-0.178	-0.354
-170.910	-46.412	-0.286	0.138
-169.896	140.737	-0.102	0.133
-168.881	59.004	0.071	0.069
-167.866	-119.197	0.289	0.050
-166.852	27.046	-0.131	0.108
-165.837	-78.150	0.199	0.067
-164.823	-200.000	0.002	-0.034
-163.808	738.564	0.162	0.429
-162.793	800.000	0.068	-0.243
-161.779	681.108	-0.052	-0.134
-160.764	31.808	-0.151	-0.128
-159.750	-179.905	0.198	-0.004
-158.735	-200.000	0.011	-0.169
-157.720	188.662	-0.148	-0.218
-156.706	-17.544	0.179	-0.111
-155.691	-1.770	-0.160	0.111
-154.677	211.613	0.305	-0.473
-153.662	117.422	-0.046	-0.055
-152.647	-137.060	0.160	0.018
-151.633	413.906	-0.125	0.262
-150.618	800.000	0.105	-0.333
-149.604	351.834	0.073	0.142
-148.589	-125.863	-0.186	-0.028
-147.574	-156.180	-0.009	0.001
-146.560	62.957	0.001	-0.001
-145.545	-200.000	-0.052	-0.249
-144.531	91.600	0.220	-0.243
-143.516	58.433	-0.230	0.222
-142.502	530.374	-0.035	-0.082
-141.487	17.724	-0.112	-0.087
-140.472	-200.000	0.018	0.169
-139.458	-80.390	-0.184	0.060
-138.443	-7.346	-0.263	0.175
-137.429	-116.647	0.392	-0.071
-136.414	-4.946	0.242	-0.164
-135.399	-29.932	-0.348	-0.195
-134.385	-200.000	-0.008	-0.116
-133.370	132.350	0.120	-0.152
-132.356	800.000	-0.103	0.364
-131.341	-137.737	0.304	-0.034
-130.326	800.000	0.111	-0.346
-129.312	70.261	-0.220	-0.223
-128.297	415.078	0.102	0.214
-127.283	125.306	0.254	0.314
-126.268	-86.655	0.152	0.046
-125.253	164.365	-0.127	-0.176
-124.239	616.589	0.167	-0.412
-123.224	612.932	0.096	-0.236
-122.210	800.000	-0.081	0.223
-121.195	-111.565	-0.233	0.047
-120.180	30.885	-0.067	0.057
