DTS Sentinel unit serial number:	SN413079Multiplexer serial number:	ORYXHardware model number:	OX4-SRSoftware version number:	ORYX F/W v4.00 Oryx Data Collector v3.7.2.0data status	okinstallation	princeton_trtdifferential loss correction	single-endedforward channel	channel 3reverse channel	N/Adate	2019/09/13time	09:12:35forward acquisition time	60.00reverse acquisition time	0.00gamma	496.2192k internal	0.2326k external	0.2326temperature offset calibration	1.0135default loss term (dB/km)	0.3790temperature slope calibration	1.0000multiplexer offset coefficient	1.0000multiplexer slope coefficient	1.0000fibre end	0.00T internal ref (°C)	28.91T ext. ref 1 (°C)	4.39T ext. ref 2 (°C)	26.33length (m)	temperature (°C)	Stokes	anti-Stokes-747.200	4.903	-0.225	0.167
-746.185	-23.106	-0.078	0.047
-745.171	-88.540	0.075	0.023
-744.156	487.322	-0.106	0.244
-743.142	-30.540	-0.228	-0.130
-742.127	-8.910	-0.276	0.186
-741.112	22.318	0.145	-0.119
-740.098	800.000	-0.095	0.299
-739.083	142.463	0.221	-0.295
-738.069	-41.708	0.231	0.120
-737.054	278.194	-0.049	0.087
-736.039	770.069	-0.109	-0.301
-735.025	197.371	-0.229	0.353
-734.010	800.000	0.061	-0.270
-732.996	284.335	-0.128	-0.232
-731.981	-49.763	-0.304	-0.146
-730.966	800.000	-0.143	-0.583
-729.952	170.106	-0.099	-0.142
-728.937	-84.547	-0.062	-0.020
-727.923	-62.801	0.244	-0.102
-726.908	-48.241	-0.106	0.052
-725.894	-83.036	-0.310	-0.101
-724.879	-46.877	-0.140	0.069
-723.864	-102.772	0.258	0.062
-722.850	800.000	-0.015	0.045
-721.835	-200.000	-0.035	0.156
-720.821	337.007	-0.059	0.116
-719.806	179.543	0.095	-0.141
-718.791	104.065	-0.064	-0.076
-717.777	-200.000	0.006	0.035
-716.762	-58.618	0.004	-0.002
-715.748	6.147	-0.154	-0.115
-714.733	-189.618	-0.242	-0.003
-713.718	191.737	-0.071	0.108
-712.704	-30.316	0.121	-0.069
-711.689	44.524	-0.168	-0.156
-710.675	-28.427	-0.245	-0.142
-709.660	-109.224	0.112	-0.024
-708.645	-34.170	-0.052	0.029
-707.631	-126.302	0.184	0.028
-706.616	-24.662	0.122	-0.073
-705.602	39.431	0.153	0.138
-704.587	-25.641	-0.165	-0.098
-703.572	42.031	-0.319	-0.292
-702.558	-200.000	0.008	-0.109
-701.543	-39.833	-0.206	-0.108
-700.529	-55.152	0.056	0.026
-699.514	660.911	-0.196	0.508
-698.499	-10.629	0.442	-0.295
-697.485	-132.357	-0.295	0.038
-696.470	-200.000	-0.032	-0.197
-695.456	-59.320	-0.196	0.085
-694.441	36.075	0.022	-0.020
-693.426	111.421	-0.074	0.089
-692.412	71.917	0.273	0.285
-691.397	28.679	0.189	0.161
-690.383	-100.281	-0.409	-0.102
-689.368	-107.148	0.293	0.065
-688.354	-89.160	-0.211	-0.063
-687.339	-57.302	0.012	0.005
-686.324	180.930	-0.241	-0.356
-685.310	-76.715	0.031	-0.011
-684.295	35.354	-0.076	0.067
-683.281	-200.000	0.052	0.318
-682.266	251.451	-0.054	0.092
-681.251	-142.263	0.245	0.024
-680.237	225.305	-0.036	-0.058
-679.222	-200.000	0.041	-0.345
-678.208	-39.933	0.065	-0.034
-677.193	272.377	-0.163	0.288
-676.178	-200.000	-0.012	0.057
-675.164	-51.605	0.266	-0.125
-674.149	800.000	0.021	-0.076
-673.135	-200.000	-0.026	-0.195
-672.120	-65.618	-0.238	-0.096
-671.105	800.000	-0.148	-0.413
-670.091	71.038	0.204	-0.213
-669.076	172.311	0.033	-0.048
-668.062	-170.660	0.183	-0.006
-667.047	134.704	-0.160	0.208
-666.032	-152.770	0.097	-0.007
-665.018	343.609	0.044	-0.088
-664.003	-141.068	-0.319	0.033
-662.989	166.225	-0.186	0.264
-661.974	-18.786	-0.104	-0.065
-660.959	128.233	0.140	-0.179
-659.945	156.628	0.073	0.102
-658.930	-94.600	-0.356	-0.097
-657.916	-200.000	0.040	-0.240
-656.901	-90.800	-0.044	0.013
-655.886	23.383	0.118	0.097
-654.872	-119.005	-0.347	0.061
-653.857	56.406	-0.071	-0.069
-652.843	-200.000	0.078	0.378
-651.828	-200.000	0.009	0.114
-650.814	-186.438	0.253	-0.004
-649.799	-83.237	0.287	-0.093
-648.784	-200.000	0.018	-0.206
-647.770	-200.000	0.009	0.081
-646.755	-56.969	0.056	-0.025
-645.741	-30.643	-0.108	0.061
-644.726	-32.857	0.156	-0.087
-643.711	-43.902	0.242	0.122
-642.697	18.051	0.076	-0.061
-641.682	76.311	-0.065	0.069
-640.668	-67.490	-0.256	-0.101
-639.653	-69.903	-0.563	0.215
-638.638	-181.850	0.397	0.008
-637.624	-26.306	-0.209	-0.123
-636.609	20.844	-0.257	0.209
-635.595	-43.715	-0.237	0.120
-634.580	133.417	-0.094	0.122
-633.565	-200.000	0.010	-0.080
-632.551	-25.452	-0.156	-0.093
-631.536	-200.000	-0.040	0.262
-630.522	-8.526	-0.024	0.016
-629.507	-186.235	-0.164	0.002
-628.492	-200.000	-0.002	-0.068
-627.478	-200.000	-0.033	-0.151
-626.463	220.261	-0.154	-0.248
-625.449	800.000	-0.017	0.071
-624.434	-51.988	0.309	0.144
-623.419	26.297	-0.124	-0.104
-622.405	-60.780	-0.166	-0.071
-621.390	133.603	-0.140	-0.182
-620.376	31.726	-0.127	-0.110
-619.361	-135.569	-0.214	0.026
-618.346	80.519	-0.105	0.113
-617.332	-91.731	0.307	-0.087
-616.317	60.589	0.083	0.082
-615.303	-132.933	-0.336	0.043
-614.288	-200.000	-0.032	-0.289
-613.273	800.000	-0.075	-0.290
-612.259	-23.190	-0.221	-0.134
-611.244	-159.955	0.403	0.022
-610.230	-68.267	-0.211	0.082
-609.215	-195.286	0.097	-0.001
-608.201	-3.835	0.164	-0.114
-607.186	2.608	0.093	-0.068
-606.171	314.704	0.193	0.365
-605.157	-133.627	-0.076	0.010
-604.142	800.000	0.027	-0.111
-603.128	16.509	0.090	-0.071
-602.113	-68.572	0.222	0.086
-601.098	-200.000	0.017	-0.174
-600.084	248.969	-0.135	0.229
-599.069	-3.971	0.109	0.076
-598.055	-190.981	0.249	-0.003
-597.040	-45.188	-0.258	-0.129
-596.025	241.702	-0.027	0.046
-595.011	-17.518	0.071	-0.045
-593.996	800.000	-0.059	0.170
-592.982	-122.144	0.150	0.025
-591.967	148.168	0.298	-0.404
-590.952	800.000	0.029	-0.083
-589.938	800.000	0.027	-0.114
-588.923	-154.396	0.069	0.005
-587.909	372.976	0.043	0.088
-586.894	-36.193	-0.110	-0.060
-585.879	-89.262	-0.060	-0.018
-584.865	6.008	-0.105	0.078
-583.850	-200.000	-0.016	0.277
-582.836	-143.538	0.151	0.014
-581.821	-63.697	0.076	0.031
-580.806	-200.000	0.040	0.188
-579.792	153.590	-0.100	-0.137
-578.777	4.601	-0.484	-0.356
-577.763	59.783	0.404	-0.399
-576.748	529.830	-0.124	0.292
-575.733	8.590	-0.119	-0.090
-574.719	240.754	-0.114	-0.191
-573.704	-200.000	0.019	-0.552
-572.690	44.648	0.167	0.154
-571.675	-116.329	-0.334	-0.062
-570.661	-154.453	0.243	-0.016
-569.646	311.570	0.145	-0.272
-568.631	800.000	0.026	-0.089
-567.617	-200.000	0.018	-0.187
-566.602	241.881	-0.118	0.197
-565.588	-178.829	-0.062	-0.001
-564.573	260.211	-0.123	0.213
-563.558	6.765	-0.050	-0.037
-562.544	-63.394	0.303	0.125
-561.529	-68.933	-0.090	0.035
-560.515	-200.000	0.017	0.104
-559.500	-54.180	0.289	-0.131
-558.485	531.507	0.111	-0.263
-557.471	-60.667	-0.139	-0.059
-556.456	-86.880	0.375	-0.114
-555.442	-72.283	0.279	-0.104
-554.427	-56.228	-0.129	-0.057
-553.412	-200.000	-0.008	0.137
-552.398	-47.627	0.439	-0.213
-551.383	-200.000	-0.006	-0.348
-550.369	13.973	0.168	-0.131
-549.354	60.342	0.112	0.111
-548.339	-52.090	0.328	0.153
-547.325	56.677	-0.113	0.110
-546.310	800.000	0.081	-0.334
-545.296	-200.000	-0.015	0.147
-544.281	-41.067	-0.213	0.110
-543.266	89.128	-0.051	-0.057
-542.252	800.000	-0.020	0.070
-541.237	418.775	0.189	-0.404
-540.223	198.845	0.035	-0.053
-539.208	-200.000	0.001	0.067
-538.193	-103.714	0.331	0.078
-537.179	-132.547	0.309	-0.040
-536.164	-130.208	-0.474	0.065
-535.150	402.494	0.101	-0.213
-534.135	246.574	0.090	-0.153
-533.121	25.202	-0.168	0.139
-532.106	-13.533	0.042	0.027
-531.091	-200.000	-0.001	-0.164
-530.077	-160.984	-0.045	-0.002
-529.062	177.244	0.139	0.202
-528.048	605.626	0.083	-0.208
-527.033	-39.043	0.060	0.031
-526.018	-102.469	0.075	0.018
-525.004	483.460	0.051	0.117
-523.989	-113.482	0.145	0.028
-522.975	573.873	0.165	0.402
-521.960	367.939	0.014	-0.029
-520.945	-67.633	-0.158	0.062
-519.931	253.110	-0.025	-0.042
-518.916	668.634	0.137	0.355
-517.902	-70.172	0.103	-0.039
-516.887	349.572	0.166	0.328
-515.872	35.743	-0.051	0.045
-514.858	387.813	0.084	0.173
-513.843	800.000	0.063	0.198
-512.829	-23.829	0.188	0.112
-511.814	-200.000	-0.010	0.287
-510.799	-22.790	0.241	0.145
-509.785	125.169	-0.056	-0.070
-508.770	89.487	-0.104	0.116
-507.756	187.631	-0.093	0.138
-506.741	800.000	-0.031	0.101
-505.726	800.000	0.024	0.066
-504.712	-200.000	-0.024	0.235
-503.697	77.376	-0.156	-0.166
-502.683	-200.000	-0.042	0.184
-501.668	-200.000	-0.005	0.278
-500.653	-57.519	-0.366	0.160
-499.639	64.742	-0.210	-0.212
-498.624	-130.021	0.256	-0.035
-497.610	-91.751	0.275	0.078
-496.595	-99.434	-0.209	0.053
-495.581	800.000	0.057	0.212
-494.566	-132.760	-0.239	0.030
-493.551	-86.998	-0.305	-0.093
-492.537	50.941	-0.105	0.099
-491.522	52.342	-0.150	-0.143
-490.508	-64.029	0.196	-0.080
-489.493	-200.000	0.154	-0.001
-488.478	-12.649	0.060	-0.039
-487.464	-200.000	0.043	-0.374
-486.449	-200.000	-0.006	-0.215
-485.435	-59.192	-0.123	-0.053
-484.420	-200.000	-0.017	-0.195
-483.405	-200.000	0.055	-0.418
-482.391	9.802	0.291	0.220
-481.376	-21.640	0.083	-0.050
-480.362	-102.528	-0.186	-0.044
-479.347	-32.118	-0.139	-0.078
-478.332	-80.664	-0.418	0.139
-477.318	-170.737	0.143	0.005
-476.303	-71.664	0.336	0.125
-475.289	800.000	0.054	0.223
-474.274	-21.875	0.335	0.203
-473.259	-80.873	0.059	0.019
-472.245	43.969	0.241	-0.220
-471.230	-3.139	-0.204	0.142
-470.216	-79.525	0.371	0.125
-469.201	-18.580	-0.230	0.143
-468.186	-200.000	-0.064	0.303
-467.172	-98.053	-0.382	0.098
-466.157	-83.632	0.239	0.076
-465.143	-20.708	0.045	0.028
-464.128	-36.295	0.186	0.100
-463.113	-200.000	0.009	-0.078
-462.099	-104.532	-0.097	0.022
-461.084	-129.746	-0.242	0.033
-460.070	-70.405	0.129	0.049
-459.055	18.341	-0.152	0.121
-458.040	-200.000	-0.006	0.290
-457.026	268.524	-0.052	0.090
-456.011	-95.583	-0.360	-0.096
-454.997	-72.076	0.089	0.033
-453.982	-74.813	0.265	-0.095
-452.968	-162.562	0.091	0.004
-451.953	159.566	0.217	-0.301
-450.938	-119.887	-0.100	-0.017
-449.924	-21.852	-0.208	0.126
-448.909	-67.436	-0.230	-0.090
-447.895	800.000	-0.042	0.128
-446.880	579.276	0.038	0.093
-445.865	117.551	-0.110	-0.134
-444.851	509.690	0.091	-0.210
-443.836	-138.389	-0.190	-0.021
-442.822	87.831	0.162	0.179
-441.807	46.868	0.157	-0.146
-440.792	-200.000	-0.039	0.187
-439.778	-138.125	-0.329	0.036
-438.763	800.000	-0.102	-0.282
-437.749	800.000	-0.087	-0.254
-436.734	-161.490	0.300	-0.015
-435.719	92.102	-0.123	-0.138
-434.705	-141.860	0.219	-0.022
-433.690	-130.918	-0.504	-0.067
-432.676	97.274	-0.019	0.021
-431.661	19.348	0.146	-0.117
-430.646	635.580	0.034	-0.086
-429.632	-200.000	-0.029	0.393
-428.617	-83.917	-0.104	-0.033
-427.603	2.851	-0.252	0.182
-426.588	-200.000	-0.011	0.081
-425.573	16.102	-0.138	-0.108
-424.559	73.627	-0.134	0.140
-423.544	145.801	-0.298	0.397
-422.530	-200.000	-0.017	-0.136
-421.515	-200.000	0.004	0.097
-420.500	91.369	0.261	-0.291
-419.486	-178.068	0.216	0.005
-418.471	131.627	-0.058	0.074
-417.457	-69.577	-0.314	0.120
-416.442	-200.000	-0.062	-0.520
-415.428	-106.633	-0.178	-0.040
-414.413	-79.412	-0.385	-0.130
-413.398	23.734	-0.057	0.046
-412.384	800.000	-0.015	0.060
-411.369	169.516	0.038	-0.054
-410.355	-59.292	-0.116	-0.050
-409.340	-200.000	0.063	-0.386
-408.325	162.768	0.083	-0.116
-407.311	568.112	0.094	-0.228
-406.296	-35.824	-0.365	0.197
-405.282	-44.518	-0.034	-0.017
-404.267	-115.945	0.071	-0.013
-403.252	-95.852	0.187	0.050
-402.238	-116.461	0.245	-0.045
-401.223	428.569	-0.072	-0.154
-400.209	267.674	-0.163	0.284
-399.194	139.869	0.149	0.195
-398.179	-110.096	0.259	0.054
-397.165	-140.797	0.144	-0.015
-396.150	-112.614	-0.118	-0.023
-395.136	800.000	0.032	0.091
-394.121	-59.704	-0.355	-0.151
-393.106	-200.000	0.002	-0.389
-392.092	800.000	-0.027	0.094
-391.077	139.712	0.071	-0.093
-390.063	62.595	0.324	-0.322
-389.048	-115.219	-0.149	-0.028
-388.033	-45.787	-0.181	-0.089
-387.019	-200.000	-0.046	-0.318
-386.004	15.300	0.190	-0.148
-384.990	116.140	-0.212	-0.258
-383.975	-73.122	-0.332	-0.121
-382.960	-194.975	-0.109	-0.001
-381.946	-121.309	-0.242	-0.040
-380.931	432.593	0.113	0.243
-379.917	-4.574	-0.209	0.144
-378.902	15.361	-0.218	0.170
-377.888	-1.221	0.050	0.035
-376.873	-113.246	-0.022	0.004
-375.858	107.520	-0.082	0.097
-374.844	800.000	-0.048	0.140
-373.829	676.543	0.047	0.121
-372.815	41.717	-0.334	-0.301
-371.800	-124.999	0.185	0.028
-370.785	-65.556	0.197	-0.079
-369.771	61.303	0.263	-0.260
-368.756	-74.552	-0.229	0.082
-367.742	26.621	-0.040	-0.033
-366.727	245.736	0.114	-0.191
-365.712	-200.000	0.040	-0.279
-364.698	406.034	0.227	-0.476
-363.683	-200.000	-0.004	-0.355
-362.669	42.843	-0.239	0.217
-361.654	-8.240	0.136	-0.091
-360.639	-134.286	-0.197	-0.024
-359.625	-200.000	0.002	0.341
-358.610	-118.331	0.195	0.034
-357.596	-46.341	0.243	0.119
-356.581	-200.000	-0.015	-0.257
-355.566	-188.450	-0.156	0.002
-354.552	-11.613	-0.157	-0.103
-353.537	-0.552	0.110	0.078
-352.523	-200.000	-0.007	0.034
-351.508	-153.763	0.155	0.011
-350.493	139.773	-0.232	0.303
-349.479	-104.627	0.139	0.032
-348.464	-102.254	-0.287	-0.068
-347.450	362.275	-0.058	0.115
-346.435	-200.000	0.010	0.371
-345.420	800.000	-0.055	-0.155
-344.406	-15.997	-0.122	-0.077
-343.391	-62.830	-0.393	0.162
-342.377	52.715	0.192	0.182
-341.362	800.000	0.084	0.299
-340.348	-13.049	-0.043	0.027
-339.333	10.732	0.166	-0.126
-338.318	-200.000	0.082	0.403
-337.304	38.621	0.326	0.289
-336.289	98.947	0.188	0.215
-335.275	135.179	-0.078	0.101
-334.260	-200.000	0.037	0.232
-333.245	167.790	-0.127	-0.179
-332.231	-147.563	-0.038	-0.003
-331.216	-7.317	-0.107	0.072
-330.202	-148.719	-0.354	0.029
-329.187	-200.000	0.059	0.369
-328.172	14.072	0.208	0.161
-327.158	244.861	-0.088	0.147
-326.143	-110.914	0.125	-0.025
-325.129	-55.295	-0.359	-0.160
-324.114	75.705	-0.096	0.101
-323.099	-95.272	-0.292	0.078
-322.085	-139.991	-0.035	0.004
-321.070	-195.369	0.042	0.000
-320.056	-200.000	-0.029	-0.133
-319.041	-60.947	-0.332	-0.139
-318.026	-139.341	-0.201	-0.021
-317.012	344.480	0.079	0.154
-315.997	-75.905	0.358	0.126
-314.983	51.035	-0.087	-0.082
-313.968	0.230	0.148	0.104
-312.953	-200.000	0.042	-0.378
-311.939	15.808	-0.091	-0.071
-310.924	-200.000	-0.034	-0.228
-309.910	-200.000	-0.027	0.159
-308.895	-125.248	0.402	0.061
-307.880	-200.000	0.015	-0.157
-306.866	-181.126	-0.029	-0.001
-305.851	398.763	0.079	-0.164
-304.837	30.076	-0.204	0.173
-303.822	86.569	-0.167	0.183
-302.807	800.000	-0.064	0.213
-301.793	-200.000	0.011	-0.513
-300.778	-143.202	0.194	-0.019
-299.764	53.278	-0.370	0.352
-298.749	62.958	-0.110	0.110
-297.735	-56.109	-0.125	-0.055
-296.720	-39.452	0.248	-0.129
-295.705	-5.221	-0.143	-0.098
-294.691	-200.000	0.034	-0.241
-293.676	361.282	-0.085	0.168
-292.662	41.626	0.085	0.076
-291.647	-87.591	-0.465	-0.139
-290.632	-66.453	-0.125	-0.049
-289.618	-88.640	0.333	0.098
-288.603	800.000	-0.024	-0.100
-287.589	11.259	-0.102	-0.077
-286.574	73.993	0.012	0.012
-285.559	-117.361	-0.356	0.064
-284.545	-49.564	0.155	-0.073
-283.530	51.099	0.319	0.299
-282.516	-100.568	-0.250	-0.061
-281.501	-62.777	0.216	-0.089
-280.486	-149.166	-0.110	-0.009
-279.472	-97.469	-0.276	0.071
-278.457	275.715	0.062	0.109
-277.443	-200.000	0.031	-0.185
-276.428	-165.335	0.313	-0.014
-275.413	-104.110	-0.215	0.049
-274.399	-8.657	-0.076	-0.050
-273.384	-152.367	-0.230	-0.016
-272.370	341.774	0.110	0.213
-271.355	-200.000	-0.033	-0.308
-270.340	-193.895	0.124	-0.001
-269.326	-150.108	0.093	0.007
-268.311	315.833	-0.158	0.295
-267.297	-7.298	0.142	0.095
-266.282	53.869	0.230	-0.219
-265.267	-93.570	0.036	-0.010
-264.253	201.744	-0.159	0.243
-263.238	-200.000	0.069	0.338
-262.224	800.000	0.033	0.099
-261.209	-77.449	0.068	-0.024
-260.195	35.064	0.190	-0.165
-259.180	-18.830	0.255	0.157
-258.165	-155.758	-0.183	0.012
-257.151	-187.864	-0.384	0.005
-256.136	800.000	-0.038	-0.155
-255.122	240.155	-0.104	0.172
-254.107	-73.524	0.164	0.059
-253.092	20.100	0.093	0.074
-252.078	699.907	0.090	0.235
-251.063	-70.214	-0.289	0.108
-250.049	-200.000	0.017	-0.526
-249.034	-200.000	0.020	0.133
-248.019	-8.407	-0.023	0.015
-247.005	288.750	0.043	0.077
-245.990	-200.000	-0.016	0.147
-244.976	24.312	0.098	0.080
-243.961	-117.589	0.226	0.040
-242.946	800.000	0.010	-0.035
-241.932	21.183	-0.266	0.214
-240.917	773.606	-0.054	-0.145
-239.903	-200.000	-0.020	0.096
-238.888	186.472	0.206	0.302
-237.873	-47.390	0.252	0.121
-236.859	127.883	-0.071	-0.090
-235.844	204.613	0.248	-0.381
-234.830	-66.884	0.075	-0.029
-233.815	726.184	-0.019	0.050
-232.800	800.000	0.062	0.182
-231.786	-24.557	-0.132	-0.077
-230.771	-152.918	-0.298	0.021
-229.757	48.275	-0.193	0.179
-228.742	-62.088	0.242	0.100
-227.727	3.565	0.176	0.127
-226.713	78.474	0.180	-0.190
-225.698	175.715	-0.143	-0.204
-224.684	39.736	-0.168	0.149
-223.669	-18.639	-0.133	0.082
-222.655	-200.000	0.008	-0.303
-221.640	800.000	-0.099	0.302
-220.625	118.745	0.095	-0.117
-219.611	-200.000	-0.025	0.172
-218.596	-48.166	0.296	0.141
-217.582	6.091	0.061	0.045
-216.567	181.384	0.259	-0.376
-215.552	237.313	-0.027	-0.045
-214.538	-105.151	-0.358	0.081
-213.523	455.821	0.057	-0.124
-212.509	-200.000	-0.062	-0.283
-211.494	-25.588	-0.094	0.055
-210.479	-133.451	0.223	0.028
-209.465	679.784	-0.017	0.043
-208.450	-136.436	0.102	-0.012
-207.436	146.893	-0.108	-0.144
-206.421	-8.623	-0.378	-0.251
-205.406	67.861	-0.047	0.048
-204.392	-200.000	0.047	-0.376
-203.377	-34.685	0.091	-0.049
-202.363	-179.314	0.337	-0.007
-201.348	16.415	-0.054	0.042
-200.333	-200.000	-0.015	0.210
-199.319	165.206	0.285	0.397
-198.304	-200.000	0.007	0.280
-197.290	63.824	-0.035	0.035
-196.275	370.135	-0.038	0.075
-195.260	-95.649	-0.352	0.093
-194.246	99.926	-0.322	0.369
-193.231	93.257	0.163	0.182
-192.217	402.723	0.119	-0.246
-191.202	47.850	0.058	0.054
-190.187	31.606	-0.193	-0.164
-189.173	-200.000	-0.015	0.379
-188.158	-135.626	-0.512	-0.060
-187.144	-51.351	-0.093	-0.043
-186.129	-126.059	0.060	0.009
-185.114	800.000	-0.042	-0.169
-184.100	102.679	0.094	-0.108
-183.085	-192.307	-0.097	0.001
-182.071	800.000	0.032	0.116
-181.056	-57.681	0.241	0.104
-180.042	-200.000	-0.006	-0.287
-179.027	-44.981	0.257	0.126
-178.012	-74.063	0.071	0.025
-176.998	-200.000	0.009	0.041
-175.983	-0.247	-0.058	0.041
-174.969	-103.509	0.113	-0.026
-173.954	95.336	0.178	-0.200
-172.939	111.382	0.046	-0.055
-171.925	-131.523	0.401	-0.052
-170.910	15.215	0.222	-0.171
-169.896	-200.000	-0.006	0.247
-168.881	35.962	0.197	-0.171
-167.866	478.801	0.022	0.050
-166.852	492.107	-0.014	0.031
-165.837	13.926	0.263	-0.202
-164.823	-183.149	0.043	0.001
-163.808	681.826	0.122	-0.313
-162.793	63.010	0.320	-0.316
-161.779	218.925	0.121	0.191
-160.764	107.847	0.266	-0.312
-159.750	435.870	0.125	-0.268
-158.735	800.000	0.070	0.234
-157.720	-58.460	0.102	0.044
-156.706	-107.795	-0.067	0.014
-155.691	-50.748	0.595	0.276
-154.677	26.155	-0.292	0.240
-153.662	467.653	0.081	-0.180
-152.647	138.528	0.029	0.038
-151.633	13.810	-0.391	-0.300
-150.618	800.000	0.042	0.122
-149.604	56.750	-0.210	0.202
-148.589	4.284	-0.044	0.032
-147.574	800.000	-0.091	0.278
-146.560	-20.699	0.074	0.045
-145.545	12.991	-0.108	0.082
-144.531	800.000	-0.079	0.308
-143.516	230.056	0.155	-0.250
-142.502	66.602	0.250	-0.251
-141.487	-200.000	-0.033	0.178
-140.472	-68.074	0.087	0.034
-139.458	335.170	0.154	0.295
-138.443	26.857	-0.328	0.271
-137.429	-64.120	-0.092	0.037
-136.414	282.264	-0.040	0.071
-135.399	-100.774	-0.088	-0.021
-134.385	-24.533	-0.181	0.106
-133.370	800.000	-0.122	0.417
-132.356	-69.592	0.252	-0.095
-131.341	107.217	0.192	0.225
-130.326	-148.238	-0.163	0.013
-129.312	800.000	-0.051	0.148
-128.297	76.333	0.136	0.141
-127.283	800.000	0.090	-0.269
-126.268	111.256	0.065	-0.077
-125.253	186.174	0.022	0.032
-124.239	209.045	0.288	0.443
-123.224	593.516	0.139	-0.339
-122.210	-24.549	0.077	0.045
-121.195	4.350	0.338	-0.244
-120.180	35.213	-0.099	0.086
