DTS Sentinel unit serial number:	SN413079Multiplexer serial number:	ORYXHardware model number:	OX4-SRSoftware version number:	ORYX F/W v4.00 Oryx Data Collector v3.7.2.0data status	okinstallation	princeton_trtdifferential loss correction	single-endedforward channel	channel 3reverse channel	N/Adate	2019/09/13time	18:32:34forward acquisition time	60.00reverse acquisition time	0.00gamma	496.2192k internal	0.2316k external	0.2316temperature offset calibration	1.0106default loss term (dB/km)	0.3790temperature slope calibration	1.0000multiplexer offset coefficient	1.0000multiplexer slope coefficient	1.0000fibre end	0.00T internal ref (°C)	33.30T ext. ref 1 (°C)	4.22T ext. ref 2 (°C)	26.31length (m)	temperature (°C)	Stokes	anti-Stokes-747.200	23.808	-0.090	-0.075
-746.185	119.308	-0.192	-0.240
-745.171	101.902	-0.115	-0.136
-744.156	-200.000	0.011	0.213
-743.142	35.073	0.339	-0.301
-742.127	171.519	0.076	0.111
-741.112	800.000	0.040	-0.113
-740.098	-52.488	-0.410	0.192
-739.083	800.000	-0.022	-0.067
-738.069	-85.529	0.337	-0.106
-737.054	-169.429	0.080	-0.003
-736.039	-48.450	-0.227	0.111
-735.025	-91.294	0.477	0.138
-734.010	-109.269	-0.124	-0.027
-732.996	-200.000	0.080	0.409
-731.981	465.322	-0.040	0.091
-730.966	-200.000	-0.013	0.090
-729.952	-77.998	-0.435	0.152
-728.937	444.883	0.111	-0.247
-727.923	-17.433	-0.395	0.251
-726.908	-200.000	-0.045	-0.394
-725.894	-200.000	-0.067	-0.306
-724.879	8.020	-0.082	-0.063
-723.864	-200.000	0.000	-0.022
-722.850	-151.338	0.501	0.038
-721.835	-118.159	-0.210	-0.038
-720.821	130.728	-0.142	0.184
-719.806	-0.994	0.287	-0.206
-718.791	800.000	-0.017	-0.073
-717.777	-168.207	0.146	-0.006
-716.762	50.991	0.020	-0.019
-715.748	154.031	-0.159	-0.221
-714.733	95.375	0.167	-0.192
-713.718	19.341	0.110	-0.089
-712.704	-93.270	-0.214	-0.060
-711.689	61.642	0.068	-0.069
-710.675	-45.444	0.211	-0.106
-709.660	-137.348	0.085	0.010
-708.645	-200.000	0.027	0.276
-707.631	-64.577	-0.182	-0.075
-706.616	-72.220	0.254	-0.095
-705.602	-56.283	0.093	0.042
-704.587	800.000	0.050	-0.213
-703.572	667.760	-0.043	-0.112
-702.558	800.000	-0.109	0.314
-701.543	363.729	-0.138	0.281
-700.529	800.000	0.051	0.182
-699.514	800.000	-0.116	-0.355
-698.499	-102.019	0.382	-0.093
-697.485	-58.782	-0.284	0.124
-696.470	-118.846	0.185	-0.033
-695.456	430.479	0.064	0.139
-694.441	-163.861	-0.088	0.004
-693.426	-200.000	-0.011	-0.348
-692.412	-200.000	-0.009	0.106
-691.397	800.000	-0.039	0.120
-690.383	-130.443	0.074	-0.010
-689.368	54.081	0.229	-0.223
-688.354	-43.745	-0.196	0.100
-687.339	-200.000	-0.021	0.169
-686.324	6.221	0.263	-0.198
-685.310	36.813	-0.256	-0.229
-684.295	800.000	-0.093	-0.395
-683.281	58.833	-0.141	0.140
-682.266	-200.000	0.035	0.322
-681.251	800.000	0.138	0.434
-680.237	-64.777	-0.407	0.167
-679.222	-35.936	-0.086	-0.047
-678.208	-72.005	-0.274	0.103
-677.193	-200.000	-0.054	0.276
-676.178	1.519	-0.292	-0.212
-675.164	124.828	0.051	-0.065
-674.149	179.385	-0.108	-0.159
-673.135	-133.959	0.146	-0.018
-672.120	-186.154	0.111	0.002
-671.105	-114.939	0.229	-0.044
-670.091	800.000	-0.086	0.268
-669.076	-70.215	-0.144	-0.055
-668.062	191.803	0.049	0.075
-667.047	172.021	-0.134	-0.194
-666.032	-142.635	0.124	-0.012
-665.018	8.381	0.255	0.194
-664.003	346.531	0.100	0.199
-662.989	111.820	-0.097	-0.119
-661.974	320.401	-0.139	-0.268
-660.959	-200.000	0.003	-0.137
-659.945	-59.163	0.438	0.191
-658.930	-33.315	0.078	0.043
-657.916	157.418	0.190	-0.265
-656.901	52.241	-0.084	-0.081
-655.886	-200.000	-0.006	0.332
-654.872	-102.052	0.157	-0.038
-653.857	122.961	0.113	-0.143
-652.843	82.208	-0.142	0.155
-651.828	184.138	-0.314	0.469
-650.814	-24.653	0.087	0.052
-649.799	180.289	-0.105	0.156
-648.784	-200.000	0.003	0.124
-647.770	195.351	0.227	-0.348
-646.755	718.174	-0.098	-0.262
-645.741	-139.758	0.017	-0.002
-644.726	95.743	-0.248	-0.285
-643.711	-112.879	0.175	0.035
-642.697	282.250	0.108	0.195
-641.682	304.935	0.157	-0.293
-640.668	-200.000	-0.004	-0.273
-639.653	-200.000	-0.007	-0.259
-638.638	800.000	0.065	-0.274
-637.624	-139.866	0.348	-0.037
-636.609	-200.000	-0.036	0.500
-635.595	-106.346	-0.197	0.044
-634.580	245.388	0.249	-0.423
-633.565	85.916	0.253	-0.281
-632.551	237.220	0.090	-0.150
-631.536	-126.921	0.114	-0.017
-630.522	800.000	-0.018	-0.073
-629.507	-147.707	-0.389	0.033
-628.492	17.341	-0.203	-0.162
-627.478	-66.536	-0.081	-0.033
-626.463	-186.276	-0.137	0.002
-625.449	-18.507	-0.201	-0.127
-624.434	-88.067	-0.358	0.108
-623.419	-30.143	-0.264	0.152
-622.405	127.527	0.055	0.071
-621.390	-73.649	-0.260	0.096
-620.376	-141.205	0.060	0.006
-619.361	-30.416	0.113	-0.065
-618.346	-100.907	-0.228	0.057
-617.332	-157.145	-0.090	0.005
-616.317	800.000	-0.118	0.356
-615.303	800.000	0.046	-0.194
-614.288	-73.914	-0.208	0.076
-613.273	800.000	-0.010	0.041
-612.259	269.829	0.165	0.292
-611.244	800.000	-0.090	-0.337
-610.230	-80.865	-0.089	-0.030
-609.215	125.330	0.162	-0.206
-608.201	73.455	0.052	-0.055
-607.186	383.458	0.053	0.109
-606.171	254.078	-0.049	-0.084
-605.157	184.193	0.084	0.126
-604.142	-103.648	-0.510	0.120
-603.128	283.410	-0.020	-0.036
-602.113	800.000	0.083	0.323
-601.098	800.000	-0.013	0.049
-600.084	800.000	-0.073	-0.273
-599.069	-200.000	-0.002	-0.097
-598.055	-52.741	0.183	0.085
-597.040	-200.000	-0.023	-0.172
-596.025	7.921	-0.257	-0.194
-595.011	-2.773	-0.222	-0.156
-593.996	-200.000	0.006	-0.085
-592.982	-200.000	-0.026	-0.130
-591.967	7.332	-0.211	-0.159
-590.952	-153.820	0.122	-0.008
-589.938	123.696	-0.021	-0.026
-588.923	-69.134	0.139	-0.054
-587.909	508.970	0.093	-0.219
-586.894	-123.539	-0.038	0.006
-585.879	-50.781	0.201	0.095
-584.865	-75.273	-0.187	0.067
-583.850	800.000	-0.034	0.106
-582.836	142.447	-0.280	0.374
-581.821	-200.000	0.044	0.305
-580.806	-114.989	0.151	-0.029
-579.792	41.160	0.366	-0.333
-578.777	-50.236	0.095	-0.045
-577.763	-200.000	0.014	0.100
-576.748	34.787	-0.261	0.230
-575.733	800.000	0.072	0.223
-574.719	28.919	0.168	-0.143
-573.704	-53.842	-0.225	0.103
-572.690	156.544	-0.156	-0.217
-571.675	-16.662	-0.121	-0.077
-570.661	16.658	-0.193	0.153
-569.646	682.592	0.054	-0.143
-568.631	-200.000	0.021	0.166
-567.617	114.505	-0.105	0.129
-566.602	-129.575	0.282	0.039
-565.588	267.204	-0.148	0.260
-564.573	-74.439	-0.535	0.194
-563.558	104.401	0.089	0.106
-562.544	-110.279	0.213	0.045
-561.529	-200.000	0.041	-0.235
-560.515	-61.936	-0.027	-0.011
-559.500	75.038	0.112	-0.119
-558.485	-173.850	0.339	0.010
-557.471	-200.000	-0.001	0.368
-556.456	-144.242	0.452	-0.042
-555.442	124.683	0.064	0.081
-554.427	-2.603	-0.093	0.065
-553.412	773.552	0.068	0.187
-552.398	-200.000	-0.099	-0.484
-551.383	-72.295	-0.136	0.051
-550.369	-170.605	0.319	0.011
-549.354	-5.767	0.121	-0.084
-548.339	614.151	0.165	-0.415
-547.325	519.448	-0.109	-0.257
-546.310	-190.272	0.267	-0.003
-545.296	72.208	0.200	-0.209
-544.281	-4.293	0.150	-0.105
-543.266	-106.320	-0.207	-0.046
-542.252	-9.382	-0.164	0.110
-541.237	152.573	-0.121	-0.166
-540.223	-156.086	0.051	-0.003
-539.208	546.167	-0.181	0.434
-538.193	613.109	-0.144	0.362
-537.179	-200.000	-0.025	-0.189
-536.164	33.912	-0.202	-0.177
-535.150	-188.198	0.283	0.004
-534.135	-200.000	-0.117	0.555
-533.121	504.675	-0.072	-0.168
-532.106	800.000	-0.085	-0.290
-531.091	-200.000	-0.005	-0.038
-530.077	-200.000	0.044	-0.399
-529.062	800.000	-0.036	0.128
-528.048	-142.834	0.272	-0.027
-527.033	-36.139	-0.221	-0.120
-526.018	483.559	0.032	0.074
-525.004	-70.569	-0.135	0.051
-523.989	-152.707	0.114	-0.008
-522.975	-141.173	-0.160	-0.016
-521.960	-36.837	0.098	0.053
-520.945	800.000	0.027	-0.096
-519.931	366.110	0.042	-0.085
-518.916	-75.590	-0.123	-0.044
-517.902	260.131	0.128	0.221
-516.887	800.000	0.117	-0.355
-515.872	-42.800	0.161	-0.082
-514.858	173.323	-0.023	-0.033
-513.843	200.445	0.157	0.242
-512.829	-200.000	0.008	-0.312
-511.814	-192.623	-0.031	-0.000
-510.799	-87.769	0.101	0.031
-509.785	800.000	-0.136	0.386
-508.770	-90.637	0.354	-0.103
-507.756	303.634	-0.098	0.182
-506.741	-200.000	0.076	0.423
-505.726	0.181	0.100	-0.072
-504.712	-200.000	-0.045	0.298
-503.697	368.821	0.060	0.121
-502.683	-60.344	0.287	-0.123
-501.668	800.000	-0.062	0.189
-500.653	11.828	0.180	-0.139
-499.639	-200.000	0.015	-0.517
-498.624	-200.000	-0.007	-0.188
-497.610	-16.276	-0.089	-0.057
-496.595	800.000	0.075	-0.327
-495.581	-47.657	0.188	0.091
-494.566	-108.235	-0.250	0.054
-493.551	359.143	0.194	0.388
-492.537	800.000	-0.108	0.323
-491.522	372.060	-0.087	-0.178
-490.508	800.000	-0.130	0.492
-489.493	356.892	-0.057	-0.115
-488.478	-57.820	0.072	0.032
-487.464	-87.543	0.045	-0.014
-486.449	-30.483	0.100	0.057
-485.435	800.000	-0.063	-0.257
-484.420	157.298	0.202	0.280
-483.405	-200.000	-0.020	0.207
-482.391	10.994	0.127	0.097
-481.376	-200.000	-0.011	-0.153
-480.362	-15.466	-0.349	0.224
-479.347	97.356	-0.299	0.344
-478.332	102.921	-0.196	0.230
-477.318	247.302	0.072	-0.122
-476.303	-131.290	0.131	-0.017
-475.289	800.000	0.045	-0.192
-474.274	-88.866	0.228	0.068
-473.259	27.098	-0.232	-0.195
-472.245	105.442	-0.145	0.172
-471.230	-200.000	-0.026	0.236
-470.216	562.648	-0.168	0.407
-469.201	485.331	0.139	0.318
-468.186	56.385	-0.064	-0.063
-467.172	-200.000	-0.048	-0.319
-466.157	-200.000	0.017	0.190
-465.143	47.125	0.270	-0.251
-464.128	-0.395	-0.374	0.267
-463.113	800.000	-0.038	0.113
-462.099	733.515	0.072	0.192
-461.084	-200.000	-0.039	0.202
-460.070	-193.434	0.317	-0.003
-459.055	-200.000	-0.037	0.293
-458.040	-112.428	-0.119	-0.024
-457.026	800.000	-0.120	0.371
-456.011	-73.915	0.170	-0.062
-454.997	-16.482	0.116	-0.073
-453.982	-124.498	0.331	-0.052
-452.968	-200.000	0.004	0.039
-451.953	-94.831	0.111	0.030
-450.938	248.744	0.054	0.092
-449.924	149.685	-0.242	-0.328
-448.909	120.113	0.292	0.363
-447.895	256.814	-0.040	0.069
-446.880	-39.891	-0.408	0.213
-445.865	-186.077	-0.106	-0.002
-444.851	-82.166	0.206	-0.067
-443.836	373.724	-0.096	-0.195
-442.822	368.494	-0.035	-0.071
-441.807	31.355	0.156	0.135
-440.792	-200.000	-0.024	-0.278
-439.778	-200.000	-0.004	-0.026
-438.763	-94.546	0.369	0.101
-437.749	-200.000	0.062	-0.293
-436.734	-0.119	0.184	-0.131
-435.719	419.663	-0.056	-0.120
-434.705	26.838	-0.052	0.044
-433.690	63.268	0.096	0.096
-432.676	5.977	-0.027	0.020
-431.661	-153.410	-0.086	0.006
-430.646	63.885	-0.238	0.239
-429.632	65.587	-0.153	0.155
-428.617	3.148	-0.209	0.152
-427.603	486.864	-0.107	0.245
-426.588	-7.242	-0.076	0.052
-425.573	48.177	-0.112	0.104
-424.559	-200.000	-0.011	-0.150
-423.544	111.878	-0.261	-0.316
-422.530	284.979	-0.043	-0.077
-421.515	37.992	0.221	0.197
-420.500	-200.000	-0.003	0.023
-419.486	-99.784	0.236	-0.059
-418.471	-200.000	-0.005	-0.052
-417.457	206.758	0.089	-0.139
-416.442	486.661	-0.055	0.126
-415.428	553.974	-0.040	-0.097
-414.413	-178.701	-0.259	-0.006
-413.398	-65.795	0.266	0.106
-412.384	213.066	-0.096	0.151
-411.369	-127.618	0.167	-0.024
-410.355	800.000	-0.119	0.436
-409.340	397.731	0.111	-0.231
-408.325	-156.842	0.248	-0.015
-407.311	559.211	0.066	-0.158
-406.296	-200.000	-0.013	-0.165
-405.282	495.768	-0.042	0.097
-404.267	268.378	-0.193	0.339
-403.252	-200.000	-0.005	-0.148
-402.238	61.021	0.162	-0.161
-401.223	-9.471	0.208	0.139
-400.209	256.573	-0.026	0.045
-399.194	-102.120	-0.264	-0.064
-398.179	246.680	0.082	0.138
-397.165	-35.356	-0.175	-0.095
-396.150	-92.126	-0.236	-0.067
-395.136	316.676	0.056	0.105
-394.121	-200.000	-0.021	-0.173
-393.106	10.317	-0.134	-0.102
-392.092	441.014	-0.089	-0.195
-391.077	736.840	-0.008	-0.022
-390.063	78.255	-0.108	0.115
-389.048	-111.929	-0.236	-0.048
-388.033	59.009	-0.056	0.055
-387.019	-193.755	-0.131	0.001
-386.004	-60.803	0.122	0.051
-384.990	-114.265	0.110	0.021
-383.975	-200.000	0.014	-0.083
-382.960	-129.236	0.059	0.008
-381.946	176.697	0.231	0.335
-380.931	-195.935	0.305	-0.002
-379.917	-115.674	0.128	-0.024
-378.902	84.444	0.077	-0.084
-377.888	39.290	-0.110	0.098
-376.873	800.000	-0.044	-0.121
-375.858	144.783	-0.158	-0.211
-374.844	-108.166	-0.249	-0.054
-373.829	108.985	0.122	-0.145
-372.815	-3.139	0.101	-0.071
-371.800	145.515	-0.185	0.247
-370.785	-200.000	0.025	-0.127
-369.771	-95.226	-0.286	-0.077
-368.756	-21.603	-0.278	0.169
-367.742	800.000	0.036	0.144
-366.727	33.221	0.216	0.187
-365.712	-200.000	-0.027	0.136
-364.698	62.352	0.120	-0.120
-363.683	800.000	0.033	-0.112
-362.669	-200.000	0.005	0.040
-361.654	800.000	0.075	-0.267
-360.639	-96.766	-0.158	0.042
-359.625	377.191	0.084	0.172
-358.610	411.281	-0.058	0.123
-357.596	-43.486	0.331	0.167
-356.581	-48.283	0.246	-0.118
-355.566	-152.949	-0.126	0.009
-354.552	800.000	0.074	0.256
-353.537	-22.696	0.363	0.219
-352.523	36.734	0.172	-0.152
-351.508	51.904	0.321	-0.305
-350.493	-142.722	-0.124	-0.012
-349.479	216.394	-0.294	-0.466
-348.464	800.000	0.050	0.212
-347.450	98.999	0.252	0.291
-346.435	800.000	-0.038	-0.139
-345.420	-24.386	0.105	0.062
-344.406	148.745	-0.116	0.156
-343.391	-102.063	-0.068	-0.016
-342.377	569.387	0.152	-0.370
-341.362	-200.000	0.005	-0.334
-340.348	134.516	-0.116	-0.150
-339.333	-104.594	-0.183	0.042
-338.318	88.144	-0.188	-0.208
-337.304	-82.576	0.277	0.089
-336.289	95.182	-0.136	0.155
-335.275	26.814	0.156	-0.131
-334.260	-110.467	0.305	-0.063
-333.245	-100.261	0.074	-0.018
-332.231	-168.375	-0.207	0.008
-331.216	128.693	-0.051	0.065
-330.202	-96.485	-0.254	0.067
-329.187	-200.000	0.041	0.198
-328.172	71.970	-0.223	-0.232
-327.158	726.007	-0.052	0.139
-326.143	-137.338	-0.144	-0.016
-325.129	-18.313	0.170	0.106
-324.114	-53.509	0.159	-0.072
-323.099	-142.859	-0.151	-0.015
-322.085	-200.000	0.008	-0.068
-321.070	-159.283	0.220	-0.012
-320.056	19.876	0.180	-0.145
-319.041	-116.836	-0.334	0.061
-318.026	-62.871	0.156	0.064
-317.012	-44.793	0.130	0.065
-315.997	212.345	0.160	0.251
-314.983	-86.582	0.230	-0.070
-313.968	-200.000	0.042	0.270
-312.953	-65.687	-0.337	0.135
-311.939	64.299	-0.229	0.229
-310.924	-94.052	0.368	-0.101
-309.910	-200.000	0.027	-0.126
-308.895	120.066	0.133	0.165
-307.880	-92.235	0.165	-0.046
-306.866	-24.343	-0.007	0.004
-305.851	99.443	0.128	-0.147
-304.837	27.072	0.183	0.153
-303.822	-23.877	-0.319	-0.190
-302.807	299.861	-0.080	-0.147
-301.793	800.000	-0.086	0.309
-300.778	-69.667	-0.121	-0.046
-299.764	800.000	0.037	0.128
-298.749	-35.863	0.209	0.113
-297.735	162.389	0.041	-0.057
-296.720	-200.000	0.077	0.392
-295.705	9.751	-0.185	0.139
-294.691	298.099	-0.018	-0.032
-293.676	800.000	-0.019	-0.065
-292.662	-200.000	-0.007	0.065
-291.647	723.477	0.022	0.058
-290.632	213.214	-0.150	-0.236
-289.618	37.748	0.144	-0.127
-288.603	72.483	-0.068	-0.071
-287.589	-200.000	-0.046	-0.252
-286.574	-200.000	-0.025	-0.198
-285.559	240.364	0.050	-0.084
-284.545	-35.382	-0.213	0.115
-283.530	-167.400	0.225	-0.009
-282.516	-50.014	0.098	0.046
-281.501	-200.000	-0.047	-0.328
-280.486	-7.950	0.253	-0.170
-279.472	124.982	0.082	-0.103
-278.457	800.000	-0.041	-0.129
-277.443	-200.000	-0.213	0.001
-276.428	-196.479	-0.177	0.001
-275.413	228.850	-0.035	0.056
-274.399	122.224	-0.154	0.191
-273.384	316.441	0.077	0.145
-272.370	-138.293	0.071	-0.008
-271.355	800.000	-0.122	-0.473
-270.340	-35.954	-0.300	-0.161
-269.326	-200.000	-0.004	0.088
-268.311	-123.917	-0.264	0.041
-267.297	-45.061	0.144	-0.071
-266.282	-145.659	0.339	0.030
-265.267	97.219	-0.018	0.020
-264.253	-33.389	0.102	0.056
-263.238	-200.000	0.060	0.312
-262.224	-122.316	-0.119	-0.019
-261.209	12.633	0.081	0.062
-260.195	-145.087	0.057	-0.005
-259.180	-125.221	0.184	-0.028
-258.165	-89.675	0.324	-0.094
-257.151	800.000	-0.089	0.315
-256.136	376.673	0.036	0.073
-255.122	-200.000	-0.019	-0.131
-254.107	150.133	-0.061	-0.082
-253.092	-83.119	0.324	-0.104
-252.078	548.132	0.069	0.165
-251.063	146.356	-0.105	-0.140
-250.049	22.927	-0.336	-0.274
-249.034	96.147	-0.155	-0.176
-248.019	59.626	-0.094	-0.092
-247.005	-113.520	0.437	-0.085
-245.990	-108.054	-0.132	-0.028
-244.976	142.732	0.062	-0.082
-243.961	-33.092	-0.054	-0.030
-242.946	50.010	-0.169	-0.158
-241.932	41.532	-0.132	-0.119
-240.917	-200.000	-0.048	0.311
-239.903	-11.194	0.071	-0.046
-238.888	113.762	-0.122	0.147
-237.873	-21.270	-0.378	-0.230
-236.859	-150.690	0.258	0.019
-235.844	-43.076	0.009	-0.005
-234.830	318.007	-0.119	-0.225
-233.815	648.940	-0.057	0.146
-232.800	-200.000	0.044	0.433
-231.786	97.495	0.109	0.125
-230.771	306.610	-0.053	0.098
-229.757	-128.267	-0.033	-0.005
-228.742	-81.149	-0.234	0.077
-227.727	56.881	-0.233	0.226
-226.713	-31.199	0.185	0.104
-225.698	183.980	0.153	-0.224
-224.684	299.115	0.033	0.060
-223.669	-156.287	0.153	0.009
-222.655	800.000	-0.036	0.116
-221.640	800.000	0.145	0.408
-220.625	-71.016	0.140	-0.052
-219.611	800.000	-0.072	0.209
-218.596	-146.520	0.154	0.013
-217.582	-137.083	-0.123	0.014
-216.567	604.912	0.061	0.150
-215.552	800.000	0.071	0.232
-214.538	800.000	-0.011	0.043
-213.523	215.402	0.064	-0.101
-212.509	31.759	0.316	-0.270
-211.494	800.000	0.067	-0.186
-210.479	800.000	-0.078	0.284
-209.465	63.085	-0.134	-0.133
-208.450	800.000	-0.066	-0.222
-207.436	800.000	0.155	-0.437
-206.421	607.363	-0.165	0.409
-205.406	800.000	0.051	0.157
-204.392	109.840	0.064	-0.076
-203.377	-182.998	0.051	0.001
-202.363	-200.000	-0.006	-0.102
-201.348	227.196	-0.205	-0.331
-200.333	-200.000	-0.003	0.025
-199.319	744.247	0.040	-0.105
-198.304	-200.000	0.022	-0.250
-197.290	800.000	0.070	-0.248
-196.275	-200.000	-0.013	0.206
-195.260	765.619	-0.066	0.179
-194.246	-30.343	0.330	-0.186
-193.231	-50.372	-0.175	-0.082
-192.217	307.152	0.062	0.115
-191.202	-200.000	-0.039	0.403
-190.187	23.122	-0.240	0.195
-189.173	-133.339	0.133	-0.017
-188.158	-110.084	-0.264	0.055
-187.144	27.345	-0.130	0.108
-186.129	-83.042	-0.065	0.021
-185.114	-30.558	-0.121	0.068
-184.100	51.493	0.359	-0.338
-183.085	-200.000	0.030	-0.133
-182.071	101.420	0.119	0.138
-181.056	-56.820	0.141	0.062
-180.042	650.454	0.052	0.133
-179.027	28.940	-0.325	-0.273
-178.012	-83.243	0.204	0.065
-176.998	-66.453	-0.217	0.085
-175.983	800.000	0.018	-0.069
-174.969	166.024	0.053	-0.074
-173.954	-0.284	-0.196	0.138
-172.939	-200.000	0.054	-0.351
-171.925	-95.429	-0.075	-0.020
-170.910	285.737	-0.160	0.287
-169.896	73.873	0.200	-0.207
-168.881	200.928	-0.078	-0.119
-167.866	-200.000	-0.007	-0.131
-166.852	-61.589	-0.098	0.041
-165.837	472.100	-0.067	-0.150
-164.823	-36.609	-0.390	-0.208
-163.808	-200.000	0.021	-0.233
-162.793	673.089	0.046	-0.119
-161.779	-200.000	-0.018	-0.109
-160.764	-19.352	0.063	0.039
-159.750	-114.406	0.414	0.079
-158.735	800.000	0.062	-0.239
-157.720	-200.000	0.065	-0.330
-156.706	-112.861	0.260	-0.051
-155.691	-106.514	-0.100	-0.022
-154.677	112.154	-0.135	0.161
-153.662	-186.187	-0.436	0.006
-152.647	245.622	0.106	0.176
-151.633	-200.000	0.018	0.232
-150.618	-133.895	0.170	0.021
-149.604	-110.777	-0.111	0.023
-148.589	177.973	-0.084	0.121
-147.574	2.520	-0.038	0.028
-146.560	800.000	0.042	0.146
-145.545	-200.000	-0.191	-0.001
-144.531	32.946	-0.029	0.024
-143.516	-95.763	0.239	0.063
-142.502	-100.702	-0.274	0.067
-141.487	262.306	-0.160	-0.275
-140.472	27.020	0.215	-0.179
-139.458	576.186	-0.105	0.254
-138.443	88.780	0.079	-0.087
-137.429	7.067	0.094	0.070
-136.414	-65.752	-0.278	0.110
-135.399	-9.985	0.244	-0.160
-134.385	-200.000	-0.018	0.144
-133.370	-4.261	-0.206	0.141
-132.356	-110.728	0.290	-0.059
-131.341	800.000	-0.102	-0.281
-130.326	800.000	-0.052	0.185
-129.312	-153.018	-0.116	0.008
-128.297	-51.066	-0.184	-0.086
-127.283	-113.473	-0.390	0.076
-126.268	196.861	-0.218	0.328
-125.253	-22.878	-0.122	0.073
-124.239	-33.916	0.095	0.051
-123.224	-74.721	-0.176	0.063
-122.210	271.844	0.122	0.213
