DTS Sentinel unit serial number:	SN413079Multiplexer serial number:	ORYXHardware model number:	OX4-SRSoftware version number:	ORYX F/W v4.00 Oryx Data Collector v3.7.2.0data status	okinstallation	princeton_trtdifferential loss correction	single-endedforward channel	channel 3reverse channel	N/Adate	2019/09/12time	17:46:11forward acquisition time	60.00reverse acquisition time	0.00gamma	496.2192k internal	0.2316k external	0.2316temperature offset calibration	1.0095default loss term (dB/km)	0.3790temperature slope calibration	1.0000multiplexer offset coefficient	1.0000multiplexer slope coefficient	1.0000fibre end	0.00T internal ref (°C)	34.14T ext. ref 1 (°C)	2.93T ext. ref 2 (°C)	28.30length (m)	temperature (°C)	Stokes	anti-Stokes-747.200	382.685	-0.136	-0.283
-746.185	374.105	-0.300	0.618
-745.171	-200.000	0.003	-0.198
-744.156	60.988	-0.223	0.224
-743.142	4.868	0.295	-0.220
-742.127	-44.202	0.157	0.080
-741.112	-91.390	-0.212	-0.061
-740.098	-200.000	-0.100	0.448
-739.083	112.575	-0.208	0.255
-738.069	-118.010	-0.239	0.043
-737.054	107.639	0.131	-0.158
-736.039	-42.068	-0.180	0.093
-735.025	563.076	0.160	0.393
-734.010	-25.034	-0.168	-0.101
-732.996	-20.127	0.080	-0.050
-731.981	-148.114	0.056	-0.005
-730.966	321.730	-0.114	0.220
-729.952	-82.206	-0.271	-0.090
-728.937	167.260	-0.065	0.094
-727.923	-108.124	-0.246	-0.054
-726.908	-96.027	0.061	-0.016
-725.894	-66.234	-0.310	0.125
-724.879	119.054	0.086	-0.107
-723.864	-30.230	-0.430	-0.247
-722.850	-4.937	-0.174	-0.121
-721.835	304.262	0.065	0.122
-720.821	341.493	-0.147	-0.292
-719.806	8.959	-0.240	-0.183
-718.791	-168.104	-0.218	-0.009
-717.777	76.323	-0.130	0.139
-716.762	-49.230	-0.232	0.112
-715.748	446.199	-0.038	0.085
-714.733	-95.338	0.317	-0.086
-713.718	-200.000	0.015	-0.189
-712.704	14.120	-0.115	-0.091
-711.689	-200.000	0.035	0.216
-710.675	422.335	0.180	0.392
-709.660	-40.665	0.149	0.078
-708.645	-200.000	0.002	0.136
-707.631	258.720	0.052	-0.091
-706.616	-24.695	0.215	0.129
-705.602	5.210	-0.300	-0.224
-704.587	-200.000	0.017	-0.114
-703.572	-200.000	0.064	-0.300
-702.558	428.107	-0.056	-0.121
-701.543	-200.000	-0.020	-0.135
-700.529	658.456	-0.132	-0.343
-699.514	800.000	0.075	0.317
-698.499	53.626	0.091	0.088
-697.485	-112.501	-0.208	0.042
-696.470	-48.951	0.024	0.011
-695.456	-200.000	0.007	-0.147
-694.441	49.117	0.098	0.093
-693.426	-66.422	0.567	0.228
-692.412	474.158	0.024	-0.054
-691.397	13.521	0.159	-0.124
-690.383	800.000	-0.081	0.296
-689.368	629.612	-0.086	-0.220
-688.354	-31.216	0.109	-0.062
-687.339	-200.000	-0.029	0.367
-686.324	-51.506	0.219	0.103
-685.310	-28.182	-0.187	-0.109
-684.295	324.026	-0.146	-0.282
-683.281	-200.000	-0.023	0.267
-682.266	-79.294	-0.048	-0.017
-681.251	-130.081	-0.167	0.023
-680.237	-129.258	0.208	0.029
-679.222	-75.671	0.120	-0.043
-678.208	-158.362	0.049	0.003
-677.193	179.982	0.161	-0.238
-676.178	71.789	0.105	-0.110
-675.164	155.253	-0.042	-0.059
-674.149	-98.198	-0.178	-0.046
-673.135	800.000	0.104	-0.316
-672.120	-22.616	0.226	-0.138
-671.105	95.590	0.280	0.323
-670.091	-100.930	0.311	-0.077
-669.076	-200.000	-0.027	0.161
-668.062	183.519	0.198	-0.296
-667.047	-12.355	0.314	0.207
-666.032	-60.173	-0.143	-0.062
-665.018	-68.274	0.266	-0.104
-664.003	-109.532	-0.163	-0.035
-662.989	-66.816	-0.180	-0.072
-661.974	36.163	-0.116	0.103
-660.959	-113.999	-0.080	0.016
-659.945	65.047	-0.050	0.051
-658.930	17.733	-0.100	0.080
-657.916	-115.973	-0.134	0.025
-656.901	203.635	-0.063	-0.098
-655.886	800.000	0.051	0.173
-654.872	-200.000	-0.033	-0.175
-653.857	124.126	0.130	0.165
-652.843	-200.000	-0.031	0.177
-651.828	-147.300	-0.509	0.044
-650.814	-135.273	-0.304	-0.037
-649.799	-85.668	-0.209	-0.065
-648.784	800.000	0.061	-0.228
-647.770	76.780	-0.170	-0.183
-646.755	-170.760	0.250	-0.009
-645.741	-125.577	-0.049	-0.008
-644.726	-55.503	0.225	-0.102
-643.711	312.934	-0.155	-0.294
-642.697	49.855	-0.098	-0.093
-641.682	-200.000	-0.035	0.240
-640.668	-200.000	0.021	-0.193
-639.653	-39.057	0.141	-0.075
-638.638	-28.795	-0.243	-0.141
-637.624	-135.235	0.151	0.018
-636.609	72.024	0.199	-0.209
-635.595	-200.000	-0.001	0.272
-634.580	39.178	0.087	0.079
-633.565	-121.976	-0.178	-0.029
-632.551	-104.589	0.171	-0.040
-631.536	3.438	-0.354	-0.260
-630.522	27.307	0.138	0.117
-629.507	-97.211	0.226	-0.060
-628.492	-200.000	0.029	-0.128
-627.478	52.771	0.182	-0.176
-626.463	-123.904	-0.277	-0.044
-625.449	36.942	-0.176	-0.157
-624.434	191.493	0.069	-0.104
-623.419	-77.491	-0.236	0.083
-622.405	-81.822	0.197	0.065
-621.390	-50.990	0.199	-0.094
-620.376	780.573	0.063	-0.175
-619.361	-40.271	-0.417	-0.219
-618.346	-51.193	0.197	-0.093
-617.332	26.640	0.093	-0.078
-616.317	-68.157	-0.103	0.040
-615.303	-25.895	0.357	0.212
-614.288	800.000	-0.047	0.194
-613.273	99.918	-0.188	0.220
-612.259	-200.000	-0.046	0.272
-611.244	-193.723	0.430	-0.004
-610.230	800.000	0.047	0.162
-609.215	800.000	-0.013	0.038
-608.201	-21.803	-0.423	0.259
-607.186	757.148	0.127	-0.347
-606.171	112.361	-0.176	-0.215
-605.157	81.513	0.099	-0.107
-604.142	117.705	-0.219	0.272
-603.128	-66.182	0.139	0.056
-602.113	-41.389	0.314	0.163
-601.098	-200.000	0.032	0.157
-600.084	-78.016	-0.144	-0.050
-599.069	152.018	0.114	-0.157
-598.055	393.235	-0.133	-0.279
-597.040	-200.000	-0.005	0.187
-596.025	-178.067	-0.183	0.004
-595.011	-131.813	0.396	-0.052
-593.996	-148.956	-0.286	0.023
-592.982	800.000	-0.053	0.227
-591.967	259.825	0.088	0.153
-590.952	186.244	0.025	-0.038
-589.938	-101.436	-0.314	-0.077
-588.923	115.306	-0.063	0.078
-587.909	83.635	0.177	-0.194
-586.894	7.604	-0.017	-0.013
-585.879	-123.483	0.102	-0.016
-584.865	40.058	0.278	0.252
-583.850	-38.171	0.279	0.149
-582.836	-16.144	0.196	0.125
-581.821	226.203	-0.075	-0.122
-580.806	-80.584	-0.157	-0.053
-579.792	-200.000	0.001	-0.056
-578.777	97.452	0.178	-0.206
-577.763	-8.686	-0.154	0.104
-576.748	-43.421	-0.468	-0.238
-575.733	-83.796	-0.292	-0.094
-574.719	95.263	0.232	0.266
-573.704	-200.000	0.044	-0.419
-572.690	490.145	0.009	-0.020
-571.675	-110.043	-0.167	0.035
-570.661	-61.796	-0.177	0.075
-569.646	800.000	-0.120	-0.488
-568.631	453.687	-0.169	0.376
-567.617	31.471	0.164	0.141
-566.602	72.152	-0.123	-0.129
-565.588	-96.102	-0.269	0.072
-564.573	-200.000	-0.056	0.438
-563.558	-27.260	-0.436	-0.256
-562.544	-146.537	0.240	-0.021
-561.529	-162.272	-0.208	-0.010
-560.515	800.000	0.006	0.022
-559.500	219.015	-0.021	0.034
-558.485	93.237	-0.114	-0.129
-557.471	328.752	-0.081	0.156
-556.456	-84.225	0.188	-0.060
-555.442	46.599	-0.196	-0.183
-554.427	752.554	-0.108	0.293
-553.412	168.712	-0.118	0.169
-552.398	55.997	-0.125	-0.122
-551.383	86.278	-0.113	0.125
-550.369	-13.905	-0.181	-0.117
-549.354	-189.794	-0.253	-0.003
-548.339	-18.458	0.104	0.065
-547.325	-117.975	0.091	0.016
-546.310	437.364	0.066	-0.145
-545.296	699.421	-0.057	-0.150
-544.281	-119.059	-0.115	0.020
-543.266	800.000	0.078	-0.256
-542.252	800.000	-0.047	0.166
-541.237	165.304	-0.151	0.215
-540.223	266.291	-0.026	-0.046
-539.208	702.316	-0.099	0.263
-538.193	73.698	0.095	0.100
-537.179	-39.024	-0.135	0.071
-536.164	800.000	-0.044	-0.167
-535.150	68.451	-0.232	0.239
-534.135	117.492	0.123	0.151
-533.121	-200.000	0.000	-0.064
-532.106	-24.111	-0.133	-0.080
-531.091	-66.858	0.079	0.032
-530.077	155.683	-0.263	-0.364
-529.062	234.984	0.079	0.131
-528.048	4.048	0.124	0.091
-527.033	-147.591	0.210	0.018
-526.018	-200.000	0.017	-0.100
-525.004	-80.683	0.100	0.033
-523.989	-200.000	0.003	0.167
-522.975	237.743	0.096	0.160
-521.960	-200.000	-0.004	0.086
-520.945	-37.726	-0.168	0.090
-519.931	6.186	-0.099	0.074
-518.916	615.952	0.062	-0.157
-517.902	-87.726	0.097	0.029
-516.887	800.000	0.058	0.227
-515.872	-100.049	0.258	0.065
-514.858	-168.631	0.290	-0.011
-513.843	-72.857	0.197	0.073
-512.829	-200.000	0.066	-0.425
-511.814	-122.093	-0.182	-0.030
-510.799	-200.000	0.005	-0.110
-509.785	800.000	-0.041	0.131
-508.770	285.401	-0.047	0.084
-507.756	544.959	0.132	-0.318
-506.741	-47.663	0.276	-0.134
-505.726	22.850	-0.221	0.181
-504.712	800.000	0.044	0.187
-503.697	155.670	-0.263	-0.364
-502.683	-35.756	-0.479	-0.260
-501.668	-58.122	-0.123	-0.054
-500.653	-200.000	-0.007	-0.226
-499.639	800.000	0.068	-0.280
-498.624	-60.857	0.206	0.088
-497.610	447.473	-0.095	0.210
-496.595	-107.046	-0.293	0.065
-495.581	-85.241	0.258	-0.081
-494.566	-110.104	0.145	-0.030
-493.551	44.316	-0.197	-0.182
-492.537	-200.000	0.002	-0.010
-491.522	-200.000	0.056	0.328
-490.508	-115.759	0.152	0.029
-489.493	-36.922	0.199	0.107
-488.478	429.125	0.123	0.266
-487.464	-106.340	0.064	-0.014
-486.449	-200.000	-0.034	-0.294
-485.435	196.958	-0.077	-0.118
-484.420	43.189	0.101	0.092
-483.405	-59.110	-0.299	-0.129
-482.391	23.211	0.281	0.231
-481.376	22.606	-0.180	0.148
-480.362	800.000	-0.101	0.340
-479.347	280.901	0.103	0.185
-478.332	52.735	0.104	-0.100
-477.318	119.016	0.076	0.094
-476.303	-39.886	-0.128	0.067
-475.289	37.821	-0.197	0.175
-474.274	412.167	-0.024	0.051
-473.259	59.773	0.288	0.285
-472.245	488.088	-0.065	-0.148
-471.230	159.956	0.146	0.203
-470.216	277.232	0.042	-0.075
-469.201	-200.000	0.007	-0.328
-468.186	-89.086	-0.076	-0.023
-467.172	25.160	-0.280	0.233
-466.157	-148.795	0.215	0.017
-465.143	14.003	0.129	0.101
-464.128	-200.000	0.026	-0.407
-463.113	-65.154	0.200	0.081
-462.099	-144.012	-0.152	-0.014
-461.084	63.064	0.084	0.084
-460.070	-83.430	-0.249	0.080
-459.055	-108.849	-0.171	-0.037
-458.040	-200.000	0.014	-0.365
-457.026	-26.597	-0.143	-0.084
-456.011	-126.388	-0.126	-0.019
-454.997	125.193	0.136	-0.172
-453.982	9.573	-0.180	0.136
-452.968	-41.533	0.198	0.102
-451.953	13.962	-0.171	-0.134
-450.938	184.187	-0.118	-0.175
-449.924	-83.782	-0.264	-0.084
-448.909	97.587	0.124	0.143
-447.895	-107.455	-0.123	-0.027
-446.880	595.318	-0.076	0.187
-445.865	182.684	-0.187	0.276
-444.851	800.000	-0.108	-0.360
-443.836	-200.000	0.059	-0.340
-442.822	-46.497	-0.059	-0.029
-441.807	-51.507	-0.105	0.049
-440.792	656.770	0.077	-0.197
-439.778	-143.936	-0.179	-0.017
-438.763	-146.434	0.181	-0.016
-437.749	-200.000	-0.049	0.276
-436.734	232.235	0.149	-0.245
-435.719	608.579	0.160	0.399
-434.705	102.002	-0.072	-0.084
-433.690	-200.000	0.056	0.376
-432.676	-94.512	0.062	-0.017
-431.661	-200.000	0.006	-0.038
-430.646	-69.177	0.187	0.072
-429.632	800.000	-0.080	0.223
-428.617	216.866	-0.085	-0.136
-427.603	4.380	0.251	0.184
-426.588	13.014	0.186	0.144
-425.573	-200.000	-0.017	0.286
-424.559	-25.243	0.024	-0.014
-423.544	-200.000	0.054	-0.340
-422.530	-20.649	-0.250	0.154
-421.515	339.698	-0.253	0.492
-420.500	469.809	0.025	0.057
-419.486	-200.000	0.023	0.102
-418.471	427.705	0.080	-0.174
-417.457	75.836	-0.296	-0.313
-416.442	200.440	-0.028	-0.043
-415.428	66.646	-0.127	0.129
-414.413	-200.000	-0.020	0.328
-413.398	125.824	-0.013	0.016
-412.384	-200.000	-0.044	-0.251
-411.369	-80.148	-0.113	0.038
-410.355	800.000	0.016	-0.063
-409.340	-112.810	0.240	-0.048
-408.325	139.694	0.122	-0.161
-407.311	-19.328	-0.139	0.086
-406.296	-135.272	0.159	0.019
-405.282	-200.000	0.008	-0.164
-404.267	95.988	-0.184	0.210
-403.252	-200.000	0.029	0.427
-402.238	-77.606	0.262	-0.091
-401.223	40.541	0.224	-0.201
-400.209	64.237	-0.056	-0.056
-399.194	-15.278	-0.067	-0.043
-398.179	7.614	-0.122	0.092
-397.165	-33.807	0.372	-0.205
-396.150	-134.272	-0.177	-0.022
-395.136	800.000	0.083	-0.326
-394.121	197.374	-0.078	-0.119
-393.106	-102.290	-0.229	-0.055
-392.092	161.600	-0.148	0.207
-391.077	-70.242	-0.232	-0.088
-390.063	-81.603	-0.199	0.065
-389.048	-76.407	0.097	0.034
-388.033	-200.000	-0.020	0.328
-387.019	800.000	0.051	0.188
-386.004	800.000	0.054	-0.209
-384.990	800.000	0.044	0.163
-383.975	-200.000	-0.018	0.341
-382.960	-200.000	0.036	-0.304
-381.946	-158.771	0.065	0.004
-380.931	45.876	0.286	0.264
-379.917	-200.000	-0.092	-0.554
-378.902	-63.417	0.266	0.109
-377.888	396.807	0.108	0.225
-376.873	99.029	0.178	-0.205
-375.858	38.982	-0.078	-0.070
-374.844	-97.489	0.346	-0.090
-373.829	-200.000	0.039	-0.428
-372.815	62.602	0.287	-0.287
-371.800	25.076	0.248	-0.206
-370.785	-62.334	0.134	0.056
-369.771	86.927	0.131	-0.144
-368.756	-200.000	-0.033	-0.295
-367.742	-40.517	-0.197	0.102
-366.727	-152.035	-0.134	0.010
-365.712	-111.434	-0.193	-0.039
-364.698	99.920	0.142	0.164
-363.683	-4.658	-0.306	0.211
-362.669	-200.000	-0.011	0.095
-361.654	-96.091	-0.527	-0.140
-360.639	-197.494	-0.251	0.002
-359.625	44.237	0.032	0.029
-358.610	280.769	-0.258	-0.461
-357.596	36.482	-0.252	-0.222
-356.581	24.210	0.077	0.064
-355.566	-124.291	0.029	-0.005
-354.552	-200.000	-0.037	-0.231
-353.537	-200.000	-0.012	-0.384
-352.523	-90.125	0.268	-0.078
-351.508	-200.000	0.013	0.090
-350.493	514.900	0.124	0.289
-349.479	-200.000	-0.349	-0.000
-348.464	-6.021	-0.113	0.077
-347.450	18.154	0.058	-0.046
-346.435	378.330	-0.111	0.226
-345.420	-99.892	-0.065	-0.016
-344.406	107.263	-0.131	-0.155
-343.391	234.035	0.084	0.138
-342.377	38.346	0.035	0.031
-341.362	-80.275	0.154	0.051
-340.348	241.196	0.068	-0.114
-339.333	126.522	0.167	-0.210
-338.318	473.446	-0.133	-0.298
-337.304	243.036	-0.096	-0.160
-336.289	333.695	0.180	0.348
-335.275	40.252	-0.472	0.423
-334.260	19.345	0.156	0.125
-333.245	-132.292	-0.299	-0.039
-332.231	181.580	0.089	0.130
-331.216	159.127	-0.155	-0.214
-330.202	3.734	0.217	0.158
-329.187	-17.645	-0.085	0.053
-328.172	800.000	-0.031	-0.111
-327.158	-143.313	-0.101	0.010
-326.143	71.289	-0.205	0.212
-325.129	187.987	-0.032	-0.048
-324.114	-111.936	0.045	-0.009
-323.099	16.495	0.195	-0.154
-322.085	194.181	0.013	0.019
-321.070	561.369	-0.073	0.176
-320.056	800.000	-0.032	-0.141
-319.041	-200.000	0.003	0.050
-318.026	-61.607	-0.306	-0.128
-317.012	71.147	-0.128	-0.132
-315.997	264.740	0.024	0.041
-314.983	197.445	0.206	0.313
-313.968	-125.596	-0.271	-0.041
-312.953	-15.491	0.150	0.095
-311.939	-200.000	-0.010	0.074
-310.924	-6.302	0.106	-0.072
-309.910	-200.000	-0.045	-0.307
-308.895	-24.955	0.217	0.128
-307.880	-104.855	-0.328	0.075
-306.866	-113.638	0.261	0.051
-305.851	252.453	0.106	-0.180
-304.837	-5.619	0.095	-0.065
-303.822	133.499	-0.246	0.317
-302.807	-23.544	0.298	0.178
-301.793	-46.222	-0.202	0.099
-300.778	800.000	0.083	-0.259
-299.764	800.000	-0.106	0.298
-298.749	-140.076	0.146	0.015
-297.735	168.273	0.210	-0.298
-296.720	353.568	-0.081	-0.159
-295.705	188.863	-0.062	0.093
-294.691	-39.775	0.048	0.025
-293.676	800.000	-0.094	0.295
-292.662	171.761	0.137	-0.196
-291.647	348.673	0.138	-0.272
-290.632	800.000	-0.044	-0.157
-289.618	-1.016	0.365	0.257
-288.603	-46.648	0.195	-0.095
-287.589	-200.000	-0.040	-0.258
-286.574	15.508	0.327	-0.256
-285.559	224.109	-0.111	-0.179
-284.545	48.049	-0.094	0.087
-283.530	-72.427	0.392	-0.144
-282.516	-85.923	-0.073	0.023
-281.501	-41.683	-0.083	0.042
-280.486	-200.000	-0.023	0.353
-279.472	267.349	-0.067	0.117
-278.457	-200.000	0.065	0.435
-277.443	91.898	0.115	-0.129
-276.428	458.841	-0.037	0.082
-275.413	-147.550	0.316	0.026
-274.399	387.208	-0.230	0.472
-273.384	723.804	0.115	0.304
-272.370	26.163	-0.262	0.218
-271.355	-154.576	-0.169	-0.011
-270.340	-200.000	-0.026	0.167
-269.326	-128.507	0.224	0.032
-268.311	-80.238	-0.220	-0.073
-267.297	35.645	0.219	-0.192
-266.282	32.523	-0.183	-0.157
-265.267	-200.000	0.014	0.091
-264.253	800.000	0.033	-0.120
-263.238	-85.730	-0.138	0.042
-262.224	110.395	-0.062	0.074
-261.209	-28.258	-0.295	-0.169
-260.195	-102.021	-0.242	-0.058
-259.180	-159.196	0.179	-0.010
-258.165	-200.000	0.056	0.279
-257.151	-103.611	-0.366	-0.085
-256.136	800.000	-0.058	-0.182
-255.122	45.970	-0.142	0.131
-254.107	187.848	0.081	-0.120
-253.092	15.279	0.327	0.255
-252.078	-200.000	-0.012	0.094
-251.063	-196.300	0.055	-0.000
-250.049	-200.000	0.029	0.181
-249.034	-157.694	-0.101	0.006
-248.019	318.190	-0.077	-0.145
-247.005	-45.388	-0.059	-0.029
-245.990	-200.000	0.072	-0.326
-244.976	69.604	-0.139	0.142
-243.961	303.811	-0.078	0.144
-242.946	-93.889	0.147	0.040
-241.932	263.733	0.129	-0.222
-240.917	-200.000	-0.007	-0.233
-239.903	109.124	0.123	-0.146
-238.888	-200.000	-0.060	0.340
-237.873	74.134	0.069	0.072
-236.859	600.103	0.047	-0.116
-235.844	-25.166	-0.022	-0.013
-234.830	-149.196	-0.486	0.039
-233.815	-101.572	-0.202	0.049
-232.800	533.170	0.125	0.294
-231.786	-176.870	-0.125	0.003
-230.771	-156.449	0.183	-0.011
-229.757	-200.000	-0.015	0.165
-228.742	-117.200	-0.068	0.012
-227.727	-123.147	0.102	0.016
-226.713	-18.005	0.412	-0.256
-225.698	-112.982	-0.227	-0.045
-224.684	-84.281	0.248	0.078
-223.669	-77.913	0.136	-0.047
-222.655	124.855	0.058	-0.073
-221.640	-35.839	-0.263	-0.141
-220.625	-131.800	0.188	0.024
-219.611	800.000	0.051	0.189
-218.596	-200.000	0.024	-0.383
-217.582	800.000	0.038	-0.158
-216.567	-200.000	-0.001	-0.043
-215.552	104.208	-0.138	-0.161
-214.538	205.455	0.127	-0.196
-213.523	-50.982	0.261	-0.122
-212.509	-24.169	0.162	0.096
-211.494	-64.875	0.147	-0.059
-210.479	36.607	-0.135	-0.118
-209.465	-117.066	0.120	0.022
-208.450	-11.624	-0.126	0.082
-207.436	-69.578	-0.181	-0.069
-206.421	-200.000	0.013	0.165
-205.406	-200.000	0.053	-0.228
-204.392	138.945	-0.079	0.103
-203.377	23.320	0.185	-0.150
-202.363	-200.000	-0.016	-0.167
-201.348	-200.000	0.060	0.388
-200.333	32.498	-0.309	-0.264
-199.319	-69.368	0.187	0.071
-198.304	-137.306	0.345	-0.039
-197.290	12.588	0.031	0.024
-196.275	-136.577	0.205	-0.024
-195.260	-200.000	-0.016	0.193
-194.246	800.000	0.025	0.102
-193.231	-105.674	0.108	-0.024
-192.217	-140.509	-0.140	0.014
-191.202	13.728	0.184	-0.142
-190.187	-83.417	0.225	-0.071
-189.173	437.408	0.125	0.269
-188.158	-139.426	0.389	0.041
-187.144	172.006	-0.140	-0.199
-186.129	188.203	-0.155	0.229
-185.114	-71.897	0.155	0.057
-184.100	-70.276	0.079	-0.030
-183.085	-86.094	0.209	-0.064
-182.071	-22.941	-0.277	-0.166
-181.056	316.181	0.056	-0.105
-180.042	-108.460	0.151	-0.032
-179.027	-200.000	-0.040	0.202
-178.012	-145.839	0.158	-0.014
-176.998	106.189	-0.059	-0.070
-175.983	800.000	0.015	0.044
-174.969	-200.000	-0.023	0.189
-173.954	-56.863	0.291	0.127
-172.939	800.000	-0.151	0.581
-171.925	12.079	0.199	0.152
-170.910	-122.567	-0.115	0.018
-169.896	-41.367	-0.215	-0.110
-168.881	-42.409	0.219	-0.111
-167.866	-193.451	-0.095	0.001
-166.852	-77.254	0.036	0.012
-165.837	272.658	0.060	-0.104
-164.823	378.118	0.139	0.282
-163.808	-200.000	-0.031	0.176
-162.793	678.616	0.024	-0.062
-161.779	-24.545	-0.039	-0.023
-160.764	128.148	0.081	-0.102
-159.750	-38.941	0.202	0.105
-158.735	-71.259	0.192	-0.071
-157.720	-188.426	0.316	0.004
-156.706	800.000	-0.081	-0.270
-155.691	165.563	-0.126	0.176
-154.677	-17.761	0.220	-0.136
-153.662	-33.002	0.206	-0.113
-152.647	17.776	-0.176	0.138
-151.633	316.451	-0.103	0.193
-150.618	670.683	0.083	-0.213
-149.604	-98.722	-0.089	0.022
-148.589	-178.429	0.208	0.005
-147.574	294.699	0.047	-0.085
-146.560	-116.777	-0.142	-0.026
-145.545	154.864	-0.054	-0.074
-144.531	-2.099	-0.194	0.135
-143.516	78.532	-0.069	0.073
-142.502	90.339	-0.186	0.206
-141.487	-134.318	0.300	0.036
-140.472	-65.022	0.248	0.099
-139.458	-30.490	-0.220	-0.123
-138.443	-24.046	0.298	-0.176
-137.429	-200.000	-0.063	0.296
-136.414	63.203	-0.105	0.104
-135.399	256.056	0.041	-0.070
-134.385	207.395	-0.209	-0.323
-133.370	-200.000	0.010	-0.140
-132.356	2.965	-0.187	-0.134
-131.341	711.978	0.094	0.246
-130.326	239.592	0.113	0.187
-129.312	-93.937	0.127	0.035
-128.297	-114.482	0.282	0.054
-127.283	25.917	-0.197	-0.162
-126.268	92.393	0.278	-0.309
-125.253	-57.354	0.197	0.086
-124.239	-177.486	-0.204	0.005
-123.224	337.257	0.026	0.050
-122.210	180.769	0.059	-0.086
-121.195	34.591	0.155	0.134
