DTS Sentinel unit serial number:	SN413079Multiplexer serial number:	ORYXHardware model number:	OX4-SRSoftware version number:	ORYX F/W v4.00 Oryx Data Collector v3.7.2.0data status	okinstallation	princeton_trtdifferential loss correction	single-endedforward channel	channel 3reverse channel	N/Adate	2019/09/15time	02:12:35forward acquisition time	60.00reverse acquisition time	0.00gamma	496.2192k internal	0.2321k external	0.2321temperature offset calibration	0.9967default loss term (dB/km)	0.3790temperature slope calibration	1.0000multiplexer offset coefficient	1.0000multiplexer slope coefficient	1.0000fibre end	0.00T internal ref (°C)	31.67T ext. ref 1 (°C)	4.56T ext. ref 2 (°C)	26.24length (m)	temperature (°C)	Stokes	anti-Stokes-747.200	-35.952	-0.190	0.104
-746.185	-200.000	-0.001	-0.057
-745.171	-169.166	-0.355	-0.013
-744.156	-200.000	-0.048	0.435
-743.142	176.549	-0.098	-0.144
-742.127	167.297	0.139	0.199
-741.112	-161.791	0.282	-0.014
-740.098	785.984	0.078	0.217
-739.083	-200.000	0.037	0.551
-738.069	401.225	0.026	0.055
-737.054	69.382	0.228	-0.237
-736.039	-118.252	-0.350	0.063
-735.025	-57.053	0.146	0.065
-734.010	100.380	-0.099	-0.116
-732.996	-200.000	-0.067	0.384
-731.981	502.149	0.100	0.233
-730.966	68.889	-0.063	0.065
-729.952	110.599	-0.132	0.160
-728.937	18.101	-0.070	-0.057
-727.923	-58.079	-0.189	0.083
-726.908	-91.050	-0.182	-0.053
-725.894	-142.186	0.320	-0.032
-724.879	397.537	-0.043	-0.090
-723.864	800.000	0.053	-0.194
-722.850	39.962	0.102	0.092
-721.835	-200.000	0.000	-0.273
-720.821	-26.526	-0.149	-0.088
-719.806	-161.820	-0.077	-0.004
-718.791	-141.443	-0.168	0.017
-717.777	-41.512	0.107	-0.056
-716.762	-190.088	0.336	0.004
-715.748	-95.407	0.207	-0.056
-714.733	82.295	0.091	-0.100
-713.718	-45.885	-0.339	-0.169
-712.704	-86.007	0.169	-0.053
-711.689	-62.381	0.076	0.032
-710.675	-130.080	-0.254	-0.035
-709.660	-200.000	0.075	0.402
-708.645	-46.716	0.093	-0.046
-707.631	134.105	0.101	-0.133
-706.616	52.991	0.163	-0.158
-705.602	-200.000	-0.009	-0.267
-704.587	8.082	-0.346	-0.262
-703.572	1.618	-0.275	-0.200
-702.558	-132.946	0.124	0.016
-701.543	137.715	-0.041	0.054
-700.529	130.586	0.132	0.171
-699.514	27.223	0.190	0.161
-698.499	-153.074	-0.315	-0.022
-697.485	-182.146	0.163	-0.003
-696.470	-139.259	-0.125	-0.014
-695.456	-151.361	-0.380	0.029
-694.441	-124.367	0.028	0.004
-693.426	134.550	-0.226	-0.296
-692.412	-1.033	-0.180	-0.128
-691.397	-200.000	-0.015	0.102
-690.383	-47.520	0.106	0.052
-689.368	109.589	0.173	-0.209
-688.354	-17.018	0.244	0.155
-687.339	-105.800	0.211	0.048
-686.324	800.000	-0.063	0.212
-685.310	136.501	-0.074	-0.098
-684.295	7.421	-0.249	0.188
-683.281	-57.871	-0.229	-0.101
-682.266	25.811	0.202	0.170
-681.251	20.447	0.236	0.192
-680.237	-12.427	-0.200	0.132
-679.222	-66.433	-0.139	0.056
-678.208	361.810	-0.207	0.418
-677.193	-25.928	0.192	0.114
-676.178	87.301	-0.340	-0.379
-675.164	-16.537	-0.159	0.102
-674.149	73.746	0.069	0.073
-673.135	-12.590	-0.275	-0.181
-672.120	-15.246	0.116	0.075
-671.105	111.762	0.175	0.212
-670.091	175.747	-0.144	0.210
-669.076	-23.177	0.187	-0.114
-668.062	208.065	-0.206	-0.324
-667.047	-29.872	-0.114	0.065
-666.032	-53.315	0.120	0.055
-665.018	94.857	-0.048	-0.055
-664.003	-70.758	-0.156	-0.059
-662.989	-68.553	-0.196	-0.076
-661.974	5.797	-0.132	0.098
-660.959	430.972	0.005	-0.012
-659.945	115.234	0.156	0.191
-658.930	-200.000	0.001	0.068
-657.916	71.333	0.251	-0.262
-656.901	537.351	-0.026	-0.062
-655.886	800.000	-0.039	-0.124
-654.872	750.862	-0.083	-0.227
-653.857	-10.888	0.038	-0.025
-652.843	-13.121	0.178	-0.117
-651.828	64.654	0.078	-0.079
-650.814	19.405	0.277	0.224
-649.799	274.628	-0.045	-0.080
-648.784	-71.080	0.253	0.096
-647.770	-200.000	-0.002	-0.119
-646.755	800.000	-0.032	0.141
-645.741	-85.657	0.175	0.055
-644.726	800.000	-0.087	-0.274
-643.711	-77.921	0.249	-0.087
-642.697	-90.830	-0.112	0.032
-641.682	-200.000	0.033	-0.247
-640.668	-28.450	-0.182	-0.105
-639.653	260.792	0.194	-0.338
-638.638	90.164	0.184	-0.207
-637.624	0.160	0.126	-0.090
-636.609	-43.384	-0.086	-0.044
-635.595	11.404	-0.269	-0.207
-634.580	262.132	-0.080	-0.140
-633.565	-40.016	-0.109	0.057
-632.551	-200.000	-0.002	0.075
-631.536	311.013	0.042	-0.078
-630.522	36.701	-0.226	-0.201
-629.507	-127.887	0.154	0.022
-628.492	152.480	0.261	0.358
-627.478	87.046	-0.171	-0.191
-626.463	-74.354	-0.018	-0.006
-625.449	-84.089	0.411	0.131
-624.434	-200.000	-0.041	0.277
-623.419	-38.300	0.364	0.194
-622.405	-200.000	-0.003	0.110
-621.390	800.000	-0.030	0.111
-620.376	-46.502	0.229	0.113
-619.361	498.213	-0.012	-0.027
-618.346	-173.264	-0.217	-0.007
-617.332	-43.740	-0.070	0.036
-616.317	-28.047	-0.243	-0.141
-615.303	-82.858	0.194	-0.063
-614.288	58.553	0.026	0.026
-613.273	-153.353	0.156	-0.011
-612.259	298.894	-0.074	-0.136
-611.244	89.677	-0.070	0.079
-610.230	99.596	0.067	-0.078
-609.215	254.371	0.124	-0.214
-608.201	311.400	0.118	-0.222
-607.186	485.016	0.130	-0.298
-606.171	-111.843	0.287	0.058
-605.157	800.000	0.076	-0.222
-604.142	-88.029	0.313	-0.094
-603.128	68.928	-0.137	-0.141
-602.113	18.490	0.027	0.022
-601.098	100.079	0.155	0.180
-600.084	-102.773	0.203	-0.048
-599.069	-148.959	0.441	-0.036
-598.055	-29.930	-0.220	0.126
-597.040	800.000	0.038	0.159
-596.025	-102.458	-0.209	0.050
-595.011	-87.583	0.140	-0.042
-593.996	-200.000	-0.006	-0.273
-592.982	-74.619	-0.412	-0.149
-591.967	24.621	-0.209	0.174
-590.952	200.436	0.124	-0.191
-589.938	352.366	0.072	-0.144
-588.923	131.964	-0.160	-0.207
-587.909	-200.000	-0.003	0.018
-586.894	10.299	-0.187	-0.143
-585.879	233.299	0.039	-0.064
-584.865	-200.000	0.022	0.211
-583.850	62.330	-0.104	0.104
-582.836	9.921	0.087	0.066
-581.821	-12.555	0.127	-0.083
-580.806	748.261	-0.092	0.250
-579.792	800.000	0.044	-0.122
-578.777	88.169	-0.164	-0.182
-577.763	-33.401	-0.153	-0.085
-576.748	22.009	-0.102	-0.083
-575.733	389.924	-0.058	-0.121
-574.719	-2.820	-0.065	-0.046
-573.704	80.398	-0.211	0.228
-572.690	-200.000	-0.014	-0.198
-571.675	-1.496	-0.100	-0.071
-570.661	-200.000	-0.006	-0.531
-569.646	31.126	-0.176	0.152
-568.631	-40.491	0.055	-0.029
-567.617	499.834	-0.123	0.286
-566.602	-69.450	0.204	0.078
-565.588	-192.436	0.185	-0.002
-564.573	-51.303	-0.231	0.109
-563.558	-19.714	-0.158	-0.098
-562.544	-22.677	-0.188	0.114
-561.529	-123.770	-0.204	-0.032
-560.515	-200.000	-0.057	-0.323
-559.500	-68.817	-0.141	0.055
-558.485	-47.590	0.152	-0.074
-557.471	-200.000	0.014	0.137
-556.456	96.629	0.068	-0.078
-555.442	121.234	0.228	0.285
-554.427	-200.000	0.081	-0.379
-553.412	18.275	0.199	0.159
-552.398	-15.761	0.233	-0.149
-551.383	158.439	0.126	-0.175
-550.369	95.866	0.043	-0.049
-549.354	-191.698	0.310	-0.003
-548.339	2.680	-0.093	0.067
-547.325	424.528	-0.056	0.121
-546.310	62.425	0.116	-0.116
-545.296	91.244	-0.075	-0.084
-544.281	800.000	-0.054	-0.233
-543.266	-200.000	-0.009	0.199
-542.252	318.952	-0.044	0.085
-541.237	-200.000	-0.057	-0.450
-540.223	-47.371	-0.230	0.112
-539.208	185.304	0.127	0.189
-538.193	-200.000	-0.013	-0.265
-537.179	359.989	-0.170	-0.340
-536.164	165.112	0.197	0.279
-535.150	154.792	-0.128	0.176
-534.135	-200.000	0.010	0.100
-533.121	27.315	-0.258	-0.218
-532.106	52.891	-0.108	0.104
-531.091	213.298	-0.143	0.227
-530.077	416.867	-0.076	0.162
-529.062	-32.167	-0.153	-0.086
-528.048	-156.491	0.303	-0.019
-527.033	-200.000	-0.001	0.137
-526.018	-200.000	-0.009	-0.125
-525.004	-200.000	-0.024	0.148
-523.989	-65.689	0.077	-0.031
-522.975	11.070	0.175	0.134
-521.960	-78.405	-0.440	-0.151
-520.945	-18.421	0.296	0.185
-519.931	800.000	-0.048	-0.197
-518.916	-48.177	0.131	0.064
-517.902	19.129	-0.169	0.136
-516.887	-49.213	-0.559	-0.268
-515.872	800.000	-0.044	0.156
-514.858	107.109	-0.090	-0.107
-513.843	-200.000	0.005	-0.099
-512.829	-85.837	-0.293	-0.091
-511.814	649.065	0.069	-0.176
-510.799	32.996	-0.191	-0.166
-509.785	-1.772	-0.115	0.081
-508.770	2.810	-0.167	-0.121
-507.756	23.509	-0.140	0.115
-506.741	-58.589	0.104	0.045
-505.726	-199.847	0.428	-0.002
-504.712	-200.000	-0.032	0.197
-503.697	156.150	-0.106	0.146
-502.683	-94.482	-0.089	-0.024
-501.668	122.492	-0.040	0.050
-500.653	362.262	0.155	0.311
-499.639	678.197	-0.059	-0.154
-498.624	-135.609	-0.172	-0.020
-497.610	352.268	-0.144	0.285
-496.595	330.847	-0.066	0.127
-495.581	366.032	0.108	0.218
-494.566	765.053	-0.139	-0.377
-493.551	178.735	0.128	-0.187
-492.537	-200.000	-0.016	-0.229
-491.522	141.361	0.160	-0.212
-490.508	303.161	-0.068	0.127
-489.493	558.710	-0.115	0.278
-488.478	-67.059	-0.244	-0.096
-487.464	149.459	0.138	0.186
-486.449	-200.000	-0.016	-0.147
-485.435	162.145	-0.146	-0.205
-484.420	-124.790	-0.291	0.045
-483.405	-200.000	0.020	-0.099
-482.391	-200.000	0.002	0.218
-481.376	124.157	-0.431	0.541
-480.362	-200.000	-0.028	0.232
-479.347	800.000	0.034	-0.135
-478.332	36.963	-0.128	-0.114
-477.318	-200.000	-0.022	0.098
-476.303	-148.778	-0.244	0.020
-475.289	-151.086	0.076	-0.006
-474.274	-125.684	0.151	0.023
-473.259	34.532	-0.087	-0.076
-472.245	-55.733	-0.196	0.088
-471.230	800.000	0.148	0.422
-470.216	-185.347	0.055	-0.001
-469.201	374.980	0.119	-0.242
-468.186	-72.135	0.187	-0.069
-467.172	800.000	-0.049	-0.208
-466.157	-200.000	0.094	0.419
-465.143	124.108	0.063	0.079
-464.128	189.778	0.166	0.249
-463.113	800.000	0.035	-0.117
-462.099	83.235	-0.006	-0.006
-461.084	473.786	0.082	-0.184
-460.070	800.000	0.073	0.278
-459.055	18.573	0.098	-0.078
-458.040	152.169	-0.068	-0.093
-457.026	-200.000	-0.009	0.175
-456.011	30.142	-0.066	0.056
-454.997	129.310	-0.192	-0.246
-453.982	-200.000	-0.003	-0.328
-452.968	-155.103	-0.146	0.010
-451.953	-57.665	0.345	-0.151
-450.938	43.977	0.149	-0.136
-449.924	443.533	-0.081	-0.177
-448.909	800.000	0.054	-0.213
-447.895	-104.049	0.140	0.033
-446.880	-135.531	0.038	0.005
-445.865	800.000	-0.068	0.201
-444.851	-93.002	-0.164	-0.046
-443.836	50.244	-0.069	0.065
-442.822	86.910	-0.101	0.111
-441.807	49.834	-0.290	0.273
-440.792	800.000	0.037	0.155
-439.778	553.036	-0.139	0.333
-438.763	-97.329	-0.128	0.033
-437.749	-118.697	-0.289	-0.051
-436.734	-200.000	0.006	0.112
-435.719	-176.484	0.280	-0.007
-434.705	219.057	-0.096	-0.154
-433.690	1.784	-0.163	-0.117
-432.676	-90.104	-0.167	0.048
-431.661	-171.218	-0.184	-0.006
-430.646	-131.166	0.147	0.020
-429.632	670.521	-0.127	-0.329
-428.617	-111.130	-0.182	0.037
-427.603	29.264	0.234	0.198
-426.588	262.936	-0.114	0.197
-425.573	172.185	0.105	-0.151
-424.559	-200.000	-0.006	0.038
-423.544	24.858	0.256	0.212
-422.530	221.082	-0.175	0.280
-421.515	-139.778	0.196	-0.021
-420.500	-77.016	0.209	0.073
-419.486	16.604	0.164	0.129
-418.471	-52.395	-0.233	-0.107
-417.457	-12.348	0.267	0.174
-416.442	-76.691	0.145	0.051
-415.428	-60.218	-0.193	-0.082
-414.413	-179.219	0.271	-0.006
-413.398	-200.000	0.078	0.347
-412.384	-50.503	-0.168	-0.079
-411.369	-200.000	0.040	-0.231
-410.355	-142.955	0.420	-0.041
-409.340	-89.047	0.088	-0.026
-408.325	162.214	0.131	-0.183
-407.311	523.255	0.088	-0.205
-406.296	-165.204	-0.224	-0.010
-405.282	-101.977	-0.373	-0.090
-404.267	-200.000	0.022	0.178
-403.252	-179.427	-0.306	0.007
-402.238	-200.000	0.015	0.094
-401.223	-63.607	-0.146	0.060
-400.209	12.330	-0.057	-0.044
-399.194	-103.782	-0.275	-0.064
-398.179	-200.000	-0.090	0.443
-397.165	-200.000	0.012	0.226
-396.150	-144.743	0.385	-0.035
-395.136	508.085	0.098	-0.228
-394.121	-85.006	-0.214	-0.067
-393.106	-200.000	-0.038	-0.170
-392.092	-72.912	-0.251	-0.092
-391.077	-80.866	0.214	-0.071
-390.063	-200.000	-0.036	-0.178
-389.048	-129.042	0.137	-0.019
-388.033	-85.964	-0.379	-0.117
-387.019	375.932	0.207	0.422
-386.004	54.218	0.155	0.149
-384.990	291.787	0.082	-0.148
-383.975	-200.000	-0.031	-0.197
-382.960	-18.256	0.223	-0.139
-381.946	-54.051	-0.218	-0.099
-380.931	121.990	-0.157	0.195
-379.917	-200.000	0.049	0.389
-378.902	48.094	-0.101	-0.094
-377.888	95.117	-0.211	-0.239
-376.873	-58.933	0.183	-0.079
-375.858	-110.069	0.206	0.043
-374.844	756.449	-0.094	-0.253
-373.829	-107.001	0.058	-0.013
-372.815	-74.443	0.273	-0.098
-371.800	118.184	0.153	0.188
-370.785	-30.219	0.240	-0.136
-369.771	-200.000	0.037	-0.188
-368.756	199.885	-0.151	-0.232
-367.742	117.090	-0.123	-0.151
-366.727	-200.000	0.036	0.307
-365.712	75.853	-0.045	-0.047
-364.698	-54.558	-0.220	0.099
-363.683	264.063	0.199	0.345
-362.669	-123.281	-0.118	-0.019
-361.654	292.724	0.117	0.213
-360.639	71.981	-0.179	-0.186
-359.625	800.000	0.073	0.221
-358.610	800.000	0.094	0.263
-357.596	-177.497	-0.119	0.003
-356.581	-90.107	0.217	-0.063
-355.566	93.901	-0.379	-0.427
-354.552	76.080	0.169	0.178
-353.537	75.858	-0.255	0.269
-352.523	89.685	0.108	0.120
-351.508	-182.195	-0.179	0.003
-350.493	-177.459	-0.339	-0.008
-349.479	-200.000	0.054	0.307
-348.464	136.957	-0.052	0.068
-347.450	39.985	0.189	0.169
-346.435	-153.862	-0.195	0.013
-345.420	-16.273	0.137	-0.087
-344.406	503.310	0.067	0.155
-343.391	-130.280	0.138	-0.019
-342.377	-28.158	0.107	0.061
-341.362	105.473	0.205	0.241
-340.348	306.484	-0.175	0.324
-339.333	244.771	0.128	-0.214
-338.318	480.165	0.067	0.151
-337.304	-200.000	0.021	-0.176
-336.289	213.772	0.094	0.149
-335.275	-200.000	0.020	-0.338
-334.260	-200.000	-0.026	-0.238
-333.245	658.457	-0.103	0.263
-332.231	16.048	0.142	0.111
-331.216	-200.000	0.000	-0.199
-330.202	-28.051	0.287	-0.165
-329.187	-78.079	0.210	0.072
-328.172	-14.271	-0.144	-0.093
-327.158	-51.801	-0.372	0.172
-326.143	-200.000	0.002	0.055
-325.129	-188.312	0.042	-0.001
-324.114	-164.720	-0.226	0.010
-323.099	-32.272	0.212	0.118
-322.085	190.126	-0.134	0.201
-321.070	-135.423	-0.280	-0.033
-320.056	-18.365	0.306	-0.190
-319.041	-97.999	-0.164	-0.042
-318.026	-83.501	-0.186	-0.059
-317.012	-36.221	0.345	0.185
-315.997	-200.000	-0.019	0.262
-314.983	-46.827	-0.495	0.241
-313.968	800.000	0.068	0.219
-312.953	-5.990	0.122	0.083
-311.939	-88.055	0.350	-0.104
-310.924	-54.416	-0.131	0.059
-309.910	-48.587	-0.206	0.099
-308.895	-200.000	0.036	0.177
-307.880	521.629	0.178	0.415
-306.866	-189.642	-0.344	-0.004
-305.851	210.067	0.096	-0.149
-304.837	150.258	-0.086	-0.115
-303.822	268.806	0.104	0.181
-302.807	399.170	0.134	-0.279
-301.793	-1.013	-0.131	0.092
-300.778	-9.049	-0.101	-0.067
-299.764	-200.000	-0.053	0.235
-298.749	220.823	-0.149	0.237
-297.735	-200.000	-0.066	0.381
-296.720	-200.000	-0.056	-0.371
-295.705	138.391	0.075	-0.098
-294.691	-107.946	0.308	0.066
-293.676	800.000	-0.032	0.094
-292.662	586.951	0.039	-0.095
-291.647	33.862	-0.106	0.092
-290.632	-200.000	0.012	-0.162
-289.618	-200.000	0.019	-0.156
-288.603	-155.559	-0.096	0.006
-287.589	-112.048	0.325	0.065
-286.574	-107.179	-0.124	0.027
-285.559	-38.702	0.174	-0.091
-284.545	-179.166	0.224	0.005
-283.530	-132.865	-0.237	0.030
-282.516	-144.685	0.184	-0.017
-281.501	-127.724	-0.177	0.025
-280.486	-112.819	-0.230	-0.045
-279.472	-153.109	-0.235	0.016
-278.457	-187.687	-0.290	-0.004
-277.443	-97.124	0.096	0.025
-276.428	616.309	0.124	0.307
-275.413	-156.893	0.229	-0.014
-274.399	112.516	0.262	-0.314
-273.384	800.000	-0.068	0.209
-272.370	102.697	-0.051	0.060
-271.355	800.000	0.046	0.156
-270.340	434.532	0.096	0.207
-269.326	-158.179	0.036	0.002
-268.311	434.722	0.034	0.073
-267.297	-101.816	-0.323	-0.077
-266.282	-68.105	0.057	-0.022
-265.267	-200.000	-0.021	0.145
-264.253	-69.052	-0.214	0.082
-263.238	-87.694	0.298	-0.089
-262.224	7.005	-0.076	0.056
-261.209	-186.453	0.300	-0.004
-260.195	78.128	0.126	-0.133
-259.180	-163.636	0.374	-0.017
-258.165	152.797	0.014	0.019
-257.151	14.025	-0.253	-0.195
-256.136	324.388	-0.068	-0.129
-255.122	136.453	-0.077	-0.099
-254.107	305.256	0.165	0.303
-253.092	-95.636	0.061	-0.016
-252.078	-13.392	0.120	0.077
-251.063	273.198	0.156	0.274
-250.049	115.219	0.207	0.250
-249.034	-12.853	0.227	0.147
-248.019	-112.443	-0.231	-0.046
-247.005	16.920	0.267	-0.210
-245.990	-163.442	-0.172	0.008
-244.976	-200.000	0.086	-0.585
-243.961	0.988	0.313	-0.223
-242.946	-9.637	-0.231	-0.152
-241.932	353.374	-0.142	0.279
-240.917	-153.153	0.270	0.019
-239.903	-105.066	-0.175	0.040
-238.888	-88.218	0.311	-0.092
-237.873	98.163	-0.167	-0.191
-236.859	-200.000	0.007	-0.086
-235.844	-94.471	-0.309	0.083
-234.830	9.647	0.296	-0.222
-233.815	255.524	-0.019	0.032
-232.800	3.808	0.160	-0.116
-231.786	-164.042	-0.131	-0.006
-230.771	-81.223	0.125	0.041
-229.757	-68.337	-0.096	0.037
-228.742	137.752	0.124	-0.161
-227.727	-200.000	0.034	-0.249
-226.713	-114.224	0.147	-0.028
-225.698	125.779	-0.075	-0.094
-224.684	-74.462	-0.103	0.037
-223.669	-51.198	-0.071	-0.033
-222.655	26.853	-0.156	-0.129
-221.640	800.000	-0.045	0.135
-220.625	313.050	0.017	-0.032
-219.611	68.616	-0.065	0.066
-218.596	528.351	0.112	-0.262
-217.582	-55.899	0.171	-0.076
-216.567	-1.986	-0.167	-0.116
-215.552	-29.485	-0.161	0.091
-214.538	-200.000	-0.014	-0.224
-213.523	-24.649	0.222	0.131
-212.509	-4.394	0.163	0.112
-211.494	268.352	0.058	-0.101
-210.479	800.000	0.019	0.073
-209.465	786.041	0.031	0.084
-208.450	-30.752	-0.181	0.101
-207.436	-77.258	-0.256	-0.088
-206.421	-156.734	0.213	-0.013
-205.406	221.804	-0.187	-0.297
-204.392	-200.000	0.052	-0.257
-203.377	378.675	0.177	0.359
-202.363	-87.612	0.135	0.040
-201.348	800.000	-0.072	0.202
-200.333	-33.225	0.136	0.075
-199.319	59.335	0.232	-0.226
-198.304	-200.000	-0.010	0.074
-197.290	-156.669	-0.265	0.016
-196.275	25.901	-0.111	-0.091
-195.260	113.214	0.262	0.314
-194.246	75.647	0.074	-0.077
-193.231	-111.416	0.154	0.031
-192.217	29.122	0.024	-0.020
-191.202	290.582	-0.046	0.083
-190.187	34.464	-0.178	0.154
-189.173	392.984	-0.094	0.193
-188.158	-45.346	0.119	-0.059
-187.144	-136.017	-0.251	0.029
-186.129	-200.000	-0.026	-0.277
-185.114	-98.952	-0.055	-0.014
-184.100	-178.282	0.415	-0.010
-183.085	-80.267	-0.191	0.063
-182.071	-200.000	-0.004	0.027
-181.056	-200.000	-0.004	0.119
-180.042	36.551	-0.273	0.238
-179.027	12.041	0.195	0.148
-178.012	-107.642	-0.280	-0.061
-176.998	74.404	0.211	-0.219
-175.983	800.000	0.050	-0.153
-174.969	13.498	-0.125	0.096
-173.954	321.505	-0.249	-0.467
-172.939	-117.369	0.321	0.058
-171.925	24.096	-0.104	-0.085
-170.910	-56.273	-0.221	0.097
-169.896	217.219	0.144	-0.227
-168.881	-200.000	0.037	-0.173
-167.866	-200.000	0.022	0.152
-166.852	800.000	0.046	0.190
-165.837	-44.285	-0.153	0.076
-164.823	-200.000	-0.019	0.215
-163.808	98.447	0.145	-0.165
-162.793	48.344	0.098	0.091
-161.779	-59.632	-0.221	-0.093
-160.764	-143.362	0.261	-0.025
-159.750	-126.968	-0.114	-0.017
-158.735	579.523	0.044	0.107
-157.720	-117.356	-0.250	0.045
-156.706	-161.312	0.526	0.027
-155.691	-41.028	0.151	-0.077
-154.677	-66.523	-0.277	0.108
-153.662	-56.421	0.216	-0.095
-152.647	-27.461	0.299	-0.172
-151.633	35.114	-0.098	-0.084
-150.618	100.423	0.102	-0.117
-149.604	-3.478	0.246	-0.169
-148.589	800.000	0.052	0.191
-147.574	-145.784	-0.190	-0.017
-146.560	-17.011	0.273	0.170
-145.545	150.493	0.146	-0.196
-144.531	387.728	-0.115	-0.235
-143.516	-86.230	0.135	0.041
-142.502	22.418	-0.130	0.105
-141.487	-83.214	-0.186	0.059
-140.472	60.544	0.158	-0.154
-139.458	800.000	0.014	-0.050
-138.443	800.000	-0.045	-0.133
-137.429	-46.028	0.121	-0.059
-136.414	-136.821	-0.211	-0.024
-135.399	-13.911	0.109	-0.069
-134.385	-200.000	-0.045	-0.319
-133.370	142.917	0.282	0.370
-132.356	-22.173	-0.139	-0.083
-131.341	-74.249	0.234	-0.084
-130.326	216.198	-0.130	-0.203
-129.312	663.776	-0.108	-0.276
-128.297	-200.000	0.032	0.153
-127.283	-35.324	0.193	0.103
-126.268	800.000	0.048	0.130
-125.253	11.538	0.177	0.134
-124.239	-6.064	0.039	-0.026
-123.224	-115.175	-0.190	0.036
-122.210	241.145	-0.181	0.298
-121.195	205.472	0.107	0.164
