DTS Sentinel unit serial number:	SN413079Multiplexer serial number:	ORYXHardware model number:	OX4-SRSoftware version number:	ORYX F/W v4.00 Oryx Data Collector v3.7.2.0data status	okinstallation	princeton_trtdifferential loss correction	single-endedforward channel	channel 3reverse channel	N/Adate	2019/09/19time	07:24:35forward acquisition time	60.00reverse acquisition time	0.00gamma	496.2192k internal	0.2348k external	0.2348temperature offset calibration	0.9980default loss term (dB/km)	0.3790temperature slope calibration	1.0000multiplexer offset coefficient	1.0000multiplexer slope coefficient	1.0000fibre end	0.00T internal ref (°C)	19.19T ext. ref 1 (°C)	0.56T ext. ref 2 (°C)	13.69length (m)	temperature (°C)	Stokes	anti-Stokes-747.200	34.225	-0.049	0.043
-746.185	155.085	0.013	-0.018
-745.171	-200.000	-0.100	-0.455
-744.156	-68.408	-0.260	0.101
-743.142	782.345	-0.060	0.165
-742.127	64.905	-0.289	0.292
-741.112	88.209	0.241	-0.267
-740.098	557.706	-0.184	0.443
-739.083	103.761	-0.287	0.336
-738.069	-82.455	-0.349	-0.113
-737.054	36.840	0.082	0.072
-736.039	-151.409	-0.348	0.026
-735.025	800.000	0.039	-0.131
-734.010	800.000	0.096	0.283
-732.996	-171.666	-0.374	-0.012
-731.981	274.521	-0.034	-0.059
-730.966	4.212	0.268	-0.196
-729.952	-44.020	-0.378	-0.190
-728.937	27.986	-0.193	0.163
-727.923	412.217	-0.117	-0.249
-726.908	-200.000	0.005	-0.125
-725.894	16.829	-0.203	-0.161
-724.879	-90.515	0.229	-0.066
-723.864	-33.619	0.183	0.101
-722.850	-16.783	0.184	-0.116
-721.835	555.674	-0.071	-0.170
-720.821	82.160	0.145	-0.157
-719.806	286.696	-0.093	0.167
-718.791	-25.511	0.311	0.183
-717.777	40.072	-0.209	0.188
-716.762	-200.000	-0.230	-0.001
-715.748	154.246	0.125	-0.171
-714.733	25.654	0.058	0.049
-713.718	180.649	-0.093	-0.136
-712.704	58.802	0.066	-0.065
-711.689	-200.000	-0.056	-0.347
-710.675	-39.932	0.191	-0.099
-709.660	11.199	0.035	-0.027
-708.645	49.946	-0.089	-0.084
-707.631	207.102	0.069	-0.107
-706.616	-200.000	-0.034	0.167
-705.602	-200.000	0.002	-0.021
-704.587	-136.219	0.101	0.012
-703.572	404.288	-0.077	0.162
-702.558	47.398	0.005	0.005
-701.543	-75.313	-0.207	-0.073
-700.529	35.954	-0.101	0.089
-699.514	-19.695	0.050	0.031
-698.499	-105.103	-0.131	0.030
-697.485	-20.998	0.203	-0.124
-696.470	-200.000	-0.011	0.088
-695.456	-55.988	-0.371	-0.165
-694.441	-200.000	-0.036	-0.270
-693.426	-87.546	0.404	0.122
-692.412	43.667	-0.414	-0.378
-691.397	284.264	-0.079	-0.141
-690.383	-100.497	-0.194	0.048
-689.368	-200.000	-0.023	0.146
-688.354	52.664	-0.089	0.084
-687.339	124.794	-0.134	0.168
-686.324	-94.235	0.036	-0.010
-685.310	20.272	-0.400	0.322
-684.295	163.741	-0.112	-0.158
-683.281	-63.753	0.247	-0.101
-682.266	-117.498	0.155	0.028
-681.251	-118.742	-0.055	-0.010
-680.237	109.690	0.036	0.043
-679.222	610.225	-0.192	-0.477
-678.208	-200.000	0.012	-0.286
-677.193	-137.791	-0.336	0.038
-676.178	-4.020	0.121	0.083
-675.164	-200.000	0.017	0.191
-674.149	-93.271	-0.248	0.069
-673.135	467.361	0.057	-0.127
-672.120	-46.235	0.245	-0.120
-671.105	-200.000	0.010	-0.478
-670.091	1.608	0.174	-0.125
-669.076	-123.733	-0.571	0.090
-668.062	-127.880	-0.348	-0.050
-667.047	98.425	0.212	0.243
-666.032	52.701	0.292	-0.277
-665.018	-35.442	0.199	0.108
-664.003	140.586	0.245	-0.322
-662.989	71.921	-0.131	-0.136
-661.974	-157.793	0.171	0.010
-660.959	-200.000	-0.038	-0.278
-659.945	-200.000	-0.004	-0.102
-658.930	800.000	0.062	0.239
-657.916	-200.000	-0.015	-0.102
-656.901	83.648	0.182	0.198
-655.886	565.092	-0.106	-0.255
-654.872	800.000	-0.125	-0.450
-653.857	107.180	-0.093	0.110
-652.843	208.384	0.105	-0.163
-651.828	152.856	0.080	0.109
-650.814	265.104	0.097	0.169
-649.799	-24.909	-0.454	0.268
-648.784	551.437	0.082	0.195
-647.770	-200.000	-0.029	-0.366
-646.755	800.000	0.059	-0.181
-645.741	-200.000	0.020	0.362
-644.726	161.751	0.143	0.199
-643.711	34.578	0.233	0.202
-642.697	603.830	-0.131	-0.325
-641.682	-32.733	-0.291	-0.161
-640.668	-109.277	-0.117	0.025
-639.653	120.233	-0.170	0.210
-638.638	313.883	0.128	-0.240
-637.624	-139.309	-0.178	-0.019
-636.609	-200.000	-0.009	0.190
-635.595	-73.999	-0.161	-0.058
-634.580	284.567	0.056	-0.101
-633.565	800.000	0.046	-0.126
-632.551	800.000	-0.015	0.053
-631.536	139.935	-0.202	-0.264
-630.522	393.274	0.271	-0.561
-629.507	-200.000	0.038	0.254
-628.492	9.747	-0.311	-0.235
-627.478	121.376	0.240	0.297
-626.463	49.980	-0.135	0.127
-625.449	800.000	-0.086	-0.239
-624.434	13.441	0.050	-0.038
-623.419	-200.000	-0.033	-0.382
-622.405	-200.000	0.134	0.001
-621.390	13.158	-0.338	-0.261
-620.376	-12.338	-0.397	0.258
-619.361	79.368	-0.190	0.203
-618.346	-200.000	-0.000	-0.049
-617.332	788.230	0.083	0.227
-616.317	484.732	0.084	0.191
-615.303	18.309	-0.107	-0.085
-614.288	-122.416	-0.210	-0.034
-613.273	-10.952	0.092	-0.060
-612.259	115.466	-0.149	0.181
-611.244	76.566	0.288	-0.304
-610.230	-200.000	0.002	-0.236
-609.215	-71.935	-0.252	0.093
-608.201	-180.637	0.117	-0.002
-607.186	-148.059	-0.160	-0.013
-606.171	89.380	-0.036	0.039
-605.157	-23.453	-0.047	0.028
-604.142	31.748	-0.111	0.095
-603.128	-1.099	-0.167	-0.117
-602.113	-200.000	0.035	0.354
-601.098	109.748	0.046	-0.055
-600.084	-200.000	0.007	-0.126
-599.069	-52.817	-0.178	0.082
-598.055	-58.975	0.151	-0.065
-597.040	-21.377	-0.284	-0.172
-596.025	105.350	-0.249	0.292
-595.011	-23.817	-0.178	0.106
-593.996	800.000	0.045	-0.169
-592.982	46.270	0.119	-0.109
-591.967	179.954	0.057	0.084
-590.952	-40.609	-0.455	-0.234
-589.938	123.266	0.087	0.108
-588.923	335.378	-0.017	0.034
-587.909	-87.909	0.161	-0.048
-586.894	-200.000	0.042	0.435
-585.879	20.268	0.095	-0.076
-584.865	100.506	-0.266	-0.306
-583.850	27.310	0.174	0.145
-582.836	800.000	-0.140	0.445
-581.821	-67.340	-0.294	-0.115
-580.806	-79.435	-0.221	0.074
-579.792	-86.189	-0.109	-0.033
-578.777	-99.095	-0.206	-0.052
-577.763	-61.899	-0.069	0.029
-576.748	800.000	0.122	0.426
-575.733	170.293	-0.112	0.158
-574.719	800.000	-0.110	-0.348
-573.704	-164.882	0.414	-0.018
-572.690	-153.922	0.399	-0.027
-571.675	-150.681	0.183	0.014
-570.661	-69.483	0.105	-0.040
-569.646	-61.404	0.158	0.066
-568.631	-112.352	-0.183	-0.036
-567.617	191.831	0.103	-0.155
-566.602	227.290	0.201	-0.325
-565.588	358.670	0.162	-0.321
-564.573	-60.922	0.082	-0.034
-563.558	-200.000	-0.040	-0.300
-562.544	-200.000	-0.222	-0.000
-561.529	-200.000	0.037	0.333
-560.515	-35.292	-0.072	0.039
-559.500	800.000	0.089	-0.344
-558.485	-56.467	-0.254	0.112
-557.471	-75.213	-0.111	0.039
-556.456	240.765	0.095	0.157
-555.442	346.873	-0.026	-0.051
-554.427	-1.192	-0.080	0.056
-553.412	340.199	-0.117	0.227
-552.398	-16.722	0.070	0.044
-551.383	-176.121	-0.415	-0.011
-550.369	55.631	0.092	-0.089
-549.354	-200.000	-0.040	-0.340
-548.339	-171.985	-0.060	0.002
-547.325	-200.000	0.028	-0.187
-546.310	-200.000	0.001	0.192
-545.296	441.407	-0.116	-0.253
-544.281	106.146	0.221	-0.260
-543.266	615.952	0.036	0.089
-542.252	-200.000	0.012	0.068
-541.237	314.382	-0.097	-0.181
-540.223	64.581	0.117	0.117
-539.208	-18.513	-0.236	-0.146
-538.193	331.501	-0.157	0.300
-537.179	105.702	-0.249	0.291
-536.164	67.736	0.191	0.193
-535.150	170.507	0.043	-0.061
-534.135	-200.000	-0.109	-0.650
-533.121	-150.407	0.214	-0.016
-532.106	131.918	-0.105	-0.135
-531.091	-135.297	-0.211	-0.025
-530.077	153.460	0.276	-0.374
-529.062	-200.000	0.030	0.468
-528.048	-200.000	0.000	0.362
-527.033	63.707	-0.065	0.065
-526.018	64.806	-0.180	0.180
-525.004	269.414	-0.223	0.387
-523.989	87.305	-0.094	0.103
-522.975	-31.621	0.183	-0.102
-521.960	168.513	-0.209	0.294
-520.945	196.331	-0.141	-0.213
-519.931	149.211	0.140	0.188
-518.916	-151.430	-0.063	-0.005
-517.902	129.154	0.157	-0.199
-516.887	800.000	0.053	-0.157
-515.872	489.720	-0.168	-0.381
-514.858	-198.632	-0.053	-0.000
-513.843	-200.000	-0.004	0.065
-512.829	27.681	0.011	-0.009
-511.814	-200.000	0.020	-0.153
-510.799	-200.000	-0.000	-0.098
-509.785	-44.658	-0.219	-0.108
-508.770	159.395	-0.153	-0.211
-507.756	-104.153	0.366	0.084
-506.741	-86.477	0.173	0.053
-505.726	100.083	0.190	0.218
-504.712	-60.040	-0.379	0.160
-503.697	-94.016	-0.174	0.047
-502.683	-82.167	0.346	-0.112
-501.668	-200.000	-0.014	0.088
-500.653	-200.000	0.013	0.090
-499.639	-200.000	0.059	0.266
-498.624	-200.000	0.032	-0.231
-497.610	-2.904	0.381	-0.263
-496.595	58.447	-0.174	0.169
-495.581	-200.000	-0.069	0.361
-494.566	-200.000	0.037	0.191
-493.551	-79.616	-0.173	-0.058
-492.537	197.984	-0.108	-0.163
-491.522	-11.004	0.055	0.036
-490.508	-30.314	-0.156	0.088
-489.493	249.997	-0.144	0.242
-488.478	94.478	0.234	-0.263
-487.464	13.482	-0.189	-0.145
-486.449	-64.953	-0.155	0.062
-485.435	106.561	0.187	0.220
-484.420	24.147	-0.071	-0.058
-483.405	-200.000	-0.011	0.264
-482.391	13.181	-0.244	-0.187
-481.376	-62.603	0.310	0.127
-480.362	601.992	0.075	-0.185
-479.347	49.125	-0.110	0.102
-478.332	494.952	0.255	0.578
-477.318	138.763	-0.155	0.202
-476.303	-200.000	-0.014	0.067
-475.289	483.238	-0.111	0.249
-474.274	-193.997	0.127	0.001
-473.259	691.360	0.139	0.361
-472.245	-167.468	-0.184	-0.007
-471.230	86.618	-0.100	0.109
-470.216	-123.880	0.269	0.042
-469.201	740.119	-0.075	-0.198
-468.186	-109.787	0.260	0.054
-467.172	-200.000	-0.007	-0.234
-466.157	-9.909	0.030	-0.020
-465.143	-200.000	0.002	0.337
-464.128	-53.751	0.259	0.117
-463.113	800.000	-0.062	0.237
-462.099	-65.589	0.196	-0.078
-461.084	639.794	0.116	-0.292
-460.070	72.704	0.221	-0.227
-459.055	-200.000	-0.031	-0.228
-458.040	-89.833	0.220	0.064
-457.026	800.000	0.021	0.059
-456.011	-200.000	-0.020	0.238
-454.997	6.483	0.168	-0.124
-453.982	221.392	0.098	0.155
-452.968	800.000	-0.086	-0.298
-451.953	93.843	0.213	-0.238
-450.938	306.293	0.050	-0.091
-449.924	-107.972	-0.130	-0.028
-448.909	104.965	0.235	0.274
-447.895	-60.814	-0.206	0.086
-446.880	175.964	0.107	-0.153
-445.865	-19.580	-0.305	-0.186
-444.851	-181.578	-0.186	0.004
-443.836	-20.010	-0.248	-0.151
-442.822	800.000	-0.008	-0.028
-441.807	-193.953	-0.307	-0.003
-440.792	-200.000	-0.002	0.035
-439.778	7.374	0.196	-0.145
-438.763	-200.000	0.018	-0.102
-437.749	-70.527	-0.146	0.054
-436.734	387.000	0.063	0.128
-435.719	-200.000	0.015	0.166
-434.705	75.218	0.060	-0.062
-433.690	27.049	-0.038	-0.032
-432.676	-148.520	-0.190	-0.015
-431.661	62.563	0.063	0.062
-430.646	146.110	0.135	0.179
-429.632	412.368	0.162	-0.340
-428.617	21.614	0.111	-0.089
-427.603	-122.387	-0.329	-0.053
-426.588	132.438	-0.116	-0.148
-425.573	217.139	0.261	0.410
-424.559	171.091	0.150	-0.212
-423.544	629.827	-0.049	-0.122
-422.530	-200.000	0.120	-0.000
-421.515	580.350	0.155	0.376
-420.500	800.000	0.043	-0.156
-419.486	-200.000	-0.003	0.032
-418.471	-200.000	-0.030	-0.153
-417.457	-142.920	0.334	-0.032
-416.442	-200.000	0.030	0.280
-415.428	20.149	-0.058	-0.046
-414.413	28.751	-0.090	-0.075
-413.398	-124.542	0.251	0.038
-412.384	-35.756	0.124	0.066
-411.369	-200.000	0.039	-0.252
-410.355	-117.295	-0.218	0.039
-409.340	-200.000	0.062	0.539
-408.325	-41.382	0.099	-0.050
-407.311	-72.381	-0.301	-0.110
-406.296	-200.000	0.002	0.138
-405.282	-55.881	-0.100	0.044
-404.267	21.493	0.109	-0.087
-403.252	-200.000	0.022	0.237
-402.238	47.394	-0.134	0.123
-401.223	-122.996	0.137	0.022
-400.209	90.689	0.225	-0.249
-399.194	800.000	0.015	-0.050
-398.179	-122.851	0.105	0.017
-397.165	143.914	-0.108	0.141
-396.150	429.565	0.081	-0.173
-395.136	160.214	0.182	-0.250
-394.121	-200.000	0.006	0.083
-393.106	-98.470	0.199	-0.050
-392.092	401.569	-0.086	-0.178
-391.077	800.000	-0.014	0.045
-390.063	101.362	0.113	0.130
-389.048	800.000	0.017	0.051
-388.033	10.880	-0.181	-0.136
-387.019	-200.000	0.239	-0.001
-386.004	800.000	-0.048	-0.164
-384.990	-127.537	0.303	0.043
-383.975	10.305	-0.123	-0.092
-382.960	-92.012	-0.245	-0.068
-381.946	-80.020	0.311	0.103
-380.931	-200.000	-0.023	-0.156
-379.917	62.593	-0.118	0.116
-378.902	390.002	0.062	-0.126
-377.888	-151.659	0.110	0.008
-376.873	800.000	0.031	0.133
-375.858	-88.985	0.290	-0.085
-374.844	206.177	-0.166	0.254
-373.829	-28.987	-0.197	0.111
-372.815	-68.989	-0.218	-0.083
-371.800	94.173	-0.120	-0.134
-370.785	-96.686	-0.184	0.048
-369.771	-95.239	0.152	-0.040
-368.756	615.506	-0.079	-0.195
-367.742	-111.484	0.108	-0.022
-366.727	31.391	-0.275	-0.233
-365.712	95.824	-0.079	0.088
-364.698	133.735	0.180	-0.229
-363.683	-29.144	-0.077	0.043
-362.669	-11.634	0.061	-0.039
-361.654	84.790	-0.195	0.210
-360.639	359.676	0.117	-0.229
-359.625	29.103	0.175	0.146
-358.610	-125.152	-0.047	-0.007
-357.596	445.896	0.130	0.280
-356.581	-56.341	-0.309	-0.135
-355.566	-200.000	0.005	-0.213
-354.552	-108.670	-0.193	0.041
-353.537	58.463	-0.238	-0.230
-352.523	539.581	-0.079	-0.186
-351.508	29.144	-0.350	0.292
-350.493	-200.000	0.022	0.339
-349.479	-54.990	0.153	-0.068
-348.464	-84.761	0.273	0.084
-347.450	77.450	0.135	-0.141
-346.435	-0.697	0.147	-0.103
-345.420	185.946	0.110	0.161
-344.406	-106.707	-0.126	0.027
-343.391	682.813	-0.053	-0.136
-342.377	-200.000	-0.010	-0.183
-341.362	-200.000	0.008	0.069
-340.348	-31.675	0.185	0.102
-339.333	-200.000	0.006	-0.177
-338.318	47.415	-0.144	-0.132
-337.304	175.347	-0.125	0.178
-336.289	-196.900	0.162	-0.001
-335.275	-200.000	0.048	-0.372
-334.260	160.744	-0.062	0.085
-333.245	-64.490	-0.206	-0.082
-332.231	59.075	-0.183	-0.177
-331.216	-200.000	-0.014	0.067
-330.202	800.000	0.029	0.110
-329.187	73.626	0.097	0.100
-328.172	225.180	-0.087	0.138
-327.158	118.283	-0.011	-0.013
-326.143	-128.453	-0.091	-0.013
-325.129	800.000	-0.044	0.184
-324.114	360.832	-0.154	0.303
-323.099	-49.009	0.153	0.072
-322.085	-124.524	-0.273	-0.042
-321.070	-13.103	-0.239	0.153
-320.056	800.000	0.031	0.131
-319.041	-200.000	-0.051	0.388
-318.026	-200.000	0.009	0.236
-317.012	52.039	-0.036	0.033
-315.997	-130.984	0.107	0.014
-314.983	-20.239	0.128	-0.077
-313.968	30.379	0.120	0.101
-312.953	-63.670	-0.292	-0.118
-311.939	-76.834	-0.076	-0.026
-310.924	44.849	-0.078	-0.071
-309.910	-79.181	-0.293	-0.098
-308.895	-200.000	0.186	0.000
-307.880	-0.316	-0.133	0.093
-306.866	800.000	0.026	-0.103
-305.851	-200.000	-0.002	-0.487
-304.837	240.791	0.056	-0.092
-303.822	-35.579	-0.194	-0.103
-302.807	800.000	0.069	0.225
-301.793	-91.488	0.048	0.014
-300.778	-200.000	-0.011	0.057
-299.764	121.203	-0.163	-0.199
-298.749	-200.000	-0.027	0.120
-297.735	43.366	-0.143	0.128
-296.720	-200.000	0.090	0.407
-295.705	-161.855	0.072	0.004
-294.691	-140.846	0.305	0.031
-293.676	13.408	0.183	-0.140
-292.662	601.652	-0.063	0.154
-291.647	526.207	0.121	-0.279
-290.632	-83.753	0.104	-0.033
-289.618	-45.101	0.454	-0.222
-288.603	-18.565	0.147	-0.090
-287.589	342.258	-0.131	-0.251
-286.574	-22.327	0.406	-0.241
-285.559	-64.855	0.096	-0.038
-284.545	-79.743	0.046	-0.015
-283.530	-200.000	-0.022	0.241
-282.516	95.344	0.082	-0.092
-281.501	800.000	0.021	0.072
-280.486	74.191	0.032	0.033
-279.472	-102.765	0.294	-0.069
-278.457	-113.083	-0.231	-0.045
-277.443	-117.190	0.206	-0.037
-276.428	105.492	0.110	-0.127
-275.413	-126.832	-0.276	0.040
-274.399	-19.105	-0.156	-0.095
-273.384	-200.000	0.009	0.178
-272.370	8.768	-0.274	0.202
-271.355	-3.401	0.201	-0.137
-270.340	103.006	0.082	0.094
-269.326	142.983	0.036	0.047
-268.311	-200.000	0.006	-0.043
-267.297	32.713	0.055	0.046
-266.282	-200.000	0.012	0.445
-265.267	425.807	0.102	0.216
-264.253	59.088	0.180	-0.173
-263.238	39.163	0.236	0.207
-262.224	330.119	0.042	-0.080
-261.209	589.951	-0.081	0.196
-260.195	135.662	0.181	-0.231
-259.180	25.701	0.060	-0.049
-258.165	-118.899	0.304	-0.052
-257.151	-14.788	-0.216	0.136
-256.136	-85.409	0.252	-0.077
-255.122	64.886	0.096	-0.095
-254.107	-125.304	-0.199	-0.030
-253.092	396.860	0.238	0.488
-252.078	-200.000	0.042	-0.241
-251.063	143.947	0.145	0.190
-250.049	148.873	0.120	0.159
-249.034	-112.983	0.109	-0.021
-248.019	-54.887	0.029	0.013
-247.005	197.005	-0.060	0.090
-245.990	-200.000	0.032	0.207
-244.976	53.320	0.034	-0.031
-243.961	-39.046	-0.084	-0.043
-242.946	-99.095	-0.158	-0.039
-241.932	800.000	0.031	-0.094
-240.917	-137.942	0.148	0.016
-239.903	-35.683	0.202	-0.107
-238.888	-200.000	0.088	-0.544
-237.873	397.472	0.124	-0.253
-236.859	-64.125	-0.103	-0.041
-235.844	248.729	0.088	0.146
-234.830	-200.000	-0.001	-0.175
-233.815	-200.000	-0.039	-0.292
-232.800	79.511	0.127	0.133
-231.786	-200.000	0.084	0.536
-230.771	32.873	0.168	-0.142
-229.757	-200.000	0.012	0.186
-228.742	9.599	0.224	0.166
-227.727	622.467	-0.085	-0.210
-226.713	-35.414	0.095	0.051
-225.698	800.000	-0.096	0.329
-224.684	-3.252	-0.170	-0.116
-223.669	800.000	-0.125	-0.455
-222.655	-89.701	-0.237	0.068
-221.640	-171.284	-0.212	-0.007
-220.625	800.000	-0.067	0.199
-219.611	152.219	-0.029	-0.038
-218.596	63.566	0.251	-0.247
-217.582	-96.599	0.140	-0.036
-216.567	562.241	0.170	-0.402
-215.552	-147.263	0.341	0.028
-214.538	-50.444	-0.254	0.117
-213.523	62.252	0.219	0.214
-212.509	48.542	0.094	0.086
-211.494	-126.523	0.214	-0.031
-210.479	-48.031	0.175	-0.083
-209.465	-41.322	-0.279	0.141
-208.450	99.984	0.145	0.165
-207.436	-115.180	0.108	0.020
-206.421	-200.000	0.007	-0.338
-205.406	-200.000	-0.065	-0.286
-204.392	20.240	-0.347	0.274
-203.377	37.142	-0.266	-0.231
-202.363	-31.513	-0.137	-0.075
-201.348	-81.873	0.032	-0.010
-200.333	-200.000	0.058	0.262
-199.319	-133.908	-0.106	-0.013
-198.304	-106.898	0.379	0.082
-197.290	-117.130	0.120	0.021
-196.275	148.399	0.089	0.117
-195.260	-9.882	0.140	-0.091
-194.246	-136.419	0.377	-0.043
-193.231	-200.000	-0.037	-0.258
-192.217	-156.994	-0.127	-0.008
-191.202	4.423	0.048	-0.034
-190.187	92.968	0.182	0.201
-189.173	-1.865	-0.169	-0.117
-188.158	13.261	0.093	-0.070
-187.144	358.047	-0.009	0.017
-186.129	106.684	-0.175	0.203
-185.114	33.171	0.124	-0.105
-184.100	-94.347	-0.266	0.071
-183.085	-4.623	0.145	-0.098
-182.071	368.189	0.094	-0.186
-181.056	693.163	-0.033	0.085
-180.042	-200.000	0.038	0.183
-179.027	-18.672	0.087	-0.053
-178.012	-200.000	0.007	0.302
-176.998	-181.101	0.236	-0.005
-175.983	-182.906	-0.110	-0.002
-174.969	77.372	-0.248	-0.257
-173.954	-65.832	-0.138	-0.054
-172.939	605.648	-0.103	-0.252
-171.925	119.898	0.122	0.148
-170.910	-200.000	0.003	0.091
-169.896	225.746	0.173	-0.274
-168.881	63.066	0.134	-0.132
-167.866	800.000	-0.055	0.165
-166.852	36.557	0.276	0.238
-165.837	165.591	-0.148	-0.205
-164.823	44.109	0.170	0.152
-163.808	29.475	-0.042	0.035
-162.793	800.000	-0.081	-0.255
-161.779	-160.116	-0.341	-0.018
-160.764	-200.000	0.021	-0.339
-159.750	66.492	-0.105	-0.105
-158.735	-100.898	0.080	0.019
-157.720	-100.044	-0.142	0.035
-156.706	544.658	0.122	0.285
-155.691	-102.262	-0.242	0.057
-154.677	-0.294	-0.278	-0.193
-153.662	800.000	-0.080	0.239
-152.647	201.919	-0.100	0.150
-151.633	10.509	-0.206	0.154
-150.618	-200.000	0.083	-0.373
-149.604	420.281	0.143	-0.298
-148.589	16.958	0.237	-0.183
-147.574	1.023	0.290	0.203
-146.560	51.071	-0.182	0.169
-145.545	800.000	0.045	0.160
-144.531	-101.975	-0.214	-0.050
-143.516	-200.000	0.028	0.135
-142.502	69.106	-0.265	-0.266
-141.487	-2.338	0.409	-0.280
-140.472	-53.730	0.172	0.077
-139.458	144.904	-0.189	0.247
-138.443	24.424	0.025	0.020
-137.429	137.260	-0.134	-0.171
-136.414	512.587	-0.031	0.071
-135.399	-200.000	-0.021	0.323
-134.385	-81.578	0.100	-0.032
-133.370	-200.000	0.002	-0.116
-132.356	40.100	0.124	-0.108
-131.341	800.000	-0.044	-0.179
-130.326	-68.884	-0.304	0.115
-129.312	-200.000	-0.001	0.199
-128.297	-159.570	0.365	0.020
-127.283	163.824	0.200	-0.274
-126.268	-200.000	0.012	0.145
-125.253	-63.748	-0.227	-0.091
-124.239	-85.504	-0.132	-0.040
-123.224	-68.984	0.147	0.055
-122.210	185.122	-0.111	0.160
-121.195	116.581	-0.118	0.141
-120.180	7.945	-0.120	0.088
