DTS Sentinel unit serial number:	SN413079Multiplexer serial number:	ORYXHardware model number:	OX4-SRSoftware version number:	ORYX F/W v4.00 Oryx Data Collector v3.7.2.0data status	okinstallation	princeton_trtdifferential loss correction	single-endedforward channel	channel 3reverse channel	N/Adate	2019/09/15time	23:52:35forward acquisition time	60.00reverse acquisition time	0.00gamma	496.2192k internal	0.2336k external	0.2336temperature offset calibration	0.9949default loss term (dB/km)	0.3790temperature slope calibration	1.0000multiplexer offset coefficient	1.0000multiplexer slope coefficient	1.0000fibre end	0.00T internal ref (°C)	27.94T ext. ref 1 (°C)	9.32T ext. ref 2 (°C)	21.79length (m)	temperature (°C)	Stokes	anti-Stokes-747.200	800.000	-0.028	0.079
-746.185	-96.014	-0.412	-0.110
-745.171	14.065	0.122	0.096
-744.156	-0.013	-0.367	-0.263
-743.142	-200.000	0.001	0.152
-742.127	800.000	0.088	0.274
-741.112	-200.000	0.019	0.224
-740.098	425.051	0.139	0.301
-739.083	800.000	-0.078	0.300
-738.069	-200.000	-0.026	0.128
-737.054	76.967	0.128	-0.137
-736.039	-200.000	-0.026	-0.127
-735.025	-102.728	0.334	0.080
-734.010	-200.000	0.012	0.060
-732.996	75.837	-0.167	-0.177
-731.981	800.000	-0.096	0.278
-730.966	-85.620	0.170	-0.053
-729.952	241.685	-0.136	-0.228
-728.937	447.549	-0.042	0.092
-727.923	-123.417	-0.060	0.010
-726.908	-96.506	0.194	-0.052
-725.894	-57.101	-0.288	-0.127
-724.879	84.623	-0.244	0.268
-723.864	392.712	0.097	0.202
-722.850	-200.000	0.049	0.350
-721.835	427.917	0.065	0.140
-720.821	336.213	0.078	0.152
-719.806	196.846	-0.167	-0.255
-718.791	223.888	-0.050	-0.082
-717.777	37.727	-0.312	-0.278
-716.762	0.107	-0.018	0.013
-715.748	-200.000	0.017	-0.142
-714.733	-78.266	-0.035	-0.012
-713.718	204.407	-0.214	-0.333
-712.704	137.139	-0.150	0.197
-711.689	-200.000	-0.008	0.203
-710.675	420.250	-0.160	0.343
-709.660	-42.434	-0.317	-0.162
-708.645	122.740	0.169	-0.212
-707.631	195.565	-0.101	-0.154
-706.616	89.763	0.141	0.157
-705.602	274.047	0.180	0.319
-704.587	-21.466	0.110	0.067
-703.572	-95.520	-0.196	0.053
-702.558	-200.000	0.013	-0.158
-701.543	-200.000	-0.126	0.575
-700.529	-111.718	-0.289	0.059
-699.514	-128.171	-0.274	-0.039
-698.499	39.405	0.096	0.086
-697.485	-73.263	-0.081	0.030
-696.470	168.859	0.131	-0.188
-695.456	138.491	-0.134	-0.176
-694.441	39.562	-0.059	-0.053
-693.426	-84.749	0.110	-0.035
-692.412	334.027	0.192	-0.373
-691.397	-21.275	-0.101	0.062
-690.383	102.179	0.132	-0.154
-689.368	-200.000	-0.007	-0.339
-688.354	800.000	-0.113	-0.405
-687.339	17.339	-0.262	-0.209
-686.324	-49.440	-0.111	0.053
-685.310	-86.603	-0.198	0.061
-684.295	800.000	0.062	0.197
-683.281	-80.669	0.163	-0.054
-682.266	-136.613	-0.101	0.012
-681.251	-200.000	-0.162	0.001
-680.237	-11.421	-0.259	-0.171
-679.222	-200.000	0.017	0.084
-678.208	447.545	0.118	-0.260
-677.193	-200.000	0.021	0.217
-676.178	-12.839	-0.301	0.197
-675.164	-200.000	0.019	-0.134
-674.149	-143.119	-0.112	0.011
-673.135	-96.979	-0.170	0.045
-672.120	-113.682	-0.128	-0.025
-671.105	524.908	-0.106	-0.250
-670.091	-45.931	-0.463	-0.229
-669.076	-200.000	-0.008	-0.089
-668.062	-200.000	0.028	0.285
-667.047	-26.619	-0.176	-0.103
-666.032	-25.791	0.237	-0.140
-665.018	-200.000	-0.010	0.235
-664.003	-200.000	-0.047	0.242
-662.989	89.030	-0.125	-0.140
-661.974	254.563	-0.256	-0.439
-660.959	112.992	0.250	-0.303
-659.945	22.379	-0.048	-0.039
-658.930	-117.214	-0.201	0.037
-657.916	180.967	0.082	0.120
-656.901	-115.396	0.165	0.031
-655.886	-135.668	0.225	-0.027
-654.872	2.428	-0.236	-0.171
-653.857	-53.619	0.482	-0.220
-652.843	800.000	-0.035	-0.113
-651.828	17.323	-0.168	0.133
-650.814	800.000	-0.122	0.354
-649.799	87.828	-0.120	-0.133
-648.784	107.076	0.113	-0.134
-647.770	-12.012	-0.028	-0.018
-646.755	11.440	-0.248	0.190
-645.741	-14.372	-0.172	-0.111
-644.726	84.814	0.191	-0.210
-643.711	800.000	-0.056	0.176
-642.697	155.414	-0.074	0.102
-641.682	380.308	-0.165	-0.339
-640.668	58.780	-0.091	0.089
-639.653	238.294	-0.069	0.115
-638.638	-83.875	0.244	-0.078
-637.624	-171.362	0.031	-0.001
-636.609	254.223	0.094	0.161
-635.595	-94.719	0.274	-0.075
-634.580	28.694	-0.144	-0.122
-633.565	94.194	-0.075	-0.085
-632.551	87.629	-0.048	-0.053
-631.536	189.764	0.173	0.259
-630.522	83.237	0.175	0.190
-629.507	800.000	-0.083	-0.333
-628.492	800.000	-0.055	0.207
-627.478	9.685	0.199	-0.151
-626.463	-104.387	0.166	-0.038
-625.449	-115.203	-0.218	-0.041
-624.434	-66.850	-0.445	-0.176
-623.419	-30.156	-0.137	-0.078
-622.405	218.181	0.127	0.203
-621.390	14.079	0.180	-0.140
-620.376	800.000	0.088	0.276
-619.361	-62.592	-0.145	0.060
-618.346	16.601	-0.181	0.143
-617.332	34.981	0.129	0.113
-616.317	31.317	-0.305	0.261
-615.303	-90.249	0.149	0.043
-614.288	-76.817	-0.088	-0.031
-613.273	349.120	-0.071	-0.140
-612.259	-159.889	0.048	0.003
-611.244	104.896	0.097	-0.114
-610.230	800.000	-0.096	-0.284
-609.215	-200.000	-0.036	-0.215
-608.201	-200.000	-0.018	0.090
-607.186	79.738	0.260	0.279
-606.171	-83.975	-0.318	-0.101
-605.157	410.373	0.082	0.175
-604.142	638.783	-0.069	0.175
-603.128	58.781	-0.026	0.025
-602.113	56.715	-0.152	0.148
-601.098	158.309	-0.103	0.142
-600.084	-75.803	-0.048	0.017
-599.069	244.136	0.071	-0.119
-598.055	800.000	-0.068	-0.242
-597.040	-200.000	-0.015	0.141
-596.025	-50.543	-0.185	0.087
-595.011	-122.299	0.250	-0.041
-593.996	-141.239	-0.171	-0.017
-592.982	-200.000	0.030	-0.176
-591.967	-46.953	-0.125	0.061
-590.952	62.559	-0.136	0.136
-589.938	-77.974	0.353	-0.121
-588.923	11.056	0.121	-0.093
-587.909	-135.055	-0.113	0.014
-586.894	-39.205	-0.207	-0.108
-585.879	-90.426	0.041	-0.012
-584.865	310.030	-0.006	-0.011
-583.850	-68.275	-0.150	0.058
-582.836	134.254	0.066	0.086
-581.821	272.097	-0.222	-0.391
-580.806	-29.801	0.130	-0.074
-579.792	-31.297	-0.376	0.211
-578.777	134.772	-0.110	0.143
-577.763	339.434	-0.090	-0.175
-576.748	-46.077	0.323	-0.159
-575.733	-178.612	-0.089	0.002
-574.719	800.000	-0.054	-0.171
-573.704	-47.113	-0.104	0.050
-572.690	329.654	0.104	-0.199
-571.675	800.000	-0.081	0.332
-570.661	-41.864	0.365	0.187
-569.646	1.234	-0.063	0.045
-568.631	-200.000	-0.010	0.265
-567.617	-200.000	0.010	-0.052
-566.602	-200.000	0.008	-0.074
-565.588	152.242	0.091	0.124
-564.573	266.892	-0.245	-0.427
-563.558	-185.690	-0.387	-0.006
-562.544	166.580	0.174	-0.247
-561.529	-115.352	0.314	0.059
-560.515	220.140	0.130	-0.207
-559.500	-26.182	0.215	-0.126
-558.485	587.002	0.118	0.290
-557.471	-149.290	0.073	-0.006
-556.456	72.626	0.120	-0.124
-555.442	42.165	0.275	-0.249
-554.427	-90.848	-0.106	0.031
-553.412	800.000	0.038	0.153
-552.398	-145.723	0.037	0.003
-551.383	-141.600	0.248	0.025
-550.369	12.736	0.108	0.083
-549.354	-66.588	0.444	0.176
-548.339	-200.000	0.004	-0.195
-547.325	371.120	-0.218	-0.442
-546.310	-200.000	-0.037	0.220
-545.296	800.000	0.067	-0.214
-544.281	-200.000	-0.003	0.103
-543.266	-200.000	-0.002	0.199
-542.252	184.664	0.149	0.220
-541.237	-57.993	-0.187	-0.081
-540.223	-29.923	-0.209	-0.118
-539.208	15.650	0.176	0.138
-538.193	346.351	-0.078	0.153
-537.179	1.467	-0.191	0.137
-536.164	64.402	0.266	-0.267
-535.150	208.251	0.045	0.071
-534.135	64.950	-0.125	-0.125
-533.121	800.000	-0.028	-0.107
-532.106	-64.281	-0.383	0.155
-531.091	-68.498	0.155	0.060
-530.077	323.557	-0.153	0.291
-529.062	-50.603	-0.115	0.054
-528.048	-200.000	0.439	0.000
-527.033	766.187	0.075	-0.202
-526.018	7.700	-0.187	0.140
-525.004	195.487	0.132	-0.199
-523.989	126.486	-0.319	0.402
-522.975	-118.261	0.067	0.012
-521.960	-19.849	0.215	0.133
-520.945	-28.533	0.155	-0.089
-519.931	-18.604	0.399	0.248
-518.916	-58.434	0.276	0.119
-517.902	-200.000	-0.038	-0.183
-516.887	17.077	-0.336	-0.265
-515.872	-200.000	0.077	0.338
-514.858	-133.711	-0.198	0.025
-513.843	19.331	0.093	-0.074
-512.829	-116.544	0.114	-0.021
-511.814	800.000	-0.045	-0.191
-510.799	800.000	-0.045	0.166
-509.785	360.140	0.065	0.129
-508.770	800.000	-0.063	-0.268
-507.756	-43.066	0.071	-0.036
-506.741	800.000	0.071	-0.291
-505.726	-16.923	0.256	-0.161
-504.712	131.377	-0.056	-0.071
-503.697	224.857	0.088	-0.142
-502.683	-45.923	0.195	0.096
-501.668	155.171	0.134	-0.183
-500.653	800.000	-0.061	-0.229
-499.639	-50.041	0.070	0.033
-498.624	-200.000	0.059	-0.324
-497.610	-38.256	0.286	0.151
-496.595	-32.022	-0.138	-0.077
-495.581	-16.113	-0.234	-0.148
-494.566	-200.000	0.056	-0.328
-493.551	-77.830	0.073	0.025
-492.537	-64.112	0.374	-0.152
-491.522	800.000	-0.042	0.179
-490.508	-51.595	0.029	0.013
-489.493	-121.809	-0.200	0.033
-488.478	12.794	-0.205	-0.157
-487.464	175.247	-0.137	0.197
-486.449	8.997	-0.142	-0.107
-485.435	269.715	-0.159	-0.278
-484.420	-200.000	-0.022	-0.240
-483.405	-200.000	-0.030	-0.223
-482.391	-120.784	-0.267	-0.045
-481.376	-16.099	0.033	-0.021
-480.362	-3.133	0.138	0.096
-479.347	475.863	-0.124	0.278
-478.332	376.283	-0.090	0.182
-477.318	800.000	0.055	-0.203
-476.303	-48.373	0.148	-0.071
-475.289	-103.178	0.503	-0.118
-474.274	-57.711	0.219	-0.095
-473.259	-88.367	-0.446	0.132
-472.245	-200.000	0.036	0.163
-471.230	-161.543	0.401	-0.020
-470.216	-121.968	-0.179	-0.029
-469.201	-200.000	0.006	0.119
-468.186	146.191	0.251	0.335
-467.172	-17.263	-0.064	-0.040
-466.157	-80.963	0.156	-0.051
-465.143	-112.107	-0.261	-0.052
-464.128	161.274	-0.049	0.068
-463.113	4.506	0.142	0.104
-462.099	-134.975	0.100	-0.012
-461.084	-200.000	-0.092	-0.422
-460.070	12.304	0.050	0.039
-459.055	-73.384	-0.102	-0.037
-458.040	386.394	0.064	-0.132
-457.026	-68.629	0.258	0.099
-456.011	316.521	0.275	0.515
-454.997	-200.000	-0.061	0.359
-453.982	-108.436	0.227	-0.049
-452.968	-200.000	0.004	0.101
-451.953	16.716	0.286	-0.225
-450.938	-200.000	0.016	0.070
-449.924	73.221	-0.174	-0.180
-448.909	-200.000	0.024	0.103
-447.895	-193.071	-0.316	0.003
-446.880	-200.000	-0.069	0.000
-445.865	-51.726	-0.122	0.057
-444.851	-146.912	-0.221	0.019
-443.836	-200.000	-0.002	-0.083
-442.822	623.045	0.040	0.099
-441.807	800.000	-0.038	0.162
-440.792	116.058	0.215	-0.261
-439.778	287.049	-0.071	-0.128
-438.763	314.609	-0.111	-0.208
-437.749	443.300	-0.050	-0.110
-436.734	239.256	-0.056	0.093
-435.719	262.660	0.199	0.342
-434.705	-162.889	0.249	0.012
-433.690	42.943	-0.112	-0.102
-432.676	250.782	0.117	0.197
-431.661	35.587	-0.101	-0.088
-430.646	-200.000	-0.023	0.255
-429.632	310.249	-0.124	-0.230
-428.617	-66.122	0.198	0.078
-427.603	114.154	-0.025	0.031
-426.588	-135.937	-0.076	0.009
-425.573	-62.148	-0.147	-0.061
-424.559	800.000	0.066	-0.196
-423.544	-44.266	-0.157	-0.078
-422.530	332.375	0.104	-0.199
-421.515	800.000	0.040	-0.146
-420.500	-95.425	-0.242	0.065
-419.486	65.381	-0.209	0.210
-418.471	98.797	-0.147	0.168
-417.457	194.011	-0.090	-0.135
-416.442	-30.371	-0.308	0.173
-415.428	-200.000	-0.059	-0.273
-414.413	66.899	-0.122	-0.123
-413.398	290.460	0.148	0.266
-412.384	227.354	0.042	0.067
-411.369	-12.820	0.063	-0.041
-410.355	-200.000	0.026	-0.323
-409.340	118.782	-0.070	-0.086
-408.325	-100.100	-0.405	0.100
-407.311	115.275	0.239	-0.290
-406.296	800.000	-0.090	-0.287
-405.282	-200.000	-0.001	-0.402
-404.267	5.587	0.233	0.171
-403.252	800.000	-0.030	0.130
-402.238	31.076	-0.134	0.114
-401.223	-136.954	-0.154	0.017
-400.209	-52.157	0.195	0.090
-399.194	800.000	-0.036	0.112
-398.179	-44.439	0.209	-0.103
-397.165	800.000	0.058	-0.184
-396.150	-200.000	0.021	-0.182
-395.136	-200.000	-0.037	-0.270
-394.121	-33.182	0.125	0.068
-393.106	487.723	0.119	-0.270
-392.092	-133.310	-0.207	0.026
-391.077	-200.000	0.024	0.278
-390.063	-200.000	-0.037	-0.330
-389.048	40.518	-0.107	0.095
-388.033	112.969	0.039	-0.046
-387.019	132.293	0.255	0.325
-386.004	-200.000	-0.011	-0.081
-384.990	50.747	0.023	-0.021
-383.975	-200.000	0.010	-0.143
-382.960	-200.000	0.037	0.177
-381.946	218.696	0.050	0.080
-380.931	800.000	0.059	0.182
-379.917	-29.818	-0.263	-0.149
-378.902	800.000	0.021	-0.066
-377.888	800.000	-0.004	0.012
-376.873	153.185	-0.167	-0.226
-375.858	-144.941	0.295	0.027
-374.844	-60.208	-0.329	0.139
-373.829	-6.469	0.076	0.051
-372.815	-200.000	-0.006	-0.118
-371.800	-72.412	-0.175	-0.064
-370.785	-200.000	-0.028	-0.185
-369.771	49.856	0.195	-0.182
-368.756	-104.513	-0.163	0.037
-367.742	-152.741	0.198	-0.014
-366.727	42.760	0.265	-0.239
-365.712	51.247	-0.217	-0.204
-364.698	-19.381	-0.176	0.108
-363.683	-200.000	-0.031	0.138
-362.669	-34.963	-0.203	-0.110
-361.654	-200.000	-0.396	0.000
-360.639	33.682	-0.149	0.128
-359.625	292.668	-0.063	0.114
-358.610	-18.224	0.415	0.257
-357.596	-96.104	-0.312	-0.082
-356.581	-159.420	0.323	-0.018
-355.566	11.192	-0.149	0.113
-354.552	-0.499	0.124	-0.087
-353.537	-3.247	0.205	-0.141
-352.523	-38.005	-0.362	-0.190
-351.508	488.061	0.023	-0.053
-350.493	-200.000	-0.013	0.176
-349.479	96.871	-0.167	0.189
-348.464	161.905	-0.152	0.210
-347.450	-112.373	-0.199	0.039
-346.435	270.564	-0.011	0.020
-345.420	35.108	-0.025	0.021
-344.406	-200.000	0.021	0.229
-343.391	-200.000	-0.092	0.442
-342.377	-113.752	-0.126	-0.024
-341.362	-200.000	-0.072	-0.340
-340.348	428.293	-0.034	0.073
-339.333	-200.000	0.012	0.303
-338.318	258.066	-0.109	0.186
-337.304	51.309	0.077	0.072
-336.289	495.914	0.069	-0.156
-335.275	-132.799	-0.176	0.022
-334.260	-15.595	-0.138	0.087
-333.245	800.000	0.027	0.105
-332.231	-44.371	0.260	0.129
-331.216	-21.832	0.299	0.180
-330.202	-56.099	-0.304	0.134
-329.187	11.067	-0.228	0.172
-328.172	800.000	0.030	0.093
-327.158	34.335	0.123	-0.106
-326.143	-45.894	-0.322	0.157
-325.129	-40.445	-0.150	0.077
-324.114	-200.000	-0.034	0.328
-323.099	-200.000	0.038	0.314
-322.085	522.355	0.096	0.224
-321.070	-30.484	0.064	0.036
-320.056	-76.391	0.424	-0.148
-319.041	128.584	-0.266	-0.335
-318.026	195.822	0.132	0.198
-317.012	-85.509	0.284	0.087
-315.997	211.239	-0.045	0.070
-314.983	23.486	0.050	0.040
-313.968	-104.382	-0.109	-0.025
-312.953	-107.195	-0.127	-0.028
-311.939	-200.000	0.025	-0.194
-310.924	38.854	0.162	0.143
-309.910	564.332	-0.036	-0.086
-308.895	-33.739	-0.215	-0.117
-307.880	-9.782	0.222	0.146
-306.866	-200.000	-0.030	0.290
-305.851	603.991	-0.044	-0.107
-304.837	-62.723	-0.412	-0.168
-303.822	-104.738	-0.225	-0.051
-302.807	-200.000	-0.012	0.327
-301.793	140.050	0.034	0.044
-300.778	-71.136	-0.080	-0.030
-299.764	800.000	0.056	-0.194
-298.749	86.882	0.134	0.146
-297.735	-30.972	0.290	0.162
-296.720	-56.459	-0.362	-0.158
-295.705	-27.120	0.112	-0.064
-294.691	-200.000	-0.018	0.208
-293.676	800.000	0.043	-0.133
-292.662	-83.065	0.253	-0.080
-291.647	-35.954	0.154	-0.082
-290.632	-87.531	0.127	0.038
-289.618	-200.000	0.000	0.001
-288.603	-28.046	0.099	-0.056
-287.589	467.912	-0.103	0.229
-286.574	-86.308	-0.202	0.061
-285.559	-200.000	0.022	-0.460
-284.545	307.163	0.090	-0.166
-283.530	48.428	0.312	0.289
-282.516	-10.137	0.139	0.091
-281.501	574.479	-0.099	-0.238
-280.486	-200.000	0.017	-0.168
-279.472	-200.000	-0.016	-0.162
-278.457	-31.348	0.207	-0.115
-277.443	-200.000	0.008	-0.223
-276.428	-65.394	-0.056	0.022
-275.413	-200.000	0.028	-0.144
-274.399	-137.787	-0.353	0.039
-273.384	209.224	-0.204	0.315
-272.370	-200.000	-0.014	0.078
-271.355	-146.430	0.101	0.009
-270.340	-200.000	-0.002	0.036
-269.326	-105.869	0.120	-0.027
-268.311	-119.131	0.251	0.043
-267.297	800.000	0.064	0.238
-266.282	-49.367	-0.345	-0.162
-265.267	-44.506	-0.074	-0.037
-264.253	-200.000	-0.007	-0.243
-263.238	220.628	-0.173	-0.273
-262.224	-200.000	0.040	-0.264
-261.209	-102.788	-0.495	-0.116
-260.195	12.971	0.306	0.233
-259.180	-113.288	0.116	0.022
-258.165	501.519	-0.068	0.154
-257.151	-32.397	0.347	0.191
-256.136	-6.564	-0.009	-0.006
-255.122	25.505	0.182	0.149
-254.107	13.369	-0.146	-0.112
-253.092	800.000	-0.088	0.346
-252.078	66.081	-0.056	-0.056
-251.063	-23.785	-0.152	0.090
-250.049	182.828	0.081	-0.117
-249.034	-200.000	0.025	-0.116
-248.019	-52.391	0.158	-0.072
-247.005	298.670	-0.116	0.210
-245.990	-123.317	0.291	0.046
-244.976	-200.000	-0.047	0.422
-243.961	800.000	0.073	0.233
-242.946	-110.037	0.327	0.067
-241.932	-91.458	0.102	-0.029
-240.917	-105.758	-0.080	0.018
-239.903	88.770	0.250	-0.274
-238.888	36.691	-0.101	0.088
-237.873	800.000	-0.056	-0.238
-236.859	-200.000	0.017	0.116
-235.844	135.002	0.127	-0.163
-234.830	179.363	-0.077	0.111
-233.815	18.491	0.106	-0.083
-232.800	112.531	-0.104	-0.124
-231.786	454.378	0.039	-0.085
-230.771	-61.671	0.280	-0.116
-229.757	94.642	-0.128	0.143
-228.742	194.557	0.176	-0.263
-227.727	28.705	-0.150	-0.125
-226.713	168.453	0.275	-0.386
-225.698	800.000	-0.048	0.170
-224.684	130.187	-0.073	0.092
-223.669	-34.617	-0.183	-0.099
-222.655	638.005	0.099	-0.248
-221.640	-140.057	-0.125	0.013
-220.625	-6.741	0.336	0.225
-219.611	-97.079	-0.070	-0.018
-218.596	-83.148	-0.442	-0.140
-217.582	86.542	-0.388	-0.421
-216.567	287.606	-0.094	0.167
-215.552	-66.383	-0.140	-0.055
-214.538	25.616	0.267	0.218
-213.523	-70.625	-0.259	0.096
-212.509	-4.219	-0.169	0.115
-211.494	-81.664	0.023	0.008
-210.479	-26.211	-0.133	0.077
-209.465	800.000	-0.065	0.248
-208.450	251.984	0.140	-0.235
-207.436	72.319	0.158	0.162
-206.421	15.819	0.229	0.177
-205.406	-27.100	0.280	-0.161
-204.392	800.000	0.052	-0.160
-203.377	282.345	0.104	-0.184
-202.363	-30.413	-0.235	0.131
-201.348	-38.947	-0.212	0.110
-200.333	-77.070	0.237	-0.081
-199.319	181.445	-0.043	-0.062
-198.304	-46.114	0.245	-0.119
-197.290	-200.000	-0.016	0.095
-196.275	-14.603	-0.093	-0.059
-195.260	199.557	-0.201	0.304
-194.246	-200.000	0.056	0.294
-193.231	-117.286	-0.166	-0.030
-192.217	101.123	0.335	0.383
-191.202	-200.000	-0.017	-0.345
-190.187	800.000	-0.058	-0.200
-189.173	58.875	0.091	0.088
-188.158	-92.968	-0.143	0.039
-187.144	800.000	-0.020	-0.060
-186.129	30.045	0.096	0.080
-185.114	21.596	-0.329	-0.263
-184.100	-140.932	0.266	0.027
-183.085	-200.000	-0.002	-0.364
-182.071	788.368	-0.071	-0.190
-181.056	10.857	0.181	0.136
-180.042	-110.889	-0.486	0.098
-179.027	0.798	0.182	0.128
-178.012	71.031	-0.161	0.164
-176.998	-148.843	-0.274	0.022
-175.983	327.703	-0.191	0.360
-174.969	313.217	-0.195	0.361
-173.954	437.361	0.121	0.259
-172.939	544.028	-0.135	0.317
-171.925	635.110	0.113	-0.282
-170.910	213.335	0.133	0.207
-169.896	-159.181	0.155	0.009
-168.881	27.005	0.304	0.250
-167.866	21.059	-0.252	-0.201
-166.852	-200.000	0.007	0.129
-165.837	87.361	-0.201	-0.219
-164.823	14.491	0.180	0.138
-163.808	800.000	-0.062	0.230
-162.793	-143.642	0.034	-0.003
-161.779	-48.731	0.267	-0.126
-160.764	16.210	0.256	0.198
-159.750	-109.874	-0.244	-0.050
-158.735	800.000	-0.082	-0.235
-157.720	181.052	0.185	0.267
-156.706	102.120	0.190	0.218
-155.691	-192.273	0.066	-0.001
-154.677	-124.234	0.257	0.039
-153.662	189.412	0.238	-0.349
-152.647	474.760	-0.209	-0.462
-151.633	-83.340	0.126	0.040
-150.618	79.000	0.132	0.139
-149.604	155.013	0.119	0.161
-148.589	36.755	0.163	0.141
-147.574	91.881	0.173	0.191
-146.560	-200.000	0.000	0.091
-145.545	800.000	0.090	-0.293
-144.531	191.315	-0.081	-0.120
-143.516	800.000	-0.054	0.171
-142.502	-27.348	0.200	0.114
-141.487	-98.902	-0.075	-0.019
-140.472	-137.047	-0.226	0.025
-139.458	90.491	0.061	0.067
-138.443	-67.457	0.104	-0.040
-137.429	105.706	-0.126	0.146
-136.414	-47.481	0.044	0.021
-135.399	42.539	-0.052	0.046
-134.385	527.336	0.010	-0.024
-133.370	-200.000	-0.001	0.241
-132.356	-100.655	0.185	0.045
-131.341	-40.183	0.134	0.069
-130.326	-112.471	0.209	-0.041
-129.312	11.382	0.208	0.156
-128.297	-46.987	0.016	-0.008
-127.283	-200.000	0.011	-0.070
-126.268	-156.697	0.100	0.006
-125.253	-17.041	0.235	0.145
-124.239	-19.036	-0.194	0.118
-123.224	-152.017	-0.077	-0.006
-122.210	156.092	0.107	0.145
-121.195	-200.000	-0.027	0.155
-120.180	-200.000	-0.028	-0.126
