DTS Sentinel unit serial number:	SN413079Multiplexer serial number:	ORYXHardware model number:	OX4-SRSoftware version number:	ORYX F/W v4.00 Oryx Data Collector v3.7.2.0data status	okinstallation	princeton_trtdifferential loss correction	single-endedforward channel	channel 3reverse channel	N/Adate	2019/09/19time	13:28:35forward acquisition time	60.00reverse acquisition time	0.00gamma	496.2192k internal	0.2326k external	0.2326temperature offset calibration	0.9999default loss term (dB/km)	0.3790temperature slope calibration	1.0000multiplexer offset coefficient	1.0000multiplexer slope coefficient	1.0000fibre end	0.00T internal ref (°C)	29.94T ext. ref 1 (°C)	0.96T ext. ref 2 (°C)	27.01length (m)	temperature (°C)	Stokes	anti-Stokes-747.200	-90.459	0.351	0.103
-746.185	31.719	0.263	-0.228
-745.171	485.151	0.073	-0.169
-744.156	-155.691	0.223	0.014
-743.142	-191.213	-0.160	-0.002
-742.127	-200.000	-0.012	0.293
-741.112	800.000	0.055	0.238
-740.098	-191.661	-0.192	-0.002
-739.083	-200.000	-0.043	0.348
-738.069	232.141	0.087	-0.144
-737.054	-105.971	0.052	-0.012
-736.039	169.444	0.014	-0.021
-735.025	-81.752	0.359	0.119
-734.010	-200.000	0.019	-0.333
-732.996	-4.759	0.150	0.105
-731.981	-69.500	0.161	-0.062
-730.966	-6.280	-0.237	-0.163
-729.952	-100.146	-0.153	0.038
-728.937	-200.000	-0.041	0.316
-727.923	800.000	-0.114	-0.399
-726.908	-97.934	-0.143	0.037
-725.894	-85.132	0.054	0.017
-724.879	51.738	0.049	0.047
-723.864	-200.000	-0.002	-0.134
-722.850	-160.398	0.176	-0.010
-721.835	-200.000	0.023	-0.183
-720.821	-24.065	-0.217	-0.131
-719.806	800.000	0.080	-0.237
-718.791	-173.658	-0.104	-0.003
-717.777	96.300	-0.143	0.164
-716.762	-200.000	0.012	-0.117
-715.748	255.118	0.086	0.148
-714.733	-200.000	-0.004	0.029
-713.718	-200.000	-0.006	-0.083
-712.704	-167.450	-0.385	0.016
-711.689	-55.161	-0.205	-0.093
-710.675	-200.000	-0.032	0.341
-709.660	245.026	0.108	-0.182
-708.645	-200.000	0.001	0.231
-707.631	14.999	0.190	0.150
-706.616	567.352	0.181	-0.443
-705.602	-151.408	-0.430	-0.032
-704.587	610.383	0.048	0.122
-703.572	-44.194	0.180	0.091
-702.558	260.675	0.069	-0.120
-701.543	222.270	0.091	-0.147
-700.529	340.557	0.035	-0.068
-699.514	404.624	0.118	-0.251
-698.499	-45.236	-0.248	0.124
-697.485	80.324	0.162	0.176
-696.470	-45.199	-0.092	0.046
-695.456	68.337	0.012	0.012
-694.441	495.864	0.089	-0.207
-693.426	-200.000	-0.015	-0.283
-692.412	800.000	0.068	-0.215
-691.397	21.791	-0.067	0.055
-690.383	47.696	-0.182	0.171
-689.368	-200.000	-0.063	0.286
-688.354	800.000	0.055	0.215
-687.339	-19.331	0.108	0.068
-686.324	-35.168	0.182	-0.100
-685.310	-81.620	0.344	-0.114
-684.295	-68.249	-0.216	0.084
-683.281	-11.056	0.195	0.129
-682.266	0.244	0.047	0.034
-681.251	-200.000	-0.041	0.207
-680.237	16.801	-0.172	-0.137
-679.222	-110.709	-0.311	-0.065
-678.208	-20.709	-0.231	-0.143
-677.193	-8.818	0.393	-0.265
-676.178	104.553	-0.232	-0.275
-675.164	469.879	-0.158	0.357
-674.149	800.000	0.113	-0.419
-673.135	30.167	-0.267	0.229
-672.120	-107.061	-0.242	0.054
-671.105	800.000	-0.111	-0.331
-670.091	93.912	0.095	-0.108
-669.076	109.352	-0.235	-0.283
-668.062	800.000	0.063	-0.184
-667.047	-75.330	-0.353	0.127
-666.032	150.729	-0.079	0.108
-665.018	-189.685	0.232	0.003
-664.003	800.000	0.038	0.120
-662.989	-98.794	0.205	-0.053
-661.974	-177.503	-0.586	-0.014
-660.959	-110.376	-0.320	-0.067
-659.945	147.265	0.148	-0.200
-658.930	16.977	-0.173	-0.138
-657.916	-200.000	0.040	0.449
-656.901	1.007	-0.115	-0.083
-655.886	84.939	-0.223	-0.246
-654.872	-103.038	-0.055	0.013
-653.857	-200.000	0.022	0.312
-652.843	419.202	0.080	-0.172
-651.828	115.383	0.165	0.203
-650.814	-73.251	0.105	0.039
-649.799	-98.395	0.266	-0.069
-648.784	-146.024	-0.202	0.018
-647.770	22.690	0.138	0.113
-646.755	-73.727	0.015	0.005
-645.741	-28.559	0.341	0.198
-644.726	99.442	-0.168	0.195
-643.711	-135.891	-0.377	0.045
-642.697	58.361	0.227	0.224
-641.682	180.122	-0.163	0.241
-640.668	-200.000	0.104	-0.461
-639.653	44.811	0.422	-0.390
-638.638	513.602	0.035	0.082
-637.624	800.000	-0.071	0.248
-636.609	-52.655	0.319	-0.148
-635.595	525.858	-0.039	0.091
-634.580	-200.000	-0.002	0.463
-633.565	19.417	-0.030	-0.024
-632.551	-147.315	-0.052	-0.004
-631.536	240.942	0.077	-0.130
-630.522	-200.000	0.020	-0.162
-629.507	-156.766	0.175	0.011
-628.492	90.028	0.066	0.074
-627.478	-46.640	0.142	-0.070
-626.463	-177.908	-0.222	0.005
-625.449	-147.629	0.379	0.032
-624.434	332.653	-0.170	0.330
-623.419	705.077	-0.035	-0.093
-622.405	86.135	-0.236	-0.261
-621.390	-82.402	-0.069	0.022
-620.376	121.200	0.175	-0.219
-619.361	-200.000	0.024	0.222
-618.346	-90.083	-0.312	-0.091
-617.332	61.084	-0.218	-0.217
-616.317	-200.000	-0.077	-0.423
-615.303	233.795	-0.153	0.252
-614.288	-51.313	0.143	-0.067
-613.273	800.000	-0.088	-0.247
-612.259	-167.835	0.312	-0.012
-611.244	-45.073	-0.270	-0.135
-610.230	800.000	-0.059	-0.209
-609.215	-14.676	-0.371	-0.239
-608.201	800.000	0.033	-0.115
-607.186	511.073	0.083	0.194
-606.171	800.000	0.094	-0.358
-605.157	800.000	0.068	0.296
-604.142	60.090	0.113	0.112
-603.128	-124.835	-0.472	0.073
-602.113	-44.583	-0.197	-0.099
-601.098	800.000	-0.072	-0.226
-600.084	-200.000	0.007	-0.314
-599.069	-200.000	-0.001	0.162
-598.055	192.894	0.056	0.085
-597.040	-60.211	-0.288	-0.123
-596.025	-170.053	0.179	0.006
-595.011	-139.896	0.115	-0.012
-593.996	-200.000	-0.034	0.172
-592.982	-158.328	-0.067	-0.004
-591.967	-200.000	0.013	0.076
-590.952	-86.573	-0.231	0.071
-589.938	-2.842	-0.302	0.211
-588.923	-56.132	0.351	0.157
-587.909	62.227	0.211	-0.211
-586.894	470.142	-0.098	-0.220
-585.879	0.730	0.206	-0.148
-584.865	-45.784	-0.152	0.075
-583.850	160.630	0.017	0.023
-582.836	190.201	-0.255	-0.384
-581.821	800.000	0.094	-0.276
-580.806	-200.000	-0.017	-0.150
-579.792	-94.971	0.198	0.054
-578.777	97.652	0.072	0.082
-577.763	-90.337	-0.180	-0.052
-576.748	-200.000	-0.025	-0.179
-575.733	-200.000	-0.014	0.183
-574.719	106.019	-0.150	0.178
-573.704	23.366	0.127	0.105
-572.690	800.000	0.104	0.414
-571.675	-169.644	0.078	0.003
-570.661	99.624	0.228	-0.265
-569.646	-200.000	0.068	0.329
-568.631	-200.000	0.026	0.129
-567.617	-57.338	0.136	0.060
-566.602	109.251	0.104	-0.125
-565.588	67.472	0.267	-0.273
-564.573	198.518	-0.165	0.253
-563.558	210.444	-0.243	-0.382
-562.544	-12.305	-0.247	0.162
-561.529	-124.122	0.209	-0.033
-560.515	-98.417	0.174	-0.045
-559.500	286.821	0.095	-0.173
-558.485	306.941	-0.097	0.181
-557.471	156.499	0.181	0.250
-556.456	-200.000	-0.007	0.159
-555.442	542.575	0.176	0.420
-554.427	48.642	-0.231	0.216
-553.412	-102.105	0.273	0.066
-552.398	-161.248	0.216	0.011
-551.383	162.635	0.135	-0.190
-550.369	-56.980	-0.232	-0.102
-549.354	308.499	-0.080	0.150
-548.339	-57.072	0.196	0.086
-547.325	140.416	0.089	0.118
-546.310	-200.000	0.009	0.060
-545.296	-56.728	-0.119	0.053
-544.281	-200.000	-0.005	-0.224
-543.266	-62.019	-0.124	0.052
-542.252	-57.261	0.035	0.015
-541.237	335.126	0.034	-0.067
-540.223	-200.000	0.013	0.136
-539.208	225.594	-0.197	0.319
-538.193	77.523	0.143	-0.152
-537.179	571.526	0.108	-0.263
-536.164	800.000	0.035	-0.121
-535.150	116.502	0.044	-0.054
-534.135	159.312	0.157	0.218
-533.121	260.214	-0.210	0.363
-532.106	-30.869	0.278	0.157
-531.091	368.914	0.050	-0.101
-530.077	-107.010	0.216	0.048
-529.062	-163.397	-0.171	-0.008
-528.048	17.165	0.097	0.077
-527.033	800.000	0.081	-0.306
-526.018	66.301	-0.082	-0.084
-525.004	-200.000	0.009	0.069
-523.989	-135.325	-0.356	-0.043
-522.975	286.741	0.066	-0.119
-521.960	-67.589	0.184	0.072
-520.945	-69.093	0.281	0.108
-519.931	-51.767	0.026	0.012
-518.916	190.769	-0.175	-0.264
-517.902	29.136	-0.225	0.191
-516.887	-87.810	-0.333	-0.100
-515.872	11.033	-0.201	-0.153
-514.858	527.191	-0.082	0.192
-513.843	300.626	0.208	0.384
-512.829	-52.861	0.168	-0.077
-511.814	482.143	-0.146	-0.331
-510.799	-80.973	-0.099	0.033
-509.785	169.338	-0.106	-0.152
-508.770	-200.000	-0.003	-0.014
-507.756	22.622	-0.150	0.122
-506.741	-44.699	0.165	0.082
-505.726	-200.000	0.016	-0.091
-504.712	114.922	-0.105	0.129
-503.697	75.650	0.101	-0.106
-502.683	800.000	-0.031	0.133
-501.668	-36.672	0.319	-0.171
-500.653	48.310	-0.102	0.095
-499.639	-200.000	0.009	0.064
-498.624	448.326	-0.047	-0.104
-497.610	-111.545	-0.265	-0.054
-496.595	-195.750	-0.042	0.000
-495.581	-131.635	0.247	0.032
-494.566	246.061	0.123	-0.206
-493.551	282.754	0.163	-0.292
-492.537	11.055	0.106	0.081
-491.522	-53.518	0.106	-0.048
-490.508	-43.415	-0.071	-0.036
-489.493	-53.845	0.290	-0.132
-488.478	-63.796	0.049	-0.020
-487.464	430.663	0.084	0.182
-486.449	-200.000	-0.052	-0.297
-485.435	274.282	0.104	0.183
-484.420	29.345	-0.114	0.097
-483.405	-31.852	-0.395	-0.221
-482.391	-46.011	0.214	0.105
-481.376	-200.000	-0.061	0.287
-480.362	257.150	0.114	0.195
-479.347	-200.000	0.032	0.331
-478.332	89.583	-0.144	-0.161
-477.318	36.305	0.055	0.049
-476.303	-96.494	0.278	0.073
-475.289	173.575	-0.079	-0.114
-474.274	106.155	0.129	-0.153
-473.259	524.531	-0.090	0.211
-472.245	-126.520	0.256	-0.038
-471.230	-115.941	-0.299	0.056
-470.216	-200.000	0.106	0.000
-469.201	-39.846	0.239	0.124
-468.186	-90.184	-0.274	0.080
-467.172	-60.865	0.232	0.098
-466.157	800.000	-0.071	-0.232
-465.143	-40.182	-0.277	-0.144
-464.128	-47.249	0.474	-0.231
-463.113	800.000	0.037	-0.111
-462.099	152.510	-0.137	0.186
-461.084	-139.821	-0.367	0.039
-460.070	656.691	0.101	-0.260
-459.055	-47.509	-0.184	-0.089
-458.040	-107.130	0.017	-0.004
-457.026	187.199	0.197	0.293
-456.011	473.132	0.056	-0.127
-454.997	21.582	-0.202	-0.164
-453.982	-200.000	0.009	0.172
-452.968	-200.000	-0.007	-0.165
-451.953	9.264	0.071	0.054
-450.938	-192.073	-0.198	0.002
-449.924	28.717	0.103	0.087
-448.909	-200.000	0.041	-0.238
-447.895	420.049	0.164	-0.351
-446.880	10.022	-0.148	0.112
-445.865	-93.079	-0.144	0.040
-444.851	-151.234	0.163	-0.012
-443.836	800.000	0.114	-0.320
-442.822	315.072	0.058	0.109
-441.807	139.301	0.061	-0.080
-440.792	30.216	-0.139	-0.118
-439.778	492.505	0.113	0.259
-438.763	-63.829	-0.104	-0.042
-437.749	110.752	-0.173	-0.207
-436.734	34.190	0.111	-0.097
-435.719	363.303	0.126	-0.252
-434.705	800.000	-0.052	0.172
-433.690	800.000	-0.062	0.184
-432.676	-79.350	0.196	-0.066
-431.661	438.365	-0.207	0.450
-430.646	-34.152	-0.283	0.155
-429.632	-89.840	-0.297	-0.087
-428.617	-95.052	0.306	0.082
-427.603	139.573	0.074	-0.096
-426.588	-60.980	0.167	0.070
-425.573	230.190	-0.123	-0.200
-424.559	245.373	-0.096	-0.160
-423.544	-48.371	-0.202	-0.097
-422.530	-200.000	0.035	0.505
-421.515	-200.000	0.056	0.247
-420.500	17.118	0.141	0.111
-419.486	800.000	0.041	0.134
-418.471	-30.837	0.149	0.084
-417.457	-91.577	-0.293	-0.083
-416.442	159.746	-0.020	-0.028
-415.428	-200.000	-0.046	-0.327
-414.413	800.000	0.079	-0.244
-413.398	375.632	0.068	-0.138
-412.384	186.731	-0.141	0.210
-411.369	86.346	-0.093	0.101
-410.355	20.712	-0.080	-0.064
-409.340	-151.103	-0.028	0.002
-408.325	192.953	-0.184	0.277
-407.311	-200.000	0.054	0.276
-406.296	-200.000	0.010	-0.243
-405.282	162.660	0.098	-0.137
-404.267	-69.118	-0.195	0.075
-403.252	-200.000	0.006	0.044
-402.238	-76.575	-0.281	-0.098
-401.223	33.083	0.108	-0.093
-400.209	-50.332	0.147	0.069
-399.194	-97.325	-0.134	0.035
-398.179	-39.318	-0.140	-0.073
-397.165	800.000	-0.115	0.351
-396.150	262.305	-0.059	0.102
-395.136	-91.418	-0.191	0.054
-394.121	800.000	0.106	-0.301
-393.106	-54.998	-0.282	0.126
-392.092	376.165	0.044	-0.090
-391.077	150.830	0.162	0.218
-390.063	-200.000	0.025	-0.321
-389.048	22.579	0.138	-0.112
-388.033	-87.328	0.138	-0.042
-387.019	-185.605	-0.158	0.002
-386.004	800.000	-0.048	-0.210
-384.990	-115.445	0.194	0.036
-383.975	-51.810	-0.286	0.133
-382.960	237.808	-0.134	0.221
-381.946	-103.016	-0.081	0.019
-380.931	151.401	0.168	-0.227
-379.917	121.779	-0.090	0.111
-378.902	378.536	0.201	-0.410
-377.888	372.799	-0.086	0.173
-376.873	-176.815	-0.147	0.004
-375.858	-127.994	0.248	0.035
-374.844	-170.683	0.086	-0.003
-373.829	-88.773	-0.047	0.014
-372.815	-200.000	0.006	-0.056
-371.800	-104.782	0.247	0.056
-370.785	225.764	-0.199	0.321
-369.771	42.613	-0.024	0.022
-368.756	222.152	-0.140	-0.223
-367.742	191.691	-0.263	-0.393
-366.727	800.000	0.111	-0.456
-365.712	-81.840	-0.213	-0.069
-364.698	-200.000	0.016	0.177
-363.683	-83.432	0.255	0.081
-362.669	-200.000	0.001	0.123
-361.654	-72.337	0.219	0.081
-360.639	221.253	0.086	-0.137
-359.625	-39.164	0.034	0.018
-358.610	16.858	-0.161	-0.127
-357.596	-61.566	0.139	0.058
-356.581	124.748	0.122	0.153
-355.566	-200.000	0.024	-0.194
-354.552	165.919	0.059	0.083
-353.537	-131.912	-0.215	0.028
-352.523	137.551	0.162	0.211
-351.508	56.588	-0.094	-0.091
-350.493	-120.902	-0.499	-0.083
-349.479	311.019	0.061	0.114
-348.464	800.000	-0.011	-0.042
-347.450	-200.000	0.024	-0.108
-346.435	-74.008	-0.217	0.078
-345.420	-125.855	0.071	0.011
-344.406	-200.000	0.014	0.155
-343.391	-87.299	-0.335	-0.101
-342.377	187.746	0.023	0.034
-341.362	172.187	-0.044	-0.063
-340.348	800.000	-0.021	0.074
-339.333	286.622	-0.105	-0.188
-338.318	-149.087	-0.102	0.008
-337.304	-45.613	0.161	0.079
-336.289	0.336	-0.156	0.110
-335.275	374.915	0.169	0.343
-334.260	66.933	-0.075	0.076
-333.245	544.465	0.129	0.305
-332.231	65.293	-0.181	0.182
-331.216	-105.021	-0.256	-0.058
-330.202	800.000	-0.028	0.097
-329.187	-200.000	-0.032	0.270
-328.172	-0.907	-0.256	0.180
-327.158	714.521	0.124	-0.327
-326.143	-60.367	-0.111	-0.047
-325.129	-135.934	-0.180	-0.021
-324.114	-161.838	0.180	-0.009
-323.099	800.000	0.040	0.112
-322.085	-49.435	-0.252	0.119
-321.070	95.253	-0.131	-0.148
-320.056	-98.121	-0.289	0.074
-319.041	135.847	0.224	0.290
-318.026	136.569	-0.275	-0.356
-317.012	-73.149	-0.190	-0.069
-315.997	-200.000	0.010	0.000
-314.983	-39.896	-0.375	-0.194
-313.968	383.226	0.047	-0.097
-312.953	-200.000	-0.099	0.659
-311.939	800.000	-0.118	0.329
-310.924	64.191	-0.020	-0.020
-309.910	117.370	0.198	-0.242
-308.895	136.857	-0.291	0.377
-307.880	27.675	-0.076	-0.063
-306.866	-114.009	0.151	-0.029
-305.851	337.250	-0.191	0.368
-304.837	-200.000	-0.015	-0.094
-303.822	-105.570	0.480	-0.108
-302.807	-200.000	-0.050	-0.408
-301.793	-99.552	-0.198	-0.049
-300.778	-165.132	-0.362	-0.016
-299.764	583.234	0.066	0.161
-298.749	-23.189	0.142	0.085
-297.735	-167.355	0.208	-0.008
-296.720	-98.615	0.215	-0.054
-295.705	26.801	-0.103	0.085
-294.691	-163.976	-0.125	0.006
-293.676	688.731	0.136	0.351
-292.662	-200.000	-0.002	-0.066
-291.647	-132.194	-0.082	-0.011
-290.632	725.642	0.104	-0.274
-289.618	22.276	-0.302	-0.245
-288.603	357.091	0.067	-0.132
-287.589	800.000	0.075	-0.318
-286.574	-100.259	0.171	-0.042
-285.559	-122.660	0.231	0.037
-284.545	85.918	0.017	-0.019
-283.530	5.552	-0.174	0.128
-282.516	-200.000	-0.050	-0.221
-281.501	-165.707	0.298	0.013
-280.486	-200.000	-0.012	-0.430
-279.472	-78.395	-0.408	-0.139
-278.457	2.356	-0.215	0.154
-277.443	77.392	0.118	0.124
-276.428	-121.393	0.094	0.016
-275.413	95.578	0.157	0.178
-274.399	76.666	0.187	-0.197
-273.384	-12.586	0.173	-0.112
-272.370	-107.011	0.097	0.021
-271.355	48.500	0.077	0.071
-270.340	-200.000	-0.085	-0.414
-269.326	-69.262	-0.020	0.007
-268.311	491.035	0.109	0.246
-267.297	-180.260	-0.143	0.003
-266.282	175.782	-0.125	-0.180
-265.267	152.193	0.136	0.184
-264.253	-22.936	0.238	0.142
-263.238	-116.973	-0.267	-0.048
-262.224	-19.076	-0.205	-0.126
-261.209	-175.016	0.317	0.009
-260.195	664.618	-0.038	-0.098
-259.180	2.342	-0.135	-0.096
-258.165	378.519	0.069	0.140
-257.151	89.313	0.133	-0.147
-256.136	385.524	-0.019	-0.039
-255.122	-200.000	-0.025	0.126
-254.107	75.269	0.096	0.100
-253.092	-139.117	0.405	0.043
-252.078	800.000	-0.059	-0.228
-251.063	619.925	-0.042	0.105
-250.049	130.330	0.144	-0.182
-249.034	168.602	0.124	0.175
-248.019	800.000	0.070	0.194
-247.005	-163.646	-0.404	-0.019
-245.990	-138.332	0.294	-0.032
-244.976	460.153	0.062	-0.137
-243.961	359.116	-0.045	0.089
-242.946	480.815	0.122	-0.274
-241.932	636.075	0.019	0.047
-240.917	-200.000	-0.038	-0.212
-239.903	86.867	-0.063	-0.068
-238.888	800.000	0.072	0.292
-237.873	-38.272	0.435	0.228
-236.859	800.000	-0.047	0.199
-235.844	-200.000	0.003	0.200
-234.830	-10.578	0.205	-0.134
-233.815	272.243	0.084	-0.147
-232.800	56.542	-0.157	-0.151
-231.786	46.298	0.118	0.108
-230.771	-200.000	-0.062	-0.290
-229.757	-35.799	-0.219	0.117
-228.742	-163.314	0.320	-0.015
-227.727	-55.181	-0.592	0.263
-226.713	100.043	-0.160	0.184
-225.698	706.801	-0.077	0.200
-224.684	140.498	0.349	0.455
-223.669	236.202	0.212	-0.347
-222.655	110.685	0.103	-0.122
-221.640	145.315	0.178	-0.236
-220.625	136.454	0.246	-0.317
-219.611	320.227	0.023	-0.043
-218.596	-16.136	0.054	0.034
-217.582	-116.832	-0.211	-0.038
-216.567	-200.000	-0.006	-0.064
-215.552	-91.587	0.220	-0.062
-214.538	97.925	0.071	0.081
-213.523	800.000	0.042	-0.126
-212.509	79.660	0.058	0.061
-211.494	80.811	0.028	0.030
-210.479	430.412	-0.090	0.193
-209.465	5.034	-0.319	0.232
-208.450	-39.806	0.049	0.025
-207.436	-50.572	0.195	-0.091
-206.421	112.214	0.332	0.396
-205.406	417.147	-0.085	0.178
-204.392	-200.000	-0.016	0.085
-203.377	-200.000	-0.038	-0.384
-202.363	3.477	-0.136	-0.098
-201.348	-86.806	0.082	0.025
-200.333	306.384	-0.136	0.250
-199.319	-200.000	0.011	-0.186
-198.304	800.000	-0.029	-0.114
-197.290	89.898	-0.216	0.238
-196.275	636.795	-0.037	0.092
-195.260	800.000	0.029	-0.101
-194.246	-121.915	0.153	0.025
-193.231	-53.576	0.328	-0.148
-192.217	111.257	-0.181	-0.216
-191.202	241.399	0.062	0.102
-190.187	-110.194	0.437	0.090
-189.173	800.000	-0.124	-0.368
-188.158	-200.000	-0.010	-0.064
-187.144	90.304	-0.078	0.086
-186.129	-103.069	-0.170	0.040
-185.114	-45.763	-0.071	0.034
-184.100	74.830	-0.147	0.153
-183.085	336.352	0.123	-0.235
-182.071	-12.872	-0.300	-0.193
-181.056	48.353	0.270	0.249
-180.042	-27.352	-0.288	-0.165
-179.027	26.329	0.228	0.188
-178.012	100.389	0.065	-0.074
-176.998	-168.696	-0.275	-0.010
-175.983	-200.000	-0.049	0.332
-174.969	-142.932	-0.181	0.017
-173.954	-26.262	-0.198	0.115
-172.939	131.306	0.187	0.237
-171.925	266.926	-0.168	0.289
-170.910	-64.331	0.458	0.184
-169.896	414.970	-0.170	-0.358
-168.881	-200.000	-0.054	-0.329
-167.866	-200.000	0.081	-0.366
-166.852	-200.000	0.027	0.385
-165.837	-82.877	0.177	0.056
-164.823	411.416	0.104	-0.218
-163.808	-50.032	0.249	0.116
-162.793	-121.724	0.243	0.040
-161.779	-25.907	-0.211	-0.123
-160.764	800.000	-0.125	-0.539
-159.750	129.971	-0.224	0.283
-158.735	-200.000	0.049	-0.253
-157.720	-200.000	0.057	-0.303
-156.706	1.347	0.214	0.151
-155.691	33.207	-0.216	0.185
-154.677	559.169	-0.040	0.094
-153.662	-200.000	-0.001	0.022
-152.647	-55.812	0.329	0.145
-151.633	-172.749	-0.159	0.005
-150.618	383.339	-0.075	0.152
-149.604	-95.407	-0.238	0.063
-148.589	455.629	0.168	0.367
-147.574	140.780	-0.121	0.158
-146.560	188.275	0.093	0.137
-145.545	-129.601	-0.421	-0.057
-144.531	72.209	0.047	0.048
-143.516	800.000	-0.053	0.156
-142.502	-98.585	0.241	-0.061
-141.487	-72.996	-0.081	-0.029
-140.472	258.166	-0.166	-0.282
-139.458	39.066	-0.263	-0.232
-138.443	800.000	0.046	-0.191
-137.429	17.533	-0.181	0.142
-136.414	-77.016	-0.072	0.025
-135.399	-61.806	0.255	-0.105
-134.385	-36.367	-0.140	-0.074
-133.370	-70.664	0.164	0.061
-132.356	-200.000	0.001	0.062
-131.341	-200.000	0.039	-0.402
-130.326	-64.617	0.080	-0.032
-129.312	620.496	-0.032	-0.080
-128.297	-149.421	0.174	0.014
-127.283	-200.000	0.059	-0.332
-126.268	357.507	-0.223	0.438
-125.253	-79.989	-0.149	-0.049
-124.239	141.012	0.151	0.197
-123.224	-155.254	0.201	0.013
-122.210	64.235	0.061	0.061
-121.195	-200.000	-0.030	-0.251
-120.180	-22.145	0.077	-0.046
