DTS Sentinel unit serial number:	SN413079Multiplexer serial number:	ORYXHardware model number:	OX4-SRSoftware version number:	ORYX F/W v4.00 Oryx Data Collector v3.7.2.0data status	okinstallation	princeton_trtdifferential loss correction	single-endedforward channel	channel 3reverse channel	N/Adate	2019/09/17time	21:28:35forward acquisition time	60.00reverse acquisition time	0.00gamma	496.2192k internal	0.2343k external	0.2343temperature offset calibration	0.9947default loss term (dB/km)	0.3790temperature slope calibration	1.0000multiplexer offset coefficient	1.0000multiplexer slope coefficient	1.0000fibre end	0.00T internal ref (°C)	27.23T ext. ref 1 (°C)	0.20T ext. ref 2 (°C)	19.33length (m)	temperature (°C)	Stokes	anti-Stokes-747.200	-200.000	0.046	-0.431
-746.185	-108.842	-0.197	0.042
-745.171	621.681	0.108	0.272
-744.156	-86.637	-0.321	0.098
-743.142	-136.110	0.329	0.039
-742.127	-84.931	-0.265	0.083
-741.112	25.592	-0.204	-0.170
-740.098	798.814	-0.053	0.147
-739.083	38.691	0.312	0.278
-738.069	800.000	-0.083	0.326
-737.054	290.509	-0.056	-0.102
-736.039	606.166	-0.096	-0.238
-735.025	569.854	0.032	0.077
-734.010	800.000	-0.052	-0.226
-732.996	-50.993	-0.127	-0.060
-731.981	-200.000	0.014	-0.118
-730.966	-78.292	-0.172	0.059
-729.952	-61.366	-0.070	-0.029
-728.937	65.617	-0.171	-0.174
-727.923	179.932	-0.171	-0.251
-726.908	-85.536	-0.244	0.076
-725.894	-15.872	0.320	-0.204
-724.879	-128.326	0.099	-0.014
-723.864	271.610	0.053	-0.093
-722.850	430.316	0.143	0.310
-721.835	-57.057	-0.187	0.082
-720.821	140.219	-0.142	0.187
-719.806	327.267	0.115	-0.221
-718.791	37.662	-0.196	0.174
-717.777	236.492	-0.090	0.149
-716.762	-93.490	-0.243	0.067
-715.748	-200.000	0.008	0.112
-714.733	-45.823	0.203	-0.100
-713.718	-1.667	0.169	0.119
-712.704	-76.158	0.030	0.011
-711.689	-200.000	-0.036	0.210
-710.675	-32.226	-0.271	0.151
-709.660	-200.000	-0.079	-0.386
-708.645	-170.964	0.330	-0.011
-707.631	-150.168	0.189	-0.015
-706.616	76.514	-0.113	-0.120
-705.602	-150.896	0.193	-0.015
-704.587	-200.000	-0.009	0.482
-703.572	-189.792	-0.267	-0.003
-702.558	133.651	0.292	-0.378
-701.543	25.826	0.123	0.103
-700.529	227.477	-0.124	-0.201
-699.514	-189.611	-0.174	-0.002
-698.499	800.000	-0.035	0.133
-697.485	-99.455	0.184	0.046
-696.470	-102.007	-0.280	0.068
-695.456	-200.000	-0.016	0.089
-694.441	28.972	0.215	-0.182
-693.426	97.299	-0.111	0.128
-692.412	800.000	-0.078	-0.270
-691.397	-43.567	0.278	0.140
-690.383	-108.824	0.290	0.062
-689.368	9.745	-0.259	-0.197
-688.354	-4.082	0.196	0.136
-687.339	-113.085	-0.238	-0.047
-686.324	68.328	-0.079	-0.081
-685.310	-75.938	-0.148	-0.052
-684.295	800.000	0.030	-0.108
-683.281	-121.847	-0.143	0.024
-682.266	23.738	-0.294	-0.242
-681.251	579.514	-0.098	0.241
-680.237	-71.902	-0.512	-0.190
-679.222	230.240	0.163	0.267
-678.208	97.310	0.154	0.177
-677.193	-131.521	-0.359	0.047
-676.178	-200.000	0.055	0.242
-675.164	800.000	-0.090	0.255
-674.149	-85.304	-0.279	-0.087
-673.135	-128.547	0.348	0.049
-672.120	-128.301	0.196	0.028
-671.105	367.718	-0.179	-0.361
-670.091	-200.000	0.001	-0.052
-669.076	41.450	-0.098	0.088
-668.062	-36.148	0.277	-0.149
-667.047	24.869	-0.329	-0.272
-666.032	-115.707	-0.303	-0.057
-665.018	-200.000	-0.031	-0.172
-664.003	-77.835	-0.356	-0.123
-662.989	-93.434	0.326	-0.090
-661.974	-200.000	-0.014	-0.062
-660.959	277.056	-0.077	0.136
-659.945	30.559	-0.083	0.071
-658.930	432.862	0.127	-0.275
-657.916	151.183	-0.010	0.014
-656.901	301.565	0.126	0.233
-655.886	-200.000	-0.360	-0.001
-654.872	451.214	0.106	0.233
-653.857	225.987	-0.231	0.374
-652.843	168.865	0.090	-0.129
-651.828	-67.140	-0.248	0.097
-650.814	-64.116	-0.124	-0.050
-649.799	-53.253	-0.198	-0.091
-648.784	350.750	0.098	-0.193
-647.770	111.953	-0.006	-0.007
-646.755	7.451	-0.137	-0.103
-645.741	-84.583	-0.172	0.054
-644.726	-177.531	0.210	0.005
-643.711	800.000	-0.032	-0.106
-642.697	581.605	0.070	-0.171
-641.682	147.896	-0.145	-0.195
-640.668	107.819	0.113	0.134
-639.653	76.196	0.360	0.380
-638.638	10.793	0.130	-0.099
-637.624	25.831	-0.045	-0.038
-636.609	-151.045	0.244	0.018
-635.595	197.303	0.147	0.224
-634.580	119.215	-0.119	-0.146
-633.565	-5.401	-0.067	0.046
-632.551	800.000	0.031	-0.090
-631.536	402.356	0.072	-0.150
-630.522	69.734	-0.132	-0.136
-629.507	-200.000	-0.058	0.501
-628.492	-159.008	-0.256	0.014
-627.478	-155.470	0.277	0.018
-626.463	-3.559	-0.216	-0.149
-625.449	-75.324	0.174	0.062
-624.434	800.000	0.053	-0.225
-623.419	800.000	0.099	-0.304
-622.405	-101.014	-0.121	-0.029
-621.390	36.260	-0.169	-0.148
-620.376	131.282	-0.177	-0.227
-619.361	-123.093	0.229	0.037
-618.346	215.178	0.076	0.119
-617.332	-187.037	-0.154	0.002
-616.317	-36.298	-0.070	0.037
-615.303	8.546	-0.200	-0.150
-614.288	800.000	-0.065	-0.218
-613.273	800.000	-0.076	0.210
-612.259	5.163	0.067	0.049
-611.244	-31.356	-0.188	-0.105
-610.230	800.000	-0.089	0.310
-609.215	178.409	-0.114	-0.166
-608.201	-200.000	-0.021	0.185
-607.186	42.161	-0.203	-0.183
-606.171	-200.000	-0.011	-0.088
-605.157	104.117	0.219	-0.257
-604.142	767.242	-0.130	-0.352
-603.128	800.000	0.033	0.138
-602.113	224.032	0.090	-0.145
-601.098	-200.000	0.029	0.198
-600.084	17.290	-0.151	0.119
-599.069	96.911	-0.209	-0.238
-598.055	120.272	0.042	-0.052
-597.040	-63.075	0.251	0.103
-596.025	51.934	0.130	0.123
-595.011	800.000	-0.022	-0.082
-593.996	-200.000	0.002	0.273
-592.982	97.511	-0.127	-0.145
-591.967	62.138	0.241	-0.239
-590.952	14.884	-0.178	0.139
-589.938	-106.933	-0.091	-0.020
-588.923	-175.122	-0.109	0.003
-587.909	-25.526	-0.248	0.146
-586.894	-200.000	-0.013	0.273
-585.879	168.386	0.282	0.400
-584.865	-130.230	-0.162	-0.022
-583.850	58.562	-0.196	-0.191
-582.836	-74.657	-0.052	0.018
-581.821	-63.161	0.298	0.122
-580.806	346.074	0.153	-0.299
-579.792	-112.173	-0.292	0.058
-578.777	-71.092	0.233	-0.087
-577.763	-136.438	-0.214	0.025
-576.748	-89.982	0.217	0.063
-575.733	800.000	0.088	-0.243
-574.719	48.147	0.193	0.180
-573.704	137.726	-0.180	0.234
-572.690	27.102	0.157	0.131
-571.675	282.229	0.127	0.227
-570.661	-89.732	-0.083	-0.024
-569.646	153.659	-0.245	-0.334
-568.631	127.129	0.187	-0.236
-567.617	140.349	-0.261	0.342
-566.602	39.824	0.178	-0.159
-565.588	-28.932	-0.116	-0.066
-564.573	747.836	0.018	0.049
-563.558	178.523	0.093	-0.136
-562.544	220.225	0.071	0.114
-561.529	-153.799	0.369	-0.025
-560.515	-64.391	-0.169	0.068
-559.500	-200.000	0.019	-0.102
-558.485	-200.000	-0.001	-0.035
-557.471	68.595	-0.095	-0.096
-556.456	4.641	0.084	-0.061
-555.442	-94.243	0.061	0.017
-554.427	338.522	0.127	0.245
-553.412	-118.873	0.345	0.060
-552.398	800.000	0.068	-0.278
-551.383	-93.251	-0.228	-0.063
-550.369	120.148	0.135	0.166
-549.354	49.763	-0.137	0.128
-548.339	-200.000	0.011	0.106
-547.325	12.500	0.192	-0.147
-546.310	265.472	-0.050	-0.086
-545.296	-25.545	0.427	0.250
-544.281	660.820	-0.154	-0.394
-543.266	-112.545	0.152	-0.030
-542.252	-200.000	-0.005	-0.194
-541.237	-120.097	0.186	0.032
-540.223	-160.323	0.338	-0.018
-539.208	-200.000	-0.007	-0.183
-538.193	-170.231	0.331	0.012
-537.179	-161.554	0.103	0.005
-536.164	11.228	0.229	0.174
-535.150	800.000	0.056	0.170
-534.135	218.980	0.008	-0.012
-533.121	504.146	-0.113	0.260
-532.106	226.703	0.160	0.258
-531.091	-173.414	0.259	-0.008
-530.077	21.144	-0.051	-0.041
-529.062	2.643	-0.181	0.131
-528.048	-68.939	0.095	0.037
-527.033	-48.371	0.179	-0.086
-526.018	71.113	0.228	-0.234
-525.004	-76.666	0.126	0.044
-523.989	-74.805	-0.463	-0.165
-522.975	98.577	-0.192	0.220
-521.960	-200.000	0.083	-0.394
-520.945	-200.000	-0.090	0.593
-519.931	249.871	-0.174	-0.293
-518.916	-200.000	0.022	-0.230
-517.902	-160.946	-0.181	-0.009
-516.887	-198.194	-0.269	0.002
-515.872	787.777	-0.021	-0.057
-514.858	97.083	-0.090	0.102
-513.843	-62.469	0.253	0.104
-512.829	-41.282	-0.103	0.053
-511.814	94.403	0.197	0.222
-510.799	394.919	-0.196	0.405
-509.785	139.833	-0.073	-0.096
-508.770	-65.059	-0.152	0.061
-507.756	-78.578	-0.228	0.077
-506.741	91.188	-0.231	0.257
-505.726	-1.825	0.230	0.161
-504.712	145.948	-0.105	-0.139
-503.697	-122.681	0.319	0.051
-502.683	13.536	0.235	-0.181
-501.668	-60.624	-0.147	0.062
-500.653	50.890	0.159	-0.150
-499.639	380.028	-0.049	0.100
-498.624	-60.161	-0.125	-0.053
-497.610	-35.723	-0.056	0.030
-496.595	114.431	0.153	-0.185
-495.581	170.953	-0.068	0.097
-494.566	-61.023	-0.069	0.029
-493.551	-200.000	-0.025	0.221
-492.537	-154.359	0.315	0.021
-491.522	-54.600	0.015	0.007
-490.508	-200.000	0.026	0.214
-489.493	-200.000	0.008	0.113
-488.478	2.213	0.123	0.088
-487.464	800.000	-0.057	-0.160
-486.449	229.135	-0.169	-0.273
-485.435	373.753	-0.065	-0.132
-484.420	587.345	0.172	0.419
-483.405	-200.000	0.024	0.291
-482.391	84.183	0.026	0.028
-481.376	-200.000	0.032	0.240
-480.362	-89.626	0.298	-0.087
-479.347	98.452	0.109	-0.125
-478.332	800.000	0.083	-0.283
-477.318	36.069	0.060	-0.052
-476.303	637.762	-0.053	0.135
-475.289	-124.756	-0.241	-0.037
-474.274	-200.000	0.039	0.176
-473.259	130.092	-0.194	-0.246
-472.245	-162.496	-0.277	-0.014
-471.230	47.410	0.163	-0.150
-470.216	-89.475	0.262	-0.076
-469.201	-83.761	0.207	-0.065
-468.186	0.465	-0.162	-0.115
-467.172	517.236	-0.201	-0.466
-466.157	226.160	-0.130	-0.208
-465.143	-200.000	-0.021	0.173
-464.128	217.103	0.147	-0.232
-463.113	96.262	-0.029	-0.032
-462.099	-200.000	-0.010	0.110
-461.084	106.537	-0.249	0.293
-460.070	-42.482	0.307	-0.155
-459.055	-6.038	-0.282	-0.191
-458.040	108.982	-0.183	-0.216
-457.026	-200.000	0.001	0.187
-456.011	-200.000	0.031	0.210
-454.997	13.896	0.394	-0.303
-453.982	-60.534	-0.403	-0.169
-452.968	-58.997	-0.452	-0.193
-451.953	-135.286	0.105	-0.012
-450.938	38.867	-0.159	0.140
-449.924	107.720	-0.257	-0.303
-448.909	-126.496	0.066	-0.010
-447.895	-65.323	-0.169	0.067
-446.880	1.988	0.261	-0.186
-445.865	7.987	-0.092	-0.068
-444.851	117.022	0.130	-0.158
-443.836	24.703	-0.293	-0.240
-442.822	301.923	0.087	-0.159
-441.807	-200.000	0.020	0.310
-440.792	125.215	-0.043	0.054
-439.778	7.082	-0.138	0.102
-438.763	152.197	-0.056	0.076
-437.749	95.806	-0.053	-0.060
-436.734	-103.437	-0.111	0.026
-435.719	-35.505	0.283	-0.152
-434.705	-135.702	0.169	-0.020
-433.690	-200.000	0.017	0.121
-432.676	-156.916	-0.322	-0.020
-431.661	-46.000	0.164	0.080
-430.646	-170.357	0.204	-0.007
-429.632	-94.695	-0.149	0.040
-428.617	-45.594	-0.176	0.086
-427.603	-55.755	-0.323	-0.143
-426.588	-154.485	0.126	0.008
-425.573	-12.756	-0.133	0.085
-424.559	-19.381	0.336	-0.206
-423.544	-39.283	0.329	-0.171
-422.530	184.924	0.085	-0.124
-421.515	-200.000	0.004	-0.037
-420.500	365.613	-0.155	0.308
-419.486	-147.469	0.106	0.009
-418.471	52.429	0.312	0.295
-417.457	-122.356	0.124	-0.020
-416.442	-79.075	0.256	-0.086
-415.428	211.163	-0.156	0.242
-414.413	105.187	-0.199	0.233
-413.398	156.368	-0.096	-0.130
-412.384	-13.760	-0.205	-0.131
-411.369	-200.000	-0.047	0.294
-410.355	317.431	-0.218	0.407
-409.340	800.000	-0.054	-0.192
-408.325	26.489	0.147	0.121
-407.311	-65.027	0.238	0.095
-406.296	-200.000	-0.011	0.330
-405.282	-54.195	-0.195	-0.088
-404.267	-200.000	0.002	0.288
-403.252	-200.000	-0.005	0.317
-402.238	-200.000	-0.061	0.348
-401.223	719.185	0.070	0.183
-400.209	142.317	0.236	-0.309
-399.194	-139.900	-0.126	-0.013
-398.179	-113.517	-0.174	0.034
-397.165	207.389	-0.087	0.133
-396.150	59.760	0.252	0.246
-395.136	-32.212	-0.087	-0.048
-394.121	-112.377	0.114	-0.023
-393.106	114.407	-0.038	-0.046
-392.092	-200.000	0.021	0.337
-391.077	-33.794	0.253	0.138
-390.063	-64.791	0.108	0.043
-389.048	-97.537	0.137	-0.035
-388.033	-200.000	-0.053	0.345
-387.019	58.971	-0.208	-0.202
-386.004	-200.000	0.029	0.136
-384.990	-49.727	-0.401	-0.188
-383.975	-200.000	-0.015	0.171
-382.960	-179.008	0.184	-0.004
-381.946	-162.408	0.167	0.008
-380.931	111.742	-0.158	-0.188
-379.917	-42.796	0.237	-0.119
-378.902	-108.367	-0.162	-0.035
-377.888	427.919	-0.105	-0.223
-376.873	255.246	0.088	0.149
-375.858	-175.695	-0.166	-0.004
-374.844	800.000	0.068	-0.190
-373.829	36.540	-0.147	0.128
-372.815	0.393	0.058	-0.041
-371.800	391.308	-0.092	-0.189
-370.785	-159.339	0.273	0.015
-369.771	307.463	-0.164	-0.302
-368.756	102.489	0.145	0.168
-367.742	-200.000	-0.001	-0.009
-366.727	-145.324	0.206	0.018
-365.712	110.474	-0.198	-0.235
-364.698	-82.065	0.077	-0.025
-363.683	-200.000	-0.037	0.367
-362.669	422.167	0.065	-0.138
-361.654	65.448	-0.211	-0.210
-360.639	-137.599	0.281	-0.031
-359.625	-200.000	-0.008	0.112
-358.610	-7.706	0.187	0.124
-357.596	-22.029	-0.152	-0.091
-356.581	-200.000	-0.053	0.276
-355.566	800.000	0.047	-0.145
-354.552	398.980	-0.163	-0.336
-353.537	-117.121	-0.090	0.016
-352.523	42.759	0.275	-0.247
-351.508	-87.551	-0.136	0.040
-350.493	138.706	-0.122	-0.158
-349.479	-48.498	0.062	-0.030
-348.464	271.420	0.086	0.149
-347.450	171.663	-0.193	-0.273
-346.435	-130.519	0.045	-0.006
-345.420	800.000	0.070	-0.212
-344.406	99.134	-0.171	0.195
-343.391	800.000	0.115	0.477
-342.377	-102.236	0.107	-0.025
-341.362	1.371	0.069	0.049
-340.348	682.079	-0.017	-0.045
-339.333	-115.076	0.212	-0.040
-338.318	430.367	0.058	-0.125
-337.304	-168.195	-0.205	-0.008
-336.289	74.248	-0.184	-0.191
-335.275	-131.273	-0.136	-0.018
-334.260	800.000	0.016	-0.066
-333.245	54.058	-0.136	0.129
-332.231	-2.244	0.111	0.077
-331.216	-1.804	0.051	-0.035
-330.202	-26.796	-0.189	-0.109
-329.187	221.549	-0.106	0.168
-328.172	-32.067	-0.139	-0.077
-327.158	-200.000	0.024	-0.185
-326.143	187.405	-0.088	-0.129
-325.129	253.619	-0.204	0.343
-324.114	460.784	-0.142	0.312
-323.099	-142.301	-0.267	0.026
-322.085	3.091	0.237	0.170
-321.070	516.147	0.077	0.176
-320.056	139.678	-0.114	-0.148
-319.041	-11.206	0.090	0.058
-318.026	-88.200	-0.180	0.053
-317.012	800.000	-0.063	0.174
-315.997	-200.000	0.040	0.191
-314.983	-200.000	0.001	-0.066
-313.968	-127.342	-0.432	-0.062
-312.953	-200.000	0.007	-0.258
-311.939	-32.093	-0.015	0.008
-310.924	-132.363	0.434	-0.055
-309.910	195.380	-0.124	-0.186
-308.895	-193.406	-0.100	-0.001
-307.880	41.374	-0.028	0.025
-306.866	677.679	-0.204	-0.523
-305.851	-64.369	0.214	0.086
-304.837	-101.468	0.296	-0.071
-303.822	116.930	-0.289	-0.349
-302.807	-101.560	-0.245	-0.059
-301.793	148.150	-0.041	0.054
-300.778	-200.000	-0.020	-0.112
-299.764	109.442	0.125	0.147
-298.749	800.000	0.063	-0.204
-297.735	-45.112	-0.216	0.105
-296.720	-200.000	0.011	0.328
-295.705	-54.202	-0.272	-0.122
-294.691	6.462	0.127	-0.093
-293.676	-165.728	-0.155	0.007
-292.662	-21.023	-0.250	-0.150
-291.647	2.589	-0.166	0.118
-290.632	800.000	-0.035	0.128
-289.618	800.000	0.034	0.101
-288.603	-0.642	-0.074	0.052
-287.589	-200.000	-0.053	0.370
-286.574	373.236	0.036	-0.072
-285.559	453.025	-0.159	0.346
-284.545	265.154	0.135	-0.232
-283.530	51.822	-0.105	0.099
-282.516	-60.021	0.152	-0.064
-281.501	164.659	0.124	0.173
-280.486	311.516	0.084	-0.154
-279.472	219.816	-0.205	-0.323
-278.457	82.100	-0.094	-0.100
-277.443	-149.186	-0.231	-0.018
-276.428	136.721	0.431	0.554
-275.413	-125.927	0.043	-0.006
-274.399	-200.000	-0.004	0.039
-273.384	42.542	-0.178	0.159
-272.370	19.162	0.295	0.233
-271.355	114.114	-0.091	0.108
-270.340	103.202	0.237	-0.273
-269.326	207.202	0.225	-0.345
-268.311	460.049	0.127	-0.279
-267.297	128.959	-0.122	-0.153
-266.282	-200.000	-0.017	0.238
-265.267	-200.000	-0.014	0.180
-264.253	0.560	-0.161	-0.113
-263.238	-163.017	0.335	0.016
-262.224	310.226	-0.189	0.348
-261.209	-120.945	-0.087	0.014
-260.195	-88.985	-0.394	0.115
-259.180	-200.000	-0.012	0.124
-258.165	-109.007	-0.052	-0.011
-257.151	-12.282	0.222	-0.143
-256.136	-200.000	0.016	0.309
-255.122	-128.207	-0.154	0.022
-254.107	59.182	-0.225	0.217
-253.092	175.920	0.247	0.353
-252.078	-200.000	0.000	-0.116
-251.063	-99.997	-0.172	0.042
-250.049	-139.443	-0.235	0.025
-249.034	-200.000	-0.034	-0.175
-248.019	-62.298	-0.219	-0.090
-247.005	221.409	-0.151	-0.238
-245.990	-62.614	-0.254	-0.104
-244.976	-53.584	-0.205	0.092
-243.961	-200.000	0.008	0.281
-242.946	73.125	0.350	0.359
-241.932	-165.605	-0.050	0.002
-240.917	248.082	-0.114	-0.190
-239.903	-3.283	0.164	-0.112
-238.888	-136.693	-0.242	0.027
-237.873	170.380	-0.041	0.058
-236.859	-200.000	0.006	-0.052
-235.844	143.465	-0.112	-0.146
-234.830	-42.367	0.397	0.199
-233.815	195.548	-0.157	0.234
-232.800	196.677	0.140	-0.210
-231.786	124.081	-0.039	0.048
-230.771	-200.000	-0.022	0.137
-229.757	-179.374	-0.300	-0.006
-228.742	800.000	-0.063	-0.190
-227.727	-200.000	0.012	0.116
-226.713	254.875	-0.080	0.135
-225.698	-73.197	0.060	0.022
-224.684	132.239	0.170	0.215
-223.669	33.410	-0.202	-0.172
-222.655	192.245	-0.056	0.083
-221.640	-13.723	0.222	0.141
-220.625	-154.041	0.250	0.017
-219.611	-73.744	0.089	-0.032
-218.596	74.876	-0.065	-0.068
-217.582	235.566	0.183	-0.297
-216.567	-137.544	0.172	-0.019
-215.552	-133.379	0.151	-0.019
-214.538	-54.103	-0.200	-0.089
-213.523	632.098	-0.038	0.094
-212.509	-133.219	0.222	0.028
-211.494	-102.117	0.216	0.051
-210.479	73.192	0.189	-0.194
-209.465	-126.053	0.243	-0.036
-208.450	233.155	-0.011	0.018
-207.436	174.861	-0.161	-0.228
-206.421	240.039	0.025	-0.041
-205.406	-78.450	0.142	-0.048
-204.392	749.123	0.069	0.183
-203.377	-119.321	-0.077	0.013
-202.363	74.840	0.099	-0.102
-201.348	-200.000	0.027	0.329
-200.333	575.543	0.112	-0.268
-199.319	-11.786	0.106	0.068
-198.304	-59.958	-0.095	0.040
-197.290	537.276	0.210	-0.490
-196.275	340.800	0.042	-0.081
-195.260	-93.320	-0.137	0.037
-194.246	800.000	-0.068	-0.216
-193.231	-168.153	-0.342	-0.013
-192.217	61.976	0.150	0.147
-191.202	-128.847	-0.213	0.029
-190.187	-29.772	0.228	0.127
-189.173	-57.782	-0.050	0.021
-188.158	800.000	0.042	-0.173
-187.144	800.000	0.084	-0.257
-186.129	18.468	0.331	0.259
-185.114	446.367	0.079	0.169
-184.100	-120.487	0.169	0.028
-183.085	24.711	-0.279	-0.226
-182.071	28.000	0.070	-0.058
-181.056	-200.000	0.026	-0.237
-180.042	-131.150	0.143	-0.019
-179.027	-149.871	-0.267	-0.020
-178.012	800.000	-0.057	0.165
-176.998	177.567	0.229	0.327
-175.983	-133.068	0.188	-0.023
-174.969	136.271	-0.178	-0.227
-173.954	-67.144	0.205	-0.079
-172.939	-4.115	0.078	-0.053
-171.925	-45.247	-0.022	0.010
-170.910	-200.000	0.041	0.183
-169.896	11.001	0.130	0.097
-168.881	-200.000	-0.006	0.085
-167.866	18.300	0.061	0.048
-166.852	5.488	0.141	0.102
-165.837	368.528	-0.097	-0.193
-164.823	417.886	0.036	-0.074
-163.808	-140.231	0.150	-0.015
-162.793	800.000	0.099	-0.347
-161.779	-97.324	-0.117	-0.030
-160.764	-200.000	0.064	0.367
-159.750	-49.106	-0.306	-0.143
-158.735	100.723	0.124	-0.141
-157.720	38.071	-0.201	0.175
-156.706	426.832	-0.122	-0.257
-155.691	-200.000	0.005	-0.068
-154.677	-62.038	0.367	0.150
-153.662	800.000	-0.066	-0.247
-152.647	-10.933	-0.215	-0.139
-151.633	-164.559	0.386	-0.017
-150.618	191.641	0.103	0.152
-149.604	358.722	-0.015	0.028
-148.589	-112.991	0.107	0.021
-147.574	800.000	0.077	-0.262
-146.560	800.000	-0.059	0.209
-145.545	34.038	0.198	0.169
-144.531	-200.000	-0.042	0.376
-143.516	-181.008	0.208	0.004
-142.502	-200.000	0.038	-0.228
-141.487	-125.237	0.261	-0.039
-140.472	-200.000	0.033	-0.219
-139.458	800.000	-0.064	-0.272
-138.443	-106.477	0.409	0.089
-137.429	-58.901	0.151	0.064
-136.414	-40.723	-0.171	0.087
-135.399	666.456	0.069	0.176
-134.385	-103.320	-0.100	0.023
-133.370	-119.071	0.342	0.059
-132.356	-21.722	-0.139	0.083
-131.341	70.901	0.300	0.304
-130.326	9.551	-0.192	-0.142
-129.312	15.456	-0.251	0.192
-128.297	374.103	0.138	0.275
-127.283	425.350	-0.103	0.216
-126.268	-48.898	0.083	0.039
-125.253	57.933	0.349	-0.333
-124.239	-200.000	-0.016	0.288
-123.224	-200.000	-0.027	0.000
-122.210	-119.915	-0.193	-0.032
-121.195	-129.139	-0.306	0.042
