DTS Sentinel unit serial number:	SN413079Multiplexer serial number:	ORYXHardware model number:	OX4-SRSoftware version number:	ORYX F/W v4.00 Oryx Data Collector v3.7.2.0data status	okinstallation	princeton_trtdifferential loss correction	single-endedforward channel	channel 3reverse channel	N/Adate	2019/09/17time	08:28:35forward acquisition time	60.00reverse acquisition time	0.00gamma	496.2192k internal	0.2332k external	0.2332temperature offset calibration	0.9942default loss term (dB/km)	0.3790temperature slope calibration	1.0000multiplexer offset coefficient	1.0000multiplexer slope coefficient	1.0000fibre end	0.00T internal ref (°C)	27.55T ext. ref 1 (°C)	0.12T ext. ref 2 (°C)	22.94length (m)	temperature (°C)	Stokes	anti-Stokes-747.200	800.000	0.033	0.110
-746.185	147.901	-0.082	0.111
-745.171	215.742	-0.100	0.159
-744.156	-200.000	0.015	-0.104
-743.142	-81.493	-0.295	0.097
-742.127	800.000	-0.076	0.332
-741.112	-55.219	0.143	-0.065
-740.098	-147.128	-0.078	0.007
-739.083	6.212	-0.114	0.085
-738.069	143.645	0.112	-0.150
-737.054	800.000	0.150	-0.420
-736.039	-13.113	-0.427	0.279
-735.025	-139.312	0.592	-0.064
-734.010	-116.014	-0.223	0.042
-732.996	152.075	0.267	-0.366
-731.981	227.340	-0.039	-0.064
-730.966	188.937	-0.068	0.102
-729.952	-11.446	-0.181	-0.120
-728.937	-200.000	-0.041	-0.186
-727.923	15.786	0.170	0.135
-726.908	128.094	0.104	-0.133
-725.894	-108.717	-0.472	-0.102
-724.879	24.680	0.335	-0.279
-723.864	2.139	-0.363	0.263
-722.850	800.000	-0.070	0.227
-721.835	-105.836	0.189	-0.043
-720.821	355.744	0.076	-0.153
-719.806	-200.000	0.193	0.000
-718.791	391.344	-0.035	0.074
-717.777	225.267	-0.164	-0.266
-716.762	218.695	0.062	0.099
-715.748	27.497	-0.170	0.144
-714.733	-200.000	-0.016	-0.101
-713.718	-4.395	0.091	-0.063
-712.704	-200.000	-0.004	-0.121
-711.689	-108.636	-0.248	0.054
-710.675	800.000	-0.057	0.204
-709.660	-67.458	0.115	0.045
-708.645	-33.471	-0.112	0.062
-707.631	414.185	0.047	-0.101
-706.616	41.341	0.285	-0.259
-705.602	-108.258	0.082	-0.018
-704.587	64.538	-0.243	-0.246
-703.572	-117.311	0.168	-0.031
-702.558	-109.037	-0.097	0.021
-701.543	-10.049	0.119	-0.080
-700.529	-200.000	-0.018	-0.111
-699.514	-128.025	-0.503	-0.073
-698.499	-111.444	-0.233	0.048
-697.485	-200.000	-0.010	-0.085
-696.470	411.342	-0.013	-0.027
-695.456	-200.000	0.011	-0.059
-694.441	329.235	0.040	-0.077
-693.426	-200.000	-0.014	0.337
-692.412	153.293	-0.092	-0.127
-691.397	-200.000	-0.008	0.151
-690.383	10.659	-0.307	-0.235
-689.368	-23.976	0.185	-0.111
-688.354	250.397	0.184	-0.314
-687.339	-200.000	-0.037	-0.362
-686.324	800.000	0.014	0.041
-685.310	-200.000	0.038	0.426
-684.295	800.000	-0.060	-0.175
-683.281	-19.686	-0.078	0.049
-682.266	-194.614	-0.418	0.003
-681.251	-72.252	0.180	-0.067
-680.237	-97.230	0.252	-0.066
-679.222	800.000	-0.017	0.061
-678.208	-135.402	0.257	-0.031
-677.193	302.896	-0.153	-0.284
-676.178	-55.772	-0.111	-0.050
-675.164	-138.620	-0.490	-0.054
-674.149	800.000	0.025	-0.078
-673.135	-200.000	0.040	-0.258
-672.120	-24.144	0.371	-0.222
-671.105	203.311	-0.102	-0.158
-670.091	-156.221	-0.222	-0.014
-669.076	800.000	0.047	-0.170
-668.062	437.399	-0.123	0.268
-667.047	800.000	-0.052	-0.194
-666.032	33.139	-0.248	0.215
-665.018	375.622	-0.049	-0.101
-664.003	233.285	0.312	0.515
-662.989	-54.111	-0.084	-0.038
-661.974	800.000	0.052	-0.158
-660.959	-98.963	-0.336	-0.086
-659.945	-84.621	-0.127	-0.040
-658.930	62.046	0.228	-0.228
-657.916	252.115	-0.027	0.046
-656.901	103.941	0.241	0.284
-655.886	-47.116	-0.162	-0.079
-654.872	25.565	-0.068	-0.057
-653.857	205.200	0.293	-0.456
-652.843	54.203	0.178	-0.172
-651.828	-200.000	0.000	0.244
-650.814	57.038	-0.127	-0.124
-649.799	-68.796	-0.415	0.161
-648.784	-200.000	0.018	-0.160
-647.770	-4.283	0.224	-0.155
-646.755	-56.342	0.270	0.120
-645.741	-170.896	-0.362	-0.012
-644.726	-200.000	0.011	-0.370
-643.711	-67.158	0.094	0.037
-642.697	-20.122	0.074	-0.046
-641.682	800.000	-0.047	-0.177
-640.668	392.551	0.198	-0.412
-639.653	-40.932	0.359	-0.186
-638.638	46.185	0.172	0.160
-637.624	-34.449	-0.343	-0.189
-636.609	-97.342	0.016	0.004
-635.595	24.113	-0.191	-0.158
-634.580	800.000	-0.137	-0.418
-633.565	-156.635	-0.248	-0.015
-632.551	-24.575	-0.336	-0.200
-631.536	-200.000	-0.035	-0.342
-630.522	800.000	0.100	-0.325
-629.507	-50.770	-0.207	0.098
-628.492	204.676	0.083	0.129
-627.478	17.795	0.129	-0.103
-626.463	205.745	-0.100	-0.156
-625.449	-47.911	0.137	-0.066
-624.434	92.320	0.067	-0.076
-623.419	-95.664	0.056	-0.015
-622.405	-200.000	-0.228	0.000
-621.390	-200.000	0.067	-0.335
-620.376	90.627	0.188	-0.210
-619.361	-200.000	0.006	-0.042
-618.346	-50.259	-0.160	-0.076
-617.332	434.757	-0.032	-0.070
-616.317	-200.000	0.209	0.001
-615.303	242.172	-0.095	0.159
-614.288	-96.767	0.329	0.087
-613.273	-200.000	0.039	-0.277
-612.259	228.876	0.206	-0.336
-611.244	-96.533	0.247	-0.065
-610.230	800.000	0.130	-0.474
-609.215	94.216	-0.110	0.125
-608.201	-11.986	-0.293	0.192
-607.186	86.175	-0.136	-0.150
-606.171	800.000	0.013	0.051
-605.157	-109.839	0.302	0.064
-604.142	-94.682	0.094	-0.025
-603.128	-99.586	-0.148	0.037
-602.113	20.503	0.267	-0.216
-601.098	580.489	-0.111	-0.271
-600.084	527.884	0.068	-0.160
-599.069	-78.422	0.288	-0.099
-598.055	-200.000	-0.014	-0.257
-597.040	-200.000	-0.015	-0.084
-596.025	-69.401	0.234	0.090
-595.011	-51.346	0.108	0.051
-593.996	-26.625	-0.105	-0.062
-592.982	-58.113	-0.145	-0.063
-591.967	-106.435	-0.303	-0.068
-590.952	333.065	-0.092	-0.178
-589.938	786.241	-0.050	0.136
-588.923	800.000	-0.021	-0.081
-587.909	346.384	-0.141	0.278
-586.894	19.092	-0.393	-0.315
-585.879	140.545	0.149	0.196
-584.865	31.672	0.333	0.286
-583.850	-109.264	0.204	-0.043
-582.836	-20.237	-0.223	0.137
-581.821	-165.740	-0.319	-0.014
-580.806	168.726	-0.112	0.160
-579.792	800.000	-0.083	0.322
-578.777	-31.259	-0.284	0.160
-577.763	-200.000	-0.054	-0.261
-576.748	-47.022	-0.194	0.095
-575.733	2.609	-0.176	-0.128
-574.719	82.954	-0.120	-0.131
-573.704	84.427	-0.305	-0.334
-572.690	-158.036	0.309	-0.018
-571.675	76.158	-0.326	0.345
-570.661	7.754	-0.203	-0.152
-569.646	-200.000	-0.066	-0.616
-568.631	-150.202	0.237	-0.018
-567.617	-200.000	-0.008	0.117
-566.602	376.022	0.017	-0.034
-565.588	-200.000	0.028	0.192
-564.573	302.144	-0.151	-0.278
-563.558	-61.666	-0.440	-0.184
-562.544	289.809	-0.165	-0.300
-561.529	800.000	-0.103	0.402
-560.515	-45.971	0.180	0.088
-559.500	-200.000	-0.012	0.312
-558.485	210.553	-0.059	0.093
-557.471	-74.260	0.089	0.032
-556.456	800.000	-0.051	-0.200
-555.442	23.460	-0.203	-0.167
-554.427	-80.038	0.127	-0.043
-553.412	301.697	0.067	0.124
-552.398	-200.000	-0.094	-0.419
-551.383	335.562	0.188	-0.364
-550.369	-56.607	0.058	0.026
-549.354	-145.519	-0.217	0.019
-548.339	-200.000	-0.005	0.399
-547.325	-8.156	0.157	0.105
-546.310	293.806	-0.053	-0.096
-545.296	-174.155	0.331	-0.010
-544.281	-87.143	-0.211	-0.064
-543.266	70.398	0.096	-0.099
-542.252	146.142	0.141	0.188
-541.237	210.564	0.140	-0.219
-540.223	-104.132	0.257	-0.060
-539.208	-160.317	-0.105	0.006
-538.193	-62.397	0.231	0.096
-537.179	-25.659	0.064	0.038
-536.164	-200.000	-0.005	0.249
-535.150	-55.733	-0.214	0.095
-534.135	146.509	-0.101	-0.136
-533.121	800.000	-0.060	0.217
-532.106	800.000	0.010	0.033
-531.091	-61.206	0.219	0.092
-530.077	-9.521	0.296	0.197
-529.062	-34.662	-0.236	-0.129
-528.048	-200.000	-0.001	0.030
-527.033	800.000	0.228	0.647
-526.018	-103.612	-0.153	-0.036
-525.004	29.272	0.208	-0.176
-523.989	-11.246	-0.189	-0.124
-522.975	88.609	0.049	0.054
-521.960	-200.000	0.099	-0.525
-520.945	736.028	0.071	0.190
-519.931	1.918	0.201	0.145
-518.916	69.239	0.131	0.134
-517.902	164.258	-0.170	0.239
-516.887	-54.457	-0.100	0.045
-515.872	-38.295	-0.357	0.189
-514.858	-3.574	0.091	-0.063
-513.843	-186.188	0.170	-0.002
-512.829	32.600	-0.251	-0.216
-511.814	-152.016	0.325	0.024
-510.799	-52.434	-0.198	-0.091
-509.785	78.033	-0.144	-0.153
-508.770	-129.586	0.440	0.061
-507.756	-135.399	-0.374	-0.045
-506.741	-71.494	0.111	0.041
-505.726	-102.037	-0.068	-0.016
-504.712	4.161	-0.275	0.201
-503.697	800.000	0.031	-0.103
-502.683	282.896	-0.246	0.440
-501.668	67.104	-0.251	-0.254
-500.653	-40.116	0.114	-0.059
-499.639	-200.000	-0.010	0.080
-498.624	-152.932	-0.217	0.015
-497.610	86.721	-0.241	-0.265
-496.595	-86.378	-0.247	0.076
-495.581	800.000	0.112	0.346
-494.566	-48.998	-0.311	0.148
-493.551	164.581	0.055	0.077
-492.537	-114.879	-0.107	-0.020
-491.522	226.351	0.111	0.179
-490.508	59.398	-0.092	-0.090
-489.493	-173.420	-0.210	-0.006
-488.478	37.530	-0.099	-0.087
-487.464	-65.952	0.212	-0.084
-486.449	800.000	-0.051	-0.144
-485.435	76.061	-0.091	0.096
-484.420	72.878	-0.236	-0.245
-483.405	-61.219	-0.139	0.058
-482.391	-200.000	0.012	0.233
-481.376	-46.015	-0.102	0.050
-480.362	800.000	-0.060	0.217
-479.347	-200.000	0.006	0.135
-478.332	175.034	0.124	0.178
-477.318	-200.000	0.005	-0.202
-476.303	19.461	0.355	-0.284
-475.289	-200.000	0.001	-0.037
-474.274	-63.026	0.342	-0.141
-473.259	-112.978	0.065	0.013
-472.245	800.000	0.066	-0.231
-471.230	-41.896	0.029	0.015
-470.216	-174.979	-0.133	-0.004
-469.201	-126.306	-0.442	0.066
-468.186	-188.267	0.330	0.004
-467.172	-106.876	0.385	0.085
-466.157	800.000	0.076	0.281
-465.143	-200.000	0.025	0.354
-464.128	-82.410	-0.154	0.050
-463.113	-193.387	-0.131	-0.001
-462.099	-200.000	-0.055	0.264
-461.084	-111.593	-0.195	0.039
-460.070	-125.641	-0.040	-0.006
-459.055	-169.516	-0.243	0.009
-458.040	183.506	0.269	0.395
-457.026	-200.000	0.011	0.143
-456.011	-200.000	-0.012	0.086
-454.997	-200.000	0.017	-0.087
-453.982	-172.962	-0.222	0.007
-452.968	-31.002	0.252	0.142
-451.953	237.593	0.229	0.377
-450.938	-45.128	-0.155	0.076
-449.924	-77.427	0.285	0.098
-448.909	32.654	0.275	0.236
-447.895	-200.000	0.017	-0.122
-446.880	745.765	0.054	-0.146
-445.865	-132.168	-0.200	0.026
-444.851	800.000	0.085	-0.312
-443.836	-56.002	-0.300	-0.133
-442.822	-95.677	0.074	0.020
-441.807	-162.400	0.087	-0.004
-440.792	529.615	0.081	-0.190
-439.778	170.208	-0.134	0.190
-438.763	-176.205	0.237	-0.006
-437.749	15.809	-0.216	-0.169
-436.734	-145.049	0.221	-0.020
-435.719	-8.599	0.297	0.198
-434.705	182.963	0.074	-0.108
-433.690	-115.834	0.134	0.025
-432.676	-88.326	0.060	-0.018
-431.661	275.336	0.140	-0.247
-430.646	298.919	0.095	0.174
-429.632	46.791	-0.258	0.238
-428.617	509.309	0.042	0.097
-427.603	-200.000	-0.018	0.193
-426.588	57.918	0.336	0.326
-425.573	800.000	-0.030	0.088
-424.559	-200.000	-0.017	0.076
-423.544	-200.000	0.006	0.217
-422.530	177.931	-0.167	0.241
-421.515	316.145	0.119	0.223
-420.500	5.284	-0.217	-0.159
-419.486	52.021	0.079	-0.074
-418.471	800.000	-0.144	-0.414
-417.457	604.623	-0.073	0.182
-416.442	-81.672	0.359	0.117
-415.428	-145.452	0.221	0.020
-414.413	421.080	-0.041	-0.088
-413.398	800.000	0.026	-0.091
-412.384	-10.040	0.077	-0.051
-411.369	-121.239	-0.138	0.023
-410.355	-31.581	-0.380	-0.212
-409.340	-200.000	0.029	0.179
-408.325	-59.248	-0.219	0.093
-407.311	549.627	0.047	0.112
-406.296	-154.287	-0.272	-0.018
-405.282	800.000	0.060	-0.213
-404.267	800.000	0.046	0.185
-403.252	95.155	-0.138	0.156
-402.238	-200.000	-0.027	0.250
-401.223	21.831	0.211	0.171
-400.209	27.041	0.168	-0.140
-399.194	51.725	-0.168	-0.159
-398.179	-200.000	0.010	-0.139
-397.165	-200.000	-0.035	-0.282
-396.150	356.538	0.156	0.309
-395.136	84.120	-0.209	-0.226
-394.121	307.471	0.041	-0.076
-393.106	-166.620	-0.130	0.005
-392.092	506.890	0.018	-0.042
-391.077	-200.000	0.001	0.089
-390.063	-98.554	-0.292	0.074
-389.048	16.199	-0.252	-0.197
-388.033	-200.000	-0.070	-0.327
-387.019	709.787	0.033	0.087
-386.004	108.711	0.216	0.256
-384.990	800.000	0.016	0.059
-383.975	-129.930	0.387	-0.053
-382.960	124.581	-0.286	0.357
-381.946	21.159	0.138	-0.111
-380.931	-114.074	-0.110	-0.021
-379.917	800.000	-0.119	-0.374
-378.902	165.206	-0.201	-0.281
-377.888	144.660	-0.090	-0.119
-376.873	-200.000	0.041	-0.307
-375.858	-121.742	0.113	0.018
-374.844	-200.000	0.006	0.076
-373.829	-124.167	-0.379	0.059
-372.815	-200.000	-0.009	0.277
-371.800	159.124	-0.054	0.074
-370.785	-200.000	0.050	-0.336
-369.771	-26.682	-0.069	-0.040
-368.756	-37.654	0.178	-0.094
-367.742	-24.538	0.135	-0.080
-366.727	54.626	-0.313	-0.299
-365.712	177.276	0.130	0.187
-364.698	-62.611	0.108	0.044
-363.683	128.717	0.146	0.184
-362.669	-29.022	-0.116	-0.066
-361.654	-200.000	-0.006	0.462
-360.639	-200.000	0.018	0.392
-359.625	800.000	-0.055	-0.214
-358.610	508.741	-0.088	-0.203
-357.596	-200.000	-0.017	0.262
-356.581	205.117	0.167	-0.257
-355.566	-43.628	-0.341	0.170
-354.552	260.418	0.079	-0.134
-353.537	33.723	0.320	-0.276
-352.523	26.760	0.142	0.118
-351.508	-66.796	0.043	0.017
-350.493	-7.038	-0.138	0.093
-349.479	800.000	-0.065	0.271
-348.464	137.691	0.203	0.263
-347.450	-200.000	0.043	-0.249
-346.435	-72.375	-0.091	-0.034
-345.420	334.675	0.121	0.233
-344.406	800.000	-0.081	0.269
-343.391	-200.000	0.009	-0.143
-342.377	800.000	0.066	-0.208
-341.362	-28.453	0.332	-0.189
-340.348	-200.000	0.013	0.193
-339.333	-200.000	-0.044	-0.206
-338.318	-40.612	0.250	0.128
-337.304	163.028	-0.150	0.209
-336.289	-80.732	0.039	0.013
-335.275	644.401	0.165	0.417
-334.260	-9.005	-0.334	-0.221
-333.245	-106.697	-0.140	0.031
-332.231	683.683	-0.040	0.102
-331.216	-200.000	0.011	0.065
-330.202	-200.000	0.025	-0.156
-329.187	766.204	0.116	-0.311
-328.172	17.414	-0.112	0.088
-327.158	44.731	-0.112	0.102
-326.143	191.893	-0.074	0.111
-325.129	-200.000	-0.007	-0.098
-324.114	800.000	-0.086	0.307
-323.099	-200.000	0.051	0.270
-322.085	-114.671	0.277	-0.052
-321.070	88.479	0.249	0.274
-320.056	-48.549	-0.213	0.101
-319.041	-200.000	0.016	0.099
-318.026	-8.535	-0.161	0.107
-317.012	-134.415	0.431	0.052
-315.997	523.217	0.103	0.239
-314.983	2.813	-0.412	-0.296
-313.968	4.633	-0.257	-0.187
-312.953	50.812	0.167	-0.156
-311.939	-200.000	0.038	0.202
-310.924	10.496	-0.080	0.060
-309.910	-85.595	0.322	0.099
-308.895	-126.677	-0.349	-0.051
-307.880	-9.955	-0.037	0.024
-306.866	-53.010	-0.289	-0.131
-305.851	-67.102	-0.168	0.065
-304.837	-200.000	-0.010	0.267
-303.822	-132.965	0.229	-0.029
-302.807	154.242	0.092	0.124
-301.793	146.169	0.095	0.126
-300.778	-200.000	0.002	0.256
-299.764	5.854	0.076	-0.056
-298.749	39.944	-0.149	-0.132
-297.735	90.371	-0.125	0.139
-296.720	-200.000	-0.037	0.382
-295.705	-129.343	0.136	-0.019
-294.691	-95.717	-0.186	-0.049
-293.676	116.253	-0.019	-0.023
-292.662	201.128	0.048	0.073
-291.647	417.052	0.125	-0.264
-290.632	-34.809	0.413	0.223
-289.618	-200.000	-0.013	0.210
-288.603	-200.000	0.001	-0.047
-287.589	173.994	0.088	-0.126
-286.574	-46.644	0.269	-0.130
-285.559	-76.334	-0.259	-0.090
-284.545	22.056	0.031	-0.025
-283.530	-29.372	0.238	0.134
-282.516	-49.257	0.221	0.104
-281.501	14.599	0.376	-0.290
-280.486	-61.925	-0.253	-0.104
-279.472	-200.000	-0.083	-0.399
-278.457	-14.980	0.157	-0.100
-277.443	-58.198	-0.051	0.022
-276.428	-110.840	-0.243	0.049
-275.413	59.737	-0.108	-0.106
-274.399	51.183	0.127	-0.119
-273.384	450.532	-0.183	0.399
-272.370	-200.000	-0.003	0.086
-271.355	210.504	0.167	0.259
-270.340	800.000	-0.109	-0.304
-269.326	77.050	-0.335	-0.351
-268.311	-200.000	-0.030	0.330
-267.297	-58.160	-0.153	0.066
-266.282	-23.116	-0.033	0.020
-265.267	-44.446	0.117	0.058
-264.253	39.273	-0.163	0.144
-263.238	-12.416	0.238	0.154
-262.224	196.780	0.332	0.500
-261.209	198.824	0.127	0.191
-260.195	-160.583	0.260	0.014
-259.180	-26.299	0.121	0.070
-258.165	375.386	-0.095	0.191
-257.151	333.404	0.102	0.194
-256.136	-200.000	0.006	0.268
-255.122	-28.229	-0.272	-0.155
-254.107	269.931	0.094	-0.162
-253.092	-97.780	-0.213	-0.054
-252.078	-74.858	-0.308	0.109
-251.063	37.126	0.287	-0.250
-250.049	106.147	0.044	0.051
-249.034	800.000	-0.023	0.067
-248.019	-141.810	0.335	0.033
-247.005	516.393	0.102	-0.235
-245.990	17.099	-0.249	0.195
-244.976	-169.727	0.138	0.005
-243.961	-27.702	-0.225	-0.129
-242.946	77.097	0.174	-0.182
-241.932	164.588	-0.233	-0.324
-240.917	-111.866	0.117	-0.023
-239.903	-200.000	-0.003	-0.036
-238.888	-30.213	-0.173	0.097
-237.873	-116.629	-0.134	0.024
-236.859	122.178	0.259	-0.319
-235.844	-23.906	0.317	-0.187
-234.830	-116.387	-0.199	-0.036
-233.815	-103.578	0.280	-0.065
-232.800	352.450	-0.140	0.273
-231.786	-200.000	0.008	-0.045
-230.771	294.058	0.069	0.124
-229.757	-31.183	0.237	0.132
-228.742	13.183	0.186	0.142
-227.727	181.232	-0.186	0.269
-226.713	20.472	0.472	0.376
-225.698	-200.000	-0.055	0.311
-224.684	295.130	0.219	-0.395
-223.669	800.000	-0.039	-0.167
-222.655	206.978	-0.223	-0.343
-221.640	-101.230	-0.142	0.034
-220.625	281.363	-0.084	-0.149
-219.611	297.947	0.064	-0.116
-218.596	131.907	-0.078	-0.098
-217.582	48.158	0.100	-0.092
-216.567	-112.621	0.353	-0.069
-215.552	-79.767	-0.164	0.054
-214.538	-136.532	0.164	-0.019
-213.523	296.678	-0.042	0.075
-212.509	114.038	0.098	-0.117
-211.494	-200.000	-0.008	-0.204
-210.479	50.963	0.158	0.147
-209.465	-122.625	-0.286	0.046
-208.450	-83.382	0.137	0.043
-207.436	56.150	0.218	-0.208
-206.421	-200.000	0.020	-0.279
-205.406	3.254	-0.257	-0.184
-204.392	-200.000	-0.040	0.271
-203.377	-200.000	0.004	-0.219
-202.363	800.000	-0.065	0.190
-201.348	348.674	-0.096	0.187
-200.333	119.288	0.177	-0.216
-199.319	617.770	0.144	-0.355
-198.304	36.322	-0.278	-0.242
-197.290	238.135	0.112	0.182
-196.275	452.125	0.188	-0.409
-195.260	-152.981	-0.256	-0.018
-194.246	138.739	-0.146	0.189
-193.231	-69.905	0.387	0.145
-192.217	-163.622	-0.258	-0.012
-191.202	-200.000	0.091	-0.410
-190.187	-200.000	-0.021	-0.351
-189.173	-40.199	-0.053	-0.027
-188.158	330.994	-0.178	0.338
-187.144	234.718	-0.123	0.199
-186.129	84.921	-0.216	0.233
-185.114	-200.000	-0.026	-0.118
-184.100	224.405	0.017	-0.028
-183.085	148.791	0.122	0.162
-182.071	100.624	-0.142	0.162
-181.056	-170.262	0.024	-0.001
-180.042	21.515	-0.173	-0.138
-179.027	88.598	0.172	0.188
-178.012	-113.408	0.092	-0.018
-176.998	-200.000	0.077	-0.382
-175.983	130.427	0.095	-0.120
-174.969	-90.545	-0.105	0.030
-173.954	491.103	-0.103	0.231
-172.939	-200.000	0.006	-0.071
-171.925	-146.064	-0.077	-0.007
-170.910	800.000	-0.061	-0.231
-169.896	-169.569	-0.137	0.005
-168.881	-70.739	0.192	0.071
-167.866	-66.097	-0.068	0.027
-166.852	245.481	0.137	-0.226
-165.837	-159.206	0.292	-0.016
-164.823	-200.000	0.066	0.294
-163.808	800.000	-0.049	-0.162
-162.793	14.513	0.305	0.234
-161.779	-172.000	0.075	0.002
-160.764	-141.388	0.166	-0.017
-159.750	322.085	0.052	0.097
-158.735	-99.421	0.254	0.063
-157.720	399.692	-0.098	-0.202
-156.706	-121.326	-0.286	0.047
-155.691	-200.000	0.017	0.099
-154.677	9.406	0.130	-0.096
-153.662	597.843	-0.077	0.188
-152.647	555.614	-0.143	0.338
-151.633	-50.683	0.129	0.059
-150.618	-130.759	0.354	0.047
-149.604	192.853	0.065	0.097
-148.589	-153.225	-0.130	0.009
-147.574	-200.000	0.029	-0.338
-146.560	-41.084	-0.232	0.118
-145.545	27.106	-0.146	0.120
-144.531	-127.932	0.095	-0.013
-143.516	-149.767	-0.332	-0.026
-142.502	-155.621	-0.107	0.007
-141.487	299.080	0.266	0.481
-140.472	-84.667	-0.081	0.025
-139.458	-170.642	0.192	0.007
-138.443	226.416	0.024	0.038
-137.429	82.351	-0.172	-0.184
-136.414	128.822	-0.168	-0.211
-135.399	800.000	0.023	-0.085
-134.385	148.216	0.131	0.174
-133.370	-118.634	-0.204	0.035
-132.356	800.000	0.124	-0.346
-131.341	-200.000	0.028	0.282
-130.326	800.000	0.030	0.095
-129.312	371.320	-0.039	-0.077
-128.297	-37.690	0.171	0.089
-127.283	-75.923	-0.235	0.082
-126.268	284.797	-0.210	-0.372
-125.253	-66.250	-0.185	0.072
-124.239	-8.083	0.114	-0.075
-123.224	190.326	-0.059	0.087
-122.210	-25.253	-0.270	-0.157
-121.195	48.625	-0.114	0.105
