DTS Sentinel unit serial number:	SN413079Multiplexer serial number:	ORYXHardware model number:	OX4-SRSoftware version number:	ORYX F/W v4.00 Oryx Data Collector v3.7.2.0data status	okinstallation	princeton_trtdifferential loss correction	single-endedforward channel	channel 3reverse channel	N/Adate	2019/09/18time	12:04:34forward acquisition time	60.00reverse acquisition time	0.00gamma	496.2192k internal	0.2323k external	0.2323temperature offset calibration	0.9961default loss term (dB/km)	0.3790temperature slope calibration	1.0000multiplexer offset coefficient	1.0000multiplexer slope coefficient	1.0000fibre end	0.00T internal ref (°C)	31.62T ext. ref 1 (°C)	0.48T ext. ref 2 (°C)	27.28length (m)	temperature (°C)	Stokes	anti-Stokes-747.200	-200.000	0.033	0.182
-746.185	507.118	-0.219	0.513
-745.171	800.000	0.066	0.202
-744.156	296.532	-0.009	0.016
-743.142	-200.000	0.016	0.082
-742.127	118.460	-0.201	0.251
-741.112	211.904	-0.073	-0.116
-740.098	-122.312	-0.298	0.049
-739.083	-200.000	-0.003	-0.128
-738.069	289.180	0.077	-0.140
-737.054	32.120	-0.186	-0.162
-736.039	-5.798	-0.307	0.212
-735.025	-165.522	-0.230	-0.010
-734.010	800.000	-0.065	0.210
-732.996	30.398	-0.188	0.162
-731.981	800.000	0.059	0.168
-730.966	74.491	-0.104	-0.111
-729.952	-200.000	0.023	-0.352
-728.937	-200.000	0.035	-0.360
-727.923	39.528	-0.171	-0.155
-726.908	800.000	0.039	0.149
-725.894	43.033	-0.155	0.142
-724.879	61.146	-0.325	-0.326
-723.864	-44.634	-0.277	0.140
-722.850	-200.000	-0.034	0.164
-721.835	147.021	-0.247	-0.336
-720.821	56.454	-0.046	-0.045
-719.806	173.717	0.210	0.305
-718.791	50.537	0.066	0.063
-717.777	-125.416	-0.171	0.026
-716.762	-200.000	0.026	-0.164
-715.748	-179.270	0.293	0.007
-714.733	171.160	-0.150	0.217
-713.718	113.108	-0.122	0.149
-712.704	-99.283	0.250	0.064
-711.689	-69.350	0.104	-0.040
-710.675	55.441	-0.187	-0.183
-709.660	-85.504	0.108	0.034
-708.645	194.822	0.153	-0.234
-707.631	-123.761	0.134	-0.021
-706.616	-200.000	-0.015	-0.245
-705.602	-45.843	-0.090	0.045
-704.587	-200.000	-0.030	0.242
-703.572	-62.083	-0.201	0.085
-702.558	72.764	0.169	-0.178
-701.543	557.623	0.132	0.321
-700.529	144.993	-0.372	0.502
-699.514	269.037	-0.218	-0.386
-698.499	750.837	0.102	-0.277
-697.485	-168.474	0.216	0.008
-696.470	227.414	0.168	-0.275
-695.456	-34.689	-0.157	-0.086
-694.441	-72.614	0.258	-0.096
-693.426	138.175	0.139	-0.184
-692.412	103.518	-0.147	0.174
-691.397	-200.000	-0.027	-0.296
-690.383	-89.452	-0.132	-0.039
-689.368	-127.846	-0.172	0.025
-688.354	-200.000	-0.115	-0.534
-687.339	-66.096	0.121	0.049
-686.324	135.293	-0.102	0.133
-685.310	414.491	0.073	0.157
-684.295	77.769	0.059	-0.063
-683.281	-200.000	0.002	-0.122
-682.266	-23.004	0.459	-0.279
-681.251	85.382	-0.023	0.025
-680.237	-85.251	0.180	0.057
-679.222	-200.000	0.043	-0.224
-678.208	-23.731	0.123	-0.074
-677.193	101.387	-0.211	-0.248
-676.178	-59.464	-0.273	-0.118
-675.164	-23.343	-0.185	0.112
-674.149	-200.000	-0.015	-0.292
-673.135	800.000	-0.021	-0.089
-672.120	149.887	-0.169	-0.231
-671.105	-95.385	0.034	-0.009
-670.091	-143.285	-0.369	-0.036
-669.076	-83.505	-0.260	-0.084
-668.062	-26.455	0.311	0.184
-667.047	-200.000	-0.004	0.097
-666.032	-200.000	-0.057	-0.256
-665.018	79.419	-0.209	-0.226
-664.003	800.000	0.044	-0.149
-662.989	-42.824	0.264	0.135
-661.974	479.232	0.107	-0.244
-660.959	-159.375	-0.053	0.003
-659.945	-165.020	0.331	0.015
-658.930	-85.131	0.214	0.068
-657.916	7.940	-0.203	0.154
-656.901	-88.595	-0.078	0.023
-655.886	800.000	-0.082	-0.301
-654.872	26.817	0.103	-0.087
-653.857	800.000	0.098	-0.285
-652.843	-200.000	0.014	0.129
-651.828	-76.750	0.060	-0.021
-650.814	363.806	0.108	0.219
-649.799	-81.079	-0.309	0.103
-648.784	-200.000	-0.009	-0.173
-647.770	-20.032	0.333	-0.207
-646.755	-46.450	0.131	0.065
-645.741	106.138	0.145	0.172
-644.726	-142.989	-0.271	0.026
-643.711	396.591	0.023	0.049
-642.697	234.734	-0.155	0.258
-641.682	37.680	0.096	-0.085
-640.668	44.981	-0.194	-0.180
-639.653	533.284	-0.111	-0.264
-638.638	-84.127	0.164	-0.052
-637.624	69.663	0.261	-0.270
-636.609	-200.000	-0.038	-0.253
-635.595	171.447	-0.048	-0.070
-634.580	800.000	0.007	-0.024
-633.565	800.000	-0.088	0.385
-632.551	87.993	-0.396	-0.442
-631.536	-200.000	-0.033	-0.287
-630.522	-200.000	0.011	-0.113
-629.507	-24.407	-0.240	-0.144
-628.492	-32.929	-0.106	-0.059
-627.478	-19.459	-0.403	0.251
-626.463	-16.214	0.104	-0.066
-625.449	454.656	0.075	0.167
-624.434	-101.267	-0.108	0.026
-623.419	-29.861	-0.230	-0.132
-622.405	103.381	0.165	-0.195
-621.390	565.535	-0.109	-0.265
-620.376	394.357	0.106	-0.223
-619.361	800.000	-0.063	0.242
-618.346	-200.000	0.010	0.067
-617.332	-200.000	0.040	0.394
-616.317	146.817	-0.043	-0.059
-615.303	-186.465	0.125	-0.002
-614.288	-181.223	-0.207	-0.004
-613.273	-200.000	0.051	-0.250
-612.259	-158.015	-0.277	0.016
-611.244	488.535	-0.034	-0.079
-610.230	124.283	-0.259	-0.327
-609.215	227.676	0.069	-0.113
-608.201	-200.000	0.001	0.107
-607.186	-116.267	-0.158	-0.029
-606.171	-200.000	-0.002	-0.259
-605.157	-3.010	0.241	0.169
-604.142	237.833	0.154	0.256
-603.128	-110.184	0.261	-0.055
-602.113	-200.000	0.007	0.117
-601.098	800.000	-0.115	-0.411
-600.084	-200.000	-0.012	0.200
-599.069	54.522	0.240	-0.233
-598.055	-200.000	0.040	0.312
-597.040	457.524	0.103	-0.229
-596.025	-2.966	0.084	0.059
-595.011	-43.058	-0.261	-0.133
-593.996	-84.426	0.332	0.105
-592.982	-7.277	-0.056	0.038
-591.967	-200.000	0.051	0.250
-590.952	22.456	-0.167	-0.137
-589.938	-147.974	0.139	0.012
-588.923	-15.474	-0.213	0.136
-587.909	770.495	-0.019	-0.052
-586.894	186.073	0.066	0.099
-585.879	-200.000	-0.010	-0.055
-584.865	121.346	-0.076	-0.095
-583.850	47.296	-0.122	0.114
-582.836	-200.000	-0.053	-0.286
-581.821	-48.448	-0.166	0.080
-580.806	-177.727	-0.429	-0.010
-579.792	-109.284	-0.230	0.049
-578.777	-60.306	-0.114	-0.049
-577.763	249.772	0.068	-0.115
-576.748	-156.916	0.058	-0.004
-575.733	-200.000	0.014	-0.077
-574.719	800.000	0.039	0.122
-573.704	220.760	-0.094	0.151
-572.690	-200.000	0.040	-0.243
-571.675	-49.040	0.250	-0.120
-570.661	-167.749	0.214	-0.008
-569.646	286.141	-0.113	-0.204
-568.631	548.546	-0.149	-0.358
-567.617	800.000	0.066	-0.227
-566.602	178.916	0.116	0.170
-565.588	104.635	-0.156	0.185
-564.573	-200.000	-0.067	0.361
-563.558	98.904	-0.093	0.108
-562.544	-15.150	-0.074	-0.047
-561.529	747.963	-0.009	-0.026
-560.515	-29.781	-0.128	0.073
-559.500	-146.706	0.089	0.008
-558.485	-1.489	0.187	-0.132
-557.471	-200.000	-0.038	-0.234
-556.456	-168.332	0.077	-0.003
-555.442	-200.000	-0.032	-0.229
-554.427	52.985	0.216	0.207
-553.412	84.568	0.095	0.104
-552.398	359.506	-0.035	-0.070
-551.383	511.835	0.135	0.315
-550.369	800.000	0.101	0.293
-549.354	144.131	0.184	-0.246
-548.339	-59.511	0.146	0.063
-547.325	-200.000	0.035	-0.261
-546.310	-15.024	0.277	0.178
-545.296	-3.133	0.050	-0.035
-544.281	769.918	-0.073	-0.198
-543.266	-142.489	0.110	0.011
-542.252	-200.000	-0.041	0.180
-541.237	-62.271	-0.224	-0.094
-540.223	699.546	0.032	-0.085
-539.208	188.237	0.156	0.234
-538.193	124.290	0.124	0.156
-537.179	-200.000	-0.025	-0.134
-536.164	207.258	-0.114	-0.178
-535.150	206.486	-0.139	-0.217
-534.135	106.657	-0.203	-0.241
-533.121	-200.000	-0.048	0.241
-532.106	-185.889	-0.437	0.007
-531.091	266.648	-0.059	0.104
-530.077	-170.247	-0.295	-0.010
-529.062	-100.587	-0.115	0.028
-528.048	162.659	-0.186	0.262
-527.033	800.000	-0.038	0.153
-526.018	-200.000	-0.209	-0.000
-525.004	360.513	0.114	0.228
-523.989	-169.859	0.157	-0.006
-522.975	15.909	-0.112	-0.088
-521.960	-41.178	0.106	0.055
-520.945	71.480	-0.084	0.087
-519.931	-180.943	0.176	0.004
-518.916	12.515	0.103	0.079
-517.902	-184.201	0.225	-0.004
-516.887	56.214	0.066	-0.065
-515.872	55.462	0.106	0.103
-514.858	-34.894	0.313	0.171
-513.843	20.240	0.217	-0.176
-512.829	86.692	-0.054	-0.059
-511.814	184.132	-0.212	0.314
-510.799	-87.552	-0.083	-0.025
-509.785	-12.471	-0.078	-0.051
-508.770	-174.489	0.174	-0.005
-507.756	466.469	-0.074	0.166
-506.741	-200.000	-0.006	0.065
-505.726	10.311	-0.134	0.102
-504.712	-200.000	-0.011	0.171
-503.697	-84.492	-0.329	-0.104
-502.683	-200.000	-0.021	-0.378
-501.668	-200.000	0.004	0.080
-500.653	-126.533	-0.225	0.033
-499.639	109.521	0.232	0.278
-498.624	94.125	-0.073	0.083
-497.610	-27.893	0.335	0.194
-496.595	83.556	0.216	-0.235
-495.581	-165.957	-0.198	-0.008
-494.566	800.000	0.031	-0.108
-493.551	77.006	0.033	0.035
-492.537	241.405	0.162	0.271
-491.522	395.543	-0.089	0.186
-490.508	-200.000	-0.001	0.031
-489.493	315.256	-0.089	-0.168
-488.478	-5.260	0.181	-0.125
-487.464	-114.500	-0.298	-0.057
-486.449	-200.000	-0.004	0.413
-485.435	13.569	-0.291	-0.226
-484.420	27.359	-0.240	-0.202
-483.405	-43.663	-0.242	-0.122
-482.391	-16.871	0.095	-0.060
-481.376	-95.920	0.159	0.042
-480.362	36.924	-0.164	-0.145
-479.347	44.597	-0.192	-0.176
-478.332	-196.436	0.137	0.001
-477.318	-97.221	0.372	0.097
-476.303	-200.000	-0.029	-0.158
-475.289	58.019	-0.132	-0.129
-474.274	-92.213	-0.215	0.061
-473.259	226.506	0.093	-0.151
-472.245	-192.430	0.115	0.001
-471.230	-200.000	0.015	-0.140
-470.216	95.413	0.135	0.154
-469.201	-19.924	-0.118	-0.073
-468.186	-12.065	0.103	0.067
-467.172	97.875	0.208	0.240
-466.157	-39.105	-0.171	0.090
-465.143	115.307	-0.182	-0.222
-464.128	-156.436	-0.361	-0.023
-463.113	-200.000	0.026	-0.256
-462.099	72.355	0.257	0.268
-461.084	-73.455	0.138	0.050
-460.070	-82.234	0.316	-0.103
-459.055	-200.000	0.015	-0.472
-458.040	11.136	-0.229	-0.175
-457.026	-200.000	-0.026	-0.122
-456.011	-200.000	-0.025	-0.159
-454.997	3.252	0.106	-0.077
-453.982	292.892	0.123	0.223
-452.968	435.855	-0.133	-0.289
-451.953	-104.262	0.165	0.038
-450.938	-189.838	-0.090	0.001
-449.924	-200.000	-0.005	-0.146
-448.909	361.114	-0.031	-0.061
-447.895	-200.000	0.028	0.277
-446.880	-53.582	0.249	-0.114
-445.865	800.000	0.186	-0.606
-444.851	319.526	0.216	0.410
-443.836	-64.873	-0.472	-0.191
-442.822	-22.448	0.180	0.109
-441.807	-200.000	0.002	0.120
-440.792	800.000	-0.072	-0.304
-439.778	226.406	-0.170	0.276
-438.763	98.049	0.118	0.135
-437.749	-112.796	0.137	0.027
-436.734	800.000	-0.086	0.271
-435.719	-7.930	-0.204	-0.138
-434.705	-76.749	0.164	0.057
-433.690	800.000	0.087	-0.371
-432.676	149.791	0.263	-0.355
-431.661	-111.210	0.102	0.021
-430.646	8.007	-0.278	0.208
-429.632	727.792	-0.131	-0.349
-428.617	-115.466	-0.182	-0.034
-427.603	76.299	-0.070	-0.074
-426.588	-116.905	-0.356	0.065
-425.573	-133.380	0.106	0.013
-424.559	-76.287	-0.182	0.064
-423.544	-114.026	-0.125	-0.024
-422.530	-160.314	-0.124	-0.007
-421.515	45.274	-0.261	-0.240
-420.500	-200.000	0.019	0.088
-419.486	-110.349	-0.239	0.050
-418.471	10.979	0.278	0.212
-417.457	60.155	-0.076	-0.075
-416.442	-139.191	0.168	0.018
-415.428	-105.713	-0.302	-0.068
-414.413	21.843	-0.228	0.185
-413.398	80.456	-0.089	0.096
-412.384	-200.000	0.086	-0.447
-411.369	-107.713	0.042	0.009
-410.355	-200.000	0.001	-0.018
-409.340	-126.366	-0.161	0.024
-408.325	95.256	-0.135	0.154
-407.311	24.776	-0.106	0.088
-406.296	-200.000	-0.004	0.196
-405.282	94.582	-0.133	0.151
-404.267	-200.000	0.011	-0.137
-403.252	-118.648	0.129	0.023
-402.238	-200.000	0.028	0.211
-401.223	-50.482	-0.178	-0.084
-400.209	-200.000	0.068	-0.318
-399.194	-88.972	-0.169	-0.050
-398.179	63.802	0.129	-0.129
-397.165	-120.435	0.175	0.030
-396.150	-114.605	0.272	-0.052
-395.136	-200.000	0.187	0.000
-394.121	147.004	0.090	-0.120
-393.106	-48.168	-0.127	0.061
-392.092	273.658	0.072	-0.126
-391.077	144.250	0.150	0.200
-390.063	105.147	-0.138	0.162
-389.048	70.368	0.237	0.244
-388.033	270.751	0.125	0.219
-387.019	-110.652	-0.159	-0.033
-386.004	-175.492	0.023	-0.001
-384.990	-54.494	0.192	0.087
-383.975	-37.324	-0.042	-0.022
-382.960	-200.000	-0.035	0.244
-381.946	-121.594	0.136	-0.022
-380.931	87.731	-0.256	0.283
-379.917	143.330	-0.077	0.102
-378.902	-72.474	0.156	-0.057
-377.888	-200.000	0.042	0.324
-376.873	800.000	0.102	0.299
-375.858	-189.861	0.196	0.002
-374.844	800.000	0.135	0.441
-373.829	16.121	0.370	0.290
-372.815	-200.000	-0.027	-0.212
-371.800	-4.800	0.132	0.090
-370.785	342.809	0.168	0.328
-369.771	35.558	-0.178	-0.155
-368.756	208.160	-0.012	-0.018
-367.742	511.397	-0.046	0.106
-366.727	278.368	0.043	0.077
-365.712	267.271	0.048	-0.084
-364.698	-179.452	0.273	0.006
-363.683	-75.464	0.152	-0.054
-362.669	323.583	0.155	-0.295
-361.654	-62.523	0.021	-0.009
-360.639	-191.824	0.232	0.002
-359.625	66.542	0.179	-0.181
-358.610	265.613	-0.093	0.162
-357.596	800.000	-0.081	0.319
-356.581	100.387	-0.126	0.145
-355.566	800.000	-0.074	0.314
-354.552	-29.622	-0.390	0.222
-353.537	210.762	0.081	-0.127
-352.523	-25.664	-0.331	-0.194
-351.508	-200.000	0.046	-0.339
-350.493	-200.000	-0.012	0.225
-349.479	800.000	-0.018	0.063
-348.464	-158.548	-0.123	-0.007
-347.450	-159.203	0.193	0.011
-346.435	-200.000	-0.009	0.043
-345.420	-200.000	-0.001	0.068
-344.406	201.823	0.134	0.205
-343.391	-22.402	-0.263	0.158
-342.377	67.368	-0.090	-0.091
-341.362	-131.016	-0.207	0.027
-340.348	-200.000	0.024	0.266
-339.333	87.521	0.096	0.105
-338.318	587.082	-0.078	-0.191
-337.304	-63.035	0.320	0.131
-336.289	-90.255	0.196	0.057
-335.275	147.495	-0.186	0.249
-334.260	-21.899	-0.079	0.048
-333.245	247.274	-0.162	0.272
-332.231	-83.897	0.162	0.051
-331.216	717.789	0.026	0.070
-330.202	-81.123	-0.096	0.031
-329.187	232.653	0.121	0.198
-328.172	-37.822	-0.064	-0.034
-327.158	114.876	0.070	-0.085
-326.143	120.997	0.175	-0.216
-325.129	-83.819	-0.328	0.104
-324.114	205.064	-0.227	-0.350
-323.099	-200.000	0.033	-0.195
-322.085	133.159	0.050	0.065
-321.070	-4.955	0.062	-0.043
-320.056	185.660	-0.100	0.147
-319.041	-126.232	-0.297	0.044
-318.026	-163.480	0.424	-0.020
-317.012	-89.435	-0.137	-0.040
-315.997	800.000	-0.046	-0.152
-314.983	108.994	-0.111	-0.131
-313.968	-200.000	-0.015	0.322
-312.953	-14.414	0.269	-0.172
-311.939	98.245	0.269	-0.307
-310.924	418.396	-0.201	-0.427
-309.910	20.113	0.260	0.209
-308.895	-200.000	-0.043	0.191
-307.880	-87.491	0.314	0.094
-306.866	197.469	-0.269	-0.407
-305.851	192.927	-0.210	-0.315
-304.837	461.413	-0.171	-0.378
-303.822	160.467	0.036	-0.050
-302.807	800.000	-0.039	0.124
-301.793	486.592	-0.067	0.152
-300.778	15.719	0.097	0.076
-299.764	200.942	-0.109	0.166
-298.749	131.809	-0.228	0.292
-297.735	-200.000	-0.001	-0.075
-296.720	274.690	-0.137	0.242
-295.705	-200.000	-0.051	0.338
-294.691	640.338	-0.081	-0.204
-293.676	-200.000	-0.014	0.073
-292.662	42.101	-0.228	-0.205
-291.647	146.648	-0.161	0.215
-290.632	167.545	0.070	0.099
-289.618	713.019	-0.039	-0.103
-288.603	275.838	-0.143	0.252
-287.589	209.276	0.167	0.260
-286.574	651.500	0.102	0.259
-285.559	-96.949	0.172	-0.045
-284.545	151.343	-0.057	0.077
-283.530	183.260	-0.166	0.244
-282.516	316.449	0.219	0.411
-281.501	217.328	-0.076	0.119
-280.486	171.653	-0.074	0.105
-279.472	-106.656	0.027	-0.006
-278.457	-49.329	-0.146	0.069
-277.443	800.000	0.057	0.206
-276.428	519.874	0.129	0.301
-275.413	800.000	-0.047	-0.135
-274.399	-62.322	0.084	0.035
-273.384	-104.880	-0.265	0.060
-272.370	800.000	0.065	-0.252
-271.355	-54.085	0.271	-0.122
-270.340	800.000	0.051	0.170
-269.326	800.000	0.079	-0.225
-268.311	30.605	0.179	-0.152
-267.297	62.025	-0.194	-0.192
-266.282	-127.688	-0.273	0.039
-265.267	-200.000	-0.013	-0.106
-264.253	-58.041	0.291	0.126
-263.238	-100.200	-0.283	-0.070
-262.224	-200.000	-0.038	0.181
-261.209	-115.896	0.181	0.033
-260.195	-124.067	-0.096	0.015
-259.180	239.060	-0.068	-0.112
-258.165	14.618	-0.192	-0.149
-257.151	271.968	-0.131	0.229
-256.136	-132.877	0.444	-0.056
-255.122	-200.000	-0.004	-0.194
-254.107	-61.174	0.170	-0.071
-253.092	800.000	0.043	0.130
-252.078	420.036	-0.084	-0.179
-251.063	767.176	0.152	-0.410
-250.049	640.336	-0.063	-0.159
-249.034	-142.321	-0.085	-0.008
-248.019	1.238	0.302	0.215
-247.005	209.163	0.067	-0.103
-245.990	481.209	0.146	0.328
-244.976	194.195	-0.130	0.195
-243.961	147.378	-0.123	0.164
-242.946	-41.447	-0.300	-0.153
-241.932	-47.938	-0.308	0.148
-240.917	800.000	-0.090	-0.294
-239.903	-200.000	-0.006	-0.127
-238.888	-110.976	0.426	0.087
-237.873	-200.000	0.003	-0.162
-236.859	-49.479	-0.059	0.028
-235.844	190.434	0.089	-0.132
-234.830	800.000	-0.071	-0.304
-233.815	107.415	-0.265	0.312
-232.800	800.000	-0.009	0.034
-231.786	-11.749	-0.545	0.354
-230.771	32.830	0.087	0.075
-229.757	800.000	0.050	0.192
-228.742	66.838	-0.092	-0.093
-227.727	16.181	0.269	0.210
-226.713	73.265	0.072	0.075
-225.698	140.877	-0.018	0.024
-224.684	800.000	-0.092	-0.368
-223.669	-55.295	0.240	0.107
-222.655	-15.129	-0.321	0.204
-221.640	11.925	-0.131	0.100
-220.625	-117.975	0.121	-0.021
-219.611	-61.835	0.207	-0.086
-218.596	-92.302	0.214	-0.060
-217.582	86.057	0.115	0.125
-216.567	391.410	-0.115	0.237
-215.552	133.055	-0.189	-0.241
-214.538	15.396	-0.149	-0.116
-213.523	543.115	0.129	0.305
-212.509	556.356	-0.088	0.209
-211.494	-24.100	0.085	0.050
-210.479	-91.077	0.251	0.071
-209.465	150.842	0.075	-0.101
-208.450	-7.620	0.177	0.118
-207.436	-124.399	-0.270	-0.042
-206.421	800.000	0.114	0.339
-205.406	89.610	-0.032	-0.035
-204.392	-79.910	0.067	0.022
-203.377	-104.400	0.204	-0.047
-202.363	-134.963	0.245	0.029
-201.348	22.989	0.183	0.148
-200.333	800.000	-0.014	-0.046
-199.319	97.129	-0.036	0.041
-198.304	185.989	0.052	-0.076
-197.290	-16.257	0.112	0.071
-196.275	-65.336	-0.327	-0.130
-195.260	-22.786	-0.043	0.026
-194.246	467.758	-0.028	0.063
-193.231	82.263	-0.129	0.139
-192.217	-149.930	-0.188	-0.015
-191.202	164.869	0.148	-0.207
-190.187	-200.000	0.039	0.235
-189.173	-18.805	0.014	0.009
-188.158	208.174	0.200	0.309
-187.144	-152.913	0.227	0.016
-186.129	-79.036	0.096	-0.032
-185.114	800.000	-0.150	-0.415
-184.100	-87.080	-0.090	0.027
-183.085	-15.692	0.189	0.119
-182.071	-6.564	-0.305	-0.205
-181.056	-179.350	-0.054	0.001
-180.042	744.086	0.117	-0.312
-179.027	-30.132	0.336	-0.189
-178.012	-200.000	-0.007	-0.296
-176.998	-49.961	0.288	-0.135
-175.983	-21.025	-0.068	-0.041
-174.969	-57.701	0.311	-0.135
-173.954	96.020	0.170	0.192
-172.939	-36.238	0.229	0.122
-171.925	-89.498	0.264	-0.077
-170.910	3.276	-0.190	-0.137
-169.896	-33.058	0.218	0.119
-168.881	-70.333	-0.289	-0.108
-167.866	-22.264	0.223	-0.133
-166.852	-153.789	0.228	0.015
-165.837	800.000	0.038	0.136
-164.823	-200.000	0.020	-0.217
-163.808	-84.163	0.421	0.132
-162.793	152.869	-0.089	0.121
-161.779	222.683	0.120	0.191
-160.764	-200.000	-0.023	-0.357
-159.750	-157.788	0.311	-0.018
-158.735	65.232	0.090	0.090
-157.720	-200.000	-0.032	-0.273
-156.706	800.000	0.149	-0.412
-155.691	800.000	-0.056	-0.156
-154.677	577.761	-0.128	-0.309
-153.662	191.864	0.216	-0.322
-152.647	-5.629	-0.140	-0.095
-151.633	12.320	-0.191	-0.145
-150.618	-119.136	0.221	-0.038
-149.604	-200.000	0.051	-0.343
-148.589	199.270	0.114	-0.172
-147.574	311.364	-0.175	0.323
-146.560	-8.215	-0.137	0.091
-145.545	308.124	0.049	0.091
-144.531	76.933	-0.264	0.277
-143.516	172.714	-0.214	0.304
-142.502	0.771	0.209	0.147
-141.487	-98.396	0.304	0.077
-140.472	-40.132	0.308	0.158
-139.458	-200.000	0.006	-0.056
-138.443	-44.875	-0.450	-0.221
-137.429	-95.306	-0.140	0.037
-136.414	800.000	0.115	0.369
-135.399	800.000	-0.068	0.222
-134.385	-200.000	-0.006	-0.250
-133.370	-200.000	-0.005	-0.060
-132.356	-23.356	0.243	-0.144
-131.341	364.693	-0.050	-0.098
-130.326	103.395	0.208	-0.241
-129.312	45.995	-0.107	-0.098
-128.297	-56.813	-0.160	0.070
-127.283	-90.535	-0.185	0.053
-126.268	375.205	0.140	-0.282
-125.253	129.022	-0.201	0.253
-124.239	-116.478	-0.073	0.013
-123.224	-200.000	-0.048	0.293
-122.210	-163.884	-0.396	0.018
-121.195	800.000	0.075	-0.230
