DTS Sentinel unit serial number:	SN413079Multiplexer serial number:	ORYXHardware model number:	OX4-SRSoftware version number:	ORYX F/W v4.00 Oryx Data Collector v3.7.2.0data status	okinstallation	princeton_trtdifferential loss correction	single-endedforward channel	channel 3reverse channel	N/Adate	2019/09/12time	22:48:35forward acquisition time	60.00reverse acquisition time	0.00gamma	496.2192k internal	0.2327k external	0.2327temperature offset calibration	1.0132default loss term (dB/km)	0.3790temperature slope calibration	1.0000multiplexer offset coefficient	1.0000multiplexer slope coefficient	1.0000fibre end	0.00T internal ref (°C)	29.48T ext. ref 1 (°C)	3.73T ext. ref 2 (°C)	24.07length (m)	temperature (°C)	Stokes	anti-Stokes-747.200	25.429	-0.068	-0.057
-746.185	403.945	0.185	0.393
-745.171	-112.436	-0.184	-0.037
-744.156	-7.101	0.142	0.097
-743.142	-27.769	-0.167	-0.097
-742.127	-107.470	-0.081	0.018
-741.112	-97.702	0.137	-0.036
-740.098	-88.779	0.026	0.008
-739.083	55.809	0.111	-0.108
-738.069	-74.831	0.122	-0.044
-737.054	95.471	-0.046	-0.053
-736.039	114.056	0.207	-0.253
-735.025	800.000	0.117	0.341
-734.010	-33.377	-0.264	-0.147
-732.996	58.093	0.196	-0.194
-731.981	39.884	-0.155	0.141
-730.966	-22.530	-0.104	-0.064
-729.952	370.771	-0.175	-0.357
-728.937	-114.292	-0.214	-0.042
-727.923	197.695	0.143	-0.220
-726.908	-200.000	-0.037	-0.175
-725.894	-3.695	0.177	-0.124
-724.879	100.085	-0.095	0.111
-723.864	-156.959	-0.068	0.004
-722.850	800.000	0.023	-0.079
-721.835	198.025	-0.085	-0.130
-720.821	-193.146	-0.111	-0.001
-719.806	14.645	-0.028	0.022
-718.791	-61.346	-0.130	-0.055
-717.777	25.133	-0.210	0.175
-716.762	800.000	-0.059	-0.181
-715.748	634.396	-0.033	-0.084
-714.733	98.539	0.187	0.218
-713.718	102.190	-0.248	-0.292
-712.704	-34.902	0.318	0.175
-711.689	-166.377	0.297	-0.013
-710.675	396.511	-0.202	-0.426
-709.660	-115.955	-0.156	-0.029
-708.645	-156.331	0.190	-0.012
-707.631	8.026	0.257	0.194
-706.616	211.747	-0.143	-0.227
-705.602	-79.433	0.337	-0.115
-704.587	-184.021	0.231	0.004
-703.572	141.137	0.055	-0.074
-702.558	-5.095	0.306	0.212
-701.543	-121.927	0.087	0.014
-700.529	5.466	0.183	0.136
-699.514	-32.256	-0.110	0.062
-698.499	-120.354	-0.197	0.034
-697.485	-200.000	-0.032	-0.240
-696.470	64.591	0.357	-0.362
-695.456	-200.000	0.014	0.143
-694.441	144.734	0.184	-0.248
-693.426	-125.870	-0.509	-0.077
-692.412	-200.000	-0.025	0.165
-691.397	-80.171	0.212	-0.071
-690.383	-38.100	0.113	-0.060
-689.368	273.579	-0.085	-0.151
-688.354	-200.000	0.014	0.147
-687.339	151.087	0.105	-0.144
-686.324	-158.565	0.263	-0.015
-685.310	88.287	0.115	0.128
-684.295	49.329	0.108	0.102
-683.281	800.000	0.024	0.073
-682.266	-62.376	-0.140	0.058
-681.251	-110.291	-0.269	-0.056
-680.237	-10.056	-0.266	-0.178
-679.222	149.783	-0.103	-0.140
-678.208	-125.407	-0.254	-0.039
-677.193	194.096	-0.143	0.218
-676.178	97.450	0.183	-0.211
-675.164	670.291	-0.064	0.168
-674.149	-200.000	-0.027	0.134
-673.135	152.623	0.112	-0.154
-672.120	39.250	0.231	0.208
-671.105	22.050	-0.122	0.100
-670.091	800.000	0.069	-0.218
-669.076	-200.000	0.019	-0.363
-668.062	709.824	-0.125	-0.334
-667.047	-66.973	0.051	0.020
-666.032	-72.285	-0.177	0.066
-665.018	713.644	0.099	-0.265
-664.003	-82.983	-0.038	-0.012
-662.989	43.722	-0.254	-0.233
-661.974	800.000	-0.059	-0.192
-660.959	-77.914	0.051	0.018
-659.945	190.653	-0.141	-0.213
-658.930	-65.747	-0.304	-0.122
-657.916	154.005	-0.198	0.273
-656.901	-102.553	0.022	-0.005
-655.886	53.591	0.084	0.081
-654.872	-112.646	0.130	-0.026
-653.857	-81.329	-0.430	-0.142
-652.843	-200.000	0.023	0.292
-651.828	-26.193	0.381	0.225
-650.814	-25.805	-0.159	0.094
-649.799	-110.714	0.375	0.078
-648.784	279.558	0.014	-0.024
-647.770	-45.515	0.303	0.151
-646.755	-68.964	-0.138	0.053
-645.741	-88.892	-0.125	-0.037
-644.726	-97.824	-0.281	-0.073
-643.711	173.981	0.172	-0.249
-642.697	800.000	-0.097	0.366
-641.682	-142.363	0.190	-0.019
-640.668	62.092	-0.415	-0.415
-639.653	505.157	-0.078	-0.182
-638.638	-180.843	-0.220	0.004
-637.624	-0.069	0.470	0.336
-636.609	-180.077	0.378	0.008
-635.595	800.000	-0.192	-0.589
-634.580	-176.792	-0.150	-0.004
-633.565	41.770	-0.123	0.112
-632.551	150.177	-0.135	0.184
-631.536	-79.841	0.140	0.047
-630.522	288.866	-0.110	-0.200
-629.507	64.173	-0.066	-0.066
-628.492	17.394	-0.225	-0.180
-627.478	15.493	-0.240	-0.189
-626.463	56.979	0.234	0.229
-625.449	800.000	0.022	0.070
-624.434	-200.000	0.046	0.345
-623.419	-74.572	-0.143	0.051
-622.405	-200.000	0.021	0.115
-621.390	-136.441	-0.211	0.025
-620.376	-38.950	0.329	-0.174
-619.361	30.076	-0.110	0.094
-618.346	800.000	-0.057	0.174
-617.332	-123.731	-0.315	-0.050
-616.317	-72.235	0.110	-0.041
-615.303	-23.493	-0.303	0.182
-614.288	800.000	0.041	-0.119
-613.273	-110.895	-0.232	0.048
-612.259	-2.954	0.177	0.124
-611.244	2.385	-0.024	0.017
-610.230	800.000	0.055	0.213
-609.215	-200.000	0.001	-0.174
-608.201	309.974	0.139	-0.261
-607.186	-126.320	0.225	0.034
-606.171	-61.216	-0.164	-0.070
-605.157	598.352	-0.041	0.101
-604.142	-28.966	-0.016	0.009
-603.128	48.559	0.061	-0.058
-602.113	109.495	-0.177	-0.213
-601.098	112.190	0.172	-0.209
-600.084	-118.858	-0.188	0.033
-599.069	668.923	0.053	-0.139
-598.055	-200.000	0.017	0.166
-597.040	-10.767	-0.017	-0.012
-596.025	-130.517	-0.304	0.041
-595.011	-136.301	-0.256	-0.030
-593.996	380.639	-0.097	-0.199
-592.982	800.000	-0.126	-0.528
-591.967	-200.000	0.008	0.132
-590.952	-200.000	-0.001	-0.160
-589.938	-200.000	0.026	-0.139
-588.923	216.687	-0.127	0.203
-587.909	-109.514	-0.324	-0.068
-586.894	54.055	0.075	0.072
-585.879	-200.000	-0.012	0.173
-584.865	-24.274	0.236	0.141
-583.850	28.640	-0.268	0.227
-582.836	-200.000	-0.058	0.274
-581.821	52.560	-0.077	-0.073
-580.806	203.338	0.092	0.143
-579.792	101.241	0.121	-0.141
-578.777	-89.015	-0.125	-0.037
-577.763	-81.545	0.228	-0.075
-576.748	38.370	0.150	-0.134
-575.733	-26.417	0.121	-0.071
-574.719	16.355	-0.216	-0.171
-573.704	120.861	-0.174	0.217
-572.690	-102.484	0.216	0.052
-571.675	40.621	-0.224	-0.202
-570.661	-200.000	-0.009	-0.159
-569.646	800.000	0.011	-0.044
-568.631	-64.792	0.044	-0.018
-567.617	-15.925	-0.448	-0.285
-566.602	61.870	0.118	-0.117
-565.588	185.328	0.135	0.200
-564.573	-23.463	0.333	0.200
-563.558	-62.995	0.214	0.089
-562.544	-128.998	0.322	0.045
-561.529	-140.114	-0.265	-0.028
-560.515	499.041	0.025	0.057
-559.500	92.894	-0.124	0.140
-558.485	-49.118	0.234	-0.112
-557.471	-158.138	0.028	0.002
-556.456	-170.548	0.220	-0.008
-555.442	800.000	0.033	0.131
-554.427	284.984	0.076	0.137
-553.412	213.680	-0.024	0.039
-552.398	-63.378	0.348	0.143
-551.383	-200.000	0.028	0.157
-550.369	-200.000	-0.051	-0.374
-549.354	146.652	-0.148	-0.198
-548.339	362.411	-0.078	-0.158
-547.325	800.000	-0.007	0.026
-546.310	-48.908	0.424	-0.203
-545.296	-117.783	0.069	-0.012
-544.281	-1.727	-0.203	-0.143
-543.266	-153.659	0.110	0.008
-542.252	472.664	-0.193	0.435
-541.237	-129.744	0.085	-0.012
-540.223	15.941	0.100	-0.079
-539.208	-88.097	0.299	-0.090
-538.193	-31.621	0.114	-0.064
-537.179	209.445	-0.201	0.316
-536.164	-115.247	0.304	0.058
-535.150	255.509	0.097	-0.167
-534.135	-200.000	-0.113	-0.000
-533.121	7.747	-0.413	0.309
-532.106	52.643	0.220	0.210
-531.091	-104.242	-0.284	0.066
-530.077	-93.297	-0.061	0.017
-529.062	-47.360	0.358	-0.174
-528.048	-200.000	-0.031	0.286
-527.033	566.913	-0.017	-0.042
-526.018	-200.000	-0.055	-0.303
-525.004	-189.492	0.156	0.002
-523.989	-32.446	-0.272	-0.151
-522.975	-200.000	0.005	0.310
-521.960	-200.000	0.049	-0.356
-520.945	181.762	0.016	-0.023
-519.931	161.170	0.102	0.142
-518.916	277.513	-0.030	-0.054
-517.902	412.577	0.048	-0.103
-516.887	229.755	-0.143	-0.233
-515.872	285.643	0.079	0.141
-514.858	-161.260	0.319	-0.017
-513.843	-33.924	0.114	0.063
-512.829	800.000	-0.108	-0.336
-511.814	-30.553	-0.198	0.112
-510.799	-64.327	0.356	0.145
-509.785	651.385	0.138	-0.352
-508.770	-117.809	-0.191	-0.034
-507.756	399.127	-0.045	-0.095
-506.741	380.223	-0.216	-0.442
-505.726	800.000	-0.093	-0.261
-504.712	260.914	0.151	0.261
-503.697	170.018	0.134	0.191
-502.683	172.819	0.090	0.130
-501.668	-200.000	-0.011	-0.100
-500.653	-113.181	0.177	0.035
-499.639	800.000	0.061	0.181
-498.624	68.891	0.072	0.074
-497.610	800.000	-0.091	0.283
-496.595	8.811	0.168	-0.126
-495.581	-115.424	-0.241	0.045
-494.566	-72.233	-0.009	0.003
-493.551	146.976	-0.133	0.178
-492.537	800.000	-0.088	0.378
-491.522	-122.340	0.019	0.003
-490.508	266.243	0.081	-0.141
-489.493	-49.695	-0.081	0.038
-488.478	60.681	0.254	0.252
-487.464	-107.295	0.237	-0.052
-486.449	-75.969	0.036	-0.013
-485.435	440.752	0.088	0.191
-484.420	-200.000	-0.020	0.269
-483.405	-78.735	0.253	0.086
-482.391	-92.547	0.345	0.097
-481.376	76.617	0.138	-0.146
-480.362	-123.385	-0.156	0.025
-479.347	-200.000	0.044	0.300
-478.332	-47.556	-0.061	0.029
-477.318	800.000	-0.055	-0.162
-476.303	-117.734	-0.283	0.051
-475.289	-95.318	0.043	0.012
-474.274	16.476	0.138	0.109
-473.259	87.540	0.156	0.172
-472.245	-26.626	-0.127	-0.074
-471.230	-172.551	0.145	-0.005
-470.216	-114.484	-0.180	-0.035
-469.201	-68.309	-0.034	-0.013
-468.186	663.498	0.086	0.221
-467.172	-200.000	-0.040	-0.286
-466.157	317.796	0.051	-0.096
-465.143	241.764	0.050	0.084
-464.128	-200.000	-0.021	-0.095
-463.113	-106.990	-0.275	0.061
-462.099	-41.766	-0.263	0.135
-461.084	218.204	-0.101	0.160
-460.070	50.339	0.089	0.084
-459.055	371.516	-0.065	-0.132
-458.040	-3.201	-0.167	0.116
-457.026	-30.636	-0.152	0.086
-456.011	-158.350	0.360	-0.021
-454.997	93.132	0.036	0.040
-453.982	-200.000	-0.041	0.210
-452.968	-96.787	-0.271	-0.071
-451.953	800.000	0.099	-0.382
-450.938	17.698	-0.236	-0.187
-449.924	-79.588	-0.338	0.114
-448.909	96.389	0.048	-0.054
-447.895	800.000	-0.033	0.104
-446.880	-115.557	0.085	0.016
-445.865	-130.686	-0.340	-0.046
-444.851	800.000	0.063	0.234
-443.836	-78.188	-0.103	-0.035
-442.822	-15.206	-0.290	-0.185
-441.807	-70.392	0.147	0.055
-440.792	221.072	-0.025	0.040
-439.778	57.843	-0.167	-0.162
-438.763	-200.000	0.028	0.122
-437.749	64.098	-0.077	0.077
-436.734	800.000	0.119	0.347
-435.719	192.631	-0.152	-0.228
-434.705	542.111	-0.133	-0.315
-433.690	518.681	-0.094	-0.219
-432.676	800.000	-0.084	-0.244
-431.661	134.327	-0.202	0.261
-430.646	-27.039	0.148	-0.086
-429.632	-123.024	0.271	-0.043
-428.617	586.031	-0.049	0.120
-427.603	8.650	-0.259	-0.194
-426.588	-88.950	0.063	0.019
-425.573	-200.000	0.023	-0.123
-424.559	56.345	0.263	0.254
-423.544	107.073	-0.195	-0.231
-422.530	-80.611	-0.213	-0.071
-421.515	-200.000	0.065	0.379
-420.500	50.418	0.087	0.082
-419.486	-53.045	-0.157	0.072
-418.471	-40.078	-0.131	-0.068
-417.457	-61.094	-0.171	0.072
-416.442	536.240	-0.161	0.380
-415.428	572.331	-0.163	-0.395
-414.413	-100.183	-0.330	0.082
-413.398	800.000	0.085	0.269
-412.384	321.254	0.095	0.180
-411.369	-200.000	0.035	-0.160
-410.355	-26.990	0.129	0.075
-409.340	-200.000	-0.017	-0.184
-408.325	-200.000	-0.047	-0.217
-407.311	800.000	-0.068	0.212
-406.296	-200.000	0.020	-0.249
-405.282	800.000	-0.045	-0.124
-404.267	800.000	-0.125	0.503
-403.252	-128.967	-0.085	0.012
-402.238	67.936	0.132	0.134
-401.223	749.157	0.010	-0.027
-400.209	2.954	-0.142	-0.103
-399.194	-57.015	0.508	-0.223
-398.179	-200.000	-0.022	0.206
-397.165	800.000	0.082	-0.251
-396.150	-76.557	0.235	-0.082
-395.136	-106.619	0.236	-0.052
-394.121	114.275	-0.025	0.031
-393.106	800.000	-0.142	0.490
-392.092	800.000	-0.093	-0.342
-391.077	-14.982	-0.214	-0.137
-390.063	-81.869	-0.391	0.127
-389.048	-105.150	0.253	-0.057
-388.033	761.547	0.089	-0.241
-387.019	-43.413	-0.043	0.022
-386.004	181.755	-0.009	-0.013
-384.990	-103.555	-0.138	-0.032
-383.975	-165.932	-0.135	-0.006
-382.960	-200.000	-0.004	-0.171
-381.946	-4.190	0.365	0.251
-380.931	297.243	0.060	0.109
-379.917	-53.278	-0.124	0.056
-378.902	-161.164	-0.125	-0.006
-377.888	-28.766	-0.342	-0.195
-376.873	6.538	0.135	-0.100
-375.858	-200.000	0.045	0.197
-374.844	78.006	-0.293	0.311
-373.829	-10.659	-0.218	0.143
-372.815	68.038	0.278	0.282
-371.800	366.714	0.103	-0.207
-370.785	-99.076	0.048	-0.012
-369.771	-123.137	-0.428	0.068
-368.756	800.000	-0.028	0.107
-367.742	336.112	-0.193	0.372
-366.727	-200.000	0.005	0.311
-365.712	-108.966	-0.217	-0.046
-364.698	323.351	0.161	-0.305
-363.683	-113.516	-0.184	0.036
-362.669	22.207	-0.129	0.104
-361.654	249.006	0.123	0.207
-360.639	-71.004	-0.310	0.116
-359.625	104.310	-0.062	0.073
-358.610	800.000	0.066	-0.197
-357.596	-116.361	0.246	-0.045
-356.581	-31.190	-0.265	0.148
-355.566	275.467	-0.114	0.200
-354.552	72.478	-0.165	0.171
-353.537	16.268	-0.107	-0.084
-352.523	-200.000	0.032	-0.259
-351.508	-62.616	0.198	-0.082
-350.493	74.990	0.087	-0.091
-349.479	208.850	-0.103	-0.160
-348.464	688.813	0.162	-0.421
-347.450	-29.122	-0.272	-0.155
-346.435	-151.436	-0.234	0.017
-345.420	-200.000	0.000	0.162
-344.406	-39.032	-0.205	-0.107
-343.391	-11.263	-0.233	0.152
-342.377	-147.767	-0.058	-0.005
-341.362	107.174	-0.074	0.087
-340.348	376.145	0.176	0.357
-339.333	-7.095	0.262	-0.176
-338.318	-200.000	0.045	-0.212
-337.304	-6.073	0.221	0.150
-336.289	143.088	-0.260	0.343
-335.275	-200.000	-0.017	-0.285
-334.260	493.729	-0.073	0.165
-333.245	-75.964	-0.086	-0.030
-332.231	-111.397	-0.261	-0.053
-331.216	800.000	-0.050	-0.152
-330.202	103.493	0.171	0.199
-329.187	-59.676	0.197	-0.084
-328.172	-142.197	0.286	0.028
-327.158	-106.045	-0.257	0.057
-326.143	39.362	0.255	-0.226
-325.129	-5.286	-0.187	0.128
-324.114	-103.972	0.636	0.147
-323.099	800.000	0.053	0.158
-322.085	-28.605	-0.121	0.069
-321.070	219.490	0.174	0.276
-320.056	407.239	0.045	-0.095
-319.041	-37.123	-0.440	0.233
-318.026	-114.354	0.577	-0.110
-317.012	159.423	0.139	-0.192
-315.997	-123.834	0.342	0.054
-314.983	-200.000	0.002	-0.013
-313.968	-152.419	0.271	0.019
-312.953	253.707	-0.053	-0.090
-311.939	20.827	-0.090	-0.072
-310.924	265.539	-0.072	-0.124
-309.910	-25.282	0.037	-0.022
-308.895	107.160	-0.229	0.270
-307.880	-129.555	-0.077	-0.010
-306.866	-173.611	0.266	0.008
-305.851	164.566	-0.104	0.145
-304.837	-25.893	-0.282	0.165
-303.822	-133.627	0.471	0.058
-302.807	129.510	-0.085	0.108
-301.793	-154.245	0.115	-0.008
-300.778	-200.000	0.039	-0.245
-299.764	233.548	-0.170	0.277
-298.749	342.764	0.123	0.239
-297.735	-134.678	0.460	0.055
-296.720	-107.398	0.039	-0.008
-295.705	2.615	0.197	0.141
-294.691	235.053	0.144	-0.235
-293.676	-20.690	-0.199	-0.121
-292.662	-200.000	-0.030	0.175
-291.647	-200.000	-0.033	-0.275
-290.632	-27.118	-0.375	-0.217
-289.618	800.000	-0.048	-0.200
-288.603	-64.447	-0.290	0.117
-287.589	-54.063	0.230	-0.104
-286.574	-197.345	0.197	0.001
-285.559	99.147	-0.128	-0.147
-284.545	-88.025	-0.170	-0.051
-283.530	17.633	0.043	0.034
-282.516	-0.157	0.147	0.103
-281.501	21.022	0.395	0.317
-280.486	414.844	-0.053	-0.113
-279.472	-12.135	-0.235	0.152
-278.457	105.709	0.125	-0.146
-277.443	-188.249	0.074	0.001
-276.428	-104.608	0.323	-0.074
-275.413	-188.174	0.091	-0.001
-274.399	-51.592	-0.203	0.094
-273.384	-23.379	-0.255	0.152
-272.370	800.000	-0.003	0.011
-271.355	111.984	-0.040	-0.048
-270.340	94.725	0.085	0.095
-269.326	-45.588	-0.216	0.106
-268.311	265.600	-0.180	-0.310
-267.297	-32.087	-0.264	-0.146
-266.282	-99.180	-0.291	-0.073
-265.267	-70.281	0.349	-0.131
-264.253	534.440	0.088	-0.207
-263.238	30.923	0.357	-0.303
-262.224	97.071	-0.039	0.044
-261.209	-125.446	-0.183	-0.028
-260.195	130.691	-0.117	-0.149
-259.180	-31.944	-0.116	0.064
-258.165	-19.381	-0.213	-0.131
-257.151	-104.137	0.364	0.084
-256.136	800.000	0.117	-0.339
-255.122	-151.230	0.196	-0.014
-254.107	703.396	0.058	0.151
-253.092	-32.719	-0.083	0.046
-252.078	-51.656	-0.360	0.166
-251.063	-105.994	0.086	-0.019
-250.049	139.501	0.028	0.037
-249.034	430.310	-0.072	0.154
-248.019	800.000	-0.095	-0.371
-247.005	92.871	0.071	-0.079
-245.990	133.592	0.178	-0.228
-244.976	731.352	-0.054	-0.143
-243.961	623.039	-0.093	0.232
-242.946	-19.332	0.251	0.154
-241.932	-113.185	-0.162	0.031
-240.917	-200.000	-0.028	-0.150
-239.903	15.179	-0.181	-0.141
-238.888	169.579	0.157	0.222
-237.873	335.828	0.031	0.059
-236.859	-64.309	-0.194	-0.078
-235.844	-85.709	0.111	0.034
-234.830	-181.246	-0.100	0.002
-233.815	112.984	-0.106	0.128
-232.800	108.290	-0.267	-0.315
-231.786	-71.932	0.029	-0.011
-230.771	800.000	0.069	0.194
-229.757	-121.955	0.360	-0.059
-228.742	-61.638	-0.112	-0.046
-227.727	-22.225	-0.044	0.027
-226.713	800.000	0.096	0.332
-225.698	-200.000	0.027	0.123
-224.684	569.490	0.041	0.098
-223.669	800.000	0.043	-0.139
-222.655	-195.654	0.408	-0.003
-221.640	-127.726	-0.039	-0.006
-220.625	61.587	0.277	-0.272
-219.611	-9.061	0.171	0.113
-218.596	56.123	0.063	0.061
-217.582	-47.105	-0.251	-0.121
-216.567	-94.088	0.200	-0.054
-215.552	-143.472	0.420	0.040
-214.538	-61.753	0.330	-0.137
-213.523	-42.399	-0.082	-0.041
-212.509	800.000	0.054	0.182
-211.494	-97.920	-0.275	0.070
-210.479	-113.271	-0.043	-0.008
-209.465	-70.390	-0.193	0.072
-208.450	-190.739	-0.427	0.004
-207.436	-113.560	0.150	-0.029
-206.421	-71.136	-0.150	-0.056
-205.406	-200.000	-0.063	0.333
-204.392	639.385	-0.020	-0.049
-203.377	-138.357	0.198	0.022
-202.363	-48.287	-0.057	0.027
-201.348	-59.399	0.117	-0.050
-200.333	23.538	0.184	-0.149
-199.319	70.689	0.244	-0.249
-198.304	9.022	0.122	0.091
-197.290	24.312	-0.232	-0.189
-196.275	313.810	-0.202	-0.375
-195.260	-10.579	0.241	-0.157
-194.246	30.231	-0.173	-0.146
-193.231	-101.170	0.228	-0.055
-192.217	-200.000	0.012	-0.067
-191.202	-38.666	0.220	0.115
-190.187	-62.172	0.170	0.070
-189.173	-109.085	0.409	0.086
-188.158	8.247	-0.189	-0.140
-187.144	-25.367	0.082	0.048
-186.129	800.000	0.110	-0.462
-185.114	-156.419	0.228	-0.014
-184.100	78.463	0.222	0.234
-183.085	-16.428	-0.094	0.059
-182.071	800.000	0.080	0.323
-181.056	-200.000	0.041	0.238
-180.042	-53.822	-0.404	0.182
-179.027	4.205	0.138	0.100
-178.012	-86.181	0.276	-0.084
-176.998	-109.350	-0.125	-0.026
-175.983	35.197	0.180	0.155
-174.969	-200.000	-0.036	0.155
-173.954	-103.717	-0.255	-0.059
-172.939	-119.468	0.233	-0.040
-171.925	27.713	-0.147	-0.122
-170.910	7.741	-0.147	0.108
-169.896	248.444	-0.089	-0.148
-168.881	-72.449	-0.284	-0.104
-167.866	-200.000	0.000	0.194
-166.852	55.069	0.121	-0.115
-165.837	29.198	-0.081	0.068
-164.823	-37.319	0.314	0.166
-163.808	-78.913	-0.146	0.049
-162.793	-114.896	0.343	-0.064
-161.779	-90.341	-0.409	-0.117
-160.764	238.367	-0.146	-0.240
-159.750	-200.000	0.008	-0.078
-158.735	-103.885	0.081	0.019
-157.720	-200.000	0.058	-0.253
-156.706	177.289	0.138	-0.198
-155.691	261.461	0.191	-0.326
-154.677	127.737	0.087	0.109
-153.662	-144.082	0.256	-0.024
-152.647	-93.113	-0.136	-0.037
-151.633	-200.000	-0.007	-0.058
-150.618	-109.313	0.370	-0.077
-149.604	-74.792	0.232	-0.082
-148.589	-111.906	-0.147	-0.029
-147.574	-42.363	0.131	-0.066
-146.560	-141.498	0.160	0.016
-145.545	800.000	0.094	0.286
-144.531	800.000	-0.020	-0.057
-143.516	-200.000	-0.030	0.158
-142.502	-27.511	0.325	-0.186
-141.487	-143.258	-0.032	0.003
-140.472	422.412	0.088	0.187
-139.458	-200.000	-0.005	-0.222
-138.443	-62.331	-0.214	0.088
-137.429	-200.000	0.003	-0.045
-136.414	-42.352	0.293	-0.147
-135.399	391.474	0.079	0.161
-134.385	-89.338	0.265	-0.077
-133.370	76.136	0.235	0.245
-132.356	23.249	-0.312	-0.253
-131.341	-200.000	0.016	-0.185
-130.326	-74.450	0.247	0.088
-129.312	800.000	0.021	0.075
-128.297	42.132	-0.182	-0.163
-127.283	71.632	0.003	0.003
-126.268	-74.002	-0.136	-0.049
-125.253	-200.000	0.021	0.235
-124.239	715.387	0.090	0.234
-123.224	-119.774	0.122	0.021
-122.210	277.302	0.133	-0.233
-121.195	-151.206	0.173	-0.013
