DTS Sentinel unit serial number:	SN413079Multiplexer serial number:	ORYXHardware model number:	OX4-SRSoftware version number:	ORYX F/W v4.00 Oryx Data Collector v3.7.2.0data status	okinstallation	princeton_trtdifferential loss correction	single-endedforward channel	channel 3reverse channel	N/Adate	2019/09/15time	08:20:35forward acquisition time	60.00reverse acquisition time	0.00gamma	496.2192k internal	0.2322k external	0.2322temperature offset calibration	0.9981default loss term (dB/km)	0.3790temperature slope calibration	1.0000multiplexer offset coefficient	1.0000multiplexer slope coefficient	1.0000fibre end	0.00T internal ref (°C)	31.27T ext. ref 1 (°C)	5.02T ext. ref 2 (°C)	28.40length (m)	temperature (°C)	Stokes	anti-Stokes-747.200	-35.468	0.152	-0.083
-746.185	-139.228	0.115	0.013
-745.171	75.236	-0.134	0.142
-744.156	490.995	-0.118	0.272
-743.142	81.597	0.277	-0.303
-742.127	134.971	-0.105	0.137
-741.112	583.562	-0.091	0.226
-740.098	594.876	0.056	0.140
-739.083	-125.377	0.257	0.040
-738.069	-200.000	-0.030	-0.142
-737.054	257.469	-0.055	0.096
-736.039	27.829	-0.171	-0.146
-735.025	-96.087	-0.250	0.067
-734.010	11.424	0.227	-0.176
-732.996	-5.131	0.218	-0.151
-731.981	45.344	0.005	0.004
-730.966	721.254	0.073	0.197
-729.952	169.462	-0.040	-0.057
-728.937	329.803	0.043	-0.083
-727.923	-144.859	0.153	-0.014
-726.908	800.000	0.012	-0.040
-725.894	87.775	-0.085	0.095
-724.879	-95.798	-0.313	0.084
-723.864	-94.760	-0.274	-0.075
-722.850	192.727	0.017	-0.025
-721.835	-70.604	-0.314	-0.120
-720.821	272.826	0.092	0.164
-719.806	-200.000	-0.020	-0.112
-718.791	-155.042	-0.037	0.002
-717.777	800.000	0.035	0.097
-716.762	29.470	-0.153	0.131
-715.748	-200.000	-0.046	0.361
-714.733	43.702	0.255	-0.235
-713.718	-48.935	-0.047	-0.023
-712.704	145.523	-0.092	-0.124
-711.689	-200.000	0.030	0.221
-710.675	192.763	-0.133	-0.203
-709.660	-41.562	-0.148	-0.077
-708.645	800.000	-0.109	-0.412
-707.631	-33.294	-0.174	-0.097
-706.616	-124.838	-0.395	0.062
-705.602	-157.890	0.074	0.004
-704.587	131.697	-0.073	0.094
-703.572	-144.143	-0.191	-0.018
-702.558	800.000	0.009	0.027
-701.543	89.427	0.006	0.006
-700.529	-62.044	0.084	0.035
-699.514	295.707	0.043	-0.079
-698.499	-28.352	-0.197	0.114
-697.485	76.588	-0.107	-0.115
-696.470	-14.891	0.099	0.064
-695.456	286.215	-0.104	0.189
-694.441	-28.765	-0.165	-0.096
-693.426	228.163	0.101	0.165
-692.412	190.514	-0.343	0.519
-691.397	-53.580	-0.170	-0.079
-690.383	800.000	-0.094	-0.268
-689.368	-200.000	-0.018	-0.111
-688.354	800.000	-0.072	-0.299
-687.339	-200.000	0.001	0.112
-686.324	517.016	-0.058	-0.136
-685.310	24.018	-0.041	0.034
-684.295	42.661	0.080	0.074
-683.281	99.264	-0.114	0.133
-682.266	-200.000	0.021	-0.190
-681.251	-41.550	0.042	0.022
-680.237	-200.000	0.006	0.100
-679.222	686.738	-0.050	-0.132
-678.208	125.426	0.062	0.079
-677.193	10.703	-0.171	0.131
-676.178	-145.454	-0.040	-0.004
-675.164	190.122	0.098	0.148
-674.149	-200.000	0.044	0.261
-673.135	-200.000	0.024	0.335
-672.120	4.390	0.179	-0.132
-671.105	-115.761	-0.217	-0.041
-670.091	-150.356	0.237	-0.018
-669.076	193.322	0.150	0.229
-668.062	-36.455	-0.227	-0.123
-667.047	31.844	0.157	-0.136
-666.032	178.803	0.127	-0.187
-665.018	-200.000	-0.005	-0.221
-664.003	800.000	0.049	-0.183
-662.989	38.004	-0.142	-0.127
-661.974	60.140	-0.172	0.172
-660.959	-122.446	0.267	-0.044
-659.945	-127.239	-0.323	0.048
-658.930	-14.737	-0.084	0.054
-657.916	-200.000	0.050	0.331
-656.901	800.000	0.147	0.417
-655.886	-56.497	-0.256	0.114
-654.872	91.316	-0.108	-0.122
-653.857	86.049	-0.201	-0.222
-652.843	304.393	0.180	-0.337
-651.828	-127.538	-0.273	0.040
-650.814	-123.820	-0.170	-0.027
-649.799	158.644	-0.128	-0.179
-648.784	285.047	-0.145	-0.264
-647.770	-45.853	-0.331	0.164
-646.755	-70.609	-0.421	-0.160
-645.741	-68.742	0.372	-0.145
-644.726	-44.391	0.170	-0.086
-643.711	63.262	0.133	-0.134
-642.697	158.415	-0.137	0.192
-641.682	53.449	-0.144	0.139
-640.668	-2.317	-0.108	0.076
-639.653	-15.261	0.182	0.117
-638.638	-200.000	-0.064	0.302
-637.624	-148.040	0.056	-0.005
-636.609	-25.909	0.064	0.038
-635.595	-7.605	0.181	-0.123
-634.580	418.046	0.156	-0.335
-633.565	14.823	-0.125	0.098
-632.551	254.171	0.119	0.205
-631.536	-200.000	0.027	-0.154
-630.522	-12.077	-0.140	-0.092
-629.507	612.517	0.069	0.175
-628.492	0.948	-0.314	-0.226
-627.478	-78.062	-0.350	-0.121
-626.463	140.161	-0.064	-0.085
-625.449	-200.000	0.074	-0.376
-624.434	800.000	-0.076	-0.223
-623.419	-137.154	0.121	-0.014
-622.405	228.306	-0.098	-0.161
-621.390	800.000	-0.070	-0.264
-620.376	-164.940	-0.256	-0.011
-619.361	-92.629	-0.047	0.013
-618.346	800.000	-0.033	0.130
-617.332	-93.512	0.146	-0.041
-616.317	800.000	0.021	0.062
-615.303	-110.321	0.228	0.048
-614.288	800.000	-0.088	-0.348
-613.273	-138.597	0.218	0.024
-612.259	800.000	0.100	-0.359
-611.244	-54.817	0.170	-0.077
-610.230	72.564	-0.099	-0.103
-609.215	350.290	0.078	0.156
-608.201	-39.981	0.415	-0.218
-607.186	-200.000	-0.021	-0.136
-606.171	205.263	0.146	-0.228
-605.157	612.795	-0.124	-0.313
-604.142	33.923	0.386	-0.337
-603.128	232.427	0.227	0.375
-602.113	21.609	0.122	-0.100
-601.098	-14.452	-0.087	0.056
-600.084	-99.131	-0.446	-0.114
-599.069	233.733	0.072	0.118
-598.055	45.901	0.230	-0.213
-597.040	-57.203	-0.238	-0.105
-596.025	-197.970	-0.064	0.000
-595.011	-133.864	0.180	0.023
-593.996	24.994	-0.210	0.175
-592.982	-79.350	0.124	0.042
-591.967	-200.000	-0.024	0.313
-590.952	59.162	-0.045	-0.044
-589.938	236.247	0.088	-0.147
-588.923	800.000	-0.069	0.234
-587.909	145.300	-0.069	-0.093
-586.894	-200.000	-0.024	-0.276
-585.879	-200.000	-0.056	-0.307
-584.865	-32.009	0.280	-0.157
-583.850	48.419	0.097	0.091
-582.836	-200.000	-0.020	-0.388
-581.821	26.658	0.142	0.120
-580.806	-112.050	0.116	0.023
-579.792	-200.000	-0.076	0.356
-578.777	-173.045	-0.289	-0.009
-577.763	-200.000	0.032	0.145
-576.748	-69.046	0.271	0.105
-575.733	-200.000	0.024	-0.201
-574.719	800.000	-0.042	0.143
-573.704	51.897	0.165	-0.157
-572.690	729.582	-0.097	-0.260
-571.675	-169.683	0.166	0.006
-570.661	201.599	-0.102	0.157
-569.646	761.003	-0.099	0.270
-568.631	-156.297	-0.466	0.029
-567.617	247.990	-0.062	0.104
-566.602	-200.000	-0.031	-0.138
-565.588	78.419	0.101	0.108
-564.573	444.076	0.092	0.201
-563.558	-46.850	-0.255	0.125
-562.544	283.386	-0.033	0.059
-561.529	-14.346	0.138	-0.089
-560.515	-200.000	0.022	0.155
-559.500	223.713	-0.071	0.115
-558.485	-142.776	0.019	0.002
-557.471	-39.499	-0.300	-0.158
-556.456	139.901	-0.226	-0.298
-555.442	800.000	-0.118	-0.516
-554.427	-39.517	-0.271	-0.142
-553.412	93.152	-0.111	0.126
-552.398	-97.169	-0.063	-0.017
-551.383	-48.893	0.177	-0.085
-550.369	97.535	0.215	0.248
-549.354	150.857	0.303	-0.413
-548.339	-86.759	-0.111	-0.034
-547.325	13.413	-0.260	0.202
-546.310	-200.000	-0.058	-0.325
-545.296	36.249	0.120	0.106
-544.281	-106.717	0.201	0.045
-543.266	-31.059	-0.253	0.143
-542.252	-144.397	0.301	0.028
-541.237	66.186	-0.211	-0.215
-540.223	-52.606	-0.100	-0.046
-539.208	-149.873	-0.190	-0.015
-538.193	376.856	0.125	-0.256
-537.179	453.729	-0.011	-0.025
-536.164	-200.000	0.004	-0.068
-535.150	-200.000	0.000	0.245
-534.135	-96.701	-0.071	0.019
-533.121	-143.487	-0.258	0.025
-532.106	800.000	0.075	-0.228
-531.091	18.572	-0.251	0.201
-530.077	203.806	0.069	-0.107
-529.062	432.806	-0.084	0.182
-528.048	-106.186	0.250	-0.056
-527.033	14.225	0.244	0.191
-526.018	96.832	-0.055	-0.063
-525.004	-200.000	0.063	-0.288
-523.989	115.388	0.089	0.109
-522.975	91.821	0.159	0.179
-521.960	56.839	0.272	0.265
-520.945	-88.646	0.289	0.086
-519.931	-200.000	-0.029	-0.265
-518.916	-6.641	-0.167	0.114
-517.902	-85.109	0.222	0.070
-516.887	378.411	0.043	0.087
-515.872	-70.615	0.205	-0.077
-514.858	25.294	0.276	-0.229
-513.843	-200.000	-0.030	-0.209
-512.829	154.772	0.099	-0.136
-511.814	-186.402	-0.230	-0.003
-510.799	584.165	0.123	0.303
-509.785	-6.088	-0.041	-0.028
-508.770	753.426	-0.179	-0.485
-507.756	-200.000	0.002	-0.165
-506.741	-200.000	0.004	-0.048
-505.726	-53.441	0.265	0.122
-504.712	33.055	-0.185	-0.160
-503.697	-200.000	-0.013	-0.203
-502.683	-35.669	0.153	0.083
-501.668	-49.554	0.244	0.116
-500.653	-197.866	-0.109	-0.001
-499.639	140.124	-0.128	-0.169
-498.624	132.080	-0.118	0.152
-497.610	-17.301	-0.138	0.087
-496.595	-200.000	0.023	-0.145
-495.581	211.381	-0.121	0.190
-494.566	-28.148	-0.201	0.116
-493.551	69.384	-0.165	0.170
-492.537	245.286	0.095	0.159
-491.522	-56.595	0.183	0.081
-490.508	-70.332	0.183	-0.070
-489.493	-200.000	-0.016	0.163
-488.478	169.586	0.295	-0.422
-487.464	-74.048	0.269	0.097
-486.449	-200.000	0.085	0.386
-485.435	138.973	-0.044	0.058
-484.420	-110.773	-0.299	0.062
-483.405	633.685	-0.046	0.117
-482.391	-89.073	0.502	-0.149
-481.376	155.524	0.138	0.190
-480.362	-200.000	0.011	0.183
-479.347	59.752	-0.141	-0.139
-478.332	800.000	0.093	-0.286
-477.318	216.276	0.260	-0.414
-476.303	800.000	0.033	0.118
-475.289	-47.177	-0.237	0.115
-474.274	242.369	0.065	-0.109
-473.259	-101.932	-0.390	0.094
-472.245	-156.803	-0.235	0.014
-471.230	-160.888	-0.140	0.007
-470.216	4.700	-0.112	0.082
-469.201	-200.000	0.007	0.068
-468.186	800.000	-0.115	0.353
-467.172	-200.000	-0.000	-0.083
-466.157	-200.000	-0.010	0.129
-465.143	84.290	-0.122	0.133
-464.128	34.381	0.117	0.102
-463.113	152.286	0.218	-0.298
-462.099	124.073	-0.077	-0.096
-461.084	47.280	0.256	0.238
-460.070	151.278	-0.316	0.429
-459.055	-70.303	0.053	-0.020
-458.040	-94.867	0.285	-0.077
-457.026	-4.190	-0.339	0.235
-456.011	8.005	-0.235	0.176
-454.997	323.514	-0.127	0.242
-453.982	-123.503	-0.397	-0.063
-452.968	-24.081	0.202	-0.121
-451.953	-150.372	0.167	-0.013
-450.938	-52.666	0.475	-0.219
-449.924	473.747	-0.151	0.340
-448.909	626.188	-0.098	0.246
-447.895	182.967	-0.090	-0.132
-446.880	-156.059	-0.062	-0.004
-445.865	-64.698	-0.028	-0.011
-444.851	344.995	-0.095	-0.186
-443.836	800.000	-0.072	-0.255
-442.822	328.356	0.094	-0.181
-441.807	-200.000	0.029	-0.168
-440.792	-111.231	-0.410	0.084
-439.778	800.000	0.080	-0.300
-438.763	-67.954	0.150	-0.059
-437.749	62.929	-0.146	0.146
-436.734	-200.000	0.014	-0.121
-435.719	-200.000	0.032	-0.301
-434.705	24.626	-0.188	0.155
-433.690	-123.481	0.219	0.035
-432.676	-200.000	0.006	-0.182
-431.661	-94.531	0.132	-0.036
-430.646	-200.000	-0.054	-0.333
-429.632	-200.000	0.020	-0.357
-428.617	-200.000	-0.030	0.273
-427.603	-200.000	0.006	-0.144
-426.588	29.078	-0.171	0.145
-425.573	-200.000	0.019	-0.223
-424.559	745.305	0.058	0.155
-423.544	90.980	0.048	-0.054
-422.530	-200.000	0.020	0.158
-421.515	68.554	-0.250	-0.256
-420.500	21.254	0.084	-0.068
-419.486	-58.609	-0.251	0.109
-418.471	-200.000	-0.029	0.186
-417.457	38.097	0.358	0.317
-416.442	-18.976	0.377	-0.234
-415.428	-21.548	-0.149	0.091
-414.413	-1.667	0.243	-0.171
-413.398	-61.385	0.093	-0.039
-412.384	65.585	-0.060	0.061
-411.369	320.944	0.102	0.194
-410.355	154.750	-0.102	-0.139
-409.340	-200.000	-0.003	-0.122
-408.325	299.117	-0.163	-0.299
-407.311	800.000	-0.066	-0.193
-406.296	-50.179	0.174	-0.082
-405.282	800.000	0.020	-0.067
-404.267	-200.000	-0.023	-0.276
-403.252	-200.000	-0.002	0.257
-402.238	114.484	-0.165	0.201
-401.223	-109.466	-0.268	-0.056
-400.209	800.000	0.053	-0.190
-399.194	-28.530	-0.123	-0.071
-398.179	12.926	-0.070	-0.054
-397.165	-72.977	-0.088	0.032
-396.150	-128.557	-0.388	0.055
-395.136	-43.920	0.024	0.012
-394.121	370.665	-0.097	0.195
-393.106	80.755	0.113	-0.121
-392.092	75.340	0.053	0.056
-391.077	625.742	-0.088	0.222
-390.063	-95.918	-0.313	-0.083
-389.048	-111.504	0.275	-0.056
-388.033	625.901	0.104	0.262
-387.019	3.326	0.268	-0.194
-386.004	-135.049	-0.242	0.029
-384.990	122.692	0.180	-0.225
-383.975	800.000	-0.029	0.096
-382.960	-63.837	-0.280	0.114
-381.946	-64.262	0.295	-0.120
-380.931	241.911	-0.091	-0.151
-379.917	778.057	-0.108	0.294
-378.902	-66.952	0.186	0.073
-377.888	-200.000	-0.004	0.095
-376.873	-77.594	0.192	-0.066
-375.858	-37.154	-0.096	0.051
-374.844	104.556	-0.155	0.181
-373.829	-118.862	0.045	0.008
-372.815	800.000	0.111	0.326
-371.800	691.474	0.087	-0.226
-370.785	800.000	-0.026	0.089
-369.771	167.027	-0.119	0.168
-368.756	182.732	-0.122	-0.179
-367.742	213.478	0.211	0.332
-366.727	32.565	-0.266	0.229
-365.712	287.509	0.205	0.369
-364.698	179.335	0.107	-0.156
-363.683	146.175	-0.141	-0.189
-362.669	-69.364	-0.381	-0.146
-361.654	-55.427	-0.061	-0.027
-360.639	19.741	-0.276	0.221
-359.625	522.332	-0.077	-0.180
-358.610	-149.604	-0.174	-0.014
-357.596	-6.366	-0.456	-0.309
-356.581	-200.000	-0.006	0.180
-355.566	-89.527	-0.242	0.071
-354.552	-200.000	-0.020	-0.349
-353.537	-137.790	0.234	-0.026
-352.523	-143.117	-0.245	0.024
-351.508	-41.073	-0.309	-0.159
-350.493	-127.035	-0.216	-0.032
-349.479	-142.236	-0.138	0.014
-348.464	-200.000	0.027	0.213
-347.450	160.376	-0.331	0.460
-346.435	-200.000	-0.013	-0.143
-345.420	800.000	-0.027	0.076
-344.406	33.989	0.206	-0.178
-343.391	74.913	-0.175	0.183
-342.377	-200.000	0.005	-0.024
-341.362	-64.679	0.309	-0.124
-340.348	-61.717	0.235	-0.098
-339.333	-31.359	-0.329	0.184
-338.318	-200.000	-0.053	-0.261
-337.304	-8.818	0.128	-0.085
-336.289	112.636	0.169	0.204
-335.275	308.565	0.057	-0.106
-334.260	262.884	0.056	-0.096
-333.245	-200.000	-0.020	-0.150
-332.231	23.273	0.041	-0.033
-331.216	76.935	-0.044	-0.047
-330.202	800.000	0.022	0.077
-329.187	-47.071	0.213	-0.104
-328.172	350.896	-0.081	-0.158
-327.158	-200.000	0.075	0.375
-326.143	-57.567	0.126	-0.055
-325.129	-37.487	-0.256	0.136
-324.114	-56.855	0.285	0.125
-323.099	775.012	-0.051	-0.138
-322.085	277.935	-0.251	0.443
-321.070	309.641	-0.080	0.149
-320.056	800.000	0.017	-0.053
-319.041	9.187	0.154	-0.116
-318.026	-200.000	0.039	-0.200
-317.012	-67.066	0.111	-0.043
-315.997	-200.000	0.001	-0.167
-314.983	784.265	0.058	0.159
-313.968	-200.000	-0.025	-0.156
-312.953	-63.961	-0.185	-0.075
-311.939	-200.000	0.040	0.180
-310.924	89.857	-0.172	0.191
-309.910	-86.835	-0.219	0.067
-308.895	800.000	-0.072	-0.237
-307.880	-155.149	0.273	0.018
-306.866	-200.000	0.003	-0.013
-305.851	27.721	0.174	0.146
-304.837	1.964	0.109	0.078
-303.822	184.724	0.237	-0.348
-302.807	301.512	0.166	-0.304
-301.793	181.764	0.090	0.131
-300.778	-200.000	0.008	-0.093
-299.764	149.418	-0.051	0.069
-298.749	-22.292	0.281	0.169
-297.735	800.000	-0.044	0.127
-296.720	16.901	0.168	-0.132
-295.705	-95.359	0.330	0.088
-294.691	109.796	-0.137	-0.164
-293.676	-45.414	-0.260	0.128
-292.662	86.287	0.144	-0.157
-291.647	43.605	0.075	-0.068
-290.632	272.134	-0.116	-0.203
-289.618	395.156	0.074	0.154
-288.603	26.478	0.103	0.085
-287.589	43.635	0.049	-0.044
-286.574	-27.191	0.097	-0.056
-285.559	163.582	0.168	0.234
-284.545	14.246	0.178	-0.138
-283.530	64.633	0.169	0.169
-282.516	520.324	-0.112	0.261
-281.501	-200.000	-0.013	0.208
-280.486	751.847	-0.097	0.261
-279.472	-15.973	0.035	0.022
-278.457	670.726	-0.046	-0.118
-277.443	-71.317	0.113	0.042
-276.428	-144.894	-0.150	0.014
-275.413	-200.000	0.019	0.119
-274.399	-200.000	-0.066	0.349
-273.384	158.758	-0.165	0.228
-272.370	-47.803	-0.070	0.033
-271.355	342.401	0.165	0.321
-270.340	-90.120	-0.132	-0.038
-269.326	-131.504	0.299	-0.039
-268.311	282.677	-0.146	0.261
-267.297	212.114	-0.191	0.299
-266.282	5.690	-0.101	0.074
-265.267	800.000	0.090	-0.255
-264.253	125.020	0.044	-0.055
-263.238	-58.444	-0.098	-0.042
-262.224	-184.379	-0.350	-0.006
-261.209	197.289	0.140	-0.212
-260.195	-7.688	0.286	0.191
-259.180	-71.310	0.258	-0.096
-258.165	-149.530	-0.268	0.021
-257.151	175.315	0.075	-0.108
-256.136	64.611	-0.141	-0.141
-255.122	4.177	-0.029	-0.021
-254.107	800.000	0.117	0.400
-253.092	212.171	0.130	0.203
-252.078	-180.538	-0.082	-0.002
-251.063	-112.637	-0.203	0.040
-250.049	-82.656	-0.198	0.063
-249.034	192.169	0.030	0.045
-248.019	800.000	-0.073	0.250
-247.005	-84.188	0.295	0.093
-245.990	139.940	-0.118	-0.154
-244.976	764.399	-0.037	-0.099
-243.961	-81.626	0.157	0.051
-242.946	-34.457	0.173	-0.094
-241.932	93.240	-0.071	0.080
-240.917	17.027	-0.165	0.130
-239.903	-44.365	0.229	0.113
-238.888	-86.950	0.126	-0.038
-237.873	20.214	0.172	0.138
-236.859	-102.519	0.390	-0.092
-235.844	35.514	-0.095	-0.082
-234.830	-162.651	-0.071	-0.003
-233.815	311.944	0.028	-0.051
-232.800	-56.748	-0.222	-0.097
-231.786	289.885	-0.017	0.031
-230.771	-200.000	0.010	0.244
-229.757	800.000	0.054	0.189
-228.742	-111.993	-0.230	-0.046
-227.727	281.398	-0.138	-0.245
-226.713	-200.000	0.023	0.460
-225.698	182.998	0.102	-0.149
-224.684	-188.267	-0.135	-0.002
-223.669	-119.110	-0.241	0.042
-222.655	-12.382	-0.176	-0.114
-221.640	298.139	-0.084	0.154
-220.625	-7.671	-0.086	0.058
-219.611	800.000	-0.080	-0.334
-218.596	-200.000	-0.015	0.189
-217.582	-181.376	0.315	-0.006
-216.567	282.981	-0.044	-0.078
-215.552	44.226	0.197	-0.179
-214.538	80.424	-0.183	-0.195
-213.523	800.000	0.043	-0.135
-212.509	-147.608	-0.261	-0.022
-211.494	-18.007	-0.326	0.202
-210.479	660.541	0.067	0.170
-209.465	-173.142	0.272	0.008
-208.450	742.273	0.023	0.060
-207.436	800.000	-0.053	0.148
-206.421	-88.947	0.293	0.086
-205.406	800.000	-0.055	-0.224
-204.392	800.000	-0.074	0.230
-203.377	-141.944	-0.164	-0.016
-202.363	63.836	-0.096	-0.096
-201.348	-149.950	0.360	-0.028
-200.333	-200.000	0.073	0.339
-199.319	-200.000	0.050	-0.411
-198.304	177.290	0.065	0.093
-197.290	253.088	-0.123	0.208
-196.275	3.887	-0.189	-0.136
-195.260	-9.680	-0.196	-0.129
-194.246	127.000	0.028	-0.036
-193.231	-73.811	0.342	0.123
-192.217	28.804	0.165	-0.138
-191.202	-73.539	0.275	0.099
-190.187	30.415	-0.205	0.173
-189.173	349.557	0.119	0.232
-188.158	57.720	0.144	0.139
-187.144	-120.626	0.206	0.035
-186.129	-37.645	0.412	0.217
-185.114	155.772	-0.055	-0.075
-184.100	-200.000	0.001	-0.062
-183.085	28.114	-0.062	-0.052
-182.071	-158.059	0.210	-0.012
-181.056	-117.787	-0.049	-0.009
-180.042	-200.000	-0.000	0.168
-179.027	-150.143	0.124	-0.010
-178.012	18.706	-0.023	0.018
-176.998	-200.000	0.014	0.321
-175.983	800.000	0.025	-0.081
-174.969	-170.516	-0.074	-0.003
-173.954	483.248	0.150	0.338
-172.939	800.000	-0.059	0.241
-171.925	-104.422	-0.422	0.096
-170.910	468.209	-0.075	0.166
-169.896	800.000	0.017	0.053
-168.881	-152.094	0.140	0.010
-167.866	-200.000	-0.026	-0.173
-166.852	67.456	0.220	0.222
-165.837	-154.076	0.225	0.015
-164.823	14.306	-0.220	-0.170
-163.808	-115.680	-0.145	0.027
-162.793	800.000	0.107	-0.364
-161.779	-98.048	0.312	-0.079
-160.764	-200.000	-0.012	-0.180
-159.750	124.880	-0.228	-0.284
-158.735	-44.505	0.145	0.071
-157.720	-200.000	-0.030	-0.184
-156.706	-157.244	0.317	0.019
-155.691	-144.163	0.091	0.008
-154.677	-200.000	-0.004	0.137
-153.662	326.002	0.113	0.213
-152.647	30.847	-0.086	0.073
-151.633	286.878	-0.124	-0.221
-150.618	-48.584	-0.156	-0.074
-149.604	800.000	0.105	-0.351
-148.589	47.167	-0.173	0.159
-147.574	43.426	-0.122	0.110
-146.560	-200.000	-0.017	0.196
-145.545	-200.000	-0.008	-0.087
-144.531	-200.000	0.001	0.143
-143.516	231.080	0.147	-0.237
-142.502	387.785	0.046	-0.093
-141.487	140.896	0.091	0.119
-140.472	-0.423	-0.228	-0.160
-139.458	210.229	-0.051	0.078
-138.443	-100.503	-0.137	0.033
-137.429	256.214	0.059	0.101
-136.414	113.073	0.170	0.203
-135.399	277.536	-0.109	-0.192
-134.385	800.000	0.093	-0.268
-133.370	271.582	-0.256	-0.445
-132.356	-11.304	0.427	0.277
-131.341	17.772	-0.308	-0.242
-130.326	-173.398	0.431	0.013
-129.312	-149.301	-0.261	0.021
-128.297	338.871	0.126	0.242
-127.283	12.569	-0.067	-0.051
-126.268	800.000	-0.075	-0.262
-125.253	472.188	-0.073	0.163
-124.239	800.000	-0.127	-0.400
-123.224	69.033	0.129	-0.131
-122.210	44.560	-0.091	-0.082
-121.195	325.047	-0.044	-0.083
