DTS Sentinel unit serial number:	SN413079Multiplexer serial number:	ORYXHardware model number:	OX4-SRSoftware version number:	ORYX F/W v4.00 Oryx Data Collector v3.7.2.0data status	okinstallation	princeton_trtdifferential loss correction	single-endedforward channel	channel 3reverse channel	N/Adate	2019/09/19time	10:40:34forward acquisition time	60.00reverse acquisition time	0.00gamma	496.2192k internal	0.2342k external	0.2342temperature offset calibration	0.9978default loss term (dB/km)	0.3790temperature slope calibration	1.0000multiplexer offset coefficient	1.0000multiplexer slope coefficient	1.0000fibre end	0.00T internal ref (°C)	24.56T ext. ref 1 (°C)	0.74T ext. ref 2 (°C)	20.09length (m)	temperature (°C)	Stokes	anti-Stokes-747.200	-200.000	0.010	-0.149
-746.185	280.259	0.094	-0.169
-745.171	-72.586	-0.254	0.094
-744.156	-200.000	0.008	-0.135
-743.142	781.652	-0.088	0.242
-742.127	75.127	0.072	0.076
-741.112	209.994	0.319	0.501
-740.098	-144.782	-0.134	0.012
-739.083	-168.641	-0.074	0.003
-738.069	66.023	-0.029	-0.029
-737.054	40.417	0.065	0.059
-736.039	-82.372	-0.265	-0.086
-735.025	583.796	0.063	-0.154
-734.010	-147.373	-0.299	-0.025
-732.996	-200.000	-0.006	0.080
-731.981	-200.000	-0.025	-0.238
-730.966	102.964	-0.353	-0.414
-729.952	-25.690	-0.167	0.099
-728.937	-200.000	0.018	0.282
-727.923	-1.892	0.065	0.046
-726.908	800.000	-0.042	0.138
-725.894	21.117	-0.459	-0.373
-724.879	271.732	-0.077	0.136
-723.864	-200.000	0.002	-0.144
-722.850	63.493	-0.231	0.232
-721.835	57.975	-0.146	0.143
-720.821	-42.449	-0.264	-0.135
-719.806	-82.413	0.380	0.123
-718.791	439.035	-0.083	-0.181
-717.777	-200.000	0.009	-0.149
-716.762	-200.000	0.059	-0.352
-715.748	-19.987	0.216	-0.133
-714.733	711.177	-0.082	-0.218
-713.718	800.000	-0.048	-0.188
-712.704	-89.465	-0.080	-0.024
-711.689	-133.878	0.385	0.048
-710.675	389.460	-0.061	-0.126
-709.660	80.606	-0.176	0.189
-708.645	43.626	-0.081	0.074
-707.631	285.727	-0.157	-0.283
-706.616	5.159	-0.226	0.167
-705.602	800.000	-0.111	-0.311
-704.587	13.425	-0.234	0.181
-703.572	-200.000	0.006	0.202
-702.558	162.751	-0.153	-0.214
-701.543	-26.535	0.159	0.093
-700.529	-67.114	-0.157	0.062
-699.514	-154.828	0.054	-0.004
-698.499	-101.319	-0.145	-0.035
-697.485	-111.621	-0.072	-0.015
-696.470	-200.000	0.019	-0.227
-695.456	-200.000	-0.010	0.118
-694.441	800.000	0.041	-0.115
-693.426	-12.312	0.072	-0.047
-692.412	91.353	-0.054	0.060
-691.397	-200.000	-0.043	0.197
-690.383	-58.762	-0.243	0.105
-689.368	-200.000	0.012	-0.072
-688.354	134.335	-0.183	-0.237
-687.339	280.119	-0.019	0.034
-686.324	414.028	-0.088	0.186
-685.310	800.000	0.011	-0.044
-684.295	800.000	-0.082	0.237
-683.281	-200.000	-0.022	-0.232
-682.266	800.000	-0.030	-0.115
-681.251	-45.184	0.170	-0.085
-680.237	-200.000	-0.005	-0.240
-679.222	38.163	0.095	-0.085
-678.208	181.827	0.102	0.150
-677.193	-200.000	0.005	-0.170
-676.178	249.582	-0.111	-0.188
-675.164	-141.314	0.206	-0.021
-674.149	-73.835	0.056	0.020
-673.135	-200.000	-0.078	-0.374
-672.120	766.421	0.105	-0.284
-671.105	-200.000	0.022	0.263
-670.091	-200.000	0.020	0.178
-669.076	46.295	0.124	-0.114
-668.062	166.589	-0.089	0.126
-667.047	-0.357	-0.156	0.110
-666.032	420.657	-0.121	-0.258
-665.018	469.730	-0.089	-0.199
-664.003	-156.520	0.368	-0.023
-662.989	-200.000	-0.016	0.276
-661.974	252.599	-0.191	0.325
-660.959	800.000	0.094	-0.350
-659.945	88.919	-0.205	-0.228
-658.930	69.111	0.119	0.122
-657.916	385.192	-0.076	0.156
-656.901	446.511	-0.101	-0.221
-655.886	255.869	-0.041	-0.070
-654.872	-50.781	-0.289	-0.136
-653.857	480.044	-0.109	0.248
-652.843	-141.474	-0.250	-0.025
-651.828	-115.522	-0.355	-0.067
-650.814	182.770	0.009	-0.013
-649.799	35.995	0.035	-0.030
-648.784	-200.000	-0.006	-0.313
-647.770	18.503	0.227	-0.181
-646.755	69.400	-0.232	-0.238
-645.741	-35.783	-0.406	0.219
-644.726	-188.142	0.244	-0.003
-643.711	-166.706	-0.215	-0.009
-642.697	800.000	0.035	-0.111
-641.682	-30.091	-0.103	0.058
-640.668	115.807	-0.116	-0.141
-639.653	-69.089	-0.332	0.128
-638.638	-1.610	-0.226	-0.159
-637.624	-20.532	-0.225	0.138
-636.609	144.225	0.190	-0.252
-635.595	48.265	-0.297	-0.277
-634.580	800.000	0.135	0.421
-633.565	-140.479	-0.084	0.009
-632.551	-200.000	-0.003	0.139
-631.536	562.069	-0.065	-0.156
-630.522	9.750	0.029	0.022
-629.507	-142.065	0.132	0.013
-628.492	-131.348	-0.170	-0.022
-627.478	-200.000	-0.015	-0.315
-626.463	-200.000	0.009	0.065
-625.449	96.807	0.090	0.103
-624.434	-136.286	-0.032	-0.004
-623.419	-147.825	-0.288	0.024
-622.405	-48.705	-0.188	0.090
-621.390	353.186	-0.200	-0.396
-620.376	657.678	-0.117	-0.299
-619.361	403.246	0.120	0.251
-618.346	-145.805	-0.127	0.011
-617.332	-79.576	-0.136	0.046
-616.317	5.508	0.024	-0.018
-615.303	117.066	0.154	0.188
-614.288	-127.606	0.240	-0.035
-613.273	519.009	0.159	-0.371
-612.259	76.391	0.173	0.183
-611.244	-200.000	-0.052	-0.293
-610.230	-144.235	-0.171	-0.016
-609.215	91.453	0.084	-0.094
-608.201	-157.600	0.543	0.032
-607.186	-67.442	-0.182	0.071
-606.171	800.000	0.113	-0.323
-605.157	147.850	-0.158	-0.212
-604.142	-30.000	0.123	0.070
-603.128	-65.939	0.131	-0.052
-602.113	252.113	0.183	-0.311
-601.098	307.152	-0.080	-0.149
-600.084	91.331	-0.113	-0.126
-599.069	74.467	0.388	-0.406
-598.055	-116.338	0.357	-0.066
-597.040	29.579	0.246	0.208
-596.025	-36.646	0.149	0.080
-595.011	-200.000	-0.030	0.289
-593.996	-96.555	0.234	0.061
-592.982	-174.284	-0.134	0.004
-591.967	800.000	0.014	0.051
-590.952	-61.065	-0.112	-0.047
-589.938	315.523	0.098	0.185
-588.923	258.435	0.084	0.144
-587.909	507.415	-0.070	-0.162
-586.894	0.389	-0.117	-0.083
-585.879	-110.476	-0.340	-0.070
-584.865	800.000	0.089	-0.266
-583.850	678.302	0.042	0.109
-582.836	247.114	-0.180	0.303
-581.821	-200.000	0.006	0.133
-580.806	-200.000	0.046	-0.343
-579.792	-200.000	0.012	0.054
-578.777	4.350	0.197	-0.144
-577.763	1.981	0.058	0.042
-576.748	143.820	-0.295	-0.392
-575.733	253.849	-0.026	-0.044
-574.719	187.498	0.107	0.159
-573.704	-79.401	-0.289	-0.097
-572.690	-78.828	0.260	-0.088
-571.675	271.069	-0.042	0.074
-570.661	-173.614	-0.194	0.006
-569.646	-73.130	-0.222	-0.081
-568.631	-51.072	0.105	0.049
-567.617	102.895	0.046	0.053
-566.602	-49.553	-0.131	-0.062
-565.588	-200.000	0.027	0.153
-564.573	800.000	-0.087	0.366
-563.558	-91.749	-0.419	0.118
-562.544	-59.745	0.271	-0.115
-561.529	-200.000	-0.029	-0.294
-560.515	347.030	-0.109	0.213
-559.500	460.149	-0.067	-0.149
-558.485	-23.749	-0.103	-0.061
-557.471	800.000	0.076	-0.213
-556.456	-6.117	0.118	0.080
-555.442	-58.948	-0.070	-0.030
-554.427	-22.388	0.388	-0.234
-553.412	-200.000	-0.007	0.127
-552.398	-45.084	-0.141	-0.070
-551.383	-200.000	0.076	-0.412
-550.369	-200.000	-0.028	0.184
-549.354	-88.473	0.198	0.059
-548.339	-115.337	0.251	0.047
-547.325	-75.300	0.267	0.095
-546.310	93.626	0.132	-0.148
-545.296	-44.176	-0.207	-0.103
-544.281	412.955	0.078	-0.165
-543.266	-93.811	-0.290	0.079
-542.252	-16.091	0.102	-0.064
-541.237	262.450	0.124	-0.214
-540.223	337.058	-0.160	0.310
-539.208	58.289	-0.189	0.184
-538.193	-200.000	0.006	0.242
-537.179	-134.198	-0.165	0.020
-536.164	-44.052	0.180	0.090
-535.150	141.599	0.225	-0.296
-534.135	190.687	0.014	-0.021
-533.121	-200.000	-0.001	-0.172
-532.106	121.774	-0.096	0.119
-531.091	290.330	0.106	0.191
-530.077	-200.000	0.011	0.143
-529.062	36.723	-0.238	0.209
-528.048	26.824	0.111	0.092
-527.033	89.785	0.292	0.323
-526.018	800.000	0.020	-0.068
-525.004	789.649	0.063	-0.173
-523.989	-90.886	-0.359	-0.103
-522.975	66.024	0.323	-0.325
-521.960	106.606	0.121	-0.142
-520.945	-6.895	0.251	-0.169
-519.931	-86.642	0.371	0.113
-518.916	-200.000	0.008	-0.059
-517.902	800.000	0.048	0.172
-516.887	-75.785	-0.371	-0.131
-515.872	232.709	0.138	0.225
-514.858	800.000	0.076	-0.217
-513.843	-200.000	-0.039	-0.221
-512.829	148.632	0.236	-0.316
-511.814	-200.000	-0.043	-0.365
-510.799	-200.000	0.037	-0.285
-509.785	-89.873	-0.180	-0.052
-508.770	244.572	0.037	-0.061
-507.756	15.126	-0.280	-0.218
-506.741	-113.361	-0.216	0.042
-505.726	106.705	-0.062	-0.073
-504.712	177.464	0.152	-0.220
-503.697	-114.663	0.136	-0.026
-502.683	-200.000	-0.000	-0.305
-501.668	800.000	-0.010	-0.036
-500.653	-51.603	0.196	-0.091
-499.639	-139.848	0.399	-0.042
-498.624	-200.000	-0.110	-0.502
-497.610	292.533	0.046	0.083
-496.595	-53.848	-0.087	-0.039
-495.581	-99.597	0.139	-0.035
-494.566	800.000	-0.003	-0.008
-493.551	-200.000	0.041	-0.201
-492.537	-200.000	0.065	0.485
-491.522	-158.956	0.142	0.008
-490.508	800.000	0.036	0.144
-489.493	181.199	-0.124	0.181
-488.478	450.657	-0.080	0.176
-487.464	8.030	0.020	-0.015
-486.449	-200.000	0.019	0.179
-485.435	138.701	-0.067	-0.087
-484.420	-62.359	-0.184	0.076
-483.405	176.572	0.100	-0.144
-482.391	689.383	0.084	0.218
-481.376	56.955	0.181	-0.175
-480.362	-23.378	-0.033	0.019
-479.347	800.000	0.071	0.221
-478.332	-157.723	-0.111	-0.007
-477.318	-82.066	0.352	0.114
-476.303	323.760	-0.225	-0.425
-475.289	530.999	0.010	0.024
-474.274	452.321	-0.044	-0.096
-473.259	465.866	0.128	0.283
-472.245	-194.146	-0.292	-0.002
-471.230	234.809	-0.132	0.216
-470.216	-177.621	-0.271	0.007
-469.201	800.000	0.067	0.280
-468.186	-50.394	-0.242	0.113
-467.172	-15.027	0.009	-0.006
-466.157	640.580	0.114	0.287
-465.143	166.384	-0.195	0.273
-464.128	-200.000	0.022	0.232
-463.113	-82.786	-0.270	0.086
-462.099	-56.028	-0.264	0.116
-461.084	-35.208	0.145	-0.078
-460.070	-146.301	-0.210	-0.018
-459.055	-142.535	-0.040	-0.004
-458.040	-102.203	0.184	0.044
-457.026	-200.000	0.018	-0.248
-456.011	223.574	-0.105	-0.167
-454.997	630.343	-0.085	-0.213
-453.982	-136.268	0.223	-0.026
-452.968	575.684	0.057	-0.138
-451.953	21.618	0.131	0.105
-450.938	-200.000	-0.052	0.235
-449.924	33.816	0.299	0.257
-448.909	-103.930	0.099	0.023
-447.895	32.177	0.098	-0.083
-446.880	-26.931	0.115	0.067
-445.865	-113.775	-0.225	0.043
-444.851	-119.514	-0.137	0.024
-443.836	800.000	0.041	-0.148
-442.822	-200.000	-0.079	-0.412
-441.807	800.000	-0.136	-0.417
-440.792	602.826	-0.175	-0.431
-439.778	-200.000	-0.000	0.347
-438.763	185.321	-0.153	0.225
-437.749	-68.400	-0.300	0.115
-436.734	-200.000	-0.014	0.231
-435.719	175.545	-0.024	0.034
-434.705	11.921	0.141	-0.107
-433.690	178.932	0.023	-0.033
-432.676	-150.946	-0.290	-0.022
-431.661	-107.533	0.267	0.058
-430.646	250.582	0.098	0.165
-429.632	77.351	0.170	-0.179
-428.617	54.930	0.044	0.042
-427.603	-147.675	-0.179	0.015
-426.588	-200.000	0.007	0.043
-425.573	-66.139	0.079	0.031
-424.559	47.143	-0.402	0.370
-423.544	187.122	-0.052	-0.076
-422.530	34.285	0.204	0.176
-421.515	61.911	-0.275	0.271
-420.500	-200.000	0.021	0.130
-419.486	800.000	0.070	-0.219
-418.471	25.871	-0.141	-0.117
-417.457	-135.493	0.289	-0.034
-416.442	-103.925	0.196	0.045
-415.428	-200.000	0.007	0.072
-414.413	-169.986	-0.172	0.006
-413.398	224.478	0.108	-0.172
-412.384	147.242	0.174	0.231
-411.369	75.984	0.221	0.231
-410.355	19.772	-0.107	0.085
-409.340	-106.633	-0.258	-0.057
-408.325	222.878	0.030	0.048
-407.311	145.476	0.207	-0.274
-406.296	800.000	-0.031	-0.089
-405.282	-48.103	0.089	-0.043
-404.267	350.610	-0.098	-0.192
-403.252	-200.000	-0.001	0.246
-402.238	800.000	-0.166	-0.498
-401.223	-155.683	0.330	0.021
-400.209	-200.000	0.010	0.056
-399.194	383.810	-0.122	-0.248
-398.179	582.045	-0.110	0.267
-397.165	-200.000	0.031	0.266
-396.150	-151.257	0.098	0.007
-395.136	800.000	0.017	0.048
-394.121	-95.095	-0.203	-0.054
-393.106	-200.000	-0.000	0.099
-392.092	49.124	0.193	-0.179
-391.077	191.212	0.196	-0.292
-390.063	-43.386	-0.059	-0.030
-389.048	-197.009	0.139	-0.001
-388.033	60.775	0.046	-0.045
-387.019	800.000	-0.046	0.157
-386.004	800.000	0.078	-0.247
-384.990	-34.914	0.188	-0.101
-383.975	-31.673	-0.259	-0.143
-382.960	-188.103	0.035	-0.000
-381.946	22.815	0.089	0.072
-380.931	-135.083	0.122	0.015
-379.917	88.848	-0.150	0.164
-378.902	800.000	-0.035	-0.118
-377.888	-96.971	0.350	-0.091
-376.873	196.282	0.090	-0.135
-375.858	278.702	0.015	-0.026
-374.844	-200.000	-0.022	0.157
-373.829	-200.000	0.015	-0.317
-372.815	34.881	-0.127	-0.110
-371.800	-200.000	-0.023	0.120
-370.785	-51.221	-0.100	0.046
-369.771	-32.251	0.031	0.017
-368.756	127.283	0.070	0.088
-367.742	77.260	0.095	0.100
-366.727	-200.000	0.001	0.194
-365.712	152.452	-0.125	0.168
-364.698	-82.338	-0.103	-0.033
-363.683	70.562	-0.342	0.349
-362.669	800.000	0.041	-0.146
-361.654	-173.740	0.283	-0.008
-360.639	24.916	-0.121	-0.099
-359.625	-41.827	-0.005	-0.003
-358.610	800.000	0.108	0.342
-357.596	81.405	-0.298	-0.318
-356.581	-26.625	0.037	0.022
-355.566	-46.531	0.168	-0.081
-354.552	800.000	-0.040	-0.137
-353.537	-200.000	-0.014	0.118
-352.523	296.761	-0.057	0.102
-351.508	-30.917	-0.229	-0.128
-350.493	-125.405	0.233	0.035
-349.479	-200.000	0.022	-0.145
-348.464	237.907	-0.115	-0.189
-347.450	-25.416	-0.320	-0.187
-346.435	-183.482	0.443	0.008
-345.420	-175.109	0.325	0.009
-344.406	9.295	-0.319	0.238
-343.391	-125.526	0.065	0.010
-342.377	-57.477	0.246	-0.106
-341.362	36.349	0.256	0.222
-340.348	-200.000	0.000	-0.250
-339.333	87.954	-0.084	0.091
-338.318	90.622	-0.234	0.258
-337.304	181.358	-0.169	0.245
-336.289	800.000	-0.037	0.154
-335.275	800.000	-0.075	-0.292
-334.260	-62.359	0.168	-0.069
-333.245	519.777	0.192	-0.443
-332.231	-79.508	-0.122	-0.041
-331.216	533.411	-0.075	0.175
-330.202	103.009	-0.267	0.308
-329.187	27.440	0.192	0.159
-328.172	800.000	-0.056	0.176
-327.158	-200.000	-0.038	0.334
-326.143	-19.431	-0.040	-0.024
-325.129	-67.463	0.396	-0.153
-324.114	-41.308	-0.049	-0.025
-323.099	481.437	-0.055	-0.123
-322.085	347.925	-0.020	0.039
-321.070	800.000	0.050	-0.158
-320.056	-200.000	0.002	0.243
-319.041	-142.995	0.260	0.025
-318.026	136.857	-0.251	0.324
-317.012	8.371	0.408	0.302
-315.997	-14.768	-0.079	-0.050
-314.983	-55.902	-0.353	-0.155
-313.968	-200.000	-0.020	0.206
-312.953	535.206	-0.068	0.159
-311.939	117.620	-0.056	0.068
-310.924	132.615	-0.153	0.195
-309.910	433.748	0.140	-0.300
-308.895	-97.869	-0.123	0.031
-307.880	-164.926	0.323	-0.014
-306.866	-151.050	-0.128	-0.009
-305.851	-200.000	0.037	0.206
-304.837	219.872	0.144	0.227
-303.822	-200.000	-0.067	0.293
-302.807	-200.000	-0.042	-0.198
-301.793	220.456	-0.129	-0.204
-300.778	521.770	0.062	-0.144
-299.764	-51.431	0.147	-0.067
-298.749	356.196	-0.098	-0.191
-297.735	-200.000	0.012	0.138
-296.720	-56.534	0.465	0.203
-295.705	599.569	-0.130	0.317
-294.691	-18.453	0.206	0.126
-293.676	-200.000	-0.067	0.380
-292.662	89.490	0.095	0.105
-291.647	-200.000	0.029	-0.284
-290.632	147.747	-0.180	0.239
-289.618	800.000	-0.076	0.244
-288.603	-29.912	0.259	0.145
-287.589	570.555	-0.098	0.235
-286.574	-64.881	0.196	0.078
-285.559	193.836	-0.238	-0.354
-284.545	142.589	0.173	-0.226
-283.530	-44.962	0.183	-0.090
-282.516	158.775	0.191	-0.261
-281.501	-72.043	-0.157	-0.057
-280.486	-99.516	-0.216	-0.054
-279.472	-199.695	0.236	-0.001
-278.457	346.176	-0.045	-0.087
-277.443	32.322	-0.133	-0.113
-276.428	153.224	0.178	0.240
-275.413	800.000	0.061	-0.177
-274.399	58.635	-0.076	-0.073
-273.384	326.489	0.154	-0.290
-272.370	-115.679	0.147	-0.027
-271.355	-45.258	-0.125	0.061
-270.340	-62.021	-0.041	-0.017
-269.326	-95.717	0.358	0.094
-268.311	464.528	0.063	0.138
-267.297	-40.123	0.207	0.106
-266.282	132.247	0.202	-0.256
-265.267	80.302	-0.110	0.117
-264.253	-154.673	-0.243	0.016
-263.238	-7.455	0.117	0.078
-262.224	-200.000	-0.004	0.289
-261.209	-9.067	-0.043	0.028
-260.195	-94.936	-0.103	-0.027
-259.180	-141.611	-0.437	-0.043
-258.165	-200.000	-0.069	-0.307
-257.151	-106.666	-0.035	-0.008
-256.136	-200.000	0.038	-0.339
-255.122	-200.000	0.000	-0.053
-254.107	81.672	-0.215	0.228
-253.092	-106.029	-0.260	-0.057
-252.078	800.000	-0.066	0.231
-251.063	-62.997	0.224	-0.091
-250.049	36.648	0.052	0.045
-249.034	564.009	-0.053	0.127
-248.019	-200.000	0.024	0.433
-247.005	-200.000	0.031	0.280
-245.990	195.867	0.251	-0.376
-244.976	800.000	0.088	-0.264
-243.961	307.887	-0.110	0.202
-242.946	20.586	0.170	-0.135
-241.932	45.748	-0.175	-0.159
-240.917	-13.550	-0.230	-0.147
-239.903	179.864	-0.229	-0.329
-238.888	61.293	-0.055	-0.053
-237.873	-200.000	-0.005	0.105
-236.859	127.889	0.031	0.039
-235.844	24.325	0.324	-0.263
-234.830	-200.000	-0.073	0.345
-233.815	800.000	-0.061	0.188
-232.800	250.627	-0.257	0.429
-231.786	-180.236	-0.079	-0.002
-230.771	-200.000	-0.032	-0.138
-229.757	-65.859	0.111	0.044
-228.742	-200.000	-0.158	0.001
-227.727	17.747	0.075	-0.058
-226.713	-200.000	0.009	-0.283
-225.698	-17.751	-0.138	-0.085
-224.684	800.000	0.121	0.349
-223.669	-20.890	-0.091	0.055
-222.655	-20.029	-0.182	0.110
-221.640	225.263	0.177	0.281
-220.625	-200.000	-0.114	0.526
-219.611	13.368	0.175	0.133
-218.596	-35.986	-0.212	0.112
-217.582	178.299	-0.125	0.180
-216.567	-104.700	0.261	0.059
-215.552	-156.545	-0.277	-0.017
-214.538	-200.000	0.016	0.101
-213.523	203.734	-0.066	-0.100
-212.509	-200.000	-0.012	0.105
-211.494	-179.504	-0.180	0.004
-210.479	109.657	0.260	0.306
-209.465	-29.334	-0.092	-0.052
-208.450	-43.273	0.201	-0.100
-207.436	345.045	0.107	0.207
-206.421	-200.000	0.020	-0.127
-205.406	-200.000	0.004	-0.060
-204.392	749.234	-0.059	-0.155
-203.377	39.620	-0.185	0.163
-202.363	280.248	0.179	0.313
-201.348	120.128	-0.222	0.270
-200.333	292.153	-0.097	-0.173
-199.319	272.580	-0.112	0.193
-198.304	-162.393	0.174	0.008
-197.290	800.000	0.062	-0.243
-196.275	236.614	-0.104	-0.169
-195.260	46.601	-0.136	0.124
-194.246	554.170	-0.107	-0.252
-193.231	16.551	0.271	0.210
-192.217	-37.764	0.082	0.043
-191.202	800.000	-0.087	-0.364
-190.187	800.000	0.083	-0.267
-189.173	85.602	0.233	0.250
-188.158	-200.000	-0.023	0.143
-187.144	-194.209	-0.185	0.001
-186.129	-12.496	-0.128	0.082
-185.114	194.995	0.251	-0.374
-184.100	3.056	-0.055	-0.039
-183.085	31.715	-0.162	0.137
-182.071	-128.440	0.276	0.038
-181.056	800.000	0.033	0.102
-180.042	46.209	0.249	-0.226
-179.027	-120.082	0.274	0.046
-178.012	-54.045	-0.141	0.063
-176.998	-49.266	-0.296	-0.139
-175.983	-200.000	0.001	-0.239
-174.969	-200.000	-0.001	0.121
-173.954	-87.427	0.427	0.127
-172.939	-14.555	-0.192	-0.121
-171.925	11.102	-0.230	0.172
-170.910	504.492	0.097	-0.219
-169.896	-55.802	0.080	0.035
-168.881	397.404	-0.110	0.225
-167.866	83.206	-0.086	-0.091
-166.852	-200.000	0.015	-0.316
-165.837	-95.090	-0.114	0.030
-164.823	307.337	0.103	-0.188
-163.808	136.099	-0.108	0.137
-162.793	800.000	0.083	0.292
-161.779	80.977	-0.223	-0.236
-160.764	-6.236	0.093	-0.062
-159.750	-72.552	0.070	0.025
-158.735	-41.248	-0.116	0.059
-157.720	88.259	0.080	-0.087
-156.706	4.449	-0.182	0.130
-155.691	-200.000	-0.060	0.277
-154.677	-18.580	-0.082	0.050
-153.662	-187.771	-0.254	0.003
-152.647	284.897	0.136	0.239
-151.633	-129.916	-0.132	0.018
-150.618	160.233	0.077	0.105
-149.604	-112.484	0.341	-0.067
-148.589	-200.000	0.101	0.455
-147.574	719.621	0.037	0.097
-146.560	277.983	-0.203	0.353
-145.545	-53.957	-0.103	-0.046
-144.531	104.151	0.119	-0.137
-143.516	516.578	0.056	0.128
-142.502	7.174	-0.222	0.162
-141.487	800.000	-0.057	-0.206
-140.472	-52.983	0.247	0.111
-139.458	-113.056	0.360	0.070
-138.443	-173.173	-0.188	0.006
-137.429	-59.608	0.156	0.065
-136.414	667.980	-0.087	0.219
-135.399	294.268	-0.097	0.174
-134.385	170.719	-0.092	-0.129
-133.370	-151.566	-0.242	-0.017
-132.356	-200.000	-0.071	-0.402
-131.341	-200.000	-0.051	-0.328
-130.326	-82.005	0.183	-0.059
-129.312	-16.668	-0.430	0.266
-128.297	-89.856	0.217	0.062
-127.283	800.000	-0.040	0.112
-126.268	123.448	0.181	0.222
-125.253	101.342	-0.147	-0.167
-124.239	800.000	-0.054	0.205
-123.224	-200.000	-0.186	0.000
-122.210	7.975	0.224	0.164
-121.195	-200.000	-0.002	0.090
