DTS Sentinel unit serial number:	SN413079Multiplexer serial number:	ORYXHardware model number:	OX4-SRSoftware version number:	ORYX F/W v4.00 Oryx Data Collector v3.7.2.0data status	okinstallation	princeton_trtdifferential loss correction	single-endedforward channel	channel 3reverse channel	N/Adate	2019/09/16time	20:24:35forward acquisition time	60.00reverse acquisition time	0.00gamma	496.2192k internal	0.2323k external	0.2323temperature offset calibration	0.9936default loss term (dB/km)	0.3790temperature slope calibration	1.0000multiplexer offset coefficient	1.0000multiplexer slope coefficient	1.0000fibre end	0.00T internal ref (°C)	32.75T ext. ref 1 (°C)	0.05T ext. ref 2 (°C)	26.67length (m)	temperature (°C)	Stokes	anti-Stokes-747.200	-200.000	-0.005	0.407
-746.185	-200.000	0.004	0.150
-745.171	174.523	-0.229	-0.335
-744.156	-123.844	-0.035	0.006
-743.142	800.000	0.091	0.309
-742.127	-71.265	0.202	0.076
-741.112	-83.776	0.216	0.070
-740.098	-109.913	-0.101	-0.021
-739.083	121.490	0.195	0.246
-738.069	-80.858	-0.235	0.079
-737.054	-97.962	0.362	0.094
-736.039	86.843	-0.136	-0.151
-735.025	259.216	0.229	0.399
-734.010	51.318	0.049	-0.047
-732.996	565.871	-0.013	-0.031
-731.981	190.135	-0.091	0.138
-730.966	800.000	-0.050	0.167
-729.952	-200.000	-0.000	0.103
-728.937	5.252	-0.097	-0.072
-727.923	-170.007	-0.362	0.013
-726.908	556.518	0.060	-0.145
-725.894	-200.000	0.037	-0.419
-724.879	-200.000	0.008	0.165
-723.864	-19.386	-0.171	0.107
-722.850	44.962	-0.074	0.069
-721.835	-51.944	0.102	0.048
-720.821	87.098	-0.108	-0.120
-719.806	30.043	0.257	-0.221
-718.791	-200.000	-0.008	-0.180
-717.777	252.275	-0.141	-0.242
-716.762	-19.687	0.071	0.044
-715.748	-38.584	-0.232	-0.124
-714.733	83.456	-0.253	-0.278
-713.718	-200.000	0.031	0.313
-712.704	375.541	0.129	-0.265
-711.689	800.000	0.121	-0.366
-710.675	36.099	0.087	0.077
-709.660	2.510	0.161	-0.118
-708.645	-66.379	0.310	0.124
-707.631	-200.000	-0.014	0.148
-706.616	-77.374	0.147	0.051
-705.602	-73.263	0.136	0.050
-704.587	-101.676	0.602	0.147
-703.572	-169.983	-0.082	0.003
-702.558	340.136	-0.156	0.307
-701.543	23.359	-0.319	0.264
-700.529	-169.572	-0.404	-0.015
-699.514	800.000	-0.077	0.233
-698.499	345.831	0.075	0.149
-697.485	800.000	0.085	-0.334
-696.470	463.440	-0.051	0.115
-695.456	388.925	-0.154	-0.321
-694.441	112.893	-0.252	-0.308
-693.426	-200.000	-0.007	0.116
-692.412	317.051	0.043	-0.082
-691.397	129.991	-0.181	0.233
-690.383	-127.495	0.332	-0.049
-689.368	-95.236	0.331	-0.090
-688.354	-95.571	0.144	0.039
-687.339	-169.692	-0.227	0.008
-686.324	138.167	-0.077	-0.102
-685.310	-200.000	-0.012	-0.151
-684.295	-113.201	-0.303	-0.060
-683.281	-200.000	-0.040	-0.445
-682.266	-88.594	-0.312	0.094
-681.251	-47.297	-0.077	-0.038
-680.237	-200.000	-0.009	-0.251
-679.222	8.177	0.420	-0.318
-678.208	101.640	0.225	-0.265
-677.193	-108.662	0.265	0.057
-676.178	154.128	-0.029	-0.040
-675.164	800.000	0.147	0.434
-674.149	327.115	0.099	0.192
-673.135	-200.000	0.044	-0.341
-672.120	73.308	-0.148	-0.156
-671.105	-200.000	-0.004	-0.393
-670.091	477.086	-0.144	-0.328
-669.076	36.199	0.168	0.149
-668.062	-63.089	-0.085	0.035
-667.047	203.744	-0.187	-0.291
-666.032	800.000	0.091	-0.299
-665.018	198.903	-0.041	-0.062
-664.003	-97.179	0.053	-0.014
-662.989	-25.268	-0.018	-0.011
-661.974	208.126	-0.267	-0.420
-660.959	249.063	-0.118	-0.201
-659.945	800.000	-0.119	0.396
-658.930	42.676	-0.235	0.216
-657.916	-200.000	-0.069	0.351
-656.901	-76.499	0.155	-0.055
-655.886	800.000	-0.097	-0.304
-654.872	15.696	0.111	0.088
-653.857	-200.000	-0.043	0.332
-652.843	-37.957	-0.276	-0.148
-651.828	200.206	0.131	-0.202
-650.814	-200.000	-0.003	0.180
-649.799	-200.000	0.018	0.192
-648.784	-2.521	0.209	-0.147
-647.770	-59.402	0.350	-0.151
-646.755	183.491	-0.186	-0.277
-645.741	-151.482	0.198	-0.015
-644.726	-200.000	-0.042	0.513
-643.711	8.997	0.227	-0.172
-642.697	66.293	-0.147	0.151
-641.682	355.733	0.028	-0.057
-640.668	800.000	0.099	-0.395
-639.653	-200.000	-0.027	0.273
-638.638	149.653	-0.078	0.107
-637.624	21.487	0.110	0.090
-636.609	-17.478	0.342	0.216
-635.595	-96.150	-0.177	-0.047
-634.580	-48.337	-0.231	0.112
-633.565	292.396	-0.040	0.074
-632.551	-16.985	0.113	0.072
-631.536	-200.000	-0.002	0.137
-630.522	19.981	0.063	0.051
-629.507	-182.697	-0.243	-0.004
-628.492	87.310	0.128	0.143
-627.478	-98.846	-0.192	-0.049
-626.463	-4.853	0.373	-0.259
-625.449	800.000	-0.104	0.317
-624.434	-96.249	0.266	0.071
-623.419	-163.037	0.193	0.009
-622.405	230.683	0.121	0.199
-621.390	-48.835	-0.266	0.128
-620.376	88.701	0.157	-0.175
-619.361	-200.000	0.066	0.389
-618.346	-200.000	0.039	0.202
-617.332	-28.382	-0.299	-0.174
-616.317	-55.600	0.394	-0.177
-615.303	-200.000	0.053	0.329
-614.288	-104.619	-0.209	0.048
-613.273	-38.124	0.070	-0.037
-612.259	31.696	-0.125	0.108
-611.244	-200.000	-0.030	0.184
-610.230	294.239	-0.071	-0.130
-609.215	-200.000	0.028	-0.308
-608.201	-176.579	-0.171	0.004
-607.186	800.000	-0.057	0.222
-606.171	800.000	-0.061	0.186
-605.157	-78.720	-0.146	-0.050
-604.142	-87.644	0.285	0.087
-603.128	-200.000	-0.008	-0.062
-602.113	-110.521	-0.087	0.018
-601.098	107.035	0.194	-0.232
-600.084	800.000	0.019	0.057
-599.069	-200.000	0.003	-0.144
-598.055	125.651	0.127	-0.161
-597.040	122.850	0.021	-0.027
-596.025	-152.193	-0.163	0.012
-595.011	168.090	-0.104	0.149
-593.996	19.514	0.346	0.279
-592.982	479.518	0.106	-0.242
-591.967	-66.843	0.254	0.101
-590.952	65.199	0.091	-0.092
-589.938	800.000	0.108	-0.351
-588.923	-43.042	0.237	-0.121
-587.909	-28.529	-0.197	0.114
-586.894	-200.000	-0.058	0.436
-585.879	-82.661	-0.206	-0.067
-584.865	181.612	-0.273	0.403
-583.850	-95.262	-0.139	0.038
-582.836	78.005	-0.073	0.079
-581.821	-200.000	0.015	-0.111
-580.806	-45.943	-0.061	0.030
-579.792	141.652	0.209	-0.278
-578.777	800.000	0.049	0.186
-577.763	800.000	-0.063	-0.187
-576.748	-200.000	-0.036	-0.208
-575.733	96.197	0.033	0.038
-574.719	-55.758	0.174	-0.078
-573.704	800.000	-0.026	0.115
-572.690	-63.571	-0.160	0.066
-571.675	-98.777	0.210	0.054
-570.661	800.000	-0.048	0.137
-569.646	117.627	-0.126	0.156
-568.631	29.242	-0.239	0.204
-567.617	-109.574	-0.220	-0.046
-566.602	-64.458	0.408	0.166
-565.588	-194.880	-0.195	-0.002
-564.573	2.716	0.284	-0.206
-563.558	-200.000	-0.006	-0.187
-562.544	-173.035	0.215	-0.007
-561.529	3.213	-0.022	0.016
-560.515	35.927	-0.158	-0.139
-559.500	178.481	0.232	-0.339
-558.485	-111.846	0.144	0.029
-557.471	-200.000	0.001	0.290
-556.456	-200.000	-0.061	-0.276
-555.442	230.507	0.166	0.272
-554.427	119.636	0.174	-0.216
-553.412	178.553	0.005	-0.007
-552.398	-16.982	0.402	0.254
-551.383	-173.665	-0.179	-0.005
-550.369	-200.000	0.021	-0.363
-549.354	-29.264	0.243	0.139
-548.339	-43.974	-0.221	-0.111
-547.325	0.871	-0.144	-0.103
-546.310	-200.000	0.045	-0.352
-545.296	-39.846	0.208	0.109
-544.281	166.095	-0.048	0.068
-543.266	-200.000	0.028	-0.236
-542.252	319.538	-0.095	-0.181
-541.237	191.789	0.154	0.233
-540.223	-57.623	-0.165	0.072
-539.208	800.000	-0.071	-0.196
-538.193	257.767	-0.245	0.423
-537.179	-7.937	-0.269	0.182
-536.164	-58.789	0.323	0.140
-535.150	800.000	-0.097	-0.369
-534.135	800.000	-0.055	-0.171
-533.121	394.124	-0.212	0.442
-532.106	-200.000	0.032	0.171
-531.091	-200.000	0.025	-0.386
-530.077	800.000	-0.094	-0.302
-529.062	800.000	-0.017	0.064
-528.048	177.416	-0.043	-0.063
-527.033	50.582	0.214	-0.203
-526.018	35.139	-0.401	0.352
-525.004	-44.829	0.458	0.229
-523.989	-1.717	-0.221	-0.156
-522.975	247.693	-0.050	-0.085
-521.960	20.970	-0.203	-0.165
-520.945	-200.000	0.182	0.000
-519.931	689.640	0.087	-0.228
-518.916	-7.474	-0.077	0.052
-517.902	487.266	-0.129	-0.295
-516.887	-200.000	-0.052	-0.262
-515.872	472.098	0.108	-0.244
-514.858	-119.431	0.066	0.011
-513.843	-200.000	0.015	-0.140
-512.829	748.753	-0.032	-0.085
-511.814	-200.000	-0.007	-0.170
-510.799	-112.620	-0.047	0.009
-509.785	-9.679	0.044	-0.029
-508.770	-102.083	0.246	-0.059
-507.756	-72.269	0.172	0.064
-506.741	187.794	-0.102	-0.153
-505.726	-45.240	-0.186	-0.093
-504.712	484.088	-0.131	0.297
-503.697	351.825	-0.101	0.201
-502.683	-106.580	0.088	0.020
-501.668	-167.721	0.109	0.004
-500.653	-16.113	-0.344	0.219
-499.639	-200.000	-0.000	-0.160
-498.624	-96.869	-0.309	0.081
-497.610	88.698	0.295	-0.328
-496.595	-200.000	0.012	0.161
-495.581	121.590	-0.232	0.289
-494.566	-162.584	-0.452	-0.022
-493.551	-31.105	0.208	0.117
-492.537	-88.865	0.222	-0.066
-491.522	-200.000	-0.017	0.087
-490.508	-12.120	-0.140	0.092
-489.493	248.768	0.149	-0.252
-488.478	195.987	0.125	0.190
-487.464	800.000	-0.071	-0.197
-486.449	-120.237	0.032	-0.006
-485.435	15.106	0.124	-0.097
-484.420	-178.874	-0.341	-0.008
-483.405	800.000	-0.029	-0.111
-482.391	-200.000	0.008	-0.058
-481.376	-19.721	-0.223	0.138
-480.362	33.470	-0.232	-0.201
-479.347	-111.419	-0.161	-0.033
-478.332	-111.710	0.141	0.029
-477.318	35.173	0.118	-0.103
-476.303	-18.596	0.349	0.218
-475.289	-51.946	-0.201	-0.093
-474.274	800.000	0.034	-0.137
-473.259	56.385	-0.281	0.273
-472.245	-200.000	-0.375	0.001
-471.230	-170.745	0.151	0.005
-470.216	-84.033	0.208	0.066
-469.201	-90.095	-0.179	0.052
-468.186	-200.000	0.061	0.438
-467.172	-200.000	0.012	0.199
-466.157	-168.629	-0.083	-0.003
-465.143	14.934	-0.152	0.119
-464.128	-54.448	-0.035	0.016
-463.113	-56.256	0.149	-0.066
-462.099	14.244	0.214	-0.167
-461.084	800.000	0.080	0.235
-460.070	99.175	0.060	-0.069
-459.055	-99.790	-0.133	-0.033
-458.040	274.821	-0.086	-0.151
-457.026	-200.000	0.039	-0.305
-456.011	-46.136	-0.043	-0.021
-454.997	74.024	0.200	0.209
-453.982	-197.277	-0.324	0.002
-452.968	-14.399	-0.264	-0.170
-451.953	-200.000	-0.027	0.162
-450.938	-45.725	0.063	0.031
-449.924	173.197	-0.202	-0.290
-448.909	157.994	0.023	-0.032
-447.895	187.292	-0.066	0.098
-446.880	-144.212	-0.356	-0.033
-445.865	-110.838	-0.114	-0.023
-444.851	189.053	-0.134	-0.201
-443.836	-80.665	0.252	-0.084
-442.822	-107.527	0.083	0.018
-441.807	180.848	0.033	-0.049
-440.792	138.532	-0.044	0.058
-439.778	29.492	-0.157	0.133
-438.763	-200.000	0.030	-0.305
-437.749	451.961	0.039	0.086
-436.734	-146.718	-0.404	0.035
-435.719	120.420	0.235	0.291
-434.705	279.830	0.124	-0.222
-433.690	-0.111	0.077	0.055
-432.676	267.925	-0.050	0.087
-431.661	145.649	0.155	0.207
-430.646	-200.000	-0.048	-0.314
-429.632	-63.530	0.128	0.053
-428.617	-200.000	0.049	0.272
-427.603	51.832	-0.100	-0.095
-426.588	484.587	0.115	0.261
-425.573	-118.273	-0.162	0.029
-424.559	-200.000	0.013	0.070
-423.544	-200.000	-0.151	-0.000
-422.530	263.610	0.052	-0.089
-421.515	-94.865	-0.104	-0.028
-420.500	800.000	0.052	0.213
-419.486	670.028	0.090	-0.231
-418.471	-8.254	-0.052	0.035
-417.457	-27.202	-0.071	0.041
-416.442	-12.371	-0.020	-0.013
-415.428	800.000	-0.006	-0.027
-414.413	-148.048	-0.307	0.025
-413.398	-51.755	-0.108	-0.050
-412.384	188.978	-0.068	0.101
-411.369	800.000	0.085	0.261
-410.355	196.704	-0.206	0.312
-409.340	-86.165	-0.045	0.014
-408.325	-200.000	0.035	0.321
-407.311	48.192	0.076	-0.071
-406.296	-47.282	0.180	0.087
-405.282	443.222	-0.084	0.183
-404.267	-200.000	0.001	0.035
-403.252	24.036	-0.026	-0.021
-402.238	194.543	0.037	-0.055
-401.223	-200.000	0.009	0.067
-400.209	193.456	0.110	0.166
-399.194	-109.706	-0.468	0.098
-398.179	-49.804	-0.347	-0.164
-397.165	-200.000	-0.036	-0.272
-396.150	-185.764	-0.220	0.003
-395.136	800.000	0.044	0.139
-394.121	134.700	0.091	-0.118
-393.106	574.679	-0.081	-0.197
-392.092	-200.000	-0.030	0.193
-391.077	-0.932	-0.049	0.035
-390.063	259.089	0.198	-0.340
-389.048	181.887	-0.129	0.189
-388.033	800.000	-0.061	-0.237
-387.019	645.942	-0.126	-0.320
-386.004	-64.823	0.571	-0.230
-384.990	278.984	-0.061	0.108
-383.975	-200.000	0.005	-0.077
-382.960	-200.000	-0.044	-0.236
-381.946	679.414	0.063	-0.164
-380.931	16.369	-0.162	0.128
-379.917	-200.000	-0.012	-0.125
-378.902	34.760	-0.217	0.189
-377.888	39.949	0.130	-0.116
-376.873	-101.573	-0.298	0.072
-375.858	-77.156	-0.271	-0.094
-374.844	800.000	-0.039	-0.147
-373.829	267.261	-0.136	0.236
-372.815	306.399	0.071	-0.132
-371.800	-130.299	0.213	-0.029
-370.785	41.562	-0.078	-0.070
-369.771	227.994	0.012	0.019
-368.756	-123.393	-0.198	-0.031
-367.742	513.244	-0.092	-0.214
-366.727	-161.484	0.217	0.011
-365.712	556.420	-0.010	0.025
-364.698	-83.201	-0.087	0.028
-363.683	78.430	-0.248	-0.264
-362.669	31.078	-0.173	0.148
-361.654	91.524	0.167	-0.187
-360.639	40.528	0.192	-0.173
-359.625	213.236	0.120	-0.188
-358.610	-200.000	-0.005	0.085
-357.596	119.009	0.070	0.086
-356.581	71.754	-0.109	-0.113
-355.566	800.000	-0.009	0.031
-354.552	-57.545	-0.197	0.086
-353.537	800.000	-0.040	0.118
-352.523	-118.989	-0.199	0.035
-351.508	-28.206	0.205	-0.118
-350.493	458.748	0.074	0.164
-349.479	-143.931	-0.301	0.028
-348.464	-93.415	0.372	0.102
-347.450	-200.000	0.011	-0.117
-346.435	-131.383	0.226	-0.030
-345.420	-173.255	0.122	-0.004
-344.406	-200.000	-0.011	-0.069
-343.391	-77.504	0.252	0.087
-342.377	71.781	-0.093	-0.096
-341.362	246.399	0.114	-0.192
-340.348	-200.000	0.032	-0.201
-339.333	173.939	0.184	-0.264
-338.318	800.000	0.092	-0.264
-337.304	-134.313	0.413	-0.050
-336.289	800.000	0.094	0.320
-335.275	58.428	0.154	-0.151
-334.260	308.178	-0.126	0.234
-333.245	-139.268	0.305	0.033
-332.231	-54.752	0.284	0.127
-331.216	-200.000	-0.030	-0.306
-330.202	800.000	-0.083	-0.265
-329.187	329.011	0.103	0.196
-328.172	166.264	0.145	-0.205
-327.158	-100.582	0.389	0.096
-326.143	-200.000	-0.019	-0.333
-325.129	240.405	0.259	-0.430
-324.114	-180.941	-0.238	-0.005
-323.099	800.000	-0.052	0.187
-322.085	-149.256	-0.269	0.021
-321.070	-60.270	0.167	-0.071
-320.056	-108.411	0.213	-0.046
-319.041	132.202	-0.086	0.111
-318.026	679.131	0.103	0.268
-317.012	63.484	0.157	0.156
-315.997	-102.505	-0.335	-0.080
-314.983	-39.314	0.141	0.074
-313.968	-122.111	0.163	0.027
-312.953	169.860	-0.043	-0.060
-311.939	-58.974	0.169	0.073
-310.924	197.299	-0.211	-0.320
-309.910	45.434	-0.101	-0.093
-308.895	-102.594	0.552	0.131
-307.880	-14.965	0.184	-0.117
-306.866	-200.000	-0.012	0.159
-305.851	95.826	0.086	-0.097
-304.837	297.674	-0.120	0.219
-303.822	-200.000	0.020	0.193
-302.807	-200.000	-0.007	0.166
-301.793	46.258	0.003	-0.003
-300.778	-200.000	0.039	0.174
-299.764	123.428	-0.240	0.299
-298.749	352.118	0.060	-0.119
-297.735	-110.583	0.152	-0.031
-296.720	-91.514	-0.045	0.013
-295.705	-200.000	0.033	0.221
-294.691	-36.982	-0.229	-0.122
-293.676	-68.764	0.413	-0.158
-292.662	-200.000	0.008	0.220
-291.647	800.000	-0.077	-0.221
-290.632	-78.057	-0.132	-0.045
-289.618	-200.000	-0.014	-0.196
-288.603	800.000	0.060	-0.182
-287.589	-20.882	-0.043	0.026
-286.574	-200.000	-0.066	0.438
-285.559	463.405	0.117	-0.259
-284.545	63.970	-0.244	0.244
-283.530	-200.000	-0.009	-0.123
-282.516	53.515	-0.087	-0.083
-281.501	136.116	0.160	-0.206
-280.486	1.224	0.058	-0.041
-279.472	-115.701	-0.026	-0.005
-278.457	-59.488	-0.115	-0.049
-277.443	300.916	0.064	0.117
-276.428	230.055	-0.053	0.086
-275.413	-62.790	-0.160	0.066
-274.399	286.625	0.107	-0.192
-273.384	-200.000	0.001	-0.289
-272.370	-200.000	0.024	0.254
-271.355	-93.339	0.257	0.071
-270.340	-200.000	0.038	0.389
-269.326	244.937	-0.112	0.186
-268.311	-200.000	-0.028	-0.404
-267.297	-200.000	0.068	-0.387
-266.282	528.825	-0.060	-0.140
-265.267	-67.148	-0.145	0.057
-264.253	63.983	-0.144	0.143
-263.238	-108.042	-0.191	0.041
-262.224	34.680	-0.187	0.162
-261.209	-200.000	0.038	-0.183
-260.195	800.000	-0.128	0.361
-259.180	7.947	0.137	0.102
-258.165	-26.594	-0.270	0.156
-257.151	-8.343	0.124	-0.083
-256.136	110.845	0.121	0.144
-255.122	96.734	-0.135	0.153
-254.107	-110.943	-0.461	-0.094
-253.092	-14.489	0.219	-0.139
-252.078	-161.960	-0.480	0.024
-251.063	59.762	0.301	0.294
-250.049	-76.015	-0.605	0.212
-249.034	12.299	0.231	0.176
-248.019	800.000	0.048	-0.147
-247.005	90.927	0.075	-0.084
-245.990	-104.342	0.479	0.110
-244.976	43.891	-0.415	0.376
-243.961	-200.000	0.019	0.192
-242.946	59.637	0.152	-0.149
-241.932	267.324	0.140	-0.242
-240.917	-84.354	-0.122	-0.038
-239.903	167.446	-0.129	-0.182
-238.888	151.712	-0.188	-0.253
-237.873	-97.099	0.061	0.016
-236.859	-151.526	-0.085	-0.006
-235.844	800.000	-0.012	0.045
-234.830	-41.893	-0.210	-0.107
-233.815	206.628	0.087	0.133
-232.800	19.386	-0.224	0.178
-231.786	288.264	0.111	-0.199
-230.771	-126.408	0.270	-0.040
-229.757	112.079	0.335	-0.401
-228.742	-156.689	-0.101	0.006
-227.727	30.568	-0.209	0.177
-226.713	72.621	0.105	0.108
-225.698	44.740	-0.252	-0.230
-224.684	-150.237	0.155	-0.012
-223.669	-94.535	0.053	0.014
-222.655	-58.064	0.110	0.047
-221.640	692.386	-0.124	0.322
-220.625	434.439	0.061	-0.130
-219.611	445.689	0.061	-0.132
-218.596	757.432	-0.039	-0.104
-217.582	373.171	0.248	0.499
-216.567	-200.000	0.022	0.393
-215.552	-43.311	-0.073	-0.037
-214.538	268.312	-0.144	0.250
-213.523	32.663	-0.306	0.262
-212.509	-149.467	-0.259	0.020
-211.494	-200.000	0.025	0.226
-210.479	72.348	0.120	0.124
-209.465	399.757	0.054	0.112
-208.450	703.821	0.045	0.117
-207.436	564.958	-0.003	-0.007
-206.421	514.523	0.108	0.250
-205.406	-163.170	-0.305	-0.015
-204.392	-31.290	0.224	0.125
-203.377	448.243	-0.050	0.110
-202.363	164.846	0.159	-0.222
-201.348	800.000	0.093	-0.338
-200.333	167.563	0.052	0.072
-199.319	207.071	0.241	-0.371
-198.304	-13.410	-0.279	-0.179
-197.290	660.417	0.166	0.423
-196.275	-18.957	-0.128	-0.079
-195.260	-200.000	0.020	0.096
-194.246	-200.000	0.027	0.293
-193.231	235.759	-0.212	-0.346
-192.217	468.010	0.085	-0.188
-191.202	24.771	-0.238	0.195
-190.187	-200.000	0.012	-0.105
-189.173	54.124	0.191	0.182
-188.158	497.208	-0.051	0.116
-187.144	-200.000	-0.037	-0.276
-186.129	800.000	-0.098	-0.367
-185.114	372.775	0.192	0.385
-184.100	337.392	0.188	-0.361
-183.085	96.643	0.141	-0.160
-182.071	-110.754	0.361	0.074
-181.056	-200.000	0.047	0.370
-180.042	-200.000	0.178	-0.000
-179.027	-200.000	-0.012	0.113
-178.012	60.138	-0.063	-0.062
-176.998	40.568	-0.125	-0.111
-175.983	301.499	0.143	0.261
-174.969	35.762	0.108	-0.094
-173.954	68.004	0.130	-0.132
-172.939	800.000	0.048	0.194
-171.925	-200.000	-0.024	0.255
-170.910	267.903	0.031	0.054
-169.896	-68.156	0.245	-0.094
-168.881	328.470	0.161	-0.306
-167.866	-99.910	-0.230	-0.057
-166.852	-200.000	-0.000	-0.266
-165.837	-112.427	-0.170	0.034
-164.823	-196.407	0.261	-0.002
-163.808	800.000	-0.088	-0.282
-162.793	-200.000	0.001	0.102
-161.779	-185.130	-0.460	0.007
-160.764	454.344	0.079	0.173
-159.750	319.457	-0.142	-0.266
-158.735	-118.657	0.335	-0.058
-157.720	274.859	0.089	0.156
-156.706	-200.000	-0.009	-0.152
-155.691	171.262	0.141	-0.200
-154.677	-154.696	-0.306	0.020
-153.662	-200.000	0.006	0.121
-152.647	-200.000	-0.028	-0.162
-151.633	348.838	-0.087	-0.170
-150.618	21.628	0.202	-0.162
-149.604	25.050	-0.151	-0.123
-148.589	-169.195	-0.454	-0.017
-147.574	800.000	0.031	0.124
-146.560	-116.733	-0.145	-0.026
-145.545	567.948	-0.047	0.113
-144.531	-65.438	0.401	-0.159
-143.516	126.328	0.136	-0.170
-142.502	673.657	-0.150	0.383
-141.487	70.887	0.102	0.104
-140.472	393.225	-0.094	-0.192
-139.458	92.463	0.047	0.053
-138.443	800.000	0.063	-0.239
-137.429	800.000	0.072	0.217
-136.414	612.847	0.167	0.412
-135.399	-36.048	-0.109	0.058
-134.385	800.000	-0.022	-0.083
-133.370	473.896	0.050	0.112
-132.356	96.880	0.102	0.115
-131.341	-47.611	0.155	-0.074
-130.326	-167.438	0.153	-0.006
-129.312	-200.000	0.014	0.406
-128.297	214.491	0.146	0.228
-127.283	32.593	-0.140	-0.119
-126.268	-66.537	0.376	-0.147
-125.253	-46.591	0.130	0.063
-124.239	-6.577	-0.268	0.180
-123.224	-200.000	-0.016	-0.225
-122.210	16.028	0.387	-0.301
-121.195	-200.000	0.024	-0.309
