DTS Sentinel unit serial number:	SN413079Multiplexer serial number:	ORYXHardware model number:	OX4-SRSoftware version number:	ORYX F/W v4.00 Oryx Data Collector v3.7.2.0data status	okinstallation	princeton_trtdifferential loss correction	single-endedforward channel	channel 3reverse channel	N/Adate	2019/09/15time	03:36:35forward acquisition time	60.00reverse acquisition time	0.00gamma	496.2192k internal	0.2323k external	0.2323temperature offset calibration	0.9967default loss term (dB/km)	0.3790temperature slope calibration	1.0000multiplexer offset coefficient	1.0000multiplexer slope coefficient	1.0000fibre end	0.00T internal ref (°C)	31.00T ext. ref 1 (°C)	4.61T ext. ref 2 (°C)	25.82length (m)	temperature (°C)	Stokes	anti-Stokes-747.200	144.465	-0.219	0.295
-746.185	-200.000	0.028	0.320
-745.171	-54.361	0.138	0.063
-744.156	-98.054	-0.071	0.018
-743.142	-91.709	-0.314	0.090
-742.127	745.980	-0.031	-0.084
-741.112	49.840	0.205	0.195
-740.098	-170.931	-0.218	-0.008
-739.083	94.880	0.128	-0.148
-738.069	88.043	-0.084	-0.094
-737.054	-123.483	0.070	-0.011
-736.039	-107.929	0.150	-0.033
-735.025	800.000	-0.036	0.131
-734.010	57.382	-0.093	0.092
-732.996	352.502	0.148	-0.296
-731.981	80.260	0.219	-0.238
-730.966	-59.739	-0.450	0.195
-729.952	135.339	0.049	0.064
-728.937	-91.774	-0.219	0.063
-727.923	124.574	0.056	-0.071
-726.908	-166.238	-0.200	0.009
-725.894	800.000	-0.043	0.141
-724.879	-22.568	-0.391	0.239
-723.864	-200.000	0.024	0.174
-722.850	40.657	0.184	0.168
-721.835	53.262	-0.329	0.318
-720.821	800.000	0.050	-0.153
-719.806	-124.948	0.194	0.030
-718.791	-13.535	-0.168	0.110
-717.777	228.911	0.094	0.155
-716.762	47.036	-0.376	-0.353
-715.748	25.401	0.032	-0.027
-714.733	-136.185	0.456	-0.054
-713.718	61.835	-0.066	-0.066
-712.704	141.115	0.217	-0.289
-711.689	-19.227	-0.036	0.023
-710.675	800.000	-0.057	-0.203
-709.660	-70.155	-0.161	-0.062
-708.645	82.241	0.196	0.214
-707.631	-45.701	-0.126	-0.063
-706.616	-145.764	0.062	0.006
-705.602	104.901	0.110	0.131
-704.587	85.923	-0.142	0.157
-703.572	-101.387	-0.107	-0.026
-702.558	-21.522	-0.202	-0.124
-701.543	-120.624	-0.160	0.027
-700.529	-200.000	0.061	-0.278
-699.514	187.219	0.133	-0.200
-698.499	-79.622	-0.125	0.042
-697.485	0.596	0.086	-0.062
-696.470	-124.771	-0.491	0.076
-695.456	-200.000	0.006	0.181
-694.441	188.211	-0.104	-0.157
-693.426	-90.391	-0.196	-0.057
-692.412	-91.218	0.034	0.010
-691.397	75.543	-0.204	-0.217
-690.383	-122.502	-0.231	-0.038
-689.368	-114.599	-0.106	-0.020
-688.354	800.000	-0.155	0.450
-687.339	800.000	0.040	-0.132
-686.324	800.000	-0.150	-0.462
-685.310	-72.683	-0.144	-0.054
-684.295	-120.110	0.245	0.042
-683.281	48.848	-0.065	0.062
-682.266	36.735	-0.260	0.231
-681.251	-200.000	0.008	-0.076
-680.237	415.842	0.079	-0.170
-679.222	-54.948	0.123	-0.056
-678.208	800.000	-0.082	0.341
-677.193	-126.696	0.119	0.018
-676.178	47.267	-0.097	0.091
-675.164	-136.507	0.123	-0.014
-674.149	2.566	-0.189	0.138
-673.135	69.237	-0.340	0.353
-672.120	57.795	0.084	0.083
-671.105	-86.353	-0.184	-0.057
-670.091	170.725	-0.058	-0.084
-669.076	-8.213	0.234	0.159
-668.062	176.381	0.158	-0.231
-667.047	-200.000	-0.037	-0.350
-666.032	-20.782	-0.166	-0.103
-665.018	800.000	0.102	-0.334
-664.003	180.269	-0.235	0.347
-662.989	1.422	-0.198	0.143
-661.974	312.165	0.103	-0.195
-660.959	-120.107	-0.061	-0.010
-659.945	-200.000	0.064	-0.335
-658.930	800.000	0.050	0.182
-657.916	5.203	-0.084	-0.062
-656.901	85.344	0.239	0.264
-655.886	447.849	0.099	-0.220
-654.872	-55.681	0.452	-0.203
-653.857	194.809	0.025	0.038
-652.843	-52.375	0.056	0.026
-651.828	171.857	-0.045	-0.065
-650.814	76.234	-0.145	0.155
-649.799	-35.197	-0.507	0.278
-648.784	-200.000	0.005	0.158
-647.770	284.089	0.097	0.175
-646.755	64.153	0.229	0.231
-645.741	113.762	0.130	-0.159
-644.726	237.088	-0.054	0.090
-643.711	-200.000	-0.026	0.123
-642.697	46.990	0.255	0.238
-641.682	-60.119	-0.222	-0.095
-640.668	336.836	0.091	0.178
-639.653	49.844	-0.182	0.173
-638.638	-200.000	0.006	-0.079
-637.624	227.048	-0.186	0.304
-636.609	-94.874	0.180	-0.049
-635.595	-200.000	0.001	0.041
-634.580	85.850	-0.025	0.028
-633.565	-26.284	-0.187	0.110
-632.551	-82.029	0.102	0.033
-631.536	216.364	0.112	-0.179
-630.522	-44.234	-0.351	0.177
-629.507	-200.000	0.035	0.197
-628.492	28.424	-0.101	-0.086
-627.478	-200.000	-0.006	-0.393
-626.463	800.000	0.071	-0.269
-625.449	77.478	0.046	-0.050
-624.434	-73.152	-0.196	0.072
-623.419	315.621	-0.195	-0.369
-622.405	-103.295	-0.284	-0.067
-621.390	-200.000	-0.087	0.416
-620.376	-181.531	0.238	0.005
-619.361	38.707	0.170	-0.152
-618.346	92.819	-0.127	-0.144
-617.332	-136.907	-0.186	-0.021
-616.317	-200.000	0.014	0.341
-615.303	26.928	0.092	-0.077
-614.288	-94.597	-0.228	0.062
-613.273	58.827	-0.127	0.125
-612.259	148.915	0.231	0.314
-611.244	383.867	-0.176	0.365
-610.230	-52.736	-0.164	-0.076
-609.215	-77.944	-0.324	-0.112
-608.201	5.163	-0.147	0.109
-607.186	133.718	0.107	0.139
-606.171	-86.285	-0.373	0.115
-605.157	45.563	-0.141	0.131
-604.142	-27.809	-0.300	-0.175
-603.128	-123.505	-0.139	0.022
-602.113	38.678	0.126	0.113
-601.098	310.404	-0.106	-0.199
-600.084	760.526	0.128	0.349
-599.069	-101.400	0.164	0.040
-598.055	-75.642	0.209	0.075
-597.040	424.086	-0.114	0.246
-596.025	434.879	0.119	-0.260
-595.011	-31.706	-0.408	0.230
-593.996	800.000	0.029	0.127
-592.982	800.000	0.111	0.309
-591.967	800.000	0.026	-0.093
-590.952	-100.207	-0.131	-0.033
-589.938	743.201	0.127	0.343
-588.923	128.948	0.166	0.212
-587.909	-136.123	0.179	-0.021
-586.894	186.378	-0.135	0.201
-585.879	175.369	-0.130	0.188
-584.865	213.279	0.037	0.058
-583.850	64.798	0.036	-0.036
-582.836	690.298	-0.117	0.307
-581.821	631.869	-0.012	0.030
-580.806	-115.766	0.169	0.032
-579.792	-152.333	0.136	0.010
-578.777	144.181	-0.042	0.056
-577.763	344.565	-0.036	0.070
-576.748	-200.000	-0.013	0.074
-575.733	665.242	0.051	-0.133
-574.719	147.534	0.129	-0.174
-573.704	800.000	-0.028	0.110
-572.690	-52.656	-0.249	0.115
-571.675	1.889	0.367	-0.266
-570.661	-20.760	-0.129	0.079
-569.646	800.000	0.095	0.313
-568.631	742.488	0.092	0.248
-567.617	59.094	-0.168	-0.166
-566.602	-200.000	0.070	-0.446
-565.588	-1.754	-0.367	0.259
-564.573	335.748	0.047	0.091
-563.558	800.000	0.041	-0.172
-562.544	-5.254	0.075	-0.052
-561.529	-132.526	-0.133	-0.017
-560.515	37.677	-0.129	0.115
-559.500	-56.236	-0.127	-0.056
-558.485	73.839	-0.050	0.053
-557.471	-121.531	0.268	-0.045
-556.456	-119.596	-0.135	0.023
-555.442	-54.473	0.229	-0.104
-554.427	87.079	0.023	-0.026
-553.412	55.512	0.215	-0.208
-552.398	-200.000	-0.002	-0.155
-551.383	-117.745	0.153	-0.028
-550.369	17.100	-0.133	0.106
-549.354	-116.361	-0.357	-0.066
-548.339	450.112	0.056	-0.124
-547.325	-200.000	0.119	0.716
-546.310	-23.606	-0.238	0.143
-545.296	-102.984	0.233	-0.055
-544.281	-35.775	-0.333	-0.181
-543.266	139.905	0.289	-0.381
-542.252	-200.000	0.011	-0.191
-541.237	-0.168	-0.177	0.126
-540.223	-114.932	0.066	-0.013
-539.208	-200.000	0.010	-0.237
-538.193	-200.000	0.022	-0.154
-537.179	281.251	-0.102	0.182
-536.164	9.336	-0.088	-0.067
-535.150	279.006	0.090	-0.161
-534.135	168.614	-0.132	-0.189
-533.121	-98.572	-0.243	-0.062
-532.106	328.274	0.185	-0.355
-531.091	-200.000	0.003	-0.184
-530.077	346.190	0.015	-0.029
-529.062	-111.681	-0.320	0.065
-528.048	-171.696	-0.231	0.008
-527.033	180.538	-0.086	-0.126
-526.018	-135.133	0.271	0.033
-525.004	663.502	0.043	0.112
-523.989	99.830	-0.142	-0.164
-522.975	-52.466	-0.132	0.061
-521.960	-105.890	0.380	0.086
-520.945	-49.684	-0.237	-0.113
-519.931	296.173	-0.253	-0.463
-518.916	-200.000	-0.073	-0.498
-517.902	-200.000	0.017	-0.111
-516.887	-199.292	-0.156	-0.001
-515.872	800.000	-0.044	-0.150
-514.858	56.667	-0.062	-0.061
-513.843	-73.705	-0.136	0.049
-512.829	131.707	0.342	0.441
-511.814	800.000	0.071	-0.215
-510.799	-11.436	-0.270	-0.178
-509.785	131.306	-0.303	-0.390
-508.770	-200.000	0.085	0.396
-507.756	-200.000	0.014	-0.071
-506.741	8.921	-0.316	-0.239
-505.726	-49.122	0.056	0.027
-504.712	244.717	0.219	-0.369
-503.697	254.689	0.091	-0.156
-502.683	-200.000	0.014	-0.118
-501.668	25.703	-0.108	0.090
-500.653	65.985	-0.358	-0.363
-499.639	-200.000	0.068	-0.342
-498.624	146.086	-0.097	0.130
-497.610	133.003	0.066	-0.085
-496.595	-200.000	-0.049	0.218
-495.581	151.768	-0.134	-0.183
-494.566	-64.624	-0.120	-0.049
-493.551	800.000	0.035	0.121
-492.537	62.067	0.053	0.053
-491.522	761.350	0.252	0.684
-490.508	289.528	0.018	-0.032
-489.493	-30.775	0.174	-0.098
-488.478	-148.925	0.115	-0.009
-487.464	-48.809	0.081	0.039
-486.449	-110.943	-0.237	-0.049
-485.435	-200.000	0.037	-0.474
-484.420	-115.794	0.427	-0.080
-483.405	-68.577	0.104	-0.040
-482.391	314.505	-0.134	0.253
-481.376	-200.000	0.052	-0.342
-480.362	53.588	-0.253	0.243
-479.347	-200.000	-0.439	0.001
-478.332	-174.913	-0.289	-0.008
-477.318	198.378	0.133	0.203
-476.303	-200.000	0.030	0.434
-475.289	-50.961	0.164	0.077
-474.274	30.235	-0.077	-0.065
-473.259	741.074	-0.099	-0.267
-472.245	-200.000	0.019	0.131
-471.230	19.269	-0.169	0.136
-470.216	-79.300	0.201	0.068
-469.201	-199.817	0.246	0.001
-468.186	-18.426	0.280	0.175
-467.172	14.833	-0.131	0.103
-466.157	129.128	-0.086	0.109
-465.143	361.104	-0.110	0.221
-464.128	-176.829	0.396	-0.010
-463.113	-165.202	0.167	-0.007
-462.099	-108.579	-0.172	0.037
-461.084	545.231	-0.078	0.185
-460.070	36.046	0.063	0.055
-459.055	174.542	0.046	-0.066
-458.040	-174.325	-0.075	-0.002
-457.026	-200.000	-0.057	-0.312
-456.011	-40.633	-0.224	-0.116
-454.997	-200.000	-0.006	0.328
-453.982	-24.505	0.256	-0.152
-452.968	103.084	0.077	-0.090
-451.953	-200.000	-0.032	0.189
-450.938	-9.078	0.049	0.033
-449.924	596.430	0.104	-0.258
-448.909	63.297	-0.046	0.046
-447.895	76.480	-0.100	0.106
-446.880	37.041	-0.161	-0.142
-445.865	-159.308	-0.303	0.017
-444.851	731.601	0.100	-0.266
-443.836	800.000	-0.079	0.305
-442.822	-200.000	-0.007	0.396
-441.807	-49.115	0.086	-0.041
-440.792	67.658	0.151	-0.154
-439.778	-121.761	-0.192	0.032
-438.763	-112.937	-0.158	0.031
-437.749	60.569	-0.026	0.026
-436.734	-200.000	0.027	0.438
-435.719	800.000	-0.069	0.203
-434.705	213.858	0.071	0.113
-433.690	691.906	-0.033	-0.086
-432.676	-91.732	-0.316	-0.090
-431.661	9.645	-0.328	-0.248
-430.646	-8.461	0.070	0.047
-429.632	-56.012	-0.078	-0.035
-428.617	171.519	0.053	0.076
-427.603	-200.000	0.000	0.145
-426.588	-119.354	-0.217	-0.038
-425.573	-103.508	0.283	-0.066
-424.559	-41.199	0.410	0.211
-423.544	-200.000	0.016	-0.311
-422.530	558.111	-0.035	0.085
-421.515	-200.000	0.013	-0.245
-420.500	-77.791	-0.176	-0.060
-419.486	-16.172	0.105	-0.066
-418.471	-200.000	0.006	-0.093
-417.457	-117.155	0.073	-0.013
-416.442	118.246	0.136	-0.168
-415.428	-138.984	0.069	-0.008
-414.413	-59.373	0.269	0.115
-413.398	-165.344	0.334	-0.015
-412.384	-66.085	-0.026	-0.010
-411.369	-119.772	0.157	-0.027
-410.355	800.000	0.088	0.304
-409.340	404.862	-0.122	-0.256
-408.325	-200.000	0.004	-0.171
-407.311	-75.081	-0.380	-0.135
-406.296	760.799	-0.115	0.310
-405.282	-160.950	-0.307	-0.016
-404.267	138.084	0.036	-0.047
-403.252	446.291	0.071	-0.155
-402.238	800.000	-0.029	0.084
-401.223	66.926	0.243	-0.246
-400.209	-115.193	0.081	0.015
-399.194	-200.000	0.029	-0.350
-398.179	-58.029	0.297	0.129
-397.165	78.100	0.163	0.173
-396.150	-166.811	-0.342	-0.014
-395.136	60.499	0.153	0.151
-394.121	800.000	0.044	0.193
-393.106	-200.000	0.044	-0.337
-392.092	-200.000	-0.068	-0.383
-391.077	40.113	0.195	-0.175
-390.063	800.000	0.048	0.202
-389.048	281.683	0.049	0.088
-388.033	-200.000	0.022	-0.144
-387.019	-78.777	0.391	-0.133
-386.004	362.391	-0.060	-0.121
-384.990	-112.315	-0.343	0.068
-383.975	-156.664	0.059	-0.004
-382.960	416.442	0.030	-0.065
-381.946	-200.000	-0.048	-0.232
-380.931	-27.086	-0.185	-0.107
-379.917	800.000	0.044	0.163
-378.902	-159.451	0.084	0.005
-377.888	-115.282	0.190	-0.036
-376.873	295.692	-0.086	-0.156
-375.858	447.708	0.075	0.164
-374.844	-200.000	0.032	0.156
-373.829	294.727	-0.031	-0.056
-372.815	-14.981	0.127	0.081
-371.800	337.342	-0.171	-0.331
-370.785	206.143	0.033	0.051
-369.771	-147.411	-0.262	-0.022
-368.756	-105.721	-0.317	-0.071
-367.742	24.128	0.162	0.133
-366.727	9.722	-0.129	0.097
-365.712	-65.514	-0.066	-0.027
-364.698	52.910	-0.123	0.117
-363.683	-200.000	0.005	-0.491
-362.669	-200.000	0.049	-0.340
-361.654	227.447	-0.069	-0.112
-360.639	-13.090	0.152	-0.098
-359.625	88.189	0.058	0.064
-358.610	458.828	-0.025	0.056
-357.596	18.742	0.151	0.120
-356.581	-200.000	0.028	0.155
-355.566	-200.000	-0.070	-0.405
-354.552	-7.278	-0.203	0.137
-353.537	-200.000	-0.004	0.059
-352.523	800.000	-0.054	0.150
-351.508	-150.727	0.095	-0.007
-350.493	-82.667	-0.244	0.079
-349.479	-200.000	0.025	0.210
-348.464	-30.294	-0.203	-0.114
-347.450	207.502	0.036	0.056
-346.435	-28.527	-0.232	-0.133
-345.420	327.008	0.105	-0.201
-344.406	262.280	-0.231	-0.399
-343.391	-170.416	0.097	-0.003
-342.377	676.809	0.074	-0.192
-341.362	196.475	0.048	0.073
-340.348	-51.116	0.276	0.129
-339.333	424.415	0.061	0.130
-338.318	-45.751	0.290	-0.143
-337.304	-40.770	-0.169	0.087
-336.289	-87.182	0.143	0.043
-335.275	-77.887	0.390	-0.134
-334.260	800.000	0.044	0.186
-333.245	-145.291	0.309	0.028
-332.231	-30.284	0.155	-0.088
-331.216	108.755	-0.151	-0.179
-330.202	-176.606	-0.271	-0.007
-329.187	143.868	0.075	-0.100
-328.172	25.737	0.089	0.073
-327.158	-30.796	-0.218	-0.122
-326.143	772.528	-0.046	-0.125
-325.129	-171.889	-0.090	-0.003
-324.114	94.927	-0.209	0.237
-323.099	72.257	-0.105	-0.109
-322.085	347.685	-0.263	-0.515
-321.070	-200.000	-0.134	-0.001
-320.056	86.021	-0.132	-0.145
-319.041	336.671	0.136	0.262
-318.026	44.183	0.105	0.096
-317.012	-83.674	-0.025	-0.008
-315.997	-80.463	0.234	-0.078
-314.983	507.294	0.112	-0.259
-313.968	800.000	0.084	-0.314
-312.953	800.000	-0.076	0.254
-311.939	-200.000	0.053	0.278
-310.924	-166.496	-0.323	0.013
-309.910	159.065	0.014	-0.020
-308.895	-200.000	-0.008	0.222
-307.880	-86.662	-0.309	0.094
-306.866	-88.932	0.313	0.092
-305.851	-46.814	0.111	0.054
-304.837	-200.000	0.047	0.211
-303.822	-73.055	0.188	-0.068
-302.807	-200.000	-0.004	0.050
-301.793	-200.000	0.006	-0.115
-300.778	800.000	0.167	-0.543
-299.764	19.153	-0.188	0.150
-298.749	-104.372	0.036	0.008
-297.735	-145.194	0.219	-0.020
-296.720	-16.313	-0.090	0.057
-295.705	67.348	0.241	-0.244
-294.691	-200.000	-0.020	0.119
-293.676	-29.773	-0.103	0.058
-292.662	-200.000	0.036	0.182
-291.647	-53.966	-0.372	-0.168
-290.632	53.759	0.208	-0.198
-289.618	662.888	-0.038	-0.097
-288.603	-200.000	0.035	-0.211
-287.589	6.611	0.129	-0.095
-286.574	-124.498	-0.228	-0.035
-285.559	348.484	-0.181	-0.353
-284.545	152.743	0.078	0.106
-283.530	33.695	-0.060	-0.052
-282.516	-129.392	0.330	0.045
-281.501	229.225	-0.024	-0.039
-280.486	350.080	0.096	-0.188
-279.472	800.000	0.119	0.373
-278.457	541.591	-0.047	0.111
-277.443	51.164	0.235	0.221
-276.428	232.491	0.034	-0.055
-275.413	-10.791	0.172	-0.113
-274.399	-166.217	0.243	-0.010
-273.384	33.269	-0.257	0.221
-272.370	800.000	-0.084	0.265
-271.355	317.507	-0.131	0.246
-270.340	212.127	0.048	0.075
-269.326	-200.000	0.040	0.290
-268.311	204.728	0.094	-0.145
-267.297	-54.686	0.193	-0.087
-266.282	331.584	-0.067	0.128
-265.267	-200.000	-0.034	0.157
-264.253	800.000	0.092	0.316
-263.238	20.620	0.107	-0.086
-262.224	-200.000	-0.069	-0.453
-261.209	124.395	0.118	-0.147
-260.195	5.521	0.154	0.113
-259.180	-138.490	0.348	-0.038
-258.165	85.372	0.199	-0.217
-257.151	-200.000	-0.002	-0.050
-256.136	-132.358	0.300	0.038
-255.122	1.326	0.207	-0.148
-254.107	-92.957	-0.262	0.072
-253.092	-97.415	0.290	-0.075
-252.078	-24.342	0.152	0.090
-251.063	556.148	0.088	-0.210
-250.049	-200.000	-0.024	-0.133
-249.034	122.443	0.160	-0.198
-248.019	-8.021	-0.123	-0.082
-247.005	298.810	0.054	0.098
-245.990	-37.530	-0.185	-0.098
-244.976	-200.000	0.021	0.351
-243.961	76.176	0.113	-0.119
-242.946	-78.716	-0.281	0.095
-241.932	-17.550	-0.341	-0.213
-240.917	800.000	-0.050	0.173
-239.903	1.772	0.278	0.198
-238.888	168.969	-0.125	0.177
-237.873	-60.274	0.338	0.142
-236.859	-200.000	-0.025	-0.189
-235.844	-163.608	0.341	0.016
-234.830	-184.479	0.105	0.002
-233.815	-54.448	-0.089	-0.040
-232.800	800.000	0.025	-0.086
-231.786	646.442	0.077	0.196
-230.771	235.268	-0.263	0.429
-229.757	21.589	0.030	0.024
-228.742	513.258	-0.224	-0.517
-227.727	64.913	-0.084	-0.084
-226.713	-200.000	0.004	0.113
-225.698	-90.124	-0.230	0.066
-224.684	-73.920	-0.101	0.036
-223.669	207.271	0.171	-0.264
-222.655	191.331	0.052	-0.078
-221.640	-200.000	-0.001	0.236
-220.625	35.585	-0.168	-0.146
-219.611	-200.000	0.092	-0.462
-218.596	-11.352	0.153	0.100
-217.582	165.176	0.055	0.077
-216.567	-150.424	0.091	-0.007
-215.552	-41.424	0.245	-0.125
-214.538	-200.000	0.012	-0.111
-213.523	0.669	-0.240	-0.170
-212.509	800.000	0.090	0.263
-211.494	-48.485	0.267	-0.127
-210.479	800.000	-0.094	-0.388
-209.465	-70.830	-0.198	-0.074
-208.450	-200.000	-0.054	0.411
-207.436	194.020	0.062	0.093
-206.421	-200.000	-0.034	-0.297
-205.406	-200.000	0.031	0.169
-204.392	-95.977	0.117	-0.031
-203.377	0.725	0.260	0.184
-202.363	1.498	0.120	0.086
-201.348	-200.000	0.009	0.055
-200.333	-200.000	0.004	-0.083
-199.319	387.640	-0.064	0.132
-198.304	116.188	0.145	-0.176
-197.290	-200.000	-0.044	-0.477
-196.275	33.646	0.211	-0.181
-195.260	136.505	-0.190	-0.245
-194.246	72.002	0.115	0.118
-193.231	12.383	-0.210	0.160
-192.217	60.096	0.064	-0.062
-191.202	246.211	-0.143	0.238
-190.187	-200.000	-0.051	-0.220
-189.173	89.168	0.118	-0.129
-188.158	800.000	0.020	0.058
-187.144	104.018	0.071	0.083
-186.129	-34.203	0.190	0.103
-185.114	221.650	0.187	0.296
-184.100	146.630	-0.257	-0.341
-183.085	-200.000	-0.014	0.169
-182.071	800.000	-0.029	0.110
-181.056	23.265	-0.123	0.099
-180.042	-200.000	0.010	0.154
-179.027	38.869	-0.085	-0.075
-178.012	225.048	0.124	0.198
-176.998	527.016	0.027	-0.062
-175.983	90.349	-0.102	0.112
-174.969	2.574	-0.158	0.113
-173.954	-19.514	-0.131	-0.080
-172.939	-200.000	-0.043	0.301
-171.925	661.266	-0.107	0.272
-170.910	-53.951	0.597	-0.269
-169.896	-17.598	-0.063	0.039
-168.881	-200.000	0.010	-0.147
-167.866	-103.956	-0.291	-0.067
-166.852	36.819	0.323	0.282
-165.837	-200.000	-0.013	0.424
-164.823	494.395	0.090	-0.205
-163.808	-83.094	0.382	0.121
-162.793	3.259	0.090	0.065
-161.779	181.247	-0.157	0.228
-160.764	800.000	-0.062	0.214
-159.750	-104.131	0.404	0.093
-158.735	35.771	-0.117	-0.102
-157.720	643.046	-0.031	-0.079
-156.706	68.575	-0.027	0.027
-155.691	327.315	0.042	-0.079
-154.677	-155.183	-0.223	-0.014
-153.662	214.495	0.109	0.171
-152.647	743.523	-0.084	0.222
-151.633	-10.049	0.170	0.111
-150.618	800.000	-0.053	-0.170
-149.604	-19.476	0.196	-0.120
-148.589	800.000	0.080	-0.277
-147.574	207.823	0.092	0.142
-146.560	-157.506	-0.415	0.025
-145.545	124.152	-0.031	0.038
-144.531	210.925	-0.081	0.126
-143.516	800.000	-0.010	-0.039
-142.502	91.317	-0.122	-0.135
-141.487	28.175	-0.235	-0.195
-140.472	-123.501	-0.156	0.025
-139.458	-200.000	0.067	0.289
-138.443	52.626	-0.271	0.255
-137.429	800.000	-0.120	-0.355
-136.414	-63.687	-0.366	-0.148
-135.399	55.808	0.141	0.135
-134.385	85.961	-0.287	0.311
-133.370	551.763	-0.083	0.196
-132.356	-200.000	-0.026	-0.251
-131.341	62.094	0.096	-0.095
-130.326	56.362	-0.395	-0.378
-129.312	28.369	0.112	-0.093
-128.297	-23.211	0.146	0.087
-127.283	-200.000	-0.023	-0.179
-126.268	800.000	-0.024	-0.097
-125.253	800.000	0.050	0.201
-124.239	24.200	0.204	-0.166
-123.224	-114.094	0.091	0.017
-122.210	-104.988	-0.268	-0.060
-121.195	273.036	0.049	-0.085
-120.180	56.914	0.168	-0.162
