DTS Sentinel unit serial number:	SN413079Multiplexer serial number:	ORYXHardware model number:	OX4-SRSoftware version number:	ORYX F/W v4.00 Oryx Data Collector v3.7.2.0data status	okinstallation	princeton_trtdifferential loss correction	single-endedforward channel	channel 3reverse channel	N/Adate	2019/09/18time	02:44:35forward acquisition time	60.00reverse acquisition time	0.00gamma	496.2192k internal	0.2344k external	0.2344temperature offset calibration	0.9951default loss term (dB/km)	0.3790temperature slope calibration	1.0000multiplexer offset coefficient	1.0000multiplexer slope coefficient	1.0000fibre end	0.00T internal ref (°C)	22.77T ext. ref 1 (°C)	0.16T ext. ref 2 (°C)	16.63length (m)	temperature (°C)	Stokes	anti-Stokes-747.200	56.856	-0.129	0.126
-746.185	338.625	-0.106	0.206
-745.171	-89.406	0.140	0.041
-744.156	230.884	0.133	0.217
-743.142	800.000	-0.118	0.459
-742.127	1.499	-0.075	-0.054
-741.112	77.816	-0.058	-0.062
-740.098	-57.957	-0.578	0.253
-739.083	-139.686	0.354	-0.038
-738.069	-48.175	0.103	0.050
-737.054	27.691	0.221	-0.186
-736.039	-46.766	0.064	-0.031
-735.025	235.284	0.008	-0.013
-734.010	-153.910	-0.126	-0.009
-732.996	-200.000	-0.059	-0.283
-731.981	-200.000	0.005	0.165
-730.966	-20.495	0.160	-0.098
-729.952	-200.000	-0.043	-0.241
-728.937	-114.218	-0.455	-0.088
-727.923	179.229	0.411	0.602
-726.908	-200.000	0.009	-0.243
-725.894	-138.252	-0.115	0.013
-724.879	-94.314	-0.107	-0.029
-723.864	-200.000	-0.025	0.170
-722.850	-43.725	-0.249	0.125
-721.835	113.819	-0.098	-0.119
-720.821	-14.407	-0.170	0.109
-719.806	-94.167	0.145	-0.040
-718.791	-64.079	-0.269	-0.110
-717.777	673.938	-0.135	-0.350
-716.762	-50.310	-0.281	0.133
-715.748	-134.999	-0.114	-0.014
-714.733	-151.769	0.249	-0.018
-713.718	-81.489	-0.225	0.074
-712.704	134.180	0.117	0.152
-711.689	-72.341	-0.091	-0.034
-710.675	289.217	-0.088	0.159
-709.660	-12.971	-0.098	0.064
-708.645	-200.000	0.014	0.070
-707.631	137.771	0.059	-0.077
-706.616	295.307	-0.083	-0.151
-705.602	-164.249	-0.352	0.016
-704.587	677.477	-0.119	0.310
-703.572	-127.263	0.159	-0.023
-702.558	-56.669	0.053	0.024
-701.543	-50.663	0.244	0.115
-700.529	-71.824	0.125	-0.046
-699.514	-60.609	-0.126	0.053
-698.499	-200.000	-0.185	-0.000
-697.485	-200.000	0.008	0.056
-696.470	326.584	0.115	-0.220
-695.456	-56.780	0.242	-0.107
-694.441	275.915	0.073	0.129
-693.426	-200.000	0.020	-0.199
-692.412	391.281	-0.170	-0.352
-691.397	800.000	0.041	-0.115
-690.383	-117.458	-0.169	0.031
-689.368	-26.031	-0.223	-0.131
-688.354	800.000	-0.043	0.144
-687.339	170.816	-0.052	-0.074
-686.324	294.561	-0.154	0.281
-685.310	-96.964	-0.275	0.072
-684.295	64.071	-0.078	0.078
-683.281	800.000	0.101	-0.370
-682.266	293.045	0.122	0.223
-681.251	-23.160	0.306	-0.184
-680.237	800.000	-0.080	-0.323
-679.222	707.192	0.119	0.314
-678.208	-152.963	0.109	0.008
-677.193	-40.188	0.357	-0.186
-676.178	-200.000	0.025	-0.217
-675.164	-67.439	0.231	-0.091
-674.149	124.231	0.103	-0.130
-673.135	-70.632	-0.265	-0.100
-672.120	62.384	-0.072	0.071
-671.105	658.106	-0.058	-0.150
-670.091	191.695	-0.094	-0.142
-669.076	-200.000	0.041	-0.273
-668.062	50.633	0.235	0.222
-667.047	-62.079	0.315	-0.131
-666.032	210.065	0.041	-0.065
-665.018	23.259	0.084	0.069
-664.003	31.050	0.036	-0.031
-662.989	243.784	-0.159	-0.266
-661.974	-148.166	-0.046	0.004
-660.959	57.947	-0.166	0.162
-659.945	800.000	-0.071	0.289
-658.930	529.436	0.032	0.074
-657.916	-200.000	0.027	-0.177
-656.901	-60.526	0.179	0.076
-655.886	-200.000	-0.016	-0.404
-654.872	-90.137	-0.182	-0.053
-653.857	116.112	0.207	0.253
-652.843	-29.372	-0.148	0.084
-651.828	269.383	0.172	-0.301
-650.814	-200.000	0.020	-0.146
-649.799	-122.629	0.163	-0.026
-648.784	-53.526	0.310	-0.141
-647.770	-29.843	-0.192	0.109
-646.755	-101.762	0.160	0.039
-645.741	-125.903	-0.201	-0.030
-644.726	-13.448	0.233	0.150
-643.711	270.405	0.121	-0.213
-642.697	166.794	-0.089	-0.125
-641.682	-144.273	-0.210	-0.019
-640.668	-80.719	0.227	-0.075
-639.653	-83.987	-0.411	0.130
-638.638	-139.701	-0.457	-0.048
-637.624	-200.000	0.001	0.205
-636.609	45.855	-0.274	0.252
-635.595	-121.793	-0.158	-0.026
-634.580	131.710	-0.107	0.137
-633.565	-29.356	-0.308	-0.176
-632.551	-2.926	0.274	-0.190
-631.536	-65.926	-0.290	0.115
-630.522	267.265	-0.059	-0.103
-629.507	-67.121	0.382	0.150
-628.492	-81.543	-0.296	-0.097
-627.478	-24.331	0.233	0.138
-626.463	-200.000	0.026	-0.294
-625.449	-66.519	-0.376	-0.149
-624.434	-200.000	0.004	-0.367
-623.419	241.299	0.022	0.036
-622.405	-112.692	0.140	-0.028
-621.390	74.833	-0.062	0.065
-620.376	485.403	-0.064	0.146
-619.361	-19.141	-0.436	-0.270
-618.346	-43.881	-0.329	0.165
-617.332	70.475	-0.117	0.120
-616.317	-143.773	0.183	0.017
-615.303	137.039	-0.153	0.199
-614.288	3.122	-0.119	0.086
-613.273	667.528	0.124	-0.318
-612.259	-97.318	-0.257	0.067
-611.244	-43.521	0.335	-0.168
-610.230	-200.000	-0.034	-0.216
-609.215	109.576	0.071	0.084
-608.201	-26.357	-0.187	-0.109
-607.186	322.711	0.174	-0.330
-606.171	69.576	-0.133	0.137
-605.157	-132.785	0.463	-0.059
-604.142	-142.851	-0.132	-0.013
-603.128	800.000	-0.059	-0.252
-602.113	-200.000	0.007	0.263
-601.098	-200.000	0.001	-0.097
-600.084	109.388	-0.085	0.101
-599.069	800.000	-0.030	-0.095
-598.055	321.896	-0.029	0.054
-597.040	142.503	0.153	-0.202
-596.025	-200.000	-0.010	0.228
-595.011	247.656	-0.178	-0.299
-593.996	800.000	-0.150	-0.567
-592.982	-113.670	-0.182	0.035
-591.967	249.070	-0.062	0.105
-590.952	73.252	0.168	0.175
-589.938	800.000	0.057	0.172
-588.923	-150.884	-0.102	0.008
-587.909	-73.694	-0.206	0.074
-586.894	519.324	0.059	0.138
-585.879	800.000	0.059	0.257
-584.865	-127.966	0.106	0.015
-583.850	79.189	0.186	-0.198
-582.836	-27.157	0.088	-0.051
-581.821	454.875	-0.201	0.443
-580.806	-15.398	0.069	-0.044
-579.792	-24.684	-0.197	-0.116
-578.777	12.987	-0.124	-0.095
-577.763	12.162	-0.194	0.149
-576.748	-79.299	-0.204	-0.069
-575.733	40.128	-0.142	-0.127
-574.719	-31.979	-0.066	-0.037
-573.704	-200.000	0.011	0.128
-572.690	142.574	-0.112	-0.149
-571.675	337.520	-0.151	0.292
-570.661	12.627	0.124	0.095
-569.646	-148.698	0.417	-0.034
-568.631	17.175	0.328	0.259
-567.617	359.910	-0.073	0.145
-566.602	-83.170	-0.279	0.089
-565.588	-3.285	-0.378	0.262
-564.573	-83.460	-0.169	0.054
-563.558	85.697	0.103	-0.113
-562.544	-2.442	-0.115	-0.080
-561.529	-78.057	0.068	-0.023
-560.515	-200.000	0.056	-0.479
-559.500	170.579	0.164	0.233
-558.485	6.156	-0.140	0.103
-557.471	-132.977	0.180	0.023
-556.456	-58.443	0.244	-0.105
-555.442	18.052	-0.281	-0.223
-554.427	26.934	0.095	0.079
-553.412	-171.174	-0.278	-0.009
-552.398	-31.242	0.136	-0.076
-551.383	122.777	0.102	0.126
-550.369	-114.539	-0.128	-0.024
-549.354	-6.648	0.142	-0.096
-548.339	118.082	0.189	0.232
-547.325	125.542	0.048	0.060
-546.310	-91.920	0.109	0.031
-545.296	-200.000	0.027	0.313
-544.281	170.693	0.095	0.136
-543.266	-135.385	0.152	-0.018
-542.252	-39.143	0.151	0.079
-541.237	-200.000	0.011	0.142
-540.223	-121.475	-0.194	-0.032
-539.208	-200.000	0.062	-0.407
-538.193	-79.845	-0.221	0.074
-537.179	800.000	0.054	-0.181
-536.164	408.665	-0.072	-0.150
-535.150	52.078	-0.215	-0.203
-534.135	-40.710	-0.259	-0.133
-533.121	-150.969	-0.186	0.014
-532.106	179.061	-0.160	0.233
-531.091	320.004	-0.027	0.052
-530.077	-50.099	0.241	-0.113
-529.062	193.108	-0.087	0.131
-528.048	-200.000	0.027	-0.311
-527.033	35.814	0.166	-0.145
-526.018	-40.517	0.302	0.156
-525.004	-69.677	0.127	-0.048
-523.989	-91.912	0.302	0.085
-522.975	-59.029	0.330	-0.141
-521.960	113.025	0.038	-0.045
-520.945	92.874	-0.159	-0.179
-519.931	-64.126	0.318	0.129
-518.916	-130.220	0.203	-0.027
-517.902	30.642	-0.169	-0.143
-516.887	-56.949	-0.067	0.029
-515.872	-153.048	-0.296	-0.021
-514.858	510.609	-0.083	-0.191
-513.843	-97.346	0.318	0.082
-512.829	-3.875	0.068	0.047
-511.814	-101.823	0.142	-0.034
-510.799	-200.000	-0.002	0.086
-509.785	-35.330	0.209	0.113
-508.770	-95.077	0.029	-0.008
-507.756	162.517	-0.149	0.207
-506.741	404.789	0.074	0.154
-505.726	-141.383	0.264	0.027
-504.712	391.259	0.110	0.227
-503.697	-200.000	0.041	-0.278
-502.683	83.052	0.182	0.196
-501.668	54.985	-0.028	-0.027
-500.653	800.000	0.027	-0.112
-499.639	161.565	-0.104	0.144
-498.624	362.446	0.065	-0.129
-497.610	-2.549	0.320	0.222
-496.595	698.608	0.011	-0.028
-495.581	27.560	0.143	-0.119
-494.566	236.359	0.117	0.192
-493.551	-24.163	0.093	-0.055
-492.537	-31.082	-0.178	0.100
-491.522	171.496	0.206	0.294
-490.508	-175.192	-0.027	0.001
-489.493	-200.000	-0.006	-0.070
-488.478	151.387	-0.228	-0.308
-487.464	-45.924	0.176	0.086
-486.449	-73.259	-0.094	-0.034
-485.435	344.638	-0.035	0.067
-484.420	800.000	-0.081	-0.244
-483.405	237.985	-0.138	-0.227
-482.391	-163.598	-0.029	0.001
-481.376	-18.489	-0.321	0.198
-480.362	350.301	-0.077	-0.150
-479.347	-200.000	-0.002	0.239
-478.332	-200.000	0.009	-0.101
-477.318	-29.768	-0.346	0.195
-476.303	251.737	-0.058	0.098
-475.289	-200.000	-0.002	0.220
-474.274	67.672	0.029	0.029
-473.259	343.074	-0.127	0.247
-472.245	-200.000	0.020	-0.205
-471.230	118.994	0.189	0.231
-470.216	393.744	-0.100	0.206
-469.201	160.821	-0.119	0.164
-468.186	393.145	0.159	0.328
-467.172	-200.000	0.055	-0.405
-466.157	102.088	-0.081	0.093
-465.143	-59.715	-0.263	0.112
-464.128	455.226	0.095	0.208
-463.113	794.262	-0.074	-0.202
-462.099	30.708	-0.369	-0.313
-461.084	-14.460	0.164	-0.104
-460.070	-94.498	-0.104	-0.028
-459.055	-69.831	-0.150	0.057
-458.040	-200.000	-0.034	0.258
-457.026	-53.547	-0.154	0.070
-456.011	-26.965	-0.386	0.223
-454.997	-145.167	0.087	0.008
-453.982	-89.167	0.288	0.084
-452.968	89.478	-0.062	-0.068
-451.953	165.603	0.303	-0.424
-450.938	800.000	0.062	-0.202
-449.924	-200.000	0.024	0.247
-448.909	-200.000	0.012	0.248
-447.895	72.437	-0.415	-0.428
-446.880	-93.427	0.205	0.056
-445.865	10.655	0.232	-0.175
-444.851	-50.010	-0.205	0.096
-443.836	113.847	-0.069	0.084
-442.822	800.000	0.079	-0.270
-441.807	-167.185	0.122	-0.005
-440.792	11.742	0.246	0.187
-439.778	-81.183	-0.319	-0.104
-438.763	800.000	-0.020	0.085
-437.749	-200.000	0.017	-0.178
-436.734	-200.000	0.044	-0.298
-435.719	303.875	0.131	0.241
-434.705	-102.325	-0.215	-0.051
-433.690	800.000	0.119	-0.368
-432.676	496.485	-0.068	-0.155
-431.661	147.799	-0.109	-0.145
-430.646	89.838	-0.192	-0.212
-429.632	-126.386	-0.097	-0.014
-428.617	-34.637	-0.152	0.082
-427.603	800.000	0.015	-0.053
-426.588	-124.554	0.309	-0.048
-425.573	-97.133	-0.126	-0.033
-424.559	-132.353	0.287	-0.037
-423.544	51.580	0.078	-0.073
-422.530	-200.000	-0.006	0.032
-421.515	445.642	0.079	0.172
-420.500	-66.385	-0.241	-0.095
-419.486	163.361	0.052	0.073
-418.471	-200.000	0.183	0.001
-417.457	85.905	-0.066	0.072
-416.442	-41.772	0.147	-0.075
-415.428	-158.830	-0.345	0.019
-414.413	140.979	-0.158	0.206
-413.398	-14.729	0.287	-0.182
-412.384	-51.547	0.318	0.147
-411.369	154.821	0.144	0.196
-410.355	-200.000	0.012	-0.186
-409.340	-60.215	-0.319	0.134
-408.325	800.000	-0.126	0.373
-407.311	-23.758	0.180	0.107
-406.296	-70.134	0.455	0.171
-405.282	800.000	-0.090	0.345
-404.267	-96.703	-0.380	-0.099
-403.252	800.000	0.129	-0.379
-402.238	-40.321	0.135	0.069
-401.223	-95.520	0.254	0.067
-400.209	-200.000	-0.031	0.153
-399.194	-40.695	0.305	0.156
-398.179	22.704	0.169	-0.137
-397.165	88.723	-0.216	-0.237
-396.150	800.000	0.106	0.317
-395.136	253.378	-0.038	-0.063
-394.121	-81.971	0.180	-0.058
-393.106	-105.716	0.270	-0.060
-392.092	184.035	-0.225	-0.329
-391.077	-116.727	-0.146	0.026
-390.063	42.638	0.203	0.183
-389.048	-19.789	-0.217	-0.133
-388.033	-82.011	0.117	-0.038
-387.019	-200.000	0.046	0.275
-386.004	-142.741	-0.210	-0.020
-384.990	465.990	-0.058	0.129
-383.975	44.500	-0.150	0.136
-382.960	-76.636	0.186	-0.064
-381.946	563.808	-0.065	-0.156
-380.931	363.407	-0.083	-0.165
-379.917	-131.305	0.385	-0.050
-378.902	108.842	-0.044	-0.052
-377.888	88.393	0.134	-0.147
-376.873	364.787	0.036	0.071
-375.858	207.118	-0.045	0.070
-374.844	522.074	0.137	0.317
-373.829	121.368	0.263	0.323
-372.815	15.835	0.236	-0.183
-371.800	292.676	-0.163	-0.294
-370.785	-15.099	0.326	0.206
-369.771	157.497	0.260	0.355
-368.756	-94.957	0.283	0.076
-367.742	586.335	-0.006	0.015
-366.727	41.011	0.172	-0.153
-365.712	68.794	0.024	0.024
-364.698	800.000	0.027	-0.098
-363.683	195.153	0.041	-0.061
-362.669	449.181	0.099	0.215
-361.654	343.623	-0.204	0.395
-360.639	-185.964	-0.102	0.001
-359.625	-73.735	-0.427	-0.153
-358.610	800.000	-0.108	-0.296
-357.596	-77.506	0.215	0.074
-356.581	50.309	-0.338	0.315
-355.566	111.825	-0.089	-0.106
-354.552	-73.987	-0.085	0.031
-353.537	32.408	-0.050	-0.042
-352.523	-200.000	-0.016	-0.342
-351.508	-22.049	-0.028	-0.017
-350.493	47.815	0.141	0.129
-349.479	-180.259	-0.392	0.008
-348.464	-25.596	0.218	0.127
-347.450	-88.658	-0.173	0.051
-346.435	-57.283	-0.133	0.058
-345.420	-200.000	0.018	-0.103
-344.406	800.000	-0.080	-0.222
-343.391	523.408	-0.271	-0.628
-342.377	-171.723	0.275	-0.009
-341.362	168.055	-0.221	-0.310
-340.348	128.917	0.146	0.183
-339.333	-79.026	-0.113	0.038
-338.318	-40.581	-0.246	0.126
-337.304	-99.648	-0.079	-0.020
-336.289	-23.689	-0.285	0.168
-335.275	231.483	0.239	0.385
-334.260	144.763	-0.201	0.265
-333.245	354.257	0.069	-0.135
-332.231	-4.726	0.296	0.201
-331.216	29.057	-0.125	0.104
-330.202	-71.884	0.228	0.084
-329.187	-142.620	-0.407	0.039
-328.172	-105.687	0.151	0.034
-327.158	123.339	0.169	-0.209
-326.143	291.882	0.083	0.148
-325.129	157.232	0.094	0.128
-324.114	63.876	-0.175	-0.173
-323.099	-123.804	0.126	-0.020
-322.085	800.000	-0.022	0.089
-321.070	-200.000	0.010	-0.065
-320.056	446.170	0.126	-0.273
-319.041	-90.045	0.486	-0.139
-318.026	227.763	0.064	0.103
-317.012	82.332	-0.422	0.451
-315.997	-200.000	0.037	0.366
-314.983	-55.631	0.062	0.027
-313.968	-86.595	0.252	0.076
-312.953	-88.649	0.102	0.030
-311.939	-52.720	-0.179	0.081
-310.924	-84.317	0.076	0.024
-309.910	-108.714	0.339	0.072
-308.895	708.471	-0.102	0.264
-307.880	213.155	-0.227	-0.352
-306.866	-47.928	-0.307	-0.146
-305.851	563.315	-0.039	-0.092
-304.837	-200.000	-0.012	0.125
-303.822	144.934	0.143	0.188
-302.807	-94.749	0.173	-0.046
-301.793	-115.552	0.125	0.023
-300.778	55.020	0.078	-0.075
-299.764	-200.000	0.030	-0.259
-298.749	114.219	0.217	-0.259
-297.735	208.197	-0.146	0.225
-296.720	-127.617	-0.079	0.011
-295.705	12.927	-0.159	-0.121
-294.691	-200.000	0.065	-0.324
-293.676	327.102	-0.249	-0.469
-292.662	-147.888	-0.368	0.030
-291.647	78.609	0.137	-0.144
-290.632	-180.231	0.160	-0.003
-289.618	-106.075	0.109	0.024
-288.603	175.162	0.012	-0.017
-287.589	26.496	0.084	0.069
-286.574	31.712	0.427	0.361
-285.559	-119.440	0.090	0.015
-284.545	-9.797	-0.299	-0.196
-283.530	800.000	-0.040	-0.109
-282.516	-83.536	0.322	0.101
-281.501	-200.000	-0.001	0.241
-280.486	661.747	-0.113	-0.285
-279.472	-200.000	0.041	-0.241
-278.457	-11.563	0.154	0.100
-277.443	-200.000	0.100	-0.000
-276.428	-200.000	-0.011	0.107
-275.413	-26.674	0.098	-0.056
-274.399	476.126	-0.075	-0.165
-273.384	-47.978	0.296	-0.141
-272.370	-73.458	-0.235	-0.084
-271.355	-125.473	-0.103	-0.015
-270.340	-86.389	-0.166	0.050
-269.326	-121.621	-0.242	-0.039
-268.311	-125.655	-0.116	-0.017
-267.297	13.061	0.058	0.044
-266.282	-38.497	0.037	0.019
-265.267	800.000	0.086	0.279
-264.253	-75.588	-0.436	0.152
-263.238	61.716	-0.244	-0.238
-262.224	800.000	0.014	0.042
-261.209	-90.344	0.316	-0.090
-260.195	-1.948	-0.202	0.140
-259.180	167.814	0.055	-0.076
-258.165	352.680	0.044	0.086
-257.151	132.598	-0.120	-0.152
-256.136	635.545	0.129	-0.321
-255.122	-112.630	-0.347	-0.068
-254.107	22.466	0.039	-0.032
-253.092	667.408	0.051	-0.129
-252.078	-60.732	0.337	-0.140
-251.063	73.678	0.306	-0.315
-250.049	25.534	-0.100	-0.081
-249.034	284.976	0.056	0.099
-248.019	419.748	-0.226	-0.474
-247.005	-200.000	-0.010	-0.385
-245.990	-200.000	0.035	0.202
-244.976	12.268	0.119	0.090
-243.961	14.791	0.271	0.208
-242.946	280.820	0.132	-0.232
-241.932	183.866	0.118	0.172
-240.917	-76.396	0.300	0.104
-239.903	-25.944	0.131	-0.076
-238.888	-171.530	-0.082	0.003
-237.873	-126.841	0.093	0.013
-236.859	394.058	0.032	-0.066
-235.844	-15.362	0.137	-0.086
-234.830	-174.469	-0.232	-0.007
-233.815	800.000	-0.080	0.342
-232.800	800.000	0.042	0.162
-231.786	-31.606	0.063	-0.034
-230.771	-200.000	0.017	-0.276
-229.757	62.185	0.264	0.258
-228.742	227.941	0.121	-0.193
-227.727	-89.715	0.148	0.043
-226.713	-54.045	0.076	-0.034
-225.698	800.000	-0.049	0.141
-224.684	800.000	-0.035	0.123
-223.669	-148.794	-0.286	-0.023
-222.655	-33.084	-0.267	-0.145
-221.640	0.212	0.203	0.142
-220.625	800.000	0.080	0.242
-219.611	-200.000	0.023	0.238
-218.596	551.545	0.007	0.017
-217.582	49.570	0.286	0.264
-216.567	564.773	0.113	0.270
-215.552	-64.818	-0.113	-0.045
-214.538	170.606	-0.198	-0.278
-213.523	-200.000	-0.031	0.207
-212.509	-20.972	-0.417	-0.251
-211.494	497.111	-0.031	-0.070
-210.479	-123.059	0.260	-0.041
-209.465	222.886	-0.088	-0.138
-208.450	36.962	-0.102	-0.088
-207.436	-120.360	-0.177	-0.030
-206.421	-168.342	0.370	0.014
-205.406	-60.381	-0.258	-0.108
-204.392	105.577	-0.138	0.159
-203.377	5.225	0.050	-0.036
-202.363	29.987	-0.191	0.160
-201.348	230.672	-0.087	-0.139
-200.333	-200.000	-0.046	0.357
-199.319	800.000	0.045	-0.171
-198.304	436.397	-0.047	0.101
-197.290	289.652	0.052	-0.092
-196.275	-49.823	0.356	0.166
-195.260	-170.043	-0.301	0.010
-194.246	-86.196	-0.156	0.047
-193.231	29.801	-0.172	0.144
-192.217	-119.311	0.282	-0.048
-191.202	-200.000	-0.007	-0.183
-190.187	246.038	0.110	-0.182
-189.173	171.467	0.041	-0.058
-188.158	-90.828	0.345	0.097
-187.144	-85.178	0.257	-0.079
-186.129	-106.550	-0.309	0.067
-185.114	-200.000	-0.015	0.353
-184.100	-71.054	0.142	-0.052
-183.085	539.697	-0.063	0.147
-182.071	-200.000	0.036	0.189
-181.056	497.660	0.070	0.157
-180.042	800.000	0.085	-0.239
-179.027	129.088	0.151	-0.189
-178.012	-137.831	0.231	-0.025
-176.998	-99.526	-0.211	-0.052
-175.983	-200.000	-0.014	-0.241
-174.969	-74.329	0.361	-0.127
-173.954	332.072	-0.251	0.474
-172.939	9.841	-0.084	-0.062
-171.925	230.428	-0.130	-0.207
-170.910	800.000	0.034	0.143
-169.896	-200.000	-0.077	0.366
-168.881	-122.864	-0.402	-0.064
-167.866	64.493	0.051	-0.051
-166.852	371.337	0.041	-0.081
-165.837	194.557	0.131	-0.194
-164.823	-165.680	-0.251	0.011
-163.808	7.963	-0.289	0.212
-162.793	-80.041	0.190	-0.062
-161.779	97.795	-0.339	-0.381
-160.764	-200.000	-0.037	-0.177
-159.750	796.453	-0.047	0.126
-158.735	-106.732	0.340	0.074
-157.720	174.807	-0.063	0.089
-156.706	-10.170	-0.246	0.160
-155.691	800.000	0.078	0.267
-154.677	800.000	0.134	-0.368
-153.662	800.000	0.067	-0.243
-152.647	-68.124	0.064	0.024
-151.633	-91.750	-0.191	0.053
-150.618	-0.500	-0.142	-0.099
-149.604	5.469	0.159	0.115
-148.589	-185.901	0.446	0.006
-147.574	-13.061	-0.165	0.105
-146.560	-200.000	0.081	0.348
-145.545	-200.000	0.005	0.074
-144.531	50.864	0.145	-0.135
-143.516	-200.000	0.028	0.208
-142.502	-200.000	-0.038	0.292
-141.487	471.694	0.066	0.144
-140.472	98.542	-0.218	-0.246
-139.458	-79.752	0.272	-0.090
-138.443	107.850	0.125	0.146
-137.429	-86.752	-0.086	0.026
-136.414	-79.577	0.414	-0.137
-135.399	-99.417	0.425	-0.105
-134.385	-159.198	-0.357	-0.020
-133.370	51.315	-0.070	-0.065
-132.356	268.504	0.063	-0.107
-131.341	-100.703	-0.111	0.027
-130.326	145.026	0.089	-0.117
-129.312	-98.649	0.121	0.030
-128.297	407.322	0.093	0.191
-127.283	-200.000	-0.019	-0.104
-126.268	-103.537	-0.281	0.064
-125.253	-162.385	0.349	0.017
-124.239	-71.226	0.320	-0.117
-123.224	565.447	0.082	0.193
-122.210	51.987	0.089	0.083
-121.195	-200.000	0.029	0.410
-120.180	-77.391	0.353	0.120
