DTS Sentinel unit serial number:	SN413079Multiplexer serial number:	ORYXHardware model number:	OX4-SRSoftware version number:	ORYX F/W v4.00 Oryx Data Collector v3.7.2.0data status	okinstallation	princeton_trtdifferential loss correction	single-endedforward channel	channel 3reverse channel	N/Adate	2019/09/14time	19:20:35forward acquisition time	60.00reverse acquisition time	0.00gamma	496.2192k internal	0.2310k external	0.2310temperature offset calibration	1.0013default loss term (dB/km)	0.3790temperature slope calibration	1.0000multiplexer offset coefficient	1.0000multiplexer slope coefficient	1.0000fibre end	0.00T internal ref (°C)	35.02T ext. ref 1 (°C)	4.89T ext. ref 2 (°C)	29.08length (m)	temperature (°C)	Stokes	anti-Stokes-747.200	-82.138	-0.457	0.151
-746.185	39.477	0.037	0.033
-745.171	57.022	-0.152	0.150
-744.156	-7.977	-0.286	0.196
-743.142	141.086	-0.106	-0.142
-742.127	-26.710	-0.258	-0.153
-741.112	-88.246	0.318	0.097
-740.098	-7.607	0.266	0.182
-739.083	349.986	0.096	-0.193
-738.069	526.390	0.056	-0.135
-737.054	800.000	-0.031	-0.134
-736.039	47.874	-0.160	-0.151
-735.025	-82.899	0.306	0.100
-734.010	-31.151	-0.160	0.092
-732.996	-113.832	0.284	0.056
-731.981	258.401	-0.147	0.258
-730.966	45.260	0.129	-0.121
-729.952	44.304	0.193	0.180
-728.937	51.088	-0.273	-0.263
-727.923	159.055	-0.209	-0.294
-726.908	34.050	0.114	0.101
-725.894	-200.000	0.018	-0.088
-724.879	-109.069	0.096	-0.021
-723.864	79.867	-0.167	-0.182
-722.850	-109.257	-0.373	0.080
-721.835	-71.715	0.193	0.073
-720.821	-130.907	-0.081	0.011
-719.806	-200.000	-0.073	0.361
-718.791	202.062	-0.118	-0.184
-717.777	-39.282	-0.169	0.090
-716.762	-33.124	-0.233	-0.131
-715.748	-98.171	-0.053	-0.014
-714.733	321.181	0.179	0.345
-713.718	235.222	0.266	-0.445
-712.704	701.722	0.049	0.131
-711.689	176.997	0.260	-0.384
-710.675	-23.247	0.148	-0.090
-709.660	-155.178	0.170	0.011
-708.645	106.918	0.136	0.164
-707.631	-200.000	0.029	-0.198
-706.616	463.524	0.182	-0.412
-705.602	249.877	-0.019	0.033
-704.587	134.226	-0.099	-0.130
-703.572	-78.285	-0.159	-0.055
-702.558	-75.398	0.515	0.186
-701.543	248.247	0.058	-0.099
-700.529	-1.061	0.353	-0.253
-699.514	686.846	0.050	-0.131
-698.499	102.196	0.195	-0.230
-697.485	256.380	0.127	-0.222
-696.470	-47.495	0.220	-0.108
-695.456	-200.000	-0.019	-0.142
-694.441	-59.581	-0.193	-0.084
-693.426	47.895	-0.133	0.126
-692.412	79.949	0.038	0.042
-691.397	215.521	0.041	0.067
-690.383	800.000	-0.033	-0.135
-689.368	-35.023	-0.087	-0.048
-688.354	-43.102	-0.179	-0.092
-687.339	-38.284	-0.417	-0.224
-686.324	-200.000	0.020	0.136
-685.310	-15.999	-0.138	0.089
-684.295	800.000	-0.047	0.147
-683.281	196.321	0.269	-0.414
-682.266	-150.863	-0.425	-0.033
-681.251	-200.000	0.027	-0.391
-680.237	237.186	-0.128	-0.215
-679.222	-141.783	0.186	0.019
-678.208	155.303	-0.116	-0.161
-677.193	205.836	-0.194	-0.305
-676.178	-82.523	-0.213	0.070
-675.164	-200.000	0.005	0.319
-674.149	-73.083	0.094	-0.035
-673.135	177.781	-0.114	-0.168
-672.120	374.152	0.077	0.158
-671.105	-200.000	-0.098	0.000
-670.091	800.000	0.048	-0.152
-669.076	314.311	-0.072	0.138
-668.062	-200.000	-0.021	-0.229
-667.047	88.769	0.041	-0.046
-666.032	-153.893	-0.312	0.022
-665.018	16.659	-0.361	0.289
-664.003	140.625	0.064	-0.085
-662.989	95.595	-0.164	0.190
-661.974	-200.000	0.014	-0.342
-660.959	283.937	-0.160	-0.290
-659.945	94.245	0.073	-0.084
-658.930	-31.631	0.289	-0.164
-657.916	226.067	-0.240	0.394
-656.901	8.953	-0.088	0.067
-655.886	-57.443	-0.385	0.171
-654.872	155.753	-0.040	-0.055
-653.857	-200.000	-0.021	-0.128
-652.843	-200.000	0.020	0.149
-651.828	633.320	0.175	-0.449
-650.814	-18.540	0.142	-0.090
-649.799	-0.731	-0.105	-0.076
-648.784	-144.417	0.273	0.026
-647.770	-200.000	-0.004	0.340
-646.755	-70.855	0.158	0.060
-645.741	800.000	0.086	-0.273
-644.726	195.866	0.093	0.144
-643.711	-15.035	-0.163	0.106
-642.697	-65.562	-0.207	0.084
-641.682	580.813	-0.081	0.201
-640.668	-200.000	-0.033	0.154
-639.653	80.744	0.160	-0.174
-638.638	-200.000	0.004	0.033
-637.624	74.306	-0.083	-0.089
-636.609	-140.573	-0.354	0.037
-635.595	-41.409	-0.154	-0.080
-634.580	-200.000	0.003	0.112
-633.565	-77.022	-0.090	0.032
-632.551	117.447	-0.115	-0.143
-631.536	-200.000	0.071	-0.338
-630.522	-200.000	0.035	0.317
-629.507	-139.284	-0.213	0.023
-628.492	800.000	-0.039	0.157
-627.478	-35.005	0.067	0.037
-626.463	74.353	0.050	-0.053
-625.449	-90.806	0.165	0.048
-624.434	-59.960	0.133	-0.057
-623.419	-59.299	-0.308	0.134
-622.405	-200.000	-0.005	-0.037
-621.390	130.016	-0.149	-0.192
-620.376	-58.237	0.266	-0.117
-619.361	-41.805	-0.172	-0.089
-618.346	772.391	-0.065	-0.179
-617.332	257.570	0.165	0.286
-616.317	-92.294	-0.139	0.039
-615.303	22.196	0.164	0.135
-614.288	-26.897	-0.214	-0.126
-613.273	87.995	0.051	-0.057
-612.259	29.923	-0.124	-0.106
-611.244	-121.375	0.133	0.022
-610.230	-47.460	-0.255	-0.125
-609.215	-117.230	-0.249	0.046
-608.201	56.959	0.048	-0.048
-607.186	-89.959	0.563	0.166
-606.171	-121.615	-0.378	-0.063
-605.157	-100.637	0.047	0.012
-604.142	21.383	-0.161	0.132
-603.128	190.042	-0.091	-0.138
-602.113	586.522	-0.118	-0.294
-601.098	800.000	-0.085	-0.286
-600.084	364.693	0.210	0.428
-599.069	-127.719	0.149	0.022
-598.055	65.742	-0.213	0.218
-597.040	-4.203	0.163	0.114
-596.025	-110.871	-0.239	-0.050
-595.011	-200.000	-0.024	0.130
-593.996	105.783	0.154	0.184
-592.982	290.963	0.106	-0.195
-591.967	-1.840	0.005	0.004
-590.952	-90.024	-0.219	0.064
-589.938	578.872	-0.190	0.470
-588.923	145.357	0.052	0.070
-587.909	-70.699	0.058	0.022
-586.894	62.706	0.021	-0.021
-585.879	452.749	-0.012	0.027
-584.865	282.322	-0.126	-0.228
-583.850	98.752	0.201	-0.234
-582.836	-200.000	0.046	0.250
-581.821	-117.999	0.309	-0.056
-580.806	-127.335	0.267	0.039
-579.792	535.891	-0.065	-0.155
-578.777	305.051	-0.175	0.329
-577.763	-120.639	-0.319	0.054
-576.748	68.539	-0.176	-0.182
-575.733	800.000	0.157	-0.607
-574.719	181.575	0.242	-0.360
-573.704	-200.000	-0.139	0.001
-572.690	-29.455	-0.271	0.156
-571.675	166.073	0.130	-0.186
-570.661	38.191	0.076	-0.069
-569.646	-172.642	-0.454	0.014
-568.631	800.000	0.033	0.129
-567.617	81.798	-0.110	-0.120
-566.602	62.437	-0.166	-0.167
-565.588	-31.699	0.244	-0.138
-564.573	51.746	0.218	0.209
-563.558	-137.227	-0.308	0.035
-562.544	-165.634	-0.409	-0.018
-561.529	38.473	0.216	0.194
-560.515	-120.557	-0.136	0.023
-559.500	-200.000	0.038	0.242
-558.485	-76.725	0.181	-0.064
-557.471	-75.557	0.335	-0.120
-556.456	371.042	-0.085	-0.173
-555.442	-90.184	-0.176	-0.052
-554.427	800.000	-0.013	-0.036
-553.412	-130.560	0.345	-0.047
-552.398	-168.261	0.086	-0.003
-551.383	-62.861	0.120	-0.050
-550.369	-114.373	-0.268	-0.052
-549.354	388.701	0.077	0.160
-548.339	5.180	-0.160	-0.119
-547.325	-200.000	-0.015	-0.269
-546.310	90.438	0.110	-0.124
-545.296	39.428	0.172	0.156
-544.281	800.000	0.049	-0.139
-543.266	-200.000	-0.022	0.279
-542.252	800.000	0.102	-0.286
-541.237	-32.757	0.155	0.087
-540.223	-200.000	-0.005	0.137
-539.208	247.167	0.139	0.236
-538.193	681.116	0.051	-0.133
-537.179	800.000	-0.091	-0.264
-536.164	-39.332	-0.041	-0.021
-535.150	-160.941	-0.132	-0.007
-534.135	-200.000	0.001	0.069
-533.121	27.744	-0.022	0.019
-532.106	800.000	-0.039	-0.157
-531.091	-112.714	0.180	-0.036
-530.077	-200.000	0.012	-0.196
-529.062	74.068	-0.118	0.125
-528.048	269.764	-0.095	-0.168
-527.033	-200.000	-0.017	0.152
-526.018	101.275	0.109	-0.128
-525.004	-200.000	0.020	-0.104
-523.989	800.000	-0.040	0.138
-522.975	65.805	0.152	0.155
-521.960	800.000	0.031	-0.119
-520.945	193.470	0.188	-0.286
-519.931	-16.619	0.062	-0.040
-518.916	800.000	0.072	0.237
-517.902	-57.800	0.338	-0.149
-516.887	-200.000	-0.001	0.141
-515.872	-36.580	0.238	0.129
-514.858	313.232	-0.056	-0.106
-513.843	354.794	-0.069	-0.138
-512.829	-55.539	-0.214	0.097
-511.814	-148.338	0.118	-0.010
-510.799	18.287	-0.244	-0.196
-509.785	76.065	0.157	-0.167
-508.770	-141.573	0.213	0.022
-507.756	-87.334	0.222	0.068
-506.741	129.718	0.084	-0.109
-505.726	-107.415	0.090	-0.020
-504.712	-200.000	0.014	-0.151
-503.697	-81.665	0.114	0.038
-502.683	-106.352	0.203	-0.046
-501.668	-200.000	-0.002	-0.387
-500.653	358.727	-0.035	0.070
-499.639	-59.441	-0.101	-0.044
-498.624	660.919	-0.041	-0.106
-497.610	9.928	0.175	-0.134
-496.595	-119.060	-0.450	0.079
-495.581	-69.717	-0.290	-0.112
-494.566	230.832	0.136	-0.223
-493.551	-200.000	0.032	0.312
-492.537	-113.711	-0.117	-0.023
-491.522	-54.841	-0.230	-0.104
-490.508	78.522	0.211	0.227
-489.493	-128.353	0.106	0.015
-488.478	-140.194	-0.059	0.006
-487.464	137.606	0.312	0.411
-486.449	-200.000	-0.015	0.155
-485.435	-144.554	-0.036	-0.003
-484.420	296.712	-0.090	-0.166
-483.405	180.419	-0.054	0.079
-482.391	800.000	-0.068	-0.191
-481.376	800.000	-0.136	-0.405
-480.362	-53.277	0.084	-0.039
-479.347	124.254	-0.015	-0.019
-478.332	135.398	-0.134	0.176
-477.318	19.927	0.090	-0.073
-476.303	-39.519	0.177	0.093
-475.289	-58.938	-0.391	0.170
-474.274	-144.123	-0.229	-0.022
-473.259	-182.749	-0.177	-0.003
-472.245	35.361	-0.340	0.300
-471.230	117.246	-0.145	0.178
-470.216	-27.779	0.184	-0.107
-469.201	255.023	0.137	0.236
-468.186	787.532	-0.063	-0.174
-467.172	-168.907	0.474	0.018
-466.157	-61.096	-0.273	0.116
-465.143	-152.362	-0.282	-0.020
-464.128	-121.767	0.183	0.030
-463.113	33.686	-0.169	-0.147
-462.099	800.000	0.053	-0.173
-461.084	-30.850	-0.057	-0.032
-460.070	24.986	-0.222	0.185
-459.055	-200.000	-0.033	-0.557
-458.040	-174.401	-0.308	-0.009
-457.026	193.215	-0.200	0.303
-456.011	-59.655	-0.320	0.138
-454.997	161.034	-0.057	-0.080
-453.982	260.482	-0.089	-0.154
-452.968	282.027	-0.073	0.132
-451.953	800.000	0.099	-0.396
-450.938	-200.000	-0.058	0.271
-449.924	-26.005	0.268	0.158
-448.909	533.853	0.137	0.326
-447.895	271.692	-0.085	-0.150
-446.880	-142.679	0.128	0.013
-445.865	-148.607	0.241	-0.020
-444.851	11.711	-0.096	0.074
-443.836	128.709	-0.231	0.296
-442.822	-200.000	-0.028	-0.214
-441.807	143.544	0.162	0.216
-440.792	89.884	-0.335	0.376
-439.778	-49.545	0.115	0.055
-438.763	410.713	-0.093	-0.198
-437.749	518.897	-0.076	0.178
-436.734	-200.000	-0.001	-0.077
-435.719	-94.060	-0.075	0.021
-434.705	-43.529	-0.309	-0.156
-433.690	-51.815	-0.236	-0.110
-432.676	800.000	-0.040	0.145
-431.661	800.000	0.011	0.034
-430.646	404.736	-0.099	0.210
-429.632	800.000	-0.046	0.201
-428.617	-126.189	-0.244	-0.037
-427.603	-84.167	0.400	0.127
-426.588	-200.000	0.003	-0.076
-425.573	-75.851	-0.366	-0.130
-424.559	35.429	-0.155	-0.136
-423.544	-200.000	0.014	-0.229
-422.530	41.282	-0.263	0.238
-421.515	477.610	0.087	0.198
-420.500	-59.271	-0.241	0.104
-419.486	36.664	-0.223	0.197
-418.471	-86.290	0.265	-0.082
-417.457	63.340	-0.087	0.088
-416.442	-100.079	-0.331	-0.083
-415.428	-12.896	0.155	-0.101
-414.413	614.142	0.046	-0.115
-413.398	115.866	0.286	0.351
-412.384	-126.332	-0.154	-0.023
-411.369	611.286	0.141	0.354
-410.355	684.901	-0.126	-0.329
-409.340	800.000	-0.097	-0.402
-408.325	-54.906	-0.355	-0.160
-407.311	6.077	-0.138	-0.102
-406.296	-97.290	0.494	0.129
-405.282	-137.732	0.362	-0.041
-404.267	122.470	0.056	0.070
-403.252	-52.963	0.269	0.124
-402.238	-28.580	-0.210	0.121
-401.223	83.822	-0.107	-0.117
-400.209	-77.241	-0.208	0.072
-399.194	-28.715	0.165	0.095
-398.179	-38.194	-0.097	-0.051
-397.165	-200.000	0.039	0.237
-396.150	-200.000	-0.069	-0.387
-395.136	165.151	-0.089	-0.126
-394.121	41.326	-0.065	-0.059
-393.106	-200.000	0.058	-0.397
-392.092	55.563	0.112	-0.108
-391.077	-156.278	0.172	-0.011
-390.063	-200.000	-0.012	0.195
-389.048	800.000	0.043	-0.158
-388.033	800.000	0.118	0.348
-387.019	233.469	0.025	0.042
-386.004	800.000	0.103	0.298
-384.990	-100.110	0.219	-0.055
-383.975	-9.299	0.157	-0.105
-382.960	-53.691	0.124	0.057
-381.946	-200.000	-0.022	0.115
-380.931	111.900	0.082	0.099
-379.917	-67.864	-0.258	-0.101
-378.902	275.007	0.130	0.231
-377.888	49.403	0.181	0.170
-376.873	518.720	-0.101	-0.237
-375.858	7.246	0.140	-0.104
-374.844	93.656	0.029	0.033
-373.829	361.500	0.068	-0.137
-372.815	74.940	0.107	0.112
-371.800	4.676	0.204	0.150
-370.785	331.288	-0.060	0.117
-369.771	-116.583	-0.201	-0.037
-368.756	-121.886	0.166	-0.027
-367.742	50.229	-0.068	0.065
-366.727	-86.942	-0.333	-0.102
-365.712	-200.000	-0.001	0.036
-364.698	-200.000	-0.002	0.017
-363.683	79.333	0.084	0.090
-362.669	-200.000	-0.016	0.175
-361.654	-200.000	-0.014	0.178
-360.639	674.370	0.142	-0.368
-359.625	-31.291	0.119	0.067
-358.610	800.000	0.027	0.107
-357.596	65.020	-0.227	0.229
-356.581	175.438	0.271	0.393
-355.566	-200.000	0.070	0.313
-354.552	789.799	0.075	-0.207
-353.537	-165.538	0.282	-0.012
-352.523	17.096	0.122	0.097
-351.508	563.461	-0.173	0.418
-350.493	33.888	-0.078	0.068
-349.479	162.131	0.048	-0.067
-348.464	-200.000	-0.032	-0.156
-347.450	-127.272	-0.142	-0.021
-346.435	232.558	-0.131	0.216
-345.420	-113.153	0.022	-0.004
-344.406	52.975	0.239	0.229
-343.391	323.755	-0.101	0.192
-342.377	54.810	0.206	0.199
-341.362	252.707	0.067	-0.114
-340.348	800.000	0.031	-0.124
-339.333	-101.947	-0.160	0.038
-338.318	52.683	0.340	-0.324
-337.304	-78.872	0.274	-0.093
-336.289	323.189	-0.106	-0.202
-335.275	-200.000	0.004	0.212
-334.260	256.121	0.151	-0.260
-333.245	800.000	0.116	-0.335
-332.231	287.778	0.132	0.239
-331.216	258.149	-0.098	0.169
-330.202	17.477	0.110	0.087
-329.187	-180.293	-0.066	0.001
-328.172	196.087	0.167	-0.253
-327.158	238.821	0.086	0.143
-326.143	406.192	0.037	0.077
-325.129	800.000	0.040	-0.127
-324.114	41.588	0.344	-0.311
-323.099	-200.000	-0.031	-0.176
-322.085	-70.783	-0.190	0.072
-321.070	191.528	0.082	0.124
-320.056	-200.000	-0.008	0.428
-319.041	-200.000	0.040	0.329
-318.026	-118.454	-0.356	-0.063
-317.012	-132.743	0.619	-0.079
-315.997	-72.158	0.273	-0.101
-314.983	-49.486	0.260	0.124
-313.968	-27.878	-0.102	0.059
-312.953	-200.000	-0.030	0.134
-311.939	547.983	0.092	-0.220
-310.924	47.584	-0.213	-0.199
-309.910	145.397	-0.175	-0.234
-308.895	-31.203	0.110	0.062
-307.880	-200.000	0.086	0.434
-306.866	-36.123	0.298	-0.161
-305.851	-200.000	0.006	-0.080
-304.837	-98.311	-0.414	0.106
-303.822	152.681	0.099	-0.135
-302.807	800.000	-0.096	-0.334
-301.793	11.166	-0.056	0.043
-300.778	-162.397	0.314	-0.016
-299.764	487.913	-0.083	0.190
-298.749	128.843	-0.090	-0.114
-297.735	-86.623	-0.098	-0.030
-296.720	171.038	-0.094	0.135
-295.705	-181.210	-0.240	0.005
-294.691	-43.224	0.116	-0.059
-293.676	-52.126	0.052	-0.024
-292.662	-200.000	0.014	0.131
-291.647	-125.258	-0.214	0.033
-290.632	31.276	0.127	-0.109
-289.618	-24.194	-0.183	-0.109
-288.603	410.666	-0.049	0.104
-287.589	800.000	-0.052	-0.192
-286.574	-124.219	0.248	-0.039
-285.559	35.429	-0.307	-0.268
-284.545	36.163	-0.282	-0.248
-283.530	-119.086	-0.092	0.016
-282.516	800.000	0.050	0.171
-281.501	800.000	0.083	0.234
-280.486	-200.000	-0.051	-0.389
-279.472	425.849	-0.096	-0.207
-278.457	-62.689	-0.034	0.014
-277.443	800.000	-0.109	0.350
-276.428	-122.085	0.243	0.040
-275.413	502.599	0.044	-0.101
-274.399	173.350	-0.124	0.178
-273.384	-200.000	-0.035	-0.182
-272.370	800.000	0.045	0.132
-271.355	362.778	0.074	-0.149
-270.340	67.333	-0.342	-0.348
-269.326	535.292	-0.003	-0.008
-268.311	-200.000	0.016	0.275
-267.297	393.097	-0.122	0.252
-266.282	-97.329	-0.014	0.004
-265.267	593.557	-0.013	0.032
-264.253	-106.922	0.421	0.093
-263.238	-18.950	-0.130	0.081
-262.224	-200.000	-0.027	0.211
-261.209	73.346	-0.196	-0.204
-260.195	-200.000	0.026	-0.123
-259.180	-80.461	-0.089	-0.030
-258.165	213.285	-0.086	0.135
-257.151	187.062	-0.116	-0.173
-256.136	-193.295	-0.227	0.002
-255.122	660.901	-0.028	-0.072
-254.107	-136.537	0.108	-0.012
-253.092	-139.352	0.126	-0.014
-252.078	-24.352	0.319	0.189
-251.063	-200.000	0.043	-0.433
-250.049	504.597	0.042	0.096
-249.034	-200.000	0.001	0.031
-248.019	373.707	-0.041	-0.084
-247.005	-84.832	-0.135	-0.042
-245.990	-64.172	0.209	-0.085
-244.976	-4.056	-0.150	0.103
-243.961	51.725	-0.115	-0.109
-242.946	-200.000	0.026	0.143
-241.932	37.127	-0.180	-0.159
-240.917	-116.550	-0.177	-0.033
-239.903	-200.000	0.036	0.331
-238.888	-107.062	0.460	0.101
-237.873	195.399	-0.066	-0.100
-236.859	203.433	0.091	-0.140
-235.844	442.551	0.104	-0.226
-234.830	41.268	0.178	0.160
-233.815	114.166	-0.208	-0.252
-232.800	299.103	0.200	-0.367
-231.786	-131.224	0.214	-0.028
-230.771	-30.196	-0.059	-0.033
-229.757	-200.000	0.086	-0.393
-228.742	282.381	0.155	0.277
-227.727	31.544	-0.135	0.115
-226.713	800.000	0.048	-0.148
-225.698	-5.805	0.132	-0.090
-224.684	-117.723	-0.151	-0.027
-223.669	-5.124	0.242	-0.165
-222.655	-40.221	0.103	0.053
-221.640	201.625	0.121	0.186
-220.625	21.256	-0.272	-0.220
-219.611	-200.000	0.005	0.263
-218.596	-104.334	-0.164	-0.038
-217.582	-83.255	0.162	-0.052
-216.567	-80.393	-0.164	0.054
-215.552	-3.194	-0.120	0.083
-214.538	-150.544	0.109	-0.008
-213.523	800.000	0.038	0.158
-212.509	800.000	-0.045	0.142
-211.494	-200.000	0.001	-0.011
-210.479	-200.000	-0.003	0.227
-209.465	-200.000	0.017	0.170
-208.450	37.639	0.077	0.068
-207.436	1.054	-0.258	-0.184
-206.421	9.906	0.035	0.026
-205.406	224.975	-0.305	-0.490
-204.392	91.507	0.199	0.222
-203.377	56.719	-0.117	0.113
-202.363	219.979	-0.040	0.063
-201.348	-200.000	-0.027	0.148
-200.333	-200.000	-0.023	-0.383
-199.319	21.415	0.081	-0.065
-198.304	-200.000	-0.000	-0.253
-197.290	5.246	0.189	0.139
-196.275	-200.000	-0.022	0.122
-195.260	194.210	-0.070	0.106
-194.246	-101.795	-0.158	0.038
-193.231	244.974	-0.143	-0.239
-192.217	446.257	-0.020	-0.043
-191.202	-200.000	0.078	0.435
-190.187	-200.000	0.041	-0.218
-189.173	-200.000	0.007	-0.112
-188.158	99.842	0.325	-0.375
-187.144	-35.872	-0.196	-0.105
-186.129	-134.585	0.107	-0.013
-185.114	-107.788	0.366	-0.079
-184.100	-126.055	0.146	0.022
-183.085	-13.726	-0.282	-0.181
-182.071	50.383	0.093	0.087
-181.056	6.283	0.168	0.124
-180.042	214.734	0.036	0.056
-179.027	800.000	-0.037	0.132
-178.012	-200.000	0.060	0.478
-176.998	-32.442	0.065	-0.036
-175.983	-119.479	0.196	0.034
-174.969	730.673	-0.017	-0.046
-173.954	70.773	-0.075	0.077
-172.939	-181.094	-0.160	0.003
-171.925	-49.564	0.139	-0.066
-170.910	800.000	0.161	-0.447
-169.896	78.541	-0.171	-0.181
-168.881	-34.086	0.146	0.080
-167.866	-105.954	-0.101	-0.023
-166.852	44.921	0.162	0.148
-165.837	20.220	0.055	-0.044
-164.823	-17.768	0.137	0.085
-163.808	-127.396	-0.243	0.035
-162.793	-23.632	-0.070	0.042
-161.779	-179.315	-0.101	0.002
-160.764	32.158	0.205	0.176
-159.750	21.422	-0.209	-0.168
-158.735	53.546	0.152	0.144
-157.720	-112.826	0.069	0.014
-156.706	-200.000	-0.027	-0.206
-155.691	146.089	-0.053	-0.071
-154.677	27.597	0.389	0.325
-153.662	-46.508	-0.230	-0.112
-152.647	-87.803	-0.219	0.066
-151.633	111.251	0.216	0.258
-150.618	69.676	-0.118	0.120
-149.604	-200.000	0.038	-0.323
-148.589	800.000	-0.117	0.351
-147.574	3.041	0.090	0.065
-146.560	-92.268	0.375	0.105
-145.545	-9.249	-0.316	-0.209
-144.531	-20.050	0.125	0.076
-143.516	-113.474	0.135	-0.026
-142.502	-67.750	-0.229	0.089
-141.487	-187.337	0.411	-0.005
-140.472	213.138	0.181	-0.283
-139.458	188.487	0.076	-0.113
-138.443	186.208	-0.138	0.204
-137.429	419.665	-0.085	0.180
-136.414	-91.626	0.214	0.060
-135.399	-125.713	0.313	-0.047
-134.385	-15.204	-0.152	-0.096
-133.370	-165.818	0.278	-0.012
-132.356	-83.370	0.088	-0.028
-131.341	12.669	0.491	0.376
-130.326	-200.000	0.051	-0.235
-129.312	27.064	-0.337	0.280
-128.297	-61.485	-0.287	-0.119
-127.283	57.999	0.106	-0.103
-126.268	-62.484	-0.306	-0.126
-125.253	150.865	-0.202	-0.272
-124.239	-62.840	0.438	0.180
-123.224	-148.706	0.162	0.013
-122.210	-79.515	-0.253	0.085
-121.195	800.000	-0.095	0.287
