DTS Sentinel unit serial number:	SN413079Multiplexer serial number:	ORYXHardware model number:	OX4-SRSoftware version number:	ORYX F/W v4.00 Oryx Data Collector v3.7.2.0data status	okinstallation	princeton_trtdifferential loss correction	single-endedforward channel	channel 3reverse channel	N/Adate	2019/09/12time	20:40:35forward acquisition time	60.00reverse acquisition time	0.00gamma	496.2192k internal	0.2324k external	0.2324temperature offset calibration	1.0126default loss term (dB/km)	0.3790temperature slope calibration	1.0000multiplexer offset coefficient	1.0000multiplexer slope coefficient	1.0000fibre end	0.00T internal ref (°C)	31.12T ext. ref 1 (°C)	3.61T ext. ref 2 (°C)	25.66length (m)	temperature (°C)	Stokes	anti-Stokes-747.200	204.712	0.070	-0.109
-746.185	618.559	-0.116	0.295
-745.171	-200.000	0.032	0.165
-744.156	-32.562	-0.273	0.154
-743.142	800.000	-0.048	0.179
-742.127	-200.000	0.023	-0.176
-741.112	19.215	-0.091	-0.074
-740.098	399.679	0.142	0.301
-739.083	654.514	0.058	0.150
-738.069	148.375	0.084	-0.115
-737.054	142.115	0.158	-0.212
-736.039	80.689	-0.105	-0.114
-735.025	-108.536	-0.234	-0.051
-734.010	-6.432	-0.174	-0.120
-732.996	-76.115	-0.237	-0.085
-731.981	18.915	-0.165	-0.133
-730.966	-136.861	-0.582	-0.068
-729.952	-36.522	-0.261	-0.142
-728.937	800.000	-0.049	-0.149
-727.923	627.730	-0.051	0.129
-726.908	-200.000	0.002	-0.036
-725.894	-145.521	0.164	0.015
-724.879	-24.535	0.074	-0.045
-723.864	143.806	-0.230	0.310
-722.850	348.811	-0.039	-0.077
-721.835	167.130	-0.104	-0.149
-720.821	172.932	0.137	0.200
-719.806	66.521	0.134	0.137
-718.791	125.709	0.026	0.033
-717.777	-61.377	0.105	-0.045
-716.762	-81.632	-0.197	0.065
-715.748	67.967	0.263	0.271
-714.733	-104.953	-0.340	0.079
-713.718	62.906	0.144	0.145
-712.704	186.446	-0.076	0.114
-711.689	627.652	0.107	0.272
-710.675	800.000	-0.116	0.465
-709.660	-175.599	0.180	0.005
-708.645	-200.000	0.005	-0.226
-707.631	-31.476	-0.346	0.196
-706.616	-112.699	0.279	-0.056
-705.602	800.000	0.084	0.343
-704.587	-87.300	-0.133	0.041
-703.572	600.743	0.022	-0.055
-702.558	488.009	0.100	0.230
-701.543	-200.000	0.006	-0.313
-700.529	-82.940	0.255	-0.083
-699.514	269.936	-0.078	-0.139
-698.499	8.745	0.202	0.153
-697.485	147.051	0.201	-0.272
-696.470	-134.895	-0.218	-0.027
-695.456	-74.045	-0.160	-0.058
-694.441	-200.000	-0.012	-0.461
-693.426	-161.172	0.192	0.010
-692.412	-200.000	-0.011	0.258
-691.397	105.987	-0.152	0.181
-690.383	3.024	-0.180	-0.132
-689.368	-102.890	-0.218	0.052
-688.354	120.637	0.175	0.219
-687.339	-7.037	-0.115	-0.079
-686.324	236.135	0.096	-0.160
-685.310	-84.660	-0.156	0.049
-684.295	-88.992	-0.180	0.054
-683.281	-81.798	-0.171	0.057
-682.266	-164.506	-0.454	0.021
-681.251	261.245	0.206	0.359
-680.237	4.394	-0.123	0.090
-679.222	205.327	0.051	0.079
-678.208	-176.408	-0.160	0.004
-677.193	582.474	0.049	0.122
-676.178	800.000	-0.032	0.120
-675.164	33.081	0.141	0.123
-674.149	129.860	0.180	-0.232
-673.135	800.000	-0.098	-0.347
-672.120	-140.395	0.220	-0.023
-671.105	296.087	-0.134	-0.246
-670.091	-149.680	0.052	-0.004
-669.076	-60.452	-0.025	0.011
-668.062	83.926	0.180	-0.198
-667.047	-78.764	-0.314	-0.108
-666.032	-108.412	0.178	-0.039
-665.018	-129.177	0.220	-0.031
-664.003	-19.825	0.104	-0.065
-662.989	0.546	-0.282	0.203
-661.974	-46.253	0.227	0.113
-660.959	5.283	-0.299	0.222
-659.945	-200.000	0.012	0.100
-658.930	-26.553	-0.262	-0.155
-657.916	-143.863	0.131	-0.012
-656.901	20.610	-0.106	-0.086
-655.886	-110.980	0.124	0.026
-654.872	425.836	0.143	-0.311
-653.857	3.296	-0.131	0.096
-652.843	111.009	0.067	-0.081
-651.828	564.682	0.010	0.025
-650.814	271.505	0.077	0.137
-649.799	199.353	-0.042	0.065
-648.784	260.304	-0.062	0.108
-647.770	-141.563	0.031	0.003
-646.755	-121.209	-0.225	-0.038
-645.741	55.904	-0.169	0.165
-644.726	-100.476	-0.140	-0.035
-643.711	271.865	-0.109	0.192
-642.697	87.086	0.121	0.135
-641.682	670.007	-0.033	-0.085
-640.668	445.013	-0.096	-0.212
-639.653	800.000	0.121	-0.455
-638.638	-172.769	0.468	0.015
-637.624	38.118	-0.157	-0.140
-636.609	467.665	0.143	-0.323
-635.595	800.000	-0.066	-0.223
-634.580	97.866	0.140	0.161
-633.565	-58.516	0.214	-0.093
-632.551	1.311	-0.324	-0.234
-631.536	-80.088	0.090	-0.030
-630.522	-36.271	0.189	0.102
-629.507	202.691	0.173	-0.268
-628.492	296.556	0.070	-0.130
-627.478	-99.563	0.117	0.030
-626.463	-200.000	-0.034	-0.368
-625.449	341.968	0.113	0.221
-624.434	800.000	-0.165	0.624
-623.419	-200.000	0.034	-0.227
-622.405	800.000	0.066	0.248
-621.390	-89.646	-0.259	0.076
-620.376	187.904	0.087	0.131
-619.361	-149.037	-0.203	0.016
-618.346	0.040	-0.191	-0.136
-617.332	129.523	0.195	-0.250
-616.317	696.961	0.094	0.247
-615.303	-20.441	0.083	-0.051
-614.288	-200.000	0.013	0.108
-613.273	-161.701	-0.280	-0.014
-612.259	513.115	0.028	-0.066
-611.244	464.414	-0.074	0.165
-610.230	127.438	0.086	-0.109
-609.215	800.000	0.077	0.331
-608.201	-143.080	-0.228	-0.022
-607.186	-122.950	0.049	-0.008
-606.171	270.700	0.189	0.334
-605.157	727.987	0.114	-0.307
-604.142	91.113	0.160	-0.181
-603.128	194.424	-0.077	-0.118
-602.113	800.000	-0.037	0.134
-601.098	800.000	-0.045	0.185
-600.084	61.907	-0.141	0.141
-599.069	38.278	-0.173	-0.154
-598.055	800.000	-0.135	0.389
-597.040	290.640	0.097	0.178
-596.025	-200.000	-0.016	0.086
-595.011	389.870	0.110	0.228
-593.996	360.433	-0.178	-0.357
-592.982	-73.175	0.115	0.042
-591.967	316.194	-0.033	-0.063
-590.952	97.896	0.068	0.078
-589.938	-200.000	0.003	-0.083
-588.923	-200.000	-0.017	0.209
-587.909	99.316	-0.210	0.243
-586.894	-200.000	0.012	-0.097
-585.879	-175.112	-0.122	-0.003
-584.865	342.803	0.180	0.354
-583.850	800.000	-0.031	-0.094
-582.836	-114.518	-0.104	0.020
-581.821	554.504	-0.077	0.186
-580.806	26.547	-0.162	-0.136
-579.792	800.000	-0.111	-0.350
-578.777	270.324	-0.125	-0.220
-577.763	246.426	-0.064	-0.109
-576.748	-55.301	-0.179	-0.081
-575.733	-200.000	-0.028	0.189
-574.719	116.940	-0.230	-0.283
-573.704	-130.089	-0.227	-0.031
-572.690	246.386	-0.104	-0.176
-571.675	785.183	0.063	-0.172
-570.661	-200.000	-0.343	0.000
-569.646	-44.655	-0.129	0.065
-568.631	-31.971	0.132	-0.074
-567.617	245.743	0.151	-0.254
-566.602	-115.635	-0.237	0.045
-565.588	271.369	0.082	0.145
-564.573	-97.938	-0.289	0.075
-563.558	139.360	0.219	-0.288
-562.544	-58.394	0.199	0.087
-561.529	800.000	-0.118	-0.406
-560.515	-119.120	0.409	-0.072
-559.500	-193.481	0.224	0.002
-558.485	180.718	0.203	-0.299
-557.471	-200.000	0.014	0.237
-556.456	-118.198	-0.275	0.049
-555.442	-68.709	-0.067	-0.026
-554.427	-200.000	0.001	-0.102
-553.412	-97.296	0.348	-0.091
-552.398	-70.410	-0.112	-0.043
-551.383	-83.687	-0.102	0.033
-550.369	37.839	-0.097	-0.086
-549.354	17.742	0.089	-0.071
-548.339	770.644	-0.075	-0.204
-547.325	800.000	0.097	-0.367
-546.310	-26.061	-0.259	-0.152
-545.296	-19.429	-0.170	-0.105
-544.281	101.771	0.062	-0.072
-543.266	-200.000	-0.018	-0.142
-542.252	-200.000	-0.014	-0.067
-541.237	-200.000	0.005	-0.038
-540.223	229.227	-0.221	0.360
-539.208	103.249	-0.102	-0.119
-538.193	800.000	0.078	-0.284
-537.179	-61.318	0.213	-0.090
-536.164	-200.000	-0.002	-0.288
-535.150	-87.436	-0.116	0.035
-534.135	141.225	-0.105	-0.139
-533.121	141.330	-0.149	0.198
-532.106	-26.019	0.174	-0.103
-531.091	46.666	-0.149	0.139
-530.077	-166.042	0.177	-0.008
-529.062	757.012	-0.081	0.221
-528.048	55.166	-0.050	0.049
-527.033	-200.000	0.009	0.266
-526.018	219.805	0.036	0.058
-525.004	7.587	0.105	0.078
-523.989	46.978	0.047	-0.044
-522.975	800.000	0.092	-0.273
-521.960	800.000	-0.023	0.071
-520.945	261.054	0.080	0.139
-519.931	19.024	-0.092	0.074
-518.916	-128.391	-0.245	-0.035
-517.902	-70.227	0.273	0.104
-516.887	-154.858	-0.204	-0.013
-515.872	727.856	0.065	0.174
-514.858	8.757	-0.109	0.082
-513.843	-72.432	-0.056	-0.021
-512.829	-17.344	-0.170	-0.107
-511.814	247.449	-0.148	0.251
-510.799	687.511	-0.046	-0.120
-509.785	800.000	0.010	-0.037
-508.770	-200.000	0.005	0.239
-507.756	-113.102	0.222	-0.044
-506.741	327.137	0.107	-0.205
-505.726	-36.635	0.033	-0.018
-504.712	-171.632	0.445	-0.015
-503.697	-92.296	0.288	-0.081
-502.683	223.678	-0.211	-0.340
-501.668	-18.770	-0.140	0.087
-500.653	-61.154	0.175	-0.074
-499.639	120.252	-0.203	-0.252
-498.624	58.663	0.158	0.155
-497.610	309.776	-0.120	-0.224
-496.595	42.278	-0.102	0.093
-495.581	240.051	-0.128	0.213
-494.566	41.614	-0.168	0.152
-493.551	21.772	-0.256	-0.209
-492.537	-40.549	0.173	-0.090
-491.522	37.352	0.069	-0.061
-490.508	229.219	0.141	0.231
-489.493	14.308	-0.125	-0.097
-488.478	35.593	-0.111	0.098
-487.464	-200.000	-0.044	0.218
-486.449	-200.000	-0.043	0.299
-485.435	156.982	0.099	0.137
-484.420	470.120	-0.089	-0.200
-483.405	-200.000	0.010	0.101
-482.391	16.684	-0.225	0.178
-481.376	69.505	-0.324	0.333
-480.362	800.000	-0.068	-0.266
-479.347	-99.604	0.059	-0.015
-478.332	-37.765	0.135	-0.072
-477.318	-183.386	-0.181	0.003
-476.303	-141.723	-0.103	-0.010
-475.289	800.000	-0.064	0.216
-474.274	96.656	0.058	0.066
-473.259	-143.034	0.165	0.016
-472.245	-200.000	0.053	-0.388
-471.230	-200.000	-0.032	-0.516
-470.216	800.000	-0.096	-0.291
-469.201	-86.872	0.394	-0.120
-468.186	800.000	0.050	-0.204
-467.172	53.821	0.145	0.139
-466.157	-92.868	-0.325	-0.091
-465.143	-35.416	0.255	-0.139
-464.128	-4.313	0.279	-0.193
-463.113	-200.000	0.013	0.229
-462.099	738.714	0.063	0.168
-461.084	12.461	0.134	-0.103
-460.070	75.416	0.080	0.084
-459.055	370.326	0.100	0.203
-458.040	-35.743	-0.117	0.063
-457.026	-86.232	0.072	0.022
-456.011	303.827	-0.041	-0.075
-454.997	-5.073	0.219	0.150
-453.982	-82.472	0.064	0.021
-452.968	-50.513	-0.231	0.109
-451.953	215.481	0.045	0.071
-450.938	34.313	-0.154	0.134
-449.924	-200.000	0.017	-0.218
-448.909	92.622	-0.067	-0.075
-447.895	-73.738	-0.258	0.094
-446.880	-200.000	-0.004	-0.060
-445.865	-47.190	-0.210	0.102
-444.851	-69.154	0.193	0.074
-443.836	73.994	-0.121	0.127
-442.822	-200.000	-0.013	0.252
-441.807	-31.531	-0.140	-0.078
-440.792	-167.992	-0.163	-0.006
-439.778	-200.000	-0.013	-0.202
-438.763	800.000	0.003	0.007
-437.749	34.259	0.243	0.212
-436.734	74.829	0.126	0.132
-435.719	-200.000	-0.009	-0.167
-434.705	-118.768	0.028	-0.005
-433.690	-98.243	-0.243	-0.062
-432.676	-200.000	-0.013	0.235
-431.661	79.890	0.095	0.102
-430.646	-33.175	0.241	0.133
-429.632	235.802	0.018	0.029
-428.617	14.822	-0.150	0.117
-427.603	800.000	-0.026	-0.109
-426.588	-200.000	0.053	0.276
-425.573	8.907	0.100	0.075
-424.559	-144.831	0.264	0.024
-423.544	-154.777	-0.328	-0.022
-422.530	-78.975	0.218	0.074
-421.515	154.145	0.234	0.320
-420.500	752.667	-0.174	0.467
-419.486	800.000	0.102	0.396
-418.471	106.338	-0.007	0.008
-417.457	-136.281	0.119	0.014
-416.442	-200.000	-0.037	-0.312
-415.428	199.881	-0.056	-0.086
-414.413	-119.988	-0.241	-0.041
-413.398	172.059	-0.100	-0.143
-412.384	-69.689	-0.374	-0.142
-411.369	383.759	0.048	0.099
-410.355	-18.934	0.065	-0.040
-409.340	-59.185	-0.155	0.067
-408.325	79.942	-0.245	0.263
-407.311	-200.000	0.040	0.184
-406.296	523.181	0.122	0.286
-405.282	-145.176	-0.118	-0.011
-404.267	-200.000	-0.004	-0.125
-403.252	-82.523	0.068	0.022
-402.238	10.825	-0.106	-0.080
-401.223	-157.558	0.130	0.008
-400.209	-200.000	0.130	0.000
-399.194	-99.409	0.102	-0.026
-398.179	181.768	0.204	0.299
-397.165	92.834	-0.094	0.106
-396.150	-200.000	0.060	0.283
-395.136	103.231	-0.053	0.062
-394.121	-125.473	-0.321	0.049
-393.106	-77.446	0.075	-0.026
-392.092	73.162	0.087	-0.090
-391.077	-105.480	-0.200	0.045
-390.063	-79.728	-0.173	-0.058
-389.048	-61.103	0.149	0.063
-388.033	-7.748	-0.060	-0.040
-387.019	800.000	0.009	-0.032
-386.004	502.961	-0.091	-0.210
-384.990	-200.000	0.059	-0.262
-383.975	69.554	0.118	-0.121
-382.960	-74.154	-0.094	-0.034
-381.946	277.256	0.077	0.136
-380.931	800.000	0.062	-0.237
-379.917	-28.186	0.114	-0.066
-378.902	-64.354	-0.048	-0.019
-377.888	-12.987	-0.149	0.096
-376.873	33.196	0.112	-0.097
-375.858	124.300	-0.169	0.211
-374.844	4.102	0.217	0.158
-373.829	86.907	-0.258	0.284
-372.815	-130.501	-0.226	0.030
-371.800	800.000	0.065	-0.219
-370.785	-93.604	0.399	-0.110
-369.771	379.249	-0.182	0.371
-368.756	-84.450	0.212	-0.067
-367.742	-200.000	-0.053	-0.317
-366.727	-7.726	-0.061	0.041
-365.712	-24.613	0.046	0.027
-364.698	37.771	-0.158	0.139
-363.683	455.419	-0.120	-0.264
-362.669	-149.290	-0.153	-0.012
-361.654	-105.571	-0.046	0.010
-360.639	102.301	-0.099	-0.115
-359.625	57.369	-0.293	-0.285
-358.610	49.455	0.158	0.147
-357.596	-149.515	0.074	0.006
-356.581	-200.000	-0.049	-0.282
-355.566	-150.136	-0.279	0.022
-354.552	-182.021	0.040	0.001
-353.537	-133.364	0.199	-0.025
-352.523	-23.649	0.116	-0.069
-351.508	23.782	-0.035	-0.028
-350.493	-95.426	0.126	-0.034
-349.479	19.654	0.459	-0.367
-348.464	-108.483	0.292	0.063
-347.450	13.370	0.272	0.209
-346.435	184.616	-0.221	0.326
-345.420	-29.502	0.161	-0.091
-344.406	404.601	0.080	-0.167
-343.391	233.421	-0.288	0.472
-342.377	-200.000	-0.008	0.120
-341.362	14.150	-0.153	-0.119
-340.348	150.801	-0.175	-0.236
-339.333	-28.673	-0.150	-0.086
-338.318	-18.692	0.087	-0.054
-337.304	-89.722	0.142	0.041
-336.289	-139.030	-0.222	-0.024
-335.275	800.000	-0.084	-0.300
-334.260	800.000	-0.052	-0.183
-333.245	-200.000	0.001	-0.028
-332.231	-115.274	-0.359	-0.067
-331.216	415.287	0.045	-0.095
-330.202	-200.000	0.029	0.371
-329.187	-32.745	0.298	0.165
-328.172	236.283	0.026	-0.042
-327.158	108.065	0.333	0.394
-326.143	198.230	-0.069	-0.105
-325.129	800.000	-0.059	-0.182
-324.114	-55.563	0.303	0.135
-323.099	-200.000	0.002	-0.133
-322.085	-185.533	-0.276	0.004
-321.070	3.000	-0.089	-0.064
-320.056	800.000	0.081	-0.277
-319.041	-88.699	-0.108	-0.032
-318.026	314.799	-0.099	0.186
-317.012	239.871	0.142	0.235
-315.997	-200.000	0.014	-0.158
-314.983	-155.576	0.278	-0.018
-313.968	157.089	0.230	0.316
-312.953	193.432	0.137	0.206
-311.939	258.632	-0.002	-0.003
-310.924	305.685	-0.134	0.247
-309.910	-119.779	0.169	-0.029
-308.895	-168.243	0.345	0.013
-307.880	312.579	-0.213	-0.398
-306.866	293.175	0.110	-0.198
-305.851	11.069	-0.447	0.339
-304.837	-42.550	-0.204	0.103
-303.822	-26.838	-0.071	0.041
-302.807	-91.554	0.110	-0.031
-301.793	765.595	0.021	0.057
-300.778	-200.000	-0.032	-0.158
-299.764	-108.518	-0.463	-0.099
-298.749	199.425	0.064	-0.097
-297.735	616.373	0.070	-0.175
-296.720	-40.967	-0.135	-0.069
-295.705	-181.321	0.236	0.005
-294.691	800.000	-0.105	-0.309
-293.676	78.584	0.384	0.407
-292.662	-124.391	0.165	-0.026
-291.647	-134.057	-0.287	0.035
-290.632	155.317	0.085	-0.116
-289.618	-64.950	-0.035	-0.014
-288.603	800.000	-0.112	0.324
-287.589	-200.000	-0.060	0.439
-286.574	800.000	-0.038	0.129
-285.559	800.000	-0.122	-0.383
-284.545	-200.000	-0.011	-0.080
-283.530	128.094	-0.113	-0.143
-282.516	40.647	-0.253	0.226
-281.501	335.925	0.148	0.284
-280.486	190.201	0.105	0.156
-279.472	161.318	-0.065	-0.090
-278.457	-47.951	-0.046	-0.022
-277.443	-61.742	-0.145	-0.060
-276.428	-200.000	0.002	0.578
-275.413	800.000	0.033	0.142
-274.399	-143.168	0.496	0.047
-273.384	-200.000	-0.318	0.001
-272.370	42.085	-0.083	-0.075
-271.355	-171.498	0.221	-0.007
-270.340	-200.000	-0.003	-0.111
-269.326	-200.000	0.061	-0.421
-268.311	-152.662	0.155	-0.011
-267.297	-90.409	0.332	-0.095
-266.282	-200.000	0.014	-0.179
-265.267	171.398	-0.137	0.195
-264.253	-96.973	-0.056	0.015
-263.238	-143.884	-0.054	0.005
-262.224	-116.161	-0.171	0.032
-261.209	-200.000	-0.012	0.142
-260.195	-29.786	0.215	-0.121
-259.180	422.895	0.045	0.096
-258.165	-200.000	-0.021	0.115
-257.151	128.945	0.269	-0.340
-256.136	-170.530	0.141	-0.005
-255.122	-200.000	0.010	-0.053
-254.107	-114.748	-0.182	0.034
-253.092	-141.061	0.517	0.052
-252.078	-81.149	0.143	-0.047
-251.063	12.856	-0.039	-0.030
-250.049	-112.030	-0.167	-0.033
-249.034	800.000	0.051	-0.217
-248.019	51.510	0.087	0.082
-247.005	-119.339	-0.096	0.016
-245.990	-200.000	0.031	-0.313
-244.976	161.055	0.157	-0.217
-243.961	71.304	0.142	-0.146
-242.946	260.915	0.102	-0.174
-241.932	235.934	0.027	-0.045
-240.917	800.000	-0.086	0.250
-239.903	800.000	-0.016	-0.062
-238.888	800.000	0.110	0.315
-237.873	800.000	0.085	0.289
-236.859	51.966	-0.103	-0.097
-235.844	-70.525	0.315	-0.118
-234.830	-200.000	0.047	-0.366
-233.815	47.102	0.172	0.158
-232.800	-200.000	-0.013	0.134
-231.786	-158.293	0.023	-0.001
-230.771	-22.554	0.280	0.168
-229.757	-176.411	0.105	0.003
-228.742	-200.000	0.016	-0.149
-227.727	159.841	0.034	0.046
-226.713	-200.000	0.021	0.299
-225.698	294.764	-0.059	0.107
-224.684	-200.000	0.005	0.161
-223.669	39.617	-0.140	0.125
-222.655	-164.558	-0.231	-0.010
-221.640	-131.630	0.183	0.024
-220.625	-200.000	0.010	0.282
-219.611	312.400	0.161	0.300
-218.596	516.876	-0.133	0.307
-217.582	800.000	0.025	0.099
-216.567	107.295	-0.048	-0.057
-215.552	-95.982	-0.357	0.094
-214.538	-52.604	-0.247	-0.113
-213.523	-194.211	0.217	-0.002
-212.509	55.291	-0.146	-0.139
-211.494	-78.919	-0.185	0.062
-210.479	-166.989	0.191	-0.008
-209.465	-64.952	-0.155	-0.062
-208.450	112.173	-0.037	-0.045
-207.436	567.518	0.017	-0.040
-206.421	-39.649	0.179	-0.093
-205.406	-106.056	-0.124	0.027
-204.392	26.802	-0.209	0.173
-203.377	800.000	-0.036	0.129
-202.363	-78.574	0.095	0.032
-201.348	-80.932	0.316	-0.103
-200.333	346.842	0.158	-0.307
-199.319	587.828	0.075	-0.183
-198.304	-110.997	-0.135	0.027
-197.290	-200.000	0.029	-0.183
-196.275	-111.421	0.137	0.028
-195.260	100.881	-0.277	-0.318
-194.246	-29.668	-0.126	0.071
-193.231	315.698	-0.036	-0.066
-192.217	800.000	0.093	0.287
-191.202	-41.883	0.159	-0.081
-190.187	62.620	0.155	0.153
-189.173	-47.455	0.215	-0.103
-188.158	800.000	-0.058	0.180
-187.144	-39.632	-0.084	0.044
-186.129	182.172	0.166	-0.241
-185.114	7.782	0.057	0.042
-184.100	-185.360	0.156	-0.002
-183.085	800.000	-0.084	-0.253
-182.071	493.691	-0.044	-0.099
-181.056	800.000	-0.058	-0.189
-180.042	-95.480	0.259	-0.069
-179.027	22.293	-0.205	-0.165
-178.012	-200.000	0.003	-0.046
-176.998	34.052	-0.222	0.191
-175.983	13.918	0.193	-0.149
-174.969	-154.228	0.201	0.013
-173.954	199.096	0.113	-0.172
-172.939	-10.283	0.445	-0.292
-171.925	-191.051	0.160	0.002
-170.910	181.110	-0.237	0.344
-169.896	552.589	-0.057	0.134
-168.881	-105.742	-0.193	0.043
-167.866	-200.000	-0.063	0.337
-166.852	-200.000	0.014	-0.319
-165.837	-124.649	0.086	0.013
-164.823	-20.801	-0.048	-0.029
-163.808	-199.838	0.207	-0.001
-162.793	800.000	-0.020	-0.081
-161.779	-120.509	0.187	0.031
-160.764	-95.898	0.310	0.082
-159.750	663.452	-0.141	0.359
-158.735	-146.983	-0.372	0.032
-157.720	-52.115	-0.079	0.036
-156.706	338.204	0.178	-0.341
-155.691	653.916	0.034	0.086
-154.677	-95.338	-0.180	-0.048
-153.662	-43.088	-0.059	-0.030
-152.647	-200.000	-0.061	0.264
-151.633	-200.000	-0.023	-0.279
-150.618	10.525	0.252	-0.189
-149.604	-95.368	0.236	0.063
-148.589	-121.298	-0.341	-0.056
-147.574	150.674	-0.117	0.156
-146.560	800.000	0.036	0.154
-145.545	-138.974	0.094	0.010
-144.531	-138.625	0.272	-0.029
-143.516	220.941	0.046	-0.073
-142.502	-116.878	0.428	0.077
-141.487	800.000	0.029	0.122
-140.472	1.449	0.195	0.138
-139.458	-170.139	-0.229	-0.008
-138.443	-200.000	-0.018	0.160
-137.429	-100.136	-0.286	0.070
-136.414	800.000	0.041	-0.120
-135.399	319.541	-0.020	0.037
-134.385	-79.250	0.330	-0.110
-133.370	-200.000	-0.064	-0.321
-132.356	-135.601	-0.239	-0.028
-131.341	144.192	0.133	-0.175
-130.326	800.000	0.023	-0.083
-129.312	229.990	-0.084	0.135
-128.297	800.000	-0.030	0.119
-127.283	231.064	0.105	-0.170
-126.268	-96.373	0.370	0.097
-125.253	-36.245	-0.162	-0.086
-124.239	123.305	0.155	-0.191
-123.224	177.904	-0.236	0.339
-122.210	-94.810	0.468	-0.125
-121.195	221.771	-0.072	0.114
