DTS Sentinel unit serial number:	SN413079Multiplexer serial number:	ORYXHardware model number:	OX4-SRSoftware version number:	ORYX F/W v4.00 Oryx Data Collector v3.7.2.0data status	okinstallation	princeton_trtdifferential loss correction	single-endedforward channel	channel 3reverse channel	N/Adate	2019/09/17time	19:20:34forward acquisition time	60.00reverse acquisition time	0.00gamma	496.2192k internal	0.2303k external	0.2303temperature offset calibration	0.9951default loss term (dB/km)	0.3790temperature slope calibration	1.0000multiplexer offset coefficient	1.0000multiplexer slope coefficient	1.0000fibre end	0.00T internal ref (°C)	37.95T ext. ref 1 (°C)	0.26T ext. ref 2 (°C)	26.20length (m)	temperature (°C)	Stokes	anti-Stokes-747.200	667.275	-0.103	-0.272
-746.185	-63.659	0.063	-0.026
-745.171	640.059	-0.111	0.286
-744.156	800.000	-0.067	0.201
-743.142	-71.204	-0.137	-0.053
-742.127	-200.000	0.005	0.293
-741.112	-118.153	0.216	-0.039
-740.098	-79.492	-0.235	0.081
-739.083	800.000	-0.017	0.061
-738.069	54.189	-0.273	0.268
-737.054	-125.411	0.113	0.018
-736.039	96.942	-0.145	-0.169
-735.025	800.000	0.134	0.427
-734.010	542.774	0.036	-0.086
-732.996	-138.804	-0.204	0.023
-731.981	54.001	0.208	0.204
-730.966	708.910	-0.058	-0.156
-729.952	706.312	-0.070	-0.187
-728.937	99.758	-0.323	0.381
-727.923	-154.169	-0.191	0.013
-726.908	-54.335	0.255	0.118
-725.894	399.507	0.151	-0.323
-724.879	60.699	-0.153	0.154
-723.864	-200.000	0.008	-0.114
-722.850	107.650	0.110	0.133
-721.835	-16.977	-0.050	-0.032
-720.821	26.315	0.057	0.048
-719.806	266.075	-0.120	-0.212
-718.791	-200.000	-0.112	0.000
-717.777	800.000	-0.045	-0.189
-716.762	534.332	0.127	-0.307
-715.748	-118.766	-0.268	0.048
-714.733	-142.888	-0.068	-0.007
-713.718	800.000	-0.037	0.129
-712.704	-200.000	0.065	0.340
-711.689	76.026	0.244	0.262
-710.675	130.664	-0.064	-0.083
-709.660	35.213	0.139	0.124
-708.645	-200.000	-0.045	-0.249
-707.631	2.614	0.046	-0.034
-706.616	559.682	-0.082	0.201
-705.602	-12.146	0.254	0.169
-704.587	776.114	0.069	-0.193
-703.572	-200.000	0.024	-0.312
-702.558	-200.000	0.036	-0.493
-701.543	385.235	0.057	-0.121
-700.529	88.418	0.056	0.063
-699.514	100.941	0.178	-0.210
-698.499	800.000	-0.106	0.350
-697.485	-200.000	0.001	-0.049
-696.470	-8.193	-0.113	0.077
-695.456	614.586	0.078	-0.199
-694.441	367.437	-0.130	-0.266
-693.426	28.654	0.261	-0.224
-692.412	-76.668	-0.363	-0.129
-691.397	-110.453	0.090	0.019
-690.383	-133.491	-0.397	-0.051
-689.368	-109.157	0.318	0.069
-688.354	-200.000	0.005	-0.184
-687.339	800.000	0.024	0.098
-686.324	355.203	0.053	-0.108
-685.310	-200.000	0.048	0.247
-684.295	-98.354	-0.338	-0.088
-683.281	-72.746	0.324	0.121
-682.266	-200.000	-0.057	0.367
-681.251	800.000	-0.049	-0.161
-680.237	-22.367	-0.127	-0.078
-679.222	58.413	-0.107	-0.107
-678.208	140.342	-0.071	-0.095
-677.193	-87.340	0.210	0.065
-676.178	800.000	-0.112	0.432
-675.164	-157.787	-0.284	-0.017
-674.149	-200.000	-0.026	-0.115
-673.135	-3.546	-0.257	0.181
-672.120	-24.866	-0.308	0.186
-671.105	54.248	-0.168	-0.164
-670.091	124.476	0.081	-0.104
-669.076	46.019	0.071	0.067
-668.062	-101.138	0.132	-0.033
-667.047	-76.253	0.122	-0.044
-666.032	-40.598	-0.125	0.066
-665.018	-130.356	-0.240	0.033
-664.003	219.923	-0.162	0.263
-662.989	-200.000	-0.021	-0.278
-661.974	39.878	-0.132	-0.121
-660.959	-85.097	-0.399	-0.127
-659.945	-200.000	0.010	-0.223
-658.930	-51.914	-0.321	0.151
-657.916	-36.448	0.085	0.047
-656.901	-129.991	-0.172	0.024
-655.886	-121.728	-0.080	0.013
-654.872	-148.642	0.270	-0.022
-653.857	-200.000	0.007	0.300
-652.843	-18.237	0.236	0.150
-651.828	-200.000	0.060	0.352
-650.814	-28.078	-0.236	0.138
-649.799	-200.000	-0.038	0.183
-648.784	132.768	-0.153	0.200
-647.770	800.000	0.011	-0.044
-646.755	543.204	-0.174	0.421
-645.741	59.237	0.188	-0.188
-644.726	120.686	0.168	-0.211
-643.711	-121.557	-0.070	0.012
-642.697	241.416	-0.049	-0.082
-641.682	59.507	-0.123	-0.123
-640.668	622.429	0.113	0.289
-639.653	515.733	0.078	-0.184
-638.638	317.651	0.140	-0.269
-637.624	154.990	-0.005	-0.007
-636.609	-200.000	-0.035	-0.191
-635.595	-200.000	0.018	-0.175
-634.580	165.350	-0.088	-0.126
-633.565	-79.223	-0.215	-0.074
-632.551	800.000	0.145	0.540
-631.536	196.483	-0.166	-0.257
-630.522	340.321	0.106	0.209
-629.507	49.885	-0.163	0.155
-628.492	75.311	0.162	-0.173
-627.478	800.000	0.061	-0.181
-626.463	2.677	-0.114	-0.084
-625.449	-177.997	-0.135	-0.003
-624.434	98.995	0.120	0.141
-623.419	-7.866	0.139	0.095
-622.405	-79.883	-0.148	0.051
-621.390	8.222	-0.289	-0.220
-620.376	800.000	-0.067	0.281
-619.361	6.825	-0.056	0.042
-618.346	-200.000	0.005	-0.558
-617.332	62.813	0.083	0.084
-616.317	72.500	-0.389	0.411
-615.303	486.030	-0.047	-0.108
-614.288	-200.000	-0.010	0.063
-613.273	627.859	0.020	-0.052
-612.259	198.027	0.149	0.231
-611.244	-6.212	0.052	0.036
-610.230	-54.091	-0.245	0.113
-609.215	421.430	-0.202	0.440
-608.201	315.888	-0.231	-0.442
-607.186	-200.000	0.026	-0.232
-606.171	-200.000	-0.017	0.084
-605.157	800.000	0.048	-0.192
-604.142	405.487	-0.030	0.064
-603.128	-81.778	0.225	-0.075
-602.113	199.333	0.063	-0.097
-601.098	-97.132	0.205	0.054
-600.084	41.972	0.249	0.228
-599.069	-200.000	-0.001	-0.086
-598.055	-119.946	-0.207	-0.036
-597.040	-12.595	-0.217	0.144
-596.025	-33.147	0.267	0.150
-595.011	-200.000	-0.039	-0.249
-593.996	-149.925	-0.419	-0.033
-592.982	-200.000	0.014	-0.312
-591.967	-184.829	-0.344	-0.006
-590.952	-120.888	-0.161	0.027
-589.938	-37.347	-0.114	-0.062
-588.923	800.000	0.122	0.377
-587.909	5.120	-0.104	0.078
-586.894	-99.545	-0.276	-0.070
-585.879	-80.810	-0.149	0.050
-584.865	-130.088	-0.135	-0.019
-583.850	800.000	0.056	-0.234
-582.836	451.270	0.109	-0.245
-581.821	-200.000	0.026	0.115
-580.806	-9.936	-0.063	-0.043
-579.792	-93.611	0.428	-0.120
-578.777	-89.453	-0.045	-0.014
-577.763	-200.000	0.000	-0.140
-576.748	-52.849	-0.228	-0.106
-575.733	-40.070	0.184	-0.097
-574.719	-158.395	0.247	0.015
-573.704	-103.447	-0.477	-0.114
-572.690	-200.000	-0.019	-0.091
-571.675	664.404	0.060	-0.156
-570.661	373.117	-0.040	-0.082
-569.646	-27.958	-0.263	0.154
-568.631	-0.259	0.157	-0.113
-567.617	43.309	-0.202	-0.186
-566.602	16.987	0.056	-0.045
-565.588	-200.000	0.015	-0.118
-564.573	-46.509	0.381	-0.189
-563.558	78.268	-0.087	-0.094
-562.544	-200.000	-0.016	-0.073
-561.529	5.636	-0.087	0.065
-560.515	44.603	0.167	-0.155
-559.500	-103.320	0.092	0.022
-558.485	-151.167	-0.139	-0.011
-557.471	-200.000	0.017	0.213
-556.456	74.133	-0.070	0.074
-555.442	-113.324	-0.091	-0.018
-554.427	-183.071	-0.140	0.003
-553.412	-153.529	-0.165	0.012
-552.398	-113.878	0.362	-0.071
-551.383	-98.510	0.105	-0.027
-550.369	-200.000	-0.030	-0.300
-549.354	90.254	0.112	-0.127
-548.339	-200.000	0.044	-0.272
-547.325	-100.028	-0.154	-0.039
-546.310	22.832	0.066	-0.054
-545.296	14.823	0.110	0.087
-544.281	24.444	0.443	0.370
-543.266	-66.259	-0.457	0.184
-542.252	365.217	-0.102	0.207
-541.237	-200.000	-0.022	0.386
-540.223	174.326	-0.187	0.273
-539.208	7.325	0.146	0.110
-538.193	73.949	0.309	-0.328
-537.179	-200.000	0.018	-0.159
-536.164	-200.000	0.003	0.199
-535.150	-200.000	-0.040	0.313
-534.135	-29.528	-0.110	0.064
-533.121	-20.643	0.116	-0.072
-532.106	-48.078	-0.194	0.095
-531.091	-200.000	-0.072	-0.331
-530.077	28.513	0.184	-0.158
-529.062	-200.000	-0.037	-0.226
-528.048	729.751	0.134	0.362
-527.033	-86.939	0.527	-0.163
-526.018	-36.392	-0.101	-0.055
-525.004	553.683	-0.058	-0.140
-523.989	756.296	-0.074	0.203
-522.975	-118.523	0.266	0.048
-521.960	-58.726	-0.421	-0.184
-520.945	-156.471	0.288	-0.018
-519.931	-200.000	-0.005	0.036
-518.916	-140.631	0.169	-0.018
-517.902	-200.000	-0.002	-0.194
-516.887	-76.723	-0.290	0.102
-515.872	-54.016	0.191	0.088
-514.858	800.000	0.094	0.322
-513.843	326.918	0.139	0.269
-512.829	800.000	-0.037	0.113
-511.814	76.528	-0.199	-0.213
-510.799	-164.968	0.098	0.004
-509.785	-93.819	0.207	-0.058
-508.770	800.000	0.051	-0.194
-507.756	289.268	0.080	0.146
-506.741	-185.510	-0.171	0.003
-505.726	-200.000	0.016	0.167
-504.712	503.873	0.162	0.378
-503.697	-163.890	-0.183	-0.009
-502.683	117.788	0.072	-0.090
-501.668	175.169	-0.334	-0.488
-500.653	13.595	0.039	-0.031
-499.639	-62.942	0.148	0.062
-498.624	203.158	-0.105	0.164
-497.610	116.194	0.101	-0.124
-496.595	-128.315	0.142	-0.020
-495.581	7.840	0.159	0.120
-494.566	594.975	0.036	-0.091
-493.551	-42.181	0.189	0.097
-492.537	-200.000	0.030	0.267
-491.522	-47.401	0.056	-0.027
-490.508	-66.441	0.211	-0.085
-489.493	36.843	-0.160	0.143
-488.478	147.670	-0.076	-0.103
-487.464	-200.000	-0.001	0.279
-486.449	-56.629	-0.188	-0.084
-485.435	77.553	-0.210	0.226
-484.420	-39.129	0.072	0.038
-483.405	-200.000	0.012	0.320
-482.391	33.519	-0.369	-0.323
-481.376	-200.000	0.019	0.094
-480.362	14.278	0.272	-0.214
-479.347	224.859	-0.072	-0.118
-478.332	-67.058	-0.047	-0.019
-477.318	-44.040	-0.174	0.088
-476.303	-200.000	-0.035	-0.497
-475.289	-52.593	0.129	-0.060
-474.274	-200.000	0.059	-0.635
-473.259	-142.538	-0.228	0.023
-472.245	-21.594	-0.353	0.217
-471.230	178.902	0.207	0.305
-470.216	53.897	0.224	0.217
-469.201	800.000	0.068	-0.201
-468.186	48.026	0.134	0.127
-467.172	-54.682	0.082	0.037
-466.157	-97.866	0.194	-0.050
-465.143	800.000	-0.028	0.096
-464.128	25.739	-0.130	0.109
-463.113	53.277	0.099	-0.095
-462.099	-86.092	-0.197	-0.061
-461.084	407.439	0.093	0.197
-460.070	472.395	-0.121	0.275
-459.055	-7.748	-0.358	0.244
-458.040	-126.081	0.216	0.033
-457.026	618.379	0.051	0.129
-456.011	-200.000	-0.032	-0.269
-454.997	-98.997	0.062	-0.016
-453.982	115.207	0.228	-0.280
-452.968	-7.426	0.201	0.137
-451.953	-50.757	0.128	0.060
-450.938	-141.361	-0.126	0.013
-449.924	-200.000	-0.010	-0.058
-448.909	-43.612	-0.094	0.048
-447.895	-126.104	-0.232	0.035
-446.880	800.000	0.036	-0.137
-445.865	26.096	0.190	0.160
-444.851	-58.697	-0.283	-0.124
-443.836	415.991	-0.109	-0.234
-442.822	800.000	-0.034	0.144
-441.807	-91.876	-0.154	-0.044
-440.792	800.000	-0.036	0.124
-439.778	1.024	-0.069	0.050
-438.763	228.889	-0.104	-0.171
-437.749	-86.990	-0.105	0.032
-436.734	800.000	0.111	-0.358
-435.719	177.411	-0.208	0.305
-434.705	-143.916	0.219	-0.021
-433.690	-113.385	0.057	0.011
-432.676	52.146	0.309	-0.296
-431.661	800.000	-0.026	-0.083
-430.646	-78.225	0.262	0.091
-429.632	614.724	-0.004	0.010
-428.617	51.239	0.066	-0.063
-427.603	-200.000	-0.039	0.379
-426.588	-11.995	-0.213	0.140
-425.573	47.864	-0.093	0.087
-424.559	200.925	0.132	0.204
-423.544	38.662	0.111	0.100
-422.530	800.000	-0.054	0.178
-421.515	207.300	0.147	-0.230
-420.500	310.046	-0.080	0.151
-419.486	337.343	0.140	-0.273
-418.471	211.894	-0.120	-0.190
-417.457	-11.624	-0.154	0.101
-416.442	194.142	0.174	-0.265
-415.428	-86.366	-0.238	-0.073
-414.413	14.999	0.086	0.068
-413.398	347.377	-0.121	-0.239
-412.384	-102.583	0.039	0.009
-411.369	148.088	-0.294	0.399
-410.355	-200.000	0.060	-0.276
-409.340	-200.000	0.031	-0.298
-408.325	-200.000	0.001	-0.044
-407.311	-117.362	-0.100	-0.018
-406.296	-121.434	-0.094	-0.016
-405.282	-200.000	-0.051	0.280
-404.267	-77.780	0.161	0.056
-403.252	66.805	0.278	0.284
-402.238	14.170	-0.236	0.185
-401.223	-77.420	0.315	0.110
-400.209	235.475	-0.078	0.130
-399.194	188.377	0.235	0.353
-398.179	-145.701	-0.274	0.025
-397.165	800.000	0.072	-0.239
-396.150	-119.015	-0.026	0.005
-395.136	27.230	-0.171	0.144
-394.121	12.096	-0.368	-0.284
-393.106	-57.204	0.148	0.065
-392.092	-53.145	0.166	0.077
-391.077	-86.977	-0.284	0.087
-390.063	-95.187	-0.100	-0.027
-389.048	-76.844	0.144	0.051
-388.033	206.483	0.047	-0.074
-387.019	-39.535	0.241	0.127
-386.004	-200.000	-0.039	-0.176
-384.990	-200.000	0.062	-0.443
-383.975	-88.766	0.252	0.075
-382.960	-78.773	-0.464	-0.159
-381.946	-75.440	-0.102	-0.037
-380.931	35.729	0.301	-0.266
-379.917	7.015	-0.208	0.156
-378.902	-150.827	-0.232	-0.018
-377.888	800.000	-0.133	-0.456
-376.873	345.011	0.013	-0.025
-375.858	-96.187	-0.178	0.047
-374.844	17.120	-0.235	-0.187
-373.829	50.676	-0.244	-0.232
-372.815	246.287	-0.193	0.327
-371.800	-39.800	0.042	-0.022
-370.785	414.329	-0.092	0.197
-369.771	-200.000	0.023	0.267
-368.756	369.063	0.048	0.097
-367.742	186.850	-0.318	-0.476
-366.727	-200.000	-0.068	-0.419
-365.712	800.000	0.081	-0.326
-364.698	-119.422	-0.308	-0.054
-363.683	-76.224	0.084	-0.030
-362.669	-68.810	-0.128	0.050
-361.654	-76.252	0.056	-0.020
-360.639	176.118	0.153	-0.222
-359.625	800.000	-0.075	0.251
-358.610	800.000	0.022	-0.071
-357.596	23.254	0.224	0.184
-356.581	-130.058	-0.367	0.050
-355.566	800.000	-0.039	-0.142
-354.552	-200.000	-0.011	-0.330
-353.537	58.698	-0.009	0.009
-352.523	93.234	0.283	-0.322
-351.508	-104.079	0.315	-0.074
-350.493	-200.000	-0.020	0.240
-349.479	-32.315	0.337	0.188
-348.464	258.386	-0.052	-0.090
-347.450	-142.980	0.107	-0.010
-346.435	-200.000	0.054	0.439
-345.420	13.967	0.176	-0.137
-344.406	-92.333	0.420	-0.119
-343.391	800.000	-0.040	-0.157
-342.377	-172.384	-0.178	-0.006
-341.362	-61.902	-0.184	-0.077
-340.348	-33.927	-0.137	-0.076
-339.333	800.000	-0.014	0.062
-338.318	81.230	0.170	0.185
-337.304	126.476	0.231	-0.293
-336.289	-10.880	0.187	0.124
-335.275	209.212	-0.261	0.409
-334.260	104.415	-0.029	0.034
-333.245	-118.255	0.161	-0.029
-332.231	21.776	-0.313	-0.256
-331.216	-177.299	-0.341	-0.008
-330.202	10.233	-0.120	0.091
-329.187	8.188	-0.258	-0.194
-328.172	-200.000	-0.003	0.091
-327.158	-50.799	-0.093	0.044
-326.143	549.450	0.093	0.224
-325.129	-109.585	-0.055	0.012
-324.114	-178.755	0.281	-0.006
-323.099	-200.000	-0.026	0.165
-322.085	-200.000	-0.004	-0.115
-321.070	800.000	0.111	-0.330
-320.056	25.445	-0.179	-0.149
-319.041	-10.705	-0.230	-0.152
-318.026	-136.354	-0.250	0.029
-317.012	60.339	0.137	-0.136
-315.997	-69.349	0.308	-0.118
-314.983	-130.539	-0.147	-0.020
-313.968	-155.673	-0.230	0.015
-312.953	-200.000	-0.009	-0.283
-311.939	-105.804	-0.095	0.021
-310.924	-6.427	0.088	0.060
-309.910	18.205	-0.137	0.110
-308.895	-153.390	-0.279	0.019
-307.880	450.523	-0.140	-0.309
-306.866	800.000	-0.094	0.365
-305.851	-48.225	0.198	0.096
-304.837	154.972	-0.076	-0.105
-303.822	337.388	0.061	0.118
-302.807	716.352	-0.081	0.216
-301.793	-89.780	0.213	0.062
-300.778	800.000	0.039	-0.127
-299.764	56.054	-0.044	-0.042
-298.749	-45.373	-0.168	-0.083
-297.735	800.000	0.069	-0.235
-296.720	-147.473	0.063	0.005
-295.705	-200.000	0.025	-0.225
-294.691	-200.000	0.023	0.186
-293.676	-180.806	0.173	0.004
-292.662	191.570	0.134	0.203
-291.647	263.250	0.250	0.434
-290.632	28.581	0.111	0.094
-289.618	-35.704	-0.122	-0.066
-288.603	101.649	-0.157	0.183
-287.589	544.484	-0.089	-0.213
-286.574	-43.077	-0.298	0.151
-285.559	72.851	0.189	-0.197
-284.545	800.000	0.030	0.128
-283.530	-200.000	-0.058	-0.375
-282.516	0.804	-0.188	-0.135
-281.501	-145.783	-0.169	0.015
-280.486	348.155	0.097	-0.191
-279.472	-52.924	0.244	0.112
-278.457	66.442	-0.028	0.028
-277.443	-77.727	0.392	0.136
-276.428	800.000	0.106	0.328
-275.413	177.783	-0.176	-0.256
-274.399	-144.897	0.220	0.020
-273.384	693.828	-0.083	-0.217
-272.370	800.000	0.150	0.585
-271.355	-4.033	0.172	0.120
-270.340	800.000	-0.073	-0.292
-269.326	-200.000	-0.036	0.157
-268.311	130.228	0.115	0.148
-267.297	-200.000	-0.014	-0.108
-266.282	201.381	-0.106	-0.163
-265.267	-154.089	0.254	-0.017
-264.253	181.201	-0.107	0.157
-263.238	-64.487	0.346	0.141
-262.224	800.000	0.042	0.163
-261.209	-200.000	0.059	-0.732
-260.195	731.509	-0.091	0.244
-259.180	332.462	-0.082	0.158
-258.165	-2.899	0.314	-0.219
-257.151	40.868	-0.077	0.069
-256.136	-10.735	0.114	0.076
-255.122	-146.583	0.428	0.037
-254.107	-132.839	-0.104	0.013
-253.092	-74.507	-0.099	0.036
-252.078	19.481	0.134	-0.108
-251.063	-200.000	-0.024	0.155
-250.049	371.655	0.073	0.148
-249.034	-200.000	0.063	0.324
-248.019	372.139	-0.043	-0.086
-247.005	-200.000	0.001	0.254
-245.990	173.178	0.173	-0.250
-244.976	444.593	-0.069	-0.150
-243.961	-200.000	0.035	-0.218
-242.946	675.022	-0.062	-0.160
-241.932	103.598	0.159	-0.187
-240.917	154.978	-0.080	-0.110
-239.903	50.259	0.134	0.127
-238.888	14.231	-0.225	0.175
-237.873	-93.338	-0.356	-0.099
-236.859	-21.600	-0.130	-0.079
-235.844	-35.002	0.116	0.063
-234.830	-174.319	-0.140	-0.004
-233.815	800.000	-0.015	0.052
-232.800	116.132	-0.097	-0.119
-231.786	151.437	-0.205	0.278
-230.771	315.714	0.099	-0.186
-229.757	65.579	-0.248	-0.251
-228.742	-200.000	-0.011	-0.214
-227.727	338.469	-0.099	0.192
-226.713	-200.000	0.031	0.321
-225.698	-83.784	-0.186	-0.059
-224.684	260.036	0.047	0.082
-223.669	-49.030	0.161	-0.077
-222.655	-200.000	0.039	-0.195
-221.640	800.000	-0.055	-0.152
-220.625	-10.766	-0.276	0.182
-219.611	-31.496	0.419	0.235
-218.596	-74.044	0.439	0.159
-217.582	-125.987	0.178	0.027
-216.567	800.000	0.055	-0.157
-215.552	-36.598	0.338	0.181
-214.538	-13.381	0.388	0.251
-213.523	-57.141	-0.153	0.067
-212.509	-5.914	-0.006	0.004
-211.494	-64.109	-0.113	0.046
-210.479	-200.000	-0.017	0.223
-209.465	-121.379	-0.192	-0.032
-208.450	112.253	-0.149	0.180
-207.436	39.572	-0.140	0.125
-206.421	249.816	-0.072	0.121
-205.406	800.000	-0.055	0.166
-204.392	-14.954	0.047	-0.030
-203.377	63.346	-0.207	0.207
-202.363	-177.039	-0.081	0.002
-201.348	78.223	-0.116	-0.123
-200.333	208.102	0.078	0.122
-199.319	800.000	0.079	-0.270
-198.304	521.902	0.045	0.106
-197.290	134.194	0.276	0.356
-196.275	-102.492	0.282	-0.067
-195.260	-82.970	0.384	-0.123
-194.246	800.000	0.061	-0.190
-193.231	-77.842	0.325	0.112
-192.217	119.002	0.105	0.129
-191.202	-200.000	0.047	-0.304
-190.187	29.184	-0.078	-0.066
-189.173	-38.113	0.098	-0.052
-188.158	-78.900	0.279	-0.095
-187.144	-200.000	0.002	-0.321
-186.129	225.850	0.072	-0.117
-185.114	-200.000	0.047	0.341
-184.100	-43.013	-0.199	0.101
-183.085	73.809	0.159	0.166
-182.071	-11.710	0.184	-0.120
-181.056	-81.901	-0.325	0.106
-180.042	800.000	0.032	-0.119
-179.027	687.126	-0.063	0.165
-178.012	3.569	0.117	-0.085
-176.998	-98.763	0.346	-0.088
-175.983	-102.215	-0.139	-0.033
-174.969	-110.739	-0.266	-0.055
-173.954	311.342	0.091	0.169
-172.939	-22.217	0.204	0.123
-171.925	100.733	-0.234	0.270
-170.910	-200.000	-0.016	-0.122
-169.896	-43.326	-0.118	-0.060
-168.881	-137.465	0.178	-0.020
-167.866	-200.000	0.002	0.141
-166.852	-158.390	-0.185	0.011
-165.837	-155.508	0.308	-0.020
-164.823	-200.000	-0.058	0.299
-163.808	-200.000	0.012	0.211
-162.793	110.137	0.090	0.108
-161.779	-200.000	0.019	0.097
-160.764	-36.406	0.284	-0.152
-159.750	91.058	-0.156	0.174
-158.735	267.568	0.077	-0.134
-157.720	-69.283	0.153	0.058
-156.706	-200.000	-0.036	0.226
-155.691	-167.717	-0.235	-0.009
-154.677	52.867	-0.120	0.114
-153.662	173.549	0.100	-0.144
-152.647	11.913	0.073	0.056
-151.633	666.119	-0.065	-0.167
-150.618	271.164	0.045	0.079
-149.604	66.784	0.229	-0.231
-148.589	182.670	0.075	0.111
-147.574	-90.770	-0.063	-0.018
-146.560	153.498	0.100	0.136
-145.545	-97.083	-0.112	0.029
-144.531	16.330	0.227	0.178
-143.516	-2.696	-0.277	-0.193
-142.502	-109.941	-0.296	-0.062
-141.487	-34.385	0.381	0.208
-140.472	-200.000	-0.035	0.191
-139.458	182.607	0.146	-0.215
-138.443	-91.974	0.102	-0.029
-137.429	800.000	0.078	-0.258
-136.414	-104.070	-0.312	-0.072
-135.399	51.409	-0.149	-0.140
-134.385	-140.870	0.203	-0.021
-133.370	-200.000	0.050	0.240
-132.356	314.895	-0.126	0.236
-131.341	-0.759	0.233	0.164
-130.326	13.910	-0.107	0.083
-129.312	184.856	-0.132	-0.195
-128.297	23.902	0.120	0.099
-127.283	-200.000	-0.045	-0.198
-126.268	-56.405	-0.351	0.155
-125.253	54.808	-0.044	0.042
-124.239	73.366	0.312	-0.324
-123.224	-15.466	0.188	0.120
-122.210	408.405	0.151	-0.317
-121.195	8.110	0.090	0.067
-120.180	150.977	0.126	0.171
