DTS Sentinel unit serial number:	SN413079Multiplexer serial number:	ORYXHardware model number:	OX4-SRSoftware version number:	ORYX F/W v4.00 Oryx Data Collector v3.7.2.0data status	okinstallation	princeton_trtdifferential loss correction	single-endedforward channel	channel 3reverse channel	N/Adate	2019/09/17time	18:16:35forward acquisition time	60.00reverse acquisition time	0.00gamma	496.2192k internal	0.2289k external	0.2289temperature offset calibration	0.9944default loss term (dB/km)	0.3790temperature slope calibration	1.0000multiplexer offset coefficient	1.0000multiplexer slope coefficient	1.0000fibre end	0.00T internal ref (°C)	43.37T ext. ref 1 (°C)	0.33T ext. ref 2 (°C)	37.27length (m)	temperature (°C)	Stokes	anti-Stokes-747.200	-200.000	-0.008	-0.108
-746.185	-200.000	-0.074	0.466
-745.171	72.250	-0.228	0.244
-744.156	71.738	0.252	0.269
-743.142	-164.590	-0.273	0.013
-742.127	-200.000	0.017	0.115
-741.112	800.000	0.087	0.265
-740.098	22.881	-0.135	0.114
-739.083	167.590	0.131	-0.190
-738.069	118.782	-0.189	0.239
-737.054	-200.000	-0.002	0.084
-736.039	140.091	-0.283	0.383
-735.025	-48.896	-0.263	-0.129
-734.010	365.529	-0.040	0.083
-732.996	-200.000	0.006	-0.118
-731.981	-89.309	-0.233	-0.070
-730.966	352.878	-0.033	-0.067
-729.952	231.234	0.105	-0.176
-728.937	35.829	-0.169	0.152
-727.923	-200.000	-0.024	-0.140
-726.908	10.841	0.203	-0.159
-725.894	-136.241	0.135	-0.016
-724.879	310.484	-0.121	0.232
-723.864	-142.034	-0.177	0.018
-722.850	-200.000	0.001	0.079
-721.835	-62.707	-0.272	-0.116
-720.821	167.072	-0.139	0.202
-719.806	13.849	0.192	-0.153
-718.791	-13.727	-0.303	-0.201
-717.777	211.461	0.180	-0.289
-716.762	800.000	-0.074	-0.218
-715.748	223.626	-0.158	-0.262
-714.733	8.351	0.065	-0.050
-713.718	-29.915	0.049	-0.029
-712.704	82.485	0.040	-0.044
-711.689	-13.790	-0.293	0.194
-710.675	-90.089	0.172	-0.051
-709.660	-35.601	0.223	-0.124
-708.645	800.000	0.062	-0.234
-707.631	-100.998	-0.043	0.011
-706.616	338.232	0.074	-0.148
-705.602	304.816	0.117	-0.222
-704.587	-125.897	-0.251	0.039
-703.572	272.196	-0.039	0.071
-702.558	95.894	-0.182	-0.213
-701.543	98.942	-0.188	0.222
-700.529	2.785	-0.263	0.195
-699.514	800.000	0.032	-0.134
-698.499	70.879	0.081	-0.086
-697.485	-187.322	0.143	0.002
-696.470	-41.916	-0.088	-0.046
-695.456	364.986	0.058	0.119
-694.441	105.584	0.005	0.007
-693.426	139.641	0.116	0.157
-692.412	11.048	-0.042	0.033
-691.397	127.596	-0.143	-0.185
-690.383	10.415	0.074	-0.058
-689.368	-3.624	0.188	0.134
-688.354	800.000	-0.069	0.194
-687.339	-200.000	-0.002	-0.043
-686.324	-28.479	0.304	0.180
-685.310	63.272	-0.043	0.044
-684.295	359.191	0.150	0.307
-683.281	-140.695	0.188	0.020
-682.266	17.142	0.284	-0.230
-681.251	-200.000	0.008	-0.041
-680.237	35.407	-0.295	0.265
-679.222	81.217	0.179	0.198
-678.208	25.884	-0.153	0.131
-677.193	50.562	0.044	0.042
-676.178	-200.000	0.039	0.359
-675.164	-79.523	0.074	0.026
-674.149	-11.224	0.205	-0.138
-673.135	297.582	-0.037	0.070
-672.120	29.749	-0.358	0.311
-671.105	230.450	-0.207	-0.346
-670.091	-46.512	-0.341	-0.171
-669.076	-91.246	0.127	-0.037
-668.062	-105.873	-0.352	0.081
-667.047	172.996	-0.080	-0.117
-666.032	231.355	-0.134	0.224
-665.018	-132.728	-0.416	-0.054
-664.003	-200.000	-0.022	-0.111
-662.989	800.000	-0.025	-0.092
-661.974	800.000	-0.070	-0.223
-660.959	-140.854	-0.390	-0.041
-659.945	121.995	-0.148	0.189
-658.930	-42.787	0.228	-0.118
-657.916	-136.059	0.317	-0.038
-656.901	20.052	-0.218	-0.180
-655.886	3.821	0.014	0.010
-654.872	84.909	-0.135	-0.151
-653.857	-200.000	-0.016	-0.293
-652.843	-113.788	0.174	-0.035
-651.828	-30.599	-0.279	-0.162
-650.814	28.036	0.156	-0.134
-649.799	-139.350	-0.214	-0.024
-648.784	139.493	0.098	0.132
-647.770	-134.737	-0.379	0.047
-646.755	497.106	0.024	0.056
-645.741	146.226	0.262	0.359
-644.726	141.664	-0.136	0.184
-643.711	-143.223	-0.481	-0.047
-642.697	-72.415	-0.059	-0.022
-641.682	395.787	-0.068	-0.145
-640.668	-71.848	-0.129	-0.049
-639.653	-200.000	-0.026	0.257
-638.638	12.547	0.212	-0.167
-637.624	161.387	0.155	-0.222
-636.609	-132.887	0.199	-0.026
-635.595	800.000	0.093	-0.277
-634.580	364.795	0.137	0.281
-633.565	-200.000	-0.435	-0.001
-632.551	14.058	0.261	0.208
-631.536	547.684	-0.029	0.070
-630.522	162.003	0.087	-0.125
-629.507	71.492	0.101	0.107
-628.492	455.378	-0.061	-0.139
-627.478	-87.952	0.077	-0.024
-626.463	-200.000	0.051	0.299
-625.449	-8.614	-0.148	-0.102
-624.434	739.090	0.146	-0.401
-623.419	-200.000	0.016	-0.119
-622.405	-98.214	0.125	-0.033
-621.390	643.858	-0.042	-0.110
-620.376	-200.000	-0.005	0.193
-619.361	800.000	-0.031	0.113
-618.346	800.000	-0.065	0.259
-617.332	-114.493	-0.263	0.052
-616.317	32.365	-0.294	0.259
-615.303	621.419	0.060	0.155
-614.288	-32.664	-0.168	-0.095
-613.273	-92.784	0.065	0.019
-612.259	-66.827	-0.165	-0.066
-611.244	159.251	-0.120	0.171
-610.230	-151.497	-0.067	0.005
-609.215	396.752	-0.156	0.333
-608.201	102.873	-0.041	-0.049
-607.186	636.080	0.107	-0.278
-606.171	-106.544	0.336	0.076
-605.157	588.310	0.074	-0.186
-604.142	-59.823	-0.067	0.029
-603.128	-89.183	0.369	-0.111
-602.113	79.093	-0.028	0.031
-601.098	-127.850	-0.306	0.045
-600.084	-124.328	-0.277	0.044
-599.069	100.610	-0.018	-0.021
-598.055	-23.505	0.156	0.096
-597.040	326.966	0.112	0.218
-596.025	-200.000	-0.017	-0.112
-595.011	800.000	-0.022	-0.091
-593.996	-200.000	0.014	0.222
-592.982	163.461	-0.108	-0.155
-591.967	-200.000	-0.002	-0.159
-590.952	-106.110	-0.146	-0.033
-589.938	768.587	0.064	-0.178
-588.923	560.718	0.084	-0.207
-587.909	-26.019	0.134	-0.080
-586.894	323.610	-0.008	0.015
-585.879	-200.000	0.067	0.486
-584.865	-80.888	-0.112	-0.038
-583.850	772.474	0.037	0.103
-582.836	-200.000	-0.024	-0.179
-581.821	800.000	0.075	-0.242
-580.806	800.000	0.115	-0.368
-579.792	800.000	0.056	0.229
-578.777	-120.662	-0.266	0.046
-577.763	-83.843	0.240	0.078
-576.748	-121.656	-0.147	-0.025
-575.733	-79.969	-0.080	0.027
-574.719	-200.000	0.002	0.011
-573.704	-109.938	0.232	0.050
-572.690	-78.746	-0.340	-0.118
-571.675	-86.898	0.042	0.013
-570.661	87.207	0.166	-0.187
-569.646	238.293	-0.144	-0.244
-568.631	20.604	-0.495	-0.407
-567.617	-200.000	0.049	0.222
-566.602	800.000	-0.127	0.407
-565.588	-142.595	-0.354	-0.035
-564.573	-200.000	-0.051	-0.265
-563.558	184.430	0.191	-0.288
-562.544	-165.285	0.204	-0.009
-561.529	-74.892	0.140	-0.051
-560.515	-200.000	-0.050	0.384
-559.500	-137.291	0.256	-0.030
-558.485	25.158	-0.130	0.110
-557.471	733.104	-0.076	-0.206
-556.456	-188.881	0.270	0.003
-555.442	800.000	0.107	0.304
-554.427	-113.246	-0.184	0.037
-553.412	-43.586	-0.252	-0.130
-552.398	-52.691	-0.085	-0.040
-551.383	611.886	-0.091	-0.231
-550.369	-81.916	0.309	0.103
-549.354	-114.316	0.115	0.022
-548.339	-167.200	0.207	0.009
-547.325	-39.231	-0.086	0.046
-546.310	-148.502	0.240	-0.020
-545.296	150.512	-0.200	0.277
-544.281	800.000	-0.056	-0.172
-543.266	-200.000	0.036	0.229
-542.252	34.706	-0.306	0.272
-541.237	-140.417	-0.307	0.033
-540.223	-134.382	-0.090	0.011
-539.208	800.000	0.037	-0.144
-538.193	-101.042	0.093	-0.023
-537.179	-200.000	0.060	-0.312
-536.164	58.300	-0.180	-0.179
-535.150	-200.000	-0.009	0.213
-534.135	-66.435	-0.023	0.009
-533.121	-200.000	0.006	0.222
-532.106	-66.764	0.114	-0.046
-531.091	-107.491	-0.210	-0.047
-530.077	114.349	-0.217	0.269
-529.062	800.000	0.082	-0.276
-528.048	362.108	0.102	0.207
-527.033	-128.152	0.404	-0.059
-526.018	225.940	0.124	-0.204
-525.004	16.296	0.272	0.218
-523.989	-14.464	0.078	-0.051
-522.975	-26.443	-0.207	0.123
-521.960	110.940	-0.060	0.073
-520.945	-200.000	-0.002	-0.014
-519.931	800.000	-0.051	0.152
-518.916	89.357	-0.060	-0.068
-517.902	-139.526	-0.069	-0.007
-516.887	800.000	-0.034	-0.127
-515.872	-60.983	-0.141	-0.060
-514.858	189.082	-0.192	0.293
-513.843	324.994	0.138	-0.267
-512.829	-2.263	0.180	-0.129
-511.814	139.380	0.121	0.161
-510.799	155.662	0.136	-0.190
-509.785	-38.138	0.079	-0.042
-508.770	-110.648	0.550	0.116
-507.756	45.876	0.172	0.162
-506.741	800.000	-0.027	0.082
-505.726	-109.930	-0.191	-0.041
-504.712	-200.000	-0.043	-0.386
-503.697	109.345	0.156	0.190
-502.683	20.511	0.177	0.146
-501.668	-77.765	0.156	-0.055
-500.653	-112.851	-0.349	-0.070
-499.639	-200.000	-0.005	0.126
-498.624	-94.053	0.091	0.025
-497.610	639.733	0.050	-0.129
-496.595	141.604	-0.093	-0.125
-495.581	-200.000	0.008	-0.183
-494.566	483.728	-0.119	-0.276
-493.551	22.085	-0.162	-0.134
-492.537	-200.000	0.014	0.090
-491.522	-181.887	-0.280	0.005
-490.508	58.392	0.024	0.023
-489.493	48.053	0.099	0.094
-488.478	-82.182	-0.116	-0.038
-487.464	-37.646	0.265	0.143
-486.449	-22.211	-0.168	0.103
-485.435	800.000	0.106	0.316
-484.420	219.571	-0.182	-0.296
-483.405	30.504	-0.159	-0.138
-482.391	-9.665	-0.115	-0.078
-481.376	118.965	0.027	0.034
-480.362	-200.000	0.023	0.185
-479.347	225.748	0.178	-0.293
-478.332	800.000	0.081	-0.260
-477.318	-21.470	-0.151	-0.093
-476.303	59.374	-0.166	0.166
-475.289	-75.935	-0.228	0.082
-474.274	800.000	0.034	-0.138
-473.259	-74.815	-0.131	0.048
-472.245	-131.634	0.317	-0.042
-471.230	284.116	-0.076	0.138
-470.216	73.910	-0.080	0.085
-469.201	778.354	-0.020	0.054
-468.186	800.000	-0.062	0.225
-467.172	-15.843	-0.045	0.029
-466.157	-200.000	-0.071	-0.392
-465.143	92.540	-0.319	-0.365
-464.128	-143.838	0.069	0.007
-463.113	-96.704	-0.305	0.082
-462.099	-88.022	-0.241	0.073
-461.084	-64.000	-0.096	0.040
-460.070	-200.000	0.004	0.282
-459.055	391.644	-0.077	0.163
-458.040	-14.218	0.380	0.248
-457.026	59.544	0.080	0.080
-456.011	-126.967	0.372	0.055
-454.997	170.544	0.136	0.198
-453.982	504.423	0.105	0.247
-452.968	-7.850	0.331	-0.227
-451.953	-3.260	-0.074	-0.052
-450.938	-200.000	-0.002	-0.099
-449.924	-14.866	0.144	0.094
-448.909	-114.863	-0.112	0.022
-447.895	-6.205	0.135	-0.093
-446.880	-101.059	0.267	0.066
-445.865	769.627	0.053	0.145
-444.851	33.889	-0.237	0.209
-443.836	-200.000	0.012	0.121
-442.822	800.000	-0.065	0.224
-441.807	800.000	0.085	-0.251
-440.792	-112.947	-0.023	-0.005
-439.778	-145.417	-0.195	-0.018
-438.763	-113.696	-0.105	-0.021
-437.749	-60.858	0.163	0.070
-436.734	293.350	-0.072	0.134
-435.719	-200.000	0.017	0.211
-434.705	800.000	0.085	0.306
-433.690	-130.926	-0.203	0.027
-432.676	453.610	-0.191	-0.428
-431.661	-61.726	0.185	-0.079
-430.646	-75.872	0.118	0.042
-429.632	-118.765	-0.236	-0.042
-428.617	196.380	0.045	0.070
-427.603	212.778	-0.123	0.196
-426.588	-72.039	0.120	-0.045
-425.573	648.359	0.089	-0.229
-424.559	154.159	0.169	-0.235
-423.544	-87.826	-0.356	0.108
-422.530	-120.961	0.198	0.034
-421.515	60.422	-0.252	0.253
-420.500	-42.852	0.236	-0.122
-419.486	590.890	-0.013	-0.033
-418.471	-155.049	-0.267	-0.018
-417.457	800.000	-0.124	-0.410
-416.442	-77.887	-0.144	-0.050
-415.428	-200.000	0.069	0.371
-414.413	-178.979	-0.146	0.003
-413.398	-74.899	-0.109	0.040
-412.384	800.000	-0.035	-0.105
-411.369	130.948	-0.038	-0.049
-410.355	7.594	0.131	-0.099
-409.340	-200.000	0.007	-0.408
-408.325	45.401	-0.078	0.072
-407.311	-88.913	-0.201	0.060
-406.296	-138.975	-0.241	-0.026
-405.282	-93.080	-0.329	0.093
-404.267	128.836	0.128	-0.165
-403.252	-200.000	0.067	-0.401
-402.238	-200.000	-0.031	0.274
-401.223	248.468	-0.091	0.156
-400.209	-200.000	0.025	0.195
-399.194	231.391	-0.094	0.156
-398.179	-76.395	0.204	-0.073
-397.165	90.424	-0.167	0.189
-396.150	-200.000	-0.001	0.336
-395.136	-109.579	0.262	-0.056
-394.121	800.000	0.085	0.313
-393.106	205.851	0.076	0.119
-392.092	578.612	-0.140	-0.346
-391.077	324.624	0.109	-0.211
-390.063	-173.383	0.162	0.005
-389.048	-88.968	0.177	0.053
-388.033	147.004	-0.135	0.183
-387.019	-27.167	0.229	-0.135
-386.004	-200.000	0.001	-0.180
-384.990	-200.000	-0.023	-0.164
-383.975	81.931	0.236	0.258
-382.960	-98.219	0.014	-0.004
-381.946	96.289	0.223	0.258
-380.931	-200.000	-0.018	0.112
-379.917	-14.176	-0.043	0.028
-378.902	554.153	0.089	-0.217
-377.888	-200.000	-0.022	-0.111
-376.873	31.178	0.109	-0.094
-375.858	-7.058	-0.183	-0.126
-374.844	800.000	0.023	0.088
-373.829	-157.844	0.232	0.014
-372.815	800.000	0.122	-0.391
-371.800	800.000	-0.058	-0.166
-370.785	189.549	-0.177	0.268
-369.771	392.197	0.058	0.122
-368.756	19.532	0.417	0.339
-367.742	-62.198	0.097	0.041
-366.727	156.915	-0.163	0.228
-365.712	-148.139	-0.102	-0.009
-364.698	-102.104	-0.190	0.046
-363.683	-16.512	-0.243	-0.156
-362.669	-44.093	-0.276	-0.140
-361.654	-48.190	0.075	-0.037
-360.639	65.237	-0.168	-0.171
-359.625	-53.012	0.135	-0.063
-358.610	-200.000	-0.030	-0.187
-357.596	800.000	-0.045	-0.181
-356.581	507.825	0.052	0.123
-355.566	484.283	-0.127	-0.292
-354.552	-200.000	-0.022	0.111
-353.537	-115.488	-0.267	-0.051
-352.523	-200.000	-0.005	-0.206
-351.508	136.159	0.330	-0.434
-350.493	415.003	-0.119	0.255
-349.479	-29.510	-0.326	0.188
-348.464	-70.989	-0.051	-0.019
-347.450	33.142	0.068	0.060
-346.435	-89.422	0.150	0.044
-345.420	440.276	0.031	-0.068
-344.406	232.915	-0.085	-0.141
-343.391	-200.000	0.016	-0.096
-342.377	136.196	0.159	-0.209
-341.362	800.000	0.024	0.093
-340.348	213.109	0.193	0.308
-339.333	-200.000	0.038	0.425
-338.318	-200.000	0.005	0.033
-337.304	172.736	0.165	0.240
-336.289	-4.568	0.315	0.220
-335.275	-179.017	-0.337	-0.008
-334.260	249.951	-0.076	-0.130
-333.245	-3.113	0.075	0.053
-332.231	800.000	-0.142	0.427
-331.216	-200.000	-0.031	-0.369
-330.202	8.671	0.176	0.134
-329.187	233.446	0.085	0.140
-328.172	120.729	0.186	-0.234
-327.158	-54.261	0.340	0.156
-326.143	81.459	0.072	-0.078
-325.129	-132.403	0.244	-0.032
-324.114	-93.462	0.045	0.013
-323.099	-88.164	0.399	0.121
-322.085	800.000	-0.031	-0.108
-321.070	240.163	-0.045	-0.076
-320.056	295.078	-0.031	0.057
-319.041	-200.000	-0.010	0.181
-318.026	-68.231	0.427	0.167
-317.012	160.723	0.255	-0.359
-315.997	611.283	0.082	0.207
-314.983	-124.999	-0.145	-0.022
-313.968	-166.745	-0.147	0.006
-312.953	-33.338	0.178	0.099
-311.939	800.000	-0.048	-0.199
-310.924	-137.347	0.338	-0.039
-309.910	-134.812	0.144	0.018
-308.895	-3.242	-0.319	-0.224
-307.880	-157.440	0.330	-0.020
-306.866	-141.530	0.246	-0.025
-305.851	199.619	-0.157	0.243
-304.837	-200.000	-0.015	-0.219
-303.822	129.519	0.254	-0.327
-302.807	371.549	0.109	-0.224
-301.793	-51.030	0.336	0.159
-300.778	-91.942	-0.099	0.028
-299.764	-152.744	-0.204	0.015
-298.749	-127.371	-0.236	0.035
-297.735	-125.731	-0.365	0.056
-296.720	-127.385	-0.447	-0.065
-295.705	314.523	-0.062	-0.118
-294.691	48.920	0.137	0.129
-293.676	-15.728	0.038	-0.025
-292.662	-36.232	-0.490	-0.266
-291.647	73.724	0.093	-0.098
-290.632	70.485	0.132	0.137
-289.618	559.248	-0.008	0.019
-288.603	-200.000	-0.051	-0.279
-287.589	248.086	0.129	-0.221
-286.574	-19.714	0.291	0.181
-285.559	44.623	-0.276	-0.255
-284.545	-186.678	0.256	0.004
-283.530	-88.311	-0.173	0.052
-282.516	-20.915	-0.123	0.076
-281.501	140.349	-0.192	-0.255
-280.486	-28.428	-0.402	0.233
-279.472	-200.000	0.008	0.414
-278.457	411.032	0.104	-0.222
-277.443	81.199	0.157	0.171
-276.428	133.416	0.311	0.405
-275.413	-106.331	-0.222	-0.050
-274.399	144.830	-0.155	0.209
-273.384	-12.244	0.330	-0.217
-272.370	341.714	0.023	0.045
-271.355	29.980	-0.170	-0.146
-270.340	-71.735	-0.195	0.073
-269.326	72.043	-0.231	0.242
-268.311	-45.530	0.171	0.085
-267.297	-137.950	-0.352	0.040
-266.282	313.350	0.152	0.288
-265.267	151.622	-0.195	-0.268
-264.253	639.135	-0.034	0.087
-263.238	204.761	-0.136	0.212
-262.224	176.589	-0.035	0.051
-261.209	208.201	0.107	-0.169
-260.195	538.710	0.090	-0.215
-259.180	660.257	0.126	-0.325
-258.165	-29.891	0.029	0.016
-257.151	345.136	-0.081	0.159
-256.136	141.220	-0.148	0.197
-255.122	-200.000	-0.015	-0.113
-254.107	400.769	-0.072	0.151
-253.092	-42.974	-0.299	-0.153
-252.078	40.445	-0.327	-0.296
-251.063	693.699	0.052	0.138
-250.049	60.418	0.260	0.258
-249.034	-58.163	-0.093	-0.041
-248.019	1.315	0.255	0.184
-247.005	-200.000	0.008	-0.248
-245.990	-77.255	0.179	0.063
-244.976	34.161	0.106	0.093
-243.961	-136.220	0.049	-0.006
-242.946	-153.179	-0.313	0.022
-241.932	800.000	0.026	-0.098
-240.917	174.654	-0.055	0.080
-239.903	800.000	-0.053	0.153
-238.888	-32.286	0.129	-0.072
-237.873	-165.791	0.344	0.015
-236.859	-200.000	-0.012	0.137
-235.844	-200.000	-0.044	0.204
-234.830	-200.000	-0.031	0.241
-233.815	-140.665	0.215	0.022
-232.800	800.000	0.087	0.254
-231.786	-65.611	-0.348	-0.140
-230.771	-5.729	0.180	-0.124
-229.757	-200.000	-0.049	-0.416
-228.742	-122.537	0.029	-0.005
-227.727	59.193	0.179	0.177
-226.713	160.884	-0.227	-0.318
-225.698	-200.000	-0.070	-0.441
-224.684	-9.564	-0.047	0.032
-223.669	57.357	-0.220	-0.215
-222.655	-200.000	0.032	0.153
-221.640	-79.373	0.253	-0.086
-220.625	-200.000	-0.003	-0.261
-219.611	-200.000	-0.007	0.136
-218.596	81.760	-0.094	0.103
-217.582	-29.278	0.077	-0.044
-216.567	800.000	0.088	-0.277
-215.552	-2.882	-0.183	-0.129
-214.538	-200.000	-0.024	-0.336
-213.523	-151.119	0.304	0.023
-212.509	162.852	0.112	-0.158
-211.494	75.181	0.228	-0.241
-210.479	-200.000	0.035	0.379
-209.465	-87.076	0.232	0.071
-208.450	158.737	0.085	-0.119
-207.436	-200.000	0.007	0.242
-206.421	-106.144	0.063	0.014
-205.406	-79.386	-0.151	-0.051
-204.392	14.617	-0.132	0.104
-203.377	475.407	-0.014	-0.032
-202.363	-3.537	-0.011	0.008
-201.348	21.043	-0.374	-0.304
-200.333	-200.000	0.010	-0.309
-199.319	800.000	-0.057	-0.175
-198.304	15.032	0.172	0.135
-197.290	-200.000	0.023	-0.292
-196.275	-11.037	0.462	-0.306
-195.260	-1.810	-0.236	0.167
-194.246	340.993	-0.078	-0.153
-193.231	-46.227	0.159	-0.078
-192.217	-38.590	0.177	0.094
-191.202	12.130	-0.127	0.098
-190.187	552.403	0.074	-0.179
-189.173	37.044	0.204	0.181
-188.158	-7.778	-0.166	0.112
-187.144	87.676	-0.134	0.149
-186.129	-200.000	-0.059	0.346
-185.114	252.464	-0.104	0.178
-184.100	489.721	-0.080	-0.184
-183.085	-79.420	-0.246	0.084
-182.071	380.057	0.031	-0.064
-181.056	-154.043	0.356	0.024
-180.042	-200.000	0.008	0.398
-179.027	0.069	-0.130	-0.093
-178.012	-14.997	-0.119	-0.077
-176.998	224.420	0.156	-0.252
-175.983	-25.142	0.106	0.063
-174.969	121.177	0.091	0.114
-173.954	-43.675	-0.232	0.117
-172.939	-200.000	0.021	-0.229
-171.925	297.576	0.082	0.151
-170.910	-14.382	0.119	0.077
-169.896	24.952	-0.370	-0.308
-168.881	-200.000	0.018	0.165
-167.866	-78.716	-0.370	-0.127
-166.852	190.537	0.144	0.217
-165.837	236.509	-0.133	0.220
-164.823	63.914	0.317	-0.319
-163.808	-200.000	-0.014	0.084
-162.793	36.621	0.182	-0.161
-161.779	-141.169	0.203	-0.021
-160.764	-200.000	0.368	0.001
-159.750	-200.000	-0.015	-0.160
-158.735	-171.045	-0.137	-0.005
-157.720	271.714	0.096	-0.169
-156.706	-180.123	-0.108	0.002
-155.691	-200.000	-0.010	0.123
-154.677	160.501	0.170	0.238
-153.662	-188.026	-0.100	-0.001
-152.647	528.467	0.098	0.231
-151.633	-200.000	-0.044	-0.202
-150.618	-41.094	-0.086	-0.044
-149.604	-200.000	-0.002	0.133
-148.589	160.074	-0.284	0.396
-147.574	-200.000	0.049	0.241
-146.560	-200.000	-0.017	0.134
-145.545	-102.538	-0.106	-0.025
-144.531	-62.424	0.054	0.022
-143.516	51.994	0.108	0.103
-142.502	800.000	0.123	-0.411
-141.487	27.106	-0.183	0.153
-140.472	90.957	-0.073	0.082
-139.458	-200.000	0.010	0.066
-138.443	220.505	-0.116	0.187
-137.429	-200.000	0.022	0.151
-136.414	140.744	-0.038	-0.050
-135.399	-200.000	-0.011	0.222
-134.385	-54.797	0.106	0.048
-133.370	67.816	-0.041	0.042
-132.356	-200.000	0.029	-0.156
-131.341	-186.201	0.411	0.006
-130.326	112.422	0.141	0.170
-129.312	-176.752	0.130	0.003
-128.297	-62.168	0.171	-0.071
-127.283	-200.000	0.029	-0.184
-126.268	-52.335	0.233	0.108
-125.253	-109.904	0.356	-0.075
-124.239	-200.000	-0.024	0.105
-123.224	-56.747	-0.113	-0.050
-122.210	-50.196	-0.059	-0.028
-121.195	-107.168	0.358	0.079
