DTS Sentinel unit serial number:	SN413079Multiplexer serial number:	ORYXHardware model number:	OX4-SRSoftware version number:	ORYX F/W v4.00 Oryx Data Collector v3.7.2.0data status	okinstallation	princeton_trtdifferential loss correction	single-endedforward channel	channel 3reverse channel	N/Adate	2019/09/16time	09:24:35forward acquisition time	60.00reverse acquisition time	0.00gamma	496.2192k internal	0.2322k external	0.2322temperature offset calibration	0.9956default loss term (dB/km)	0.3790temperature slope calibration	1.0000multiplexer offset coefficient	1.0000multiplexer slope coefficient	1.0000fibre end	0.00T internal ref (°C)	31.55T ext. ref 1 (°C)	12.18T ext. ref 2 (°C)	29.21length (m)	temperature (°C)	Stokes	anti-Stokes-747.200	800.000	0.065	-0.236
-746.185	131.525	0.044	0.057
-745.171	2.286	-0.039	0.029
-744.156	-200.000	0.073	0.326
-743.142	-131.866	0.219	-0.029
-742.127	-200.000	-0.047	0.302
-741.112	431.404	-0.131	-0.286
-740.098	576.212	0.064	0.157
-739.083	30.046	-0.128	-0.110
-738.069	-149.386	0.277	0.022
-737.054	114.504	0.062	-0.076
-736.039	-200.000	-0.027	-0.218
-735.025	350.645	0.083	-0.165
-734.010	-173.681	-0.144	-0.004
-732.996	144.343	-0.080	0.107
-731.981	-49.523	0.254	0.122
-730.966	-200.000	0.025	0.139
-729.952	-200.000	0.048	-0.275
-728.937	-137.024	-0.168	-0.019
-727.923	-160.183	-0.383	-0.021
-726.908	384.618	-0.176	0.367
-725.894	-181.755	-0.116	-0.002
-724.879	800.000	0.034	-0.125
-723.864	800.000	-0.023	0.073
-722.850	-75.870	-0.103	0.037
-721.835	-200.000	0.035	-0.194
-720.821	-173.468	-0.086	0.003
-719.806	-93.880	-0.122	0.034
-718.791	-200.000	0.003	0.052
-717.777	-120.601	0.159	-0.027
-716.762	-28.600	0.120	-0.070
-715.748	-20.651	-0.422	0.261
-714.733	-160.895	0.171	-0.009
-713.718	284.740	0.046	-0.083
-712.704	-52.526	-0.100	-0.047
-711.689	-53.059	-0.155	0.072
-710.675	-200.000	0.013	0.064
-709.660	-200.000	0.085	-0.450
-708.645	168.512	-0.039	0.056
-707.631	-200.000	0.071	-0.358
-706.616	-9.320	-0.378	0.255
-705.602	-1.517	0.085	0.060
-704.587	46.125	0.023	-0.021
-703.572	-23.507	-0.337	-0.204
-702.558	99.535	-0.101	-0.118
-701.543	-110.429	0.169	0.035
-700.529	-33.366	0.170	-0.095
-699.514	-200.000	0.036	-0.227
-698.499	437.734	0.188	-0.414
-697.485	189.201	0.161	0.244
-696.470	-33.598	0.226	-0.126
-695.456	28.460	-0.085	-0.073
-694.441	-73.601	0.285	-0.105
-693.426	-77.489	-0.139	0.049
-692.412	149.124	0.036	-0.049
-691.397	115.224	0.138	-0.170
-690.383	83.149	0.206	0.226
-689.368	-140.643	-0.057	-0.006
-688.354	-25.283	-0.206	0.123
-687.339	-56.387	-0.133	-0.059
-686.324	-104.743	-0.105	0.024
-685.310	77.107	0.085	-0.091
-684.295	-200.000	0.039	-0.259
-683.281	-200.000	-0.048	-0.214
-682.266	-141.884	0.214	0.022
-681.251	-141.868	-0.091	-0.009
-680.237	-200.000	0.002	0.184
-679.222	-63.713	0.236	0.098
-678.208	-200.000	-0.021	-0.172
-677.193	247.498	0.083	0.141
-676.178	-157.343	-0.210	-0.013
-675.164	151.858	-0.140	0.193
-674.149	-200.000	0.032	-0.220
-673.135	90.154	-0.080	0.090
-672.120	40.065	0.164	0.149
-671.105	-200.000	0.020	-0.098
-670.091	800.000	0.062	-0.275
-669.076	-200.000	-0.008	-0.104
-668.062	-60.612	-0.098	0.042
-667.047	-96.126	0.138	-0.037
-666.032	121.725	-0.089	-0.112
-665.018	-109.481	-0.111	-0.024
-664.003	-53.653	-0.210	-0.096
-662.989	378.296	0.016	0.032
-661.974	-98.071	-0.187	0.049
-660.959	275.734	-0.049	-0.088
-659.945	-7.455	-0.298	-0.203
-658.930	-200.000	0.048	0.240
-657.916	-74.797	0.162	-0.058
-656.901	-21.760	0.033	0.020
-655.886	-44.576	-0.305	-0.154
-654.872	365.366	-0.055	-0.112
-653.857	-200.000	-0.032	-0.203
-652.843	-31.842	-0.168	-0.095
-651.828	17.710	-0.191	-0.153
-650.814	-35.139	0.098	-0.054
-649.799	-17.623	0.156	0.099
-648.784	43.722	0.295	0.272
-647.770	412.923	0.082	-0.176
-646.755	-133.649	0.077	-0.010
-645.741	146.336	-0.121	0.164
-644.726	86.240	-0.324	-0.359
-643.711	-88.904	0.160	0.048
-642.697	-73.338	-0.152	-0.056
-641.682	347.390	0.027	-0.053
-640.668	-200.000	0.009	0.361
-639.653	139.095	0.195	0.258
-638.638	-23.247	-0.191	0.115
-637.624	6.392	-0.191	0.142
-636.609	106.560	-0.244	-0.291
-635.595	83.192	-0.154	0.169
-634.580	110.050	0.205	0.248
-633.565	13.514	-0.101	0.079
-632.551	-49.975	0.230	-0.110
-631.536	-101.494	-0.370	-0.090
-630.522	-157.576	-0.310	0.019
-629.507	-91.225	0.226	-0.065
-628.492	-200.000	0.015	0.071
-627.478	179.112	-0.113	-0.166
-626.463	134.203	-0.085	0.110
-625.449	5.219	-0.061	-0.045
-624.434	-78.981	-0.243	0.083
-623.419	78.699	-0.089	-0.096
-622.405	8.628	-0.125	0.094
-621.390	-62.591	0.185	-0.077
-620.376	333.367	-0.289	-0.561
-619.361	71.962	0.064	-0.067
-618.346	-7.079	-0.244	-0.166
-617.332	39.015	-0.230	0.207
-616.317	782.812	-0.166	-0.456
-615.303	-108.478	0.337	0.073
-614.288	-159.096	0.126	-0.007
-613.273	-22.676	-0.179	0.109
-612.259	-92.513	0.245	-0.069
-611.244	-29.321	-0.168	-0.096
-610.230	-109.638	-0.174	-0.037
-609.215	-115.635	-0.138	-0.026
-608.201	-64.553	-0.284	-0.116
-607.186	329.812	-0.114	0.220
-606.171	800.000	0.068	0.244
-605.157	12.591	0.388	0.301
-604.142	800.000	0.084	0.279
-603.128	-95.634	-0.367	0.099
-602.113	31.981	0.344	-0.298
-601.098	-98.805	0.162	0.041
-600.084	800.000	0.095	0.281
-599.069	98.957	0.148	-0.172
-598.055	450.047	0.124	0.275
-597.040	-25.209	-0.178	-0.106
-596.025	-115.042	0.227	0.043
-595.011	-88.881	0.182	-0.054
-593.996	-154.098	-0.401	-0.027
-592.982	55.296	0.102	0.099
-591.967	-200.000	-0.028	-0.245
-590.952	-16.520	-0.097	-0.061
-589.938	318.093	0.157	0.299
-588.923	379.024	0.168	-0.345
-587.909	-73.290	0.175	0.064
-586.894	-200.000	0.007	-0.322
-585.879	-200.000	-0.050	0.233
-584.865	-31.212	0.150	-0.085
-583.850	-34.195	0.236	-0.130
-582.836	-200.000	0.009	-0.214
-581.821	-21.416	-0.300	0.184
-580.806	-159.183	-0.180	0.010
-579.792	-70.497	0.183	-0.070
-578.777	-122.913	0.302	0.049
-577.763	-200.000	-0.042	0.249
-576.748	496.404	0.075	-0.173
-575.733	-128.015	-0.118	-0.017
-574.719	-56.069	0.277	-0.124
-573.704	45.259	0.132	-0.122
-572.690	77.095	0.304	0.325
-571.675	-26.780	-0.195	-0.115
-570.661	-200.000	-0.004	-0.169
-569.646	-18.264	-0.255	-0.160
-568.631	19.149	0.549	0.442
-567.617	-126.036	-0.289	0.044
-566.602	-177.847	0.417	0.010
-565.588	188.097	0.122	0.183
-564.573	-200.000	-0.003	-0.166
-563.558	-77.358	0.423	0.147
-562.544	21.348	-0.050	0.041
-561.529	306.932	-0.047	0.088
-560.515	-135.879	0.109	-0.013
-559.500	458.865	-0.116	0.259
-558.485	-90.354	0.286	-0.083
-557.471	800.000	-0.029	-0.104
-556.456	197.318	-0.142	-0.218
-555.442	-35.502	0.053	-0.029
-554.427	78.531	0.225	-0.241
-553.412	81.698	0.220	0.238
-552.398	-200.000	-0.097	0.428
-551.383	233.703	-0.165	0.273
-550.369	800.000	-0.024	0.097
-549.354	-200.000	-0.033	0.263
-548.339	202.376	-0.064	0.099
-547.325	-86.312	-0.616	-0.190
-546.310	-98.199	0.173	-0.045
-545.296	-152.901	-0.050	0.004
-544.281	-53.257	0.024	-0.011
-543.266	111.021	0.134	-0.162
-542.252	216.445	-0.068	-0.108
-541.237	-129.993	-0.208	-0.029
-540.223	487.500	-0.090	-0.205
-539.208	44.392	0.177	-0.163
-538.193	7.008	0.156	0.117
-537.179	-74.685	0.263	0.095
-536.164	-200.000	0.068	0.461
-535.150	-200.000	0.015	0.106
-534.135	38.704	0.047	0.042
-533.121	166.315	0.196	-0.278
-532.106	-200.000	-0.012	0.173
-531.091	800.000	0.072	0.254
-530.077	800.000	0.026	0.094
-529.062	-200.000	0.057	-0.318
-528.048	11.362	0.162	-0.124
-527.033	264.697	0.218	0.381
-526.018	0.178	0.011	0.008
-525.004	-200.000	-0.031	0.180
-523.989	-60.546	0.423	0.180
-522.975	800.000	0.048	0.188
-521.960	68.558	-0.119	0.122
-520.945	800.000	-0.027	0.114
-519.931	102.708	0.044	-0.051
-518.916	784.900	-0.077	0.212
-517.902	6.122	-0.257	-0.191
-516.887	166.963	-0.169	-0.241
-515.872	-200.000	0.002	0.273
-514.858	78.416	0.091	-0.098
-513.843	223.654	-0.162	-0.261
-512.829	-110.695	0.116	-0.024
-511.814	15.135	0.145	-0.113
-510.799	107.133	0.086	0.102
-509.785	430.781	0.255	0.554
-508.770	388.170	0.102	0.212
-507.756	-65.345	0.235	0.095
-506.741	-72.662	-0.191	0.071
-505.726	116.750	-0.192	0.236
-504.712	-72.406	-0.115	-0.042
-503.697	-83.584	-0.054	0.017
-502.683	195.327	0.028	-0.042
-501.668	-90.434	0.355	-0.103
-500.653	-200.000	0.005	-0.200
-499.639	134.981	0.130	-0.169
-498.624	-61.115	0.069	-0.029
-497.610	-152.623	0.131	-0.009
-496.595	-200.000	0.017	0.254
-495.581	-45.419	0.033	0.017
-494.566	-30.838	0.115	0.065
-493.551	-200.000	0.025	-0.167
-492.537	28.325	0.195	-0.165
-491.522	-200.000	-0.033	0.262
-490.508	271.342	-0.070	-0.123
-489.493	-200.000	-0.021	-0.413
-488.478	-133.601	-0.276	-0.035
-487.464	-29.848	0.275	-0.157
-486.449	-79.612	-0.432	0.146
-485.435	631.782	0.048	0.121
-484.420	4.308	0.171	-0.125
-483.405	-128.339	-0.168	0.024
-482.391	-7.902	0.108	0.073
-481.376	-200.000	-0.070	0.321
-480.362	67.470	-0.269	0.274
-479.347	-6.897	-0.170	0.116
-478.332	144.788	-0.106	0.142
-477.318	158.499	0.142	-0.197
-476.303	-200.000	0.030	-0.189
-475.289	-177.542	0.330	-0.008
-474.274	259.854	0.064	0.111
-473.259	87.856	-0.145	-0.160
-472.245	800.000	-0.060	0.169
-471.230	228.820	0.122	-0.199
-470.216	59.985	0.133	-0.131
-469.201	184.540	0.152	0.225
-468.186	-122.529	0.182	-0.030
-467.172	-136.696	-0.268	-0.031
-466.157	-169.503	-0.162	0.006
-465.143	64.343	0.078	0.079
-464.128	-27.162	0.209	-0.121
-463.113	-57.171	-0.184	-0.081
-462.099	191.921	0.146	0.220
-461.084	-147.170	-0.259	0.022
-460.070	-200.000	0.020	0.243
-459.055	-200.000	-0.016	0.109
-458.040	-85.115	-0.337	0.106
-457.026	-155.358	-0.399	-0.026
-456.011	-63.605	-0.276	0.113
-454.997	-200.000	-0.013	0.417
-453.982	-35.847	0.165	-0.089
-452.968	594.716	-0.073	0.181
-451.953	-61.491	-0.281	-0.118
-450.938	-30.247	-0.146	0.083
-449.924	74.259	0.271	-0.285
-448.909	800.000	-0.095	-0.269
-447.895	-90.959	-0.159	-0.046
-446.880	-77.974	0.218	-0.075
-445.865	-199.290	-0.230	-0.001
-444.851	100.831	0.154	0.179
-443.836	-79.750	-0.062	-0.021
-442.822	-175.607	0.199	-0.005
-441.807	-109.188	0.190	-0.040
-440.792	-47.436	0.101	-0.049
-439.778	-119.975	0.278	0.048
-438.763	-94.444	-0.185	-0.050
-437.749	-200.000	-0.007	0.076
-436.734	-81.922	-0.092	0.030
-435.719	75.549	-0.167	0.176
-434.705	-87.850	0.182	-0.055
-433.690	800.000	-0.030	0.104
-432.676	-85.105	-0.131	-0.041
-431.661	38.848	0.178	0.159
-430.646	800.000	0.095	-0.303
-429.632	199.545	0.128	0.195
-428.617	-162.684	-0.446	-0.022
-427.603	600.733	-0.047	-0.117
-426.588	81.024	-0.075	0.081
-425.573	-156.771	-0.084	0.005
-424.559	-200.000	-0.016	-0.187
-423.544	-200.000	0.030	-0.138
-422.530	-84.944	0.106	-0.033
-421.515	-192.931	0.300	-0.003
-420.500	294.469	-0.127	-0.231
-419.486	800.000	-0.137	0.433
-418.471	107.245	0.141	-0.167
-417.457	-77.807	-0.191	-0.066
-416.442	-27.380	0.245	0.142
-415.428	-160.242	0.299	0.016
-414.413	-74.025	0.057	-0.021
-413.398	187.787	-0.195	0.291
-412.384	800.000	0.078	0.247
-411.369	84.615	0.053	0.058
-410.355	800.000	-0.030	-0.112
-409.340	-116.077	-0.318	0.059
-408.325	-152.777	-0.335	0.024
-407.311	-109.782	0.098	-0.021
-406.296	11.025	0.134	0.102
-405.282	-63.531	-0.048	0.020
-404.267	27.690	-0.228	0.192
-403.252	558.390	-0.133	-0.321
-402.238	65.908	-0.201	0.203
-401.223	800.000	0.059	0.258
-400.209	426.945	-0.081	0.174
-399.194	36.441	-0.273	-0.240
-398.179	77.228	-0.115	-0.122
-397.165	-43.127	0.205	-0.104
-396.150	5.700	-0.532	0.392
-395.136	-87.134	-0.347	0.105
-394.121	-140.444	0.288	0.030
-393.106	-132.040	-0.388	-0.050
-392.092	14.597	-0.269	-0.209
-391.077	-196.017	0.102	0.001
-390.063	48.779	-0.114	0.106
-389.048	800.000	-0.022	0.063
-388.033	195.733	0.139	-0.211
-387.019	-142.032	0.320	-0.032
-386.004	134.044	-0.039	0.051
-384.990	487.960	-0.106	-0.240
-383.975	242.111	-0.044	-0.073
-382.960	-74.788	-0.121	0.043
-381.946	800.000	-0.062	-0.177
-380.931	-200.000	0.003	-0.251
-379.917	601.356	-0.060	-0.149
-378.902	442.525	-0.046	-0.101
-377.888	-57.912	-0.185	0.080
-376.873	45.877	0.165	0.152
-375.858	800.000	0.136	0.452
-374.844	800.000	-0.006	0.022
-373.829	-41.171	-0.286	-0.147
-372.815	320.842	0.160	0.302
-371.800	185.248	0.272	0.403
-370.785	500.212	-0.019	-0.044
-369.771	55.502	0.202	-0.195
-368.756	-148.153	0.405	-0.033
-367.742	-97.174	-0.129	0.034
-366.727	-156.084	0.319	-0.020
-365.712	114.571	-0.150	-0.182
-364.698	152.921	-0.131	0.179
-363.683	-59.768	-0.124	0.053
-362.669	303.553	-0.053	-0.098
-361.654	-149.952	-0.094	-0.007
-360.639	122.587	-0.123	-0.153
-359.625	112.304	0.261	0.314
-358.610	-200.000	-0.011	0.079
-357.596	-144.448	-0.191	0.018
-356.581	-65.871	-0.129	0.051
-355.566	640.179	0.125	-0.316
-354.552	124.046	0.127	-0.159
-353.537	800.000	-0.031	0.105
-352.523	-85.901	-0.294	0.091
-351.508	-108.636	0.094	-0.020
-350.493	-200.000	-0.079	-0.345
-349.479	-79.055	-0.325	-0.110
-348.464	49.896	-0.122	-0.114
-347.450	-137.927	0.098	-0.011
-346.435	-141.491	0.267	-0.027
-345.420	-76.422	-0.379	-0.132
-344.406	-200.000	0.025	-0.242
-343.391	92.787	-0.236	-0.266
-342.377	800.000	-0.059	0.238
-341.362	-8.111	0.211	-0.142
-340.348	58.979	0.116	-0.113
-339.333	-200.000	0.018	0.199
-338.318	800.000	-0.126	-0.419
-337.304	-200.000	-0.021	-0.292
-336.289	-200.000	-0.013	-0.090
-335.275	20.491	0.100	0.080
-334.260	368.248	-0.149	0.300
-333.245	206.705	0.228	0.352
-332.231	-200.000	0.050	0.311
-331.216	-200.000	-0.020	0.139
-330.202	-73.532	0.216	0.078
-329.187	6.510	-0.233	0.172
-328.172	302.098	-0.193	0.354
-327.158	379.474	-0.078	0.159
-326.143	567.353	-0.096	-0.232
-325.129	299.290	0.190	0.347
-324.114	-36.309	-0.319	0.171
-323.099	50.047	0.170	-0.159
-322.085	-200.000	0.047	0.298
-321.070	-28.981	0.257	-0.147
-320.056	-63.060	-0.101	0.041
-319.041	75.356	0.046	-0.048
-318.026	49.491	0.087	-0.082
-317.012	-78.589	0.163	-0.055
-315.997	-119.238	-0.188	-0.033
-314.983	800.000	-0.130	0.442
-313.968	-158.294	-0.498	-0.029
-312.953	142.986	0.132	-0.174
-311.939	389.720	-0.099	-0.204
-310.924	-31.095	-0.176	0.099
-309.910	82.964	0.258	-0.279
-308.895	-21.266	-0.198	-0.120
-307.880	-200.000	-0.012	0.125
-306.866	587.167	-0.035	0.087
-305.851	-200.000	-0.056	-0.496
-304.837	-43.944	-0.172	-0.086
-303.822	-200.000	0.042	0.214
-302.807	-200.000	-0.001	-0.087
-301.793	18.497	0.173	-0.137
-300.778	800.000	-0.053	0.172
-299.764	-119.397	-0.106	-0.018
-298.749	268.481	-0.165	-0.288
-297.735	668.982	0.134	-0.344
-296.720	165.207	-0.120	-0.169
-295.705	6.153	-0.151	0.111
-294.691	184.799	0.163	-0.240
-293.676	-92.461	-0.062	-0.017
-292.662	-200.000	-0.024	-0.335
-291.647	-29.587	-0.439	-0.249
-290.632	35.088	0.312	-0.271
-289.618	14.900	-0.167	-0.129
-288.603	411.903	0.143	0.302
-287.589	70.036	-0.012	0.012
-286.574	161.743	-0.156	-0.217
-285.559	-16.104	-0.101	-0.064
-284.545	-86.759	-0.031	0.009
-283.530	208.819	0.089	-0.138
-282.516	-110.325	-0.085	-0.018
-281.501	-4.431	0.064	0.044
-280.486	800.000	0.058	-0.211
-279.472	267.347	0.087	-0.150
-278.457	-71.068	0.293	-0.109
-277.443	-200.000	0.030	0.215
-276.428	781.017	0.030	-0.083
-275.413	84.483	0.182	-0.198
-274.399	292.566	-0.149	-0.269
-273.384	357.423	0.072	-0.142
-272.370	-200.000	0.065	0.432
-271.355	407.753	0.081	-0.169
-270.340	252.572	-0.065	0.110
-269.326	800.000	0.130	-0.483
-268.311	-3.392	-0.176	-0.122
-267.297	-56.065	-0.262	0.116
-266.282	-139.350	-0.254	0.027
-265.267	-53.146	0.355	-0.162
-264.253	-200.000	-0.015	-0.083
-263.238	-105.370	0.424	0.096
-262.224	800.000	0.069	-0.272
-261.209	106.296	-0.192	-0.225
-260.195	-38.049	0.251	-0.132
-259.180	-115.669	-0.192	-0.036
-258.165	-38.278	-0.164	-0.086
-257.151	-108.637	0.164	0.035
-256.136	-200.000	0.026	0.430
-255.122	47.303	-0.111	-0.103
-254.107	450.732	-0.140	-0.306
-253.092	372.333	0.059	0.119
-252.078	-57.906	-0.233	0.101
-251.063	171.950	-0.156	-0.222
-250.049	140.155	-0.105	-0.137
-249.034	-79.014	0.085	-0.029
-248.019	627.167	0.126	-0.314
-247.005	71.887	-0.204	-0.211
-245.990	116.869	0.070	0.085
-244.976	100.899	0.155	-0.178
-243.961	-11.762	0.146	-0.095
-242.946	-200.000	-0.024	0.218
-241.932	25.572	-0.119	0.098
-240.917	800.000	-0.015	-0.053
-239.903	4.546	0.255	-0.185
-238.888	-166.805	0.246	0.010
-237.873	800.000	0.080	0.221
-236.859	-173.763	-0.155	0.005
-235.844	-200.000	0.052	0.262
-234.830	237.121	-0.194	0.319
-233.815	-45.911	0.051	-0.025
-232.800	153.787	0.172	0.233
-231.786	-32.288	-0.261	0.144
-230.771	-200.000	-0.011	-0.137
-229.757	133.362	-0.157	-0.201
-228.742	-125.535	0.115	0.017
-227.727	-1.707	0.155	-0.108
-226.713	543.666	0.082	0.194
-225.698	-200.000	0.029	-0.260
-224.684	365.934	0.166	0.331
-223.669	-200.000	0.024	0.347
-222.655	-39.468	0.252	-0.131
-221.640	496.549	0.097	-0.221
-220.625	-69.363	0.018	-0.007
-219.611	129.082	0.061	0.077
-218.596	800.000	0.132	-0.398
-217.582	-12.482	-0.227	0.147
-216.567	-200.000	0.002	-0.144
-215.552	519.146	0.097	0.226
-214.538	82.497	-0.245	0.263
-213.523	678.795	-0.038	0.098
-212.509	438.716	0.156	-0.336
-211.494	-200.000	0.038	-0.230
-210.479	-200.000	0.036	0.167
-209.465	90.043	-0.075	-0.083
-208.450	-112.255	-0.266	-0.053
-207.436	-111.684	-0.143	0.029
-206.421	138.858	0.212	0.275
-205.406	44.862	0.071	-0.065
-204.392	-161.443	0.343	-0.018
-203.377	740.747	-0.142	0.377
-202.363	-109.823	0.302	-0.063
-201.348	378.891	0.176	-0.356
-200.333	12.020	0.156	-0.119
-199.319	-200.000	-0.001	-0.068
-198.304	218.877	0.225	0.355
-197.290	-109.504	-0.095	-0.020
-196.275	352.835	0.083	0.163
-195.260	23.795	0.073	0.060
-194.246	-167.618	0.222	0.009
-193.231	800.000	-0.003	0.014
-192.217	-54.597	0.074	0.033
-191.202	129.517	-0.203	0.257
-190.187	-200.000	-0.018	-0.146
-189.173	-9.374	0.293	-0.194
-188.158	-86.145	0.099	0.030
-187.144	9.898	-0.051	-0.039
-186.129	-108.147	0.368	0.079
-185.114	-123.918	-0.153	0.024
-184.100	-60.832	-0.067	0.028
-183.085	606.159	-0.174	-0.428
-182.071	-92.553	0.191	0.053
-181.056	800.000	0.043	0.150
-180.042	-81.216	-0.096	0.031
-179.027	-4.938	0.230	-0.157
-178.012	-107.099	-0.082	0.018
-176.998	800.000	-0.113	-0.452
-175.983	-54.817	0.271	-0.121
-174.969	800.000	-0.099	-0.285
-173.954	-78.657	0.140	0.047
-172.939	-115.983	-0.341	-0.063
-171.925	800.000	0.064	-0.248
-170.910	800.000	-0.037	-0.106
-169.896	-139.116	0.143	-0.015
-168.881	-93.081	0.297	-0.082
-167.866	81.598	-0.212	-0.227
-166.852	-200.000	0.019	0.232
-165.837	-110.232	0.328	0.068
-164.823	-153.987	-0.389	-0.026
-163.808	-90.770	-0.320	-0.091
-162.793	-5.536	0.091	-0.062
-161.779	774.892	0.031	-0.083
-160.764	654.846	0.139	0.353
-159.750	-67.353	-0.175	-0.068
-158.735	-101.911	-0.162	-0.039
-157.720	132.742	-0.058	-0.073
-156.706	-200.000	0.077	0.549
-155.691	36.057	-0.110	-0.095
-154.677	58.320	-0.215	0.208
-153.662	-200.000	-0.055	0.271
-152.647	-7.838	-0.172	0.115
-151.633	135.731	0.101	-0.130
-150.618	800.000	0.035	-0.119
-149.604	-200.000	-0.017	-0.246
-148.589	333.654	0.102	-0.195
-147.574	203.994	0.189	-0.289
-146.560	-69.035	0.183	-0.070
-145.545	449.853	-0.105	-0.229
-144.531	800.000	0.089	-0.271
-143.516	-200.000	-0.010	0.109
-142.502	-75.767	-0.062	-0.022
-141.487	-144.208	0.264	0.024
-140.472	-200.000	0.017	0.171
-139.458	214.777	0.028	-0.043
-138.443	241.850	0.101	-0.166
-137.429	153.989	0.022	0.029
-136.414	748.540	-0.096	-0.254
-135.399	-166.222	0.143	-0.006
-134.385	-132.482	-0.077	0.010
-133.370	92.341	0.139	-0.154
-132.356	-112.735	0.454	0.089
-131.341	800.000	-0.096	-0.315
-130.326	31.385	-0.321	0.272
-129.312	-150.060	-0.133	0.010
-128.297	22.135	0.148	0.119
-127.283	-200.000	-0.002	0.252
-126.268	-186.466	0.113	0.002
-125.253	188.812	-0.181	-0.268
-124.239	15.940	-0.181	-0.140
-123.224	-200.000	0.076	-0.339
-122.210	-200.000	0.004	0.046
