DTS Sentinel unit serial number:	SN413079Multiplexer serial number:	ORYXHardware model number:	OX4-SRSoftware version number:	ORYX F/W v4.00 Oryx Data Collector v3.7.2.0data status	okinstallation	princeton_trtdifferential loss correction	single-endedforward channel	channel 3reverse channel	N/Adate	2019/09/18time	22:08:35forward acquisition time	60.00reverse acquisition time	0.00gamma	496.2192k internal	0.2344k external	0.2344temperature offset calibration	0.9992default loss term (dB/km)	0.3790temperature slope calibration	1.0000multiplexer offset coefficient	1.0000multiplexer slope coefficient	1.0000fibre end	0.00T internal ref (°C)	24.47T ext. ref 1 (°C)	0.81T ext. ref 2 (°C)	18.26length (m)	temperature (°C)	Stokes	anti-Stokes-747.200	800.000	-0.029	0.115
-746.185	-200.000	-0.021	-0.137
-745.171	-90.231	0.322	0.094
-744.156	-114.984	-0.250	0.048
-743.142	72.753	-0.272	0.284
-742.127	-200.000	-0.004	0.417
-741.112	10.936	0.108	-0.083
-740.098	-113.909	-0.031	0.006
-739.083	-21.016	0.174	0.106
-738.069	-80.263	-0.224	-0.075
-737.054	800.000	0.085	0.241
-736.039	59.944	-0.148	-0.146
-735.025	-200.000	0.003	0.223
-734.010	74.332	0.139	0.147
-732.996	-171.444	-0.331	-0.011
-731.981	195.176	-0.176	0.268
-730.966	-200.000	-0.019	-0.180
-729.952	-89.491	-0.228	0.067
-728.937	74.574	-0.283	0.297
-727.923	-183.823	-0.139	-0.002
-726.908	95.418	-0.159	0.182
-725.894	-200.000	0.029	0.147
-724.879	18.012	-0.080	0.064
-723.864	410.131	-0.156	-0.331
-722.850	-74.958	-0.286	-0.102
-721.835	-184.443	0.126	-0.002
-720.821	231.298	-0.159	-0.260
-719.806	-200.000	0.010	-0.273
-718.791	9.928	-0.189	-0.143
-717.777	-200.000	-0.025	0.250
-716.762	170.716	0.283	0.405
-715.748	-200.000	0.006	0.095
-714.733	-66.912	-0.245	0.097
-713.718	-77.790	-0.184	-0.064
-712.704	99.031	-0.276	-0.319
-711.689	796.657	0.073	0.202
-710.675	-200.000	0.045	-0.370
-709.660	141.275	-0.118	0.157
-708.645	26.440	0.381	-0.318
-707.631	-62.144	0.191	-0.080
-706.616	-85.801	-0.126	0.039
-705.602	14.835	-0.301	-0.235
-704.587	-138.605	0.109	0.012
-703.572	800.000	-0.031	-0.107
-702.558	-29.267	0.183	-0.104
-701.543	6.909	-0.010	0.008
-700.529	800.000	0.040	0.125
-699.514	-82.902	0.121	0.039
-698.499	103.378	0.134	0.157
-697.485	-143.970	0.085	-0.008
-696.470	-21.108	0.049	-0.030
-695.456	-200.000	-0.006	0.203
-694.441	-67.278	-0.055	-0.022
-693.426	-87.916	0.401	-0.121
-692.412	-200.000	-0.053	-0.319
-691.397	-114.554	-0.260	-0.050
-690.383	14.683	0.063	-0.049
-689.368	-171.411	-0.263	0.009
-688.354	-17.335	0.295	-0.186
-687.339	86.004	-0.181	0.199
-686.324	-7.313	-0.054	0.036
-685.310	-78.903	0.054	-0.018
-684.295	-200.000	0.101	-0.507
-683.281	22.203	-0.138	-0.112
-682.266	-173.448	-0.032	0.001
-681.251	-21.296	0.084	0.051
-680.237	-164.145	-0.433	0.020
-679.222	-200.000	-0.018	-0.188
-678.208	-131.357	-0.042	-0.006
-677.193	800.000	0.078	0.235
-676.178	800.000	0.004	0.012
-675.164	39.745	-0.086	-0.077
-674.149	539.838	-0.041	0.097
-673.135	-200.000	-0.040	-0.207
-672.120	-105.975	0.430	-0.097
-671.105	614.765	-0.045	-0.112
-670.091	87.658	0.125	0.138
-669.076	-131.468	-0.216	-0.028
-668.062	800.000	-0.030	-0.085
-667.047	-122.221	0.416	-0.068
-666.032	290.538	-0.108	0.196
-665.018	-160.829	0.228	0.012
-664.003	-33.454	-0.175	0.096
-662.989	-200.000	0.039	-0.300
-661.974	-10.222	-0.096	-0.063
-660.959	-61.922	0.172	0.072
-659.945	-128.082	-0.271	0.039
-658.930	-200.000	0.017	-0.314
-657.916	-52.378	-0.158	0.073
-656.901	800.000	0.096	-0.284
-655.886	74.470	0.168	0.176
-654.872	-38.854	0.163	0.085
-653.857	122.686	0.072	0.090
-652.843	-186.405	-0.247	-0.004
-651.828	78.237	-0.028	-0.030
-650.814	-26.745	-0.122	0.071
-649.799	-45.102	-0.129	-0.064
-648.784	19.351	0.114	-0.091
-647.770	-200.000	-0.008	-0.072
-646.755	-117.321	-0.250	-0.045
-645.741	95.044	0.114	-0.129
-644.726	-200.000	0.017	-0.094
-643.711	243.930	-0.069	0.116
-642.697	-60.486	0.253	-0.107
-641.682	-64.515	-0.123	-0.050
-640.668	-86.226	-0.076	0.023
-639.653	-200.000	-0.036	-0.159
-638.638	-17.312	-0.356	0.223
-637.624	-200.000	0.016	0.132
-636.609	-200.000	-0.029	-0.218
-635.595	-17.224	0.103	0.064
-634.580	800.000	-0.066	-0.231
-633.565	-200.000	-0.041	-0.201
-632.551	431.701	0.067	-0.145
-631.536	5.021	-0.222	0.162
-630.522	800.000	0.049	0.215
-629.507	317.144	0.144	0.271
-628.492	-124.860	-0.266	-0.041
-627.478	64.429	-0.147	0.147
-626.463	-79.830	-0.108	-0.036
-625.449	118.936	-0.135	0.166
-624.434	12.304	0.195	0.150
-623.419	800.000	-0.094	-0.262
-622.405	800.000	-0.087	-0.321
-621.390	-95.090	-0.215	0.058
-620.376	-200.000	-0.019	-0.314
-619.361	-94.578	0.082	-0.022
-618.346	-103.641	0.277	-0.065
-617.332	190.919	-0.072	-0.108
-616.317	800.000	-0.043	0.130
-615.303	3.342	-0.236	0.171
-614.288	143.873	-0.109	0.145
-613.273	-77.492	-0.408	-0.141
-612.259	12.785	-0.220	-0.169
-611.244	197.698	-0.287	0.436
-610.230	-95.756	0.375	0.100
-609.215	96.836	-0.099	0.112
-608.201	800.000	-0.109	-0.371
-607.186	-25.517	0.295	-0.173
-606.171	-109.250	-0.066	0.014
-605.157	-168.452	-0.310	0.012
-604.142	-200.000	-0.081	-0.501
-603.128	35.461	0.181	-0.158
-602.113	-77.050	0.140	0.049
-601.098	301.175	0.087	0.160
-600.084	-54.078	0.169	0.077
-599.069	-200.000	-0.047	-0.223
-598.055	185.679	-0.107	-0.159
-597.040	800.000	-0.071	0.195
-596.025	-123.271	0.212	-0.034
-595.011	52.453	-0.205	-0.194
-593.996	98.581	0.194	-0.223
-592.982	13.418	0.092	0.071
-591.967	161.869	-0.253	-0.352
-590.952	148.504	-0.125	0.168
-589.938	150.976	0.119	-0.161
-588.923	410.476	0.136	-0.286
-587.909	-199.437	0.061	0.000
-586.894	-67.784	-0.091	0.036
-585.879	-58.136	-0.129	-0.056
-584.865	-106.020	-0.252	-0.056
-583.850	-84.631	-0.151	-0.047
-582.836	9.585	0.018	0.013
-581.821	-99.432	0.122	0.031
-580.806	-106.976	-0.284	-0.062
-579.792	-200.000	0.011	0.115
-578.777	-121.947	0.167	-0.027
-577.763	124.608	0.101	-0.126
-576.748	-9.511	0.044	0.029
-575.733	-200.000	0.066	0.354
-574.719	-200.000	0.002	0.110
-573.704	800.000	-0.116	0.375
-572.690	-142.718	0.114	-0.011
-571.675	800.000	0.012	-0.053
-570.661	-167.499	-0.229	-0.009
-569.646	-189.527	-0.461	-0.005
-568.631	189.095	-0.054	-0.080
-567.617	-89.309	-0.359	-0.105
-566.602	717.363	0.252	-0.666
-565.588	-62.754	-0.093	-0.038
-564.573	-87.549	-0.061	-0.018
-563.558	-31.041	-0.213	0.120
-562.544	-74.452	0.180	0.064
-561.529	278.683	0.085	0.150
-560.515	-114.209	-0.204	-0.039
-559.500	-200.000	0.007	0.071
-558.485	800.000	-0.050	0.207
-557.471	800.000	-0.036	0.141
-556.456	-53.113	-0.098	0.045
-555.442	-12.930	0.127	-0.082
-554.427	-35.818	-0.141	0.076
-553.412	-200.000	-0.053	0.249
-552.398	-70.349	0.251	-0.095
-551.383	135.220	0.122	-0.158
-550.369	-85.451	-0.242	0.075
-549.354	-116.056	0.183	0.034
-548.339	-155.200	0.321	-0.021
-547.325	114.882	0.128	0.155
-546.310	-200.000	0.366	0.000
-545.296	-91.953	0.065	0.018
-544.281	278.067	-0.140	-0.248
-543.266	-69.920	0.185	0.070
-542.252	800.000	-0.108	-0.300
-541.237	124.086	-0.125	-0.156
-540.223	-37.758	0.326	-0.172
-539.208	508.926	-0.116	0.267
-538.193	-23.631	0.189	-0.112
-537.179	-50.609	0.261	-0.122
-536.164	-60.763	-0.152	-0.064
-535.150	100.588	-0.075	0.087
-534.135	-59.365	-0.312	0.133
-533.121	-177.191	0.079	0.002
-532.106	-103.416	0.101	0.024
-531.091	800.000	-0.084	-0.285
-530.077	-149.064	-0.208	0.017
-529.062	-184.984	0.321	-0.005
-528.048	800.000	0.031	0.123
-527.033	-183.884	0.326	-0.005
-526.018	-78.648	-0.201	-0.068
-525.004	-175.959	0.427	-0.011
-523.989	62.433	-0.120	0.119
-522.975	800.000	-0.081	-0.244
-521.960	-21.539	0.093	-0.056
-520.945	800.000	-0.071	-0.209
-519.931	380.106	-0.118	0.239
-518.916	332.842	0.232	-0.444
-517.902	800.000	-0.036	0.111
-516.887	-200.000	0.012	-0.158
-515.872	-19.414	-0.309	0.190
-514.858	-104.040	0.099	-0.023
-513.843	53.760	-0.111	-0.106
-512.829	800.000	-0.118	-0.495
-511.814	116.813	-0.198	-0.241
-510.799	-200.000	-0.070	-0.361
-509.785	-200.000	0.051	0.262
-508.770	56.238	-0.156	-0.150
-507.756	-71.423	0.320	-0.119
-506.741	-134.053	0.214	-0.026
-505.726	5.945	-0.289	-0.212
-504.712	-131.066	-0.306	0.041
-503.697	-102.297	0.199	0.047
-502.683	800.000	-0.062	0.180
-501.668	-39.400	-0.093	-0.048
-500.653	-200.000	-0.013	0.061
-499.639	21.807	0.215	-0.173
-498.624	-82.928	0.018	0.006
-497.610	42.928	-0.062	0.056
-496.595	331.192	0.090	0.172
-495.581	47.550	0.106	0.098
-494.566	-200.000	-0.019	0.153
-493.551	-31.422	0.152	-0.085
-492.537	56.522	-0.220	-0.212
-491.522	-36.186	0.341	-0.182
-490.508	-200.000	0.021	-0.130
-489.493	-200.000	0.018	-0.184
-488.478	800.000	0.064	0.234
-487.464	-114.502	-0.181	0.034
-486.449	-200.000	-0.006	-0.184
-485.435	800.000	0.081	-0.343
-484.420	162.543	-0.173	-0.240
-483.405	-87.561	-0.239	-0.072
-482.391	-200.000	0.015	0.245
-481.376	2.909	-0.149	0.107
-480.362	-90.798	-0.047	-0.013
-479.347	-80.638	0.129	-0.043
-478.332	-108.513	-0.296	0.063
-477.318	-136.101	-0.248	-0.029
-476.303	69.569	-0.212	0.216
-475.289	-26.795	-0.103	0.059
-474.274	-143.796	0.146	-0.014
-473.259	800.000	0.050	0.166
-472.245	-117.832	-0.113	-0.020
-471.230	-200.000	0.022	-0.108
-470.216	80.345	-0.204	0.218
-469.201	174.681	-0.281	-0.402
-468.186	-160.173	0.086	0.005
-467.172	668.830	-0.039	-0.101
-466.157	-109.878	-0.272	0.057
-465.143	-62.469	-0.127	0.052
-464.128	-85.810	-0.311	0.096
-463.113	-90.163	0.177	0.051
-462.099	744.383	-0.119	0.317
-461.084	-200.000	-0.011	0.329
-460.070	-91.820	-0.153	0.043
-459.055	-9.970	0.187	-0.123
-458.040	-200.000	-0.020	-0.120
-457.026	-157.352	-0.290	0.017
-456.011	100.481	0.181	0.208
-454.997	-179.439	0.146	-0.003
-453.982	-71.826	0.167	0.062
-452.968	746.317	-0.088	-0.235
-451.953	800.000	0.043	-0.119
-450.938	-200.000	0.002	-0.292
-449.924	781.260	-0.026	0.071
-448.909	96.461	-0.259	-0.293
-447.895	-16.224	0.049	-0.031
-446.880	-25.386	0.172	0.101
-445.865	110.060	-0.205	-0.243
-444.851	534.979	0.068	0.159
-443.836	1.706	0.201	-0.143
-442.822	-27.467	0.057	0.033
-441.807	-23.322	0.169	0.100
-440.792	290.476	-0.095	0.171
-439.778	-126.429	-0.035	0.005
-438.763	-43.683	0.219	0.109
-437.749	536.696	0.061	0.143
-436.734	19.797	-0.184	-0.146
-435.719	-3.603	0.162	0.112
-434.705	120.965	-0.036	0.045
-433.690	-200.000	-0.028	-0.186
-432.676	-200.000	-0.053	-0.311
-431.661	453.456	0.200	-0.437
-430.646	125.736	0.096	0.120
-429.632	-64.806	-0.060	0.024
-428.617	-146.168	0.043	-0.004
-427.603	-33.974	0.113	0.062
-426.588	16.299	-0.341	0.266
-425.573	218.797	-0.060	0.095
-424.559	173.833	0.229	0.326
-423.544	-172.090	-0.241	-0.008
-422.530	5.937	-0.237	0.174
-421.515	3.163	-0.041	0.029
-420.500	7.028	-0.118	-0.087
-419.486	-64.736	-0.328	0.131
-418.471	-106.638	0.157	0.034
-417.457	524.970	-0.037	-0.085
-416.442	103.032	0.115	0.133
-415.428	-126.398	0.102	-0.015
-414.413	169.647	-0.138	0.195
-413.398	371.653	0.162	-0.324
-412.384	-131.472	0.210	0.027
-411.369	-124.454	0.106	-0.016
-410.355	-200.000	-0.008	0.221
-409.340	271.223	0.174	-0.302
-408.325	18.658	0.038	0.030
-407.311	-167.244	0.064	0.003
-406.296	-103.914	0.161	0.037
-405.282	-112.293	-0.211	0.042
-404.267	-51.460	0.318	0.147
-403.252	-141.056	-0.299	-0.030
-402.238	61.541	0.304	0.298
-401.223	217.159	0.149	-0.235
-400.209	161.283	-0.084	-0.116
-399.194	6.353	-0.320	0.234
-398.179	-64.177	0.308	0.124
-397.165	315.020	0.110	0.205
-396.150	-200.000	-0.071	0.000
-395.136	800.000	-0.116	-0.357
-394.121	800.000	-0.103	0.336
-393.106	34.403	0.226	0.195
-392.092	-48.050	-0.301	-0.144
-391.077	474.070	-0.179	-0.398
-390.063	120.029	0.063	0.078
-389.048	174.072	0.093	-0.132
-388.033	800.000	0.066	0.273
-387.019	-63.812	0.065	-0.026
-386.004	4.454	0.090	-0.065
-384.990	-148.247	-0.157	0.013
-383.975	352.352	0.125	-0.245
-382.960	-75.173	-0.467	-0.165
-381.946	-200.000	-0.063	-0.496
-380.931	82.075	-0.125	0.134
-379.917	431.862	-0.025	0.054
-378.902	-86.609	-0.362	0.109
-377.888	-153.240	-0.130	-0.009
-376.873	-94.239	-0.078	0.021
-375.858	-200.000	-0.013	0.278
-374.844	-107.982	-0.033	0.007
-373.829	800.000	-0.066	-0.258
-372.815	60.739	0.279	0.273
-371.800	433.206	-0.052	-0.111
-370.785	56.964	0.070	-0.067
-369.771	-18.036	0.102	0.063
-368.756	284.203	-0.080	-0.142
-367.742	-57.698	-0.040	0.017
-366.727	-162.991	0.124	-0.006
-365.712	-134.129	0.219	-0.027
-364.698	5.065	-0.119	0.087
-363.683	42.258	0.304	0.272
-362.669	-106.943	-0.458	0.100
-361.654	-95.551	0.202	0.053
-360.639	265.464	0.100	-0.172
-359.625	216.153	-0.133	0.208
-358.610	11.372	-0.099	-0.074
-357.596	128.813	0.099	-0.124
-356.581	-104.423	-0.094	-0.021
-355.566	-190.966	-0.138	0.001
-354.552	800.000	0.125	0.517
-353.537	800.000	-0.083	0.245
-352.523	27.044	-0.149	0.124
-351.508	369.412	0.064	0.127
-350.493	-200.000	0.016	0.252
-349.479	-54.427	-0.261	-0.117
-348.464	25.539	-0.127	-0.104
-347.450	-54.426	0.399	0.178
-346.435	-175.616	-0.105	-0.003
-345.420	-200.000	-0.339	0.000
-344.406	-200.000	0.064	0.308
-343.391	7.798	-0.128	-0.095
-342.377	314.549	-0.071	0.132
-341.362	129.684	-0.057	0.072
-340.348	78.146	0.202	-0.213
-339.333	-200.000	-0.015	0.338
-338.318	96.103	0.182	-0.205
-337.304	110.195	0.126	0.149
-336.289	104.948	0.053	0.062
-335.275	229.840	0.165	-0.265
-334.260	-38.542	0.221	0.115
-333.245	108.052	0.065	0.077
-332.231	38.372	0.285	0.250
-331.216	-162.223	-0.113	0.006
-330.202	-56.845	-0.084	0.037
-329.187	-200.000	-0.038	-0.469
-328.172	636.752	-0.022	-0.055
-327.158	197.224	0.086	0.129
-326.143	800.000	0.061	0.179
-325.129	-200.000	-0.010	-0.123
-324.114	146.980	0.186	0.246
-323.099	260.383	-0.107	0.182
-322.085	138.375	0.035	0.045
-321.070	-200.000	0.056	-0.396
-320.056	-200.000	-0.025	-0.123
-319.041	66.227	0.329	-0.329
-318.026	-200.000	0.030	0.243
-317.012	486.811	0.093	0.208
-315.997	-200.000	-0.009	-0.237
-314.983	-73.157	-0.107	-0.039
-313.968	-47.602	-0.146	-0.070
-312.953	60.462	-0.210	-0.205
-311.939	-200.000	-0.011	-0.097
-310.924	-18.665	0.277	0.170
-309.910	-139.712	0.156	-0.016
-308.895	-200.000	0.032	-0.276
-307.880	-200.000	-0.053	0.370
-306.866	-117.312	0.183	0.033
-305.851	-200.000	-0.036	0.208
-304.837	-114.461	0.291	-0.055
-303.822	61.703	-0.097	0.095
-302.807	74.645	0.067	0.069
-301.793	36.476	0.153	0.132
-300.778	-200.000	-0.012	0.235
-299.764	-3.745	-0.275	0.188
-298.749	-200.000	0.005	-0.099
-297.735	399.101	-0.054	0.111
-296.720	800.000	0.054	0.189
-295.705	800.000	-0.054	-0.147
-294.691	174.162	-0.110	-0.156
-293.676	-200.000	0.054	0.251
-292.662	-70.459	0.287	0.107
-291.647	-156.517	-0.215	-0.013
-290.632	-45.886	0.285	0.138
-289.618	278.480	0.030	0.053
-288.603	177.810	0.118	0.170
-287.589	598.859	-0.033	-0.081
-286.574	-200.000	-0.055	0.309
-285.559	-200.000	-0.018	0.269
-284.545	-13.545	-0.033	-0.021
-283.530	-82.269	0.247	-0.079
-282.516	-54.079	-0.179	0.080
-281.501	800.000	-0.103	0.308
-280.486	-27.597	0.222	0.126
-279.472	-200.000	-0.011	-0.582
-278.457	-27.818	-0.181	-0.103
-277.443	335.790	-0.144	-0.275
-276.428	-34.798	-0.175	-0.094
-275.413	-118.352	0.046	0.008
-274.399	435.187	0.096	0.206
-273.384	800.000	0.031	0.104
-272.370	64.690	-0.205	-0.204
-271.355	-71.473	0.174	0.064
-270.340	459.074	0.075	-0.163
-269.326	800.000	-0.105	0.401
-268.311	62.759	-0.105	0.103
-267.297	109.079	0.123	-0.145
-266.282	363.983	0.139	-0.275
-265.267	2.799	-0.228	-0.163
-264.253	-103.152	0.431	-0.100
-263.238	-200.000	0.020	-0.155
-262.224	-200.000	-0.018	-0.185
-261.209	-51.867	-0.188	-0.086
-260.195	-33.722	0.034	0.019
-259.180	-92.236	-0.127	0.035
-258.165	800.000	0.082	-0.294
-257.151	590.957	-0.070	-0.169
-256.136	-87.973	-0.111	-0.033
-255.122	45.336	0.134	0.121
-254.107	219.122	-0.279	-0.439
-253.092	37.983	0.095	-0.083
-252.078	-200.000	0.017	0.293
-251.063	-70.508	0.380	-0.141
-250.049	49.949	0.313	0.289
-249.034	-200.000	-0.024	0.390
-248.019	-70.712	-0.145	0.054
-247.005	-134.998	0.354	0.042
-245.990	70.112	-0.199	0.202
-244.976	-13.830	0.207	0.132
-243.961	-200.000	-0.008	-0.342
-242.946	-129.574	0.271	0.037
-241.932	-200.000	0.078	-0.513
-240.917	32.915	-0.194	0.165
-239.903	-67.251	-0.382	0.147
-238.888	-200.000	0.050	-0.256
-237.873	800.000	0.031	0.098
-236.859	-152.841	0.156	0.011
-235.844	-78.961	0.328	-0.109
-234.830	800.000	0.040	0.155
-233.815	-117.118	0.057	0.010
-232.800	-200.000	-0.012	0.135
-231.786	377.719	0.074	-0.149
-230.771	138.027	0.059	0.075
-229.757	372.960	-0.039	-0.079
-228.742	-159.303	0.156	-0.009
-227.727	-16.521	-0.301	-0.187
-226.713	-79.640	0.297	-0.098
-225.698	202.689	-0.094	0.142
-224.684	63.575	0.283	0.279
-223.669	43.556	0.285	0.255
-222.655	638.402	-0.059	-0.146
-221.640	414.005	-0.122	-0.255
-220.625	-16.709	0.331	-0.205
-219.611	126.674	-0.084	0.104
-218.596	800.000	-0.047	-0.158
-217.582	-62.934	-0.072	0.029
-216.567	-200.000	0.024	-0.145
-215.552	421.356	0.081	0.170
-214.538	-43.535	0.267	0.132
-213.523	361.351	0.014	0.027
-212.509	216.929	0.165	0.257
-211.494	-105.732	-0.184	-0.041
-210.479	83.780	0.113	-0.120
-209.465	-7.739	-0.184	0.122
-208.450	-77.523	-0.374	-0.127
-207.436	329.518	-0.112	0.212
-206.421	-65.187	-0.282	-0.111
-205.406	89.365	-0.104	-0.113
-204.392	-6.043	-0.287	-0.192
-203.377	-200.000	0.047	0.413
-202.363	-200.000	0.001	0.164
-201.348	-200.000	0.016	0.281
-200.333	800.000	-0.067	0.239
-199.319	-142.801	0.307	-0.029
-198.304	-200.000	0.011	0.103
-197.290	386.599	-0.067	-0.135
-196.275	-200.000	0.012	0.084
-195.260	161.542	0.097	-0.132
-194.246	-130.743	-0.116	0.015
-193.231	-111.226	-0.094	-0.019
-192.217	-200.000	0.032	0.337
-191.202	33.472	-0.325	-0.276
-190.187	135.477	0.212	0.270
-189.173	-123.826	0.223	-0.034
-188.158	-200.000	0.022	0.289
-187.144	800.000	-0.055	0.164
-186.129	318.586	0.146	0.271
-185.114	98.966	-0.222	0.251
-184.100	173.868	0.028	0.039
-183.085	-95.582	0.509	0.134
-182.071	124.892	-0.089	0.110
-181.056	-200.000	-0.018	-0.274
-180.042	183.802	-0.075	-0.108
-179.027	-200.000	-0.007	0.268
-178.012	-85.056	0.170	0.052
-176.998	-34.971	-0.212	0.113
-175.983	173.545	0.083	-0.117
-174.969	-23.934	0.437	-0.256
-173.954	214.274	0.151	0.235
-172.939	211.670	0.233	-0.359
-171.925	169.174	-0.095	-0.132
-170.910	-103.539	0.241	-0.055
-169.896	-200.000	-0.008	-0.232
-168.881	224.341	0.116	0.183
-167.866	377.182	0.081	-0.162
-166.852	-98.625	0.139	-0.035
-165.837	219.294	0.219	0.343
-164.823	-146.424	-0.117	-0.010
-163.808	346.335	-0.114	-0.220
-162.793	143.465	0.094	0.123
-161.779	800.000	-0.122	-0.474
-160.764	344.173	0.057	0.109
-159.750	171.659	-0.165	0.232
-158.735	800.000	0.057	0.207
-157.720	235.060	-0.161	0.259
-156.706	-74.916	0.250	-0.088
-155.691	159.698	0.123	-0.168
-154.677	187.246	-0.057	-0.084
-153.662	613.309	-0.022	0.053
-152.647	-200.000	-0.004	0.206
-151.633	-86.302	0.230	0.069
-150.618	-200.000	-0.035	-0.318
-149.604	-162.445	0.171	-0.008
-148.589	386.745	0.088	-0.177
-147.574	-13.638	-0.191	0.121
-146.560	-15.068	-0.178	-0.112
-145.545	-124.431	-0.236	-0.036
-144.531	31.190	-0.179	-0.150
-143.516	119.211	0.075	0.091
-142.502	773.348	-0.048	-0.128
-141.487	-19.539	0.220	0.133
-140.472	684.074	0.133	0.339
-139.458	54.866	-0.041	0.038
-138.443	-73.723	-0.539	-0.192
-137.429	800.000	0.082	-0.291
-136.414	-200.000	0.013	-0.327
-135.399	800.000	0.060	0.166
-134.385	43.448	0.095	0.085
-133.370	-173.318	-0.076	0.002
-132.356	-125.859	-0.203	0.030
-131.341	-151.126	-0.211	0.015
-130.326	-200.000	0.027	0.148
-129.312	-200.000	-0.013	0.170
-128.297	-200.000	-0.005	-0.061
-127.283	266.560	0.087	-0.148
-126.268	-133.184	0.139	0.017
-125.253	-52.982	-0.314	0.141
-124.239	124.264	-0.086	-0.106
-123.224	416.597	0.050	-0.104
-122.210	-200.000	-0.023	-0.268
