DTS Sentinel unit serial number:	SN413079Multiplexer serial number:	ORYXHardware model number:	OX4-SRSoftware version number:	ORYX F/W v4.00 Oryx Data Collector v3.7.2.0data status	okinstallation	princeton_trtdifferential loss correction	single-endedforward channel	channel 3reverse channel	N/Adate	2019/09/18time	06:24:34forward acquisition time	60.00reverse acquisition time	0.00gamma	496.2192k internal	0.2343k external	0.2343temperature offset calibration	0.9950default loss term (dB/km)	0.3790temperature slope calibration	1.0000multiplexer offset coefficient	1.0000multiplexer slope coefficient	1.0000fibre end	0.00T internal ref (°C)	23.25T ext. ref 1 (°C)	0.19T ext. ref 2 (°C)	17.65length (m)	temperature (°C)	Stokes	anti-Stokes-747.200	95.821	0.194	0.222
-746.185	800.000	0.077	0.272
-745.171	-141.389	0.460	0.047
-744.156	-101.999	-0.290	-0.070
-743.142	-91.867	0.479	0.136
-742.127	408.920	-0.145	-0.308
-741.112	800.000	-0.073	-0.235
-740.098	800.000	-0.039	0.154
-739.083	2.095	0.110	0.079
-738.069	-200.000	-0.007	-0.110
-737.054	72.005	-0.076	-0.079
-736.039	-200.000	0.007	0.044
-735.025	49.264	0.057	0.053
-734.010	-200.000	-0.053	-0.234
-732.996	-46.776	-0.107	-0.052
-731.981	32.254	-0.210	0.181
-730.966	-200.000	-0.031	-0.229
-729.952	-200.000	-0.008	0.141
-728.937	6.539	-0.540	-0.402
-727.923	89.912	-0.133	0.148
-726.908	-80.262	-0.238	0.080
-725.894	-200.000	0.028	0.146
-724.879	800.000	0.065	-0.274
-723.864	-200.000	0.019	-0.385
-722.850	110.044	0.172	-0.207
-721.835	-9.077	-0.134	-0.090
-720.821	-80.490	-0.369	-0.123
-719.806	129.522	-0.128	0.164
-718.791	256.105	-0.088	-0.151
-717.777	68.270	-0.087	0.089
-716.762	800.000	-0.025	-0.100
-715.748	-173.608	0.180	-0.005
-714.733	-160.024	0.187	-0.010
-713.718	70.989	0.097	0.100
-712.704	-7.535	-0.236	-0.160
-711.689	-116.945	-0.129	0.024
-710.675	-96.208	-0.164	0.044
-709.660	-200.000	0.015	0.160
-708.645	122.817	0.194	0.243
-707.631	76.012	-0.290	-0.307
-706.616	454.963	0.189	-0.419
-705.602	134.103	0.232	0.301
-704.587	99.676	-0.162	0.188
-703.572	-80.628	0.374	0.125
-702.558	-170.121	-0.230	-0.008
-701.543	550.618	-0.075	0.179
-700.529	-108.866	0.284	0.061
-699.514	-200.000	-0.034	-0.286
-698.499	-126.567	-0.328	-0.049
-697.485	693.537	0.046	0.121
-696.470	3.868	-0.189	-0.138
-695.456	-26.292	0.088	0.052
-694.441	-134.315	0.270	-0.033
-693.426	36.265	0.256	0.225
-692.412	-200.000	-0.018	0.242
-691.397	-200.000	-0.021	-0.116
-690.383	800.000	-0.027	0.074
-689.368	-200.000	-0.020	0.089
-688.354	800.000	0.089	0.248
-687.339	-42.859	-0.246	0.125
-686.324	-163.593	0.126	0.006
-685.310	228.971	-0.112	-0.183
-684.295	183.930	0.201	-0.297
-683.281	0.842	0.158	-0.113
-682.266	-200.000	0.075	-0.377
-681.251	-200.000	-0.002	-0.070
-680.237	705.728	-0.063	-0.167
-679.222	-130.712	0.294	0.040
-678.208	-50.971	-0.253	-0.118
-677.193	-58.790	0.203	0.088
-676.178	-200.000	-0.051	-0.389
-675.164	-125.269	0.021	-0.003
-674.149	800.000	-0.081	-0.283
-673.135	-136.841	0.024	-0.003
-672.120	327.269	-0.130	0.249
-671.105	-60.136	-0.222	-0.094
-670.091	346.747	0.072	0.142
-669.076	-109.768	-0.161	-0.034
-668.062	-200.000	0.040	-0.226
-667.047	800.000	0.050	0.168
-666.032	142.257	0.070	0.092
-665.018	15.003	-0.119	0.093
-664.003	126.655	-0.084	-0.106
-662.989	-200.000	-0.057	-0.425
-661.974	800.000	-0.096	-0.272
-660.959	800.000	0.092	0.332
-659.945	-134.018	-0.179	0.022
-658.930	-200.000	-0.001	-0.045
-657.916	170.072	0.060	0.085
-656.901	-108.110	0.369	0.080
-655.886	-200.000	-0.014	0.211
-654.872	-200.000	0.030	0.184
-653.857	-138.818	-0.180	0.020
-652.843	-106.316	-0.207	-0.046
-651.828	368.185	0.079	0.159
-650.814	-118.867	0.180	-0.032
-649.799	-141.182	-0.057	-0.006
-648.784	-26.075	0.126	0.074
-647.770	-200.000	-0.003	0.120
-646.755	36.409	-0.198	0.174
-645.741	185.822	0.239	-0.355
-644.726	-95.332	-0.205	-0.055
-643.711	139.548	0.096	0.127
-642.697	-22.949	0.355	0.213
-641.682	134.504	0.163	-0.211
-640.668	174.420	0.124	-0.179
-639.653	159.310	-0.185	-0.257
-638.638	393.964	0.086	-0.178
-637.624	-157.694	-0.284	-0.017
-636.609	607.848	0.102	-0.255
-635.595	-27.248	0.190	0.111
-634.580	465.128	-0.084	0.188
-633.565	-200.000	0.025	0.258
-632.551	-200.000	-0.023	0.164
-631.536	800.000	0.110	-0.308
-630.522	110.324	0.158	0.189
-629.507	395.378	0.151	0.314
-628.492	800.000	0.083	0.241
-627.478	-16.448	-0.035	0.022
-626.463	23.616	0.103	0.085
-625.449	105.949	-0.266	-0.314
-624.434	-69.136	-0.208	0.080
-623.419	-110.044	0.419	-0.087
-622.405	-200.000	-0.007	0.063
-621.390	32.110	-0.353	-0.303
-620.376	6.177	-0.060	-0.044
-619.361	-68.298	-0.259	-0.100
-618.346	42.405	-0.172	-0.156
-617.332	46.473	0.158	-0.146
-616.317	1.133	-0.177	-0.127
-615.303	-152.942	-0.240	0.017
-614.288	658.195	-0.062	-0.159
-613.273	-200.000	0.013	-0.129
-612.259	-200.000	-0.005	0.129
-611.244	-75.694	0.088	-0.031
-610.230	-122.255	0.059	0.010
-609.215	193.984	-0.148	-0.223
-608.201	-200.000	0.026	0.179
-607.186	53.594	-0.321	-0.307
-606.171	-95.048	-0.309	-0.083
-605.157	-200.000	-0.030	-0.286
-604.142	-108.686	0.173	0.037
-603.128	-107.885	-0.393	-0.085
-602.113	-200.000	0.055	-0.365
-601.098	-74.343	0.125	0.045
-600.084	21.053	0.217	-0.175
-599.069	79.682	-0.241	-0.258
-598.055	0.305	0.267	0.190
-597.040	-147.793	-0.171	0.014
-596.025	-169.435	-0.282	-0.010
-595.011	-147.380	0.278	-0.023
-593.996	-146.451	0.093	-0.008
-592.982	-200.000	0.027	-0.306
-591.967	-200.000	-0.022	-0.119
-590.952	-62.664	-0.274	-0.113
-589.938	-82.840	0.213	-0.069
-588.923	-16.780	-0.202	0.127
-587.909	-200.000	0.028	-0.324
-586.894	511.716	-0.048	-0.110
-585.879	427.068	-0.054	-0.115
-584.865	28.685	-0.168	-0.142
-583.850	800.000	-0.016	0.068
-582.836	-51.263	-0.164	0.076
-581.821	26.264	-0.520	-0.432
-580.806	214.842	0.135	0.213
-579.792	-26.393	0.183	-0.107
-578.777	-200.000	0.024	0.289
-577.763	-58.850	-0.195	-0.084
-576.748	-200.000	0.008	-0.254
-575.733	-200.000	0.039	-0.230
-574.719	-200.000	0.035	0.314
-573.704	800.000	-0.036	-0.141
-572.690	103.965	0.133	-0.155
-571.675	-200.000	0.003	-0.270
-570.661	646.573	0.021	0.052
-569.646	-179.594	0.283	-0.006
-568.631	-95.111	0.042	-0.011
-567.617	56.672	-0.229	0.222
-566.602	-47.451	-0.271	0.131
-565.588	43.788	-0.049	-0.045
-564.573	64.302	0.150	-0.150
-563.558	800.000	-0.075	0.277
-562.544	-200.000	-0.037	0.227
-561.529	800.000	-0.089	-0.287
-560.515	-131.104	0.244	-0.032
-559.500	146.440	-0.071	0.095
-558.485	-159.970	-0.166	-0.009
-557.471	-120.367	0.117	-0.020
-556.456	-37.650	-0.109	-0.058
-555.442	338.870	-0.095	-0.183
-554.427	-155.477	0.152	-0.010
-553.412	107.896	-0.130	-0.154
-552.398	150.858	-0.114	0.154
-551.383	-76.578	-0.200	-0.070
-550.369	-0.140	0.074	-0.052
-549.354	-10.021	0.079	-0.052
-548.339	498.890	0.065	-0.149
-547.325	-56.006	0.296	0.131
-546.310	-78.113	0.176	0.060
-545.296	78.323	-0.285	-0.302
-544.281	-200.000	-0.001	-0.133
-543.266	800.000	0.037	0.150
-542.252	283.408	-0.105	0.188
-541.237	-28.012	0.281	-0.162
-540.223	-75.761	0.089	-0.031
-539.208	-200.000	-0.017	-0.337
-538.193	-200.000	0.005	-0.148
-537.179	-29.151	0.282	0.161
-536.164	109.023	-0.169	0.201
-535.150	-200.000	0.020	-0.138
-534.135	337.104	-0.108	0.208
-533.121	-46.241	0.163	-0.080
-532.106	2.502	0.046	0.033
-531.091	-200.000	-0.171	0.000
-530.077	118.089	-0.222	-0.272
-529.062	-4.254	0.299	0.206
-528.048	-200.000	-0.023	0.220
-527.033	-200.000	0.009	0.168
-526.018	-89.332	-0.266	-0.078
-525.004	-116.618	-0.132	0.024
-523.989	-167.596	0.094	-0.004
-522.975	-85.199	-0.343	0.106
-521.960	67.967	0.043	0.044
-520.945	702.845	-0.113	-0.296
-519.931	-124.467	0.247	0.038
-518.916	-200.000	-0.029	-0.128
-517.902	-136.291	-0.155	0.018
-516.887	-200.000	-0.085	0.458
-515.872	-200.000	0.006	0.403
-514.858	-50.882	-0.264	-0.123
-513.843	800.000	0.085	0.278
-512.829	800.000	-0.082	0.227
-511.814	459.731	0.144	0.318
-510.799	300.731	-0.111	-0.203
-509.785	30.274	-0.263	-0.223
-508.770	-200.000	0.022	-0.285
-507.756	800.000	0.041	0.118
-506.741	-35.397	-0.143	-0.077
-505.726	-106.808	0.178	-0.039
-504.712	-108.173	-0.201	0.043
-503.697	33.725	0.188	0.162
-502.683	308.770	0.166	0.308
-501.668	534.983	-0.078	-0.183
-500.653	-200.000	-0.075	-0.640
-499.639	-186.782	0.223	-0.003
-498.624	42.261	-0.274	-0.247
-497.610	-200.000	-0.043	0.202
-496.595	-50.570	-0.198	0.093
-495.581	125.582	0.236	-0.295
-494.566	66.670	-0.271	-0.274
-493.551	-42.113	-0.201	0.102
-492.537	107.960	0.257	0.304
-491.522	-200.000	0.023	0.166
-490.508	235.024	0.162	-0.265
-489.493	-175.131	0.308	0.008
-488.478	-200.000	-0.013	-0.294
-487.464	6.697	0.173	-0.128
-486.449	86.635	-0.260	0.285
-485.435	800.000	-0.139	0.420
-484.420	800.000	0.029	-0.119
-483.405	596.767	0.113	-0.277
-482.391	113.764	0.011	0.014
-481.376	-44.255	0.251	0.125
-480.362	-14.182	-0.151	0.097
-479.347	793.337	-0.057	-0.155
-478.332	-37.074	0.261	0.139
-477.318	20.355	0.089	0.071
-476.303	-110.736	0.182	-0.037
-475.289	83.143	0.086	-0.092
-474.274	314.270	-0.142	0.265
-473.259	-12.489	0.164	-0.106
-472.245	-47.945	-0.264	-0.127
-471.230	-102.975	0.069	-0.016
-470.216	-82.743	0.400	0.128
-469.201	337.602	0.077	0.148
-468.186	-200.000	0.015	-0.103
-467.172	-132.876	0.146	-0.018
-466.157	-91.550	0.104	0.029
-465.143	173.769	-0.049	0.070
-464.128	85.102	0.164	-0.178
-463.113	24.933	0.085	0.070
-462.099	53.632	-0.299	-0.284
-461.084	281.852	-0.102	0.181
-460.070	-200.000	0.027	0.130
-459.055	-100.538	0.247	0.061
-458.040	590.108	0.091	0.223
-457.026	133.424	0.034	0.043
-456.011	651.281	-0.067	-0.171
-454.997	65.322	0.335	-0.336
-453.982	42.308	-0.051	0.046
-452.968	71.638	0.048	-0.050
-451.953	324.498	0.082	-0.156
-450.938	-37.961	-0.441	-0.232
-449.924	800.000	0.038	0.119
-448.909	317.252	-0.090	-0.169
-447.895	-108.222	0.133	-0.028
-446.880	-78.496	-0.047	-0.016
-445.865	-140.211	-0.296	-0.031
-444.851	800.000	-0.062	-0.262
-443.836	441.891	0.124	-0.269
-442.822	-200.000	-0.009	0.040
-441.807	54.396	0.341	-0.325
-440.792	-170.584	-0.484	0.017
-439.778	56.928	0.334	-0.322
-438.763	-124.660	0.391	-0.060
-437.749	346.803	-0.098	-0.191
-436.734	-149.364	-0.143	0.011
-435.719	-200.000	-0.000	0.475
-434.705	117.331	0.239	0.291
-433.690	-200.000	0.011	0.371
-432.676	612.748	-0.144	0.356
-431.661	-27.017	-0.145	-0.084
-430.646	202.836	-0.207	0.317
-429.632	-200.000	-0.026	-0.242
-428.617	-81.023	-0.154	0.051
-427.603	-200.000	0.011	-0.123
-426.588	-200.000	-0.050	-0.403
-425.573	800.000	-0.058	0.186
-424.559	800.000	-0.053	-0.225
-423.544	122.307	0.177	-0.219
-422.530	-200.000	0.001	-0.157
-421.515	66.320	-0.117	0.117
-420.500	22.205	-0.322	-0.260
-419.486	-108.122	-0.037	-0.008
-418.471	799.320	-0.067	0.183
-417.457	-200.000	0.005	0.191
-416.442	-69.026	-0.140	0.053
-415.428	81.972	-0.165	-0.177
-414.413	232.914	-0.125	0.203
-413.398	8.198	0.281	0.208
-412.384	-13.994	-0.441	0.281
-411.369	-5.685	0.263	-0.178
-410.355	-200.000	0.023	0.289
-409.340	-200.000	0.024	-0.115
-408.325	-52.328	0.308	-0.141
-407.311	800.000	0.051	0.158
-406.296	-145.701	-0.365	0.032
-405.282	-104.082	0.471	0.108
-404.267	-161.013	0.278	0.014
-403.252	544.182	-0.043	-0.100
-402.238	-87.382	-0.159	0.048
-401.223	-167.957	-0.101	-0.004
-400.209	-200.000	-0.019	0.224
-399.194	-101.172	0.248	-0.060
-398.179	556.393	-0.092	0.219
-397.165	466.851	-0.152	-0.337
-396.150	-79.461	-0.180	-0.060
-395.136	-200.000	-0.067	0.327
-394.121	-20.932	-0.271	0.164
-393.106	22.848	-0.219	-0.178
-392.092	346.204	0.208	0.405
-391.077	-200.000	0.032	0.490
-390.063	-140.889	-0.218	0.022
-389.048	-41.292	0.397	0.202
-388.033	159.357	0.073	0.101
-387.019	-200.000	-0.016	0.275
-386.004	-46.450	0.187	0.091
-384.990	153.100	-0.107	-0.145
-383.975	122.697	0.096	0.119
-382.960	-200.000	-0.018	-0.292
-381.946	517.403	0.093	-0.216
-380.931	-200.000	-0.255	-0.001
-379.917	-200.000	0.046	-0.245
-378.902	-200.000	-0.003	0.053
-377.888	-200.000	0.012	-0.305
-376.873	-131.302	0.136	-0.018
-375.858	262.358	0.044	0.075
-374.844	-200.000	0.031	0.229
-373.829	-200.000	-0.026	-0.146
-372.815	-88.377	-0.144	0.043
-371.800	-200.000	0.017	0.369
-370.785	-32.491	-0.097	-0.053
-369.771	-95.970	-0.180	0.047
-368.756	177.744	0.151	0.218
-367.742	278.147	0.078	0.138
-366.727	-200.000	0.028	-0.271
-365.712	70.248	-0.136	0.139
-364.698	-3.055	0.290	0.199
-363.683	84.471	0.143	0.154
-362.669	800.000	-0.094	0.304
-361.654	15.441	0.151	0.117
-360.639	-200.000	0.058	0.262
-359.625	-145.903	-0.368	-0.032
-358.610	-110.816	0.178	-0.036
-357.596	800.000	-0.148	0.413
-356.581	47.340	0.098	-0.090
-355.566	190.637	-0.040	-0.059
-354.552	18.575	-0.184	0.145
-353.537	176.566	-0.052	0.074
-352.523	-62.819	0.125	-0.051
-351.508	29.489	0.161	0.135
-350.493	-51.865	-0.320	-0.147
-349.479	-64.424	-0.246	-0.099
-348.464	-34.511	0.041	0.022
-347.450	-135.967	-0.261	-0.030
-346.435	800.000	-0.130	-0.455
-345.420	426.785	0.051	0.107
-344.406	-120.792	0.082	0.014
-343.391	-101.676	0.051	-0.012
-342.377	36.083	-0.280	0.243
-341.362	19.900	-0.181	0.144
-340.348	-43.047	0.088	-0.044
-339.333	-50.803	0.152	-0.071
-338.318	294.680	-0.050	-0.090
-337.304	115.265	-0.257	-0.310
-336.289	248.111	-0.117	0.196
-335.275	17.146	-0.238	-0.186
-334.260	-187.135	0.290	-0.004
-333.245	-84.340	-0.444	0.138
-332.231	-0.825	-0.141	0.099
-331.216	54.069	0.236	0.224
-330.202	-177.308	-0.148	-0.004
-329.187	91.458	-0.091	0.101
-328.172	-13.141	-0.081	0.052
-327.158	-200.000	-0.027	0.135
-326.143	-36.470	0.084	0.044
-325.129	-74.787	0.231	0.082
-324.114	339.229	-0.121	0.232
-323.099	72.505	-0.112	-0.115
-322.085	-25.622	0.404	-0.235
-321.070	263.396	0.195	0.334
-320.056	607.796	0.061	0.150
-319.041	24.116	0.127	-0.103
-318.026	-147.931	0.164	0.013
-317.012	8.947	0.075	-0.056
-315.997	-100.552	-0.280	-0.068
-314.983	61.509	0.222	-0.217
-313.968	-200.000	0.004	-0.259
-312.953	-200.000	-0.066	-0.330
-311.939	800.000	-0.054	-0.211
-310.924	-200.000	-0.015	0.442
-309.910	-200.000	-0.002	0.327
-308.895	-7.292	0.285	0.190
-307.880	-163.268	0.348	0.016
-306.866	-200.000	0.040	-0.282
-305.851	43.722	-0.315	0.284
-304.837	594.069	0.121	0.294
-303.822	-22.149	0.269	0.161
-302.807	-200.000	0.002	-0.087
-301.793	47.758	-0.236	0.217
-300.778	-200.000	-0.033	0.288
-299.764	-27.453	0.100	-0.057
-298.749	-70.237	-0.461	-0.172
-297.735	12.238	-0.192	0.145
-296.720	-130.011	-0.157	0.021
-295.705	128.269	-0.059	-0.074
-294.691	-170.733	-0.196	-0.007
-293.676	-178.228	0.357	0.008
-292.662	800.000	0.028	-0.079
-291.647	-200.000	0.013	0.329
-290.632	800.000	0.157	-0.547
-289.618	121.549	0.250	-0.307
-288.603	45.913	-0.235	0.214
-287.589	-200.000	-0.021	-0.200
-286.574	0.519	-0.149	-0.105
-285.559	331.109	0.101	0.192
-284.545	-31.221	-0.213	0.118
-283.530	-114.870	-0.090	-0.017
-282.516	-112.495	0.412	-0.081
-281.501	800.000	0.054	0.178
-280.486	37.759	-0.065	0.057
-279.472	800.000	-0.048	0.188
-278.457	58.322	0.098	-0.095
-277.443	214.790	-0.088	-0.138
-276.428	-78.152	0.349	-0.118
-275.413	-200.000	-0.005	-0.217
-274.399	-200.000	-0.003	-0.137
-273.384	151.355	0.101	-0.136
-272.370	-71.817	0.201	-0.074
-271.355	-75.529	0.311	0.109
-270.340	37.666	-0.229	-0.200
-269.326	-152.911	-0.240	0.017
-268.311	44.925	-0.063	-0.057
-267.297	-162.373	-0.315	0.015
-266.282	-99.595	0.422	-0.104
-265.267	79.417	-0.136	0.143
-264.253	-155.378	0.531	0.034
-263.238	0.435	0.251	0.177
-262.224	331.468	-0.137	-0.260
-261.209	-111.833	-0.342	-0.068
-260.195	-48.928	0.305	-0.144
-259.180	261.296	-0.076	0.130
-258.165	116.553	-0.110	0.133
-257.151	11.790	0.073	0.055
-256.136	-200.000	0.022	0.181
-255.122	-120.538	0.314	0.052
-254.107	781.582	0.024	0.064
-253.092	338.119	0.109	0.209
-252.078	-123.088	0.083	0.013
-251.063	51.553	0.157	0.147
-250.049	291.514	0.149	0.267
-249.034	-46.525	-0.038	-0.018
-248.019	-173.901	-0.276	0.008
-247.005	-144.677	0.257	0.023
-245.990	-54.833	-0.091	-0.040
-244.976	141.969	0.155	0.201
-243.961	-200.000	-0.005	0.118
-242.946	586.348	0.081	0.196
-241.932	800.000	-0.095	-0.339
-240.917	125.366	0.065	0.081
-239.903	150.654	0.129	0.171
-238.888	4.595	-0.277	0.200
-237.873	-2.611	0.386	0.265
-236.859	-18.364	-0.057	0.035
-235.844	-162.738	0.077	-0.004
-234.830	-164.628	0.106	0.005
-233.815	412.787	-0.076	-0.158
-232.800	190.152	-0.085	0.125
-231.786	-158.595	0.672	0.038
-230.771	-200.000	0.008	0.061
-229.757	-200.000	0.010	-0.063
-228.742	275.806	-0.049	0.084
-227.727	42.577	-0.194	-0.173
-226.713	-107.906	0.313	-0.067
-225.698	-200.000	0.228	-0.001
-224.684	-192.133	-0.400	-0.004
-223.669	772.345	0.127	0.339
-222.655	204.777	0.127	-0.193
-221.640	78.161	-0.049	-0.051
-220.625	-200.000	-0.020	-0.135
-219.611	-148.153	0.196	0.016
-218.596	28.062	-0.211	-0.175
-217.582	-89.775	0.081	0.023
-216.567	147.703	-0.128	0.170
-215.552	185.697	0.115	-0.167
-214.538	-9.870	0.170	0.111
-213.523	-59.380	0.132	0.056
-212.509	-2.723	-0.048	0.033
-211.494	-48.219	0.162	0.077
-210.479	-70.800	-0.263	0.097
-209.465	-35.739	0.133	-0.071
-208.450	-85.127	-0.058	0.018
-207.436	-101.612	-0.205	-0.049
-206.421	-35.967	-0.049	0.026
-205.406	-62.162	-0.071	0.029
-204.392	-200.000	0.045	-0.249
-203.377	42.910	-0.072	0.064
-202.363	-98.156	0.100	0.025
-201.348	224.409	0.033	0.052
-200.333	-149.682	-0.345	0.027
-199.319	-8.255	-0.034	0.022
-198.304	-9.753	-0.329	-0.215
-197.290	-9.610	0.431	0.281
-196.275	-22.781	0.009	0.005
-195.260	-96.036	0.049	-0.013
-194.246	-80.264	0.061	-0.020
-193.231	293.926	0.046	-0.082
-192.217	232.762	-0.153	-0.246
-191.202	128.500	0.110	-0.137
-190.187	5.132	-0.138	-0.100
-189.173	-200.000	-0.022	-0.159
-188.158	105.653	0.232	0.269
-187.144	800.000	-0.076	0.258
-186.129	235.430	0.199	0.321
-185.114	-54.333	-0.120	-0.053
-184.100	800.000	0.077	-0.269
-183.085	413.846	0.086	-0.178
-182.071	453.197	0.047	0.101
-181.056	-51.949	-0.074	-0.034
-180.042	-200.000	-0.062	0.369
-179.027	800.000	0.092	0.302
-178.012	800.000	0.011	0.033
-176.998	297.901	-0.067	-0.121
-175.983	632.747	0.079	-0.197
-174.969	-132.282	0.075	-0.009
-173.954	-78.551	0.318	-0.107
-172.939	-72.168	-0.195	-0.071
-171.925	-200.000	-0.002	0.169
-170.910	275.271	-0.136	-0.237
-169.896	-120.201	-0.223	0.037
-168.881	-27.043	-0.269	-0.154
-167.866	276.015	0.175	0.304
-166.852	-169.747	-0.219	0.008
-165.837	11.258	0.134	-0.100
-164.823	-200.000	-0.017	-0.233
-163.808	0.176	0.077	-0.054
-162.793	800.000	-0.066	-0.195
-161.779	30.478	-0.259	-0.216
-160.764	800.000	0.073	-0.306
-159.750	-114.414	0.145	0.027
-158.735	100.432	-0.099	-0.112
-157.720	271.266	-0.073	0.126
-156.706	-97.453	0.421	-0.107
-155.691	-25.233	-0.183	0.106
-154.677	-200.000	0.124	0.615
-153.662	800.000	-0.017	-0.070
-152.647	548.112	-0.049	-0.114
-151.633	-150.663	0.031	-0.002
-150.618	-95.892	0.283	0.074
-149.604	-200.000	0.023	-0.525
-148.589	45.152	-0.032	0.029
-147.574	88.312	-0.043	-0.047
-146.560	-92.273	0.053	0.015
-145.545	800.000	-0.077	0.259
-144.531	-23.317	0.232	-0.137
-143.516	57.519	-0.058	0.056
-142.502	87.776	0.048	-0.052
-141.487	-200.000	0.031	0.381
-140.472	800.000	-0.122	0.462
-139.458	-26.439	0.169	0.097
-138.443	-42.768	0.311	-0.155
-137.429	417.584	-0.228	-0.477
-136.414	800.000	0.044	0.171
-135.399	69.669	0.092	0.093
-134.385	-69.847	0.193	-0.072
-133.370	596.201	-0.111	-0.270
-132.356	48.276	0.015	-0.014
-131.341	-200.000	-0.060	-0.436
-130.326	-108.861	-0.152	0.032
-129.312	-53.499	0.364	0.163
-128.297	8.682	-0.224	0.165
-127.283	49.415	-0.153	-0.141
-126.268	-34.454	-0.165	-0.088
-125.253	-200.000	0.012	-0.056
-124.239	-200.000	0.001	-0.383
-123.224	-107.261	0.109	0.023
-122.210	-167.849	0.281	-0.011
-121.195	74.470	-0.045	-0.046
