DTS Sentinel unit serial number:	SN413079Multiplexer serial number:	ORYXHardware model number:	OX4-SRSoftware version number:	ORYX F/W v4.00 Oryx Data Collector v3.7.2.0data status	okinstallation	princeton_trtdifferential loss correction	single-endedforward channel	channel 3reverse channel	N/Adate	2019/09/10time	22:22:11forward acquisition time	60.00reverse acquisition time	0.00gamma	496.2192k internal	0.2330k external	0.2330temperature offset calibration	0.9917default loss term (dB/km)	0.3790temperature slope calibration	1.0000multiplexer offset coefficient	1.0000multiplexer slope coefficient	1.0000fibre end	0.00T internal ref (°C)	30.44T ext. ref 1 (°C)	-0.31T ext. ref 2 (°C)	23.74length (m)	temperature (°C)	Stokes	anti-Stokes-747.200	122.633	0.034	-0.043
-746.185	800.000	0.096	0.387
-745.171	-68.838	0.236	-0.092
-744.156	-165.898	0.198	0.009
-743.142	-200.000	-0.003	-0.294
-742.127	-180.038	0.171	0.004
-741.112	-123.367	0.332	-0.053
-740.098	800.000	0.040	0.135
-739.083	800.000	0.015	-0.044
-738.069	-200.000	-0.041	0.261
-737.054	53.014	0.161	-0.155
-736.039	516.592	-0.035	0.083
-735.025	-109.615	0.462	0.098
-734.010	-6.240	-0.335	0.230
-732.996	15.529	-0.095	0.075
-731.981	-107.744	0.136	0.030
-730.966	130.166	0.059	-0.076
-729.952	-48.146	-0.192	-0.093
-728.937	-119.743	0.166	0.029
-727.923	-82.330	0.139	0.045
-726.908	16.697	-0.352	0.280
-725.894	-141.222	-0.064	-0.007
-724.879	219.563	0.128	-0.205
-723.864	137.250	-0.073	0.097
-722.850	-171.178	-0.181	0.006
-721.835	-12.869	-0.192	-0.126
-720.821	-192.832	0.106	0.001
-719.806	-123.436	-0.390	0.063
-718.791	-200.000	0.011	-0.049
-717.777	167.430	-0.082	-0.118
-716.762	146.022	-0.042	0.057
-715.748	-105.045	0.242	-0.056
-714.733	-200.000	-0.021	-0.250
-713.718	16.250	-0.066	-0.052
-712.704	548.068	-0.115	0.276
-711.689	23.007	0.087	0.072
-710.675	-200.000	0.025	0.150
-709.660	-95.889	-0.160	0.043
-708.645	-123.625	0.143	-0.023
-707.631	-200.000	0.050	0.317
-706.616	308.146	0.081	0.151
-705.602	36.751	-0.111	-0.099
-704.587	-143.302	-0.144	-0.014
-703.572	82.589	0.189	0.206
-702.558	800.000	-0.045	-0.127
-701.543	-65.806	-0.152	-0.061
-700.529	664.774	0.031	0.081
-699.514	-178.179	0.342	0.008
-698.499	-63.485	-0.231	-0.096
-697.485	-32.198	-0.109	0.061
-696.470	-156.799	-0.174	-0.011
-695.456	800.000	-0.071	-0.202
-694.441	67.362	-0.135	0.138
-693.426	-165.775	-0.317	0.014
-692.412	-4.376	-0.281	-0.196
-691.397	-25.632	-0.243	-0.144
-690.383	364.140	0.118	-0.239
-689.368	20.975	0.071	-0.058
-688.354	233.790	-0.090	0.149
-687.339	66.789	-0.239	0.245
-686.324	36.886	0.191	0.170
-685.310	-36.877	-0.076	0.041
-684.295	584.669	0.045	-0.111
-683.281	70.682	-0.099	0.103
-682.266	245.586	0.134	-0.226
-681.251	678.053	0.127	-0.331
-680.237	478.940	0.080	-0.182
-679.222	-77.893	0.316	-0.110
-678.208	280.712	-0.136	-0.244
-677.193	-125.426	0.154	0.024
-676.178	349.028	-0.135	-0.267
-675.164	187.152	-0.264	0.395
-674.149	-200.000	0.027	-0.221
-673.135	-6.500	-0.261	-0.179
-672.120	22.400	0.204	0.168
-671.105	-33.820	-0.082	-0.045
-670.091	-16.633	0.198	-0.126
-669.076	-180.177	0.235	0.005
-668.062	-144.165	-0.091	-0.009
-667.047	-120.505	-0.194	-0.033
-666.032	-200.000	-0.009	-0.138
-665.018	-181.417	-0.161	-0.003
-664.003	404.214	0.101	0.214
-662.989	181.419	-0.089	0.131
-661.974	53.480	-0.190	-0.183
-660.959	98.179	-0.028	-0.032
-659.945	11.796	-0.238	-0.183
-658.930	-57.849	0.164	-0.072
-657.916	-162.801	0.195	0.010
-656.901	-76.848	0.081	0.029
-655.886	14.343	-0.258	0.202
-654.872	-200.000	0.037	0.385
-653.857	149.233	0.147	-0.199
-652.843	-200.000	0.065	0.401
-651.828	247.393	-0.121	-0.205
-650.814	-69.827	-0.278	-0.107
-649.799	-37.516	0.147	-0.079
-648.784	-93.970	0.168	-0.046
-647.770	-200.000	0.053	-0.442
-646.755	273.429	-0.095	0.169
-645.741	164.434	0.107	0.151
-644.726	-11.276	0.259	0.171
-643.711	-200.000	0.036	-0.271
-642.697	-49.345	0.161	0.077
-641.682	358.183	0.109	-0.217
-640.668	-105.063	-0.144	-0.033
-639.653	-51.131	0.231	-0.109
-638.638	-10.494	0.054	0.036
-637.624	267.602	-0.117	-0.205
-636.609	-16.071	-0.115	0.073
-635.595	-106.448	-0.126	0.028
-634.580	-34.192	-0.250	-0.138
-633.565	-200.000	-0.026	-0.190
-632.551	800.000	-0.025	0.079
-631.536	800.000	-0.076	-0.250
-630.522	-89.686	-0.206	-0.061
-629.507	28.839	0.233	-0.198
-628.492	-9.857	-0.190	0.126
-627.478	-115.234	0.329	0.062
-626.463	43.233	0.119	-0.109
-625.449	151.447	0.129	-0.176
-624.434	171.954	-0.056	-0.080
-623.419	800.000	-0.078	-0.319
-622.405	311.227	-0.160	-0.300
-621.390	3.149	0.240	-0.175
-620.376	562.008	0.126	-0.305
-619.361	126.949	-0.161	0.205
-618.346	-47.778	-0.052	0.025
-617.332	-115.478	-0.428	0.081
-616.317	632.439	0.107	-0.271
-615.303	800.000	0.095	-0.299
-614.288	-200.000	0.001	-0.012
-613.273	93.533	-0.277	-0.314
-612.259	169.305	0.151	-0.216
-611.244	-74.440	-0.234	0.084
-610.230	140.176	-0.282	0.373
-609.215	103.621	0.130	-0.153
-608.201	-83.518	-0.041	0.013
-607.186	-117.237	0.048	0.009
-606.171	-101.403	0.131	-0.032
-605.157	800.000	0.082	0.283
-604.142	-200.000	0.025	-0.141
-603.128	384.380	-0.134	-0.275
-602.113	163.525	0.090	0.127
-601.098	-80.012	0.186	0.063
-600.084	171.492	0.231	0.332
-599.069	-200.000	0.016	-0.088
-598.055	138.182	-0.063	0.083
-597.040	800.000	-0.084	0.236
-596.025	-49.070	0.243	-0.116
-595.011	-98.245	-0.586	-0.151
-593.996	275.618	0.053	0.094
-592.982	17.596	0.094	-0.075
-591.967	-94.033	-0.114	0.031
-590.952	308.277	-0.149	-0.278
-589.938	-98.570	0.152	-0.039
-588.923	636.586	-0.159	0.403
-587.909	-55.016	0.255	0.115
-586.894	-64.763	-0.098	0.040
-585.879	314.363	0.015	-0.029
-584.865	191.908	-0.076	-0.114
-583.850	685.831	0.056	0.147
-582.836	-51.757	-0.180	-0.084
-581.821	22.998	0.051	-0.042
-580.806	-13.662	0.252	0.163
-579.792	-200.000	0.017	0.317
-578.777	-18.135	-0.415	0.260
-577.763	-110.459	0.138	0.029
-576.748	800.000	-0.168	-0.586
-575.733	-58.635	0.021	0.009
-574.719	9.607	0.279	-0.212
-573.704	109.290	-0.114	-0.136
-572.690	317.673	0.072	-0.136
-571.675	-34.138	0.011	-0.006
-570.661	-149.142	0.214	0.017
-569.646	128.350	-0.134	-0.170
-568.631	-200.000	-0.052	-0.404
-567.617	-200.000	0.004	0.147
-566.602	-167.586	0.199	-0.008
-565.588	158.395	-0.166	0.230
-564.573	-200.000	-0.035	0.280
-563.558	557.669	0.158	-0.381
-562.544	800.000	0.066	-0.233
-561.529	-45.228	0.362	-0.180
-560.515	21.936	-0.098	-0.080
-559.500	-200.000	0.018	-0.276
-558.485	800.000	0.081	0.291
-557.471	-200.000	-0.001	-0.318
-556.456	-64.545	0.269	-0.109
-555.442	-200.000	-0.024	-0.267
-554.427	194.071	0.259	-0.391
-553.412	-130.774	-0.287	-0.038
-552.398	-200.000	0.001	0.181
-551.383	-166.362	-0.069	-0.003
-550.369	-98.264	-0.456	0.117
-549.354	582.349	0.086	-0.211
-548.339	-200.000	0.036	-0.206
-547.325	-155.246	0.302	-0.020
-546.310	-66.319	-0.111	-0.044
-545.296	572.233	-0.108	0.262
-544.281	96.174	0.157	0.179
-543.266	-1.679	-0.322	0.226
-542.252	-200.000	0.041	-0.189
-541.237	250.898	-0.102	0.173
-540.223	800.000	0.093	0.403
-539.208	90.491	-0.165	0.184
-538.193	-200.000	0.004	-0.108
-537.179	-4.341	-0.304	-0.210
-536.164	800.000	-0.027	-0.082
-535.150	-67.806	-0.147	-0.057
-534.135	251.733	-0.189	0.321
-533.121	27.656	-0.137	0.115
-532.106	800.000	0.063	0.200
-531.091	-196.925	0.378	0.002
-530.077	-0.243	0.153	0.109
-529.062	-110.228	0.100	0.021
-528.048	-136.693	-0.299	0.034
-527.033	84.522	0.156	0.170
-526.018	224.617	-0.102	-0.164
-525.004	68.450	-0.283	0.289
-523.989	-200.000	0.023	-0.115
-522.975	-161.132	-0.067	-0.003
-521.960	30.015	-0.179	0.153
-520.945	-200.000	-0.023	0.428
-519.931	-200.000	0.022	-0.104
-518.916	61.061	-0.061	-0.061
-517.902	-103.449	0.273	0.064
-516.887	-200.000	-0.041	-0.269
-515.872	-180.303	-0.316	-0.007
-514.858	62.848	-0.170	-0.169
-513.843	-5.337	-0.199	-0.136
-512.829	-31.035	0.048	0.027
-511.814	800.000	0.068	0.229
-510.799	-200.000	0.052	-0.247
-509.785	412.820	-0.057	-0.121
-508.770	185.901	-0.064	0.094
-507.756	-64.658	-0.188	0.076
-506.741	53.207	0.074	-0.071
-505.726	-128.394	0.205	0.029
-504.712	341.338	0.035	-0.068
-503.697	794.984	-0.095	0.262
-502.683	432.461	-0.082	-0.177
-501.668	-126.703	0.236	0.035
-500.653	-26.987	-0.107	0.063
-499.639	94.832	0.102	-0.115
-498.624	-136.471	0.238	0.028
-497.610	56.616	0.119	0.116
-496.595	98.688	-0.168	0.193
-495.581	-147.194	0.189	-0.016
-494.566	-111.763	0.277	0.056
-493.551	168.644	-0.235	0.334
-492.537	800.000	0.065	0.198
-491.522	429.896	0.091	0.195
-490.508	-200.000	0.046	-0.267
-489.493	800.000	-0.154	0.435
-488.478	102.071	0.162	0.188
-487.464	87.304	-0.130	-0.144
-486.449	800.000	-0.046	-0.142
-485.435	-200.000	0.013	-0.149
-484.420	-20.516	0.090	-0.055
-483.405	101.333	-0.128	0.149
-482.391	-84.055	-0.504	-0.160
-481.376	113.810	0.172	-0.208
-480.362	165.849	-0.045	-0.064
-479.347	-200.000	-0.029	-0.194
-478.332	-200.000	0.039	-0.193
-477.318	130.819	0.094	-0.121
-476.303	31.663	0.076	0.065
-475.289	-37.686	0.038	-0.020
-474.274	-84.795	0.129	-0.040
-473.259	709.389	0.026	-0.069
-472.245	-72.256	-0.062	-0.023
-471.230	800.000	0.036	-0.112
-470.216	230.530	0.157	0.256
-469.201	800.000	0.039	0.165
-468.186	-142.541	-0.209	0.020
-467.172	29.604	-0.230	0.195
-466.157	135.713	-0.099	-0.128
-465.143	-153.768	0.266	-0.018
-464.128	-200.000	0.045	0.272
-463.113	77.524	-0.374	0.396
-462.099	218.676	-0.149	0.237
-461.084	485.275	-0.030	-0.067
-460.070	365.336	0.084	0.169
-459.055	-12.687	0.328	0.213
-458.040	800.000	-0.088	0.248
-457.026	-123.271	0.166	-0.026
-456.011	-200.000	-0.066	-0.425
-454.997	-158.849	-0.325	0.018
-453.982	800.000	-0.104	0.335
-452.968	232.862	-0.100	0.163
-451.953	-25.216	0.126	-0.074
-450.938	-200.000	-0.058	-0.254
-449.924	7.654	-0.243	-0.181
-448.909	-200.000	0.011	-0.142
-447.895	800.000	-0.134	-0.444
-446.880	5.620	-0.234	-0.172
-445.865	-28.024	0.082	0.047
-444.851	800.000	0.093	0.300
-443.836	145.267	0.318	0.424
-442.822	-200.000	0.051	0.363
-441.807	124.539	0.177	0.221
-440.792	-200.000	0.014	-0.303
-439.778	-157.243	-0.360	-0.022
-438.763	-200.000	-0.083	0.464
-437.749	-103.897	0.194	0.045
-436.734	13.492	0.244	-0.188
-435.719	-102.677	0.212	-0.050
-434.705	-200.000	-0.019	-0.560
-433.690	-115.692	-0.231	-0.043
-432.676	-43.518	0.194	-0.097
-431.661	-200.000	-0.032	-0.245
-430.646	-200.000	0.002	0.040
-429.632	800.000	0.129	-0.538
-428.617	55.639	0.133	0.128
-427.603	140.688	-0.101	0.133
-426.588	-185.234	-0.207	-0.003
-425.573	61.879	0.224	0.222
-424.559	-200.000	-0.034	0.186
-423.544	-90.156	-0.154	0.044
-422.530	-30.908	-0.177	-0.100
-421.515	97.861	-0.122	-0.140
-420.500	197.216	-0.099	-0.151
-419.486	800.000	0.040	0.137
-418.471	-32.544	0.065	-0.036
-417.457	800.000	-0.048	-0.155
-416.442	800.000	0.126	-0.433
-415.428	339.585	-0.272	-0.526
-414.413	-20.260	-0.147	-0.090
-413.398	800.000	-0.078	0.234
-412.384	-100.540	-0.117	0.029
-411.369	800.000	0.026	0.086
-410.355	-62.788	0.178	0.073
-409.340	-200.000	-0.012	0.228
-408.325	-200.000	0.001	-0.084
-407.311	-184.640	-0.282	-0.005
-406.296	73.578	0.106	0.110
-405.282	30.197	0.109	0.093
-404.267	-31.976	0.131	0.073
-403.252	186.583	-0.077	0.114
-402.238	-172.332	-0.054	-0.002
-401.223	-85.946	0.156	0.048
-400.209	28.657	-0.041	-0.034
-399.194	-55.191	-0.131	-0.059
-398.179	383.745	0.111	0.228
-397.165	61.416	-0.175	0.172
-396.150	-200.000	-0.018	0.082
-395.136	800.000	0.046	0.181
-394.121	-14.789	0.220	-0.140
-393.106	-48.063	-0.268	-0.128
-392.092	-132.288	0.213	-0.027
-391.077	-106.265	0.020	-0.005
-390.063	-200.000	0.015	0.092
-389.048	-104.028	0.184	0.043
-388.033	110.214	-0.052	0.063
-387.019	800.000	-0.033	-0.115
-386.004	-200.000	0.006	0.043
-384.990	-200.000	0.018	0.178
-383.975	-2.140	0.212	0.148
-382.960	39.527	0.077	0.068
-381.946	84.793	-0.329	-0.358
-380.931	-143.277	-0.158	-0.015
-379.917	291.801	0.191	0.345
-378.902	686.926	-0.021	-0.054
-377.888	-148.591	-0.391	0.032
-376.873	549.832	0.075	0.178
-375.858	-94.941	0.097	-0.026
-374.844	81.740	0.129	-0.139
-373.829	165.348	-0.130	-0.182
-372.815	63.965	-0.120	-0.120
-371.800	85.520	0.170	0.185
-370.785	748.067	-0.036	0.096
-369.771	-63.309	-0.165	-0.067
-368.756	-100.199	0.195	0.048
-367.742	82.277	0.403	0.434
-366.727	-113.822	-0.060	-0.012
-365.712	-200.000	0.004	0.174
-364.698	70.800	-0.264	-0.272
-363.683	-166.490	0.435	-0.018
-362.669	-91.030	-0.102	-0.029
-361.654	-120.340	0.145	-0.025
-360.639	-115.060	-0.074	0.014
-359.625	800.000	-0.067	0.205
-358.610	800.000	-0.033	-0.135
-357.596	9.976	-0.138	0.104
-356.581	177.615	-0.066	0.095
-355.566	610.868	0.012	0.029
-354.552	163.761	-0.149	0.208
-353.537	32.551	0.206	0.177
-352.523	-156.304	0.261	0.016
-351.508	77.335	-0.090	-0.095
-350.493	444.758	-0.044	0.095
-349.479	80.281	0.038	-0.040
-348.464	-37.122	0.364	0.193
-347.450	28.458	0.173	0.145
-346.435	-108.344	-0.311	0.067
-345.420	-200.000	0.007	-0.129
-344.406	-49.633	-0.210	-0.099
-343.391	9.208	0.341	0.255
-342.377	70.023	-0.165	0.169
-341.362	78.320	0.161	0.170
-340.348	-200.000	0.021	0.346
-339.333	67.298	0.260	0.263
-338.318	76.573	0.102	-0.107
-337.304	26.727	-0.140	0.116
-336.289	-189.728	-0.097	-0.001
-335.275	-12.591	-0.439	0.284
-334.260	-77.602	0.155	0.053
-333.245	-122.458	-0.139	-0.022
-332.231	-109.642	0.260	-0.054
-331.216	-87.209	-0.275	0.083
-330.202	-200.000	-0.022	-0.245
-329.187	-183.088	0.030	0.001
-328.172	369.417	-0.143	-0.286
-327.158	-200.000	0.064	-0.426
-326.143	-192.255	0.246	0.002
-325.129	515.198	-0.103	0.238
-324.114	-200.000	-0.004	-0.118
-323.099	697.610	-0.084	-0.219
-322.085	-98.222	0.210	0.053
-321.070	-162.297	-0.338	0.017
-320.056	-113.701	0.257	-0.050
-319.041	-84.552	-0.198	0.062
-318.026	-200.000	0.054	-0.247
-317.012	164.494	0.066	0.092
-315.997	-172.100	0.127	-0.004
-314.983	546.038	0.087	-0.205
-313.968	186.491	-0.154	0.227
-312.953	800.000	0.036	0.104
-311.939	89.536	0.216	0.239
-310.924	137.111	0.247	-0.319
-309.910	-93.725	0.079	-0.022
-308.895	800.000	0.081	-0.242
-307.880	-200.000	-0.015	-0.081
-306.866	211.896	-0.082	0.128
-305.851	-200.000	0.007	-0.386
-304.837	144.175	0.082	0.108
-303.822	163.962	-0.246	-0.343
-302.807	29.162	0.070	0.059
-301.793	-200.000	0.021	-0.155
-300.778	416.619	0.119	0.251
-299.764	800.000	-0.064	0.277
-298.749	557.159	-0.066	0.158
-297.735	-200.000	0.011	-0.070
-296.720	767.609	0.069	0.185
-295.705	-32.683	-0.128	0.070
-294.691	-7.932	0.173	-0.115
-293.676	778.425	0.066	0.180
-292.662	800.000	-0.163	0.590
-291.647	-189.117	-0.181	-0.002
-290.632	-6.184	-0.232	-0.157
-289.618	118.149	-0.114	-0.139
-288.603	800.000	0.046	-0.175
-287.589	-130.178	-0.061	-0.008
-286.574	1.535	0.150	-0.107
-285.559	-12.972	-0.110	0.071
-284.545	306.894	-0.086	0.158
-283.530	-200.000	0.016	0.099
-282.516	484.047	-0.083	0.188
-281.501	-200.000	0.001	-0.014
-280.486	168.309	-0.175	-0.246
-279.472	-31.973	-0.113	0.063
-278.457	-140.234	-0.180	-0.019
-277.443	800.000	0.020	-0.080
-276.428	355.455	-0.115	-0.226
-275.413	451.753	-0.148	0.323
-274.399	398.576	-0.196	0.406
-273.384	322.004	0.136	0.256
-272.370	-71.320	0.072	0.027
-271.355	456.932	0.060	-0.132
-270.340	181.903	0.072	-0.105
-269.326	255.179	-0.053	-0.089
-268.311	-200.000	-0.002	0.015
-267.297	-200.000	-0.031	-0.173
-266.282	-126.339	-0.116	0.017
-265.267	-71.521	0.064	-0.023
-264.253	432.661	0.105	0.225
-263.238	-140.812	0.266	0.027
-262.224	-61.240	-0.159	0.066
-261.209	77.801	0.067	0.071
-260.195	-200.000	0.057	0.287
-259.180	-200.000	0.010	-0.167
-258.165	4.554	-0.147	0.107
-257.151	-53.993	0.281	0.126
-256.136	-200.000	0.020	0.457
-255.122	142.115	-0.099	0.129
-254.107	-200.000	0.007	0.149
-253.092	22.415	-0.296	-0.239
-252.078	109.558	-0.202	0.239
-251.063	496.386	0.082	0.187
-250.049	32.637	0.260	-0.222
-249.034	-40.021	0.184	-0.095
-248.019	49.349	-0.219	-0.203
-247.005	30.806	-0.175	-0.148
-245.990	46.868	0.119	0.109
-244.976	-10.171	-0.295	-0.194
-243.961	407.289	0.030	-0.063
-242.946	101.960	0.109	0.126
-241.932	800.000	0.055	-0.210
-240.917	-200.000	0.017	-0.096
-239.903	733.456	0.094	0.249
-238.888	-200.000	0.013	0.306
-237.873	485.788	-0.161	-0.362
-236.859	-169.014	-0.303	-0.011
-235.844	-200.000	-0.002	-0.037
-234.830	485.324	-0.021	0.047
-233.815	-86.020	0.225	-0.069
-232.800	228.838	-0.068	0.109
-231.786	107.777	0.057	0.067
-230.771	-200.000	0.029	0.267
-229.757	-45.414	-0.197	0.096
-228.742	-90.264	0.392	0.112
-227.727	800.000	-0.050	-0.212
-226.713	147.452	-0.035	0.047
-225.698	-69.312	-0.268	-0.102
-224.684	212.262	0.155	-0.242
-223.669	346.283	-0.088	-0.171
-222.655	-83.367	-0.099	-0.031
-221.640	3.473	0.196	0.141
-220.625	668.288	0.021	0.054
-219.611	-200.000	0.013	-0.077
-218.596	-138.221	0.258	-0.028
-217.582	-10.869	-0.025	0.016
-216.567	273.679	-0.058	0.101
-215.552	-66.432	-0.212	0.083
-214.538	-87.473	-0.085	-0.025
-213.523	-200.000	-0.006	0.108
-212.509	800.000	0.097	-0.275
-211.494	210.667	-0.108	0.167
-210.479	-41.061	-0.252	-0.128
-209.465	90.944	-0.128	-0.141
-208.450	219.443	0.066	-0.104
-207.436	-100.861	-0.086	0.021
-206.421	40.902	-0.255	0.227
-205.406	318.372	0.018	0.034
-204.392	-200.000	0.007	0.217
-203.377	19.137	0.315	0.249
-202.363	-38.224	0.173	0.091
-201.348	658.206	0.059	-0.149
-200.333	19.208	0.239	0.189
-199.319	600.144	0.064	-0.157
-198.304	168.347	0.051	0.072
-197.290	355.538	0.093	-0.183
-196.275	113.459	0.130	-0.156
-195.260	-90.099	-0.198	-0.057
-194.246	-98.383	-0.174	-0.044
-193.231	-98.714	0.334	0.084
-192.217	-200.000	-0.013	0.230
-191.202	-74.298	-0.428	-0.152
-190.187	-137.733	-0.289	0.032
-189.173	113.515	-0.184	-0.221
-188.158	800.000	0.034	-0.098
-187.144	-129.777	-0.237	-0.032
-186.129	242.981	0.125	-0.206
-185.114	-53.281	0.141	-0.064
-184.100	-70.318	-0.106	0.040
-183.085	-200.000	-0.001	-0.322
-182.071	-25.619	-0.066	0.039
-181.056	800.000	-0.008	0.029
-180.042	-51.920	0.296	-0.136
-179.027	-200.000	0.029	-0.173
-178.012	42.694	0.240	0.215
-176.998	-200.000	0.071	0.343
-175.983	355.022	0.244	0.478
-174.969	-113.995	0.091	0.017
-173.954	-5.672	-0.086	0.058
-172.939	40.731	0.090	0.080
-171.925	-200.000	0.001	-0.600
-170.910	66.101	0.315	-0.315
-169.896	-107.087	-0.075	0.016
-168.881	423.635	-0.272	-0.575
-167.866	86.636	0.379	-0.412
-166.852	-200.000	0.097	0.422
-165.837	-91.997	-0.273	-0.076
-164.823	-37.296	0.144	-0.076
-163.808	294.139	0.104	-0.186
-162.793	-71.280	0.196	0.072
-161.779	90.631	0.127	-0.140
-160.764	51.887	-0.052	-0.048
-159.750	-46.378	-0.139	0.067
-158.735	800.000	0.123	0.348
-157.720	373.900	-0.125	0.251
-156.706	-55.068	0.165	0.073
-155.691	-134.221	0.261	0.032
-154.677	-177.130	0.220	0.005
-153.662	-163.822	0.281	-0.013
-152.647	637.022	-0.043	-0.107
-151.633	196.666	0.101	-0.151
-150.618	668.128	0.070	-0.178
-149.604	121.744	0.065	-0.080
-148.589	-72.322	-0.194	0.071
-147.574	-166.378	-0.023	-0.001
-146.560	-100.742	-0.158	0.038
-145.545	21.020	-0.268	0.214
-144.531	166.998	0.080	0.111
-143.516	-123.110	0.140	0.022
-142.502	337.747	0.160	-0.306
-141.487	-155.063	-0.072	-0.005
-140.472	-166.428	0.167	0.007
-139.458	532.227	-0.162	0.377
-138.443	-30.159	0.361	-0.202
-137.429	109.791	-0.033	-0.039
-136.414	800.000	0.079	-0.293
-135.399	-176.993	0.255	0.006
-134.385	-200.000	-0.038	-0.286
-133.370	691.305	-0.044	0.114
-132.356	-200.000	0.106	-0.480
-131.341	36.090	0.280	0.243
-130.326	175.732	0.070	-0.100
-129.312	-117.838	0.043	0.008
-128.297	122.191	0.137	0.168
-127.283	-38.406	-0.187	-0.097
-126.268	-200.000	0.034	0.204
-125.253	417.196	0.133	0.279
-124.239	8.988	-0.212	-0.157
-123.224	272.620	0.120	-0.208
-122.210	-52.612	0.240	-0.109
-121.195	-126.852	0.108	-0.016
