DTS Sentinel unit serial number:	SN413079Multiplexer serial number:	ORYXHardware model number:	OX4-SRSoftware version number:	ORYX F/W v4.00 Oryx Data Collector v3.7.2.0data status	okinstallation	princeton_trtdifferential loss correction	single-endedforward channel	channel 3reverse channel	N/Adate	2019/09/14time	11:24:35forward acquisition time	60.00reverse acquisition time	0.00gamma	496.2192k internal	0.2297k external	0.2297temperature offset calibration	1.0065default loss term (dB/km)	0.3790temperature slope calibration	1.0000multiplexer offset coefficient	1.0000multiplexer slope coefficient	1.0000fibre end	0.00T internal ref (°C)	36.70T ext. ref 1 (°C)	4.53T ext. ref 2 (°C)	32.74length (m)	temperature (°C)	Stokes	anti-Stokes-747.200	800.000	-0.024	-0.095
-746.185	-200.000	-0.045	0.437
-745.171	219.093	0.078	0.127
-744.156	347.535	0.220	0.442
-743.142	61.358	0.206	0.210
-742.127	-200.000	0.037	0.242
-741.112	-200.000	-0.008	-0.082
-740.098	74.247	0.152	0.163
-739.083	360.983	-0.014	-0.030
-738.069	128.371	0.172	0.224
-737.054	-92.078	0.224	-0.065
-736.039	-200.000	0.058	0.275
-735.025	79.870	0.072	0.079
-734.010	-104.467	-0.480	0.113
-732.996	-41.088	0.176	-0.093
-731.981	-200.000	0.001	0.478
-730.966	261.184	0.112	0.199
-729.952	-89.700	-0.070	-0.021
-728.937	173.430	0.090	-0.132
-727.923	69.042	-0.221	-0.231
-726.908	-100.973	-0.302	-0.076
-725.894	-200.000	-0.004	-0.068
-724.879	316.704	0.185	-0.356
-723.864	-143.328	0.198	0.019
-722.850	-200.000	-0.037	0.206
-721.835	-200.000	-0.004	-0.099
-720.821	-105.058	0.245	-0.057
-719.806	206.330	-0.061	-0.096
-718.791	-200.000	-0.034	0.162
-717.777	-16.111	-0.302	0.196
-716.762	-141.573	0.162	-0.017
-715.748	-13.225	-0.128	0.085
-714.733	-156.887	0.288	0.018
-713.718	800.000	0.070	-0.279
-712.704	-73.362	-0.317	-0.118
-711.689	203.108	-0.146	-0.231
-710.675	-145.611	0.279	-0.025
-709.660	25.262	0.203	-0.172
-708.645	74.595	0.157	-0.169
-707.631	-138.273	-0.237	0.027
-706.616	-108.182	-0.294	-0.065
-705.602	352.885	0.119	-0.241
-704.587	105.841	-0.308	-0.371
-703.572	640.451	-0.050	-0.131
-702.558	-35.844	0.198	0.109
-701.543	-25.498	0.316	0.191
-700.529	446.802	0.114	0.256
-699.514	-200.000	-0.013	0.130
-698.499	-99.363	0.189	0.049
-697.485	-3.352	0.049	0.035
-696.470	305.351	0.053	0.100
-695.456	-101.414	-0.088	-0.022
-694.441	-148.372	0.042	0.003
-693.426	219.741	-0.299	-0.489
-692.412	800.000	-0.054	0.218
-691.397	679.221	0.111	0.294
-690.383	36.763	0.157	-0.141
-689.368	-70.893	-0.506	0.194
-688.354	-84.291	0.131	-0.042
-687.339	-7.359	0.163	-0.112
-686.324	-200.000	0.003	-0.324
-685.310	223.880	0.156	-0.257
-684.295	-200.000	0.039	-0.235
-683.281	673.990	0.077	-0.202
-682.266	684.566	-0.055	-0.147
-681.251	316.107	-0.093	0.178
-680.237	-89.748	0.296	0.088
-679.222	735.029	-0.107	0.291
-678.208	75.632	-0.028	0.030
-677.193	216.338	0.225	-0.365
-676.178	-79.303	0.115	0.040
-675.164	-200.000	0.043	0.223
-674.149	-73.302	-0.434	0.162
-673.135	54.581	0.123	-0.120
-672.120	-100.534	0.228	-0.057
-671.105	63.732	-0.114	-0.117
-670.091	405.267	0.055	0.118
-669.076	-58.704	0.383	0.169
-668.062	-114.185	-0.015	0.003
-667.047	-200.000	0.037	0.222
-666.032	-129.432	0.256	0.036
-665.018	-129.035	0.091	-0.013
-664.003	424.821	0.025	-0.055
-662.989	9.334	0.110	0.084
-661.974	170.352	-0.035	0.051
-660.959	-78.455	-0.226	-0.079
-659.945	318.365	-0.140	0.271
-658.930	-143.101	-0.059	-0.006
-657.916	-6.702	0.157	0.109
-656.901	800.000	0.018	-0.075
-655.886	-121.736	0.230	0.039
-654.872	-81.256	-0.315	0.106
-653.857	560.619	-0.075	-0.186
-652.843	-149.791	0.158	0.013
-651.828	125.167	0.094	-0.120
-650.814	800.000	0.100	0.332
-649.799	-200.000	-0.025	0.207
-648.784	-81.102	0.382	0.129
-647.770	-83.555	0.074	0.024
-646.755	-200.000	-0.003	0.223
-645.741	401.377	0.157	0.334
-644.726	214.729	0.084	-0.136
-643.711	271.585	-0.176	-0.315
-642.697	-73.184	0.041	-0.015
-641.682	-200.000	0.025	-0.123
-640.668	800.000	-0.049	-0.141
-639.653	24.594	-0.134	0.113
-638.638	315.145	0.031	0.060
-637.624	-200.000	0.009	0.062
-636.609	-131.670	0.125	0.017
-635.595	-200.000	0.018	-0.090
-634.580	22.048	-0.026	-0.021
-633.565	-101.641	-0.137	-0.034
-632.551	-156.243	-0.151	0.010
-631.536	-35.897	-0.270	0.149
-630.522	44.319	-0.214	0.199
-629.507	800.000	-0.025	-0.098
-628.492	-58.797	-0.279	-0.123
-627.478	-53.049	-0.206	0.096
-626.463	8.374	0.059	-0.045
-625.449	-98.846	-0.308	-0.080
-624.434	-8.655	-0.251	-0.171
-623.419	-200.000	0.012	-0.209
-622.405	800.000	0.062	0.190
-621.390	-173.915	0.106	-0.003
-620.376	-44.408	0.183	-0.093
-619.361	475.767	-0.077	0.177
-618.346	215.974	0.133	-0.214
-617.332	-87.669	-0.158	-0.049
-616.317	-106.852	0.198	-0.045
-615.303	139.207	-0.222	-0.296
-614.288	-68.935	-0.102	0.040
-613.273	-200.000	-0.014	-0.204
-612.259	259.244	-0.105	-0.185
-611.244	-200.000	-0.037	-0.362
-610.230	96.961	-0.089	0.104
-609.215	-195.446	0.110	0.001
-608.201	-200.000	-0.025	-0.128
-607.186	800.000	-0.069	-0.257
-606.171	800.000	0.018	0.076
-605.157	599.034	-0.071	0.178
-604.142	800.000	0.053	0.195
-603.128	-200.000	0.031	0.208
-602.113	544.175	0.152	-0.369
-601.098	100.979	0.163	-0.192
-600.084	634.419	0.044	0.114
-599.069	-200.000	-0.010	-0.088
-598.055	-89.405	-0.172	-0.051
-597.040	800.000	0.046	0.146
-596.025	-55.299	-0.038	0.018
-595.011	-200.000	0.004	-0.181
-593.996	202.135	-0.250	0.392
-592.982	-106.858	0.322	0.072
-591.967	-144.894	-0.205	0.019
-590.952	-63.983	0.080	0.033
-589.938	-200.000	-0.002	-0.170
-588.923	728.418	-0.056	-0.153
-587.909	-78.541	0.366	0.127
-586.894	-184.685	0.242	0.004
-585.879	800.000	0.094	-0.396
-584.865	160.112	0.055	-0.078
-583.850	-200.000	-0.025	0.286
-582.836	42.566	-0.089	0.082
-581.821	-200.000	-0.040	0.244
-580.806	-84.874	-0.349	-0.111
-579.792	47.075	-0.134	-0.126
-578.777	415.634	-0.070	-0.150
-577.763	-19.332	-0.237	0.149
-576.748	-55.825	-0.258	0.117
-575.733	800.000	-0.067	-0.191
-574.719	-45.279	0.067	-0.034
-573.704	123.094	0.181	0.230
-572.690	102.994	-0.219	0.260
-571.675	-85.796	0.195	0.061
-570.661	158.092	0.114	-0.160
-569.646	800.000	0.024	0.069
-568.631	1.852	-0.096	0.070
-567.617	800.000	-0.082	-0.332
-566.602	-107.703	0.100	0.022
-565.588	-200.000	-0.041	-0.308
-564.573	-108.851	0.305	-0.066
-563.558	159.782	-0.299	-0.422
-562.544	89.546	0.093	-0.105
-561.529	-109.903	0.346	0.074
-560.515	178.696	-0.062	0.091
-559.500	-76.457	-0.125	0.045
-558.485	13.628	-0.070	-0.055
-557.471	111.671	0.263	0.321
-556.456	-165.062	0.430	-0.019
-555.442	135.363	0.099	0.131
-554.427	185.821	0.129	0.194
-553.412	44.880	-0.187	-0.175
-552.398	539.378	-0.146	0.353
-551.383	800.000	-0.031	-0.100
-550.369	300.981	0.075	0.141
-549.354	-9.832	-0.213	0.144
-548.339	-23.575	-0.300	-0.182
-547.325	-192.000	0.345	-0.003
-546.310	-70.396	0.131	-0.050
-545.296	106.818	-0.104	-0.125
-544.281	-200.000	0.004	-0.020
-543.266	-200.000	-0.035	-0.378
-542.252	-200.000	-0.028	-0.199
-541.237	320.145	-0.119	0.228
-540.223	-80.154	0.301	-0.102
-539.208	-7.375	-0.160	-0.110
-538.193	-200.000	-0.036	-0.184
-537.179	677.811	0.013	-0.034
-536.164	99.733	-0.183	0.214
-535.150	0.499	0.329	0.238
-534.135	133.070	0.260	0.340
-533.121	46.426	0.034	-0.032
-532.106	-84.907	-0.202	0.064
-531.091	-169.022	0.137	-0.005
-530.077	-122.449	-0.083	0.014
-529.062	95.707	0.080	-0.092
-528.048	-181.197	-0.078	0.002
-527.033	-200.000	-0.005	0.122
-526.018	594.636	-0.087	-0.219
-525.004	-200.000	0.012	-0.242
-523.989	-96.900	-0.082	0.022
-522.975	-115.695	0.026	-0.005
-521.960	-200.000	-0.017	-0.124
-520.945	-143.315	-0.068	0.007
-519.931	356.865	-0.111	-0.224
-518.916	185.598	-0.258	-0.388
-517.902	-167.154	0.053	0.002
-516.887	170.004	0.190	0.275
-515.872	554.127	-0.071	-0.173
-514.858	360.665	0.115	-0.234
-513.843	-103.743	-0.243	0.058
-512.829	800.000	0.038	-0.111
-511.814	-16.732	0.291	-0.186
-510.799	210.856	0.079	-0.125
-509.785	-133.829	0.252	0.032
-508.770	800.000	0.020	-0.073
-507.756	-95.491	0.095	-0.026
-506.741	-200.000	-0.037	0.210
-505.726	197.833	-0.067	0.104
-504.712	191.845	-0.114	-0.173
-503.697	-41.641	0.329	0.171
-502.683	-169.340	-0.211	-0.008
-501.668	-2.489	0.070	0.050
-500.653	-200.000	-0.012	0.333
-499.639	-200.000	-0.016	-0.091
-498.624	302.364	0.119	0.224
-497.610	-136.499	0.199	0.023
-496.595	354.948	0.041	-0.082
-495.581	139.950	0.108	0.144
-494.566	-96.422	0.191	-0.051
-493.551	-52.545	-0.290	0.135
-492.537	-132.140	-0.169	-0.022
-491.522	-154.960	0.079	0.005
-490.508	-51.300	-0.118	-0.056
-489.493	-103.554	-0.214	-0.051
-488.478	129.180	0.197	0.254
-487.464	-149.863	-0.220	0.017
-486.449	10.825	0.215	-0.166
-485.435	157.081	0.097	0.136
-484.420	599.599	-0.185	0.465
-483.405	27.429	0.180	0.153
-482.391	-200.000	0.022	0.137
-481.376	800.000	0.073	0.298
-480.362	-28.754	0.305	-0.177
-479.347	-165.269	0.051	-0.002
-478.332	-113.318	-0.130	0.026
-477.318	-56.061	0.170	-0.077
-476.303	-139.055	-0.044	0.005
-475.289	-59.551	-0.322	-0.140
-474.274	59.819	0.169	0.168
-473.259	-200.000	0.016	-0.140
-472.245	36.107	0.031	0.027
-471.230	72.834	-0.243	0.256
-470.216	0.353	-0.146	-0.105
-469.201	-117.485	-0.059	-0.011
-468.186	-68.787	-0.275	0.107
-467.172	5.378	-0.057	0.043
-466.157	-86.541	0.104	-0.032
-465.143	19.421	0.279	-0.227
-464.128	451.488	-0.095	-0.212
-463.113	181.661	-0.174	-0.259
-462.099	-200.000	0.039	0.178
-461.084	2.411	-0.076	-0.055
-460.070	-200.000	-0.022	-0.168
-459.055	26.234	0.089	0.075
-458.040	-94.203	-0.082	-0.023
-457.026	106.082	0.048	-0.058
-456.011	-11.946	-0.062	-0.041
-454.997	-124.497	-0.294	-0.046
-453.982	394.209	-0.087	-0.183
-452.968	-96.538	-0.113	-0.030
-451.953	-140.403	0.219	0.023
-450.938	-200.000	-0.011	-0.196
-449.924	-62.821	0.231	0.097
-448.909	735.542	0.070	-0.191
-447.895	351.668	-0.080	-0.160
-446.880	-95.164	0.539	-0.147
-445.865	-9.663	0.154	0.104
-444.851	18.138	0.033	0.027
-443.836	-54.101	-0.378	0.174
-442.822	85.468	0.008	-0.009
-441.807	-21.506	0.259	-0.159
-440.792	508.814	-0.082	0.192
-439.778	-18.044	0.091	-0.057
-438.763	-137.644	-0.286	-0.032
-437.749	-144.320	0.037	0.003
-436.734	-200.000	0.009	-0.291
-435.719	-200.000	-0.007	-0.070
-434.705	94.832	0.101	-0.116
-433.690	10.559	-0.168	-0.129
-432.676	-31.266	-0.247	-0.140
-431.661	203.445	0.265	0.414
-430.646	800.000	0.050	-0.195
-429.632	-135.094	0.138	0.017
-428.617	-200.000	-0.064	0.622
-427.603	203.296	-0.125	0.195
-426.588	-200.000	0.045	-0.248
-425.573	-8.490	-0.099	0.067
-424.559	6.613	-0.202	0.152
-423.544	12.601	0.197	0.153
-422.530	63.131	-0.030	0.030
-421.515	77.528	0.239	0.257
-420.500	357.411	0.108	-0.218
-419.486	-146.810	0.152	-0.013
-418.471	-25.031	-0.201	0.120
-417.457	151.367	-0.107	-0.146
-416.442	-85.474	0.323	-0.101
-415.428	-200.000	0.043	0.245
-414.413	-114.548	0.124	0.024
-413.398	800.000	0.042	0.159
-412.384	-10.799	0.446	-0.297
-411.369	800.000	0.053	0.227
-410.355	237.972	-0.125	-0.209
-409.340	-7.403	0.239	-0.163
-408.325	800.000	0.039	0.142
-407.311	474.636	-0.084	0.192
-406.296	-72.838	-0.156	0.058
-405.282	261.883	0.136	-0.237
-404.267	-69.795	0.164	-0.063
-403.252	-89.997	-0.274	0.080
-402.238	-153.439	0.211	0.015
-401.223	-141.847	-0.140	-0.014
-400.209	34.568	0.067	0.059
-399.194	106.624	-0.156	-0.186
-398.179	27.107	-0.167	0.141
-397.165	231.574	-0.178	0.294
-396.150	-80.705	0.172	-0.058
-395.136	800.000	-0.036	0.128
-394.121	-43.984	0.124	0.063
-393.106	-8.196	-0.259	-0.176
-392.092	21.490	-0.206	-0.169
-391.077	-4.288	-0.069	-0.048
-390.063	38.779	-0.135	0.122
-389.048	-110.738	-0.300	0.062
-388.033	-63.402	-0.029	0.012
-387.019	-200.000	0.024	-0.188
-386.004	150.389	0.345	-0.472
-384.990	213.857	-0.241	-0.384
-383.975	-144.913	-0.165	-0.015
-382.960	149.217	0.089	0.122
-381.946	75.931	-0.147	0.156
-380.931	149.526	0.154	-0.210
-379.917	414.561	-0.050	-0.107
-378.902	194.441	0.111	0.170
-377.888	63.772	0.142	-0.143
-376.873	-200.000	0.017	0.075
-375.858	83.115	0.073	0.080
-374.844	-58.189	0.128	-0.056
-373.829	-200.000	-0.054	0.316
-372.815	38.130	-0.190	-0.170
-371.800	-146.712	0.307	-0.027
-370.785	-200.000	-0.008	-0.086
-369.771	-87.182	0.113	0.035
-368.756	-124.109	0.458	0.072
-367.742	-200.000	-0.075	-0.380
-366.727	-200.000	-0.077	-0.388
-365.712	163.309	-0.274	0.387
-364.698	-110.002	0.144	-0.030
-363.683	88.721	-0.115	0.129
-362.669	-200.000	-0.026	-0.163
-361.654	-50.772	0.108	-0.051
-360.639	-200.000	-0.096	-0.433
-359.625	142.499	0.140	-0.186
-358.610	486.475	0.070	0.162
-357.596	-200.000	-0.021	-0.093
-356.581	-200.000	-0.035	0.252
-355.566	22.347	-0.291	0.239
-354.552	-28.272	-0.183	0.106
-353.537	-174.808	-0.233	-0.007
-352.523	-138.757	-0.357	0.039
-351.508	800.000	0.066	-0.247
-350.493	102.980	-0.356	-0.419
-349.479	5.813	-0.081	0.060
-348.464	349.727	-0.071	-0.141
-347.450	161.268	-0.142	0.200
-346.435	780.446	0.164	0.452
-345.420	-89.244	-0.241	-0.072
-344.406	-45.325	0.178	0.089
-343.391	800.000	0.068	0.284
-342.377	-164.567	0.163	0.007
-341.362	-200.000	0.000	-0.159
-340.348	800.000	-0.043	0.162
-339.333	555.370	-0.125	0.303
-338.318	211.895	0.073	-0.116
-337.304	8.005	0.289	-0.218
-336.289	50.041	-0.188	-0.179
-335.275	-137.864	-0.343	-0.039
-334.260	800.000	0.086	0.244
-333.245	-30.585	-0.100	0.057
-332.231	-200.000	0.007	-0.050
-331.216	27.131	0.053	0.045
-330.202	20.842	-0.122	-0.100
-329.187	10.275	-0.189	0.145
-328.172	-200.000	-0.030	-0.134
-327.158	-200.000	0.026	0.118
-326.143	48.578	0.286	0.269
-325.129	240.395	0.075	-0.126
-324.114	107.120	0.150	0.179
-323.099	-77.069	0.143	0.050
-322.085	800.000	0.014	-0.059
-321.070	-200.000	-0.015	0.261
-320.056	800.000	-0.059	-0.183
-319.041	65.615	0.042	-0.043
-318.026	800.000	-0.040	0.115
-317.012	-32.225	0.263	-0.147
-315.997	-95.000	-0.151	0.041
-314.983	512.407	-0.088	0.206
-313.968	-46.645	-0.352	-0.173
-312.953	555.329	0.071	0.172
-311.939	-150.230	-0.130	-0.010
-310.924	-12.836	-0.233	-0.152
-309.910	-170.983	0.390	-0.013
-308.895	129.155	-0.107	0.137
-307.880	-22.387	0.112	-0.068
-306.866	743.526	0.157	-0.424
-305.851	-0.995	-0.130	-0.093
-304.837	800.000	-0.040	0.124
-303.822	-138.994	0.056	-0.006
-302.807	626.036	-0.112	0.284
-301.793	800.000	0.062	0.211
-300.778	-200.000	-0.029	-0.145
-299.764	-60.056	-0.147	-0.063
-298.749	221.933	-0.051	0.082
-297.735	-81.149	0.225	0.075
-296.720	99.562	0.169	0.197
-295.705	41.875	0.089	0.081
-294.691	-0.363	0.045	0.032
-293.676	589.097	0.130	-0.322
-292.662	-81.024	0.099	-0.033
-291.647	429.925	0.086	-0.187
-290.632	-200.000	0.045	0.204
-289.618	395.878	-0.133	0.278
-288.603	-95.447	0.267	-0.072
-287.589	-31.486	-0.111	-0.062
-286.574	130.386	-0.299	0.385
-285.559	-18.984	-0.318	0.198
-284.545	-10.010	-0.263	0.176
-283.530	-100.531	0.342	0.085
-282.516	-49.369	-0.217	-0.104
-281.501	515.303	-0.110	-0.259
-280.486	701.681	-0.058	-0.153
-279.472	40.910	0.279	0.253
-278.457	138.768	0.267	0.352
-277.443	-92.478	-0.265	0.075
-276.428	-174.897	0.066	0.002
-275.413	-78.551	0.181	0.062
-274.399	-200.000	0.031	-0.158
-273.384	48.301	0.033	0.031
-272.370	-200.000	-0.274	0.000
-271.355	-128.665	-0.236	-0.033
-270.340	-31.138	0.131	-0.074
-269.326	49.085	-0.076	0.072
-268.311	-66.973	-0.240	0.095
-267.297	-30.102	-0.082	-0.047
-266.282	-200.000	-0.004	0.064
-265.267	-200.000	-0.042	0.291
-264.253	330.746	0.027	0.052
-263.238	800.000	0.089	-0.248
-262.224	497.837	0.040	-0.093
-261.209	-140.641	0.028	-0.003
-260.195	-32.299	0.094	0.053
-259.180	79.301	-0.175	-0.188
-258.165	73.626	0.012	0.013
-257.151	-200.000	0.027	0.204
-256.136	480.049	-0.116	0.263
-255.122	391.338	-0.054	-0.113
-254.107	-36.056	0.304	-0.164
-253.092	599.454	0.051	-0.126
-252.078	159.322	0.150	0.209
-251.063	171.413	-0.260	-0.374
-250.049	-12.557	-0.246	0.161
-249.034	-200.000	-0.013	0.177
-248.019	-67.682	0.357	-0.140
-247.005	-149.595	0.035	-0.003
-245.990	155.796	0.108	-0.149
-244.976	-109.864	-0.120	0.025
-243.961	-153.373	-0.178	-0.012
-242.946	-139.884	-0.403	-0.043
-241.932	-200.000	0.032	-0.345
-240.917	12.370	-0.195	-0.150
-239.903	244.550	0.175	-0.294
-238.888	111.551	-0.069	-0.083
-237.873	9.735	-0.237	0.180
-236.859	19.691	-0.287	-0.231
-235.844	-200.000	-0.001	-0.084
-234.830	103.316	-0.325	-0.381
-233.815	-38.686	-0.132	-0.070
-232.800	134.538	0.147	0.191
-231.786	-94.163	0.201	0.055
-230.771	-64.029	0.146	-0.060
-229.757	195.536	0.106	0.162
-228.742	226.063	0.084	0.136
-227.727	-200.000	0.001	-0.098
-226.713	-119.568	-0.051	-0.009
-225.698	18.510	-0.229	0.183
-224.684	-158.844	0.304	-0.017
-223.669	-39.567	-0.169	0.089
-222.655	12.367	0.364	0.280
-221.640	58.849	-0.208	-0.204
-220.625	33.042	0.187	-0.162
-219.611	-200.000	0.037	0.188
-218.596	38.708	-0.055	0.049
-217.582	596.948	0.070	0.173
-216.567	-57.509	-0.200	-0.088
-215.552	138.332	0.318	0.417
-214.538	-200.000	-0.009	-0.125
-213.523	-46.583	0.292	-0.143
-212.509	-200.000	0.036	0.180
-211.494	-82.864	-0.121	-0.039
-210.479	380.053	-0.022	-0.046
-209.465	156.636	0.115	0.159
-208.450	-4.531	-0.102	-0.071
-207.436	-32.151	-0.240	0.134
-206.421	-200.000	0.038	0.403
-205.406	-33.456	0.305	0.168
-204.392	-5.069	-0.083	-0.057
-203.377	160.161	0.115	-0.161
-202.363	34.522	-0.185	-0.162
-201.348	635.636	0.076	0.193
-200.333	-200.000	0.003	-0.074
-199.319	436.530	-0.039	-0.085
-198.304	158.743	-0.077	0.107
-197.290	379.121	0.163	0.334
-196.275	6.152	0.171	0.126
-195.260	-100.493	-0.170	0.042
-194.246	-72.733	0.168	0.062
-193.231	305.876	-0.034	0.063
-192.217	364.120	-0.052	-0.104
-191.202	-200.000	-0.010	0.177
-190.187	800.000	0.044	0.142
-189.173	-23.652	0.027	0.016
-188.158	-149.335	0.269	0.021
-187.144	165.343	-0.263	-0.371
-186.129	-200.000	0.112	0.599
-185.114	-72.606	-0.230	0.085
-184.100	-92.107	-0.262	-0.074
-183.085	-67.796	0.121	-0.047
-182.071	-200.000	0.014	0.173
-181.056	-161.285	0.153	-0.008
-180.042	-62.724	0.315	-0.131
-179.027	-200.000	0.003	-0.090
-178.012	-128.309	-0.193	0.027
-176.998	56.353	0.081	0.079
-175.983	-15.819	0.233	0.148
-174.969	176.096	0.090	-0.131
-173.954	-144.591	-0.351	-0.032
-172.939	482.568	-0.022	-0.049
-171.925	-125.313	-0.154	0.023
-170.910	106.735	-0.051	-0.061
-169.896	6.244	0.088	0.065
-168.881	-107.527	0.300	-0.066
-167.866	259.758	0.068	0.117
-166.852	-182.237	0.083	-0.002
-165.837	121.650	0.143	-0.178
-164.823	527.550	-0.053	-0.124
-163.808	-119.530	0.199	-0.034
-162.793	-67.370	0.167	0.066
-161.779	375.458	0.090	0.184
-160.764	38.892	-0.225	-0.201
-159.750	800.000	-0.045	-0.169
-158.735	-25.774	0.062	-0.037
-157.720	26.306	0.096	-0.080
-156.706	-200.000	-0.038	-0.313
-155.691	-86.033	0.120	-0.037
-154.677	244.859	0.134	0.225
-153.662	-100.962	0.042	-0.010
-152.647	-18.180	0.146	-0.091
-151.633	415.122	0.090	0.191
-150.618	32.863	0.376	0.325
-149.604	351.909	0.054	0.107
-148.589	72.426	0.100	0.104
-147.574	-119.526	-0.384	0.066
-146.560	-82.448	0.198	-0.064
-145.545	28.815	0.125	-0.105
-144.531	-63.646	-0.338	0.138
-143.516	-200.000	0.051	-0.340
-142.502	-51.660	-0.135	0.063
-141.487	79.703	0.090	-0.096
-140.472	800.000	0.092	0.271
-139.458	-148.588	0.279	0.023
-138.443	110.447	-0.082	-0.098
-137.429	-37.226	-0.227	0.121
-136.414	254.779	-0.128	-0.219
-135.399	800.000	0.016	-0.055
-134.385	180.707	0.150	0.220
-133.370	190.207	-0.276	0.414
-132.356	-200.000	0.064	-0.291
-131.341	-78.534	0.204	-0.070
-130.326	153.954	-0.163	0.222
-129.312	-47.850	-0.322	-0.156
-128.297	-33.303	-0.180	-0.099
-127.283	-200.000	-0.018	-0.080
-126.268	487.423	-0.021	0.047
-125.253	800.000	-0.046	0.171
-124.239	406.399	-0.140	-0.295
-123.224	-76.034	0.057	0.020
-122.210	246.741	0.076	-0.127
-121.195	-47.975	0.325	0.157
