DTS Sentinel unit serial number:	SN413079Multiplexer serial number:	ORYXHardware model number:	OX4-SRSoftware version number:	ORYX F/W v4.00 Oryx Data Collector v3.7.2.0data status	okinstallation	princeton_trtdifferential loss correction	single-endedforward channel	channel 3reverse channel	N/Adate	2019/09/15time	08:56:35forward acquisition time	60.00reverse acquisition time	0.00gamma	496.2192k internal	0.2314k external	0.2314temperature offset calibration	0.9972default loss term (dB/km)	0.3790temperature slope calibration	1.0000multiplexer offset coefficient	1.0000multiplexer slope coefficient	1.0000fibre end	0.00T internal ref (°C)	32.62T ext. ref 1 (°C)	4.97T ext. ref 2 (°C)	29.69length (m)	temperature (°C)	Stokes	anti-Stokes-747.200	-90.263	0.091	-0.027
-746.185	-0.856	0.035	-0.025
-745.171	79.090	0.277	-0.301
-744.156	-99.239	0.165	-0.042
-743.142	233.071	0.105	-0.175
-742.127	-39.847	-0.107	0.057
-741.112	673.697	-0.041	0.107
-740.098	-200.000	-0.007	0.244
-739.083	800.000	-0.079	-0.335
-738.069	800.000	0.046	0.173
-737.054	92.425	-0.082	-0.094
-736.039	-90.511	-0.347	0.102
-735.025	405.333	0.077	0.165
-734.010	13.139	-0.255	-0.200
-732.996	116.953	0.081	-0.101
-731.981	800.000	-0.116	-0.406
-730.966	10.331	-0.244	0.188
-729.952	200.128	-0.069	0.107
-728.937	188.992	-0.159	0.241
-727.923	566.660	0.191	0.469
-726.908	283.508	0.154	0.281
-725.894	-200.000	-0.011	0.056
-724.879	-145.537	-0.345	0.031
-723.864	-161.899	-0.230	0.012
-722.850	-77.914	-0.112	0.039
-721.835	-126.366	-0.340	-0.051
-720.821	-200.000	-0.023	0.161
-719.806	800.000	0.028	0.107
-718.791	-55.725	0.163	0.074
-717.777	800.000	0.091	-0.314
-716.762	-124.433	-0.119	-0.019
-715.748	54.835	-0.134	-0.131
-714.733	-52.422	0.170	-0.080
-713.718	41.759	-0.160	0.147
-712.704	-19.975	0.413	-0.258
-711.689	-76.830	-0.032	0.011
-710.675	-129.530	-0.561	-0.079
-709.660	-99.529	-0.292	-0.074
-708.645	-38.454	-0.292	0.156
-707.631	149.441	-0.198	-0.272
-706.616	-43.198	0.155	0.080
-705.602	-183.122	-0.246	-0.004
-704.587	-173.663	0.225	-0.007
-703.572	-29.145	0.158	-0.092
-702.558	800.000	-0.095	-0.287
-701.543	472.907	0.129	0.295
-700.529	800.000	0.122	0.358
-699.514	-200.000	-0.025	0.123
-698.499	-144.569	0.271	-0.025
-697.485	800.000	0.111	-0.371
-696.470	-100.633	0.238	-0.059
-695.456	-31.603	-0.079	0.045
-694.441	141.357	0.247	0.331
-693.426	69.540	-0.012	-0.013
-692.412	2.770	0.293	0.215
-691.397	96.974	-0.064	-0.075
-690.383	593.788	0.027	0.068
-689.368	-153.074	-0.217	-0.015
-688.354	79.277	0.182	0.197
-687.339	-200.000	-0.029	-0.249
-686.324	133.846	0.045	0.059
-685.310	100.340	-0.178	-0.209
-684.295	77.092	0.283	-0.304
-683.281	84.682	-0.291	0.322
-682.266	53.224	-0.085	0.082
-681.251	167.817	0.159	-0.229
-680.237	552.359	0.069	0.167
-679.222	-149.420	-0.131	-0.010
-678.208	-200.000	-0.056	0.312
-677.193	-90.181	0.196	0.058
-676.178	33.136	-0.204	0.179
-675.164	-122.051	-0.051	0.009
-674.149	132.485	0.189	-0.246
-673.135	800.000	0.066	0.213
-672.120	-200.000	-0.040	-0.192
-671.105	800.000	0.074	-0.233
-670.091	-156.671	-0.052	-0.003
-669.076	-41.697	0.120	-0.062
-668.062	-200.000	-0.005	-0.289
-667.047	-200.000	0.056	-0.380
-666.032	-200.000	-0.002	0.070
-665.018	-55.705	-0.151	-0.068
-664.003	-29.312	0.285	-0.165
-662.989	-197.260	-0.433	-0.003
-661.974	140.703	0.182	0.243
-660.959	-41.823	0.159	0.082
-659.945	-61.180	0.126	0.054
-658.930	800.000	0.046	0.170
-657.916	97.101	0.091	-0.105
-656.901	-26.039	-0.054	-0.032
-655.886	-131.607	-0.162	0.022
-654.872	-200.000	0.020	-0.094
-653.857	-80.600	-0.093	-0.031
-652.843	-149.152	0.115	-0.009
-651.828	-179.919	-0.260	-0.006
-650.814	-15.547	-0.148	0.095
-649.799	469.976	-0.026	-0.059
-648.784	555.679	-0.062	-0.151
-647.770	-155.540	0.071	0.005
-646.755	-41.499	0.143	-0.075
-645.741	514.425	-0.006	-0.014
-644.726	80.886	-0.196	0.214
-643.711	800.000	0.027	0.090
-642.697	-200.000	-0.007	0.096
-641.682	51.227	0.149	-0.143
-640.668	-64.836	0.223	0.091
-639.653	-200.000	-0.029	-0.281
-638.638	18.429	0.265	0.214
-637.624	53.842	-0.171	0.166
-636.609	-200.000	-0.000	-0.114
-635.595	-100.219	0.349	0.088
-634.580	-200.000	-0.041	-0.260
-633.565	-130.004	-0.108	0.015
-632.551	800.000	0.039	0.143
-631.536	61.970	0.148	-0.149
-630.522	-104.837	0.176	-0.041
-629.507	277.208	-0.100	-0.179
-628.492	106.272	-0.063	-0.075
-627.478	293.502	-0.187	0.344
-626.463	37.609	0.136	0.121
-625.449	-6.058	-0.090	-0.062
-624.434	-200.000	-0.071	-0.390
-623.419	800.000	0.071	-0.207
-622.405	-200.000	0.032	-0.248
-621.390	65.864	-0.308	0.315
-620.376	-200.000	0.010	0.643
-619.361	433.378	0.025	-0.055
-618.346	-64.190	-0.246	-0.101
-617.332	-200.000	-0.015	-0.116
-616.317	-200.000	-0.027	-0.200
-615.303	176.632	-0.188	-0.275
-614.288	-192.895	-0.304	-0.003
-613.273	-200.000	0.021	-0.238
-612.259	178.886	0.172	-0.253
-611.244	31.085	0.243	0.210
-610.230	-45.541	0.131	0.065
-609.215	687.280	-0.167	-0.440
-608.201	-200.000	-0.044	0.378
-607.186	-47.507	0.142	-0.069
-606.171	-87.834	0.156	-0.047
-605.157	800.000	0.066	-0.273
-604.142	400.761	-0.081	0.171
-603.128	184.192	-0.077	0.115
-602.113	-200.000	0.141	0.001
-601.098	800.000	-0.081	-0.297
-600.084	-38.913	-0.154	-0.082
-599.069	-133.908	-0.272	0.034
-598.055	800.000	0.103	-0.298
-597.040	-200.000	-0.071	-0.465
-596.025	20.794	-0.335	-0.274
-595.011	74.970	-0.096	-0.102
-593.996	-200.000	0.016	0.139
-592.982	-200.000	0.021	-0.152
-591.967	-73.674	0.248	-0.091
-590.952	-134.711	-0.345	-0.042
-589.938	-3.970	-0.178	-0.125
-588.923	800.000	0.062	-0.184
-587.909	130.701	0.230	0.297
-586.894	17.249	0.078	-0.062
-585.879	-200.000	0.052	-0.319
-584.865	-1.980	-0.075	-0.053
-583.850	164.238	-0.129	-0.184
-582.836	-66.651	0.168	-0.067
-581.821	-129.715	-0.073	0.010
-580.806	-146.091	-0.313	0.028
-579.792	-200.000	0.023	0.178
-578.777	108.878	0.154	0.185
-577.763	-136.880	-0.027	0.003
-576.748	98.133	0.090	0.105
-575.733	72.573	-0.260	0.273
-574.719	57.406	-0.233	-0.229
-573.704	441.752	-0.109	-0.241
-572.690	-176.099	-0.492	-0.013
-571.675	-38.171	0.168	0.090
-570.661	-200.000	-0.000	-0.061
-569.646	163.042	0.120	-0.170
-568.631	-49.023	-0.326	-0.157
-567.617	124.722	-0.194	-0.245
-566.602	-55.636	0.089	-0.040
-565.588	-34.977	0.081	0.045
-564.573	148.299	0.062	-0.084
-563.558	27.810	-0.042	-0.035
-562.544	-6.432	0.110	0.075
-561.529	-87.285	0.199	0.061
-560.515	800.000	-0.032	-0.140
-559.500	126.101	-0.180	-0.228
-558.485	-125.960	-0.107	-0.016
-557.471	-43.801	0.152	-0.077
-556.456	-200.000	0.050	-0.247
-555.442	800.000	-0.088	-0.299
-554.427	-159.666	-0.337	0.019
-553.412	6.371	0.159	0.119
-552.398	485.383	-0.070	0.160
-551.383	216.942	-0.101	-0.161
-550.369	-200.000	-0.014	-0.123
-549.354	-38.400	-0.122	-0.065
-548.339	-7.628	-0.069	-0.047
-547.325	117.906	0.205	0.254
-546.310	48.846	-0.119	0.112
-545.296	800.000	-0.097	0.326
-544.281	137.564	-0.205	0.270
-543.266	-183.086	-0.194	0.003
-542.252	-88.007	0.271	-0.082
-541.237	-117.146	-0.116	-0.021
-540.223	255.922	0.092	0.159
-539.208	-160.142	0.029	-0.002
-538.193	268.403	-0.260	-0.458
-537.179	-28.273	-0.292	-0.169
-536.164	-200.000	-0.029	0.135
-535.150	7.326	-0.186	-0.140
-534.135	121.015	0.103	-0.129
-533.121	-180.231	-0.108	0.002
-532.106	-200.000	-0.011	0.373
-531.091	-200.000	0.014	-0.243
-530.077	-128.263	0.089	-0.013
-529.062	800.000	0.028	0.120
-528.048	8.884	-0.034	-0.026
-527.033	-18.628	0.337	0.211
-526.018	-200.000	-0.020	0.127
-525.004	116.851	0.216	0.266
-523.989	104.855	0.058	0.069
-522.975	-7.689	-0.089	0.060
-521.960	800.000	-0.065	0.254
-520.945	-200.000	-0.037	0.171
-519.931	-71.945	0.217	-0.081
-518.916	186.302	-0.127	-0.190
-517.902	45.537	0.175	0.162
-516.887	-200.000	0.234	-0.000
-515.872	51.697	-0.173	0.166
-514.858	0.609	0.254	0.183
-513.843	-24.851	0.372	0.222
-512.829	-117.929	-0.250	0.045
-511.814	800.000	0.116	0.353
-510.799	450.488	-0.046	0.103
-509.785	-128.570	0.230	-0.033
-508.770	-23.459	-0.164	-0.099
-507.756	-99.840	0.258	0.065
-506.741	89.183	0.184	-0.206
-505.726	-135.317	-0.116	-0.014
-504.712	-14.430	-0.338	0.219
-503.697	103.741	-0.142	0.167
-502.683	800.000	0.024	-0.087
-501.668	342.952	-0.065	0.128
-500.653	114.651	-0.132	-0.162
-499.639	-70.655	-0.344	-0.131
-498.624	578.936	-0.085	-0.209
-497.610	16.160	0.289	-0.228
-496.595	800.000	-0.045	-0.124
-495.581	-128.885	-0.298	-0.042
-494.566	-200.000	-0.005	-0.028
-493.551	72.061	-0.152	-0.159
-492.537	-55.400	0.165	-0.074
-491.522	47.127	-0.191	0.179
-490.508	-168.454	0.156	0.006
-489.493	-38.779	0.075	-0.040
-488.478	26.139	-0.182	-0.152
-487.464	800.000	0.050	-0.199
-486.449	-110.565	0.235	0.049
-485.435	169.550	-0.084	0.121
-484.420	-57.061	-0.116	0.051
-483.405	-81.267	0.149	0.049
-482.391	272.141	-0.084	0.149
-481.376	391.723	0.137	-0.286
-480.362	466.265	0.125	0.281
-479.347	-11.679	-0.132	0.087
-478.332	-62.483	0.258	0.108
-477.318	-200.000	-0.004	0.070
-476.303	135.438	0.262	-0.341
-475.289	86.269	0.030	0.033
-474.274	-61.047	0.179	-0.076
-473.259	-57.670	0.185	0.081
-472.245	-162.268	0.323	-0.016
-471.230	224.548	-0.128	-0.208
-470.216	-91.482	-0.057	-0.016
-469.201	-121.810	-0.050	0.008
-468.186	17.547	-0.189	0.150
-467.172	-200.000	-0.051	0.235
-466.157	800.000	-0.058	0.195
-465.143	800.000	-0.095	-0.286
-464.128	-88.038	0.176	0.053
-463.113	-30.544	-0.105	0.060
-462.099	-99.574	0.099	-0.025
-461.084	800.000	0.132	0.405
-460.070	-170.070	0.068	0.002
-459.055	-43.829	0.272	-0.137
-458.040	-200.000	-0.012	-0.068
-457.026	93.080	-0.084	0.095
-456.011	-68.837	0.466	0.180
-454.997	177.866	-0.117	0.171
-453.982	37.287	-0.092	-0.082
-452.968	800.000	0.049	0.174
-451.953	800.000	-0.092	0.291
-450.938	276.780	-0.031	-0.054
-449.924	-200.000	0.036	-0.186
-448.909	219.758	-0.351	0.563
-447.895	-126.492	0.318	0.047
-446.880	-60.779	0.117	0.049
-445.865	800.000	-0.058	-0.171
-444.851	-34.996	0.241	-0.132
-443.836	17.079	0.093	0.074
-442.822	-200.000	0.015	-0.207
-441.807	-200.000	-0.058	-0.507
-440.792	766.435	0.033	0.089
-439.778	361.125	-0.036	0.073
-438.763	317.868	-0.048	0.091
-437.749	-200.000	-0.014	0.102
-436.734	-4.324	-0.071	0.049
-435.719	507.661	-0.044	0.102
-434.705	-200.000	0.044	-0.586
-433.690	640.215	-0.180	-0.459
-432.676	-37.817	0.156	-0.083
-431.661	800.000	-0.064	0.187
-430.646	-200.000	-0.094	-0.492
-429.632	8.053	0.272	-0.204
-428.617	-3.609	-0.075	0.052
-427.603	-114.020	-0.228	0.044
-426.588	-32.124	-0.141	0.079
-425.573	-8.043	0.250	0.169
-424.559	-96.965	0.148	0.039
-423.544	-200.000	0.018	-0.083
-422.530	-137.732	0.222	-0.025
-421.515	98.019	-0.249	0.287
-420.500	47.946	0.036	0.034
-419.486	-54.426	0.185	-0.084
-418.471	-93.308	-0.138	-0.038
-417.457	17.522	0.111	0.089
-416.442	-200.000	0.021	-0.118
-415.428	-49.202	-0.265	0.127
-414.413	34.208	0.307	-0.267
-413.398	109.726	-0.176	0.212
-412.384	-139.891	-0.038	-0.004
-411.369	-87.127	0.285	-0.087
-410.355	-112.073	0.075	-0.015
-409.340	-179.544	-0.090	0.002
-408.325	-90.730	-0.221	-0.064
-407.311	-200.000	-0.043	-0.208
-406.296	-88.251	0.154	-0.046
-405.282	-121.141	-0.047	0.008
-404.267	29.139	0.274	-0.233
-403.252	-33.136	-0.362	0.201
-402.238	-73.128	-0.063	0.023
-401.223	-88.533	-0.187	0.056
-400.209	207.751	-0.047	-0.073
-399.194	-12.305	0.129	-0.084
-398.179	-200.000	-0.002	0.029
-397.165	-161.822	0.024	0.001
-396.150	800.000	-0.061	-0.204
-395.136	-127.680	0.269	-0.039
-394.121	25.387	-0.202	0.168
-393.106	674.925	-0.056	0.145
-392.092	-68.419	0.143	0.056
-391.077	45.393	-0.230	0.212
-390.063	-200.000	-0.017	0.449
-389.048	490.858	0.047	0.107
-388.033	579.597	-0.056	-0.136
-387.019	232.368	-0.183	-0.301
-386.004	-154.188	-0.046	-0.003
-384.990	101.424	0.140	-0.163
-383.975	-81.647	0.360	0.118
-382.960	20.460	0.095	0.077
-381.946	15.397	0.113	0.089
-380.931	-83.848	-0.633	0.202
-379.917	-200.000	0.031	0.174
-378.902	-148.021	-0.128	0.011
-377.888	-28.739	-0.044	-0.026
-376.873	-200.000	-0.058	0.504
-375.858	-7.501	0.315	0.213
-374.844	64.237	0.195	0.196
-373.829	-88.787	-0.271	-0.080
-372.815	-115.713	-0.167	0.031
-371.800	-141.181	-0.240	-0.024
-370.785	-200.000	-0.032	-0.169
-369.771	724.908	-0.063	0.167
-368.756	4.533	-0.363	0.266
-367.742	-8.062	0.190	0.128
-366.727	607.978	-0.065	-0.162
-365.712	-199.839	0.121	0.001
-364.698	-66.299	0.196	-0.078
-363.683	-13.162	-0.110	0.072
-362.669	-200.000	0.027	0.202
-361.654	-150.316	-0.181	0.014
-360.639	-87.192	-0.179	-0.054
-359.625	54.194	-0.049	0.047
-358.610	-200.000	-0.201	0.000
-357.596	166.494	0.097	-0.138
-356.581	61.503	0.365	-0.363
-355.566	-200.000	-0.034	0.158
-354.552	-200.000	0.006	0.300
-353.537	-111.496	0.186	0.038
-352.523	96.333	0.107	-0.122
-351.508	41.063	0.281	-0.253
-350.493	-27.196	0.392	0.228
-349.479	236.560	0.260	0.429
-348.464	454.263	0.054	-0.119
-347.450	-11.102	0.037	-0.025
-346.435	106.642	-0.062	-0.073
-345.420	-60.561	0.122	0.052
-344.406	31.607	-0.159	-0.136
-343.391	-9.772	0.333	0.221
-342.377	379.627	-0.114	-0.233
-341.362	-87.924	-0.035	0.011
-340.348	143.266	0.090	0.119
-339.333	114.027	0.131	0.159
-338.318	-133.706	-0.325	0.040
-337.304	214.820	-0.140	-0.221
-336.289	88.790	-0.154	-0.170
-335.275	273.658	-0.063	0.111
-334.260	13.168	-0.187	0.145
-333.245	504.511	0.012	0.027
-332.231	13.011	0.158	0.122
-331.216	-7.782	0.104	-0.070
-330.202	489.693	-0.058	-0.132
-329.187	-94.714	0.063	0.017
-328.172	-95.639	0.102	0.027
-327.158	-191.724	0.360	-0.004
-326.143	-200.000	-0.013	0.088
-325.129	427.877	0.134	0.289
-324.114	-168.217	-0.197	0.008
-323.099	576.099	-0.035	0.086
-322.085	184.962	0.209	0.310
-321.070	-200.000	-0.027	0.177
-320.056	-127.492	-0.271	0.039
-319.041	136.289	0.181	-0.235
-318.026	441.540	-0.094	0.205
-317.012	3.821	-0.182	0.133
-315.997	32.704	-0.072	0.062
-314.983	-200.000	0.011	-0.212
-313.968	-174.860	-0.279	-0.008
-312.953	800.000	0.018	-0.069
-311.939	-200.000	-0.006	0.058
-310.924	-200.000	0.011	0.192
-309.910	-200.000	0.014	0.092
-308.895	800.000	0.065	0.246
-307.880	13.881	-0.228	0.176
-306.866	98.563	-0.325	0.373
-305.851	41.587	-0.049	0.044
-304.837	366.158	0.101	0.203
-303.822	800.000	-0.020	0.069
-302.807	800.000	-0.083	-0.315
-301.793	262.094	-0.168	-0.290
-300.778	42.096	-0.174	0.157
-299.764	800.000	-0.042	-0.139
-298.749	-120.789	-0.495	-0.083
-297.735	800.000	0.064	-0.250
-296.720	800.000	0.029	0.123
-295.705	695.528	-0.110	-0.287
-294.691	122.401	-0.242	-0.301
-293.676	48.367	0.062	-0.057
-292.662	31.217	0.112	-0.095
-291.647	44.489	-0.120	-0.110
-290.632	-200.000	0.054	-0.492
-289.618	357.345	0.136	-0.271
-288.603	313.144	-0.071	-0.132
-287.589	-21.669	-0.153	-0.093
-286.574	800.000	0.110	-0.468
-285.559	-200.000	0.125	-0.589
-284.545	-169.904	0.429	0.015
-283.530	104.439	-0.168	0.197
-282.516	-95.677	-0.131	-0.035
-281.501	47.077	-0.031	-0.029
-280.486	-45.011	-0.250	-0.124
-279.472	-86.217	0.243	-0.075
-278.457	-43.550	-0.151	-0.076
-277.443	161.592	0.023	0.031
-276.428	-200.000	-0.015	-0.161
-275.413	133.892	-0.085	0.110
-274.399	-23.667	0.156	0.093
-273.384	279.178	0.065	-0.115
-272.370	-79.420	-0.222	-0.075
-271.355	17.876	-0.069	0.055
-270.340	251.714	0.154	-0.261
-269.326	-120.213	0.296	-0.050
-268.311	-91.557	-0.142	0.040
-267.297	-73.710	0.193	-0.070
-266.282	635.473	-0.095	-0.240
-265.267	-136.216	0.344	-0.040
-264.253	800.000	0.034	0.103
-263.238	200.517	0.096	0.147
-262.224	-101.938	0.071	0.017
-261.209	-200.000	-0.066	0.516
-260.195	-50.822	-0.370	0.173
-259.180	-47.401	-0.163	0.079
-258.165	509.023	0.095	-0.220
-257.151	664.251	-0.094	-0.240
-256.136	146.801	0.080	-0.107
-255.122	-36.416	-0.036	0.019
-254.107	88.216	-0.078	0.086
-253.092	-60.108	0.201	0.085
-252.078	800.000	0.044	0.143
-251.063	-38.958	0.273	-0.143
-250.049	800.000	-0.070	0.211
-249.034	-73.867	-0.135	-0.049
-248.019	800.000	0.057	-0.175
-247.005	-46.160	0.143	-0.070
-245.990	-73.106	0.018	0.007
-244.976	201.268	-0.058	-0.088
-243.961	800.000	0.060	0.192
-242.946	-200.000	-0.017	-0.109
-241.932	-82.707	0.185	0.060
-240.917	800.000	-0.026	0.102
-239.903	-200.000	0.007	-0.282
-238.888	606.407	0.059	-0.146
-237.873	-200.000	0.022	0.170
-236.859	137.239	0.164	0.213
-235.844	800.000	-0.120	-0.339
-234.830	-200.000	-0.015	-0.201
-233.815	800.000	-0.111	0.334
-232.800	182.409	0.095	-0.139
-231.786	-200.000	-0.012	-0.185
-230.771	-82.996	-0.020	-0.006
-229.757	-200.000	-0.012	-0.088
-228.742	45.272	-0.135	0.123
-227.727	168.264	0.138	-0.195
-226.713	0.853	-0.060	-0.043
-225.698	267.212	-0.031	0.054
-224.684	115.994	0.053	0.064
-223.669	-200.000	-0.024	-0.189
-222.655	42.495	0.163	-0.147
-221.640	-67.817	0.285	-0.110
-220.625	82.339	0.122	0.131
-219.611	11.205	0.156	0.118
-218.596	239.342	0.057	-0.094
-217.582	-159.396	-0.097	0.005
-216.567	-200.000	0.042	0.258
-215.552	64.186	0.195	0.195
-214.538	220.242	0.158	-0.251
-213.523	-91.383	0.403	-0.114
-212.509	86.123	0.036	0.039
-211.494	-200.000	-0.030	-0.135
-210.479	290.374	-0.085	0.153
-209.465	77.306	0.184	0.195
-208.450	376.899	-0.022	-0.046
-207.436	-200.000	0.037	0.166
-206.421	19.115	0.238	0.189
-205.406	-124.312	0.415	-0.064
-204.392	-76.826	-0.259	-0.090
-203.377	800.000	-0.095	0.304
-202.363	-200.000	-0.087	0.389
-201.348	207.400	-0.211	0.327
-200.333	0.403	0.036	0.025
-199.319	-111.005	-0.411	-0.084
-198.304	-200.000	0.019	-0.266
-197.290	-109.510	-0.434	-0.091
-196.275	-200.000	0.032	0.315
-195.260	-6.177	0.011	0.007
-194.246	-200.000	-0.005	0.060
-193.231	-200.000	-0.046	-0.215
-192.217	800.000	-0.050	0.198
-191.202	-6.019	0.168	0.114
-190.187	-6.940	0.209	0.141
-189.173	-166.260	-0.171	0.007
-188.158	541.465	0.066	0.155
-187.144	123.580	0.142	0.177
-186.129	-13.385	0.067	0.043
-185.114	-200.000	0.003	0.019
-184.100	652.315	-0.133	-0.338
-183.085	500.872	-0.130	0.298
-182.071	122.694	0.162	-0.201
-181.056	91.020	-0.090	0.100
-180.042	-200.000	0.049	-0.233
-179.027	-51.213	-0.240	-0.112
-178.012	-89.932	-0.226	0.066
-176.998	-39.110	0.154	0.080
-175.983	800.000	0.054	-0.216
-174.969	132.736	-0.168	0.214
-173.954	-124.036	0.125	-0.019
-172.939	-51.372	0.211	0.098
-171.925	199.097	-0.097	-0.148
-170.910	800.000	-0.115	-0.329
-169.896	-200.000	0.020	0.174
-168.881	-200.000	0.014	0.301
-167.866	800.000	-0.058	0.242
-166.852	800.000	0.090	0.287
-165.837	24.143	-0.192	-0.157
-164.823	-3.347	0.145	-0.100
-163.808	-14.206	0.163	0.104
-162.793	-38.454	0.323	-0.169
-161.779	-200.000	-0.055	-0.240
-160.764	-38.015	0.305	0.160
-159.750	346.953	-0.083	-0.162
-158.735	333.561	-0.060	0.115
-157.720	800.000	0.058	0.219
-156.706	-200.000	-0.030	0.129
-155.691	-200.000	0.072	0.441
-154.677	800.000	-0.071	0.235
-153.662	45.420	0.257	0.235
-152.647	-200.000	0.013	0.169
-151.633	-12.530	-0.105	0.068
-150.618	208.405	-0.195	-0.303
-149.604	431.439	0.007	-0.016
-148.589	800.000	-0.067	-0.226
-147.574	-200.000	0.005	-0.269
-146.560	519.928	-0.094	0.217
-145.545	-90.375	0.278	-0.080
-144.531	32.806	0.167	0.143
-143.516	116.622	-0.103	-0.126
-142.502	-184.501	0.304	-0.005
-141.487	-200.000	-0.012	-0.095
-140.472	67.883	-0.205	0.207
-139.458	800.000	0.145	0.405
-138.443	76.850	-0.138	0.145
-137.429	-136.545	-0.164	-0.019
-136.414	-149.937	-0.473	0.037
-135.399	-59.827	-0.248	-0.105
-134.385	-115.777	0.368	-0.068
-133.370	543.365	-0.094	-0.223
-132.356	-66.375	0.317	-0.125
-131.341	31.570	0.137	0.116
-130.326	70.028	0.153	-0.156
-129.312	-85.488	0.088	0.027
-128.297	278.081	0.097	0.171
-127.283	-11.759	-0.186	-0.121
-126.268	-65.683	-0.331	-0.131
-125.253	396.621	-0.058	-0.120
-124.239	800.000	0.110	-0.317
-123.224	-99.110	0.290	0.073
-122.210	-141.353	-0.181	0.018
-121.195	-196.649	0.150	-0.001
