DTS Sentinel unit serial number:	SN413079Multiplexer serial number:	ORYXHardware model number:	OX4-SRSoftware version number:	ORYX F/W v4.00 Oryx Data Collector v3.7.2.0data status	okinstallation	princeton_trtdifferential loss correction	single-endedforward channel	channel 3reverse channel	N/Adate	2019/09/11time	15:30:10forward acquisition time	60.00reverse acquisition time	0.00gamma	496.2192k internal	0.2289k external	0.2289temperature offset calibration	0.9984default loss term (dB/km)	0.3790temperature slope calibration	1.0000multiplexer offset coefficient	1.0000multiplexer slope coefficient	1.0000fibre end	0.00T internal ref (°C)	42.87T ext. ref 1 (°C)	0.98T ext. ref 2 (°C)	37.18length (m)	temperature (°C)	Stokes	anti-Stokes-747.200	-96.171	-0.156	0.042
-746.185	-3.799	-0.158	0.113
-745.171	27.695	0.051	0.044
-744.156	256.613	-0.067	-0.118
-743.142	-80.051	0.231	-0.079
-742.127	591.120	0.140	0.354
-741.112	98.463	0.122	-0.144
-740.098	-66.736	0.109	-0.044
-739.083	-68.574	-0.120	-0.048
-738.069	800.000	-0.088	0.332
-737.054	-34.837	0.199	-0.112
-736.039	-124.357	-0.132	-0.021
-735.025	105.796	-0.151	-0.183
-734.010	551.851	0.079	0.194
-732.996	-153.756	0.058	-0.004
-731.981	800.000	0.085	-0.263
-730.966	309.493	-0.134	0.257
-729.952	-49.718	-0.152	0.074
-728.937	-72.670	-0.442	0.167
-727.923	730.382	-0.053	0.146
-726.908	318.285	-0.167	-0.323
-725.894	-200.000	-0.049	0.247
-724.879	12.357	-0.209	0.165
-723.864	212.051	-0.138	0.223
-722.850	393.138	0.205	0.436
-721.835	592.424	-0.125	0.317
-720.821	-200.000	0.044	0.245
-719.806	-148.604	-0.267	0.022
-718.791	55.443	-0.213	0.211
-717.777	632.416	0.054	-0.140
-716.762	124.529	-0.040	0.051
-715.748	800.000	-0.060	0.265
-714.733	234.532	0.008	0.013
-713.718	156.594	-0.079	0.112
-712.704	6.783	0.166	0.126
-711.689	-200.000	-0.017	-0.100
-710.675	348.689	-0.085	0.172
-709.660	-82.338	-0.389	-0.130
-708.645	148.285	0.089	-0.122
-707.631	-37.422	0.142	0.078
-706.616	-139.173	0.217	0.024
-705.602	44.460	0.209	0.196
-704.587	-145.398	0.095	-0.009
-703.572	344.746	0.076	0.152
-702.558	-200.000	0.000	0.217
-701.543	251.888	0.093	-0.162
-700.529	8.249	0.420	0.323
-699.514	-35.513	0.201	-0.112
-698.499	168.186	-0.051	0.074
-697.485	-200.000	0.020	0.282
-696.470	515.726	-0.069	-0.166
-695.456	-200.000	-0.042	0.362
-694.441	-114.143	0.444	0.088
-693.426	-200.000	0.008	0.093
-692.412	800.000	-0.015	0.055
-691.397	623.928	-0.036	0.094
-690.383	800.000	0.003	0.013
-689.368	13.445	-0.119	-0.095
-688.354	-200.000	0.015	-0.138
-687.339	800.000	-0.057	-0.237
-686.324	24.627	-0.194	0.164
-685.310	-200.000	0.037	0.214
-684.295	-102.969	-0.226	0.055
-683.281	-200.000	0.037	-0.170
-682.266	-200.000	0.035	0.202
-681.251	-200.000	0.010	-0.309
-680.237	-126.956	-0.096	0.014
-679.222	82.174	0.237	0.263
-678.208	-114.754	0.092	0.018
-677.193	135.457	0.040	0.053
-676.178	-46.878	0.191	0.096
-675.164	-19.506	0.189	-0.119
-674.149	-138.006	0.045	-0.005
-673.135	-141.456	-0.400	0.041
-672.120	-122.891	-0.117	-0.019
-671.105	-119.934	0.231	-0.041
-670.091	-71.967	-0.118	0.045
-669.076	108.499	-0.065	0.080
-668.062	-200.000	-0.010	0.074
-667.047	45.326	-0.223	-0.210
-666.032	361.830	0.124	-0.253
-665.018	-200.000	-0.002	0.156
-664.003	-120.587	0.293	-0.051
-662.989	105.507	-0.173	-0.209
-661.974	539.765	0.176	-0.429
-660.959	-119.995	0.110	0.019
-659.945	-117.785	0.356	-0.065
-658.930	520.824	-0.093	-0.223
-657.916	-133.851	0.098	0.012
-656.901	113.315	-0.179	0.222
-655.886	11.955	-0.020	-0.015
-654.872	249.358	0.259	0.448
-653.857	-200.000	0.015	-0.516
-652.843	800.000	0.009	0.039
-651.828	-76.201	-0.352	0.127
-650.814	-82.608	-0.407	0.135
-649.799	-200.000	-0.006	-0.132
-648.784	797.116	0.144	-0.406
-647.770	-169.854	-0.043	0.002
-646.755	-200.000	0.034	0.516
-645.741	59.545	-0.199	0.200
-644.726	-74.075	0.318	0.118
-643.711	-200.000	-0.028	0.268
-642.697	99.186	-0.073	0.086
-641.682	-106.380	0.180	-0.041
-640.668	-200.000	0.054	0.502
-639.653	722.958	-0.053	-0.143
-638.638	144.916	-0.112	-0.153
-637.624	-161.081	-0.090	-0.005
-636.609	-200.000	0.002	-0.130
-635.595	275.729	-0.151	0.273
-634.580	609.801	-0.141	0.359
-633.565	-46.056	0.219	-0.110
-632.551	-135.226	-0.422	-0.052
-631.536	-131.159	-0.136	0.018
-630.522	-179.092	-0.171	-0.004
-629.507	800.000	-0.043	0.133
-628.492	-200.000	0.006	0.132
-627.478	238.960	0.152	-0.258
-626.463	94.999	0.094	0.109
-625.449	-88.800	0.276	0.084
-624.434	-200.000	-0.021	-0.512
-623.419	-200.000	0.044	0.276
-622.405	164.071	-0.111	-0.159
-621.390	-111.757	0.198	-0.041
-620.376	800.000	0.048	-0.181
-619.361	-140.030	-0.141	-0.015
-618.346	800.000	0.014	-0.054
-617.332	137.361	-0.121	0.161
-616.317	-69.351	0.146	-0.057
-615.303	-86.121	-0.206	0.065
-614.288	800.000	0.075	-0.211
-613.273	-34.400	0.228	-0.127
-612.259	-34.887	0.112	0.063
-611.244	-25.883	-0.127	0.076
-610.230	-10.957	-0.151	-0.101
-609.215	-3.831	-0.188	-0.133
-608.201	49.120	-0.376	0.361
-607.186	64.775	0.309	0.318
-606.171	-68.922	-0.273	0.108
-605.157	-28.499	-0.229	0.134
-604.142	-200.000	0.013	-0.221
-603.128	527.128	0.077	-0.186
-602.113	-147.863	-0.208	-0.018
-601.098	279.748	0.135	0.245
-600.084	-200.000	-0.033	-0.242
-599.069	-76.011	-0.160	0.058
-598.055	-200.000	0.016	0.121
-597.040	240.173	-0.129	0.218
-596.025	26.588	-0.009	-0.008
-595.011	-146.759	0.277	-0.024
-593.996	0.996	0.175	-0.128
-592.982	-124.957	0.158	0.025
-591.967	-59.092	-0.147	0.064
-590.952	-125.793	-0.115	0.018
-589.938	162.347	-0.100	0.142
-588.923	800.000	-0.068	-0.226
-587.909	-132.800	-0.317	0.041
-586.894	-187.263	-0.093	0.001
-585.879	-103.759	0.150	0.036
-584.865	-200.000	-0.006	0.257
-583.850	264.049	-0.197	-0.350
-582.836	-13.585	0.106	0.070
-581.821	-142.432	0.150	-0.015
-580.806	-70.388	-0.392	0.151
-579.792	304.649	-0.093	-0.177
-578.777	-200.000	0.012	0.169
-577.763	-200.000	0.032	-0.184
-576.748	-200.000	0.034	-0.330
-575.733	160.656	-0.107	-0.152
-574.719	88.983	-0.313	-0.355
-573.704	43.518	-0.168	-0.156
-572.690	800.000	-0.059	0.205
-571.675	-119.565	0.574	0.101
-570.661	-80.609	0.290	-0.098
-569.646	261.102	0.205	0.361
-568.631	-76.531	0.223	0.080
-567.617	-200.000	-0.038	-0.331
-566.602	-18.657	-0.370	-0.235
-565.588	-40.303	-0.198	0.105
-564.573	-200.000	-0.006	-0.269
-563.558	-200.000	-0.012	-0.196
-562.544	-200.000	-0.011	0.075
-561.529	19.796	0.106	-0.087
-560.515	210.243	0.101	0.162
-559.500	-125.076	-0.100	-0.016
-558.485	-200.000	-0.011	0.084
-557.471	-200.000	-0.022	-0.297
-556.456	-131.326	0.236	-0.032
-555.442	-15.473	-0.299	-0.194
-554.427	236.833	-0.110	0.185
-553.412	100.160	-0.180	0.212
-552.398	-22.385	-0.169	0.104
-551.383	103.503	0.106	-0.126
-550.369	-8.906	0.260	0.177
-549.354	123.998	0.109	-0.139
-548.339	-99.596	0.141	0.036
-547.325	-103.848	0.123	0.029
-546.310	-32.376	0.259	-0.147
-545.296	-82.520	-0.356	-0.118
-544.281	-200.000	0.036	-0.288
-543.266	-200.000	0.011	-0.265
-542.252	-200.000	-0.018	-0.352
-541.237	-200.000	0.025	0.145
-540.223	63.906	0.223	-0.228
-539.208	-116.392	-0.294	-0.055
-538.193	-127.941	-0.281	-0.041
-537.179	50.845	-0.198	-0.190
-536.164	800.000	0.176	-0.512
-535.150	193.154	0.031	-0.048
-534.135	-111.208	0.240	0.050
-533.121	800.000	-0.095	0.312
-532.106	-200.000	-0.027	-0.285
-531.091	-200.000	0.051	-0.239
-530.077	155.979	-0.016	0.022
-529.062	-200.000	-0.066	-0.419
-528.048	149.535	0.075	0.103
-527.033	-200.000	0.002	0.135
-526.018	139.630	0.137	-0.183
-525.004	48.413	-0.050	-0.048
-523.989	-54.090	-0.208	0.096
-522.975	113.470	-0.065	0.080
-521.960	-200.000	0.015	0.136
-520.945	800.000	-0.119	-0.426
-519.931	-139.238	0.143	-0.016
-518.916	228.913	0.185	-0.306
-517.902	28.516	0.310	-0.266
-516.887	800.000	0.088	-0.368
-515.872	-153.233	-0.318	-0.023
-514.858	-177.087	0.359	0.009
-513.843	70.268	-0.044	-0.046
-512.829	664.257	-0.119	0.311
-511.814	72.173	-0.216	0.229
-510.799	301.618	-0.047	0.088
-509.785	-200.000	-0.002	-0.076
-508.770	-200.000	-0.022	-0.467
-507.756	13.971	-0.270	0.213
-506.741	-93.944	0.131	0.037
-505.726	-59.478	-0.099	-0.043
-504.712	50.061	-0.246	0.235
-503.697	-200.000	0.005	0.121
-502.683	-102.094	0.189	0.046
-501.668	86.527	0.170	-0.190
-500.653	-68.463	-0.137	-0.054
-499.639	-200.000	0.044	-0.303
-498.624	156.764	-0.082	-0.114
-497.610	-200.000	-0.046	0.412
-496.595	-81.584	-0.122	-0.041
-495.581	299.341	-0.064	-0.119
-494.566	-85.432	0.186	0.059
-493.551	-116.404	0.106	0.020
-492.537	-59.367	0.237	-0.103
-491.522	-27.986	0.238	-0.140
-490.508	180.365	0.087	0.130
-489.493	-83.838	0.295	0.096
-488.478	-200.000	0.015	-0.314
-487.464	-168.242	-0.190	-0.007
-486.449	356.509	0.147	0.297
-485.435	800.000	0.069	0.277
-484.420	128.350	0.283	0.365
-483.405	444.941	0.048	0.107
-482.391	698.655	-0.147	0.393
-481.376	100.214	-0.079	-0.093
-480.362	81.436	0.211	-0.231
-479.347	-200.000	0.037	-0.258
-478.332	-200.000	-0.028	0.192
-477.318	-98.503	-0.139	0.036
-476.303	184.207	-0.161	-0.242
-475.289	71.427	-0.191	0.201
-474.274	41.702	-0.187	0.172
-473.259	-200.000	-0.008	-0.174
-472.245	42.294	-0.289	0.267
-471.230	86.567	0.179	0.200
-470.216	-200.000	0.007	-0.399
-469.201	63.800	0.128	-0.130
-468.186	37.999	0.165	0.149
-467.172	-109.321	-0.135	0.029
-466.157	6.995	-0.107	-0.081
-465.143	-169.554	-0.186	-0.007
-464.128	-200.000	-0.031	-0.176
-463.113	-200.000	-0.006	-0.155
-462.099	800.000	-0.060	0.190
-461.084	-149.185	0.098	0.008
-460.070	3.489	-0.088	-0.065
-459.055	-82.539	-0.150	-0.049
-458.040	-64.589	0.327	0.135
-457.026	18.897	0.222	0.180
-456.011	128.078	-0.067	0.086
-454.997	563.438	0.131	-0.321
-453.982	-100.896	0.188	0.047
-452.968	-134.529	0.116	0.014
-451.953	-121.759	-0.183	0.031
-450.938	-200.000	-0.013	0.078
-449.924	400.767	0.114	-0.243
-448.909	-44.272	0.166	-0.084
-447.895	493.217	0.017	0.039
-446.880	-200.000	0.020	0.248
-445.865	-160.767	0.228	-0.012
-444.851	-70.860	-0.243	-0.093
-443.836	144.506	-0.011	0.015
-442.822	-72.450	0.130	0.049
-441.807	-9.584	-0.361	0.244
-440.792	-200.000	-0.017	-0.337
-439.778	800.000	0.030	-0.091
-438.763	48.240	-0.294	0.278
-437.749	168.707	0.187	0.270
-436.734	246.803	-0.098	-0.167
-435.719	-200.000	0.010	0.218
-434.705	233.977	-0.105	0.175
-433.690	-130.087	-0.054	0.007
-432.676	-2.752	-0.117	-0.083
-431.661	-200.000	0.007	0.056
-430.646	-38.961	-0.042	-0.022
-429.632	-59.815	-0.056	0.024
-428.617	-148.940	-0.046	-0.004
-427.603	-31.305	0.221	0.126
-426.588	35.407	0.262	-0.233
-425.573	438.654	-0.128	-0.282
-424.559	-44.748	-0.332	0.168
-423.544	-200.000	-0.039	-0.292
-422.530	20.766	-0.257	0.211
-421.515	-102.907	-0.143	-0.034
-420.500	-69.067	0.292	0.114
-419.486	219.270	0.039	0.063
-418.471	-42.332	0.343	-0.177
-417.457	-200.000	-0.036	0.198
-416.442	800.000	0.023	0.084
-415.428	-39.770	-0.225	0.119
-414.413	2.454	0.138	0.101
-413.398	569.411	-0.083	-0.205
-412.384	-161.597	-0.072	-0.004
-411.369	18.413	-0.057	-0.046
-410.355	156.582	0.152	0.213
-409.340	-114.581	0.175	-0.034
-408.325	42.790	-0.171	-0.157
-407.311	800.000	-0.021	0.089
-406.296	-134.835	0.160	-0.020
-405.282	-200.000	0.017	-0.227
-404.267	414.645	0.081	0.175
-403.252	-199.634	0.045	0.000
-402.238	-200.000	-0.019	-0.182
-401.223	38.107	-0.173	0.156
-400.209	800.000	0.012	0.043
-399.194	86.259	0.051	0.057
-398.179	20.409	0.124	0.102
-397.165	-44.128	0.294	-0.149
-396.150	-40.165	-0.122	0.064
-395.136	-90.641	0.204	-0.059
-394.121	800.000	-0.092	0.266
-393.106	751.224	-0.087	-0.238
-392.092	-141.088	-0.241	-0.025
-391.077	800.000	-0.072	0.269
-390.063	-83.654	0.245	0.079
-389.048	800.000	-0.087	-0.305
-388.033	187.480	0.067	-0.100
-387.019	668.304	0.181	0.473
-386.004	-114.599	-0.113	-0.022
-384.990	-161.848	-0.206	-0.011
-383.975	105.414	-0.073	0.088
-382.960	-148.363	-0.028	-0.002
-381.946	402.027	-0.183	0.389
-380.931	-81.742	-0.221	0.073
-379.917	-52.171	-0.131	-0.061
-378.902	800.000	-0.043	0.172
-377.888	235.568	0.047	-0.078
-376.873	-64.008	0.275	-0.114
-375.858	-200.000	0.005	0.289
-374.844	325.395	0.073	0.142
-373.829	73.057	-0.135	0.143
-372.815	-143.624	-0.098	-0.009
-371.800	-99.401	-0.257	0.065
-370.785	800.000	0.023	0.101
-369.771	-22.955	0.255	-0.155
-368.756	-187.707	0.060	-0.001
-367.742	772.149	0.032	0.089
-366.727	80.494	0.111	0.120
-365.712	-29.248	-0.131	0.076
-364.698	800.000	0.058	0.206
-363.683	-97.816	-0.077	0.020
-362.669	35.362	0.124	0.110
-361.654	119.110	-0.251	-0.314
-360.639	-200.000	0.005	0.071
-359.625	-23.059	0.206	0.125
-358.610	-84.026	-0.225	0.072
-357.596	79.329	0.129	0.140
-356.581	-80.733	-0.123	-0.041
-355.566	-200.000	-0.051	-0.395
-354.552	-13.895	-0.216	0.141
-353.537	-146.217	-0.419	0.037
-352.523	-200.000	0.031	0.276
-351.508	-113.301	0.066	-0.013
-350.493	335.522	0.133	-0.261
-349.479	119.368	0.104	0.130
-348.464	309.687	0.084	0.158
-347.450	-106.595	0.376	0.084
-346.435	28.546	-0.310	-0.265
-345.420	-200.000	-0.107	-0.586
-344.406	89.937	-0.204	-0.229
-343.391	174.111	-0.145	0.212
-342.377	-78.609	-0.075	-0.026
-341.362	391.661	-0.055	-0.116
-340.348	-200.000	0.003	0.145
-339.333	53.541	0.059	-0.057
-338.318	-115.687	0.194	-0.037
-337.304	-200.000	0.042	-0.196
-336.289	577.073	-0.127	-0.313
-335.275	621.388	-0.012	0.031
-334.260	106.233	-0.231	-0.276
-333.245	-131.149	0.366	-0.049
-332.231	510.776	-0.021	-0.049
-331.216	5.908	-0.207	0.155
-330.202	-123.364	-0.155	0.025
-329.187	23.401	-0.243	0.201
-328.172	-91.432	0.026	0.007
-327.158	-153.697	0.082	-0.006
-326.143	16.356	0.329	0.262
-325.129	4.731	0.110	0.081
-324.114	152.569	0.182	0.251
-323.099	82.695	-0.254	-0.278
-322.085	-200.000	0.014	-0.066
-321.070	-46.821	0.199	-0.098
-320.056	-97.697	0.514	0.134
-319.041	-36.782	-0.258	0.140
-318.026	-117.248	-0.145	-0.027
-317.012	499.568	-0.014	0.033
-315.997	18.445	-0.262	-0.211
-314.983	20.806	0.081	-0.066
-313.968	32.300	0.178	0.155
-312.953	119.321	-0.136	-0.169
-311.939	250.729	-0.085	-0.145
-310.924	800.000	-0.015	0.066
-309.910	-144.288	-0.458	-0.043
-308.895	800.000	-0.128	0.409
-307.880	-200.000	0.002	-0.123
-306.866	-200.000	0.021	0.093
-305.851	109.454	-0.049	0.059
-304.837	454.798	-0.125	-0.280
-303.822	308.101	0.160	-0.300
-302.807	-185.646	-0.065	0.001
-301.793	270.549	0.098	-0.174
-300.778	-97.196	-0.305	0.080
-299.764	692.716	0.100	0.263
-298.749	-124.673	-0.114	-0.018
-297.735	-47.575	-0.155	-0.076
-296.720	10.003	0.106	-0.081
-295.705	15.258	-0.109	-0.086
-294.691	-128.392	-0.256	0.037
-293.676	-88.705	-0.042	0.013
-292.662	121.605	-0.091	0.114
-291.647	-200.000	0.013	0.200
-290.632	352.470	0.126	0.252
-289.618	-66.712	0.328	0.131
-288.603	-20.160	0.204	0.127
-287.589	-96.061	0.412	-0.110
-286.574	-162.394	-0.230	0.012
-285.559	7.781	-0.127	0.096
-284.545	15.549	-0.261	0.206
-283.530	39.818	-0.030	-0.027
-282.516	800.000	0.071	0.232
-281.501	800.000	0.099	0.369
-280.486	-16.113	-0.104	0.066
-279.472	13.425	0.198	0.154
-278.457	57.939	0.148	-0.145
-277.443	800.000	-0.033	0.135
-276.428	-134.883	-0.264	0.032
-275.413	-91.546	0.143	-0.041
-274.399	166.211	-0.045	0.064
-273.384	116.902	0.037	0.045
-272.370	-144.578	0.218	0.020
-271.355	-68.359	-0.176	0.069
-270.340	177.441	-0.216	-0.317
-269.326	-133.464	0.131	-0.017
-268.311	-2.009	0.115	0.081
-267.297	-200.000	0.046	0.324
-266.282	105.393	0.138	0.164
-265.267	800.000	-0.032	-0.102
-264.253	-200.000	-0.018	0.190
-263.238	484.450	0.090	-0.207
-262.224	-45.083	-0.234	-0.117
-261.209	-30.934	-0.268	0.152
-260.195	24.781	-0.199	-0.166
-259.180	174.048	0.124	-0.181
-258.165	800.000	-0.024	0.079
-257.151	124.904	-0.165	-0.209
-256.136	73.829	0.085	-0.090
-255.122	-159.279	-0.075	-0.004
-254.107	800.000	0.064	0.259
-253.092	63.821	-0.156	0.158
-252.078	171.544	0.059	0.085
-251.063	-200.000	-0.011	0.077
-250.049	-192.678	-0.172	0.002
-249.034	-200.000	0.003	-0.243
-248.019	-200.000	-0.048	-0.382
-247.005	-200.000	0.010	-0.129
-245.990	-94.779	0.281	-0.077
-244.976	155.753	0.095	-0.131
-243.961	560.058	-0.061	-0.148
-242.946	30.019	0.170	0.146
-241.932	592.814	0.107	-0.265
-240.917	365.646	0.091	0.185
-239.903	-200.000	0.034	-0.206
-238.888	-183.062	0.286	-0.005
-237.873	800.000	0.067	0.215
-236.859	60.131	-0.228	-0.226
-235.844	-55.216	0.125	0.057
-234.830	-40.121	0.186	-0.097
-233.815	-141.974	-0.187	0.019
-232.800	-9.245	0.041	-0.027
-231.786	800.000	0.092	0.304
-230.771	800.000	0.133	0.394
-229.757	-163.418	0.283	-0.014
-228.742	38.719	0.161	0.144
-227.727	-99.110	0.244	-0.062
-226.713	333.822	-0.169	-0.329
-225.698	272.278	0.109	0.194
-224.684	800.000	0.011	0.032
-223.669	228.505	0.060	-0.098
-222.655	132.558	-0.240	-0.311
-221.640	372.030	0.145	-0.296
-220.625	70.928	0.316	0.328
-219.611	-200.000	0.061	-0.416
-218.596	-51.720	0.136	0.064
-217.582	319.210	0.214	0.408
-216.567	-200.000	-0.056	0.364
-215.552	-161.937	-0.206	0.010
-214.538	147.738	-0.054	0.073
-213.523	-200.000	-0.002	-0.224
-212.509	47.074	0.122	0.114
-211.494	-200.000	0.038	-0.389
-210.479	-88.643	-0.025	-0.007
-209.465	-53.144	0.234	-0.108
-208.450	-200.000	0.005	0.061
-207.436	800.000	0.060	0.192
-206.421	-9.913	0.078	0.052
-205.406	23.149	-0.217	0.179
-204.392	800.000	-0.046	0.177
-203.377	-7.495	-0.197	-0.134
-202.363	58.070	0.152	-0.150
-201.348	82.023	-0.085	0.092
-200.333	155.760	0.154	0.213
-199.319	115.197	0.086	-0.106
-198.304	-127.620	0.218	0.032
-197.290	-4.879	0.292	0.202
-196.275	41.607	-0.064	0.058
-195.260	493.628	0.055	-0.127
-194.246	-200.000	-0.028	0.209
-193.231	8.458	-0.079	-0.060
-192.217	-40.052	-0.282	-0.147
-191.202	239.223	0.092	-0.154
-190.187	84.147	0.162	0.177
-189.173	359.246	0.104	0.209
-188.158	-32.178	0.142	-0.079
-187.144	800.000	0.078	-0.263
-186.129	-124.789	-0.070	-0.011
-185.114	-200.000	0.025	-0.223
-184.100	-7.837	0.162	0.109
-183.085	-69.561	0.202	0.078
-182.071	45.626	-0.189	-0.176
-181.056	-76.590	0.234	-0.082
-180.042	-34.257	0.112	0.062
-179.027	320.451	-0.072	0.138
-178.012	-34.326	0.043	0.024
-176.998	63.775	0.033	0.033
-175.983	125.806	0.160	0.203
-174.969	248.406	-0.178	-0.302
-173.954	269.263	-0.044	-0.078
-172.939	236.990	-0.129	0.214
-171.925	32.426	0.118	0.102
-170.910	10.301	0.203	-0.155
-169.896	-13.907	-0.101	-0.066
-168.881	800.000	0.017	0.053
-167.866	-1.459	-0.204	-0.144
-166.852	399.868	0.050	-0.106
-165.837	-185.835	0.381	-0.006
-164.823	-197.876	-0.017	0.000
-163.808	73.018	0.007	-0.007
-162.793	262.787	0.132	0.230
-161.779	423.317	0.049	0.105
-160.764	-69.647	0.102	-0.039
-159.750	-16.574	-0.051	-0.033
-158.735	168.423	-0.090	-0.128
-157.720	-200.000	0.003	-0.108
-156.706	67.378	-0.120	0.123
-155.691	-130.999	-0.067	-0.009
-154.677	-192.543	0.202	0.002
-153.662	-200.000	0.015	0.077
-152.647	-77.060	-0.392	-0.137
-151.633	-200.000	-0.017	0.075
-150.618	87.675	0.112	0.124
-149.604	523.894	0.046	-0.107
-148.589	-200.000	-0.023	0.129
-147.574	-200.000	-0.015	-0.071
-146.560	81.947	0.150	0.163
-145.545	162.136	0.061	-0.085
-144.531	-102.592	-0.265	0.063
-143.516	-58.829	-0.129	-0.056
-142.502	-200.000	-0.057	0.306
-141.487	-200.000	-0.088	0.479
-140.472	189.359	0.079	0.118
-139.458	314.173	0.107	0.202
-138.443	-200.000	-0.005	0.271
-137.429	65.818	-0.399	0.405
-136.414	-149.565	0.288	0.023
-135.399	-46.368	-0.337	-0.166
-134.385	-117.217	0.317	0.058
-133.370	-88.943	-0.349	0.103
-132.356	-101.542	-0.347	0.084
-131.341	-200.000	0.019	0.098
-130.326	-200.000	0.026	0.303
-129.312	-15.999	0.169	-0.107
-128.297	-47.353	-0.148	-0.072
-127.283	-31.925	-0.079	-0.044
-126.268	-14.319	-0.257	0.165
-125.253	-12.252	-0.119	0.078
-124.239	98.601	0.177	0.204
-123.224	17.509	0.080	0.064
-122.210	-200.000	-0.022	-0.106
-121.195	-69.565	0.256	-0.098
