DTS Sentinel unit serial number:	SN413079Multiplexer serial number:	ORYXHardware model number:	OX4-SRSoftware version number:	ORYX F/W v4.00 Oryx Data Collector v3.7.2.0data status	okinstallation	princeton_trtdifferential loss correction	single-endedforward channel	channel 3reverse channel	N/Adate	2019/09/15time	20:24:35forward acquisition time	60.00reverse acquisition time	0.00gamma	496.2192k internal	0.2322k external	0.2322temperature offset calibration	0.9938default loss term (dB/km)	0.3790temperature slope calibration	1.0000multiplexer offset coefficient	1.0000multiplexer slope coefficient	1.0000fibre end	0.00T internal ref (°C)	33.83T ext. ref 1 (°C)	7.76T ext. ref 2 (°C)	25.34length (m)	temperature (°C)	Stokes	anti-Stokes-747.200	-41.090	-0.106	0.055
-746.185	-12.404	-0.151	0.100
-745.171	-82.087	-0.152	0.050
-744.156	-45.271	-0.257	0.129
-743.142	-138.497	0.164	0.018
-742.127	-3.749	0.279	0.195
-741.112	-200.000	0.022	-0.222
-740.098	-200.000	-0.001	0.158
-739.083	-200.000	-0.001	-0.005
-738.069	800.000	0.089	0.340
-737.054	120.061	-0.070	0.088
-736.039	-55.532	-0.039	-0.018
-735.025	-58.972	0.216	-0.094
-734.010	-200.000	-0.085	0.479
-732.996	4.871	-0.222	0.165
-731.981	83.871	-0.293	-0.322
-730.966	-200.000	0.071	0.475
-729.952	-71.207	0.179	0.068
-728.937	-200.000	-0.026	-0.120
-727.923	800.000	-0.052	0.223
-726.908	289.438	0.147	-0.270
-725.894	19.188	0.236	-0.191
-724.879	-91.325	0.047	-0.014
-723.864	164.851	-0.160	0.228
-722.850	241.104	0.022	0.037
-721.835	13.766	0.125	0.098
-720.821	-84.805	-0.244	0.078
-719.806	636.650	0.046	0.119
-718.791	-200.000	0.033	0.399
-717.777	-94.302	-0.198	-0.055
-716.762	-170.220	0.142	-0.005
-715.748	-200.000	0.003	-0.176
-714.733	-39.454	-0.110	0.058
-713.718	-153.974	0.031	-0.002
-712.704	339.035	0.049	-0.097
-711.689	-114.847	-0.106	-0.020
-710.675	-82.067	-0.239	0.079
-709.660	-200.000	-0.055	-0.355
-708.645	-145.847	-0.184	-0.016
-707.631	-35.529	-0.266	-0.146
-706.616	85.328	0.088	0.098
-705.602	150.145	0.147	-0.201
-704.587	209.167	-0.105	0.166
-703.572	-200.000	0.008	0.056
-702.558	-80.314	0.062	0.021
-701.543	-200.000	0.066	-0.322
-700.529	496.159	0.085	-0.197
-699.514	-17.315	0.045	0.029
-698.499	800.000	0.026	-0.105
-697.485	800.000	0.075	0.266
-696.470	-200.000	0.024	-0.357
-695.456	-200.000	0.012	-0.076
-694.441	31.473	-0.051	-0.044
-693.426	-200.000	0.007	-0.065
-692.412	103.113	0.193	-0.228
-691.397	-176.985	-0.448	-0.011
-690.383	284.725	0.117	-0.212
-689.368	475.149	-0.080	0.183
-688.354	-25.649	-0.208	-0.124
-687.339	-98.202	-0.229	0.059
-686.324	-18.609	-0.125	0.079
-685.310	13.126	0.319	0.249
-684.295	-36.971	-0.159	0.086
-683.281	161.516	0.029	0.041
-682.266	321.314	-0.041	-0.078
-681.251	800.000	-0.140	-0.456
-680.237	104.910	-0.242	-0.287
-679.222	432.676	0.046	-0.100
-678.208	-200.000	0.048	-0.255
-677.193	-200.000	-0.001	0.086
-676.178	-200.000	-0.008	-0.185
-675.164	784.466	0.148	-0.409
-674.149	22.691	0.119	-0.098
-673.135	56.976	-0.121	0.118
-672.120	285.143	-0.046	0.083
-671.105	93.043	-0.055	-0.063
-670.091	409.876	-0.103	-0.219
-669.076	365.283	0.146	-0.296
-668.062	-200.000	-0.030	0.147
-667.047	-166.107	-0.123	-0.005
-666.032	42.216	0.175	-0.160
-665.018	1.992	-0.290	-0.211
-664.003	-19.810	0.233	0.145
-662.989	800.000	-0.047	0.179
-661.974	-69.327	-0.185	0.072
-660.959	-200.000	-0.039	0.327
-659.945	-91.005	0.238	-0.069
-658.930	-200.000	0.005	0.205
-657.916	-95.610	-0.210	-0.057
-656.901	-106.100	-0.226	-0.051
-655.886	-105.089	0.340	-0.078
-654.872	-114.430	0.347	-0.067
-653.857	344.120	-0.115	-0.227
-652.843	15.559	-0.262	-0.208
-651.828	-200.000	-0.008	-0.145
-650.814	-44.108	-0.071	-0.036
-649.799	-85.685	-0.067	0.021
-648.784	-150.814	-0.279	-0.021
-647.770	16.794	-0.266	0.212
-646.755	-59.825	-0.239	0.103
-645.741	-68.213	-0.251	-0.098
-644.726	-200.000	0.036	0.325
-643.711	-187.820	0.158	0.002
-642.697	-200.000	-0.015	-0.116
-641.682	-200.000	-0.003	0.098
-640.668	-60.666	-0.220	0.094
-639.653	-136.314	0.061	-0.007
-638.638	168.241	-0.161	0.230
-637.624	-60.374	0.184	0.079
-636.609	800.000	-0.042	0.178
-635.595	-200.000	0.232	0.001
-634.580	109.387	0.044	0.053
-633.565	9.445	-0.034	0.026
-632.551	-59.170	0.080	0.035
-631.536	-96.201	-0.154	0.041
-630.522	-43.737	-0.479	0.243
-629.507	131.623	-0.163	-0.211
-628.492	471.541	0.061	-0.138
-627.478	-188.437	-0.224	0.003
-626.463	28.920	0.157	0.134
-625.449	31.995	-0.119	0.103
-624.434	800.000	0.042	-0.147
-623.419	-200.000	-0.035	0.391
-622.405	116.189	-0.038	-0.047
-621.390	352.829	-0.174	0.347
-620.376	-80.781	0.126	-0.042
-619.361	-17.806	-0.181	-0.114
-618.346	-160.267	-0.395	-0.021
-617.332	-200.000	-0.027	0.284
-616.317	341.111	-0.117	-0.230
-615.303	-58.621	0.106	0.046
-614.288	800.000	0.039	-0.164
-613.273	-94.610	0.253	0.069
-612.259	-135.013	-0.187	-0.023
-611.244	-101.431	0.332	0.081
-610.230	-200.000	-0.002	-0.288
-609.215	80.793	0.049	0.053
-608.201	-200.000	-0.005	-0.319
-607.186	333.380	-0.190	0.369
-606.171	105.064	-0.198	0.235
-605.157	-80.622	0.202	-0.068
-604.142	-200.000	-0.024	-0.122
-603.128	-59.402	-0.143	0.062
-602.113	-14.009	-0.046	0.030
-601.098	282.752	-0.105	0.189
-600.084	-116.285	0.270	0.050
-599.069	-200.000	-0.021	0.107
-598.055	71.650	0.107	-0.112
-597.040	800.000	0.096	0.348
-596.025	-96.003	-0.106	0.028
-595.011	-73.932	-0.184	0.067
-593.996	-17.977	0.202	-0.127
-592.982	-7.614	-0.314	-0.213
-591.967	-47.324	-0.008	0.004
-590.952	-200.000	0.004	-0.096
-589.938	-8.406	0.082	0.055
-588.923	-200.000	0.010	0.238
-587.909	128.205	0.257	0.328
-586.894	21.547	0.209	0.171
-585.879	-100.008	-0.208	0.052
-584.865	-155.988	-0.049	-0.003
-583.850	-164.497	0.115	0.005
-582.836	-124.902	-0.100	0.015
-581.821	800.000	-0.072	-0.269
-580.806	144.423	0.134	-0.180
-579.792	147.546	0.062	-0.084
-578.777	-123.701	0.213	0.034
-577.763	-86.535	-0.447	-0.138
-576.748	248.642	-0.081	-0.138
-575.733	168.775	0.143	-0.204
-574.719	1.974	-0.130	0.094
-573.704	31.424	-0.196	0.169
-572.690	-200.000	-0.020	0.113
-571.675	-96.048	-0.069	-0.018
-570.661	69.121	0.088	-0.091
-569.646	403.359	-0.060	0.128
-568.631	128.846	0.177	0.227
-567.617	-200.000	0.001	0.268
-566.602	-103.030	0.181	0.043
-565.588	-200.000	-0.009	-0.146
-564.573	-200.000	-0.039	-0.230
-563.558	-41.008	-0.084	0.043
-562.544	800.000	0.107	0.308
-561.529	-123.315	-0.267	-0.043
-560.515	247.951	-0.225	-0.381
-559.500	800.000	-0.059	0.235
-558.485	-200.000	0.007	-0.052
-557.471	583.356	-0.077	-0.189
-556.456	10.691	0.080	-0.061
-555.442	-50.420	-0.405	0.192
-554.427	800.000	0.064	-0.239
-553.412	9.900	-0.159	-0.121
-552.398	-67.040	-0.345	-0.136
-551.383	308.981	-0.054	-0.102
-550.369	800.000	0.102	-0.361
-549.354	211.905	0.279	-0.441
-548.339	-31.331	-0.278	-0.157
-547.325	244.117	0.054	0.091
-546.310	14.528	-0.246	-0.193
-545.296	800.000	0.065	0.229
-544.281	-200.000	-0.007	0.144
-543.266	-117.018	0.351	0.064
-542.252	-51.947	0.270	-0.126
-541.237	132.401	-0.060	0.077
-540.223	-200.000	-0.030	0.421
-539.208	-58.136	0.125	0.055
-538.193	-45.154	-0.245	0.122
-537.179	23.611	-0.235	0.194
-536.164	-30.639	0.349	0.198
-535.150	-155.005	0.152	0.010
-534.135	800.000	-0.053	-0.167
-533.121	-67.704	-0.119	0.047
-532.106	253.324	-0.153	-0.262
-531.091	-141.424	-0.150	0.015
-530.077	140.038	-0.111	0.147
-529.062	-62.644	0.172	-0.072
-528.048	638.379	-0.091	-0.232
-527.033	191.553	-0.204	0.308
-526.018	800.000	0.059	-0.256
-525.004	88.489	0.198	0.220
-523.989	-162.628	0.422	-0.021
-522.975	-200.000	-0.026	-0.312
-521.960	553.413	-0.111	0.268
-520.945	800.000	0.110	-0.324
-519.931	33.422	-0.221	-0.192
-518.916	-27.509	-0.259	0.150
-517.902	-25.306	-0.344	-0.204
-516.887	26.169	-0.127	0.107
-515.872	-93.058	0.276	0.077
-514.858	231.883	-0.105	-0.173
-513.843	-55.659	-0.347	0.156
-512.829	800.000	-0.053	-0.196
-511.814	-200.000	-0.022	0.185
-510.799	800.000	-0.027	-0.084
-509.785	800.000	-0.049	-0.151
-508.770	-92.180	-0.322	-0.091
-507.756	-200.000	-0.024	-0.183
-506.741	559.926	0.098	-0.238
-505.726	-100.612	-0.276	-0.068
-504.712	422.835	0.084	-0.180
-503.697	-200.000	-0.001	0.146
-502.683	112.447	-0.116	0.141
-501.668	-50.063	-0.057	0.027
-500.653	-82.790	-0.259	-0.084
-499.639	186.691	-0.176	-0.263
-498.624	398.365	0.086	0.179
-497.610	-121.772	0.259	-0.043
-496.595	-200.000	-0.023	0.299
-495.581	137.797	0.052	0.068
-494.566	-54.794	0.524	0.237
-493.551	-200.000	0.050	0.234
-492.537	800.000	-0.026	-0.084
-491.522	-200.000	-0.027	-0.334
-490.508	-89.452	-0.569	-0.167
-489.493	28.922	-0.209	0.177
-488.478	-17.128	0.183	0.115
-487.464	-60.788	-0.225	0.095
-486.449	-200.000	-0.001	0.092
-485.435	-200.000	0.014	-0.128
-484.420	130.683	0.087	-0.112
-483.405	800.000	0.022	-0.082
-482.391	-200.000	0.005	0.077
-481.376	800.000	0.067	-0.232
-480.362	214.026	-0.148	-0.234
-479.347	202.265	-0.278	-0.428
-478.332	87.404	-0.165	0.183
-477.318	-156.341	0.081	-0.005
-476.303	97.251	-0.249	0.286
-475.289	-200.000	-0.065	0.377
-474.274	-131.346	0.338	0.045
-473.259	-106.680	0.305	-0.068
-472.245	127.444	-0.205	-0.260
-471.230	452.615	0.053	-0.118
-470.216	38.622	-0.348	0.310
-469.201	-57.839	0.447	0.196
-468.186	186.810	-0.128	-0.191
-467.172	780.714	-0.126	-0.346
-466.157	-184.625	-0.577	-0.009
-465.143	-200.000	-0.039	0.201
-464.128	-200.000	-0.012	-0.129
-463.113	-200.000	-0.006	0.186
-462.099	276.893	-0.087	0.154
-461.084	800.000	-0.065	0.204
-460.070	62.980	-0.159	0.159
-459.055	800.000	-0.086	0.288
-458.040	-6.419	0.109	0.074
-457.026	102.351	-0.070	-0.082
-456.011	340.197	-0.025	-0.048
-454.997	29.922	-0.094	0.080
-453.982	-124.952	0.325	0.050
-452.968	152.062	-0.222	0.303
-451.953	5.462	-0.246	-0.181
-450.938	-196.264	-0.108	-0.001
-449.924	23.023	0.127	0.104
-448.909	800.000	0.057	0.169
-447.895	-173.576	0.126	0.004
-446.880	528.696	-0.103	-0.244
-445.865	427.763	-0.081	-0.174
-444.851	-55.417	0.150	0.067
-443.836	-200.000	-0.026	-0.330
-442.822	238.425	-0.051	-0.085
-441.807	575.606	0.035	-0.085
-440.792	193.347	0.209	0.316
-439.778	-110.259	0.176	0.037
-438.763	19.843	0.093	0.075
-437.749	-69.385	0.132	-0.051
-436.734	-200.000	0.025	-0.262
-435.719	75.272	-0.097	-0.102
-434.705	18.536	-0.162	-0.129
-433.690	-200.000	0.045	0.234
-432.676	27.424	-0.497	0.417
-431.661	-113.111	-0.392	0.077
-430.646	-200.000	-0.024	-0.179
-429.632	184.352	-0.150	-0.221
-428.617	-28.587	0.541	0.311
-427.603	-134.805	-0.214	-0.026
-426.588	201.152	0.199	0.306
-425.573	89.479	0.115	-0.128
-424.559	-200.000	0.183	-0.001
-423.544	-122.897	-0.151	-0.024
-422.530	-43.523	-0.083	-0.042
-421.515	-84.580	0.109	-0.034
-420.500	-64.408	-0.079	-0.032
-419.486	800.000	0.037	0.151
-418.471	800.000	0.037	0.110
-417.457	338.851	-0.040	-0.078
-416.442	-189.693	-0.260	0.003
-415.428	-200.000	0.013	0.116
-414.413	-66.380	0.157	0.062
-413.398	-15.046	-0.101	-0.065
-412.384	-200.000	0.070	-0.310
-411.369	47.742	-0.023	0.021
-410.355	-184.750	0.242	-0.004
-409.340	89.539	0.143	-0.160
-408.325	23.252	0.094	0.077
-407.311	111.590	-0.236	0.284
-406.296	-100.908	0.113	0.028
-405.282	-2.404	0.271	-0.190
-404.267	515.938	-0.077	0.180
-403.252	538.545	-0.064	0.152
-402.238	-105.043	-0.169	-0.038
-401.223	-72.530	0.240	0.088
-400.209	158.223	-0.159	-0.220
-399.194	363.461	-0.071	-0.141
-398.179	4.209	0.195	-0.142
-397.165	59.849	0.182	-0.179
-396.150	-129.912	-0.199	0.027
-395.136	175.748	-0.265	0.383
-394.121	-200.000	-0.013	-0.329
-393.106	-22.152	-0.099	-0.060
-392.092	435.870	-0.154	-0.335
-391.077	-27.117	0.293	0.170
-390.063	238.132	0.167	0.277
-389.048	37.014	0.052	-0.046
-388.033	800.000	-0.032	0.112
-387.019	9.401	-0.237	-0.179
-386.004	-6.065	0.206	-0.140
-384.990	-200.000	-0.026	-0.224
-383.975	-71.847	0.073	0.027
-382.960	10.798	0.220	0.168
-381.946	336.028	0.251	0.485
-380.931	-200.000	0.010	0.098
-379.917	202.049	-0.112	0.171
-378.902	205.139	0.246	-0.381
-377.888	42.926	-0.095	-0.086
-376.873	24.057	0.126	-0.104
-375.858	-2.583	0.349	-0.244
-374.844	-200.000	-0.117	-0.534
-373.829	399.225	0.062	-0.129
-372.815	-37.536	-0.370	0.196
-371.800	286.454	0.193	0.347
-370.785	-43.941	0.333	-0.167
-369.771	53.666	0.091	0.087
-368.756	468.996	0.085	0.191
-367.742	-41.562	-0.169	-0.087
-366.727	63.659	0.224	-0.224
-365.712	16.897	0.108	-0.085
-364.698	-103.260	-0.108	0.025
-363.683	401.104	-0.166	0.347
-362.669	-172.006	0.209	0.007
-361.654	74.145	0.201	-0.210
-360.639	126.501	0.136	0.171
-359.625	800.000	0.013	-0.049
-358.610	-13.880	-0.083	-0.053
-357.596	46.012	0.076	-0.070
-356.581	-165.372	-0.284	0.012
-355.566	311.144	-0.152	-0.283
-354.552	-5.328	-0.207	0.142
-353.537	-10.141	0.181	-0.120
-352.523	779.593	0.057	0.156
-351.508	800.000	0.106	-0.343
-350.493	-200.000	-0.250	-0.001
-349.479	571.354	0.169	-0.409
-348.464	30.388	0.128	-0.109
-347.450	-33.347	0.154	0.085
-346.435	-200.000	0.019	-0.143
-345.420	-4.207	0.109	-0.075
-344.406	-156.162	-0.228	0.014
-343.391	534.738	-0.080	-0.188
-342.377	478.006	-0.086	0.194
-341.362	-47.974	0.154	-0.074
-340.348	-200.000	-0.000	-0.397
-339.333	-200.000	0.003	-0.183
-338.318	179.706	0.212	-0.309
-337.304	-21.547	0.238	0.144
-336.289	-25.639	0.307	-0.180
-335.275	-75.369	-0.246	-0.087
-334.260	136.093	-0.219	-0.283
-333.245	-75.440	0.164	0.058
-332.231	800.000	-0.022	-0.093
-331.216	-68.085	-0.262	-0.101
-330.202	31.255	0.091	0.077
-329.187	207.014	-0.148	-0.230
-328.172	244.784	0.071	0.119
-327.158	-200.000	0.056	-0.247
-326.143	-1.005	0.341	0.240
-325.129	800.000	0.013	0.048
-324.114	-109.577	0.314	0.066
-323.099	800.000	0.125	-0.418
-322.085	-78.649	0.069	-0.023
-321.070	-200.000	0.007	0.185
-320.056	133.259	-0.119	0.153
-319.041	800.000	0.119	0.439
-318.026	-200.000	0.017	0.095
-317.012	-44.343	-0.193	-0.096
-315.997	56.896	0.234	-0.227
-314.983	83.718	0.225	0.244
-313.968	-82.021	0.151	0.049
-312.953	77.559	0.038	-0.041
-311.939	800.000	-0.074	-0.214
-310.924	123.001	0.162	0.201
-309.910	-75.886	0.288	0.101
-308.895	76.400	-0.128	0.134
-307.880	55.921	0.172	-0.166
-306.866	-87.883	-0.218	-0.065
-305.851	-200.000	0.046	-0.376
-304.837	-200.000	0.006	0.195
-303.822	781.510	0.082	0.222
-302.807	241.398	0.081	0.134
-301.793	50.370	-0.267	-0.251
-300.778	19.074	0.062	-0.049
-299.764	-75.321	0.198	0.070
-298.749	-45.567	0.134	0.066
-297.735	281.591	-0.144	0.256
-296.720	-46.698	0.195	0.095
-295.705	-200.000	-0.027	0.146
-294.691	800.000	-0.055	0.157
-293.676	-53.901	0.532	0.241
-292.662	-79.635	0.029	-0.010
-291.647	40.197	-0.174	0.155
-290.632	147.410	0.219	-0.292
-289.618	418.895	-0.157	0.334
-288.603	-200.000	-0.021	0.149
-287.589	132.823	-0.139	0.178
-286.574	-23.299	0.179	-0.107
-285.559	-97.889	-0.073	-0.019
-284.545	800.000	-0.023	-0.066
-283.530	-61.137	-0.220	-0.092
-282.516	-129.134	-0.301	-0.042
-281.501	367.590	0.050	0.101
-280.486	800.000	0.041	-0.118
-279.472	440.471	0.124	-0.268
-278.457	-90.955	-0.279	-0.080
-277.443	122.974	0.143	0.178
-276.428	-121.701	-0.068	0.011
-275.413	78.843	0.178	-0.189
-274.399	-112.474	-0.170	-0.034
-273.384	-200.000	0.001	-0.180
-272.370	-159.186	-0.489	-0.027
-271.355	475.154	-0.018	0.041
-270.340	127.768	-0.119	0.150
-269.326	240.458	-0.062	-0.103
-268.311	-200.000	-0.013	0.149
-267.297	80.587	-0.148	-0.159
-266.282	82.916	-0.053	0.057
-265.267	-135.294	-0.153	-0.018
-264.253	-4.395	-0.337	-0.231
-263.238	70.794	0.014	0.014
-262.224	-85.328	0.147	0.046
-261.209	133.404	0.156	0.199
-260.195	201.791	-0.099	0.151
-259.180	-128.762	0.320	-0.045
-258.165	458.108	-0.114	-0.251
-257.151	-122.339	0.356	0.058
-256.136	-137.394	0.082	-0.009
-255.122	61.310	-0.164	-0.161
-254.107	-13.051	-0.360	-0.232
-253.092	-178.818	-0.208	-0.005
-252.078	-96.898	0.158	0.041
-251.063	-147.760	0.146	0.012
-250.049	60.999	-0.062	0.061
-249.034	108.444	0.066	0.078
-248.019	800.000	-0.029	0.094
-247.005	-200.000	0.022	0.118
-245.990	800.000	0.037	0.142
-244.976	-19.021	-0.222	0.137
-243.961	-8.159	0.530	-0.354
-242.946	350.876	0.032	0.063
-241.932	10.976	0.093	-0.070
-240.917	0.276	0.087	0.062
-239.903	219.006	-0.022	-0.034
-238.888	32.439	-0.090	0.077
-237.873	-101.922	0.167	-0.040
-236.859	-106.322	-0.422	-0.093
-235.844	-200.000	-0.046	0.232
-234.830	138.611	0.175	-0.228
-233.815	303.978	-0.098	-0.180
-232.800	180.919	0.048	-0.069
-231.786	312.525	0.098	-0.182
-230.771	800.000	0.044	0.165
-229.757	275.817	0.139	-0.244
-228.742	55.273	-0.096	-0.092
-227.727	-200.000	-0.016	-0.334
-226.713	255.731	0.058	0.098
-225.698	82.939	-0.072	-0.077
-224.684	67.424	0.190	0.192
-223.669	-22.624	-0.312	-0.187
-222.655	-200.000	-0.009	0.254
-221.640	70.838	0.188	0.193
-220.625	-200.000	-0.052	0.296
-219.611	-95.685	-0.139	0.037
-218.596	-146.881	0.369	-0.031
-217.582	145.191	0.305	-0.404
-216.567	-200.000	0.007	0.301
-215.552	12.482	-0.469	0.358
-214.538	800.000	0.117	0.391
-213.523	417.540	0.071	-0.151
-212.509	-181.358	0.240	0.005
-211.494	370.491	-0.112	-0.225
-210.479	-152.998	0.095	0.007
-209.465	256.580	-0.096	-0.162
-208.450	-200.000	-0.005	0.413
-207.436	-93.850	0.218	0.059
-206.421	161.308	-0.083	-0.114
-205.406	164.841	-0.141	0.197
-204.392	-200.000	0.019	0.247
-203.377	-24.219	-0.039	0.023
-202.363	-116.457	0.274	0.050
-201.348	143.486	0.171	0.225
-200.333	-54.795	0.021	0.009
-199.319	472.624	-0.117	-0.262
-198.304	500.949	0.116	-0.264
-197.290	-125.368	0.196	-0.030
-196.275	302.256	0.016	-0.029
-195.260	538.099	-0.034	0.081
-194.246	-200.000	0.011	-0.261
-193.231	-147.454	0.211	0.018
-192.217	-200.000	0.001	0.046
-191.202	128.268	0.084	-0.105
-190.187	13.740	0.082	0.063
-189.173	-200.000	-0.001	-0.008
-188.158	-45.937	0.280	0.137
-187.144	-200.000	-0.015	-0.078
-186.129	-91.499	0.069	0.020
-185.114	285.269	-0.039	0.070
-184.100	-81.884	0.145	0.047
-183.085	-174.999	0.081	0.002
-182.071	117.299	0.200	0.243
-181.056	682.465	-0.132	0.341
-180.042	-71.426	0.249	0.092
-179.027	126.915	0.141	-0.177
-178.012	-4.696	0.142	-0.097
-176.998	-55.909	0.047	0.021
-175.983	-123.605	-0.102	0.016
-174.969	-74.052	0.193	0.069
-173.954	-149.608	-0.069	0.005
-172.939	-1.344	0.085	0.059
-171.925	19.700	-0.182	0.145
-170.910	300.081	-0.071	0.128
-169.896	252.496	0.166	-0.279
-168.881	98.949	-0.059	-0.068
-167.866	-200.000	-0.069	-0.367
-166.852	-134.357	-0.069	0.008
-165.837	453.808	-0.084	0.185
-164.823	-200.000	0.008	0.083
-163.808	-176.258	0.152	0.004
-162.793	800.000	-0.074	0.257
-161.779	-162.861	0.128	0.006
-160.764	167.032	0.289	0.405
-159.750	346.126	0.228	-0.443
-158.735	134.486	0.124	-0.159
-157.720	131.999	0.033	0.041
-156.706	800.000	-0.024	0.103
-155.691	800.000	0.059	-0.232
-154.677	76.674	0.138	-0.144
-153.662	353.652	0.061	-0.120
-152.647	800.000	0.027	-0.095
-151.633	61.356	-0.036	0.036
-150.618	126.019	0.150	-0.187
-149.604	-41.073	0.024	-0.012
-148.589	-84.936	0.246	0.076
-147.574	-51.681	0.046	-0.021
-146.560	-200.000	-0.015	-0.128
-145.545	-13.631	0.127	0.081
-144.531	257.001	0.202	0.343
-143.516	-140.728	0.362	0.037
-142.502	85.299	0.137	0.149
-141.487	167.636	0.260	0.364
-140.472	715.149	0.028	0.073
-139.458	800.000	-0.030	-0.115
-138.443	-58.782	0.542	0.231
-137.429	529.285	0.055	-0.129
-136.414	-69.782	-0.045	0.017
-135.399	533.775	-0.090	0.211
-134.385	-134.065	0.253	-0.031
-133.370	-110.935	-0.187	0.038
-132.356	169.530	0.208	-0.293
-131.341	800.000	0.073	0.235
-130.326	800.000	-0.030	0.115
-129.312	8.667	-0.240	0.178
-128.297	111.827	0.150	0.179
-127.283	-7.524	0.054	-0.036
-126.268	-101.136	-0.160	0.039
-125.253	-200.000	0.036	0.237
-124.239	-139.812	-0.395	-0.041
-123.224	184.795	0.253	-0.370
-122.210	641.964	0.195	-0.491
-121.195	-59.630	0.172	-0.073
