DTS Sentinel unit serial number:	SN413079Multiplexer serial number:	ORYXHardware model number:	OX4-SRSoftware version number:	ORYX F/W v4.00 Oryx Data Collector v3.7.2.0data status	okinstallation	princeton_trtdifferential loss correction	single-endedforward channel	channel 3reverse channel	N/Adate	2019/09/13time	00:08:35forward acquisition time	60.00reverse acquisition time	0.00gamma	496.2192k internal	0.2330k external	0.2330temperature offset calibration	1.0127default loss term (dB/km)	0.3790temperature slope calibration	1.0000multiplexer offset coefficient	1.0000multiplexer slope coefficient	1.0000fibre end	0.00T internal ref (°C)	28.58T ext. ref 1 (°C)	3.78T ext. ref 2 (°C)	23.22length (m)	temperature (°C)	Stokes	anti-Stokes-747.200	-200.000	-0.015	0.237
-746.185	-200.000	-0.011	0.135
-745.171	36.171	-0.237	-0.211
-744.156	-200.000	-0.005	0.023
-743.142	-200.000	0.020	-0.457
-742.127	101.044	-0.089	-0.105
-741.112	315.107	-0.139	0.264
-740.098	-195.908	-0.309	-0.002
-739.083	686.771	-0.054	-0.142
-738.069	800.000	-0.027	-0.081
-737.054	431.201	-0.054	-0.119
-736.039	-107.158	-0.265	-0.059
-735.025	-182.322	0.348	-0.007
-734.010	216.227	-0.203	-0.325
-732.996	-150.503	-0.190	-0.015
-731.981	-68.799	-0.389	-0.151
-730.966	34.719	0.086	-0.076
-729.952	668.435	0.023	-0.060
-728.937	-200.000	-0.053	-0.350
-727.923	-200.000	-0.028	-0.167
-726.908	575.441	0.047	0.115
-725.894	50.390	0.111	-0.105
-724.879	36.720	-0.210	-0.187
-723.864	800.000	-0.088	0.248
-722.850	226.753	-0.157	-0.257
-721.835	-200.000	0.007	-0.146
-720.821	8.619	-0.299	0.226
-719.806	68.604	-0.265	-0.273
-718.791	-111.135	-0.423	-0.087
-717.777	388.671	-0.050	0.103
-716.762	-88.080	-0.415	0.125
-715.748	170.525	-0.148	0.213
-714.733	50.115	-0.328	-0.312
-713.718	-154.108	0.181	0.012
-712.704	1.007	-0.101	0.073
-711.689	-99.615	0.108	-0.027
-710.675	70.010	-0.257	-0.267
-709.660	-86.054	0.420	-0.130
-708.645	227.808	-0.107	0.175
-707.631	154.438	0.126	-0.174
-706.616	-200.000	0.002	0.124
-705.602	92.520	-0.287	0.325
-704.587	-102.022	0.342	-0.083
-703.572	-187.764	-0.201	-0.003
-702.558	259.408	0.115	0.199
-701.543	-200.000	0.034	-0.291
-700.529	234.837	0.036	0.060
-699.514	351.271	-0.063	0.125
-698.499	-136.753	-0.175	-0.020
-697.485	-200.000	-0.002	-0.257
-696.470	-141.658	0.207	-0.021
-695.456	126.532	0.147	-0.187
-694.441	255.637	0.145	-0.250
-693.426	261.800	-0.079	0.137
-692.412	-181.876	-0.270	-0.005
-691.397	-108.924	0.186	-0.040
-690.383	114.539	-0.129	0.158
-689.368	170.578	0.011	-0.016
-688.354	310.654	-0.043	0.082
-687.339	-200.000	0.013	-0.086
-686.324	21.591	0.106	0.087
-685.310	132.191	0.287	-0.371
-684.295	-200.000	0.011	-0.257
-683.281	-174.962	-0.047	-0.001
-682.266	-112.189	-0.154	-0.031
-681.251	224.851	0.094	-0.152
-680.237	65.499	0.196	-0.199
-679.222	-200.000	0.067	-0.380
-678.208	-75.010	-0.485	-0.174
-677.193	-133.333	-0.375	0.047
-676.178	-119.854	-0.207	-0.036
-675.164	-55.548	-0.049	-0.022
-674.149	58.762	0.076	-0.075
-673.135	156.723	-0.034	-0.047
-672.120	-59.304	-0.041	-0.018
-671.105	-174.694	0.042	0.001
-670.091	-66.698	0.282	0.112
-669.076	-25.500	-0.230	0.137
-668.062	16.144	0.067	0.053
-667.047	101.085	0.041	0.048
-666.032	175.695	-0.106	0.155
-665.018	94.440	0.070	-0.080
-664.003	-200.000	0.205	0.000
-662.989	800.000	0.009	-0.026
-661.974	-115.651	-0.332	-0.062
-660.959	-200.000	-0.009	-0.092
-659.945	800.000	-0.063	0.203
-658.930	-188.597	-0.371	0.005
-657.916	33.041	0.183	-0.159
-656.901	-66.026	-0.239	-0.096
-655.886	16.389	-0.149	0.118
-654.872	800.000	-0.055	-0.174
-653.857	-39.715	-0.256	-0.134
-652.843	-200.000	0.020	0.168
-651.828	-100.377	0.305	0.076
-650.814	-135.726	-0.206	-0.024
-649.799	124.757	-0.140	-0.176
-648.784	69.307	0.228	-0.236
-647.770	353.974	-0.056	-0.111
-646.755	-77.330	0.154	0.054
-645.741	207.655	-0.033	-0.052
-644.726	476.676	0.082	-0.185
-643.711	-102.916	0.237	0.057
-642.697	404.485	-0.099	-0.209
-641.682	-200.000	0.038	0.277
-640.668	800.000	-0.097	-0.292
-639.653	-200.000	-0.039	-0.424
-638.638	-71.970	-0.312	-0.116
-637.624	800.000	-0.058	0.200
-636.609	12.024	-0.195	-0.150
-635.595	175.970	-0.149	-0.216
-634.580	144.819	0.032	-0.043
-633.565	-85.959	-0.147	0.046
-632.551	-74.688	0.104	0.037
-631.536	560.093	0.136	-0.330
-630.522	800.000	0.112	-0.415
-629.507	-146.910	-0.236	-0.020
-628.492	-83.981	-0.168	0.054
-627.478	-200.000	0.006	-0.124
-626.463	-25.690	0.169	-0.100
-625.449	-68.208	-0.191	0.075
-624.434	-200.000	-0.018	-0.117
-623.419	800.000	0.046	-0.166
-622.405	-83.687	0.143	-0.046
-621.390	-200.000	0.006	-0.340
-620.376	-126.246	-0.450	0.067
-619.361	206.213	-0.196	0.306
-618.346	359.001	0.080	0.161
-617.332	-103.225	-0.305	0.072
-616.317	111.602	0.052	0.063
-615.303	-200.000	-0.057	-0.267
-614.288	-200.000	0.044	0.197
-613.273	496.823	0.052	0.120
-612.259	6.383	-0.112	-0.084
-611.244	-23.067	0.073	0.044
-610.230	800.000	0.169	-0.659
-609.215	-20.934	0.176	-0.108
-608.201	-28.607	0.267	-0.154
-607.186	224.210	0.146	0.237
-606.171	-200.000	0.033	0.249
-605.157	-110.443	-0.192	-0.040
-604.142	-79.498	0.431	-0.146
-603.128	-11.987	0.330	0.216
-602.113	194.754	-0.080	0.122
-601.098	-200.000	-0.004	-0.251
-600.084	-54.673	0.316	-0.143
-599.069	-58.113	0.164	0.072
-598.055	-141.896	-0.697	-0.070
-597.040	-45.848	-0.287	-0.142
-596.025	-5.390	0.262	0.180
-595.011	154.232	0.110	0.151
-593.996	53.435	0.090	-0.087
-592.982	56.274	0.279	0.271
-591.967	349.986	-0.165	0.327
-590.952	-136.413	-0.323	0.038
-589.938	21.330	0.217	0.177
-588.923	-156.129	-0.263	0.017
-587.909	-90.580	0.113	0.033
-586.894	-97.595	-0.185	0.048
-585.879	185.512	-0.049	0.073
-584.865	-113.671	-0.365	-0.071
-583.850	195.068	0.190	-0.289
-582.836	89.393	-0.093	-0.104
-581.821	21.359	-0.249	0.203
-580.806	-132.658	-0.108	0.014
-579.792	-80.701	-0.281	0.093
-578.777	800.000	-0.112	-0.314
-577.763	760.762	-0.072	0.196
-576.748	-200.000	-0.047	0.244
-575.733	-200.000	-0.023	-0.117
-574.719	-85.089	-0.090	-0.028
-573.704	-200.000	-0.001	0.133
-572.690	47.166	-0.262	-0.243
-571.675	106.352	-0.157	-0.186
-570.661	13.882	-0.172	-0.134
-569.646	800.000	0.064	0.242
-568.631	-143.306	0.110	-0.011
-567.617	-171.705	0.166	-0.005
-566.602	434.167	-0.074	-0.161
-565.588	-61.448	-0.132	-0.056
-564.573	-131.542	-0.136	0.018
-563.558	-200.000	-0.065	0.308
-562.544	107.647	-0.156	-0.185
-561.529	-35.214	-0.147	-0.080
-560.515	-200.000	-0.050	-0.249
-559.500	33.555	-0.199	-0.173
-558.485	-153.757	-0.270	-0.019
-557.471	-35.851	0.176	0.095
-556.456	243.504	-0.085	0.143
-555.442	-200.000	0.010	0.202
-554.427	-200.000	0.018	-0.292
-553.412	52.861	-0.114	-0.109
-552.398	-200.000	-0.027	0.229
-551.383	-32.596	0.450	0.250
-550.369	92.922	0.244	-0.276
-549.354	71.817	-0.088	-0.091
-548.339	-0.327	-0.276	0.196
-547.325	-159.711	-0.102	0.006
-546.310	-73.239	0.101	0.037
-545.296	-167.556	-0.242	-0.010
-544.281	645.358	0.088	-0.225
-543.266	-27.921	0.086	0.050
-542.252	93.973	-0.053	-0.060
-541.237	80.074	-0.135	0.145
-540.223	-102.239	0.314	-0.075
-539.208	-191.027	0.241	-0.003
-538.193	-156.184	-0.154	0.010
-537.179	53.137	0.226	0.216
-536.164	131.834	0.066	0.085
-535.150	-170.991	-0.096	0.003
-534.135	-164.342	-0.341	0.016
-533.121	-107.943	0.101	-0.022
-532.106	99.665	0.030	-0.034
-531.091	-200.000	-0.016	0.278
-530.077	28.731	0.144	0.122
-529.062	-200.000	-0.019	-0.208
-528.048	-87.249	0.038	0.012
-527.033	119.193	-0.107	-0.133
-526.018	-21.384	0.216	0.132
-525.004	-67.785	-0.168	-0.066
-523.989	536.229	-0.043	-0.101
-522.975	800.000	0.071	-0.303
-521.960	-200.000	0.008	-0.104
-520.945	-31.249	-0.059	0.033
-519.931	-55.396	0.130	0.058
-518.916	235.259	-0.200	0.330
-517.902	290.226	-0.076	-0.138
-516.887	154.516	-0.020	-0.027
-515.872	-200.000	-0.001	0.038
-514.858	-128.802	-0.258	0.036
-513.843	368.833	-0.083	0.167
-512.829	185.771	0.196	0.291
-511.814	800.000	-0.060	-0.167
-510.799	800.000	0.098	0.330
-509.785	-1.021	0.171	-0.121
-508.770	-8.826	-0.050	-0.033
-507.756	-23.020	-0.152	0.091
-506.741	37.844	-0.053	-0.047
-505.726	489.731	-0.038	-0.086
-504.712	310.421	0.125	0.234
-503.697	54.248	-0.166	-0.159
-502.683	409.619	-0.043	-0.090
-501.668	172.797	-0.204	0.293
-500.653	66.538	0.121	-0.123
-499.639	359.649	0.068	0.135
-498.624	99.469	0.123	-0.142
-497.610	216.010	-0.225	-0.357
-496.595	-200.000	0.000	-0.113
-495.581	747.186	-0.109	0.294
-494.566	381.281	-0.185	0.378
-493.551	83.612	-0.210	0.229
-492.537	-134.858	0.235	-0.028
-491.522	340.508	-0.048	0.094
-490.508	-200.000	-0.006	-0.215
-489.493	-200.000	0.054	-0.286
-488.478	-149.081	-0.135	-0.011
-487.464	-166.341	-0.212	-0.009
-486.449	122.835	-0.190	0.237
-485.435	-70.566	-0.155	-0.058
-484.420	-73.805	0.157	-0.057
-483.405	76.423	-0.189	-0.199
-482.391	-200.000	-0.001	0.065
-481.376	158.057	0.100	0.138
-480.362	-121.774	-0.186	0.031
-479.347	330.147	-0.092	0.177
-478.332	800.000	0.077	0.244
-477.318	276.762	0.317	0.561
-476.303	-108.241	-0.115	-0.025
-475.289	-200.000	0.022	-0.111
-474.274	-61.908	-0.218	-0.091
-473.259	-200.000	0.009	0.302
-472.245	312.289	-0.109	-0.205
-471.230	-136.191	0.109	-0.013
-470.216	-200.000	-0.063	-0.293
-469.201	-82.311	-0.268	-0.087
-468.186	-158.812	0.368	0.021
-467.172	-200.000	-0.003	0.202
-466.157	40.305	-0.114	0.102
-465.143	75.561	-0.183	0.192
-464.128	190.875	0.075	-0.112
-463.113	181.471	-0.222	-0.325
-462.099	-200.000	0.003	0.296
-461.084	28.047	-0.171	-0.144
-460.070	17.638	0.197	-0.156
-459.055	142.653	-0.033	0.044
-458.040	28.937	-0.123	-0.104
-457.026	800.000	-0.023	-0.081
-456.011	-158.024	-0.274	0.016
-454.997	-98.550	-0.255	-0.065
-453.982	-128.319	-0.187	0.027
-452.968	-70.615	0.013	0.005
-451.953	800.000	-0.052	0.166
-450.938	51.056	0.360	-0.340
-449.924	662.121	0.124	0.319
-448.909	-200.000	0.006	0.029
-447.895	-132.488	-0.093	-0.012
-446.880	214.767	-0.079	-0.125
-445.865	-52.547	-0.437	0.201
-444.851	-103.034	0.364	0.086
-443.836	800.000	-0.044	-0.172
-442.822	-93.723	-0.097	-0.027
-441.807	-200.000	-0.004	-0.030
-440.792	-200.000	0.003	0.464
-439.778	-200.000	-0.007	-0.219
-438.763	-139.172	0.297	-0.032
-437.749	263.795	-0.214	-0.370
-436.734	64.719	-0.061	-0.061
-435.719	800.000	-0.029	0.115
-434.705	800.000	-0.057	-0.226
-433.690	-139.019	-0.090	0.010
-432.676	-200.000	0.043	0.282
-431.661	800.000	0.055	0.183
-430.646	415.252	-0.028	-0.058
-429.632	-200.000	0.026	-0.165
-428.617	321.011	-0.143	0.271
-427.603	335.478	-0.159	-0.306
-426.588	396.252	-0.111	0.231
-425.573	294.333	0.102	-0.186
-424.559	-200.000	-0.003	0.146
-423.544	-87.316	0.159	-0.048
-422.530	63.731	0.072	0.072
-421.515	-149.271	0.056	0.004
-420.500	200.333	0.112	-0.171
-419.486	-21.947	-0.372	-0.225
-418.471	357.768	-0.045	-0.089
-417.457	-200.000	-0.048	0.218
-416.442	42.668	-0.090	0.081
-415.428	-124.340	-0.430	-0.067
-414.413	-105.756	0.320	0.072
-413.398	-89.014	0.268	-0.079
-412.384	-200.000	0.006	0.070
-411.369	-109.358	-0.343	0.072
-410.355	800.000	-0.132	-0.398
-409.340	123.598	-0.286	0.357
-408.325	434.312	-0.052	-0.113
-407.311	349.903	-0.149	-0.293
-406.296	-200.000	0.029	-0.316
-405.282	800.000	0.065	-0.180
-404.267	-22.852	-0.059	-0.035
-403.252	478.252	0.170	0.383
-402.238	35.332	0.302	0.263
-401.223	-74.815	-0.378	0.135
-400.209	-93.115	-0.250	0.069
-399.194	243.133	-0.143	-0.238
-398.179	482.402	-0.116	0.261
-397.165	-126.725	0.327	0.048
-396.150	-200.000	0.036	-0.285
-395.136	-82.547	-0.160	-0.051
-394.121	-133.667	0.217	-0.027
-393.106	-43.838	0.157	0.078
-392.092	-118.175	0.255	0.045
-391.077	-22.084	0.184	0.111
-390.063	129.012	0.124	0.157
-389.048	-25.261	0.038	-0.022
-388.033	481.372	-0.124	-0.280
-387.019	-125.793	0.377	0.057
-386.004	-200.000	-0.013	-0.088
-384.990	800.000	0.104	0.444
-383.975	141.943	0.193	-0.254
-382.960	-101.168	-0.343	0.083
-381.946	70.052	0.045	0.046
-380.931	153.344	-0.034	-0.047
-379.917	-200.000	-0.008	-0.056
-378.902	-129.251	-0.079	0.011
-377.888	800.000	0.083	0.234
-376.873	-171.435	0.480	0.016
-375.858	597.775	-0.138	-0.340
-374.844	-200.000	0.013	-0.201
-373.829	-200.000	-0.018	-0.199
-372.815	-180.110	0.276	0.006
-371.800	150.154	0.078	-0.104
-370.785	55.007	-0.171	0.164
-369.771	-71.089	-0.145	-0.054
-368.756	-80.942	0.168	0.055
-367.742	800.000	0.053	-0.164
-366.727	-75.829	0.193	-0.068
-365.712	-100.317	0.209	0.051
-364.698	-89.990	-0.252	-0.073
-363.683	-76.190	0.210	0.073
-362.669	93.875	0.112	0.126
-361.654	-142.651	-0.253	0.025
-360.639	-142.750	0.078	-0.008
-359.625	-200.000	0.013	-0.168
-358.610	-142.758	-0.236	0.023
-357.596	-200.000	0.099	-0.440
-356.581	-102.571	-0.131	-0.031
-355.566	-200.000	-0.038	-0.241
-354.552	-176.645	-0.129	0.003
-353.537	539.421	-0.080	-0.188
-352.523	-200.000	-0.012	0.115
-351.508	-200.000	-0.038	0.240
-350.493	74.078	-0.107	0.111
-349.479	-69.921	0.163	0.062
-348.464	800.000	-0.056	0.169
-347.450	-200.000	0.012	0.101
-346.435	387.512	-0.022	-0.046
-345.420	-34.224	-0.163	-0.089
-344.406	-22.002	0.189	-0.114
-343.391	27.382	0.120	-0.100
-342.377	-200.000	-0.015	-0.187
-341.362	-200.000	0.044	0.369
-340.348	-168.914	-0.211	-0.008
-339.333	28.134	-0.153	0.128
-338.318	-138.444	0.321	0.035
-337.304	263.934	-0.064	0.110
-336.289	-119.260	-0.203	-0.035
-335.275	361.806	-0.066	0.132
-334.260	-86.109	-0.217	0.066
-333.245	53.857	0.260	-0.247
-332.231	-102.705	0.171	-0.040
-331.216	633.243	-0.122	0.306
-330.202	-131.798	-0.123	-0.016
-329.187	-200.000	0.002	0.039
-328.172	800.000	0.027	-0.116
-327.158	332.450	0.014	-0.028
-326.143	-58.202	-0.256	0.111
-325.129	800.000	0.116	-0.415
-324.114	4.626	0.182	-0.132
-323.099	-70.799	-0.113	0.042
-322.085	-73.737	-0.168	-0.061
-321.070	182.858	0.103	0.150
-320.056	-3.051	-0.157	0.108
-319.041	-8.439	-0.061	-0.040
-318.026	-46.357	0.228	0.111
-317.012	15.049	0.193	-0.150
-315.997	35.061	0.254	-0.221
-314.983	83.024	0.235	-0.253
-313.968	534.909	-0.080	-0.189
-312.953	54.534	0.070	0.067
-311.939	6.632	-0.203	-0.149
-310.924	-200.000	-0.004	0.050
-309.910	-200.000	0.049	0.239
-308.895	-70.044	-0.243	0.092
-307.880	-200.000	0.017	-0.076
-306.866	-44.739	-0.318	-0.157
-305.851	10.039	0.064	0.048
-304.837	674.834	-0.074	-0.189
-303.822	-200.000	-0.031	-0.238
-302.807	49.210	0.106	0.098
-301.793	92.107	0.175	-0.196
-300.778	-147.909	-0.102	-0.008
-299.764	276.701	-0.099	0.175
-298.749	-163.452	-0.239	-0.011
-297.735	-11.160	0.218	-0.142
-296.720	-46.471	0.124	-0.060
-295.705	-16.030	-0.259	0.163
-294.691	800.000	0.024	0.088
-293.676	203.613	-0.049	-0.075
-292.662	125.648	0.084	0.105
-291.647	-162.464	0.357	-0.017
-290.632	708.908	-0.129	-0.338
-289.618	-200.000	0.031	0.158
-288.603	374.427	0.077	-0.155
-287.589	-40.479	-0.239	-0.123
-286.574	142.109	-0.014	0.018
-285.559	-200.000	-0.029	0.313
-284.545	-200.000	-0.047	0.481
-283.530	57.403	0.344	0.332
-282.516	275.559	0.163	-0.287
-281.501	-200.000	0.029	-0.190
-280.486	-96.993	0.257	-0.066
-279.472	337.263	-0.052	-0.101
-278.457	207.368	0.069	-0.106
-277.443	-111.999	0.280	-0.056
-276.428	452.942	-0.042	0.093
-275.413	-66.471	-0.085	0.033
-274.399	-163.381	0.296	0.014
-273.384	-100.033	-0.205	0.051
-272.370	602.785	-0.045	0.111
-271.355	-200.000	0.014	0.347
-270.340	558.300	0.149	0.355
-269.326	-200.000	0.039	-0.192
-268.311	-200.000	-0.040	-0.199
-267.297	632.523	-0.060	-0.150
-266.282	22.138	-0.308	0.249
-265.267	-71.696	0.104	-0.038
-264.253	-36.420	0.144	0.076
-263.238	687.494	0.025	-0.065
-262.224	-200.000	0.046	0.304
-261.209	535.551	0.185	-0.434
-260.195	-144.355	0.275	0.025
-259.180	-81.703	0.103	0.033
-258.165	-200.000	0.048	0.282
-257.151	710.644	0.010	-0.026
-256.136	-200.000	0.013	-0.077
-255.122	3.727	-0.141	-0.102
-254.107	107.366	-0.033	-0.038
-253.092	73.070	-0.061	0.063
-252.078	-200.000	-0.012	0.054
-251.063	169.585	0.015	0.021
-250.049	556.128	0.050	0.120
-249.034	800.000	-0.040	0.147
-248.019	-4.623	0.189	0.129
-247.005	-172.677	-0.052	-0.002
-245.990	-98.523	0.335	0.084
-244.976	800.000	0.014	-0.045
-243.961	-200.000	0.000	0.126
-242.946	636.876	-0.060	0.151
-241.932	-13.906	0.337	0.215
-240.917	-200.000	0.010	-0.342
-239.903	-165.090	0.132	-0.006
-238.888	-200.000	-0.007	0.188
-237.873	-19.760	0.121	-0.074
-236.859	172.159	0.213	-0.302
-235.844	-159.400	-0.296	-0.016
-234.830	37.103	0.270	0.236
-233.815	-34.020	0.207	-0.112
-232.800	-140.129	0.222	-0.023
-231.786	800.000	0.082	-0.271
-230.771	-41.854	0.218	0.110
-229.757	-200.000	-0.033	0.238
-228.742	-200.000	0.011	-0.203
-227.727	123.878	0.242	0.299
-226.713	105.371	-0.224	0.261
-225.698	281.574	0.280	0.495
-224.684	800.000	0.051	0.154
-223.669	161.399	-0.198	0.273
-222.655	335.749	-0.128	-0.246
-221.640	-101.483	0.249	0.060
-220.625	-200.000	0.009	0.156
-219.611	800.000	0.056	-0.165
-218.596	-57.761	0.281	0.121
-217.582	83.436	0.211	0.227
-216.567	-83.998	0.068	0.021
-215.552	-32.663	0.051	0.028
-214.538	-156.492	0.050	-0.003
-213.523	-75.265	0.427	0.150
-212.509	-57.319	-0.142	-0.062
-211.494	-51.718	0.112	-0.051
-210.479	-200.000	0.000	0.124
-209.465	-85.852	-0.156	-0.048
-208.450	-130.974	0.210	0.028
-207.436	362.889	0.072	-0.142
-206.421	800.000	-0.026	-0.105
-205.406	-200.000	0.008	0.034
-204.392	-188.310	-0.106	-0.001
-203.377	60.886	-0.111	-0.109
-202.363	182.940	-0.040	-0.059
-201.348	-16.185	0.299	-0.187
-200.333	-105.556	-0.089	-0.020
-199.319	-45.978	-0.263	0.128
-198.304	-200.000	-0.041	0.218
-197.290	506.465	0.216	0.494
-196.275	-79.955	0.294	-0.097
-195.260	-101.713	-0.392	-0.094
-194.246	129.679	-0.148	0.187
-193.231	-66.630	0.197	-0.077
-192.217	24.053	0.010	-0.008
-191.202	-0.625	0.065	-0.045
-190.187	-133.265	0.102	0.013
-189.173	-96.940	-0.116	0.030
-188.158	-67.964	-0.217	0.083
-187.144	-138.502	-0.240	-0.026
-186.129	-200.000	0.041	0.190
-185.114	72.516	0.245	-0.252
-184.100	113.889	0.214	0.256
-183.085	230.873	0.077	0.124
-182.071	-25.373	0.221	0.129
-181.056	-7.669	0.351	0.234
-180.042	-173.335	-0.059	-0.002
-179.027	-155.153	0.279	0.018
-178.012	0.765	-0.154	-0.109
-176.998	-78.925	0.072	-0.024
-175.983	72.175	-0.082	-0.084
-174.969	-200.000	0.001	0.168
-173.954	200.012	-0.234	-0.353
-172.939	-148.685	0.313	-0.025
-171.925	-30.177	0.194	-0.109
-170.910	-200.000	-0.005	0.317
-169.896	-200.000	-0.009	-0.046
-168.881	-39.090	-0.245	0.127
-167.866	58.507	-0.130	0.126
-166.852	800.000	-0.093	-0.378
-165.837	21.645	0.162	-0.130
-164.823	-21.100	-0.111	0.067
-163.808	-67.627	0.334	0.129
-162.793	125.110	0.003	0.004
-161.779	-103.409	0.037	0.008
-160.764	78.462	0.102	0.107
-159.750	0.004	0.131	-0.092
-158.735	360.716	-0.138	-0.273
-157.720	307.057	-0.062	-0.114
-156.706	-200.000	0.018	0.101
-155.691	129.166	-0.102	0.128
-154.677	-111.558	-0.250	-0.050
-153.662	-135.887	-0.071	-0.008
-152.647	-164.639	-0.133	-0.006
-151.633	-134.266	0.637	-0.077
-150.618	800.000	0.023	0.098
-149.604	-200.000	0.030	-0.400
-148.589	-87.302	0.377	-0.112
-147.574	-26.109	-0.157	-0.091
-146.560	368.611	0.101	0.202
-145.545	-38.906	0.370	0.192
-144.531	-72.448	0.181	-0.066
-143.516	-1.945	-0.133	0.092
-142.502	-4.188	-0.122	0.083
-141.487	-93.763	-0.140	0.038
-140.472	144.538	-0.065	-0.085
-139.458	185.122	-0.134	-0.195
-138.443	-21.124	0.453	-0.272
-137.429	193.487	0.177	-0.263
-136.414	-58.063	-0.162	0.069
-135.399	2.767	-0.072	-0.052
-134.385	-164.824	-0.352	-0.016
-133.370	-169.510	0.075	0.003
-132.356	-168.335	-0.027	-0.001
-131.341	-200.000	0.008	0.133
-130.326	80.656	0.369	-0.391
-129.312	124.934	0.109	0.135
-128.297	-152.884	-0.109	-0.008
-127.283	-17.730	0.015	-0.009
-126.268	136.252	0.059	-0.075
-125.253	-97.866	-0.016	0.004
-124.239	-54.961	0.117	-0.052
