DTS Sentinel unit serial number:	SN413079Multiplexer serial number:	ORYXHardware model number:	OX4-SRSoftware version number:	ORYX F/W v4.00 Oryx Data Collector v3.7.2.0data status	okinstallation	princeton_trtdifferential loss correction	single-endedforward channel	channel 3reverse channel	N/Adate	2019/09/15time	14:28:35forward acquisition time	60.00reverse acquisition time	0.00gamma	496.2192k internal	0.2291k external	0.2291temperature offset calibration	0.9950default loss term (dB/km)	0.3790temperature slope calibration	1.0000multiplexer offset coefficient	1.0000multiplexer slope coefficient	1.0000fibre end	0.00T internal ref (°C)	39.31T ext. ref 1 (°C)	4.93T ext. ref 2 (°C)	36.34length (m)	temperature (°C)	Stokes	anti-Stokes-747.200	-159.282	0.163	0.009
-746.185	800.000	-0.039	0.170
-745.171	-48.985	-0.045	-0.022
-744.156	-200.000	0.027	0.462
-743.142	800.000	0.066	0.234
-742.127	-103.984	0.395	-0.094
-741.112	92.505	-0.242	0.279
-740.098	353.424	0.157	0.319
-739.083	-46.024	0.225	0.114
-738.069	26.594	-0.189	0.162
-737.054	113.593	0.172	-0.214
-736.039	153.807	0.080	-0.113
-735.025	800.000	0.092	-0.310
-734.010	120.047	-0.280	-0.356
-732.996	101.245	0.212	0.252
-731.981	-77.748	-0.110	0.039
-730.966	-129.044	-0.114	-0.016
-729.952	285.655	0.132	-0.244
-728.937	-200.000	0.021	0.147
-727.923	72.282	-0.082	0.087
-726.908	-92.017	0.268	-0.078
-725.894	309.409	-0.176	-0.336
-724.879	-200.000	-0.013	-0.152
-723.864	325.731	-0.055	0.108
-722.850	20.109	-0.145	0.120
-721.835	-26.401	0.154	0.093
-720.821	176.947	-0.195	0.290
-719.806	-12.662	-0.237	0.158
-718.791	264.391	-0.145	-0.257
-717.777	-200.000	-0.018	-0.288
-716.762	126.515	-0.298	-0.386
-715.748	85.789	0.335	-0.376
-714.733	54.643	-0.191	-0.189
-713.718	0.537	-0.272	-0.199
-712.704	266.156	-0.186	0.332
-711.689	-61.293	-0.120	0.052
-710.675	800.000	0.010	0.032
-709.660	-200.000	0.033	0.304
-708.645	-200.000	0.025	0.151
-707.631	-2.924	-0.213	-0.152
-706.616	-5.685	-0.143	0.100
-705.602	-200.000	-0.009	-0.141
-704.587	244.611	-0.096	-0.165
-703.572	-128.012	-0.139	-0.020
-702.558	109.733	-0.161	-0.198
-701.543	-200.000	0.054	0.348
-700.529	800.000	0.088	-0.337
-699.514	800.000	-0.090	-0.266
-698.499	800.000	-0.035	-0.127
-697.485	-50.875	-0.025	-0.012
-696.470	-200.000	0.031	-0.246
-695.456	-108.022	-0.108	0.024
-694.441	800.000	-0.098	-0.288
-693.426	800.000	0.077	-0.339
-692.412	101.750	0.188	-0.224
-691.397	-200.000	0.023	0.242
-690.383	-42.027	-0.284	-0.149
-689.368	-122.729	0.149	0.025
-688.354	-200.000	-0.022	-0.209
-687.339	-62.492	0.176	0.075
-686.324	-200.000	0.041	0.200
-685.310	-200.000	0.015	0.113
-684.295	-26.343	-0.398	0.239
-683.281	-200.000	0.047	-0.286
-682.266	271.101	-0.074	-0.133
-681.251	-200.000	0.003	-0.277
-680.237	800.000	-0.046	-0.152
-679.222	800.000	0.060	-0.210
-678.208	-200.000	0.245	0.001
-677.193	-67.662	0.390	-0.156
-676.178	181.282	-0.124	-0.185
-675.164	662.994	-0.121	0.319
-674.149	-200.000	-0.048	-0.222
-673.135	-146.951	-0.303	-0.027
-672.120	-25.107	-0.088	0.053
-671.105	-69.160	-0.200	-0.078
-670.091	-7.466	0.257	-0.177
-669.076	211.792	-0.159	-0.256
-668.062	40.841	-0.238	-0.219
-667.047	60.891	-0.162	-0.164
-666.032	800.000	0.180	-0.614
-665.018	15.486	-0.334	-0.268
-664.003	-48.964	-0.227	-0.111
-662.989	-23.610	0.116	0.071
-661.974	-28.415	-0.074	0.043
-660.959	7.630	0.234	0.179
-659.945	-53.440	0.236	-0.110
-658.930	-65.877	0.161	0.066
-657.916	-200.000	0.396	0.000
-656.901	-116.972	-0.255	-0.047
-655.886	45.498	-0.164	-0.154
-654.872	-101.570	-0.306	0.076
-653.857	315.281	0.105	-0.202
-652.843	-24.764	-0.347	-0.210
-651.828	800.000	0.098	-0.395
-650.814	-91.765	0.288	0.083
-649.799	-122.480	-0.174	0.029
-648.784	125.994	-0.143	-0.184
-647.770	-147.021	0.311	0.027
-646.755	800.000	0.111	-0.406
-645.741	155.296	0.068	-0.096
-644.726	-100.550	0.373	0.094
-643.711	800.000	-0.048	-0.148
-642.697	723.835	0.010	-0.027
-641.682	-83.634	-0.527	0.172
-640.668	-125.059	0.171	-0.027
-639.653	152.803	0.076	0.106
-638.638	-8.475	0.117	0.080
-637.624	-200.000	0.034	-0.300
-636.609	-126.824	0.352	-0.053
-635.595	158.345	0.208	-0.294
-634.580	8.439	-0.081	-0.062
-633.565	-66.826	0.167	0.067
-632.551	-200.000	-0.012	0.141
-631.536	-200.000	0.009	-0.045
-630.522	160.770	-0.138	-0.197
-629.507	29.531	0.152	-0.131
-628.492	-106.439	-0.133	-0.030
-627.478	-200.000	0.037	0.183
-626.463	163.488	-0.029	-0.041
-625.449	-200.000	-0.046	0.463
-624.434	-72.609	0.210	0.079
-623.419	-146.429	-0.043	0.004
-622.405	31.681	-0.059	-0.052
-621.390	336.584	-0.034	0.068
-620.376	30.217	0.131	-0.114
-619.361	-90.105	-0.257	0.076
-618.346	52.343	-0.155	-0.151
-617.332	-157.876	-0.123	0.007
-616.317	377.331	-0.191	0.398
-615.303	269.833	0.171	0.306
-614.288	800.000	-0.117	-0.447
-613.273	27.580	-0.200	-0.172
-612.259	-200.000	0.026	0.281
-611.244	281.254	-0.086	-0.156
-610.230	-200.000	0.028	-0.146
-609.215	-73.032	0.251	-0.094
-608.201	22.766	-0.144	0.120
-607.186	790.641	0.115	-0.322
-606.171	-18.325	0.314	0.200
-605.157	-8.519	0.323	-0.221
-604.142	-200.000	-0.011	0.250
-603.128	7.273	0.180	0.137
-602.113	-95.187	0.196	0.054
-601.098	-2.812	0.295	-0.210
-600.084	-200.000	-0.043	-0.332
-599.069	-85.453	-0.244	-0.077
-598.055	-200.000	-0.004	0.294
-597.040	-200.000	0.030	0.314
-596.025	100.310	0.088	-0.103
-595.011	-106.704	-0.225	0.051
-593.996	-53.862	-0.164	0.076
-592.982	281.882	-0.143	-0.261
-591.967	-200.000	0.028	-0.141
-590.952	800.000	0.068	-0.260
-589.938	208.849	0.085	0.135
-588.923	132.672	-0.086	0.113
-587.909	-92.895	0.295	0.084
-586.894	319.959	0.058	0.113
-585.879	-100.212	-0.023	-0.006
-584.865	-80.262	0.247	0.084
-583.850	-129.887	0.345	0.048
-582.836	168.937	-0.071	-0.103
-581.821	29.026	-0.229	0.198
-580.806	-16.980	-0.273	-0.175
-579.792	108.990	-0.122	-0.149
-578.777	-200.000	0.010	-0.255
-577.763	3.775	0.176	0.131
-576.748	-39.810	-0.121	-0.064
-575.733	-200.000	-0.048	-0.599
-574.719	-200.000	-0.034	0.180
-573.704	-17.384	0.109	0.070
-572.690	-71.673	0.274	0.104
-571.675	-200.000	0.071	0.321
-570.661	-200.000	-0.001	-0.008
-569.646	-91.318	-0.140	-0.041
-568.631	499.967	-0.117	-0.275
-567.617	-62.177	0.370	-0.157
-566.602	-85.261	-0.169	-0.054
-565.588	343.554	-0.135	0.269
-564.573	-99.695	0.137	-0.035
-563.558	-27.738	-0.074	-0.044
-562.544	104.348	0.125	-0.150
-561.529	117.469	0.143	0.178
-560.515	800.000	-0.060	-0.186
-559.500	-1.881	-0.179	-0.128
-558.485	-200.000	-0.003	0.276
-557.471	358.584	0.145	0.294
-556.456	147.652	0.115	0.157
-555.442	520.575	0.115	0.274
-554.427	-179.553	-0.274	-0.006
-553.412	-62.480	0.272	0.115
-552.398	800.000	-0.064	0.263
-551.383	-80.092	0.168	0.057
-550.369	-83.094	-0.167	0.054
-549.354	-31.434	0.201	0.115
-548.339	-200.000	-0.032	0.155
-547.325	-200.000	0.004	0.096
-546.310	-132.293	-0.210	-0.028
-545.296	-107.380	0.190	-0.042
-544.281	-104.072	0.174	0.041
-543.266	-119.459	-0.335	0.059
-542.252	-200.000	0.020	-0.155
-541.237	613.501	-0.159	0.404
-540.223	331.400	-0.100	0.196
-539.208	-52.871	-0.333	-0.156
-538.193	33.250	0.027	-0.024
-537.179	92.950	-0.191	0.219
-536.164	220.717	0.053	-0.086
-535.150	666.724	0.081	-0.212
-534.135	384.258	0.139	0.291
-533.121	125.157	0.208	-0.267
-532.106	-91.778	-0.271	0.078
-531.091	4.301	0.126	-0.094
-530.077	90.944	-0.249	-0.283
-529.062	-62.028	-0.415	-0.176
-528.048	-65.704	-0.318	-0.129
-527.033	-200.000	-0.053	0.349
-526.018	-89.508	0.059	-0.018
-525.004	-200.000	-0.017	-0.178
-523.989	-200.000	0.008	0.118
-522.975	-74.438	0.035	0.013
-521.960	-83.938	0.157	-0.051
-520.945	800.000	-0.104	0.308
-519.931	-43.651	-0.140	-0.072
-518.916	-28.188	-0.103	0.061
-517.902	67.719	-0.181	0.187
-516.887	-200.000	0.008	-0.119
-515.872	-111.146	0.136	0.028
-514.858	-12.896	-0.221	0.146
-513.843	-200.000	-0.003	0.287
-512.829	800.000	0.147	0.412
-511.814	-4.402	-0.070	0.049
-510.799	-200.000	0.004	0.252
-509.785	-200.000	-0.001	-0.183
-508.770	327.004	0.104	-0.203
-507.756	525.501	-0.106	-0.252
-506.741	-0.477	0.102	-0.073
-505.726	19.997	0.075	-0.061
-504.712	-39.980	-0.182	-0.096
-503.697	36.875	-0.101	-0.090
-502.683	12.160	-0.217	0.169
-501.668	663.185	-0.081	-0.212
-500.653	4.843	-0.137	-0.102
-499.639	-134.537	0.128	-0.016
-498.624	615.530	-0.155	-0.395
-497.610	397.385	-0.051	0.108
-496.595	-178.312	-0.274	-0.006
-495.581	-7.141	-0.106	-0.073
-494.566	24.556	0.203	-0.170
-493.551	399.887	-0.088	-0.187
-492.537	800.000	-0.070	-0.269
-491.522	-13.681	0.330	0.216
-490.508	-200.000	-0.034	0.176
-489.493	-62.675	0.168	-0.071
-488.478	-1.360	0.171	-0.122
-487.464	-96.335	0.133	0.036
-486.449	-143.957	-0.294	-0.028
-485.435	-45.284	0.142	-0.071
-484.420	33.765	-0.057	-0.050
-483.405	-125.164	0.122	0.019
-482.391	-133.094	-0.150	-0.019
-481.376	-88.336	0.130	0.039
-480.362	-87.504	0.165	0.051
-479.347	-143.471	0.087	0.008
-478.332	56.317	-0.090	-0.088
-477.318	800.000	-0.049	-0.199
-476.303	249.582	-0.102	-0.175
-475.289	-87.933	0.226	-0.069
-474.274	800.000	0.043	-0.155
-473.259	-178.903	-0.200	0.005
-472.245	92.393	0.297	0.339
-471.230	-81.909	0.228	-0.075
-470.216	-200.000	0.002	-0.238
-469.201	-200.000	0.025	0.278
-468.186	3.492	-0.186	0.137
-467.172	-33.573	-0.193	-0.108
-466.157	8.949	0.137	-0.104
-465.143	305.547	-0.111	0.209
-464.128	647.216	0.033	0.085
-463.113	-61.500	-0.271	-0.115
-462.099	-200.000	0.024	0.484
-461.084	189.195	-0.049	0.074
-460.070	-169.906	-0.154	-0.006
-459.055	-11.275	-0.190	0.127
-458.040	190.684	0.125	-0.190
-457.026	681.294	0.066	-0.175
-456.011	-13.614	0.390	-0.256
-454.997	-155.846	-0.267	-0.017
-453.982	-200.000	-0.044	0.234
-452.968	24.163	-0.066	-0.055
-451.953	800.000	-0.025	-0.086
-450.938	509.407	-0.064	-0.150
-449.924	28.029	-0.301	0.257
-448.909	-200.000	0.011	0.051
-447.895	-101.144	0.449	0.111
-446.880	155.033	-0.014	0.019
-445.865	-121.807	0.295	-0.049
-444.851	800.000	0.110	0.370
-443.836	-32.248	-0.146	-0.083
-442.822	800.000	-0.037	0.133
-441.807	24.765	-0.158	-0.133
-440.792	-12.774	0.252	-0.166
-439.778	2.675	-0.268	-0.196
-438.763	-18.848	0.233	0.147
-437.749	-200.000	-0.032	-0.222
-436.734	-47.822	0.075	0.037
-435.719	800.000	0.018	0.060
-434.705	-75.877	-0.296	-0.106
-433.690	7.299	0.356	-0.269
-432.676	-142.018	-0.109	-0.011
-431.661	-200.000	0.001	-0.192
-430.646	-50.145	0.035	0.017
-429.632	-124.456	-0.114	0.018
-428.617	800.000	-0.098	0.384
-427.603	-90.607	-0.291	-0.085
-426.588	-64.826	0.190	-0.078
-425.573	-129.841	0.100	-0.014
-424.559	-140.641	0.258	-0.027
-423.544	-200.000	0.015	0.092
-422.530	136.641	0.147	0.194
-421.515	-102.267	-0.104	-0.025
-420.500	13.229	0.136	-0.106
-419.486	-96.261	0.213	0.057
-418.471	-200.000	-0.039	0.282
-417.457	-52.688	-0.315	0.147
-416.442	31.126	0.173	0.150
-415.428	334.184	-0.032	-0.063
-414.413	39.388	0.296	0.268
-413.398	-12.707	0.411	0.271
-412.384	-62.278	-0.190	0.080
-411.369	-60.498	-0.138	-0.059
-410.355	6.398	0.204	-0.153
-409.340	185.491	-0.028	0.041
-408.325	-4.559	-0.155	0.108
-407.311	101.698	0.185	0.218
-406.296	-200.000	0.008	0.242
-405.282	772.118	0.021	0.057
-404.267	-64.599	-0.367	0.150
-403.252	54.157	0.207	-0.201
-402.238	800.000	0.016	-0.069
-401.223	-42.655	-0.181	0.093
-400.209	60.073	0.090	-0.090
-399.194	99.462	0.096	-0.112
-398.179	226.551	0.126	0.207
-397.165	800.000	0.070	0.296
-396.150	-193.054	0.263	0.002
-395.136	-113.224	-0.378	-0.075
-394.121	-200.000	0.017	0.121
-393.106	-3.382	-0.151	-0.106
-392.092	-91.998	0.230	-0.066
-391.077	31.809	-0.133	-0.116
-390.063	-200.000	0.014	-0.296
-389.048	-200.000	-0.001	-0.278
-388.033	0.038	0.253	0.182
-387.019	-45.007	0.220	-0.111
-386.004	28.107	-0.179	0.153
-384.990	-96.608	-0.267	-0.071
-383.975	-34.952	-0.448	0.247
-382.960	-35.972	-0.276	-0.150
-381.946	-200.000	-0.031	0.167
-380.931	196.647	0.166	-0.255
-379.917	131.847	0.115	-0.149
-378.902	45.085	0.270	0.252
-377.888	-126.872	0.155	0.023
-376.873	3.418	0.192	-0.141
-375.858	58.851	0.295	-0.292
-374.844	-0.791	0.066	0.048
-373.829	680.372	0.124	0.327
-372.815	800.000	0.071	0.218
-371.800	197.599	-0.195	-0.301
-370.785	-89.425	-0.064	0.019
-369.771	155.282	0.227	0.315
-368.756	-141.977	0.144	0.014
-367.742	-200.000	-0.009	-0.190
-366.727	-174.638	-0.276	0.008
-365.712	-200.000	0.028	0.134
-364.698	-20.753	-0.182	-0.113
-363.683	-200.000	-0.013	0.123
-362.669	131.068	0.191	0.248
-361.654	-76.122	-0.317	0.113
-360.639	-67.570	0.204	0.081
-359.625	-69.527	0.393	-0.152
-358.610	800.000	0.060	0.185
-357.596	32.021	-0.189	-0.165
-356.581	26.184	0.042	-0.036
-355.566	-200.000	-0.048	-0.245
-354.552	-67.785	-0.385	-0.152
-353.537	24.417	-0.178	-0.148
-352.523	-200.000	0.012	0.328
-351.508	148.464	0.057	0.078
-350.493	658.143	-0.133	-0.345
-349.479	-200.000	0.010	0.058
-348.464	-120.252	-0.227	-0.039
-347.450	393.244	0.003	-0.006
-346.435	67.018	0.189	0.194
-345.420	-81.360	-0.180	0.060
-344.406	166.753	-0.079	-0.112
-343.391	38.534	-0.045	0.041
-342.377	517.310	-0.082	-0.194
-341.362	-200.000	-0.030	-0.230
-340.348	287.256	0.169	-0.308
-339.333	-96.767	-0.129	-0.034
-338.318	-6.065	0.206	0.142
-337.304	718.331	0.104	-0.278
-336.289	20.648	-0.252	-0.206
-335.275	268.957	-0.134	-0.237
-334.260	800.000	-0.142	-0.403
-333.245	-21.718	-0.136	-0.083
-332.231	-118.138	-0.124	0.022
-331.216	41.320	0.217	0.198
-330.202	185.910	0.067	-0.100
-329.187	-200.000	-0.011	-0.079
-328.172	-23.829	-0.184	-0.111
-327.158	-2.358	-0.052	-0.036
-326.143	102.476	0.068	0.080
-325.129	-116.681	0.099	-0.018
-324.114	-118.406	-0.207	0.037
-323.099	-145.451	0.287	-0.026
-322.085	374.732	0.027	0.056
-321.070	419.952	-0.127	0.274
-320.056	125.250	0.279	-0.354
-319.041	705.991	0.147	-0.391
-318.026	-138.000	0.097	0.011
-317.012	-123.128	0.234	0.038
-315.997	800.000	-0.069	-0.274
-314.983	-111.820	-0.192	-0.039
-313.968	-125.708	-0.184	0.028
-312.953	-200.000	-0.062	0.483
-311.939	31.508	-0.210	0.182
-310.924	-79.209	-0.269	0.092
-309.910	223.612	-0.224	0.363
-308.895	800.000	-0.086	0.338
-307.880	-40.660	-0.257	-0.134
-306.866	-200.000	0.027	0.131
-305.851	-138.274	-0.327	0.036
-304.837	-94.521	0.263	-0.072
-303.822	67.903	-0.291	0.299
-302.807	725.408	-0.120	0.321
-301.793	-200.000	0.007	-0.145
-300.778	-73.374	0.191	0.070
-299.764	-200.000	-0.002	-0.036
-298.749	800.000	-0.079	-0.332
-297.735	800.000	0.023	0.070
-296.720	-200.000	-0.010	-0.128
-295.705	-130.958	0.271	0.036
-294.691	-200.000	-0.013	-0.393
-293.676	-200.000	-0.045	0.252
-292.662	-90.176	0.107	-0.031
-291.647	-138.844	-0.215	-0.024
-290.632	-48.011	-0.114	-0.055
-289.618	-34.564	-0.155	0.085
-288.603	-154.367	-0.297	-0.020
-287.589	-118.580	0.173	-0.031
-286.574	-135.642	-0.238	0.028
-285.559	-126.830	0.108	0.016
-284.545	142.915	-0.043	0.058
-283.530	800.000	-0.013	0.045
-282.516	-104.206	0.084	0.020
-281.501	-115.648	0.142	-0.027
-280.486	18.552	0.238	-0.191
-279.472	191.466	-0.139	-0.211
-278.457	396.077	0.157	-0.329
-277.443	-29.868	-0.352	-0.201
-276.428	563.531	-0.065	-0.158
-275.413	800.000	-0.065	-0.277
-274.399	-124.661	-0.161	-0.025
-273.384	-77.148	-0.203	-0.071
-272.370	400.229	0.147	0.311
-271.355	134.682	-0.107	0.139
-270.340	800.000	-0.109	-0.364
-269.326	-61.282	0.423	0.179
-268.311	-68.974	-0.168	-0.065
-267.297	-111.325	0.147	0.030
-266.282	731.622	0.060	0.162
-265.267	-134.638	0.345	-0.042
-264.253	209.904	-0.146	-0.230
-263.238	-200.000	-0.020	0.319
-262.224	-136.929	0.118	0.014
-261.209	176.687	0.235	-0.343
-260.195	-49.035	0.283	-0.136
-259.180	-117.309	-0.251	0.046
-258.165	24.899	0.062	0.052
-257.151	-200.000	-0.000	0.194
-256.136	-92.594	0.092	-0.026
-255.122	-10.720	0.199	-0.132
-254.107	75.949	-0.272	-0.289
-253.092	24.623	-0.186	0.154
-252.078	185.590	-0.180	-0.268
-251.063	-136.353	0.317	-0.037
-250.049	38.162	-0.324	0.290
-249.034	-37.309	0.370	0.199
-248.019	-200.000	-0.017	0.298
-247.005	800.000	-0.033	-0.127
-245.990	794.858	0.066	-0.183
-244.976	669.927	0.061	0.159
-243.961	800.000	-0.035	-0.122
-242.946	248.641	0.053	0.090
-241.932	800.000	0.069	-0.215
-240.917	-146.747	0.172	-0.015
-239.903	76.202	-0.194	0.206
-238.888	122.863	0.027	0.034
-237.873	24.333	0.086	0.072
-236.859	-163.118	0.108	0.005
-235.844	178.213	0.175	0.256
-234.830	37.374	-0.227	0.202
-233.815	-36.825	-0.123	-0.066
-232.800	-40.589	0.096	-0.050
-231.786	-88.673	-0.111	0.033
-230.771	-10.510	-0.294	-0.195
-229.757	230.309	0.169	-0.277
-228.742	-133.941	0.335	0.042
-227.727	-200.000	0.004	-0.146
-226.713	-200.000	-0.047	0.249
-225.698	71.434	0.097	0.101
-224.684	-200.000	0.014	-0.084
-223.669	800.000	-0.084	-0.288
-222.655	122.082	-0.072	0.091
-221.640	232.683	-0.047	0.078
-220.625	-200.000	-0.046	0.241
-219.611	520.445	0.126	0.296
-218.596	142.735	0.066	0.088
-217.582	800.000	0.072	-0.278
-216.567	-125.324	-0.105	-0.016
-215.552	-73.196	-0.407	-0.150
-214.538	-83.470	0.313	0.101
-213.523	-102.170	-0.164	-0.040
-212.509	114.230	0.014	0.018
-211.494	-169.856	0.243	-0.009
-210.479	144.967	-0.149	0.199
-209.465	517.149	-0.145	0.340
-208.450	630.231	-0.086	0.218
-207.436	-24.830	-0.092	0.055
-206.421	-49.164	0.091	0.044
-205.406	-42.341	-0.171	0.088
-204.392	-56.043	-0.110	-0.049
-203.377	545.466	0.129	-0.308
-202.363	-0.235	-0.123	-0.088
-201.348	100.948	0.073	-0.086
-200.333	96.421	-0.094	-0.107
-199.319	344.714	-0.094	-0.185
-198.304	-73.508	0.264	0.097
-197.290	447.303	0.148	0.325
-196.275	560.770	-0.122	0.296
-195.260	-44.803	0.029	0.014
-194.246	271.254	-0.029	-0.051
-193.231	47.567	0.063	-0.059
-192.217	-200.000	-0.001	0.062
-191.202	9.394	0.183	-0.139
-190.187	-40.983	-0.143	-0.074
-189.173	150.700	-0.030	-0.041
-188.158	-82.739	0.126	-0.041
-187.144	-18.509	-0.195	0.122
-186.129	-23.840	-0.410	-0.246
-185.114	-136.417	0.131	0.015
-184.100	102.019	0.098	0.114
-183.085	457.985	0.083	0.185
-182.071	-124.464	0.268	0.042
-181.056	800.000	-0.077	0.255
-180.042	36.744	0.099	-0.088
-179.027	-200.000	-0.011	0.131
-178.012	-78.862	0.109	-0.037
-176.998	-5.506	-0.162	0.111
-175.983	95.006	0.038	0.043
-174.969	-200.000	-0.070	0.456
-173.954	284.012	-0.062	-0.112
-172.939	237.116	0.052	0.087
-171.925	465.066	-0.137	-0.307
-170.910	-128.633	0.198	0.028
-169.896	-200.000	-0.046	-0.281
-168.881	-30.031	-0.181	-0.103
-167.866	350.467	0.093	-0.184
-166.852	-200.000	0.095	-0.699
-165.837	326.062	-0.103	-0.198
-164.823	-200.000	0.001	0.004
-163.808	-56.122	0.081	-0.036
-162.793	-200.000	0.005	0.072
-161.779	-200.000	-0.024	-0.141
-160.764	800.000	0.031	-0.114
-159.750	150.349	-0.103	0.140
-158.735	-200.000	0.003	-0.062
-157.720	-200.000	0.007	0.255
-156.706	242.954	0.177	0.296
-155.691	15.377	0.261	-0.205
-154.677	368.774	0.088	0.177
-153.662	426.788	0.120	0.259
-152.647	285.763	0.117	0.212
-151.633	172.823	-0.095	0.136
-150.618	420.261	0.077	-0.165
-149.604	-6.403	0.151	0.103
-148.589	-78.461	0.202	0.069
-147.574	176.485	0.178	-0.258
-146.560	-73.227	-0.062	0.023
-145.545	0.046	-0.285	0.203
-144.531	-58.870	-0.267	0.115
-143.516	556.546	0.028	-0.067
-142.502	-200.000	0.009	0.313
-141.487	-73.474	-0.131	0.048
-140.472	-82.337	-0.109	-0.035
-139.458	-117.852	0.434	0.078
-138.443	-61.881	0.131	0.055
-137.429	774.980	-0.225	0.613
-136.414	191.527	-0.093	-0.140
-135.399	-50.963	0.241	0.113
-134.385	-92.540	-0.217	0.061
-133.370	-200.000	0.020	0.102
-132.356	-200.000	0.007	-0.085
-131.341	156.820	-0.085	0.118
-130.326	328.959	0.064	0.123
-129.312	-65.152	0.463	-0.187
-128.297	23.160	-0.177	-0.145
-127.283	-141.872	-0.212	-0.021
-126.268	-66.545	0.241	0.096
-125.253	0.892	0.237	-0.170
-124.239	-200.000	-0.006	-0.288
-123.224	682.683	0.066	0.173
-122.210	139.582	-0.134	-0.176
-121.195	-200.000	-0.009	0.148
