DTS Sentinel unit serial number:	SN413079Multiplexer serial number:	ORYXHardware model number:	OX4-SRSoftware version number:	ORYX F/W v4.00 Oryx Data Collector v3.7.2.0data status	okinstallation	princeton_trtdifferential loss correction	single-endedforward channel	channel 3reverse channel	N/Adate	2019/09/12time	19:27:03forward acquisition time	15.00reverse acquisition time	0.00gamma	496.2192k internal	0.2321k external	0.2321temperature offset calibration	1.0105default loss term (dB/km)	0.3790temperature slope calibration	1.0000multiplexer offset coefficient	1.0000multiplexer slope coefficient	1.0000fibre end	0.00T internal ref (°C)	32.31T ext. ref 1 (°C)	3.17T ext. ref 2 (°C)	26.96length (m)	temperature (°C)	Stokes	anti-Stokes-747.200	-61.991	1.145	0.484
-746.185	-22.244	0.154	0.095
-745.171	-76.708	-1.084	0.384
-744.156	800.000	0.009	-0.032
-743.142	-90.744	-0.194	0.056
-742.127	94.380	-0.310	0.355
-741.112	638.087	-0.076	-0.196
-740.098	-49.822	0.580	-0.278
-739.083	-95.854	0.639	-0.172
-738.069	-200.000	0.004	-0.243
-737.054	-47.604	-0.426	0.209
-736.039	-200.000	-0.057	-0.257
-735.025	189.123	-0.144	-0.218
-734.010	88.809	-0.402	0.452
-732.996	390.738	-0.456	0.955
-731.981	-131.863	0.353	0.047
-730.966	800.000	0.210	-0.847
-729.952	-90.161	0.446	0.131
-728.937	183.651	-0.385	-0.576
-727.923	140.301	-0.426	0.568
-726.908	-32.483	-0.932	0.525
-725.894	-15.229	0.440	0.284
-724.879	-19.809	0.651	0.407
-723.864	-1.858	-0.773	-0.549
-722.850	800.000	0.053	-0.218
-721.835	-139.191	0.533	-0.058
-720.821	-85.201	-0.342	-0.108
-719.806	466.601	0.344	-0.779
-718.791	249.364	-0.118	0.201
-717.777	-55.252	0.344	-0.156
-716.762	401.141	0.200	-0.424
-715.748	-96.268	0.306	0.082
-714.733	-111.017	-0.714	-0.148
-713.718	-155.979	0.077	0.005
-712.704	-85.368	0.439	-0.138
-711.689	-200.000	-0.019	-0.490
-710.675	283.059	-0.192	-0.347
-709.660	800.000	0.326	1.065
-708.645	-23.712	-0.456	0.276
-707.631	-200.000	-0.073	-0.746
-706.616	730.206	0.164	-0.442
-705.602	119.124	-0.207	0.259
-704.587	-144.975	0.497	-0.046
-703.572	330.495	0.216	0.419
-702.558	24.305	-0.664	-0.554
-701.543	319.993	-0.158	-0.302
-700.529	-200.000	0.077	0.678
-699.514	12.712	-0.992	0.773
-698.499	-112.208	-0.768	-0.156
-697.485	-116.312	0.322	-0.060
-696.470	-17.769	0.455	-0.288
-695.456	79.294	0.256	-0.277
-694.441	-181.432	0.138	0.003
-693.426	-13.094	-0.306	0.201
-692.412	-200.000	-0.144	-0.731
-691.397	-1.615	-0.409	-0.290
-690.383	800.000	-0.030	-0.127
-689.368	800.000	0.123	0.515
-688.354	68.662	-0.359	0.371
-687.339	-105.810	-0.504	0.115
-686.324	-134.085	-0.609	-0.076
-685.310	48.234	0.091	-0.086
-684.295	-24.433	-0.599	0.360
-683.281	-153.901	1.058	-0.073
-682.266	800.000	-0.024	0.086
-681.251	800.000	-0.087	-0.367
-680.237	762.932	-0.165	0.452
-679.222	-163.768	0.690	-0.033
-678.208	-200.000	0.063	0.600
-677.193	-138.223	0.358	-0.040
-676.178	-200.000	0.029	-0.341
-675.164	100.612	-0.302	0.353
-674.149	-45.721	-0.755	0.376
-673.135	-200.000	0.121	-0.914
-672.120	-27.557	-0.685	0.401
-671.105	271.603	-0.399	0.709
-670.091	800.000	0.234	-0.720
-669.076	-136.156	0.514	0.061
-668.062	190.075	-0.043	-0.065
-667.047	-41.887	0.373	-0.193
-666.032	-112.597	0.222	-0.045
-665.018	347.912	0.161	-0.320
-664.003	-41.781	-0.696	0.360
-662.989	66.694	-0.559	0.573
-661.974	608.657	-0.249	-0.625
-660.959	800.000	-0.178	-0.541
-659.945	307.527	0.154	0.289
-658.930	-200.000	-0.084	0.788
-657.916	-82.947	0.436	0.142
-656.901	-152.697	0.480	0.034
-655.886	800.000	0.088	-0.351
-654.872	-17.033	0.379	-0.241
-653.857	421.119	-0.301	-0.650
-652.843	272.973	0.069	0.123
-651.828	-200.000	0.045	0.197
-650.814	-40.224	0.198	-0.104
-649.799	278.249	-0.271	0.486
-648.784	-200.000	0.017	0.540
-647.770	-117.558	-0.750	0.136
-646.755	187.048	0.485	0.727
-645.741	800.000	-0.046	-0.147
-644.726	-200.000	-0.056	0.345
-643.711	174.880	0.167	-0.243
-642.697	-51.363	-0.627	0.295
-641.682	-128.592	0.697	-0.099
-640.668	255.256	-0.222	-0.383
-639.653	800.000	0.112	0.372
-638.638	-200.000	0.053	-0.589
-637.624	-167.861	0.139	-0.006
-636.609	176.869	-0.133	-0.194
-635.595	38.031	-0.305	-0.273
-634.580	150.340	0.192	-0.262
-633.565	-99.470	-0.371	0.094
-632.551	496.171	0.094	0.217
-631.536	86.129	0.265	0.294
-630.522	44.912	-0.366	-0.339
-629.507	251.147	-0.235	-0.403
-628.492	-113.287	-0.549	-0.109
-627.478	-200.000	-0.049	0.632
-626.463	-36.580	0.493	0.267
-625.449	-25.886	0.422	-0.250
-624.434	-127.662	1.402	-0.204
-623.419	-90.889	-0.361	0.104
-622.405	179.593	-0.365	0.538
-621.390	-50.527	-0.584	0.277
-620.376	-60.665	-0.387	0.165
-619.361	-20.272	-0.445	0.276
-618.346	800.000	0.214	-0.627
-617.332	-165.222	-0.237	-0.011
-616.317	-127.684	0.831	-0.121
-615.303	362.977	0.322	-0.650
-614.288	-103.878	-0.326	-0.077
-613.273	-88.191	-0.553	0.166
-612.259	22.589	0.443	0.365
-611.244	306.518	-0.165	-0.308
-610.230	210.188	-0.230	-0.363
-609.215	-200.000	0.058	0.612
-608.201	-200.000	-0.002	-0.385
-607.186	140.646	0.373	-0.495
-606.171	152.542	0.322	0.443
-605.157	2.996	1.284	-0.938
-604.142	-200.000	-0.118	-0.942
-603.128	-200.000	0.049	-0.647
-602.113	261.061	0.226	-0.394
-601.098	466.159	0.362	0.814
-600.084	-109.725	0.864	0.183
-599.069	-6.933	-1.025	-0.700
-598.055	613.099	0.246	-0.619
-597.040	49.717	-0.389	-0.369
-596.025	329.668	-0.383	0.741
-595.011	-200.000	-0.420	0.002
-593.996	30.967	-0.591	0.509
-592.982	800.000	0.106	-0.386
-591.967	119.565	-0.162	0.201
-590.952	-64.134	0.580	0.238
-589.938	4.339	-0.861	0.634
-588.923	-200.000	-0.037	0.308
-587.909	25.484	0.037	0.031
-586.894	800.000	0.135	0.436
-585.879	52.596	-0.400	0.384
-584.865	282.001	-0.177	0.318
-583.850	238.782	0.237	-0.396
-582.836	-100.122	-0.277	0.069
-581.821	80.188	-0.277	-0.299
-580.806	453.409	-0.092	-0.205
-579.792	-71.680	0.711	-0.267
-578.777	-99.181	-0.894	0.227
-577.763	76.057	0.271	-0.288
-576.748	-107.307	0.600	0.132
-575.733	127.252	0.188	-0.240
-574.719	27.361	-0.617	0.521
-573.704	245.725	0.156	0.263
-572.690	-200.000	-0.011	0.440
-571.675	800.000	-0.188	0.527
-570.661	-26.188	-0.261	0.154
-569.646	654.071	-0.396	-1.019
-568.631	-200.000	-0.062	0.427
-567.617	-133.031	-0.348	0.044
-566.602	139.133	0.639	0.844
-565.588	-172.719	0.582	-0.018
-564.573	-41.558	-0.052	-0.027
-563.558	-22.632	0.164	-0.100
-562.544	-104.759	0.207	0.048
-561.529	45.809	-1.082	-1.004
-560.515	800.000	0.123	-0.483
-559.500	-54.503	0.594	-0.270
-558.485	91.536	0.221	-0.249
-557.471	800.000	0.104	-0.351
-556.456	-133.891	0.940	0.117
-555.442	133.296	-0.501	-0.650
-554.427	-1.386	0.306	-0.217
-553.412	87.173	0.303	-0.336
-552.398	450.900	0.348	-0.771
-551.383	113.743	0.430	-0.524
-550.369	402.231	0.235	-0.496
-549.354	-13.463	0.469	-0.305
-548.339	-70.759	-0.509	-0.193
-547.325	-200.000	-0.012	-0.691
-546.310	141.703	0.151	0.201
-545.296	611.210	-0.240	-0.602
-544.281	-200.000	-0.048	0.526
-543.266	74.506	0.275	-0.290
-542.252	800.000	-0.321	-0.929
-541.237	-200.000	0.006	-0.282
-540.223	9.575	-0.482	-0.366
-539.208	475.985	0.128	0.289
-538.193	-200.000	0.079	0.738
-537.179	50.756	-0.637	-0.605
-536.164	16.721	-0.118	-0.094
-535.150	412.271	0.308	0.655
-534.135	419.334	-0.178	0.383
-533.121	252.484	-0.465	0.795
-532.106	216.785	0.445	0.710
-531.091	-200.000	-0.016	0.245
-530.077	-24.271	-0.407	0.244
-529.062	-144.150	0.413	0.039
-528.048	26.085	-0.109	0.091
-527.033	-127.997	-1.050	-0.151
-526.018	280.586	-0.253	-0.453
-525.004	800.000	0.261	0.989
-523.989	-99.838	0.407	0.102
-522.975	-47.564	-0.756	0.368
-521.960	95.437	0.358	0.409
-520.945	-200.000	-0.023	0.521
-519.931	-109.997	0.654	0.137
-518.916	178.185	-0.064	0.093
-517.902	-81.245	0.695	0.230
-516.887	-200.000	0.050	-0.410
-515.872	-45.697	0.604	-0.299
-514.858	34.058	-0.543	0.474
-513.843	216.502	-0.280	0.447
-512.829	641.268	-0.194	-0.494
-511.814	-59.762	-0.465	0.199
-510.799	800.000	0.155	0.587
-509.785	800.000	-0.137	-0.581
-508.770	104.458	0.646	-0.762
-507.756	-66.030	-0.081	0.032
-506.741	-74.562	0.495	0.179
-505.726	800.000	-0.033	-0.142
-504.712	152.590	-0.298	0.407
-503.697	83.090	0.229	0.250
-502.683	314.739	-0.091	-0.171
-501.668	214.276	0.350	0.555
-500.653	-5.931	-0.650	-0.445
-499.639	-200.000	-0.021	0.154
-498.624	-129.355	1.056	0.147
-497.610	190.245	-0.262	-0.394
-496.595	-140.971	-0.371	0.038
-495.581	-200.000	0.003	-0.571
-494.566	-151.385	-0.374	0.028
-493.551	-57.822	-0.585	-0.256
-492.537	138.096	-0.762	-1.000
-491.522	800.000	0.037	0.124
-490.508	-144.778	-0.566	0.052
-489.493	64.342	0.330	0.333
-488.478	11.782	-0.396	0.304
-487.464	-200.000	-0.091	0.471
-486.449	233.366	0.430	-0.708
-485.435	-125.046	0.617	-0.095
-484.420	202.838	0.135	-0.209
-483.405	-200.000	0.010	0.375
-482.391	800.000	-0.110	-0.404
-481.376	110.562	0.319	0.383
-480.362	184.348	-0.394	0.584
-479.347	-182.099	0.641	-0.012
-478.332	-45.643	0.109	-0.054
-477.318	800.000	0.083	-0.285
-476.303	-200.000	0.024	-0.509
-475.289	-45.642	0.315	0.156
-474.274	-200.000	0.086	-1.161
-473.259	694.389	-0.050	-0.130
-472.245	-200.000	0.275	1.212
-471.230	800.000	0.456	1.586
-470.216	730.151	-0.242	0.648
-469.201	-110.919	-0.423	-0.087
-468.186	800.000	0.051	0.188
-467.172	57.315	0.797	-0.778
-466.157	73.641	0.519	-0.544
-465.143	98.700	-0.680	0.785
-464.128	94.591	-0.372	0.422
-463.113	-38.360	0.265	-0.140
-462.099	-200.000	-0.011	-0.200
-461.084	800.000	0.164	0.491
-460.070	421.770	0.147	0.316
-459.055	-133.108	-0.836	-0.106
-458.040	-118.026	-0.252	-0.045
-457.026	-200.000	-0.096	-0.475
-456.011	-61.789	-0.481	0.202
-454.997	110.807	-0.447	-0.537
-453.982	35.652	0.783	0.688
-452.968	136.962	0.135	0.177
-451.953	800.000	-0.114	0.350
-450.938	-200.000	0.095	-0.510
-449.924	-126.114	0.593	0.089
-448.909	800.000	-0.235	-0.855
-447.895	-182.262	0.636	0.012
-446.880	155.909	-0.141	0.194
-445.865	204.079	0.366	0.567
-444.851	-200.000	0.001	-0.053
-443.836	-26.006	0.599	-0.352
-442.822	-136.095	-0.204	-0.024
-441.807	6.156	-0.295	0.218
-440.792	-59.816	-0.469	-0.201
-439.778	-125.806	-0.236	0.036
-438.763	-92.009	-0.620	-0.175
-437.749	800.000	0.130	0.372
-436.734	-200.000	0.069	-0.874
-435.719	46.015	-0.395	0.365
-434.705	-94.896	0.433	-0.117
-433.690	779.270	0.155	-0.423
-432.676	235.234	-0.178	-0.294
-431.661	-200.000	-0.124	-0.629
-430.646	-180.669	-0.922	0.019
-429.632	-200.000	-0.109	0.682
-428.617	-90.815	-0.114	-0.033
-427.603	-200.000	-0.144	-0.951
-426.588	-50.530	-0.605	0.285
-425.573	100.533	0.154	-0.179
-424.559	-200.000	0.048	-0.458
-423.544	-200.000	0.015	-0.256
-422.530	-76.921	0.564	-0.197
-421.515	-135.563	-0.775	0.092
-420.500	178.983	0.363	-0.529
-419.486	104.014	-0.023	0.027
-418.471	-128.248	0.567	-0.081
-417.457	800.000	0.142	-0.526
-416.442	442.388	0.295	-0.645
-415.428	-200.000	0.051	0.727
-414.413	-0.493	-0.493	-0.349
-413.398	-136.853	-0.122	-0.014
-412.384	32.441	-0.111	-0.096
-411.369	-52.073	-0.408	-0.189
-410.355	-200.000	-0.103	0.604
-409.340	800.000	-0.182	0.612
-408.325	304.815	-0.344	0.638
-407.311	-77.084	-0.113	-0.039
-406.296	-48.939	0.194	-0.093
-405.282	138.680	-0.486	-0.637
-404.267	-97.170	-0.391	0.102
-403.252	-19.837	0.371	-0.228
-402.238	230.994	-0.366	0.597
-401.223	325.269	-0.184	0.351
-400.209	2.985	-0.591	0.428
-399.194	258.900	0.314	0.540
-398.179	-118.546	-0.750	0.132
-397.165	383.876	0.243	0.498
-396.150	218.665	0.345	-0.549
-395.136	-73.513	0.326	0.118
-394.121	-92.012	0.257	-0.073
-393.106	42.149	-0.329	0.298
-392.092	67.402	0.342	-0.348
-391.077	-200.000	0.063	0.634
-390.063	-200.000	0.021	0.126
-389.048	-46.243	0.306	-0.150
-388.033	800.000	-0.022	-0.090
-387.019	159.367	-0.335	-0.465
-386.004	283.878	0.238	-0.427
-384.990	-10.320	0.268	0.177
-383.975	331.207	0.295	-0.566
-382.960	-45.840	0.858	0.422
-381.946	150.374	-0.403	0.545
-380.931	-92.303	-0.238	0.067
-379.917	-153.314	0.249	0.017
-378.902	-52.735	-0.244	-0.112
-377.888	-200.000	-0.063	0.400
-376.873	-70.791	0.352	0.132
-375.858	-115.186	1.080	-0.204
-374.844	34.250	-0.317	-0.276
-373.829	-110.453	0.460	0.095
-372.815	800.000	-0.093	-0.337
-371.800	-136.449	-0.648	-0.075
-370.785	196.230	-0.316	0.480
-369.771	121.275	0.383	0.475
-368.756	534.729	0.060	-0.141
-367.742	800.000	-0.115	0.319
-366.727	111.070	0.408	-0.490
-365.712	141.806	-0.804	-1.062
-364.698	288.939	0.242	0.436
-363.683	80.315	0.389	0.417
-362.669	-99.713	-0.511	0.128
-361.654	-111.972	-0.831	-0.167
-360.639	-17.506	-0.552	0.345
-359.625	-81.222	0.806	0.265
-358.610	-58.707	0.889	0.383
-357.596	-112.355	-0.738	-0.147
-356.581	239.058	0.247	0.409
-355.566	-131.161	0.233	-0.031
-354.552	291.240	0.302	-0.547
-353.537	391.816	-0.224	0.464
-352.523	359.689	0.295	-0.588
-351.508	-200.000	-0.063	-0.545
-350.493	565.311	0.249	0.601
-349.479	-95.155	0.239	-0.064
-348.464	-106.399	0.381	-0.085
-347.450	-74.173	-1.132	-0.408
-346.435	-54.151	0.748	-0.338
-345.420	-200.000	-0.008	-0.085
-344.406	-63.015	-0.391	0.161
-343.391	139.994	-0.457	0.600
-342.377	229.303	-0.378	0.614
-341.362	142.251	-0.441	-0.582
-340.348	-133.193	0.528	-0.066
-339.333	257.461	0.115	0.197
-338.318	254.007	-0.166	-0.282
-337.304	-167.444	0.638	0.025
-336.289	-60.248	0.596	0.253
-335.275	800.000	-0.090	-0.365
-334.260	800.000	0.095	0.303
-333.245	-145.912	0.257	-0.023
-332.231	-23.337	-0.692	0.414
-331.216	460.033	-0.086	0.190
-330.202	800.000	0.130	-0.376
-329.187	-174.580	0.649	-0.018
-328.172	6.494	0.690	0.510
-327.158	-44.459	-0.139	-0.069
-326.143	172.860	0.334	-0.479
-325.129	89.354	-0.500	0.555
-324.114	-200.000	-0.030	-0.249
-323.099	36.278	0.468	0.410
-322.085	800.000	0.104	-0.351
-321.070	69.671	-0.329	0.337
-320.056	-70.117	0.398	-0.150
-319.041	-200.000	-0.114	-0.619
-318.026	75.351	-0.131	-0.137
-317.012	655.413	0.275	0.702
-315.997	127.102	0.519	-0.654
-314.983	-73.909	-0.553	-0.199
-313.968	462.634	0.158	0.350
-312.953	68.499	0.319	-0.325
-311.939	-97.124	0.318	0.083
-310.924	-200.000	-0.031	-0.435
-309.910	162.621	-0.563	-0.785
-308.895	-200.000	-0.053	0.763
-307.880	-200.000	-0.060	0.586
-306.866	800.000	-0.164	0.685
-305.851	-23.710	0.270	-0.161
-304.837	49.682	0.274	0.257
-303.822	-87.700	-0.682	-0.205
-302.807	275.159	0.369	0.649
-301.793	-74.039	-0.614	-0.221
-300.778	200.270	-0.235	-0.358
-299.764	-38.073	0.441	-0.233
-298.749	334.591	-0.407	0.782
-297.735	-129.809	-0.876	-0.120
-296.720	414.880	0.299	-0.632
-295.705	-105.481	-0.394	0.089
-294.691	-44.899	-0.512	-0.254
-293.676	-113.751	-0.704	-0.136
-292.662	-91.938	-0.977	-0.275
-291.647	17.308	-0.271	-0.214
-290.632	-200.000	-0.196	-0.883
-289.618	105.536	-0.360	0.423
-288.603	76.391	0.198	-0.208
-287.589	-28.117	0.893	0.513
-286.574	61.449	0.417	0.412
-285.559	159.906	-0.543	0.751
-284.545	558.112	0.433	-1.036
-283.530	102.003	-0.585	0.677
-282.516	-13.376	0.213	-0.137
-281.501	-2.694	-0.331	0.230
-280.486	800.000	-0.165	0.610
-279.472	101.319	-0.382	0.441
-278.457	89.908	0.406	-0.450
-277.443	-128.373	0.609	0.086
-276.428	-47.365	-0.548	-0.265
-275.413	-200.000	-0.036	0.220
-274.399	224.274	-0.414	-0.663
-273.384	484.557	-0.088	0.199
-272.370	-104.903	0.261	-0.059
-271.355	637.342	0.120	-0.303
-270.340	139.977	0.459	0.601
-269.326	-49.234	-0.247	-0.117
-268.311	-97.930	0.250	-0.064
-267.297	86.978	-0.199	-0.218
-266.282	2.153	0.217	-0.155
-265.267	-149.137	0.694	-0.055
-264.253	16.014	0.756	0.591
-263.238	-125.241	0.078	0.012
-262.224	19.277	0.625	0.498
-261.209	800.000	0.087	-0.281
-260.195	311.996	0.412	-0.766
-259.180	-48.645	0.216	0.103
-258.165	800.000	-0.249	0.683
-257.151	-34.480	0.213	-0.116
-256.136	-148.343	-0.702	-0.057
-255.122	144.855	0.379	-0.503
-254.107	258.483	0.358	-0.612
-253.092	-20.903	-0.803	0.488
-252.078	-67.253	0.426	0.166
-251.063	-21.735	-0.783	-0.473
-250.049	-95.408	-0.378	-0.101
-249.034	251.950	0.085	-0.144
-248.019	-200.000	-0.091	0.531
-247.005	299.157	-0.080	-0.146
-245.990	-158.352	-0.557	0.032
-244.976	800.000	-0.095	0.358
-243.961	40.623	0.439	0.392
-242.946	800.000	-0.158	-0.498
-241.932	-109.919	0.296	-0.061
-240.917	-200.000	-0.008	-0.250
-239.903	-53.746	0.823	0.372
-238.888	169.709	-0.015	-0.021
-237.873	82.975	-0.434	-0.468
-236.859	-57.611	0.593	-0.258
-235.844	-107.977	0.632	-0.136
-234.830	-160.109	0.148	0.008
-233.815	167.862	0.159	0.224
-232.800	215.455	-0.190	-0.298
-231.786	131.935	0.203	-0.259
-230.771	133.754	0.239	0.306
-229.757	-122.952	0.535	-0.085
-228.742	-200.000	-0.149	-0.881
-227.727	83.092	0.705	0.760
-226.713	10.527	0.460	-0.347
-225.698	229.549	0.169	0.274
-224.684	-131.544	-0.991	-0.129
-223.669	-200.000	-0.026	-0.345
-222.655	-28.715	0.419	-0.239
-221.640	38.806	0.294	-0.260
-220.625	282.358	-0.313	-0.555
-219.611	-200.000	-0.012	-0.840
-218.596	285.805	-0.212	0.378
-217.582	342.109	-0.292	-0.565
-216.567	-36.529	-0.471	-0.251
-215.552	180.115	0.194	-0.282
-214.538	36.547	-0.342	0.299
-213.523	31.181	-0.213	0.181
-212.509	124.919	0.272	0.339
-211.494	-89.711	0.132	-0.038
-210.479	-77.420	-0.459	0.158
-209.465	-137.544	0.664	0.074
-208.450	-27.713	-0.731	0.420
-207.436	60.103	0.296	0.290
-206.421	-146.879	-0.178	0.015
-205.406	-27.248	0.633	-0.365
-204.392	-200.000	0.040	-0.385
-203.377	250.496	0.149	0.251
-202.363	265.834	-0.301	0.519
-201.348	15.212	-0.319	0.247
-200.333	39.051	-0.245	0.217
-199.319	-200.000	0.061	-0.432
-198.304	212.447	-0.031	0.048
-197.290	19.989	0.273	-0.218
-196.275	-52.643	-0.766	0.350
-195.260	-104.156	-0.263	0.061
-194.246	-62.876	0.135	-0.055
-193.231	-22.703	0.421	-0.252
-192.217	56.674	-0.337	0.324
-191.202	460.612	-0.188	-0.414
-190.187	129.446	0.529	-0.669
-189.173	-71.920	-0.514	-0.189
-188.158	90.604	0.492	-0.545
-187.144	-2.182	0.520	0.361
-186.129	-123.898	1.068	-0.166
-185.114	504.091	-0.219	-0.501
-184.100	-77.971	0.444	0.151
-183.085	186.730	0.340	0.501
-182.071	794.909	0.185	0.503
-181.056	319.931	-0.281	0.528
-180.042	-124.754	-0.326	-0.050
-179.027	-85.936	-1.060	-0.324
-178.012	237.388	0.190	-0.312
-176.998	-200.000	-0.008	0.642
-175.983	117.827	0.110	0.134
-174.969	0.343	-0.339	-0.239
-173.954	29.762	-0.715	0.602
-172.939	-1.645	-0.080	0.056
-171.925	-112.666	0.652	-0.128
-170.910	508.692	0.357	0.819
-169.896	-60.228	0.154	-0.065
-168.881	-114.600	-0.906	-0.171
-167.866	-123.741	-0.059	0.009
-166.852	-152.670	-0.388	0.027
-165.837	314.905	0.431	0.802
-164.823	286.686	-0.301	0.537
-163.808	125.721	0.276	0.344
-162.793	-61.998	-0.247	-0.102
-161.779	-200.000	-0.035	0.942
-160.764	-23.648	0.325	-0.192
-159.750	449.238	0.409	-0.890
-158.735	107.548	-0.278	-0.327
-157.720	-106.246	-0.378	0.084
-156.706	525.626	-0.144	0.336
-155.691	800.000	0.070	0.242
-154.677	-200.000	-0.025	0.557
-153.662	-105.814	0.546	0.122
-152.647	79.349	-0.303	-0.321
-151.633	-0.235	0.418	0.294
-150.618	-147.437	-0.648	-0.054
-149.604	-104.284	-0.312	-0.071
-148.589	97.696	-0.142	0.161
-147.574	-20.743	-0.168	0.102
-146.560	-25.789	-0.640	0.372
-145.545	22.166	-0.675	0.544
-144.531	78.947	0.421	-0.445
-143.516	153.732	-0.249	0.336
-142.502	133.065	0.209	0.267
-141.487	-28.733	0.279	0.159
-140.472	639.067	-0.194	0.487
-139.458	-200.000	0.044	-0.411
-138.443	289.897	-0.315	0.565
-137.429	533.048	0.254	-0.595
-136.414	506.048	0.126	-0.288
-135.399	224.202	0.570	0.908
-134.385	229.371	-0.119	0.191
-133.370	47.062	-0.242	0.222
-132.356	524.974	-0.083	-0.193
-131.341	-28.988	0.827	-0.468
-130.326	-200.000	0.025	0.513
-129.312	557.678	-0.186	0.442
-128.297	-52.817	0.072	-0.033
-127.283	-118.079	0.494	-0.087
-126.268	-26.821	0.858	0.495
-125.253	-113.628	0.451	0.087
-124.239	-154.795	0.713	0.047
-123.224	21.240	0.501	0.401
-122.210	-71.976	0.453	0.166
-121.195	800.000	0.042	0.173
