DTS Sentinel unit serial number:	SN413079Multiplexer serial number:	ORYXHardware model number:	OX4-SRSoftware version number:	ORYX F/W v4.00 Oryx Data Collector v3.7.2.0data status	okinstallation	princeton_trtdifferential loss correction	single-endedforward channel	channel 3reverse channel	N/Adate	2019/09/19time	08:00:34forward acquisition time	60.00reverse acquisition time	0.00gamma	496.2192k internal	0.2346k external	0.2346temperature offset calibration	0.9979default loss term (dB/km)	0.3790temperature slope calibration	1.0000multiplexer offset coefficient	1.0000multiplexer slope coefficient	1.0000fibre end	0.00T internal ref (°C)	19.84T ext. ref 1 (°C)	0.55T ext. ref 2 (°C)	15.37length (m)	temperature (°C)	Stokes	anti-Stokes-747.200	53.591	-0.105	0.101
-746.185	55.091	0.075	0.072
-745.171	70.639	-0.298	0.308
-744.156	-200.000	-0.017	0.107
-743.142	329.642	0.113	0.218
-742.127	-6.027	-0.330	0.226
-741.112	194.972	0.133	-0.202
-740.098	800.000	-0.068	0.270
-739.083	-104.179	-0.149	0.035
-738.069	-97.766	-0.137	-0.035
-737.054	-200.000	-0.058	-0.378
-736.039	646.296	0.174	-0.444
-735.025	-140.494	0.222	-0.023
-734.010	-102.346	-0.303	-0.073
-732.996	245.624	0.025	-0.042
-731.981	-200.000	0.059	-0.269
-730.966	696.386	-0.102	0.267
-729.952	66.370	0.183	-0.186
-728.937	-200.000	-0.004	0.131
-727.923	800.000	-0.094	-0.301
-726.908	306.934	-0.022	0.040
-725.894	-200.000	-0.019	0.159
-724.879	-96.698	-0.168	-0.044
-723.864	466.207	0.055	-0.124
-722.850	194.787	0.106	-0.160
-721.835	-107.145	-0.164	-0.036
-720.821	359.239	0.148	-0.295
-719.806	-15.807	-0.265	0.168
-718.791	47.591	-0.115	-0.107
-717.777	-80.714	-0.117	0.039
-716.762	363.142	0.078	0.158
-715.748	-200.000	0.068	0.368
-714.733	-200.000	-0.048	-0.275
-713.718	-139.445	0.240	-0.026
-712.704	525.940	-0.059	-0.139
-711.689	45.346	-0.254	0.234
-710.675	173.609	-0.098	0.141
-709.660	-200.000	-0.010	-0.132
-708.645	-132.538	0.053	0.007
-707.631	-200.000	0.025	0.220
-706.616	402.309	-0.041	-0.087
-705.602	800.000	0.058	0.191
-704.587	-116.522	-0.101	0.019
-703.572	121.101	-0.245	0.304
-702.558	331.792	-0.137	-0.264
-701.543	540.663	-0.085	-0.202
-700.529	180.340	-0.036	-0.052
-699.514	556.646	-0.127	0.306
-698.499	-11.132	-0.068	-0.045
-697.485	218.543	0.072	0.115
-696.470	-200.000	0.015	0.187
-695.456	-200.000	0.019	0.140
-694.441	-200.000	-0.010	0.197
-693.426	-200.000	0.029	-0.127
-692.412	592.121	0.093	-0.229
-691.397	800.000	-0.031	0.094
-690.383	-124.558	0.174	-0.027
-689.368	365.260	0.091	0.184
-688.354	-200.000	-0.019	0.122
-687.339	-102.727	-0.218	-0.052
-686.324	-53.030	0.309	0.142
-685.310	-200.000	-0.273	0.001
-684.295	-74.564	0.342	-0.123
-683.281	-28.000	0.318	0.184
-682.266	271.836	-0.052	-0.092
-681.251	308.487	0.137	0.255
-680.237	40.544	0.131	-0.117
-679.222	497.583	-0.071	0.164
-678.208	-200.000	-0.003	-0.130
-677.193	-30.027	-0.405	-0.230
-676.178	800.000	-0.073	-0.276
-675.164	188.688	-0.026	0.039
-674.149	-60.703	-0.309	-0.130
-673.135	800.000	-0.018	-0.056
-672.120	193.913	0.162	-0.244
-671.105	800.000	0.078	0.225
-670.091	-80.336	0.282	0.094
-669.076	64.032	0.322	-0.322
-668.062	-134.343	0.094	-0.012
-667.047	47.968	-0.225	0.210
-666.032	-189.781	0.315	0.004
-665.018	4.603	-0.191	-0.140
-664.003	-200.000	0.021	0.229
-662.989	317.022	-0.060	-0.113
-661.974	123.772	0.179	-0.224
-660.959	494.526	0.064	-0.146
-659.945	96.372	-0.292	-0.333
-658.930	128.572	0.256	0.325
-657.916	-73.809	0.185	-0.067
-656.901	57.665	0.075	0.073
-655.886	490.742	-0.069	0.158
-654.872	-72.235	0.122	0.045
-653.857	-187.169	0.121	0.002
-652.843	-200.000	0.002	-0.107
-651.828	101.199	-0.028	0.033
-650.814	-89.023	0.311	0.092
-649.799	-200.000	-0.050	-0.262
-648.784	-125.250	-0.292	-0.044
-647.770	-41.953	-0.062	0.031
-646.755	318.162	-0.100	0.188
-645.741	-58.910	-0.245	0.105
-644.726	133.172	0.141	0.181
-643.711	-72.520	0.256	-0.094
-642.697	-112.363	-0.044	-0.009
-641.682	-92.149	0.362	0.102
-640.668	-100.041	0.238	-0.059
-639.653	800.000	-0.014	-0.042
-638.638	-200.000	0.011	0.074
-637.624	-87.618	0.189	-0.057
-636.609	540.881	0.049	0.115
-635.595	48.719	0.122	-0.114
-634.580	-106.578	0.118	0.026
-633.565	-86.161	-0.147	-0.045
-632.551	-4.002	0.035	0.024
-631.536	-200.000	0.028	0.191
-630.522	-70.452	-0.289	-0.109
-629.507	7.843	-0.270	-0.201
-628.492	411.877	0.159	-0.336
-627.478	-72.748	-0.237	-0.087
-626.463	-200.000	-0.026	0.368
-625.449	324.558	-0.006	0.012
-624.434	-200.000	-0.008	0.216
-623.419	42.985	-0.063	0.058
-622.405	800.000	0.055	-0.182
-621.390	-200.000	0.058	-0.324
-620.376	405.781	0.046	0.097
-619.361	-45.767	-0.089	-0.044
-618.346	800.000	-0.029	0.125
-617.332	-200.000	-0.027	0.176
-616.317	-26.889	0.412	-0.239
-615.303	-61.800	-0.286	0.119
-614.288	111.706	-0.062	0.075
-613.273	-103.113	0.385	0.091
-612.259	-17.075	0.132	-0.083
-611.244	87.604	0.190	0.209
-610.230	800.000	-0.110	-0.307
-609.215	242.880	0.102	0.170
-608.201	-154.074	-0.171	-0.012
-607.186	-66.553	0.258	0.102
-606.171	497.576	-0.079	0.180
-605.157	240.916	0.059	0.097
-604.142	85.263	-0.065	0.071
-603.128	-200.000	0.053	-0.231
-602.113	-87.005	-0.199	0.060
-601.098	-8.146	0.126	-0.084
-600.084	336.870	0.095	0.184
-599.069	-86.656	0.323	-0.098
-598.055	-126.432	0.481	-0.071
-597.040	-126.267	-0.162	-0.024
-596.025	37.546	0.135	0.119
-595.011	-29.290	-0.313	-0.178
-593.996	800.000	0.021	-0.070
-592.982	725.072	-0.133	-0.353
-591.967	-9.479	0.204	0.136
-590.952	-8.006	-0.293	0.197
-589.938	434.097	0.201	-0.435
-588.923	-44.166	-0.417	0.208
-587.909	-72.657	0.353	0.129
-586.894	412.881	-0.148	-0.313
-585.879	119.904	-0.160	-0.198
-584.865	-200.000	0.034	0.192
-583.850	296.010	-0.126	0.229
-582.836	-123.847	-0.378	-0.059
-581.821	-78.255	0.380	-0.130
-580.806	800.000	-0.151	0.485
-579.792	-106.935	-0.314	-0.069
-578.777	-200.000	0.014	0.200
-577.763	40.560	-0.123	-0.110
-576.748	50.013	-0.203	-0.190
-575.733	800.000	-0.054	0.226
-574.719	800.000	0.096	0.276
-573.704	-200.000	0.001	0.072
-572.690	155.514	-0.250	-0.342
-571.675	85.462	-0.178	0.194
-570.661	116.936	0.084	-0.103
-569.646	-83.109	0.177	0.057
-568.631	83.619	-0.108	0.117
-567.617	-200.000	-0.003	-0.455
-566.602	48.050	-0.173	0.160
-565.588	-98.119	0.224	0.057
-564.573	15.934	-0.126	-0.098
-563.558	142.142	0.150	-0.197
-562.544	-10.027	-0.254	-0.167
-561.529	-200.000	0.003	-0.013
-560.515	-122.907	0.241	-0.039
-559.500	-37.201	0.182	-0.096
-558.485	341.917	-0.106	0.207
-557.471	-25.262	0.110	0.065
-556.456	154.323	-0.224	-0.305
-555.442	613.326	0.157	0.391
-554.427	-167.105	-0.022	-0.001
-553.412	586.901	0.099	-0.242
-552.398	240.664	-0.140	-0.231
-551.383	-200.000	0.394	-0.001
-550.369	113.774	-0.257	0.310
-549.354	-71.557	-0.104	-0.039
-548.339	-145.423	0.360	0.032
-547.325	-55.614	0.166	-0.074
-546.310	115.323	-0.095	-0.116
-545.296	119.753	0.176	0.216
-544.281	-17.999	0.048	-0.030
-543.266	34.665	0.386	-0.335
-542.252	-131.177	-0.100	0.013
-541.237	-200.000	-0.038	0.205
-540.223	-200.000	0.017	-0.260
-539.208	25.310	-0.062	0.051
-538.193	-148.348	0.280	0.023
-537.179	135.548	-0.168	0.217
-536.164	800.000	0.060	0.245
-535.150	499.194	-0.101	-0.231
-534.135	101.139	0.099	-0.114
-533.121	62.275	0.319	0.316
-532.106	-200.000	0.023	0.117
-531.091	243.407	-0.129	0.214
-530.077	240.757	0.073	0.121
-529.062	800.000	0.126	0.432
-528.048	-70.433	0.184	0.069
-527.033	104.118	-0.057	-0.067
-526.018	-200.000	0.033	0.330
-525.004	-9.077	0.170	-0.113
-523.989	-25.688	-0.237	0.138
-522.975	-187.344	0.277	0.004
-521.960	-173.179	-0.239	-0.007
-520.945	93.427	0.108	-0.121
-519.931	139.812	-0.118	0.154
-518.916	280.938	-0.127	0.225
-517.902	119.851	-0.186	-0.229
-516.887	800.000	0.051	-0.182
-515.872	-200.000	0.013	0.177
-514.858	-200.000	0.009	-0.246
-513.843	196.872	0.199	-0.301
-512.829	-200.000	-0.020	0.210
-511.814	353.621	-0.055	0.108
-510.799	-9.935	0.091	-0.060
-509.785	267.383	0.242	0.420
-508.770	-35.560	0.299	-0.161
-507.756	800.000	-0.054	-0.172
-506.741	645.635	0.052	0.132
-505.726	-200.000	0.024	-0.250
-504.712	-80.208	-0.281	-0.093
-503.697	470.925	0.039	0.088
-502.683	800.000	0.030	0.083
-501.668	-200.000	0.051	0.254
-500.653	-200.000	0.047	0.262
-499.639	-86.806	-0.127	-0.039
-498.624	-125.199	-0.237	0.036
-497.610	-31.362	0.301	-0.168
-496.595	53.046	0.122	0.116
-495.581	800.000	0.046	0.143
-494.566	-153.548	-0.243	0.017
-493.551	24.081	0.223	-0.183
-492.537	143.832	-0.199	0.263
-491.522	437.554	0.038	-0.081
-490.508	26.407	0.142	-0.118
-489.493	736.302	-0.059	0.156
-488.478	178.898	0.098	0.143
-487.464	-181.150	-0.091	0.002
-486.449	59.805	-0.298	0.291
-485.435	63.634	-0.187	-0.186
-484.420	-94.764	-0.038	0.010
-483.405	64.345	-0.271	-0.270
-482.391	66.266	0.143	0.144
-481.376	315.700	-0.107	0.200
-480.362	93.590	-0.054	-0.061
-479.347	-50.257	0.100	0.047
-478.332	625.805	0.073	-0.182
-477.318	-0.149	0.096	0.067
-476.303	-15.107	-0.282	0.179
-475.289	73.788	0.114	-0.118
-474.274	800.000	0.083	-0.307
-473.259	178.092	0.058	-0.084
-472.245	-200.000	0.024	0.251
-471.230	74.325	-0.288	0.300
-470.216	145.973	-0.102	-0.136
-469.201	-103.987	0.159	-0.037
-468.186	800.000	0.082	-0.236
-467.172	-145.392	-0.193	0.017
-466.157	-27.628	0.088	0.050
-465.143	373.120	-0.089	-0.179
-464.128	78.086	0.089	-0.094
-463.113	-108.402	0.374	0.080
-462.099	624.548	0.111	-0.277
-461.084	-200.000	0.001	-0.161
-460.070	356.617	0.171	-0.338
-459.055	800.000	-0.062	-0.183
-458.040	257.692	-0.130	-0.222
-457.026	191.235	0.055	0.082
-456.011	-200.000	0.050	0.352
-454.997	260.418	-0.086	-0.148
-453.982	-200.000	-0.010	-0.098
-452.968	185.718	0.039	-0.057
-451.953	637.986	-0.067	0.169
-450.938	-166.731	0.206	-0.008
-449.924	-200.000	-0.050	0.298
-448.909	-200.000	0.002	-0.043
-447.895	158.717	0.076	-0.105
-446.880	18.081	-0.060	0.047
-445.865	64.557	0.082	0.082
-444.851	-104.935	-0.229	0.052
-443.836	800.000	0.017	-0.063
-442.822	25.207	-0.025	-0.021
-441.807	-64.114	0.055	0.022
-440.792	-60.810	0.346	-0.145
-439.778	-158.276	-0.397	0.023
-438.763	9.886	0.187	0.140
-437.749	800.000	0.056	0.210
-436.734	-119.450	-0.261	0.045
-435.719	-184.315	-0.164	-0.003
-434.705	-200.000	0.004	0.328
-433.690	43.498	-0.075	0.068
-432.676	227.910	-0.074	-0.118
-431.661	79.965	-0.142	0.151
-430.646	619.799	-0.054	-0.134
-429.632	-25.888	-0.252	-0.147
-428.617	318.201	-0.047	0.088
-427.603	-200.000	-0.005	-0.221
-426.588	136.442	0.025	-0.032
-425.573	-136.246	0.329	-0.038
-424.559	-104.701	0.182	-0.041
-423.544	-55.296	0.079	-0.035
-422.530	800.000	-0.070	-0.193
-421.515	-159.279	-0.096	0.005
-420.500	-200.000	-0.009	0.306
-419.486	651.248	0.081	-0.205
-418.471	-200.000	0.075	0.445
-417.457	244.394	0.090	-0.149
-416.442	-73.936	-0.094	0.034
-415.428	171.404	-0.280	0.396
-414.413	-44.270	0.344	0.170
-413.398	-200.000	-0.027	-0.210
-412.384	445.718	-0.091	0.198
-411.369	238.918	-0.207	-0.339
-410.355	528.769	-0.120	0.280
-409.340	-88.404	-0.160	-0.047
-408.325	-71.793	0.232	0.085
-407.311	-33.258	-0.118	0.065
-406.296	8.564	-0.126	-0.094
-405.282	800.000	-0.052	-0.166
-404.267	107.923	0.053	0.062
-403.252	82.134	-0.281	0.301
-402.238	331.283	0.102	0.195
-401.223	308.362	-0.087	0.160
-400.209	368.056	0.112	-0.224
-399.194	800.000	0.013	-0.054
-398.179	0.748	-0.060	-0.043
-397.165	-200.000	-0.004	-0.060
-396.150	-30.285	0.165	0.092
-395.136	85.440	0.061	-0.066
-394.121	566.181	-0.104	-0.249
-393.106	-41.940	0.069	-0.035
-392.092	145.557	-0.056	-0.075
-391.077	-200.000	0.012	0.327
-390.063	-32.797	-0.417	-0.229
-389.048	141.021	0.074	0.097
-388.033	116.962	-0.082	-0.100
-387.019	-24.027	-0.104	0.061
-386.004	100.808	0.203	0.232
-384.990	556.734	-0.139	-0.330
-383.975	-200.000	-0.010	0.169
-382.960	278.499	0.128	-0.224
-381.946	-200.000	0.010	0.279
-380.931	-100.535	-0.119	-0.029
-379.917	-142.164	-0.076	0.007
-378.902	30.492	-0.459	-0.387
-377.888	-200.000	-0.025	-0.268
-376.873	-103.413	0.301	-0.070
-375.858	-14.571	0.359	-0.227
-374.844	-200.000	-0.020	-0.352
-373.829	210.977	0.178	-0.276
-372.815	-120.269	-0.286	-0.048
-371.800	-154.337	0.067	0.004
-370.785	299.539	0.084	0.153
-369.771	-135.749	0.211	-0.025
-368.756	-200.000	-0.028	0.174
-367.742	129.485	-0.098	-0.123
-366.727	800.000	-0.042	-0.124
-365.712	-28.379	0.305	-0.173
-364.698	-29.310	-0.054	-0.031
-363.683	119.578	-0.041	0.050
-362.669	-105.603	-0.139	-0.031
-361.654	92.614	0.163	0.182
-360.639	-86.332	0.178	-0.054
-359.625	-19.934	-0.141	0.086
-358.610	9.674	-0.204	-0.152
-357.596	-54.152	0.059	-0.026
-356.581	800.000	-0.037	-0.118
-355.566	35.204	0.313	-0.270
-354.552	265.245	0.080	-0.137
-353.537	263.415	-0.069	-0.118
-352.523	800.000	0.176	0.525
-351.508	192.519	-0.064	0.095
-350.493	-119.679	-0.080	0.014
-349.479	-75.260	-0.324	0.114
-348.464	366.439	0.137	0.271
-347.450	-102.317	0.199	0.047
-346.435	196.056	-0.033	-0.049
-345.420	-50.796	-0.376	0.174
-344.406	433.636	0.074	-0.159
-343.391	126.495	0.096	0.120
-342.377	-95.491	-0.287	-0.076
-341.362	800.000	0.044	0.159
-340.348	718.180	-0.037	0.097
-339.333	1.745	0.211	0.150
-338.318	29.532	0.188	0.158
-337.304	-200.000	-0.001	0.082
-336.289	-24.617	0.166	0.097
-335.275	11.482	-0.179	0.135
-334.260	-42.398	0.258	0.129
-333.245	387.447	0.049	-0.099
-332.231	493.209	0.098	0.221
-331.216	94.492	0.135	-0.151
-330.202	122.422	0.041	-0.050
-329.187	-19.895	0.401	-0.243
-328.172	-76.983	-0.466	-0.160
-327.158	-136.677	0.202	-0.023
-326.143	111.591	0.124	0.147
-325.129	-148.080	-0.256	-0.021
-324.114	153.206	-0.139	-0.187
-323.099	-46.907	-0.194	0.093
-322.085	-200.000	0.043	-0.275
-321.070	-89.355	-0.026	-0.008
-320.056	-2.937	0.095	-0.065
-319.041	-56.824	0.126	-0.055
-318.026	-200.000	0.037	-0.172
-317.012	-114.083	0.252	-0.048
-315.997	-64.819	-0.235	0.093
-314.983	800.000	-0.061	-0.188
-313.968	-200.000	0.041	0.254
-312.953	-97.061	-0.284	-0.073
-311.939	-200.000	-0.023	-0.234
-310.924	41.420	0.194	0.172
-309.910	-150.576	-0.144	-0.011
-308.895	161.933	0.247	0.340
-307.880	83.720	-0.064	0.068
-306.866	501.125	-0.030	0.069
-305.851	-40.379	-0.191	-0.098
-304.837	-129.419	0.185	0.025
-303.822	67.859	0.147	-0.148
-302.807	-14.643	-0.305	-0.193
-301.793	131.497	0.139	-0.175
-300.778	-200.000	0.051	0.226
-299.764	-200.000	0.031	0.363
-298.749	108.205	-0.135	0.158
-297.735	-200.000	0.040	-0.432
-296.720	-1.596	0.118	0.082
-295.705	211.083	-0.153	-0.237
-294.691	287.731	0.145	0.257
-293.676	389.002	-0.133	0.272
-292.662	-33.965	-0.067	0.036
-291.647	73.971	0.097	0.100
-290.632	289.067	0.085	0.151
-289.618	-19.111	-0.432	-0.263
-288.603	72.815	-0.315	-0.323
-287.589	223.964	0.125	-0.198
-286.574	-129.222	0.265	-0.036
-285.559	-60.041	-0.169	0.071
-284.545	-200.000	-0.010	-0.242
-283.530	427.620	-0.078	-0.166
-282.516	21.024	-0.120	-0.096
-281.501	-86.822	-0.280	0.084
-280.486	130.634	0.120	0.151
-279.472	-60.549	-0.178	0.074
-278.457	-12.298	-0.190	-0.122
-277.443	-135.289	0.339	-0.040
-276.428	301.592	-0.107	-0.195
-275.413	580.611	-0.127	-0.305
-274.399	-200.000	-0.017	-0.137
-273.384	92.506	0.147	-0.162
-272.370	-200.000	-0.013	-0.112
-271.355	250.329	-0.105	-0.174
-270.340	-62.648	-0.195	-0.079
-269.326	140.661	0.102	0.132
-268.311	233.074	0.093	-0.150
-267.297	41.123	0.086	-0.077
-266.282	-62.392	-0.416	-0.170
-265.267	468.166	-0.120	0.264
-264.253	13.234	-0.122	-0.093
-263.238	-113.133	-0.100	0.019
-262.224	-200.000	-0.039	-0.238
-261.209	-200.000	0.016	-0.073
-260.195	-102.376	-0.061	0.014
-259.180	107.413	-0.109	0.128
-258.165	615.545	0.045	0.110
-257.151	781.021	-0.051	-0.136
-256.136	-200.000	0.039	-0.180
-255.122	800.000	-0.119	0.333
-254.107	-71.948	-0.145	0.053
-253.092	-90.729	0.280	0.079
-252.078	26.336	0.074	0.061
-251.063	-200.000	0.013	0.221
-250.049	-114.284	0.111	-0.021
-249.034	-200.000	-0.002	0.022
-248.019	-4.195	0.072	-0.049
-247.005	-51.760	-0.206	0.094
-245.990	183.376	0.189	-0.274
-244.976	-81.195	0.205	-0.066
-243.961	-61.339	-0.159	-0.066
-242.946	-168.411	-0.359	-0.013
-241.932	-68.516	0.062	-0.023
-240.917	-200.000	-0.023	-0.120
-239.903	-132.230	-0.312	-0.040
-238.888	700.925	0.056	-0.144
-237.873	89.960	0.215	0.235
-236.859	-200.000	-0.040	-0.332
-235.844	800.000	0.048	0.147
-234.830	-53.690	-0.237	0.106
-233.815	383.550	0.088	-0.177
-232.800	116.501	0.308	0.370
-231.786	-44.924	-0.075	-0.037
-230.771	23.773	-0.062	0.050
-229.757	-74.485	0.055	-0.020
-228.742	5.689	-0.101	-0.073
-227.727	98.588	-0.110	0.124
-226.713	411.743	0.112	-0.234
-225.698	-144.860	-0.096	0.009
-224.684	800.000	0.101	0.405
-223.669	-200.000	-0.009	0.191
-222.655	10.418	-0.184	0.138
-221.640	147.902	-0.056	-0.074
-220.625	318.256	0.154	-0.286
-219.611	439.253	0.210	-0.448
-218.596	-100.245	-0.268	0.065
-217.582	52.649	0.211	-0.198
-216.567	215.136	-0.198	0.307
-215.552	800.000	-0.051	0.194
-214.538	404.152	-0.124	0.255
-213.523	6.838	0.167	0.122
-212.509	-91.549	-0.187	0.052
-211.494	191.173	-0.118	0.174
-210.479	5.212	0.148	-0.107
-209.465	-200.000	0.024	0.284
-208.450	-88.998	-0.309	-0.090
-207.436	-200.000	-0.024	-0.132
-206.421	48.106	0.151	-0.138
-205.406	-99.663	0.116	-0.029
-204.392	222.731	-0.132	0.208
-203.377	317.673	0.044	0.081
-202.363	-200.000	0.102	-0.481
-201.348	-113.966	-0.494	0.094
-200.333	228.034	-0.048	-0.077
-199.319	114.090	0.056	0.066
-198.304	340.835	0.121	-0.230
-197.290	-102.173	0.104	0.024
-196.275	-91.401	-0.059	-0.016
-195.260	-183.696	0.327	-0.005
-194.246	-20.110	-0.151	-0.091
-193.231	800.000	0.051	-0.176
-192.217	-91.210	-0.099	-0.028
-191.202	582.431	-0.072	-0.173
-190.187	-200.000	-0.033	0.247
-189.173	37.808	-0.204	-0.177
-188.158	-141.697	0.205	0.020
-187.144	422.876	0.045	0.094
-186.129	117.150	0.161	0.194
-185.114	205.667	-0.125	-0.190
-184.100	-145.030	0.280	0.025
-183.085	-66.384	0.131	-0.051
-182.071	800.000	-0.140	0.393
-181.056	-200.000	0.009	0.201
-180.042	-7.330	0.162	-0.108
-179.027	-3.666	0.171	-0.116
-178.012	296.322	-0.064	-0.115
-176.998	183.672	0.066	0.095
-175.983	-200.000	0.000	-0.082
-174.969	646.490	0.033	-0.082
-173.954	188.070	-0.015	0.022
-172.939	-190.914	0.132	0.001
-171.925	-200.000	-0.019	0.102
-170.910	-200.000	-0.022	0.136
-169.896	31.897	-0.176	0.148
-168.881	800.000	0.058	-0.168
-167.866	-70.331	0.313	-0.116
-166.852	-8.703	-0.133	0.088
-165.837	-200.000	0.015	0.211
-164.823	-200.000	-0.005	0.388
-163.808	-29.863	0.049	-0.027
-162.793	79.181	0.118	-0.123
-161.779	301.925	0.082	-0.149
-160.764	-84.815	0.363	0.112
-159.750	294.809	0.058	-0.104
-158.735	-184.993	-0.136	0.002
-157.720	800.000	-0.063	-0.247
-156.706	406.367	0.083	-0.171
-155.691	-200.000	0.024	0.201
-154.677	330.394	-0.173	0.326
-153.662	163.714	0.214	0.294
-152.647	-91.066	-0.103	-0.029
-151.633	121.964	0.082	-0.101
-150.618	381.629	-0.066	0.133
-149.604	421.428	-0.083	-0.173
-148.589	-95.253	-0.400	-0.105
-147.574	49.198	0.239	0.220
-146.560	89.123	-0.008	0.008
-145.545	168.826	0.166	0.231
-144.531	-55.888	-0.153	0.067
-143.516	167.379	-0.283	0.393
-142.502	211.651	0.124	-0.190
-141.487	-86.577	-0.146	0.044
-140.472	191.278	0.077	-0.113
-139.458	-111.522	-0.188	0.037
-138.443	-200.000	-0.033	-0.261
-137.429	-81.100	-0.176	0.057
-136.414	800.000	0.035	0.127
-135.399	-200.000	0.029	-0.139
-134.385	-200.000	-0.001	-0.154
-133.370	-101.112	0.228	0.054
-132.356	-200.000	-0.042	-0.225
-131.341	-67.669	0.241	0.092
-130.326	-158.476	0.061	0.003
-129.312	-34.537	-0.279	-0.149
-128.297	-200.000	-0.028	0.168
-127.283	417.804	-0.071	0.149
-126.268	-82.049	-0.204	0.065
-125.253	-63.859	-0.277	0.111
-124.239	-94.315	0.369	-0.098
-123.224	-200.000	-0.049	0.238
-122.210	-200.000	0.035	0.192
-121.195	-138.537	-0.151	-0.016
