DTS Sentinel unit serial number:	SN413079Multiplexer serial number:	ORYXHardware model number:	OX4-SRSoftware version number:	ORYX F/W v4.00 Oryx Data Collector v3.7.2.0data status	okinstallation	princeton_trtdifferential loss correction	single-endedforward channel	channel 3reverse channel	N/Adate	2019/09/13time	20:52:34forward acquisition time	60.00reverse acquisition time	0.00gamma	496.2192k internal	0.2332k external	0.2332temperature offset calibration	1.0060default loss term (dB/km)	0.3790temperature slope calibration	1.0000multiplexer offset coefficient	1.0000multiplexer slope coefficient	1.0000fibre end	0.00T internal ref (°C)	28.75T ext. ref 1 (°C)	3.09T ext. ref 2 (°C)	23.43length (m)	temperature (°C)	Stokes	anti-Stokes-747.200	-200.000	0.020	0.193
-746.185	-139.500	0.024	0.003
-745.171	-38.586	0.279	0.148
-744.156	-123.289	0.114	-0.018
-743.142	58.917	0.075	0.074
-742.127	-41.076	-0.294	0.153
-741.112	158.205	0.084	0.118
-740.098	208.010	0.053	0.083
-739.083	389.755	0.005	0.011
-738.069	-200.000	0.008	0.115
-737.054	-29.170	-0.002	0.001
-736.039	800.000	-0.066	0.183
-735.025	800.000	0.125	0.444
-734.010	193.629	-0.121	-0.184
-732.996	-104.313	-0.065	0.015
-731.981	-99.938	0.087	0.022
-730.966	-85.839	-0.373	-0.116
-729.952	89.985	0.099	-0.111
-728.937	-200.000	0.077	-0.380
-727.923	-61.125	-0.404	0.171
-726.908	-84.284	-0.133	0.042
-725.894	688.305	0.070	-0.184
-724.879	-108.375	-0.250	0.054
-723.864	91.013	0.081	0.091
-722.850	154.500	0.157	-0.217
-721.835	800.000	-0.049	0.209
-720.821	523.013	-0.126	0.297
-719.806	-108.155	0.091	-0.020
-718.791	83.794	-0.129	-0.141
-717.777	432.792	-0.109	0.237
-716.762	-200.000	0.164	0.000
-715.748	-75.506	0.363	-0.130
-714.733	27.301	0.068	0.057
-713.718	399.073	0.148	-0.312
-712.704	-65.698	-0.073	0.029
-711.689	-102.074	0.133	0.032
-710.675	98.338	-0.116	0.134
-709.660	-73.805	-0.228	0.083
-708.645	428.523	0.077	0.167
-707.631	-200.000	0.086	0.413
-706.616	800.000	0.067	-0.223
-705.602	-102.623	0.591	0.142
-704.587	800.000	0.019	-0.066
-703.572	19.629	-0.162	0.131
-702.558	163.753	0.140	0.197
-701.543	59.389	0.053	0.052
-700.529	-9.190	0.171	0.115
-699.514	-130.933	0.336	-0.045
-698.499	-172.665	-0.521	0.016
-697.485	108.282	-0.170	0.204
-696.470	-200.000	-0.052	0.242
-695.456	-43.321	-0.245	-0.124
-694.441	-5.075	0.210	-0.145
-693.426	85.776	-0.176	0.194
-692.412	-200.000	-0.002	0.278
-691.397	281.155	-0.109	-0.196
-690.383	-26.683	-0.080	0.047
-689.368	-134.540	-0.397	0.049
-688.354	-200.000	-0.031	-0.272
-687.339	-200.000	0.366	0.002
-686.324	-109.555	-0.128	-0.027
-685.310	800.000	0.088	-0.325
-684.295	-162.049	0.303	-0.015
-683.281	-200.000	-0.047	0.260
-682.266	-83.078	-0.178	-0.057
-681.251	-126.597	-0.293	-0.044
-680.237	-148.403	-0.466	0.038
-679.222	487.189	-0.091	-0.207
-678.208	800.000	0.051	0.197
-677.193	124.215	-0.175	-0.221
-676.178	177.944	0.174	0.255
-675.164	-200.000	-0.023	0.224
-674.149	20.167	-0.234	-0.189
-673.135	38.616	0.036	0.032
-672.120	41.598	0.266	-0.241
-671.105	3.396	-0.073	0.053
-670.091	800.000	-0.084	0.356
-669.076	239.682	-0.179	0.299
-668.062	512.341	0.092	-0.216
-667.047	124.156	-0.076	-0.095
-666.032	26.588	0.260	0.218
-665.018	221.433	-0.181	-0.292
-664.003	-200.000	-0.013	-0.188
-662.989	-64.227	-0.221	0.090
-661.974	68.258	0.162	0.166
-660.959	-37.886	-0.222	0.119
-659.945	114.910	0.204	-0.249
-658.930	19.297	-0.170	-0.137
-657.916	800.000	-0.057	-0.240
-656.901	-93.461	-0.369	-0.102
-655.886	-37.339	0.105	0.056
-654.872	109.591	-0.119	-0.142
-653.857	-200.000	0.022	0.108
-652.843	-200.000	0.027	-0.286
-651.828	90.279	0.065	-0.073
-650.814	-158.066	0.239	0.014
-649.799	-30.897	0.042	0.024
-648.784	800.000	-0.033	-0.127
-647.770	-114.610	-0.140	0.027
-646.755	-4.096	-0.159	0.110
-645.741	147.020	-0.035	-0.047
-644.726	173.416	0.128	-0.185
-643.711	-90.981	0.330	0.095
-642.697	237.668	-0.252	-0.419
-641.682	800.000	0.122	0.347
-640.668	-76.853	0.146	0.051
-639.653	-200.000	-0.031	-0.374
-638.638	-104.606	-0.201	-0.046
-637.624	-200.000	0.005	-0.378
-636.609	468.245	-0.081	-0.181
-635.595	18.940	-0.156	0.125
-634.580	26.601	-0.170	-0.142
-633.565	-64.225	0.203	-0.083
-632.551	66.474	0.175	0.178
-631.536	-102.982	0.267	-0.063
-630.522	21.696	0.230	0.188
-629.507	-197.683	0.104	-0.001
-628.492	460.792	-0.064	0.143
-627.478	-99.291	-0.400	-0.101
-626.463	-107.566	0.077	-0.017
-625.449	-41.611	0.134	-0.069
-624.434	-183.221	-0.194	0.003
-623.419	-27.900	-0.373	-0.216
-622.405	30.495	0.309	0.265
-621.390	359.909	-0.097	-0.194
-620.376	-31.574	0.172	0.097
-619.361	51.831	0.077	0.073
-618.346	-100.341	0.200	-0.050
-617.332	-101.147	0.217	0.053
-616.317	115.384	0.089	-0.109
-615.303	800.000	0.069	-0.200
-614.288	113.706	-0.158	-0.192
-613.273	39.080	0.108	0.097
-612.259	-200.000	0.013	-0.280
-611.244	-122.665	-0.306	0.050
-610.230	-200.000	0.043	0.291
-609.215	-39.985	0.088	0.046
-608.201	-97.872	-0.313	0.081
-607.186	-200.000	0.011	0.323
-606.171	-71.499	-0.123	-0.046
-605.157	-200.000	-0.025	0.289
-604.142	-36.040	-0.356	0.192
-603.128	241.816	-0.132	0.221
-602.113	78.564	-0.049	-0.052
-601.098	-200.000	-0.032	0.228
-600.084	-10.147	0.121	-0.081
-599.069	148.566	0.138	-0.186
-598.055	-67.949	0.225	-0.088
-597.040	-139.573	-0.140	0.015
-596.025	-200.000	-0.052	0.271
-595.011	-200.000	0.305	0.001
-593.996	-137.210	0.189	-0.021
-592.982	-15.549	-0.226	-0.144
-591.967	800.000	-0.041	0.125
-590.952	800.000	0.050	0.143
-589.938	-76.114	-0.240	-0.085
-588.923	49.439	-0.179	-0.168
-587.909	800.000	0.038	-0.131
-586.894	-200.000	0.017	-0.109
-585.879	-41.425	0.154	0.079
-584.865	128.335	-0.173	-0.221
-583.850	-94.947	-0.075	0.020
-582.836	-160.328	0.265	-0.014
-581.821	-119.112	0.296	0.052
-580.806	800.000	-0.054	-0.221
-579.792	232.640	-0.093	-0.153
-578.777	78.697	0.089	0.095
-577.763	-125.566	0.304	-0.046
-576.748	-200.000	0.019	0.135
-575.733	-104.216	-0.041	0.010
-574.719	69.735	-0.149	0.154
-573.704	9.561	-0.342	0.258
-572.690	690.147	0.054	0.142
-571.675	-107.406	0.112	0.024
-570.661	-97.423	0.443	0.115
-569.646	142.093	0.126	0.166
-568.631	-115.160	-0.225	0.043
-567.617	-200.000	0.012	0.059
-566.602	-146.678	-0.458	-0.040
-565.588	-200.000	-0.014	0.152
-564.573	800.000	0.054	-0.164
-563.558	-86.607	0.115	0.035
-562.544	435.170	0.058	-0.127
-561.529	2.576	-0.088	-0.064
-560.515	-200.000	-0.267	-0.000
-559.500	49.435	0.123	-0.115
-558.485	-66.341	0.264	-0.105
-557.471	-19.826	0.108	0.067
-556.456	26.014	-0.183	-0.153
-555.442	-200.000	-0.033	0.186
-554.427	-200.000	0.036	0.185
-553.412	800.000	-0.027	0.114
-552.398	28.681	-0.189	0.159
-551.383	40.515	0.103	0.092
-550.369	185.121	0.108	-0.161
-549.354	-151.334	-0.111	-0.008
-548.339	34.023	0.285	0.248
-547.325	535.884	-0.150	0.354
-546.310	42.279	-0.094	0.085
-545.296	-47.217	-0.043	0.021
-544.281	800.000	-0.063	-0.263
-543.266	-200.000	0.012	-0.408
-542.252	28.120	0.041	0.035
-541.237	-200.000	-0.033	-0.183
-540.223	-7.586	-0.228	0.154
-539.208	-200.000	0.040	-0.483
-538.193	-3.531	0.203	-0.141
-537.179	429.229	-0.159	0.342
-536.164	-200.000	-0.018	0.141
-535.150	529.811	-0.127	0.300
-534.135	-135.845	0.065	-0.008
-533.121	-144.806	0.071	-0.007
-532.106	35.371	0.329	-0.288
-531.091	-73.896	-0.054	-0.020
-530.077	317.374	-0.074	0.139
-529.062	-137.261	0.089	-0.010
-528.048	-102.118	0.242	-0.058
-527.033	-163.271	-0.171	0.008
-526.018	90.420	-0.049	0.054
-525.004	35.799	0.213	0.187
-523.989	800.000	-0.027	-0.100
-522.975	30.009	0.082	-0.070
-521.960	-200.000	-0.036	-0.389
-520.945	-67.805	-0.184	0.072
-519.931	399.088	0.135	-0.283
-518.916	-200.000	0.018	0.141
-517.902	167.137	0.172	-0.244
-516.887	-100.522	0.197	-0.048
-515.872	-26.639	-0.093	-0.054
-514.858	-127.468	-0.149	-0.022
-513.843	800.000	-0.066	0.255
-512.829	142.827	0.036	0.047
-511.814	130.813	0.213	-0.272
-510.799	-200.000	-0.007	-0.189
-509.785	219.995	0.167	-0.267
-508.770	-16.867	-0.147	0.092
-507.756	452.121	0.137	0.303
-506.741	-85.311	-0.222	0.069
-505.726	-62.832	0.308	0.127
-504.712	-12.197	-0.286	-0.186
-503.697	80.240	0.046	0.049
-502.683	62.068	0.178	0.177
-501.668	-50.640	-0.175	0.082
-500.653	-87.850	0.104	-0.031
-499.639	-57.254	0.227	-0.100
-498.624	511.846	0.155	-0.360
-497.610	-79.181	0.300	-0.101
-496.595	-63.779	0.103	-0.042
-495.581	54.322	-0.308	0.295
-494.566	-164.497	0.049	-0.002
-493.551	-176.814	-0.368	0.009
-492.537	97.943	-0.071	0.081
-491.522	-89.281	0.166	-0.049
-490.508	60.705	-0.129	-0.128
-489.493	239.092	0.137	-0.228
-488.478	-6.801	-0.068	-0.046
-487.464	221.253	0.122	0.195
-486.449	-106.787	-0.291	0.064
-485.435	-34.534	0.166	0.090
-484.420	-152.560	0.140	0.010
-483.405	37.078	-0.263	0.232
-482.391	-66.049	-0.065	0.026
-481.376	-200.000	-0.015	-0.102
-480.362	50.213	0.094	0.088
-479.347	-38.373	0.344	0.181
-478.332	0.857	-0.330	0.235
-477.318	-144.248	0.032	-0.003
-476.303	-107.114	0.155	-0.034
-475.289	-200.000	0.042	0.362
-474.274	281.454	-0.088	-0.156
-473.259	16.710	-0.084	0.066
-472.245	-200.000	0.009	-0.092
-471.230	-139.709	-0.181	-0.019
-470.216	-200.000	0.025	0.121
-469.201	732.879	0.069	-0.183
-468.186	-28.531	0.243	0.139
-467.172	19.466	0.269	0.215
-466.157	122.121	-0.075	0.093
-465.143	1.722	-0.213	-0.153
-464.128	150.844	-0.102	0.138
-463.113	-94.021	0.290	0.079
-462.099	19.216	-0.159	-0.127
-461.084	800.000	0.100	-0.280
-460.070	800.000	0.094	-0.376
-459.055	94.095	0.057	0.064
-458.040	-12.503	-0.130	-0.085
-457.026	-62.700	-0.246	0.101
-456.011	-200.000	0.005	0.329
-454.997	-200.000	-0.030	-0.151
-453.982	291.758	-0.046	-0.084
-452.968	332.498	0.060	0.114
-451.953	-52.116	-0.199	0.092
-450.938	519.527	-0.091	0.213
-449.924	65.065	0.228	-0.229
-448.909	145.972	-0.062	-0.082
-447.895	78.385	-0.083	-0.088
-446.880	-142.814	0.350	-0.034
-445.865	-20.982	0.299	-0.182
-444.851	711.137	-0.076	-0.200
-443.836	309.064	0.153	-0.284
-442.822	5.210	-0.136	-0.100
-441.807	19.384	0.282	0.225
-440.792	356.350	0.052	0.102
-439.778	-60.651	0.429	-0.181
-438.763	26.510	-0.203	-0.169
-437.749	-65.008	0.100	0.040
-436.734	269.733	-0.084	-0.147
-435.719	-11.190	-0.089	0.059
-434.705	800.000	0.035	-0.102
-433.690	224.722	-0.072	0.115
-432.676	-200.000	0.001	-0.184
-431.661	800.000	-0.147	-0.500
-430.646	209.056	0.195	0.303
-429.632	76.424	0.253	0.267
-428.617	57.342	-0.227	0.220
-427.603	593.355	-0.057	0.141
-426.588	-200.000	-0.059	-0.291
-425.573	-29.283	-0.144	0.082
-424.559	-200.000	0.027	-0.516
-423.544	-200.000	0.002	-0.257
-422.530	-200.000	0.044	0.254
-421.515	25.675	-0.291	-0.241
-420.500	107.494	-0.238	0.281
-419.486	361.684	0.063	0.126
-418.471	75.066	0.108	-0.113
-417.457	-87.045	0.257	0.078
-416.442	135.801	0.143	-0.185
-415.428	-75.159	-0.183	0.065
-414.413	-200.000	0.012	-0.266
-413.398	-200.000	0.015	-0.296
-412.384	5.226	0.043	0.031
-411.369	191.150	-0.095	-0.143
-410.355	-45.966	-0.324	-0.159
-409.340	-200.000	0.054	-0.320
-408.325	-200.000	0.002	-0.077
-407.311	-68.297	0.294	-0.114
-406.296	800.000	0.038	0.165
-405.282	325.137	0.057	0.109
-404.267	684.273	-0.081	0.209
-403.252	-200.000	0.034	-0.203
-402.238	-89.916	-0.196	0.057
-401.223	800.000	0.023	0.077
-400.209	-122.102	0.182	-0.030
-399.194	526.768	0.097	-0.228
-398.179	800.000	-0.138	0.444
-397.165	-200.000	0.017	-0.094
-396.150	-200.000	0.017	0.103
-395.136	-200.000	0.004	0.360
-394.121	-200.000	-0.063	0.404
-393.106	607.353	-0.037	-0.093
-392.092	22.772	-0.069	-0.056
-391.077	10.908	-0.323	-0.245
-390.063	-151.851	-0.238	0.017
-389.048	-61.824	0.428	-0.178
-388.033	139.956	-0.135	0.177
-387.019	116.428	0.233	-0.283
-386.004	1.954	-0.129	-0.092
-384.990	800.000	0.104	0.298
-383.975	5.920	0.228	-0.167
-382.960	226.891	0.210	-0.338
-381.946	-200.000	0.018	0.380
-380.931	-88.720	0.121	0.036
-379.917	-166.339	-0.211	-0.009
-378.902	759.102	-0.098	-0.264
-377.888	90.560	0.312	-0.346
-376.873	-78.658	0.086	0.029
-375.858	61.392	0.099	0.098
-374.844	-66.929	-0.350	0.137
-373.829	231.168	-0.150	0.244
-372.815	-200.000	0.079	-0.346
-371.800	-59.658	-0.095	0.040
-370.785	-200.000	0.017	-0.084
-369.771	136.660	-0.143	0.185
-368.756	-164.123	-0.123	-0.006
-367.742	-200.000	0.011	-0.222
-366.727	-130.250	0.424	0.057
-365.712	-130.089	0.097	-0.013
-364.698	800.000	0.057	0.209
-363.683	-200.000	-0.079	0.368
-362.669	-7.285	-0.094	-0.063
-361.654	-26.268	-0.240	0.140
-360.639	800.000	0.052	0.210
-359.625	-72.369	-0.147	-0.054
-358.610	63.211	0.121	0.120
-357.596	543.359	-0.071	0.169
-356.581	152.997	-0.158	0.214
-355.566	800.000	0.070	-0.218
-354.552	476.120	0.086	-0.192
-353.537	-200.000	0.005	0.128
-352.523	800.000	0.052	-0.162
-351.508	-139.870	0.260	0.027
-350.493	241.643	0.173	0.286
-349.479	8.025	0.213	-0.158
-348.464	-200.000	0.001	0.174
-347.450	307.552	0.130	0.240
-346.435	800.000	0.031	-0.113
-345.420	-164.881	-0.133	0.006
-344.406	-125.527	0.290	-0.044
-343.391	545.656	0.023	-0.054
-342.377	-77.229	0.091	-0.031
-341.362	539.855	0.085	0.201
-340.348	-117.932	-0.277	-0.049
-339.333	-90.076	0.017	-0.005
-338.318	-6.911	-0.216	-0.145
-337.304	368.938	0.111	0.223
-336.289	139.222	0.098	0.128
-335.275	-127.630	0.211	-0.030
-334.260	398.985	0.113	0.234
-333.245	52.686	-0.096	0.090
-332.231	-14.039	-0.120	0.076
-331.216	51.879	0.135	0.127
-330.202	47.338	0.112	0.103
-329.187	-59.809	-0.257	0.109
-328.172	22.330	0.165	-0.133
-327.158	-131.624	0.172	0.022
-326.143	800.000	0.037	0.149
-325.129	-35.678	-0.231	-0.124
-324.114	33.284	0.035	-0.030
-323.099	-105.232	0.060	0.014
-322.085	261.424	-0.185	-0.317
-321.070	400.464	0.182	0.377
-320.056	-128.564	-0.199	-0.028
-319.041	-78.692	-0.133	-0.045
-318.026	31.854	0.271	-0.231
-317.012	-200.000	0.031	-0.177
-315.997	-200.000	0.015	0.279
-314.983	-143.873	-0.295	0.028
-313.968	-75.891	-0.411	-0.144
-312.953	12.812	-0.151	-0.116
-311.939	-8.721	-0.322	-0.214
-310.924	-59.491	-0.246	0.104
-309.910	-132.240	-0.240	0.031
-308.895	-190.224	0.200	0.002
-307.880	-200.000	0.042	0.241
-306.866	427.935	-0.113	-0.242
-305.851	-8.517	-0.106	0.070
-304.837	-72.647	0.181	-0.066
-303.822	8.331	0.131	0.097
-302.807	-137.421	-0.321	-0.036
-301.793	-200.000	0.068	0.325
-300.778	-200.000	0.025	-0.119
-299.764	306.458	0.105	0.194
-298.749	-39.946	-0.126	0.065
-297.735	-200.000	0.021	-0.105
-296.720	30.484	0.243	0.205
-295.705	140.845	0.140	-0.182
-294.691	-29.945	0.227	0.127
-293.676	-146.000	0.116	0.010
-292.662	800.000	-0.070	-0.233
-291.647	-54.943	-0.270	-0.120
-290.632	800.000	0.010	0.032
-289.618	800.000	-0.159	0.478
-288.603	-10.688	-0.126	0.082
-287.589	800.000	-0.062	0.233
-286.574	170.704	-0.077	-0.108
-285.559	-155.843	-0.254	-0.016
-284.545	489.246	-0.184	0.415
-283.530	19.007	0.144	0.114
-282.516	141.755	0.173	-0.227
-281.501	37.525	-0.133	-0.117
-280.486	32.586	-0.172	-0.147
-279.472	-115.500	0.064	-0.012
-278.457	-69.402	0.127	0.048
-277.443	655.839	-0.070	0.176
-276.428	1.180	-0.146	-0.104
-275.413	182.267	0.226	-0.329
-274.399	592.621	-0.046	-0.113
-273.384	-81.620	-0.170	0.055
-272.370	800.000	-0.020	0.062
-271.355	-55.202	-0.164	0.073
-270.340	17.159	0.266	-0.208
-269.326	-154.948	-0.424	-0.028
-268.311	273.484	0.125	-0.219
-267.297	-200.000	-0.066	0.305
-266.282	-57.975	0.231	-0.100
-265.267	-78.867	0.317	0.107
-264.253	449.692	-0.169	0.369
-263.238	200.732	-0.161	0.244
-262.224	-200.000	0.005	-0.077
-261.209	24.785	0.189	0.154
-260.195	14.768	-0.188	0.145
-259.180	-69.688	-0.165	-0.062
-258.165	31.741	0.196	-0.166
-257.151	-37.092	-0.137	-0.073
-256.136	-62.699	0.174	-0.071
-255.122	800.000	-0.111	0.452
-254.107	-178.702	-0.097	0.002
-253.092	800.000	-0.081	-0.307
-252.078	-200.000	0.063	-0.290
-251.063	-200.000	-0.010	0.186
-250.049	800.000	0.036	-0.124
-249.034	-200.000	-0.426	-0.001
-248.019	-22.259	0.073	-0.043
-247.005	-200.000	0.019	-0.227
-245.990	333.465	-0.025	0.048
-244.976	-2.963	-0.218	-0.150
-243.961	-69.407	0.097	0.037
-242.946	197.136	-0.249	-0.375
-241.932	-28.665	0.222	-0.126
-240.917	-200.000	0.297	0.001
-239.903	-91.172	-0.266	-0.075
-238.888	-96.322	-0.077	0.020
-237.873	205.336	-0.034	0.052
-236.859	-17.199	0.294	0.183
-235.844	90.299	-0.190	0.210
-234.830	100.144	0.068	0.078
-233.815	76.898	-0.206	0.216
-232.800	339.978	0.040	0.076
-231.786	-200.000	-0.227	0.000
-230.771	581.688	0.060	0.145
-229.757	-79.707	0.151	-0.050
-228.742	-200.000	0.033	0.196
-227.727	46.294	-0.117	0.107
-226.713	144.361	0.153	0.202
-225.698	800.000	0.026	-0.092
-224.684	-90.536	0.061	-0.017
-223.669	-85.385	0.148	0.046
-222.655	-26.311	-0.157	-0.091
-221.640	176.419	-0.039	-0.055
-220.625	108.977	0.064	-0.075
-219.611	-90.007	0.383	-0.110
-218.596	-26.580	0.195	-0.113
-217.582	292.096	-0.179	-0.321
-216.567	187.630	0.185	0.273
-215.552	-200.000	-0.007	0.196
-214.538	419.840	0.174	0.367
-213.523	50.620	-0.219	0.204
-212.509	187.626	0.032	-0.047
-211.494	44.586	0.198	-0.179
-210.479	-200.000	-0.001	-0.154
-209.465	-23.432	0.248	-0.147
-208.450	87.753	-0.112	-0.122
-207.436	-100.348	-0.226	0.055
-206.421	800.000	0.075	0.286
-205.406	800.000	-0.044	0.149
-204.392	278.115	0.140	-0.245
-203.377	-200.000	-0.048	-0.207
-202.363	-42.910	0.264	-0.132
-201.348	159.229	-0.210	0.288
-200.333	-200.000	-0.003	-0.211
-199.319	238.095	0.187	-0.306
-198.304	-200.000	-0.081	0.424
-197.290	-125.747	-0.405	-0.060
-196.275	-78.689	0.220	-0.074
-195.260	-11.705	0.065	0.042
-194.246	435.320	-0.110	-0.235
-193.231	316.357	-0.140	-0.260
-192.217	-143.554	0.115	-0.011
-191.202	-53.217	0.158	0.071
-190.187	800.000	-0.018	0.055
-189.173	800.000	-0.041	0.148
-188.158	295.769	-0.088	0.159
-187.144	-105.231	-0.093	-0.021
-186.129	348.788	-0.072	-0.140
-185.114	117.433	0.139	0.168
-184.100	800.000	0.088	-0.253
-183.085	-27.264	0.125	-0.072
-182.071	-200.000	0.074	-0.398
-181.056	90.234	-0.013	-0.014
-180.042	-200.000	-0.019	0.195
-179.027	84.048	0.261	0.281
-178.012	250.384	0.073	0.122
-176.998	800.000	0.143	0.460
-175.983	-181.060	-0.142	-0.003
-174.969	-169.690	-0.353	0.013
-173.954	-200.000	0.002	-0.278
-172.939	137.401	0.283	-0.364
-171.925	1.679	-0.179	-0.127
-170.910	-12.783	0.087	0.056
-169.896	800.000	-0.039	0.155
-168.881	-5.543	0.439	-0.296
-167.866	391.017	0.037	0.076
-166.852	-22.918	0.106	-0.063
-165.837	800.000	-0.093	0.357
-164.823	-140.172	0.066	-0.007
-163.808	14.996	-0.262	-0.202
-162.793	23.939	-0.302	0.245
-161.779	800.000	-0.056	-0.208
-160.764	271.230	-0.107	-0.185
-159.750	-85.312	0.353	-0.108
-158.735	72.843	0.176	0.180
-157.720	-77.198	0.087	-0.030
-156.706	-29.262	-0.285	0.161
-155.691	-56.805	-0.220	0.096
-154.677	-38.707	-0.356	-0.185
-153.662	-200.000	-0.041	0.362
-152.647	117.819	-0.373	-0.452
-151.633	-89.841	-0.331	-0.095
-150.618	-200.000	0.012	0.102
-149.604	-117.547	0.299	0.053
-148.589	218.622	0.236	-0.370
-147.574	-45.040	-0.094	0.046
-146.560	-166.651	0.117	-0.005
-145.545	111.791	0.148	0.175
-144.531	128.983	0.236	-0.296
-143.516	639.481	0.122	0.304
-142.502	-33.794	0.347	0.188
-141.487	-131.918	-0.075	-0.010
-140.472	-200.000	0.003	0.027
-139.458	-81.889	-0.014	-0.005
-138.443	-59.843	0.205	-0.086
-137.429	140.560	0.230	-0.298
-136.414	-169.348	-0.311	0.011
-135.399	299.411	0.098	0.178
-134.385	800.000	-0.053	-0.199
-133.370	-103.348	0.142	0.033
-132.356	-93.409	0.139	-0.038
-131.341	-197.089	-0.092	-0.001
-130.326	97.372	0.199	0.225
-129.312	103.490	0.455	-0.524
-128.297	-200.000	-0.103	0.530
-127.283	133.634	-0.180	0.229
-126.268	-195.813	-0.427	-0.003
-125.253	145.304	0.182	-0.239
-124.239	800.000	-0.157	-0.443
-123.224	-200.000	0.103	0.445
-122.210	25.605	-0.194	-0.159
-121.195	-146.018	0.251	0.022
-120.180	-84.021	-0.202	0.063
