DTS Sentinel unit serial number:	SN413079Multiplexer serial number:	ORYXHardware model number:	OX4-SRSoftware version number:	ORYX F/W v4.00 Oryx Data Collector v3.7.2.0data status	okinstallation	princeton_trtdifferential loss correction	single-endedforward channel	channel 3reverse channel	N/Adate	2019/09/12time	18:36:04forward acquisition time	15.00reverse acquisition time	0.00gamma	496.2192k internal	0.2318k external	0.2318temperature offset calibration	1.0091default loss term (dB/km)	0.3790temperature slope calibration	1.0000multiplexer offset coefficient	1.0000multiplexer slope coefficient	1.0000fibre end	0.00T internal ref (°C)	33.19T ext. ref 1 (°C)	2.96T ext. ref 2 (°C)	27.69length (m)	temperature (°C)	Stokes	anti-Stokes-747.200	82.265	-0.119	-0.131
-746.185	800.000	-0.065	-0.227
-745.171	-164.850	0.527	-0.024
-744.156	-200.000	-0.060	-0.659
-743.142	-200.000	0.092	0.471
-742.127	800.000	-0.053	-0.175
-741.112	800.000	0.071	0.292
-740.098	-104.919	-0.453	-0.105
-739.083	28.815	-0.330	-0.283
-738.069	172.685	0.161	0.234
-737.054	-15.123	-1.052	0.682
-736.039	-99.903	-0.470	-0.119
-735.025	-30.076	0.305	-0.176
-734.010	-47.263	-0.618	0.305
-732.996	174.680	-0.383	0.561
-731.981	-74.861	0.447	0.162
-730.966	-27.312	-0.691	0.407
-729.952	-131.196	0.299	0.040
-728.937	228.805	-0.358	-0.591
-727.923	-76.328	-0.546	0.194
-726.908	-95.712	0.423	0.114
-725.894	738.668	0.111	-0.301
-724.879	-27.828	-0.273	-0.160
-723.864	800.000	0.233	1.005
-722.850	-200.000	0.065	-0.347
-721.835	-110.083	1.030	-0.218
-720.821	-162.876	-0.274	-0.013
-719.806	-150.115	0.905	-0.071
-718.791	170.978	0.312	0.452
-717.777	-200.000	-0.045	-0.412
-716.762	58.463	0.346	-0.343
-715.748	756.204	0.098	-0.268
-714.733	800.000	0.282	-0.820
-713.718	-62.174	0.535	0.225
-712.704	-99.473	-0.917	0.233
-711.689	67.834	0.334	-0.345
-710.675	138.285	-0.431	0.571
-709.660	800.000	-0.327	-0.943
-708.645	-200.000	0.178	1.236
-707.631	18.881	-0.758	0.613
-706.616	299.241	-0.398	-0.741
-705.602	137.936	0.371	0.492
-704.587	-158.349	-0.261	-0.015
-703.572	-142.812	0.490	-0.048
-702.558	-200.000	-0.017	0.297
-701.543	-130.047	-0.516	0.071
-700.529	-0.095	0.786	-0.565
-699.514	-24.457	0.437	0.263
-698.499	800.000	-0.110	0.441
-697.485	-30.452	-0.502	0.288
-696.470	-40.915	0.401	0.210
-695.456	37.462	-0.765	-0.686
-694.441	-200.000	0.103	0.763
-693.426	-94.246	-0.488	0.135
-692.412	44.870	-0.241	-0.224
-691.397	800.000	-0.151	0.600
-690.383	-70.718	0.163	-0.062
-689.368	757.611	0.331	0.905
-688.354	5.080	0.486	-0.362
-687.339	-200.000	-0.130	-0.859
-686.324	-177.615	-0.449	0.011
-685.310	504.408	0.063	-0.148
-684.295	285.993	0.205	0.374
-683.281	368.219	0.256	-0.523
-682.266	-150.652	-0.461	-0.036
-681.251	207.714	-0.816	-1.286
-680.237	20.241	-0.602	0.491
-679.222	-126.027	-0.953	-0.145
-678.208	-135.962	1.511	-0.180
-677.193	-18.342	-0.342	0.216
-676.178	-86.413	0.738	0.229
-675.164	230.303	-0.141	0.233
-674.149	-50.104	-0.242	0.116
-673.135	329.244	-0.124	0.241
-672.120	-16.741	-0.085	-0.054
-671.105	-200.000	-0.005	-0.458
-670.091	-200.000	-0.171	-1.095
-669.076	106.310	-0.439	0.525
-668.062	-141.835	-0.204	-0.021
-667.047	-28.608	0.289	-0.168
-666.032	800.000	0.166	0.571
-665.018	14.440	0.761	0.599
-664.003	800.000	-0.138	0.485
-662.989	-39.639	-0.458	0.242
-661.974	214.202	-0.132	-0.210
-660.959	77.177	-0.685	-0.735
-659.945	-200.000	-0.033	0.340
-658.930	-200.000	0.160	-0.751
-657.916	310.705	-0.434	-0.820
-656.901	189.765	-0.547	0.828
-655.886	-139.191	0.251	0.027
-654.872	-23.954	0.284	0.171
-653.857	-173.042	-0.125	0.004
-652.843	-132.235	-0.456	-0.060
-651.828	278.691	-0.425	0.763
-650.814	454.385	-0.174	0.388
-649.799	800.000	-0.146	-0.595
-648.784	-167.567	-0.254	-0.010
-647.770	67.920	-0.365	-0.377
-646.755	-113.018	0.220	0.044
-645.741	-126.122	-0.723	-0.109
-644.726	800.000	-0.140	-0.567
-643.711	189.176	-0.126	0.190
-642.697	-200.000	0.102	0.578
-641.682	800.000	0.306	0.972
-640.668	-0.796	-0.219	0.156
-639.653	375.444	0.215	0.443
-638.638	-115.770	0.634	0.120
-637.624	125.190	0.258	0.328
-636.609	203.732	-0.199	0.311
-635.595	-106.081	-0.323	0.073
-634.580	-101.510	-0.484	-0.119
-633.565	366.255	0.193	0.391
-632.551	800.000	0.101	0.407
-631.536	-61.679	0.092	-0.039
-630.522	-59.805	-0.494	-0.213
-629.507	-200.000	-0.051	1.035
-628.492	-200.000	-0.052	0.450
-627.478	-101.663	-0.674	-0.165
-626.463	31.409	-0.563	0.487
-625.449	800.000	0.217	-0.681
-624.434	-17.848	-0.357	0.226
-623.419	-106.066	-0.374	-0.085
-622.405	800.000	-0.120	0.398
-621.390	510.273	0.268	0.627
-620.376	-1.651	0.323	-0.229
-619.361	224.344	0.488	-0.794
-618.346	-200.000	-0.083	0.515
-617.332	-171.647	0.566	-0.019
-616.317	16.460	0.259	0.206
-615.303	800.000	-0.225	0.753
-614.288	-101.599	0.528	-0.129
-613.273	-69.248	-1.135	-0.439
-612.259	-76.903	0.571	-0.201
-611.244	-160.341	-0.404	0.022
-610.230	-200.000	0.007	0.214
-609.215	-105.429	-0.622	-0.142
-608.201	800.000	0.275	-0.921
-607.186	800.000	-0.423	-1.328
-606.171	-60.254	-0.387	-0.166
-605.157	-63.440	-0.347	-0.144
-604.142	-43.516	-0.523	0.266
-603.128	211.283	-0.255	0.404
-602.113	451.441	-0.147	0.327
-601.098	172.985	-0.154	0.223
-600.084	-200.000	-0.023	-0.221
-599.069	-189.505	0.324	-0.004
-598.055	523.871	0.190	-0.449
-597.040	188.728	-0.276	0.415
-596.025	-200.000	-0.057	-0.892
-595.011	-200.000	-0.175	0.818
-593.996	800.000	0.159	0.670
-592.982	239.791	-0.127	0.212
-591.967	277.623	-0.350	-0.627
-590.952	-29.813	0.332	-0.190
-589.938	-1.034	0.668	0.476
-588.923	-150.590	0.378	-0.029
-587.909	102.241	0.151	0.178
-586.894	651.647	-0.317	0.817
-585.879	202.169	-0.147	0.228
-584.865	371.838	-0.089	0.181
-583.850	781.677	-0.295	-0.812
-582.836	-86.086	-0.605	-0.188
-581.821	-57.220	-0.493	-0.218
-580.806	-200.000	-0.135	0.807
-579.792	-35.920	0.263	-0.143
-578.777	567.415	0.313	-0.765
-577.763	-96.784	0.092	0.024
-576.748	109.177	0.230	0.277
-575.733	800.000	0.119	0.390
-574.719	-68.373	0.069	0.027
-573.704	-141.435	0.303	0.031
-572.690	10.137	-0.383	-0.293
-571.675	-0.755	0.504	-0.359
-570.661	-121.111	0.864	-0.145
-569.646	-23.466	-0.320	-0.193
-568.631	-200.000	-0.021	0.484
-567.617	35.424	-0.567	0.500
-566.602	-190.749	0.344	0.004
-565.588	291.753	-0.290	0.531
-564.573	717.809	-0.361	-0.964
-563.558	-27.719	-0.131	0.077
-562.544	-200.000	0.004	-0.378
-561.529	-35.232	-0.677	-0.370
-560.515	21.203	0.103	0.084
-559.500	-96.776	0.604	0.160
-558.485	370.168	0.335	0.682
-557.471	372.304	0.340	0.695
-556.456	110.930	0.233	-0.282
-555.442	213.135	-0.318	-0.504
-554.427	800.000	-0.139	-0.389
-553.412	-48.705	-0.270	0.130
-552.398	163.040	0.394	-0.556
-551.383	36.517	-0.439	0.389
-550.369	800.000	-0.231	0.650
-549.354	-57.252	0.034	-0.015
-548.339	234.398	0.282	-0.467
-547.325	378.467	0.138	-0.284
-546.310	336.814	0.164	-0.319
-545.296	91.228	0.294	-0.332
-544.281	-200.000	0.034	0.778
-543.266	190.534	-0.440	0.664
-542.252	81.007	-0.168	0.182
-541.237	800.000	-0.106	-0.461
-540.223	93.856	-0.266	-0.302
-539.208	63.980	-0.507	-0.512
-538.193	730.085	-0.076	0.203
-537.179	-83.306	-0.411	-0.133
-536.164	61.383	0.322	0.321
-535.150	-52.548	0.398	0.185
-534.135	25.254	-0.519	-0.433
-533.121	-7.049	0.464	-0.316
-532.106	21.683	-0.657	0.537
-531.091	4.807	0.586	0.432
-530.077	-77.751	-0.458	0.159
-529.062	800.000	-0.059	0.211
-528.048	151.561	0.174	-0.238
-527.033	46.228	-0.272	-0.253
-526.018	-200.000	-0.084	-0.963
-525.004	800.000	-0.309	-0.887
-523.989	800.000	0.097	-0.276
-522.975	8.479	0.571	-0.431
-521.960	-200.000	-0.182	-1.015
-520.945	-181.141	0.120	-0.002
-519.931	800.000	0.028	0.095
-518.916	37.362	0.275	-0.244
-517.902	800.000	0.186	0.553
-516.887	800.000	0.297	-1.067
-515.872	103.253	-0.445	-0.524
-514.858	210.739	0.275	-0.434
-513.843	-200.000	0.060	0.473
-512.829	2.563	0.521	0.379
-511.814	110.694	-0.088	0.106
-510.799	-128.844	-0.336	0.047
-509.785	-100.759	-0.390	-0.096
-508.770	227.166	-0.148	0.241
-507.756	163.431	0.448	-0.632
-506.741	-59.910	-0.934	0.401
-505.726	-124.247	-0.175	-0.027
-504.712	143.747	0.406	0.542
-503.697	-127.532	0.628	0.091
-502.683	-144.644	0.113	-0.010
-501.668	-183.237	0.329	-0.006
-500.653	800.000	-0.238	-0.724
-499.639	498.536	0.034	0.078
-498.624	-31.533	0.261	0.147
-497.610	800.000	0.223	-0.635
-496.595	-49.478	-0.375	0.179
-495.581	-200.000	-0.178	-0.894
-494.566	58.774	-0.275	0.271
-493.551	-35.997	-0.219	-0.119
-492.537	-147.084	0.493	0.042
-491.522	-127.383	0.683	0.100
-490.508	-200.000	0.135	0.850
-489.493	-11.373	0.925	0.610
-488.478	-5.995	0.211	0.145
-487.464	77.440	-0.127	0.136
-486.449	37.671	-0.459	-0.408
-485.435	21.920	0.414	-0.338
-484.420	46.580	0.479	-0.445
-483.405	-200.000	0.012	0.125
-482.391	-83.583	-0.498	0.160
-481.376	22.220	0.951	-0.778
-480.362	-168.697	-0.420	0.016
-479.347	-84.470	0.811	0.257
-478.332	-39.473	-0.448	0.235
-477.318	23.096	-0.267	0.219
-476.303	-200.000	0.004	-0.431
-475.289	-31.668	-0.628	0.353
-474.274	84.898	0.261	0.286
-473.259	800.000	-0.055	-0.161
-472.245	13.939	0.118	-0.092
-471.230	-127.213	0.559	-0.082
-470.216	-200.000	0.038	-0.236
-469.201	-200.000	-0.054	0.333
-468.186	-22.838	0.382	0.231
-467.172	-200.000	0.058	0.541
-466.157	-200.000	0.008	0.982
-465.143	-85.720	0.426	-0.132
-464.128	-167.096	0.297	-0.012
-463.113	-66.924	0.870	0.344
-462.099	102.686	0.350	-0.410
-461.084	-200.000	0.989	-0.001
-460.070	63.056	0.435	-0.436
-459.055	-86.648	-0.408	-0.125
-458.040	38.103	-0.672	-0.598
-457.026	47.661	0.373	0.348
-456.011	800.000	-0.063	-0.263
-454.997	35.845	0.678	-0.597
-453.982	-82.690	-0.244	-0.079
-452.968	262.554	-0.037	0.064
-451.953	386.695	0.162	0.334
-450.938	6.464	-0.236	-0.175
-449.924	138.651	-0.239	-0.314
-448.909	153.793	-0.247	-0.339
-447.895	-21.610	0.784	0.478
-446.880	-80.492	0.447	0.149
-445.865	263.256	-0.135	0.235
-444.851	-122.440	-0.134	0.022
-443.836	125.553	-0.422	-0.532
-442.822	151.095	0.344	-0.468
-441.807	-32.257	-0.326	0.182
-440.792	-117.087	0.474	0.086
-439.778	-32.311	0.517	-0.289
-438.763	-102.357	-0.777	-0.186
-437.749	128.224	0.303	-0.386
-436.734	232.742	-0.318	-0.523
-435.719	-17.755	0.424	0.266
-434.705	-100.318	0.384	-0.095
-433.690	43.118	-0.333	-0.304
-432.676	5.700	-0.629	-0.465
-431.661	-58.949	-0.465	-0.201
-430.646	-171.233	0.542	-0.018
-429.632	-123.043	0.127	-0.020
-428.617	108.682	-0.642	-0.767
-427.603	353.509	0.155	0.308
-426.588	69.930	-0.381	-0.393
-425.573	62.889	-0.506	0.506
-424.559	60.102	0.118	0.117
-423.544	-85.095	0.326	-0.102
-422.530	668.939	-0.157	0.407
-421.515	-132.689	-0.206	0.026
-420.500	-149.433	0.345	0.027
-419.486	14.189	0.442	-0.344
-418.471	291.168	0.166	-0.302
-417.457	-57.056	0.209	-0.092
-416.442	-141.966	0.379	-0.038
-415.428	555.259	0.166	-0.399
-414.413	-21.617	-0.149	-0.091
-413.398	67.884	0.339	0.347
-412.384	100.356	-0.507	-0.587
-411.369	84.802	-0.190	-0.208
-410.355	-168.727	-0.365	-0.014
-409.340	-200.000	0.157	1.032
-408.325	-21.655	-0.071	-0.043
-407.311	52.051	0.477	-0.454
-406.296	725.890	-0.092	0.246
-405.282	-175.539	-0.306	-0.008
-404.267	-200.000	0.066	-0.500
-403.252	-68.764	0.111	0.043
-402.238	-200.000	-0.015	0.692
-401.223	-44.613	0.236	0.118
-400.209	317.621	-0.365	-0.689
-399.194	60.042	0.391	-0.386
-398.179	800.000	-0.032	0.125
-397.165	800.000	-0.159	0.512
-396.150	800.000	0.089	-0.286
-395.136	-106.263	0.801	0.179
-394.121	100.993	-0.335	-0.389
-393.106	747.388	-0.122	-0.327
-392.092	-200.000	-0.043	-0.443
-391.077	-93.978	0.528	-0.145
-390.063	-200.000	0.100	0.592
-389.048	-103.468	0.813	-0.191
-388.033	-30.769	0.952	0.537
-387.019	-152.295	0.253	-0.018
-386.004	-99.217	0.231	-0.058
-384.990	-96.288	-0.486	0.128
-383.975	800.000	-0.120	0.353
-382.960	800.000	-0.079	0.290
-381.946	-121.826	-0.491	-0.081
-380.931	-128.280	-0.416	0.059
-379.917	183.853	-0.417	0.615
-378.902	-138.823	0.424	0.046
-377.888	132.122	0.434	0.558
-376.873	321.572	0.551	-1.046
-375.858	2.937	-0.243	0.176
-374.844	800.000	0.100	0.392
-373.829	-25.513	-0.667	-0.393
-372.815	-114.121	-0.056	-0.011
-371.800	-5.330	0.344	0.236
-370.785	-46.886	-0.290	-0.141
-369.771	320.224	0.260	-0.493
-368.756	-200.000	-0.736	-0.003
-367.742	264.419	0.532	-0.923
-366.727	800.000	-0.173	0.501
-365.712	221.748	0.107	0.171
-364.698	-95.685	0.702	0.187
-363.683	800.000	0.318	1.082
-362.669	53.074	-0.402	0.384
-361.654	87.233	0.183	0.201
-360.639	-106.732	0.920	0.204
-359.625	-15.727	0.299	0.190
-358.610	-200.000	-0.063	1.589
-357.596	-158.149	0.501	0.029
-356.581	-35.654	-0.482	-0.260
-355.566	33.476	0.259	-0.225
-354.552	-200.000	-0.231	-1.072
-353.537	138.124	-0.582	-0.761
-352.523	318.183	0.253	0.478
-351.508	198.961	0.355	0.542
-350.493	131.832	0.288	0.369
-349.479	-75.461	0.849	-0.301
-348.464	41.276	0.451	-0.406
-347.450	-200.000	-0.135	-0.761
-346.435	258.108	-0.421	0.723
-345.420	419.115	0.371	-0.792
-344.406	131.456	0.133	-0.170
-343.391	-124.278	-0.661	0.103
-342.377	9.658	-0.233	-0.176
-341.362	-200.000	-0.205	-1.007
-340.348	-140.673	0.467	-0.048
-339.333	60.869	-0.358	0.354
-338.318	327.128	-0.307	-0.586
-337.304	-96.713	-0.878	-0.230
-336.289	59.254	0.230	-0.226
-335.275	-200.000	0.031	-0.149
-334.260	45.448	-0.129	-0.118
-333.245	249.002	-0.354	0.596
-332.231	-85.263	0.562	-0.175
-331.216	116.024	0.499	0.608
-330.202	800.000	0.129	-0.452
-329.187	8.647	-0.355	0.267
-328.172	800.000	-0.260	1.091
-327.158	377.461	-0.549	1.118
-326.143	-118.452	-0.206	-0.036
-325.129	-162.370	-0.722	-0.036
-324.114	-52.229	-0.243	-0.112
-323.099	10.773	0.278	0.211
-322.085	19.917	-0.501	0.402
-321.070	-160.816	0.178	0.009
-320.056	-200.000	0.131	-0.782
-319.041	405.469	-0.056	0.119
-318.026	-87.801	0.265	-0.080
-317.012	19.133	0.695	-0.555
-315.997	226.674	-0.239	0.386
-314.983	133.091	0.241	0.310
-313.968	190.870	0.070	-0.105
-312.953	391.599	-0.290	-0.598
-311.939	152.413	-0.393	0.534
-310.924	-130.168	-0.729	-0.099
-309.910	-200.000	0.058	0.296
-308.895	-2.662	0.518	0.361
-307.880	800.000	0.139	-0.425
-306.866	-40.467	0.669	0.346
-305.851	-74.201	-0.197	-0.071
-304.837	800.000	0.191	-0.827
-303.822	20.217	0.082	-0.066
-302.807	-200.000	0.013	-0.064
-301.793	-149.776	-0.377	-0.029
-300.778	132.264	-0.369	-0.473
-299.764	-57.778	-0.295	0.128
-298.749	-23.897	-0.379	0.226
-297.735	54.573	-0.155	0.149
-296.720	17.062	-0.495	0.390
-295.705	-134.430	0.793	0.097
-294.691	8.564	-0.136	-0.102
-293.676	800.000	-0.065	0.215
-292.662	288.157	-0.303	-0.545
-291.647	-200.000	-0.089	-0.548
-290.632	800.000	0.327	1.115
-289.618	88.500	-0.627	0.692
-288.603	-200.000	-0.085	0.692
-287.589	-147.647	-0.157	-0.013
-286.574	-178.181	0.504	-0.012
-285.559	-200.000	0.160	-0.857
-284.545	-200.000	-0.079	0.412
-283.530	186.081	-0.071	0.105
-282.516	26.292	-0.061	-0.051
-281.501	800.000	-0.044	-0.181
-280.486	-84.655	0.829	-0.259
-279.472	-200.000	0.081	-0.924
-278.457	-200.000	-0.075	0.508
-277.443	60.387	0.338	0.332
-276.428	800.000	0.130	0.529
-275.413	-200.000	0.074	-0.561
-274.399	-150.414	0.169	-0.013
-273.384	97.992	-0.453	-0.518
-272.370	-61.013	0.439	0.184
-271.355	-81.855	0.148	0.048
-270.340	-56.744	0.796	-0.350
-269.326	-72.904	-0.198	0.072
-268.311	133.618	0.275	-0.354
-267.297	800.000	-0.144	0.604
-266.282	36.904	-0.200	0.176
-265.267	-120.399	-1.057	0.179
-264.253	-13.552	-0.360	0.232
-263.238	170.270	0.491	-0.698
-262.224	-200.000	-0.096	-0.428
-261.209	-6.222	0.410	-0.278
-260.195	-14.295	0.300	0.192
-259.180	-200.000	-0.076	0.404
-258.165	-107.185	0.617	-0.135
-257.151	530.183	0.149	0.350
-256.136	800.000	0.427	1.256
-255.122	-200.000	-0.092	-0.443
-254.107	-121.212	0.248	-0.041
-253.092	1.668	-0.531	-0.379
-252.078	-38.169	0.091	0.048
-251.063	90.243	0.243	0.270
-250.049	-93.732	0.598	0.164
-249.034	378.961	-0.316	0.643
-248.019	85.042	-0.238	0.259
-247.005	-73.437	-0.333	0.121
-245.990	-200.000	-0.019	-0.633
-244.976	-102.745	-0.585	-0.138
-243.961	97.506	0.627	0.715
-242.946	90.102	-0.504	0.559
-241.932	208.563	0.482	0.749
-240.917	143.571	0.070	-0.093
-239.903	-114.228	-0.467	0.089
-238.888	233.615	-0.328	-0.536
-237.873	21.032	-0.395	-0.318
-236.859	-142.096	1.025	0.101
-235.844	160.346	-0.412	0.570
-234.830	603.534	-0.341	0.842
-233.815	420.095	-0.200	-0.425
-232.800	800.000	-0.138	-0.543
-231.786	43.938	0.162	-0.147
-230.771	52.323	0.250	0.237
-229.757	16.850	-0.482	0.378
-228.742	20.250	-0.556	0.445
-227.727	436.614	0.146	0.316
-226.713	-122.976	0.609	0.097
-225.698	-171.960	-0.300	0.010
-224.684	-65.675	0.473	-0.188
-223.669	-116.922	-0.368	0.067
-222.655	800.000	0.087	0.244
-221.640	-136.144	0.148	0.017
-220.625	31.413	-0.389	-0.332
-219.611	14.382	-0.350	0.270
-218.596	11.748	-0.380	-0.289
-217.582	32.687	0.273	0.234
-216.567	115.371	0.411	-0.498
-215.552	-200.000	-0.101	-0.939
-214.538	-20.867	0.127	-0.077
-213.523	328.064	-0.359	-0.684
-212.509	7.072	-0.530	-0.392
-211.494	-142.388	-0.474	0.046
-210.479	121.835	-0.084	0.104
-209.465	-94.000	0.992	-0.270
-208.450	379.338	0.301	0.612
-207.436	-54.602	0.453	0.203
-206.421	-200.000	-0.009	-0.279
-205.406	-20.639	1.170	-0.712
-204.392	-165.007	0.074	0.003
-203.377	149.824	-0.059	0.079
-202.363	161.390	0.538	0.745
-201.348	153.533	-0.262	-0.355
-200.333	-200.000	0.020	0.226
-199.319	-82.469	-0.654	0.210
-198.304	-43.004	-0.601	0.302
-197.290	800.000	-0.342	0.938
-196.275	-146.686	0.220	-0.019
-195.260	-154.769	1.350	-0.089
-194.246	-40.326	-0.664	-0.342
-193.231	66.280	-0.327	0.329
-192.217	130.332	-0.277	-0.351
-191.202	12.010	-0.343	-0.261
-190.187	-108.876	-0.061	0.013
-189.173	203.772	-0.273	-0.418
-188.158	-152.710	0.644	-0.045
-187.144	25.419	-0.238	-0.196
-186.129	-200.000	0.189	-1.129
-185.114	-12.983	-0.671	0.432
-184.100	800.000	0.164	0.499
-183.085	-200.000	0.081	1.102
-182.071	-135.010	0.368	-0.044
-181.056	178.004	-0.277	-0.400
-180.042	233.425	-0.118	-0.192
-179.027	246.470	-0.191	0.319
-178.012	60.685	-0.201	-0.197
-176.998	116.307	-0.358	0.435
-175.983	-48.588	0.505	0.240
-174.969	170.294	-0.615	0.871
-173.954	770.480	-0.180	-0.485
-172.939	667.032	-0.171	-0.436
-171.925	118.114	-0.058	-0.071
-170.910	800.000	-0.119	0.350
-169.896	200.179	0.170	-0.259
-168.881	64.969	-0.583	-0.583
-167.866	-128.530	-0.369	0.052
-166.852	-58.158	-0.566	-0.244
-165.837	4.703	-0.563	0.409
-164.823	-141.211	0.120	0.012
-163.808	-19.712	-0.633	0.387
-162.793	-200.000	0.028	0.192
-161.779	336.368	0.645	1.239
-160.764	-119.481	-0.403	0.069
-159.750	38.475	0.301	0.266
-158.735	50.228	-0.514	-0.480
-157.720	-200.000	-0.048	0.304
-156.706	66.017	0.399	-0.400
-155.691	71.886	0.301	-0.309
-154.677	-200.000	-0.018	-0.876
-153.662	-200.000	0.005	-0.611
-152.647	-61.365	-0.443	0.184
-151.633	106.012	-0.174	0.204
-150.618	29.857	0.538	0.453
-149.604	-183.380	0.209	0.004
-148.589	281.897	0.117	-0.208
-147.574	-82.553	-0.561	0.180
-146.560	-163.877	0.480	-0.022
-145.545	499.669	-0.391	0.892
-144.531	86.064	-0.569	0.620
-143.516	-23.665	-0.416	0.246
-142.502	49.891	0.195	-0.182
-141.487	388.003	0.322	0.659
-140.472	-117.085	-0.292	0.053
-139.458	634.128	0.163	0.408
-138.443	-102.739	0.335	-0.079
-137.429	-200.000	-0.116	0.527
-136.414	315.001	0.445	-0.829
-135.399	223.501	-0.342	-0.546
-134.385	-200.000	0.043	0.281
-133.370	24.759	0.143	0.117
-132.356	-155.892	0.435	-0.027
-131.341	800.000	-0.164	0.457
-130.326	-200.000	0.089	1.741
-129.312	160.983	-0.232	0.320
-128.297	-16.151	0.286	-0.180
-127.283	93.485	0.157	-0.175
-126.268	-41.547	0.675	0.343
-125.253	-143.809	0.280	-0.026
-124.239	-29.344	0.416	-0.235
-123.224	-107.824	0.737	0.159
-122.210	-63.405	-0.486	0.197
-121.195	255.418	-0.183	0.309
