DTS Sentinel unit serial number:	SN413079Multiplexer serial number:	ORYXHardware model number:	OX4-SRSoftware version number:	ORYX F/W v4.00 Oryx Data Collector v3.7.2.0data status	okinstallation	princeton_trtdifferential loss correction	single-endedforward channel	channel 3reverse channel	N/Adate	2019/09/16time	01:08:35forward acquisition time	60.00reverse acquisition time	0.00gamma	496.2192k internal	0.2338k external	0.2338temperature offset calibration	0.9947default loss term (dB/km)	0.3790temperature slope calibration	1.0000multiplexer offset coefficient	1.0000multiplexer slope coefficient	1.0000fibre end	0.00T internal ref (°C)	27.30T ext. ref 1 (°C)	9.79T ext. ref 2 (°C)	21.64length (m)	temperature (°C)	Stokes	anti-Stokes-747.200	-39.303	0.212	-0.112
-746.185	-200.000	-0.036	0.207
-745.171	-139.119	-0.140	0.015
-744.156	-91.277	0.460	0.132
-743.142	-9.603	-0.500	0.334
-742.127	-200.000	-0.042	0.423
-741.112	-84.395	-0.194	-0.062
-740.098	405.631	-0.125	0.265
-739.083	-123.427	0.181	-0.029
-738.069	262.901	-0.113	-0.198
-737.054	-140.855	-0.221	-0.023
-736.039	-34.442	-0.373	-0.205
-735.025	715.436	-0.038	-0.102
-734.010	154.383	-0.114	-0.157
-732.996	151.256	-0.055	-0.075
-731.981	1.003	-0.205	0.147
-730.966	-73.254	-0.088	0.032
-729.952	-200.000	0.004	-0.208
-728.937	-200.000	-0.004	-0.280
-727.923	4.555	0.142	0.105
-726.908	-68.124	-0.146	0.057
-725.894	-29.190	-0.221	0.127
-724.879	-60.825	-0.196	-0.083
-723.864	-200.000	0.020	-0.317
-722.850	109.015	-0.318	-0.381
-721.835	-200.000	0.004	0.128
-720.821	100.486	0.047	0.054
-719.806	-24.530	-0.053	-0.032
-718.791	-200.000	0.035	-0.280
-717.777	134.802	-0.070	0.091
-716.762	-200.000	-0.005	0.153
-715.748	-99.119	-0.160	-0.041
-714.733	300.466	-0.188	-0.348
-713.718	-147.104	-0.225	0.019
-712.704	-9.524	0.059	-0.040
-711.689	358.232	0.091	0.182
-710.675	-158.319	0.289	-0.017
-709.660	-74.581	0.320	-0.115
-708.645	234.839	0.032	0.052
-707.631	-200.000	0.008	-0.157
-706.616	167.993	0.046	-0.065
-705.602	797.652	-0.058	0.160
-704.587	266.801	0.102	0.179
-703.572	-200.000	-0.036	0.286
-702.558	-13.526	-0.260	0.169
-701.543	800.000	0.153	0.424
-700.529	153.323	0.165	0.227
-699.514	-1.671	-0.053	-0.038
-698.499	-200.000	-0.041	-0.184
-697.485	103.765	0.070	-0.082
-696.470	-200.000	0.035	-0.197
-695.456	20.183	0.140	0.113
-694.441	-88.995	-0.176	-0.052
-693.426	-70.309	-0.209	0.079
-692.412	133.071	-0.070	-0.091
-691.397	393.473	-0.128	-0.266
-690.383	-103.510	0.227	-0.053
-689.368	-144.399	-0.253	0.024
-688.354	-200.000	0.001	-0.184
-687.339	800.000	-0.011	-0.045
-686.324	-13.212	-0.151	0.098
-685.310	-200.000	0.001	-0.364
-684.295	-64.103	-0.194	0.079
-683.281	-31.068	0.187	-0.106
-682.266	-157.594	-0.174	0.010
-681.251	-128.581	-0.300	-0.042
-680.237	-200.000	0.013	-0.287
-679.222	800.000	0.044	0.153
-678.208	609.798	-0.086	0.214
-677.193	200.782	-0.060	-0.093
-676.178	-49.539	0.194	0.092
-675.164	-49.918	0.311	0.148
-674.149	-88.113	-0.222	-0.067
-673.135	-170.454	0.283	0.010
-672.120	-146.836	0.699	0.060
-671.105	-67.886	0.094	-0.037
-670.091	538.510	0.140	-0.333
-669.076	-130.730	-0.302	0.041
-668.062	-94.022	0.250	0.069
-667.047	-104.214	-0.109	-0.025
-666.032	-54.553	-0.254	0.115
-665.018	-200.000	-0.014	-0.111
-664.003	146.060	-0.218	-0.292
-662.989	-108.831	0.091	0.020
-661.974	93.708	-0.155	-0.176
-660.959	133.856	-0.167	0.216
-659.945	100.289	-0.152	-0.176
-658.930	-85.644	0.016	-0.005
-657.916	232.411	-0.146	0.239
-656.901	80.547	-0.171	-0.185
-655.886	-200.000	-0.049	0.338
-654.872	118.104	-0.174	0.215
-653.857	183.987	0.157	-0.232
-652.843	1.411	0.176	-0.126
-651.828	800.000	-0.018	-0.076
-650.814	-200.000	-0.008	0.344
-649.799	-200.000	0.021	-0.193
-648.784	377.756	0.126	-0.257
-647.770	-149.690	-0.446	0.035
-646.755	-200.000	-0.067	-0.403
-645.741	-60.971	-0.401	-0.170
-644.726	-150.337	0.227	0.017
-643.711	800.000	0.086	0.320
-642.697	-200.000	-0.027	0.459
-641.682	-49.214	0.201	0.096
-640.668	-1.069	-0.127	-0.090
-639.653	-92.076	-0.111	-0.031
-638.638	-67.222	0.099	-0.039
-637.624	-34.409	-0.145	0.080
-636.609	70.685	-0.056	0.058
-635.595	-110.613	0.354	-0.073
-634.580	-18.819	0.241	-0.150
-633.565	-50.475	0.356	0.168
-632.551	66.257	0.038	0.038
-631.536	670.940	0.040	0.102
-630.522	-83.988	0.210	0.067
-629.507	-200.000	0.013	-0.244
-628.492	213.580	0.144	-0.227
-627.478	-79.863	-0.214	0.072
-626.463	-86.949	0.166	0.051
-625.449	66.817	-0.377	-0.383
-624.434	-130.126	0.088	-0.012
-623.419	438.176	-0.142	0.308
-622.405	431.664	-0.246	0.532
-621.390	800.000	-0.049	0.167
-620.376	211.333	0.147	-0.231
-619.361	-80.619	-0.263	0.088
-618.346	-49.693	-0.243	-0.115
-617.332	207.307	-0.131	0.204
-616.317	800.000	0.016	-0.051
-615.303	-179.563	-0.159	0.003
-614.288	-36.091	-0.139	0.075
-613.273	-59.542	0.179	-0.077
-612.259	74.122	0.160	0.168
-611.244	800.000	0.075	0.216
-610.230	66.868	-0.103	-0.105
-609.215	9.590	-0.294	-0.222
-608.201	198.533	-0.062	-0.095
-607.186	-86.656	-0.432	0.132
-606.171	800.000	0.073	0.242
-605.157	-82.567	0.056	-0.018
-604.142	-37.891	-0.242	0.129
-603.128	239.798	0.053	-0.087
-602.113	-89.807	0.243	0.071
-601.098	307.380	-0.111	-0.206
-600.084	-65.669	0.116	0.046
-599.069	-122.118	-0.390	-0.064
-598.055	-76.030	0.464	-0.164
-597.040	71.002	0.029	0.030
-596.025	-6.740	-0.106	-0.072
-595.011	129.026	-0.081	-0.103
-593.996	408.758	-0.030	-0.063
-592.982	-98.730	0.153	0.039
-591.967	-20.176	-0.207	-0.127
-590.952	437.521	0.118	0.257
-589.938	-69.891	0.093	0.035
-588.923	-200.000	-0.038	0.294
-587.909	411.670	-0.104	0.220
-586.894	589.549	0.131	-0.322
-585.879	-100.386	0.065	0.016
-584.865	-74.156	0.088	-0.032
-583.850	-4.779	-0.303	0.208
-582.836	596.886	0.049	-0.120
-581.821	-172.304	0.327	-0.010
-580.806	125.407	0.103	0.129
-579.792	286.701	0.002	-0.004
-578.777	-25.242	0.280	0.165
-577.763	-98.563	0.134	-0.034
-576.748	-149.830	-0.178	-0.014
-575.733	39.139	-0.232	-0.207
-574.719	800.000	0.049	-0.185
-573.704	194.165	-0.172	-0.260
-572.690	-200.000	-0.055	-0.379
-571.675	-200.000	-0.033	0.181
-570.661	271.846	0.075	-0.132
-569.646	266.067	-0.163	-0.284
-568.631	-200.000	0.024	0.225
-567.617	-135.863	0.117	0.014
-566.602	-115.263	-0.139	-0.026
-565.588	-39.260	0.231	-0.121
-564.573	163.843	0.065	0.091
-563.558	800.000	0.029	0.082
-562.544	-22.188	-0.152	-0.092
-561.529	-44.112	-0.386	0.193
-560.515	543.551	-0.037	-0.089
-559.500	35.574	0.106	-0.093
-558.485	104.142	0.237	0.278
-557.471	-80.829	0.046	-0.015
-556.456	-200.000	0.037	-0.230
-555.442	65.697	-0.022	-0.022
-554.427	112.540	-0.076	0.092
-553.412	-28.302	0.147	-0.084
-552.398	-37.687	-0.198	-0.105
-551.383	-200.000	-0.014	0.092
-550.369	-70.006	0.240	-0.091
-549.354	-200.000	0.040	0.305
-548.339	-195.531	0.134	-0.001
-547.325	800.000	-0.070	-0.220
-546.310	-200.000	-0.018	0.156
-545.296	44.652	0.193	-0.176
-544.281	-110.274	-0.414	-0.086
-543.266	-200.000	-0.025	0.153
-542.252	-99.145	-0.063	-0.016
-541.237	-200.000	0.008	0.409
-540.223	265.453	-0.073	0.127
-539.208	788.001	0.104	-0.283
-538.193	-141.414	0.366	-0.037
-537.179	-111.162	0.038	0.008
-536.164	141.555	-0.102	0.134
-535.150	459.357	0.027	0.060
-534.135	140.464	-0.145	0.191
-533.121	789.711	0.012	-0.034
-532.106	800.000	0.062	0.182
-531.091	-115.922	-0.255	-0.047
-530.077	20.051	0.434	0.348
-529.062	294.387	0.086	0.157
-528.048	-200.000	0.033	0.174
-527.033	-123.314	0.191	-0.030
-526.018	99.704	0.030	-0.035
-525.004	18.281	0.347	-0.276
-523.989	37.700	0.154	0.136
-522.975	100.635	-0.149	-0.172
-521.960	-84.918	-0.076	-0.024
-520.945	-183.350	0.169	0.003
-519.931	19.785	0.147	-0.118
-518.916	26.844	0.099	-0.082
-517.902	16.473	-0.219	0.172
-516.887	157.281	-0.087	-0.120
-515.872	-40.334	0.048	0.025
-514.858	131.547	-0.098	-0.125
-513.843	-200.000	-0.105	0.001
-512.829	122.388	-0.043	-0.053
-511.814	-133.293	-0.144	0.018
-510.799	-124.109	0.118	-0.018
-509.785	-41.335	-0.466	-0.239
-508.770	800.000	-0.075	-0.235
-507.756	800.000	-0.111	-0.362
-506.741	-119.443	-0.070	0.012
-505.726	-154.769	0.132	0.009
-504.712	-87.194	-0.123	0.037
-503.697	228.760	-0.022	0.036
-502.683	-45.948	0.205	-0.100
-501.668	697.488	0.029	0.076
-500.653	-99.567	-0.097	0.024
-499.639	3.889	-0.154	0.112
-498.624	-31.239	-0.075	0.042
-497.610	800.000	-0.014	-0.040
-496.595	-6.139	0.033	0.022
-495.581	800.000	0.060	-0.193
-494.566	-68.636	0.316	-0.122
-493.551	27.360	0.294	0.246
-492.537	154.429	-0.113	-0.154
-491.522	171.359	0.150	0.214
-490.508	-200.000	0.019	-0.144
-489.493	-101.926	-0.251	-0.060
-488.478	12.079	0.310	0.237
-487.464	223.899	-0.110	0.177
-486.449	12.099	-0.277	0.212
-485.435	800.000	0.135	0.432
-484.420	70.379	-0.173	0.177
-483.405	15.359	-0.153	0.119
-482.391	-42.306	0.128	-0.065
-481.376	-200.000	0.034	-0.261
-480.362	108.943	-0.180	-0.214
-479.347	-63.674	0.158	-0.064
-478.332	86.978	-0.187	0.205
-477.318	-200.000	-0.005	0.194
-476.303	-41.469	-0.188	0.096
-475.289	-102.264	0.505	0.120
-474.274	-12.921	-0.230	-0.149
-473.259	8.081	0.164	0.122
-472.245	-200.000	0.057	-0.499
-471.230	-58.477	-0.055	-0.024
-470.216	800.000	0.019	0.067
-469.201	-69.467	-0.135	-0.051
-468.186	-89.460	0.550	-0.161
-467.172	202.114	-0.179	-0.274
-466.157	66.379	0.170	0.171
-465.143	107.195	0.105	-0.123
-464.128	-200.000	-0.012	0.220
-463.113	557.296	-0.079	-0.189
-462.099	-65.477	0.224	-0.089
-461.084	-110.994	-0.238	-0.048
-460.070	435.443	-0.079	-0.171
-459.055	-41.352	-0.403	0.206
-458.040	84.955	-0.164	0.179
-457.026	-165.988	-0.268	-0.011
-456.011	245.175	0.112	-0.186
-454.997	63.369	-0.053	0.052
-453.982	-163.072	-0.038	-0.002
-452.968	-191.696	-0.175	-0.002
-451.953	132.749	0.098	-0.125
-450.938	-10.657	0.169	0.111
-449.924	-76.101	-0.273	-0.096
-448.909	-200.000	-0.050	-0.364
-447.895	51.555	-0.202	0.191
-446.880	-37.325	-0.373	0.198
-445.865	-200.000	0.011	0.245
-444.851	-131.086	0.305	0.040
-443.836	-48.777	-0.060	-0.029
-442.822	233.767	-0.088	0.144
-441.807	84.822	0.133	0.145
-440.792	47.242	0.045	0.042
-439.778	-200.000	0.013	-0.185
-438.763	-200.000	-0.000	-0.135
-437.749	-68.370	0.201	0.077
-436.734	-157.070	-0.310	0.019
-435.719	109.916	0.184	-0.219
-434.705	-117.602	-0.277	0.050
-433.690	72.118	0.172	-0.178
-432.676	-200.000	-0.004	0.186
-431.661	-200.000	-0.020	0.266
-430.646	57.980	-0.234	-0.227
-429.632	800.000	0.054	-0.171
-428.617	-122.591	-0.037	-0.006
-427.603	9.474	-0.320	-0.240
-426.588	-200.000	-0.003	0.356
-425.573	-143.605	0.310	-0.029
-424.559	72.719	-0.171	-0.177
-423.544	120.881	0.171	0.211
-422.530	-120.111	0.181	0.031
-421.515	-40.694	-0.158	0.081
-420.500	-200.000	-0.008	-0.189
-419.486	-100.342	-0.120	0.029
-418.471	-33.005	0.416	0.229
-417.457	-139.250	-0.226	0.024
-416.442	-200.000	-0.060	-0.414
-415.428	60.107	-0.186	0.182
-414.413	-107.311	0.364	-0.079
-413.398	-116.576	0.274	0.050
-412.384	-89.442	-0.218	-0.064
-411.369	-69.968	0.209	0.079
-410.355	-145.493	0.294	-0.026
-409.340	-200.000	0.031	0.154
-408.325	-125.533	0.269	0.041
-407.311	-32.551	0.058	-0.032
-406.296	-122.428	0.272	0.044
-405.282	-25.917	-0.104	0.061
-404.267	378.156	0.147	0.297
-403.252	127.305	-0.191	-0.240
-402.238	800.000	0.074	-0.215
-401.223	101.154	-0.128	-0.147
-400.209	-54.528	0.296	-0.133
-399.194	800.000	-0.036	0.136
-398.179	80.985	-0.140	-0.149
-397.165	-200.000	-0.048	-0.438
-396.150	335.154	0.067	-0.129
-395.136	89.021	0.181	-0.199
-394.121	-57.589	0.047	-0.020
-393.106	-200.000	-0.017	0.112
-392.092	-91.438	-0.150	-0.043
-391.077	-40.565	-0.147	0.075
-390.063	800.000	0.036	-0.120
-389.048	800.000	-0.053	-0.188
-388.033	-170.917	-0.235	-0.008
-387.019	142.043	-0.187	0.246
-386.004	-163.623	-0.309	0.014
-384.990	462.429	-0.092	0.203
-383.975	-200.000	-0.050	0.234
-382.960	-21.060	0.275	-0.167
-381.946	-200.000	-0.078	0.408
-380.931	480.710	0.052	-0.117
-379.917	-41.138	-0.084	-0.043
-378.902	405.994	-0.121	0.252
-377.888	-121.733	0.254	-0.042
-376.873	800.000	0.067	-0.244
-375.858	-98.544	0.200	-0.051
-374.844	-132.483	-0.286	0.036
-373.829	88.518	0.193	-0.212
-372.815	-200.000	-0.042	-0.212
-371.800	800.000	0.062	0.253
-370.785	-200.000	0.011	0.179
-369.771	800.000	0.136	0.511
-368.756	800.000	-0.032	0.105
-367.742	181.742	0.047	0.069
-366.727	375.977	-0.021	-0.043
-365.712	33.290	0.071	-0.061
-364.698	-192.899	-0.385	-0.003
-363.683	-42.736	-0.532	0.267
-362.669	800.000	0.066	0.218
-361.654	800.000	0.070	-0.226
-360.639	-196.781	-0.336	0.002
-359.625	229.510	-0.238	0.384
-358.610	581.857	-0.114	-0.276
-357.596	691.011	-0.024	-0.063
-356.581	-62.905	0.141	-0.058
-355.566	-78.635	0.262	0.089
-354.552	78.938	0.157	-0.166
-353.537	-90.791	0.099	0.028
-352.523	294.078	-0.086	-0.156
-351.508	800.000	-0.049	-0.143
-350.493	203.986	0.094	0.144
-349.479	82.042	-0.169	-0.181
-348.464	773.042	0.125	-0.336
-347.450	-30.007	0.124	-0.070
-346.435	-200.000	0.012	0.115
-345.420	44.418	-0.048	0.043
-344.406	-98.198	-0.265	0.067
-343.391	181.832	0.014	0.020
-342.377	-18.663	-0.216	0.133
-341.362	379.603	0.082	-0.166
-340.348	-200.000	-0.022	-0.222
-339.333	-200.000	0.004	-0.222
-338.318	-82.595	0.367	-0.118
-337.304	-65.782	0.301	-0.119
-336.289	24.466	-0.249	0.204
-335.275	-65.130	-0.092	0.037
-334.260	-115.105	0.341	-0.064
-333.245	-58.344	-0.296	-0.127
-332.231	196.760	-0.073	-0.110
-331.216	800.000	-0.044	0.158
-330.202	-200.000	0.042	0.198
-329.187	116.977	-0.085	-0.104
-328.172	800.000	0.109	0.307
-327.158	-200.000	0.036	0.348
-326.143	118.142	0.041	-0.050
-325.129	-100.992	0.358	0.087
-324.114	-50.113	0.140	0.066
-323.099	394.894	0.146	0.301
-322.085	68.484	-0.336	0.340
-321.070	-200.000	-0.010	-0.286
-320.056	-122.785	0.147	-0.023
-319.041	-169.524	-0.228	0.008
-318.026	47.723	-0.080	-0.074
-317.012	30.133	0.044	0.037
-315.997	94.770	-0.150	-0.168
-314.983	-200.000	0.010	-0.410
-313.968	-200.000	-0.006	-0.094
-312.953	-96.986	-0.232	-0.060
-311.939	-51.117	-0.242	-0.112
-310.924	507.849	0.011	0.024
-309.910	-118.203	0.142	-0.025
-308.895	-61.353	0.298	-0.124
-307.880	-105.353	-0.303	0.068
-306.866	191.860	-0.069	-0.103
-305.851	599.622	-0.055	-0.135
-304.837	10.555	0.227	0.171
-303.822	47.941	-0.098	0.091
-302.807	-200.000	0.013	-0.092
-301.793	103.674	-0.092	0.106
-300.778	21.950	0.233	0.187
-299.764	457.377	-0.225	0.493
-298.749	13.560	0.121	0.093
-297.735	651.604	0.048	0.121
-296.720	29.283	-0.223	-0.187
-295.705	800.000	-0.011	0.043
-294.691	49.959	0.081	-0.075
-293.676	-45.287	0.313	-0.153
-292.662	13.695	0.347	-0.265
-291.647	-112.715	-0.271	0.053
-290.632	44.101	-0.357	-0.323
-289.618	376.688	-0.076	-0.153
-288.603	-16.672	-0.172	-0.107
-287.589	-200.000	0.004	0.544
-286.574	10.173	-0.058	0.043
-285.559	-57.047	0.163	0.071
-284.545	-200.000	0.277	-0.001
-283.530	124.490	0.233	-0.288
-282.516	179.053	-0.059	0.085
-281.501	395.477	0.084	0.173
-280.486	252.813	0.135	0.227
-279.472	-148.304	0.269	-0.022
-278.457	-48.410	0.264	-0.125
-277.443	-162.368	-0.276	-0.014
-276.428	-200.000	0.006	-0.083
-275.413	-200.000	-0.029	0.209
-274.399	-153.621	-0.176	-0.012
-273.384	-54.326	-0.259	0.116
-272.370	138.713	0.166	0.215
-271.355	800.000	0.097	0.406
-270.340	725.262	-0.065	-0.169
-269.326	-8.095	-0.290	0.193
-268.311	-90.260	0.196	-0.056
-267.297	151.176	-0.065	0.087
-266.282	800.000	-0.112	-0.311
-265.267	262.182	0.105	-0.179
-264.253	445.027	0.097	0.209
-263.238	800.000	0.034	-0.104
-262.224	-200.000	0.004	-0.241
-261.209	-144.416	0.177	-0.016
-260.195	249.170	-0.065	0.108
-259.180	395.215	-0.095	0.195
-258.165	-182.776	-0.072	-0.001
-257.151	467.517	0.097	-0.213
-256.136	-139.710	0.261	0.027
-255.122	-137.753	0.227	-0.025
-254.107	271.307	0.111	0.192
-253.092	800.000	-0.071	-0.259
-252.078	-200.000	-0.031	-0.402
-251.063	-52.538	0.210	-0.095
-250.049	-200.000	0.087	0.384
-249.034	-129.744	0.140	0.019
-248.019	-136.653	-0.292	-0.033
-247.005	-106.509	0.256	-0.056
-245.990	-75.543	-0.389	0.136
-244.976	224.999	0.206	0.328
-243.961	46.222	0.114	-0.104
-242.946	65.579	0.154	-0.154
-241.932	-200.000	-0.049	-0.240
-240.917	-200.000	0.004	0.160
-239.903	-54.402	-0.069	-0.031
-238.888	-74.106	0.296	-0.105
-237.873	171.409	-0.070	-0.099
-236.859	202.377	-0.196	-0.298
-235.844	-192.121	0.198	-0.002
-234.830	117.180	-0.155	-0.187
-233.815	800.000	-0.078	-0.301
-232.800	-30.849	-0.355	-0.197
-231.786	36.463	-0.403	-0.350
-230.771	-43.553	0.292	0.145
-229.757	190.005	-0.146	-0.215
-228.742	-19.455	-0.236	-0.144
-227.727	27.096	0.047	-0.039
-226.713	-96.009	-0.195	0.051
-225.698	-120.675	0.302	0.050
-224.684	115.439	-0.079	-0.095
-223.669	-141.482	0.072	0.007
-222.655	44.144	0.267	0.241
-221.640	6.157	0.137	-0.100
-220.625	116.045	-0.112	0.135
-219.611	49.512	-0.313	-0.290
-218.596	-118.654	0.172	0.030
-217.582	800.000	-0.026	-0.103
-216.567	289.992	0.113	0.202
-215.552	121.389	-0.120	0.147
-214.538	699.138	-0.046	-0.120
-213.523	-136.903	0.308	0.035
-212.509	341.631	0.220	-0.422
-211.494	233.209	0.044	0.071
-210.479	39.758	0.172	-0.151
-209.465	210.046	0.084	0.130
-208.450	-105.040	-0.026	0.006
-207.436	-26.186	0.203	0.117
-206.421	-125.716	-0.224	0.033
-205.406	95.324	0.267	0.299
-204.392	137.223	0.090	-0.116
-203.377	380.923	0.130	0.263
-202.363	-27.745	-0.315	-0.179
-201.348	-37.497	0.168	-0.088
-200.333	800.000	0.052	0.157
-199.319	178.016	-0.175	0.251
-198.304	-31.483	-0.324	0.179
-197.290	-200.000	0.014	-0.083
-196.275	-142.233	-0.290	-0.028
-195.260	-200.000	0.051	-0.245
-194.246	202.757	0.089	-0.135
-193.231	-200.000	-0.050	0.233
-192.217	-200.000	-0.005	0.280
-191.202	-21.684	0.274	0.164
-190.187	-200.000	-0.005	0.207
-189.173	498.506	-0.028	0.064
-188.158	-166.789	-0.217	-0.009
-187.144	-117.926	-0.488	-0.086
-186.129	80.012	0.208	0.220
-185.114	250.213	0.129	-0.216
-184.100	434.221	-0.054	0.114
-183.085	-64.106	-0.140	0.056
-182.071	215.738	-0.083	-0.130
-181.056	17.593	0.209	0.163
-180.042	23.848	0.281	0.227
-179.027	-98.661	0.209	-0.052
-178.012	128.330	0.150	0.188
-176.998	715.519	-0.090	-0.234
-175.983	-200.000	0.011	-0.178
-174.969	-9.033	-0.043	-0.029
-173.954	224.518	-0.216	0.343
-172.939	16.493	0.282	0.219
-171.925	-200.000	0.012	0.082
-170.910	-20.097	0.224	-0.136
-169.896	290.400	0.085	0.151
-168.881	104.140	-0.075	-0.086
-167.866	800.000	0.074	-0.301
-166.852	-41.142	-0.211	-0.107
-165.837	800.000	0.167	-0.537
-164.823	373.701	0.041	0.082
-163.808	353.489	-0.042	0.081
-162.793	-200.000	0.006	-0.083
-161.779	-50.072	-0.060	-0.028
-160.764	-200.000	0.050	-0.235
-159.750	-200.000	-0.057	0.417
-158.735	-153.488	-0.152	-0.010
-157.720	-190.018	0.146	0.002
-156.706	-200.000	-0.006	0.260
-155.691	29.984	-0.065	-0.054
-154.677	7.122	0.056	-0.041
-153.662	3.167	-0.300	0.214
-152.647	-26.965	0.311	0.178
-151.633	-178.923	-0.182	-0.004
-150.618	555.860	-0.090	0.212
-149.604	47.403	-0.180	0.165
-148.589	151.045	0.049	0.065
-147.574	73.253	0.338	0.347
-146.560	9.898	-0.204	0.152
-145.545	-74.062	0.177	0.063
-144.531	800.000	0.059	-0.190
-143.516	-200.000	0.015	0.144
-142.502	800.000	0.090	0.298
-141.487	-106.089	-0.280	-0.062
-140.472	-112.390	-0.173	0.034
-139.458	87.483	-0.295	-0.320
-138.443	-112.647	0.346	-0.067
-137.429	800.000	-0.056	0.213
-136.414	-200.000	-0.006	0.163
-135.399	137.515	0.083	0.107
-134.385	-137.014	0.305	0.034
-133.370	-130.999	-0.349	-0.046
-132.356	-48.610	-0.223	0.105
-131.341	800.000	-0.173	0.649
-130.326	371.556	-0.074	0.147
-129.312	57.890	-0.230	0.220
-128.297	56.125	0.071	0.067
-127.283	-2.723	-0.129	-0.088
-126.268	140.878	-0.192	-0.249
-125.253	-200.000	0.055	0.359
-124.239	800.000	-0.077	-0.232
-123.224	800.000	0.063	0.219
-122.210	-11.715	-0.392	-0.252
