DTS Sentinel unit serial number:	SN413079Multiplexer serial number:	ORYXHardware model number:	OX4-SRSoftware version number:	ORYX F/W v4.00 Oryx Data Collector v3.7.2.0data status	okinstallation	princeton_trtdifferential loss correction	single-endedforward channel	channel 3reverse channel	N/Adate	2019/09/16time	00:04:34forward acquisition time	60.00reverse acquisition time	0.00gamma	496.2192k internal	0.2336k external	0.2336temperature offset calibration	0.9950default loss term (dB/km)	0.3790temperature slope calibration	1.0000multiplexer offset coefficient	1.0000multiplexer slope coefficient	1.0000fibre end	0.00T internal ref (°C)	27.81T ext. ref 1 (°C)	9.40T ext. ref 2 (°C)	21.77length (m)	temperature (°C)	Stokes	anti-Stokes-747.200	568.758	-0.175	0.427
-746.185	-200.000	-0.003	0.488
-745.171	-200.000	0.027	0.486
-744.156	800.000	-0.030	-0.083
-743.142	-43.070	0.207	-0.105
-742.127	131.840	0.027	0.035
-741.112	-124.497	0.071	0.011
-740.098	-200.000	-0.048	0.319
-739.083	-200.000	-0.032	0.158
-738.069	-40.531	-0.340	-0.177
-737.054	61.049	-0.208	0.207
-736.039	-200.000	0.005	-0.119
-735.025	354.198	0.226	0.451
-734.010	273.099	-0.062	-0.110
-732.996	16.339	-0.212	-0.168
-731.981	-33.271	-0.129	0.071
-730.966	-200.000	-0.065	0.402
-729.952	-117.379	0.214	-0.039
-728.937	139.311	0.059	-0.078
-727.923	67.098	0.052	-0.053
-726.908	-200.000	0.023	-0.333
-725.894	707.046	0.058	0.154
-724.879	-47.869	0.219	-0.106
-723.864	304.928	0.175	-0.326
-722.850	31.545	-0.200	-0.173
-721.835	8.907	-0.247	-0.187
-720.821	389.149	-0.155	0.322
-719.806	-200.000	-0.041	-0.503
-718.791	800.000	-0.098	-0.381
-717.777	800.000	-0.033	0.136
-716.762	-200.000	-0.033	-0.302
-715.748	24.644	0.271	-0.225
-714.733	-39.186	-0.401	-0.211
-713.718	-61.132	-0.070	0.030
-712.704	-67.839	0.145	-0.057
-711.689	-18.647	0.314	-0.196
-710.675	12.339	-0.110	-0.085
-709.660	-75.220	-0.102	-0.036
-708.645	-98.714	0.100	-0.026
-707.631	15.528	0.158	0.125
-706.616	-133.304	-0.132	0.017
-705.602	-65.317	-0.004	0.002
-704.587	573.765	0.104	0.255
-703.572	231.564	-0.083	-0.136
-702.558	214.632	-0.078	-0.124
-701.543	469.313	-0.150	-0.338
-700.529	0.479	-0.090	0.065
-699.514	385.861	0.016	-0.034
-698.499	800.000	0.027	0.115
-697.485	37.072	-0.319	0.283
-696.470	154.479	0.076	-0.104
-695.456	369.242	-0.097	-0.197
-694.441	106.385	0.282	0.335
-693.426	-200.000	0.047	0.324
-692.412	86.711	-0.225	-0.249
-691.397	30.033	0.254	-0.217
-690.383	-200.000	-0.052	-0.361
-689.368	342.734	-0.044	0.087
-688.354	-194.176	-0.375	0.003
-687.339	-158.877	-0.207	-0.012
-686.324	-155.668	-0.290	0.019
-685.310	-200.000	0.020	-0.119
-684.295	-33.940	0.185	-0.102
-683.281	-124.649	-0.145	-0.022
-682.266	800.000	0.009	0.036
-681.251	-200.000	0.183	-0.000
-680.237	-16.921	-0.079	0.050
-679.222	-30.257	0.176	0.100
-678.208	-145.585	-0.158	0.014
-677.193	268.664	-0.052	-0.091
-676.178	390.998	-0.024	-0.051
-675.164	-75.788	-0.280	-0.099
-674.149	-200.000	-0.016	0.146
-673.135	-0.730	-0.426	-0.302
-672.120	-111.522	0.140	0.029
-671.105	271.925	-0.052	0.092
-670.091	-93.561	-0.072	0.020
-669.076	682.594	-0.064	0.168
-668.062	200.525	-0.214	-0.329
-667.047	-200.000	0.004	0.047
-666.032	161.482	-0.128	0.179
-665.018	-200.000	-0.012	0.053
-664.003	-58.021	0.080	-0.035
-662.989	288.204	0.025	0.045
-661.974	-48.993	-0.251	-0.120
-660.959	800.000	-0.122	-0.450
-659.945	-103.491	-0.232	-0.055
-658.930	-31.059	0.024	-0.013
-657.916	-65.795	-0.168	-0.067
-656.901	-200.000	0.032	0.161
-655.886	134.630	-0.084	0.110
-654.872	303.676	0.091	-0.170
-653.857	-96.652	-0.215	-0.057
-652.843	-94.932	-0.231	-0.063
-651.828	-200.000	-0.037	0.212
-650.814	-4.905	-0.062	-0.043
-649.799	49.237	0.156	0.147
-648.784	95.969	-0.163	-0.186
-647.770	-38.406	-0.133	0.071
-646.755	268.313	-0.183	-0.321
-645.741	-53.049	-0.176	0.081
-644.726	-200.000	-0.049	0.626
-643.711	-137.551	0.280	-0.032
-642.697	800.000	-0.099	0.310
-641.682	-158.386	-0.303	0.018
-640.668	52.617	0.149	0.143
-639.653	189.222	0.180	-0.269
-638.638	800.000	-0.033	-0.142
-637.624	595.841	0.138	-0.342
-636.609	-22.754	-0.292	-0.176
-635.595	155.602	-0.127	-0.175
-634.580	408.030	-0.104	0.221
-633.565	-91.986	-0.068	0.019
-632.551	134.009	0.083	0.107
-631.536	-138.512	0.477	0.052
-630.522	-200.000	0.024	0.283
-629.507	-92.797	0.305	0.085
-628.492	-104.061	0.266	-0.062
-627.478	800.000	0.072	-0.217
-626.463	740.134	0.071	-0.190
-625.449	47.482	0.063	-0.059
-624.434	149.473	-0.119	0.161
-623.419	-85.104	-0.292	-0.091
-622.405	90.818	0.210	0.235
-621.390	289.355	-0.107	-0.195
-620.376	-69.446	0.158	0.060
-619.361	-67.157	0.211	0.083
-618.346	431.248	-0.094	-0.204
-617.332	-110.998	0.115	0.024
-616.317	-188.733	-0.103	0.001
-615.303	162.699	0.141	-0.198
-614.288	232.694	0.133	0.217
-613.273	-200.000	0.004	-0.141
-612.259	108.886	0.105	0.126
-611.244	-200.000	0.010	0.242
-610.230	135.346	-0.106	-0.137
-609.215	-0.981	0.236	0.166
-608.201	-91.891	-0.082	-0.023
-607.186	-80.309	-0.112	-0.037
-606.171	800.000	0.076	-0.312
-605.157	-26.294	-0.089	0.052
-604.142	107.203	0.140	-0.167
-603.128	75.235	-0.137	0.144
-602.113	360.975	0.119	-0.239
-601.098	-55.486	0.219	-0.098
-600.084	25.021	0.142	-0.117
-599.069	800.000	0.098	-0.412
-598.055	314.731	-0.187	-0.352
-597.040	800.000	-0.076	-0.229
-596.025	-8.737	0.237	0.159
-595.011	134.091	0.159	-0.205
-593.996	280.288	0.167	0.298
-592.982	96.616	-0.114	-0.130
-591.967	-101.913	-0.287	-0.069
-590.952	-200.000	-0.008	0.182
-589.938	-79.500	-0.404	-0.136
-588.923	-54.142	0.094	0.043
-587.909	382.486	-0.160	-0.328
-586.894	-157.344	0.159	0.010
-585.879	800.000	0.101	0.290
-584.865	-94.802	-0.211	-0.057
-583.850	-138.611	-0.180	-0.020
-582.836	35.827	0.118	0.104
-581.821	57.271	-0.232	-0.226
-580.806	273.816	-0.079	0.140
-579.792	-173.884	0.143	0.004
-578.777	-43.640	-0.118	-0.060
-577.763	-200.000	-0.014	0.089
-576.748	288.084	-0.062	-0.112
-575.733	483.820	-0.053	0.121
-574.719	2.232	0.329	-0.237
-573.704	-180.340	-0.132	-0.003
-572.690	-200.000	0.016	0.127
-571.675	-101.020	0.128	-0.031
-570.661	-200.000	0.009	-0.105
-569.646	-103.387	0.527	-0.124
-568.631	239.331	-0.176	0.292
-567.617	15.247	0.111	0.087
-566.602	-200.000	-0.007	0.317
-565.588	-102.051	-0.025	0.006
-564.573	-200.000	0.003	-0.209
-563.558	-33.594	-0.322	0.177
-562.544	-78.631	-0.234	-0.080
-561.529	81.902	-0.234	-0.253
-560.515	-116.224	0.171	-0.032
-559.500	-99.656	-0.165	-0.041
-558.485	-150.784	-0.224	-0.017
-557.471	800.000	-0.132	-0.378
-556.456	800.000	-0.072	-0.287
-555.442	-200.000	-0.005	-0.063
-554.427	-153.245	0.210	0.015
-553.412	160.392	0.098	0.136
-552.398	-115.976	0.100	-0.019
-551.383	-123.210	-0.161	0.026
-550.369	-200.000	0.036	0.255
-549.354	-161.898	0.245	0.012
-548.339	-93.161	0.593	-0.164
-547.325	107.763	0.092	0.109
-546.310	120.487	0.071	0.088
-545.296	-119.691	0.336	-0.058
-544.281	-124.986	-0.425	-0.065
-543.266	-200.000	-0.027	0.207
-542.252	-200.000	0.061	-0.439
-541.237	127.768	0.283	-0.359
-540.223	138.782	0.212	0.278
-539.208	800.000	-0.015	0.056
-538.193	-95.068	0.156	-0.042
-537.179	594.119	0.071	0.174
-536.164	-100.468	-0.349	-0.086
-535.150	800.000	0.041	0.152
-534.135	-22.235	-0.027	0.016
-533.121	-173.169	-0.134	-0.004
-532.106	-98.759	-0.106	0.027
-531.091	-200.000	0.026	0.259
-530.077	-200.000	0.027	0.256
-529.062	-200.000	-0.000	-0.241
-528.048	-30.809	-0.165	0.093
-527.033	-200.000	-0.014	-0.272
-526.018	89.047	0.243	0.269
-525.004	-200.000	0.033	-0.153
-523.989	29.177	-0.185	-0.156
-522.975	-150.859	-0.113	-0.009
-521.960	-200.000	-0.005	0.144
-520.945	-155.306	-0.327	-0.021
-519.931	-106.818	-0.080	0.018
-518.916	-138.368	0.217	-0.024
-517.902	-98.943	0.236	-0.060
-516.887	-200.000	-0.009	0.171
-515.872	-174.709	-0.335	0.009
-514.858	166.296	0.061	0.086
-513.843	125.133	0.123	-0.154
-512.829	-200.000	-0.045	0.288
-511.814	-200.000	-0.025	-0.127
-510.799	23.716	-0.414	-0.339
-509.785	800.000	-0.127	-0.362
-508.770	653.240	-0.057	-0.145
-507.756	735.429	-0.041	0.110
-506.741	-118.603	-0.376	0.066
-505.726	89.135	-0.054	0.059
-504.712	-66.395	-0.145	0.057
-503.697	35.591	0.297	-0.259
-502.683	780.091	-0.138	-0.376
-501.668	190.131	-0.092	-0.138
-500.653	-79.147	-0.448	-0.151
-499.639	-60.450	0.386	0.163
-498.624	7.000	-0.100	-0.074
-497.610	136.924	0.009	-0.012
-496.595	-147.528	0.144	0.012
-495.581	-91.455	-0.176	-0.050
-494.566	-200.000	0.056	-0.285
-493.551	114.135	-0.074	-0.089
-492.537	183.039	-0.159	0.233
-491.522	-71.606	-0.190	-0.070
-490.508	307.731	-0.034	0.063
-489.493	316.302	-0.116	-0.218
-488.478	800.000	-0.044	-0.163
-487.464	-147.052	0.298	-0.025
-486.449	-191.445	-0.067	0.001
-485.435	-56.405	-0.165	0.073
-484.420	-47.646	-0.334	-0.161
-483.405	427.745	0.162	0.348
-482.391	-34.840	0.389	0.211
-481.376	208.640	-0.120	0.186
-480.362	-128.719	0.032	-0.005
-479.347	-67.848	-0.206	-0.080
-478.332	3.952	0.234	0.170
-477.318	16.790	-0.213	-0.168
-476.303	800.000	-0.119	-0.501
-475.289	-122.547	-0.070	-0.011
-474.274	-14.028	0.117	-0.075
-473.259	-88.690	0.383	0.113
-472.245	-154.715	0.069	-0.005
-471.230	-178.256	-0.151	0.004
-470.216	2.506	0.178	0.128
-469.201	24.119	0.159	-0.130
-468.186	-123.221	0.265	-0.042
-467.172	16.079	0.070	0.055
-466.157	800.000	-0.053	-0.185
-465.143	-200.000	-0.312	0.001
-464.128	-200.000	0.006	0.040
-463.113	-172.185	0.238	-0.008
-462.099	-27.340	0.341	-0.197
-461.084	-200.000	0.007	0.302
-460.070	-128.597	-0.127	-0.018
-459.055	-57.762	-0.220	-0.096
-458.040	800.000	0.035	0.133
-457.026	88.704	0.112	0.123
-456.011	-125.074	-0.342	0.052
-454.997	-200.000	0.015	0.075
-453.982	-188.072	0.250	-0.003
-452.968	-9.274	0.149	-0.099
-451.953	194.261	-0.123	0.185
-450.938	124.629	-0.063	-0.079
-449.924	-32.881	0.236	-0.130
-448.909	800.000	-0.025	-0.085
-447.895	800.000	-0.075	0.218
-446.880	-200.000	-0.033	0.218
-445.865	25.343	-0.424	-0.350
-444.851	-33.217	-0.070	-0.038
-443.836	-144.915	-0.154	0.014
-442.822	-200.000	-0.035	0.179
-441.807	133.731	0.126	-0.162
-440.792	211.911	0.220	0.344
-439.778	-59.801	-0.272	0.116
-438.763	221.089	-0.096	-0.153
-437.749	-200.000	0.001	-0.108
-436.734	-36.429	-0.101	0.054
-435.719	-16.179	-0.156	-0.098
-434.705	-154.538	-0.196	0.013
-433.690	-67.316	0.292	-0.114
-432.676	-77.687	-0.290	-0.100
-431.661	67.911	-0.215	-0.218
-430.646	800.000	0.044	0.121
-429.632	-30.253	0.153	-0.086
-428.617	77.336	0.098	0.104
-427.603	-73.000	-0.354	-0.129
-426.588	-36.893	-0.097	0.052
-425.573	-93.532	-0.060	-0.017
-424.559	-40.856	-0.202	-0.104
-423.544	-126.477	-0.124	-0.018
-422.530	-159.467	-0.235	0.013
-421.515	-124.756	0.335	-0.051
-420.500	-195.770	0.181	0.001
-419.486	-157.423	-0.093	0.006
-418.471	-105.225	-0.071	-0.016
-417.457	-200.000	-0.046	0.351
-416.442	-200.000	0.002	0.512
-415.428	455.480	0.133	0.292
-414.413	314.897	0.144	0.268
-413.398	-117.429	0.313	-0.056
-412.384	449.895	-0.128	0.281
-411.369	-106.494	0.174	0.038
-410.355	-59.463	-0.178	0.076
-409.340	12.889	0.084	-0.064
-408.325	220.560	0.120	0.191
-407.311	731.309	-0.148	-0.391
-406.296	-190.063	0.192	-0.002
-405.282	-52.521	-0.050	-0.023
-404.267	102.097	0.370	0.428
-403.252	-200.000	-0.028	-0.129
-402.238	27.038	0.209	-0.174
-401.223	-185.470	0.044	-0.001
-400.209	-54.147	0.131	0.059
-399.194	301.703	0.067	0.123
-398.179	-200.000	0.033	-0.268
-397.165	384.402	-0.104	-0.212
-396.150	-200.000	-0.059	-0.293
-395.136	-87.127	0.199	0.060
-394.121	605.308	0.081	-0.200
-393.106	196.651	-0.230	-0.347
-392.092	-200.000	0.007	0.360
-391.077	-32.124	0.054	-0.030
-390.063	-50.957	0.074	-0.034
-389.048	6.979	-0.036	-0.026
-388.033	182.355	-0.153	-0.224
-387.019	12.339	0.153	0.117
-386.004	-48.134	0.200	-0.096
-384.990	-200.000	-0.048	-0.334
-383.975	-25.886	0.150	0.087
-382.960	122.054	0.143	-0.177
-381.946	-77.402	-0.285	0.098
-380.931	432.449	-0.154	0.330
-379.917	99.422	0.043	-0.049
-378.902	800.000	0.067	0.183
-377.888	790.621	-0.104	-0.282
-376.873	164.123	-0.077	-0.108
-375.858	800.000	0.064	0.180
-374.844	-169.186	-0.281	-0.010
-373.829	89.822	0.027	-0.030
-372.815	-200.000	0.030	0.475
-371.800	162.143	0.168	0.233
-370.785	-39.099	-0.267	-0.139
-369.771	118.574	0.107	0.130
-368.756	133.522	0.259	-0.331
-367.742	-200.000	-0.081	0.379
-366.727	-118.016	-0.217	0.038
-365.712	800.000	0.027	0.092
-364.698	-149.161	0.119	0.009
-363.683	-135.271	-0.311	0.037
-362.669	-85.528	-0.116	0.036
-361.654	-200.000	-0.015	-0.179
-360.639	-200.000	-0.006	0.262
-359.625	-200.000	-0.022	-0.183
-358.610	86.021	-0.340	0.370
-357.596	-102.417	0.180	0.043
-356.581	198.456	-0.121	0.184
-355.566	-89.714	-0.056	0.016
-354.552	-8.154	0.140	-0.093
-353.537	-85.185	-0.229	0.071
-352.523	37.828	0.184	-0.162
-351.508	422.698	-0.118	0.251
-350.493	-136.656	-0.068	-0.008
-349.479	296.057	-0.089	-0.161
-348.464	-29.454	-0.182	-0.103
-347.450	-19.893	-0.024	0.015
-346.435	-200.000	0.002	0.077
-345.420	-200.000	-0.025	0.369
-344.406	4.346	0.046	0.033
-343.391	-200.000	-0.036	-0.161
-342.377	800.000	-0.072	-0.231
-341.362	8.500	0.112	-0.083
-340.348	-80.107	0.242	0.080
-339.333	-200.000	-0.016	-0.244
-338.318	-130.913	0.170	0.022
-337.304	800.000	0.022	-0.093
-336.289	0.231	-0.105	-0.074
-335.275	-200.000	-0.004	-0.160
-334.260	-139.603	0.305	0.032
-333.245	68.954	0.073	0.074
-332.231	-137.517	-0.180	0.020
-331.216	41.626	-0.291	-0.261
-330.202	433.003	0.060	-0.129
-329.187	-200.000	-0.015	0.113
-328.172	-200.000	0.042	-0.227
-327.158	-39.367	-0.386	-0.200
-326.143	-107.605	0.257	0.056
-325.129	800.000	0.042	-0.131
-324.114	-136.759	-0.261	0.030
-323.099	-39.134	-0.250	0.130
-322.085	215.969	0.009	0.014
-321.070	345.581	0.145	0.281
-320.056	46.281	-0.203	0.186
-319.041	316.614	-0.227	-0.424
-318.026	-144.688	0.051	0.005
-317.012	254.428	0.057	-0.097
-315.997	364.375	-0.072	0.143
-314.983	-15.258	0.045	0.028
-313.968	113.268	-0.273	0.327
-312.953	-200.000	-0.010	0.287
-311.939	146.531	0.058	-0.077
-310.924	-30.302	-0.305	-0.171
-309.910	-156.921	0.185	0.011
-308.895	-200.000	0.008	0.209
-307.880	7.495	-0.270	0.199
-306.866	-125.961	0.159	-0.024
-305.851	83.894	0.100	-0.107
-304.837	-200.000	0.002	0.241
-303.822	416.481	-0.029	-0.060
-302.807	-131.017	0.058	-0.008
-301.793	800.000	0.089	0.328
-300.778	93.924	-0.118	-0.132
-299.764	146.765	0.138	-0.183
-298.749	-22.596	-0.165	0.098
-297.735	81.392	0.060	-0.064
-296.720	161.404	0.139	0.192
-295.705	-112.635	-0.349	-0.069
-294.691	3.396	0.118	0.085
-293.676	-105.473	-0.262	0.059
-292.662	129.935	-0.337	0.426
-291.647	32.956	-0.172	0.147
-290.632	-200.000	-0.007	0.316
-289.618	-137.310	0.203	-0.023
-288.603	-71.793	-0.061	0.022
-287.589	439.969	0.069	0.149
-286.574	-192.824	-0.194	0.002
-285.559	-200.000	-0.021	0.250
-284.545	800.000	-0.026	-0.111
-283.530	306.204	0.085	0.156
-282.516	32.137	-0.235	-0.200
-281.501	-200.000	-0.003	-0.031
-280.486	800.000	-0.063	-0.262
-279.472	-121.020	0.211	0.035
-278.457	109.913	-0.099	-0.118
-277.443	-200.000	-0.005	0.229
-276.428	-200.000	-0.158	0.000
-275.413	-200.000	0.011	-0.252
-274.399	693.388	-0.070	0.180
-273.384	276.681	-0.095	0.166
-272.370	-99.826	0.236	0.058
-271.355	800.000	0.031	0.107
-270.340	-27.763	-0.031	-0.018
-269.326	-86.055	0.275	0.084
-268.311	228.774	-0.130	-0.209
-267.297	137.950	-0.066	0.085
-266.282	30.864	0.234	0.197
-265.267	-200.000	0.043	-0.208
-264.253	-31.389	0.361	-0.200
-263.238	282.095	0.259	0.457
-262.224	360.402	0.147	0.290
-261.209	-94.208	0.259	-0.070
-260.195	-50.836	0.058	-0.027
-259.180	-2.206	-0.057	-0.039
-258.165	-65.967	0.171	0.067
-257.151	-200.000	-0.009	0.303
-256.136	-126.053	-0.168	0.025
-255.122	-84.387	0.206	0.064
-254.107	-162.897	0.162	-0.008
-253.092	800.000	-0.069	0.196
-252.078	38.768	0.064	-0.056
-251.063	21.228	-0.206	0.165
-250.049	-200.000	0.009	0.085
-249.034	144.340	-0.105	-0.138
-248.019	38.603	0.112	-0.099
-247.005	193.022	0.149	0.221
-245.990	77.725	-0.142	0.149
-244.976	-30.835	0.181	0.101
-243.961	-20.663	-0.083	0.050
-242.946	-44.076	0.087	0.043
-241.932	-151.144	-0.317	0.023
-240.917	234.363	-0.020	-0.033
-239.903	-200.000	0.005	-0.280
-238.888	177.568	0.045	0.064
-237.873	-30.925	0.216	0.120
-236.859	193.994	-0.136	-0.203
-235.844	-200.000	0.000	-0.091
-234.830	89.142	0.186	0.204
-233.815	16.715	-0.127	-0.099
-232.800	208.474	0.194	-0.299
-231.786	-106.917	-0.456	0.099
-230.771	-200.000	-0.018	-0.083
-229.757	2.145	0.268	0.191
-228.742	565.658	-0.102	0.242
-227.727	27.202	0.181	0.149
-226.713	-137.985	0.282	0.031
-225.698	-172.113	-0.296	-0.009
-224.684	1.497	0.105	-0.074
-223.669	-106.046	-0.173	0.038
-222.655	9.816	-0.211	-0.157
-221.640	254.614	0.098	-0.164
-220.625	265.036	-0.196	0.336
-219.611	-200.000	-0.022	0.111
-218.596	238.574	-0.133	-0.218
-217.582	522.312	0.055	-0.128
-216.567	-104.751	0.167	0.038
-215.552	600.380	0.124	0.303
-214.538	-200.000	-0.008	-0.301
-213.523	122.348	-0.157	-0.192
-212.509	426.965	-0.046	-0.097
-211.494	19.623	0.057	0.045
-210.479	229.225	-0.118	-0.189
-209.465	800.000	0.079	-0.282
-208.450	370.392	0.071	0.142
-207.436	-55.387	0.164	0.072
-206.421	-65.459	0.393	0.155
-205.406	240.964	0.157	-0.258
-204.392	85.828	0.091	-0.099
-203.377	-200.000	0.013	-0.343
-202.363	-153.808	-0.113	0.008
-201.348	-105.597	0.125	0.028
-200.333	-124.364	-0.085	-0.013
-199.319	-62.404	-0.171	-0.070
-198.304	91.505	0.071	-0.078
-197.290	83.789	0.053	-0.057
-196.275	-183.154	0.252	0.004
-195.260	-200.000	-0.005	-0.122
-194.246	528.999	0.166	-0.385
-193.231	303.173	-0.071	-0.129
-192.217	154.749	-0.016	-0.022
-191.202	-99.020	-0.064	-0.016
-190.187	307.140	-0.043	0.079
-189.173	-91.822	-0.226	-0.063
-188.158	-190.745	0.405	0.004
-187.144	-101.695	-0.388	0.092
-186.129	54.329	0.036	-0.034
-185.114	5.147	-0.155	-0.112
-184.100	118.225	0.067	0.081
-183.085	-131.022	0.120	0.016
-182.071	-172.883	0.104	-0.003
-181.056	-54.509	0.130	0.058
-180.042	48.731	-0.306	0.282
-179.027	317.890	-0.060	0.112
-178.012	238.166	-0.112	0.183
-176.998	-200.000	0.005	-0.162
-175.983	392.495	-0.161	0.330
-174.969	10.227	0.130	-0.097
-173.954	800.000	-0.074	-0.211
-172.939	173.588	0.060	-0.085
-171.925	-47.651	0.178	-0.085
-170.910	-200.000	0.090	0.000
-169.896	119.223	-0.160	0.194
-168.881	4.258	0.287	0.206
-167.866	-81.882	0.345	0.111
-166.852	800.000	0.164	-0.489
-165.837	71.733	0.131	-0.134
-164.823	254.022	-0.021	0.035
-163.808	284.705	-0.058	0.102
-162.793	-92.289	0.105	0.029
-161.779	-91.199	0.164	-0.046
-160.764	-200.000	-0.036	0.212
-159.750	-57.371	0.078	-0.034
-158.735	45.624	0.222	0.201
-157.720	-200.000	-0.067	0.331
-156.706	-92.808	0.296	0.081
-155.691	-200.000	0.032	-0.198
-154.677	-123.571	-0.146	-0.023
-153.662	800.000	-0.054	-0.224
-152.647	-17.356	0.142	0.088
-151.633	-200.000	-0.010	0.123
-150.618	105.614	-0.100	-0.116
-149.604	89.562	0.033	-0.036
-148.589	211.012	0.170	0.263
-147.574	-200.000	-0.027	0.115
-146.560	176.790	0.068	0.097
-145.545	-160.735	-0.218	-0.011
-144.531	800.000	0.072	0.235
-143.516	-63.673	0.034	0.014
-142.502	221.474	-0.081	-0.127
-141.487	168.981	0.173	-0.242
-140.472	800.000	-0.026	0.104
-139.458	-200.000	-0.022	-0.153
-138.443	-24.153	-0.474	-0.278
-137.429	328.343	0.135	-0.254
-136.414	-126.578	0.143	-0.021
-135.399	-115.841	0.179	0.033
-134.385	-114.651	0.411	-0.077
-133.370	-73.749	0.172	0.061
-132.356	177.996	-0.049	-0.070
-131.341	-46.656	-0.104	-0.050
-130.326	670.410	0.140	-0.356
-129.312	97.530	-0.186	0.209
-128.297	-64.678	0.264	-0.105
-127.283	-200.000	0.029	0.219
-126.268	-200.000	-0.007	0.088
-125.253	197.377	-0.099	0.148
-124.239	152.526	-0.205	0.274
-123.224	-104.565	0.068	0.015
