DTS Sentinel unit serial number:	SN413079Multiplexer serial number:	ORYXHardware model number:	OX4-SRSoftware version number:	ORYX F/W v4.00 Oryx Data Collector v3.7.2.0data status	okinstallation	princeton_trtdifferential loss correction	single-endedforward channel	channel 3reverse channel	N/Adate	2019/09/14time	00:00:35forward acquisition time	60.00reverse acquisition time	0.00gamma	496.2192k internal	0.2340k external	0.2340temperature offset calibration	1.0059default loss term (dB/km)	0.3790temperature slope calibration	1.0000multiplexer offset coefficient	1.0000multiplexer slope coefficient	1.0000fibre end	0.00T internal ref (°C)	26.52T ext. ref 1 (°C)	3.16T ext. ref 2 (°C)	21.38length (m)	temperature (°C)	Stokes	anti-Stokes-747.200	201.079	0.149	0.230
-746.185	13.752	0.045	0.035
-745.171	-125.270	-0.427	0.065
-744.156	-98.159	-0.407	0.105
-743.142	-187.865	-0.430	0.006
-742.127	-32.740	0.117	-0.065
-741.112	265.233	0.102	0.178
-740.098	-27.129	-0.175	0.102
-739.083	188.733	0.115	-0.173
-738.069	800.000	0.028	-0.111
-737.054	109.047	0.211	0.253
-736.039	-141.342	-0.535	-0.054
-735.025	800.000	0.067	-0.239
-734.010	448.895	0.039	0.085
-732.996	-39.832	-0.348	-0.182
-731.981	800.000	0.073	-0.240
-730.966	800.000	-0.080	-0.243
-729.952	-183.832	0.099	0.002
-728.937	-34.563	0.265	0.145
-727.923	-200.000	0.002	0.340
-726.908	106.551	-0.062	-0.074
-725.894	-200.000	-0.009	0.272
-724.879	-200.000	-0.060	0.273
-723.864	-200.000	-0.006	0.033
-722.850	90.582	-0.137	-0.154
-721.835	-68.268	-0.348	-0.135
-720.821	-4.840	-0.314	-0.217
-719.806	-103.076	0.203	-0.048
-718.791	649.472	-0.098	0.250
-717.777	-16.998	0.146	0.092
-716.762	-76.815	0.177	0.062
-715.748	-20.074	0.176	0.108
-714.733	-162.375	-0.332	-0.016
-713.718	-65.463	0.330	0.133
-712.704	-38.466	-0.091	0.048
-711.689	-44.052	-0.127	-0.064
-710.675	520.186	0.090	-0.212
-709.660	133.330	0.368	-0.476
-708.645	-200.000	-0.054	-0.282
-707.631	76.287	-0.198	-0.210
-706.616	96.942	-0.270	-0.310
-705.602	-119.059	0.071	-0.012
-704.587	-36.324	0.390	0.211
-703.572	-17.274	0.094	0.059
-702.558	25.668	-0.171	0.142
-701.543	23.875	0.298	-0.246
-700.529	-200.000	0.006	-0.455
-699.514	-200.000	0.009	-0.248
-698.499	-59.357	-0.303	-0.130
-697.485	-200.000	-0.055	-0.352
-696.470	-14.369	0.188	-0.121
-695.456	295.584	-0.145	0.266
-694.441	101.139	-0.204	0.238
-693.426	-121.237	0.109	0.018
-692.412	3.335	0.160	-0.116
-691.397	800.000	0.039	0.107
-690.383	800.000	0.075	-0.289
-689.368	-200.000	-0.019	-0.266
-688.354	781.557	-0.121	-0.332
-687.339	-200.000	0.030	0.359
-686.324	37.120	0.127	-0.113
-685.310	760.260	-0.038	-0.102
-684.295	324.534	-0.160	-0.306
-683.281	241.912	-0.092	-0.154
-682.266	-15.060	-0.117	-0.075
-681.251	-200.000	-0.006	0.039
-680.237	167.177	-0.157	0.223
-679.222	-122.103	0.163	-0.027
-678.208	35.021	0.223	-0.196
-677.193	-16.145	0.276	-0.175
-676.178	-93.786	-0.101	-0.028
-675.164	-35.780	-0.314	-0.170
-674.149	-151.865	-0.144	0.011
-673.135	-69.783	-0.051	0.019
-672.120	53.537	0.104	0.100
-671.105	-132.679	0.041	-0.005
-670.091	-94.742	-0.205	0.056
-669.076	-129.476	-0.268	0.037
-668.062	-31.532	0.115	-0.065
-667.047	73.078	-0.083	0.087
-666.032	-98.293	-0.338	-0.087
-665.018	157.226	0.045	0.062
-664.003	-109.211	0.087	0.018
-662.989	800.000	-0.070	0.206
-661.974	800.000	0.067	0.285
-660.959	-27.897	0.256	0.148
-659.945	86.582	-0.091	-0.100
-658.930	800.000	0.059	0.190
-657.916	-200.000	-0.009	0.063
-656.901	-109.260	0.258	0.055
-655.886	800.000	-0.039	0.125
-654.872	17.250	-0.036	0.028
-653.857	50.314	-0.165	-0.156
-652.843	-128.560	0.368	-0.052
-651.828	-48.349	-0.314	0.151
-650.814	54.776	0.157	0.151
-649.799	-200.000	0.005	0.083
-648.784	-59.228	0.486	0.209
-647.770	20.384	0.038	0.031
-646.755	-128.808	-0.265	0.037
-645.741	-86.198	-0.200	-0.061
-644.726	800.000	-0.080	-0.340
-643.711	13.823	-0.177	-0.137
-642.697	106.418	0.207	0.245
-641.682	-126.101	-0.103	-0.015
-640.668	-200.000	0.017	0.147
-639.653	137.509	0.138	-0.181
-638.638	-200.000	-0.011	0.208
-637.624	-200.000	0.019	-0.285
-636.609	39.554	-0.124	-0.111
-635.595	-200.000	-0.003	-0.091
-634.580	473.700	0.145	-0.326
-633.565	-110.322	-0.468	-0.097
-632.551	254.395	-0.162	-0.277
-631.536	514.930	0.076	-0.176
-630.522	-200.000	0.026	-0.356
-629.507	74.729	-0.125	0.132
-628.492	-126.305	-0.211	0.031
-627.478	-126.188	0.151	-0.023
-626.463	-37.298	0.236	-0.126
-625.449	800.000	-0.123	-0.428
-624.434	435.002	0.160	0.348
-623.419	-39.478	0.155	-0.081
-622.405	77.683	-0.141	-0.149
-621.390	28.586	-0.229	0.193
-620.376	38.223	0.156	0.138
-619.361	417.884	0.053	-0.113
-618.346	-200.000	-0.027	-0.144
-617.332	30.921	0.131	-0.112
-616.317	14.463	0.423	0.329
-615.303	-133.775	0.266	0.033
-614.288	30.720	-0.077	-0.066
-613.273	48.448	0.039	-0.037
-612.259	-51.323	0.078	0.036
-611.244	218.757	0.179	-0.286
-610.230	-48.538	0.183	0.088
-609.215	-200.000	0.004	0.132
-608.201	67.569	-0.072	0.074
-607.186	-54.233	0.191	-0.086
-606.171	157.836	0.028	0.039
-605.157	800.000	-0.038	0.166
-604.142	143.586	0.032	-0.043
-603.128	-127.480	-0.389	0.056
-602.113	93.678	-0.125	-0.142
-601.098	-200.000	0.021	-0.166
-600.084	-85.857	-0.216	-0.067
-599.069	-177.009	-0.428	-0.011
-598.055	-28.034	0.171	-0.098
-597.040	93.040	-0.055	-0.062
-596.025	-152.907	-0.459	-0.032
-595.011	-165.618	0.114	-0.005
-593.996	-26.968	-0.133	0.077
-592.982	-113.598	0.241	-0.047
-591.967	250.156	0.153	0.258
-590.952	800.000	-0.094	-0.385
-589.938	-72.954	-0.285	0.104
-588.923	-26.506	0.237	-0.138
-587.909	67.618	0.193	-0.196
-586.894	183.126	0.044	0.065
-585.879	252.766	-0.067	-0.114
-584.865	275.159	-0.022	-0.039
-583.850	172.228	-0.244	0.349
-582.836	334.626	0.077	-0.149
-581.821	-200.000	0.012	0.173
-580.806	-112.580	0.155	-0.031
-579.792	94.547	0.163	-0.185
-578.777	-22.430	0.280	0.169
-577.763	-151.661	-0.262	-0.019
-576.748	-23.748	0.157	0.094
-575.733	-200.000	0.043	0.209
-574.719	-200.000	-0.003	-0.036
-573.704	-19.813	0.182	-0.112
-572.690	-22.687	-0.175	0.105
-571.675	-200.000	-0.082	0.000
-570.661	-35.639	-0.131	-0.071
-569.646	200.104	-0.097	0.148
-568.631	-200.000	-0.011	0.121
-567.617	800.000	0.035	0.147
-566.602	-35.125	-0.330	0.179
-565.588	-108.111	-0.194	-0.042
-564.573	-25.357	0.321	0.189
-563.558	35.475	0.197	-0.172
-562.544	-200.000	-0.002	0.103
-561.529	294.424	0.183	-0.333
-560.515	-22.640	-0.432	-0.260
-559.500	-200.000	-0.004	0.179
-558.485	-39.463	-0.059	0.031
-557.471	-39.495	0.062	0.033
-556.456	800.000	0.083	0.263
-555.442	-89.942	0.233	0.068
-554.427	32.994	0.128	0.110
-553.412	800.000	-0.075	0.213
-552.398	294.695	0.050	0.090
-551.383	322.174	0.119	0.226
-550.369	27.951	-0.034	-0.029
-549.354	-140.088	-0.157	-0.016
-548.339	-56.646	-0.208	0.092
-547.325	4.706	0.155	0.113
-546.310	-21.163	-0.173	-0.105
-545.296	-35.964	-0.333	0.179
-544.281	63.836	0.120	-0.120
-543.266	-200.000	-0.012	-0.147
-542.252	-39.587	-0.222	-0.115
-541.237	-200.000	-0.005	0.043
-540.223	-200.000	-0.010	0.227
-539.208	-67.829	-0.329	-0.128
-538.193	-41.960	0.215	0.109
-537.179	6.749	0.086	-0.064
-536.164	-200.000	0.000	0.107
-535.150	-23.518	-0.139	-0.083
-534.135	800.000	0.043	-0.136
-533.121	84.870	0.139	0.151
-532.106	3.757	-0.220	0.159
-531.091	267.833	-0.155	-0.270
-530.077	-200.000	-0.207	0.000
-529.062	322.213	0.186	-0.352
-528.048	-200.000	0.006	-0.059
-527.033	279.041	0.148	-0.263
-526.018	741.684	0.026	0.071
-525.004	599.808	0.037	0.090
-523.989	-85.334	0.239	0.074
-522.975	460.040	0.055	-0.122
-521.960	419.759	0.052	0.111
-520.945	62.829	-0.027	0.027
-519.931	-79.142	-0.407	-0.137
-518.916	54.306	-0.109	-0.104
-517.902	106.540	-0.108	0.127
-516.887	-111.043	-0.296	-0.060
-515.872	227.184	0.074	-0.119
-514.858	171.833	0.073	-0.104
-513.843	-19.197	0.059	0.036
-512.829	-9.525	-0.244	-0.162
-511.814	60.578	-0.173	0.170
-510.799	-200.000	0.007	0.238
-509.785	72.816	-0.158	0.164
-508.770	800.000	-0.125	0.373
-507.756	800.000	-0.025	-0.070
-506.741	-62.750	0.255	-0.105
-505.726	-0.940	0.221	-0.155
-504.712	800.000	-0.048	-0.163
-503.697	-91.063	-0.298	-0.085
-502.683	28.040	0.255	-0.214
-501.668	197.947	0.055	0.084
-500.653	-127.688	-0.160	-0.023
-499.639	49.402	0.146	0.136
-498.624	68.860	-0.207	-0.211
-497.610	-120.973	-0.311	-0.052
-496.595	221.147	0.197	0.314
-495.581	-163.390	0.480	-0.023
-494.566	-113.108	-0.234	0.046
-493.551	85.915	-0.095	-0.103
-492.537	-138.915	-0.125	-0.013
-491.522	22.438	-0.116	0.094
-490.508	585.961	-0.043	0.105
-489.493	-200.000	-0.020	0.219
-488.478	-104.160	-0.233	0.054
-487.464	-28.233	0.330	-0.189
-486.449	-102.956	-0.166	-0.039
-485.435	-51.525	0.299	0.139
-484.420	113.840	-0.020	-0.024
-483.405	-200.000	0.026	0.165
-482.391	-10.031	0.540	-0.356
-481.376	-1.934	0.282	0.196
-480.362	-200.000	-0.030	0.276
-479.347	-200.000	0.000	-0.018
-478.332	116.659	-0.072	0.087
-477.318	21.713	0.342	-0.276
-476.303	-68.491	-0.187	-0.072
-475.289	-29.076	-0.199	0.113
-474.274	-133.967	-0.445	-0.055
-473.259	59.776	-0.101	-0.099
-472.245	-127.748	0.412	0.059
-471.230	-48.132	-0.301	-0.144
-470.216	-200.000	0.018	-0.210
-469.201	-200.000	-0.010	-0.055
-468.186	305.955	0.018	0.033
-467.172	-158.767	-0.525	0.030
-466.157	33.348	-0.187	-0.161
-465.143	-22.740	0.279	0.167
-464.128	-138.396	-0.224	0.025
-463.113	-26.080	0.227	-0.132
-462.099	-59.528	-0.080	0.034
-461.084	42.847	0.235	0.212
-460.070	-27.604	-0.300	0.173
-459.055	-200.000	0.005	-0.306
-458.040	754.977	0.100	0.267
-457.026	800.000	0.106	0.333
-456.011	103.487	-0.255	0.296
-454.997	-137.281	0.261	0.029
-453.982	-51.930	0.220	0.101
-452.968	324.308	0.087	0.165
-451.953	800.000	0.032	-0.128
-450.938	-148.255	0.118	-0.010
-449.924	-100.144	0.146	0.036
-448.909	-157.577	-0.182	0.011
-447.895	19.488	0.226	0.180
-446.880	-200.000	-0.057	0.323
-445.865	332.591	0.034	-0.064
-444.851	139.770	0.058	-0.075
-443.836	90.255	0.127	0.141
-442.822	164.922	-0.282	0.394
-441.807	18.981	-0.231	-0.184
-440.792	-101.028	0.236	-0.057
-439.778	224.166	0.078	0.124
-438.763	101.557	-0.075	0.087
-437.749	-38.697	-0.251	-0.131
-436.734	269.956	0.150	0.261
-435.719	-31.307	-0.198	-0.111
-434.705	195.654	0.125	-0.189
-433.690	6.119	-0.419	0.308
-432.676	-200.000	0.032	-0.251
-431.661	-114.775	0.338	-0.064
-430.646	698.392	0.121	0.316
-429.632	-200.000	0.002	-0.536
-428.617	509.047	-0.171	0.394
-427.603	85.000	-0.130	0.141
-426.588	-185.806	0.069	0.001
-425.573	128.638	-0.104	0.131
-424.559	260.350	0.159	0.273
-423.544	61.564	-0.158	0.156
-422.530	68.506	0.399	0.405
-421.515	650.705	-0.063	0.161
-420.500	800.000	0.014	-0.044
-419.486	11.421	-0.098	0.075
-418.471	-200.000	-0.018	0.207
-417.457	-79.117	-0.118	-0.040
-416.442	-164.247	-0.101	0.005
-415.428	-200.000	-0.015	0.190
-414.413	107.507	0.065	0.076
-413.398	625.064	0.073	0.182
-412.384	60.088	-0.158	-0.154
-411.369	166.287	-0.037	0.051
-410.355	-32.197	0.175	-0.097
-409.340	-52.938	-0.151	-0.069
-408.325	800.000	-0.063	-0.253
-407.311	322.459	-0.221	-0.416
-406.296	32.626	0.115	0.098
-405.282	277.965	0.177	-0.312
-404.267	766.938	0.069	0.185
-403.252	229.829	-0.140	-0.226
-402.238	-200.000	-0.054	0.300
-401.223	160.423	-0.151	-0.208
-400.209	33.312	0.066	0.056
-399.194	-19.166	-0.232	-0.142
-398.179	-156.912	0.226	-0.014
-397.165	-200.000	0.072	-0.339
-396.150	-134.650	-0.208	-0.025
-395.136	-41.588	-0.200	0.101
-394.121	-200.000	0.016	-0.398
-393.106	-58.283	0.252	0.109
-392.092	-92.196	0.112	-0.031
-391.077	-17.996	0.095	-0.059
-390.063	-76.095	-0.318	-0.111
-389.048	800.000	-0.055	-0.219
-388.033	800.000	0.047	-0.176
-387.019	-137.636	0.154	-0.017
-386.004	15.733	0.124	0.097
-384.990	122.732	0.123	-0.152
-383.975	-39.962	-0.051	-0.026
-382.960	18.020	0.160	0.126
-381.946	-141.054	-0.237	0.024
-380.931	164.086	0.249	-0.347
-379.917	131.854	-0.231	-0.294
-378.902	323.337	0.112	0.210
-377.888	-200.000	0.050	0.278
-376.873	-85.113	0.265	-0.082
-375.858	-200.000	0.010	0.282
-374.844	-46.573	-0.239	-0.116
-373.829	-200.000	0.068	0.350
-372.815	-200.000	-0.030	-0.287
-371.800	-157.253	-0.354	0.021
-370.785	165.761	-0.087	-0.121
-369.771	-184.369	-0.258	-0.004
-368.756	800.000	0.102	0.404
-367.742	-134.292	-0.061	0.007
-366.727	3.391	0.142	-0.102
-365.712	-31.545	-0.233	-0.129
-364.698	800.000	0.079	-0.261
-363.683	-126.788	0.297	-0.043
-362.669	800.000	0.090	-0.382
-361.654	-118.790	0.095	-0.016
-360.639	294.175	-0.138	0.250
-359.625	-200.000	0.028	-0.238
-358.610	16.177	0.306	-0.238
-357.596	-181.767	-0.119	-0.002
-356.581	-58.690	-0.149	-0.064
-355.566	-162.541	-0.217	-0.011
-354.552	385.732	-0.110	0.225
-353.537	-52.690	-0.154	-0.070
-352.523	800.000	0.084	0.312
-351.508	-121.620	0.159	-0.026
-350.493	-3.958	-0.287	-0.197
-349.479	-49.144	0.064	-0.030
-348.464	-73.151	-0.132	-0.048
-347.450	-62.324	-0.145	0.059
-346.435	-7.577	0.160	-0.107
-345.420	-48.802	-0.246	0.116
-344.406	-181.723	0.143	0.003
-343.391	-94.826	-0.213	0.057
-342.377	-147.660	0.245	-0.020
-341.362	287.617	-0.056	0.100
-340.348	-65.936	0.185	0.073
-339.333	49.719	0.252	-0.234
-338.318	-139.399	0.395	0.042
-337.304	-99.523	0.331	0.082
-336.289	800.000	0.013	0.055
-335.275	585.179	0.090	-0.219
-334.260	-186.933	-0.427	0.006
-333.245	192.126	0.060	0.090
-332.231	128.280	0.130	-0.163
-331.216	-53.587	0.248	0.112
-330.202	151.936	-0.100	-0.135
-329.187	-15.792	0.261	-0.164
-328.172	30.068	-0.189	0.159
-327.158	-98.890	0.202	-0.051
-326.143	108.797	0.140	0.165
-325.129	800.000	-0.050	-0.202
-324.114	-174.938	0.233	0.006
-323.099	-110.199	0.359	0.074
-322.085	-200.000	0.039	0.167
-321.070	188.562	-0.053	-0.079
-320.056	-200.000	-0.027	-0.367
-319.041	145.636	0.059	-0.077
-318.026	201.234	-0.074	0.112
-317.012	-200.000	0.034	0.519
-315.997	133.510	-0.273	0.348
-314.983	-149.925	-0.335	0.026
-313.968	0.512	0.193	0.136
-312.953	-200.000	0.122	-0.527
-311.939	-200.000	0.002	-0.119
-310.924	195.393	-0.246	-0.369
-309.910	800.000	0.040	0.110
-308.895	147.766	-0.072	0.096
-307.880	-144.624	0.238	-0.022
-306.866	387.727	-0.099	-0.202
-305.851	-200.000	0.015	0.203
-304.837	-18.489	0.218	-0.134
-303.822	58.258	0.241	0.233
-302.807	800.000	0.052	0.208
-301.793	-200.000	0.036	0.298
-300.778	244.408	0.030	0.050
-299.764	-4.323	0.126	0.086
-298.749	425.595	-0.044	-0.094
-297.735	800.000	0.080	-0.259
-296.720	423.944	-0.139	-0.293
-295.705	-58.475	-0.207	0.089
-294.691	-95.936	-0.182	0.048
-293.676	-200.000	0.004	-0.050
-292.662	420.773	-0.166	-0.351
-291.647	800.000	0.101	0.342
-290.632	-88.574	0.152	-0.045
-289.618	15.493	-0.198	-0.153
-288.603	711.252	0.047	0.124
-287.589	-42.494	0.040	0.020
-286.574	637.478	-0.094	0.236
-285.559	693.451	-0.108	0.278
-284.545	-129.790	0.354	-0.048
-283.530	-92.491	-0.090	0.025
-282.516	2.931	0.209	-0.150
-281.501	79.679	-0.221	0.234
-280.486	35.430	0.037	-0.032
-279.472	-44.375	0.066	-0.033
-278.457	-81.838	-0.112	0.036
-277.443	-12.501	0.200	-0.129
-276.428	283.851	-0.153	0.270
-275.413	-7.055	-0.316	0.211
-274.399	399.270	0.106	-0.219
-273.384	-200.000	-0.027	-0.147
-272.370	9.821	-0.118	-0.088
-271.355	258.879	0.077	0.131
-270.340	-200.000	-0.004	0.061
-269.326	-148.966	0.275	-0.022
-268.311	-142.327	-0.174	-0.017
-267.297	-88.340	-0.326	-0.096
-266.282	112.099	0.167	0.199
-265.267	-200.000	0.031	0.400
-264.253	17.374	0.221	0.173
-263.238	-44.593	0.250	-0.123
-262.224	30.291	0.215	-0.180
-261.209	522.089	-0.063	-0.146
-260.195	-88.715	-0.193	-0.057
-259.180	80.374	-0.070	0.075
-258.165	-53.756	0.141	-0.063
-257.151	800.000	-0.022	0.069
-256.136	-84.737	0.315	-0.098
-255.122	272.547	0.160	-0.277
-254.107	-59.840	-0.178	-0.075
-253.092	-165.165	0.161	0.007
-252.078	-200.000	0.043	0.250
-251.063	127.713	0.118	0.148
-250.049	-82.645	-0.146	0.047
-249.034	-30.592	0.047	-0.026
-248.019	18.706	0.176	-0.139
-247.005	-25.052	0.225	-0.131
-245.990	-32.030	-0.452	0.249
-244.976	252.551	0.153	0.256
-243.961	74.703	-0.046	-0.048
-242.946	315.707	0.092	0.170
-241.932	-35.064	-0.211	-0.113
-240.917	-58.071	0.125	-0.054
-239.903	51.746	0.081	-0.076
-238.888	800.000	-0.145	-0.424
-237.873	-200.000	-0.039	0.258
-236.859	-29.066	-0.289	0.163
-235.844	-197.835	0.029	-0.000
-234.830	484.135	0.113	-0.254
-233.815	-142.759	-0.084	-0.008
-232.800	-151.094	0.003	-0.000
-231.786	402.983	0.065	-0.134
-230.771	382.317	-0.130	-0.263
-229.757	-74.291	0.354	0.126
-228.742	123.449	0.110	0.135
-227.727	-200.000	0.037	-0.305
-226.713	299.301	-0.132	0.240
-225.698	145.154	-0.050	0.066
-224.684	-108.023	-0.064	0.014
-223.669	116.749	-0.255	0.308
-222.655	-200.000	0.011	0.151
-221.640	670.686	-0.063	0.161
-220.625	-30.163	-0.391	0.218
-219.611	131.937	0.115	0.145
-218.596	407.621	-0.172	-0.357
-217.582	-129.158	0.062	0.008
-216.567	-173.621	-0.299	0.009
-215.552	713.562	0.011	-0.030
-214.538	-7.874	0.277	-0.184
-213.523	-0.860	0.194	-0.135
-212.509	800.000	0.054	0.218
-211.494	18.714	-0.225	-0.176
-210.479	5.088	0.116	0.084
-209.465	23.888	-0.157	-0.127
-208.450	238.857	0.050	0.082
-207.436	-200.000	-0.030	-0.315
-206.421	-200.000	0.032	0.185
-205.406	-90.628	0.073	-0.021
-204.392	-30.755	-0.237	0.132
-203.377	-57.656	-0.250	-0.108
-202.363	-117.138	0.138	-0.025
-201.348	-200.000	-0.004	-0.043
-200.333	711.478	0.099	-0.257
-199.319	-200.000	-0.058	-0.336
-198.304	800.000	-0.072	-0.236
-197.290	-200.000	-0.001	0.016
-196.275	800.000	0.117	-0.420
-195.260	31.869	0.200	-0.169
-194.246	-158.839	-0.335	0.019
-193.231	-84.460	-0.203	-0.063
-192.217	-16.820	0.439	-0.272
-191.202	-160.371	-0.192	-0.010
-190.187	-48.912	-0.403	-0.189
-189.173	-200.000	0.028	-0.130
-188.158	746.793	-0.051	0.133
-187.144	-71.678	-0.137	-0.050
-186.129	116.172	-0.074	0.089
-185.114	-82.065	0.151	-0.048
-184.100	71.450	0.268	0.273
-183.085	35.810	-0.100	0.086
-182.071	-200.000	0.062	-0.306
-181.056	-77.599	-0.257	0.087
-180.042	-76.981	-0.178	0.061
-179.027	800.000	0.071	-0.288
-178.012	2.341	0.126	0.090
-176.998	564.363	-0.108	-0.258
-175.983	-86.948	0.358	-0.107
-174.969	-72.729	-0.137	0.049
-173.954	-111.415	0.131	0.026
-172.939	180.760	0.102	0.146
-171.925	-78.760	0.191	0.064
-170.910	-155.419	-0.243	0.015
-169.896	-91.775	0.155	0.043
-168.881	-200.000	-0.012	-0.156
-167.866	673.587	0.149	0.379
-166.852	139.046	0.195	0.251
-165.837	800.000	0.121	-0.485
-164.823	66.111	0.046	0.046
-163.808	755.671	-0.137	0.362
-162.793	28.419	-0.318	0.263
-161.779	-121.820	0.198	0.032
-160.764	278.363	0.120	-0.210
-159.750	-161.636	0.152	0.008
-158.735	46.173	-0.221	0.200
-157.720	-129.807	-0.098	-0.013
-156.706	130.578	0.228	0.286
-155.691	-180.411	-0.090	0.002
-154.677	-43.486	0.584	0.289
-153.662	800.000	-0.027	0.087
-152.647	-31.616	0.108	0.060
-151.633	-200.000	-0.026	0.236
-150.618	800.000	0.041	0.122
-149.604	-109.084	0.083	-0.017
-148.589	800.000	0.043	-0.169
-147.574	39.611	-0.219	0.192
-146.560	141.051	-0.028	-0.036
-145.545	-15.350	-0.179	0.112
-144.531	-200.000	0.380	-0.000
-143.516	-43.705	0.045	0.022
-142.502	-82.539	0.198	-0.063
-141.487	-200.000	0.012	-0.506
-140.472	243.633	-0.182	-0.298
-139.458	16.003	0.169	0.131
-138.443	-126.313	0.222	0.032
-137.429	77.344	0.043	-0.045
-136.414	721.218	-0.176	-0.459
-135.399	-176.911	-0.056	0.001
-134.385	107.876	0.124	0.144
-133.370	-88.067	-0.235	-0.069
-132.356	-200.000	0.022	0.143
-131.341	800.000	-0.046	-0.196
-130.326	13.976	-0.305	0.232
-129.312	62.393	0.015	0.015
-128.297	-113.419	-0.184	0.035
-127.283	800.000	0.066	-0.180
-126.268	-150.851	-0.182	-0.014
-125.253	117.507	-0.152	-0.183
-124.239	-200.000	-0.043	0.242
-123.224	-200.000	0.046	0.227
-122.210	-200.000	0.013	0.118
-121.195	130.348	0.030	-0.037
-120.180	-125.527	-0.256	0.038
