DTS Sentinel unit serial number:	SN413079Multiplexer serial number:	ORYXHardware model number:	OX4-SRSoftware version number:	ORYX F/W v4.00 Oryx Data Collector v3.7.2.0data status	okinstallation	princeton_trtdifferential loss correction	single-endedforward channel	channel 3reverse channel	N/Adate	2019/09/15time	18:36:35forward acquisition time	60.00reverse acquisition time	0.00gamma	496.2192k internal	0.2287k external	0.2287temperature offset calibration	0.9925default loss term (dB/km)	0.3790temperature slope calibration	1.0000multiplexer offset coefficient	1.0000multiplexer slope coefficient	1.0000fibre end	0.00T internal ref (°C)	43.84T ext. ref 1 (°C)	6.80T ext. ref 2 (°C)	37.37length (m)	temperature (°C)	Stokes	anti-Stokes-747.200	-200.000	-0.014	-0.155
-746.185	205.620	0.119	0.190
-745.171	-4.695	0.380	0.269
-744.156	-39.493	0.245	0.131
-743.142	800.000	0.025	0.102
-742.127	-82.547	0.060	0.020
-741.112	111.249	0.053	-0.066
-740.098	55.985	-0.206	-0.205
-739.083	-96.836	0.263	0.071
-738.069	-200.000	-0.016	0.427
-737.054	184.363	-0.127	0.193
-736.039	-96.118	0.131	-0.036
-735.025	-151.745	0.256	0.019
-734.010	403.400	0.095	-0.206
-732.996	800.000	0.024	-0.072
-731.981	16.773	-0.301	-0.244
-730.966	135.208	-0.048	-0.064
-729.952	800.000	-0.101	0.443
-728.937	-200.000	0.018	0.109
-727.923	130.579	-0.072	-0.095
-726.908	204.532	-0.087	-0.139
-725.894	-56.791	-0.044	-0.020
-724.879	-200.000	-0.078	-0.512
-723.864	-158.306	-0.200	0.012
-722.850	225.847	-0.105	0.174
-721.835	-200.000	0.004	-0.243
-720.821	422.427	0.136	-0.298
-719.806	-200.000	0.000	-0.105
-718.791	-200.000	-0.016	-0.332
-717.777	800.000	0.012	-0.040
-716.762	-132.687	-0.347	0.046
-715.748	375.061	0.056	-0.117
-714.733	-38.332	-0.103	-0.056
-713.718	-180.632	-0.024	-0.001
-712.704	800.000	0.115	0.333
-711.689	149.962	0.135	-0.188
-710.675	-115.733	0.158	0.030
-709.660	758.905	0.041	0.114
-708.645	339.003	0.098	0.196
-707.631	-30.486	-0.186	-0.108
-706.616	-166.172	-0.161	0.007
-705.602	127.029	-0.030	-0.039
-704.587	-121.800	0.225	-0.038
-703.572	-200.000	0.017	-0.153
-702.558	-185.905	-0.224	-0.003
-701.543	-179.187	0.452	0.010
-700.529	-151.111	0.071	0.005
-699.514	428.960	-0.120	-0.265
-698.499	-148.090	-0.440	0.037
-697.485	176.594	0.156	0.232
-696.470	800.000	0.104	0.451
-695.456	-137.414	0.369	0.043
-694.441	791.139	0.157	-0.442
-693.426	303.739	0.082	0.156
-692.412	-23.867	-0.136	-0.083
-691.397	-79.255	-0.474	-0.165
-690.383	73.789	-0.106	0.114
-689.368	800.000	-0.057	0.161
-688.354	214.965	0.151	-0.244
-687.339	103.628	-0.072	0.087
-686.324	-78.765	0.118	-0.041
-685.310	302.176	0.056	0.106
-684.295	130.369	0.142	-0.186
-683.281	800.000	-0.044	0.133
-682.266	800.000	-0.035	-0.132
-681.251	-26.024	-0.123	-0.074
-680.237	-139.427	0.114	-0.012
-679.222	-45.234	-0.216	0.110
-678.208	6.392	-0.112	-0.085
-677.193	800.000	-0.070	-0.315
-676.178	800.000	-0.011	-0.035
-675.164	46.200	-0.210	-0.199
-674.149	-45.139	-0.209	-0.106
-673.135	-89.550	-0.314	-0.094
-672.120	593.297	-0.057	-0.145
-671.105	308.908	0.142	0.271
-670.091	800.000	0.040	0.135
-669.076	8.373	-0.303	-0.233
-668.062	277.402	-0.128	-0.233
-667.047	-58.625	-0.220	0.098
-666.032	-144.559	-0.038	-0.004
-665.018	27.029	0.307	0.263
-664.003	154.769	-0.133	-0.187
-662.989	-33.399	0.257	-0.146
-661.974	-56.120	-0.136	0.062
-660.959	-73.339	-0.393	0.147
-659.945	-132.503	-0.032	0.004
-658.930	-200.000	-0.008	-0.048
-657.916	-165.192	0.079	-0.004
-656.901	619.957	0.084	-0.216
-655.886	48.063	0.114	-0.109
-654.872	-200.000	-0.006	-0.084
-653.857	138.859	0.132	-0.178
-652.843	-58.550	0.262	0.116
-651.828	-105.461	0.138	-0.032
-650.814	800.000	-0.041	0.169
-649.799	759.175	0.066	-0.181
-648.784	-200.000	-0.022	-0.166
-647.770	1.030	0.238	0.175
-646.755	-200.000	-0.012	-0.149
-645.741	-200.000	0.022	0.266
-644.726	800.000	-0.035	-0.148
-643.711	-200.000	0.049	-0.221
-642.697	-79.283	-0.117	0.040
-641.682	-103.728	-0.121	-0.029
-640.668	220.855	-0.262	0.429
-639.653	496.244	0.077	-0.181
-638.638	800.000	-0.069	-0.251
-637.624	601.727	-0.061	-0.155
-636.609	800.000	0.137	0.417
-635.595	351.065	0.063	-0.126
-634.580	781.892	-0.119	-0.333
-633.565	-200.000	0.036	-0.167
-632.551	539.851	0.051	-0.125
-631.536	-159.056	-0.262	0.015
-630.522	-54.814	-0.347	-0.160
-629.507	328.127	-0.059	0.116
-628.492	-50.920	0.067	0.032
-627.478	800.000	-0.076	0.243
-626.463	800.000	0.043	-0.185
-625.449	-11.586	0.044	0.030
-624.434	-200.000	-0.007	-0.144
-623.419	167.842	-0.094	0.136
-622.405	800.000	0.022	-0.093
-621.390	-141.093	-0.328	0.034
-620.376	-173.648	0.259	-0.008
-619.361	221.087	0.174	0.285
-618.346	-60.838	0.292	-0.126
-617.332	96.928	0.176	-0.206
-616.317	-200.000	-0.036	-0.187
-615.303	-73.282	0.050	-0.019
-614.288	-59.791	-0.279	-0.122
-613.273	144.444	-0.051	-0.070
-612.259	-31.339	0.235	0.135
-611.244	-56.103	-0.109	-0.050
-610.230	-200.000	0.003	0.186
-609.215	73.207	-0.104	0.111
-608.201	-15.144	0.123	0.080
-607.186	612.153	0.079	-0.202
-606.171	-95.085	0.122	-0.034
-605.157	-56.920	0.205	-0.092
-604.142	800.000	-0.027	0.103
-603.128	49.649	0.133	-0.128
-602.113	-97.213	0.400	0.107
-601.098	-200.000	-0.017	0.198
-600.084	800.000	0.080	0.329
-599.069	12.447	-0.234	-0.184
-598.055	800.000	-0.066	-0.226
-597.040	800.000	-0.059	0.215
-596.025	800.000	0.037	-0.126
-595.011	-51.210	-0.182	-0.087
-593.996	-200.000	0.010	-0.193
-592.982	574.952	0.075	0.186
-591.967	129.467	0.109	0.142
-590.952	800.000	0.026	0.089
-589.938	-171.799	-0.322	0.011
-588.923	800.000	0.043	0.147
-587.909	203.452	-0.106	-0.167
-586.894	-128.157	-0.306	0.045
-585.879	-200.000	-0.001	-0.047
-584.865	29.718	0.247	-0.214
-583.850	26.776	-0.204	-0.174
-582.836	800.000	-0.096	0.282
-581.821	176.103	-0.121	0.179
-580.806	103.773	0.035	0.041
-579.792	500.623	-0.075	-0.176
-578.777	39.888	-0.148	-0.136
-577.763	-200.000	-0.044	-0.299
-576.748	-200.000	-0.015	-0.092
-575.733	-169.810	0.043	0.002
-574.719	-99.746	0.437	0.112
-573.704	409.963	0.087	-0.187
-572.690	-200.000	0.010	-0.078
-571.675	-200.000	0.011	-0.183
-570.661	513.920	0.157	0.374
-569.646	-68.672	0.248	0.098
-568.631	-112.630	-0.242	-0.049
-567.617	530.257	-0.042	-0.101
-566.602	-16.316	-0.624	0.403
-565.588	-2.931	-0.284	-0.202
-564.573	279.909	0.113	-0.206
-563.558	-200.000	-0.015	-0.213
-562.544	-177.285	-0.265	-0.007
-561.529	-191.580	-0.254	-0.003
-560.515	-56.055	-0.457	-0.207
-559.500	15.228	-0.140	0.111
-558.485	-200.000	0.012	-0.264
-557.471	39.954	0.165	0.151
-556.456	732.839	0.132	-0.359
-555.442	-104.176	0.114	0.027
-554.427	-200.000	0.018	-0.212
-553.412	142.135	0.283	-0.382
-552.398	154.516	0.135	-0.189
-551.383	-170.241	0.295	-0.011
-550.369	-192.928	-0.226	0.002
-549.354	357.625	-0.215	0.437
-548.339	-28.086	0.354	0.208
-547.325	-200.000	0.008	-0.174
-546.310	-109.484	-0.002	-0.000
-545.296	145.366	0.082	0.111
-544.281	-107.517	0.326	-0.073
-543.266	-64.980	-0.322	0.132
-542.252	-200.000	-0.015	-0.229
-541.237	-32.827	-0.262	-0.148
-540.223	-83.383	0.391	-0.128
-539.208	-4.314	0.223	0.157
-538.193	231.500	-0.066	-0.109
-537.179	18.967	0.262	0.214
-536.164	800.000	0.133	-0.378
-535.150	687.541	0.059	-0.156
-534.135	-23.755	0.137	-0.083
-533.121	491.459	0.067	0.156
-532.106	-116.234	-0.274	-0.052
-531.091	23.232	-0.325	-0.272
-530.077	-75.357	-0.076	0.028
-529.062	-131.476	-0.241	0.032
-528.048	-151.314	-0.176	-0.013
-527.033	-200.000	0.067	0.388
-526.018	-45.135	-0.107	-0.054
-525.004	-99.343	0.339	-0.087
-523.989	-200.000	-0.006	-0.052
-522.975	-200.000	-0.006	0.030
-521.960	-200.000	0.003	0.024
-520.945	-123.219	0.208	0.034
-519.931	427.941	-0.092	0.202
-518.916	-90.263	0.383	-0.113
-517.902	-109.142	0.374	0.081
-516.887	7.911	-0.065	0.049
-515.872	-126.497	0.254	0.038
-514.858	261.528	-0.058	-0.103
-513.843	9.304	-0.161	-0.124
-512.829	-62.757	-0.197	0.083
-511.814	102.707	0.295	0.351
-510.799	800.000	-0.020	0.062
-509.785	-200.000	-0.009	-0.189
-508.770	125.725	0.087	0.111
-507.756	79.719	0.094	-0.103
-506.741	-45.572	-0.058	-0.029
-505.726	15.070	0.046	0.036
-504.712	631.323	0.027	0.069
-503.697	137.047	0.169	-0.224
-502.683	-25.625	-0.194	0.116
-501.668	-147.442	-0.119	0.010
-500.653	-5.690	0.127	-0.088
-499.639	-166.771	-0.226	0.009
-498.624	800.000	-0.067	-0.239
-497.610	14.735	0.278	0.221
-496.595	33.080	0.107	0.094
-495.581	-200.000	-0.020	0.160
-494.566	249.275	-0.081	0.139
-493.551	-132.439	-0.325	-0.043
-492.537	34.999	-0.289	0.257
-491.522	-200.000	0.013	-0.120
-490.508	-200.000	0.049	-0.344
-489.493	414.474	0.067	-0.146
-488.478	-14.398	-0.357	0.233
-487.464	45.080	0.419	-0.392
-486.449	-101.293	-0.178	0.044
-485.435	136.142	0.107	0.141
-484.420	205.357	0.202	0.319
-483.405	800.000	-0.025	0.099
-482.391	-103.771	0.351	0.083
-481.376	800.000	-0.053	0.168
-480.362	233.091	-0.069	-0.115
-479.347	86.185	0.238	0.266
-478.332	800.000	-0.102	-0.320
-477.318	-191.367	-0.101	-0.001
-476.303	800.000	0.068	0.227
-475.289	-200.000	-0.008	-0.122
-474.274	-200.000	0.001	0.166
-473.259	-80.758	0.356	0.120
-472.245	-157.541	-0.425	-0.026
-471.230	90.196	-0.064	-0.073
-470.216	419.012	-0.032	0.069
-469.201	800.000	0.030	0.089
-468.186	109.781	0.228	0.277
-467.172	452.876	-0.103	-0.232
-466.157	-148.342	0.063	0.005
-465.143	53.828	-0.245	-0.239
-464.128	-20.789	-0.276	-0.172
-463.113	-10.511	0.270	0.182
-462.099	800.000	0.072	0.213
-461.084	-177.074	-0.058	0.001
-460.070	141.394	0.105	-0.141
-459.055	99.202	-0.152	0.178
-458.040	364.281	-0.051	0.104
-457.026	-150.364	-0.205	0.016
-456.011	85.896	0.127	0.142
-454.997	239.251	-0.056	0.095
-453.982	800.000	-0.047	-0.174
-452.968	-134.551	0.049	-0.006
-451.953	283.248	-0.101	-0.185
-450.938	57.015	-0.127	-0.126
-449.924	-50.894	0.294	0.140
-448.909	-0.068	-0.079	-0.057
-447.895	-16.257	-0.091	0.058
-446.880	270.327	-0.108	-0.193
-445.865	-200.000	-0.018	-0.238
-444.851	-108.897	-0.260	0.056
-443.836	29.493	-0.366	-0.316
-442.822	73.103	0.157	-0.166
-441.807	354.868	-0.112	-0.226
-440.792	-200.000	0.042	-0.000
-439.778	57.126	0.170	-0.168
-438.763	-46.829	-0.068	-0.034
-437.749	-45.893	0.076	-0.038
-436.734	-0.793	-0.165	0.118
-435.719	-12.732	0.356	0.235
-434.705	-40.787	0.102	0.053
-433.690	-166.872	-0.536	0.022
-432.676	800.000	-0.070	0.212
-431.661	53.545	-0.265	-0.258
-430.646	-200.000	-0.018	-0.221
-429.632	-52.442	-0.206	0.097
-428.617	-200.000	0.029	-0.196
-427.603	-200.000	-0.005	-0.218
-426.588	-200.000	-0.024	-0.151
-425.573	-200.000	-0.012	0.601
-424.559	-25.334	-0.146	0.088
-423.544	126.774	-0.127	0.163
-422.530	-199.030	0.189	-0.001
-421.515	800.000	0.009	-0.034
-420.500	800.000	0.028	-0.097
-419.486	183.763	-0.069	0.104
-418.471	-150.657	0.144	-0.011
-417.457	-200.000	0.044	0.254
-416.442	-200.000	0.017	0.239
-415.428	-107.410	0.086	0.019
-414.413	-200.000	-0.001	-0.028
-413.398	89.688	0.177	-0.199
-412.384	-20.389	0.116	0.073
-411.369	-181.414	0.138	-0.003
-410.355	-200.000	-0.023	-0.157
-409.340	-93.379	0.030	0.008
-408.325	48.001	-0.189	0.179
-407.311	-118.401	0.028	-0.005
-406.296	-19.187	0.265	-0.166
-405.282	367.223	-0.088	0.180
-404.267	37.533	0.145	-0.130
-403.252	375.100	-0.087	-0.179
-402.238	-22.711	-0.164	0.101
-401.223	209.260	0.171	0.271
-400.209	-85.501	-0.119	0.037
-399.194	800.000	-0.082	-0.251
-398.179	800.000	-0.064	-0.196
-397.165	-125.582	0.308	-0.047
-396.150	-200.000	-0.052	-0.268
-395.136	52.895	0.060	0.058
-394.121	-23.086	0.056	0.034
-393.106	-71.199	0.156	-0.059
-392.092	-32.310	0.166	-0.094
-391.077	-79.714	-0.055	0.019
-390.063	76.137	-0.080	0.086
-389.048	-104.096	-0.312	-0.073
-388.033	-59.092	-0.118	-0.051
-387.019	-108.645	-0.046	0.010
-386.004	-43.854	-0.215	-0.109
-384.990	-138.985	-0.451	0.049
-383.975	-29.091	-0.303	-0.176
-382.960	-21.824	0.113	-0.070
-381.946	240.322	0.010	0.016
-380.931	-200.000	0.043	0.311
-379.917	-110.629	-0.208	-0.043
-378.902	191.392	0.143	0.218
-377.888	800.000	-0.067	-0.212
-376.873	118.498	0.041	-0.051
-375.858	-11.369	-0.080	0.053
-374.844	-145.203	0.184	0.017
-373.829	-66.004	0.080	-0.032
-372.815	-124.217	-0.082	-0.013
-371.800	-177.981	0.209	-0.005
-370.785	166.120	-0.098	0.140
-369.771	384.070	-0.091	-0.190
-368.756	105.669	-0.218	0.260
-367.742	-105.759	-0.127	0.029
-366.727	57.272	0.369	0.364
-365.712	-200.000	-0.000	0.175
-364.698	161.046	-0.273	-0.385
-363.683	-84.589	0.111	-0.035
-362.669	476.641	0.072	-0.163
-361.654	28.844	-0.242	0.207
-360.639	-162.812	-0.164	-0.008
-359.625	-150.708	0.314	0.024
-358.610	67.108	-0.165	0.170
-357.596	0.236	0.130	0.093
-356.581	136.888	-0.163	0.215
-355.566	-74.813	0.303	-0.110
-354.552	-83.995	-0.236	-0.076
-353.537	-62.608	0.163	0.069
-352.523	800.000	0.080	-0.290
-351.508	20.899	-0.198	-0.162
-350.493	-34.566	-0.074	0.041
-349.479	-131.873	-0.300	0.040
-348.464	24.484	-0.031	-0.026
-347.450	-120.487	0.158	0.027
-346.435	-27.670	0.233	0.137
-345.420	-54.333	0.028	-0.013
-344.406	800.000	0.127	0.372
-343.391	90.307	0.050	-0.057
-342.377	-81.341	-0.230	-0.077
-341.362	129.363	0.081	-0.105
-340.348	-13.583	0.359	0.235
-339.333	109.153	-0.276	0.333
-338.318	-85.163	0.288	-0.091
-337.304	-150.329	0.139	0.011
-336.289	800.000	0.036	0.117
-335.275	-124.085	0.115	-0.018
-334.260	534.630	-0.068	0.163
-333.245	-51.958	0.060	0.028
-332.231	83.941	0.182	-0.200
-331.216	-200.000	-0.001	0.131
-330.202	-138.413	-0.055	-0.006
-329.187	-124.955	-0.201	-0.031
-328.172	77.480	-0.183	0.197
-327.158	-59.910	0.240	-0.104
-326.143	-120.466	-0.115	-0.020
-325.129	-74.974	-0.279	0.101
-324.114	-61.067	0.185	0.079
-323.099	-200.000	-0.030	0.135
-322.085	-72.933	-0.160	0.059
-321.070	226.132	0.090	-0.147
-320.056	-200.000	0.003	-0.116
-319.041	-55.337	0.169	-0.076
-318.026	262.224	-0.059	-0.103
-317.012	800.000	-0.136	-0.420
-315.997	-200.000	-0.018	-0.250
-314.983	-200.000	0.011	0.520
-313.968	-112.911	0.059	-0.012
-312.953	-200.000	-0.077	0.382
-311.939	-200.000	0.011	0.126
-310.924	65.598	-0.336	-0.344
-309.910	-140.478	-0.164	-0.017
-308.895	244.878	0.113	0.192
-307.880	-200.000	0.031	0.272
-306.866	602.220	0.090	0.227
-305.851	418.881	-0.078	-0.169
-304.837	-37.683	0.196	-0.105
-303.822	364.289	-0.077	-0.157
-302.807	-200.000	0.002	-0.206
-301.793	-34.972	-0.148	-0.081
-300.778	-200.000	0.049	-0.238
-299.764	800.000	0.111	-0.337
-298.749	-74.179	-0.162	-0.059
-297.735	39.224	0.198	-0.179
-296.720	800.000	-0.074	0.312
-295.705	138.797	0.067	0.089
-294.691	-200.000	-0.011	-0.065
-293.676	-105.575	0.227	0.052
-292.662	-75.038	-0.305	-0.110
-291.647	-200.000	-0.029	0.183
-290.632	-130.075	0.175	-0.024
-289.618	197.739	-0.193	0.298
-288.603	239.907	-0.048	0.081
-287.589	404.361	-0.088	0.187
-286.574	-93.117	0.073	-0.020
-285.559	-112.296	-0.105	-0.021
-284.545	610.223	-0.036	0.092
-283.530	167.282	0.157	0.224
-282.516	248.728	-0.049	0.083
-281.501	18.081	0.117	0.094
-280.486	-45.539	-0.249	0.124
-279.472	167.827	0.178	-0.254
-278.457	604.969	-0.087	0.219
-277.443	-200.000	-0.065	-0.305
-276.428	-113.074	-0.222	-0.044
-275.413	800.000	-0.106	-0.339
-274.399	-113.767	-0.306	-0.060
-273.384	800.000	0.078	0.219
-272.370	5.695	-0.209	0.155
-271.355	127.824	0.208	-0.266
-270.340	-170.884	-0.176	0.006
-269.326	-22.825	-0.057	0.035
-268.311	205.836	0.176	0.276
-267.297	-85.610	-0.104	-0.033
-266.282	-200.000	0.019	0.095
-265.267	-106.506	0.301	-0.068
-264.253	-115.300	0.140	0.027
-263.238	-200.000	-0.014	-0.168
-262.224	-85.590	-0.090	-0.028
-261.209	10.121	-0.174	-0.133
-260.195	800.000	-0.042	0.159
-259.180	-200.000	-0.012	0.413
-258.165	134.360	-0.159	-0.208
-257.151	-16.605	-0.082	0.053
-256.136	-38.261	0.297	0.158
-255.122	18.275	-0.124	-0.099
-254.107	800.000	-0.077	0.291
-253.092	249.628	-0.122	0.208
-252.078	-11.538	0.288	0.190
-251.063	-139.537	-0.053	-0.006
-250.049	-99.684	0.484	-0.122
-249.034	-6.713	0.151	0.103
-248.019	-171.008	0.139	0.005
-247.005	-133.528	-0.208	0.026
-245.990	112.546	0.047	0.057
-244.976	76.165	0.119	-0.126
-243.961	-17.681	0.114	0.072
-242.946	-200.000	0.011	0.053
-241.932	-131.283	0.277	0.037
-240.917	-31.514	-0.119	-0.067
-239.903	541.844	0.046	0.111
-238.888	144.436	-0.085	0.115
-237.873	-61.264	0.316	0.134
-236.859	524.794	-0.117	-0.277
-235.844	265.667	0.095	-0.167
-234.830	-200.000	0.007	-0.184
-233.815	21.781	0.223	-0.183
-232.800	-77.594	0.215	0.075
-231.786	800.000	0.038	0.134
-230.771	48.620	-0.102	0.096
-229.757	-161.730	-0.148	-0.008
-228.742	241.994	-0.041	0.069
-227.727	385.577	0.213	0.442
-226.713	39.365	0.152	-0.136
-225.698	-52.334	-0.277	-0.129
-224.684	-60.175	0.237	-0.102
-223.669	-90.341	-0.350	-0.102
-222.655	123.999	-0.057	-0.071
-221.640	-88.152	0.255	-0.077
-220.625	-82.645	0.191	-0.062
-219.611	-141.315	-0.134	-0.014
-218.596	-31.225	-0.095	-0.054
-217.582	33.171	-0.249	-0.217
-216.567	-87.665	-0.320	0.097
-215.552	109.096	-0.191	-0.230
-214.538	-200.000	-0.007	-0.291
-213.523	18.284	-0.228	-0.183
-212.509	-89.985	0.088	-0.026
-211.494	-75.580	-0.279	0.099
-210.479	-164.858	-0.328	0.015
-209.465	-200.000	0.046	0.293
-208.450	-156.556	0.476	-0.030
-207.436	222.291	-0.095	0.154
-206.421	36.933	0.175	-0.156
-205.406	251.921	0.125	-0.215
-204.392	-23.048	0.171	-0.103
-203.377	458.503	0.058	0.130
-202.363	9.447	-0.115	0.087
-201.348	-200.000	0.001	0.197
-200.333	107.380	-0.043	0.051
-199.319	56.091	0.117	-0.114
-198.304	-24.007	0.296	-0.178
-197.290	68.331	0.145	-0.149
-196.275	-88.695	0.170	-0.051
-195.260	8.446	0.187	0.141
-194.246	-15.815	0.321	0.205
-193.231	-200.000	-0.012	-0.344
-192.217	167.411	-0.160	0.228
-191.202	-0.622	0.134	-0.095
-190.187	-200.000	0.033	-0.203
-189.173	-44.525	-0.081	-0.041
-188.158	4.579	-0.080	0.059
-187.144	71.813	0.092	-0.096
-186.129	8.172	-0.096	0.072
-185.114	-200.000	-0.026	-0.246
-184.100	385.908	-0.144	-0.298
-183.085	145.264	-0.063	0.085
-182.071	-200.000	0.016	0.322
-181.056	152.438	0.194	0.266
-180.042	-80.860	-0.369	-0.123
-179.027	-200.000	-0.017	-0.441
-178.012	-70.991	0.197	-0.074
-176.998	-7.080	0.146	0.099
-175.983	14.069	0.224	-0.175
-174.969	-64.062	0.158	-0.065
-173.954	60.205	0.258	0.256
-172.939	-116.791	0.368	-0.068
-171.925	-200.000	-0.340	-0.001
-170.910	-102.305	0.064	0.015
-169.896	-146.456	0.201	0.018
-168.881	400.622	-0.097	0.205
-167.866	453.323	0.070	-0.155
-166.852	-66.018	0.262	0.105
-165.837	-200.000	-0.082	0.506
-164.823	-200.000	0.001	0.373
-163.808	201.343	0.210	0.325
-162.793	800.000	-0.115	0.430
-161.779	-63.572	0.115	-0.047
-160.764	-132.147	-0.264	0.034
-159.750	-200.000	0.047	-0.325
-158.735	-43.250	-0.081	-0.041
-157.720	205.137	0.245	0.382
-156.706	-200.000	-0.051	0.294
-155.691	101.231	-0.107	0.125
-154.677	-47.507	0.132	0.064
-153.662	-119.044	-0.174	-0.031
-152.647	-200.000	-0.282	-0.000
-151.633	368.583	0.102	-0.206
-150.618	-111.568	0.285	0.058
-149.604	5.170	-0.141	-0.104
-148.589	-11.880	-0.140	-0.092
-147.574	90.204	0.063	-0.070
-146.560	51.275	0.100	0.095
-145.545	-200.000	0.008	-0.105
-144.531	-200.000	0.019	0.175
-143.516	-200.000	-0.009	0.208
-142.502	-135.156	0.389	0.047
-141.487	-149.888	-0.026	0.002
-140.472	161.504	-0.091	-0.127
-139.458	-30.808	0.295	0.167
-138.443	213.175	-0.113	0.179
-137.429	-86.551	0.328	-0.101
-136.414	-73.235	-0.085	0.031
-135.399	-131.339	-0.042	0.006
-134.385	-55.036	-0.026	0.012
-133.370	-86.093	-0.343	0.106
-132.356	-57.102	0.282	-0.124
-131.341	359.511	-0.046	0.092
-130.326	216.410	-0.101	-0.161
-129.312	58.212	0.104	0.102
-128.297	402.270	0.197	0.415
-127.283	49.320	0.043	0.041
-126.268	-113.655	0.175	0.034
-125.253	-144.706	0.054	0.005
-124.239	118.689	-0.210	0.260
-123.224	-50.747	0.052	0.025
-122.210	800.000	0.062	-0.196
