DTS Sentinel unit serial number:	SN413079Multiplexer serial number:	ORYXHardware model number:	OX4-SRSoftware version number:	ORYX F/W v4.00 Oryx Data Collector v3.7.2.0data status	okinstallation	princeton_trtdifferential loss correction	single-endedforward channel	channel 3reverse channel	N/Adate	2019/09/16time	08:12:35forward acquisition time	60.00reverse acquisition time	0.00gamma	496.2192k internal	0.2327k external	0.2327temperature offset calibration	0.9959default loss term (dB/km)	0.3790temperature slope calibration	1.0000multiplexer offset coefficient	1.0000multiplexer slope coefficient	1.0000fibre end	0.00T internal ref (°C)	28.80T ext. ref 1 (°C)	11.82T ext. ref 2 (°C)	25.07length (m)	temperature (°C)	Stokes	anti-Stokes-747.200	16.169	0.217	0.172
-746.185	-200.000	0.027	0.240
-745.171	64.252	0.074	-0.075
-744.156	55.269	-0.414	0.404
-743.142	71.761	-0.301	0.315
-742.127	-200.000	0.037	0.173
-741.112	-36.530	-0.040	0.022
-740.098	627.459	-0.071	-0.181
-739.083	-23.354	0.280	0.170
-738.069	-121.559	-0.064	0.011
-737.054	122.173	0.062	0.078
-736.039	-200.000	-0.008	0.073
-735.025	13.858	-0.263	0.206
-734.010	90.528	-0.240	0.271
-732.996	-200.000	-0.075	-0.387
-731.981	309.730	0.047	0.088
-730.966	-114.762	-0.462	0.089
-729.952	13.175	0.180	0.141
-728.937	-124.049	-0.093	0.015
-727.923	164.209	-0.190	0.269
-726.908	183.714	-0.121	-0.181
-725.894	71.161	-0.203	-0.212
-724.879	-96.670	-0.219	0.058
-723.864	-132.835	-0.377	0.048
-722.850	384.422	-0.116	0.241
-721.835	-168.099	-0.126	-0.005
-720.821	-200.000	-0.018	-0.288
-719.806	800.000	0.028	-0.081
-718.791	-170.240	0.258	0.009
-717.777	510.492	-0.037	0.087
-716.762	90.588	-0.059	-0.067
-715.748	80.686	0.238	-0.259
-714.733	-200.000	0.036	-0.263
-713.718	96.196	-0.216	0.249
-712.704	-102.118	-0.276	-0.067
-711.689	-25.510	-0.323	-0.192
-710.675	-200.000	-0.008	-0.340
-709.660	11.640	0.129	0.100
-708.645	575.911	0.101	-0.249
-707.631	551.403	0.129	-0.313
-706.616	800.000	0.101	0.301
-705.602	-125.490	0.077	0.012
-704.587	-85.994	-0.348	-0.108
-703.572	-200.000	-0.001	-0.085
-702.558	-72.893	-0.284	-0.105
-701.543	-28.428	-0.088	0.051
-700.529	271.157	-0.190	0.337
-699.514	33.938	-0.135	-0.119
-698.499	-136.328	-0.057	-0.007
-697.485	117.867	0.130	0.161
-696.470	229.054	0.183	0.300
-695.456	-7.952	0.268	-0.182
-694.441	-200.000	0.008	0.405
-693.426	-200.000	-0.002	-0.149
-692.412	-200.000	-0.018	-0.290
-691.397	-52.585	-0.210	-0.097
-690.383	107.908	-0.106	0.127
-689.368	-84.138	0.379	-0.121
-688.354	-200.000	-0.007	-0.097
-687.339	-58.965	-0.050	-0.022
-686.324	-102.314	0.167	-0.040
-685.310	102.958	0.176	-0.207
-684.295	333.887	-0.166	-0.324
-683.281	12.980	-0.090	-0.070
-682.266	-200.000	0.023	-0.213
-681.251	265.639	-0.087	0.152
-680.237	230.874	-0.092	-0.151
-679.222	250.515	-0.072	0.122
-678.208	63.297	-0.169	0.171
-677.193	-200.000	-0.018	-0.221
-676.178	48.562	-0.053	0.050
-675.164	-200.000	0.017	-0.319
-674.149	-57.386	0.172	-0.076
-673.135	67.947	-0.059	-0.060
-672.120	-197.213	0.077	-0.000
-671.105	-200.000	0.000	-0.016
-670.091	478.454	-0.160	0.363
-669.076	-131.414	-0.084	0.011
-668.062	-90.717	-0.358	0.104
-667.047	-160.443	-0.131	0.007
-666.032	53.975	0.161	-0.155
-665.018	86.288	0.107	0.119
-664.003	64.194	0.273	-0.276
-662.989	441.025	-0.114	-0.250
-661.974	-200.000	0.020	0.214
-660.959	-200.000	-0.058	-0.263
-659.945	800.000	0.061	-0.199
-658.930	20.267	0.191	0.155
-657.916	-200.000	-0.044	0.348
-656.901	528.782	-0.089	-0.211
-655.886	-95.448	-0.129	0.035
-654.872	37.680	0.079	0.070
-653.857	168.209	0.048	0.069
-652.843	-121.059	0.135	-0.023
-651.828	30.216	0.093	0.080
-650.814	-10.612	0.109	-0.072
-649.799	-176.801	0.275	-0.007
-648.784	-81.702	0.103	-0.034
-647.770	-136.014	-0.171	0.020
-646.755	560.311	0.096	0.232
-645.741	-64.024	0.176	-0.072
-644.726	-200.000	-0.033	0.186
-643.711	418.367	-0.060	0.128
-642.697	92.807	0.094	-0.106
-641.682	-144.559	0.125	-0.012
-640.668	92.194	-0.096	-0.109
-639.653	-138.431	0.331	-0.037
-638.638	-36.781	-0.475	-0.256
-637.624	-34.308	-0.156	-0.086
-636.609	-98.380	0.121	-0.031
-635.595	800.000	-0.061	0.237
-634.580	-76.098	-0.368	-0.130
-633.565	-34.653	0.358	-0.197
-632.551	-57.632	-0.160	0.071
-631.536	-200.000	-0.004	0.025
-630.522	-110.168	0.047	-0.010
-629.507	-186.116	-0.330	0.005
-628.492	143.198	0.026	0.035
-627.478	-61.315	0.079	-0.033
-626.463	800.000	0.035	0.140
-625.449	91.559	-0.149	0.168
-624.434	-200.000	-0.025	-0.305
-623.419	-63.827	-0.198	-0.081
-622.405	77.260	-0.119	0.127
-621.390	-161.392	-0.084	-0.004
-620.376	800.000	0.061	0.241
-619.361	57.321	-0.026	0.025
-618.346	165.381	0.118	-0.167
-617.332	-200.000	0.012	0.125
-616.317	279.628	-0.160	-0.287
-615.303	-134.969	-0.106	-0.013
-614.288	800.000	0.074	-0.270
-613.273	273.896	0.084	-0.150
-612.259	-3.124	-0.192	-0.134
-611.244	199.066	-0.044	0.067
-610.230	-200.000	-0.010	-0.073
-609.215	-99.383	-0.100	0.025
-608.201	108.202	0.170	0.203
-607.186	-119.554	-0.192	-0.033
-606.171	-21.124	-0.065	-0.040
-605.157	-177.088	-0.262	-0.007
-604.142	-32.856	-0.247	-0.138
-603.128	22.447	0.185	0.152
-602.113	-66.968	0.085	0.034
-601.098	-200.000	0.043	-0.204
-600.084	-4.690	-0.257	-0.178
-599.069	-200.000	-0.074	-0.527
-598.055	-200.000	0.000	0.020
-597.040	-6.912	0.045	-0.031
-596.025	74.315	-0.202	-0.212
-595.011	-200.000	-0.032	-0.318
-593.996	-200.000	-0.027	0.305
-592.982	-200.000	-0.012	0.137
-591.967	-21.751	0.282	0.172
-590.952	305.276	-0.085	0.158
-589.938	-40.878	-0.181	0.094
-588.923	690.349	-0.081	-0.212
-587.909	-99.303	-0.082	0.021
-586.894	275.534	-0.071	0.125
-585.879	291.635	0.169	-0.308
-584.865	-12.346	0.239	0.157
-583.850	111.939	-0.143	0.173
-582.836	800.000	-0.063	-0.238
-581.821	190.401	0.014	-0.021
-580.806	21.739	0.203	0.166
-579.792	56.411	-0.181	-0.176
-578.777	742.488	0.099	-0.266
-577.763	-135.695	-0.145	-0.017
-576.748	-66.760	-0.329	-0.130
-575.733	-200.000	0.015	0.076
-574.719	-198.125	0.260	-0.002
-573.704	-200.000	-0.054	-0.359
-572.690	-200.000	0.027	0.188
-571.675	-77.482	0.262	0.091
-570.661	91.576	-0.144	-0.162
-569.646	165.074	-0.275	0.389
-568.631	-200.000	-0.002	-0.205
-567.617	800.000	-0.080	-0.270
-566.602	-66.760	-0.073	0.029
-565.588	133.120	0.189	0.244
-564.573	6.246	0.093	-0.069
-563.558	-44.630	0.134	0.067
-562.544	800.000	0.054	0.180
-561.529	619.746	-0.096	-0.242
-560.515	169.128	-0.057	0.082
-559.500	227.730	-0.059	-0.096
-558.485	202.994	-0.060	-0.093
-557.471	-200.000	-0.005	-0.057
-556.456	94.068	-0.107	0.121
-555.442	482.272	0.060	0.135
-554.427	-5.816	-0.206	0.141
-553.412	-200.000	-0.001	0.112
-552.398	338.302	0.018	-0.035
-551.383	-103.854	-0.160	0.038
-550.369	-200.000	-0.026	-0.120
-549.354	-85.824	-0.296	-0.092
-548.339	-57.105	-0.217	0.096
-547.325	-200.000	-0.043	-0.268
-546.310	6.766	-0.108	-0.081
-545.296	800.000	0.100	-0.314
-544.281	157.734	-0.280	-0.388
-543.266	800.000	-0.080	0.224
-542.252	-82.498	0.228	-0.074
-541.237	-52.245	-0.060	-0.028
-540.223	-27.425	-0.126	-0.073
-539.208	201.619	-0.230	-0.354
-538.193	145.039	-0.251	-0.336
-537.179	13.085	-0.202	-0.156
-536.164	-200.000	0.054	0.276
-535.150	339.706	0.242	-0.472
-534.135	800.000	0.103	-0.375
-533.121	-29.878	-0.429	0.245
-532.106	800.000	0.047	-0.200
-531.091	-200.000	0.009	0.123
-530.077	237.954	-0.186	-0.308
-529.062	-155.534	-0.141	-0.009
-528.048	-13.757	0.373	-0.241
-527.033	127.066	0.193	0.244
-526.018	80.509	0.040	0.043
-525.004	13.128	0.160	0.124
-523.989	-3.004	0.093	-0.065
-522.975	-59.484	-0.104	0.045
-521.960	800.000	0.043	-0.175
-520.945	-156.074	-0.185	0.012
-519.931	800.000	-0.006	-0.017
-518.916	129.313	-0.237	0.303
-517.902	185.548	-0.064	0.094
-516.887	269.221	-0.109	-0.191
-515.872	800.000	-0.087	0.317
-514.858	25.470	0.343	-0.285
-513.843	800.000	-0.073	0.247
-512.829	800.000	-0.040	0.148
-511.814	-200.000	0.054	0.281
-510.799	35.438	-0.136	0.119
-509.785	37.141	-0.122	-0.108
-508.770	240.270	0.092	-0.153
-507.756	-200.000	0.283	0.000
-506.741	-95.008	0.060	0.016
-505.726	43.901	-0.073	0.066
-504.712	184.089	-0.158	-0.234
-503.697	134.298	0.120	-0.155
-502.683	35.439	0.125	0.110
-501.668	800.000	-0.013	0.040
-500.653	-200.000	-0.035	0.496
-499.639	-142.648	0.107	0.010
-498.624	541.027	-0.078	-0.185
-497.610	800.000	0.033	0.119
-496.595	-30.285	-0.216	-0.123
-495.581	-71.865	0.058	0.022
-494.566	311.432	0.105	-0.197
-493.551	416.451	-0.077	-0.165
-492.537	66.599	0.381	0.387
-491.522	268.398	-0.081	-0.141
-490.508	-200.000	-0.022	-0.257
-489.493	707.849	0.064	-0.169
-488.478	-60.619	0.242	0.103
-487.464	-16.811	0.032	-0.020
-486.449	-17.894	-0.155	-0.097
-485.435	-107.726	-0.428	0.093
-484.420	-7.233	0.369	0.250
-483.405	-113.198	-0.256	-0.050
-482.391	26.660	0.512	-0.428
-481.376	185.744	-0.097	-0.143
-480.362	6.229	-0.030	-0.022
-479.347	-111.650	0.201	0.041
-478.332	-200.000	-0.006	0.158
-477.318	31.618	-0.030	0.026
-476.303	-187.100	-0.123	-0.002
-475.289	-200.000	0.041	-0.317
-474.274	-107.000	-0.056	0.012
-473.259	-111.718	-0.210	0.042
-472.245	-172.940	0.434	-0.013
-471.230	-42.054	0.069	-0.035
-470.216	-200.000	-0.027	-0.296
-469.201	42.139	-0.211	-0.191
-468.186	-200.000	-0.043	-0.262
-467.172	-144.612	0.212	-0.019
-466.157	5.294	0.220	0.162
-465.143	94.930	0.235	0.267
-464.128	224.197	-0.148	-0.238
-463.113	748.826	-0.083	0.222
-462.099	84.875	0.094	0.103
-461.084	-18.567	-0.170	0.106
-460.070	800.000	0.026	0.072
-459.055	-56.148	-0.208	0.092
-458.040	19.232	-0.111	-0.089
-457.026	-36.143	0.345	0.186
-456.011	43.588	-0.168	-0.153
-454.997	23.977	-0.195	0.160
-453.982	-52.963	-0.194	0.089
-452.968	800.000	-0.017	-0.052
-451.953	800.000	-0.143	-0.409
-450.938	-151.275	0.409	-0.030
-449.924	89.999	-0.187	-0.208
-448.909	-68.702	0.163	-0.063
-447.895	-138.165	-0.273	-0.030
-446.880	-200.000	0.031	0.232
-445.865	-18.778	-0.246	0.153
-444.851	204.179	0.169	-0.261
-443.836	-72.416	0.281	0.103
-442.822	-25.186	-0.149	-0.088
-441.807	-116.308	0.106	-0.020
-440.792	155.897	-0.080	-0.110
-439.778	297.128	0.079	0.145
-438.763	-200.000	0.011	-0.290
-437.749	-13.724	-0.070	0.045
-436.734	-65.429	0.330	-0.132
-435.719	-183.164	0.309	0.005
-434.705	-196.284	-0.101	0.001
-433.690	-136.522	0.407	0.047
-432.676	-156.521	-0.074	0.005
-431.661	-76.922	-0.191	-0.067
-430.646	-58.263	-0.311	0.135
-429.632	-66.914	0.305	0.120
-428.617	295.096	-0.078	-0.142
-427.603	79.350	-0.213	0.228
-426.588	495.815	0.121	0.278
-425.573	99.314	0.220	0.254
-424.559	77.782	0.058	0.062
-423.544	15.869	-0.164	0.129
-422.530	800.000	0.051	-0.220
-421.515	72.666	-0.162	0.169
-420.500	566.885	-0.145	0.350
-419.486	-200.000	-0.008	0.178
-418.471	-35.559	0.162	-0.087
-417.457	-41.599	-0.201	-0.103
-416.442	15.230	0.123	-0.096
-415.428	-99.447	-0.207	0.052
-414.413	159.568	0.123	0.171
-413.398	376.798	0.153	-0.310
-412.384	100.198	-0.141	0.163
-411.369	-68.772	-0.049	-0.019
-410.355	483.868	-0.122	-0.276
-409.340	800.000	0.151	0.436
-408.325	137.293	0.036	-0.047
-407.311	800.000	-0.028	0.091
-406.296	43.130	0.233	0.211
-405.282	-98.672	-0.294	0.075
-404.267	800.000	-0.040	0.166
-403.252	36.134	-0.343	0.300
-402.238	121.701	0.147	0.183
-401.223	51.795	0.229	0.217
-400.209	800.000	-0.121	0.414
-399.194	-200.000	-0.002	-0.119
-398.179	-24.193	0.136	-0.081
-397.165	-87.215	0.399	0.121
-396.150	-130.676	0.281	0.038
-395.136	-200.000	0.019	0.170
-394.121	239.287	-0.200	0.331
-393.106	143.048	-0.109	-0.144
-392.092	-200.000	-0.305	-0.001
-391.077	161.195	0.141	-0.196
-390.063	-200.000	-0.023	0.127
-389.048	800.000	-0.038	-0.115
-388.033	-41.868	0.309	-0.158
-387.019	-5.627	-0.082	-0.056
-386.004	-50.802	0.042	-0.019
-384.990	-7.619	0.407	0.274
-383.975	414.826	-0.113	-0.240
-382.960	-200.000	-0.090	-0.461
-381.946	683.388	0.040	-0.105
-380.931	288.299	-0.161	-0.289
-379.917	631.117	0.071	0.179
-378.902	201.490	0.109	0.166
-377.888	800.000	0.023	-0.083
-376.873	-133.567	0.174	0.022
-375.858	-120.342	-0.231	-0.039
-374.844	-45.133	0.236	0.117
-373.829	-200.000	0.023	0.127
-372.815	156.073	0.239	0.328
-371.800	-81.147	0.120	0.039
-370.785	266.656	0.093	-0.162
-369.771	7.713	-0.325	-0.242
-368.756	-200.000	-0.006	-0.317
-367.742	-200.000	0.002	0.167
-366.727	-200.000	0.008	0.398
-365.712	615.016	0.039	-0.096
-364.698	292.142	0.121	0.219
-363.683	93.154	0.222	0.249
-362.669	-10.815	-0.065	0.043
-361.654	-75.755	0.289	0.102
-360.639	-68.720	0.426	-0.164
-359.625	-25.027	0.239	0.141
-358.610	-90.761	-0.033	0.009
-357.596	-177.035	-0.347	-0.009
-356.581	-49.289	-0.179	-0.085
-355.566	263.878	-0.143	0.247
-354.552	-200.000	-0.007	-0.097
-353.537	470.234	0.020	-0.045
-352.523	-71.905	-0.368	-0.136
-351.508	-158.643	-0.184	0.010
-350.493	149.846	0.056	-0.075
-349.479	-145.264	-0.233	0.021
-348.464	153.278	0.230	0.312
-347.450	-181.625	0.365	-0.007
-346.435	-65.044	0.224	-0.090
-345.420	734.417	0.042	0.112
-344.406	-186.404	0.090	0.001
-343.391	298.582	-0.089	0.162
-342.377	7.853	0.141	0.105
-341.362	-200.000	-0.056	0.277
-340.348	-148.524	-0.351	0.028
-339.333	-200.000	0.017	-0.090
-338.318	235.150	0.243	-0.398
-337.304	-116.207	0.184	-0.034
-336.289	257.789	-0.115	0.196
-335.275	-61.605	0.339	0.141
-334.260	-80.176	-0.200	0.066
-333.245	236.558	-0.047	0.077
-332.231	-200.000	0.018	-0.157
-331.216	-200.000	0.068	-0.351
-330.202	577.763	0.133	0.323
-329.187	33.772	-0.096	-0.083
-328.172	8.555	0.322	0.240
-327.158	-67.354	0.200	-0.078
-326.143	800.000	-0.099	-0.388
-325.129	133.132	-0.060	0.077
-324.114	800.000	0.106	-0.323
-323.099	76.849	-0.069	0.072
-322.085	-200.000	-0.006	-0.164
-321.070	-200.000	-0.024	0.246
-320.056	800.000	0.061	0.189
-319.041	44.966	0.224	0.205
-318.026	156.893	-0.218	0.298
-317.012	-200.000	0.055	0.246
-315.997	705.598	-0.056	0.148
-314.983	-79.989	-0.123	0.041
-313.968	90.404	-0.124	-0.137
-312.953	-153.344	0.162	-0.011
-311.939	-46.055	0.164	-0.080
-310.924	-200.000	-0.021	-0.230
-309.910	800.000	0.069	0.191
-308.895	-77.835	0.122	-0.042
-307.880	-119.720	0.197	-0.034
-306.866	-123.322	0.130	-0.021
-305.851	129.186	0.107	-0.136
-304.837	-93.911	-0.091	-0.025
-303.822	76.921	-0.314	0.330
-302.807	222.718	-0.126	0.201
-301.793	-94.409	0.186	0.050
-300.778	-96.895	0.129	0.034
-299.764	37.579	-0.140	0.123
-298.749	-19.688	0.170	-0.104
-297.735	-125.469	-0.114	-0.017
-296.720	-200.000	-0.033	0.152
-295.705	36.598	0.247	-0.216
-294.691	-126.679	-0.244	0.036
-293.676	-71.167	0.247	-0.092
-292.662	-22.817	-0.461	0.276
-291.647	-169.085	-0.199	-0.007
-290.632	7.557	0.085	0.063
-289.618	100.273	-0.238	0.274
-288.603	-200.000	0.032	0.174
-287.589	-2.489	-0.178	-0.124
-286.574	800.000	0.055	-0.221
-285.559	10.771	0.145	-0.110
-284.545	214.738	0.148	-0.232
-283.530	-200.000	0.043	-0.298
-282.516	-2.947	0.213	-0.148
-281.501	-131.710	-0.086	-0.011
-280.486	285.680	0.214	0.383
-279.472	168.239	-0.079	0.111
-278.457	9.088	0.085	-0.064
-277.443	-112.008	-0.296	0.059
-276.428	270.781	0.044	-0.076
-275.413	-200.000	0.010	0.246
-274.399	-103.557	-0.238	-0.055
-273.384	-127.793	-0.179	0.026
-272.370	-51.695	-0.217	0.100
-271.355	-112.608	-0.107	-0.021
-270.340	-200.000	0.047	0.263
-269.326	-74.401	0.322	-0.115
-268.311	13.428	-0.073	-0.056
-267.297	-148.941	-0.347	0.028
-266.282	474.466	0.077	0.171
-265.267	5.571	-0.132	-0.097
-264.253	-70.271	-0.127	-0.048
-263.238	49.468	-0.138	-0.128
-262.224	105.072	-0.183	-0.213
-261.209	171.713	-0.156	0.222
-260.195	-127.805	-0.217	-0.031
-259.180	-200.000	0.041	-0.197
-258.165	-200.000	0.022	0.144
-257.151	800.000	-0.084	0.336
-256.136	-101.840	0.420	0.101
-255.122	-129.661	-0.124	-0.017
-254.107	800.000	0.095	0.269
-253.092	-5.779	-0.114	-0.078
-252.078	98.285	-0.275	-0.313
-251.063	-141.440	0.131	0.013
-250.049	364.300	-0.025	0.050
-249.034	71.332	0.178	-0.183
-248.019	-38.038	0.068	-0.036
-247.005	529.463	-0.009	0.021
-245.990	-127.515	-0.242	-0.035
-244.976	-71.502	0.458	0.169
-243.961	-200.000	0.013	0.460
-242.946	-32.260	-0.177	0.097
-241.932	-200.000	-0.020	-0.095
-240.917	133.466	-0.227	0.290
-239.903	57.113	0.121	0.116
-238.888	-74.369	0.055	-0.020
-237.873	-49.783	-0.421	0.198
-236.859	200.763	0.096	-0.146
-235.844	607.730	0.118	-0.291
-234.830	-115.245	0.032	-0.006
-233.815	-5.830	0.136	0.092
-232.800	800.000	-0.072	0.232
-231.786	101.426	0.291	0.335
-230.771	83.034	0.262	-0.281
-229.757	390.377	0.057	0.117
-228.742	-200.000	0.048	0.405
-227.727	-200.000	-0.052	-0.338
-226.713	6.355	-0.211	0.155
-225.698	-149.751	-0.384	0.030
-224.684	83.617	0.152	-0.164
-223.669	-65.193	-0.427	-0.170
-222.655	105.217	0.326	0.381
-221.640	-109.127	-0.135	0.028
-220.625	-80.814	0.184	-0.060
-219.611	-200.000	-0.038	-0.226
-218.596	-200.000	0.037	0.227
-217.582	591.708	0.189	-0.460
-216.567	-152.603	-0.186	0.013
-215.552	101.651	-0.174	0.200
-214.538	-115.768	-0.218	0.040
-213.523	-128.037	0.337	-0.048
-212.509	632.486	-0.035	0.088
-211.494	262.773	-0.177	-0.303
-210.479	638.890	0.213	-0.534
-209.465	-49.970	0.214	0.100
-208.450	-200.000	-0.015	-0.200
-207.436	-43.216	0.277	0.139
-206.421	90.174	-0.160	-0.177
-205.406	13.549	0.109	-0.083
-204.392	-99.257	0.023	-0.006
-203.377	-175.888	0.179	0.005
-202.363	247.090	0.169	0.282
-201.348	59.202	-0.079	-0.076
-200.333	-46.764	-0.133	-0.064
-199.319	-132.685	0.287	0.036
-198.304	-32.605	0.229	-0.126
-197.290	-200.000	-0.061	-0.478
-196.275	417.736	-0.100	0.212
-195.260	55.127	0.315	0.300
-194.246	800.000	0.046	-0.193
-193.231	-115.188	0.143	-0.027
-192.217	584.090	0.044	0.107
-191.202	800.000	-0.046	0.168
-190.187	-133.152	0.140	-0.017
-189.173	215.600	-0.065	0.101
-188.158	-99.425	0.353	-0.088
-187.144	-56.415	-0.436	-0.191
-186.129	13.266	0.241	-0.184
-185.114	-200.000	-0.007	-0.113
-184.100	83.096	-0.140	-0.150
-183.085	-30.365	0.284	-0.159
-182.071	82.974	-0.048	0.051
-181.056	160.995	-0.174	0.239
-180.042	139.129	0.053	0.069
-179.027	161.623	-0.299	-0.413
-178.012	800.000	0.046	-0.186
-176.998	214.697	0.164	0.256
-175.983	800.000	-0.065	0.216
-174.969	-200.000	-0.026	0.126
-173.954	-84.626	0.164	-0.051
-172.939	52.188	0.216	0.203
-171.925	242.036	-0.102	0.168
-170.910	800.000	-0.027	-0.083
-169.896	-200.000	-0.016	-0.233
-168.881	357.299	-0.110	-0.217
-167.866	800.000	0.095	0.263
-166.852	-33.749	0.200	0.109
-165.837	-200.000	-0.034	-0.258
-164.823	-200.000	0.083	-0.357
-163.808	-59.961	0.439	-0.185
-162.793	-69.383	-0.016	0.006
-161.779	-116.723	-0.169	0.031
-160.764	54.643	-0.076	0.073
-159.750	230.113	-0.155	0.250
-158.735	-60.185	0.235	0.099
-157.720	800.000	-0.084	0.313
-156.706	-200.000	-0.087	-0.466
-155.691	9.479	0.207	-0.154
-154.677	-32.622	-0.306	0.168
-153.662	150.072	-0.069	0.092
-152.647	640.570	-0.067	0.169
-151.633	-200.000	0.003	0.178
-150.618	313.879	0.145	0.269
-149.604	-22.065	-0.335	-0.201
-148.589	-100.676	-0.058	-0.014
-147.574	-62.047	0.272	0.112
-146.560	-200.000	-0.011	0.391
-145.545	69.071	0.116	0.118
-144.531	-74.620	0.308	0.109
-143.516	-32.148	0.093	0.051
-142.502	153.644	0.055	-0.075
-141.487	126.625	-0.224	0.279
-140.472	-200.000	-0.003	-0.178
-139.458	-170.402	0.114	-0.004
-138.443	-190.962	-0.307	-0.003
-137.429	-200.000	-0.001	0.027
-136.414	104.392	-0.245	0.284
-135.399	-69.110	0.371	-0.141
-134.385	-110.777	0.238	0.048
-133.370	109.053	0.255	0.301
-132.356	-91.255	0.146	-0.041
-131.341	-70.146	0.459	-0.172
-130.326	-106.379	-0.082	-0.018
-129.312	61.706	-0.129	0.127
-128.297	31.166	-0.192	-0.162
-127.283	272.325	-0.119	0.206
-126.268	109.252	0.185	-0.218
-125.253	800.000	0.046	0.189
-124.239	48.286	-0.052	-0.048
-123.224	223.098	0.036	-0.057
-122.210	-33.147	0.123	0.067
-121.195	419.485	-0.089	0.187
