DTS Sentinel unit serial number:	SN413079Multiplexer serial number:	ORYXHardware model number:	OX4-SRSoftware version number:	ORYX F/W v4.00 Oryx Data Collector v3.7.2.0data status	okinstallation	princeton_trtdifferential loss correction	single-endedforward channel	channel 3reverse channel	N/Adate	2019/09/19time	08:36:35forward acquisition time	60.00reverse acquisition time	0.00gamma	496.2192k internal	0.2347k external	0.2347temperature offset calibration	0.9979default loss term (dB/km)	0.3790temperature slope calibration	1.0000multiplexer offset coefficient	1.0000multiplexer slope coefficient	1.0000fibre end	0.00T internal ref (°C)	20.81T ext. ref 1 (°C)	0.57T ext. ref 2 (°C)	16.36length (m)	temperature (°C)	Stokes	anti-Stokes-747.200	-93.155	-0.170	-0.047
-746.185	-4.337	-0.233	0.161
-745.171	448.006	0.057	0.126
-744.156	147.119	-0.102	0.137
-743.142	-129.454	0.359	-0.050
-742.127	-116.060	0.213	0.040
-741.112	-135.000	-0.217	-0.026
-740.098	459.255	-0.090	0.200
-739.083	-200.000	0.006	0.330
-738.069	-81.890	-0.309	0.101
-737.054	-125.836	0.372	-0.056
-736.039	-195.426	-0.442	-0.003
-735.025	50.612	0.118	0.111
-734.010	800.000	0.041	-0.176
-732.996	-142.085	-0.279	0.028
-731.981	800.000	-0.111	0.327
-730.966	291.363	0.024	0.043
-729.952	183.487	-0.208	-0.307
-728.937	146.410	-0.119	-0.159
-727.923	227.746	-0.124	-0.201
-726.908	-166.053	-0.297	-0.013
-725.894	-76.475	-0.219	-0.077
-724.879	-41.203	-0.086	-0.044
-723.864	729.228	-0.089	-0.236
-722.850	86.100	0.037	0.040
-721.835	-200.000	0.028	0.182
-720.821	-26.378	-0.220	-0.129
-719.806	-200.000	-0.052	-0.385
-718.791	-58.978	0.048	0.021
-717.777	800.000	-0.065	-0.266
-716.762	-99.917	-0.130	-0.032
-715.748	800.000	0.059	0.179
-714.733	800.000	-0.038	0.141
-713.718	-41.319	-0.120	0.062
-712.704	301.230	-0.087	-0.160
-711.689	89.767	-0.115	-0.128
-710.675	522.665	-0.094	-0.221
-709.660	-200.000	0.018	-0.079
-708.645	4.623	-0.169	0.124
-707.631	800.000	0.050	-0.174
-706.616	-200.000	-0.010	-0.247
-705.602	-90.427	0.072	-0.021
-704.587	-200.000	-0.003	-0.144
-703.572	800.000	-0.065	-0.211
-702.558	121.627	0.134	-0.166
-701.543	-200.000	0.004	-0.155
-700.529	-200.000	-0.028	-0.130
-699.514	-52.472	-0.170	0.079
-698.499	231.354	-0.205	-0.335
-697.485	107.056	0.164	-0.194
-696.470	235.296	0.132	-0.217
-695.456	406.587	0.038	0.080
-694.441	106.388	0.144	0.171
-693.426	-200.000	-0.024	0.218
-692.412	-196.491	0.246	-0.002
-691.397	-75.579	0.108	-0.038
-690.383	-164.011	0.131	0.006
-689.368	-200.000	-0.012	-0.305
-688.354	-85.095	0.412	0.129
-687.339	-112.446	0.137	-0.027
-686.324	399.992	-0.076	-0.159
-685.310	81.985	-0.156	-0.168
-684.295	-72.057	-0.595	-0.220
-683.281	-195.282	0.278	-0.002
-682.266	546.936	0.133	-0.318
-681.251	82.881	0.118	-0.127
-680.237	32.992	-0.196	-0.169
-679.222	-179.822	-0.311	0.007
-678.208	-77.366	-0.230	-0.080
-677.193	-105.477	-0.275	-0.062
-676.178	-57.377	-0.212	-0.093
-675.164	-67.160	-0.273	-0.107
-674.149	127.104	-0.043	-0.054
-673.135	800.000	0.082	-0.264
-672.120	-104.752	0.065	0.015
-671.105	179.561	0.115	-0.168
-670.091	-18.261	-0.217	0.135
-669.076	59.433	-0.096	-0.094
-668.062	65.641	0.154	0.156
-667.047	152.714	0.231	-0.315
-666.032	-75.640	0.123	0.043
-665.018	-189.767	-0.222	-0.003
-664.003	219.251	-0.249	0.397
-662.989	-91.026	0.202	0.058
-661.974	178.504	0.102	-0.148
-660.959	531.531	-0.087	-0.204
-659.945	470.511	0.076	-0.170
-658.930	34.846	0.110	-0.096
-657.916	402.738	-0.057	-0.120
-656.901	-94.686	0.163	0.044
-655.886	-200.000	-0.018	-0.320
-654.872	50.305	0.185	-0.174
-653.857	800.000	-0.072	0.220
-652.843	-200.000	-0.009	-0.070
-651.828	-59.493	-0.242	0.103
-650.814	26.394	0.152	0.126
-649.799	38.782	0.018	0.016
-648.784	-145.603	-0.120	-0.011
-647.770	422.454	-0.051	0.108
-646.755	158.963	-0.157	-0.217
-645.741	31.523	0.035	-0.030
-644.726	200.346	0.049	0.076
-643.711	64.257	-0.249	0.249
-642.697	-200.000	0.025	0.277
-641.682	44.392	-0.172	-0.157
-640.668	68.762	-0.132	0.135
-639.653	-34.075	-0.213	0.116
-638.638	50.431	-0.155	0.146
-637.624	800.000	0.091	-0.349
-636.609	-200.000	0.001	-0.058
-635.595	-4.860	-0.243	-0.166
-634.580	-113.645	0.398	0.077
-633.565	17.230	0.297	-0.234
-632.551	-200.000	0.010	0.064
-631.536	-200.000	0.025	0.114
-630.522	-87.334	0.330	-0.100
-629.507	-2.184	-0.102	0.071
-628.492	-85.112	-0.315	-0.098
-627.478	-121.370	-0.302	-0.050
-626.463	-82.917	0.158	-0.051
-625.449	-178.141	0.172	-0.004
-624.434	-200.000	0.012	0.263
-623.419	-105.819	-0.104	-0.023
-622.405	-200.000	-0.002	0.230
-621.390	-137.849	-0.173	0.019
-620.376	317.870	-0.030	0.057
-619.361	37.443	-0.281	-0.248
-618.346	206.245	0.051	-0.079
-617.332	-44.781	0.357	-0.177
-616.317	-82.157	-0.254	0.082
-615.303	61.094	-0.125	-0.124
-614.288	20.193	-0.051	-0.041
-613.273	255.312	0.074	-0.125
-612.259	-200.000	0.089	-0.580
-611.244	800.000	-0.052	-0.191
-610.230	-8.242	-0.202	-0.135
-609.215	-200.000	0.028	0.193
-608.201	-54.089	0.109	-0.049
-607.186	209.724	-0.063	0.098
-606.171	-98.252	-0.465	-0.119
-605.157	311.776	0.039	-0.074
-604.142	130.351	0.070	0.089
-603.128	305.587	-0.100	-0.185
-602.113	31.664	0.127	0.109
-601.098	25.224	-0.247	-0.204
-600.084	-24.751	0.135	0.080
-599.069	800.000	-0.068	-0.260
-598.055	-64.616	-0.203	-0.082
-597.040	29.340	0.268	-0.227
-596.025	226.524	-0.182	-0.294
-595.011	-79.855	0.032	-0.011
-593.996	-11.769	0.187	0.122
-592.982	26.028	0.129	0.107
-591.967	168.404	0.190	-0.268
-590.952	76.006	0.101	0.106
-589.938	800.000	-0.101	-0.417
-588.923	219.303	-0.033	-0.053
-587.909	203.121	-0.071	-0.109
-586.894	27.884	0.234	0.196
-585.879	17.987	0.087	0.069
-584.865	800.000	-0.063	0.194
-583.850	-56.027	0.208	-0.092
-582.836	-87.971	0.258	0.077
-581.821	-124.992	0.161	0.025
-580.806	-91.754	0.199	-0.056
-579.792	31.091	0.130	0.111
-578.777	57.354	-0.181	0.175
-577.763	227.119	-0.024	0.039
-576.748	800.000	-0.040	0.120
-575.733	-127.585	-0.150	-0.022
-574.719	167.549	-0.050	0.071
-573.704	-200.000	-0.019	0.156
-572.690	-60.861	0.140	0.059
-571.675	800.000	0.094	-0.340
-570.661	653.742	0.165	-0.421
-569.646	-108.001	-0.129	-0.028
-568.631	800.000	0.078	-0.218
-567.617	10.810	0.163	-0.124
-566.602	800.000	0.019	-0.078
-565.588	278.031	0.095	-0.168
-564.573	-84.570	0.262	-0.082
-563.558	-200.000	-0.004	0.031
-562.544	800.000	-0.074	-0.275
-561.529	99.127	0.284	-0.325
-560.515	-105.224	0.128	-0.029
-559.500	96.635	0.363	-0.412
-558.485	64.453	-0.101	0.101
-557.471	33.920	-0.080	0.069
-556.456	-200.000	0.011	0.058
-555.442	800.000	0.025	-0.085
-554.427	-115.407	-0.048	0.009
-553.412	-43.363	0.076	-0.038
-552.398	512.817	-0.074	0.170
-551.383	-23.268	0.267	0.160
-550.369	-200.000	0.008	0.158
-549.354	-51.466	-0.358	0.166
-548.339	-128.228	0.263	0.037
-547.325	-70.235	-0.260	-0.098
-546.310	800.000	-0.059	-0.173
-545.296	9.532	0.165	0.124
-544.281	326.756	0.024	-0.045
-543.266	-178.420	0.257	0.006
-542.252	-200.000	-0.022	0.134
-541.237	-74.439	-0.082	0.029
-540.223	-200.000	-0.050	-0.348
-539.208	19.940	0.133	0.106
-538.193	800.000	-0.056	-0.185
-537.179	200.382	0.047	0.071
-536.164	44.000	-0.096	0.087
-535.150	-139.029	0.291	-0.031
-534.135	-163.387	-0.225	0.011
-533.121	145.970	-0.255	0.339
-532.106	-130.213	-0.108	-0.015
-531.091	-200.000	-0.024	0.175
-530.077	571.257	-0.071	0.171
-529.062	63.526	-0.127	0.127
-528.048	-13.552	0.124	0.080
-527.033	-200.000	0.070	-0.442
-526.018	621.520	-0.059	-0.147
-525.004	-148.539	-0.284	-0.023
-523.989	118.674	0.233	-0.286
-522.975	-111.092	0.220	0.045
-521.960	-35.751	-0.311	-0.167
-520.945	387.705	0.140	-0.287
-519.931	361.349	0.074	-0.146
-518.916	-200.000	-0.003	0.106
-517.902	-15.736	0.164	0.104
-516.887	118.470	-0.119	0.145
-515.872	-191.601	-0.087	0.001
-514.858	-73.483	0.311	-0.112
-513.843	89.220	-0.041	0.046
-512.829	-0.347	-0.139	0.098
-511.814	239.499	0.074	0.122
-510.799	-112.201	0.240	0.048
-509.785	-46.051	-0.121	-0.059
-508.770	-135.719	0.126	0.015
-507.756	292.280	-0.122	-0.221
-506.741	-200.000	0.108	-0.579
-505.726	-200.000	0.000	0.107
-504.712	-62.062	-0.319	0.132
-503.697	-12.921	0.173	-0.111
-502.683	-200.000	-0.071	-0.383
-501.668	-19.866	-0.124	-0.076
-500.653	-68.345	0.125	-0.048
-499.639	104.000	0.034	0.040
-498.624	177.976	0.290	0.418
-497.610	276.944	-0.199	0.351
-496.595	281.437	-0.111	-0.197
-495.581	-156.965	-0.200	0.012
-494.566	-68.857	0.288	-0.110
-493.551	800.000	0.080	-0.222
-492.537	0.838	0.201	0.143
-491.522	13.185	0.265	-0.203
-490.508	-200.000	0.009	-0.293
-489.493	800.000	0.055	0.211
-488.478	98.884	-0.211	-0.241
-487.464	-97.593	-0.165	-0.042
-486.449	-200.000	-0.036	-0.262
-485.435	-197.241	0.113	0.001
-484.420	-200.000	0.028	0.216
-483.405	800.000	-0.086	0.278
-482.391	-195.924	-0.317	-0.002
-481.376	-52.696	-0.099	0.045
-480.362	422.523	0.071	-0.150
-479.347	-178.655	0.119	-0.003
-478.332	17.788	0.107	-0.084
-477.318	-44.871	0.060	-0.030
-476.303	221.696	-0.093	0.148
-475.289	-185.712	0.162	-0.002
-474.274	-96.209	-0.310	0.081
-473.259	-104.865	0.259	-0.059
-472.245	13.489	-0.118	0.091
-471.230	60.848	-0.101	0.099
-470.216	-32.912	-0.176	-0.096
-469.201	-200.000	-0.011	0.144
-468.186	9.280	0.175	-0.131
-467.172	107.160	0.035	0.041
-466.157	42.947	-0.070	-0.063
-465.143	-138.489	-0.186	-0.020
-464.128	-58.274	-0.240	0.103
-463.113	15.323	0.456	-0.353
-462.099	357.872	-0.061	0.121
-461.084	-24.616	0.096	0.057
-460.070	-108.705	0.066	-0.014
-459.055	800.000	-0.077	-0.320
-458.040	800.000	0.115	-0.322
-457.026	91.843	-0.167	-0.186
-456.011	195.106	-0.130	-0.195
-454.997	-200.000	-0.000	0.044
-453.982	800.000	0.067	-0.250
-452.968	-105.538	-0.351	0.079
-451.953	74.368	-0.125	0.130
-450.938	800.000	-0.048	0.131
-449.924	49.160	0.069	0.064
-448.909	-103.222	0.204	0.048
-447.895	452.889	0.052	-0.114
-446.880	-200.000	-0.004	0.047
-445.865	-5.461	-0.107	0.073
-444.851	-143.422	-0.388	-0.037
-443.836	-191.517	-0.239	0.002
-442.822	671.807	0.095	-0.243
-441.807	-200.000	-0.059	-0.342
-440.792	-200.000	-0.022	-0.167
-439.778	-66.961	-0.087	0.034
-438.763	-200.000	0.021	0.250
-437.749	14.372	0.091	0.070
-436.734	800.000	-0.086	-0.237
-435.719	89.058	0.260	0.286
-434.705	-19.074	0.082	-0.050
-433.690	227.304	-0.053	-0.085
-432.676	-200.000	0.017	0.250
-431.661	310.358	0.039	-0.072
-430.646	-78.370	-0.317	-0.107
-429.632	147.705	-0.180	-0.239
-428.617	-200.000	-0.029	-0.228
-427.603	249.960	-0.150	0.252
-426.588	344.283	0.087	0.169
-425.573	-87.504	0.190	0.057
-424.559	-175.832	-0.215	-0.006
-423.544	172.318	0.131	-0.186
-422.530	-200.000	0.013	-0.119
-421.515	24.259	-0.204	0.167
-420.500	-200.000	0.002	-0.158
-419.486	102.863	0.146	-0.168
-418.471	32.135	0.053	-0.045
-417.457	-200.000	-0.498	-0.002
-416.442	-200.000	-0.067	0.315
-415.428	-200.000	0.057	0.337
-414.413	-71.946	0.307	-0.113
-413.398	-200.000	0.020	0.254
-412.384	-84.351	0.223	0.070
-411.369	-185.494	0.138	-0.002
-410.355	133.258	-0.240	-0.306
-409.340	48.382	0.067	0.062
-408.325	800.000	-0.105	0.300
-407.311	-170.764	-0.293	-0.010
-406.296	530.494	0.128	0.297
-405.282	480.925	-0.057	0.128
-404.267	-52.561	-0.242	-0.110
-403.252	-73.835	-0.464	-0.166
-402.238	-69.502	0.316	-0.119
-401.223	10.612	-0.164	0.123
-400.209	-37.699	0.187	-0.098
-399.194	141.455	-0.166	-0.216
-398.179	313.675	0.026	0.048
-397.165	186.310	-0.151	0.221
-396.150	-79.215	-0.126	-0.042
-395.136	-120.406	-0.265	0.044
-394.121	221.202	0.120	-0.189
-393.106	78.360	0.215	-0.226
-392.092	493.826	-0.091	0.206
-391.077	-118.511	0.251	0.044
-390.063	-200.000	-0.003	0.027
-389.048	-200.000	-0.008	-0.277
-388.033	800.000	-0.109	-0.340
-387.019	-114.867	-0.268	-0.050
-386.004	-56.577	-0.307	0.134
-384.990	-200.000	-0.015	-0.239
-383.975	-68.631	-0.175	-0.067
-382.960	31.205	0.184	0.156
-381.946	130.414	0.102	0.129
-380.931	256.433	-0.158	-0.268
-379.917	500.532	0.133	0.303
-378.902	125.077	-0.077	0.096
-377.888	-26.157	0.157	-0.091
-376.873	-0.002	0.225	-0.158
-375.858	52.046	-0.139	-0.131
-374.844	800.000	0.080	0.275
-373.829	37.852	-0.255	0.223
-372.815	138.118	0.078	0.100
-371.800	800.000	-0.024	0.077
-370.785	17.249	0.178	0.139
-369.771	120.854	0.086	0.106
-368.756	-157.721	-0.202	0.012
-367.742	-50.497	0.129	-0.060
-366.727	-116.210	0.312	-0.057
-365.712	162.597	-0.040	0.055
-364.698	13.086	-0.356	-0.271
-363.683	-31.517	-0.349	0.193
-362.669	-200.000	0.006	0.168
-361.654	-19.416	0.274	-0.167
-360.639	-41.740	-0.184	0.093
-359.625	800.000	-0.066	0.191
-358.610	-146.581	0.187	0.016
-357.596	-65.189	-0.129	0.051
-356.581	394.923	0.074	-0.152
-355.566	-58.116	0.148	0.064
-354.552	216.101	-0.058	-0.091
-353.537	129.238	-0.148	0.187
-352.523	-200.000	0.056	0.323
-351.508	-200.000	0.005	0.024
-350.493	-59.827	0.095	-0.040
-349.479	76.942	0.096	-0.100
-348.464	-136.841	0.174	-0.020
-347.450	45.861	0.127	-0.116
-346.435	-99.299	-0.104	0.026
-345.420	111.749	-0.264	0.313
-344.406	-57.926	0.146	-0.063
-343.391	-200.000	0.020	-0.291
-342.377	-92.819	0.094	0.026
-341.362	182.062	-0.130	0.189
-340.348	106.858	-0.051	0.059
-339.333	-200.000	-0.008	0.050
-338.318	800.000	0.099	-0.273
-337.304	-98.825	0.195	0.049
-336.289	-200.000	0.047	0.386
-335.275	-48.427	0.204	0.097
-334.260	-79.651	-0.469	0.155
-333.245	-87.368	0.065	-0.019
-332.231	-144.819	0.099	-0.009
-331.216	91.624	0.214	-0.236
-330.202	-121.280	-0.097	0.016
-329.187	-38.797	0.089	-0.046
-328.172	-200.000	-0.031	0.171
-327.158	-200.000	0.051	0.267
-326.143	-84.242	-0.147	0.046
-325.129	-23.606	0.094	-0.055
-324.114	150.850	0.261	-0.348
-323.099	116.585	-0.224	0.270
-322.085	-127.725	-0.143	0.020
-321.070	-108.585	-0.054	-0.011
-320.056	-134.313	-0.038	0.005
-319.041	71.026	0.426	0.434
-318.026	-149.418	-0.334	-0.026
-317.012	800.000	0.062	0.249
-315.997	57.763	-0.102	-0.098
-314.983	-200.000	0.003	0.196
-313.968	245.413	-0.074	-0.122
-312.953	27.202	0.037	-0.031
-311.939	-108.436	0.275	0.058
-310.924	-38.561	-0.068	0.035
-309.910	-134.982	-0.204	0.024
-308.895	-53.614	-0.047	0.021
-307.880	128.115	-0.019	-0.024
-306.866	-105.280	0.213	-0.048
-305.851	-110.736	0.049	-0.010
-304.837	703.576	-0.067	-0.175
-303.822	-92.433	0.444	-0.123
-302.807	800.000	0.094	0.297
-301.793	296.439	0.112	0.203
-300.778	-67.887	-0.478	-0.183
-299.764	281.347	0.123	0.216
-298.749	800.000	0.045	0.150
-297.735	15.896	0.326	0.252
-296.720	787.888	0.138	0.371
-295.705	800.000	-0.051	0.192
-294.691	-200.000	-0.043	0.223
-293.676	-200.000	-0.046	0.483
-292.662	800.000	-0.079	0.273
-291.647	-200.000	-0.014	0.157
-290.632	331.758	-0.100	0.189
-289.618	-200.000	-0.009	-0.075
-288.603	-132.846	-0.153	-0.019
-287.589	163.547	0.124	-0.171
-286.574	188.876	0.256	0.376
-285.559	-200.000	0.027	0.297
-284.545	-43.088	-0.474	0.236
-283.530	800.000	0.080	0.271
-282.516	-84.047	-0.317	0.099
-281.501	91.645	-0.114	0.125
-280.486	-121.168	0.153	-0.025
-279.472	33.662	-0.253	-0.216
-278.457	70.440	-0.121	0.123
-277.443	-103.847	-0.372	-0.085
-276.428	-200.000	0.029	-0.242
-275.413	-42.630	0.232	-0.116
-274.399	-200.000	0.020	0.212
-273.384	-114.408	0.204	-0.038
-272.370	-200.000	-0.023	-0.126
-271.355	315.339	-0.122	0.225
-270.340	210.938	0.088	0.136
-269.326	117.433	-0.152	0.184
-268.311	-55.293	0.160	-0.070
-267.297	-43.316	0.320	0.159
-266.282	310.732	-0.178	-0.328
-265.267	-200.000	0.005	-0.190
-264.253	800.000	0.131	0.399
-263.238	382.064	0.099	-0.199
-262.224	110.855	-0.246	0.290
-261.209	800.000	0.115	0.353
-260.195	130.564	0.147	-0.185
-259.180	86.099	0.154	0.166
-258.165	-42.494	0.279	0.140
-257.151	-200.000	0.019	-0.097
-256.136	800.000	-0.075	-0.286
-255.122	-200.000	-0.029	0.244
-254.107	29.274	0.088	-0.073
-253.092	92.383	-0.404	-0.447
-252.078	47.859	0.172	-0.158
-251.063	-165.007	0.251	-0.011
-250.049	59.960	0.239	-0.232
-249.034	-200.000	0.006	0.186
-248.019	-78.742	0.225	-0.075
-247.005	-123.347	-0.292	0.046
-245.990	-120.857	-0.303	-0.050
-244.976	-50.553	0.397	-0.183
-243.961	-139.139	0.419	-0.044
-242.946	-200.000	0.027	0.226
-241.932	91.363	-0.049	-0.054
-240.917	-131.915	0.225	-0.029
-239.903	-71.594	-0.058	-0.021
-238.888	73.409	0.194	-0.199
-237.873	-38.784	-0.246	-0.127
-236.859	800.000	0.063	0.260
-235.844	134.901	-0.164	-0.209
-234.830	-61.671	-0.193	0.079
-233.815	-200.000	-0.015	0.134
-232.800	-60.822	-0.134	0.056
-231.786	-56.724	0.312	0.135
-230.771	-16.175	0.229	0.142
-229.757	125.483	0.151	-0.187
-228.742	-43.434	-0.576	-0.285
-227.727	50.170	0.227	-0.210
-226.713	-11.296	0.215	-0.139
-225.698	-60.424	-0.255	-0.106
-224.684	-200.000	-0.008	-0.197
-223.669	800.000	0.127	-0.430
-222.655	800.000	0.036	-0.109
-221.640	-82.704	0.105	0.033
-220.625	-33.575	-0.225	-0.121
-219.611	-65.398	0.412	0.162
-218.596	800.000	0.034	0.113
-217.582	391.273	0.090	-0.183
-216.567	-72.566	-0.275	-0.099
-215.552	-9.829	0.232	-0.151
-214.538	94.495	0.014	-0.016
-213.523	8.265	-0.089	0.065
-212.509	602.931	-0.064	0.157
-211.494	-125.870	-0.470	0.069
-210.479	800.000	-0.149	0.574
-209.465	103.986	0.082	-0.094
-208.450	-200.000	0.007	-0.051
-207.436	-182.994	0.342	-0.006
-206.421	1.180	0.127	-0.089
-205.406	800.000	0.066	0.202
-204.392	4.074	0.166	0.119
-203.377	90.600	0.130	-0.143
-202.363	24.851	0.058	-0.047
-201.348	-200.000	0.056	0.312
-200.333	437.685	-0.110	-0.235
-199.319	800.000	-0.082	0.351
-198.304	-102.630	-0.328	0.077
-197.290	247.280	0.068	0.113
-196.275	-17.992	0.075	-0.046
-195.260	2.234	-0.027	-0.019
-194.246	-6.214	0.202	-0.135
-193.231	-1.108	-0.055	-0.038
-192.217	-200.000	-0.128	0.602
-191.202	450.514	-0.109	-0.235
-190.187	800.000	-0.012	0.049
-189.173	-138.505	0.215	-0.023
-188.158	800.000	0.073	-0.226
-187.144	387.552	-0.091	-0.183
-186.129	-92.709	-0.241	0.066
-185.114	-59.339	-0.268	0.113
-184.100	229.334	-0.043	0.068
-183.085	800.000	0.088	0.284
-182.071	-200.000	-0.003	0.236
-181.056	-124.430	-0.449	0.068
-180.042	40.841	0.193	-0.170
-179.027	390.081	-0.060	0.122
-178.012	-200.000	0.022	0.267
-176.998	-200.000	-0.012	-0.124
-175.983	138.184	0.245	-0.315
-174.969	27.017	0.164	0.135
-173.954	181.423	0.047	0.067
-172.939	417.177	-0.144	-0.300
-171.925	46.241	0.098	0.089
-170.910	370.502	0.127	0.252
-169.896	39.217	0.238	-0.208
-168.881	-200.000	-0.012	-0.188
-167.866	211.689	-0.062	0.095
-166.852	800.000	0.047	0.160
-165.837	-200.000	0.016	0.161
-164.823	-200.000	0.000	0.079
-163.808	-73.066	-0.140	0.050
-162.793	-200.000	-0.002	-0.032
-161.779	-44.951	-0.268	-0.131
-160.764	770.447	0.096	0.254
-159.750	348.488	0.163	0.315
-158.735	-64.877	0.214	-0.085
-157.720	-69.998	-0.087	-0.032
-156.706	-136.688	-0.269	-0.030
-155.691	-105.616	0.319	0.071
-154.677	800.000	-0.029	-0.124
-153.662	-73.192	-0.247	-0.089
-152.647	27.820	-0.340	-0.280
-151.633	32.977	0.201	0.170
-150.618	36.257	-0.207	0.178
-149.604	-200.000	-0.022	-0.224
-148.589	800.000	0.180	0.526
-147.574	168.411	0.079	-0.110
-146.560	201.915	0.045	0.068
-145.545	-172.054	-0.192	0.006
-144.531	360.015	0.195	-0.382
-143.516	152.860	0.137	-0.183
-142.502	-200.000	0.036	0.206
-141.487	22.431	-0.102	-0.081
-140.472	-200.000	0.018	-0.136
-139.458	314.275	0.094	-0.173
-138.443	-161.252	-0.077	-0.004
-137.429	-55.719	-0.121	0.053
-136.414	12.254	0.104	-0.078
-135.399	-200.000	0.068	-0.439
-134.385	-134.255	-0.197	-0.024
-133.370	213.934	0.132	0.203
-132.356	-110.870	-0.487	-0.098
-131.341	-48.150	0.071	-0.033
-130.326	275.491	0.051	-0.089
-129.312	151.539	0.281	-0.373
-128.297	-69.449	-0.416	-0.155
-127.283	-200.000	-0.018	-0.484
-126.268	-35.151	0.180	0.096
-125.253	93.621	-0.074	-0.082
-124.239	-40.980	0.371	-0.187
-123.224	800.000	-0.018	-0.072
-122.210	173.491	0.108	0.153
-121.195	20.269	-0.061	-0.048
