DTS Sentinel unit serial number:	SN413079Multiplexer serial number:	ORYXHardware model number:	OX4-SRSoftware version number:	ORYX F/W v4.00 Oryx Data Collector v3.7.2.0data status	okinstallation	princeton_trtdifferential loss correction	single-endedforward channel	channel 3reverse channel	N/Adate	2019/09/18time	08:12:35forward acquisition time	60.00reverse acquisition time	0.00gamma	496.2192k internal	0.2341k external	0.2341temperature offset calibration	0.9950default loss term (dB/km)	0.3790temperature slope calibration	1.0000multiplexer offset coefficient	1.0000multiplexer slope coefficient	1.0000fibre end	0.00T internal ref (°C)	23.87T ext. ref 1 (°C)	0.21T ext. ref 2 (°C)	19.65length (m)	temperature (°C)	Stokes	anti-Stokes-747.200	-200.000	0.003	0.172
-746.185	-35.724	-0.343	0.186
-745.171	-32.687	-0.029	-0.016
-744.156	-74.027	0.073	0.027
-743.142	-98.066	0.133	-0.034
-742.127	-7.083	-0.102	0.069
-741.112	598.156	0.034	-0.085
-740.098	-200.000	0.012	0.155
-739.083	6.205	-0.086	0.064
-738.069	-195.270	-0.250	0.002
-737.054	34.632	0.066	-0.058
-736.039	800.000	-0.007	0.022
-735.025	800.000	-0.152	0.470
-734.010	-156.616	-0.333	0.021
-732.996	97.380	0.174	0.200
-731.981	279.784	-0.094	-0.168
-730.966	320.124	-0.165	-0.314
-729.952	101.975	0.159	0.186
-728.937	-139.505	-0.312	-0.033
-727.923	54.647	0.107	0.104
-726.908	-18.188	0.162	-0.101
-725.894	-128.465	-0.375	-0.053
-724.879	55.059	0.097	-0.094
-723.864	-58.062	-0.284	-0.124
-722.850	-200.000	-0.004	0.026
-721.835	-200.000	-0.026	-0.165
-720.821	-54.235	0.311	-0.141
-719.806	-123.191	0.174	0.028
-718.791	419.221	0.053	-0.113
-717.777	378.890	0.188	0.386
-716.762	82.603	0.074	0.080
-715.748	41.415	0.202	-0.183
-714.733	58.576	0.054	-0.053
-713.718	-200.000	-0.028	0.226
-712.704	-27.905	-0.128	0.074
-711.689	-155.835	0.071	-0.005
-710.675	-120.181	0.179	0.031
-709.660	800.000	0.058	-0.210
-708.645	209.575	0.071	0.111
-707.631	-139.979	0.375	-0.040
-706.616	13.389	-0.143	-0.111
-705.602	372.881	-0.023	-0.046
-704.587	436.513	0.036	0.078
-703.572	-62.466	-0.289	0.120
-702.558	-200.000	0.006	0.084
-701.543	-148.804	0.191	-0.015
-700.529	-126.885	-0.181	-0.027
-699.514	-82.645	-0.072	-0.023
-698.499	-74.143	0.482	0.174
-697.485	118.729	-0.055	0.068
-696.470	-27.610	-0.024	0.014
-695.456	-70.766	-0.313	0.118
-694.441	-200.000	-0.026	0.126
-693.426	800.000	0.046	0.186
-692.412	64.976	0.109	0.110
-691.397	-17.670	0.057	0.036
-690.383	125.243	0.102	0.129
-689.368	-200.000	0.018	-0.316
-688.354	137.566	-0.228	-0.299
-687.339	-76.038	-0.026	-0.009
-686.324	293.443	0.143	-0.260
-685.310	-98.944	0.332	0.084
-684.295	-200.000	-0.048	0.343
-683.281	-200.000	0.047	0.221
-682.266	307.945	-0.201	-0.374
-681.251	-69.293	-0.374	0.143
-680.237	800.000	-0.049	-0.194
-679.222	222.347	-0.086	-0.138
-678.208	138.761	-0.113	-0.148
-677.193	-92.216	0.271	-0.077
-676.178	-65.850	-0.450	-0.180
-675.164	800.000	0.034	0.103
-674.149	256.054	0.168	0.288
-673.135	38.933	0.058	0.052
-672.120	-189.924	0.088	-0.001
-671.105	-200.000	-0.032	0.141
-670.091	-200.000	-0.013	0.155
-669.076	147.491	-0.101	0.136
-668.062	18.567	0.129	-0.103
-667.047	-200.000	-0.019	-0.203
-666.032	-200.000	0.046	0.262
-665.018	-200.000	0.018	-0.230
-664.003	-128.140	0.438	0.063
-662.989	-200.000	-0.005	-0.099
-661.974	27.446	0.332	-0.279
-660.959	420.908	0.025	0.053
-659.945	-200.000	0.026	0.236
-658.930	72.149	-0.100	0.104
-657.916	-2.567	0.192	-0.135
-656.901	-64.628	0.040	-0.016
-655.886	95.478	-0.122	-0.139
-654.872	73.601	-0.134	-0.140
-653.857	-200.000	0.026	0.131
-652.843	472.025	-0.077	0.173
-651.828	-33.948	0.186	-0.102
-650.814	800.000	0.214	0.598
-649.799	-200.000	-0.055	0.262
-648.784	-79.947	-0.372	-0.125
-647.770	641.155	-0.081	0.205
-646.755	574.370	0.102	0.248
-645.741	38.955	0.186	-0.166
-644.726	-73.694	-0.326	-0.118
-643.711	-156.361	0.229	0.014
-642.697	-157.861	-0.166	-0.010
-641.682	-109.581	0.182	0.038
-640.668	800.000	-0.026	0.102
-639.653	753.696	0.044	0.120
-638.638	9.980	-0.125	0.095
-637.624	800.000	-0.048	0.154
-636.609	-200.000	0.022	0.400
-635.595	-55.476	-0.185	0.083
-634.580	-172.935	0.080	0.002
-633.565	-64.850	-0.388	-0.157
-632.551	-132.649	-0.305	0.039
-631.536	-39.578	-0.292	-0.152
-630.522	-46.000	-0.501	0.246
-629.507	-72.910	-0.270	-0.099
-628.492	82.003	-0.098	-0.106
-627.478	800.000	-0.035	-0.112
-626.463	-55.507	0.272	0.122
-625.449	413.152	0.063	-0.135
-624.434	250.675	-0.124	-0.211
-623.419	-200.000	-0.031	-0.290
-622.405	-200.000	-0.013	0.122
-621.390	-200.000	-0.033	0.171
-620.376	-131.399	0.226	0.030
-619.361	26.487	0.308	-0.257
-618.346	-78.676	-0.206	-0.070
-617.332	15.930	0.124	-0.098
-616.317	-115.725	0.140	0.026
-615.303	277.266	0.141	0.249
-614.288	-53.902	-0.232	-0.106
-613.273	800.000	-0.082	0.259
-612.259	800.000	0.130	-0.371
-611.244	398.905	-0.086	0.181
-610.230	800.000	0.041	0.145
-609.215	325.123	-0.047	0.090
-608.201	6.451	0.304	-0.225
-607.186	-200.000	-0.004	0.206
-606.171	800.000	0.067	0.185
-605.157	-174.286	-0.243	0.007
-604.142	800.000	0.055	-0.181
-603.128	-97.286	-0.173	0.045
-602.113	-81.719	0.203	-0.066
-601.098	-68.174	0.334	-0.130
-600.084	-200.000	-0.044	0.249
-599.069	-200.000	-0.057	-0.276
-598.055	219.069	0.107	0.170
-597.040	-200.000	-0.006	-0.121
-596.025	-45.441	-0.194	-0.096
-595.011	-112.409	-0.174	0.035
-593.996	-55.292	0.230	-0.103
-592.982	201.960	-0.062	0.096
-591.967	422.884	0.085	-0.183
-590.952	9.903	0.275	-0.208
-589.938	17.037	-0.126	-0.099
-588.923	53.706	0.072	-0.069
-587.909	51.158	0.110	0.104
-586.894	39.320	0.143	-0.127
-585.879	-142.853	0.312	0.030
-584.865	-82.179	-0.388	0.126
-583.850	794.805	0.066	0.181
-582.836	517.863	-0.174	0.406
-581.821	-200.000	-0.010	-0.146
-580.806	373.578	-0.049	-0.099
-579.792	-200.000	0.016	-0.230
-578.777	-38.019	-0.228	-0.120
-577.763	-200.000	0.007	-0.065
-576.748	23.807	0.235	0.193
-575.733	74.584	0.126	-0.132
-574.719	-14.753	0.110	0.070
-573.704	-75.630	-0.210	-0.074
-572.690	56.781	-0.181	-0.176
-571.675	800.000	0.077	-0.261
-570.661	-41.622	0.145	-0.074
-569.646	-13.408	-0.389	-0.251
-568.631	-200.000	-0.038	0.314
-567.617	-136.016	-0.079	0.009
-566.602	186.037	0.209	-0.309
-565.588	-121.698	-0.108	0.018
-564.573	-41.035	0.302	0.155
-563.558	-29.977	-0.420	-0.238
-562.544	201.442	0.213	-0.326
-561.529	-54.834	0.194	0.087
-560.515	79.814	-0.176	-0.188
-559.500	585.133	-0.022	-0.054
-558.485	-119.306	-0.120	-0.021
-557.471	13.600	0.289	0.223
-556.456	-14.808	0.079	0.050
-555.442	-111.788	0.520	0.105
-554.427	-176.581	0.016	-0.000
-553.412	-149.226	0.160	0.013
-552.398	-83.036	-0.373	0.120
-551.383	139.323	0.222	-0.291
-550.369	-19.827	0.196	-0.121
-549.354	-200.000	-0.028	0.245
-548.339	-12.741	-0.134	0.087
-547.325	-106.381	-0.099	0.022
-546.310	-200.000	0.004	0.107
-545.296	-80.040	0.092	0.031
-544.281	-200.000	0.020	-0.124
-543.266	-109.670	0.331	0.069
-542.252	147.390	0.273	0.366
-541.237	-160.654	-0.195	0.010
-540.223	-82.515	0.184	-0.059
-539.208	512.953	-0.114	-0.263
-538.193	73.918	-0.207	-0.216
-537.179	-9.880	-0.088	0.058
-536.164	-91.064	-0.189	-0.054
-535.150	-200.000	-0.004	-0.290
-534.135	12.337	-0.204	-0.156
-533.121	-154.147	0.181	-0.012
-532.106	-66.576	-0.230	-0.091
-531.091	-58.592	0.187	-0.081
-530.077	800.000	-0.123	-0.450
-529.062	-200.000	-0.063	0.428
-528.048	800.000	-0.065	-0.215
-527.033	132.070	0.004	0.006
-526.018	37.446	0.175	-0.154
-525.004	168.194	0.111	-0.156
-523.989	-76.444	0.096	0.033
-522.975	224.062	-0.004	0.006
-521.960	27.313	-0.076	0.064
-520.945	-178.592	-0.339	-0.008
-519.931	-200.000	-0.021	0.155
-518.916	800.000	0.093	0.335
-517.902	422.464	-0.143	0.305
-516.887	-200.000	-0.002	0.085
-515.872	18.818	0.046	0.037
-514.858	800.000	-0.090	-0.256
-513.843	-179.703	0.347	0.007
-512.829	-40.404	-0.111	-0.057
-511.814	-93.291	0.143	0.039
-510.799	239.217	0.115	-0.190
-509.785	57.550	-0.273	-0.265
-508.770	-200.000	0.011	-0.190
-507.756	-129.215	-0.407	-0.056
-506.741	-179.352	-0.111	-0.002
-505.726	-34.357	-0.062	-0.034
-504.712	-200.000	-0.013	0.511
-503.697	-74.343	0.206	-0.074
-502.683	-19.597	0.174	-0.107
-501.668	468.169	0.099	0.222
-500.653	-110.147	0.408	0.084
-499.639	-200.000	-0.004	-0.185
-498.624	-124.532	0.091	0.014
-497.610	-200.000	-0.019	-0.406
-496.595	-200.000	0.046	0.258
-495.581	800.000	-0.079	-0.247
-494.566	62.182	-0.224	0.222
-493.551	-200.000	-0.051	-0.235
-492.537	23.772	-0.155	0.127
-491.522	800.000	0.090	-0.276
-490.508	800.000	-0.032	0.111
-489.493	584.163	-0.187	-0.455
-488.478	800.000	0.058	0.222
-487.464	-110.456	0.265	0.055
-486.449	164.435	-0.158	0.221
-485.435	-33.179	-0.176	-0.097
-484.420	-38.071	-0.059	-0.031
-483.405	59.943	-0.227	0.222
-482.391	240.297	0.114	-0.188
-481.376	24.494	0.237	-0.194
-480.362	155.755	-0.309	0.423
-479.347	800.000	-0.117	0.327
-478.332	17.579	-0.092	-0.073
-477.318	-75.703	0.314	0.111
-476.303	386.223	0.077	-0.157
-475.289	-32.276	-0.108	0.060
-474.274	152.831	0.126	-0.170
-473.259	-2.063	-0.066	-0.046
-472.245	415.161	0.119	-0.251
-471.230	-83.169	0.458	0.146
-470.216	438.065	0.200	0.432
-469.201	-200.000	0.022	-0.167
-468.186	81.541	-0.110	-0.118
-467.172	411.066	0.134	0.282
-466.157	-107.660	-0.194	0.042
-465.143	-2.790	-0.101	0.070
-464.128	-43.950	0.240	0.119
-463.113	33.451	-0.209	0.180
-462.099	368.358	-0.046	-0.092
-461.084	208.531	-0.032	0.049
-460.070	13.566	-0.134	0.103
-459.055	-20.304	-0.396	0.241
-458.040	-49.657	0.246	-0.116
-457.026	243.413	-0.092	0.154
-456.011	-92.985	0.099	0.027
-454.997	221.690	0.079	-0.125
-453.982	96.899	0.155	0.176
-452.968	-0.896	-0.123	-0.086
-451.953	472.939	-0.018	0.041
-450.938	79.955	0.063	-0.068
-449.924	-160.745	0.131	-0.007
-448.909	3.136	0.215	-0.155
-447.895	57.379	-0.114	-0.111
-446.880	-200.000	0.016	0.183
-445.865	-71.951	0.303	-0.112
-444.851	27.424	-0.149	-0.124
-443.836	-106.299	0.289	0.064
-442.822	-25.940	-0.085	0.050
-441.807	123.717	-0.134	-0.166
-440.792	-168.097	-0.386	0.015
-439.778	-29.593	0.212	0.120
-438.763	55.567	-0.269	-0.258
-437.749	-31.615	-0.178	0.099
-436.734	-20.488	-0.207	-0.126
-435.719	0.984	0.139	0.099
-434.705	-33.525	0.208	0.114
-433.690	28.296	0.112	-0.094
-432.676	800.000	-0.099	0.380
-431.661	-84.990	0.128	0.040
-430.646	78.246	0.073	-0.077
-429.632	215.429	-0.042	-0.066
-428.617	-94.119	0.138	0.037
-427.603	-50.426	0.151	-0.071
-426.588	-92.504	0.329	-0.092
-425.573	9.472	-0.179	-0.134
-424.559	115.039	-0.136	0.165
-423.544	90.794	-0.086	0.095
-422.530	51.219	-0.192	0.180
-421.515	15.775	-0.292	0.227
-420.500	-40.668	-0.077	0.040
-419.486	38.155	0.153	-0.135
-418.471	-0.534	0.150	0.105
-417.457	-121.616	0.332	0.054
-416.442	-200.000	-0.018	-0.099
-415.428	-148.201	-0.226	0.018
-414.413	800.000	0.133	0.397
-413.398	36.865	0.197	0.173
-412.384	-139.149	-0.302	0.032
-411.369	-200.000	0.045	-0.266
-410.355	-33.421	-0.239	-0.131
-409.340	303.467	-0.099	-0.182
-408.325	140.650	0.115	0.151
-407.311	186.607	-0.134	-0.197
-406.296	-122.145	0.129	0.021
-405.282	-200.000	-0.021	-0.234
-404.267	-200.000	-0.031	0.461
-403.252	800.000	-0.108	-0.302
-402.238	-42.411	-0.255	-0.129
-401.223	-165.802	-0.156	0.007
-400.209	-35.887	0.204	-0.109
-399.194	595.345	0.074	0.180
-398.179	800.000	0.069	0.255
-397.165	254.085	-0.141	-0.238
-396.150	143.350	-0.295	-0.388
-395.136	-173.545	0.416	-0.012
-394.121	306.949	0.070	-0.129
-393.106	-37.293	-0.206	0.109
-392.092	800.000	-0.008	0.035
-391.077	800.000	-0.046	0.150
-390.063	60.129	0.173	0.169
-389.048	651.770	-0.056	0.141
-388.033	-169.541	0.327	0.012
-387.019	371.333	-0.121	-0.243
-386.004	469.683	-0.048	0.106
-384.990	-112.348	-0.237	0.047
-383.975	-20.247	0.247	0.150
-382.960	-140.043	0.123	0.013
-381.946	-200.000	-0.077	-0.482
-380.931	-30.897	0.023	0.013
-379.917	10.707	0.125	0.094
-378.902	-21.761	0.207	-0.125
-377.888	-119.542	-0.136	0.023
-376.873	645.404	0.115	0.291
-375.858	800.000	-0.055	-0.225
-374.844	8.737	-0.100	0.075
-373.829	-200.000	0.036	-0.201
-372.815	-100.984	-0.059	0.014
-371.800	800.000	0.072	0.234
-370.785	128.595	0.204	0.257
-369.771	98.809	-0.290	-0.331
-368.756	-155.794	-0.349	0.022
-367.742	180.221	0.375	0.543
-366.727	128.004	0.058	-0.073
-365.712	47.769	-0.352	-0.324
-364.698	212.428	0.152	0.236
-363.683	-187.889	0.239	-0.003
-362.669	-138.538	-0.360	-0.039
-361.654	800.000	-0.072	-0.262
-360.639	-38.036	0.203	-0.107
-359.625	800.000	0.081	0.253
-358.610	-200.000	0.069	-0.329
-357.596	-200.000	0.016	0.166
-356.581	-200.000	0.002	0.073
-355.566	424.729	0.094	0.199
-354.552	-105.506	0.130	0.029
-353.537	186.763	-0.104	-0.153
-352.523	-122.221	0.273	0.044
-351.508	-21.134	-0.132	0.080
-350.493	583.926	0.192	-0.465
-349.479	709.657	0.104	-0.271
-348.464	219.299	-0.075	0.119
-347.450	-84.787	-0.328	-0.102
-346.435	420.413	0.122	0.258
-345.420	-95.287	-0.050	0.013
-344.406	-113.779	-0.246	0.047
-343.391	-16.129	-0.180	-0.113
-342.377	-49.961	-0.210	-0.098
-341.362	-145.251	0.270	0.024
-340.348	-86.813	0.291	0.088
-339.333	109.186	0.066	-0.077
-338.318	123.519	-0.104	0.129
-337.304	58.384	0.051	-0.050
-336.289	-200.000	0.021	-0.209
-335.275	800.000	-0.021	-0.071
-334.260	15.565	-0.061	-0.047
-333.245	-157.079	-0.206	0.012
-332.231	-36.465	-0.275	-0.146
-331.216	-76.865	0.214	0.074
-330.202	-70.371	0.071	0.027
-329.187	64.285	0.158	0.157
-328.172	387.374	0.112	0.227
-327.158	-200.000	-0.021	-0.167
-326.143	5.497	0.131	-0.095
-325.129	191.937	-0.075	-0.112
-324.114	287.036	-0.140	0.250
-323.099	71.128	0.231	0.236
-322.085	-96.023	0.154	-0.040
-321.070	-88.683	0.265	0.078
-320.056	-200.000	0.006	-0.118
-319.041	51.520	-0.037	0.035
-318.026	357.519	-0.086	0.169
-317.012	-171.489	0.232	0.008
-315.997	-200.000	0.025	-0.171
-314.983	800.000	0.039	0.158
-313.968	82.169	-0.097	-0.104
-312.953	50.949	-0.305	0.285
-311.939	65.603	-0.065	0.065
-310.924	-200.000	-0.069	-0.317
-309.910	-150.088	-0.354	0.027
-308.895	675.577	0.025	-0.064
-307.880	-37.441	0.332	0.174
-306.866	-200.000	0.006	0.311
-305.851	-85.887	-0.410	0.125
-304.837	117.850	0.022	-0.027
-303.822	800.000	-0.030	-0.123
-302.807	50.774	0.051	-0.048
-301.793	800.000	-0.077	-0.210
-300.778	-50.600	0.061	-0.028
-299.764	3.272	0.185	-0.133
-298.749	-24.489	0.358	0.210
-297.735	-37.643	-0.213	-0.112
-296.720	800.000	-0.022	-0.087
-295.705	-100.475	-0.166	0.040
-294.691	-185.407	0.160	0.002
-293.676	-21.214	0.130	-0.079
-292.662	10.441	-0.211	-0.158
-291.647	-130.007	0.299	-0.040
-290.632	33.481	-0.277	0.237
-289.618	800.000	0.032	0.110
-288.603	-200.000	-0.054	-0.297
-287.589	-112.518	0.231	-0.045
-286.574	127.415	0.120	-0.150
-285.559	-87.709	0.179	0.053
-284.545	-108.303	-0.183	0.039
-283.530	-100.192	0.155	0.038
-282.516	224.003	0.045	-0.072
-281.501	69.720	-0.248	0.252
-280.486	460.579	0.118	0.259
-279.472	33.770	0.127	0.108
-278.457	164.253	-0.241	0.335
-277.443	-57.964	0.079	0.034
-276.428	-53.702	0.115	-0.052
-275.413	-1.610	0.192	0.133
-274.399	653.831	0.057	-0.145
-273.384	-92.641	-0.070	0.019
-272.370	104.236	-0.102	0.118
-271.355	-200.000	0.062	0.455
-270.340	96.281	0.040	0.045
-269.326	-179.141	0.454	-0.010
-268.311	-178.366	0.224	-0.005
-267.297	-200.000	0.007	0.294
-266.282	-49.336	-0.110	0.052
-265.267	800.000	0.030	0.129
-264.253	800.000	0.043	-0.145
-263.238	779.210	0.047	0.127
-262.224	-107.205	0.250	-0.054
-261.209	-89.372	-0.140	0.040
-260.195	612.541	0.136	0.334
-259.180	-91.275	0.142	0.040
-258.165	-110.644	0.140	0.028
-257.151	-200.000	-0.082	0.366
-256.136	-200.000	-0.049	0.252
-255.122	800.000	0.056	-0.215
-254.107	-200.000	-0.010	0.176
-253.092	-141.388	-0.249	0.025
-252.078	-39.699	0.243	-0.125
-251.063	107.249	0.211	-0.247
-250.049	-145.561	0.235	-0.021
-249.034	200.326	-0.269	-0.407
-248.019	-9.902	-0.210	0.138
-247.005	-18.058	-0.337	-0.208
-245.990	-37.846	0.063	-0.033
-244.976	498.367	-0.058	-0.131
-243.961	-69.687	0.237	-0.089
-242.946	-114.534	-0.194	-0.037
-241.932	-200.000	0.009	-0.096
-240.917	404.673	-0.080	-0.166
-239.903	14.351	0.309	0.237
-238.888	76.263	-0.310	-0.323
-237.873	78.269	0.124	-0.130
-236.859	800.000	0.092	0.296
-235.844	-200.000	0.005	-0.153
-234.830	15.993	0.247	-0.191
-233.815	-123.846	0.215	-0.033
-232.800	207.691	-0.048	0.073
-231.786	-200.000	0.027	-0.155
-230.771	96.932	0.185	0.208
-229.757	-200.000	0.027	-0.381
-228.742	22.375	0.202	-0.162
-227.727	-200.000	-0.013	-0.262
-226.713	-138.212	0.247	-0.027
-225.698	-58.136	-0.329	0.141
-224.684	-80.973	-0.184	0.060
-223.669	2.351	-0.127	0.091
-222.655	-138.366	0.266	0.029
-221.640	146.061	0.186	-0.244
-220.625	-55.049	-0.235	-0.104
-219.611	-1.301	0.228	-0.158
-218.596	-142.649	-0.271	0.026
-217.582	402.168	0.122	-0.251
-216.567	188.557	0.086	-0.126
-215.552	-113.533	-0.212	-0.041
-214.538	23.734	-0.126	-0.102
-213.523	-82.979	0.105	-0.033
-212.509	-78.302	-0.254	-0.085
-211.494	35.950	-0.116	0.100
-210.479	4.431	-0.178	-0.128
-209.465	263.006	-0.023	0.039
-208.450	-103.109	-0.137	-0.032
-207.436	800.000	-0.075	-0.214
-206.421	-7.430	-0.418	-0.278
-205.406	-169.672	-0.197	0.007
-204.392	-200.000	-0.012	0.148
-203.377	296.499	0.229	0.411
-202.363	-107.473	0.374	-0.080
-201.348	-21.345	-0.196	0.118
-200.333	-143.840	0.245	-0.023
-199.319	-200.000	0.020	0.101
-198.304	-107.148	0.237	-0.051
-197.290	-194.574	-0.197	0.002
-196.275	-110.993	-0.465	0.094
-195.260	-117.692	-0.152	-0.027
-194.246	-4.669	0.150	-0.101
-193.231	31.402	-0.122	-0.103
-192.217	91.155	-0.196	-0.215
-191.202	800.000	-0.028	0.117
-190.187	-144.630	0.132	-0.012
-189.173	713.605	-0.035	0.092
-188.158	-94.969	0.309	0.082
-187.144	10.168	-0.280	-0.209
-186.129	-12.234	0.292	-0.187
-185.114	266.650	0.069	0.118
-184.100	-13.697	-0.185	0.117
-183.085	238.678	-0.096	0.156
-182.071	-154.727	-0.051	-0.003
-181.056	-82.190	0.139	0.045
-180.042	29.174	-0.198	-0.165
-179.027	-83.852	0.540	0.169
-178.012	146.094	-0.220	-0.289
-176.998	-57.923	-0.181	0.078
-175.983	-121.360	0.333	-0.054
-174.969	-150.744	0.139	-0.010
-173.954	-200.000	-0.018	0.087
-172.939	153.995	-0.139	-0.187
-171.925	730.886	0.187	0.491
-170.910	468.326	-0.092	0.202
-169.896	-150.548	-0.304	0.023
-168.881	261.286	0.174	-0.295
-167.866	-88.868	0.093	0.027
-166.852	-200.000	0.029	0.167
-165.837	140.883	0.136	-0.176
-164.823	81.305	0.180	0.191
-163.808	63.416	-0.096	-0.095
-162.793	586.780	0.148	0.357
-161.779	-7.471	-0.195	0.129
-160.764	-200.000	0.072	-0.371
-159.750	-27.725	-0.208	0.118
-158.735	-200.000	0.009	0.133
-157.720	-57.296	-0.307	0.132
-156.706	-136.910	-0.191	-0.021
-155.691	169.227	0.104	0.145
-154.677	562.198	-0.045	-0.106
-153.662	16.340	-0.268	0.207
-152.647	199.791	-0.148	0.222
-151.633	-178.173	-0.118	-0.003
-150.618	-55.300	-0.290	0.128
-149.604	313.765	0.063	-0.117
-148.589	599.096	-0.057	0.139
-147.574	-200.000	0.031	0.223
-146.560	148.342	-0.116	-0.154
-145.545	449.131	-0.058	-0.126
-144.531	-200.000	0.028	-0.204
-143.516	312.387	-0.126	-0.232
-142.502	-25.010	0.242	-0.141
-141.487	78.685	0.277	0.290
-140.472	-21.639	0.181	-0.108
-139.458	478.042	0.021	0.045
-138.443	-2.581	0.334	0.229
-137.429	-40.242	0.205	0.105
-136.414	-4.586	-0.128	0.087
-135.399	-67.246	-0.185	0.071
-134.385	-200.000	-0.049	0.252
-133.370	-155.227	0.115	0.007
-132.356	-90.302	0.340	0.097
-131.341	218.309	-0.260	0.406
-130.326	800.000	0.046	0.184
-129.312	-200.000	-0.008	-0.204
-128.297	373.865	0.058	0.115
-127.283	-51.018	-0.176	-0.081
-126.268	317.669	-0.090	-0.166
-125.253	-120.979	-0.235	0.039
-124.239	403.160	0.041	-0.084
-123.224	259.892	-0.089	-0.151
-122.210	245.671	-0.036	0.059
-121.195	310.616	-0.226	-0.414
-120.180	114.165	0.195	0.232
