DTS Sentinel unit serial number:	SN413079Multiplexer serial number:	ORYXHardware model number:	OX4-SRSoftware version number:	ORYX F/W v4.00 Oryx Data Collector v3.7.2.0data status	okinstallation	princeton_trtdifferential loss correction	single-endedforward channel	channel 3reverse channel	N/Adate	2019/09/15time	13:48:35forward acquisition time	60.00reverse acquisition time	0.00gamma	496.2192k internal	0.2293k external	0.2293temperature offset calibration	0.9957default loss term (dB/km)	0.3790temperature slope calibration	1.0000multiplexer offset coefficient	1.0000multiplexer slope coefficient	1.0000fibre end	0.00T internal ref (°C)	38.12T ext. ref 1 (°C)	4.93T ext. ref 2 (°C)	35.38length (m)	temperature (°C)	Stokes	anti-Stokes-747.200	-25.117	-0.101	0.062
-746.185	18.522	0.335	0.274
-745.171	-200.000	0.020	0.235
-744.156	800.000	-0.140	0.517
-743.142	-91.302	0.488	0.143
-742.127	-16.513	-0.274	-0.178
-741.112	-74.650	-0.400	-0.147
-740.098	-78.700	-0.146	0.051
-739.083	800.000	0.090	0.334
-738.069	51.142	0.081	-0.079
-737.054	288.685	-0.158	0.293
-736.039	-200.000	0.075	0.396
-735.025	-127.902	0.277	0.041
-734.010	17.076	-0.179	0.145
-732.996	48.737	-0.237	-0.227
-731.981	800.000	-0.113	0.465
-730.966	226.968	-0.171	0.284
-729.952	-74.186	0.184	0.068
-728.937	-200.000	0.011	-0.091
-727.923	-121.904	0.308	-0.052
-726.908	598.492	-0.101	-0.257
-725.894	-200.000	0.001	0.294
-724.879	354.343	-0.138	0.280
-723.864	351.240	0.122	0.247
-722.850	67.577	-0.212	0.221
-721.835	-200.000	-0.028	-0.132
-720.821	69.769	0.092	0.097
-719.806	-49.028	-0.259	0.127
-718.791	-107.215	0.353	-0.079
-717.777	-146.546	0.254	-0.023
-716.762	-123.524	0.348	0.056
-715.748	-200.000	-0.013	-0.060
-714.733	-200.000	0.023	-0.244
-713.718	-200.000	-0.025	-0.288
-712.704	-138.483	-0.358	-0.040
-711.689	-50.530	0.216	0.104
-710.675	-77.620	0.084	-0.030
-709.660	-72.143	0.086	0.033
-708.645	60.018	-0.185	0.186
-707.631	-62.842	-0.113	0.048
-706.616	-155.219	0.050	-0.003
-705.602	131.518	0.094	0.123
-704.587	-200.000	-0.027	0.170
-703.572	160.304	-0.045	-0.065
-702.558	6.134	-0.207	0.157
-701.543	-26.329	0.239	-0.143
-700.529	-22.775	0.137	0.084
-699.514	-200.000	0.020	0.226
-698.499	112.296	-0.184	-0.227
-697.485	-47.936	0.291	-0.144
-696.470	-10.364	0.253	-0.171
-695.456	-118.967	-0.126	0.022
-694.441	-61.070	0.295	0.127
-693.426	-72.588	-0.270	0.102
-692.412	207.286	0.234	0.373
-691.397	-33.513	-0.248	0.140
-690.383	-43.211	0.205	0.106
-689.368	-200.000	-0.029	0.140
-688.354	-51.677	-0.200	-0.095
-687.339	590.988	-0.036	-0.090
-686.324	-101.518	0.456	0.113
-685.310	142.491	-0.157	0.213
-684.295	352.896	-0.061	-0.123
-683.281	-155.536	-0.317	-0.021
-682.266	-70.279	-0.292	0.113
-681.251	299.697	-0.086	0.162
-680.237	-200.000	-0.010	-0.167
-679.222	61.110	-0.190	-0.193
-678.208	48.599	-0.246	-0.236
-677.193	37.897	-0.126	-0.114
-676.178	-180.389	0.219	-0.005
-675.164	277.544	0.163	0.297
-674.149	35.688	0.217	-0.194
-673.135	800.000	-0.022	-0.098
-672.120	800.000	0.129	0.513
-671.105	-72.619	0.232	-0.087
-670.091	280.717	0.134	-0.245
-669.076	-143.611	-0.157	-0.015
-668.062	-200.000	-0.004	0.118
-667.047	-200.000	-0.039	0.375
-666.032	-109.962	0.069	-0.015
-665.018	304.146	-0.073	-0.139
-664.003	-72.982	-0.140	-0.052
-662.989	359.880	-0.047	0.096
-661.974	-76.752	0.284	-0.101
-660.959	-200.000	0.013	0.097
-659.945	-49.625	0.351	-0.170
-658.930	-157.259	-0.470	0.029
-657.916	-200.000	-0.065	0.451
-656.901	366.123	0.067	-0.137
-655.886	-200.000	-0.010	-0.136
-654.872	-200.000	-0.022	0.178
-653.857	-200.000	-0.022	-0.212
-652.843	-200.000	-0.041	-0.247
-651.828	800.000	0.029	-0.106
-650.814	276.518	0.043	0.078
-649.799	-70.578	-0.279	-0.108
-648.784	-134.966	-0.159	0.020
-647.770	-97.041	-0.074	0.020
-646.755	-8.254	-0.293	0.201
-645.741	-200.000	-0.005	0.220
-644.726	-70.027	-0.271	0.105
-643.711	-68.558	-0.243	0.096
-642.697	-200.000	-0.025	-0.222
-641.682	-92.552	0.342	0.098
-640.668	800.000	0.090	-0.336
-639.653	-132.693	-0.277	-0.036
-638.638	474.509	0.095	0.218
-637.624	-200.000	0.009	0.189
-636.609	-200.000	-0.014	0.225
-635.595	-33.147	0.088	0.050
-634.580	800.000	0.055	0.162
-633.565	670.578	-0.116	-0.306
-632.551	-200.000	-0.014	-0.091
-631.536	233.379	0.031	-0.052
-630.522	15.504	-0.310	0.248
-629.507	-115.827	-0.114	-0.022
-628.492	-92.801	0.364	-0.104
-627.478	-49.851	0.096	0.046
-626.463	386.100	0.192	-0.403
-625.449	260.501	-0.108	0.190
-624.434	-101.418	-0.267	-0.066
-623.419	-8.850	0.092	-0.063
-622.405	800.000	0.068	0.239
-621.390	-62.653	-0.195	0.082
-620.376	-200.000	-0.036	-0.270
-619.361	516.467	0.095	-0.226
-618.346	-52.078	-0.178	0.084
-617.332	346.690	-0.182	-0.366
-616.317	146.170	0.175	-0.239
-615.303	-28.037	0.130	-0.077
-614.288	160.515	0.143	0.202
-613.273	239.213	0.139	-0.235
-612.259	45.187	-0.053	-0.049
-611.244	-200.000	0.003	-0.137
-610.230	-200.000	0.010	-0.167
-609.215	75.940	-0.163	-0.175
-608.201	800.000	-0.064	0.202
-607.186	-6.187	-0.151	-0.105
-606.171	173.041	0.158	0.232
-605.157	-20.508	-0.306	-0.192
-604.142	91.138	-0.187	-0.214
-603.128	-92.998	-0.185	0.053
-602.113	-200.000	0.009	0.120
-601.098	-59.259	0.125	0.055
-600.084	-32.432	-0.201	0.114
-599.069	800.000	0.047	0.134
-598.055	-200.000	0.055	-0.257
-597.040	-71.891	0.313	-0.118
-596.025	-73.543	0.063	-0.023
-595.011	-85.456	-0.179	-0.057
-593.996	-200.000	0.016	-0.082
-592.982	55.476	-0.022	-0.022
-591.967	487.879	-0.114	0.265
-590.952	55.244	-0.260	0.256
-589.938	800.000	0.165	0.464
-588.923	232.837	0.040	-0.067
-587.909	730.365	-0.036	-0.097
-586.894	-200.000	0.012	-0.334
-585.879	241.497	0.092	0.155
-584.865	-113.805	-0.080	-0.016
-583.850	54.280	0.112	0.110
-582.836	800.000	0.077	-0.249
-581.821	132.676	0.066	0.086
-580.806	9.671	0.082	0.063
-579.792	-173.257	0.160	-0.005
-578.777	123.760	0.047	-0.060
-577.763	69.804	0.197	-0.207
-576.748	-200.000	-0.024	-0.121
-575.733	-200.000	-0.010	-0.074
-574.719	13.141	-0.136	0.107
-573.704	800.000	0.026	-0.089
-572.690	-118.175	-0.226	-0.041
-571.675	207.376	-0.140	-0.223
-570.661	-39.149	-0.163	-0.087
-569.646	-136.993	-0.049	-0.006
-568.631	-183.224	-0.163	0.003
-567.617	55.238	-0.108	0.106
-566.602	-200.000	0.018	-0.119
-565.588	-78.480	-0.233	-0.081
-564.573	-123.100	-0.219	0.036
-563.558	800.000	-0.061	0.201
-562.544	655.759	0.088	-0.229
-561.529	-13.785	0.213	0.140
-560.515	-200.000	-0.001	0.147
-559.500	-200.000	0.007	0.105
-558.485	-200.000	0.057	-0.255
-557.471	-81.484	0.207	-0.069
-556.456	233.178	-0.152	-0.254
-555.442	-200.000	-0.002	0.216
-554.427	-200.000	0.022	0.107
-553.412	800.000	-0.071	0.253
-552.398	152.284	-0.057	-0.079
-551.383	-77.881	-0.098	-0.034
-550.369	-21.550	0.140	0.087
-549.354	-200.000	0.002	-0.074
-548.339	309.740	0.059	-0.112
-547.325	-72.456	0.135	0.051
-546.310	136.861	-0.121	-0.161
-545.296	-35.961	0.188	0.103
-544.281	-181.495	-0.213	-0.004
-543.266	-132.917	0.454	0.059
-542.252	-6.506	-0.202	0.140
-541.237	-20.339	-0.021	0.013
-540.223	-200.000	-0.060	-0.000
-539.208	-43.870	-0.115	-0.059
-538.193	-123.214	-0.265	0.043
-537.179	111.577	-0.163	-0.200
-536.164	58.389	0.193	-0.192
-535.150	176.430	0.064	0.094
-534.135	800.000	-0.010	-0.040
-533.121	800.000	0.076	-0.268
-532.106	-200.000	-0.025	-0.203
-531.091	-200.000	0.042	-0.341
-530.077	-200.000	0.015	-0.249
-529.062	-68.799	-0.250	0.098
-528.048	692.241	0.070	-0.187
-527.033	25.901	0.041	-0.034
-526.018	20.766	0.313	0.257
-525.004	2.362	0.205	0.150
-523.989	-39.556	-0.189	0.100
-522.975	800.000	0.057	-0.196
-521.960	-6.998	-0.114	-0.078
-520.945	-34.210	-0.184	-0.103
-519.931	265.234	0.120	-0.213
-518.916	45.886	-0.143	0.135
-517.902	-26.034	0.189	0.113
-516.887	-78.941	-0.164	0.057
-515.872	-4.451	0.208	0.146
-514.858	-200.000	0.008	-0.188
-513.843	-121.077	-0.335	-0.057
-512.829	-200.000	0.012	-0.268
-511.814	355.854	0.159	-0.321
-510.799	2.394	-0.220	0.161
-509.785	-200.000	-0.017	0.107
-508.770	-44.517	0.130	-0.066
-507.756	83.110	0.185	0.204
-506.741	168.717	0.144	-0.208
-505.726	-200.000	-0.005	-0.054
-504.712	194.875	0.184	-0.283
-503.697	800.000	0.045	0.128
-502.683	22.798	-0.296	-0.246
-501.668	476.613	-0.150	0.343
-500.653	235.180	0.145	0.242
-499.639	-200.000	0.001	-0.160
-498.624	-200.000	-0.047	-0.323
-497.610	-200.000	-0.060	0.362
-496.595	-36.335	0.059	0.032
-495.581	493.620	-0.058	-0.135
-494.566	722.301	0.041	-0.112
-493.551	451.674	-0.061	-0.136
-492.537	-26.916	0.167	-0.099
-491.522	-5.767	-0.289	0.201
-490.508	90.548	0.241	0.273
-489.493	105.220	-0.173	0.207
-488.478	-86.095	0.267	-0.083
-487.464	-75.037	0.335	-0.121
-486.449	257.487	-0.116	-0.202
-485.435	257.796	0.310	0.540
-484.420	-52.822	0.234	-0.109
-483.405	-200.000	0.011	-0.355
-482.391	-200.000	0.005	0.177
-481.376	-200.000	0.051	0.362
-480.362	800.000	0.068	0.260
-479.347	631.982	-0.056	-0.143
-478.332	-50.648	0.350	0.167
-477.318	434.202	-0.067	-0.147
-476.303	-200.000	-0.002	0.098
-475.289	-200.000	0.026	0.203
-474.274	-91.013	-0.107	-0.031
-473.259	800.000	0.080	-0.285
-472.245	-69.876	0.187	-0.072
-471.230	800.000	-0.085	-0.369
-470.216	800.000	-0.105	-0.356
-469.201	19.486	-0.386	0.314
-468.186	51.310	0.191	-0.183
-467.172	-24.341	0.009	-0.005
-466.157	-200.000	0.092	0.415
-465.143	-106.703	0.060	-0.014
-464.128	800.000	0.031	-0.124
-463.113	-200.000	0.055	-0.277
-462.099	292.698	-0.045	-0.083
-461.084	800.000	0.043	0.136
-460.070	-200.000	0.008	0.041
-459.055	101.020	-0.174	0.205
-458.040	-75.628	-0.319	0.114
-457.026	-200.000	0.003	0.059
-456.011	-112.728	0.060	0.012
-454.997	-200.000	-0.058	-0.473
-453.982	-200.000	-0.009	-0.132
-452.968	-132.711	-0.259	0.033
-451.953	-200.000	-0.014	-0.072
-450.938	800.000	-0.020	0.071
-449.924	-82.992	0.518	-0.169
-448.909	-200.000	-0.045	0.207
-447.895	800.000	0.024	-0.086
-446.880	-40.200	-0.256	0.135
-445.865	800.000	-0.092	0.343
-444.851	800.000	0.049	-0.161
-443.836	800.000	0.032	-0.125
-442.822	625.662	-0.078	-0.199
-441.807	22.768	0.176	0.145
-440.792	276.280	-0.245	0.440
-439.778	-96.960	-0.299	0.079
-438.763	169.011	-0.046	0.066
-437.749	-19.444	-0.179	0.112
-436.734	800.000	0.054	0.200
-435.719	-174.433	-0.141	0.004
-434.705	-200.000	0.046	-0.408
-433.690	-59.520	0.229	0.099
-432.676	294.411	-0.107	0.197
-431.661	-64.660	-0.068	-0.028
-430.646	-54.827	0.270	0.123
-429.632	196.096	0.240	0.369
-428.617	-200.000	0.009	0.074
-427.603	-30.369	-0.097	0.055
-426.588	291.373	-0.063	-0.116
-425.573	615.037	0.121	-0.306
-424.559	800.000	0.131	0.415
-423.544	800.000	-0.040	0.171
-422.530	-169.664	-0.427	-0.016
-421.515	-15.078	-0.038	0.025
-420.500	800.000	-0.073	0.266
-419.486	800.000	0.120	0.365
-418.471	-13.484	0.356	-0.233
-417.457	59.393	-0.057	0.057
-416.442	-144.040	0.264	0.025
-415.428	386.367	-0.130	-0.270
-414.413	800.000	-0.033	-0.105
-413.398	1.306	-0.082	0.060
-412.384	-200.000	-0.024	-0.173
-411.369	-183.981	-0.232	-0.004
-410.355	56.656	-0.070	0.069
-409.340	130.482	-0.156	-0.202
-408.325	-200.000	0.032	0.217
-407.311	-58.877	0.182	-0.080
-406.296	109.272	0.292	-0.353
-405.282	-173.855	-0.126	-0.004
-404.267	19.222	0.313	0.254
-403.252	-200.000	-0.029	-0.208
-402.238	-2.614	0.170	-0.120
-401.223	-91.715	-0.228	-0.065
-400.209	-179.151	0.188	0.004
-399.194	-82.872	-0.187	-0.061
-398.179	800.000	-0.068	-0.195
-397.165	-40.637	0.192	0.100
-396.150	91.159	0.224	0.254
-395.136	-200.000	-0.001	0.188
-394.121	-200.000	0.007	-0.105
-393.106	-80.676	0.105	0.035
-392.092	18.922	0.123	-0.100
-391.077	-164.519	-0.406	-0.019
-390.063	203.883	0.039	-0.061
-389.048	463.331	-0.141	-0.317
-388.033	54.028	-0.061	-0.059
-387.019	-72.834	-0.226	-0.084
-386.004	-133.686	-0.049	-0.006
-384.990	-137.471	-0.054	-0.006
-383.975	-6.260	-0.206	0.142
-382.960	310.857	0.157	0.297
-381.946	800.000	0.067	0.236
-380.931	-200.000	0.032	-0.170
-379.917	136.477	0.148	0.194
-378.902	-200.000	0.052	0.278
-377.888	800.000	-0.041	-0.165
-376.873	27.646	0.170	-0.144
-375.858	161.185	-0.131	0.185
-374.844	-200.000	-0.103	0.000
-373.829	-151.192	-0.020	-0.002
-372.815	383.709	0.051	0.107
-371.800	204.135	-0.069	0.108
-370.785	-111.924	-0.241	0.049
-369.771	29.775	0.033	0.029
-368.756	-106.156	-0.276	0.062
-367.742	170.204	-0.118	-0.170
-366.727	-71.803	0.308	-0.116
-365.712	64.795	-0.136	0.139
-364.698	-200.000	0.013	-0.277
-363.683	800.000	-0.046	0.173
-362.669	521.755	-0.017	-0.039
-361.654	274.572	0.059	0.105
-360.639	-200.000	-0.003	0.074
-359.625	-127.660	0.133	-0.019
-358.610	-200.000	0.016	-0.375
-357.596	-200.000	-0.027	0.219
-356.581	-146.459	-0.193	0.017
-355.566	4.140	-0.213	-0.157
-354.552	-177.362	-0.117	0.003
-353.537	-200.000	-0.101	0.000
-352.523	57.894	0.002	-0.002
-351.508	-58.716	0.178	-0.078
-350.493	106.815	0.089	0.106
-349.479	-73.203	-0.215	0.079
-348.464	382.980	-0.146	0.302
-347.450	-0.644	-0.270	0.193
-346.435	3.580	-0.205	0.150
-345.420	229.863	0.020	-0.033
-344.406	-49.254	-0.178	0.086
-343.391	-200.000	0.013	0.058
-342.377	-98.354	-0.296	0.076
-341.362	-200.000	-0.005	-0.304
-340.348	330.850	0.089	0.173
-339.333	-30.751	-0.048	-0.027
-338.318	800.000	-0.035	-0.150
-337.304	-167.115	0.172	0.007
-336.289	-28.007	-0.191	0.111
-335.275	-200.000	0.226	0.000
-334.260	800.000	0.032	0.089
-333.245	-40.245	-0.412	-0.216
-332.231	-200.000	-0.055	0.248
-331.216	-21.471	0.199	-0.122
-330.202	526.035	-0.157	-0.373
-329.187	-119.719	-0.104	-0.018
-328.172	62.797	0.083	0.084
-327.158	161.838	0.215	0.304
-326.143	-143.599	-0.162	0.016
-325.129	34.572	-0.035	0.030
-324.114	-129.172	0.329	0.046
-323.099	577.494	0.149	-0.367
-322.085	-200.000	-0.015	-0.156
-321.070	-200.000	-0.015	-0.271
-320.056	-200.000	0.011	-0.374
-319.041	-192.257	0.196	0.002
-318.026	-138.734	-0.253	0.028
-317.012	-200.000	-0.084	0.403
-315.997	193.824	0.149	-0.227
-314.983	800.000	0.038	0.112
-313.968	-200.000	0.004	-0.096
-312.953	564.291	-0.105	-0.256
-311.939	-118.544	0.302	-0.054
-310.924	45.332	-0.135	-0.125
-309.910	-102.394	-0.150	0.036
-308.895	-200.000	0.023	0.223
-307.880	325.952	0.029	0.056
-306.866	-56.998	-0.097	-0.043
-305.851	-200.000	0.023	0.141
-304.837	-136.094	0.410	0.048
-303.822	-200.000	-0.010	0.133
-302.807	142.571	-0.044	0.059
-301.793	-157.529	-0.115	0.007
-300.778	13.302	-0.310	-0.241
-299.764	62.795	-0.180	-0.181
-298.749	400.248	-0.111	-0.234
-297.735	68.117	-0.281	0.289
-296.720	48.374	0.234	0.220
-295.705	-200.000	-0.016	0.231
-294.691	76.522	-0.172	0.183
-293.676	-133.792	-0.129	-0.016
-292.662	129.293	0.146	-0.187
-291.647	-144.484	-0.066	0.006
-290.632	-200.000	0.030	-0.206
-289.618	-76.568	-0.158	0.056
-288.603	-200.000	0.000	0.129
-287.589	-27.619	-0.090	-0.053
-286.574	38.115	-0.378	-0.338
-285.559	-76.585	-0.023	-0.008
-284.545	-200.000	-0.001	-0.003
-283.530	-200.000	0.087	-0.529
-282.516	-35.480	0.307	-0.168
-281.501	97.549	-0.129	-0.149
-280.486	800.000	-0.068	-0.208
-279.472	-39.291	0.247	-0.130
-278.457	90.206	-0.114	0.128
-277.443	30.529	0.148	0.128
-276.428	-72.696	0.211	-0.078
-275.413	-168.776	-0.104	0.004
-274.399	-103.243	-0.219	-0.052
-273.384	-25.465	0.314	-0.186
-272.370	266.366	0.070	0.123
-271.355	22.513	-0.217	-0.178
-270.340	156.420	-0.051	0.071
-269.326	-72.900	-0.189	0.070
-268.311	800.000	0.080	0.284
-267.297	413.273	-0.068	-0.144
-266.282	478.696	-0.080	0.182
-265.267	800.000	-0.050	0.140
-264.253	-56.294	0.423	0.189
-263.238	475.113	-0.122	0.277
-262.224	-94.406	-0.253	0.069
-261.209	-99.655	0.218	-0.055
-260.195	-200.000	0.077	0.369
-259.180	-30.958	0.341	-0.193
-258.165	105.967	0.107	0.128
-257.151	-130.369	0.135	0.018
-256.136	-13.215	-0.042	0.028
-255.122	-83.854	-0.163	0.052
-254.107	557.891	-0.159	-0.386
-253.092	14.461	0.088	-0.069
-252.078	800.000	-0.027	0.079
-251.063	84.613	-0.304	-0.334
-250.049	202.912	0.132	0.205
-249.034	-87.110	-0.204	0.062
-248.019	-127.165	0.066	-0.010
-247.005	-57.137	0.384	0.170
-245.990	-200.000	-0.013	0.317
-244.976	-32.689	0.136	-0.076
-243.961	124.540	0.147	0.185
-242.946	-71.945	0.120	-0.045
-241.932	800.000	0.028	0.112
-240.917	-92.875	0.240	0.067
-239.903	-200.000	-0.029	0.161
-238.888	-200.000	0.018	-0.191
-237.873	800.000	-0.026	-0.080
-236.859	134.055	0.044	-0.057
-235.844	-200.000	-0.018	-0.144
-234.830	-14.104	0.266	-0.172
-233.815	800.000	0.025	-0.091
-232.800	-73.199	0.132	0.049
-231.786	256.859	-0.073	-0.125
-230.771	-200.000	0.022	0.133
-229.757	-144.563	-0.208	0.019
-228.742	-103.137	-0.222	0.053
-227.727	-37.929	0.261	-0.139
-226.713	800.000	0.025	0.072
-225.698	43.913	0.125	-0.115
-224.684	-74.855	0.163	0.059
-223.669	-107.276	0.089	-0.020
-222.655	99.030	0.176	0.203
-221.640	-200.000	-0.073	0.519
-220.625	-183.950	-0.172	0.003
-219.611	-100.414	0.308	-0.076
-218.596	-140.408	-0.343	0.036
-217.582	214.696	-0.163	-0.259
-216.567	-200.000	0.021	-0.223
-215.552	211.095	-0.029	-0.046
-214.538	-17.415	0.152	-0.096
-213.523	-79.529	-0.107	0.036
-212.509	324.448	0.096	-0.184
-211.494	-200.000	0.013	-0.057
-210.479	-200.000	0.004	-0.187
-209.465	173.859	0.201	-0.290
-208.450	-200.000	-0.286	0.001
-207.436	498.986	0.086	-0.198
-206.421	-149.963	0.120	-0.009
-205.406	-134.987	-0.229	0.028
-204.392	-110.756	0.321	-0.066
-203.377	-200.000	0.002	-0.023
-202.363	141.550	-0.150	0.198
-201.348	680.118	0.159	-0.415
-200.333	467.310	-0.043	-0.097
-199.319	-200.000	-0.030	0.505
-198.304	-200.000	0.011	0.299
-197.290	800.000	-0.047	-0.141
-196.275	-144.189	0.128	-0.012
-195.260	-71.409	0.287	0.108
-194.246	140.615	-0.149	0.197
-193.231	-115.140	0.138	-0.026
-192.217	-200.000	0.011	0.344
-191.202	-200.000	-0.042	0.251
-190.187	-159.080	-0.122	-0.007
-189.173	9.077	0.193	0.146
-188.158	644.190	0.067	0.172
-187.144	342.778	0.082	-0.161
-186.129	-200.000	0.025	-0.410
-185.114	800.000	0.019	0.058
-184.100	-95.820	-0.039	0.010
-183.085	800.000	0.094	0.284
-182.071	54.626	0.213	0.205
-181.056	229.141	0.140	0.229
-180.042	13.091	-0.013	-0.010
-179.027	-141.076	0.190	-0.019
-178.012	630.477	-0.072	-0.183
-176.998	-191.578	-0.142	0.001
-175.983	800.000	0.089	0.269
-174.969	-135.098	-0.331	0.040
-173.954	-71.096	0.262	-0.099
-172.939	-200.000	0.006	-0.148
-171.925	-200.000	0.066	-0.539
-170.910	-48.482	0.110	-0.053
-169.896	68.034	-0.195	0.200
-168.881	-93.973	0.114	0.031
-167.866	-102.555	0.190	-0.045
-166.852	-129.630	0.466	-0.064
-165.837	717.238	-0.120	0.320
-164.823	-55.864	0.100	0.045
-163.808	305.624	0.064	-0.119
-162.793	117.955	0.296	0.365
-161.779	-200.000	-0.046	0.315
-160.764	516.221	0.077	0.179
-159.750	-200.000	0.066	0.484
-158.735	800.000	-0.098	-0.296
-157.720	216.209	-0.154	0.244
-156.706	-138.938	0.198	0.021
-155.691	-6.935	-0.110	0.074
-154.677	62.033	0.311	0.310
-153.662	-118.806	-0.116	-0.020
-152.647	-42.825	-0.131	-0.067
-151.633	-72.390	0.370	-0.137
-150.618	-78.715	0.267	-0.091
-149.604	-127.742	0.431	0.062
-148.589	-150.245	0.325	-0.025
-147.574	21.865	-0.073	-0.059
-146.560	-92.948	0.090	-0.025
-145.545	606.036	-0.061	-0.153
-144.531	268.686	0.018	0.032
-143.516	-200.000	0.013	0.419
-142.502	46.489	0.199	-0.185
-141.487	-200.000	0.005	-0.044
-140.472	-172.562	-0.115	-0.004
-139.458	-200.000	0.002	0.215
-138.443	168.176	0.067	0.095
-137.429	-18.470	0.206	0.129
-136.414	-200.000	0.081	0.612
-135.399	-167.655	0.331	-0.013
-134.385	-200.000	0.085	0.466
-133.370	46.564	0.128	0.119
-132.356	-200.000	-0.023	0.283
-131.341	800.000	-0.051	-0.221
-130.326	-31.394	0.059	0.033
-129.312	0.855	0.186	-0.133
-128.297	157.195	0.122	0.168
-127.283	640.268	0.026	0.067
-126.268	-85.721	-0.112	0.035
-125.253	800.000	0.129	0.379
-124.239	-115.483	0.298	0.056
-123.224	34.565	0.070	0.061
-122.210	-111.873	-0.125	0.025
