DTS Sentinel unit serial number:	SN413079Multiplexer serial number:	ORYXHardware model number:	OX4-SRSoftware version number:	ORYX F/W v4.00 Oryx Data Collector v3.7.2.0data status	okinstallation	princeton_trtdifferential loss correction	single-endedforward channel	channel 3reverse channel	N/Adate	2019/09/16time	10:52:34forward acquisition time	60.00reverse acquisition time	0.00gamma	496.2192k internal	0.2301k external	0.2301temperature offset calibration	0.9946default loss term (dB/km)	0.3790temperature slope calibration	1.0000multiplexer offset coefficient	1.0000multiplexer slope coefficient	1.0000fibre end	0.00T internal ref (°C)	36.45T ext. ref 1 (°C)	12.71T ext. ref 2 (°C)	34.27length (m)	temperature (°C)	Stokes	anti-Stokes-747.200	-17.636	0.148	0.095
-746.185	76.806	-0.271	0.293
-745.171	421.050	0.079	0.174
-744.156	-200.000	-0.016	0.174
-743.142	-117.445	-0.159	0.029
-742.127	304.721	0.061	0.116
-741.112	185.873	0.223	0.338
-740.098	110.673	-0.155	0.190
-739.083	-200.000	0.020	-0.329
-738.069	590.200	0.199	0.501
-737.054	-77.635	0.275	0.097
-736.039	-114.707	-0.508	-0.099
-735.025	731.558	-0.102	0.277
-734.010	8.474	-0.074	-0.057
-732.996	-114.935	-0.213	-0.041
-731.981	20.655	-0.073	-0.060
-730.966	-94.654	0.044	-0.012
-729.952	-1.214	0.092	0.066
-728.937	-69.941	-0.102	-0.040
-727.923	-87.712	0.289	-0.089
-726.908	-29.343	-0.040	-0.023
-725.894	-83.385	-0.116	-0.038
-724.879	221.984	-0.261	-0.428
-723.864	115.810	-0.147	-0.183
-722.850	21.793	0.137	-0.114
-721.835	-72.854	0.229	0.086
-720.821	-103.900	-0.126	-0.030
-719.806	-39.996	-0.259	-0.138
-718.791	800.000	-0.077	-0.324
-717.777	-93.937	0.331	-0.093
-716.762	39.966	-0.197	-0.180
-715.748	-200.000	-0.038	-0.189
-714.733	-200.000	-0.069	-0.358
-713.718	237.357	0.113	0.191
-712.704	88.784	0.091	-0.103
-711.689	-52.597	-0.164	-0.077
-710.675	19.717	0.049	-0.040
-709.660	7.400	0.178	0.136
-708.645	-108.886	-0.350	0.076
-707.631	80.838	-0.163	0.179
-706.616	-25.930	0.066	0.039
-705.602	-30.550	-0.085	0.049
-704.587	-200.000	-0.039	-0.183
-703.572	14.323	0.063	-0.050
-702.558	181.989	-0.190	0.284
-701.543	-52.297	0.083	-0.039
-700.529	-108.467	-0.237	-0.052
-699.514	149.804	0.060	0.083
-698.499	62.952	-0.082	0.083
-697.485	-114.607	-0.127	-0.025
-696.470	-99.586	-0.151	-0.039
-695.456	-42.285	-0.479	-0.249
-694.441	205.430	0.148	-0.233
-693.426	800.000	0.086	0.285
-692.412	-170.227	-0.128	0.005
-691.397	-34.680	-0.101	0.056
-690.383	-200.000	0.003	-0.082
-689.368	800.000	-0.111	0.396
-688.354	-143.873	-0.190	0.018
-687.339	-133.244	0.206	0.026
-686.324	-44.563	-0.100	0.051
-685.310	2.906	-0.102	-0.075
-684.295	800.000	-0.031	0.095
-683.281	-79.264	-0.330	-0.114
-682.266	-200.000	-0.008	-0.349
-681.251	709.874	0.056	-0.150
-680.237	165.742	-0.109	-0.157
-679.222	106.988	0.182	-0.220
-678.208	800.000	-0.027	0.079
-677.193	-103.175	-0.324	0.078
-676.178	353.475	-0.093	-0.187
-675.164	-53.393	-0.065	0.030
-674.149	-78.941	0.128	0.044
-673.135	-48.060	-0.182	0.089
-672.120	-71.144	0.091	0.035
-671.105	204.884	-0.050	-0.079
-670.091	-119.838	-0.085	-0.015
-669.076	-200.000	-0.077	-0.525
-668.062	-200.000	0.020	-0.227
-667.047	87.756	-0.187	-0.211
-666.032	-31.503	-0.236	-0.135
-665.018	247.675	0.164	-0.281
-664.003	-35.060	0.080	-0.044
-662.989	623.498	-0.087	0.224
-661.974	0.124	0.178	0.129
-660.959	-169.494	0.132	-0.005
-659.945	476.300	0.180	0.413
-658.930	800.000	0.058	0.200
-657.916	645.547	-0.198	-0.515
-656.901	-102.082	-0.390	-0.095
-655.886	583.255	-0.074	-0.185
-654.872	800.000	-0.094	-0.351
-653.857	177.954	0.143	-0.212
-652.843	-84.093	0.220	-0.071
-651.828	-139.188	-0.333	-0.036
-650.814	-200.000	-0.024	-0.242
-649.799	-126.498	-0.297	0.045
-648.784	-200.000	0.024	-0.113
-647.770	-75.919	0.189	-0.068
-646.755	223.109	0.082	0.135
-645.741	-74.763	0.268	0.098
-644.726	-135.259	0.484	-0.059
-643.711	-122.596	0.221	0.036
-642.697	-70.935	-0.196	-0.075
-641.682	277.244	0.148	-0.266
-640.668	130.498	0.167	0.217
-639.653	-189.421	-0.299	-0.004
-638.638	800.000	-0.151	-0.577
-637.624	-136.963	-0.083	-0.010
-636.609	-128.992	0.189	0.027
-635.595	586.460	-0.044	0.111
-634.580	-104.325	-0.126	-0.030
-633.565	-200.000	0.011	-0.115
-632.551	-200.000	-0.069	-0.362
-631.536	-200.000	-0.001	0.108
-630.522	-102.825	-0.079	0.019
-629.507	396.575	0.014	0.030
-628.492	-179.413	0.067	-0.001
-627.478	32.484	-0.330	0.289
-626.463	-76.787	0.089	0.032
-625.449	105.446	0.034	-0.041
-624.434	800.000	-0.061	0.255
-623.419	71.944	-0.230	-0.242
-622.405	-107.082	0.114	-0.026
-621.390	-87.481	-0.217	-0.067
-620.376	-200.000	-0.015	-0.191
-619.361	-140.888	0.128	0.013
-618.346	-200.000	-0.023	0.274
-617.332	604.467	-0.141	0.356
-616.317	800.000	0.064	0.222
-615.303	800.000	-0.094	-0.268
-614.288	-37.617	0.202	0.109
-613.273	-135.989	-0.322	0.038
-612.259	-92.083	-0.109	-0.031
-611.244	800.000	0.064	-0.184
-610.230	800.000	0.044	0.185
-609.215	14.191	0.108	-0.086
-608.201	208.539	-0.185	-0.293
-607.186	339.280	-0.152	0.301
-606.171	84.766	-0.098	-0.109
-605.157	56.202	-0.055	0.054
-604.142	54.895	0.106	-0.104
-603.128	5.853	-0.132	0.099
-602.113	53.310	-0.188	-0.182
-601.098	-200.000	-0.063	0.366
-600.084	210.919	0.091	0.146
-599.069	2.143	0.140	0.103
-598.055	-144.160	-0.387	-0.037
-597.040	-133.452	-0.235	-0.030
-596.025	-168.937	0.492	-0.019
-595.011	800.000	-0.075	-0.327
-593.996	-16.018	-0.067	-0.043
-592.982	-20.590	0.257	-0.160
-591.967	1.902	-0.106	0.077
-590.952	51.722	0.051	-0.049
-589.938	587.457	0.091	-0.227
-588.923	67.034	-0.024	0.025
-587.909	-97.614	-0.126	0.033
-586.894	-93.685	-0.181	-0.051
-585.879	99.017	0.246	-0.287
-584.865	-50.730	-0.162	0.077
-583.850	-200.000	-0.008	0.356
-582.836	-20.460	-0.322	0.200
-581.821	-200.000	0.002	-0.320
-580.806	50.449	-0.119	-0.114
-579.792	-62.266	-0.293	-0.124
-578.777	-10.838	0.302	0.202
-577.763	-200.000	-0.032	-0.215
-576.748	119.016	-0.114	-0.143
-575.733	8.412	0.095	-0.072
-574.719	-27.015	-0.394	0.233
-573.704	-50.050	-0.321	-0.154
-572.690	246.919	-0.160	0.274
-571.675	800.000	-0.069	-0.231
-570.661	631.290	-0.042	0.106
-569.646	-200.000	-0.050	-0.414
-568.631	-200.000	-0.006	-0.196
-567.617	17.443	-0.155	-0.124
-566.602	-60.184	0.151	0.065
-565.588	-200.000	-0.036	0.259
-564.573	-200.000	0.023	-0.201
-563.558	-92.338	0.390	0.111
-562.544	-84.961	-0.176	-0.056
-561.529	-83.465	-0.364	0.118
-560.515	-200.000	-0.036	0.269
-559.500	-141.932	0.191	-0.019
-558.485	-7.841	0.157	0.107
-557.471	628.904	0.079	-0.203
-556.456	-200.000	-0.084	-0.401
-555.442	18.759	0.195	-0.158
-554.427	-200.000	-0.002	0.253
-553.412	800.000	0.089	-0.248
-552.398	-200.000	-0.054	0.280
-551.383	-200.000	-0.039	-0.307
-550.369	-23.882	0.182	-0.110
-549.354	-128.998	-0.236	0.034
-548.339	203.328	-0.193	-0.302
-547.325	-5.673	-0.207	0.143
-546.310	43.668	0.358	-0.332
-545.296	-23.653	-0.317	0.192
-544.281	41.282	-0.088	0.081
-543.266	-98.605	0.177	-0.046
-542.252	404.887	-0.168	-0.358
-541.237	-1.558	0.140	0.100
-540.223	-15.287	-0.171	0.111
-539.208	-200.000	-0.002	0.032
-538.193	800.000	-0.030	0.098
-537.179	-23.816	0.206	0.125
-536.164	-90.063	-0.269	-0.079
-535.150	-111.987	0.125	-0.026
-534.135	101.158	0.054	-0.064
-533.121	-78.799	0.262	-0.091
-532.106	-200.000	0.001	0.357
-531.091	0.944	-0.081	0.059
-530.077	-34.364	0.310	-0.172
-529.062	800.000	0.090	0.275
-528.048	800.000	0.075	-0.279
-527.033	-56.002	-0.034	-0.015
-526.018	-85.938	0.176	0.055
-525.004	9.234	0.110	-0.084
-523.989	-176.304	-0.147	0.004
-522.975	-200.000	-0.040	0.237
-521.960	4.220	-0.210	0.156
-520.945	114.272	0.017	-0.021
-519.931	290.569	0.149	-0.274
-518.916	7.507	0.135	-0.102
-517.902	319.138	0.054	-0.104
-516.887	239.220	0.141	0.237
-515.872	-101.320	-0.233	0.058
-514.858	65.447	-0.197	0.202
-513.843	33.596	0.204	-0.179
-512.829	-90.982	0.019	0.005
-511.814	354.044	-0.101	0.202
-510.799	-138.913	-0.238	0.026
-509.785	-134.760	-0.166	-0.020
-508.770	540.999	-0.023	0.055
-507.756	201.529	-0.106	0.165
-506.741	195.241	0.202	0.310
-505.726	61.083	0.199	0.199
-504.712	800.000	-0.106	0.365
-503.697	172.816	-0.088	0.128
-502.683	55.765	-0.062	-0.061
-501.668	-82.220	0.207	0.068
-500.653	800.000	0.128	-0.404
-499.639	195.480	0.111	-0.170
-498.624	17.691	-0.202	0.162
-497.610	800.000	-0.035	0.117
-496.595	-34.035	-0.077	-0.043
-495.581	125.089	0.087	0.111
-494.566	223.379	0.136	0.221
-493.551	800.000	0.057	-0.188
-492.537	-4.261	0.250	-0.174
-491.522	-31.599	0.242	0.137
-490.508	144.804	-0.189	0.254
-489.493	339.998	0.065	-0.129
-488.478	204.869	0.036	0.057
-487.464	-17.403	-0.198	0.126
-486.449	-47.153	0.296	0.146
-485.435	-200.000	0.093	0.440
-484.420	224.679	-0.160	0.261
-483.405	800.000	0.038	0.129
-482.391	125.752	-0.313	-0.400
-481.376	11.855	-0.429	0.333
-480.362	26.623	-0.199	0.168
-479.347	-53.116	-0.176	0.082
-478.332	344.764	0.192	-0.380
-477.318	-200.000	-0.003	0.101
-476.303	-193.591	0.153	0.001
-475.289	212.903	-0.155	0.246
-474.274	132.167	-0.074	0.097
-473.259	800.000	-0.039	-0.147
-472.245	-151.303	-0.140	0.011
-471.230	-182.922	0.264	0.005
-470.216	95.351	0.187	0.215
-469.201	-110.288	0.045	0.010
-468.186	-47.081	-0.577	0.284
-467.172	485.525	-0.058	-0.132
-466.157	-200.000	-0.234	-0.000
-465.143	800.000	-0.049	-0.151
-464.128	-20.670	-0.135	0.084
-463.113	-11.242	0.130	-0.086
-462.099	129.119	-0.151	-0.194
-461.084	800.000	0.041	0.166
-460.070	3.070	0.182	-0.134
-459.055	-200.000	0.039	-0.182
-458.040	192.620	-0.030	0.046
-457.026	800.000	0.089	-0.359
-456.011	-95.547	-0.331	-0.089
-454.997	-135.075	0.081	0.010
-453.982	547.658	0.172	-0.415
-452.968	391.110	-0.097	-0.203
-451.953	279.996	-0.049	0.088
-450.938	-83.311	-0.324	0.105
-449.924	800.000	0.104	0.305
-448.909	186.832	-0.096	0.145
-447.895	60.798	0.257	0.257
-446.880	-200.000	0.006	-0.274
-445.865	-167.827	0.183	0.007
-444.851	-11.299	0.121	0.080
-443.836	800.000	-0.058	0.203
-442.822	-157.540	-0.268	-0.016
-441.807	-69.838	0.096	-0.037
-440.792	-1.518	0.375	0.266
-439.778	-110.130	0.173	-0.036
-438.763	104.017	0.253	-0.300
-437.749	800.000	-0.083	-0.357
-436.734	355.889	-0.149	0.299
-435.719	26.369	-0.242	-0.204
-434.705	-200.000	0.019	-0.381
-433.690	-85.742	0.250	0.078
-432.676	-26.916	-0.029	-0.017
-431.661	-200.000	0.030	0.204
-430.646	293.741	-0.071	-0.131
-429.632	118.161	-0.120	-0.150
-428.617	-200.000	-0.006	-0.046
-427.603	800.000	-0.096	-0.314
-426.588	589.637	-0.032	0.078
-425.573	-200.000	0.049	0.265
-424.559	269.786	0.166	-0.294
-423.544	-101.906	-0.073	0.018
-422.530	-200.000	0.012	0.146
-421.515	181.129	-0.076	0.113
-420.500	-200.000	-0.038	0.230
-419.486	53.959	0.111	0.107
-418.471	783.273	-0.052	-0.142
-417.457	282.393	-0.117	0.211
-416.442	-200.000	-0.003	-0.031
-415.428	-92.529	0.224	-0.063
-414.413	26.237	0.339	-0.285
-413.398	-86.079	0.117	0.036
-412.384	9.609	0.244	0.186
-411.369	-200.000	-0.049	-0.234
-410.355	-200.000	0.041	-0.273
-409.340	271.110	-0.157	0.279
-408.325	-187.299	0.086	-0.001
-407.311	-180.088	0.292	0.006
-406.296	329.393	-0.040	-0.077
-405.282	-200.000	-0.006	0.203
-404.267	-18.779	0.148	-0.093
-403.252	800.000	-0.050	0.158
-402.238	0.679	-0.193	-0.139
-401.223	482.637	-0.066	-0.151
-400.209	-200.000	-0.010	-0.128
-399.194	205.884	0.211	-0.330
-398.179	-200.000	-0.012	0.098
-397.165	34.062	-0.032	-0.028
-396.150	-28.873	0.118	0.068
-395.136	-200.000	0.013	0.140
-394.121	800.000	0.040	0.143
-393.106	-200.000	-0.043	0.218
-392.092	-95.857	-0.097	0.026
-391.077	330.111	0.132	-0.255
-390.063	56.021	0.204	-0.200
-389.048	-7.463	-0.235	-0.160
-388.033	-33.031	-0.068	-0.038
-387.019	-200.000	-0.078	-0.360
-386.004	53.548	0.160	0.154
-384.990	800.000	0.040	0.148
-383.975	104.496	0.077	0.092
-382.960	61.484	0.024	-0.024
-381.946	-200.000	0.004	-0.313
-380.931	-62.720	-0.407	-0.170
-379.917	-22.440	-0.241	-0.146
-378.902	513.675	-0.101	-0.238
-377.888	15.868	-0.200	0.158
-376.873	391.620	-0.019	-0.040
-375.858	18.396	-0.195	-0.156
-374.844	-96.907	-0.145	-0.038
-373.829	800.000	0.024	0.104
-372.815	-200.000	-0.004	-0.096
-371.800	278.780	0.065	-0.116
-370.785	-27.875	0.141	0.082
-369.771	18.873	-0.064	0.052
-368.756	78.034	-0.042	-0.045
-367.742	596.228	-0.101	-0.251
-366.727	-200.000	0.079	0.408
-365.712	123.392	0.146	0.184
-364.698	692.318	0.085	0.223
-363.683	-200.000	0.004	0.102
-362.669	-49.261	0.309	0.148
-361.654	-70.727	0.122	0.046
-360.639	800.000	-0.031	-0.115
-359.625	-200.000	0.013	-0.184
-358.610	800.000	0.120	0.373
-357.596	-90.547	0.125	-0.036
-356.581	-200.000	-0.026	-0.229
-355.566	362.882	0.076	0.154
-354.552	-127.715	0.108	-0.016
-353.537	-41.130	0.213	-0.110
-352.523	556.808	-0.109	0.263
-351.508	-200.000	-0.011	0.097
-350.493	293.080	-0.054	0.100
-349.479	-54.354	0.229	-0.104
-348.464	-200.000	-0.000	0.017
-347.450	800.000	-0.025	0.079
-346.435	-45.611	-0.157	-0.078
-345.420	191.418	-0.114	-0.172
-344.406	91.335	-0.130	-0.146
-343.391	592.060	-0.051	-0.126
-342.377	114.480	0.051	0.063
-341.362	-98.122	0.169	-0.044
-340.348	800.000	0.029	-0.115
-339.333	32.837	0.095	0.083
-338.318	282.621	0.193	0.347
-337.304	-200.000	0.003	0.033
-336.289	150.690	-0.228	0.311
-335.275	-35.493	-0.032	0.018
-334.260	420.597	-0.079	-0.171
-333.245	-58.839	0.046	0.020
-332.231	100.168	0.154	-0.179
-331.216	80.274	-0.293	0.316
-330.202	-200.000	0.012	0.412
-329.187	-106.322	-0.034	-0.008
-328.172	46.151	0.034	-0.031
-327.158	102.174	-0.176	-0.206
-326.143	-110.583	0.168	-0.035
-325.129	-46.500	-0.147	0.072
-324.114	57.441	-0.218	0.213
-323.099	-200.000	0.014	-0.155
-322.085	800.000	-0.027	0.109
-321.070	800.000	0.108	0.349
-320.056	107.642	0.101	-0.121
-319.041	-184.974	-0.264	0.004
-318.026	-34.228	0.079	-0.044
-317.012	-103.273	-0.182	-0.043
-315.997	-153.454	0.199	-0.014
-314.983	58.194	-0.109	-0.107
-313.968	-152.699	-0.198	-0.014
-312.953	87.941	0.125	0.139
-311.939	-200.000	0.021	0.264
-310.924	-120.320	0.161	-0.027
-309.910	-107.341	0.397	0.088
-308.895	310.067	-0.163	0.305
-307.880	-139.928	-0.209	0.022
-306.866	259.951	-0.067	0.116
-305.851	330.967	-0.084	-0.162
-304.837	414.015	0.192	-0.410
-303.822	244.264	-0.177	0.298
-302.807	800.000	0.122	0.395
-301.793	-200.000	0.001	-0.156
-300.778	128.071	-0.231	-0.295
-299.764	-77.642	0.232	0.080
-298.749	-188.350	0.189	0.002
-297.735	446.836	-0.068	-0.150
-296.720	-82.610	-0.148	-0.048
-295.705	-200.000	0.014	0.424
-294.691	219.422	0.115	-0.184
-293.676	-129.583	0.167	0.023
-292.662	574.309	0.039	0.094
-291.647	-33.724	-0.200	-0.110
-290.632	-27.792	0.282	0.164
-289.618	-200.000	0.030	0.186
-288.603	31.611	-0.185	-0.159
-287.589	655.735	-0.041	-0.105
-286.574	-73.180	-0.266	0.097
-285.559	321.220	-0.100	-0.191
-284.545	-200.000	0.018	0.383
-283.530	-200.000	0.008	0.148
-282.516	-30.416	-0.133	0.076
-281.501	33.243	0.044	-0.038
-280.486	427.133	0.144	-0.311
-279.472	800.000	0.045	0.126
-278.457	440.874	-0.105	-0.231
-277.443	122.353	0.122	0.153
-276.428	-94.084	0.164	-0.045
-275.413	22.734	0.326	0.267
-274.399	-11.480	0.073	0.048
-273.384	-144.234	0.216	0.020
-272.370	800.000	0.086	0.282
-271.355	-4.935	-0.082	0.057
-270.340	-77.765	0.059	0.020
-269.326	-200.000	-0.016	-0.234
-268.311	35.286	0.043	0.037
-267.297	-121.892	0.176	-0.029
-266.282	317.731	0.072	0.135
-265.267	11.831	0.191	-0.147
-264.253	4.020	-0.171	0.125
-263.238	687.930	-0.132	-0.345
-262.224	-200.000	-0.012	0.115
-261.209	-200.000	-0.015	-0.212
-260.195	158.208	0.125	-0.173
-259.180	-200.000	0.050	-0.226
-258.165	593.402	0.124	0.306
-257.151	-23.439	-0.171	0.103
-256.136	125.954	0.073	0.093
-255.122	154.377	0.156	-0.214
-254.107	-134.766	-0.167	0.020
-253.092	80.355	0.025	0.027
-252.078	272.732	-0.060	0.106
-251.063	270.094	0.132	0.232
-250.049	800.000	0.058	-0.169
-249.034	-14.481	-0.142	-0.091
-248.019	-16.747	0.090	-0.057
-247.005	277.128	-0.074	0.132
-245.990	800.000	-0.020	-0.063
-244.976	800.000	0.061	0.171
-243.961	66.808	0.222	-0.226
-242.946	-4.328	-0.052	-0.036
-241.932	-200.000	0.001	-0.047
-240.917	-123.361	-0.260	0.042
-239.903	-36.800	0.180	0.097
-238.888	800.000	-0.074	-0.266
-237.873	-200.000	-0.023	-0.109
-236.859	800.000	-0.079	-0.299
-235.844	-153.948	-0.296	0.020
-234.830	-200.000	-0.011	-0.056
-233.815	-200.000	0.067	-0.418
-232.800	-200.000	0.046	0.333
-231.786	-43.052	-0.288	-0.146
-230.771	227.531	0.181	-0.293
-229.757	295.143	0.184	-0.336
-228.742	-200.000	0.025	0.162
-227.727	-135.698	0.268	-0.032
-226.713	75.541	-0.330	0.348
-225.698	201.700	-0.070	-0.108
-224.684	-49.731	0.278	-0.132
-223.669	-31.669	0.167	-0.093
-222.655	-200.000	-0.001	0.303
-221.640	-135.209	0.018	-0.002
-220.625	176.354	-0.112	-0.162
-219.611	288.943	-0.049	0.088
-218.596	710.811	0.136	-0.358
-217.582	-45.322	-0.078	0.039
-216.567	800.000	-0.121	0.335
-215.552	456.764	0.157	-0.347
-214.538	207.205	0.180	-0.281
-213.523	56.046	-0.167	0.162
-212.509	144.225	0.079	-0.105
-211.494	-36.411	-0.058	0.031
-210.479	-170.220	-0.269	0.009
-209.465	51.387	-0.103	-0.097
-208.450	-21.491	0.222	0.135
-207.436	-155.679	0.183	0.012
-206.421	-70.804	-0.366	0.138
-205.406	113.915	-0.252	0.306
-204.392	-41.707	-0.183	0.094
-203.377	-200.000	-0.005	0.358
-202.363	36.509	-0.083	-0.073
-201.348	-79.416	0.188	-0.064
-200.333	315.807	0.022	0.041
-199.319	83.575	-0.140	-0.152
-198.304	78.842	-0.153	0.163
-197.290	-19.403	-0.170	0.105
-196.275	75.918	-0.188	-0.199
-195.260	-127.377	0.226	0.033
-194.246	-90.794	0.196	-0.056
-193.231	315.051	0.106	0.200
-192.217	800.000	0.049	-0.136
-191.202	637.871	-0.112	-0.285
-190.187	-127.644	-0.064	-0.009
-189.173	300.507	-0.019	0.035
-188.158	59.608	-0.156	-0.153
-187.144	-107.272	0.421	0.092
-186.129	1.530	0.228	0.163
-185.114	-200.000	-0.063	0.289
-184.100	115.734	-0.027	0.033
-183.085	-147.984	0.331	-0.027
-182.071	-69.187	-0.122	-0.047
-181.056	800.000	-0.078	-0.332
-180.042	83.692	0.201	0.218
-179.027	51.450	-0.245	-0.232
-178.012	-70.805	0.329	0.124
-176.998	-128.228	0.083	-0.012
-175.983	82.281	0.187	-0.202
-174.969	-49.270	0.137	0.065
-173.954	800.000	-0.079	-0.235
-172.939	-116.917	-0.132	-0.024
-171.925	132.236	0.096	0.123
-170.910	249.339	0.232	0.392
-169.896	143.881	-0.027	-0.036
-168.881	-200.000	0.009	0.468
-167.866	500.321	-0.100	-0.229
-166.852	200.659	0.113	0.172
-165.837	-200.000	0.031	0.146
-164.823	363.505	0.110	-0.220
-163.808	-161.417	0.104	-0.005
-162.793	292.364	0.069	0.125
-161.779	-129.888	-0.341	-0.047
-160.764	-33.563	0.174	0.096
-159.750	-200.000	-0.016	-0.375
-158.735	-143.607	-0.106	-0.010
-157.720	-90.547	-0.110	0.032
-156.706	4.439	0.413	-0.302
-155.691	310.655	-0.095	-0.177
-154.677	-200.000	0.001	-0.070
-153.662	-99.759	0.276	0.069
-152.647	-79.402	-0.127	0.043
-151.633	22.663	-0.156	0.127
-150.618	-200.000	-0.011	0.202
-149.604	-200.000	-0.038	0.268
-148.589	189.895	-0.221	0.330
-147.574	-96.814	0.347	0.091
-146.560	-200.000	0.011	-0.065
-145.545	223.771	0.130	0.209
-144.531	-155.852	0.154	0.010
-143.516	-10.950	-0.125	0.082
-142.502	30.475	-0.197	0.168
-141.487	-6.041	-0.126	0.086
-140.472	-70.461	-0.262	-0.099
-139.458	-95.372	0.068	-0.018
-138.443	196.895	0.218	-0.330
-137.429	130.703	-0.268	-0.342
-136.414	17.368	-0.149	0.118
-135.399	712.311	0.062	-0.163
-134.385	800.000	0.050	-0.197
-133.370	-53.284	0.128	-0.058
-132.356	677.151	-0.186	0.481
-131.341	-200.000	-0.020	0.258
-130.326	-200.000	-0.022	-0.258
-129.312	-94.666	0.214	0.058
-128.297	-44.846	-0.108	0.054
-127.283	800.000	-0.029	0.082
-126.268	70.143	-0.173	-0.178
-125.253	-25.432	0.253	-0.149
-124.239	800.000	-0.108	-0.388
-123.224	0.044	0.235	-0.166
-122.210	109.669	-0.229	-0.273
-121.195	156.698	-0.172	-0.236
