DTS Sentinel unit serial number:	SN413079Multiplexer serial number:	ORYXHardware model number:	OX4-SRSoftware version number:	ORYX F/W v4.00 Oryx Data Collector v3.7.2.0data status	okinstallation	princeton_trtdifferential loss correction	single-endedforward channel	channel 3reverse channel	N/Adate	2019/09/15time	01:48:34forward acquisition time	60.00reverse acquisition time	0.00gamma	496.2192k internal	0.2321k external	0.2321temperature offset calibration	0.9969default loss term (dB/km)	0.3790temperature slope calibration	1.0000multiplexer offset coefficient	1.0000multiplexer slope coefficient	1.0000fibre end	0.00T internal ref (°C)	31.81T ext. ref 1 (°C)	4.51T ext. ref 2 (°C)	26.73length (m)	temperature (°C)	Stokes	anti-Stokes-747.200	-93.900	0.061	0.017
-746.185	-200.000	0.025	0.609
-745.171	19.278	-0.076	-0.062
-744.156	800.000	0.079	0.247
-743.142	73.908	0.007	-0.008
-742.127	-9.633	-0.242	0.163
-741.112	-200.000	0.023	0.189
-740.098	6.768	-0.056	0.042
-739.083	-9.407	-0.188	0.127
-738.069	-200.000	0.022	0.206
-737.054	-139.058	0.208	-0.023
-736.039	-200.000	-0.052	-0.284
-735.025	-86.067	0.109	0.034
-734.010	-31.219	0.034	-0.019
-732.996	368.262	-0.120	-0.246
-731.981	-130.912	-0.221	0.030
-730.966	101.019	-0.184	0.216
-729.952	20.571	0.126	0.103
-728.937	547.317	0.090	-0.219
-727.923	-28.877	0.110	0.064
-726.908	309.103	-0.107	0.203
-725.894	705.739	0.036	0.097
-724.879	107.122	0.052	-0.062
-723.864	707.910	-0.089	-0.237
-722.850	3.845	-0.412	-0.304
-721.835	-95.482	0.298	0.081
-720.821	231.510	0.046	0.076
-719.806	-59.737	0.042	-0.018
-718.791	-167.433	0.210	-0.009
-717.777	-149.822	-0.089	0.007
-716.762	184.639	-0.165	-0.248
-715.748	201.235	-0.135	-0.210
-714.733	-200.000	-0.041	-0.228
-713.718	-200.000	-0.008	0.158
-712.704	437.571	0.127	0.279
-711.689	800.000	-0.065	-0.222
-710.675	421.245	0.081	0.175
-709.660	-200.000	-0.028	0.174
-708.645	800.000	0.034	0.130
-707.631	-165.263	0.188	-0.008
-706.616	194.892	0.089	-0.137
-705.602	129.488	-0.061	-0.079
-704.587	-124.716	0.405	-0.063
-703.572	-81.692	-0.140	-0.046
-702.558	-200.000	-0.043	0.289
-701.543	76.318	0.157	-0.168
-700.529	-45.081	0.130	-0.065
-699.514	-109.884	0.470	0.099
-698.499	440.233	0.018	-0.039
-697.485	579.432	0.023	-0.056
-696.470	800.000	0.057	-0.212
-695.456	235.044	-0.107	-0.179
-694.441	26.768	-0.285	-0.241
-693.426	-14.569	0.388	0.252
-692.412	-80.044	-0.134	-0.045
-691.397	-194.546	-0.436	0.003
-690.383	29.358	-0.048	0.041
-689.368	-107.184	0.128	-0.028
-688.354	-200.000	-0.007	-0.042
-687.339	-200.000	-0.040	0.295
-686.324	-93.338	-0.268	-0.075
-685.310	800.000	0.067	-0.214
-684.295	-120.941	-0.159	0.027
-683.281	-29.727	0.100	-0.057
-682.266	-130.470	-0.301	-0.041
-681.251	-200.000	-0.011	-0.339
-680.237	-200.000	0.029	-0.384
-679.222	-26.051	0.042	-0.025
-678.208	71.816	0.132	-0.138
-677.193	-88.513	-0.046	-0.014
-676.178	-200.000	-0.010	0.120
-675.164	-58.138	-0.105	-0.046
-674.149	-78.254	-0.034	-0.012
-673.135	-200.000	-0.018	0.098
-672.120	-176.139	-0.299	0.008
-671.105	246.691	0.278	-0.472
-670.091	16.000	0.158	-0.125
-669.076	96.166	-0.160	0.184
-668.062	237.180	-0.044	0.074
-667.047	-64.101	-0.070	0.029
-666.032	-96.904	0.192	-0.051
-665.018	43.776	-0.247	0.228
-664.003	-200.000	0.030	0.186
-662.989	-135.552	0.369	0.044
-661.974	74.771	-0.046	-0.049
-660.959	-104.228	-0.047	0.011
-659.945	-200.000	-0.058	-0.313
-658.930	304.071	-0.080	0.149
-657.916	-106.849	0.472	-0.106
-656.901	-71.353	-0.034	0.013
-655.886	-78.390	0.157	0.054
-654.872	-200.000	-0.018	-0.163
-653.857	20.251	0.090	-0.073
-652.843	-200.000	0.021	0.132
-651.828	155.692	0.069	0.096
-650.814	-200.000	-0.085	0.401
-649.799	-200.000	0.011	0.316
-648.784	-200.000	-0.009	0.223
-647.770	105.238	-0.176	-0.209
-646.755	-200.000	0.015	-0.085
-645.741	-79.837	0.127	-0.043
-644.726	488.896	0.047	-0.109
-643.711	41.975	-0.259	-0.237
-642.697	145.877	0.045	0.061
-641.682	-200.000	0.019	0.224
-640.668	-143.514	-0.283	-0.027
-639.653	60.259	0.281	-0.280
-638.638	70.059	0.107	-0.111
-637.624	278.214	-0.073	-0.131
-636.609	168.370	0.241	-0.345
-635.595	-92.891	-0.125	-0.035
-634.580	-200.000	-0.028	-0.544
-633.565	-189.440	0.272	0.003
-632.551	144.097	0.193	-0.259
-631.536	346.917	-0.197	0.390
-630.522	31.031	-0.243	-0.210
-629.507	222.823	0.081	0.132
-628.492	-126.174	-0.221	-0.033
-627.478	800.000	-0.091	-0.354
-626.463	39.121	-0.122	0.109
-625.449	-64.717	0.165	0.067
-624.434	-134.479	-0.163	-0.020
-623.419	800.000	-0.020	-0.083
-622.405	39.893	-0.215	-0.194
-621.390	-76.330	0.216	0.076
-620.376	5.557	0.174	0.129
-619.361	-200.000	-0.007	0.131
-618.346	288.362	0.071	-0.129
-617.332	-200.000	-0.004	0.219
-616.317	-102.148	-0.174	0.042
-615.303	-111.830	0.367	0.075
-614.288	-112.799	-0.067	0.013
-613.273	-200.000	0.001	-0.121
-612.259	-2.169	0.141	0.099
-611.244	-4.862	-0.317	0.220
-610.230	-52.526	-0.182	0.085
-609.215	4.880	-0.150	-0.111
-608.201	181.816	-0.096	0.143
-607.186	-141.705	0.261	0.026
-606.171	-52.228	-0.231	-0.108
-605.157	-15.915	0.144	-0.092
-604.142	-200.000	-0.016	0.221
-603.128	-155.445	0.150	0.010
-602.113	-21.299	0.121	0.075
-601.098	-200.000	-0.032	-0.248
-600.084	-200.000	-0.047	-0.215
-599.069	-43.092	-0.177	0.090
-598.055	87.099	0.050	0.055
-597.040	300.576	0.045	0.084
-596.025	119.858	0.220	-0.274
-595.011	-87.030	-0.293	-0.090
-593.996	800.000	-0.093	0.342
-592.982	-84.550	0.478	0.151
-591.967	-200.000	-0.003	0.079
-590.952	265.215	-0.050	-0.087
-589.938	-62.198	0.303	0.127
-588.923	53.619	-0.236	-0.228
-587.909	-66.140	-0.087	0.035
-586.894	172.745	-0.073	0.105
-585.879	99.044	0.063	-0.073
-584.865	-200.000	-0.007	-0.181
-583.850	-79.015	-0.047	-0.016
-582.836	157.891	0.117	-0.163
-581.821	42.508	0.275	0.251
-580.806	-39.910	0.438	-0.230
-579.792	80.601	0.118	0.127
-578.777	-200.000	-0.036	-0.219
-577.763	-126.169	0.258	-0.039
-576.748	141.754	0.220	0.293
-575.733	38.815	-0.259	-0.232
-574.719	296.450	-0.098	-0.180
-573.704	108.950	-0.052	0.062
-572.690	-67.957	-0.292	0.115
-571.675	-135.177	0.306	0.037
-570.661	-200.000	-0.004	0.299
-569.646	800.000	0.029	0.111
-568.631	-144.164	-0.269	-0.025
-567.617	484.431	-0.227	-0.518
-566.602	800.000	-0.138	-0.528
-565.588	171.436	-0.092	-0.133
-564.573	-142.628	0.324	-0.032
-563.558	31.978	-0.165	0.142
-562.544	-141.283	0.070	-0.007
-561.529	41.093	-0.038	0.035
-560.515	408.957	-0.021	-0.044
-559.500	272.383	-0.083	0.146
-558.485	39.469	-0.098	0.088
-557.471	-200.000	-0.021	0.289
-556.456	-41.013	-0.179	0.093
-555.442	-16.775	0.244	-0.155
-554.427	-200.000	-0.007	-0.103
-553.412	38.911	-0.272	0.244
-552.398	213.070	-0.215	0.341
-551.383	136.683	0.178	0.233
-550.369	-108.298	-0.118	0.026
-549.354	-58.720	-0.270	-0.117
-548.339	207.228	-0.094	0.147
-547.325	24.787	-0.155	-0.128
-546.310	-68.544	0.483	0.188
-545.296	-87.810	-0.209	-0.063
-544.281	123.805	0.072	-0.091
-543.266	154.943	-0.050	-0.069
-542.252	91.245	0.121	-0.137
-541.237	800.000	0.091	0.360
-540.223	-200.000	-0.468	-0.001
-539.208	114.105	0.065	-0.080
-538.193	-35.632	-0.109	0.059
-537.179	156.943	-0.121	0.167
-536.164	-100.574	-0.235	0.058
-535.150	-128.860	0.240	-0.034
-534.135	-200.000	-0.002	0.061
-533.121	-116.606	0.349	-0.064
-532.106	36.847	0.070	0.062
-531.091	-111.394	0.145	0.030
-530.077	283.443	-0.035	0.062
-529.062	-200.000	0.013	-0.191
-528.048	-200.000	-0.018	-0.246
-527.033	-86.244	0.265	0.082
-526.018	241.821	-0.100	-0.167
-525.004	-133.905	-0.158	-0.020
-523.989	27.787	-0.229	-0.194
-522.975	39.489	0.184	-0.166
-521.960	254.836	0.085	0.145
-520.945	-9.579	-0.047	0.031
-519.931	-117.321	-0.085	-0.015
-518.916	78.726	-0.097	0.104
-517.902	800.000	-0.067	-0.286
-516.887	-200.000	0.044	-0.285
-515.872	538.104	0.033	0.077
-514.858	-104.493	0.292	0.068
-513.843	-97.873	-0.183	-0.047
-512.829	157.457	-0.114	-0.157
-511.814	-79.726	-0.021	-0.007
-510.799	142.563	0.128	0.171
-509.785	800.000	0.009	0.040
-508.770	490.600	0.074	0.169
-507.756	-153.933	-0.142	0.010
-506.741	-9.757	0.154	0.102
-505.726	-126.298	0.433	0.065
-504.712	24.805	-0.417	-0.346
-503.697	800.000	0.058	-0.191
-502.683	-17.164	-0.173	0.110
-501.668	-39.058	-0.199	0.105
-500.653	-12.193	0.202	0.133
-499.639	85.602	0.070	0.077
-498.624	387.105	0.128	-0.266
-497.610	-114.456	0.243	0.047
-496.595	7.173	0.272	0.204
-495.581	-100.337	-0.173	-0.043
-494.566	11.940	-0.228	-0.175
-493.551	-63.241	-0.073	0.030
-492.537	51.325	0.152	0.144
-491.522	800.000	-0.094	0.289
-490.508	-75.627	0.044	-0.016
-489.493	26.875	0.154	-0.129
-488.478	-87.217	-0.331	-0.101
-487.464	-200.000	0.013	0.159
-486.449	800.000	0.062	-0.257
-485.435	-71.258	-0.044	0.016
-484.420	-26.137	0.067	-0.039
-483.405	441.253	-0.140	-0.307
-482.391	15.802	0.182	-0.144
-481.376	-14.575	-0.304	-0.196
-480.362	-61.769	0.176	-0.074
-479.347	35.787	-0.288	0.253
-478.332	74.321	-0.311	0.327
-477.318	21.121	-0.087	0.071
-476.303	-23.600	0.112	-0.067
-475.289	-30.011	0.255	0.145
-474.274	-200.000	0.019	-0.103
-473.259	-116.254	-0.252	0.047
-472.245	-190.051	0.033	-0.000
-471.230	800.000	0.033	0.103
-470.216	796.891	0.073	-0.202
-469.201	-160.307	0.191	-0.010
-468.186	169.830	-0.094	-0.135
-467.172	115.135	0.012	-0.015
-466.157	-200.000	0.011	0.193
-465.143	-200.000	-0.010	-0.101
-464.128	-126.449	-0.394	0.059
-463.113	-74.922	-0.248	-0.089
-462.099	-103.441	-0.156	-0.037
-461.084	159.764	-0.059	-0.082
-460.070	-200.000	0.001	0.079
-459.055	-65.818	0.144	0.058
-458.040	317.102	-0.088	-0.167
-457.026	-47.090	0.082	-0.040
-456.011	-154.159	0.017	0.001
-454.997	553.837	-0.013	0.030
-453.982	800.000	-0.026	0.088
-452.968	375.218	0.055	0.112
-451.953	800.000	0.083	-0.249
-450.938	380.222	0.115	0.235
-449.924	7.093	-0.099	0.074
-448.909	-200.000	-0.007	-0.275
-447.895	242.994	0.098	-0.164
-446.880	518.393	0.122	0.285
-445.865	-200.000	0.026	0.165
-444.851	-48.376	-0.205	-0.099
-443.836	800.000	0.116	-0.337
-442.822	-15.734	0.095	0.060
-441.807	800.000	0.100	0.305
-440.792	59.781	0.147	0.145
-439.778	-132.827	0.343	-0.044
-438.763	177.048	0.134	0.195
-437.749	-150.131	0.112	-0.009
-436.734	800.000	0.016	0.059
-435.719	-93.011	-0.281	0.078
-434.705	-200.000	-0.041	-0.241
-433.690	-149.684	0.506	0.040
-432.676	-200.000	-0.033	0.150
-431.661	132.944	0.160	0.206
-430.646	541.934	0.092	0.218
-429.632	-76.498	-0.339	0.119
-428.617	44.292	-0.333	-0.306
-427.603	61.640	0.136	0.135
-426.588	41.898	0.072	0.065
-425.573	76.611	0.137	-0.145
-424.559	487.797	0.043	0.098
-423.544	-151.766	-0.236	0.017
-422.530	40.573	-0.053	-0.048
-421.515	-74.790	0.213	-0.076
-420.500	-33.684	-0.126	-0.070
-419.486	-124.825	0.258	0.040
-418.471	312.901	0.159	-0.297
-417.457	-121.161	0.117	0.020
-416.442	-200.000	-0.038	-0.367
-415.428	128.277	0.167	-0.212
-414.413	248.288	-0.036	-0.061
-413.398	68.686	-0.248	-0.254
-412.384	15.575	-0.152	0.119
-411.369	-24.373	0.251	-0.150
-410.355	0.068	0.304	0.216
-409.340	-52.699	-0.358	0.165
-408.325	127.284	0.142	0.179
-407.311	-200.000	0.009	0.161
-406.296	-22.299	-0.040	0.024
-405.282	800.000	-0.049	0.164
-404.267	-200.000	-0.013	0.174
-403.252	-37.160	-0.109	0.058
-402.238	-40.204	0.179	-0.093
-401.223	26.709	-0.136	0.114
-400.209	-69.111	-0.101	-0.039
-399.194	-191.370	0.402	-0.004
-398.179	-200.000	-0.066	0.455
-397.165	30.246	0.288	-0.245
-396.150	-76.615	0.309	0.108
-395.136	-27.524	-0.182	-0.106
-394.121	218.170	0.138	0.220
-393.106	46.281	-0.178	0.164
-392.092	-200.000	0.009	0.141
-391.077	-73.213	0.114	-0.041
-390.063	32.889	-0.118	0.102
-389.048	258.359	0.170	0.292
-388.033	-8.866	0.274	0.183
-387.019	-58.341	-0.234	-0.101
-386.004	-101.080	0.130	0.032
-384.990	317.757	0.147	-0.278
-383.975	-83.691	-0.243	-0.077
-382.960	33.774	0.382	-0.332
-381.946	495.072	-0.137	-0.314
-380.931	-35.127	0.405	-0.220
-379.917	-200.000	-0.008	-0.133
-378.902	61.160	-0.145	-0.143
-377.888	14.605	0.056	0.044
-376.873	-200.000	0.032	-0.178
-375.858	76.671	-0.295	0.312
-374.844	81.286	-0.062	0.067
-373.829	-11.349	-0.057	0.037
-372.815	-102.957	-0.253	0.060
-371.800	-125.806	-0.085	-0.013
-370.785	-72.481	-0.154	-0.057
-369.771	-200.000	0.018	-0.082
-368.756	183.401	0.083	-0.122
-367.742	299.315	0.069	-0.127
-366.727	-80.657	0.153	-0.051
-365.712	-83.145	0.222	-0.071
-364.698	-88.555	0.182	0.054
-363.683	-200.000	0.010	-0.120
-362.669	800.000	-0.137	-0.469
-361.654	-200.000	0.018	-0.192
-360.639	-200.000	-0.023	-0.184
-359.625	-84.321	0.066	-0.021
-358.610	-13.862	-0.102	-0.066
-357.596	-71.819	-0.092	0.034
-356.581	800.000	0.138	0.383
-355.566	-200.000	0.002	0.200
-354.552	0.982	-0.245	0.175
-353.537	621.257	-0.069	-0.174
-352.523	-200.000	-0.021	0.136
-351.508	-194.302	0.284	-0.002
-350.493	-159.277	-0.325	0.018
-349.479	26.847	0.194	-0.162
-348.464	800.000	0.074	-0.242
-347.450	800.000	-0.082	0.356
-346.435	304.116	-0.144	0.266
-345.420	170.992	-0.124	0.177
-344.406	389.499	0.105	0.216
-343.391	69.967	0.145	0.149
-342.377	-50.695	-0.397	0.186
-341.362	-150.118	0.212	0.016
-340.348	51.713	0.185	-0.175
-339.333	174.903	-0.036	-0.051
-338.318	251.888	0.101	-0.172
-337.304	-200.000	-0.069	-0.411
-336.289	1.326	0.158	-0.113
-335.275	-107.111	-0.175	0.038
-334.260	120.109	-0.223	0.275
-333.245	-79.937	-0.130	0.044
-332.231	-79.620	0.228	0.077
-331.216	-117.410	0.084	0.015
-330.202	159.617	-0.193	-0.267
-329.187	755.706	-0.061	-0.164
-328.172	-200.000	-0.046	0.287
-327.158	153.402	-0.171	-0.233
-326.143	194.747	0.236	0.357
-325.129	-200.000	0.023	-0.146
-324.114	-130.861	0.269	-0.036
-323.099	-200.000	-0.032	-0.243
-322.085	62.667	0.170	0.169
-321.070	-95.825	-0.339	-0.090
-320.056	140.877	-0.196	0.258
-319.041	-200.000	-0.035	0.161
-318.026	-200.000	0.011	-0.073
-317.012	-95.041	0.158	-0.042
-315.997	-146.065	-0.327	-0.029
-314.983	183.197	0.089	0.131
-313.968	800.000	-0.063	-0.200
-312.953	33.784	-0.047	0.041
-311.939	242.566	-0.174	0.290
-310.924	127.353	0.153	0.193
-309.910	800.000	0.100	0.316
-308.895	800.000	-0.028	-0.116
-307.880	-42.095	0.033	0.017
-306.866	-108.888	0.260	-0.055
-305.851	260.309	-0.108	-0.186
-304.837	-95.226	-0.248	-0.066
-303.822	-112.710	-0.135	-0.027
-302.807	-200.000	-0.005	0.077
-301.793	-200.000	-0.010	0.056
-300.778	-102.609	-0.052	-0.012
-299.764	-48.514	-0.288	0.138
-298.749	-101.640	-0.197	0.048
-297.735	-200.000	0.011	0.114
-296.720	193.697	0.206	-0.310
-295.705	-64.803	0.078	-0.032
-294.691	-140.192	-0.354	-0.037
-293.676	258.092	0.151	0.259
-292.662	268.451	-0.130	0.225
-291.647	-142.060	-0.100	0.010
-290.632	-71.893	-0.490	-0.181
-289.618	-200.000	-0.044	-0.199
-288.603	73.724	0.058	-0.061
-287.589	417.021	0.128	-0.272
-286.574	800.000	-0.076	-0.219
-285.559	-180.535	-0.453	0.009
-284.545	446.110	0.088	-0.191
-283.530	-80.809	0.040	-0.013
-282.516	25.475	0.353	-0.291
-281.501	88.413	0.025	-0.027
-280.486	800.000	0.057	0.165
-279.472	158.532	-0.200	-0.276
-278.457	419.915	-0.108	-0.230
-277.443	273.652	-0.151	0.265
-276.428	177.383	0.092	-0.133
-275.413	-200.000	0.093	0.405
-274.399	-58.042	-0.141	0.061
-273.384	-56.650	0.147	0.065
-272.370	320.908	0.164	-0.310
-271.355	-67.969	-0.211	-0.082
-270.340	148.516	0.176	-0.236
-269.326	146.870	-0.092	0.123
-268.311	-200.000	0.018	-0.243
-267.297	-200.000	-0.069	0.336
-266.282	800.000	-0.048	0.134
-265.267	229.479	-0.204	0.331
-264.253	-200.000	-0.023	-0.140
-263.238	279.208	-0.137	-0.242
-262.224	-35.030	0.148	0.080
-261.209	800.000	-0.075	0.209
-260.195	49.557	-0.116	0.109
-259.180	-200.000	0.002	-0.200
-258.165	-200.000	0.030	-0.192
-257.151	-200.000	-0.006	-0.122
-256.136	144.518	0.201	0.266
-255.122	211.408	-0.096	0.150
-254.107	65.124	-0.288	0.288
-253.092	-49.728	0.429	0.202
-252.078	800.000	0.073	0.274
-251.063	-200.000	-0.010	0.081
-250.049	14.971	-0.327	0.254
-249.034	800.000	-0.081	0.302
-248.019	-197.042	-0.268	0.002
-247.005	-1.677	0.072	0.050
-245.990	138.358	-0.161	-0.210
-244.976	-91.129	-0.139	-0.040
-243.961	-200.000	0.017	-0.149
-242.946	506.259	-0.090	-0.206
-241.932	-6.490	-0.161	0.109
-240.917	-102.657	-0.149	0.035
-239.903	261.758	0.143	0.245
-238.888	-200.000	-0.014	0.107
-237.873	-41.298	-0.168	-0.086
-236.859	86.250	-0.058	-0.063
-235.844	-113.192	0.120	0.024
-234.830	-200.000	0.005	-0.146
-233.815	-182.129	0.242	-0.005
-232.800	-121.775	0.265	0.043
-231.786	-71.016	0.199	-0.074
-230.771	-33.035	0.180	-0.099
-229.757	93.773	-0.150	-0.168
-228.742	71.505	0.182	-0.187
-227.727	-47.834	0.112	-0.054
-226.713	-51.608	-0.340	-0.157
-225.698	43.466	0.045	0.041
-224.684	282.995	0.019	0.034
-223.669	800.000	-0.106	-0.295
-222.655	-21.559	0.056	-0.034
-221.640	-171.691	0.407	0.013
-220.625	-6.140	-0.137	0.093
-219.611	242.852	0.074	-0.122
-218.596	422.394	0.055	0.117
-217.582	388.476	-0.055	-0.113
-216.567	147.315	-0.311	0.415
-215.552	-200.000	-0.045	0.267
-214.538	-200.000	0.018	-0.098
-213.523	-158.875	0.235	0.013
-212.509	-200.000	0.012	0.430
-211.494	-81.032	-0.355	-0.116
-210.479	800.000	0.024	-0.076
-209.465	92.994	-0.118	0.132
-208.450	-85.041	-0.292	0.091
-207.436	214.875	-0.108	0.170
-206.421	-200.000	-0.082	-0.451
-205.406	101.821	0.132	0.153
-204.392	-200.000	-0.028	0.172
-203.377	98.385	-0.073	0.083
-202.363	-105.650	0.297	-0.067
-201.348	800.000	-0.049	0.200
-200.333	-31.487	0.245	0.136
-199.319	-163.882	-0.062	-0.003
-198.304	-200.000	0.005	0.123
-197.290	-70.805	0.207	0.077
-196.275	33.173	-0.108	0.092
-195.260	243.068	-0.044	0.073
-194.246	-200.000	-0.032	-0.205
-193.231	-173.902	-0.160	0.005
-192.217	-40.522	0.058	-0.030
-191.202	-106.724	0.481	-0.106
-190.187	-47.263	0.245	0.118
-189.173	-93.433	0.175	-0.048
-188.158	-34.147	0.306	-0.166
-187.144	8.976	0.151	-0.113
-186.129	29.818	-0.240	-0.202
-185.114	-123.687	0.343	0.054
-184.100	228.462	0.078	0.126
-183.085	-23.325	-0.314	-0.187
-182.071	-93.358	-0.432	0.119
-181.056	484.494	0.206	0.464
-180.042	24.451	0.328	0.268
-179.027	-200.000	0.025	-0.384
-178.012	174.737	0.096	-0.138
-176.998	-200.000	-0.060	0.454
-175.983	62.774	0.118	0.116
-174.969	-200.000	-0.030	-0.146
-173.954	575.846	0.080	-0.194
-172.939	-115.188	-0.082	-0.015
-171.925	30.869	0.099	0.083
-170.910	800.000	-0.056	-0.166
-169.896	-200.000	-0.002	-0.063
-168.881	107.938	-0.027	-0.031
-167.866	-200.000	-0.013	-0.187
-166.852	2.442	0.333	-0.239
-165.837	147.815	0.130	-0.173
-164.823	-200.000	-0.026	0.567
-163.808	-130.325	-0.427	0.057
-162.793	-200.000	-0.033	0.384
-161.779	-200.000	-0.002	-0.217
-160.764	294.151	0.056	0.101
-159.750	0.238	-0.169	0.119
-158.735	-135.100	0.107	0.013
-157.720	35.476	0.326	-0.282
-156.706	-14.044	0.041	0.026
-155.691	-161.974	-0.198	-0.010
-154.677	2.675	-0.027	0.019
-153.662	800.000	0.067	0.256
-152.647	96.273	0.092	-0.103
-151.633	495.961	0.119	-0.270
-150.618	800.000	-0.072	0.213
-149.604	-118.880	0.165	-0.029
-148.589	-129.971	-0.060	0.008
-147.574	376.577	-0.096	0.194
-146.560	145.360	0.263	-0.347
-145.545	35.727	-0.140	-0.122
-144.531	-116.126	-0.339	-0.062
-143.516	23.756	0.165	0.134
-142.502	800.000	-0.053	-0.165
-141.487	352.041	0.095	0.186
-140.472	-146.735	0.117	0.010
-139.458	-120.380	-0.531	-0.089
-138.443	90.074	-0.123	-0.136
-137.429	-75.502	0.304	0.107
-136.414	800.000	0.080	-0.272
-135.399	52.084	0.221	0.208
-134.385	-200.000	0.044	0.244
-133.370	465.153	0.065	-0.144
-132.356	38.888	0.198	0.174
-131.341	-200.000	0.012	0.242
-130.326	127.620	-0.241	-0.302
-129.312	71.488	0.224	0.230
-128.297	-200.000	-0.076	0.424
-127.283	671.477	-0.043	0.111
-126.268	40.534	0.236	-0.210
-125.253	-109.465	-0.229	0.048
-124.239	-30.847	-0.206	-0.115
-123.224	577.803	-0.138	-0.334
-122.210	13.048	0.331	-0.253
-121.195	-4.579	-0.269	0.184
