DTS Sentinel unit serial number:	SN413079Multiplexer serial number:	ORYXHardware model number:	OX4-SRSoftware version number:	ORYX F/W v4.00 Oryx Data Collector v3.7.2.0data status	okinstallation	princeton_trtdifferential loss correction	single-endedforward channel	channel 3reverse channel	N/Adate	2019/09/15time	23:04:35forward acquisition time	60.00reverse acquisition time	0.00gamma	496.2192k internal	0.2334k external	0.2334temperature offset calibration	0.9945default loss term (dB/km)	0.3790temperature slope calibration	1.0000multiplexer offset coefficient	1.0000multiplexer slope coefficient	1.0000fibre end	0.00T internal ref (°C)	28.53T ext. ref 1 (°C)	9.00T ext. ref 2 (°C)	22.18length (m)	temperature (°C)	Stokes	anti-Stokes-747.200	-123.641	-0.561	0.089
-746.185	800.000	-0.116	0.344
-745.171	-63.028	0.095	-0.039
-744.156	663.406	0.040	0.103
-743.142	800.000	0.051	0.147
-742.127	434.429	-0.155	0.339
-741.112	-100.063	0.290	0.073
-740.098	-200.000	0.025	0.343
-739.083	272.171	0.029	0.051
-738.069	48.302	-0.305	-0.287
-737.054	-21.167	-0.365	-0.224
-736.039	12.637	-0.205	0.159
-735.025	63.604	0.454	0.458
-734.010	-200.000	0.003	-0.288
-732.996	-90.952	-0.274	0.079
-731.981	-200.000	-0.021	0.322
-730.966	616.212	-0.038	0.095
-729.952	355.878	-0.073	-0.146
-728.937	-50.975	-0.030	0.014
-727.923	-200.000	-0.037	-0.218
-726.908	-94.110	0.137	-0.038
-725.894	800.000	-0.084	-0.241
-724.879	317.065	-0.061	0.116
-723.864	800.000	0.029	-0.096
-722.850	-51.241	-0.112	-0.053
-721.835	800.000	0.016	0.052
-720.821	-64.546	0.233	-0.095
-719.806	-15.402	0.169	-0.108
-718.791	13.292	0.132	-0.103
-717.777	3.934	-0.211	0.155
-716.762	102.081	-0.108	-0.127
-715.748	-128.956	-0.162	-0.023
-714.733	161.452	-0.052	0.073
-713.718	22.864	0.072	-0.059
-712.704	-107.279	0.248	-0.055
-711.689	-3.293	0.061	0.043
-710.675	-41.468	-0.090	-0.047
-709.660	-128.328	-0.218	0.031
-708.645	-1.666	-0.290	-0.205
-707.631	-200.000	-0.010	-0.220
-706.616	800.000	-0.052	0.194
-705.602	-152.947	-0.438	-0.031
-704.587	-169.634	-0.182	-0.007
-703.572	-124.036	-0.198	-0.031
-702.558	800.000	0.130	0.443
-701.543	-82.455	0.079	0.026
-700.529	800.000	0.108	0.343
-699.514	59.705	-0.125	-0.124
-698.499	-38.006	-0.226	-0.121
-697.485	24.092	-0.344	-0.284
-696.470	-29.137	-0.369	0.212
-695.456	-200.000	-0.011	-0.096
-694.441	-97.113	-0.194	-0.051
-693.426	-6.925	-0.180	-0.123
-692.412	548.800	0.062	0.150
-691.397	17.042	0.324	0.257
-690.383	-200.000	-0.044	-0.424
-689.368	122.618	-0.162	-0.203
-688.354	758.972	0.064	0.174
-687.339	41.222	-0.147	-0.133
-686.324	370.156	-0.044	-0.089
-685.310	103.789	0.125	0.148
-684.295	19.109	0.145	0.117
-683.281	-65.209	-0.174	0.070
-682.266	800.000	0.050	-0.156
-681.251	-71.851	0.278	-0.104
-680.237	82.402	-0.356	-0.388
-679.222	606.600	-0.043	0.108
-678.208	800.000	-0.010	-0.029
-677.193	-138.902	0.192	-0.021
-676.178	-14.557	0.203	0.131
-675.164	-28.008	-0.467	0.271
-674.149	-36.518	-0.239	-0.129
-673.135	21.420	0.256	-0.208
-672.120	68.553	0.249	-0.256
-671.105	800.000	0.013	0.045
-670.091	149.661	-0.137	0.186
-669.076	-52.157	-0.250	0.116
-668.062	-171.090	0.067	0.002
-667.047	321.674	0.052	0.100
-666.032	74.241	0.070	-0.074
-665.018	-163.899	-0.056	0.003
-664.003	-200.000	-0.004	-0.331
-662.989	-1.878	0.157	-0.111
-661.974	189.433	-0.010	0.014
-660.959	-67.604	-0.053	-0.021
-659.945	-200.000	-0.075	-0.371
-658.930	662.546	0.043	0.110
-657.916	222.242	-0.077	-0.124
-656.901	70.141	0.186	-0.192
-655.886	-200.000	-0.012	-0.099
-654.872	-30.012	0.327	0.186
-653.857	62.504	-0.119	-0.119
-652.843	-31.694	0.127	-0.071
-651.828	-200.000	0.002	-0.527
-650.814	-30.811	-0.310	-0.175
-649.799	476.279	-0.114	0.258
-648.784	10.689	0.041	0.031
-647.770	-92.583	-0.201	-0.057
-646.755	-200.000	0.094	-0.461
-645.741	-200.000	-0.006	-0.299
-644.726	-116.523	-0.121	-0.022
-643.711	-40.793	-0.259	-0.134
-642.697	0.238	0.146	0.104
-641.682	800.000	-0.012	-0.050
-640.668	-43.752	0.262	-0.132
-639.653	-200.000	-0.036	-0.214
-638.638	42.633	-0.016	0.015
-637.624	134.449	-0.203	0.264
-636.609	234.163	-0.162	0.266
-635.595	455.127	0.153	-0.339
-634.580	428.252	0.130	-0.281
-633.565	-66.477	0.068	0.027
-632.551	-109.112	-0.371	-0.079
-631.536	-43.523	-0.304	-0.153
-630.522	103.015	0.130	0.152
-629.507	15.865	-0.098	-0.077
-628.492	-92.685	0.187	-0.053
-627.478	-144.889	0.252	0.023
-626.463	-34.743	0.055	-0.030
-625.449	-97.095	0.355	-0.093
-624.434	-142.306	-0.231	0.023
-623.419	62.111	0.160	0.160
-622.405	-70.593	0.164	0.062
-621.390	-200.000	0.005	-0.173
-620.376	-122.419	-0.413	-0.067
-619.361	215.874	0.119	-0.190
-618.346	31.460	-0.290	0.249
-617.332	-3.225	-0.435	0.303
-616.317	24.668	-0.084	-0.070
-615.303	446.892	-0.144	-0.316
-614.288	329.890	0.074	0.143
-613.273	2.190	-0.077	0.056
-612.259	-136.938	0.233	-0.027
-611.244	187.275	0.049	0.073
-610.230	-64.409	-0.219	0.089
-609.215	112.975	0.185	0.224
-608.201	113.477	0.137	-0.167
-607.186	-19.961	0.091	-0.056
-606.171	-98.220	-0.145	0.037
-605.157	-63.474	0.134	0.055
-604.142	800.000	0.013	-0.049
-603.128	800.000	-0.105	-0.366
-602.113	-33.232	0.299	0.166
-601.098	-19.737	-0.161	-0.099
-600.084	96.617	0.168	-0.193
-599.069	-200.000	0.027	0.284
-598.055	-83.261	-0.233	0.075
-597.040	477.772	0.032	0.073
-596.025	675.860	-0.124	0.321
-595.011	-67.316	0.195	-0.077
-593.996	-200.000	-0.010	-0.137
-592.982	165.296	0.196	0.277
-591.967	-15.303	0.126	0.080
-590.952	-200.000	-0.001	0.308
-589.938	-200.000	-0.037	-0.237
-588.923	287.954	0.054	0.098
-587.909	-98.776	-0.109	0.028
-586.894	-50.088	-0.228	0.108
-585.879	-26.404	0.316	-0.185
-584.865	262.280	-0.149	0.258
-583.850	157.314	0.172	0.237
-582.836	-84.547	-0.339	0.107
-581.821	-200.000	-0.018	-0.188
-580.806	800.000	0.047	0.136
-579.792	526.091	-0.053	0.125
-578.777	-200.000	-0.050	-0.219
-577.763	-115.727	0.281	0.053
-576.748	-34.275	0.166	-0.091
-575.733	551.765	-0.029	0.068
-574.719	800.000	-0.130	-0.380
-573.704	-13.595	0.114	0.074
-572.690	-200.000	0.052	-0.353
-571.675	-92.208	0.410	-0.116
-570.661	-63.201	-0.442	0.182
-569.646	-15.653	0.153	0.097
-568.631	-156.492	0.230	0.014
-567.617	-70.375	-0.061	0.023
-566.602	179.930	-0.149	0.218
-565.588	130.029	0.216	0.276
-564.573	-68.082	0.169	0.066
-563.558	-65.337	-0.127	0.051
-562.544	284.182	-0.107	0.192
-561.529	-43.469	0.258	-0.130
-560.515	-200.000	-0.013	0.151
-559.500	585.308	0.111	-0.272
-558.485	-133.462	-0.226	0.028
-557.471	-200.000	-0.047	-0.220
-556.456	800.000	0.067	-0.270
-555.442	265.327	0.095	-0.165
-554.427	617.475	-0.052	0.131
-553.412	623.659	-0.067	-0.168
-552.398	-27.230	-0.513	0.298
-551.383	334.057	-0.073	-0.140
-550.369	-200.000	0.022	-0.293
-549.354	800.000	0.096	-0.341
-548.339	154.642	-0.112	-0.153
-547.325	-200.000	-0.085	0.443
-546.310	-147.833	-0.075	0.006
-545.296	-200.000	0.016	0.473
-544.281	-140.121	-0.389	-0.041
-543.266	328.677	0.014	0.027
-542.252	-200.000	-0.005	-0.118
-541.237	-200.000	0.005	0.097
-540.223	229.219	-0.281	-0.457
-539.208	13.160	0.147	-0.114
-538.193	88.135	-0.168	-0.186
-537.179	-92.593	0.396	-0.111
-536.164	-36.481	-0.225	-0.121
-535.150	800.000	-0.099	0.288
-534.135	-137.537	-0.201	0.023
-533.121	-152.768	-0.168	-0.012
-532.106	16.204	-0.062	0.048
-531.091	-181.128	-0.110	0.002
-530.077	-60.529	-0.269	-0.114
-529.062	-200.000	0.035	0.175
-528.048	-200.000	-0.028	-0.131
-527.033	47.399	0.233	-0.217
-526.018	-200.000	-0.089	-0.419
-525.004	49.456	-0.273	-0.256
-523.989	90.746	0.074	0.083
-522.975	348.964	0.066	0.130
-521.960	117.398	0.125	0.153
-520.945	-151.359	0.198	-0.015
-519.931	800.000	0.072	0.250
-518.916	-115.957	0.193	0.036
-517.902	415.593	-0.246	-0.523
-516.887	107.241	0.044	0.052
-515.872	-99.762	0.328	0.082
-514.858	-2.572	-0.237	-0.165
-513.843	-68.183	0.163	-0.063
-512.829	386.192	-0.132	-0.271
-511.814	-124.951	-0.067	-0.010
-510.799	-14.353	-0.274	0.176
-509.785	-17.192	-0.310	0.195
-508.770	398.366	-0.090	-0.187
-507.756	101.927	0.148	-0.172
-506.741	800.000	0.067	0.288
-505.726	-77.476	0.492	0.170
-504.712	-9.959	-0.163	0.108
-503.697	-45.251	-0.266	-0.132
-502.683	-200.000	-0.011	0.170
-501.668	800.000	-0.083	-0.230
-500.653	-200.000	-0.005	-0.204
-499.639	-54.258	0.660	0.298
-498.624	409.197	-0.077	-0.162
-497.610	-15.678	-0.379	0.241
-496.595	-31.060	0.184	-0.103
-495.581	392.962	-0.158	-0.328
-494.566	-88.909	-0.132	-0.039
-493.551	-200.000	0.018	-0.338
-492.537	-115.797	-0.447	0.083
-491.522	800.000	-0.066	0.211
-490.508	800.000	0.049	-0.180
-489.493	-58.883	0.074	0.032
-488.478	5.512	0.173	0.127
-487.464	555.519	-0.110	0.264
-486.449	-200.000	-0.004	-0.034
-485.435	355.081	-0.117	-0.231
-484.420	139.485	-0.131	-0.172
-483.405	-51.021	0.213	0.100
-482.391	-125.489	-0.089	-0.014
-481.376	-26.364	-0.368	-0.215
-480.362	261.338	-0.254	-0.438
-479.347	-99.788	0.276	-0.069
-478.332	-200.000	-0.045	0.252
-477.318	30.159	-0.298	0.253
-476.303	154.816	-0.196	0.268
-475.289	-200.000	-0.024	0.163
-474.274	800.000	0.041	0.143
-473.259	130.712	-0.070	0.089
-472.245	136.905	0.236	0.307
-471.230	-116.350	0.087	0.016
-470.216	-200.000	-0.010	0.348
-469.201	800.000	-0.104	-0.362
-468.186	800.000	-0.123	0.341
-467.172	-200.000	-0.026	0.135
-466.157	239.282	-0.026	-0.043
-465.143	-30.834	-0.113	0.064
-464.128	99.678	-0.066	-0.076
-463.113	-56.685	0.395	0.174
-462.099	800.000	0.028	0.091
-461.084	-200.000	0.023	-0.387
-460.070	-114.194	0.275	-0.053
-459.055	-200.000	-0.009	-0.260
-458.040	-5.064	-0.471	0.322
-457.026	-59.570	0.072	-0.031
-456.011	-14.793	0.171	-0.109
-454.997	378.674	-0.120	-0.244
-453.982	83.188	0.113	0.122
-452.968	-28.029	-0.081	-0.047
-451.953	-150.290	-0.423	0.032
-450.938	107.822	-0.086	-0.102
-449.924	-32.287	0.164	0.091
-448.909	800.000	-0.096	0.305
-447.895	-200.000	-0.006	0.036
-446.880	-21.835	0.176	-0.106
-445.865	-200.000	-0.099	-0.444
-444.851	-105.754	-0.046	-0.010
-443.836	-92.879	0.078	0.022
-442.822	800.000	0.039	0.130
-441.807	-65.208	-0.205	0.082
-440.792	31.679	-0.142	0.121
-439.778	158.945	0.098	0.135
-438.763	-200.000	-0.048	-0.243
-437.749	-112.075	0.076	0.015
-436.734	253.569	0.120	0.204
-435.719	17.860	0.066	-0.052
-434.705	329.122	0.097	0.184
-433.690	-200.000	0.016	0.171
-432.676	-165.896	-0.283	0.012
-431.661	-200.000	-0.001	0.195
-430.646	800.000	-0.026	0.096
-429.632	-117.483	0.480	0.086
-428.617	151.572	-0.082	0.111
-427.603	-200.000	-0.010	0.237
-426.588	40.688	-0.183	-0.164
-425.573	-200.000	0.040	0.222
-424.559	115.193	0.151	0.183
-423.544	-162.528	0.212	-0.010
-422.530	-200.000	-0.061	-0.394
-421.515	326.720	-0.087	0.165
-420.500	-76.940	0.082	0.028
-419.486	-150.102	0.016	-0.001
-418.471	-12.634	-0.253	0.164
-417.457	-25.147	-0.223	0.131
-416.442	-108.352	-0.085	0.018
-415.428	-54.944	0.252	-0.113
-414.413	57.789	0.193	-0.187
-413.398	-108.525	-0.154	-0.033
-412.384	-24.079	-0.312	0.185
-411.369	-80.071	-0.094	0.031
-410.355	-44.252	-0.183	0.091
-409.340	-200.000	-0.070	-0.330
-408.325	-6.672	0.251	-0.170
-407.311	-93.147	-0.256	0.071
-406.296	175.203	-0.020	-0.029
-405.282	779.134	0.127	-0.345
-404.267	75.358	-0.084	0.088
-403.252	190.159	0.079	-0.118
-402.238	74.304	0.126	0.131
-401.223	528.344	0.063	-0.148
-400.209	-4.267	0.300	0.206
-399.194	-15.363	0.264	0.168
-398.179	-122.900	-0.275	0.044
-397.165	-200.000	-0.041	0.245
-396.150	-21.149	-0.059	-0.036
-395.136	74.470	-0.123	0.129
-394.121	-127.724	-0.142	-0.020
-393.106	-114.090	-0.327	-0.063
-392.092	800.000	0.026	0.102
-391.077	527.933	-0.089	-0.207
-390.063	17.698	0.076	-0.060
-389.048	-200.000	0.002	0.109
-388.033	-150.535	0.204	0.015
-387.019	-13.502	-0.325	-0.209
-386.004	-152.226	-0.260	-0.019
-384.990	-50.956	-0.067	0.031
-383.975	14.730	0.138	0.107
-382.960	-144.497	0.141	-0.013
-381.946	4.263	-0.163	-0.118
-380.931	-115.154	0.212	0.040
-379.917	800.000	-0.082	0.233
-378.902	197.472	-0.138	-0.209
-377.888	-119.559	0.152	0.026
-376.873	-200.000	-0.001	-0.229
-375.858	348.516	-0.134	-0.263
-374.844	-84.912	-0.244	0.076
-373.829	-120.665	0.029	-0.005
-372.815	302.713	-0.084	0.154
-371.800	-78.523	0.226	-0.077
-370.785	800.000	0.093	-0.377
-369.771	27.639	0.112	-0.093
-368.756	-144.158	0.248	-0.023
-367.742	800.000	-0.051	0.150
-366.727	61.438	0.123	0.121
-365.712	-200.000	-0.003	0.285
-364.698	-40.023	-0.348	0.180
-363.683	-30.981	0.093	0.052
-362.669	-119.180	-0.296	0.051
-361.654	-200.000	0.003	-0.103
-360.639	-200.000	-0.021	-0.114
-359.625	-75.389	0.196	0.069
-358.610	-200.000	0.031	0.233
-357.596	-75.681	-0.043	0.015
-356.581	348.626	-0.135	-0.264
-355.566	288.720	0.174	-0.312
-354.552	-10.593	-0.268	-0.175
-353.537	-72.834	0.032	0.012
-352.523	-200.000	0.015	-0.098
-351.508	-175.605	0.408	-0.011
-350.493	-200.000	-0.053	-0.355
-349.479	-200.000	-0.027	0.323
-348.464	139.072	-0.228	0.296
-347.450	31.441	0.160	-0.136
-346.435	-115.110	0.319	-0.060
-345.420	149.204	-0.122	-0.164
-344.406	273.771	-0.086	0.150
-343.391	-17.753	0.400	-0.248
-342.377	228.656	0.049	0.079
-341.362	-200.000	-0.008	-0.162
-340.348	138.450	0.284	-0.369
-339.333	27.646	-0.329	0.274
-338.318	204.642	0.150	0.231
-337.304	211.674	0.096	0.149
-336.289	-79.839	-0.102	0.034
-335.275	19.311	0.267	0.212
-334.260	-59.178	-0.172	-0.073
-333.245	-200.000	-0.077	0.338
-332.231	471.544	0.083	-0.185
-331.216	200.366	0.098	-0.149
-330.202	-80.144	-0.172	-0.057
-329.187	-94.970	0.272	0.073
-328.172	366.408	0.078	0.156
-327.158	-200.000	-0.028	0.169
-326.143	151.913	0.167	-0.225
-325.129	-200.000	0.039	0.244
-324.114	800.000	-0.059	-0.167
-323.099	-4.833	-0.112	-0.076
-322.085	763.741	0.077	0.206
-321.070	252.067	0.048	0.081
-320.056	22.797	0.357	-0.289
-319.041	-200.000	0.036	0.312
-318.026	800.000	0.124	-0.345
-317.012	-155.953	-0.181	-0.011
-315.997	50.187	-0.034	-0.032
-314.983	85.420	0.356	-0.387
-313.968	568.698	0.073	0.175
-312.953	140.824	-0.048	-0.063
-311.939	13.844	0.312	0.240
-310.924	-37.382	0.317	-0.167
-309.910	-44.257	0.161	-0.080
-308.895	-118.816	0.021	-0.004
-307.880	-26.750	0.194	-0.112
-306.866	324.970	0.047	0.089
-305.851	-165.590	-0.274	-0.012
-304.837	-80.222	0.291	-0.096
-303.822	-103.857	0.029	0.007
-302.807	-58.237	0.137	-0.059
-301.793	-200.000	-0.029	0.344
-300.778	248.475	-0.138	-0.231
-299.764	-69.460	-0.059	-0.022
-298.749	-12.235	-0.184	-0.119
-297.735	-7.418	-0.150	-0.100
-296.720	800.000	0.085	0.244
-295.705	121.748	0.231	-0.284
-294.691	-122.545	-0.219	-0.035
-293.676	260.770	0.082	-0.139
-292.662	-200.000	-0.002	0.258
-291.647	-69.082	-0.167	-0.064
-290.632	174.136	-0.203	-0.290
-289.618	800.000	0.086	-0.285
-288.603	-200.000	-0.055	0.362
-287.589	57.253	0.140	0.135
-286.574	-2.848	-0.138	0.095
-285.559	142.552	0.160	0.210
-284.545	-139.719	0.342	-0.036
-283.530	-37.799	-0.215	0.113
-282.516	164.885	0.081	-0.113
-281.501	235.986	-0.249	0.406
-280.486	-200.000	-0.002	-0.034
-279.472	719.936	-0.223	-0.586
-278.457	-200.000	0.019	0.103
-277.443	100.240	0.173	-0.198
-276.428	213.088	0.231	0.360
-275.413	257.333	-0.204	0.346
-274.399	-200.000	-0.002	-0.084
-273.384	-24.362	-0.099	-0.058
-272.370	-200.000	0.006	0.375
-271.355	800.000	-0.083	0.350
-270.340	255.547	-0.087	-0.148
-269.326	-150.230	0.110	0.008
-268.311	58.270	-0.026	0.025
-267.297	612.303	-0.055	-0.136
-266.282	800.000	0.106	0.317
-265.267	-26.585	-0.248	0.143
-264.253	-200.000	-0.015	-0.072
-263.238	-146.563	0.097	-0.008
-262.224	-79.459	0.083	0.028
-261.209	-64.703	-0.141	0.056
-260.195	424.037	0.175	-0.372
-259.180	-59.112	-0.140	0.060
-258.165	800.000	0.037	-0.150
-257.151	321.416	0.187	0.351
-256.136	279.526	-0.126	-0.222
-255.122	41.612	0.118	-0.105
-254.107	-22.105	0.207	-0.124
-253.092	-200.000	0.007	-0.058
-252.078	-141.046	-0.375	0.038
-251.063	-200.000	-0.039	0.280
-250.049	-115.148	-0.144	-0.027
-249.034	281.600	-0.057	-0.101
-248.019	-30.344	0.184	-0.103
-247.005	-200.000	0.011	-0.182
-245.990	49.388	0.082	-0.076
-244.976	-23.726	-0.219	0.129
-243.961	67.888	0.177	0.179
-242.946	-140.528	0.304	-0.031
-241.932	-200.000	-0.002	0.273
-240.917	50.589	0.222	-0.207
-239.903	800.000	0.052	-0.225
-238.888	-150.124	0.382	-0.029
-237.873	699.502	0.074	0.191
-236.859	51.103	0.128	0.120
-235.844	3.069	0.117	-0.084
-234.830	110.963	0.076	-0.090
-233.815	-37.845	-0.245	-0.128
-232.800	-127.050	0.099	-0.014
-231.786	73.610	0.115	-0.119
-230.771	-200.000	0.035	-0.205
-229.757	-52.025	0.203	0.093
-228.742	64.686	-0.203	0.201
-227.727	456.372	0.148	0.323
-226.713	-108.883	-0.214	0.045
-225.698	29.868	-0.166	-0.140
-224.684	585.113	0.068	0.166
-223.669	-200.000	0.009	0.243
-222.655	800.000	0.033	-0.109
-221.640	-200.000	0.032	0.319
-220.625	-200.000	-0.011	-0.179
-219.611	-200.000	-0.042	-0.193
-218.596	223.903	0.029	-0.046
-217.582	-100.247	0.457	-0.112
-216.567	-5.544	0.088	0.060
-215.552	-83.371	0.056	0.018
-214.538	-200.000	0.019	0.143
-213.523	158.638	0.117	0.161
-212.509	800.000	0.041	-0.135
-211.494	800.000	0.043	-0.171
-210.479	-143.982	0.226	0.021
-209.465	126.384	0.224	0.279
-208.450	200.060	-0.096	-0.145
-207.436	800.000	0.081	-0.342
-206.421	-30.497	0.009	0.005
-205.406	177.181	0.048	-0.068
-204.392	-21.646	-0.055	-0.033
-203.377	35.311	0.143	-0.123
-202.363	-200.000	0.005	-0.487
-201.348	800.000	0.095	0.282
-200.333	-200.000	-0.023	0.159
-199.319	301.000	-0.141	0.255
-198.304	800.000	-0.042	0.142
-197.290	-39.821	-0.054	-0.028
-196.275	-102.920	-0.118	-0.027
-195.260	-106.392	0.335	0.074
-194.246	800.000	0.062	0.221
-193.231	-149.010	0.141	0.011
-192.217	53.483	-0.311	0.294
-191.202	-113.015	-0.121	-0.024
-190.187	14.740	0.143	0.110
-189.173	107.200	-0.190	0.222
-188.158	557.580	-0.051	-0.121
-187.144	545.426	-0.117	-0.274
-186.129	800.000	-0.069	0.277
-185.114	77.734	-0.175	0.184
-184.100	-200.000	0.032	-0.241
-183.085	355.657	-0.134	0.263
-182.071	95.816	-0.130	-0.146
-181.056	-72.227	0.287	0.105
-180.042	451.593	-0.071	-0.155
-179.027	458.799	0.124	-0.271
-178.012	-151.359	-0.307	0.023
-176.998	800.000	-0.077	-0.236
-175.983	-127.230	0.346	-0.050
-174.969	26.219	-0.394	0.323
-173.954	-66.743	-0.442	0.172
-172.939	113.908	-0.066	0.079
-171.925	253.767	-0.045	-0.075
-170.910	34.820	0.028	0.024
-169.896	800.000	-0.053	0.213
-168.881	47.026	0.251	-0.229
-167.866	52.522	0.248	-0.233
-166.852	-200.000	-0.031	0.150
-165.837	69.929	-0.078	0.079
-164.823	-124.620	0.114	-0.017
-163.808	420.615	0.082	0.172
-162.793	47.741	0.099	0.091
-161.779	800.000	0.059	-0.218
-160.764	-63.333	0.098	-0.040
-159.750	-83.342	0.087	0.027
-158.735	-200.000	0.009	-0.230
-157.720	-132.232	0.160	-0.020
-156.706	-56.863	-0.004	-0.002
-155.691	37.982	-0.190	-0.166
-154.677	102.984	0.119	-0.137
-153.662	-59.308	0.200	0.085
-152.647	-94.723	-0.190	-0.051
-151.633	18.805	-0.149	0.117
-150.618	-162.944	0.185	0.009
-149.604	755.774	0.079	-0.210
-148.589	156.946	0.113	-0.153
-147.574	-84.418	-0.202	-0.063
-146.560	-34.652	0.273	0.147
-145.545	290.345	-0.136	-0.243
-144.531	800.000	0.036	-0.132
-143.516	-200.000	0.064	0.331
-142.502	-19.245	0.153	0.093
-141.487	-200.000	-0.071	-0.472
-140.472	171.021	0.056	0.079
-139.458	43.232	0.060	-0.054
-138.443	-200.000	0.063	0.330
-137.429	-200.000	0.003	0.161
-136.414	5.758	0.118	-0.086
-135.399	339.516	-0.112	0.214
-134.385	27.090	0.198	0.163
-133.370	-29.893	-0.041	0.023
-132.356	-200.000	0.012	0.086
-131.341	-87.272	0.085	-0.025
-130.326	60.785	-0.118	-0.114
-129.312	61.846	0.159	-0.155
-128.297	-28.581	-0.055	-0.031
-127.283	-36.132	-0.146	-0.077
-126.268	800.000	0.034	-0.111
-125.253	200.424	0.162	0.245
-124.239	-52.262	0.127	-0.058
-123.224	146.828	0.180	0.237
-122.210	-7.089	0.347	0.231
-121.195	375.216	-0.220	-0.440
