DTS Sentinel unit serial number:	SN413079Multiplexer serial number:	ORYXHardware model number:	OX4-SRSoftware version number:	ORYX F/W v4.00 Oryx Data Collector v3.7.2.0data status	okinstallation	princeton_trtdifferential loss correction	single-endedforward channel	channel 3reverse channel	N/Adate	2019/09/13time	03:44:34forward acquisition time	60.00reverse acquisition time	0.00gamma	496.2192k internal	0.2335k external	0.2335temperature offset calibration	1.0138default loss term (dB/km)	0.3790temperature slope calibration	1.0000multiplexer offset coefficient	1.0000multiplexer slope coefficient	1.0000fibre end	0.00T internal ref (°C)	27.19T ext. ref 1 (°C)	4.08T ext. ref 2 (°C)	21.50length (m)	temperature (°C)	Stokes	anti-Stokes-747.200	-140.482	0.275	0.029
-746.185	472.645	-0.065	-0.147
-745.171	52.638	0.186	0.179
-744.156	-96.646	-0.567	0.150
-743.142	95.952	-0.068	0.078
-742.127	-200.000	-0.019	0.117
-741.112	800.000	0.044	-0.163
-740.098	-123.315	-0.351	0.056
-739.083	114.287	0.214	0.262
-738.069	38.571	0.131	0.117
-737.054	117.279	0.074	0.091
-736.039	-86.615	-0.511	-0.157
-735.025	-129.940	0.220	0.030
-734.010	19.034	-0.269	-0.217
-732.996	-200.000	-0.046	-0.354
-731.981	268.938	0.091	0.160
-730.966	-165.117	0.169	0.008
-729.952	-44.668	-0.206	-0.103
-728.937	-200.000	-0.025	0.157
-727.923	-200.000	-0.090	0.510
-726.908	192.065	0.096	-0.146
-725.894	-73.761	-0.281	0.103
-724.879	-98.148	-0.095	0.024
-723.864	-200.000	0.013	0.351
-722.850	800.000	0.014	0.042
-721.835	-55.694	-0.329	0.148
-720.821	-25.470	-0.183	-0.108
-719.806	-149.247	0.261	0.021
-718.791	80.450	-0.142	-0.154
-717.777	-72.871	-0.065	-0.024
-716.762	33.248	0.113	-0.098
-715.748	-147.808	0.161	-0.013
-714.733	-42.026	-0.452	-0.232
-713.718	-94.131	-0.375	-0.103
-712.704	800.000	0.065	-0.282
-711.689	800.000	-0.036	-0.113
-710.675	-42.374	-0.152	-0.078
-709.660	224.510	0.064	-0.104
-708.645	17.507	0.143	0.114
-707.631	140.935	0.060	0.080
-706.616	-51.762	0.055	-0.026
-705.602	800.000	0.070	0.230
-704.587	536.502	0.083	0.196
-703.572	-58.517	0.160	-0.070
-702.558	158.438	-0.153	-0.214
-701.543	66.168	-0.298	0.303
-700.529	800.000	-0.056	0.161
-699.514	-79.936	0.292	0.099
-698.499	-115.036	-0.173	0.033
-697.485	-79.793	0.108	-0.036
-696.470	170.467	-0.118	-0.170
-695.456	-200.000	0.008	-0.139
-694.441	416.367	0.151	-0.322
-693.426	-200.000	0.027	-0.411
-692.412	-121.707	-0.149	-0.025
-691.397	113.030	-0.145	-0.176
-690.383	-74.860	0.106	0.038
-689.368	-110.416	0.176	0.037
-688.354	-178.949	-0.228	0.005
-687.339	-175.535	0.208	0.006
-686.324	495.900	-0.189	-0.436
-685.310	-147.780	0.241	0.020
-684.295	800.000	-0.050	-0.167
-683.281	230.304	0.084	0.138
-682.266	-107.083	-0.018	-0.004
-681.251	800.000	0.068	0.210
-680.237	101.864	0.279	-0.327
-679.222	800.000	0.070	-0.276
-678.208	-109.395	-0.241	-0.051
-677.193	685.216	0.061	-0.159
-676.178	70.948	0.189	0.196
-675.164	129.025	0.028	0.035
-674.149	-84.566	0.319	0.101
-673.135	259.678	-0.168	-0.290
-672.120	-58.634	0.110	0.048
-671.105	-1.407	0.382	-0.270
-670.091	-178.591	-0.230	0.005
-669.076	156.131	-0.111	0.153
-668.062	-200.000	0.057	-0.302
-667.047	-0.219	-0.150	0.107
-666.032	42.377	-0.153	-0.140
-665.018	459.315	-0.087	0.193
-664.003	-108.023	0.250	-0.054
-662.989	-185.237	0.151	-0.002
-661.974	19.904	0.102	-0.083
-660.959	-146.430	-0.246	-0.021
-659.945	-133.636	-0.250	-0.031
-658.930	32.745	0.210	0.182
-657.916	-119.997	0.100	0.017
-656.901	145.631	0.191	0.256
-655.886	-153.652	-0.189	-0.013
-654.872	800.000	-0.087	-0.272
-653.857	209.355	0.029	-0.046
-652.843	-200.000	0.006	0.121
-651.828	403.335	-0.017	-0.035
-650.814	-39.086	0.138	-0.073
-649.799	-168.028	0.130	-0.005
-648.784	-200.000	0.032	0.165
-647.770	632.816	0.136	0.345
-646.755	-200.000	0.009	0.161
-645.741	330.892	0.068	0.131
-644.726	-29.257	-0.225	0.129
-643.711	-85.998	0.043	-0.013
-642.697	-31.107	-0.043	0.024
-641.682	487.599	0.111	0.254
-640.668	230.923	0.118	0.194
-639.653	-56.135	0.123	-0.055
-638.638	-200.000	0.051	0.381
-637.624	800.000	0.031	0.086
-636.609	-61.179	0.431	0.182
-635.595	-200.000	0.011	0.280
-634.580	-87.242	0.343	0.104
-633.565	-82.967	-0.144	-0.046
-632.551	800.000	-0.091	-0.341
-631.536	-200.000	-0.004	0.067
-630.522	89.983	0.170	0.190
-629.507	-179.863	0.208	-0.004
-628.492	-158.812	-0.447	0.026
-627.478	227.030	-0.153	-0.249
-626.463	468.503	0.063	-0.141
-625.449	529.972	0.107	0.252
-624.434	586.794	-0.098	0.240
-623.419	39.689	-0.149	-0.133
-622.405	-51.384	-0.181	0.085
-621.390	678.583	-0.096	0.249
-620.376	203.425	0.146	-0.226
-619.361	-31.933	0.198	-0.111
-618.346	-76.819	-0.272	-0.095
-617.332	173.522	0.137	-0.198
-616.317	22.226	-0.320	-0.261
-615.303	143.145	-0.210	0.279
-614.288	-150.438	-0.350	0.027
-613.273	-70.456	0.153	-0.058
-612.259	33.240	0.158	-0.137
-611.244	375.543	0.098	0.200
-610.230	33.743	0.123	0.107
-609.215	-65.836	0.312	-0.125
-608.201	516.646	0.149	-0.349
-607.186	-108.246	-0.276	-0.060
-606.171	-49.187	0.174	-0.083
-605.157	-49.980	-0.140	-0.066
-604.142	-50.153	0.131	-0.062
-603.128	-89.635	-0.178	-0.052
-602.113	57.385	0.082	-0.080
-601.098	7.929	0.101	-0.075
-600.084	-58.515	-0.253	-0.110
-599.069	-28.432	-0.046	-0.027
-598.055	-147.149	-0.239	0.020
-597.040	-200.000	-0.057	-0.250
-596.025	-133.390	0.230	0.029
-595.011	0.873	0.341	-0.244
-593.996	207.475	0.078	0.121
-592.982	-29.385	0.188	0.108
-591.967	126.534	-0.149	-0.189
-590.952	-200.000	-0.043	0.259
-589.938	-39.642	-0.127	0.066
-588.923	-200.000	-0.003	0.178
-587.909	19.657	0.209	-0.168
-586.894	26.690	-0.117	0.098
-585.879	27.928	0.151	0.127
-584.865	-106.045	-0.134	-0.030
-583.850	563.934	-0.103	-0.249
-582.836	162.345	0.257	-0.359
-581.821	-200.000	0.004	0.158
-580.806	68.641	-0.089	-0.091
-579.792	-79.604	0.030	-0.010
-578.777	-73.884	0.232	-0.084
-577.763	-200.000	-0.015	0.162
-576.748	-200.000	0.034	0.301
-575.733	-119.090	0.256	0.045
-574.719	-29.625	-0.151	-0.086
-573.704	-150.970	-0.117	0.009
-572.690	-200.000	0.017	0.105
-571.675	58.707	0.266	-0.261
-570.661	9.187	-0.097	-0.073
-569.646	-200.000	-0.088	0.454
-568.631	462.891	0.075	0.167
-567.617	-3.301	-0.158	-0.110
-566.602	45.565	0.112	0.104
-565.588	-22.606	-0.130	-0.078
-564.573	-200.000	0.083	-0.396
-563.558	318.813	0.094	0.178
-562.544	-100.360	0.153	-0.038
-561.529	-200.000	-0.044	-0.496
-560.515	8.509	-0.102	-0.077
-559.500	69.741	-0.309	0.318
-558.485	-49.940	0.270	0.128
-557.471	61.702	-0.101	-0.100
-556.456	173.045	0.158	-0.227
-555.442	67.321	-0.243	0.247
-554.427	-101.962	-0.165	-0.040
-553.412	-92.143	-0.237	-0.067
-552.398	800.000	-0.043	0.142
-551.383	25.393	0.015	-0.013
-550.369	-88.355	-0.333	-0.099
-549.354	-59.939	0.148	0.063
-548.339	424.733	-0.180	-0.387
-547.325	-104.936	-0.321	0.073
-546.310	-137.742	-0.289	-0.032
-545.296	495.265	-0.146	-0.334
-544.281	21.053	-0.092	0.074
-543.266	147.364	-0.147	-0.197
-542.252	661.886	0.129	0.332
-541.237	182.069	0.130	0.191
-540.223	-113.452	-0.139	-0.027
-539.208	118.705	0.139	0.171
-538.193	-40.706	0.060	0.031
-537.179	-164.303	-0.198	0.009
-536.164	-200.000	-0.004	-0.188
-535.150	-43.805	0.088	0.044
-534.135	-72.529	0.288	0.106
-533.121	60.844	0.052	0.051
-532.106	49.588	0.212	-0.199
-531.091	-88.904	-0.123	0.036
-530.077	-22.765	-0.155	0.093
-529.062	800.000	-0.127	0.374
-528.048	-165.067	-0.304	0.013
-527.033	34.090	0.108	-0.094
-526.018	800.000	0.023	-0.099
-525.004	-123.355	0.241	-0.038
-523.989	133.158	-0.121	-0.156
-522.975	80.223	-0.291	0.312
-521.960	-107.702	-0.280	0.061
-520.945	800.000	-0.090	0.319
-519.931	272.256	0.093	0.163
-518.916	154.047	-0.148	0.202
-517.902	800.000	-0.042	0.117
-516.887	-200.000	0.402	-0.002
-515.872	9.178	-0.162	0.122
-514.858	-86.509	0.306	0.093
-513.843	96.090	-0.179	-0.204
-512.829	-83.487	0.508	-0.162
-511.814	-61.161	-0.175	-0.074
-510.799	-45.674	-0.185	-0.091
-509.785	800.000	-0.110	-0.348
-508.770	240.888	-0.160	0.266
-507.756	-45.969	0.153	0.075
-506.741	-200.000	-0.017	0.280
-505.726	675.532	0.017	0.043
-504.712	-80.612	-0.180	-0.060
-503.697	31.241	0.155	-0.132
-502.683	-17.596	0.233	-0.146
-501.668	139.042	-0.105	0.137
-500.653	-165.178	-0.087	-0.004
-499.639	800.000	-0.063	0.201
-498.624	-200.000	0.025	-0.281
-497.610	-103.513	0.046	-0.011
-496.595	-50.959	-0.191	0.089
-495.581	-200.000	0.013	0.057
-494.566	-17.607	0.112	0.070
-493.551	-73.108	-0.180	0.066
-492.537	657.069	-0.075	-0.191
-491.522	-62.865	-0.093	-0.038
-490.508	-1.354	-0.300	0.210
-489.493	-3.923	0.175	0.121
-488.478	21.420	-0.278	0.225
-487.464	3.819	-0.305	0.221
-486.449	101.108	-0.153	-0.177
-485.435	81.329	0.031	0.033
-484.420	-62.543	-0.236	-0.098
-483.405	-200.000	0.003	-0.232
-482.391	-168.569	0.230	-0.009
-481.376	60.026	0.240	-0.236
-480.362	-155.821	-0.259	-0.016
-479.347	145.737	0.117	0.156
-478.332	250.950	-0.244	0.412
-477.318	-200.000	-0.048	-0.441
-476.303	-86.418	0.323	0.099
-475.289	-98.059	0.377	-0.097
-474.274	537.936	-0.122	-0.288
-473.259	132.639	-0.291	0.373
-472.245	319.166	0.169	0.318
-471.230	82.615	0.096	-0.104
-470.216	113.088	0.265	0.320
-469.201	81.804	-0.211	0.227
-468.186	-200.000	-0.019	-0.142
-467.172	222.088	-0.091	0.146
-466.157	-106.129	0.259	0.058
-465.143	249.150	0.154	-0.260
-464.128	574.926	-0.078	-0.190
-463.113	118.504	0.184	0.226
-462.099	106.179	-0.259	0.305
-461.084	203.877	-0.117	0.181
-460.070	800.000	0.047	0.193
-459.055	-62.095	0.220	-0.091
-458.040	-3.605	-0.311	-0.215
-457.026	800.000	-0.001	0.003
-456.011	-98.752	0.218	0.055
-454.997	800.000	-0.066	0.190
-453.982	67.972	-0.087	0.089
-452.968	-163.727	-0.067	-0.003
-451.953	-52.457	0.146	-0.067
-450.938	10.175	0.197	0.148
-449.924	-77.462	-0.309	0.107
-448.909	-96.550	0.284	0.074
-447.895	-90.698	-0.177	-0.051
-446.880	-71.861	0.107	-0.040
-445.865	110.115	0.283	-0.337
-444.851	800.000	-0.054	-0.178
-443.836	574.640	0.058	0.141
-442.822	-200.000	-0.016	0.132
-441.807	-45.099	-0.155	-0.077
-440.792	-34.693	-0.146	-0.079
-439.778	-67.822	0.228	-0.088
-438.763	71.967	-0.111	-0.114
-437.749	-14.733	-0.073	-0.046
-436.734	165.128	0.173	-0.243
-435.719	148.033	-0.211	-0.283
-434.705	13.346	-0.123	-0.095
-433.690	-5.679	-0.150	0.102
-432.676	135.545	-0.110	0.141
-431.661	522.040	0.040	-0.093
-430.646	-200.000	0.059	0.272
-429.632	-200.000	-0.013	0.463
-428.617	14.083	0.277	-0.214
-427.603	-176.633	0.118	0.003
-426.588	-143.890	-0.219	-0.020
-425.573	89.424	-0.219	-0.243
-424.559	-200.000	0.032	0.198
-423.544	-94.004	-0.089	-0.024
-422.530	-39.484	0.231	-0.120
-421.515	-200.000	0.035	-0.164
-420.500	-45.684	0.092	0.045
-419.486	-92.873	-0.061	-0.017
-418.471	-38.698	0.271	-0.142
-417.457	-89.833	-0.167	-0.048
-416.442	101.431	-0.040	0.047
-415.428	-75.927	0.051	-0.018
-414.413	93.784	0.192	-0.216
-413.398	-200.000	0.027	-0.279
-412.384	-200.000	0.019	0.104
-411.369	149.757	-0.234	-0.315
-410.355	800.000	-0.092	0.329
-409.340	-200.000	-0.010	0.338
-408.325	96.187	0.109	0.124
-407.311	800.000	-0.047	0.182
-406.296	-108.969	-0.208	0.044
-405.282	610.957	-0.048	0.118
-404.267	9.271	0.134	-0.100
-403.252	-200.000	-0.057	-0.252
-402.238	-64.425	0.174	-0.070
-401.223	168.108	-0.076	-0.107
-400.209	800.000	0.046	-0.199
-399.194	211.797	0.106	0.166
-398.179	636.928	0.129	-0.324
-397.165	800.000	-0.035	-0.103
-396.150	-86.349	0.255	-0.078
-395.136	-129.229	0.205	-0.028
-394.121	207.882	0.055	-0.085
-393.106	311.164	0.110	-0.204
-392.092	159.652	0.216	-0.298
-391.077	-130.719	0.189	0.025
-390.063	-81.150	-0.204	0.067
-389.048	33.466	0.118	-0.101
-388.033	33.897	-0.040	-0.035
-387.019	61.621	0.153	-0.151
-386.004	32.859	0.194	0.167
-384.990	-200.000	-0.009	0.072
-383.975	38.306	-0.132	-0.116
-382.960	-200.000	-0.089	0.461
-381.946	800.000	-0.086	0.363
-380.931	479.736	-0.120	-0.270
-379.917	59.917	-0.094	0.092
-378.902	32.163	-0.146	0.125
-377.888	-198.980	0.216	0.001
-376.873	232.763	-0.100	-0.163
-375.858	170.930	-0.107	-0.152
-374.844	-107.039	-0.128	0.028
-373.829	-107.949	-0.290	0.062
-372.815	44.269	-0.157	0.142
-371.800	-86.377	-0.344	0.105
-370.785	159.448	-0.188	0.259
-369.771	-200.000	0.018	-0.395
-368.756	800.000	-0.020	-0.072
-367.742	-200.000	0.006	-0.035
-366.727	-22.026	0.467	-0.281
-365.712	-109.651	-0.338	-0.070
-364.698	-5.383	0.207	0.140
-363.683	800.000	0.013	0.052
-362.669	-47.774	0.106	0.051
-361.654	800.000	-0.139	0.399
-360.639	-67.720	0.151	-0.059
-359.625	-95.839	0.127	-0.034
-358.610	-200.000	0.048	0.220
-357.596	-128.571	0.235	0.033
-356.581	-67.048	-0.173	0.068
-355.566	258.442	-0.106	-0.180
-354.552	374.956	-0.087	-0.176
-353.537	-6.046	-0.153	-0.104
-352.523	226.978	0.047	-0.075
-351.508	-13.164	-0.250	0.161
-350.493	775.193	-0.077	-0.207
-349.479	-171.368	-0.211	-0.007
-348.464	-47.518	0.129	-0.062
-347.450	25.245	-0.239	0.197
-346.435	-200.000	-0.005	0.028
-345.420	169.828	-0.099	-0.141
-344.406	-200.000	-0.047	0.444
-343.391	-57.521	-0.206	0.090
-342.377	-200.000	-0.031	0.000
-341.362	-39.014	0.157	0.082
-340.348	316.757	-0.176	0.329
-339.333	-70.767	-0.226	0.084
-338.318	-200.000	0.014	0.071
-337.304	72.338	0.144	0.149
-336.289	-200.000	-0.041	0.343
-335.275	800.000	0.021	-0.066
-334.260	406.226	-0.116	0.242
-333.245	57.980	0.090	0.087
-332.231	-131.417	0.397	-0.052
-331.216	-167.281	0.174	0.007
-330.202	-200.000	-0.058	0.348
-329.187	-200.000	-0.056	-0.280
-328.172	-200.000	0.030	-0.246
-327.158	-36.884	-0.495	-0.263
-326.143	-200.000	0.006	-0.315
-325.129	279.337	-0.150	0.264
-324.114	494.437	0.121	0.275
-323.099	-79.749	0.188	-0.063
-322.085	-200.000	-0.025	0.131
-321.070	276.287	-0.085	-0.150
-320.056	489.029	-0.086	-0.194
-319.041	481.630	-0.085	-0.191
-318.026	203.142	-0.058	0.088
-317.012	3.224	0.117	0.084
-315.997	-96.168	0.250	0.065
-314.983	-36.790	-0.158	-0.084
-313.968	-111.155	-0.300	-0.061
-312.953	124.691	-0.032	0.040
-311.939	-200.000	0.062	-0.293
-310.924	482.606	0.046	-0.104
-309.910	-138.687	-0.184	-0.020
-308.895	-29.038	-0.173	-0.098
-307.880	-167.680	0.292	0.011
-306.866	78.435	-0.185	-0.195
-305.851	-200.000	-0.008	-0.134
-304.837	-147.631	0.157	-0.013
-303.822	-200.000	-0.005	-0.067
-302.807	10.137	0.261	0.196
-301.793	-200.000	-0.004	-0.027
-300.778	675.253	-0.062	0.160
-299.764	139.009	0.244	-0.316
-298.749	-62.296	-0.040	0.016
-297.735	-200.000	0.003	-0.272
-296.720	-109.542	0.217	-0.045
-295.705	800.000	0.017	0.063
-294.691	50.733	0.153	0.143
-293.676	122.926	0.325	0.402
-292.662	800.000	0.026	0.110
-291.647	-111.630	0.144	0.029
-290.632	800.000	-0.055	0.236
-289.618	800.000	0.009	-0.038
-288.603	-200.000	0.043	-0.198
-287.589	52.037	0.436	0.410
-286.574	150.204	-0.238	0.319
-285.559	-200.000	0.006	-0.354
-284.545	-156.786	0.214	0.013
-283.530	-55.456	0.041	-0.018
-282.516	-67.585	-0.186	0.072
-281.501	41.905	0.274	-0.246
-280.486	-62.074	0.115	-0.047
-279.472	481.024	0.065	-0.145
-278.457	328.572	0.056	0.107
-277.443	-200.000	0.002	0.305
-276.428	-195.761	-0.123	0.001
-275.413	-100.206	-0.206	-0.050
-274.399	-154.843	0.148	-0.010
-273.384	-197.264	-0.052	0.000
-272.370	520.761	0.010	-0.023
-271.355	281.513	-0.087	-0.154
-270.340	-94.088	-0.203	0.055
-269.326	800.000	0.052	-0.173
-268.311	-200.000	-0.010	-0.054
-267.297	57.621	-0.121	0.117
-266.282	-200.000	0.002	-0.312
-265.267	20.232	-0.436	-0.347
-264.253	-15.436	0.405	-0.255
-263.238	115.327	0.056	-0.068
-262.224	72.323	-0.268	0.276
-261.209	-200.000	0.045	-0.232
-260.195	-123.264	0.165	0.026
-259.180	800.000	0.118	-0.354
-258.165	-27.160	0.194	-0.111
-257.151	27.757	-0.193	0.160
-256.136	144.983	-0.322	-0.425
-255.122	800.000	0.050	-0.210
-254.107	-50.884	0.095	-0.044
-253.092	-100.956	0.068	0.016
-252.078	-107.579	-0.427	-0.092
-251.063	169.842	-0.142	-0.200
-250.049	-82.444	-0.161	-0.051
-249.034	-112.504	0.155	0.031
-248.019	323.956	0.061	0.114
-247.005	-200.000	0.027	0.120
-245.990	-194.185	0.126	0.001
-244.976	-10.741	0.518	0.338
-243.961	246.167	-0.128	0.212
-242.946	-17.372	0.158	0.098
-241.932	27.556	-0.024	-0.020
-240.917	800.000	-0.075	-0.217
-239.903	-199.257	0.146	-0.001
-238.888	-200.000	0.009	-0.287
-237.873	54.525	0.088	-0.084
-236.859	-82.856	0.230	-0.073
-235.844	-9.645	0.150	0.098
-234.830	-200.000	0.027	0.257
-233.815	-200.000	0.009	0.201
-232.800	800.000	0.028	0.098
-231.786	-156.002	0.180	0.011
-230.771	-200.000	0.025	0.183
-229.757	-200.000	-0.006	-0.150
-228.742	800.000	-0.100	0.277
-227.727	9.833	-0.215	-0.161
-226.713	16.719	-0.184	0.143
-225.698	326.637	0.082	0.154
-224.684	47.923	-0.168	-0.154
-223.669	-148.921	-0.245	-0.019
-222.655	-81.154	0.215	0.070
-221.640	-71.292	0.236	-0.087
-220.625	-127.363	-0.141	0.020
-219.611	800.000	-0.022	-0.085
-218.596	800.000	-0.051	-0.190
-217.582	396.991	0.137	0.282
-216.567	212.272	0.116	-0.180
-215.552	-184.687	-0.525	0.008
-214.538	-47.030	0.056	-0.027
-213.523	800.000	-0.062	0.224
-212.509	155.926	-0.133	-0.180
-211.494	800.000	0.062	0.204
-210.479	-38.071	-0.147	-0.077
-209.465	-200.000	0.031	-0.186
-208.450	109.773	-0.130	0.153
-207.436	800.000	0.023	0.071
-206.421	-6.842	0.068	0.045
-205.406	-116.392	-0.069	-0.012
-204.392	145.133	-0.158	-0.208
-203.377	-200.000	0.022	0.150
-202.363	165.623	0.141	0.196
-201.348	551.077	0.044	0.104
-200.333	800.000	0.100	0.273
-199.319	800.000	0.084	-0.256
-198.304	23.076	0.258	-0.208
-197.290	90.504	0.220	-0.242
-196.275	-200.000	-0.020	-0.277
-195.260	166.340	0.104	0.144
-194.246	800.000	0.138	-0.432
-193.231	-72.085	0.072	-0.026
-192.217	-49.626	-0.215	-0.101
-191.202	755.472	0.050	-0.132
-190.187	-87.014	-0.072	0.022
-189.173	775.696	0.042	0.114
-188.158	-29.514	-0.364	0.204
-187.144	-85.106	-0.110	-0.034
-186.129	243.158	0.072	0.118
-185.114	-77.714	0.119	-0.041
-184.100	76.559	0.104	-0.108
-183.085	51.055	-0.308	-0.287
-182.071	72.189	0.136	-0.139
-181.056	776.637	0.007	-0.019
-180.042	-135.980	0.426	0.049
-179.027	592.755	0.068	-0.165
-178.012	272.119	0.117	0.203
-176.998	-64.763	-0.014	0.005
-175.983	210.822	-0.202	-0.312
-174.969	-179.125	-0.143	-0.003
-173.954	-135.786	0.359	-0.042
-172.939	-76.529	-0.017	0.006
-171.925	-200.000	0.007	-0.087
-170.910	-167.309	-0.004	-0.000
-169.896	-200.000	-0.003	0.021
-168.881	268.893	0.103	0.178
-167.866	-106.456	0.312	-0.068
-166.852	-133.534	0.062	-0.008
-165.837	218.568	-0.151	0.237
-164.823	-200.000	0.020	0.112
-163.808	6.607	-0.236	-0.172
-162.793	-177.522	-0.186	-0.004
-161.779	69.647	-0.090	-0.091
-160.764	716.956	0.025	0.065
-159.750	-200.000	0.030	-0.233
-158.735	74.768	0.113	0.117
-157.720	-200.000	0.154	0.000
-156.706	-84.582	0.281	-0.087
-155.691	-152.605	0.170	0.012
-154.677	-80.471	0.294	-0.096
-153.662	800.000	0.052	-0.149
-152.647	-6.637	-0.219	0.146
-151.633	94.486	-0.251	0.280
-150.618	429.524	0.080	0.170
-149.604	-71.134	-0.527	0.194
-148.589	-200.000	0.036	-0.217
-147.574	83.055	0.102	-0.109
-146.560	789.980	-0.056	0.150
-145.545	-108.849	0.316	0.066
-144.531	35.783	0.181	-0.156
-143.516	81.660	-0.179	0.190
-142.502	214.388	-0.266	0.413
-141.487	-91.767	-0.198	-0.055
-140.472	-43.627	0.182	0.090
-139.458	-43.369	-0.286	0.142
-138.443	-90.215	0.087	0.025
-137.429	411.160	0.083	0.172
-136.414	-63.279	-0.160	0.065
-135.399	-86.975	-0.377	-0.113
-134.385	450.244	0.139	0.301
-133.370	262.938	0.189	0.322
-132.356	-14.058	0.112	0.071
-131.341	131.628	-0.158	0.199
-130.326	-114.550	0.207	0.039
-129.312	433.291	-0.053	-0.114
-128.297	101.715	-0.026	0.030
-127.283	800.000	-0.020	0.064
-126.268	73.155	0.005	-0.005
-125.253	93.923	-0.127	-0.142
-124.239	24.196	-0.247	-0.200
-123.224	-80.250	0.101	-0.033
-122.210	-51.968	-0.190	-0.087
-121.195	622.685	-0.119	0.294
