DTS Sentinel unit serial number:	SN413079Multiplexer serial number:	ORYXHardware model number:	OX4-SRSoftware version number:	ORYX F/W v4.00 Oryx Data Collector v3.7.2.0data status	okinstallation	princeton_trtdifferential loss correction	single-endedforward channel	channel 3reverse channel	N/Adate	2019/09/12time	13:06:10forward acquisition time	60.00reverse acquisition time	0.00gamma	496.2192k internal	0.2291k external	0.2291temperature offset calibration	1.0038default loss term (dB/km)	0.3790temperature slope calibration	1.0000multiplexer offset coefficient	1.0000multiplexer slope coefficient	1.0000fibre end	0.00T internal ref (°C)	41.00T ext. ref 1 (°C)	2.02T ext. ref 2 (°C)	36.20length (m)	temperature (°C)	Stokes	anti-Stokes-747.200	4.340	-0.028	-0.021
-746.185	86.555	0.242	0.274
-745.171	85.748	-0.117	-0.132
-744.156	-117.335	0.062	-0.012
-743.142	77.654	0.080	0.088
-742.127	337.955	0.104	0.207
-741.112	-84.321	0.091	0.030
-740.098	-200.000	-0.022	0.344
-739.083	289.930	0.125	0.233
-738.069	-163.198	0.030	0.001
-737.054	-76.328	-0.276	-0.100
-736.039	-37.164	-0.198	0.109
-735.025	-26.831	-0.303	0.181
-734.010	202.731	0.042	-0.066
-732.996	-154.590	-0.378	0.026
-731.981	-3.905	-0.172	-0.122
-730.966	-21.806	-0.023	-0.014
-729.952	-65.166	0.101	0.042
-728.937	-119.884	0.192	-0.034
-727.923	800.000	-0.071	-0.212
-726.908	-84.261	-0.222	-0.072
-725.894	-200.000	-0.017	-0.095
-724.879	287.416	0.034	-0.063
-723.864	-200.000	-0.347	0.000
-722.850	-56.149	-0.183	0.083
-721.835	59.240	0.192	-0.193
-720.821	128.138	-0.113	-0.148
-719.806	-200.000	0.018	-0.163
-718.791	-99.657	-0.327	-0.084
-717.777	440.283	0.149	-0.334
-716.762	53.048	-0.073	-0.071
-715.748	134.104	0.111	-0.147
-714.733	43.782	0.083	-0.078
-713.718	-200.000	0.043	-0.193
-712.704	-65.268	-0.243	0.100
-711.689	-200.000	-0.035	-0.295
-710.675	-18.648	0.231	-0.147
-709.660	13.718	0.280	0.223
-708.645	-39.856	0.282	0.151
-707.631	219.048	-0.149	0.244
-706.616	-200.000	-0.021	0.107
-705.602	-125.074	-0.086	-0.014
-704.587	-178.663	0.298	-0.007
-703.572	32.322	0.203	-0.179
-702.558	-200.000	-0.003	0.240
-701.543	48.760	0.291	0.279
-700.529	61.889	-0.173	-0.176
-699.514	178.784	-0.056	-0.083
-698.499	-51.812	-0.244	-0.116
-697.485	-119.093	0.173	-0.031
-696.470	-145.255	-0.154	0.014
-695.456	-137.500	0.291	0.034
-694.441	-28.887	-0.126	0.074
-693.426	421.732	-0.079	-0.173
-692.412	614.940	0.058	-0.148
-691.397	-200.000	-0.001	-0.036
-690.383	-200.000	-0.033	-0.186
-689.368	2.300	-0.241	0.178
-688.354	-19.922	-0.346	-0.218
-687.339	-13.867	0.131	-0.087
-686.324	470.801	-0.088	-0.203
-685.310	310.297	-0.090	0.171
-684.295	104.987	-0.009	-0.011
-683.281	26.610	0.238	-0.203
-682.266	217.355	0.053	0.087
-681.251	-15.670	-0.127	0.083
-680.237	800.000	-0.055	0.210
-679.222	-44.667	-0.117	0.060
-678.208	-200.000	0.033	-0.231
-677.193	-66.366	0.177	-0.072
-676.178	-79.461	-0.276	-0.095
-675.164	22.699	0.227	-0.190
-674.149	347.773	-0.041	-0.082
-673.135	800.000	-0.061	-0.199
-672.120	465.720	0.112	-0.256
-671.105	800.000	0.063	-0.190
-670.091	-17.133	0.090	0.058
-669.076	-154.877	0.081	0.005
-668.062	-32.530	-0.108	-0.062
-667.047	270.791	-0.120	0.216
-666.032	-103.832	0.103	-0.024
-665.018	-200.000	0.063	-0.376
-664.003	66.130	0.119	0.124
-662.989	-150.041	-0.243	-0.019
-661.974	75.550	-0.099	-0.106
-660.959	-88.056	-0.312	0.096
-659.945	222.895	0.159	-0.262
-658.930	70.823	-0.050	-0.053
-657.916	-105.718	-0.136	-0.031
-656.901	-151.437	0.190	0.014
-655.886	-46.521	-0.243	0.122
-654.872	-151.814	-0.242	-0.018
-653.857	44.554	0.020	-0.019
-652.843	-61.199	-0.206	0.089
-651.828	-45.456	-0.088	-0.045
-650.814	800.000	0.090	0.309
-649.799	-34.730	-0.174	-0.097
-648.784	-200.000	0.011	-0.275
-647.770	-82.274	-0.326	0.108
-646.755	-200.000	-0.018	0.124
-645.741	108.044	0.081	0.099
-644.726	55.174	0.227	-0.224
-643.711	14.904	0.125	-0.100
-642.697	-97.242	0.347	0.092
-641.682	-39.312	0.407	-0.218
-640.668	467.838	-0.092	-0.210
-639.653	-58.219	-0.218	-0.097
-638.638	-200.000	-0.001	0.136
-637.624	-134.033	-0.269	-0.034
-636.609	-171.784	0.266	-0.009
-635.595	153.908	-0.128	0.178
-634.580	514.759	-0.069	-0.164
-633.565	-137.759	-0.349	0.040
-632.551	-200.000	-0.056	-0.391
-631.536	377.639	-0.113	-0.236
-630.522	597.544	-0.097	-0.244
-629.507	-7.128	0.126	0.087
-628.492	-118.861	-0.159	-0.028
-627.478	-19.585	-0.368	-0.232
-626.463	13.214	0.264	-0.208
-625.449	-113.854	0.367	-0.073
-624.434	-74.820	0.211	-0.077
-623.419	-35.661	-0.182	0.101
-622.405	-93.536	-0.387	-0.109
-621.390	732.124	0.103	-0.280
-620.376	-53.268	-0.180	-0.084
-619.361	-127.444	-0.027	0.004
-618.346	553.146	0.053	0.130
-617.332	402.677	0.074	0.159
-616.317	800.000	-0.040	-0.173
-615.303	800.000	-0.072	-0.278
-614.288	-200.000	0.061	0.318
-613.273	74.610	0.064	0.069
-612.259	-22.946	0.109	0.067
-611.244	254.796	-0.005	0.009
-610.230	28.901	0.118	0.102
-609.215	8.114	0.056	-0.043
-608.201	783.570	0.047	0.130
-607.186	-74.492	-0.292	-0.107
-606.171	93.885	-0.085	-0.098
-605.157	17.813	-0.147	-0.119
-604.142	40.296	0.323	-0.296
-603.128	178.049	0.086	0.128
-602.113	-200.000	-0.007	0.226
-601.098	-96.830	-0.273	-0.073
-600.084	-58.620	-0.103	0.045
-599.069	19.458	0.212	-0.174
-598.055	101.706	-0.154	-0.182
-597.040	-30.534	0.355	0.205
-596.025	406.291	-0.136	0.293
-595.011	-48.550	0.123	0.060
-593.996	-55.358	-0.212	-0.097
-592.982	-149.046	-0.172	-0.014
-591.967	-104.175	0.347	-0.082
-590.952	147.893	-0.177	0.243
-589.938	-146.264	0.246	0.022
-588.923	-133.281	-0.307	-0.039
-587.909	25.089	0.296	0.250
-586.894	250.329	-0.152	-0.262
-585.879	-53.169	0.209	-0.098
-584.865	-101.122	-0.231	0.058
-583.850	509.725	0.042	-0.099
-582.836	-99.426	0.163	-0.042
-581.821	307.932	0.097	-0.184
-580.806	-19.537	0.098	-0.062
-579.792	90.036	0.121	0.137
-578.777	113.401	0.211	0.261
-577.763	-200.000	-0.009	-0.225
-576.748	800.000	0.058	0.184
-575.733	9.878	-0.178	-0.138
-574.719	-200.000	-0.031	0.307
-573.704	89.481	0.061	0.070
-572.690	-7.384	-0.307	0.212
-571.675	255.277	0.116	-0.201
-570.661	800.000	-0.066	0.270
-569.646	397.970	-0.063	0.134
-568.631	-42.199	0.175	0.091
-567.617	800.000	0.110	-0.323
-566.602	310.691	-0.156	0.297
-565.588	800.000	0.172	-0.507
-564.573	-200.000	-0.011	-0.272
-563.558	-200.000	0.076	-0.375
-562.544	-71.638	-0.078	0.030
-561.529	-200.000	0.006	0.099
-560.515	7.954	0.400	0.305
-559.500	-52.067	0.150	0.071
-558.485	46.219	-0.259	-0.244
-557.471	290.188	-0.167	-0.307
-556.456	16.016	0.098	-0.078
-555.442	148.815	0.074	0.101
-554.427	800.000	-0.040	0.175
-553.412	100.930	-0.067	0.079
-552.398	-171.770	-0.178	-0.006
-551.383	1.105	0.246	0.180
-550.369	-87.993	0.177	-0.054
-549.354	-87.194	-0.494	0.152
-548.339	148.253	-0.208	0.286
-547.325	-6.894	-0.153	-0.106
-546.310	-138.344	0.307	-0.034
-545.296	125.444	-0.202	0.259
-544.281	800.000	0.048	-0.156
-543.266	-200.000	0.055	-0.323
-542.252	-67.229	-0.167	-0.067
-541.237	-4.917	-0.144	-0.101
-540.223	798.465	-0.123	-0.344
-539.208	116.709	0.110	-0.137
-538.193	104.765	0.076	-0.091
-537.179	-48.037	-0.066	0.032
-536.164	36.216	0.160	0.143
-535.150	-72.576	0.280	0.105
-534.135	-200.000	-0.014	-0.116
-533.121	-200.000	-0.019	0.111
-532.106	-115.797	0.361	-0.069
-531.091	93.003	0.031	0.035
-530.077	437.613	-0.177	0.391
-529.062	-200.000	0.025	-0.527
-528.048	-200.000	0.016	-0.135
-527.033	373.237	-0.108	-0.223
-526.018	31.413	0.251	-0.219
-525.004	270.163	-0.080	0.144
-523.989	-117.181	-0.050	0.009
-522.975	-9.007	0.142	-0.096
-521.960	-200.000	0.037	-0.363
-520.945	221.549	-0.048	-0.078
-519.931	-200.000	-0.007	0.086
-518.916	-28.488	-0.246	-0.144
-517.902	-112.381	-0.144	0.029
-516.887	-129.021	0.357	-0.051
-515.872	-200.000	-0.013	-0.065
-514.858	800.000	-0.028	0.121
-513.843	54.204	-0.103	-0.101
-512.829	147.585	-0.207	0.283
-511.814	24.911	0.066	0.056
-510.799	65.262	-0.080	0.082
-509.785	341.549	-0.098	0.194
-508.770	528.380	-0.163	0.391
-507.756	-104.891	-0.247	-0.058
-506.741	-200.000	-0.001	0.527
-505.726	-110.554	-0.173	-0.036
-504.712	8.169	-0.114	-0.087
-503.697	105.973	0.216	-0.259
-502.683	106.226	0.142	-0.170
-501.668	396.973	-0.078	-0.166
-500.653	139.567	-0.135	0.180
-499.639	-80.825	-0.216	-0.073
-498.624	-104.610	-0.255	0.060
-497.610	613.955	-0.080	-0.203
-496.595	656.403	0.075	0.195
-495.581	149.468	0.183	0.251
-494.566	-200.000	-0.058	-0.332
-493.551	472.766	0.141	-0.322
-492.537	-174.008	0.100	-0.003
-491.522	-137.899	-0.325	-0.037
-490.508	800.000	-0.030	-0.102
-489.493	-200.000	-0.010	0.376
-488.478	-29.605	0.199	0.115
-487.464	164.625	-0.153	-0.218
-486.449	800.000	0.059	0.175
-485.435	32.358	-0.070	-0.062
-484.420	149.725	-0.082	0.113
-483.405	-200.000	0.020	-0.157
-482.391	-118.335	0.316	-0.057
-481.376	163.693	-0.188	-0.268
-480.362	-163.814	-0.250	0.012
-479.347	800.000	-0.065	0.196
-478.332	383.249	0.116	0.241
-477.318	113.205	0.137	-0.168
-476.303	17.675	-0.167	-0.134
-475.289	-107.094	0.231	-0.052
-474.274	53.980	0.105	0.102
-473.259	245.317	0.161	-0.274
-472.245	-200.000	-0.026	0.137
-471.230	-20.761	-0.168	-0.105
-470.216	-15.909	0.265	0.171
-469.201	106.324	-0.216	0.260
-468.186	-200.000	-0.014	-0.283
-467.172	127.739	0.245	-0.316
-466.157	-90.503	-0.232	-0.068
-465.143	2.593	0.073	-0.054
-464.128	595.853	-0.104	0.262
-463.113	253.556	-0.074	-0.129
-462.099	-160.255	0.195	-0.011
-461.084	800.000	-0.046	0.188
-460.070	-120.059	0.234	0.041
-459.055	3.715	-0.147	-0.109
-458.040	-160.988	-0.215	0.011
-457.026	393.811	0.148	0.312
-456.011	499.547	-0.091	-0.211
-454.997	800.000	0.105	0.301
-453.982	32.031	-0.139	0.121
-452.968	800.000	-0.059	0.231
-451.953	-129.344	-0.315	0.044
-450.938	-200.000	0.003	-0.078
-449.924	25.285	-0.105	0.089
-448.909	124.780	-0.148	-0.188
-447.895	-135.026	0.204	-0.025
-446.880	51.291	-0.074	0.071
-445.865	278.779	-0.140	-0.252
-444.851	497.369	0.026	0.061
-443.836	-65.643	0.229	0.093
-442.822	-100.197	-0.201	0.051
-441.807	-200.000	0.008	0.357
-440.792	611.962	0.145	-0.368
-439.778	-92.850	0.120	-0.034
-438.763	-41.835	-0.033	0.017
-437.749	217.122	-0.109	-0.176
-436.734	800.000	0.042	0.153
-435.719	179.557	0.120	0.178
-434.705	-200.000	0.014	0.279
-433.690	497.275	0.121	0.282
-432.676	-132.275	0.083	0.011
-431.661	507.438	0.060	0.142
-430.646	-200.000	0.002	0.136
-429.632	800.000	0.072	-0.266
-428.617	99.146	-0.111	-0.130
-427.603	-113.760	0.211	-0.042
-426.588	82.526	-0.021	-0.023
-425.573	800.000	-0.090	0.379
-424.559	28.657	0.104	0.089
-423.544	800.000	0.017	-0.052
-422.530	49.791	-0.023	-0.022
-421.515	-129.420	-0.270	0.038
-420.500	-7.868	-0.245	0.167
-419.486	1.787	0.172	0.125
-418.471	-67.141	-0.257	0.103
-417.457	800.000	0.115	0.330
-416.442	72.386	-0.065	0.068
-415.428	-42.846	0.221	0.113
-414.413	-83.420	-0.126	0.041
-413.398	26.078	-0.097	0.082
-412.384	202.619	0.130	0.202
-411.369	-94.231	-0.385	-0.106
-410.355	160.313	-0.102	0.144
-409.340	-184.813	-0.498	-0.008
-408.325	-115.420	0.251	-0.048
-407.311	16.597	0.101	-0.081
-406.296	98.673	-0.185	0.215
-405.282	780.289	0.057	-0.158
-404.267	800.000	-0.020	0.065
-403.252	-200.000	0.049	0.228
-402.238	800.000	0.041	-0.150
-401.223	-200.000	-0.003	0.039
-400.209	115.670	-0.141	-0.174
-399.194	-200.000	-0.009	-0.066
-398.179	13.647	0.235	-0.185
-397.165	-171.995	0.376	-0.012
-396.150	800.000	0.032	-0.120
-395.136	-200.000	-0.006	-0.258
-394.121	-200.000	0.068	-0.437
-393.106	-38.546	-0.081	0.043
-392.092	-2.409	0.181	0.128
-391.077	-141.382	-0.324	0.033
-390.063	-111.580	-0.110	-0.023
-389.048	-200.000	-0.031	-0.279
-388.033	-24.457	-0.107	0.065
-387.019	84.466	0.298	0.329
-386.004	54.545	-0.124	-0.121
-384.990	265.114	0.109	-0.192
-383.975	401.103	-0.062	0.132
-382.960	800.000	-0.005	-0.013
-381.946	-200.000	0.006	-0.070
-380.931	164.897	-0.060	0.086
-379.917	302.564	-0.150	0.280
-378.902	586.161	0.071	0.177
-377.888	-79.158	-0.192	0.066
-376.873	800.000	-0.072	0.220
-375.858	800.000	0.105	-0.334
-374.844	-200.000	0.000	-0.041
-373.829	-200.000	-0.063	-0.279
-372.815	-200.000	-0.038	-0.208
-371.800	-130.167	0.170	0.023
-370.785	310.389	0.029	0.054
-369.771	-52.124	0.215	-0.101
-368.756	-55.234	0.023	0.010
-367.742	-105.733	0.385	-0.088
-366.727	80.911	0.272	-0.296
-365.712	-67.470	-0.084	-0.033
-364.698	-95.836	-0.129	0.035
-363.683	-95.239	-0.209	0.057
-362.669	706.314	-0.077	-0.206
-361.654	-72.524	0.073	0.027
-360.639	-200.000	-0.039	0.187
-359.625	-2.005	0.237	0.168
-358.610	37.780	0.143	0.128
-357.596	-20.502	-0.056	-0.034
-356.581	491.592	-0.067	-0.155
-355.566	30.465	-0.250	0.216
-354.552	-200.000	-0.031	0.143
-353.537	-31.542	-0.024	0.013
-352.523	83.493	0.200	0.220
-351.508	-88.576	-0.257	0.077
-350.493	-189.382	0.101	-0.001
-349.479	57.840	-0.174	0.171
-348.464	-161.263	0.133	0.007
-347.450	158.706	-0.293	-0.411
-346.435	-200.000	-0.001	-0.288
-345.420	-99.580	-0.193	-0.049
-344.406	85.192	0.008	-0.009
-343.391	47.221	0.120	-0.113
-342.377	127.219	-0.038	0.048
-341.362	-25.892	-0.168	-0.100
-340.348	120.730	0.182	0.228
-339.333	-115.586	-0.106	0.020
-338.318	368.916	-0.031	0.064
-337.304	-0.877	0.158	0.113
-336.289	-138.986	-0.255	0.028
-335.275	52.968	-0.163	-0.158
-334.260	-73.375	0.121	-0.045
-333.245	-200.000	-0.003	-0.018
-332.231	43.913	-0.112	-0.103
-331.216	-93.189	-0.257	0.072
-330.202	55.857	-0.161	-0.157
-329.187	37.021	-0.285	0.254
-328.172	-135.357	-0.182	0.022
-327.158	342.662	0.201	0.397
-326.143	21.022	0.240	-0.196
-325.129	-83.146	0.220	0.071
-324.114	-137.816	0.003	-0.000
-323.099	-200.000	-0.025	-0.141
-322.085	-157.112	-0.234	0.014
-321.070	-145.790	-0.074	0.007
-320.056	37.838	0.019	-0.017
-319.041	-200.000	-0.011	-0.086
-318.026	-60.950	0.206	0.088
-317.012	638.369	-0.066	0.169
-315.997	-135.264	-0.075	0.009
-314.983	51.426	0.160	0.153
-313.968	800.000	-0.046	0.179
-312.953	-72.031	-0.299	0.112
-311.939	-70.785	-0.090	0.034
-310.924	-17.555	-0.126	-0.080
-309.910	-6.707	0.090	-0.062
-308.895	-200.000	-0.017	-0.105
-307.880	-83.104	-0.388	-0.126
-306.866	800.000	-0.039	-0.153
-305.851	-89.415	-0.534	-0.158
-304.837	-47.144	-0.320	-0.157
-303.822	-200.000	-0.029	-0.154
-302.807	221.994	0.056	-0.091
-301.793	153.813	0.117	0.162
-300.778	-31.458	0.199	-0.113
-299.764	-200.000	0.009	-0.090
-298.749	14.351	0.115	-0.090
-297.735	-65.770	0.119	-0.048
-296.720	-200.000	-0.048	-0.221
-295.705	-53.796	-0.201	-0.092
-294.691	-70.013	0.296	0.113
-293.676	77.801	-0.138	0.148
-292.662	767.488	0.045	-0.123
-291.647	-54.778	-0.167	-0.076
-290.632	-110.764	0.309	-0.064
-289.618	544.599	0.043	0.103
-288.603	800.000	0.055	0.154
-287.589	760.952	0.072	0.196
-286.574	800.000	-0.041	-0.126
-285.559	-113.744	0.242	0.047
-284.545	230.628	0.065	-0.106
-283.530	-151.236	0.211	0.016
-282.516	-52.938	0.432	0.200
-281.501	665.041	0.075	0.195
-280.486	166.230	-0.148	0.210
-279.472	83.694	0.518	-0.568
-278.457	-46.988	-0.269	-0.132
-277.443	99.941	-0.143	-0.166
-276.428	800.000	0.042	0.153
-275.413	-200.000	-0.013	-0.114
-274.399	580.234	-0.080	-0.196
-273.384	-200.000	0.022	0.109
-272.370	389.743	0.030	-0.062
-271.355	303.809	-0.095	0.176
-270.340	33.615	-0.225	-0.197
-269.326	-200.000	0.003	-0.024
-268.311	-200.000	0.025	-0.183
-267.297	-126.207	0.406	-0.061
-266.282	75.433	-0.206	0.218
-265.267	30.208	-0.111	-0.096
-264.253	40.736	-0.191	0.173
-263.238	-23.843	-0.131	-0.079
-262.224	586.106	0.093	-0.229
-261.209	49.248	-0.061	-0.058
-260.195	107.379	-0.046	-0.055
-259.180	253.612	0.076	0.131
-258.165	-168.018	0.302	0.012
-257.151	-200.000	0.048	-0.213
-256.136	-103.317	0.126	0.030
-255.122	-92.434	-0.226	0.064
-254.107	-168.128	0.269	0.011
-253.092	-9.665	-0.141	0.095
-252.078	800.000	-0.066	0.242
-251.063	28.782	-0.297	0.253
-250.049	295.354	0.126	-0.232
-249.034	90.266	0.042	0.047
-248.019	-114.501	0.184	0.035
-247.005	-64.196	-0.204	0.083
-245.990	2.323	-0.054	0.040
-244.976	13.886	-0.154	-0.121
-243.961	-139.455	-0.177	-0.019
-242.946	186.206	0.083	0.124
-241.932	-102.305	0.348	0.084
-240.917	769.121	0.094	-0.256
-239.903	45.770	-0.162	0.151
-238.888	85.573	0.278	0.307
-237.873	94.151	0.213	0.243
-236.859	-50.400	-0.077	-0.036
-235.844	48.791	0.055	-0.052
-234.830	90.872	0.308	0.347
-233.815	-200.000	-0.009	0.098
-232.800	-200.000	-0.017	0.231
-231.786	60.332	0.284	0.282
-230.771	50.566	0.063	0.059
-229.757	23.807	0.287	0.238
-228.742	216.853	0.059	0.094
-227.727	564.954	0.038	0.093
-226.713	-200.000	0.008	-0.039
-225.698	-75.844	0.402	0.143
-224.684	3.750	0.127	-0.093
-223.669	-183.712	-0.044	-0.001
-222.655	599.267	0.092	-0.230
-221.640	-68.853	-0.153	0.059
-220.625	-25.395	-0.250	-0.148
-219.611	-90.187	0.210	-0.061
-218.596	-112.033	-0.142	0.029
-217.582	583.109	0.087	-0.215
-216.567	-34.619	0.183	-0.100
-215.552	63.834	-0.064	0.065
-214.538	334.344	-0.194	0.377
-213.523	196.020	0.154	0.234
-212.509	800.000	-0.058	0.211
-211.494	75.987	0.103	0.109
-210.479	-200.000	-0.004	0.063
-209.465	43.745	0.253	-0.232
-208.450	29.130	-0.068	-0.058
-207.436	575.039	-0.084	0.206
-206.421	800.000	-0.028	-0.120
-205.406	470.186	-0.014	-0.032
-204.392	-95.971	-0.297	-0.079
-203.377	71.415	0.060	-0.062
-202.363	45.376	-0.085	-0.078
-201.348	-200.000	-0.003	-0.437
-200.333	-11.780	-0.117	-0.077
-199.319	9.021	0.094	-0.071
-198.304	436.693	0.143	0.312
-197.290	67.673	0.197	0.201
-196.275	533.723	-0.090	-0.214
-195.260	-111.866	0.335	0.068
-194.246	-200.000	-0.003	-0.035
-193.231	-13.596	0.296	0.192
-192.217	198.134	-0.105	-0.160
-191.202	-114.148	-0.456	0.088
-190.187	800.000	0.034	0.147
-189.173	71.148	-0.093	0.097
-188.158	6.597	-0.149	0.111
-187.144	32.130	-0.123	0.106
-186.129	-200.000	0.031	0.220
-185.114	393.660	0.048	-0.100
-184.100	-106.555	0.197	-0.044
-183.085	-104.670	0.357	0.082
-182.071	67.227	-0.144	0.147
-181.056	5.426	0.019	0.014
-180.042	56.924	-0.217	0.212
-179.027	120.113	0.181	0.226
-178.012	-109.326	0.076	0.016
-176.998	-200.000	-0.016	-0.401
-175.983	51.782	-0.088	-0.084
-174.969	66.111	0.172	0.175
-173.954	-200.000	0.021	0.153
-172.939	-165.924	0.376	0.016
-171.925	32.434	-0.034	0.029
-170.910	109.579	-0.161	0.193
-169.896	130.079	0.213	-0.272
-168.881	23.834	-0.250	0.206
-167.866	-200.000	0.001	0.203
-166.852	309.530	0.270	-0.505
-165.837	-93.956	-0.263	-0.072
-164.823	342.603	-0.132	0.258
-163.808	-27.953	-0.011	-0.006
-162.793	47.714	0.074	-0.069
-161.779	-200.000	-0.019	-0.229
-160.764	-108.116	0.330	-0.071
-159.750	-51.113	-0.152	0.071
-158.735	-200.000	-0.031	0.333
-157.720	193.854	0.182	0.275
-156.706	-55.550	0.202	-0.090
-155.691	-184.844	0.102	0.002
-154.677	114.062	-0.185	-0.225
-153.662	-200.000	-0.071	-0.389
-152.647	-116.496	-0.042	-0.008
-151.633	-48.923	0.146	0.070
-150.618	35.596	0.154	-0.135
-149.604	-200.000	0.005	-0.072
-148.589	131.250	-0.245	0.314
-147.574	2.916	0.276	0.201
-146.560	51.693	0.207	-0.197
-145.545	187.867	-0.118	-0.177
-144.531	268.783	0.023	0.040
-143.516	-200.000	0.008	0.222
-142.502	22.320	-0.145	0.118
-141.487	800.000	0.043	-0.124
-140.472	-129.472	-0.066	0.009
-139.458	7.096	-0.292	-0.218
-138.443	47.347	-0.171	0.159
-137.429	-77.515	-0.041	-0.014
-136.414	-20.194	-0.067	-0.041
-135.399	800.000	-0.033	-0.095
-134.385	59.371	-0.166	0.164
-133.370	359.249	-0.115	-0.229
-132.356	-200.000	-0.031	0.274
-131.341	24.821	-0.194	-0.160
-130.326	248.151	-0.050	0.085
-129.312	800.000	-0.013	0.056
-128.297	-55.019	-0.271	-0.122
-127.283	-76.074	-0.107	0.038
-126.268	800.000	-0.087	0.242
-125.253	-32.310	0.238	0.133
-124.239	653.369	0.031	0.079
-123.224	385.061	-0.074	0.152
-122.210	427.337	0.041	0.089
-121.195	-80.353	0.329	-0.110
-120.180	27.784	0.201	-0.170
