DTS Sentinel unit serial number:	SN413079Multiplexer serial number:	ORYXHardware model number:	OX4-SRSoftware version number:	ORYX F/W v4.00 Oryx Data Collector v3.7.2.0data status	okinstallation	princeton_trtdifferential loss correction	single-endedforward channel	channel 3reverse channel	N/Adate	2019/09/14time	13:24:35forward acquisition time	60.00reverse acquisition time	0.00gamma	496.2192k internal	0.2294k external	0.2294temperature offset calibration	1.0068default loss term (dB/km)	0.3790temperature slope calibration	1.0000multiplexer offset coefficient	1.0000multiplexer slope coefficient	1.0000fibre end	0.00T internal ref (°C)	37.95T ext. ref 1 (°C)	4.92T ext. ref 2 (°C)	33.69length (m)	temperature (°C)	Stokes	anti-Stokes-747.200	-9.979	-0.144	0.098
-746.185	216.237	-0.122	-0.199
-745.171	-163.997	0.269	-0.013
-744.156	-37.240	-0.119	0.065
-743.142	-54.765	-0.177	-0.082
-742.127	142.448	0.039	0.053
-741.112	18.500	0.176	-0.144
-740.098	-200.000	-0.017	0.198
-739.083	301.787	-0.125	-0.236
-738.069	355.641	-0.119	-0.242
-737.054	157.905	-0.069	-0.097
-736.039	98.725	-0.110	0.129
-735.025	-93.448	-0.197	-0.056
-734.010	-23.505	-0.257	0.158
-732.996	-6.889	-0.141	0.098
-731.981	-15.499	0.079	0.052
-730.966	-200.000	0.019	0.164
-729.952	-200.000	-0.075	0.643
-728.937	-200.000	-0.013	-0.107
-727.923	553.684	0.089	-0.220
-726.908	-129.695	0.111	-0.016
-725.894	701.258	0.072	-0.193
-724.879	-200.000	0.033	-0.212
-723.864	515.781	0.046	-0.109
-722.850	24.789	0.032	-0.027
-721.835	-100.757	0.232	-0.058
-720.821	174.959	-0.046	-0.069
-719.806	271.687	-0.121	-0.218
-718.791	-41.112	-0.321	-0.169
-717.777	-55.837	0.089	0.041
-716.762	-41.205	-0.179	-0.094
-715.748	800.000	0.028	-0.084
-714.733	1.125	-0.107	0.079
-713.718	800.000	-0.060	0.172
-712.704	-79.379	-0.110	0.038
-711.689	800.000	-0.097	-0.278
-710.675	-122.415	0.127	0.021
-709.660	236.118	-0.114	-0.193
-708.645	111.055	-0.014	0.018
-707.631	-28.576	0.440	0.259
-706.616	318.071	0.097	-0.187
-705.602	-153.019	0.092	-0.007
-704.587	292.456	-0.055	-0.103
-703.572	-200.000	-0.024	-0.426
-702.558	-60.246	0.365	-0.159
-701.543	800.000	0.046	-0.187
-700.529	-200.000	0.005	0.073
-699.514	-152.509	-0.230	0.017
-698.499	800.000	-0.092	-0.354
-697.485	68.931	0.132	-0.138
-696.470	104.710	0.193	-0.232
-695.456	1.508	-0.179	0.132
-694.441	-84.819	0.180	0.058
-693.426	-78.780	-0.063	-0.022
-692.412	-200.000	0.032	-0.386
-691.397	580.233	-0.082	0.204
-690.383	-124.820	-0.130	-0.021
-689.368	-68.462	-0.264	0.105
-688.354	-4.908	-0.259	0.182
-687.339	-113.596	-0.329	0.066
-686.324	7.899	0.198	-0.151
-685.310	-99.792	-0.091	-0.023
-684.295	-112.761	-0.135	-0.027
-683.281	-200.000	0.006	0.039
-682.266	-200.000	-0.018	0.226
-681.251	-24.048	-0.080	-0.049
-680.237	800.000	-0.007	0.031
-679.222	419.993	0.087	0.189
-678.208	-21.302	0.501	-0.312
-677.193	-200.000	0.002	-0.435
-676.178	-101.942	-0.048	0.012
-675.164	63.601	0.255	-0.262
-674.149	-159.312	0.199	0.011
-673.135	54.775	-0.132	-0.130
-672.120	800.000	0.070	0.208
-671.105	-200.000	0.007	-0.348
-670.091	800.000	0.060	-0.234
-669.076	800.000	-0.110	-0.452
-668.062	-140.789	-0.290	0.031
-667.047	-200.000	0.001	-0.083
-666.032	477.039	-0.022	-0.052
-665.018	-200.000	-0.048	-0.431
-664.003	212.967	0.134	-0.216
-662.989	-60.120	0.263	-0.115
-661.974	101.883	-0.107	0.127
-660.959	283.125	-0.205	-0.375
-659.945	331.629	-0.142	0.279
-658.930	-97.531	0.357	-0.094
-657.916	-200.000	0.013	0.102
-656.901	-65.915	-0.274	-0.111
-655.886	-110.847	-0.310	0.065
-654.872	256.389	-0.160	-0.280
-653.857	-53.043	-0.554	-0.260
-652.843	9.830	-0.217	0.168
-651.828	-160.914	-0.350	0.019
-650.814	-200.000	0.005	0.036
-649.799	-137.900	0.082	0.009
-648.784	-100.818	-0.249	0.063
-647.770	190.771	-0.133	-0.203
-646.755	-118.393	-0.032	0.006
-645.741	-166.854	-0.126	0.005
-644.726	-14.846	-0.087	-0.057
-643.711	800.000	0.118	0.366
-642.697	-102.769	-0.104	0.025
-641.682	243.998	0.020	0.034
-640.668	102.168	-0.069	-0.082
-639.653	800.000	-0.045	-0.167
-638.638	800.000	0.072	0.306
-637.624	-12.654	-0.183	-0.122
-636.609	10.496	0.257	-0.199
-635.595	291.429	0.017	-0.031
-634.580	164.898	0.262	-0.376
-633.565	239.086	0.122	-0.206
-632.551	150.304	0.135	0.186
-631.536	-71.904	-0.208	0.079
-630.522	800.000	0.065	-0.273
-629.507	247.051	0.081	0.140
-628.492	-200.000	-0.019	-0.094
-627.478	701.152	-0.075	0.200
-626.463	-178.094	-0.311	-0.007
-625.449	-200.000	-0.058	0.366
-624.434	158.909	0.151	0.213
-623.419	624.550	0.168	0.431
-622.405	-121.373	-0.395	0.067
-621.390	118.737	0.122	-0.154
-620.376	462.045	-0.094	-0.213
-619.361	-200.000	-0.033	-0.213
-618.346	-200.000	-0.023	-0.223
-617.332	68.320	-0.069	-0.072
-616.317	800.000	0.017	-0.064
-615.303	800.000	-0.073	0.275
-614.288	281.500	-0.029	-0.053
-613.273	-41.398	0.103	-0.054
-612.259	-137.239	-0.089	-0.010
-611.244	99.637	-0.050	-0.059
-610.230	-76.580	0.292	-0.104
-609.215	-34.984	0.065	0.036
-608.201	66.364	0.014	-0.015
-607.186	-85.582	-0.275	-0.087
-606.171	800.000	-0.076	-0.225
-605.157	800.000	0.009	0.027
-604.142	102.227	-0.205	-0.243
-603.128	305.347	0.090	0.169
-602.113	56.046	0.238	-0.235
-601.098	-200.000	0.021	0.105
-600.084	800.000	-0.021	-0.089
-599.069	232.378	-0.155	0.258
-598.055	-200.000	0.021	-0.189
-597.040	191.386	0.117	-0.180
-596.025	-200.000	-0.003	-0.138
-595.011	-22.451	-0.155	-0.095
-593.996	-115.104	-0.171	-0.033
-592.982	-200.000	-0.022	0.299
-591.967	-200.000	-0.018	0.185
-590.952	170.184	0.088	0.128
-589.938	-200.000	-0.141	0.000
-588.923	40.933	-0.256	-0.235
-587.909	-191.943	0.278	-0.003
-586.894	-76.559	-0.199	0.071
-585.879	800.000	-0.117	0.407
-584.865	-19.235	0.119	-0.075
-583.850	800.000	-0.152	0.493
-582.836	-64.533	0.295	0.122
-581.821	-41.218	0.220	-0.115
-580.806	-59.052	-0.217	-0.095
-579.792	800.000	0.106	0.316
-578.777	265.085	-0.131	-0.231
-577.763	-200.000	-0.037	0.233
-576.748	-87.992	-0.126	-0.038
-575.733	61.143	-0.111	0.112
-574.719	-182.955	-0.104	0.002
-573.704	-91.850	0.125	-0.036
-572.690	-95.894	0.250	-0.068
-571.675	-155.365	-0.393	0.026
-570.661	-172.826	-0.017	0.001
-569.646	19.950	-0.355	0.291
-568.631	282.365	0.059	0.107
-567.617	-32.465	0.172	0.097
-566.602	-200.000	0.056	0.296
-565.588	800.000	-0.130	0.365
-564.573	35.042	-0.292	0.260
-563.558	123.142	-0.233	0.297
-562.544	360.782	0.038	0.077
-561.529	127.423	-0.099	-0.127
-560.515	419.529	-0.089	0.193
-559.500	337.127	0.138	0.273
-558.485	-134.234	-0.145	-0.018
-557.471	236.473	-0.079	0.133
-556.456	-65.199	-0.160	0.066
-555.442	-88.352	-0.122	-0.037
-554.427	-76.404	0.298	-0.106
-553.412	-106.124	-0.165	0.038
-552.398	-3.015	-0.373	0.264
-551.383	-66.964	-0.229	-0.092
-550.369	-200.000	0.047	0.397
-549.354	-200.000	0.078	0.383
-548.339	800.000	0.112	-0.423
-547.325	800.000	0.044	-0.157
-546.310	537.032	-0.022	-0.053
-545.296	48.153	-0.062	0.059
-544.281	63.563	0.158	-0.161
-543.266	-82.837	0.250	0.082
-542.252	-200.000	0.049	-0.413
-541.237	90.979	-0.080	0.091
-540.223	297.527	0.018	0.033
-539.208	800.000	0.082	0.333
-538.193	800.000	0.057	-0.192
-537.179	-2.217	-0.179	0.127
-536.164	-64.726	0.232	0.095
-535.150	198.823	0.106	0.165
-534.135	-134.404	-0.336	0.042
-533.121	-19.104	0.162	-0.102
-532.106	-200.000	-0.028	0.217
-531.091	170.594	0.137	0.200
-530.077	476.339	-0.017	-0.040
-529.062	800.000	0.063	-0.250
-528.048	800.000	-0.134	0.395
-527.033	95.127	0.215	0.248
-526.018	-200.000	-0.005	-0.037
-525.004	-200.000	-0.007	-0.307
-523.989	39.098	0.148	0.134
-522.975	-161.126	0.385	-0.020
-521.960	-39.845	-0.311	-0.165
-520.945	-100.969	-0.119	-0.030
-519.931	0.592	-0.069	-0.050
-518.916	-200.000	0.010	-0.102
-517.902	-159.404	0.185	0.010
-516.887	800.000	0.096	-0.393
-515.872	-53.639	0.061	0.028
-514.858	-145.180	-0.241	0.022
-513.843	800.000	0.041	0.165
-512.829	311.509	0.089	-0.170
-511.814	-200.000	0.050	0.364
-510.799	26.580	0.217	-0.184
-509.785	128.832	0.158	0.205
-508.770	-200.000	-0.033	0.260
-507.756	781.113	-0.072	0.201
-506.741	800.000	-0.088	-0.258
-505.726	-109.052	0.145	-0.031
-504.712	-114.729	0.152	-0.029
-503.697	-35.225	0.168	0.093
-502.683	-50.090	-0.357	-0.171
-501.668	45.332	-0.068	-0.064
-500.653	-13.210	0.086	0.057
-499.639	-200.000	-0.003	0.084
-498.624	-200.000	-0.009	-0.413
-497.610	-151.938	0.311	-0.023
-496.595	82.792	-0.153	-0.168
-495.581	-17.583	0.386	-0.246
-494.566	4.660	0.087	-0.065
-493.551	87.455	-0.084	0.094
-492.537	-200.000	0.033	0.193
-491.522	-200.000	-0.017	-0.246
-490.508	61.727	-0.105	-0.105
-489.493	-3.826	-0.154	0.108
-488.478	54.597	-0.132	0.129
-487.464	800.000	0.044	-0.161
-486.449	-35.212	-0.187	0.103
-485.435	-96.477	-0.280	-0.075
-484.420	-146.277	0.154	0.014
-483.405	31.185	-0.100	-0.087
-482.391	-128.167	0.317	0.046
-481.376	-49.485	0.075	-0.036
-480.362	196.516	-0.056	-0.087
-479.347	-13.928	-0.070	0.046
-478.332	-15.215	0.253	-0.164
-477.318	24.772	0.235	-0.197
-476.303	281.885	0.019	0.035
-475.289	-92.403	-0.250	-0.071
-474.274	-60.989	-0.099	-0.042
-473.259	-20.468	0.172	-0.107
-472.245	771.537	-0.034	0.094
-471.230	33.366	-0.066	0.058
-470.216	-141.823	0.170	0.017
-469.201	-200.000	-0.007	-0.293
-468.186	-42.380	0.204	-0.106
-467.172	57.056	-0.074	0.073
-466.157	1.161	0.165	0.120
-465.143	84.527	-0.025	-0.027
-464.128	-14.386	-0.042	0.028
-463.113	-200.000	0.014	-0.119
-462.099	132.983	-0.142	-0.186
-461.084	-200.000	0.001	-0.192
-460.070	349.046	0.043	0.085
-459.055	-103.579	0.121	0.029
-458.040	-113.069	0.234	-0.047
-457.026	415.126	-0.068	0.146
-456.011	126.965	0.157	0.201
-454.997	-104.028	0.224	0.053
-453.982	800.000	0.058	0.226
-452.968	48.978	-0.084	0.080
-451.953	99.542	0.153	0.179
-450.938	-200.000	-0.022	-0.166
-449.924	-200.000	0.007	0.039
-448.909	174.353	0.147	0.215
-447.895	-28.478	-0.322	-0.187
-446.880	-200.000	-0.004	0.292
-445.865	23.270	0.275	-0.229
-444.851	77.437	0.124	0.133
-443.836	-65.854	0.146	-0.059
-442.822	49.427	-0.110	-0.104
-441.807	46.967	-0.242	-0.228
-440.792	-135.537	-0.130	-0.016
-439.778	-168.146	-0.168	0.007
-438.763	-200.000	0.006	-0.058
-437.749	-200.000	-0.035	-0.174
-436.734	264.970	-0.250	-0.441
-435.719	3.751	-0.133	-0.098
-434.705	212.510	-0.050	0.079
-433.690	65.287	0.090	0.092
-432.676	-71.423	-0.096	-0.036
-431.661	152.817	0.093	0.128
-430.646	-68.701	-0.371	0.145
-429.632	-200.000	0.041	-0.270
-428.617	-200.000	-0.041	-0.183
-427.603	-118.777	-0.266	0.047
-426.588	-200.000	-0.064	0.307
-425.573	191.356	-0.071	-0.108
-424.559	43.858	0.334	0.309
-423.544	-56.069	-0.139	-0.063
-422.530	19.778	-0.146	-0.119
-421.515	443.125	0.010	0.021
-420.500	354.465	0.135	-0.270
-419.486	62.887	0.101	0.102
-418.471	-200.000	0.030	-0.140
-417.457	-4.275	0.163	0.114
-416.442	-141.211	0.206	0.021
-415.428	142.793	0.200	-0.269
-414.413	163.121	-0.183	-0.259
-413.398	-128.602	0.434	0.062
-412.384	-200.000	0.281	0.001
-411.369	-10.499	0.379	0.254
-410.355	171.346	-0.061	0.088
-409.340	95.936	-0.080	0.092
-408.325	-200.000	-0.033	-0.172
-407.311	-4.648	-0.226	-0.157
-406.296	56.271	0.121	0.118
-405.282	-172.325	-0.218	0.007
-404.267	-200.000	0.043	0.275
-403.252	42.166	0.042	0.039
-402.238	177.242	-0.319	0.469
-401.223	800.000	-0.077	-0.241
-400.209	36.533	-0.168	0.149
-399.194	211.156	-0.080	-0.127
-398.179	-200.000	-0.009	-0.208
-397.165	800.000	-0.138	-0.430
-396.150	800.000	0.078	0.262
-395.136	-153.138	-0.225	0.016
-394.121	-152.067	0.406	0.030
-393.106	-200.000	0.063	0.313
-392.092	176.920	-0.052	-0.077
-391.077	800.000	-0.075	-0.257
-390.063	800.000	0.096	0.284
-389.048	-33.073	0.081	0.045
-388.033	-8.777	-0.178	0.121
-387.019	51.084	-0.144	-0.138
-386.004	-200.000	-0.027	-0.140
-384.990	-200.000	-0.013	-0.181
-383.975	-200.000	0.031	0.152
-382.960	120.987	-0.004	-0.005
-381.946	84.540	-0.046	-0.050
-380.931	674.295	-0.080	-0.208
-379.917	155.419	0.234	-0.324
-378.902	-125.600	-0.086	-0.013
-377.888	-200.000	0.027	0.201
-376.873	-93.802	-0.380	-0.105
-375.858	23.915	-0.030	-0.025
-374.844	-0.657	0.209	-0.149
-373.829	74.031	0.374	-0.396
-372.815	-200.000	0.002	-0.224
-371.800	289.946	0.118	-0.216
-370.785	-140.372	0.089	0.009
-369.771	720.609	0.112	-0.300
-368.756	-77.519	0.163	-0.057
-367.742	3.333	-0.096	-0.071
-366.727	-117.838	0.068	-0.012
-365.712	111.742	0.050	-0.061
-364.698	-160.596	-0.427	-0.023
-363.683	130.728	-0.125	-0.162
-362.669	-200.000	0.014	0.165
-361.654	-156.463	0.343	-0.022
-360.639	-12.182	-0.221	-0.146
-359.625	-80.479	0.305	0.103
-358.610	130.676	-0.020	0.025
-357.596	-200.000	0.042	-0.252
-356.581	19.850	0.039	0.032
-355.566	-22.199	-0.068	-0.041
-354.552	-200.000	0.015	0.240
-353.537	-200.000	0.007	0.076
-352.523	800.000	-0.063	-0.208
-351.508	287.143	0.099	-0.180
-350.493	251.896	0.074	-0.127
-349.479	128.648	-0.164	-0.211
-348.464	-200.000	-0.021	-0.216
-347.450	612.493	0.106	-0.268
-346.435	-51.806	0.105	-0.049
-345.420	157.673	-0.065	0.090
-344.406	-72.161	-0.327	-0.122
-343.391	-120.647	0.161	-0.027
-342.377	-200.000	-0.016	0.120
-341.362	-151.774	-0.496	-0.037
-340.348	131.276	0.057	-0.074
-339.333	-200.000	0.005	0.114
-338.318	-39.665	0.155	-0.082
-337.304	-91.270	0.181	0.052
-336.289	-101.862	-0.031	-0.008
-335.275	-79.348	0.282	-0.096
-334.260	35.371	0.120	-0.106
-333.245	189.827	-0.241	-0.364
-332.231	119.322	-0.168	0.209
-331.216	110.362	0.119	-0.144
-330.202	-200.000	0.022	0.307
-329.187	54.223	-0.093	0.090
-328.172	200.611	-0.110	0.171
-327.158	-200.000	-0.027	-0.251
-326.143	28.666	-0.260	0.222
-325.129	42.687	0.041	-0.038
-324.114	387.452	-0.154	0.320
-323.099	-200.000	0.001	0.110
-322.085	-59.867	0.125	0.054
-321.070	800.000	-0.062	0.175
-320.056	123.633	0.150	0.189
-319.041	-39.085	0.087	0.046
-318.026	163.002	0.022	0.031
-317.012	-200.000	-0.009	-0.194
-315.997	-70.725	-0.502	-0.191
-314.983	-147.331	0.263	-0.022
-313.968	-105.615	0.115	0.026
-312.953	-200.000	-0.088	0.425
-311.939	800.000	0.081	0.259
-310.924	398.719	0.110	0.231
-309.910	80.783	-0.105	0.114
-308.895	50.369	-0.220	0.210
-307.880	-169.613	-0.120	0.004
-306.866	-200.000	0.013	-0.544
-305.851	68.600	-0.075	-0.077
-304.837	-102.843	-0.186	0.044
-303.822	-200.000	0.071	-0.516
-302.807	247.364	-0.129	-0.220
-301.793	-200.000	-0.013	0.280
-300.778	107.910	0.159	0.191
-299.764	121.019	0.232	-0.290
-298.749	-200.000	-0.017	0.144
-297.735	667.697	0.148	0.384
-296.720	-200.000	-0.021	-0.116
-295.705	-200.000	0.006	0.312
-294.691	800.000	-0.094	-0.349
-293.676	124.568	-0.142	0.179
-292.662	-127.169	0.168	0.025
-291.647	87.210	-0.141	-0.157
-290.632	567.106	-0.045	0.110
-289.618	-41.265	-0.195	-0.101
-288.603	-68.438	0.204	0.080
-287.589	394.822	-0.041	-0.086
-286.574	42.499	-0.204	-0.186
-285.559	-52.355	-0.085	0.039
-284.545	794.460	0.015	0.042
-283.530	28.551	0.224	0.190
-282.516	87.140	-0.186	0.206
-281.501	-52.307	-0.221	-0.103
-280.486	115.858	-0.082	0.101
-279.472	56.403	0.193	0.188
-278.457	-160.730	-0.286	0.015
-277.443	268.233	-0.112	-0.197
-276.428	800.000	-0.147	-0.423
-275.413	-126.825	-0.163	0.024
-274.399	-185.828	-0.185	0.003
-273.384	564.130	0.168	0.409
-272.370	-71.249	-0.227	0.086
-271.355	-76.699	0.297	-0.104
-270.340	306.335	0.146	0.272
-269.326	-200.000	0.013	0.370
-268.311	800.000	0.046	-0.134
-267.297	28.201	0.114	0.096
-266.282	269.527	-0.122	-0.216
-265.267	127.783	0.212	-0.270
-264.253	193.210	-0.157	-0.238
-263.238	-200.000	-0.040	-0.222
-262.224	-197.880	0.140	0.001
-261.209	315.883	0.143	0.270
-260.195	398.315	0.056	0.117
-259.180	-6.344	0.033	-0.023
-258.165	-200.000	0.022	-0.201
-257.151	302.388	-0.056	-0.103
-256.136	-0.066	0.097	-0.069
-255.122	-200.000	0.008	-0.056
-254.107	-6.226	-0.250	-0.171
-253.092	-138.580	-0.187	-0.021
-252.078	142.505	0.224	-0.298
-251.063	-26.834	0.245	-0.144
-250.049	-141.420	-0.321	0.033
-249.034	-200.000	-0.037	-0.231
-248.019	-200.000	0.032	0.305
-247.005	-131.324	-0.074	-0.010
-245.990	-116.761	0.154	0.028
-244.976	-45.724	-0.121	0.060
-243.961	38.799	0.074	-0.066
-242.946	-114.205	0.075	0.014
-241.932	90.374	0.260	0.292
-240.917	-64.704	-0.184	0.075
-239.903	108.967	-0.119	0.142
-238.888	-68.259	0.367	0.143
-237.873	1.543	-0.100	0.072
-236.859	-102.027	-0.144	0.035
-235.844	108.968	-0.070	0.084
-234.830	-101.372	-0.267	0.065
-233.815	-200.000	-0.034	0.163
-232.800	800.000	0.101	0.289
-231.786	-200.000	-0.021	0.109
-230.771	-85.147	0.275	0.086
-229.757	-200.000	-0.036	-0.267
-228.742	125.650	-0.144	0.182
-227.727	753.526	-0.056	-0.150
-226.713	290.591	0.095	0.174
-225.698	-64.808	-0.055	-0.022
-224.684	-200.000	0.016	0.072
-223.669	800.000	0.083	-0.303
-222.655	-200.000	-0.003	0.426
-221.640	-14.202	-0.043	0.028
-220.625	98.327	0.130	0.150
-219.611	-80.078	-0.123	0.041
-218.596	-123.281	0.142	0.023
-217.582	-85.014	0.165	-0.052
-216.567	-127.379	0.202	0.029
-215.552	41.631	0.149	-0.135
-214.538	-134.588	0.093	-0.011
-213.523	76.929	-0.061	0.065
-212.509	572.250	0.017	-0.040
-211.494	294.264	-0.158	-0.289
-210.479	-200.000	-0.018	0.159
-209.465	-41.133	0.200	0.103
-208.450	-69.740	0.108	0.041
-207.436	-152.988	-0.181	-0.013
-206.421	-82.326	-0.289	-0.094
-205.406	-157.122	0.467	0.028
-204.392	-95.308	0.228	0.061
-203.377	-200.000	0.010	-0.048
-202.363	312.408	0.172	0.323
-201.348	442.615	0.156	0.341
-200.333	800.000	-0.088	-0.315
-199.319	77.547	0.056	-0.060
-198.304	156.487	-0.270	-0.374
-197.290	425.192	0.143	0.308
-196.275	-103.247	0.178	-0.042
-195.260	-41.433	-0.223	0.115
-194.246	800.000	0.086	-0.276
-193.231	741.867	0.128	-0.344
-192.217	-112.655	0.169	-0.034
-191.202	100.472	-0.099	-0.115
-190.187	-0.378	-0.233	-0.165
-189.173	-200.000	0.025	-0.184
-188.158	-134.386	0.570	-0.070
-187.144	50.176	-0.289	-0.273
-186.129	4.840	0.126	-0.093
-185.114	230.266	0.158	-0.259
-184.100	-178.641	0.042	-0.001
-183.085	11.875	-0.301	0.232
-182.071	583.863	0.128	-0.314
-181.056	176.716	0.083	-0.121
-180.042	-43.882	0.040	-0.020
-179.027	800.000	-0.126	0.386
-178.012	-89.616	-0.218	0.064
-176.998	-128.359	0.283	0.040
-175.983	185.818	0.110	0.164
-174.969	-13.962	-0.173	0.111
-173.954	-142.308	-0.280	0.028
-172.939	-200.000	-0.012	-0.239
-171.925	-200.000	0.002	0.407
-170.910	235.155	-0.279	0.460
-169.896	-54.472	0.247	0.112
-168.881	-54.005	0.234	0.106
-167.866	-200.000	-0.008	-0.150
-166.852	-129.143	0.344	0.048
-165.837	-82.175	0.099	0.032
-164.823	732.642	-0.103	-0.275
-163.808	-150.082	-0.282	-0.022
-162.793	44.051	0.274	-0.251
-161.779	800.000	-0.022	0.079
-160.764	-133.507	0.097	0.012
-159.750	-87.795	0.210	-0.063
-158.735	800.000	-0.063	0.229
-157.720	-6.916	-0.115	-0.078
-156.706	320.215	0.141	0.268
-155.691	39.474	-0.215	-0.192
-154.677	-200.000	0.026	0.120
-153.662	-200.000	-0.006	-0.257
-152.647	800.000	-0.046	0.174
-151.633	-85.693	0.053	0.017
-150.618	198.201	0.035	-0.053
-149.604	82.525	-0.202	-0.219
-148.589	-129.582	-0.257	0.036
-147.574	223.024	0.063	0.102
-146.560	800.000	-0.015	-0.066
-145.545	-105.070	0.251	-0.057
-144.531	-79.391	0.236	0.080
-143.516	-136.601	-0.176	-0.020
-142.502	-200.000	-0.003	-0.017
-141.487	11.484	0.114	0.087
-140.472	-95.652	-0.112	0.030
-139.458	302.888	-0.163	0.302
-138.443	-43.990	-0.191	-0.096
-137.429	-127.202	0.070	-0.010
-136.414	800.000	-0.069	-0.301
-135.399	23.157	0.342	-0.281
-134.385	-43.373	0.262	-0.132
-133.370	800.000	0.058	0.209
-132.356	429.386	0.121	0.261
-131.341	414.671	-0.034	-0.072
-130.326	-123.579	-0.162	0.026
-129.312	-15.884	0.109	-0.069
-128.297	800.000	-0.051	-0.172
-127.283	304.359	-0.083	0.155
-126.268	121.145	-0.102	-0.127
-125.253	104.236	0.168	0.197
-124.239	-115.796	-0.159	0.030
-123.224	454.818	-0.031	-0.068
-122.210	800.000	0.004	0.013
