DTS Sentinel unit serial number:	SN413079Multiplexer serial number:	ORYXHardware model number:	OX4-SRSoftware version number:	ORYX F/W v4.00 Oryx Data Collector v3.7.2.0data status	okinstallation	princeton_trtdifferential loss correction	single-endedforward channel	channel 3reverse channel	N/Adate	2019/09/13time	10:44:35forward acquisition time	60.00reverse acquisition time	0.00gamma	496.2192k internal	0.2320k external	0.2320temperature offset calibration	1.0145default loss term (dB/km)	0.3790temperature slope calibration	1.0000multiplexer offset coefficient	1.0000multiplexer slope coefficient	1.0000fibre end	0.00T internal ref (°C)	31.52T ext. ref 1 (°C)	4.60T ext. ref 2 (°C)	28.44length (m)	temperature (°C)	Stokes	anti-Stokes-747.200	-46.600	0.179	0.089
-746.185	18.389	0.313	0.253
-745.171	-148.668	-0.159	0.013
-744.156	3.290	0.176	-0.130
-743.142	-71.470	0.297	0.112
-742.127	-200.000	-0.001	-0.202
-741.112	257.511	-0.002	-0.003
-740.098	476.136	0.076	-0.173
-739.083	23.653	0.099	0.082
-738.069	-200.000	-0.013	-0.138
-737.054	40.706	-0.058	-0.053
-736.039	800.000	0.037	0.132
-735.025	-121.248	0.216	0.036
-734.010	-172.693	0.180	-0.006
-732.996	180.797	-0.218	0.324
-731.981	63.567	-0.094	0.095
-730.966	776.320	-0.052	0.143
-729.952	-132.695	0.127	0.016
-728.937	-200.000	-0.029	-0.152
-727.923	162.104	-0.281	-0.399
-726.908	386.478	-0.064	0.135
-725.894	-200.000	-0.002	-0.034
-724.879	46.467	-0.261	0.245
-723.864	-200.000	-0.029	0.341
-722.850	14.107	-0.282	0.222
-721.835	800.000	-0.053	-0.164
-720.821	-39.792	0.126	-0.066
-719.806	800.000	0.153	-0.430
-718.791	8.830	-0.155	-0.118
-717.777	-200.000	-0.029	-0.178
-716.762	258.019	-0.033	-0.057
-715.748	1.334	0.162	0.118
-714.733	41.554	0.063	-0.058
-713.718	-150.515	0.149	0.012
-712.704	-96.515	-0.248	0.066
-711.689	800.000	-0.002	0.008
-710.675	800.000	-0.076	-0.214
-709.660	800.000	-0.072	-0.233
-708.645	-152.059	-0.205	-0.015
-707.631	-165.617	-0.033	0.001
-706.616	30.087	-0.144	-0.124
-705.602	610.840	-0.197	-0.497
-704.587	-59.220	-0.270	-0.117
-703.572	-8.775	-0.390	0.264
-702.558	800.000	0.027	-0.115
-701.543	-128.398	0.107	0.015
-700.529	-200.000	-0.016	-0.230
-699.514	-178.319	0.224	0.005
-698.499	-200.000	-0.021	-0.099
-697.485	69.791	-0.189	-0.197
-696.470	-200.000	-0.017	-0.086
-695.456	-89.389	0.221	-0.066
-694.441	-200.000	-0.047	-0.267
-693.426	290.286	0.132	-0.242
-692.412	-107.514	-0.047	-0.010
-691.397	-200.000	-0.045	-0.324
-690.383	-71.856	-0.146	-0.055
-689.368	45.926	-0.118	0.110
-688.354	165.862	0.096	0.138
-687.339	800.000	0.081	0.331
-686.324	-128.127	-0.245	-0.035
-685.310	102.418	0.081	-0.095
-684.295	-200.000	-0.023	0.428
-683.281	-200.000	0.029	-0.145
-682.266	-69.003	0.087	-0.034
-681.251	-200.000	0.050	-0.293
-680.237	-151.755	-0.197	-0.015
-679.222	-157.174	-0.493	-0.030
-678.208	-107.721	-0.119	0.026
-677.193	-144.573	0.160	0.015
-676.178	-77.328	-0.114	0.040
-675.164	800.000	0.045	-0.138
-674.149	-200.000	0.060	0.267
-673.135	-81.986	-0.166	0.055
-672.120	-155.036	0.055	0.004
-671.105	660.267	0.048	0.125
-670.091	-12.687	0.085	-0.056
-669.076	200.270	0.160	-0.247
-668.062	82.654	-0.117	-0.128
-667.047	57.070	-0.156	0.154
-666.032	-54.578	0.310	-0.142
-665.018	-157.583	0.238	0.014
-664.003	-28.655	-0.115	-0.067
-662.989	-95.369	-0.234	-0.063
-661.974	-162.380	-0.337	-0.017
-660.959	-108.572	0.383	0.083
-659.945	-124.139	-0.199	0.031
-658.930	-92.400	-0.260	-0.074
-657.916	242.014	-0.086	0.144
-656.901	-91.374	0.044	0.013
-655.886	-92.817	0.194	-0.055
-654.872	800.000	0.092	0.258
-653.857	327.828	-0.150	-0.291
-652.843	106.180	-0.216	-0.258
-651.828	-155.050	-0.214	0.014
-650.814	6.465	-0.063	-0.047
-649.799	-61.044	0.084	-0.036
-648.784	-14.169	0.074	-0.048
-647.770	505.818	-0.183	-0.426
-646.755	-50.725	0.081	-0.038
-645.741	63.178	0.153	-0.154
-644.726	-175.065	0.209	-0.006
-643.711	353.660	-0.111	-0.221
-642.697	-53.861	-0.223	-0.103
-641.682	-200.000	-0.061	-0.284
-640.668	-200.000	-0.044	-0.304
-639.653	-122.900	-0.590	-0.096
-638.638	-197.316	0.289	-0.002
-637.624	172.696	0.125	-0.181
-636.609	-57.181	-0.428	0.190
-635.595	-35.902	0.383	0.209
-634.580	-1.554	0.167	0.119
-633.565	-28.537	0.026	0.015
-632.551	-136.720	0.123	0.014
-631.536	-145.005	0.145	0.013
-630.522	-170.154	-0.168	-0.006
-629.507	-98.459	-0.158	0.041
-628.492	-107.439	-0.231	-0.051
-627.478	-37.496	0.336	0.180
-626.463	-200.000	-0.034	-0.172
-625.449	312.001	0.127	-0.240
-624.434	-122.439	0.354	-0.058
-623.419	-200.000	-0.015	0.177
-622.405	109.362	0.189	0.227
-621.390	-77.645	-0.160	0.056
-620.376	-119.420	0.120	-0.021
-619.361	-184.478	-0.267	0.004
-618.346	75.850	-0.179	0.191
-617.332	-200.000	0.076	0.375
-616.317	766.573	-0.077	0.210
-615.303	134.890	0.094	-0.123
-614.288	546.670	0.040	-0.096
-613.273	83.695	-0.151	0.166
-612.259	-154.313	-0.069	-0.005
-611.244	5.906	0.183	0.136
-610.230	659.546	-0.028	-0.074
-609.215	-74.088	-0.168	-0.061
-608.201	55.906	0.069	-0.068
-607.186	89.731	0.044	-0.050
-606.171	-1.289	-0.182	0.130
-605.157	-200.000	-0.026	0.274
-604.142	-200.000	-0.002	0.039
-603.128	-200.000	-0.067	0.534
-602.113	-200.000	-0.028	0.171
-601.098	141.624	0.031	0.041
-600.084	-42.669	-0.163	0.084
-599.069	2.566	0.130	-0.095
-598.055	155.281	-0.160	-0.221
-597.040	-120.077	-0.089	0.015
-596.025	-71.302	0.235	0.088
-595.011	-98.174	0.210	0.054
-593.996	-44.425	0.341	-0.171
-592.982	127.493	-0.299	0.382
-591.967	-37.523	-0.229	0.123
-590.952	123.836	-0.059	0.074
-589.938	-167.177	-0.170	0.007
-588.923	298.834	0.017	0.031
-587.909	410.205	-0.054	-0.116
-586.894	-200.000	0.021	-0.417
-585.879	248.930	-0.204	-0.347
-584.865	38.174	0.361	-0.323
-583.850	49.417	0.172	0.163
-582.836	155.039	-0.162	-0.224
-581.821	320.926	-0.123	-0.234
-580.806	-150.082	0.203	-0.016
-579.792	-74.003	-0.550	-0.200
-578.777	-200.000	-0.013	-0.277
-577.763	-200.000	0.068	0.000
-576.748	800.000	-0.022	-0.092
-575.733	-60.514	0.207	-0.088
-574.719	27.957	0.062	-0.053
-573.704	7.209	-0.143	0.108
-572.690	337.729	0.068	0.132
-571.675	569.574	0.153	-0.374
-570.661	-111.887	0.403	-0.082
-569.646	-53.889	0.196	0.090
-568.631	-151.117	0.147	-0.011
-567.617	800.000	-0.103	0.387
-566.602	-200.000	0.010	-0.073
-565.588	-133.125	-0.377	0.048
-564.573	-80.801	-0.132	-0.044
-563.558	212.179	-0.159	0.251
-562.544	-4.882	0.306	-0.212
-561.529	-84.247	-0.147	-0.047
-560.515	53.040	0.226	-0.217
-559.500	118.753	0.253	-0.314
-558.485	314.858	-0.144	-0.273
-557.471	87.051	0.065	-0.072
-556.456	800.000	0.042	0.156
-555.442	-104.491	0.017	-0.004
-554.427	-96.925	-0.279	-0.074
-553.412	23.059	0.078	-0.064
-552.398	-34.228	0.110	0.061
-551.383	800.000	-0.028	-0.113
-550.369	-90.608	-0.030	0.009
-549.354	6.217	-0.318	-0.237
-548.339	-200.000	0.025	0.308
-547.325	28.169	-0.215	-0.182
-546.310	-127.423	-0.046	-0.007
-545.296	-200.000	0.058	-0.377
-544.281	-200.000	0.017	-0.162
-543.266	25.358	-0.236	0.197
-542.252	-153.173	0.094	0.007
-541.237	-145.296	-0.189	-0.017
-540.223	-92.963	-0.149	-0.042
-539.208	-117.314	0.286	-0.052
-538.193	-108.721	-0.073	0.016
-537.179	42.657	0.364	0.332
-536.164	5.167	0.156	0.115
-535.150	165.164	-0.063	0.089
-534.135	-38.213	-0.208	-0.111
-533.121	-87.007	0.286	0.087
-532.106	-84.354	-0.310	-0.099
-531.091	215.448	0.157	0.250
-530.077	-200.000	0.078	-0.444
-529.062	-74.965	0.235	-0.084
-528.048	97.518	0.018	0.021
-527.033	111.437	0.128	0.154
-526.018	-5.603	-0.208	-0.143
-525.004	43.193	0.062	0.056
-523.989	2.462	0.342	-0.249
-522.975	-166.197	-0.083	0.004
-521.960	-200.000	-0.008	-0.084
-520.945	93.760	0.193	0.219
-519.931	-200.000	-0.015	0.113
-518.916	-200.000	-0.359	0.001
-517.902	-49.477	0.093	0.045
-516.887	135.479	0.144	0.188
-515.872	132.642	0.125	0.162
-514.858	800.000	-0.013	-0.052
-513.843	9.913	0.162	0.123
-512.829	581.852	0.034	0.084
-511.814	-84.313	0.058	-0.018
-510.799	-200.000	0.010	0.413
-509.785	195.395	0.104	-0.159
-508.770	800.000	-0.041	0.130
-507.756	-73.681	-0.285	0.104
-506.741	-200.000	0.048	0.280
-505.726	-200.000	0.021	0.428
-504.712	-200.000	0.019	0.142
-503.697	-113.753	-0.026	0.005
-502.683	-170.709	0.358	-0.012
-501.668	499.875	0.091	-0.210
-500.653	692.394	-0.055	-0.143
-499.639	-104.059	-0.180	-0.042
-498.624	-200.000	-0.026	0.150
-497.610	-64.939	-0.227	0.092
-496.595	-200.000	0.051	0.267
-495.581	-200.000	0.061	-0.368
-494.566	800.000	-0.082	-0.310
-493.551	-72.265	-0.240	-0.089
-492.537	-125.876	-0.320	0.048
-491.522	-7.671	-0.306	-0.207
-490.508	-17.355	-0.270	-0.170
-489.493	-155.724	0.205	0.013
-488.478	100.976	-0.059	-0.068
-487.464	-119.082	-0.260	0.045
-486.449	-96.039	-0.314	0.084
-485.435	106.245	-0.192	-0.228
-484.420	-200.000	-0.002	0.079
-483.405	483.991	0.151	-0.343
-482.391	-134.913	0.298	-0.036
-481.376	101.746	0.300	0.350
-480.362	79.877	-0.177	-0.190
-479.347	133.437	-0.256	0.331
-478.332	-200.000	0.031	-0.291
-477.318	-38.118	-0.112	-0.060
-476.303	-142.026	0.110	0.011
-475.289	29.727	-0.077	-0.066
-474.274	506.459	0.133	-0.308
-473.259	800.000	-0.010	-0.040
-472.245	195.217	0.203	-0.309
-471.230	52.690	-0.244	0.233
-470.216	126.055	0.137	-0.173
-469.201	255.654	0.103	-0.176
-468.186	-147.375	-0.011	-0.001
-467.172	-61.274	-0.359	0.151
-466.157	-131.699	0.277	-0.036
-465.143	-110.046	0.230	0.048
-464.128	43.835	0.337	-0.309
-463.113	30.580	0.276	-0.236
-462.099	800.000	0.067	0.208
-461.084	-173.776	0.437	-0.013
-460.070	-139.367	-0.092	-0.010
-459.055	-34.119	0.272	-0.150
-458.040	129.038	-0.221	0.282
-457.026	47.236	0.178	0.165
-456.011	-36.523	0.162	0.087
-454.997	54.266	0.287	0.276
-453.982	-87.471	-0.156	0.047
-452.968	-145.555	-0.269	-0.024
-451.953	-50.535	-0.145	-0.068
-450.938	-84.682	0.195	-0.062
-449.924	-134.250	-0.286	-0.035
-448.909	-63.303	-0.250	-0.103
-447.895	-128.898	-0.231	0.032
-446.880	89.291	-0.187	-0.208
-445.865	-196.186	0.030	-0.000
-444.851	-50.813	0.200	-0.094
-443.836	-200.000	-0.018	0.393
-442.822	490.476	-0.107	0.245
-441.807	172.959	-0.174	-0.251
-440.792	447.055	0.026	0.057
-439.778	800.000	0.107	0.445
-438.763	-200.000	0.052	-0.259
-437.749	708.567	-0.131	0.345
-436.734	137.341	-0.127	0.166
-435.719	67.140	-0.072	-0.074
-434.705	43.444	0.187	-0.171
-433.690	495.273	0.089	-0.205
-432.676	-118.644	-0.077	-0.014
-431.661	476.924	0.123	-0.277
-430.646	149.440	0.013	0.018
-429.632	-34.132	-0.149	-0.082
-428.617	800.000	0.018	0.069
-427.603	800.000	0.023	0.074
-426.588	690.299	-0.052	-0.136
-425.573	-82.972	-0.116	0.038
-424.559	-167.195	0.226	-0.009
-423.544	14.578	-0.219	-0.171
-422.530	347.970	-0.151	0.298
-421.515	174.470	-0.187	-0.269
-420.500	321.447	0.109	-0.207
-419.486	161.709	-0.185	-0.259
-418.471	800.000	0.063	0.225
-417.457	86.634	0.178	0.196
-416.442	-200.000	0.016	0.162
-415.428	-70.426	0.263	-0.100
-414.413	-28.184	-0.101	0.058
-413.398	-124.791	-0.164	-0.025
-412.384	34.228	0.099	-0.086
-411.369	116.085	-0.073	-0.089
-410.355	-200.000	0.073	0.366
-409.340	748.657	0.031	-0.084
-408.325	-200.000	-0.009	-0.051
-407.311	368.078	-0.127	-0.257
-406.296	545.999	-0.048	-0.116
-405.282	-75.343	-0.138	-0.049
-404.267	119.236	0.071	0.087
-403.252	-200.000	-0.030	0.147
-402.238	800.000	-0.014	0.044
-401.223	800.000	0.065	-0.184
-400.209	-106.045	0.208	-0.047
-399.194	800.000	-0.111	0.327
-398.179	460.577	0.102	0.228
-397.165	433.924	-0.097	0.210
-396.150	-200.000	-0.007	-0.033
-395.136	346.435	0.135	-0.264
-394.121	-12.746	0.304	0.198
-393.106	458.576	-0.066	-0.147
-392.092	147.434	0.019	-0.025
-391.077	-200.000	-0.023	-0.171
-390.063	135.388	-0.079	0.103
-389.048	-200.000	0.035	-0.216
-388.033	106.737	0.197	0.233
-387.019	-114.582	0.174	0.033
-386.004	-200.000	-0.011	0.079
-384.990	-200.000	-0.014	0.230
-383.975	-80.795	-0.164	0.054
-382.960	-121.173	-0.384	0.064
-381.946	-71.826	0.114	-0.042
-380.931	-92.710	0.106	0.030
-379.917	-84.712	0.292	-0.092
-378.902	62.736	0.264	0.264
-377.888	77.997	0.128	0.136
-376.873	-44.928	0.242	-0.120
-375.858	-150.814	0.319	-0.024
-374.844	-184.304	-0.386	0.006
-373.829	25.932	-0.186	0.155
-372.815	722.393	0.057	-0.152
-371.800	-200.000	-0.001	-0.096
-370.785	-125.865	0.164	0.025
-369.771	-82.842	0.339	-0.109
-368.756	-4.266	0.177	-0.122
-367.742	-148.813	-0.356	0.029
-366.727	60.955	0.094	0.093
-365.712	800.000	0.055	-0.157
-364.698	51.941	0.190	-0.180
-363.683	-200.000	0.008	-0.124
-362.669	-200.000	-0.024	-0.238
-361.654	-68.494	0.156	0.060
-360.639	800.000	0.059	-0.255
-359.625	423.414	0.049	-0.104
-358.610	49.040	-0.224	-0.209
-357.596	620.396	-0.042	-0.105
-356.581	-200.000	-0.019	0.135
-355.566	153.936	-0.228	0.311
-354.552	-200.000	-0.002	0.276
-353.537	228.877	0.059	0.096
-352.523	-18.234	0.214	0.133
-351.508	446.943	-0.058	0.128
-350.493	-87.909	-0.175	-0.052
-349.479	154.860	0.048	0.065
-348.464	-200.000	-0.017	-0.214
-347.450	-16.777	0.064	0.040
-346.435	-200.000	-0.234	0.001
-345.420	9.565	-0.251	0.189
-344.406	-63.952	-0.475	-0.193
-343.391	-118.493	0.079	0.014
-342.377	-200.000	-0.036	0.180
-341.362	-132.994	0.277	0.035
-340.348	605.636	-0.059	-0.146
-339.333	800.000	0.027	-0.076
-338.318	233.149	0.154	0.252
-337.304	94.671	0.105	-0.118
-336.289	-169.384	0.202	0.007
-335.275	-69.516	0.332	-0.127
-334.260	-102.859	0.089	-0.021
-333.245	21.299	-0.359	0.290
-332.231	52.551	0.142	-0.135
-331.216	-200.000	-0.010	0.174
-330.202	120.604	0.371	0.459
-329.187	158.390	-0.140	-0.194
-328.172	800.000	0.086	0.250
-327.158	-156.236	-0.644	0.040
-326.143	800.000	-0.057	-0.237
-325.129	-200.000	-0.018	0.158
-324.114	109.478	-0.115	-0.138
-323.099	-200.000	0.017	0.084
-322.085	-76.449	0.157	0.055
-321.070	800.000	0.149	0.433
-320.056	-200.000	-0.018	-0.143
-319.041	156.974	0.104	0.142
-318.026	-29.767	0.377	-0.214
-317.012	365.393	-0.044	-0.088
-315.997	421.170	0.044	0.094
-314.983	-37.730	0.147	-0.078
-313.968	449.952	-0.021	-0.047
-312.953	-5.478	-0.113	-0.077
-311.939	800.000	-0.059	-0.189
-310.924	180.488	-0.058	-0.084
-309.910	-48.595	0.095	-0.045
-308.895	188.042	-0.168	-0.249
-307.880	-1.132	0.259	-0.182
-306.866	-190.399	-0.419	-0.005
-305.851	800.000	0.078	0.263
-304.837	-200.000	-0.121	0.723
-303.822	158.975	-0.106	0.147
-302.807	-66.032	-0.181	0.072
-301.793	-41.576	0.057	0.029
-300.778	-16.770	-0.094	0.059
-299.764	-79.190	-0.417	-0.140
-298.749	238.303	0.058	-0.096
-297.735	173.118	0.075	-0.108
-296.720	-135.794	-0.365	-0.043
-295.705	18.596	-0.093	-0.074
-294.691	577.543	-0.147	-0.358
-293.676	-64.025	-0.057	-0.023
-292.662	-49.216	0.268	0.127
-291.647	384.439	-0.075	-0.153
-290.632	182.013	-0.068	-0.100
-289.618	800.000	-0.049	-0.144
-288.603	98.630	-0.128	0.147
-287.589	-56.272	0.092	0.041
-286.574	-50.468	-0.488	-0.229
-285.559	-200.000	0.030	0.187
-284.545	-91.249	-0.231	0.066
-283.530	-73.195	0.291	-0.106
-282.516	-109.232	-0.119	-0.025
-281.501	-86.125	0.198	-0.061
-280.486	-49.231	0.246	-0.117
-279.472	800.000	-0.141	0.471
-278.457	-200.000	-0.033	0.325
-277.443	116.089	-0.129	-0.157
-276.428	-200.000	0.057	0.332
-275.413	206.111	0.120	-0.185
-274.399	-200.000	0.008	0.087
-273.384	-135.576	0.280	-0.033
-272.370	88.823	0.404	0.446
-271.355	-179.587	-0.354	0.008
-270.340	-171.308	0.381	0.013
-269.326	74.427	-0.082	-0.086
-268.311	-135.202	0.246	-0.029
-267.297	-140.368	0.194	0.020
-266.282	173.880	-0.080	0.115
-265.267	24.460	-0.157	0.129
-264.253	45.102	-0.140	-0.128
-263.238	208.539	-0.144	0.223
-262.224	-33.601	0.292	-0.160
-261.209	-38.376	0.098	0.052
-260.195	-25.328	0.042	-0.025
-259.180	-77.625	0.021	-0.007
-258.165	-200.000	-0.012	-0.203
-257.151	-200.000	0.005	-0.220
-256.136	-0.742	-0.193	0.135
-255.122	-24.579	0.158	0.093
-254.107	-42.465	0.031	-0.016
-253.092	24.894	-0.059	0.049
-252.078	77.010	-0.144	0.152
-251.063	470.742	-0.164	0.366
-250.049	52.798	0.185	-0.175
-249.034	-84.695	0.185	-0.058
-248.019	800.000	0.053	0.212
-247.005	-42.233	0.153	-0.078
-245.990	-200.000	-0.015	-0.121
-244.976	800.000	-0.074	-0.212
-243.961	-40.675	0.113	-0.058
-242.946	-200.000	0.002	0.581
-241.932	-110.312	-0.059	-0.012
-240.917	-200.000	0.045	0.202
-239.903	800.000	0.046	-0.157
-238.888	-161.905	-0.267	-0.013
-237.873	375.114	0.242	0.489
-236.859	-98.043	0.218	0.056
-235.844	800.000	0.043	-0.144
-234.830	-122.552	-0.140	-0.023
-233.815	-34.349	-0.050	0.027
-232.800	419.200	-0.177	-0.376
-231.786	405.142	-0.038	0.079
-230.771	580.193	-0.055	0.134
-229.757	107.773	0.190	-0.224
-228.742	-200.000	-0.005	0.163
-227.727	-200.000	-0.041	0.330
-226.713	208.203	0.074	0.115
-225.698	800.000	-0.026	-0.109
-224.684	629.385	-0.060	0.150
-223.669	-29.995	0.185	0.104
-222.655	-55.591	-0.040	0.018
-221.640	-200.000	0.054	-0.303
-220.625	-200.000	0.031	0.256
-219.611	-33.182	0.076	0.042
-218.596	259.825	0.154	-0.264
-217.582	-47.162	-0.228	-0.110
-216.567	457.176	0.012	-0.026
-215.552	-170.809	-0.147	-0.005
-214.538	-200.000	0.006	-0.058
-213.523	-147.137	0.131	-0.011
-212.509	-141.348	-0.145	-0.015
-211.494	379.733	-0.039	0.080
-210.479	42.027	-0.225	-0.202
-209.465	251.951	-0.190	-0.321
-208.450	70.524	0.171	0.175
-207.436	171.472	-0.188	-0.267
-206.421	39.145	0.055	-0.049
-205.406	116.898	0.158	0.192
-204.392	-52.501	-0.221	-0.101
-203.377	-136.252	0.318	-0.037
-202.363	103.886	0.187	-0.217
-201.348	-61.822	-0.201	0.083
-200.333	22.118	0.346	0.279
-199.319	800.000	0.031	0.096
-198.304	-19.797	0.087	0.053
-197.290	-78.376	0.462	0.157
-196.275	624.362	-0.150	0.373
-195.260	800.000	-0.048	0.142
-194.246	372.897	0.187	0.376
-193.231	505.184	0.050	0.114
-192.217	-113.596	-0.268	-0.052
-191.202	-150.928	-0.356	0.027
-190.187	-200.000	0.020	-0.222
-189.173	-200.000	-0.016	-0.103
-188.158	-200.000	-0.028	0.420
-187.144	245.081	-0.120	-0.199
-186.129	85.883	0.084	0.091
-185.114	-200.000	-0.014	-0.176
-184.100	17.286	-0.097	0.076
-183.085	112.117	-0.132	-0.158
-182.071	-12.865	-0.068	0.044
-181.056	-10.573	-0.144	-0.094
-180.042	-21.027	0.473	0.287
-179.027	800.000	-0.053	-0.189
-178.012	109.032	0.243	-0.287
-176.998	-190.289	0.104	-0.001
-175.983	-51.358	0.131	-0.061
-174.969	652.073	-0.080	0.202
-173.954	-200.000	-0.025	-0.437
-172.939	126.329	0.106	0.132
-171.925	271.910	-0.250	0.435
-170.910	362.442	-0.108	-0.215
-169.896	44.249	0.194	0.176
-168.881	-121.899	-0.071	0.012
-167.866	-101.623	0.154	-0.037
-166.852	800.000	0.037	-0.150
-165.837	163.168	-0.230	-0.319
-164.823	-105.274	0.123	-0.028
-163.808	-127.427	0.153	-0.022
-162.793	310.181	0.200	-0.370
-161.779	-200.000	-0.018	-0.140
-160.764	-19.778	-0.389	-0.238
-159.750	-174.050	0.145	-0.004
-158.735	-110.886	-0.280	-0.057
-157.720	402.384	-0.130	0.270
-156.706	-134.316	-0.151	0.018
-155.691	-13.745	-0.100	0.064
-154.677	-111.116	-0.067	0.014
-153.662	-44.021	-0.120	-0.060
-152.647	6.829	-0.468	0.344
-151.633	7.384	-0.100	-0.074
-150.618	-200.000	0.024	-0.185
-149.604	-113.092	-0.346	0.067
-148.589	-200.000	-0.030	-0.267
-147.574	271.257	0.133	0.231
-146.560	-200.000	0.058	0.426
-145.545	315.300	-0.054	0.101
-144.531	-26.367	-0.164	-0.095
-143.516	-57.765	0.018	0.008
-142.502	800.000	0.046	-0.170
-141.487	800.000	0.033	0.136
-140.472	-200.000	-0.017	-0.198
-139.458	-26.758	-0.322	0.186
-138.443	-3.841	-0.142	-0.097
-137.429	-70.913	-0.248	0.092
-136.414	570.629	-0.050	-0.120
-135.399	-18.083	-0.024	0.015
-134.385	-14.034	0.084	-0.054
-133.370	-58.048	-0.088	0.038
-132.356	105.273	0.162	-0.189
-131.341	-13.424	0.142	0.091
-130.326	800.000	-0.025	0.070
-129.312	170.468	-0.116	0.164
-128.297	11.446	0.170	-0.128
-127.283	800.000	0.045	-0.135
-126.268	202.240	-0.170	0.259
-125.253	82.894	0.127	-0.136
-124.239	87.097	0.130	0.142
-123.224	-200.000	0.027	0.449
