DTS Sentinel unit serial number:	SN413079Multiplexer serial number:	ORYXHardware model number:	OX4-SRSoftware version number:	ORYX F/W v4.00 Oryx Data Collector v3.7.2.0data status	okinstallation	princeton_trtdifferential loss correction	single-endedforward channel	channel 3reverse channel	N/Adate	2019/09/10time	23:46:11forward acquisition time	60.00reverse acquisition time	0.00gamma	496.2192k internal	0.2331k external	0.2331temperature offset calibration	0.9923default loss term (dB/km)	0.3790temperature slope calibration	1.0000multiplexer offset coefficient	1.0000multiplexer slope coefficient	1.0000fibre end	0.00T internal ref (°C)	29.56T ext. ref 1 (°C)	-0.31T ext. ref 2 (°C)	22.93length (m)	temperature (°C)	Stokes	anti-Stokes-747.200	-41.251	0.188	0.097
-746.185	-35.218	-0.214	0.117
-745.171	226.766	0.045	-0.074
-744.156	-108.288	-0.407	0.088
-743.142	-29.887	-0.333	0.191
-742.127	11.091	-0.281	0.216
-741.112	-98.555	-0.347	0.089
-740.098	447.481	0.063	-0.140
-739.083	263.644	-0.056	-0.098
-738.069	742.627	0.066	-0.180
-737.054	-68.839	-0.070	0.027
-736.039	-200.000	-0.025	0.173
-735.025	-95.611	0.345	0.093
-734.010	77.030	0.252	0.269
-732.996	-200.000	-0.034	-0.195
-731.981	300.308	0.029	-0.054
-730.966	-69.341	-0.148	-0.057
-729.952	-35.734	0.366	0.200
-728.937	43.367	0.039	0.036
-727.923	-135.515	-0.058	0.007
-726.908	-200.000	0.009	-0.359
-725.894	132.453	0.067	-0.087
-724.879	-28.376	-0.097	-0.056
-723.864	19.581	0.187	0.152
-722.850	112.072	-0.294	0.357
-721.835	18.679	-0.178	0.144
-720.821	800.000	0.087	-0.301
-719.806	669.933	0.096	0.251
-718.791	-200.000	-0.060	0.315
-717.777	-66.180	-0.193	-0.077
-716.762	161.636	0.189	-0.267
-715.748	-124.878	-0.038	-0.006
-714.733	56.955	-0.106	-0.104
-713.718	800.000	0.047	0.181
-712.704	-200.000	-0.011	-0.217
-711.689	-200.000	0.074	0.586
-710.675	-82.581	-0.140	-0.046
-709.660	800.000	0.045	-0.193
-708.645	-200.000	0.010	-0.202
-707.631	658.547	0.094	0.243
-706.616	44.991	-0.159	0.147
-705.602	-14.951	0.267	-0.172
-704.587	-17.655	-0.157	0.099
-703.572	-30.456	0.053	0.030
-702.558	-171.675	-0.146	-0.005
-701.543	26.559	0.210	0.176
-700.529	800.000	-0.019	0.062
-699.514	-37.224	-0.262	-0.141
-698.499	-44.339	0.266	-0.134
-697.485	195.436	0.142	-0.217
-696.470	19.617	-0.176	-0.142
-695.456	21.653	-0.117	-0.095
-694.441	-200.000	-0.008	0.110
-693.426	800.000	-0.084	0.262
-692.412	-109.363	-0.391	0.083
-691.397	-150.310	0.061	-0.005
-690.383	-200.000	0.003	0.116
-689.368	103.803	-0.151	-0.178
-688.354	-200.000	0.018	0.135
-687.339	-200.000	-0.004	0.252
-686.324	-200.000	0.000	-0.063
-685.310	-142.288	-0.156	0.015
-684.295	800.000	-0.067	-0.194
-683.281	25.861	0.115	0.096
-682.266	619.457	0.062	0.155
-681.251	267.516	-0.175	0.308
-680.237	-200.000	0.008	0.119
-679.222	-200.000	-0.001	-0.104
-678.208	82.988	0.074	0.080
-677.193	69.860	-0.058	0.060
-676.178	-200.000	0.041	-0.373
-675.164	203.620	-0.070	-0.108
-674.149	800.000	-0.118	-0.340
-673.135	14.928	0.110	-0.087
-672.120	-79.498	-0.410	-0.139
-671.105	-116.925	0.233	-0.043
-670.091	-45.520	0.287	-0.142
-669.076	443.806	0.048	-0.105
-668.062	-200.000	0.031	-0.270
-667.047	-170.927	0.277	0.010
-666.032	-173.603	-0.155	0.005
-665.018	-200.000	-0.003	0.101
-664.003	-40.003	0.182	0.095
-662.989	-200.000	-0.021	-0.197
-661.974	-7.720	0.127	0.086
-660.959	-92.263	-0.216	0.061
-659.945	86.065	0.277	0.306
-658.930	56.707	0.087	-0.085
-657.916	279.185	-0.174	-0.311
-656.901	-177.672	0.062	0.001
-655.886	89.435	-0.043	0.048
-654.872	800.000	-0.095	0.311
-653.857	-32.859	0.093	-0.052
-652.843	-63.169	0.134	-0.055
-651.828	-94.344	0.181	0.050
-650.814	62.810	-0.076	-0.076
-649.799	-200.000	0.013	-0.059
-648.784	69.389	0.235	0.242
-647.770	800.000	0.075	0.230
-646.755	125.813	-0.091	-0.115
-645.741	-85.939	0.262	-0.081
-644.726	-200.000	-0.031	-0.262
-643.711	254.605	-0.072	-0.123
-642.697	-89.082	-0.317	-0.094
-641.682	-6.986	0.388	-0.264
-640.668	-80.817	0.298	0.099
-639.653	114.391	-0.142	-0.173
-638.638	-59.980	-0.150	-0.064
-637.624	675.552	0.130	-0.338
-636.609	622.287	-0.096	0.243
-635.595	204.860	-0.117	0.182
-634.580	-6.692	0.069	-0.047
-633.565	800.000	-0.117	0.392
-632.551	28.997	-0.156	0.133
-631.536	-72.475	0.208	0.077
-630.522	194.256	0.063	-0.096
-629.507	56.457	0.105	0.103
-628.492	31.106	0.051	-0.044
-627.478	27.362	0.056	0.047
-626.463	-85.697	0.197	-0.061
-625.449	-121.079	0.288	-0.048
-624.434	172.109	-0.103	0.149
-623.419	71.612	-0.256	0.267
-622.405	202.924	-0.151	-0.234
-621.390	-8.440	-0.199	0.134
-620.376	-40.471	-0.293	-0.152
-619.361	116.880	-0.079	-0.097
-618.346	800.000	-0.098	-0.346
-617.332	207.486	0.206	-0.322
-616.317	196.674	-0.127	0.194
-615.303	82.689	0.075	0.082
-614.288	-6.653	-0.235	-0.160
-613.273	-166.681	0.201	0.008
-612.259	228.419	0.024	0.039
-611.244	284.090	-0.113	-0.203
-610.230	-117.216	0.106	-0.019
-609.215	-47.047	-0.258	0.126
-608.201	162.830	0.154	0.217
-607.186	120.105	-0.193	-0.240
-606.171	0.353	-0.155	-0.110
-605.157	-43.384	-0.426	-0.215
-604.142	-65.499	0.122	-0.049
-603.128	794.618	0.065	0.180
-602.113	-200.000	0.080	-0.399
-601.098	109.793	-0.103	0.124
-600.084	-200.000	0.028	-0.140
-599.069	163.615	-0.080	0.113
-598.055	-40.117	0.271	-0.141
-597.040	-83.270	-0.318	0.102
-596.025	-200.000	-0.091	-0.412
-595.011	145.184	0.119	-0.159
-593.996	248.939	0.051	0.087
-592.982	695.335	-0.155	-0.406
-591.967	800.000	-0.049	-0.202
-590.952	-200.000	-0.020	-0.122
-589.938	310.004	-0.035	-0.066
-588.923	-118.522	0.213	0.038
-587.909	-200.000	-0.021	-0.130
-586.894	-65.715	-0.160	-0.064
-585.879	-29.698	0.154	-0.088
-584.865	40.973	-0.248	-0.224
-583.850	-99.835	0.193	-0.048
-582.836	260.143	-0.088	0.153
-581.821	800.000	-0.048	-0.171
-580.806	-75.383	-0.077	0.027
-579.792	-20.531	-0.216	0.133
-578.777	43.585	0.011	0.010
-577.763	-175.809	-0.178	0.005
-576.748	-110.662	0.378	0.078
-575.733	90.407	0.165	-0.185
-574.719	448.880	-0.099	-0.217
-573.704	-200.000	0.016	0.331
-572.690	-104.715	-0.302	0.070
-571.675	-200.000	-0.004	0.043
-570.661	-105.130	0.271	0.062
-569.646	-2.770	0.050	-0.035
-568.631	142.938	0.198	-0.263
-567.617	-200.000	-0.003	-0.059
-566.602	-123.070	-0.297	-0.048
-565.588	800.000	-0.094	-0.287
-564.573	-80.164	0.117	-0.039
-563.558	-78.321	0.335	-0.115
-562.544	-19.823	0.202	-0.125
-561.529	52.691	0.110	0.105
-560.515	-200.000	-0.007	0.084
-559.500	-200.000	-0.001	0.052
-558.485	-125.649	0.160	0.024
-557.471	800.000	-0.182	-0.589
-556.456	-121.588	-0.233	0.039
-555.442	108.438	0.201	0.240
-554.427	245.279	0.164	0.276
-553.412	380.884	-0.127	-0.260
-552.398	-31.129	0.239	-0.134
-551.383	-171.133	-0.330	0.011
-550.369	800.000	0.070	-0.248
-549.354	-84.690	-0.258	-0.081
-548.339	-91.122	0.214	-0.061
-547.325	85.191	0.129	0.142
-546.310	-129.594	0.101	0.014
-545.296	-64.660	-0.078	-0.031
-544.281	-200.000	-0.035	-0.233
-543.266	364.142	0.067	0.135
-542.252	768.647	-0.011	0.029
-541.237	-60.988	-0.271	-0.114
-540.223	69.682	0.072	-0.074
-539.208	170.146	-0.222	-0.317
-538.193	800.000	-0.037	-0.142
-537.179	-12.506	0.177	-0.116
-536.164	-103.685	-0.251	-0.059
-535.150	139.967	-0.286	-0.376
-534.135	-147.017	-0.242	-0.021
-533.121	586.091	-0.091	0.222
-532.106	227.197	-0.112	0.182
-531.091	123.450	0.112	-0.140
-530.077	32.228	0.055	-0.047
-529.062	276.086	0.168	0.297
-528.048	66.585	0.216	0.220
-527.033	-142.913	0.208	0.020
-526.018	206.657	-0.257	-0.400
-525.004	-52.324	-0.264	0.122
-523.989	388.686	0.034	-0.071
-522.975	-167.819	-0.245	-0.010
-521.960	333.518	-0.065	-0.125
-520.945	-134.787	0.372	0.045
-519.931	-144.844	0.040	-0.004
-518.916	-112.921	-0.092	0.018
-517.902	800.000	0.031	0.114
-516.887	800.000	-0.071	0.260
-515.872	-200.000	0.046	0.250
-514.858	-31.064	-0.362	-0.204
-513.843	-17.237	0.317	-0.200
-512.829	610.397	0.219	-0.546
-511.814	-200.000	0.012	0.213
-510.799	800.000	-0.094	-0.347
-509.785	-200.000	0.063	0.299
-508.770	-99.328	0.240	-0.060
-507.756	-200.000	-0.011	-0.489
-506.741	-18.827	-0.017	0.010
-505.726	-117.515	-0.241	0.044
-504.712	-66.365	0.181	0.072
-503.697	-122.348	-0.297	-0.048
-502.683	176.673	-0.165	0.240
-501.668	-106.343	0.072	-0.016
-500.653	37.374	-0.225	-0.199
-499.639	-200.000	0.019	0.340
-498.624	-200.000	-0.004	0.227
-497.610	-117.689	0.219	-0.039
-496.595	-200.000	0.061	0.410
-495.581	5.525	-0.072	-0.053
-494.566	106.466	-0.163	-0.193
-493.551	800.000	-0.041	-0.165
-492.537	-141.238	0.253	0.026
-491.522	25.830	-0.247	0.205
-490.508	242.936	-0.232	0.388
-489.493	-10.261	0.426	-0.282
-488.478	-155.173	-0.153	0.010
-487.464	-115.480	-0.281	0.053
-486.449	-47.353	0.120	0.058
-485.435	85.954	-0.051	-0.056
-484.420	122.384	-0.166	-0.207
-483.405	-200.000	-0.017	0.297
-482.391	-200.000	-0.008	0.058
-481.376	800.000	-0.090	0.257
-480.362	118.559	0.080	0.098
-479.347	-46.615	0.151	0.074
-478.332	-103.519	0.145	-0.034
-477.318	-16.980	0.045	-0.028
-476.303	1.530	0.238	-0.171
-475.289	61.249	0.169	-0.167
-474.274	-144.315	-0.019	-0.002
-473.259	263.447	-0.162	0.281
-472.245	76.628	-0.169	-0.178
-471.230	-117.963	0.295	0.053
-470.216	-65.547	-0.089	0.036
-469.201	244.621	0.166	0.279
-468.186	40.893	0.086	-0.077
-467.172	65.880	-0.356	-0.360
-466.157	-21.914	-0.278	-0.168
-465.143	-137.932	0.191	0.021
-464.128	800.000	0.086	-0.331
-463.113	800.000	-0.046	0.167
-462.099	-69.628	0.219	0.084
-461.084	-109.737	-0.151	0.032
-460.070	-176.336	0.291	-0.008
-459.055	-47.466	-0.313	0.152
-458.040	800.000	-0.146	0.408
-457.026	-200.000	-0.014	-0.123
-456.011	-28.674	-0.375	-0.215
-454.997	-200.000	-0.028	-0.177
-453.982	326.427	-0.128	0.244
-452.968	-200.000	-0.036	-0.298
-451.953	-200.000	0.036	0.261
-450.938	-179.892	0.149	0.003
-449.924	230.746	0.174	-0.284
-448.909	402.620	-0.088	-0.183
-447.895	615.369	0.094	0.234
-446.880	800.000	-0.050	-0.161
-445.865	600.245	-0.042	0.103
-444.851	-108.408	0.243	-0.052
-443.836	481.355	-0.076	0.171
-442.822	147.135	0.257	0.344
-441.807	577.762	-0.128	0.312
-440.792	84.732	-0.092	0.100
-439.778	-45.274	-0.214	0.106
-438.763	-95.751	-0.019	0.005
-437.749	139.184	0.088	0.115
-436.734	154.198	0.234	0.319
-435.719	-200.000	0.040	-0.205
-434.705	-68.259	-0.118	-0.046
-433.690	-105.723	0.289	-0.065
-432.676	-37.994	-0.090	-0.048
-431.661	800.000	0.020	0.077
-430.646	70.592	-0.194	0.200
-429.632	-200.000	0.004	0.049
-428.617	-41.878	0.271	0.138
-427.603	-19.993	0.149	0.092
-426.588	-200.000	-0.005	0.093
-425.573	163.527	0.157	-0.219
-424.559	-132.078	0.160	-0.021
-423.544	727.233	0.069	-0.182
-422.530	800.000	-0.107	-0.366
-421.515	-200.000	0.015	-0.333
-420.500	-111.887	-0.106	0.021
-419.486	407.092	0.107	0.225
-418.471	-37.498	-0.165	-0.088
-417.457	-94.466	0.246	0.067
-416.442	-184.329	-0.160	-0.003
-415.428	-200.000	-0.026	-0.134
-414.413	-41.100	0.355	0.182
-413.398	-15.744	0.234	0.148
-412.384	131.202	0.296	0.377
-411.369	219.262	-0.021	0.034
-410.355	-54.581	-0.198	-0.089
-409.340	-200.000	-0.010	0.211
-408.325	-47.661	-0.260	0.126
-407.311	-99.395	0.106	0.027
-406.296	-75.216	0.216	-0.076
-405.282	-183.349	-0.102	-0.002
-404.267	-82.386	-0.189	0.061
-403.252	4.426	-0.136	0.099
-402.238	-8.070	-0.162	0.109
-401.223	-41.445	-0.265	-0.135
-400.209	-200.000	0.027	0.139
-399.194	62.297	-0.202	0.200
-398.179	-200.000	-0.010	0.215
-397.165	-127.934	-0.153	-0.022
-396.150	96.972	0.052	0.059
-395.136	97.352	-0.245	-0.279
-394.121	130.934	0.118	-0.150
-393.106	-200.000	0.052	0.246
-392.092	655.919	0.059	-0.152
-391.077	143.627	-0.056	-0.074
-390.063	367.468	-0.107	-0.215
-389.048	-97.252	0.198	0.051
-388.033	298.713	-0.096	0.176
-387.019	-119.245	0.244	-0.042
-386.004	392.590	-0.056	-0.116
-384.990	224.443	0.195	-0.313
-383.975	127.356	0.184	-0.232
-382.960	-77.885	0.206	-0.071
-381.946	-90.045	0.294	-0.085
-380.931	143.711	-0.363	0.480
-379.917	-200.000	0.042	0.240
-378.902	-64.518	0.263	-0.106
-377.888	43.695	-0.169	0.153
-376.873	800.000	0.051	0.164
-375.858	32.664	0.173	-0.149
-374.844	-200.000	0.000	-0.497
-373.829	87.036	-0.085	0.093
-372.815	-43.796	-0.066	-0.033
-371.800	-19.403	0.305	0.187
-370.785	0.170	-0.112	-0.079
-369.771	-176.925	0.275	0.007
-368.756	-26.075	-0.127	0.074
-367.742	53.857	0.104	-0.099
-366.727	-54.881	-0.300	0.134
-365.712	-55.444	0.076	0.034
-364.698	488.628	-0.081	0.184
-363.683	137.499	-0.061	0.079
-362.669	-99.599	0.040	-0.010
-361.654	800.000	-0.037	-0.116
-360.639	-93.711	-0.166	-0.046
-359.625	-200.000	0.009	-0.108
-358.610	277.508	0.082	-0.145
-357.596	605.646	-0.080	-0.197
-356.581	800.000	0.079	0.218
-355.566	-200.000	0.059	0.454
-354.552	-145.209	-0.068	-0.006
-353.537	-95.410	-0.044	0.012
-352.523	140.280	0.143	0.187
-351.508	403.711	-0.083	-0.173
-350.493	-104.517	-0.091	0.021
-349.479	-157.001	-0.249	-0.015
-348.464	-200.000	0.005	-0.204
-347.450	-200.000	0.011	0.058
-346.435	800.000	-0.053	0.170
-345.420	198.673	0.282	-0.428
-344.406	37.077	0.194	-0.170
-343.391	72.859	0.097	0.100
-342.377	-200.000	0.018	0.305
-341.362	575.850	-0.051	-0.122
-340.348	53.601	0.230	-0.219
-339.333	800.000	0.082	-0.256
-338.318	70.576	-0.120	0.123
-337.304	-200.000	0.002	0.469
-336.289	-83.160	-0.219	-0.070
-335.275	-200.000	-0.026	0.231
-334.260	-13.979	0.184	-0.118
-333.245	-200.000	0.008	-0.209
-332.231	302.464	-0.025	-0.045
-331.216	-200.000	0.085	-0.370
-330.202	-200.000	-0.021	-0.173
-329.187	66.118	-0.153	0.154
-328.172	719.735	-0.064	-0.168
-327.158	-5.167	0.060	-0.041
-326.143	-129.918	-0.103	0.014
-325.129	-97.091	-0.250	-0.065
-324.114	53.870	-0.135	-0.128
-323.099	122.365	0.134	-0.166
-322.085	200.769	0.067	0.102
-321.070	143.193	-0.130	0.171
-320.056	-114.865	0.173	0.033
-319.041	-66.798	-0.112	0.044
-318.026	-200.000	-0.004	0.247
-317.012	-50.486	0.272	0.127
-315.997	85.382	0.053	-0.058
-314.983	12.520	0.154	-0.118
-313.968	-200.000	-0.002	0.084
-312.953	-189.087	0.305	0.004
-311.939	-140.230	-0.300	-0.031
-310.924	205.201	0.157	-0.241
-309.910	369.991	0.134	0.268
-308.895	62.217	-0.134	-0.133
-307.880	141.789	0.236	0.309
-306.866	-200.000	0.016	0.250
-305.851	-143.845	-0.135	0.013
-304.837	-34.991	-0.246	-0.133
-303.822	-200.000	0.053	0.235
-302.807	435.981	-0.089	-0.193
-301.793	-200.000	-0.042	-0.242
-300.778	344.284	-0.044	-0.086
-299.764	800.000	0.075	0.256
-298.749	800.000	0.086	0.343
-297.735	233.014	0.157	0.255
-296.720	224.534	-0.019	-0.031
-295.705	219.127	0.070	0.110
-294.691	103.854	-0.130	0.151
-293.676	-56.948	0.109	0.048
-292.662	-200.000	-0.060	0.298
-291.647	-27.502	-0.201	0.115
-290.632	148.093	0.120	0.160
-289.618	326.328	0.224	0.424
-288.603	-200.000	-0.043	0.204
-287.589	-145.262	0.078	0.007
-286.574	300.197	-0.039	0.072
-285.559	-200.000	-0.062	0.477
-284.545	-55.903	0.161	-0.071
-283.530	61.191	0.191	0.188
-282.516	-200.000	-0.037	0.238
-281.501	-200.000	-0.058	0.386
-280.486	-172.592	0.260	-0.008
-279.472	-152.120	0.025	0.002
-278.457	-182.448	-0.127	-0.002
-277.443	-200.000	0.009	-0.438
-276.428	22.305	0.095	-0.076
-275.413	800.000	-0.033	0.132
-274.399	115.803	0.160	0.194
-273.384	60.264	0.227	-0.222
-272.370	-66.302	0.137	0.054
-271.355	-13.596	0.292	-0.187
-270.340	800.000	0.114	-0.480
-269.326	294.931	0.086	-0.155
-268.311	800.000	0.119	-0.363
-267.297	-200.000	0.010	0.103
-266.282	100.507	0.245	0.281
-265.267	-18.170	0.047	-0.029
-264.253	-169.825	-0.278	-0.010
-263.238	-150.826	0.137	0.010
-262.224	800.000	-0.086	0.354
-261.209	416.800	0.066	0.138
-260.195	-200.000	0.062	0.368
-259.180	800.000	0.055	0.186
-258.165	38.712	-0.268	-0.236
-257.151	73.251	0.305	-0.315
-256.136	142.445	-0.084	-0.110
-255.122	800.000	-0.064	-0.180
-254.107	458.535	-0.043	-0.095
-253.092	-153.345	0.103	-0.007
-252.078	-64.929	0.055	0.022
-251.063	-98.642	0.079	-0.020
-250.049	19.665	0.222	0.176
-249.034	-200.000	0.043	-0.207
-248.019	-200.000	-0.031	-0.298
-247.005	613.661	0.070	0.174
-245.990	73.309	0.167	0.172
-244.976	60.940	0.097	0.095
-243.961	-8.993	0.156	-0.103
-242.946	-200.000	-0.011	-0.048
-241.932	283.372	0.019	-0.033
-240.917	-91.800	0.022	0.006
-239.903	-189.781	0.141	-0.002
-238.888	384.877	0.138	-0.282
-237.873	-95.840	-0.351	-0.092
-236.859	-47.258	0.225	-0.108
-235.844	-63.637	-0.074	-0.030
-234.830	-200.000	-0.003	0.017
-233.815	529.592	0.053	-0.124
-232.800	800.000	0.057	-0.159
-231.786	112.057	-0.118	-0.140
-230.771	-61.306	0.130	0.054
-229.757	-150.075	-0.216	-0.017
-228.742	174.036	-0.042	-0.060
-227.727	-200.000	0.006	0.114
-226.713	-64.471	-0.546	0.219
-225.698	-62.262	0.095	-0.039
-224.684	-200.000	-0.015	-0.344
-223.669	-159.713	-0.381	-0.021
-222.655	32.151	-0.098	0.084
-221.640	-41.398	0.054	-0.027
-220.625	371.662	0.095	0.190
-219.611	800.000	-0.042	0.129
-218.596	-60.671	0.332	0.139
-217.582	-62.240	-0.110	0.045
-216.567	193.250	-0.116	0.173
-215.552	-184.348	-0.141	0.002
-214.538	-200.000	0.061	0.315
-213.523	-108.079	-0.030	-0.006
-212.509	57.760	-0.121	-0.117
-211.494	-58.000	0.328	-0.141
-210.479	171.753	-0.073	-0.103
-209.465	-93.098	-0.092	-0.025
-208.450	-80.848	-0.417	0.136
-207.436	452.022	-0.122	-0.265
-206.421	-200.000	0.035	-0.464
-205.406	-24.098	0.303	-0.178
-204.392	-142.912	-0.174	-0.017
-203.377	-80.215	0.246	0.081
-202.363	256.219	0.094	0.159
-201.348	-200.000	-0.003	0.153
-200.333	40.743	0.293	-0.261
-199.319	-171.472	-0.241	0.008
-198.304	-85.943	-0.163	0.050
-197.290	-161.604	-0.119	0.006
-196.275	-142.717	0.309	0.030
-195.260	800.000	-0.023	-0.075
-194.246	0.805	0.098	-0.069
-193.231	-200.000	0.018	0.105
-192.217	269.479	-0.139	0.240
-191.202	-173.142	-0.134	0.004
-190.187	177.271	-0.048	-0.069
-189.173	-99.203	-0.226	-0.056
-188.158	800.000	0.130	0.392
-187.144	-200.000	0.039	0.267
-186.129	81.044	-0.292	0.311
-185.114	-52.940	-0.089	-0.040
-184.100	8.532	-0.158	0.117
-183.085	-104.074	-0.223	0.051
-182.071	-32.643	0.195	0.107
-181.056	14.726	0.212	-0.163
-180.042	154.977	-0.140	0.190
-179.027	114.219	-0.248	0.297
-178.012	-80.589	-0.170	0.056
-176.998	-59.861	-0.136	-0.057
-175.983	47.790	0.164	-0.151
-174.969	-109.445	-0.360	0.075
-173.954	-92.914	-0.112	0.031
-172.939	-53.471	0.142	0.064
-171.925	-78.457	-0.162	-0.055
-170.910	-200.000	-0.009	0.166
-169.896	710.223	-0.123	0.320
-168.881	237.938	-0.172	-0.280
-167.866	-200.000	-0.042	-0.344
-166.852	-13.975	-0.102	0.065
-165.837	158.661	-0.034	-0.046
-164.823	401.237	0.077	0.159
-163.808	78.712	-0.204	0.215
-162.793	-148.172	0.311	-0.025
-161.779	-18.810	0.323	-0.198
-160.764	-200.000	0.036	0.229
-159.750	89.995	-0.161	-0.177
-158.735	-66.882	0.074	-0.029
-157.720	251.387	-0.076	-0.127
-156.706	-62.266	-0.162	0.066
-155.691	289.328	-0.217	0.386
-154.677	687.721	-0.048	-0.124
-153.662	-30.292	0.123	-0.069
-152.647	-94.600	0.061	0.016
-151.633	28.740	0.066	0.055
-150.618	-88.362	0.165	0.048
-149.604	-200.000	0.030	-0.242
-148.589	800.000	-0.027	-0.079
-147.574	235.922	-0.011	-0.017
-146.560	-200.000	0.030	-0.273
-145.545	521.765	0.134	0.309
-144.531	-95.835	0.195	0.051
-143.516	-69.289	-0.150	-0.057
-142.502	-105.878	0.111	0.025
-141.487	-200.000	-0.067	0.406
-140.472	238.024	-0.170	-0.277
-139.458	328.738	-0.086	0.162
-138.443	465.946	0.041	0.091
-137.429	-123.792	0.281	0.044
-136.414	-167.464	0.329	0.013
-135.399	-124.614	0.265	0.040
-134.385	-50.409	-0.074	-0.034
-133.370	800.000	0.059	0.227
-132.356	35.733	-0.141	0.122
-131.341	-200.000	-0.014	-0.233
-130.326	800.000	-0.114	-0.311
-129.312	34.758	-0.125	-0.107
-128.297	-34.591	0.164	-0.088
-127.283	-200.000	0.043	-0.214
-126.268	144.821	0.115	-0.150
-125.253	-84.978	0.061	-0.019
-124.239	800.000	0.033	0.138
-123.224	-200.000	-0.003	0.090
-122.210	-167.007	0.086	0.003
