DTS Sentinel unit serial number:	SN413079Multiplexer serial number:	ORYXHardware model number:	OX4-SRSoftware version number:	ORYX F/W v4.00 Oryx Data Collector v3.7.2.0data status	okinstallation	princeton_trtdifferential loss correction	single-endedforward channel	channel 3reverse channel	N/Adate	2019/09/13time	14:20:35forward acquisition time	60.00reverse acquisition time	0.00gamma	496.2192k internal	0.2302k external	0.2302temperature offset calibration	1.0142default loss term (dB/km)	0.3790temperature slope calibration	1.0000multiplexer offset coefficient	1.0000multiplexer slope coefficient	1.0000fibre end	0.00T internal ref (°C)	35.27T ext. ref 1 (°C)	4.61T ext. ref 2 (°C)	31.19length (m)	temperature (°C)	Stokes	anti-Stokes-747.200	175.061	0.183	0.271
-746.185	578.215	-0.045	0.113
-745.171	-141.705	-0.385	0.039
-744.156	790.610	-0.054	-0.152
-743.142	159.175	-0.148	0.209
-742.127	-193.352	0.130	0.001
-741.112	-83.918	0.104	-0.034
-740.098	-200.000	0.065	0.307
-739.083	-85.297	-0.218	-0.069
-738.069	-200.000	-0.044	0.278
-737.054	399.573	-0.259	-0.553
-736.039	-30.900	-0.350	-0.201
-735.025	4.126	0.065	0.049
-734.010	-82.135	-0.567	-0.189
-732.996	-118.546	0.264	-0.048
-731.981	-9.478	-0.174	0.118
-730.966	57.200	0.151	0.150
-729.952	-160.652	-0.258	-0.014
-728.937	112.622	0.083	0.102
-727.923	-106.329	-0.299	-0.068
-726.908	-41.415	-0.195	-0.102
-725.894	800.000	-0.116	0.353
-724.879	800.000	0.013	-0.044
-723.864	-56.652	-0.339	-0.153
-722.850	24.665	0.037	-0.032
-721.835	-93.406	-0.248	-0.070
-720.821	-75.323	-0.230	-0.084
-719.806	-7.995	-0.117	-0.080
-718.791	41.791	0.032	-0.029
-717.777	-100.998	-0.566	-0.141
-716.762	800.000	-0.043	0.183
-715.748	306.206	0.125	-0.237
-714.733	-71.375	-0.308	0.117
-713.718	742.847	0.116	-0.317
-712.704	175.713	0.112	-0.166
-711.689	-88.636	0.292	-0.089
-710.675	184.033	-0.175	-0.264
-709.660	800.000	-0.135	-0.420
-708.645	18.478	-0.147	0.120
-707.631	71.753	0.099	0.105
-706.616	-200.000	-0.079	-0.364
-705.602	-23.086	-0.128	0.078
-704.587	-49.743	0.122	-0.059
-703.572	151.288	0.118	0.164
-702.558	15.080	-0.165	0.132
-701.543	-200.000	0.006	-0.149
-700.529	-52.561	-0.156	-0.073
-699.514	-136.416	0.271	-0.032
-698.499	181.744	0.078	-0.116
-697.485	160.419	0.115	0.163
-696.470	58.278	-0.188	0.188
-695.456	-200.000	-0.009	-0.156
-694.441	800.000	-0.052	-0.166
-693.426	51.071	0.117	-0.113
-692.412	133.736	0.059	-0.077
-691.397	-6.391	0.046	0.032
-690.383	176.420	0.080	0.119
-689.368	-164.214	-0.181	-0.008
-688.354	499.175	-0.127	0.298
-687.339	-124.570	0.126	0.020
-686.324	-145.388	0.254	-0.023
-685.310	102.526	-0.130	-0.154
-684.295	-17.380	0.040	-0.025
-683.281	800.000	-0.025	-0.082
-682.266	68.504	-0.274	-0.285
-681.251	-51.069	-0.219	0.104
-680.237	642.578	0.095	0.247
-679.222	79.946	0.211	0.230
-678.208	212.737	-0.162	0.260
-677.193	4.885	-0.113	-0.085
-676.178	-200.000	0.002	0.305
-675.164	-200.000	-0.012	0.155
-674.149	-139.650	-0.122	0.013
-673.135	-179.040	0.044	0.001
-672.120	-62.892	0.069	-0.029
-671.105	-60.901	0.211	-0.091
-670.091	-200.000	-0.010	-0.135
-669.076	652.335	-0.168	-0.439
-668.062	170.979	-0.057	0.083
-667.047	212.845	-0.134	-0.216
-666.032	-84.211	-0.500	-0.161
-665.018	106.413	0.091	-0.109
-664.003	-134.397	0.275	-0.034
-662.989	-110.182	0.219	0.046
-661.974	-200.000	0.239	-0.000
-660.959	227.672	-0.130	-0.215
-659.945	5.296	-0.046	-0.034
-658.930	502.804	0.090	0.210
-657.916	-18.803	0.102	0.065
-656.901	-99.062	-0.248	-0.064
-655.886	-125.565	-0.237	-0.037
-654.872	-200.000	0.050	0.223
-653.857	5.524	-0.112	-0.084
-652.843	800.000	-0.056	-0.164
-651.828	185.699	-0.123	0.185
-650.814	-140.255	0.161	-0.017
-649.799	-30.465	0.127	0.073
-648.784	-200.000	0.004	-0.115
-647.770	475.230	0.124	-0.284
-646.755	-152.440	0.128	0.009
-645.741	4.285	-0.197	-0.147
-644.726	-200.000	-0.022	-0.481
-643.711	-75.788	0.305	0.110
-642.697	-200.000	0.004	-0.096
-641.682	-78.617	-0.235	0.081
-640.668	81.111	-0.059	0.064
-639.653	-163.679	0.055	-0.003
-638.638	384.155	-0.100	-0.208
-637.624	-144.359	-0.168	0.016
-636.609	10.591	-0.137	-0.106
-635.595	-31.200	0.139	0.080
-634.580	-20.462	-0.365	-0.228
-633.565	454.695	0.093	0.210
-632.551	195.094	-0.132	0.203
-631.536	-200.000	-0.015	0.197
-630.522	800.000	0.042	-0.164
-629.507	349.042	0.117	-0.234
-628.492	7.159	0.061	0.046
-627.478	-200.000	0.001	-0.045
-626.463	-122.967	-0.063	-0.010
-625.449	799.241	-0.151	-0.424
-624.434	-108.354	0.058	-0.013
-623.419	-70.765	-0.203	0.078
-622.405	-200.000	0.018	-0.150
-621.390	-138.689	0.255	-0.028
-620.376	-32.926	0.203	-0.114
-619.361	800.000	-0.037	-0.125
-618.346	-45.622	0.284	-0.142
-617.332	-89.646	-0.143	0.043
-616.317	454.905	-0.126	0.283
-615.303	175.385	0.086	0.126
-614.288	121.734	0.070	-0.089
-613.273	-200.000	0.025	0.250
-612.259	800.000	0.071	-0.202
-611.244	-43.914	0.233	-0.119
-610.230	310.275	-0.116	-0.221
-609.215	97.652	0.072	0.084
-608.201	163.812	0.164	-0.233
-607.186	-162.063	0.130	-0.007
-606.171	547.632	0.128	0.310
-605.157	-200.000	0.004	-0.036
-604.142	486.258	-0.069	0.159
-603.128	-54.394	0.229	0.105
-602.113	800.000	-0.040	0.161
-601.098	295.444	-0.121	0.224
-600.084	31.760	0.117	-0.102
-599.069	-156.913	-0.231	-0.014
-598.055	43.288	0.126	0.117
-597.040	40.383	0.122	0.111
-596.025	-200.000	-0.026	-0.283
-595.011	304.359	0.116	-0.219
-593.996	-106.052	-0.026	0.006
-592.982	800.000	0.034	-0.113
-591.967	800.000	-0.038	-0.110
-590.952	-115.782	-0.163	-0.031
-589.938	60.771	-0.071	0.071
-588.923	56.356	-0.208	-0.204
-587.909	-70.825	-0.167	0.064
-586.894	67.808	0.056	-0.058
-585.879	135.282	0.164	-0.216
-584.865	-3.900	0.204	-0.143
-583.850	310.844	-0.109	0.207
-582.836	121.391	-0.076	0.096
-581.821	40.034	-0.218	-0.199
-580.806	-175.230	0.206	-0.006
-579.792	121.496	0.179	-0.226
-578.777	-42.713	-0.240	0.124
-577.763	800.000	-0.047	0.206
-576.748	153.740	-0.151	0.210
-575.733	-123.562	-0.067	0.011
-574.719	-122.971	-0.256	0.042
-573.704	-173.892	-0.480	0.014
-572.690	27.064	0.268	0.228
-571.675	-160.310	-0.242	-0.013
-570.661	242.202	-0.114	0.193
-569.646	-47.143	-0.048	0.024
-568.631	503.179	0.107	-0.250
-567.617	130.014	0.194	-0.251
-566.602	239.087	0.132	-0.222
-565.588	462.063	0.108	-0.245
-564.573	-155.778	0.170	0.011
-563.558	-56.773	-0.142	-0.063
-562.544	57.925	0.114	0.113
-561.529	-64.792	0.017	0.007
-560.515	61.710	0.048	-0.049
-559.500	185.860	0.067	-0.101
-558.485	-26.198	-0.268	0.160
-557.471	726.553	-0.054	-0.145
-556.456	-95.281	-0.177	-0.048
-555.442	-200.000	-0.010	-0.274
-554.427	-25.202	-0.096	0.057
-553.412	-166.956	0.097	-0.004
-552.398	-176.283	0.038	-0.001
-551.383	426.496	-0.066	0.144
-550.369	-200.000	0.001	0.054
-549.354	-200.000	0.003	-0.066
-548.339	-105.980	-0.096	0.022
-547.325	125.126	-0.266	0.339
-546.310	800.000	0.024	0.097
-545.296	486.439	0.051	0.117
-544.281	576.040	-0.102	-0.251
-543.266	-109.125	0.277	-0.059
-542.252	101.609	0.183	-0.216
-541.237	168.913	0.127	-0.183
-540.223	800.000	0.073	-0.211
-539.208	89.874	0.099	-0.111
-538.193	71.812	-0.300	-0.315
-537.179	449.900	0.033	-0.073
-536.164	69.198	0.153	0.159
-535.150	-37.256	0.193	-0.104
-534.135	-8.100	0.347	-0.237
-533.121	-200.000	-0.049	0.287
-532.106	-92.119	-0.405	-0.116
-531.091	-186.378	0.120	0.002
-530.077	283.379	0.131	0.238
-529.062	34.024	-0.255	-0.224
-528.048	-37.128	-0.154	-0.083
-527.033	270.201	0.153	0.272
-526.018	-108.772	0.127	-0.027
-525.004	50.711	0.084	0.080
-523.989	-117.669	0.252	-0.046
-522.975	-142.879	-0.142	-0.014
-521.960	-34.634	-0.153	0.084
-520.945	-129.554	-0.197	0.028
-519.931	83.521	0.082	0.090
-518.916	-64.892	-0.383	-0.156
-517.902	26.795	0.168	0.142
-516.887	41.611	-0.088	-0.081
-515.872	64.850	-0.096	0.097
-514.858	-126.006	0.285	-0.043
-513.843	-50.088	-0.176	0.084
-512.829	355.823	-0.047	0.094
-511.814	-109.389	-0.136	0.029
-510.799	513.134	0.039	0.093
-509.785	-113.982	0.281	-0.055
-508.770	5.212	-0.102	0.076
-507.756	171.478	0.072	0.104
-506.741	800.000	-0.031	0.122
-505.726	-110.890	-0.517	0.107
-504.712	125.884	0.230	-0.294
-503.697	800.000	0.021	0.062
-502.683	-126.044	-0.403	0.061
-501.668	-200.000	-0.014	0.143
-500.653	673.784	-0.019	-0.050
-499.639	-200.000	0.010	-0.073
-498.624	800.000	0.122	-0.353
-497.610	800.000	0.038	-0.146
-496.595	-145.094	0.318	0.029
-495.581	6.047	-0.135	0.101
-494.566	-7.983	-0.208	0.142
-493.551	-87.259	-0.028	-0.008
-492.537	-200.000	-0.011	-0.063
-491.522	544.295	0.099	0.239
-490.508	59.757	0.198	0.197
-489.493	-200.000	0.008	-0.252
-488.478	207.836	0.086	-0.135
-487.464	123.846	0.138	0.175
-486.449	-16.523	-0.393	-0.251
-485.435	-200.000	-0.019	0.094
-484.420	-33.167	0.171	-0.096
-483.405	312.644	0.120	-0.227
-482.391	-200.000	-0.011	0.216
-481.376	428.717	0.061	0.134
-480.362	-167.814	-0.010	0.000
-479.347	430.237	0.037	-0.081
-478.332	-100.789	0.123	-0.031
-477.318	-200.000	0.026	-0.239
-476.303	-200.000	-0.048	-0.240
-475.289	800.000	0.052	-0.158
-474.274	73.288	0.280	-0.296
-473.259	-200.000	-0.021	-0.190
-472.245	800.000	-0.041	-0.133
-471.230	34.884	-0.176	0.155
-470.216	-147.925	-0.167	0.014
-469.201	-63.436	-0.214	-0.089
-468.186	470.360	-0.093	-0.210
-467.172	800.000	-0.050	0.144
-466.157	46.970	0.198	0.185
-465.143	-200.000	0.002	0.198
-464.128	-82.331	-0.175	-0.057
-463.113	74.390	-0.032	0.033
-462.099	-62.744	-0.231	0.096
-461.084	-200.000	-0.018	-0.186
-460.070	198.042	0.168	0.258
-459.055	800.000	0.045	0.195
-458.040	-68.827	-0.143	-0.056
-457.026	-93.035	-0.237	0.066
-456.011	3.586	0.046	0.033
-454.997	-51.853	0.215	0.101
-453.982	745.641	0.131	0.356
-452.968	-60.334	0.052	0.022
-451.953	-42.486	0.394	0.203
-450.938	-88.710	-0.104	0.031
-449.924	-106.170	0.495	-0.112
-448.909	-33.511	-0.168	-0.093
-447.895	117.447	-0.255	-0.316
-446.880	146.448	0.052	0.071
-445.865	113.918	0.090	-0.111
-444.851	166.513	-0.011	-0.016
-443.836	-200.000	-0.030	0.000
-442.822	404.235	0.071	-0.150
-441.807	-200.000	-0.016	0.406
-440.792	55.239	0.211	0.206
-439.778	162.992	-0.125	-0.176
-438.763	346.508	0.055	-0.110
-437.749	-200.000	0.003	0.240
-436.734	47.619	-0.189	0.178
-435.719	-39.755	-0.174	0.092
-434.705	542.850	0.014	-0.034
-433.690	-200.000	-0.012	-0.337
-432.676	-4.556	0.225	-0.156
-431.661	-200.000	0.005	0.272
-430.646	800.000	0.078	-0.219
-429.632	-200.000	-0.040	-0.456
-428.617	-200.000	0.050	-0.259
-427.603	-37.879	0.224	0.120
-426.588	-3.455	-0.284	0.199
-425.573	800.000	0.091	0.252
-424.559	-200.000	0.023	0.575
-423.544	-87.632	-0.259	0.079
-422.530	55.099	-0.207	0.201
-421.515	-19.593	0.208	-0.130
-420.500	-141.053	-0.102	0.011
-419.486	800.000	0.072	0.313
-418.471	76.565	-0.072	0.077
-417.457	179.425	-0.010	-0.015
-416.442	-34.600	-0.042	0.023
-415.428	110.305	0.022	-0.027
-414.413	-97.169	-0.060	-0.016
-413.398	501.304	0.099	-0.229
-412.384	-2.951	-0.216	0.151
-411.369	-93.670	0.176	0.049
-410.355	-200.000	0.005	-0.055
-409.340	-192.017	0.195	0.002
-408.325	-164.766	-0.285	-0.013
-407.311	89.499	0.365	-0.410
-406.296	800.000	-0.009	0.039
-405.282	-68.495	-0.442	0.172
-404.267	800.000	-0.071	-0.231
-403.252	-200.000	-0.043	-0.303
-402.238	-114.705	-0.222	0.043
-401.223	-52.571	0.240	-0.112
-400.209	-200.000	-0.047	-0.299
-399.194	513.674	0.071	0.167
-398.179	-27.669	0.075	0.044
-397.165	-200.000	0.003	0.273
-396.150	214.762	0.126	0.201
-395.136	267.322	0.038	-0.066
-394.121	5.466	0.074	0.055
-393.106	632.839	0.178	0.455
-392.092	-200.000	-0.027	0.119
-391.077	82.962	-0.099	0.108
-390.063	-149.751	0.383	-0.030
-389.048	-6.993	0.143	0.097
-388.033	-33.926	0.199	0.110
-387.019	-200.000	-0.100	-0.464
-386.004	459.692	0.110	-0.246
-384.990	800.000	-0.057	0.232
-383.975	-99.321	-0.095	0.024
-382.960	134.800	-0.082	-0.106
-381.946	-200.000	-0.011	0.252
-380.931	-200.000	-0.028	-0.220
-379.917	-142.794	0.417	0.041
-378.902	-200.000	0.043	-0.384
-377.888	-94.153	-0.263	-0.072
-376.873	-159.475	-0.281	-0.016
-375.858	199.955	0.100	0.155
-374.844	-63.267	0.052	-0.022
-373.829	800.000	-0.039	0.149
-372.815	188.345	-0.092	-0.138
-371.800	-70.124	-0.143	-0.055
-370.785	-200.000	-0.001	-0.355
-369.771	-200.000	0.056	-0.290
-368.756	-200.000	0.019	0.109
-367.742	-42.362	0.156	-0.080
-366.727	567.492	-0.074	0.179
-365.712	-106.240	-0.015	-0.003
-364.698	-162.834	0.230	0.011
-363.683	-57.710	-0.198	-0.087
-362.669	800.000	-0.094	0.302
-361.654	-200.000	-0.067	0.322
-360.639	-72.720	0.166	0.062
-359.625	-97.621	0.236	-0.061
-358.610	-156.855	0.336	0.021
-357.596	84.529	0.045	0.049
-356.581	-34.501	-0.337	-0.185
-355.566	81.304	-0.183	-0.198
-354.552	-82.615	0.267	-0.087
-353.537	-79.477	0.352	-0.120
-352.523	-66.677	0.143	0.057
-351.508	800.000	-0.027	0.112
-350.493	136.272	-0.107	0.140
-349.479	-23.581	-0.108	-0.065
-348.464	12.269	-0.063	0.049
-347.450	56.691	0.093	-0.091
-346.435	-36.498	-0.107	0.058
-345.420	-26.271	0.314	0.185
-344.406	14.197	-0.219	-0.171
-343.391	93.797	0.235	-0.268
-342.377	420.950	0.116	0.250
-341.362	-36.672	-0.216	-0.117
-340.348	-200.000	0.060	-0.378
-339.333	-41.830	-0.134	-0.069
-338.318	-44.369	-0.122	0.062
-337.304	93.163	0.154	-0.175
-336.289	354.916	0.116	-0.230
-335.275	-98.703	-0.159	0.041
-334.260	172.609	0.135	-0.194
-333.245	-56.817	-0.213	-0.094
-332.231	-200.000	0.004	0.114
-331.216	665.635	0.081	0.209
-330.202	-52.950	-0.202	0.093
-329.187	-126.811	0.276	0.041
-328.172	618.203	-0.019	-0.049
-327.158	-76.531	-0.331	0.116
-326.143	171.336	-0.112	-0.161
-325.129	67.492	-0.134	-0.137
-324.114	-40.241	0.329	0.171
-323.099	-200.000	-0.054	0.364
-322.085	97.749	0.182	0.210
-321.070	-86.173	-0.263	0.081
-320.056	800.000	0.087	-0.303
-319.041	-43.461	0.168	-0.085
-318.026	-200.000	0.001	-0.036
-317.012	769.637	-0.029	-0.079
-315.997	103.572	0.095	-0.112
-314.983	19.298	-0.205	-0.165
-313.968	429.397	-0.050	0.109
-312.953	380.435	-0.138	0.283
-311.939	-200.000	0.001	-0.101
-310.924	-200.000	-0.040	0.289
-309.910	184.621	0.101	-0.150
-308.895	-200.000	-0.009	-0.097
-307.880	-34.619	-0.175	0.096
-306.866	800.000	0.011	0.035
-305.851	126.131	0.237	0.300
-304.837	800.000	-0.079	-0.347
-303.822	250.822	-0.015	0.025
-302.807	16.799	-0.024	-0.019
-301.793	-118.247	0.029	0.005
-300.778	-93.742	-0.213	0.059
-299.764	-86.445	0.158	0.048
-298.749	-200.000	0.086	0.392
-297.735	-1.723	0.186	0.131
-296.720	-114.922	-0.254	0.048
-295.705	763.321	-0.028	0.076
-294.691	-99.343	0.277	-0.070
-293.676	787.999	-0.026	0.072
-292.662	-121.187	0.368	-0.062
-291.647	-51.050	0.352	0.165
-290.632	-67.984	-0.196	-0.076
-289.618	285.250	-0.169	0.305
-288.603	-200.000	-0.035	-0.434
-287.589	124.609	-0.100	0.126
-286.574	286.025	0.148	0.267
-285.559	602.371	0.058	-0.143
-284.545	-200.000	-0.017	0.095
-283.530	128.174	0.076	-0.097
-282.516	-200.000	-0.013	-0.072
-281.501	-200.000	-0.018	0.177
-280.486	800.000	0.018	-0.051
-279.472	-200.000	-0.033	0.412
-278.457	410.892	-0.072	-0.153
-277.443	-200.000	-0.001	0.015
-276.428	800.000	-0.058	-0.238
-275.413	-200.000	-0.025	-0.121
-274.399	361.049	0.120	-0.241
-273.384	-99.411	-0.109	-0.027
-272.370	113.257	-0.071	-0.086
-271.355	-21.042	0.288	0.176
-270.340	36.539	-0.243	0.214
-269.326	77.571	-0.110	0.117
-268.311	-130.170	0.312	0.043
-267.297	93.214	0.057	0.065
-266.282	-104.804	-0.190	0.044
-265.267	-90.412	0.065	0.019
-264.253	58.324	-0.281	0.276
-263.238	10.607	0.119	-0.090
-262.224	-151.938	0.203	-0.015
-261.209	133.306	0.063	0.081
-260.195	535.163	0.103	-0.243
-259.180	-147.824	-0.308	0.026
-258.165	716.590	-0.073	0.194
-257.151	28.093	-0.150	-0.127
-256.136	94.772	0.089	-0.101
-255.122	-200.000	-0.035	0.299
-254.107	323.498	-0.157	-0.299
-253.092	184.032	-0.076	-0.112
-252.078	-24.355	-0.132	-0.079
-251.063	797.378	-0.110	0.303
-250.049	-200.000	-0.006	0.083
-249.034	-200.000	0.007	-0.051
-248.019	-200.000	-0.030	0.140
-247.005	14.252	-0.257	-0.200
-245.990	-200.000	-0.005	0.137
-244.976	-35.903	0.092	0.050
-243.961	-20.861	0.269	0.165
-242.946	-200.000	-0.016	0.094
-241.932	-57.213	-0.291	-0.128
-240.917	-105.731	-0.274	0.062
-239.903	-200.000	-0.010	0.107
-238.888	-46.231	0.120	0.059
-237.873	-42.726	0.280	0.142
-236.859	113.002	0.261	0.316
-235.844	539.649	0.051	0.121
-234.830	-200.000	0.051	0.370
-233.815	10.088	-0.072	-0.055
-232.800	-200.000	0.012	-0.171
-231.786	159.428	-0.082	0.115
-230.771	-29.305	0.284	-0.163
-229.757	188.760	0.038	-0.057
-228.742	-107.168	-0.186	0.041
-227.727	91.695	-0.106	0.119
-226.713	287.359	0.181	0.327
-225.698	-76.653	0.132	0.046
-224.684	159.055	-0.205	0.285
-223.669	165.326	0.030	-0.042
-222.655	-64.071	0.095	0.039
-221.640	404.957	-0.107	-0.226
-220.625	-200.000	0.018	0.079
-219.611	-137.076	0.099	0.011
-218.596	376.121	-0.097	0.198
-217.582	147.838	0.108	0.146
-216.567	126.841	-0.098	-0.124
-215.552	102.585	0.116	-0.136
-214.538	92.013	-0.183	-0.205
-213.523	26.357	-0.080	0.067
-212.509	-200.000	-0.030	0.205
-211.494	-51.800	0.114	0.053
-210.479	-200.000	-0.109	-0.480
-209.465	800.000	0.023	0.089
-208.450	800.000	-0.036	0.109
-207.436	-27.411	-0.154	-0.089
-206.421	-40.084	0.078	-0.041
-205.406	22.696	-0.155	0.127
-204.392	112.505	0.163	0.197
-203.377	89.935	0.059	0.066
-202.363	-53.233	-0.254	0.116
-201.348	-95.020	-0.318	-0.086
-200.333	16.524	0.210	-0.166
-199.319	-200.000	0.018	-0.399
-198.304	414.422	0.039	0.082
-197.290	-121.576	0.161	0.027
-196.275	-78.268	-0.278	-0.095
-195.260	-43.573	0.430	-0.216
-194.246	-138.634	0.174	-0.019
-193.231	-200.000	-0.060	-0.275
-192.217	-54.479	-0.098	-0.044
-191.202	800.000	-0.070	0.296
-190.187	800.000	-0.020	-0.073
-189.173	-200.000	-0.059	0.372
-188.158	-70.746	0.292	-0.110
-187.144	251.480	-0.078	0.133
-186.129	800.000	-0.109	0.305
-185.114	-0.151	-0.405	-0.288
-184.100	62.204	-0.169	0.168
-183.085	-200.000	0.038	0.222
-182.071	129.288	0.123	-0.157
-181.056	-80.174	0.188	0.063
-180.042	28.655	0.219	0.185
-179.027	-105.992	0.071	0.016
-178.012	-200.000	-0.002	0.178
-176.998	-200.000	0.009	0.066
-175.983	63.507	-0.054	0.054
-174.969	606.642	-0.031	0.077
-173.954	800.000	-0.134	-0.385
-172.939	48.528	0.203	-0.189
-171.925	-5.579	0.076	0.052
-170.910	800.000	0.019	-0.075
-169.896	800.000	0.085	0.292
-168.881	-165.790	0.210	-0.009
-167.866	800.000	-0.069	-0.205
-166.852	800.000	0.026	-0.096
-165.837	-200.000	-0.045	0.238
-164.823	-132.580	-0.167	-0.021
-163.808	-168.532	-0.362	0.014
-162.793	-3.805	0.278	-0.192
-161.779	6.335	-0.100	-0.074
-160.764	-200.000	-0.024	-0.200
-159.750	-50.731	-0.241	0.113
-158.735	-119.661	-0.196	0.034
-157.720	-16.146	-0.267	0.169
-156.706	-115.932	0.213	0.040
-155.691	77.860	-0.217	0.231
-154.677	24.090	0.267	-0.219
-153.662	800.000	0.014	0.056
-152.647	-26.736	0.083	-0.048
-151.633	93.525	-0.115	-0.129
-150.618	21.581	-0.039	0.032
-149.604	-0.154	-0.057	-0.040
-148.589	-163.174	0.226	-0.011
-147.574	-200.000	0.050	0.224
-146.560	-200.000	0.005	0.178
-145.545	-200.000	0.025	-0.214
-144.531	-75.289	0.068	0.024
-143.516	457.256	0.080	0.177
-142.502	7.226	0.111	0.082
-141.487	-64.882	0.268	0.108
-140.472	-166.576	-0.114	-0.005
-139.458	207.068	0.127	-0.197
-138.443	683.208	-0.175	-0.455
-137.429	600.313	0.073	0.180
-136.414	-200.000	-0.029	0.370
-135.399	22.078	0.143	0.116
-134.385	-123.623	-0.187	0.030
-133.370	-74.968	0.114	-0.041
-132.356	-200.000	-0.009	-0.048
-131.341	-200.000	-0.074	-0.416
-130.326	-145.038	-0.290	0.026
-129.312	107.393	0.146	-0.172
-128.297	-200.000	0.066	-0.399
-127.283	-200.000	-0.041	0.211
-126.268	-200.000	0.023	-0.215
-125.253	-200.000	-0.035	0.491
-124.239	-200.000	-0.030	0.195
-123.224	800.000	0.103	0.283
-122.210	-150.595	-0.255	-0.019
-121.195	-200.000	-0.034	-0.242
