DTS Sentinel unit serial number:	SN413079Multiplexer serial number:	ORYXHardware model number:	OX4-SRSoftware version number:	ORYX F/W v4.00 Oryx Data Collector v3.7.2.0data status	okinstallation	princeton_trtdifferential loss correction	single-endedforward channel	channel 3reverse channel	N/Adate	2019/09/15time	20:36:35forward acquisition time	60.00reverse acquisition time	0.00gamma	496.2192k internal	0.2325k external	0.2325temperature offset calibration	0.9937default loss term (dB/km)	0.3790temperature slope calibration	1.0000multiplexer offset coefficient	1.0000multiplexer slope coefficient	1.0000fibre end	0.00T internal ref (°C)	33.06T ext. ref 1 (°C)	7.86T ext. ref 2 (°C)	24.80length (m)	temperature (°C)	Stokes	anti-Stokes-747.200	-200.000	0.001	0.254
-746.185	-6.595	-0.176	0.121
-745.171	-105.520	-0.424	-0.097
-744.156	800.000	0.063	-0.187
-743.142	-200.000	-0.051	-0.281
-742.127	-119.762	-0.282	-0.049
-741.112	27.845	0.270	0.229
-740.098	22.108	0.038	0.032
-739.083	328.822	0.194	-0.377
-738.069	234.184	-0.127	0.211
-737.054	469.819	-0.032	-0.073
-736.039	-157.373	-0.335	0.020
-735.025	13.216	0.293	-0.229
-734.010	-64.610	-0.361	-0.148
-732.996	800.000	-0.030	0.086
-731.981	12.556	0.206	-0.160
-730.966	603.723	0.071	-0.178
-729.952	130.529	-0.166	-0.214
-728.937	-200.000	-0.022	-0.195
-727.923	568.913	-0.040	0.098
-726.908	310.565	0.092	-0.174
-725.894	303.820	-0.104	0.194
-724.879	6.032	-0.180	0.135
-723.864	-151.361	-0.196	0.015
-722.850	-86.866	-0.143	0.044
-721.835	198.363	0.118	-0.182
-720.821	253.670	-0.057	-0.098
-719.806	-90.435	-0.267	0.078
-718.791	-59.368	0.178	-0.077
-717.777	800.000	0.044	0.130
-716.762	-113.825	-0.201	-0.039
-715.748	-110.158	0.439	0.092
-714.733	800.000	-0.073	0.318
-713.718	-200.000	-0.021	-0.213
-712.704	-139.804	-0.569	-0.061
-711.689	504.749	0.118	0.276
-710.675	-144.885	-0.289	0.027
-709.660	73.024	-0.167	-0.176
-708.645	-24.016	-0.183	-0.110
-707.631	-47.012	0.253	-0.125
-706.616	-46.899	0.211	-0.104
-705.602	232.652	-0.218	-0.361
-704.587	-145.033	0.300	-0.028
-703.572	-200.000	-0.005	-0.091
-702.558	-200.000	-0.020	-0.148
-701.543	-109.033	0.077	0.017
-700.529	800.000	-0.090	0.264
-699.514	-75.464	-0.421	0.151
-698.499	92.271	0.094	0.107
-697.485	-200.000	-0.055	-0.272
-696.470	162.747	-0.233	-0.329
-695.456	-200.000	-0.002	0.052
-694.441	-58.605	0.256	0.112
-693.426	317.336	-0.016	-0.031
-692.412	-200.000	-0.039	-0.173
-691.397	34.657	-0.045	0.039
-690.383	247.039	-0.085	-0.145
-689.368	-131.894	0.001	0.000
-688.354	-71.516	-0.236	0.089
-687.339	38.374	-0.147	0.132
-686.324	800.000	0.044	-0.146
-685.310	800.000	-0.030	0.133
-684.295	436.538	0.189	-0.414
-683.281	-72.550	0.150	0.056
-682.266	570.595	0.042	0.103
-681.251	-200.000	-0.029	0.159
-680.237	-70.460	-0.485	0.185
-679.222	-62.783	-0.154	-0.064
-678.208	261.401	-0.111	0.193
-677.193	-108.386	-0.221	0.048
-676.178	800.000	-0.100	-0.363
-675.164	-128.517	-0.302	-0.043
-674.149	-126.825	0.045	0.007
-673.135	800.000	0.022	0.091
-672.120	-200.000	-0.006	0.027
-671.105	47.045	-0.125	0.117
-670.091	-200.000	0.017	-0.311
-669.076	-72.357	-0.323	-0.120
-668.062	-200.000	-0.048	0.330
-667.047	-84.153	-0.373	0.119
-666.032	310.056	0.056	-0.105
-665.018	-81.528	-0.211	0.070
-664.003	-61.260	0.080	0.034
-662.989	31.932	0.183	0.159
-661.974	-200.000	-0.023	-0.132
-660.959	800.000	-0.030	-0.107
-659.945	58.359	-0.241	-0.238
-658.930	-188.638	0.285	-0.004
-657.916	-48.548	0.179	-0.087
-656.901	-200.000	-0.036	0.186
-655.886	47.101	-0.172	0.161
-654.872	639.122	-0.066	-0.168
-653.857	-200.000	-0.041	-0.327
-652.843	358.827	-0.041	-0.083
-651.828	65.152	0.273	0.278
-650.814	89.796	-0.319	-0.358
-649.799	-66.988	-0.209	-0.083
-648.784	-200.000	-0.035	-0.328
-647.770	-71.572	-0.207	0.078
-646.755	105.044	0.053	-0.063
-645.741	-84.200	0.164	0.052
-644.726	-200.000	0.027	0.126
-643.711	21.617	0.185	-0.151
-642.697	118.601	-0.062	0.076
-641.682	-108.460	0.142	0.031
-640.668	-68.878	-0.496	0.193
-639.653	76.454	-0.145	0.155
-638.638	352.247	0.247	-0.492
-637.624	151.361	-0.092	-0.126
-636.609	-200.000	-0.051	0.288
-635.595	-200.000	0.012	0.087
-634.580	200.621	-0.104	0.161
-633.565	-123.713	0.233	-0.037
-632.551	27.525	0.137	0.116
-631.536	190.441	-0.094	0.142
-630.522	640.146	0.059	0.150
-629.507	-0.397	0.175	-0.125
-628.492	117.012	-0.261	-0.322
-627.478	-147.237	-0.343	0.029
-626.463	120.978	0.084	0.105
-625.449	193.302	0.060	0.091
-624.434	70.846	-0.165	-0.172
-623.419	4.148	-0.048	0.036
-622.405	-60.143	-0.053	-0.023
-621.390	310.032	-0.076	0.143
-620.376	800.000	-0.019	-0.070
-619.361	2.808	-0.117	0.085
-618.346	-146.776	-0.350	0.030
-617.332	800.000	-0.062	0.254
-616.317	94.343	0.300	0.342
-615.303	86.782	0.251	-0.278
-614.288	34.661	-0.188	-0.165
-613.273	39.351	0.197	-0.177
-612.259	484.199	0.111	-0.254
-611.244	800.000	0.109	0.364
-610.230	-200.000	-0.027	-0.429
-609.215	-11.653	0.212	-0.140
-608.201	749.845	0.057	0.155
-607.186	56.271	0.120	0.117
-606.171	330.727	0.159	-0.307
-605.157	800.000	-0.063	-0.192
-604.142	178.776	-0.200	-0.294
-603.128	-80.687	-0.267	0.089
-602.113	-77.100	-0.243	-0.085
-601.098	800.000	0.020	0.071
-600.084	233.050	-0.141	0.232
-599.069	151.228	0.068	-0.093
-598.055	56.933	0.107	-0.105
-597.040	-64.472	0.280	0.114
-596.025	0.925	0.038	-0.027
-595.011	285.233	-0.111	0.201
-593.996	150.780	-0.075	0.102
-592.982	314.640	-0.067	-0.126
-591.967	800.000	-0.055	-0.194
-590.952	800.000	0.083	-0.326
-589.938	-70.579	0.058	0.022
-588.923	447.964	0.101	0.222
-587.909	149.484	0.158	0.215
-586.894	-54.774	-0.202	-0.092
-585.879	625.008	-0.038	-0.097
-584.865	-3.377	-0.119	0.083
-583.850	77.426	0.084	-0.090
-582.836	56.556	-0.207	0.202
-581.821	-200.000	0.029	-0.177
-580.806	79.035	0.157	-0.169
-579.792	-159.604	0.073	0.004
-578.777	800.000	-0.091	-0.369
-577.763	800.000	0.113	0.361
-576.748	-200.000	0.002	0.255
-575.733	139.136	0.020	0.026
-574.719	62.615	-0.349	0.350
-573.704	363.255	-0.189	0.381
-572.690	-76.291	0.136	0.048
-571.675	-66.266	0.148	0.059
-570.661	-137.789	0.262	0.029
-569.646	-200.000	0.005	0.114
-568.631	243.759	-0.214	-0.359
-567.617	-162.856	0.156	0.008
-566.602	172.739	0.062	0.089
-565.588	-26.700	-0.142	0.083
-564.573	800.000	-0.034	-0.107
-563.558	561.059	0.084	0.203
-562.544	-113.120	0.284	0.056
-561.529	-168.279	0.276	-0.011
-560.515	-12.703	-0.184	-0.120
-559.500	137.854	0.064	0.084
-558.485	-48.009	-0.128	0.062
-557.471	800.000	-0.052	-0.177
-556.456	249.649	0.144	-0.244
-555.442	-154.766	0.182	0.012
-554.427	468.083	-0.098	-0.219
-553.412	-14.422	0.218	0.140
-552.398	-133.176	0.097	-0.012
-551.383	82.490	0.245	-0.266
-550.369	-75.756	0.186	-0.066
-549.354	469.743	-0.094	-0.211
-548.339	154.921	-0.210	-0.289
-547.325	-91.309	0.084	-0.024
-546.310	-200.000	-0.036	-0.258
-545.296	800.000	0.057	0.204
-544.281	304.642	0.066	-0.123
-543.266	173.556	-0.188	0.271
-542.252	421.427	-0.090	0.193
-541.237	-75.736	-0.417	0.148
-540.223	165.652	0.221	0.313
-539.208	-200.000	0.031	0.281
-538.193	362.366	-0.102	0.204
-537.179	86.259	-0.116	0.128
-536.164	263.765	-0.029	-0.050
-535.150	-2.839	-0.341	0.238
-534.135	296.047	0.217	0.398
-533.121	9.542	0.153	0.116
-532.106	347.868	-0.067	-0.132
-531.091	211.712	0.093	-0.147
-530.077	-181.863	0.104	0.002
-529.062	6.901	0.187	0.139
-528.048	-200.000	-0.040	0.449
-527.033	-48.517	0.334	0.161
-526.018	-108.029	-0.309	-0.067
-525.004	-171.886	0.113	-0.004
-523.989	-200.000	-0.014	0.487
-522.975	-113.745	-0.225	0.044
-521.960	141.144	-0.045	0.060
-520.945	-200.000	-0.014	-0.252
-519.931	113.504	-0.153	0.186
-518.916	27.298	0.097	-0.081
-517.902	-102.332	-0.488	-0.117
-516.887	33.908	0.102	-0.089
-515.872	-200.000	0.022	0.107
-514.858	-53.671	0.130	0.059
-513.843	-10.874	-0.101	-0.067
-512.829	-200.000	-0.030	-0.191
-511.814	84.954	-0.296	0.325
-510.799	-3.274	0.151	-0.105
-509.785	-83.947	0.301	-0.096
-508.770	147.727	0.153	-0.206
-507.756	800.000	0.020	0.084
-506.741	176.780	0.077	-0.113
-505.726	-71.210	0.030	0.011
-504.712	800.000	0.068	0.271
-503.697	-83.098	-0.354	0.114
-502.683	-84.713	-0.076	-0.024
-501.668	-200.000	0.022	0.339
-500.653	295.974	-0.006	-0.010
-499.639	-72.634	-0.175	-0.065
-498.624	-49.042	0.174	0.083
-497.610	316.579	-0.107	0.202
-496.595	156.027	0.081	-0.111
-495.581	423.049	0.077	0.166
-494.566	675.411	-0.152	0.394
-493.551	29.075	-0.251	-0.212
-492.537	-71.716	-0.207	-0.077
-491.522	-95.587	0.092	0.025
-490.508	-104.399	0.436	-0.101
-489.493	-200.000	-0.084	-0.410
-488.478	761.397	-0.098	-0.266
-487.464	-200.000	-0.050	0.344
-486.449	165.996	0.129	-0.182
-485.435	354.619	0.075	-0.148
-484.420	-200.000	-0.021	-0.174
-483.405	153.887	0.046	0.063
-482.391	290.652	-0.070	0.127
-481.376	-200.000	-0.031	-0.190
-480.362	32.920	0.216	0.187
-479.347	-132.721	0.132	-0.017
-478.332	-63.049	-0.133	-0.055
-477.318	37.360	0.157	-0.139
-476.303	-154.771	0.241	0.016
-475.289	-118.909	-0.279	0.049
-474.274	-200.000	-0.084	0.396
-473.259	-200.000	0.006	-0.201
-472.245	-200.000	0.005	-0.201
-471.230	295.892	-0.020	-0.036
-470.216	-200.000	0.059	-0.353
-469.201	-200.000	0.020	-0.157
-468.186	-111.963	0.296	-0.060
-467.172	31.085	0.356	0.305
-466.157	-52.831	0.196	0.090
-465.143	-200.000	-0.033	-0.177
-464.128	360.576	0.072	0.145
-463.113	-110.359	-0.151	0.031
-462.099	-132.893	-0.331	0.042
-461.084	-75.186	-0.071	-0.025
-460.070	524.809	-0.032	0.076
-459.055	-113.187	-0.098	-0.019
-458.040	-32.215	0.342	-0.190
-457.026	-124.479	-0.058	-0.009
-456.011	57.354	0.322	-0.314
-454.997	-200.000	0.025	0.114
-453.982	-53.147	-0.344	-0.158
-452.968	432.212	-0.092	-0.200
-451.953	-87.922	0.339	-0.102
-450.938	-44.703	0.331	0.165
-449.924	143.123	0.087	-0.115
-448.909	-89.555	-0.145	-0.043
-447.895	-200.000	0.001	-0.013
-446.880	800.000	0.040	-0.115
-445.865	-61.429	-0.109	0.046
-444.851	-200.000	-0.021	-0.221
-443.836	-70.243	0.093	-0.035
-442.822	-200.000	0.005	-0.166
-441.807	-106.352	-0.375	-0.084
-440.792	-31.854	0.142	-0.080
-439.778	-152.945	-0.057	-0.004
-438.763	40.622	0.145	-0.130
-437.749	-96.509	-0.101	-0.027
-436.734	421.458	0.054	0.116
-435.719	-200.000	-0.021	0.345
-434.705	-121.257	-0.133	-0.022
-433.690	800.000	-0.058	-0.208
-432.676	83.788	-0.155	0.169
-431.661	-29.018	0.177	-0.101
-430.646	-54.006	0.199	-0.091
-429.632	-200.000	-0.004	-0.058
-428.617	-90.522	-0.341	-0.098
-427.603	40.796	-0.268	0.241
-426.588	-200.000	0.034	-0.346
-425.573	-3.180	-0.034	-0.023
-424.559	-27.396	-0.291	-0.169
-423.544	-89.554	-0.038	-0.011
-422.530	-169.117	0.358	0.013
-421.515	-67.776	-0.233	0.091
-420.500	-200.000	-0.004	0.122
-419.486	37.359	-0.140	0.123
-418.471	2.124	-0.046	-0.033
-417.457	-75.124	-0.076	0.027
-416.442	-156.182	-0.146	-0.009
-415.428	29.659	0.199	0.169
-414.413	-11.590	-0.021	0.014
-413.398	166.871	0.032	-0.045
-412.384	-33.414	0.354	0.195
-411.369	-200.000	0.011	-0.151
-410.355	609.684	-0.088	-0.220
-409.340	-200.000	0.013	0.202
-408.325	-200.000	0.044	-0.238
-407.311	291.157	-0.114	-0.206
-406.296	440.098	-0.071	-0.155
-405.282	354.810	0.118	-0.233
-404.267	790.863	0.141	0.386
-403.252	571.291	0.119	0.288
-402.238	743.205	-0.066	0.176
-401.223	-3.857	-0.102	-0.070
-400.209	-132.720	0.045	-0.006
-399.194	-65.801	0.050	-0.020
-398.179	12.140	-0.094	-0.072
-397.165	-127.470	-0.339	0.049
-396.150	293.732	0.039	-0.071
-395.136	-200.000	0.022	-0.248
-394.121	20.235	-0.296	-0.238
-393.106	-51.993	-0.320	-0.148
-392.092	-95.161	0.350	0.094
-391.077	-52.429	-0.248	0.114
-390.063	170.092	0.084	0.120
-389.048	-200.000	0.018	-0.113
-388.033	71.169	0.127	-0.131
-387.019	-67.185	0.353	0.138
-386.004	-200.000	-0.041	0.256
-384.990	-200.000	-0.003	0.353
-383.975	95.244	0.074	-0.083
-382.960	-39.110	-0.302	0.158
-381.946	-200.000	0.028	-0.354
-380.931	-55.521	0.248	-0.111
-379.917	-188.686	-0.392	0.005
-378.902	-200.000	0.020	0.103
-377.888	46.280	-0.198	-0.182
-376.873	76.720	-0.174	0.184
-375.858	-43.059	-0.053	0.027
-374.844	276.119	-0.169	-0.298
-373.829	369.500	0.148	0.298
-372.815	4.552	-0.140	-0.102
-371.800	119.441	-0.189	0.232
-370.785	-100.445	0.334	-0.082
-369.771	-27.847	0.162	0.093
-368.756	36.793	-0.067	-0.058
-367.742	-65.848	0.313	-0.125
-366.727	73.601	0.040	0.042
-365.712	-40.845	0.266	0.137
-364.698	-49.262	-0.285	-0.135
-363.683	377.930	-0.137	-0.279
-362.669	800.000	-0.046	0.145
-361.654	-58.578	-0.361	-0.156
-360.639	332.781	-0.042	-0.080
-359.625	-200.000	-0.013	0.094
-358.610	233.329	0.169	0.276
-357.596	241.534	-0.033	-0.054
-356.581	-95.561	-0.207	-0.055
-355.566	-82.141	0.352	0.114
-354.552	-200.000	0.005	-0.077
-353.537	248.280	-0.024	-0.040
-352.523	-200.000	0.294	0.000
-351.508	-160.471	-0.213	0.011
-350.493	56.712	-0.197	-0.190
-349.479	-108.699	-0.117	0.025
-348.464	514.610	-0.022	-0.051
-347.450	-58.540	0.018	-0.008
-346.435	-200.000	-0.041	0.234
-345.420	284.425	-0.137	0.245
-344.406	-91.218	-0.182	-0.052
-343.391	412.091	0.035	-0.073
-342.377	-47.765	0.045	-0.022
-341.362	-59.535	0.181	0.077
-340.348	89.374	-0.199	0.221
-339.333	431.942	-0.136	-0.293
-338.318	-121.423	-0.317	-0.052
-337.304	-48.568	0.213	-0.102
-336.289	-51.632	-0.197	0.091
-335.275	800.000	-0.073	0.227
-334.260	379.346	0.120	0.244
-333.245	-123.148	-0.330	0.052
-332.231	423.057	0.088	0.189
-331.216	24.577	0.177	0.146
-330.202	-200.000	-0.019	0.151
-329.187	-57.468	0.123	-0.054
-328.172	157.174	-0.062	0.085
-327.158	13.234	-0.145	0.111
-326.143	-121.621	0.173	0.029
-325.129	800.000	-0.113	-0.393
-324.114	-200.000	-0.025	-0.176
-323.099	-200.000	0.029	-0.212
-322.085	29.658	-0.038	-0.032
-321.070	-76.638	-0.379	0.132
-320.056	-99.037	0.303	0.076
-319.041	800.000	-0.016	0.061
-318.026	725.912	0.016	0.042
-317.012	-104.145	0.272	0.063
-315.997	-12.835	-0.206	-0.133
-314.983	563.971	-0.098	0.235
-313.968	800.000	-0.076	0.283
-312.953	228.739	0.079	-0.128
-311.939	-126.563	-0.100	-0.015
-310.924	-116.222	0.385	0.071
-309.910	-137.989	0.404	0.045
-308.895	-25.371	-0.156	-0.091
-307.880	-197.158	0.168	0.001
-306.866	529.432	-0.044	0.104
-305.851	559.723	0.156	0.373
-304.837	90.785	0.024	0.026
-303.822	-200.000	-0.055	-0.429
-302.807	252.365	0.137	0.232
-301.793	45.351	0.051	-0.046
-300.778	150.783	0.287	0.386
-299.764	168.388	-0.175	-0.247
-298.749	171.674	0.027	-0.039
-297.735	-54.269	-0.137	0.062
-296.720	-129.187	0.236	0.033
-295.705	219.463	-0.134	-0.212
-294.691	-26.603	-0.183	0.107
-293.676	-34.539	-0.220	-0.120
-292.662	-8.597	-0.170	0.113
-291.647	-77.876	0.299	-0.102
-290.632	326.977	-0.067	0.127
-289.618	78.294	0.181	0.192
-288.603	-200.000	0.026	0.271
-287.589	-101.002	0.181	0.044
-286.574	-75.178	-0.169	0.060
-285.559	-173.931	0.060	-0.002
-284.545	-200.000	0.075	-0.337
-283.530	-95.750	0.194	-0.051
-282.516	-169.762	-0.102	-0.004
-281.501	218.162	-0.283	0.447
-280.486	167.590	-0.103	-0.144
-279.472	800.000	-0.035	0.129
-278.457	25.919	-0.110	0.091
-277.443	-200.000	0.047	-0.306
-276.428	88.827	0.090	-0.100
-275.413	99.819	-0.144	-0.166
-274.399	-200.000	-0.020	0.093
-273.384	-7.457	-0.165	-0.111
-272.370	210.388	0.061	0.094
-271.355	-200.000	-0.033	0.314
-270.340	21.072	0.299	0.240
-269.326	800.000	0.009	0.033
-268.311	-83.214	0.150	-0.048
-267.297	59.750	0.064	0.063
-266.282	800.000	-0.062	-0.180
-265.267	102.611	0.357	-0.413
-264.253	-200.000	-0.024	-0.306
-263.238	-170.050	-0.211	0.007
-262.224	-65.723	0.230	-0.091
-261.209	-200.000	-0.019	-0.240
-260.195	-57.386	-0.224	0.097
-259.180	-200.000	0.037	0.387
-258.165	33.350	0.081	0.070
-257.151	283.141	-0.135	-0.239
-256.136	-78.441	0.114	-0.039
-255.122	800.000	-0.038	0.131
-254.107	170.740	0.132	-0.187
-253.092	-105.164	0.184	-0.042
-252.078	-118.106	-0.115	0.020
-251.063	121.720	-0.015	-0.019
-250.049	800.000	-0.035	-0.146
-249.034	800.000	-0.028	-0.076
-248.019	800.000	0.064	-0.203
-247.005	-200.000	0.035	0.163
-245.990	-200.000	-0.003	-0.243
-244.976	84.026	0.149	-0.161
-243.961	-94.229	0.431	-0.117
-242.946	221.099	-0.171	-0.272
-241.932	-200.000	0.003	0.035
-240.917	229.594	-0.128	0.206
-239.903	-200.000	0.001	0.189
-238.888	800.000	-0.019	-0.053
-237.873	199.026	-0.062	0.094
-236.859	-0.722	0.220	0.154
-235.844	84.684	-0.134	-0.145
-234.830	339.185	0.102	0.196
-233.815	-77.359	-0.135	-0.046
-232.800	271.286	-0.067	0.116
-231.786	472.690	-0.091	0.203
-230.771	-86.513	-0.102	0.031
-229.757	-20.168	-0.140	0.086
-228.742	-50.924	-0.045	-0.021
-227.727	75.483	-0.202	0.211
-226.713	-76.938	0.055	-0.019
-225.698	-26.040	0.297	0.173
-224.684	151.681	-0.144	-0.194
-223.669	-156.242	0.359	0.022
-222.655	-81.354	0.343	0.112
-221.640	-200.000	0.032	-0.239
-220.625	133.148	-0.163	0.209
-219.611	-200.000	0.013	-0.291
-218.596	800.000	0.054	-0.230
-217.582	-200.000	-0.018	0.127
-216.567	694.842	0.094	0.243
-215.552	43.273	-0.029	0.026
-214.538	75.749	0.303	-0.317
-213.523	126.697	-0.163	-0.204
-212.509	3.190	-0.060	-0.043
-211.494	-200.000	-0.026	-0.322
-210.479	-104.730	-0.383	0.087
-209.465	-159.129	0.124	-0.007
-208.450	6.440	0.191	-0.140
-207.436	-200.000	0.226	0.001
-206.421	-77.230	-0.310	0.106
-205.406	-92.358	-0.201	0.056
-204.392	265.997	0.247	0.426
-203.377	423.912	0.082	0.174
-202.363	786.188	-0.074	0.200
-201.348	-200.000	0.063	0.539
-200.333	263.933	0.067	0.116
-199.319	-23.999	0.179	-0.106
-198.304	-68.905	0.270	0.103
-197.290	-200.000	-0.013	-0.225
-196.275	259.042	0.096	-0.163
-195.260	565.412	-0.060	-0.145
-194.246	-41.257	-0.162	0.083
-193.231	-113.697	-0.279	-0.054
-192.217	457.074	0.072	-0.159
-191.202	-37.578	0.103	-0.054
-190.187	215.874	0.064	-0.100
-189.173	108.542	0.259	0.305
-188.158	-59.270	0.046	0.020
-187.144	97.491	0.374	-0.424
-186.129	-65.275	-0.382	0.152
-185.114	-95.711	-0.026	0.007
-184.100	-200.000	-0.021	-0.169
-183.085	-53.365	-0.095	0.043
-182.071	-74.298	-0.187	-0.067
-181.056	130.112	-0.116	0.146
-180.042	-200.000	0.032	-0.231
-179.027	-102.122	-0.199	0.047
-178.012	55.813	-0.073	-0.070
-176.998	800.000	-0.043	-0.125
-175.983	-200.000	-0.010	-0.177
-174.969	182.176	0.139	-0.203
-173.954	334.026	0.230	-0.439
-172.939	-55.090	0.267	0.119
-171.925	800.000	0.084	0.229
-170.910	-200.000	-0.003	-0.100
-169.896	-96.910	0.061	-0.016
-168.881	325.884	0.037	-0.071
-167.866	-82.992	-0.170	0.054
-166.852	50.019	0.183	0.170
-165.837	-200.000	-0.030	-0.166
-164.823	-102.438	0.280	-0.066
-163.808	-67.074	0.180	-0.070
-162.793	-127.374	0.181	0.026
-161.779	57.418	-0.125	0.121
-160.764	167.769	-0.132	-0.185
-159.750	638.698	-0.155	0.390
-158.735	-200.000	0.071	-0.460
-157.720	800.000	-0.156	-0.473
-156.706	22.979	-0.246	0.199
-155.691	-120.824	0.244	0.041
-154.677	-93.407	-0.319	0.087
-153.662	292.897	-0.071	0.128
-152.647	-200.000	-0.023	0.113
-151.633	90.140	-0.090	0.099
-150.618	-17.679	-0.221	0.137
-149.604	-66.151	-0.337	0.132
-148.589	8.889	-0.055	0.041
-147.574	-38.337	-0.125	0.066
-146.560	-192.855	0.160	-0.001
-145.545	-200.000	-0.004	-0.222
-144.531	-79.869	-0.172	0.057
-143.516	-200.000	-0.036	0.214
-142.502	-120.887	0.224	0.037
-141.487	338.696	0.038	-0.074
-140.472	-200.000	0.015	0.088
-139.458	20.122	0.238	-0.189
-138.443	169.436	0.040	0.056
-137.429	-36.072	-0.218	0.116
-136.414	-21.804	-0.220	0.132
-135.399	-120.434	-0.168	0.028
-134.385	420.382	0.057	-0.121
-133.370	62.617	0.118	-0.116
-132.356	74.783	-0.120	-0.125
-131.341	-47.167	0.220	-0.106
-130.326	648.859	0.048	-0.122
-129.312	-13.617	0.417	-0.266
-128.297	785.414	0.064	0.173
-127.283	-158.065	0.192	-0.011
-126.268	656.657	-0.138	0.349
-125.253	800.000	0.085	-0.320
-124.239	800.000	-0.044	0.128
-123.224	-200.000	-0.049	0.420
-122.210	237.752	0.083	-0.136
