DTS Sentinel unit serial number:	SN413079Multiplexer serial number:	ORYXHardware model number:	OX4-SRSoftware version number:	ORYX F/W v4.00 Oryx Data Collector v3.7.2.0data status	okinstallation	princeton_trtdifferential loss correction	single-endedforward channel	channel 3reverse channel	N/Adate	2019/09/18time	00:48:35forward acquisition time	60.00reverse acquisition time	0.00gamma	496.2192k internal	0.2344k external	0.2344temperature offset calibration	0.9948default loss term (dB/km)	0.3790temperature slope calibration	1.0000multiplexer offset coefficient	1.0000multiplexer slope coefficient	1.0000fibre end	0.00T internal ref (°C)	23.41T ext. ref 1 (°C)	0.17T ext. ref 2 (°C)	17.05length (m)	temperature (°C)	Stokes	anti-Stokes-747.200	412.944	0.065	0.138
-746.185	7.439	0.078	0.058
-745.171	800.000	-0.091	-0.294
-744.156	78.535	0.071	0.076
-743.142	159.016	-0.185	-0.258
-742.127	-200.000	0.020	0.093
-741.112	-65.625	-0.174	-0.070
-740.098	800.000	0.181	0.523
-739.083	-138.605	-0.215	0.024
-738.069	109.282	-0.059	0.071
-737.054	49.167	0.358	-0.337
-736.039	-160.679	0.304	0.016
-735.025	-57.673	-0.129	-0.057
-734.010	-95.408	-0.345	0.093
-732.996	800.000	0.044	-0.132
-731.981	43.494	-0.190	0.174
-730.966	-12.236	-0.429	-0.281
-729.952	12.614	-0.112	-0.086
-728.937	-93.804	0.233	-0.064
-727.923	800.000	-0.026	0.077
-726.908	-200.000	0.001	-0.328
-725.894	152.681	0.053	0.073
-724.879	-101.667	-0.361	-0.087
-723.864	-78.724	0.179	-0.061
-722.850	458.588	-0.076	-0.169
-721.835	-10.426	0.236	0.157
-720.821	2.064	-0.178	-0.128
-719.806	-115.233	-0.204	0.039
-718.791	36.198	0.293	-0.258
-717.777	-67.388	0.080	0.032
-716.762	-200.000	-0.016	-0.199
-715.748	800.000	0.035	0.153
-714.733	-152.866	-0.170	0.012
-713.718	73.425	0.137	-0.143
-712.704	-79.401	-0.084	-0.029
-711.689	324.052	-0.116	-0.222
-710.675	-83.530	-0.277	0.089
-709.660	38.817	-0.150	0.134
-708.645	800.000	-0.023	-0.083
-707.631	-172.123	-0.208	-0.007
-706.616	491.942	0.107	-0.244
-705.602	-28.933	-0.335	0.192
-704.587	-49.979	0.094	-0.045
-703.572	-73.712	-0.275	-0.100
-702.558	-74.343	-0.166	-0.060
-701.543	-167.187	-0.289	0.012
-700.529	148.263	0.056	0.076
-699.514	-200.000	-0.059	-0.285
-698.499	-136.743	0.227	-0.026
-697.485	-2.035	-0.181	0.127
-696.470	-200.000	0.024	-0.282
-695.456	-164.339	-0.098	-0.004
-694.441	51.805	-0.185	-0.176
-693.426	-9.867	-0.218	0.145
-692.412	592.896	-0.161	-0.397
-691.397	-200.000	0.021	-0.182
-690.383	-200.000	-0.047	-0.272
-689.368	-200.000	0.050	-0.291
-688.354	-43.613	-0.148	0.074
-687.339	74.560	-0.052	0.055
-686.324	228.547	0.009	0.015
-685.310	-200.000	0.024	0.203
-684.295	-156.008	0.092	-0.006
-683.281	-130.190	0.284	-0.039
-682.266	800.000	0.056	-0.189
-681.251	-101.459	0.405	-0.098
-680.237	228.663	-0.036	-0.059
-679.222	-7.398	-0.155	-0.105
-678.208	-48.944	0.066	0.031
-677.193	-66.742	-0.106	-0.042
-676.178	-200.000	-0.035	-0.630
-675.164	57.745	0.223	0.218
-674.149	178.276	-0.187	-0.273
-673.135	-146.215	-0.406	0.036
-672.120	-25.675	0.270	0.159
-671.105	-124.633	0.080	-0.012
-670.091	-163.734	0.247	-0.012
-669.076	-182.377	0.280	0.005
-668.062	128.692	0.211	-0.268
-667.047	800.000	0.105	-0.348
-666.032	-29.538	0.299	-0.171
-665.018	195.882	0.103	0.157
-664.003	-200.000	-0.029	0.447
-662.989	-200.000	0.082	-0.377
-661.974	61.889	-0.139	-0.139
-660.959	-200.000	0.003	0.313
-659.945	229.010	-0.041	0.066
-658.930	114.001	0.068	-0.082
-657.916	-105.893	0.243	0.055
-656.901	-166.223	0.453	0.019
-655.886	318.061	0.053	0.101
-654.872	800.000	-0.038	-0.140
-653.857	800.000	-0.088	-0.374
-652.843	-121.873	0.259	0.043
-651.828	190.963	-0.107	0.160
-650.814	-18.344	-0.282	0.176
-649.799	-200.000	0.049	0.254
-648.784	125.520	-0.166	0.209
-647.770	-23.640	0.190	-0.113
-646.755	-200.000	-0.026	-0.299
-645.741	523.435	-0.024	0.057
-644.726	-200.000	-0.078	-0.358
-643.711	-174.176	0.246	-0.007
-642.697	161.798	0.128	0.179
-641.682	-47.117	0.060	0.029
-640.668	522.056	0.147	0.344
-639.653	-200.000	-0.018	0.313
-638.638	-116.277	-0.345	-0.064
-637.624	-95.920	0.312	0.083
-636.609	0.119	-0.097	0.069
-635.595	-200.000	0.024	-0.189
-634.580	-132.369	0.277	-0.036
-633.565	24.480	-0.091	-0.075
-632.551	-118.382	-0.207	-0.037
-631.536	-69.126	0.064	-0.025
-630.522	-200.000	0.026	-0.201
-629.507	379.903	0.173	0.353
-628.492	125.721	-0.129	0.162
-627.478	129.777	-0.091	0.116
-626.463	-52.422	-0.459	-0.212
-625.449	406.223	-0.086	-0.181
-624.434	169.709	-0.120	-0.171
-623.419	-75.628	-0.268	0.095
-622.405	-94.175	0.119	-0.033
-621.390	627.342	0.108	-0.272
-620.376	427.049	-0.175	-0.376
-619.361	203.321	0.179	0.275
-618.346	800.000	0.174	-0.625
-617.332	201.562	-0.067	-0.103
-616.317	-200.000	-0.231	-0.000
-615.303	-127.137	-0.238	0.035
-614.288	40.989	0.129	-0.116
-613.273	22.014	-0.287	-0.233
-612.259	112.598	0.056	-0.068
-611.244	22.165	-0.215	-0.174
-610.230	44.150	-0.157	-0.143
-609.215	-146.539	0.086	-0.007
-608.201	-45.922	-0.191	0.094
-607.186	-200.000	-0.049	-0.221
-606.171	-89.802	-0.185	-0.054
-605.157	219.337	0.140	-0.223
-604.142	16.397	-0.077	-0.060
-603.128	-117.089	-0.209	0.038
-602.113	661.817	0.053	-0.135
-601.098	-200.000	-0.009	-0.413
-600.084	74.081	-0.142	0.149
-599.069	-200.000	0.025	0.252
-598.055	179.113	-0.092	-0.134
-597.040	800.000	0.063	0.260
-596.025	699.150	-0.061	-0.160
-595.011	-134.772	-0.251	-0.030
-593.996	-83.609	-0.161	0.051
-592.982	-186.294	0.124	0.002
-591.967	-4.689	-0.235	0.161
-590.952	800.000	-0.114	-0.433
-589.938	-140.560	-0.127	-0.013
-588.923	47.352	-0.119	0.110
-587.909	546.151	0.114	-0.271
-586.894	-200.000	-0.004	0.183
-585.879	800.000	0.029	-0.084
-584.865	-24.406	0.093	0.055
-583.850	208.237	0.259	0.402
-582.836	191.285	0.111	0.167
-581.821	-200.000	0.004	0.259
-580.806	-196.335	0.131	0.001
-579.792	-140.905	-0.097	0.010
-578.777	-50.339	0.266	0.125
-577.763	800.000	0.074	0.229
-576.748	-174.651	-0.110	-0.003
-575.733	156.259	0.064	0.088
-574.719	452.065	-0.118	-0.259
-573.704	217.952	-0.019	-0.030
-572.690	-165.071	-0.202	0.009
-571.675	200.654	0.167	0.255
-570.661	800.000	-0.098	0.372
-569.646	35.004	-0.104	0.090
-568.631	-200.000	-0.021	0.130
-567.617	33.324	-0.043	-0.037
-566.602	-200.000	-0.015	-0.122
-565.588	-105.749	0.287	0.064
-564.573	239.617	-0.115	-0.191
-563.558	12.066	0.127	0.097
-562.544	-200.000	0.017	0.144
-561.529	-107.188	-0.128	-0.028
-560.515	20.824	0.109	-0.088
-559.500	141.998	-0.144	-0.189
-558.485	719.763	-0.108	-0.284
-557.471	49.392	-0.212	0.198
-556.456	-200.000	-0.004	-0.111
-555.442	19.328	-0.016	0.013
-554.427	-200.000	0.025	0.113
-553.412	87.629	0.065	0.072
-552.398	-200.000	0.030	0.188
-551.383	511.335	0.108	0.249
-550.369	-200.000	0.064	0.326
-549.354	-200.000	-0.033	0.178
-548.339	-15.263	-0.252	-0.160
-547.325	-200.000	-0.020	0.107
-546.310	-72.274	-0.375	0.138
-545.296	-200.000	0.029	-0.344
-544.281	-36.908	0.212	0.113
-543.266	-173.154	-0.355	0.011
-542.252	-200.000	0.001	0.165
-541.237	159.071	0.078	0.107
-540.223	-200.000	0.017	-0.212
-539.208	-141.783	0.158	0.016
-538.193	-84.929	0.171	0.053
-537.179	64.060	-0.047	0.047
-536.164	-75.314	0.212	-0.075
-535.150	236.137	-0.110	0.181
-534.135	75.734	0.197	-0.207
-533.121	206.320	0.116	-0.180
-532.106	800.000	0.011	-0.038
-531.091	-137.409	-0.334	0.038
-530.077	82.133	-0.016	0.017
-529.062	800.000	-0.019	0.054
-528.048	258.954	0.044	0.076
-527.033	-88.487	0.081	-0.024
-526.018	-39.282	-0.271	-0.141
-525.004	-73.439	0.277	0.101
-523.989	276.794	-0.119	0.210
-522.975	3.358	-0.326	-0.235
-521.960	-86.141	0.207	0.063
-520.945	-0.564	0.126	0.089
-519.931	-33.780	0.368	0.201
-518.916	-73.378	0.142	-0.052
-517.902	283.693	0.198	0.353
-516.887	-200.000	0.034	0.221
-515.872	160.185	-0.140	-0.194
-514.858	-136.185	-0.170	0.020
-513.843	-103.760	-0.095	-0.022
-512.829	-9.912	-0.219	-0.145
-511.814	203.046	-0.179	-0.274
-510.799	-200.000	-0.002	0.232
-509.785	174.992	0.248	0.356
-508.770	95.959	-0.265	0.300
-507.756	-110.706	-0.157	-0.032
-506.741	-28.656	-0.083	-0.047
-505.726	-54.459	0.297	-0.134
-504.712	76.138	-0.071	0.074
-503.697	7.886	0.368	-0.274
-502.683	800.000	0.007	0.022
-501.668	-53.677	-0.138	-0.063
-500.653	313.219	0.083	-0.154
-499.639	251.901	0.112	-0.188
-498.624	-148.706	-0.362	-0.029
-497.610	162.230	-0.120	-0.166
-496.595	800.000	0.095	-0.361
-495.581	-200.000	0.022	-0.364
-494.566	0.873	-0.093	-0.066
-493.551	178.517	-0.093	-0.135
-492.537	-96.448	0.180	0.047
-491.522	-200.000	-0.015	0.223
-490.508	-200.000	-0.010	0.216
-489.493	800.000	0.016	-0.048
-488.478	-200.000	0.001	0.084
-487.464	-83.281	0.303	-0.096
-486.449	800.000	-0.159	-0.595
-485.435	-107.979	-0.149	-0.032
-484.420	-7.274	-0.260	0.174
-483.405	371.630	-0.064	-0.128
-482.391	-2.495	-0.282	0.196
-481.376	-85.246	-0.072	0.022
-480.362	50.083	0.061	0.057
-479.347	-200.000	0.024	0.219
-478.332	-200.000	0.003	0.209
-477.318	45.045	-0.267	-0.244
-476.303	136.468	0.073	-0.095
-475.289	83.336	0.054	0.059
-474.274	-66.866	-0.134	0.052
-473.259	345.242	-0.015	0.029
-472.245	-116.587	-0.081	0.015
-471.230	132.235	-0.279	0.356
-470.216	-9.411	0.105	0.069
-469.201	800.000	0.046	0.132
-468.186	288.969	0.131	-0.235
-467.172	-47.061	0.115	0.056
-466.157	-200.000	0.041	-0.318
-465.143	117.562	-0.136	0.166
-464.128	55.624	0.142	-0.136
-463.113	327.007	0.022	0.042
-462.099	-73.644	0.120	-0.043
-461.084	663.918	0.080	-0.204
-460.070	-138.633	-0.367	-0.040
-459.055	199.968	0.180	-0.273
-458.040	22.953	-0.334	-0.271
-457.026	71.553	-0.125	0.128
-456.011	127.455	0.350	0.440
-454.997	278.246	0.117	-0.207
-453.982	-200.000	-0.022	0.423
-452.968	-88.610	0.071	-0.021
-451.953	-133.480	0.513	-0.064
-450.938	-92.447	-0.194	-0.054
-449.924	-200.000	-0.014	-0.117
-448.909	134.124	0.149	-0.190
-447.895	-62.143	-0.234	-0.096
-446.880	-200.000	0.008	0.052
-445.865	45.788	0.280	-0.256
-444.851	202.359	0.023	-0.036
-443.836	28.740	-0.285	-0.239
-442.822	-82.623	0.154	-0.049
-441.807	-135.780	-0.324	-0.038
-440.792	-25.458	0.253	0.148
-439.778	-200.000	0.000	-0.308
-438.763	689.932	0.098	0.253
-437.749	695.599	-0.038	-0.099
-436.734	241.237	-0.180	-0.298
-435.719	79.086	-0.259	-0.275
-434.705	284.178	-0.089	0.158
-433.690	3.469	0.289	-0.208
-432.676	-187.246	0.365	-0.005
-431.661	-43.245	0.153	-0.077
-430.646	-167.350	-0.164	-0.007
-429.632	-200.000	0.027	0.232
-428.617	800.000	-0.092	-0.352
-427.603	404.747	0.053	0.109
-426.588	60.814	0.218	0.213
-425.573	-96.905	-0.063	0.016
-424.559	-55.942	-0.331	0.146
-423.544	-145.795	0.175	0.015
-422.530	-139.372	-0.211	0.022
-421.515	508.938	0.117	0.268
-420.500	154.946	0.071	0.097
-419.486	800.000	0.055	0.186
-418.471	-200.000	-0.023	-0.272
-417.457	-38.711	0.194	0.101
-416.442	-38.790	-0.171	0.089
-415.428	-0.014	0.094	-0.066
-414.413	24.392	-0.214	0.174
-413.398	22.969	-0.199	-0.162
-412.384	-117.882	0.259	-0.046
-411.369	-200.000	0.017	-0.091
-410.355	-90.673	-0.072	0.020
-409.340	-16.090	-0.314	-0.197
-408.325	-6.768	-0.179	-0.120
-407.311	-125.389	0.417	-0.063
-406.296	-137.439	0.100	0.011
-405.282	79.284	-0.152	-0.161
-404.267	16.611	0.188	-0.147
-403.252	12.114	-0.123	0.093
-402.238	784.950	-0.234	0.634
-401.223	-150.732	-0.198	-0.015
-400.209	29.733	0.296	0.249
-399.194	-102.908	0.088	0.021
-398.179	-94.922	-0.207	0.055
-397.165	-40.247	0.215	-0.110
-396.150	260.703	0.167	-0.286
-395.136	-43.632	0.044	-0.022
-394.121	28.494	0.136	-0.113
-393.106	-140.179	-0.099	-0.010
-392.092	-200.000	-0.011	-0.142
-391.077	-14.099	-0.103	0.066
-390.063	-118.376	0.197	0.034
-389.048	438.626	0.071	0.153
-388.033	-58.358	0.286	-0.123
-387.019	135.694	-0.167	0.215
-386.004	-200.000	-0.015	-0.257
-384.990	584.180	-0.147	0.355
-383.975	209.789	0.057	-0.088
-382.960	520.780	-0.073	0.169
-381.946	-200.000	-0.015	-0.235
-380.931	-50.271	-0.367	0.171
-379.917	27.890	0.112	0.093
-378.902	76.852	0.159	-0.167
-377.888	-45.372	0.356	0.174
-376.873	-129.057	-0.123	-0.017
-375.858	20.324	-0.327	-0.261
-374.844	-69.864	0.078	-0.029
-373.829	800.000	0.062	-0.177
-372.815	-19.042	-0.062	-0.038
-371.800	-200.000	-0.043	0.329
-370.785	-170.059	0.185	0.007
-369.771	-66.826	0.070	0.027
-368.756	-39.588	-0.161	-0.083
-367.742	-46.566	0.295	-0.142
-366.727	-80.179	0.080	-0.026
-365.712	314.377	0.113	-0.210
-364.698	-200.000	0.012	-0.127
-363.683	-70.437	-0.211	0.079
-362.669	-188.930	0.339	-0.004
-361.654	-170.613	-0.100	-0.003
-360.639	-58.626	0.360	-0.154
-359.625	61.391	0.158	0.154
-358.610	27.077	-0.171	0.141
-357.596	59.779	0.292	-0.284
-356.581	-62.690	0.324	-0.132
-355.566	166.617	0.106	0.148
-354.552	39.425	-0.063	0.055
-353.537	-200.000	-0.023	0.154
-352.523	75.359	-0.164	-0.171
-351.508	-42.704	-0.299	0.150
-350.493	-200.000	0.007	-0.144
-349.479	12.402	0.200	0.152
-348.464	-13.291	0.366	0.234
-347.450	160.778	-0.080	-0.110
-346.435	-200.000	-0.019	0.108
-345.420	246.041	-0.240	0.399
-344.406	-76.798	0.021	-0.007
-343.391	-200.000	-0.027	-0.308
-342.377	23.088	0.046	0.037
-341.362	6.704	-0.033	-0.024
-340.348	-36.442	0.097	0.051
-339.333	-33.268	0.180	0.098
-338.318	-200.000	0.010	-0.314
-337.304	119.380	0.121	0.148
-336.289	514.748	0.079	-0.183
-335.275	800.000	-0.053	0.179
-334.260	-61.160	-0.294	-0.122
-333.245	-156.443	-0.276	0.017
-332.231	-200.000	0.005	0.075
-331.216	666.860	-0.080	-0.203
-330.202	-42.696	0.147	0.073
-329.187	111.891	0.172	-0.204
-328.172	800.000	0.091	-0.368
-327.158	-155.649	0.296	-0.019
-326.143	228.145	-0.165	0.264
-325.129	800.000	0.080	-0.301
-324.114	426.416	-0.067	-0.141
-323.099	-134.152	-0.259	0.031
-322.085	-81.670	-0.080	-0.026
-321.070	370.233	0.195	0.389
-320.056	-200.000	-0.051	0.224
-319.041	-12.697	-0.137	0.088
-318.026	-35.964	0.204	-0.109
-317.012	-200.000	-0.049	0.224
-315.997	24.418	0.272	0.221
-314.983	-28.544	-0.174	0.099
-313.968	-126.093	-0.277	-0.041
-312.953	12.003	0.142	-0.108
-311.939	-200.000	0.013	0.095
-310.924	-75.464	-0.211	-0.074
-309.910	19.973	0.174	0.138
-308.895	-200.000	-0.076	-0.433
-307.880	-64.561	-0.122	0.049
-306.866	-40.444	-0.069	0.035
-305.851	-200.000	-0.008	-0.051
-304.837	297.869	0.123	0.222
-303.822	-36.754	0.263	0.139
-302.807	-126.594	-0.164	0.024
-301.793	349.465	-0.086	-0.166
-300.778	-26.382	-0.237	0.137
-299.764	163.555	0.052	0.072
-298.749	-41.665	-0.148	-0.075
-297.735	175.122	-0.105	-0.150
-296.720	-161.057	-0.323	-0.017
-295.705	-200.000	0.052	-0.369
-294.691	-200.000	0.028	0.172
-293.676	39.558	0.206	0.182
-292.662	35.747	-0.131	0.113
-291.647	800.000	0.050	-0.180
-290.632	42.748	0.121	-0.108
-289.618	800.000	0.034	-0.110
-288.603	104.291	0.077	-0.089
-287.589	-71.012	-0.350	0.129
-286.574	-88.078	0.450	0.133
-285.559	724.309	0.048	0.126
-284.545	-66.837	-0.190	0.074
-283.530	350.030	0.088	-0.171
-282.516	-72.626	-0.100	0.036
-281.501	-185.057	-0.301	-0.005
-280.486	-111.306	-0.184	-0.037
-279.472	-200.000	-0.027	-0.189
-278.457	121.055	-0.111	0.136
-277.443	32.993	-0.069	-0.059
-276.428	-44.185	0.160	-0.079
-275.413	-55.263	0.139	0.061
-274.399	386.771	-0.133	0.270
-273.384	149.356	0.328	0.436
-272.370	-146.341	-0.211	0.018
-271.355	-138.829	-0.215	-0.023
-270.340	51.744	-0.165	0.154
-269.326	-86.680	0.157	0.047
-268.311	-97.840	0.278	0.071
-267.297	39.227	-0.073	0.064
-266.282	-130.053	-0.228	-0.031
-265.267	800.000	-0.040	-0.115
-264.253	-71.738	0.138	-0.050
-263.238	50.262	0.207	-0.192
-262.224	-40.356	0.280	-0.143
-261.209	117.134	0.282	0.340
-260.195	-43.581	-0.191	0.094
-259.180	-27.997	0.287	-0.163
-258.165	244.357	-0.155	-0.255
-257.151	-133.526	0.164	-0.020
-256.136	150.916	0.157	0.210
-255.122	153.699	0.111	0.149
-254.107	67.659	0.241	0.241
-253.092	-200.000	-0.002	0.208
-252.078	-149.961	0.074	0.006
-251.063	-200.000	-0.036	0.184
-250.049	512.982	-0.163	-0.374
-249.034	30.097	0.211	-0.177
-248.019	22.618	-0.306	0.245
-247.005	525.951	0.062	0.143
-245.990	-76.506	0.500	-0.172
-244.976	-90.491	0.296	0.084
-243.961	53.270	0.127	-0.120
-242.946	13.183	0.052	0.039
-241.932	95.686	0.318	0.357
-240.917	-71.292	-0.224	-0.082
-239.903	-189.156	-0.178	0.002
-238.888	800.000	0.074	-0.222
-237.873	52.816	0.060	-0.057
-236.859	240.992	0.053	-0.086
-235.844	188.132	0.206	-0.303
-234.830	541.428	0.089	0.207
-233.815	-82.584	-0.083	-0.026
-232.800	168.306	0.055	0.077
-231.786	270.552	0.037	0.064
-230.771	-75.303	0.139	0.049
-229.757	-1.884	0.131	-0.091
-228.742	-52.686	0.144	-0.065
-227.727	-30.076	-0.099	0.055
-226.713	-73.637	-0.141	0.050
-225.698	117.884	0.059	0.071
-224.684	199.701	0.055	-0.083
-223.669	23.118	-0.086	-0.069
-222.655	800.000	-0.043	-0.119
-221.640	-200.000	0.015	-0.297
-220.625	-97.663	0.493	0.125
-219.611	-42.806	-0.118	-0.059
-218.596	-83.312	0.348	0.109
-217.582	-200.000	0.014	-0.096
-216.567	-88.636	-0.214	0.062
-215.552	-200.000	0.008	0.305
-214.538	73.159	-0.185	-0.190
-213.523	-150.804	0.333	0.025
-212.509	750.217	-0.179	-0.472
-211.494	-19.974	0.050	-0.030
-210.479	91.508	0.173	0.191
-209.465	-65.234	-0.082	0.033
-208.450	-62.573	0.128	0.052
-207.436	-48.584	0.111	0.052
-206.421	-108.164	0.069	-0.015
-205.406	67.350	0.119	0.119
-204.392	800.000	0.132	0.385
-203.377	64.299	0.135	-0.133
-202.363	325.858	0.031	-0.058
-201.348	-125.524	-0.579	-0.086
-200.333	46.819	-0.383	0.349
-199.319	-2.741	-0.093	-0.064
-198.304	-130.696	0.343	0.045
-197.290	95.458	0.160	0.179
-196.275	800.000	0.079	-0.289
-195.260	-200.000	-0.031	0.251
-194.246	178.921	0.275	0.394
-193.231	204.563	0.045	-0.068
-192.217	-63.369	0.094	0.038
-191.202	-105.068	0.245	0.055
-190.187	-27.798	-0.125	0.071
-189.173	-41.531	-0.253	-0.127
-188.158	216.472	0.158	0.245
-187.144	-142.236	-0.228	0.022
-186.129	-7.602	0.196	0.129
-185.114	-195.971	-0.129	-0.001
-184.100	78.477	0.118	-0.123
-183.085	-91.932	-0.250	0.070
-182.071	36.815	-0.060	0.052
-181.056	-47.121	-0.177	0.084
-180.042	107.717	-0.121	-0.141
-179.027	800.000	0.082	-0.311
-178.012	-200.000	-0.021	0.195
-176.998	280.760	-0.122	0.214
-175.983	-200.000	-0.015	0.183
-174.969	-95.222	-0.166	-0.044
-173.954	800.000	0.037	0.111
-172.939	-200.000	0.049	0.248
-171.925	121.714	0.076	-0.093
-170.910	-158.500	-0.370	-0.021
-169.896	-200.000	0.015	-0.177
-168.881	-121.377	-0.094	-0.015
-167.866	800.000	-0.022	-0.085
-166.852	58.888	0.215	0.207
-165.837	30.572	-0.291	0.243
-164.823	-200.000	0.023	0.452
-163.808	600.831	-0.077	0.186
-162.793	-200.000	-0.036	-0.293
-161.779	-200.000	-0.008	-0.190
-160.764	178.336	-0.216	-0.308
-159.750	-200.000	-0.042	0.286
-158.735	-200.000	-0.027	-0.177
-157.720	-200.000	0.047	-0.334
-156.706	-200.000	-0.023	-0.102
-155.691	-116.482	-0.300	-0.054
-154.677	59.891	-0.099	-0.095
-153.662	800.000	0.030	0.097
-152.647	-2.539	0.311	-0.213
-151.633	17.456	-0.130	-0.101
-150.618	62.911	-0.102	-0.100
-149.604	146.971	-0.087	-0.114
-148.589	100.149	-0.115	-0.130
-147.574	-112.019	-0.179	0.035
-146.560	-160.721	0.283	-0.015
-145.545	-81.816	0.160	0.051
-144.531	425.915	-0.064	0.134
-143.516	70.809	-0.155	0.156
-142.502	344.615	-0.048	0.092
-141.487	-200.000	-0.004	0.064
-140.472	-6.249	0.245	0.163
-139.458	-118.750	-0.212	-0.037
-138.443	15.916	-0.024	-0.019
-137.429	442.286	0.143	-0.306
-136.414	-200.000	-0.011	0.345
-135.399	-48.102	-0.060	0.028
-134.385	232.258	0.115	0.185
-133.370	-200.000	-0.026	0.234
-132.356	28.191	0.194	0.160
-131.341	-105.595	-0.370	0.082
-130.326	800.000	-0.054	-0.177
-129.312	103.943	0.231	0.265
-128.297	-170.268	-0.121	0.004
-127.283	0.343	-0.320	0.223
-126.268	-99.957	0.207	-0.050
-125.253	124.209	-0.222	-0.272
-124.239	-7.103	-0.160	0.106
-123.224	127.203	-0.133	0.165
-122.210	-2.044	0.039	0.027
-121.195	1.108	0.186	0.130
