DTS Sentinel unit serial number:	SN413079Multiplexer serial number:	ORYXHardware model number:	OX4-SRSoftware version number:	ORYX F/W v4.00 Oryx Data Collector v3.7.2.0data status	okinstallation	princeton_trtdifferential loss correction	single-endedforward channel	channel 3reverse channel	N/Adate	2019/09/14time	03:16:34forward acquisition time	60.00reverse acquisition time	0.00gamma	496.2192k internal	0.2339k external	0.2339temperature offset calibration	1.0056default loss term (dB/km)	0.3790temperature slope calibration	1.0000multiplexer offset coefficient	1.0000multiplexer slope coefficient	1.0000fibre end	0.00T internal ref (°C)	26.61T ext. ref 1 (°C)	3.27T ext. ref 2 (°C)	21.67length (m)	temperature (°C)	Stokes	anti-Stokes-747.200	-200.000	-0.017	0.129
-746.185	-63.308	-0.190	-0.078
-745.171	-65.736	0.469	0.188
-744.156	-73.516	-0.349	0.128
-743.142	-31.860	-0.137	0.077
-742.127	-141.804	-0.355	0.036
-741.112	67.183	-0.245	0.250
-740.098	-76.965	-0.214	0.075
-739.083	800.000	0.047	0.176
-738.069	-27.639	-0.337	0.196
-737.054	-200.000	-0.004	0.400
-736.039	-30.291	-0.160	0.091
-735.025	-3.336	0.297	-0.208
-734.010	174.140	-0.068	0.099
-732.996	-81.755	-0.321	0.105
-731.981	800.000	-0.073	-0.215
-730.966	-200.000	0.049	0.286
-729.952	7.190	-0.260	0.195
-728.937	-50.397	-0.322	0.152
-727.923	6.407	-0.332	-0.247
-726.908	505.269	0.047	-0.109
-725.894	493.791	0.024	-0.054
-724.879	800.000	-0.029	-0.092
-723.864	-200.000	-0.048	-0.233
-722.850	-200.000	0.006	0.301
-721.835	78.491	-0.222	0.238
-720.821	-200.000	0.004	-0.524
-719.806	281.633	-0.060	-0.108
-718.791	-95.951	-0.244	0.065
-717.777	800.000	-0.099	-0.379
-716.762	-83.654	-0.261	0.084
-715.748	-145.104	0.206	-0.019
-714.733	184.112	-0.098	-0.145
-713.718	49.301	0.118	-0.111
-712.704	-130.043	-0.231	-0.032
-711.689	88.781	-0.234	-0.260
-710.675	-200.000	-0.034	-0.432
-709.660	-42.565	-0.135	0.069
-708.645	284.898	0.051	0.091
-707.631	370.941	-0.060	-0.121
-706.616	418.480	-0.125	-0.267
-705.602	51.842	-0.326	-0.311
-704.587	-115.770	-0.022	0.004
-703.572	-32.641	-0.143	0.080
-702.558	44.652	-0.155	0.143
-701.543	269.298	-0.211	-0.372
-700.529	18.070	-0.111	0.089
-699.514	800.000	-0.062	-0.243
-698.499	-43.574	0.358	0.181
-697.485	-5.105	0.282	0.194
-696.470	623.918	-0.019	-0.049
-695.456	100.131	0.135	-0.156
-694.441	-45.194	-0.113	-0.056
-693.426	-38.621	-0.343	0.181
-692.412	-156.418	-0.063	-0.004
-691.397	800.000	-0.032	0.105
-690.383	31.740	0.156	-0.135
-689.368	800.000	0.030	0.110
-688.354	-147.367	-0.203	0.017
-687.339	4.142	-0.221	0.162
-686.324	-51.970	-0.082	0.038
-685.310	173.113	0.155	-0.223
-684.295	-200.000	-0.021	0.114
-683.281	351.551	0.099	-0.196
-682.266	-200.000	0.036	-0.177
-681.251	-200.000	0.070	0.326
-680.237	85.415	0.138	0.151
-679.222	53.778	0.186	-0.178
-678.208	-200.000	-0.039	-0.220
-677.193	18.597	-0.175	-0.140
-676.178	72.313	0.137	-0.142
-675.164	255.132	-0.178	-0.305
-674.149	86.886	-0.340	-0.375
-673.135	-200.000	-0.007	-0.191
-672.120	68.740	0.076	0.078
-671.105	-176.577	0.083	-0.002
-670.091	-51.299	0.074	0.035
-669.076	-57.235	-0.179	0.079
-668.062	800.000	-0.078	0.244
-667.047	-144.612	-0.195	-0.018
-666.032	-147.377	-0.235	0.020
-665.018	89.615	-0.176	-0.196
-664.003	-200.000	-0.028	0.234
-662.989	548.500	-0.112	-0.268
-661.974	-200.000	-0.014	0.179
-660.959	-200.000	-0.001	-0.134
-659.945	-137.995	0.263	-0.029
-658.930	-16.816	-0.224	-0.141
-657.916	-6.150	-0.240	0.164
-656.901	-200.000	0.043	-0.314
-655.886	-200.000	0.050	-0.318
-654.872	800.000	0.106	-0.417
-653.857	-112.668	0.050	0.010
-652.843	7.788	-0.231	0.173
-651.828	-135.276	0.201	0.024
-650.814	800.000	0.056	-0.194
-649.799	54.227	-0.182	0.175
-648.784	729.247	0.153	0.407
-647.770	33.820	0.084	0.073
-646.755	800.000	-0.040	0.156
-645.741	-200.000	0.053	-0.390
-644.726	108.385	0.417	-0.497
-643.711	49.203	-0.165	-0.154
-642.697	86.212	0.089	0.098
-641.682	-134.723	-0.100	-0.012
-640.668	-169.242	0.130	-0.005
-639.653	-79.566	-0.237	-0.080
-638.638	-198.051	0.237	-0.001
-637.624	-153.011	-0.161	0.011
-636.609	-90.406	0.191	-0.055
-635.595	800.000	0.039	-0.145
-634.580	-200.000	0.005	0.174
-633.565	332.038	-0.086	0.166
-632.551	635.648	0.074	0.188
-631.536	-200.000	0.010	-0.261
-630.522	-153.776	-0.181	0.012
-629.507	-116.476	-0.413	-0.076
-628.492	-67.749	0.037	-0.014
-627.478	278.578	-0.065	-0.115
-626.463	72.513	-0.105	-0.109
-625.449	-200.000	-0.010	-0.046
-624.434	-57.308	0.106	0.047
-623.419	-165.292	-0.464	0.020
-622.405	177.043	-0.128	-0.186
-621.390	75.330	0.282	0.296
-620.376	-200.000	-0.042	-0.396
-619.361	-76.513	-0.074	0.026
-618.346	77.645	-0.177	-0.188
-617.332	102.788	-0.179	0.209
-616.317	-75.099	-0.060	-0.022
-615.303	-46.423	0.271	-0.133
-614.288	-120.431	-0.311	0.053
-613.273	-200.000	-0.225	0.001
-612.259	-106.037	0.214	0.048
-611.244	-200.000	0.012	0.235
-610.230	56.205	0.115	-0.111
-609.215	389.364	0.025	-0.051
-608.201	-11.511	-0.081	0.053
-607.186	-200.000	-0.077	-0.395
-606.171	563.139	-0.142	-0.344
-605.157	-200.000	0.026	-0.306
-604.142	-157.825	0.122	-0.007
-603.128	7.167	0.206	0.153
-602.113	11.399	0.082	-0.063
-601.098	-118.681	-0.274	0.048
-600.084	-200.000	-0.019	-0.254
-599.069	136.364	-0.108	-0.141
-598.055	4.711	-0.099	0.072
-597.040	726.062	0.091	0.243
-596.025	448.858	0.105	0.230
-595.011	-161.726	-0.313	0.016
-593.996	56.479	-0.351	0.340
-592.982	740.022	0.086	-0.231
-591.967	525.686	-0.153	0.358
-590.952	-144.655	-0.166	-0.015
-589.938	-94.174	-0.199	0.054
-588.923	236.091	-0.061	-0.101
-587.909	800.000	0.079	-0.228
-586.894	-165.308	0.238	0.010
-585.879	-200.000	-0.006	-0.243
-584.865	131.036	-0.180	-0.230
-583.850	-200.000	-0.024	-0.295
-582.836	258.678	0.071	-0.122
-581.821	-86.551	0.113	-0.034
-580.806	29.242	0.105	0.088
-579.792	-76.078	0.204	0.072
-578.777	800.000	-0.086	-0.236
-577.763	-200.000	0.025	0.325
-576.748	-161.566	-0.442	0.023
-575.733	-58.777	-0.223	-0.096
-574.719	508.534	-0.130	-0.301
-573.704	-118.584	0.302	-0.053
-572.690	247.328	0.132	0.222
-571.675	-32.460	-0.228	0.127
-570.661	673.208	0.134	-0.347
-569.646	-37.932	-0.183	-0.097
-568.631	-49.140	-0.241	-0.115
-567.617	800.000	0.126	-0.438
-566.602	19.015	-0.261	-0.208
-565.588	498.085	0.029	-0.065
-564.573	-200.000	-0.211	0.001
-563.558	-65.104	-0.071	-0.029
-562.544	-32.106	-0.107	0.060
-561.529	-119.013	0.115	-0.020
-560.515	800.000	-0.107	0.308
-559.500	-155.277	-0.081	0.005
-558.485	198.099	0.112	0.171
-557.471	-200.000	-0.010	-0.311
-556.456	-93.598	0.044	0.012
-555.442	366.494	0.028	0.056
-554.427	-95.245	-0.305	0.082
-553.412	677.898	0.085	-0.219
-552.398	137.953	0.079	0.103
-551.383	-79.810	0.118	-0.039
-550.369	9.196	-0.078	-0.059
-549.354	45.162	0.092	0.084
-548.339	56.137	0.208	-0.201
-547.325	68.023	0.113	0.115
-546.310	618.964	-0.083	0.207
-545.296	-14.563	-0.084	0.054
-544.281	-103.219	-0.366	-0.086
-543.266	-67.749	-0.127	-0.049
-542.252	-164.187	-0.122	-0.006
-541.237	608.127	-0.075	0.186
-540.223	-23.015	-0.052	-0.031
-539.208	39.716	-0.148	0.132
-538.193	106.596	0.156	0.184
-537.179	467.029	0.017	0.038
-536.164	-18.325	-0.226	-0.140
-535.150	-179.883	0.129	0.003
-534.135	-22.253	-0.051	-0.031
-533.121	102.218	0.047	-0.054
-532.106	-127.719	0.442	-0.064
-531.091	-136.752	0.302	-0.035
-530.077	627.313	0.032	0.081
-529.062	-70.387	-0.627	-0.236
-528.048	84.481	0.066	-0.071
-527.033	80.334	-0.189	-0.203
-526.018	45.214	-0.209	0.191
-525.004	-200.000	-0.002	0.175
-523.989	276.317	-0.148	0.261
-522.975	282.721	-0.108	-0.193
-521.960	-9.596	0.192	-0.127
-520.945	-200.000	0.064	-0.358
-519.931	-23.998	0.137	0.082
-518.916	800.000	-0.044	0.178
-517.902	253.875	-0.041	0.070
-516.887	-40.868	-0.075	0.039
-515.872	800.000	-0.055	0.151
-514.858	178.472	-0.123	-0.179
-513.843	-114.190	-0.183	0.035
-512.829	-91.809	0.339	-0.096
-511.814	128.886	0.093	-0.118
-510.799	-145.498	0.360	0.032
-509.785	-32.848	0.303	-0.167
-508.770	-15.901	0.267	0.169
-507.756	95.745	0.023	-0.026
-506.741	49.646	0.234	-0.219
-505.726	-73.277	-0.107	-0.039
-504.712	212.422	-0.162	0.255
-503.697	-99.791	0.242	0.060
-502.683	800.000	0.064	0.212
-501.668	800.000	0.065	0.203
-500.653	176.607	-0.092	-0.134
-499.639	-151.799	0.186	0.014
-498.624	-50.228	-0.430	0.202
-497.610	230.376	0.258	0.419
-496.595	-14.221	0.187	0.120
-495.581	-71.741	0.171	-0.063
-494.566	9.937	-0.094	-0.071
-493.551	-30.470	0.255	-0.144
-492.537	-84.909	0.287	-0.089
-491.522	-148.808	0.399	0.032
-490.508	-73.626	0.083	0.030
-489.493	-200.000	-0.004	-0.325
-488.478	-124.782	-0.063	-0.010
-487.464	260.948	0.096	-0.165
-486.449	-200.000	0.003	-0.150
-485.435	233.848	0.063	0.103
-484.420	-122.690	0.166	-0.027
-483.405	575.690	0.113	0.274
-482.391	144.120	-0.091	0.120
-481.376	-136.950	-0.238	0.027
-480.362	-159.157	0.277	-0.015
-479.347	-200.000	0.037	-0.195
-478.332	-105.257	-0.170	0.038
-477.318	-81.396	-0.174	-0.057
-476.303	800.000	0.035	0.145
-475.289	-129.224	0.209	-0.029
-474.274	-138.848	-0.419	-0.045
-473.259	193.331	0.093	-0.140
-472.245	-155.278	0.228	-0.015
-471.230	-60.968	-0.368	-0.154
-470.216	483.862	0.105	0.236
-469.201	-200.000	0.023	0.174
-468.186	87.821	-0.210	0.231
-467.172	-95.467	0.086	-0.023
-466.157	-64.071	-0.185	-0.075
-465.143	464.654	0.035	0.077
-464.128	-122.142	0.186	-0.030
-463.113	126.226	0.157	-0.196
-462.099	-59.815	-0.062	0.026
-461.084	-130.875	0.212	0.028
-460.070	783.813	-0.017	-0.046
-459.055	-200.000	-0.010	-0.186
-458.040	45.207	0.180	0.165
-457.026	-200.000	0.020	0.240
-456.011	-58.469	0.205	-0.088
-454.997	104.755	0.111	-0.130
-453.982	499.328	-0.167	0.381
-452.968	-46.029	0.334	-0.163
-451.953	-200.000	-0.029	-0.207
-450.938	-54.971	-0.140	-0.062
-449.924	-200.000	-0.014	-0.159
-448.909	800.000	-0.013	0.052
-447.895	81.907	0.022	0.024
-446.880	800.000	-0.085	0.263
-445.865	-16.656	0.410	0.257
-444.851	355.399	-0.033	0.065
-443.836	2.368	-0.031	0.022
-442.822	12.019	-0.171	0.131
-441.807	149.010	-0.140	0.187
-440.792	636.419	-0.031	-0.077
-439.778	239.607	0.136	-0.225
-438.763	195.262	0.097	-0.146
-437.749	3.733	0.035	0.026
-436.734	-26.039	0.171	0.100
-435.719	-200.000	-0.020	0.227
-434.705	231.415	-0.089	-0.145
-433.690	116.917	0.161	-0.196
-432.676	268.203	0.113	0.196
-431.661	-77.126	0.403	-0.139
-430.646	-162.239	-0.065	-0.003
-429.632	-93.419	-0.073	-0.020
-428.617	-200.000	-0.064	0.417
-427.603	-97.166	-0.255	0.066
-426.588	-108.577	0.126	-0.027
-425.573	220.689	-0.061	-0.097
-424.559	135.916	-0.169	0.218
-423.544	-88.668	0.319	0.094
-422.530	156.927	-0.179	-0.245
-421.515	-23.457	-0.284	0.169
-420.500	-39.232	-0.202	-0.105
-419.486	-200.000	-0.036	0.260
-418.471	-112.105	0.141	0.028
-417.457	-16.335	-0.097	0.061
-416.442	39.010	0.172	0.152
-415.428	650.464	-0.128	0.324
-414.413	282.777	0.116	-0.207
-413.398	-200.000	0.010	0.158
-412.384	-27.532	0.190	-0.109
-411.369	-200.000	-0.001	0.190
-410.355	-93.778	0.190	0.052
-409.340	20.782	-0.128	0.103
-408.325	24.831	0.083	0.068
-407.311	78.132	0.182	-0.192
-406.296	-200.000	-0.035	-0.151
-405.282	-59.342	-0.248	-0.106
-404.267	800.000	-0.042	0.138
-403.252	-86.093	0.247	-0.076
-402.238	570.863	-0.159	0.383
-401.223	-119.552	-0.262	-0.045
-400.209	574.736	-0.081	-0.196
-399.194	-200.000	0.008	-0.171
-398.179	-22.721	0.183	-0.109
-397.165	-45.373	-0.229	0.112
-396.150	-163.745	-0.381	0.018
-395.136	93.511	0.142	-0.159
-394.121	-137.918	0.258	0.029
-393.106	-29.704	0.094	0.053
-392.092	-32.707	-0.116	-0.064
-391.077	260.403	-0.082	0.140
-390.063	-66.811	-0.161	-0.063
-389.048	-200.000	0.014	-0.167
-388.033	49.673	0.055	-0.051
-387.019	-68.711	-0.328	-0.126
-386.004	800.000	-0.060	0.194
-384.990	-129.093	0.155	-0.021
-383.975	-200.000	0.033	0.174
-382.960	98.350	-0.061	-0.069
-381.946	-200.000	-0.006	0.196
-380.931	-183.596	-0.100	-0.002
-379.917	29.500	0.090	-0.076
-378.902	136.222	0.195	0.251
-377.888	-200.000	0.006	0.328
-376.873	1.540	-0.241	-0.171
-375.858	-42.260	0.266	0.134
-374.844	-200.000	-0.009	-0.065
-373.829	-7.832	-0.300	-0.200
-372.815	-200.000	-0.086	-0.394
-371.800	677.669	0.042	-0.108
-370.785	294.928	-0.106	-0.191
-369.771	-74.655	-0.356	-0.126
-368.756	-133.423	0.125	0.016
-367.742	52.490	0.295	0.278
-366.727	171.500	-0.137	-0.194
-365.712	-42.916	0.171	0.086
-364.698	-45.886	-0.107	-0.052
-363.683	-58.247	0.332	-0.143
-362.669	800.000	0.104	-0.306
-361.654	11.248	-0.141	-0.107
-360.639	800.000	0.049	-0.197
-359.625	-3.547	-0.190	0.130
-358.610	125.456	-0.029	-0.036
-357.596	100.467	0.122	-0.140
-356.581	-45.670	0.075	0.036
-355.566	-200.000	0.023	0.236
-354.552	-120.029	-0.106	0.018
-353.537	-200.000	0.016	0.250
-352.523	-104.690	0.065	0.015
-351.508	114.967	-0.096	0.115
-350.493	-100.895	0.116	-0.028
-349.479	635.505	0.112	-0.280
-348.464	-86.961	0.134	-0.040
-347.450	800.000	-0.037	-0.142
-346.435	-200.000	0.026	0.198
-345.420	41.789	-0.218	0.195
-344.406	14.238	-0.290	-0.223
-343.391	-200.000	-0.012	-0.144
-342.377	-80.264	-0.366	0.121
-341.362	-173.098	-0.349	0.011
-340.348	510.340	-0.024	0.055
-339.333	9.705	-0.029	-0.022
-338.318	-89.668	-0.047	-0.014
-337.304	94.610	-0.205	0.231
-336.289	800.000	0.019	-0.071
-335.275	-38.656	-0.102	-0.053
-334.260	237.098	-0.130	-0.212
-333.245	-54.141	0.285	0.128
-332.231	782.067	-0.135	0.364
-331.216	410.327	0.034	-0.071
-330.202	-87.740	0.280	0.083
-329.187	-79.229	-0.139	-0.047
-328.172	25.942	-0.154	0.127
-327.158	11.226	0.263	-0.199
-326.143	106.931	-0.092	0.107
-325.129	-121.128	0.211	-0.035
-324.114	-200.000	-0.011	0.049
-323.099	-156.848	0.155	0.009
-322.085	78.464	0.184	-0.194
-321.070	-200.000	-0.061	-0.305
-320.056	-78.077	0.236	-0.080
-319.041	-14.884	-0.417	0.264
-318.026	-200.000	0.021	-0.190
-317.012	139.004	-0.112	0.145
-315.997	18.904	-0.244	0.193
-314.983	-105.247	-0.130	0.029
-313.968	164.425	-0.114	-0.158
-312.953	-115.827	0.409	0.075
-311.939	800.000	-0.015	0.041
-310.924	-115.635	0.318	0.059
-309.910	437.970	-0.125	-0.268
-308.895	57.478	0.073	-0.070
-307.880	96.330	-0.276	-0.311
-306.866	800.000	-0.065	0.231
-305.851	156.960	-0.054	-0.074
-304.837	151.658	-0.189	-0.253
-303.822	-123.237	-0.079	-0.013
-302.807	-117.774	0.255	0.045
-301.793	-80.050	-0.242	-0.080
-300.778	-55.834	0.346	0.153
-299.764	-148.696	-0.123	-0.010
-298.749	517.727	-0.185	-0.426
-297.735	16.359	0.060	-0.047
-296.720	-4.935	-0.026	0.018
-295.705	52.036	-0.201	0.189
-294.691	-200.000	-0.028	-0.127
-293.676	-113.438	-0.169	0.033
-292.662	134.525	0.089	0.113
-291.647	800.000	-0.020	-0.062
-290.632	-200.000	0.037	0.226
-289.618	-200.000	0.006	-0.079
-288.603	308.705	0.081	-0.150
-287.589	556.149	0.152	0.361
-286.574	-106.061	0.466	0.103
-285.559	-54.560	-0.160	-0.071
-284.545	-92.024	-0.448	0.125
-283.530	-60.913	-0.148	0.062
-282.516	800.000	0.039	0.159
-281.501	-71.532	-0.099	-0.036
-280.486	512.333	0.178	0.409
-279.472	-12.325	0.118	0.076
-278.457	436.235	-0.009	0.019
-277.443	-3.424	-0.154	0.105
-276.428	3.844	0.165	-0.119
-275.413	101.368	-0.204	-0.234
-274.399	-200.000	-0.033	-0.181
-273.384	-23.029	-0.032	-0.019
-272.370	-200.000	0.004	-0.442
-271.355	-24.667	0.120	-0.070
-270.340	-200.000	-0.009	-0.087
-269.326	800.000	0.060	0.164
-268.311	-154.269	0.178	-0.012
-267.297	-68.111	-0.201	-0.077
-266.282	-20.512	0.074	0.045
-265.267	-73.825	-0.368	-0.132
-264.253	-200.000	0.065	-0.554
-263.238	422.110	0.028	0.060
-262.224	64.084	0.152	-0.150
-261.209	495.990	0.051	0.115
-260.195	229.549	0.140	0.226
-259.180	-89.611	0.334	0.096
-258.165	-200.000	0.086	0.533
-257.151	170.583	0.058	0.082
-256.136	14.054	0.137	0.105
-255.122	-200.000	-0.048	-0.237
-254.107	800.000	0.076	-0.225
-253.092	-127.575	0.209	-0.030
-252.078	-200.000	0.008	0.222
-251.063	-93.053	0.382	0.105
-250.049	55.388	0.016	-0.015
-249.034	800.000	0.127	0.437
-248.019	34.786	-0.166	-0.143
-247.005	800.000	-0.118	0.354
-245.990	26.433	0.074	0.061
-244.976	96.480	0.171	-0.193
-243.961	800.000	0.070	-0.210
-242.946	800.000	0.066	-0.259
-241.932	-8.701	-0.150	-0.099
-240.917	-183.387	0.376	-0.006
-239.903	-36.481	0.270	0.143
-238.888	-200.000	0.028	0.281
-237.873	-200.000	-0.003	0.156
-236.859	-122.617	0.174	-0.028
-235.844	200.102	0.099	-0.150
-234.830	-7.188	0.264	0.176
-233.815	-71.323	0.382	0.141
-232.800	27.035	0.093	0.077
-231.786	93.377	0.071	-0.079
-230.771	115.218	-0.118	-0.141
-229.757	61.000	-0.192	-0.187
-228.742	-98.711	0.211	0.053
-227.727	800.000	-0.091	-0.381
-226.713	41.423	0.044	-0.039
-225.698	-41.568	0.224	0.113
-224.684	270.135	-0.124	0.215
-223.669	-15.102	0.127	0.080
-222.655	-52.921	-0.360	0.163
-221.640	149.458	0.251	-0.334
-220.625	-200.000	0.011	-0.324
-219.611	-49.503	-0.127	0.060
-218.596	738.066	0.077	-0.204
-217.582	-78.881	-0.132	-0.044
-216.567	-200.000	0.002	-0.100
-215.552	800.000	0.035	-0.110
-214.538	75.030	0.114	-0.118
-213.523	108.037	-0.259	0.303
-212.509	-159.609	0.285	0.016
-211.494	348.746	0.114	-0.222
-210.479	-55.676	0.204	-0.090
-209.465	48.220	0.093	-0.086
-208.450	-176.897	0.104	-0.003
-207.436	800.000	-0.077	-0.240
-206.421	27.025	-0.134	0.110
-205.406	-78.959	0.182	-0.061
-204.392	-126.420	0.190	0.028
-203.377	-134.212	-0.149	0.018
-202.363	400.444	0.093	-0.192
-201.348	268.248	0.208	0.358
-200.333	385.232	0.141	-0.285
-199.319	-155.436	-0.358	0.023
-198.304	-200.000	0.001	-0.205
-197.290	800.000	0.063	0.249
-196.275	800.000	-0.060	0.204
-195.260	-131.719	-0.097	-0.013
-194.246	-112.444	-0.291	0.057
-193.231	93.582	-0.233	-0.259
-192.217	-200.000	-0.056	0.252
-191.202	-92.320	0.048	0.013
-190.187	-200.000	-0.003	0.039
-189.173	-200.000	0.008	0.164
-188.158	-10.624	-0.140	-0.091
-187.144	-117.593	0.422	-0.075
-186.129	3.931	0.302	0.216
-185.114	47.395	0.120	-0.109
-184.100	-126.956	-0.266	0.038
-183.085	1.592	-0.380	0.268
-182.071	-200.000	0.019	0.474
-181.056	176.840	-0.214	0.305
-180.042	114.652	-0.039	-0.047
-179.027	-77.477	-0.306	-0.104
-178.012	111.356	0.149	0.176
-176.998	-88.116	-0.233	-0.068
-175.983	57.012	-0.142	-0.136
-174.969	189.655	0.111	0.163
-173.954	-137.129	-0.192	0.021
-172.939	-17.437	-0.187	0.116
-171.925	-152.977	0.342	0.024
-170.910	-7.415	-0.372	-0.247
-169.896	-14.173	0.232	-0.147
-168.881	-34.293	-0.134	-0.072
-167.866	600.085	-0.123	0.300
-166.852	151.006	-0.168	0.224
-165.837	-200.000	0.010	0.157
-164.823	-1.843	-0.186	-0.129
-163.808	800.000	-0.088	0.255
-162.793	-166.735	0.353	-0.014
-161.779	-75.542	0.193	0.067
-160.764	-200.000	-0.036	0.309
-159.750	-200.000	-0.002	-0.024
-158.735	13.020	0.146	0.111
-157.720	505.011	-0.027	0.062
-156.706	336.198	0.082	0.156
-155.691	118.179	0.143	0.173
-154.677	34.762	0.255	0.218
-153.662	-90.235	-0.206	-0.059
-152.647	196.579	-0.113	-0.169
-151.633	385.850	-0.057	0.115
-150.618	19.689	0.286	-0.225
-149.604	-200.000	0.047	0.338
-148.589	91.977	-0.194	0.214
-147.574	-200.000	-0.007	-0.068
-146.560	-17.506	0.286	-0.176
-145.545	-200.000	-0.002	0.117
-144.531	19.010	0.113	-0.089
-143.516	6.807	-0.227	-0.166
-142.502	-200.000	-0.009	-0.311
-141.487	-86.076	0.031	-0.009
-140.472	54.952	-0.120	-0.113
-139.458	214.237	0.290	0.449
-138.443	138.103	0.108	0.139
-137.429	-200.000	-0.009	-0.248
-136.414	-200.000	0.029	0.170
-135.399	800.000	0.090	0.255
-134.385	-200.000	-0.083	0.419
-133.370	800.000	-0.057	0.191
-132.356	-44.439	-0.172	-0.084
-131.341	86.078	-0.211	0.228
-130.326	-119.572	0.159	0.027
-129.312	-200.000	0.027	0.140
-128.297	-79.579	-0.194	0.064
-127.283	183.360	-0.224	0.325
-126.268	-200.000	-0.004	0.324
-125.253	-103.828	-0.180	-0.041
-124.239	44.273	-0.102	-0.091
-123.224	-69.938	-0.102	0.038
-122.210	12.098	-0.212	-0.160
-121.195	-43.422	0.116	0.057
