DTS Sentinel unit serial number:	SN413079Multiplexer serial number:	ORYXHardware model number:	OX4-SRSoftware version number:	ORYX F/W v4.00 Oryx Data Collector v3.7.2.0data status	okinstallation	princeton_trtdifferential loss correction	single-endedforward channel	channel 3reverse channel	N/Adate	2019/09/12time	17:54:10forward acquisition time	60.00reverse acquisition time	0.00gamma	496.2192k internal	0.2317k external	0.2317temperature offset calibration	1.0091default loss term (dB/km)	0.3790temperature slope calibration	1.0000multiplexer offset coefficient	1.0000multiplexer slope coefficient	1.0000fibre end	0.00T internal ref (°C)	33.94T ext. ref 1 (°C)	2.97T ext. ref 2 (°C)	28.31length (m)	temperature (°C)	Stokes	anti-Stokes-747.200	60.862	-0.191	0.192
-746.185	-104.422	-0.231	0.054
-745.171	45.735	-0.115	-0.108
-744.156	33.188	-0.352	0.309
-743.142	-125.046	-0.109	0.017
-742.127	-0.148	-0.111	0.080
-741.112	-63.390	-0.279	-0.116
-740.098	-25.206	0.234	0.141
-739.083	-113.554	-0.106	0.021
-738.069	-27.698	0.102	0.060
-737.054	486.944	-0.022	0.050
-736.039	23.111	-0.138	-0.115
-735.025	-200.000	0.025	0.135
-734.010	-190.038	-0.228	-0.003
-732.996	-200.000	0.001	-0.434
-731.981	-83.944	-0.487	-0.157
-730.966	-200.000	-0.004	-0.110
-729.952	-48.508	-0.352	-0.172
-728.937	-52.656	0.074	0.035
-727.923	121.132	-0.279	-0.352
-726.908	-42.841	-0.089	0.046
-725.894	-200.000	0.027	0.125
-724.879	293.250	-0.065	-0.120
-723.864	56.008	0.065	-0.064
-722.850	53.356	0.163	0.158
-721.835	273.857	0.089	-0.159
-720.821	71.269	0.159	-0.167
-719.806	-200.000	-0.018	0.109
-718.791	800.000	0.030	-0.112
-717.777	-200.000	0.031	-0.170
-716.762	70.707	0.175	-0.183
-715.748	-38.859	-0.269	-0.144
-714.733	-109.726	-0.555	0.118
-713.718	-168.886	-0.205	-0.008
-712.704	-200.000	0.002	0.142
-711.689	5.646	0.308	-0.230
-710.675	-200.000	-0.013	-0.111
-709.660	226.022	0.086	-0.141
-708.645	64.820	-0.107	0.109
-707.631	121.485	-0.194	-0.244
-706.616	13.257	0.064	0.050
-705.602	-112.094	-0.404	-0.082
-704.587	-90.339	0.183	-0.054
-703.572	114.673	-0.086	0.105
-702.558	22.043	-0.193	0.159
-701.543	74.444	-0.144	-0.153
-700.529	-200.000	0.073	-0.337
-699.514	-200.000	0.001	-0.140
-698.499	182.515	0.159	-0.237
-697.485	-200.000	-0.039	0.230
-696.470	-181.842	0.151	-0.003
-695.456	-134.516	-0.087	0.011
-694.441	553.599	-0.057	0.139
-693.426	-156.237	0.101	-0.006
-692.412	-44.003	-0.283	0.144
-691.397	-15.433	0.087	0.056
-690.383	151.948	-0.185	-0.255
-689.368	-129.372	0.260	-0.037
-688.354	-200.000	-0.009	0.330
-687.339	-134.428	-0.186	-0.023
-686.324	-53.729	0.059	0.027
-685.310	-200.000	-0.021	0.175
-684.295	43.260	-0.245	-0.226
-683.281	158.512	-0.090	-0.126
-682.266	-200.000	-0.067	-0.376
-681.251	-9.240	-0.084	0.057
-680.237	206.786	0.097	0.153
-679.222	800.000	0.064	-0.239
-678.208	800.000	-0.043	0.176
-677.193	212.556	-0.013	-0.020
-676.178	-200.000	-0.035	0.289
-675.164	-200.000	0.022	0.102
-674.149	-80.253	-0.289	0.098
-673.135	240.787	0.084	0.141
-672.120	328.761	0.153	0.297
-671.105	-31.281	-0.242	-0.138
-670.091	138.290	0.124	0.165
-669.076	800.000	0.066	0.220
-668.062	-77.466	0.210	0.074
-667.047	-64.664	0.181	0.074
-666.032	-200.000	0.016	-0.189
-665.018	111.775	-0.135	-0.165
-664.003	44.965	-0.122	-0.113
-662.989	-77.057	0.332	0.117
-661.974	-130.272	0.114	-0.016
-660.959	-75.060	-0.189	-0.068
-659.945	26.676	0.172	-0.145
-658.930	426.463	-0.199	-0.434
-657.916	17.194	0.193	-0.155
-656.901	-131.189	0.288	-0.039
-655.886	-200.000	-0.021	-0.301
-654.872	404.761	0.062	0.132
-653.857	-93.077	-0.328	0.092
-652.843	-35.892	-0.177	-0.097
-651.828	439.318	-0.179	-0.394
-650.814	-200.000	-0.053	0.251
-649.799	-200.000	-0.009	-0.081
-648.784	800.000	-0.068	-0.300
-647.770	-76.106	-0.185	-0.066
-646.755	-55.362	-0.231	-0.104
-645.741	-77.081	0.071	0.025
-644.726	-200.000	-0.033	-0.279
-643.711	-80.608	-0.106	0.035
-642.697	103.459	-0.128	-0.152
-641.682	402.420	-0.040	-0.086
-640.668	-109.011	0.385	0.083
-639.653	-10.255	-0.061	-0.041
-638.638	-200.000	-0.011	0.075
-637.624	-115.084	-0.048	-0.009
-636.609	13.645	-0.089	0.070
-635.595	-138.335	-0.065	-0.007
-634.580	-69.349	-0.274	-0.106
-633.565	800.000	-0.062	0.255
-632.551	328.542	-0.118	0.229
-631.536	-95.389	-0.169	-0.046
-630.522	-40.468	-0.234	0.123
-629.507	138.140	0.164	0.217
-628.492	800.000	-0.037	-0.122
-627.478	95.355	0.156	0.179
-626.463	-45.479	-0.265	-0.132
-625.449	800.000	0.041	0.143
-624.434	173.052	0.053	-0.078
-623.419	2.869	0.062	-0.045
-622.405	118.068	-0.030	-0.038
-621.390	280.216	0.095	0.170
-620.376	102.481	-0.174	-0.205
-619.361	-176.853	0.292	0.007
-618.346	-200.000	-0.027	-0.275
-617.332	-145.782	-0.257	0.023
-616.317	-103.535	-0.166	0.039
-615.303	-200.000	-0.013	0.163
-614.288	-200.000	0.036	0.384
-613.273	110.408	-0.065	0.079
-612.259	-200.000	-0.010	-0.083
-611.244	-200.000	-0.009	0.132
-610.230	353.192	0.040	-0.080
-609.215	-49.495	-0.144	0.069
-608.201	-200.000	0.051	-0.249
-607.186	800.000	-0.034	-0.095
-606.171	-68.033	0.297	0.117
-605.157	644.425	-0.093	-0.238
-604.142	-200.000	-0.040	-0.295
-603.128	-200.000	-0.048	-0.476
-602.113	691.955	0.132	-0.348
-601.098	-200.000	0.018	0.098
-600.084	-149.261	-0.392	-0.032
-599.069	-103.394	0.019	-0.005
-598.055	54.111	-0.170	-0.165
-597.040	-14.418	0.232	-0.150
-596.025	47.844	0.114	0.107
-595.011	220.537	-0.169	-0.273
-593.996	236.534	-0.090	-0.149
-592.982	-54.119	-0.023	-0.010
-591.967	-28.317	0.203	-0.118
-590.952	-200.000	-0.004	0.109
-589.938	131.259	0.183	0.237
-588.923	-79.073	0.180	-0.062
-587.909	-200.000	-0.024	-0.246
-586.894	-121.297	0.392	-0.066
-585.879	69.607	-0.149	-0.154
-584.865	280.833	-0.145	-0.261
-583.850	132.987	-0.127	-0.165
-582.836	-62.077	-0.104	0.044
-581.821	-75.310	0.075	-0.027
-580.806	-200.000	0.059	0.360
-579.792	-200.000	-0.037	0.195
-578.777	144.809	-0.155	-0.209
-577.763	-18.409	-0.283	-0.178
-576.748	-170.460	-0.130	-0.005
-575.733	35.144	-0.053	0.046
-574.719	126.768	0.060	-0.076
-573.704	424.748	0.057	-0.124
-572.690	-84.723	-0.173	0.055
-571.675	-108.769	0.229	0.049
-570.661	-72.505	0.272	-0.101
-569.646	-26.348	-0.068	-0.040
-568.631	345.232	-0.115	-0.228
-567.617	526.128	-0.101	-0.239
-566.602	-43.634	0.425	-0.216
-565.588	-82.253	0.215	0.071
-564.573	-11.810	-0.172	-0.114
-563.558	174.336	-0.130	0.190
-562.544	0.870	-0.295	-0.212
-561.529	-13.123	0.187	0.122
-560.515	-58.447	0.237	-0.103
-559.500	42.012	-0.146	0.133
-558.485	-200.000	0.027	0.180
-557.471	-200.000	-0.010	0.111
-556.456	-184.209	0.315	0.005
-555.442	800.000	-0.102	0.294
-554.427	39.670	0.256	-0.230
-553.412	-200.000	0.010	0.193
-552.398	563.488	0.120	-0.291
-551.383	24.349	-0.257	-0.213
-550.369	-171.016	-0.146	-0.005
-549.354	-200.000	0.037	0.176
-548.339	-200.000	0.060	-0.269
-547.325	2.520	0.119	-0.087
-546.310	-77.283	-0.383	0.134
-545.296	-200.000	0.055	-0.476
-544.281	-55.152	0.167	-0.075
-543.266	156.685	0.336	-0.466
-542.252	758.688	0.054	-0.148
-541.237	800.000	-0.136	-0.384
-540.223	109.316	0.278	-0.335
-539.208	3.077	-0.229	-0.167
-538.193	800.000	0.057	-0.206
-537.179	-39.234	-0.122	-0.064
-536.164	-80.823	0.131	0.044
-535.150	-46.965	-0.101	-0.050
-534.135	-139.746	0.249	0.027
-533.121	-200.000	0.080	0.000
-532.106	-200.000	0.005	0.264
-531.091	176.418	-0.103	0.150
-530.077	-38.131	0.154	0.082
-529.062	221.230	0.052	-0.084
-528.048	-123.652	-0.478	0.076
-527.033	-159.837	-0.248	-0.014
-526.018	-111.053	-0.133	0.027
-525.004	26.473	-0.138	0.116
-523.989	-200.000	-0.160	-0.001
-522.975	-174.895	0.055	-0.002
-521.960	604.535	0.078	0.194
-520.945	231.481	0.113	-0.185
-519.931	-146.684	-0.253	0.022
-518.916	-59.481	0.283	0.122
-517.902	91.448	-0.163	-0.184
-516.887	-87.039	-0.273	0.084
-515.872	-200.000	0.037	-0.328
-514.858	-78.550	0.299	-0.103
-513.843	11.263	-0.036	0.028
-512.829	517.649	0.124	0.291
-511.814	-136.638	0.276	-0.032
-510.799	191.700	0.085	-0.129
-509.785	800.000	0.076	-0.327
-508.770	-13.816	0.212	-0.137
-507.756	43.357	0.052	0.048
-506.741	638.467	-0.026	-0.066
-505.726	-37.645	-0.356	-0.191
-504.712	35.774	-0.166	-0.146
-503.697	-89.571	0.171	-0.050
-502.683	-72.121	0.222	0.083
-501.668	-200.000	-0.047	-0.221
-500.653	-200.000	-0.013	0.146
-499.639	35.029	-0.035	-0.031
-498.624	-37.916	-0.160	0.086
-497.610	24.675	0.155	-0.129
-496.595	-17.446	-0.043	-0.027
-495.581	-16.831	0.101	-0.064
-494.566	-61.416	0.195	0.082
-493.551	-148.307	-0.480	0.040
-492.537	-69.508	-0.271	-0.104
-491.522	11.002	0.079	0.060
-490.508	170.593	-0.028	-0.040
-489.493	-61.373	0.065	-0.027
-488.478	396.640	0.045	0.095
-487.464	-200.000	-0.001	-0.278
-486.449	92.033	-0.168	-0.190
-485.435	170.395	0.137	-0.196
-484.420	-62.727	0.305	0.127
-483.405	-79.843	-0.047	-0.016
-482.391	-144.944	-0.430	0.039
-481.376	-68.943	0.101	-0.039
-480.362	20.406	0.229	0.186
-479.347	-3.954	0.294	-0.204
-478.332	-117.312	0.402	-0.073
-477.318	-107.301	-0.414	-0.091
-476.303	56.044	0.021	-0.021
-475.289	140.352	-0.109	0.144
-474.274	-6.417	-0.137	-0.094
-473.259	369.794	-0.083	0.168
-472.245	10.272	-0.225	0.172
-471.230	291.389	0.042	0.076
-470.216	37.715	0.062	-0.055
-469.201	-188.902	-0.241	-0.003
-468.186	-26.754	0.076	-0.044
-467.172	-134.078	0.122	-0.015
-466.157	223.171	-0.020	-0.032
-465.143	58.023	-0.146	-0.143
-464.128	-70.294	-0.250	0.095
-463.113	-93.813	0.146	0.040
-462.099	4.970	0.183	-0.135
-461.084	-120.826	-0.213	-0.036
-460.070	-175.708	0.508	-0.014
-459.055	-200.000	-0.038	0.217
-458.040	-6.290	0.112	0.077
-457.026	65.131	0.034	0.035
-456.011	153.112	0.075	0.103
-454.997	196.219	-0.202	-0.308
-453.982	43.817	-0.227	-0.208
-452.968	-23.137	-0.317	0.191
-451.953	-192.200	0.100	-0.001
-450.938	160.440	-0.096	-0.134
-449.924	800.000	0.042	-0.160
-448.909	-33.617	0.326	0.180
-447.895	253.173	0.064	-0.110
-446.880	-28.030	-0.154	0.089
-445.865	800.000	-0.114	-0.389
-444.851	-77.254	0.257	-0.090
-443.836	-127.449	0.293	0.043
-442.822	121.614	-0.101	-0.126
-441.807	-162.959	0.206	-0.010
-440.792	-111.109	0.267	-0.055
-439.778	276.914	-0.180	-0.321
-438.763	-13.779	0.185	-0.120
-437.749	75.385	0.131	0.138
-436.734	-62.380	0.106	0.044
-435.719	-73.244	0.361	-0.132
-434.705	696.958	0.099	-0.261
-433.690	183.188	-0.070	-0.103
-432.676	416.853	-0.132	0.281
-431.661	-55.226	-0.192	0.086
-430.646	-126.658	0.235	-0.035
-429.632	54.773	-0.077	-0.075
-428.617	107.642	-0.161	0.191
-427.603	97.943	0.148	0.170
-426.588	-56.983	0.320	0.141
-425.573	-12.345	-0.107	-0.070
-424.559	-57.388	0.132	-0.058
-423.544	88.141	0.210	0.233
-422.530	415.268	-0.194	0.413
-421.515	800.000	-0.032	-0.107
-420.500	375.738	-0.103	0.210
-419.486	-200.000	0.004	-0.325
-418.471	800.000	-0.083	-0.245
-417.457	-125.133	0.376	-0.058
-416.442	-200.000	-0.024	0.272
-415.428	306.921	-0.220	0.410
-414.413	-200.000	0.009	0.068
-413.398	262.551	0.089	0.155
-412.384	27.757	-0.277	0.233
-411.369	166.686	0.086	0.122
-410.355	-200.000	0.022	-0.150
-409.340	-23.802	0.235	0.141
-408.325	69.570	-0.160	0.165
-407.311	24.929	0.321	0.266
-406.296	36.060	-0.172	0.151
-405.282	439.168	-0.047	-0.102
-404.267	177.008	0.113	0.164
-403.252	15.958	0.010	0.008
-402.238	-130.956	0.323	-0.043
-401.223	471.817	-0.035	-0.078
-400.209	40.356	0.132	-0.119
-399.194	-111.272	0.105	-0.021
-398.179	-161.479	0.521	-0.027
-397.165	20.304	-0.097	-0.078
-396.150	-200.000	0.015	0.125
-395.136	273.959	-0.081	-0.143
-394.121	317.189	-0.132	-0.249
-393.106	644.681	0.093	0.238
-392.092	45.112	0.224	0.206
-391.077	800.000	-0.020	-0.066
-390.063	101.240	0.131	-0.153
-389.048	-200.000	-0.024	0.172
-388.033	800.000	-0.068	0.243
-387.019	304.751	0.211	-0.391
-386.004	-200.000	-0.037	0.206
-384.990	4.171	0.225	-0.164
-383.975	115.554	-0.255	0.311
-382.960	-0.194	0.106	-0.075
-381.946	-70.698	0.178	-0.067
-380.931	83.206	0.210	-0.228
-379.917	-62.608	-0.421	0.175
-378.902	186.708	-0.281	-0.418
-377.888	-200.000	-0.012	-0.333
-376.873	-137.651	0.192	0.022
-375.858	109.355	0.133	0.159
-374.844	215.585	-0.307	0.486
-373.829	53.878	-0.100	-0.096
-372.815	800.000	-0.012	0.052
-371.800	-36.733	-0.276	0.148
-370.785	-200.000	0.010	0.048
-369.771	42.170	-0.038	0.035
-368.756	-135.567	0.096	0.011
-367.742	-136.486	-0.336	0.039
-366.727	-161.732	-0.252	-0.013
-365.712	-48.067	-0.141	0.068
-364.698	576.189	0.016	0.040
-363.683	41.625	-0.178	-0.161
-362.669	-28.254	-0.340	0.196
-361.654	-68.061	0.281	-0.109
-360.639	330.155	-0.156	0.299
-359.625	40.248	0.099	-0.089
-358.610	227.424	-0.134	0.217
-357.596	44.470	0.279	-0.256
-356.581	291.693	-0.278	0.504
-355.566	-200.000	0.016	0.398
-354.552	265.028	-0.079	-0.138
-353.537	-82.613	0.212	0.069
-352.523	-27.546	-0.140	0.081
-351.508	-8.187	-0.103	-0.069
-350.493	-14.390	0.204	-0.131
-349.479	-200.000	0.030	0.349
-348.464	45.845	0.063	-0.058
-347.450	-60.962	-0.141	-0.059
-346.435	-93.844	-0.249	-0.068
-345.420	-28.460	0.049	0.028
-344.406	800.000	-0.039	0.133
-343.391	53.335	0.039	-0.037
-342.377	47.512	0.132	0.123
-341.362	-200.000	0.011	0.077
-340.348	-200.000	-0.026	0.377
-339.333	800.000	-0.068	0.263
-338.318	-200.000	0.007	0.086
-337.304	220.045	0.140	0.224
-336.289	-183.284	-0.192	0.003
-335.275	-58.027	0.092	0.040
-334.260	350.959	0.252	0.497
-333.245	67.408	0.212	-0.215
-332.231	-200.000	-0.011	-0.069
-331.216	-44.304	0.102	0.051
-330.202	50.623	0.282	0.266
-329.187	-58.356	0.211	-0.091
-328.172	38.560	-0.312	-0.277
-327.158	-200.000	-0.004	-0.224
-326.143	552.187	0.071	0.170
-325.129	-200.000	-0.001	0.053
-324.114	338.847	-0.108	-0.210
-323.099	-42.213	-0.294	-0.150
-322.085	800.000	-0.073	-0.309
-321.070	-200.000	-0.055	0.333
-320.056	45.401	0.040	0.037
-319.041	-200.000	-0.033	-0.164
-318.026	112.638	-0.189	-0.228
-317.012	-52.676	-0.090	0.041
-315.997	443.663	-0.117	0.256
-314.983	-115.822	0.491	0.091
-313.968	800.000	-0.101	-0.292
-312.953	99.948	-0.108	0.124
-311.939	-26.378	0.108	-0.063
-310.924	-56.040	-0.126	0.056
-309.910	800.000	0.063	0.197
-308.895	-200.000	0.042	-0.257
-307.880	-5.964	0.097	0.066
-306.866	335.583	0.031	0.061
-305.851	800.000	0.087	0.276
-304.837	800.000	-0.025	0.098
-303.822	10.112	0.294	-0.222
-302.807	165.358	-0.174	-0.244
-301.793	236.730	0.004	-0.007
-300.778	800.000	0.026	0.088
-299.764	-45.256	-0.440	0.218
-298.749	6.154	-0.127	-0.093
-297.735	-200.000	0.068	-0.456
-296.720	62.000	0.235	-0.233
-295.705	-113.165	0.298	0.059
-294.691	-39.746	0.199	0.103
-293.676	-33.711	0.244	0.134
-292.662	57.674	-0.170	0.165
-291.647	-17.952	-0.074	0.046
-290.632	499.544	0.005	-0.012
-289.618	215.890	0.148	0.234
-288.603	655.129	-0.106	-0.271
-287.589	-200.000	-0.059	-0.318
-286.574	-200.000	-0.003	0.205
-285.559	-200.000	0.023	0.268
-284.545	20.269	0.108	-0.086
-283.530	800.000	-0.080	0.225
-282.516	54.873	0.056	0.054
-281.501	42.404	-0.113	-0.103
-280.486	-130.810	-0.154	0.021
-279.472	800.000	0.050	0.191
-278.457	344.361	-0.256	-0.500
-277.443	-63.145	-0.194	0.080
-276.428	800.000	-0.083	0.359
-275.413	-200.000	-0.062	-0.278
-274.399	-108.446	-0.105	0.022
-273.384	-49.202	-0.129	0.061
-272.370	-200.000	0.037	0.370
-271.355	-59.905	-0.216	0.092
-270.340	-50.684	-0.391	-0.183
-269.326	-66.704	0.215	0.085
-268.311	-146.982	-0.188	0.016
-267.297	800.000	-0.034	0.103
-266.282	-106.021	-0.182	-0.041
-265.267	113.521	-0.032	-0.039
-264.253	-200.000	-0.046	-0.256
-263.238	-35.473	0.286	-0.154
-262.224	-110.657	-0.192	-0.039
-261.209	775.356	0.081	-0.221
-260.195	800.000	0.095	0.296
-259.180	-200.000	-0.040	0.345
-258.165	394.527	-0.125	0.258
-257.151	800.000	0.026	-0.100
-256.136	-18.559	0.332	0.206
-255.122	70.595	-0.358	-0.368
-254.107	2.334	-0.106	-0.076
-253.092	9.357	-0.288	0.216
-252.078	800.000	-0.085	0.251
-251.063	-112.338	0.358	0.071
-250.049	-174.209	0.114	0.003
-249.034	-200.000	0.052	-0.329
-248.019	-72.971	0.270	0.099
-247.005	-16.485	0.268	-0.169
-245.990	21.836	-0.059	0.048
-244.976	32.122	0.094	-0.080
-243.961	-200.000	0.005	-0.318
-242.946	16.937	0.030	0.023
-241.932	-34.928	-0.262	-0.142
-240.917	62.774	-0.026	-0.026
-239.903	-151.535	-0.199	-0.015
-238.888	-200.000	-0.038	0.196
-237.873	773.987	0.089	-0.242
-236.859	800.000	0.073	-0.202
-235.844	-200.000	0.027	-0.154
-234.830	-91.030	0.144	0.041
-233.815	-200.000	-0.012	-0.428
-232.800	-12.365	-0.210	0.136
-231.786	110.884	0.036	0.043
-230.771	-200.000	-0.022	0.148
-229.757	-24.116	-0.063	0.037
-228.742	25.150	-0.312	0.257
-227.727	315.113	0.158	-0.296
-226.713	800.000	0.052	-0.190
-225.698	800.000	-0.077	0.254
-224.684	106.245	-0.090	0.105
-223.669	146.034	-0.178	-0.238
-222.655	-50.082	0.128	-0.060
-221.640	317.451	0.116	0.218
-220.625	188.479	-0.073	-0.109
-219.611	-166.148	0.195	0.008
-218.596	65.346	0.137	0.138
-217.582	66.012	0.135	0.136
-216.567	-22.507	-0.140	0.084
-215.552	300.117	0.190	-0.348
-214.538	257.475	-0.237	-0.404
-213.523	-200.000	0.014	-0.388
-212.509	-96.896	0.290	0.075
-211.494	-127.437	0.192	0.028
-210.479	459.550	-0.052	-0.115
-209.465	-57.242	-0.066	0.029
-208.450	-101.917	0.452	0.108
-207.436	372.407	-0.054	0.110
-206.421	-200.000	-0.019	0.225
-205.406	517.968	0.146	0.339
-204.392	-94.549	-0.221	0.060
-203.377	77.461	-0.034	0.036
-202.363	-48.289	0.055	0.026
-201.348	-136.248	0.263	-0.031
-200.333	80.448	0.222	0.237
-199.319	-200.000	0.061	0.284
-198.304	125.406	-0.218	0.273
-197.290	-27.133	0.208	-0.120
-196.275	-37.096	0.149	-0.079
-195.260	23.971	0.135	0.110
-194.246	800.000	0.092	0.295
-193.231	-47.273	-0.492	0.237
-192.217	-20.060	-0.093	-0.057
-191.202	11.847	-0.182	-0.139
-190.187	471.994	-0.120	0.269
-189.173	3.985	-0.204	0.148
-188.158	66.935	-0.174	-0.176
-187.144	-200.000	-0.001	0.092
-186.129	30.528	0.212	0.180
-185.114	100.533	0.208	0.239
-184.100	-37.691	-0.129	-0.068
-183.085	147.460	-0.243	0.324
-182.071	-200.000	-0.068	0.351
-181.056	183.454	-0.128	-0.187
-180.042	376.031	-0.022	-0.045
-179.027	-40.094	0.133	-0.068
-178.012	-200.000	0.032	0.141
-176.998	-2.604	-0.325	0.225
-175.983	396.273	-0.160	0.332
-174.969	-11.649	0.147	-0.096
-173.954	-200.000	0.012	0.194
-172.939	522.524	-0.028	-0.064
-171.925	-148.274	0.434	0.035
-170.910	-200.000	0.020	0.227
-169.896	96.113	0.195	0.221
-168.881	-200.000	0.020	0.200
-167.866	800.000	-0.033	-0.096
-166.852	-101.335	0.050	0.012
-165.837	-20.848	-0.126	-0.076
-164.823	147.625	0.091	0.121
-163.808	185.713	-0.129	0.190
-162.793	347.655	0.080	0.155
-161.779	203.151	-0.033	0.050
-160.764	-200.000	-0.029	0.208
-159.750	23.672	0.136	-0.111
-158.735	-200.000	-0.019	0.155
-157.720	0.253	0.115	-0.081
-156.706	-200.000	0.007	-0.069
-155.691	-40.468	-0.093	0.048
-154.677	-99.193	0.351	0.088
-153.662	96.668	-0.049	-0.055
-152.647	-200.000	-0.012	-0.195
-151.633	-108.824	-0.080	-0.017
-150.618	-124.416	0.150	0.023
-149.604	4.446	0.175	0.127
-148.589	-194.120	0.123	-0.001
-147.574	132.420	0.254	-0.324
-146.560	-53.223	0.255	-0.116
-145.545	736.595	-0.133	-0.353
-144.531	-200.000	-0.022	0.201
-143.516	319.630	0.149	-0.280
-142.502	-70.873	-0.132	-0.049
-141.487	114.358	0.117	-0.141
-140.472	28.998	-0.131	0.110
-139.458	-115.506	0.172	0.032
-138.443	800.000	0.105	0.325
-137.429	800.000	0.074	-0.268
-136.414	301.465	-0.136	-0.248
-135.399	-35.335	0.216	0.116
-134.385	-19.663	0.084	-0.051
-133.370	-122.063	0.232	0.038
-132.356	-200.000	0.003	0.474
-131.341	800.000	-0.101	-0.330
-130.326	-60.580	0.323	-0.136
-129.312	-200.000	0.019	-0.102
-128.297	-200.000	0.032	0.351
-127.283	55.662	-0.085	-0.081
-126.268	30.734	0.204	0.172
-125.253	-200.000	-0.013	0.398
-124.239	331.933	0.140	0.267
-123.224	800.000	0.066	0.225
-122.210	451.594	0.107	0.233
-121.195	11.382	0.119	-0.090
