DTS Sentinel unit serial number:	SN413079Multiplexer serial number:	ORYXHardware model number:	OX4-SRSoftware version number:	ORYX F/W v4.00 Oryx Data Collector v3.7.2.0data status	okinstallation	princeton_trtdifferential loss correction	single-endedforward channel	channel 3reverse channel	N/Adate	2019/09/12time	14:50:10forward acquisition time	60.00reverse acquisition time	0.00gamma	496.2192k internal	0.2293k external	0.2293temperature offset calibration	1.0053default loss term (dB/km)	0.3790temperature slope calibration	1.0000multiplexer offset coefficient	1.0000multiplexer slope coefficient	1.0000fibre end	0.00T internal ref (°C)	40.25T ext. ref 1 (°C)	2.30T ext. ref 2 (°C)	37.10length (m)	temperature (°C)	Stokes	anti-Stokes-747.200	800.000	0.041	0.125
-746.185	454.940	-0.034	0.076
-745.171	-200.000	0.016	0.250
-744.156	274.214	0.153	0.277
-743.142	-43.005	-0.132	0.068
-742.127	800.000	-0.025	0.079
-741.112	730.354	0.069	-0.189
-740.098	377.155	-0.082	0.172
-739.083	-157.158	0.195	-0.012
-738.069	-200.000	0.016	-0.135
-737.054	452.941	-0.010	-0.022
-736.039	397.389	-0.046	0.098
-735.025	-75.451	0.077	0.028
-734.010	569.650	-0.035	-0.087
-732.996	-132.734	0.243	0.032
-731.981	-174.591	0.345	-0.010
-730.966	-60.663	0.216	0.094
-729.952	-83.554	-0.234	-0.077
-728.937	-200.000	-0.005	0.051
-727.923	-2.018	0.139	0.100
-726.908	6.363	0.113	0.086
-725.894	4.495	-0.316	-0.237
-724.879	-103.632	-0.349	-0.084
-723.864	-151.652	-0.456	-0.034
-722.850	-176.413	-0.226	0.006
-721.835	79.365	-0.111	-0.121
-720.821	-200.000	-0.022	-0.263
-719.806	-32.083	0.267	-0.152
-718.791	800.000	-0.092	-0.386
-717.777	-136.410	-0.272	0.032
-716.762	-200.000	0.043	0.412
-715.748	-200.000	0.030	0.489
-714.733	-31.121	0.089	-0.051
-713.718	-27.546	0.403	-0.239
-712.704	-200.000	-0.009	-0.184
-711.689	-27.089	0.027	0.016
-710.675	3.809	-0.124	-0.092
-709.660	-79.866	0.293	-0.101
-708.645	-200.000	-0.007	-0.196
-707.631	465.676	-0.080	0.182
-706.616	-85.949	-0.092	-0.029
-705.602	10.788	0.241	-0.188
-704.587	-104.270	-0.033	-0.008
-703.572	-34.593	-0.226	-0.127
-702.558	-126.498	0.108	0.016
-701.543	136.450	0.121	-0.161
-700.529	188.927	-0.101	0.155
-699.514	-110.277	0.114	-0.024
-698.499	-200.000	0.048	-0.485
-697.485	-152.147	-0.210	0.016
-696.470	235.427	-0.132	0.222
-695.456	-56.442	-0.111	0.050
-694.441	677.158	0.110	0.293
-693.426	-200.000	0.016	0.195
-692.412	-200.000	-0.030	-0.138
-691.397	800.000	-0.041	0.180
-690.383	160.570	-0.061	-0.087
-689.368	-200.000	0.006	-0.088
-688.354	20.600	-0.190	-0.157
-687.339	-200.000	-0.024	0.354
-686.324	-84.144	0.105	-0.034
-685.310	120.916	0.223	0.284
-684.295	800.000	0.006	-0.023
-683.281	171.915	-0.108	-0.159
-682.266	28.871	0.203	-0.176
-681.251	-52.234	0.164	0.078
-680.237	-99.476	0.199	0.051
-679.222	-50.992	-0.158	-0.075
-678.208	-200.000	-0.008	-0.125
-677.193	-38.488	-0.306	-0.165
-676.178	168.176	0.049	0.071
-675.164	-168.253	0.064	0.003
-674.149	27.869	0.249	-0.214
-673.135	-200.000	0.003	-0.345
-672.120	-139.959	0.115	0.012
-671.105	326.836	-0.096	0.188
-670.091	-129.150	-0.405	0.058
-669.076	111.305	0.023	0.028
-668.062	664.210	0.048	-0.126
-667.047	-200.000	0.009	-0.152
-666.032	800.000	-0.021	0.078
-665.018	246.459	0.108	0.186
-664.003	-200.000	0.004	0.087
-662.989	-200.000	0.012	0.076
-661.974	10.602	0.028	0.022
-660.959	133.795	-0.182	-0.240
-659.945	-200.000	0.014	0.149
-658.930	-49.934	-0.374	0.181
-657.916	219.968	0.132	-0.216
-656.901	-15.108	0.091	0.060
-655.886	345.650	0.017	0.033
-654.872	-47.507	0.057	0.028
-653.857	-0.505	-0.043	-0.031
-652.843	58.802	0.162	-0.162
-651.828	-106.434	0.207	-0.047
-650.814	58.154	0.126	-0.126
-649.799	-168.231	-0.281	-0.011
-648.784	18.737	0.263	-0.215
-647.770	203.031	0.036	-0.056
-646.755	691.770	0.064	0.171
-645.741	-89.611	-0.226	-0.068
-644.726	103.896	-0.137	0.164
-643.711	128.529	-0.155	-0.201
-642.697	547.876	0.068	0.165
-641.682	-200.000	-0.039	0.177
-640.668	-1.729	-0.061	0.044
-639.653	-74.230	-0.500	0.184
-638.638	192.590	0.156	0.240
-637.624	365.298	0.073	-0.150
-636.609	247.964	-0.143	-0.246
-635.595	800.000	-0.021	-0.088
-634.580	-130.394	-0.328	0.045
-633.565	800.000	-0.013	-0.056
-632.551	-72.813	-0.172	-0.064
-631.536	-109.480	0.041	-0.009
-630.522	-200.000	0.022	0.097
-629.507	-2.383	0.253	0.181
-628.492	152.899	0.235	0.327
-627.478	585.845	0.022	-0.055
-626.463	-105.605	-0.100	-0.023
-625.449	-200.000	-0.033	-0.196
-624.434	116.164	-0.047	-0.058
-623.419	-188.059	-0.560	0.007
-622.405	3.864	0.164	0.122
-621.390	182.327	0.071	0.106
-620.376	14.224	-0.182	0.144
-619.361	-99.202	0.270	0.069
-618.346	-49.595	0.348	-0.169
-617.332	-200.000	0.036	-0.173
-616.317	34.098	-0.154	-0.137
-615.303	-103.405	-0.215	0.052
-614.288	-80.765	-0.206	0.070
-613.273	-200.000	-0.019	-0.150
-612.259	-127.338	0.162	-0.024
-611.244	-111.708	-0.170	0.035
-610.230	-71.018	-0.425	0.163
-609.215	-200.000	0.033	0.157
-608.201	51.154	0.093	0.090
-607.186	-80.937	-0.063	0.021
-606.171	-200.000	0.017	-0.198
-605.157	125.646	0.201	-0.259
-604.142	-200.000	-0.005	-0.452
-603.128	-200.000	0.039	-0.335
-602.113	-200.000	-0.022	-0.114
-601.098	-14.973	0.274	0.178
-600.084	340.342	-0.025	-0.050
-599.069	-12.167	0.277	0.185
-598.055	318.086	-0.098	0.189
-597.040	-200.000	0.018	-0.253
-596.025	-139.915	0.379	-0.041
-595.011	-200.000	-0.057	-0.359
-593.996	-40.826	0.459	-0.241
-592.982	165.410	-0.048	-0.069
-591.967	-53.986	0.191	-0.089
-590.952	359.691	-0.072	-0.146
-589.938	342.309	0.079	0.158
-588.923	-34.305	-0.266	-0.149
-587.909	10.096	0.044	-0.034
-586.894	-116.857	-0.123	0.023
-585.879	22.286	-0.163	-0.136
-584.865	-119.636	0.386	-0.068
-583.850	460.927	0.079	0.179
-582.836	-200.000	-0.014	-0.252
-581.821	-168.846	0.213	-0.008
-580.806	-60.625	-0.104	-0.045
-579.792	800.000	0.063	-0.186
-578.777	-92.819	0.192	0.055
-577.763	214.374	-0.159	-0.256
-576.748	-3.377	-0.106	-0.075
-575.733	-4.545	0.377	0.264
-574.719	21.616	0.043	0.035
-573.704	-6.862	-0.272	0.188
-572.690	-75.464	0.200	0.072
-571.675	-90.406	0.114	0.034
-570.661	-50.893	0.054	0.026
-569.646	193.237	0.055	-0.085
-568.631	220.749	0.157	-0.256
-567.617	139.133	-0.158	-0.211
-566.602	-133.271	-0.186	0.024
-565.588	-30.895	0.175	-0.101
-564.573	558.377	-0.047	-0.114
-563.558	800.000	-0.081	-0.281
-562.544	797.947	0.092	-0.257
-561.529	84.785	-0.126	-0.140
-560.515	-144.156	-0.405	0.038
-559.500	-200.000	0.009	0.051
-558.485	145.786	-0.030	0.041
-557.471	-172.764	0.103	0.003
-556.456	-200.000	-0.014	0.081
-555.442	142.729	0.077	0.104
-554.427	-28.961	0.502	-0.293
-553.412	540.552	-0.058	-0.140
-552.398	191.755	-0.091	-0.140
-551.383	164.864	0.097	0.139
-550.369	-200.000	-0.067	-0.504
-549.354	20.260	0.173	0.142
-548.339	-56.217	0.257	-0.116
-547.325	-63.251	-0.158	0.066
-546.310	455.009	-0.060	0.135
-545.296	-72.193	0.347	-0.130
-544.281	131.656	0.137	-0.179
-543.266	-119.427	-0.046	0.008
-542.252	191.442	-0.159	-0.243
-541.237	-200.000	0.021	-0.100
-540.223	-23.903	-0.245	-0.149
-539.208	634.752	0.167	-0.429
-538.193	-67.870	0.296	-0.117
-537.179	509.071	0.110	0.258
-536.164	245.907	0.122	0.208
-535.150	436.992	-0.083	0.183
-534.135	-96.974	0.295	0.078
-533.121	357.319	0.126	-0.255
-532.106	-200.000	0.062	0.302
-531.091	29.194	0.138	0.119
-530.077	-2.765	0.252	0.179
-529.062	-136.550	-0.177	0.021
-528.048	-120.366	0.262	0.045
-527.033	-200.000	-0.028	0.187
-526.018	-200.000	-0.007	0.080
-525.004	-200.000	-0.033	0.198
-523.989	-163.644	-0.284	-0.014
-522.975	259.224	0.110	-0.193
-521.960	225.229	-0.126	-0.208
-520.945	-0.991	-0.008	0.006
-519.931	-68.471	0.270	-0.106
-518.916	800.000	0.022	-0.067
-517.902	-38.096	-0.138	0.074
-516.887	-35.094	-0.143	0.079
-515.872	-180.380	0.454	-0.010
-514.858	-200.000	-0.262	0.001
-513.843	-43.673	0.042	-0.021
-512.829	135.043	0.116	-0.153
-511.814	504.652	0.068	-0.159
-510.799	607.355	0.114	-0.288
-509.785	-200.000	0.048	-0.217
-508.770	-180.910	-0.240	0.005
-507.756	-200.000	-0.037	0.256
-506.741	-200.000	0.032	-0.276
-505.726	-118.328	0.078	0.014
-504.712	35.611	-0.228	0.203
-503.697	266.518	-0.117	-0.208
-502.683	42.633	0.026	0.024
-501.668	157.661	-0.146	-0.205
-500.653	-61.155	0.489	0.209
-499.639	-29.641	0.067	0.039
-498.624	800.000	0.095	0.379
-497.610	-200.000	0.023	0.298
-496.595	8.147	0.058	-0.044
-495.581	85.339	0.204	0.227
-494.566	-31.155	-0.139	0.079
-493.551	-46.071	0.160	-0.080
-492.537	86.578	-0.244	0.272
-491.522	-95.402	-0.344	-0.094
-490.508	-111.975	0.115	-0.023
-489.493	81.439	-0.210	-0.230
-488.478	35.330	0.147	0.131
-487.464	-127.489	-0.241	0.035
-486.449	16.310	-0.245	-0.196
-485.435	-193.752	-0.128	0.001
-484.420	644.926	0.089	0.231
-483.405	288.448	0.093	0.171
-482.391	775.770	-0.035	0.096
-481.376	-50.268	0.150	-0.072
-480.362	-34.928	-0.085	-0.047
-479.347	84.280	-0.049	-0.055
-478.332	321.165	0.185	-0.357
-477.318	59.685	0.085	0.085
-476.303	182.581	0.221	0.331
-475.289	526.831	-0.077	0.183
-474.274	-32.737	-0.159	0.089
-473.259	-178.378	-0.141	0.003
-472.245	-46.438	0.251	-0.125
-471.230	143.932	-0.184	-0.249
-470.216	431.416	0.089	-0.194
-469.201	-40.656	0.165	-0.087
-468.186	-48.175	-0.120	-0.059
-467.172	341.004	-0.060	-0.118
-466.157	-122.374	-0.225	-0.037
-465.143	800.000	0.077	0.269
-464.128	-110.775	0.236	-0.049
-463.113	119.812	-0.092	0.116
-462.099	800.000	-0.071	0.210
-461.084	491.936	-0.133	0.309
-460.070	405.819	-0.166	0.355
-459.055	800.000	-0.030	0.119
-458.040	256.385	-0.124	0.215
-457.026	-70.646	0.111	-0.042
-456.011	4.123	0.146	-0.108
-454.997	-200.000	-0.081	0.370
-453.982	52.960	-0.043	-0.042
-452.968	-97.947	0.025	-0.007
-451.953	92.447	0.184	0.210
-450.938	169.102	0.101	0.145
-449.924	-1.825	0.100	-0.071
-448.909	39.793	-0.263	0.238
-447.895	2.540	-0.068	0.050
-446.880	-200.000	-0.049	-0.295
-445.865	-119.764	-0.109	-0.019
-444.851	-200.000	-0.032	-0.239
-443.836	-60.298	0.136	-0.058
-442.822	-55.222	-0.096	-0.044
-441.807	104.331	-0.159	0.190
-440.792	-200.000	0.018	0.267
-439.778	-180.162	-0.055	-0.001
-438.763	-200.000	-0.027	-0.241
-437.749	-200.000	0.000	0.338
-436.734	-200.000	-0.004	0.119
-435.719	800.000	0.021	0.086
-434.705	800.000	0.075	-0.244
-433.690	496.659	-0.098	-0.229
-432.676	-28.013	0.050	0.029
-431.661	800.000	-0.038	0.147
-430.646	800.000	-0.024	-0.080
-429.632	56.568	0.088	-0.086
-428.617	230.718	-0.192	0.318
-427.603	455.211	0.217	0.486
-426.588	-86.411	0.108	0.034
-425.573	0.250	0.149	0.108
-424.559	129.262	0.096	-0.124
-423.544	311.312	0.177	0.335
-422.530	-32.131	-0.266	0.150
-421.515	281.302	0.028	0.050
-420.500	-66.315	-0.091	0.037
-419.486	800.000	-0.068	0.205
-418.471	-157.222	-0.369	0.023
-417.457	202.558	-0.023	-0.035
-416.442	-200.000	0.016	0.082
-415.428	202.744	-0.057	-0.089
-414.413	-57.706	0.109	0.048
-413.398	-57.106	-0.316	-0.141
-412.384	695.076	0.052	0.137
-411.369	215.186	-0.118	-0.189
-410.355	218.223	0.129	-0.208
-409.340	-62.097	0.303	-0.128
-408.325	657.861	0.008	0.022
-407.311	159.511	0.105	-0.147
-406.296	249.654	-0.083	0.143
-405.282	800.000	0.063	-0.250
-404.267	-78.320	0.162	0.056
-403.252	-32.149	0.115	-0.065
-402.238	-200.000	-0.017	0.295
-401.223	-4.357	-0.185	-0.129
-400.209	111.954	0.148	-0.180
-399.194	800.000	-0.060	-0.213
-398.179	-42.754	-0.251	0.129
-397.165	-200.000	0.031	0.172
-396.150	-92.135	-0.286	0.082
-395.136	-109.959	0.330	-0.070
-394.121	-200.000	0.059	-0.281
-393.106	-53.871	0.214	-0.098
-392.092	142.843	0.250	0.335
-391.077	19.624	-0.177	-0.144
-390.063	31.997	-0.253	-0.220
-389.048	283.076	-0.102	0.186
-388.033	259.565	-0.225	-0.391
-387.019	-200.000	0.025	0.110
-386.004	-86.931	0.219	-0.067
-384.990	-104.889	-0.094	-0.022
-383.975	-170.808	-0.121	0.004
-382.960	277.862	0.140	0.251
-381.946	-75.375	-0.241	-0.087
-380.931	-23.327	-0.052	0.032
-379.917	-196.124	0.266	-0.002
-378.902	-81.407	0.145	-0.048
-377.888	46.479	0.323	-0.302
-376.873	-120.184	0.192	-0.033
-375.858	800.000	0.069	0.242
-374.844	-200.000	-0.003	0.171
-373.829	-123.537	-0.188	0.030
-372.815	-200.000	0.099	-0.447
-371.800	666.032	-0.111	0.289
-370.785	-68.054	-0.265	-0.104
-369.771	-6.465	-0.209	0.144
-368.756	85.589	-0.242	0.268
-367.742	183.250	0.074	-0.110
-366.727	-74.323	0.136	-0.050
-365.712	192.204	0.055	-0.083
-364.698	63.593	0.037	-0.038
-363.683	800.000	-0.120	-0.442
-362.669	-26.564	-0.156	0.092
-361.654	-200.000	-0.013	0.447
-360.639	-147.631	-0.154	0.013
-359.625	213.898	0.282	0.450
-358.610	-54.540	-0.291	0.133
-357.596	151.741	0.033	-0.046
-356.581	374.980	-0.021	-0.043
-355.566	-200.000	0.002	0.105
-354.552	-108.971	0.120	-0.026
-353.537	88.991	0.168	0.188
-352.523	-2.331	-0.281	0.199
-351.508	425.676	-0.022	0.048
-350.493	-42.273	-0.199	0.102
-349.479	-48.375	-0.270	0.131
-348.464	390.592	0.025	0.053
-347.450	-13.186	0.238	-0.156
-346.435	-200.000	0.015	0.093
-345.420	-87.582	0.316	0.096
-344.406	14.758	-0.103	-0.081
-343.391	-200.000	-0.090	-0.485
-342.377	-149.520	0.095	-0.008
-341.362	-14.821	0.146	0.094
-340.348	62.637	0.162	0.163
-339.333	136.400	0.188	-0.248
-338.318	-33.007	0.185	-0.103
-337.304	18.454	-0.186	-0.149
-336.289	-21.616	-0.077	0.047
-335.275	-30.490	-0.121	0.069
-334.260	-124.688	0.489	-0.076
-333.245	175.836	-0.232	-0.339
-332.231	-111.864	-0.374	-0.076
-331.216	-6.111	0.145	0.100
-330.202	-109.758	0.393	0.083
-329.187	800.000	-0.107	0.303
-328.172	-16.046	-0.166	0.106
-327.158	708.559	-0.081	-0.214
-326.143	-200.000	-0.030	-0.308
-325.129	-59.393	0.109	0.047
-324.114	-68.848	-0.105	-0.041
-323.099	-145.037	-0.196	0.018
-322.085	112.597	-0.164	-0.199
-321.070	270.932	-0.102	-0.181
-320.056	389.025	-0.042	-0.087
-319.041	49.208	-0.125	0.118
-318.026	274.231	0.021	0.038
-317.012	800.000	0.044	0.182
-315.997	564.347	-0.050	-0.122
-314.983	-200.000	0.005	0.104
-313.968	4.356	0.179	-0.132
-312.953	-200.000	-0.017	0.310
-311.939	-200.000	-0.004	0.019
-310.924	-200.000	0.001	-0.224
-309.910	618.189	-0.037	-0.094
-308.895	-200.000	0.016	0.094
-307.880	-150.135	0.146	-0.011
-306.866	800.000	-0.040	0.156
-305.851	-68.667	0.304	-0.118
-304.837	94.791	-0.074	0.084
-303.822	-29.006	0.387	0.224
-302.807	-82.327	0.285	0.093
-301.793	-150.114	-0.407	0.032
-300.778	-200.000	0.034	0.154
-299.764	-94.721	-0.128	-0.035
-298.749	-75.278	-0.153	0.055
-297.735	-51.493	0.089	0.042
-296.720	571.437	-0.073	0.179
-295.705	346.733	-0.083	0.164
-294.691	-7.840	0.198	-0.134
-293.676	-200.000	0.012	0.069
-292.662	-114.177	0.129	0.025
-291.647	450.079	0.070	0.155
-290.632	15.145	0.375	0.295
-289.618	130.392	-0.072	-0.092
-288.603	-200.000	-0.066	-0.433
-287.589	30.428	-0.151	0.130
-286.574	-164.067	-0.380	0.018
-285.559	76.216	-0.245	-0.261
-284.545	72.797	0.177	-0.186
-283.530	96.394	-0.240	0.276
-282.516	93.906	0.301	0.343
-281.501	347.246	-0.079	-0.156
-280.486	89.802	-0.122	-0.137
-279.472	-61.020	-0.199	-0.085
-278.457	-118.352	-0.167	0.030
-277.443	298.304	-0.070	-0.130
-276.428	800.000	0.041	0.152
-275.413	73.597	0.210	-0.221
-274.399	307.838	0.058	0.109
-273.384	800.000	-0.043	0.146
-272.370	222.529	0.045	-0.073
-271.355	55.608	-0.062	-0.060
-270.340	35.413	-0.167	-0.147
-269.326	-200.000	-0.588	-0.001
-268.311	-63.541	0.222	-0.092
-267.297	660.534	0.062	0.161
-266.282	-23.907	-0.103	-0.062
-265.267	642.601	0.065	0.167
-264.253	-34.416	-0.233	0.128
-263.238	800.000	-0.015	0.043
-262.224	-200.000	-0.042	0.186
-261.209	800.000	0.015	0.063
-260.195	-9.575	0.271	0.181
-259.180	-28.870	0.262	0.151
-258.165	-26.524	0.235	0.138
-257.151	-200.000	0.018	-0.390
-256.136	26.750	0.052	-0.044
-255.122	79.970	-0.077	-0.083
-254.107	-98.105	0.414	-0.107
-253.092	-19.792	-0.439	-0.272
-252.078	-84.785	-0.292	0.092
-251.063	-114.055	-0.273	-0.053
-250.049	1.605	-0.154	-0.111
-249.034	-97.188	0.239	0.063
-248.019	-200.000	0.014	0.147
-247.005	-200.000	-0.030	0.232
-245.990	-200.000	0.013	0.266
-244.976	-65.211	0.226	-0.091
-243.961	91.820	0.146	0.164
-242.946	570.951	-0.064	-0.156
-241.932	254.067	0.175	0.300
-240.917	-200.000	-0.018	0.253
-239.903	-200.000	-0.007	-0.149
-238.888	-200.000	-0.017	-0.144
-237.873	14.537	-0.313	-0.246
-236.859	-45.023	-0.133	-0.066
-235.844	800.000	-0.040	0.114
-234.830	-200.000	0.026	-0.187
-233.815	-54.649	0.172	-0.078
-232.800	119.498	-0.229	-0.285
-231.786	-200.000	0.013	0.060
-230.771	800.000	-0.082	0.276
-229.757	64.498	0.051	-0.052
-228.742	-18.377	0.118	-0.074
-227.727	10.706	0.174	-0.133
-226.713	72.738	0.105	-0.110
-225.698	-123.122	0.260	0.042
-224.684	270.183	-0.112	-0.197
-223.669	-146.284	-0.131	-0.012
-222.655	51.312	-0.197	0.187
-221.640	-200.000	-0.009	0.247
-220.625	-120.602	-0.189	-0.032
-219.611	-61.825	0.086	0.036
-218.596	-36.926	0.201	0.108
-217.582	-1.198	-0.118	-0.083
-216.567	-52.779	-0.350	-0.162
-215.552	394.330	-0.131	-0.273
-214.538	-57.348	-0.204	-0.090
-213.523	5.120	-0.213	0.157
-212.509	-87.213	-0.398	0.121
-211.494	4.359	-0.293	0.216
-210.479	-200.000	-0.039	0.432
-209.465	800.000	-0.033	-0.115
-208.450	-200.000	0.012	0.144
-207.436	-200.000	0.007	-0.320
-206.421	-64.523	0.526	-0.214
-205.406	-159.939	0.075	-0.004
-204.392	16.714	0.206	-0.163
-203.377	17.824	0.321	0.256
-202.363	335.758	0.123	0.239
-201.348	-132.856	0.260	-0.033
-200.333	-36.459	-0.274	0.148
-199.319	135.183	0.109	0.142
-198.304	800.000	0.074	0.224
-197.290	800.000	0.084	-0.304
-196.275	56.817	-0.192	0.187
-195.260	344.321	-0.126	-0.248
-194.246	594.701	0.111	0.276
-193.231	-86.619	-0.488	0.150
-192.217	7.845	0.229	-0.172
-191.202	-61.798	0.078	0.033
-190.187	153.093	-0.149	0.204
-189.173	-51.273	-0.137	-0.064
-188.158	-118.939	0.116	0.020
-187.144	-22.790	-0.297	0.180
-186.129	101.849	-0.141	0.165
-185.114	107.264	-0.110	0.131
-184.100	800.000	0.021	0.069
-183.085	-148.605	-0.132	-0.011
-182.071	-200.000	0.026	0.122
-181.056	-200.000	0.005	-0.041
-180.042	-200.000	-0.010	-0.105
-179.027	800.000	0.057	0.244
-178.012	-200.000	-0.008	-0.182
-176.998	800.000	-0.041	0.122
-175.983	-55.446	0.103	0.046
-174.969	-110.159	0.209	0.044
-173.954	-200.000	-0.012	-0.226
-172.939	78.809	0.105	-0.112
-171.925	171.691	0.105	-0.151
-170.910	-200.000	0.026	0.316
-169.896	-28.181	-0.308	0.178
-168.881	6.723	-0.232	0.173
-167.866	14.041	-0.223	-0.174
-166.852	-200.000	0.002	-0.095
-165.837	-13.709	-0.076	-0.049
-164.823	-62.255	0.128	0.053
-163.808	182.167	0.266	-0.393
-162.793	253.591	0.156	-0.266
-161.779	141.922	0.279	-0.369
-160.764	-95.514	0.205	0.055
-159.750	139.788	-0.106	0.140
-158.735	-200.000	0.007	-0.074
-157.720	140.058	0.072	-0.095
-156.706	-14.291	-0.135	-0.087
-155.691	325.107	0.162	-0.309
-154.677	141.773	-0.047	-0.063
-153.662	556.572	0.072	-0.173
-152.647	-47.916	0.267	0.129
-151.633	189.349	-0.045	0.067
-150.618	-85.957	0.154	-0.048
-149.604	99.878	0.204	0.236
-148.589	31.688	-0.237	0.204
-147.574	-163.525	0.079	0.004
-146.560	-200.000	0.017	0.259
-145.545	-92.540	0.505	0.142
-144.531	42.349	-0.111	-0.101
-143.516	-200.000	0.027	0.217
-142.502	0.813	-0.066	-0.048
-141.487	-1.436	0.228	0.161
-140.472	-135.048	0.452	0.054
-139.458	-200.000	-0.030	0.305
-138.443	-37.274	0.172	-0.092
-137.429	-3.323	0.143	-0.100
-136.414	800.000	-0.014	0.041
-135.399	196.883	-0.179	0.273
-134.385	-200.000	0.004	0.122
-133.370	-85.086	-0.271	0.085
-132.356	-93.886	0.137	-0.038
-131.341	180.076	0.020	-0.030
-130.326	-106.535	0.450	-0.100
-129.312	-45.420	0.064	-0.032
-128.297	14.963	-0.349	0.273
-127.283	-149.024	-0.230	-0.019
-126.268	157.815	0.130	0.180
-125.253	25.863	0.416	0.346
-124.239	-41.069	0.206	0.106
-123.224	88.379	-0.252	0.279
-122.210	-3.497	0.164	-0.114
-121.195	-14.483	-0.365	-0.234
-120.180	246.692	-0.163	-0.275
