DTS Sentinel unit serial number:	SN413079Multiplexer serial number:	ORYXHardware model number:	OX4-SRSoftware version number:	ORYX F/W v4.00 Oryx Data Collector v3.7.2.0data status	okinstallation	princeton_trtdifferential loss correction	single-endedforward channel	channel 3reverse channel	N/Adate	2019/09/12time	17:42:11forward acquisition time	60.00reverse acquisition time	0.00gamma	496.2192k internal	0.2316k external	0.2316temperature offset calibration	1.0093default loss term (dB/km)	0.3790temperature slope calibration	1.0000multiplexer offset coefficient	1.0000multiplexer slope coefficient	1.0000fibre end	0.00T internal ref (°C)	34.25T ext. ref 1 (°C)	2.88T ext. ref 2 (°C)	28.21length (m)	temperature (°C)	Stokes	anti-Stokes-747.200	-46.408	0.252	-0.125
-746.185	-200.000	0.070	0.603
-745.171	145.277	0.047	-0.064
-744.156	800.000	0.107	0.375
-743.142	800.000	-0.077	0.331
-742.127	800.000	0.076	0.332
-741.112	80.082	-0.039	-0.043
-740.098	238.842	-0.214	0.360
-739.083	-125.396	-0.059	0.009
-738.069	-200.000	-0.015	0.321
-737.054	800.000	0.037	0.126
-736.039	-186.531	-0.497	-0.007
-735.025	-20.762	0.173	0.107
-734.010	61.859	-0.115	-0.116
-732.996	-19.078	-0.123	-0.078
-731.981	-67.525	-0.232	0.092
-730.966	202.695	-0.148	-0.232
-729.952	-120.671	-0.179	0.031
-728.937	-86.397	0.338	-0.105
-727.923	-60.629	-0.318	0.137
-726.908	-10.604	-0.113	0.076
-725.894	-200.000	0.041	0.223
-724.879	-200.000	-0.035	0.241
-723.864	-100.665	-0.328	-0.082
-722.850	24.390	-0.236	-0.197
-721.835	408.145	-0.097	-0.208
-720.821	39.906	-0.231	0.210
-719.806	-51.932	-0.272	-0.128
-718.791	-75.857	0.092	0.033
-717.777	58.593	0.159	0.158
-716.762	-200.000	-0.018	-0.198
-715.748	-85.146	0.226	-0.072
-714.733	98.396	0.038	0.044
-713.718	31.185	0.222	-0.193
-712.704	-89.764	0.192	-0.057
-711.689	-163.910	0.086	-0.004
-710.675	34.009	-0.184	-0.162
-709.660	-139.863	-0.121	-0.013
-708.645	-0.650	-0.162	0.116
-707.631	800.000	-0.053	-0.156
-706.616	18.567	0.137	0.111
-705.602	-200.000	-0.031	-0.315
-704.587	-78.724	-0.286	0.099
-703.572	-200.000	0.047	0.284
-702.558	-134.080	-0.226	-0.028
-701.543	-200.000	-0.062	0.343
-700.529	-200.000	-0.043	0.224
-699.514	50.918	-0.192	0.184
-698.499	284.568	0.158	0.288
-697.485	-200.000	0.014	0.132
-696.470	-46.288	-0.071	-0.035
-695.456	-200.000	0.028	-0.134
-694.441	-200.000	0.016	-0.287
-693.426	-43.807	-0.264	-0.134
-692.412	-112.659	-0.066	0.013
-691.397	35.779	-0.040	0.035
-690.383	800.000	-0.055	-0.220
-689.368	342.930	-0.075	0.148
-688.354	-68.257	0.145	0.057
-687.339	-64.205	0.251	-0.103
-686.324	171.487	0.132	0.192
-685.310	86.743	-0.044	0.049
-684.295	9.838	-0.213	0.163
-683.281	330.353	0.147	0.286
-682.266	383.030	-0.130	-0.271
-681.251	-200.000	0.040	0.343
-680.237	-200.000	0.031	-0.160
-679.222	800.000	0.037	-0.143
-678.208	-57.536	-0.401	0.178
-677.193	-31.313	-0.221	0.126
-676.178	-200.000	-0.010	-0.390
-675.164	-51.954	0.161	-0.076
-674.149	-112.705	-0.360	0.072
-673.135	-94.028	0.137	0.038
-672.120	-161.790	0.220	0.011
-671.105	138.957	-0.132	-0.175
-670.091	-9.804	0.161	-0.108
-669.076	-73.203	0.095	-0.035
-668.062	-200.000	0.052	-0.279
-667.047	-65.083	0.294	0.120
-666.032	-38.422	-0.192	0.103
-665.018	-200.000	0.033	-0.180
-664.003	202.299	0.163	-0.255
-662.989	86.891	0.126	-0.140
-661.974	-81.955	-0.233	-0.077
-660.959	103.494	0.175	0.207
-659.945	21.032	-0.131	-0.107
-658.930	-200.000	-0.058	-0.354
-657.916	145.576	-0.227	-0.307
-656.901	-200.000	-0.015	0.350
-655.886	13.270	0.129	-0.101
-654.872	-200.000	-0.010	-0.068
-653.857	-150.091	0.353	-0.028
-652.843	-39.744	0.323	0.170
-651.828	-200.000	0.040	-0.344
-650.814	-102.026	-0.101	0.025
-649.799	214.219	-0.096	-0.154
-648.784	71.048	-0.239	0.250
-647.770	-200.000	0.014	-0.079
-646.755	40.241	0.080	0.073
-645.741	-131.412	-0.360	-0.048
-644.726	-118.511	0.114	0.020
-643.711	-16.829	0.083	-0.053
-642.697	72.148	0.065	0.068
-641.682	157.457	0.096	0.134
-640.668	-99.641	0.149	-0.038
-639.653	294.007	0.082	-0.151
-638.638	-145.514	-0.276	-0.025
-637.624	166.179	-0.098	-0.140
-636.609	-58.427	0.221	-0.097
-635.595	333.295	-0.070	0.136
-634.580	2.433	0.060	-0.044
-633.565	-36.288	0.157	-0.085
-632.551	88.988	0.162	0.182
-631.536	-156.784	-0.298	-0.019
-630.522	-200.000	0.011	-0.289
-629.507	38.398	0.141	0.127
-628.492	-52.402	-0.260	-0.122
-627.478	800.000	0.081	0.298
-626.463	-136.088	0.336	-0.040
-625.449	88.399	0.088	-0.098
-624.434	-128.264	-0.458	0.066
-623.419	126.223	0.073	-0.093
-622.405	701.470	-0.142	-0.378
-621.390	800.000	-0.061	0.252
-620.376	-30.770	0.259	0.148
-619.361	61.624	-0.264	0.265
-618.346	-67.493	-0.170	-0.067
-617.332	-79.015	0.192	-0.066
-616.317	-65.506	-0.242	0.098
-615.303	-200.000	-0.002	0.208
-614.288	137.875	0.085	-0.112
-613.273	253.065	-0.312	-0.537
-612.259	-200.000	-0.006	-0.041
-611.244	16.960	-0.166	0.132
-610.230	195.890	-0.173	-0.266
-609.215	-34.592	-0.101	-0.056
-608.201	-130.629	-0.300	0.041
-607.186	-0.559	0.207	-0.148
-606.171	-5.766	0.162	0.112
-605.157	90.582	0.046	0.051
-604.142	265.942	-0.061	0.107
-603.128	-200.000	0.017	-0.130
-602.113	800.000	0.100	-0.308
-601.098	623.289	-0.024	-0.060
-600.084	-131.964	-0.367	0.048
-599.069	-118.854	-0.197	0.035
-598.055	187.769	-0.189	-0.284
-597.040	800.000	-0.041	-0.141
-596.025	800.000	0.018	-0.068
-595.011	800.000	0.076	0.245
-593.996	110.225	-0.225	0.272
-592.982	-89.464	0.150	0.045
-591.967	139.843	-0.064	0.084
-590.952	-25.787	-0.073	-0.043
-589.938	800.000	-0.113	-0.407
-588.923	-13.177	0.190	-0.124
-587.909	70.256	-0.056	0.058
-586.894	-56.566	-0.037	-0.016
-585.879	-86.355	-0.367	-0.114
-584.865	800.000	0.094	0.262
-583.850	260.969	0.184	-0.321
-582.836	-95.451	-0.099	-0.027
-581.821	-35.976	0.224	-0.122
-580.806	125.526	-0.238	0.302
-579.792	-166.249	-0.232	0.010
-578.777	209.639	0.029	-0.046
-577.763	-200.000	-0.027	0.345
-576.748	-74.083	0.135	-0.049
-575.733	191.714	-0.208	-0.315
-574.719	196.997	0.285	-0.438
-573.704	-59.268	-0.210	-0.091
-572.690	25.906	0.172	-0.144
-571.675	800.000	-0.063	0.275
-570.661	332.074	0.218	0.424
-569.646	-189.962	0.205	0.002
-568.631	-2.645	-0.191	0.135
-567.617	-200.000	-0.063	0.481
-566.602	179.508	-0.029	0.042
-565.588	-36.651	0.069	-0.038
-564.573	-200.000	-0.058	-0.366
-563.558	-62.198	-0.134	-0.056
-562.544	-87.621	-0.170	0.052
-561.529	-100.280	-0.182	-0.045
-560.515	-200.000	0.017	-0.343
-559.500	18.040	0.120	0.096
-558.485	14.067	0.173	0.136
-557.471	30.864	-0.178	-0.153
-556.456	-200.000	0.011	-0.078
-555.442	102.974	-0.143	0.169
-554.427	-21.583	0.321	-0.197
-553.412	-54.114	0.052	-0.024
-552.398	-0.362	0.279	-0.199
-551.383	-92.150	0.234	-0.066
-550.369	-171.354	0.228	-0.008
-549.354	171.192	0.114	0.165
-548.339	-200.000	0.017	0.110
-547.325	124.714	0.155	-0.196
-546.310	-200.000	0.048	-0.431
-545.296	135.123	0.273	0.357
-544.281	-27.225	0.126	-0.074
-543.266	-67.924	-0.137	0.054
-542.252	-34.226	0.062	0.034
-541.237	434.169	-0.077	-0.168
-540.223	358.590	-0.031	0.062
-539.208	-112.381	0.298	0.060
-538.193	-110.029	0.053	0.011
-537.179	-119.531	0.527	-0.092
-536.164	-3.267	-0.262	-0.183
-535.150	-200.000	-0.023	-0.151
-534.135	-66.643	-0.161	-0.064
-533.121	-200.000	0.002	0.149
-532.106	-101.537	-0.127	0.031
-531.091	229.198	-0.086	0.141
-530.077	140.141	-0.081	0.107
-529.062	144.739	0.209	-0.281
-528.048	19.127	-0.230	-0.186
-527.033	41.479	0.188	0.170
-526.018	-2.236	-0.286	0.202
-525.004	-200.000	0.004	0.051
-523.989	456.137	0.037	-0.082
-522.975	-186.733	0.154	0.002
-521.960	800.000	-0.031	0.098
-520.945	-22.886	-0.261	0.158
-519.931	44.940	0.218	-0.202
-518.916	-29.307	-0.258	0.148
-517.902	-44.932	0.248	0.124
-516.887	-44.080	-0.108	-0.055
-515.872	641.636	0.092	-0.234
-514.858	269.223	0.055	0.097
-513.843	249.859	-0.034	0.057
-512.829	-34.767	0.405	0.222
-511.814	150.165	-0.235	-0.320
-510.799	149.562	-0.186	-0.253
-509.785	-200.000	0.005	-0.119
-508.770	800.000	-0.034	0.142
-507.756	-200.000	-0.036	0.360
-506.741	-150.105	-0.368	-0.029
-505.726	-125.245	-0.289	-0.044
-504.712	752.383	0.035	-0.095
-503.697	-123.036	-0.392	-0.063
-502.683	-200.000	-0.028	-0.131
-501.668	162.616	-0.132	0.186
-500.653	409.311	0.117	-0.248
-499.639	800.000	-0.063	-0.180
-498.624	323.511	-0.113	0.216
-497.610	200.622	-0.261	-0.403
-496.595	-200.000	0.001	0.022
-495.581	449.738	-0.108	-0.239
-494.566	-70.630	0.151	0.057
-493.551	-109.047	0.122	-0.026
-492.537	70.980	0.263	-0.273
-491.522	350.521	-0.076	0.151
-490.508	-129.172	0.037	-0.005
-489.493	118.312	-0.183	-0.227
-488.478	-91.128	-0.236	-0.068
-487.464	159.287	-0.072	-0.100
-486.449	17.330	0.079	-0.063
-485.435	-120.014	0.268	-0.046
-484.420	-4.893	-0.267	0.185
-483.405	-121.036	0.122	-0.021
-482.391	-78.569	0.186	0.064
-481.376	656.252	-0.106	0.274
-480.362	-200.000	0.020	-0.191
-479.347	538.789	-0.073	0.174
-478.332	-200.000	0.034	0.161
-477.318	179.648	0.137	0.202
-476.303	-45.491	-0.086	-0.043
-475.289	95.677	0.114	-0.131
-474.274	-170.562	-0.287	-0.010
-473.259	-200.000	-0.001	-0.021
-472.245	-59.368	0.249	0.107
-471.230	225.286	0.083	0.135
-470.216	-114.182	0.166	-0.032
-469.201	-115.299	0.273	-0.052
-468.186	-62.856	0.201	0.083
-467.172	60.343	-0.098	-0.097
-466.157	385.873	-0.049	-0.101
-465.143	10.383	0.111	0.085
-464.128	57.554	0.229	-0.224
-463.113	-200.000	0.022	-0.162
-462.099	48.995	0.107	0.101
-461.084	202.703	0.106	-0.164
-460.070	800.000	0.050	-0.157
-459.055	-164.153	-0.273	0.013
-458.040	89.632	-0.017	-0.019
-457.026	80.650	0.306	0.331
-456.011	61.637	0.188	0.188
-454.997	64.224	0.055	-0.056
-453.982	288.663	-0.023	-0.042
-452.968	-200.000	0.020	0.179
-451.953	312.230	-0.092	-0.174
-450.938	37.706	-0.264	0.235
-449.924	33.671	0.208	0.181
-448.909	800.000	0.042	0.155
-447.895	-21.140	0.041	-0.025
-446.880	54.739	-0.041	-0.040
-445.865	105.677	-0.248	0.293
-444.851	-37.972	-0.165	0.088
-443.836	800.000	0.071	0.206
-442.822	-103.738	-0.402	0.094
-441.807	-31.050	0.174	0.099
-440.792	508.820	-0.106	0.246
-439.778	82.724	-0.265	-0.288
-438.763	265.489	-0.124	-0.216
-437.749	-67.487	0.299	-0.118
-436.734	51.750	0.143	-0.136
-435.719	-100.673	0.361	0.089
-434.705	98.114	0.154	0.178
-433.690	-192.058	-0.287	0.003
-432.676	-88.071	-0.099	-0.030
-431.661	26.818	-0.195	0.163
-430.646	402.316	0.059	0.123
-429.632	137.351	-0.267	-0.349
-428.617	-74.686	0.031	-0.011
-427.603	-37.486	-0.311	-0.166
-426.588	179.367	0.057	-0.084
-425.573	-151.665	-0.272	-0.020
-424.559	-10.475	0.180	0.119
-423.544	-80.991	0.269	0.089
-422.530	-200.000	0.036	-0.237
-421.515	800.000	0.053	-0.230
-420.500	-25.783	0.135	-0.079
-419.486	705.780	-0.041	0.109
-418.471	-89.185	0.070	0.021
-417.457	340.231	-0.093	0.182
-416.442	343.122	0.145	0.285
-415.428	-31.257	0.117	0.066
-414.413	-77.341	-0.181	0.063
-413.398	12.783	-0.133	-0.102
-412.384	-56.389	-0.150	0.066
-411.369	143.514	-0.279	0.372
-410.355	-0.174	0.136	0.097
-409.340	173.665	0.067	0.096
-408.325	193.480	-0.137	0.208
-407.311	-53.842	-0.394	0.180
-406.296	-200.000	-0.016	0.089
-405.282	86.466	-0.094	-0.104
-404.267	800.000	-0.089	-0.279
-403.252	-200.000	0.022	0.258
-402.238	-54.839	0.177	0.080
-401.223	-36.673	0.155	0.083
-400.209	139.336	-0.179	0.235
-399.194	-22.544	-0.123	-0.075
-398.179	114.170	-0.125	0.152
-397.165	558.805	0.133	0.321
-396.150	-87.378	-0.336	0.102
-395.136	-85.540	-0.184	0.057
-394.121	-200.000	0.031	0.147
-393.106	-200.000	-0.022	0.179
-392.092	19.472	0.130	0.104
-391.077	-200.000	-0.098	-0.515
-390.063	266.293	0.147	0.256
-389.048	388.490	0.077	-0.160
-388.033	800.000	0.076	0.212
-387.019	-200.000	-0.009	0.301
-386.004	-96.194	-0.143	-0.038
-384.990	84.523	-0.103	-0.113
-383.975	-34.121	-0.038	-0.021
-382.960	190.686	-0.155	-0.233
-381.946	-200.000	0.009	-0.379
-380.931	-200.000	0.069	-0.340
-379.917	-200.000	0.013	-0.245
-378.902	47.571	0.170	0.159
-377.888	46.244	-0.500	-0.463
-376.873	-111.426	0.190	-0.039
-375.858	405.705	-0.040	0.084
-374.844	-197.482	0.176	-0.001
-373.829	-84.231	-0.072	0.023
-372.815	128.779	0.069	-0.088
-371.800	-65.227	-0.097	0.039
-370.785	116.844	0.045	0.056
-369.771	-85.637	0.240	-0.074
-368.756	237.074	-0.045	0.075
-367.742	741.972	0.030	-0.081
-366.727	-47.193	-0.263	-0.128
-365.712	110.548	-0.081	0.097
-364.698	-152.226	-0.325	-0.023
-363.683	-161.839	0.311	0.016
-362.669	-84.778	-0.187	0.059
-361.654	138.736	-0.239	0.314
-360.639	49.893	0.282	0.265
-359.625	122.993	0.133	0.166
-358.610	-7.545	-0.065	-0.044
-357.596	-94.625	-0.257	0.070
-356.581	-113.923	0.186	0.036
-355.566	685.399	0.111	0.290
-354.552	258.851	-0.034	-0.058
-353.537	800.000	0.040	-0.154
-352.523	800.000	0.090	-0.255
-351.508	-137.084	0.246	-0.028
-350.493	-200.000	-0.005	0.253
-349.479	571.652	-0.102	-0.247
-348.464	-69.874	-0.148	-0.056
-347.450	-200.000	-0.002	0.081
-346.435	141.877	0.211	-0.279
-345.420	23.554	-0.147	0.121
-344.406	-132.775	-0.401	0.051
-343.391	-124.173	-0.056	-0.009
-342.377	-200.000	-0.017	0.259
-341.362	-67.661	0.234	-0.091
-340.348	130.395	0.047	-0.060
-339.333	-89.353	0.320	-0.094
-338.318	-62.915	0.076	-0.031
-337.304	366.984	0.113	-0.226
-336.289	40.062	-0.104	0.093
-335.275	800.000	0.034	-0.115
-334.260	162.142	0.054	0.076
-333.245	39.563	-0.102	0.091
-332.231	-200.000	0.050	0.339
-331.216	9.759	-0.203	0.154
-330.202	264.419	0.126	-0.218
-329.187	800.000	-0.030	0.114
-328.172	130.037	-0.272	-0.347
-327.158	-200.000	0.034	0.280
-326.143	800.000	0.105	0.386
-325.129	172.353	-0.078	-0.113
-324.114	121.082	0.151	0.188
-323.099	200.002	-0.017	-0.025
-322.085	27.284	0.302	-0.253
-321.070	-200.000	-0.030	-0.210
-320.056	300.629	0.158	-0.290
-319.041	-52.685	-0.119	-0.055
-318.026	-60.497	-0.321	-0.136
-317.012	800.000	0.140	0.434
-315.997	-179.414	0.239	-0.005
-314.983	-200.000	0.008	0.167
-313.968	800.000	-0.040	-0.165
-312.953	-158.800	0.161	-0.009
-311.939	104.889	-0.161	-0.189
-310.924	71.763	-0.129	0.134
-309.910	800.000	0.112	-0.318
-308.895	-83.963	0.260	0.082
-307.880	800.000	0.086	-0.276
-306.866	281.080	0.051	0.091
-305.851	592.996	-0.098	0.241
-304.837	-62.751	0.156	0.065
-303.822	-55.383	0.407	-0.182
-302.807	800.000	0.061	-0.194
-301.793	-200.000	0.043	-0.219
-300.778	212.313	-0.063	0.099
-299.764	139.150	0.119	0.156
-298.749	252.216	-0.248	-0.421
-297.735	-68.696	-0.247	0.095
-296.720	157.288	-0.198	0.273
-295.705	320.404	-0.052	0.098
-294.691	-200.000	0.017	-0.122
-293.676	73.798	-0.095	-0.099
-292.662	141.084	-0.232	-0.305
-291.647	-140.891	-0.200	-0.021
-290.632	-20.583	0.257	0.157
-289.618	-25.398	-0.385	-0.227
-288.603	-200.000	0.015	-0.129
-287.589	6.888	-0.004	0.003
-286.574	-76.032	0.153	0.054
-285.559	-149.772	-0.313	0.024
-284.545	71.960	0.097	-0.101
-283.530	-125.421	-0.049	0.007
-282.516	240.617	0.118	-0.196
-281.501	372.431	0.233	-0.472
-280.486	429.231	0.165	-0.354
-279.472	7.812	0.296	-0.221
-278.457	-200.000	-0.055	-0.246
-277.443	272.756	0.202	0.355
-276.428	184.909	-0.181	-0.266
-275.413	7.512	0.151	-0.112
-274.399	75.947	-0.157	0.165
-273.384	63.223	-0.133	0.132
-272.370	49.409	-0.098	-0.092
-271.355	149.672	0.132	-0.178
-270.340	-200.000	-0.016	0.130
-269.326	76.146	0.129	-0.136
-268.311	-16.925	-0.161	0.101
-267.297	-112.516	-0.314	-0.062
-266.282	207.389	-0.112	-0.174
-265.267	267.088	-0.070	-0.121
-264.253	-88.337	0.288	0.085
-263.238	217.394	0.082	0.130
-262.224	109.664	-0.276	0.329
-261.209	-138.291	-0.115	-0.013
-260.195	-137.824	0.159	0.018
-259.180	54.686	0.068	0.065
-258.165	733.159	0.074	0.196
-257.151	227.653	-0.022	-0.036
-256.136	-131.216	-0.104	0.014
-255.122	304.906	0.117	0.215
-254.107	-26.189	0.254	0.148
-253.092	800.000	-0.072	-0.202
-252.078	-82.850	0.281	0.090
-251.063	54.678	-0.163	0.157
-250.049	-16.625	0.062	0.039
-249.034	800.000	-0.068	0.283
-248.019	-122.247	-0.285	-0.046
-247.005	-132.660	0.187	-0.024
-245.990	-69.993	0.541	0.205
-244.976	72.297	-0.106	0.110
-243.961	207.480	-0.157	0.244
-242.946	800.000	-0.020	0.071
-241.932	57.411	0.049	-0.048
-240.917	-8.424	0.296	0.198
-239.903	32.481	0.146	-0.126
-238.888	-4.599	-0.180	0.124
-237.873	146.039	0.145	0.194
-236.859	-82.073	-0.295	-0.096
-235.844	128.051	0.178	-0.225
-234.830	-47.824	-0.054	-0.026
-233.815	-105.276	-0.280	0.064
-232.800	201.546	-0.173	-0.264
-231.786	-125.476	0.215	0.033
-230.771	-171.266	0.553	-0.018
-229.757	-41.499	0.273	0.139
-228.742	-38.095	-0.046	0.024
-227.727	-60.789	0.486	-0.204
-226.713	105.251	-0.187	0.219
-225.698	-200.000	-0.050	0.218
-224.684	-200.000	-0.026	-0.162
-223.669	285.465	0.165	0.296
-222.655	133.483	0.185	-0.237
-221.640	14.158	0.325	0.251
-220.625	-191.710	0.115	0.001
-219.611	586.282	-0.064	-0.157
-218.596	262.047	-0.239	0.410
-217.582	220.005	0.136	0.216
-216.567	-200.000	-0.023	0.158
-215.552	-193.907	-0.318	-0.003
-214.538	-18.873	-0.181	0.112
-213.523	800.000	-0.079	-0.224
-212.509	-91.860	-0.473	0.133
-211.494	74.316	0.189	-0.198
-210.479	-10.221	0.061	0.040
-209.465	127.639	-0.257	-0.323
-208.450	-5.005	0.169	-0.115
-207.436	556.866	0.094	-0.224
-206.421	800.000	-0.109	-0.351
-205.406	475.460	-0.058	-0.129
-204.392	35.211	0.054	0.047
-203.377	-44.125	-0.207	0.103
-202.363	800.000	-0.129	0.549
-201.348	-168.418	-0.005	0.000
-200.333	222.588	0.109	0.174
-199.319	-163.709	-0.053	-0.002
-198.304	-123.845	-0.099	0.016
-197.290	800.000	-0.095	0.278
-196.275	-126.057	0.165	0.025
-195.260	495.117	-0.070	-0.159
-194.246	499.554	-0.091	0.208
-193.231	180.864	0.159	0.232
-192.217	-200.000	-0.002	0.074
-191.202	800.000	-0.072	-0.299
-190.187	62.604	0.063	0.062
-189.173	-200.000	0.005	0.207
-188.158	171.258	-0.125	0.177
-187.144	-117.754	-0.115	0.020
-186.129	12.546	-0.280	-0.214
-185.114	5.969	-0.131	-0.096
-184.100	-93.533	0.310	-0.085
-183.085	-124.922	-0.333	0.051
-182.071	74.170	0.048	0.050
-181.056	-200.000	-0.079	-0.385
-180.042	800.000	-0.019	-0.074
-179.027	56.231	0.114	-0.110
-178.012	-141.922	0.214	0.021
-176.998	-66.030	0.082	-0.032
-175.983	-125.461	-0.287	-0.043
-174.969	111.841	0.194	-0.232
-173.954	-4.510	0.310	-0.212
-172.939	800.000	0.134	0.521
-171.925	5.134	-0.199	0.145
-170.910	-200.000	0.016	-0.075
-169.896	-59.291	0.353	0.150
-168.881	441.475	-0.096	-0.208
-167.866	-52.518	0.206	0.094
-166.852	-116.555	-0.029	0.005
-165.837	-68.350	0.315	0.121
-164.823	-200.000	0.015	-0.162
-163.808	-126.129	0.238	0.035
-162.793	-55.528	-0.116	-0.051
-161.779	84.498	0.181	0.197
-160.764	66.663	0.131	0.132
-159.750	-130.088	0.282	-0.038
-158.735	-71.234	0.143	0.053
-157.720	39.207	0.269	-0.239
-156.706	209.962	0.063	0.098
-155.691	7.455	0.172	0.127
-154.677	355.205	-0.151	0.298
-153.662	-117.733	0.300	-0.053
-152.647	-73.815	-0.168	-0.060
-151.633	-200.000	-0.002	0.121
-150.618	-200.000	-0.001	0.132
-149.604	52.086	0.269	-0.254
-148.589	114.340	-0.136	0.164
-147.574	178.198	-0.144	0.208
-146.560	347.049	-0.064	0.125
-145.545	-200.000	-0.071	0.417
-144.531	-151.980	-0.014	-0.001
-143.516	30.497	-0.119	-0.100
-142.502	136.101	0.115	-0.148
-141.487	538.872	0.216	0.508
-140.472	-200.000	-0.006	0.205
-139.458	323.467	-0.025	0.048
-138.443	-39.365	-0.227	-0.118
-137.429	101.677	0.108	0.125
-136.414	64.828	-0.143	-0.142
-135.399	-89.851	0.329	0.095
-134.385	-53.570	0.176	-0.080
-133.370	-58.107	-0.149	-0.064
-132.356	-39.223	0.275	0.143
-131.341	-200.000	0.027	-0.160
-130.326	492.758	0.088	-0.201
-129.312	-39.091	-0.159	-0.083
-128.297	-200.000	-0.003	-0.032
-127.283	-200.000	-0.004	0.199
-126.268	-200.000	0.010	0.137
-125.253	196.377	0.099	0.149
-124.239	-183.322	-0.105	0.002
-123.224	559.481	0.191	0.456
-122.210	46.225	0.248	0.228
-121.195	800.000	0.176	0.657
-120.180	-200.000	-0.041	-0.400
