DTS Sentinel unit serial number:	SN413079Multiplexer serial number:	ORYXHardware model number:	OX4-SRSoftware version number:	ORYX F/W v4.00 Oryx Data Collector v3.7.2.0data status	okinstallation	princeton_trtdifferential loss correction	single-endedforward channel	channel 3reverse channel	N/Adate	2019/09/18time	22:32:35forward acquisition time	60.00reverse acquisition time	0.00gamma	496.2192k internal	0.2345k external	0.2345temperature offset calibration	0.9991default loss term (dB/km)	0.3790temperature slope calibration	1.0000multiplexer offset coefficient	1.0000multiplexer slope coefficient	1.0000fibre end	0.00T internal ref (°C)	24.19T ext. ref 1 (°C)	0.80T ext. ref 2 (°C)	17.97length (m)	temperature (°C)	Stokes	anti-Stokes-747.200	-52.875	0.259	-0.119
-746.185	-30.921	-0.240	0.136
-745.171	800.000	0.033	-0.114
-744.156	-9.258	-0.314	0.210
-743.142	-200.000	-0.025	-0.237
-742.127	-114.427	0.206	0.040
-741.112	-164.668	-0.173	0.008
-740.098	-11.317	-0.370	0.244
-739.083	-200.000	-0.028	-0.126
-738.069	800.000	0.038	0.135
-737.054	101.872	0.040	-0.047
-736.039	-60.411	-0.423	-0.180
-735.025	-35.178	-0.044	-0.024
-734.010	160.867	-0.158	0.221
-732.996	-200.000	0.061	0.000
-731.981	-200.000	-0.023	-0.196
-730.966	-1.023	0.071	-0.050
-729.952	376.761	-0.036	-0.073
-728.937	-86.794	-0.236	-0.072
-727.923	-156.107	0.206	-0.013
-726.908	34.903	-0.272	-0.238
-725.894	-200.000	-0.026	-0.223
-724.879	136.734	-0.178	-0.232
-723.864	34.881	-0.022	0.019
-722.850	133.301	-0.096	0.123
-721.835	-120.165	-0.297	-0.051
-720.821	-200.000	-0.156	-0.001
-719.806	-180.426	0.433	0.009
-718.791	-81.007	-0.255	-0.084
-717.777	756.267	-0.073	0.197
-716.762	10.914	0.225	-0.172
-715.748	-4.683	-0.195	-0.134
-714.733	-4.005	-0.121	-0.084
-713.718	-200.000	0.022	0.207
-712.704	-113.582	0.399	-0.078
-711.689	-143.269	-0.151	-0.014
-710.675	-23.765	-0.073	0.044
-709.660	-8.338	-0.230	-0.155
-708.645	135.166	-0.075	-0.097
-707.631	-200.000	-0.038	0.263
-706.616	-30.653	-0.180	0.102
-705.602	-133.866	0.187	0.023
-704.587	-25.172	0.289	-0.171
-703.572	410.559	0.043	-0.090
-702.558	120.962	-0.208	-0.259
-701.543	-21.195	0.281	0.172
-700.529	-143.530	0.148	0.014
-699.514	-80.854	-0.146	-0.048
-698.499	800.000	-0.059	-0.209
-697.485	-13.607	0.027	-0.018
-696.470	-47.708	-0.110	-0.053
-695.456	-155.868	-0.132	-0.008
-694.441	-200.000	-0.014	0.444
-693.426	-93.203	-0.516	0.143
-692.412	-117.633	-0.112	-0.020
-691.397	54.514	0.220	-0.212
-690.383	-69.995	0.127	0.048
-689.368	800.000	0.038	0.114
-688.354	-24.283	-0.395	0.235
-687.339	800.000	0.062	-0.173
-686.324	32.274	-0.234	-0.202
-685.310	-93.250	-0.358	0.099
-684.295	-37.984	0.090	0.048
-683.281	800.000	0.045	0.191
-682.266	-200.000	0.072	0.414
-681.251	800.000	0.015	0.053
-680.237	637.732	0.037	-0.093
-679.222	-200.000	0.019	-0.187
-678.208	195.311	0.311	0.472
-677.193	-75.390	-0.114	0.041
-676.178	32.861	0.214	0.185
-675.164	90.835	-0.176	0.197
-674.149	77.913	0.172	0.183
-673.135	-200.000	0.009	-0.148
-672.120	-200.000	-0.003	0.120
-671.105	-200.000	-0.009	-0.073
-670.091	-91.153	-0.312	-0.089
-669.076	800.000	0.093	0.322
-668.062	350.167	-0.070	-0.138
-667.047	800.000	0.052	-0.205
-666.032	-200.000	-0.014	0.178
-665.018	-127.829	0.340	-0.049
-664.003	-200.000	0.000	0.065
-662.989	25.123	-0.200	0.165
-661.974	-74.149	0.246	0.089
-660.959	-36.945	-0.317	0.170
-659.945	-93.031	-0.473	-0.132
-658.930	-152.101	0.136	-0.010
-657.916	-200.000	-0.013	-0.138
-656.901	138.842	-0.298	-0.391
-655.886	602.824	0.057	-0.142
-654.872	-200.000	-0.019	-0.275
-653.857	-134.408	-0.330	-0.040
-652.843	517.467	0.117	-0.272
-651.828	18.578	0.310	0.247
-650.814	-52.517	-0.108	0.050
-649.799	76.451	0.127	-0.134
-648.784	800.000	-0.125	-0.422
-647.770	95.955	-0.235	0.267
-646.755	438.027	-0.072	-0.157
-645.741	-163.889	-0.248	0.012
-644.726	-197.299	0.413	0.003
-643.711	136.285	0.137	0.178
-642.697	-112.143	0.204	0.041
-641.682	-63.780	0.098	0.040
-640.668	-75.687	0.257	0.091
-639.653	3.248	0.284	0.206
-638.638	688.347	0.041	0.107
-637.624	217.058	0.060	0.096
-636.609	-200.000	-0.038	0.363
-635.595	40.104	0.141	0.126
-634.580	-200.000	0.050	0.226
-633.565	-99.422	0.431	0.108
-632.551	306.467	-0.159	-0.296
-631.536	-90.583	-0.272	0.078
-630.522	-200.000	0.027	0.190
-629.507	289.373	-0.220	0.398
-628.492	-83.273	0.107	-0.034
-627.478	46.970	0.200	-0.186
-626.463	-200.000	0.024	-0.156
-625.449	-200.000	0.021	-0.231
-624.434	-39.906	-0.386	0.201
-623.419	337.530	0.133	0.257
-622.405	800.000	-0.033	-0.120
-621.390	-151.562	0.212	-0.016
-620.376	612.113	0.076	-0.189
-619.361	183.706	-0.104	0.153
-618.346	-101.237	-0.051	-0.012
-617.332	-143.549	0.271	-0.026
-616.317	-87.409	-0.166	0.050
-615.303	800.000	0.035	0.148
-614.288	23.954	0.126	-0.104
-613.273	-200.000	0.016	-0.372
-612.259	-7.457	0.382	0.257
-611.244	102.907	-0.179	0.208
-610.230	649.604	0.084	-0.215
-609.215	83.369	-0.286	0.310
-608.201	10.434	-0.159	0.121
-607.186	427.868	-0.059	0.127
-606.171	-71.801	0.218	0.081
-605.157	-56.812	-0.013	-0.006
-604.142	-37.547	-0.068	0.036
-603.128	175.361	-0.152	-0.219
-602.113	-175.974	0.413	0.011
-601.098	-43.232	-0.119	0.060
-600.084	470.176	-0.101	-0.227
-599.069	72.819	0.330	0.343
-598.055	-114.587	-0.268	0.051
-597.040	-200.000	-0.067	-0.296
-596.025	479.415	0.068	-0.153
-595.011	287.285	0.145	-0.261
-593.996	3.707	-0.238	-0.172
-592.982	-200.000	-0.005	-0.134
-591.967	-24.274	0.333	0.197
-590.952	701.142	-0.057	0.148
-589.938	-159.461	0.111	-0.006
-588.923	-200.000	0.009	-0.363
-587.909	327.795	-0.142	0.270
-586.894	119.940	0.112	-0.138
-585.879	195.000	-0.155	-0.234
-584.865	-200.000	0.022	0.294
-583.850	-71.648	0.171	0.063
-582.836	800.000	0.030	-0.126
-581.821	384.907	-0.027	0.056
-580.806	-23.880	0.231	0.137
-579.792	-171.331	-0.069	-0.002
-578.777	-133.533	0.196	-0.024
-577.763	-97.864	0.144	0.037
-576.748	-200.000	-0.021	-0.211
-575.733	-39.822	-0.255	-0.132
-574.719	-27.787	0.367	0.211
-573.704	552.341	0.158	0.377
-572.690	-200.000	0.041	-0.215
-571.675	-129.008	-0.415	-0.058
-570.661	12.159	-0.180	-0.137
-569.646	-37.855	0.197	-0.104
-568.631	236.955	0.068	-0.112
-567.617	16.552	-0.430	-0.338
-566.602	-95.474	-0.210	-0.056
-565.588	800.000	-0.039	-0.111
-564.573	88.738	-0.230	-0.254
-563.558	-200.000	-0.003	-0.166
-562.544	51.718	0.369	0.349
-561.529	-104.023	-0.013	-0.003
-560.515	-200.000	-0.004	-0.028
-559.500	98.899	-0.112	-0.128
-558.485	-52.181	-0.151	0.070
-557.471	40.963	0.157	-0.141
-556.456	800.000	-0.025	-0.106
-555.442	54.653	-0.111	-0.106
-554.427	-127.507	0.233	0.034
-553.412	-57.684	-0.080	-0.035
-552.398	-141.676	0.126	0.013
-551.383	73.757	-0.187	-0.195
-550.369	46.065	-0.134	0.123
-549.354	17.253	0.111	-0.087
-548.339	-173.285	0.084	-0.003
-547.325	-52.646	0.307	0.141
-546.310	-11.167	-0.030	0.019
-545.296	42.259	-0.118	-0.106
-544.281	-60.364	0.101	0.043
-543.266	-137.713	0.074	-0.008
-542.252	-96.543	0.328	0.086
-541.237	60.759	-0.154	-0.152
-540.223	-200.000	-0.032	0.141
-539.208	296.837	0.149	0.271
-538.193	657.013	0.044	0.113
-537.179	800.000	-0.040	0.170
-536.164	6.897	0.076	0.056
-535.150	-80.769	0.325	-0.107
-534.135	-158.352	-0.116	-0.007
-533.121	-200.000	-0.014	0.364
-532.106	-7.543	-0.162	0.108
-531.091	61.891	-0.163	-0.161
-530.077	-200.000	-0.006	-0.093
-529.062	168.978	-0.012	-0.017
-528.048	-13.953	0.166	0.106
-527.033	72.408	-0.054	0.056
-526.018	800.000	-0.079	0.278
-525.004	-200.000	0.022	0.158
-523.989	-40.652	-0.208	0.107
-522.975	-55.092	0.178	-0.080
-521.960	-180.914	0.421	0.008
-520.945	-200.000	-0.052	-0.237
-519.931	160.999	-0.082	-0.113
-518.916	119.631	0.266	-0.327
-517.902	452.665	-0.142	0.311
-516.887	42.973	0.134	-0.121
-515.872	-22.508	-0.251	0.151
-514.858	-1.991	0.082	0.057
-513.843	-124.336	0.074	0.011
-512.829	211.210	-0.099	0.155
-511.814	-200.000	0.017	-0.126
-510.799	-22.579	0.270	0.162
-509.785	-200.000	-0.012	-0.200
-508.770	27.767	-0.095	0.079
-507.756	-26.013	0.390	0.227
-506.741	-114.109	0.296	-0.057
-505.726	-60.931	0.198	0.083
-504.712	561.587	-0.017	-0.041
-503.697	-59.477	0.186	-0.079
-502.683	213.618	0.207	0.324
-501.668	-105.102	-0.422	-0.096
-500.653	800.000	-0.122	0.504
-499.639	-24.956	-0.159	-0.094
-498.624	-167.664	-0.259	0.010
-497.610	-112.105	0.128	0.026
-496.595	750.947	-0.128	-0.342
-495.581	23.844	-0.107	-0.088
-494.566	800.000	0.047	-0.144
-493.551	420.346	-0.049	0.103
-492.537	-116.176	-0.084	0.016
-491.522	514.690	0.104	-0.241
-490.508	800.000	-0.097	0.268
-489.493	-81.017	-0.260	-0.085
-488.478	800.000	0.020	-0.070
-487.464	-97.510	0.105	-0.027
-486.449	-137.450	0.229	-0.026
-485.435	114.172	0.042	0.051
-484.420	-56.476	-0.178	0.078
-483.405	187.527	-0.047	-0.070
-482.391	506.038	-0.136	0.313
-481.376	-131.893	0.144	-0.019
-480.362	-200.000	0.008	-0.101
-479.347	-200.000	0.012	-0.128
-478.332	53.034	0.247	0.234
-477.318	694.786	-0.113	-0.294
-476.303	116.012	-0.208	0.252
-475.289	79.943	0.240	-0.255
-474.274	-200.000	0.009	0.174
-473.259	-153.058	-0.105	-0.007
-472.245	23.240	-0.148	0.120
-471.230	39.426	0.070	0.062
-470.216	101.980	0.160	0.185
-469.201	-22.606	-0.174	-0.104
-468.186	8.954	0.164	0.122
-467.172	103.737	0.095	0.110
-466.157	606.023	-0.089	-0.219
-465.143	-200.000	-0.030	0.182
-464.128	675.204	0.107	0.276
-463.113	-97.342	-0.292	-0.075
-462.099	-113.328	0.143	0.028
-461.084	-5.458	-0.043	-0.029
-460.070	123.341	-0.249	0.309
-459.055	-83.217	-0.367	0.117
-458.040	-14.054	0.188	-0.120
-457.026	-200.000	-0.002	0.031
-456.011	568.257	-0.202	-0.484
-454.997	31.309	-0.182	0.155
-453.982	190.122	0.051	-0.075
-452.968	800.000	0.044	-0.166
-451.953	-103.885	0.187	-0.043
-450.938	800.000	0.075	-0.239
-449.924	800.000	-0.056	0.228
-448.909	46.434	-0.255	0.234
-447.895	214.047	-0.046	0.073
-446.880	-74.615	-0.085	-0.030
-445.865	-60.206	0.168	0.071
-444.851	155.326	0.105	0.143
-443.836	800.000	0.066	0.194
-442.822	-107.988	0.062	-0.013
-441.807	-148.298	-0.047	-0.004
-440.792	-180.663	0.295	-0.006
-439.778	-64.210	-0.145	0.058
-438.763	10.754	-0.066	0.050
-437.749	8.733	0.268	0.200
-436.734	192.084	0.188	-0.281
-435.719	138.606	-0.146	-0.190
-434.705	-158.182	-0.177	0.010
-433.690	578.273	-0.080	-0.194
-432.676	215.716	0.028	-0.044
-431.661	197.154	0.076	-0.114
-430.646	-100.794	-0.277	-0.067
-429.632	-117.413	0.043	-0.008
-428.617	5.278	0.125	-0.091
-427.603	-83.450	-0.296	-0.094
-426.588	-167.692	-0.118	-0.005
-425.573	-200.000	-0.022	0.148
-424.559	-75.924	0.143	0.050
-423.544	-69.179	-0.165	0.063
-422.530	-45.262	-0.105	-0.052
-421.515	-72.169	-0.080	0.029
-420.500	-88.459	0.249	-0.074
-419.486	-54.855	-0.242	-0.108
-418.471	-33.640	-0.190	-0.104
-417.457	800.000	-0.056	0.181
-416.442	78.510	0.150	-0.159
-415.428	800.000	-0.066	-0.186
-414.413	-131.779	0.369	-0.048
-413.398	-8.069	0.136	0.091
-412.384	250.365	-0.016	-0.027
-411.369	-200.000	0.006	0.073
-410.355	88.721	0.199	-0.218
-409.340	411.244	0.090	-0.189
-408.325	-2.826	0.033	-0.022
-407.311	-200.000	-0.005	0.319
-406.296	-32.699	0.303	0.167
-405.282	26.343	-0.125	-0.103
-404.267	800.000	-0.050	-0.207
-403.252	79.442	0.085	-0.090
-402.238	218.233	-0.094	0.149
-401.223	-127.257	-0.250	-0.036
-400.209	289.384	0.104	0.187
-399.194	-200.000	-0.093	0.420
-398.179	-200.000	0.002	-0.142
-397.165	800.000	0.054	0.147
-396.150	-160.024	0.158	-0.008
-395.136	475.744	0.113	-0.251
-394.121	-10.783	-0.180	-0.117
-393.106	800.000	0.059	0.245
-392.092	-52.533	0.084	0.038
-391.077	-151.937	0.357	0.026
-390.063	800.000	-0.104	0.317
-389.048	-101.789	-0.107	0.026
-388.033	245.620	-0.234	-0.389
-387.019	172.357	0.219	-0.310
-386.004	-84.278	0.266	-0.083
-384.990	155.753	-0.169	0.229
-383.975	400.069	0.037	-0.076
-382.960	100.237	0.247	-0.282
-381.946	-9.112	-0.307	0.203
-380.931	-89.733	0.257	0.074
-379.917	-200.000	0.067	-0.315
-378.902	231.266	0.131	-0.212
-377.888	-148.113	0.220	0.018
-376.873	-37.345	-0.324	0.171
-375.858	-85.279	0.391	0.120
-374.844	303.600	0.113	0.206
-373.829	-111.042	-0.078	-0.016
-372.815	106.089	-0.220	0.257
-371.800	-200.000	-0.005	-0.212
-370.785	-192.820	-0.091	0.001
-369.771	-109.325	-0.167	0.035
-368.756	-44.247	-0.157	0.078
-367.742	-86.343	-0.172	0.052
-366.727	447.495	0.008	0.017
-365.712	-147.147	-0.283	-0.024
-364.698	-200.000	0.014	-0.165
-363.683	-64.825	0.221	-0.088
-362.669	-42.649	-0.174	-0.087
-361.654	50.362	-0.327	0.305
-360.639	-183.964	0.139	0.002
-359.625	-69.386	-0.201	0.076
-358.610	343.727	-0.067	0.129
-357.596	800.000	-0.069	0.255
-356.581	800.000	0.059	-0.228
-355.566	800.000	-0.036	-0.139
-354.552	102.052	0.147	0.169
-353.537	-200.000	-0.032	-0.202
-352.523	79.699	-0.114	0.120
-351.508	-39.586	-0.216	0.111
-350.493	473.825	0.169	0.376
-349.479	-179.067	0.294	0.007
-348.464	-200.000	-0.033	-0.300
-347.450	-200.000	0.001	-0.191
-346.435	352.963	0.205	-0.400
-345.420	-200.000	0.037	-0.274
-344.406	663.329	0.050	0.127
-343.391	138.446	-0.180	0.233
-342.377	57.782	-0.157	0.151
-341.362	-27.251	0.142	-0.081
-340.348	-200.000	-0.013	0.339
-339.333	18.062	-0.148	-0.116
-338.318	-30.385	-0.122	-0.068
-337.304	-143.458	-0.342	0.032
-336.289	-200.000	0.018	-0.185
-335.275	3.792	0.379	-0.273
-334.260	-40.357	0.436	0.223
-333.245	-97.045	-0.277	0.071
-332.231	88.327	-0.189	-0.206
-331.216	458.369	-0.148	-0.323
-330.202	-20.904	0.362	-0.218
-329.187	-200.000	-0.007	0.060
-328.172	-73.375	-0.147	-0.053
-327.158	220.628	0.116	0.184
-326.143	-200.000	-0.192	-0.001
-325.129	329.147	-0.139	-0.263
-324.114	-58.980	0.334	-0.142
-323.099	18.563	-0.053	0.042
-322.085	140.912	-0.079	0.103
-321.070	800.000	-0.034	-0.135
-320.056	60.948	-0.136	-0.132
-319.041	-200.000	0.007	-0.179
-318.026	-76.190	-0.095	-0.033
-317.012	-162.884	0.143	-0.007
-315.997	800.000	-0.023	0.068
-314.983	245.467	0.140	0.232
-313.968	445.413	0.127	-0.274
-312.953	240.954	0.137	0.225
-311.939	750.315	-0.109	0.289
-310.924	-42.241	-0.254	-0.128
-309.910	684.127	-0.013	0.034
-308.895	-200.000	0.018	0.147
-307.880	-200.000	0.015	0.113
-306.866	-88.742	0.144	-0.042
-305.851	651.132	-0.111	0.279
-304.837	184.772	-0.080	-0.116
-303.822	-200.000	0.008	0.102
-302.807	504.709	0.046	0.106
-301.793	177.330	0.149	0.214
-300.778	88.710	0.200	0.219
-299.764	-90.454	-0.328	-0.093
-298.749	0.861	-0.205	0.144
-297.735	16.374	0.176	-0.137
-296.720	-200.000	0.032	-0.299
-295.705	-47.145	0.211	-0.101
-294.691	110.135	0.191	-0.226
-293.676	-80.478	-0.141	-0.046
-292.662	800.000	-0.040	-0.152
-291.647	-33.622	-0.068	-0.037
-290.632	-174.726	0.111	0.003
-289.618	54.060	-0.072	-0.068
-288.603	41.330	-0.117	-0.104
-287.589	-200.000	-0.011	-0.224
-286.574	-200.000	-0.008	0.441
-285.559	-124.608	0.326	-0.050
-284.545	-200.000	-0.026	-0.161
-283.530	-171.611	-0.121	0.004
-282.516	398.559	0.033	0.068
-281.501	-6.220	0.167	-0.112
-280.486	-15.050	-0.269	0.169
-279.472	-13.028	-0.146	0.093
-278.457	594.593	0.118	0.287
-277.443	140.452	-0.174	0.226
-276.428	-110.398	-0.126	0.026
-275.413	-8.978	0.216	0.142
-274.399	671.045	-0.024	-0.060
-273.384	-85.307	0.137	0.042
-272.370	421.602	-0.078	0.164
-271.355	660.548	-0.038	-0.097
-270.340	324.830	0.129	0.242
-269.326	32.391	-0.132	0.112
-268.311	-10.622	-0.059	-0.038
-267.297	-56.871	0.163	-0.071
-266.282	-200.000	0.032	-0.207
-265.267	800.000	0.027	-0.080
-264.253	-130.765	0.150	0.020
-263.238	25.067	-0.048	-0.039
-262.224	-200.000	0.008	0.366
-261.209	-75.606	0.044	-0.015
-260.195	-50.153	-0.020	-0.009
-259.180	-152.871	-0.349	-0.024
-258.165	-14.232	0.378	-0.239
-257.151	72.146	-0.185	0.189
-256.136	-169.457	0.193	0.007
-255.122	-6.643	-0.140	0.094
-254.107	408.041	-0.123	-0.255
-253.092	-114.295	0.088	0.017
-252.078	-200.000	-0.048	0.429
-251.063	-152.818	0.360	0.025
-250.049	-175.437	0.356	-0.010
-249.034	140.993	0.065	-0.085
-248.019	15.931	0.040	-0.031
-247.005	91.206	-0.021	0.023
-245.990	67.480	0.106	-0.106
-244.976	-57.463	-0.191	0.082
-243.961	-200.000	-0.008	0.057
-242.946	-130.404	0.069	0.009
-241.932	151.148	-0.155	0.207
-240.917	-73.330	-0.311	-0.111
-239.903	-200.000	0.017	0.152
-238.888	-36.879	0.188	-0.099
-237.873	432.519	-0.075	0.159
-236.859	-80.382	0.138	0.045
-235.844	-62.721	0.205	0.083
-234.830	800.000	0.019	0.075
-233.815	64.652	-0.183	-0.181
-232.800	-33.078	-0.274	-0.149
-231.786	-91.684	0.093	-0.026
-230.771	800.000	-0.066	-0.249
-229.757	800.000	-0.030	-0.101
-228.742	-113.952	0.205	0.039
-227.727	-117.945	-0.061	0.011
-226.713	-200.000	0.010	-0.158
-225.698	420.101	-0.216	0.454
-224.684	-35.852	-0.067	-0.036
-223.669	38.545	-0.254	0.222
-222.655	135.847	-0.102	-0.130
-221.640	109.669	0.357	-0.419
-220.625	17.897	-0.139	-0.108
-219.611	-108.664	0.278	0.058
-218.596	800.000	-0.016	-0.058
-217.582	16.364	0.217	-0.168
-216.567	614.459	-0.066	-0.162
-215.552	-98.602	-0.090	0.023
-214.538	-164.045	-0.270	0.012
-213.523	55.847	-0.110	0.105
-212.509	-200.000	-0.043	-0.198
-211.494	-200.000	0.030	-0.260
-210.479	800.000	-0.079	-0.278
-209.465	1.544	-0.191	-0.135
-208.450	-55.865	-0.214	0.093
-207.436	-200.000	-0.030	0.280
-206.421	9.769	-0.166	-0.123
-205.406	800.000	-0.068	-0.196
-204.392	254.176	0.330	-0.552
-203.377	-19.630	0.027	-0.017
-202.363	-94.327	0.144	-0.039
-201.348	-117.783	-0.274	-0.048
-200.333	800.000	0.047	0.142
-199.319	-134.258	-0.187	0.023
-198.304	-200.000	0.016	0.101
-197.290	-187.340	-0.425	0.006
-196.275	-71.309	0.266	-0.098
-195.260	-21.110	-0.223	0.134
-194.246	-108.886	-0.438	0.092
-193.231	-53.184	-0.212	0.095
-192.217	800.000	0.055	0.211
-191.202	-200.000	-0.059	-0.285
-190.187	-6.533	0.173	-0.115
-189.173	-63.451	-0.348	0.140
-188.158	-84.221	-0.151	-0.047
-187.144	-81.063	0.338	-0.110
-186.129	-64.688	0.210	0.084
-185.114	-38.585	-0.202	-0.105
-184.100	-57.419	0.151	-0.065
-183.085	-61.820	-0.157	-0.064
-182.071	-112.642	-0.392	0.076
-181.056	178.115	-0.113	-0.162
-180.042	535.089	0.126	-0.293
-179.027	-39.489	-0.289	-0.148
-178.012	49.063	-0.122	-0.112
-176.998	-70.088	0.162	-0.060
-175.983	800.000	0.061	0.236
-174.969	-200.000	-0.035	-0.188
-173.954	121.384	0.087	0.107
-172.939	120.464	0.087	0.106
-171.925	-200.000	-0.029	0.172
-170.910	-84.755	0.492	0.151
-169.896	264.658	-0.067	-0.113
-168.881	-73.835	-0.133	0.047
-167.866	796.996	-0.022	-0.059
-166.852	407.169	0.094	-0.194
-165.837	272.163	-0.044	-0.075
-164.823	479.075	-0.049	0.108
-163.808	-85.837	-0.181	-0.055
-162.793	-91.347	-0.219	-0.061
-161.779	246.732	0.114	-0.188
-160.764	-200.000	-0.025	0.152
-159.750	299.891	-0.219	0.395
-158.735	54.148	0.248	0.234
-157.720	800.000	-0.053	0.222
-156.706	-43.974	-0.099	-0.049
-155.691	270.719	-0.113	-0.195
-154.677	490.160	0.073	0.164
-153.662	189.253	0.013	-0.020
-152.647	160.331	-0.180	-0.246
-151.633	-80.732	0.312	-0.101
-150.618	146.223	0.012	0.015
-149.604	607.535	-0.123	0.299
-148.589	-200.000	0.003	0.116
-147.574	-92.689	-0.208	-0.057
-146.560	-128.715	0.298	0.041
-145.545	-200.000	0.021	0.205
-144.531	134.908	-0.182	-0.231
-143.516	42.099	0.081	0.071
-142.502	-200.000	-0.012	0.107
-141.487	-63.021	-0.083	-0.033
-140.472	15.425	-0.176	-0.135
-139.458	-200.000	0.049	-0.354
-138.443	-200.000	-0.034	0.374
-137.429	33.069	-0.159	0.135
-136.414	51.297	0.133	0.124
-135.399	-200.000	0.024	-0.241
-134.385	-200.000	0.006	0.136
-133.370	-96.537	-0.205	-0.053
-132.356	-190.551	0.152	0.002
-131.341	147.935	0.063	-0.082
-130.326	338.240	0.190	-0.360
-129.312	115.619	0.185	-0.221
-128.297	-50.567	-0.246	0.113
-127.283	-125.827	0.278	-0.041
-126.268	-53.743	-0.224	-0.100
-125.253	218.047	0.152	-0.237
-124.239	800.000	0.025	-0.100
-123.224	-109.767	-0.189	-0.039
-122.210	-200.000	0.004	0.182
