DTS Sentinel unit serial number:	SN413079Multiplexer serial number:	ORYXHardware model number:	OX4-SRSoftware version number:	ORYX F/W v4.00 Oryx Data Collector v3.7.2.0data status	okinstallation	princeton_trtdifferential loss correction	single-endedforward channel	channel 3reverse channel	N/Adate	2019/09/16time	00:00:35forward acquisition time	60.00reverse acquisition time	0.00gamma	496.2192k internal	0.2336k external	0.2336temperature offset calibration	0.9946default loss term (dB/km)	0.3790temperature slope calibration	1.0000multiplexer offset coefficient	1.0000multiplexer slope coefficient	1.0000fibre end	0.00T internal ref (°C)	27.86T ext. ref 1 (°C)	9.37T ext. ref 2 (°C)	21.81length (m)	temperature (°C)	Stokes	anti-Stokes-747.200	27.903	-0.135	-0.114
-746.185	-200.000	0.045	0.276
-745.171	223.292	0.149	-0.242
-744.156	-200.000	0.002	0.216
-743.142	-131.222	-0.200	-0.027
-742.127	334.487	-0.063	-0.123
-741.112	-15.887	0.106	0.068
-740.098	127.557	-0.151	-0.193
-739.083	-200.000	-0.025	-0.127
-738.069	-95.523	-0.292	-0.079
-737.054	23.850	0.139	0.115
-736.039	-111.377	-0.056	0.011
-735.025	-150.546	0.209	-0.016
-734.010	86.522	0.047	0.052
-732.996	103.003	-0.157	-0.185
-731.981	-10.212	0.058	0.039
-730.966	-34.245	0.291	-0.160
-729.952	-200.000	0.047	-0.318
-728.937	-5.952	0.053	-0.037
-727.923	193.242	-0.163	0.248
-726.908	116.671	-0.297	-0.366
-725.894	-200.000	0.011	-0.129
-724.879	164.647	-0.379	-0.537
-723.864	-100.548	-0.199	0.049
-722.850	-149.829	-0.037	-0.003
-721.835	96.371	0.141	0.162
-720.821	800.000	0.083	-0.355
-719.806	800.000	0.054	-0.186
-718.791	-75.604	-0.348	0.124
-717.777	800.000	-0.020	-0.070
-716.762	800.000	0.086	-0.373
-715.748	-200.000	0.023	-0.135
-714.733	800.000	0.113	-0.428
-713.718	-88.672	-0.304	-0.091
-712.704	647.195	-0.095	-0.245
-711.689	-200.000	0.022	0.265
-710.675	-129.638	-0.304	-0.042
-709.660	640.345	-0.071	0.181
-708.645	47.290	0.174	-0.163
-707.631	-200.000	0.029	-0.284
-706.616	-0.943	-0.123	-0.088
-705.602	800.000	0.052	0.157
-704.587	579.540	-0.057	-0.141
-703.572	-94.263	0.082	0.023
-702.558	-52.726	-0.197	-0.091
-701.543	266.626	0.117	0.205
-700.529	-161.116	-0.134	0.007
-699.514	-50.673	0.255	0.120
-698.499	449.471	0.150	0.331
-697.485	586.151	0.094	-0.232
-696.470	-200.000	-0.021	-0.112
-695.456	371.886	-0.086	-0.176
-694.441	470.376	0.154	-0.346
-693.426	-76.180	0.162	0.057
-692.412	-163.132	0.207	-0.010
-691.397	-190.118	-0.245	0.003
-690.383	800.000	0.193	-0.542
-689.368	-72.178	-0.085	0.032
-688.354	37.965	-0.157	0.140
-687.339	111.772	-0.082	0.099
-686.324	-23.665	0.180	-0.108
-685.310	-200.000	-0.036	0.271
-684.295	-195.760	-0.175	0.001
-683.281	-80.268	-0.246	-0.083
-682.266	800.000	0.046	0.200
-681.251	800.000	0.062	-0.189
-680.237	111.176	0.145	0.175
-679.222	75.553	-0.127	-0.135
-678.208	98.209	-0.322	-0.372
-677.193	57.747	0.343	-0.336
-676.178	-171.617	0.374	0.012
-675.164	8.360	-0.245	0.184
-674.149	400.504	-0.198	-0.416
-673.135	55.660	-0.241	-0.234
-672.120	800.000	0.031	0.113
-671.105	282.442	0.158	-0.284
-670.091	105.318	-0.134	0.158
-669.076	179.273	0.037	-0.054
-668.062	16.368	-0.188	0.148
-667.047	209.374	0.088	0.138
-666.032	215.911	0.082	0.130
-665.018	-200.000	0.070	-0.377
-664.003	-200.000	0.052	-0.232
-662.989	0.732	0.151	-0.108
-661.974	343.439	-0.063	-0.123
-660.959	448.336	0.131	0.289
-659.945	153.522	-0.165	0.226
-658.930	20.513	-0.226	0.183
-657.916	-60.787	0.315	0.134
-656.901	-120.413	0.241	-0.041
-655.886	-154.619	-0.386	-0.026
-654.872	21.411	-0.118	0.096
-653.857	-15.954	0.092	-0.059
-652.843	36.699	-0.162	0.143
-651.828	800.000	-0.065	-0.221
-650.814	-200.000	0.093	0.411
-649.799	-200.000	0.030	0.216
-648.784	137.601	0.045	-0.059
-647.770	213.357	-0.165	0.260
-646.755	-59.121	-0.109	-0.047
-645.741	340.291	-0.165	0.322
-644.726	156.568	0.241	0.333
-643.711	-94.846	-0.324	-0.088
-642.697	-131.603	-0.151	-0.020
-641.682	310.954	-0.077	-0.144
-640.668	157.922	0.229	0.317
-639.653	10.107	0.099	-0.075
-638.638	-45.048	0.083	-0.041
-637.624	-104.968	0.196	0.045
-636.609	228.916	0.207	0.337
-635.595	-200.000	-0.016	0.087
-634.580	-14.979	0.357	0.229
-633.565	-96.882	0.308	0.081
-632.551	-182.451	0.076	0.001
-631.536	14.925	-0.180	-0.141
-630.522	-71.907	0.168	0.062
-629.507	49.671	0.103	0.097
-628.492	34.087	0.172	-0.150
-627.478	27.178	0.357	-0.299
-626.463	44.438	-0.248	0.227
-625.449	170.658	-0.270	-0.387
-624.434	410.019	0.094	0.198
-623.419	-140.769	-0.409	-0.042
-622.405	-105.521	-0.315	-0.072
-621.390	-200.000	0.004	0.425
-620.376	-50.943	0.278	-0.130
-619.361	-14.522	-0.077	0.050
-618.346	-200.000	0.001	-0.167
-617.332	800.000	0.056	-0.160
-616.317	-200.000	-0.004	-0.238
-615.303	330.766	-0.121	0.233
-614.288	800.000	-0.037	-0.138
-613.273	-200.000	0.053	0.396
-612.259	800.000	-0.054	-0.200
-611.244	35.231	0.145	-0.127
-610.230	722.328	0.143	0.380
-609.215	-40.692	0.226	-0.117
-608.201	-200.000	0.049	-0.335
-607.186	246.148	-0.152	-0.256
-606.171	-27.937	-0.129	-0.074
-605.157	38.197	-0.105	0.093
-604.142	-68.680	-0.209	0.081
-603.128	-93.120	0.204	0.057
-602.113	-132.261	-0.168	-0.022
-601.098	68.728	-0.111	-0.113
-600.084	-23.179	0.127	-0.076
-599.069	170.450	0.024	0.035
-598.055	-200.000	-0.016	-0.092
-597.040	701.114	0.064	0.168
-596.025	15.216	-0.502	-0.393
-595.011	255.976	-0.083	-0.142
-593.996	-59.238	0.218	-0.094
-592.982	-141.043	-0.313	0.032
-591.967	209.436	-0.096	-0.149
-590.952	-200.000	-0.002	0.237
-589.938	800.000	-0.059	-0.202
-588.923	-160.099	-0.250	-0.014
-587.909	312.592	-0.097	0.181
-586.894	101.583	0.054	-0.063
-585.879	-133.328	-0.529	0.066
-584.865	-83.316	-0.221	0.071
-583.850	303.284	-0.246	0.455
-582.836	-36.946	0.121	0.065
-581.821	800.000	-0.095	0.336
-580.806	511.817	-0.086	-0.200
-579.792	233.810	-0.080	-0.132
-578.777	16.205	-0.239	-0.188
-577.763	461.295	-0.137	-0.305
-576.748	-136.387	0.071	0.008
-575.733	39.021	-0.236	-0.211
-574.719	54.983	-0.144	-0.138
-573.704	125.750	0.193	-0.243
-572.690	-66.745	0.125	-0.049
-571.675	-200.000	-0.056	0.295
-570.661	41.446	-0.112	-0.101
-569.646	-200.000	0.004	-0.155
-568.631	351.178	0.105	0.207
-567.617	-77.027	-0.103	-0.036
-566.602	410.406	0.071	0.149
-565.588	103.364	0.221	0.258
-564.573	99.673	-0.221	-0.256
-563.558	32.513	-0.249	-0.215
-562.544	345.797	-0.093	0.183
-561.529	-200.000	0.023	-0.310
-560.515	290.076	0.285	-0.515
-559.500	460.110	0.039	0.086
-558.485	-200.000	0.011	-0.170
-557.471	-97.685	-0.113	-0.029
-556.456	67.434	0.344	-0.350
-555.442	-145.840	-0.168	-0.015
-554.427	-93.703	-0.293	0.080
-553.412	-38.558	0.364	-0.192
-552.398	276.291	0.068	0.120
-551.383	186.344	0.208	-0.309
-550.369	-22.282	0.038	-0.023
-549.354	-40.236	0.180	-0.093
-548.339	-200.000	-0.047	-0.284
-547.325	600.226	0.143	0.353
-546.310	-200.000	0.002	0.024
-545.296	168.705	-0.104	-0.148
-544.281	149.464	-0.052	0.070
-543.266	-118.944	0.008	0.001
-542.252	-94.435	0.036	0.010
-541.237	73.199	0.204	0.213
-540.223	422.866	-0.073	0.156
-539.208	-128.098	0.177	-0.025
-538.193	-152.493	0.360	-0.026
-537.179	502.485	-0.159	-0.367
-536.164	57.683	-0.190	-0.185
-535.150	-200.000	-0.049	0.236
-534.135	-200.000	0.016	-0.272
-533.121	-200.000	0.021	-0.206
-532.106	519.620	0.040	-0.094
-531.091	-1.251	-0.218	-0.154
-530.077	27.409	-0.132	0.110
-529.062	800.000	0.053	-0.191
-528.048	-95.996	-0.220	-0.058
-527.033	-200.000	0.029	-0.583
-526.018	-72.621	0.366	-0.134
-525.004	-200.000	-0.007	0.130
-523.989	-200.000	0.025	-0.200
-522.975	800.000	-0.057	-0.164
-521.960	-72.928	-0.256	-0.094
-520.945	-200.000	0.005	0.048
-519.931	360.555	0.124	0.246
-518.916	5.048	-0.114	0.083
-517.902	99.812	0.051	-0.059
-516.887	-200.000	-0.025	-0.126
-515.872	-48.321	0.059	-0.028
-514.858	-1.827	0.157	0.110
-513.843	378.439	0.018	0.037
-512.829	-115.506	-0.198	0.037
-511.814	15.991	0.186	0.145
-510.799	41.668	-0.100	0.091
-509.785	-153.385	-0.123	-0.009
-508.770	800.000	0.143	0.400
-507.756	-10.387	0.081	-0.054
-506.741	-74.247	0.144	-0.052
-505.726	44.698	-0.132	-0.120
-504.712	-85.289	-0.292	-0.091
-503.697	-200.000	0.035	0.301
-502.683	412.277	0.071	-0.149
-501.668	-147.194	0.372	0.032
-500.653	440.657	-0.116	-0.252
-499.639	480.872	0.052	-0.118
-498.624	75.646	-0.162	0.170
-497.610	103.808	0.143	-0.167
-496.595	-110.265	-0.054	0.011
-495.581	22.695	0.222	-0.181
-494.566	-26.390	0.212	0.124
-493.551	71.263	0.040	-0.041
-492.537	281.807	-0.114	0.203
-491.522	-109.769	0.328	0.069
-490.508	-84.049	-0.198	0.062
-489.493	23.653	0.194	-0.159
-488.478	658.663	0.088	0.226
-487.464	800.000	-0.011	0.040
-486.449	-17.069	0.191	-0.120
-485.435	-93.895	0.125	0.034
-484.420	-200.000	-0.024	0.284
-483.405	796.180	0.046	-0.127
-482.391	-115.219	-0.235	-0.044
-481.376	-130.923	-0.233	-0.031
-480.362	-113.079	-0.180	-0.035
-479.347	6.558	-0.411	0.303
-478.332	274.314	0.202	0.356
-477.318	-94.477	0.414	-0.112
-476.303	-45.811	-0.284	-0.139
-475.289	164.127	-0.246	0.345
-474.274	189.194	0.069	0.103
-473.259	411.267	-0.174	-0.368
-472.245	101.234	-0.196	0.227
-471.230	127.063	0.239	0.301
-470.216	-157.259	-0.026	0.002
-469.201	-200.000	-0.033	-0.205
-468.186	-26.208	-0.186	0.109
-467.172	-146.234	0.278	-0.024
-466.157	507.763	-0.132	-0.304
-465.143	-1.003	0.077	-0.054
-464.128	-59.433	-0.108	0.046
-463.113	68.888	0.129	-0.132
-462.099	-200.000	0.014	-0.071
-461.084	565.142	0.095	0.228
-460.070	103.661	0.211	0.246
-459.055	-200.000	0.004	0.118
-458.040	177.603	-0.147	-0.213
-457.026	148.075	-0.133	0.178
-456.011	29.653	0.089	0.076
-454.997	-200.000	-0.025	0.193
-453.982	800.000	0.055	-0.233
-452.968	-200.000	0.002	-0.214
-451.953	602.741	-0.167	0.413
-450.938	292.606	0.066	-0.119
-449.924	-85.302	-0.186	-0.058
-448.909	-143.136	0.272	0.026
-447.895	34.774	-0.314	0.273
-446.880	252.054	0.120	-0.202
-445.865	326.771	0.165	0.314
-444.851	45.404	-0.138	0.127
-443.836	-200.000	-0.023	-0.270
-442.822	-95.217	-0.464	-0.124
-441.807	216.750	0.175	0.276
-440.792	-169.546	0.129	-0.005
-439.778	-96.545	-0.180	0.047
-438.763	77.424	-0.396	0.418
-437.749	-52.327	-0.048	0.022
-436.734	-115.590	-0.093	-0.017
-435.719	-200.000	-0.010	-0.225
-434.705	131.600	0.040	0.051
-433.690	-200.000	-0.008	-0.054
-432.676	33.488	-0.171	0.147
-431.661	30.689	0.057	0.049
-430.646	-200.000	0.027	-0.159
-429.632	-106.584	0.564	-0.125
-428.617	800.000	0.058	-0.170
-427.603	425.518	0.140	-0.300
-426.588	-200.000	-0.005	-0.252
-425.573	-172.382	0.139	-0.004
-424.559	-8.532	0.179	-0.119
-423.544	21.991	-0.147	0.119
-422.530	-74.857	-0.138	0.049
-421.515	200.549	-0.039	-0.060
-420.500	-200.000	0.032	0.151
-419.486	-103.900	0.118	-0.027
-418.471	-162.052	0.245	-0.012
-417.457	-188.266	0.276	0.003
-416.442	-200.000	-0.027	0.373
-415.428	-88.049	0.266	0.079
-414.413	52.254	0.105	-0.099
-413.398	-12.697	0.255	0.165
-412.384	533.229	-0.159	0.373
-411.369	2.172	-0.276	-0.197
-410.355	-200.000	0.034	-0.329
-409.340	800.000	-0.028	-0.102
-408.325	800.000	0.083	-0.299
-407.311	-56.993	0.065	-0.028
-406.296	31.429	0.088	0.075
-405.282	-200.000	0.022	0.200
-404.267	-111.442	-0.203	0.041
-403.252	-200.000	0.002	-0.153
-402.238	511.157	0.166	0.384
-401.223	-31.153	0.024	0.013
-400.209	800.000	-0.047	0.158
-399.194	-43.344	0.099	-0.050
-398.179	-87.494	-0.253	0.076
-397.165	-200.000	0.038	-0.304
-396.150	-93.668	0.163	0.045
-395.136	102.216	-0.111	0.128
-394.121	177.742	-0.095	-0.137
-393.106	-16.184	0.193	-0.121
-392.092	-73.488	0.169	-0.061
-391.077	800.000	0.023	0.087
-390.063	180.911	0.125	0.182
-389.048	-106.707	0.332	-0.073
-388.033	-39.746	0.238	-0.123
-387.019	800.000	-0.036	-0.128
-386.004	-200.000	0.028	-0.153
-384.990	-102.476	-0.363	-0.086
-383.975	-117.095	0.253	0.046
-382.960	-42.564	-0.320	0.161
-381.946	-200.000	0.008	-0.092
-380.931	800.000	0.061	-0.200
-379.917	-68.190	0.153	0.059
-378.902	-200.000	0.030	-0.149
-377.888	-114.445	0.212	-0.040
-376.873	-84.667	-0.145	-0.045
-375.858	-48.436	0.213	-0.101
-374.844	158.376	-0.230	-0.316
-373.829	-84.833	-0.280	-0.087
-372.815	-200.000	0.027	-0.182
-371.800	-80.733	-0.174	0.057
-370.785	-89.023	-0.117	0.034
-369.771	-95.551	0.068	-0.018
-368.756	22.635	0.351	-0.285
-367.742	-200.000	-0.047	-0.312
-366.727	354.235	0.087	-0.172
-365.712	92.492	-0.124	0.138
-364.698	35.274	0.343	0.298
-363.683	-97.464	-0.302	-0.078
-362.669	-151.272	0.103	-0.008
-361.654	-184.300	0.087	0.001
-360.639	-24.649	0.053	-0.031
-359.625	224.919	-0.134	0.215
-358.610	11.878	-0.089	-0.067
-357.596	272.067	-0.121	0.211
-356.581	147.729	-0.116	-0.155
-355.566	33.594	-0.077	0.066
-354.552	-120.254	0.229	0.039
-353.537	12.559	0.176	-0.134
-352.523	800.000	-0.077	-0.304
-351.508	79.978	-0.060	-0.064
-350.493	477.342	0.014	0.032
-349.479	598.921	0.047	-0.116
-348.464	24.074	-0.083	0.068
-347.450	90.121	-0.249	0.275
-346.435	70.090	0.026	0.026
-345.420	-8.673	-0.162	-0.108
-344.406	-200.000	0.015	-0.140
-343.391	-85.867	0.250	0.077
-342.377	800.000	-0.091	0.261
-341.362	-92.735	-0.055	-0.015
-340.348	-200.000	0.013	-0.305
-339.333	97.591	0.080	0.091
-338.318	100.599	0.197	0.226
-337.304	-48.523	-0.263	0.125
-336.289	-70.607	0.232	0.087
-335.275	-150.431	0.202	-0.015
-334.260	363.374	-0.144	0.286
-333.245	800.000	0.074	-0.274
-332.231	439.400	0.033	0.070
-331.216	153.849	-0.248	-0.336
-330.202	197.248	-0.248	0.375
-329.187	-200.000	0.009	-0.120
-328.172	-118.219	-0.227	0.040
-327.158	89.907	0.061	-0.067
-326.143	-22.764	0.264	-0.158
-325.129	-48.706	0.032	-0.015
-324.114	291.232	0.122	0.219
-323.099	-56.750	-0.229	0.100
-322.085	204.321	-0.143	0.219
-321.070	-140.410	-0.244	-0.025
-320.056	800.000	0.109	-0.389
-319.041	54.585	0.234	0.223
-318.026	-200.000	-0.007	-0.146
-317.012	-200.000	0.005	-0.293
-315.997	-167.244	-0.236	0.009
-314.983	34.243	-0.057	0.049
-313.968	702.347	-0.045	0.118
-312.953	33.874	0.123	0.106
-311.939	800.000	0.053	0.228
-310.924	17.641	0.031	0.025
-309.910	84.495	-0.078	0.084
-308.895	-148.947	0.219	0.017
-307.880	54.515	-0.048	0.046
-306.866	-91.128	-0.296	0.084
-305.851	140.955	0.203	-0.265
-304.837	276.705	0.196	-0.343
-303.822	6.445	-0.123	0.090
-302.807	213.323	-0.065	-0.102
-301.793	153.115	-0.142	-0.192
-300.778	-200.000	-0.041	0.196
-299.764	513.255	-0.162	-0.374
-298.749	-200.000	-0.003	0.045
-297.735	0.294	0.225	0.159
-296.720	13.684	-0.198	-0.152
-295.705	-139.267	-0.171	-0.018
-294.691	-16.083	-0.106	0.067
-293.676	-157.141	-0.370	-0.022
-292.662	77.644	0.110	0.115
-291.647	-12.982	0.501	0.321
-290.632	490.393	0.144	-0.325
-289.618	195.618	0.176	0.264
-288.603	88.382	-0.263	-0.288
-287.589	-90.564	-0.023	0.006
-286.574	-200.000	0.047	0.237
-285.559	-104.723	0.077	-0.017
-284.545	5.412	-0.153	-0.112
-283.530	609.280	-0.053	-0.130
-282.516	170.378	0.095	0.134
-281.501	-200.000	0.012	-0.254
-280.486	-51.751	0.153	0.071
-279.472	28.098	-0.326	-0.271
-278.457	-150.917	0.359	-0.027
-277.443	131.117	-0.059	-0.075
-276.428	76.470	-0.150	0.157
-275.413	-26.916	-0.143	-0.082
-274.399	310.531	0.092	0.170
-273.384	-200.000	-0.009	0.400
-272.370	123.795	0.063	-0.078
-271.355	-49.188	-0.283	-0.133
-270.340	-100.588	0.184	-0.045
-269.326	300.647	-0.168	-0.305
-268.311	-51.368	0.074	0.034
-267.297	-200.000	0.023	0.126
-266.282	31.183	0.072	0.061
-265.267	249.326	0.045	-0.075
-264.253	45.030	-0.250	0.227
-263.238	-60.471	0.103	0.043
-262.224	616.547	-0.055	-0.136
-261.209	-79.559	0.316	-0.105
-260.195	161.586	-0.143	0.197
-259.180	-37.761	-0.285	-0.150
-258.165	800.000	0.049	0.139
-257.151	-200.000	-0.161	0.000
-256.136	-14.249	-0.208	0.132
-255.122	-182.127	0.237	-0.004
-254.107	-200.000	0.021	0.205
-253.092	-167.768	0.478	0.019
-252.078	-200.000	-0.058	0.290
-251.063	-4.773	0.176	-0.119
-250.049	-172.332	-0.120	-0.004
-249.034	174.047	0.049	-0.070
-248.019	-200.000	-0.035	0.166
-247.005	-32.088	0.154	-0.085
-245.990	-61.658	0.203	-0.084
-244.976	79.660	0.144	0.152
-243.961	13.891	0.123	-0.094
-242.946	190.603	0.158	0.233
-241.932	59.795	0.177	0.172
-240.917	-128.019	-0.119	-0.017
-239.903	-81.070	0.154	0.050
-238.888	-200.000	-0.007	-0.081
-237.873	103.903	-0.191	-0.221
-236.859	10.887	0.036	-0.027
-235.844	131.190	-0.105	-0.132
-234.830	215.166	0.038	-0.060
-233.815	308.531	-0.075	-0.138
-232.800	-9.737	-0.272	0.179
-231.786	66.834	0.181	0.181
-230.771	-200.000	-0.218	0.001
-229.757	-200.000	0.035	-0.308
-228.742	200.559	0.120	-0.181
-227.727	64.634	-0.164	-0.163
-226.713	800.000	0.051	0.166
-225.698	-96.679	-0.351	0.091
-224.684	14.717	-0.184	-0.142
-223.669	-161.393	-0.308	0.016
-222.655	-101.672	0.289	0.069
-221.640	800.000	0.060	0.229
-220.625	-127.051	0.227	-0.033
-219.611	-20.770	0.218	0.131
-218.596	4.357	-0.206	-0.149
-217.582	398.349	-0.070	-0.144
-216.567	-155.597	0.165	0.010
-215.552	-181.995	-0.139	-0.003
-214.538	-200.000	0.047	0.470
-213.523	-135.135	0.141	0.017
-212.509	125.635	0.134	-0.166
-211.494	-2.043	0.273	0.189
-210.479	59.813	0.170	0.165
-209.465	-146.824	0.328	0.028
-208.450	-200.000	0.026	0.659
-207.436	-16.436	-0.085	-0.053
-206.421	-36.918	-0.260	0.137
-205.406	800.000	-0.112	0.324
-204.392	654.393	-0.129	0.325
-203.377	-151.602	0.017	0.001
-202.363	-39.965	0.254	-0.130
-201.348	-103.816	-0.271	-0.062
-200.333	-200.000	-0.011	-0.055
-199.319	-82.776	0.304	-0.097
-198.304	-125.238	-0.388	0.058
-197.290	800.000	-0.028	0.107
-196.275	60.769	0.415	0.404
-195.260	-168.107	-0.157	-0.006
-194.246	404.206	0.139	0.288
-193.231	-200.000	-0.024	-0.160
-192.217	-9.312	0.227	0.149
-191.202	-119.534	-0.123	-0.021
-190.187	-43.619	-0.084	-0.042
-189.173	-19.348	0.187	-0.114
-188.158	-39.955	-0.520	-0.267
-187.144	452.722	-0.010	-0.022
-186.129	-170.481	-0.075	0.003
-185.114	-123.783	0.248	0.038
-184.100	-156.374	0.223	-0.014
-183.085	15.330	0.181	0.139
-182.071	-119.530	-0.203	-0.035
-181.056	226.766	0.085	-0.135
-180.042	800.000	0.088	0.264
-179.027	781.714	0.058	-0.157
-178.012	800.000	-0.036	-0.129
-176.998	-174.483	0.313	0.009
-175.983	-123.494	-0.378	-0.059
-174.969	9.992	0.297	-0.221
-173.954	21.899	0.159	0.128
-172.939	32.976	-0.315	0.268
-171.925	-185.506	-0.353	-0.005
-170.910	-116.833	-0.272	-0.049
-169.896	378.079	0.034	-0.069
-168.881	1.647	-0.191	0.135
-167.866	-73.910	0.086	0.031
-166.852	-97.027	-0.510	0.131
-165.837	-140.230	0.361	-0.037
-164.823	-127.442	0.315	-0.045
-163.808	-46.930	0.055	0.026
-162.793	-9.356	0.185	0.122
-161.779	800.000	0.132	0.470
-160.764	-200.000	0.007	-0.137
-159.750	-200.000	0.025	-0.426
-158.735	29.282	-0.145	-0.121
-157.720	185.630	0.105	0.154
-156.706	-94.779	-0.169	0.045
-155.691	34.180	-0.140	-0.120
-154.677	-16.158	-0.441	0.275
-153.662	486.190	-0.085	0.191
-152.647	-61.466	0.161	0.066
-151.633	-105.944	0.220	-0.049
-150.618	-71.240	-0.324	0.119
-149.604	41.700	-0.316	-0.281
-148.589	116.962	0.107	0.129
-147.574	-95.206	-0.148	0.039
-146.560	753.873	0.077	0.204
-145.545	469.491	0.137	0.302
-144.531	345.157	-0.124	-0.238
-143.516	-200.000	-0.029	0.173
-142.502	55.052	-0.143	-0.135
-141.487	-75.289	0.191	0.067
-140.472	-137.806	-0.206	0.023
-139.458	-92.897	0.091	0.025
-138.443	59.436	-0.188	0.181
-137.429	-200.000	-0.004	0.052
-136.414	-85.301	0.186	0.057
-135.399	-57.226	0.420	0.181
-134.385	-70.867	0.268	0.099
-133.370	-86.683	0.124	-0.037
-132.356	122.491	-0.136	0.167
-131.341	800.000	0.103	0.284
-130.326	-200.000	0.064	-0.422
-129.312	-29.735	-0.171	0.096
-128.297	-23.640	0.116	-0.068
-127.283	-200.000	0.001	-0.097
-126.268	759.638	-0.058	0.154
-125.253	-116.364	0.244	-0.044
-124.239	64.819	0.268	-0.265
-123.224	16.143	0.320	0.247
-122.210	-111.815	-0.140	0.028
-121.195	-200.000	-0.100	0.512
-120.180	93.140	0.215	0.238
