DTS Sentinel unit serial number:	SN413079Multiplexer serial number:	ORYXHardware model number:	OX4-SRSoftware version number:	ORYX F/W v4.00 Oryx Data Collector v3.7.2.0data status	okinstallation	princeton_trtdifferential loss correction	single-endedforward channel	channel 3reverse channel	N/Adate	2019/09/15time	08:40:35forward acquisition time	60.00reverse acquisition time	0.00gamma	496.2192k internal	0.2318k external	0.2318temperature offset calibration	0.9980default loss term (dB/km)	0.3790temperature slope calibration	1.0000multiplexer offset coefficient	1.0000multiplexer slope coefficient	1.0000fibre end	0.00T internal ref (°C)	31.98T ext. ref 1 (°C)	4.99T ext. ref 2 (°C)	29.33length (m)	temperature (°C)	Stokes	anti-Stokes-747.200	-200.000	0.039	-0.178
-746.185	235.027	-0.061	0.101
-745.171	32.741	0.130	0.114
-744.156	532.999	0.131	0.314
-743.142	175.416	0.195	0.286
-742.127	-200.000	-0.026	0.196
-741.112	134.361	0.077	-0.100
-740.098	39.870	-0.249	0.226
-739.083	-80.260	0.327	-0.111
-738.069	800.000	-0.075	0.211
-737.054	-36.388	0.182	-0.099
-736.039	38.739	-0.287	0.259
-735.025	435.090	-0.082	0.180
-734.010	-86.997	0.285	-0.088
-732.996	-11.035	-0.149	0.099
-731.981	-1.701	0.055	0.039
-730.966	-132.862	-0.279	0.036
-729.952	257.710	-0.075	-0.130
-728.937	103.343	0.054	-0.064
-727.923	-200.000	-0.033	0.207
-726.908	-35.849	0.364	-0.199
-725.894	-200.000	0.007	-0.055
-724.879	183.331	-0.210	0.313
-723.864	-149.218	0.038	0.003
-722.850	-19.293	0.149	0.093
-721.835	-24.140	0.231	-0.139
-720.821	143.382	0.224	-0.301
-719.806	-149.886	0.063	0.005
-718.791	36.028	-0.216	0.192
-717.777	92.421	0.184	-0.210
-716.762	-200.000	-0.032	-0.181
-715.748	-111.048	0.475	-0.098
-714.733	-200.000	-0.013	-0.697
-713.718	150.695	-0.131	-0.180
-712.704	-34.561	0.158	0.087
-711.689	-29.080	0.067	-0.039
-710.675	-67.444	0.056	0.022
-709.660	800.000	0.064	0.280
-708.645	152.481	0.148	-0.205
-707.631	771.003	-0.029	0.080
-706.616	94.094	-0.031	-0.036
-705.602	-95.952	0.204	0.055
-704.587	-26.417	0.314	-0.186
-703.572	70.416	0.267	0.279
-702.558	-200.000	0.225	-0.000
-701.543	20.849	0.180	0.147
-700.529	-74.368	0.157	0.057
-699.514	-173.051	-0.093	-0.003
-698.499	-39.030	0.157	-0.084
-697.485	5.537	-0.437	-0.326
-696.470	-67.539	-0.085	-0.034
-695.456	116.329	0.099	0.123
-694.441	-142.417	-0.399	0.040
-693.426	260.621	0.152	0.266
-692.412	-200.000	0.014	-0.187
-691.397	-100.272	-0.223	0.056
-690.383	-200.000	0.013	0.181
-689.368	-200.000	0.029	0.553
-688.354	-74.432	0.190	0.069
-687.339	210.542	-0.029	-0.045
-686.324	-77.094	-0.133	0.047
-685.310	146.907	0.107	-0.146
-684.295	248.483	-0.125	0.214
-683.281	800.000	-0.026	0.076
-682.266	-13.123	-0.213	-0.140
-681.251	-200.000	-0.012	0.071
-680.237	387.197	0.075	0.156
-679.222	454.705	-0.037	0.083
-678.208	-105.255	-0.121	0.028
-677.193	-133.166	-0.158	0.020
-676.178	-98.535	0.044	-0.011
-675.164	241.791	-0.108	-0.182
-674.149	-77.878	0.233	-0.081
-673.135	-171.821	0.182	0.006
-672.120	628.079	0.063	-0.161
-671.105	368.601	0.176	-0.359
-670.091	-200.000	-0.035	-0.255
-669.076	800.000	-0.164	-0.503
-668.062	-24.673	0.241	-0.145
-667.047	22.337	-0.195	0.161
-666.032	144.247	-0.233	-0.314
-665.018	-7.916	0.042	-0.029
-664.003	143.625	0.108	0.145
-662.989	424.352	0.072	-0.155
-661.974	-31.770	-0.394	-0.223
-660.959	-50.176	-0.119	0.057
-659.945	-143.035	-0.302	0.029
-658.930	42.928	-0.018	-0.017
-657.916	57.358	0.146	-0.144
-656.901	99.851	-0.141	-0.165
-655.886	242.887	0.009	-0.015
-654.872	-13.634	-0.129	0.085
-653.857	-55.797	-0.491	-0.221
-652.843	-36.996	0.153	-0.083
-651.828	-11.494	-0.331	-0.219
-650.814	-14.767	-0.044	-0.028
-649.799	-37.598	0.098	0.053
-648.784	-52.488	-0.126	-0.059
-647.770	-200.000	0.020	-0.134
-646.755	-80.802	-0.286	0.096
-645.741	-56.481	-0.477	-0.213
-644.726	156.508	-0.061	-0.086
-643.711	-200.000	-0.001	-0.237
-642.697	-200.000	0.026	-0.296
-641.682	-93.986	-0.540	-0.149
-640.668	-112.084	0.137	0.028
-639.653	800.000	0.074	0.287
-638.638	135.350	-0.077	-0.101
-637.624	-200.000	0.017	-0.158
-636.609	3.665	-0.090	-0.066
-635.595	101.005	-0.166	-0.195
-634.580	-50.322	-0.116	0.055
-633.565	-14.656	-0.130	0.084
-632.551	-172.458	0.234	-0.007
-631.536	-200.000	0.003	0.044
-630.522	-200.000	0.048	-0.427
-629.507	148.209	0.147	0.200
-628.492	195.569	0.216	-0.330
-627.478	-83.720	-0.286	-0.092
-626.463	-127.822	0.125	-0.018
-625.449	699.155	0.139	-0.368
-624.434	-115.554	-0.334	-0.063
-623.419	-200.000	-0.016	-0.098
-622.405	-200.000	-0.061	0.374
-621.390	17.105	0.216	-0.172
-620.376	-51.630	0.092	0.043
-619.361	75.801	-0.127	0.135
-618.346	215.198	-0.185	-0.295
-617.332	742.616	0.113	-0.307
-616.317	-200.000	0.011	0.134
-615.303	136.866	0.197	0.259
-614.288	-50.153	-0.296	0.141
-613.273	-200.000	0.031	-0.153
-612.259	-116.136	-0.108	-0.020
-611.244	-76.887	-0.206	-0.072
-610.230	800.000	0.067	0.281
-609.215	-200.000	-0.024	0.294
-608.201	-149.453	-0.306	0.024
-607.186	-200.000	0.011	0.060
-606.171	-53.778	0.071	-0.032
-605.157	68.623	0.115	0.119
-604.142	-158.843	-0.299	-0.017
-603.128	800.000	0.079	0.268
-602.113	20.902	-0.041	0.033
-601.098	-10.670	0.182	0.121
-600.084	-120.701	-0.322	0.055
-599.069	59.545	0.146	0.145
-598.055	-61.770	-0.220	-0.093
-597.040	-126.355	0.101	0.015
-596.025	364.070	-0.133	-0.270
-595.011	800.000	0.154	-0.455
-593.996	800.000	-0.055	-0.179
-592.982	50.310	0.045	-0.043
-591.967	57.089	0.196	-0.192
-590.952	800.000	-0.105	0.369
-589.938	478.097	0.085	-0.194
-588.923	800.000	0.018	-0.055
-587.909	-200.000	-0.028	0.257
-586.894	-200.000	0.022	0.142
-585.879	510.481	-0.080	0.188
-584.865	-82.895	-0.253	-0.082
-583.850	-200.000	0.015	-0.086
-582.836	-200.000	-0.012	0.115
-581.821	800.000	-0.071	-0.216
-580.806	42.304	-0.047	-0.043
-579.792	-47.725	-0.103	-0.050
-578.777	-200.000	-0.034	-0.575
-577.763	242.039	-0.200	0.336
-576.748	-84.707	-0.169	0.053
-575.733	-104.139	-0.271	-0.063
-574.719	-200.000	-0.014	-0.156
-573.704	-133.432	-0.335	0.042
-572.690	309.577	-0.137	-0.258
-571.675	38.735	-0.033	0.029
-570.661	800.000	0.042	-0.142
-569.646	799.860	0.154	0.426
-568.631	56.653	0.095	-0.093
-567.617	87.412	-0.116	0.129
-566.602	-160.249	-0.161	-0.009
-565.588	490.059	0.032	0.073
-564.573	-200.000	0.044	-0.354
-563.558	-77.359	-0.138	0.048
-562.544	-200.000	-0.025	-0.180
-561.529	205.240	0.032	-0.050
-560.515	-9.999	-0.132	0.088
-559.500	-15.632	0.194	-0.124
-558.485	286.179	-0.152	-0.276
-557.471	-115.483	0.072	-0.014
-556.456	800.000	0.054	0.178
-555.442	-170.219	0.186	0.007
-554.427	-73.749	0.132	-0.048
-553.412	-86.439	-0.181	0.056
-552.398	-185.227	0.249	0.004
-551.383	660.134	-0.094	-0.243
-550.369	6.938	0.089	0.067
-549.354	55.967	-0.143	-0.139
-548.339	-200.000	0.035	-0.317
-547.325	-88.228	-0.168	0.050
-546.310	31.307	-0.282	0.243
-545.296	451.302	0.042	0.094
-544.281	-26.658	-0.209	-0.123
-543.266	-200.000	0.004	0.043
-542.252	178.765	-0.209	-0.307
-541.237	-97.550	0.213	0.056
-540.223	418.272	-0.060	0.129
-539.208	-104.417	0.083	0.019
-538.193	-54.892	-0.056	-0.025
-537.179	12.075	-0.238	0.184
-536.164	-148.930	-0.242	0.020
-535.150	15.271	0.262	-0.206
-534.135	-113.437	0.165	0.032
-533.121	93.927	0.079	-0.090
-532.106	-200.000	-0.011	0.221
-531.091	-200.000	-0.004	-0.047
-530.077	800.000	-0.089	0.252
-529.062	-56.037	0.198	-0.089
-528.048	12.954	0.121	0.094
-527.033	800.000	0.114	0.364
-526.018	-81.778	-0.127	-0.042
-525.004	-18.131	0.281	0.176
-523.989	-200.000	-0.023	-0.187
-522.975	33.046	-0.227	0.197
-521.960	4.387	0.219	0.161
-520.945	-200.000	0.006	-0.132
-519.931	-36.491	-0.101	-0.055
-518.916	-82.660	-0.214	-0.069
-517.902	-200.000	0.037	0.286
-516.887	204.613	0.227	0.354
-515.872	800.000	0.026	0.090
-514.858	-19.922	-0.037	-0.023
-513.843	800.000	0.023	-0.097
-512.829	39.869	-0.346	-0.312
-511.814	-180.657	0.208	-0.004
-510.799	2.963	0.202	0.147
-509.785	81.641	-0.063	0.068
-508.770	5.711	0.434	0.322
-507.756	-43.299	0.080	-0.040
-506.741	-101.168	0.195	-0.048
-505.726	800.000	-0.090	0.339
-504.712	-75.066	0.188	-0.068
-503.697	-112.049	-0.163	-0.033
-502.683	-41.316	-0.098	0.050
-501.668	-90.641	0.329	-0.095
-500.653	-50.363	0.240	-0.114
-499.639	-79.531	-0.052	-0.017
-498.624	-200.000	-0.010	0.081
-497.610	-18.153	-0.072	0.045
-496.595	800.000	-0.037	0.126
-495.581	-54.325	-0.150	-0.068
-494.566	-200.000	0.055	-0.351
-493.551	84.835	0.207	0.227
-492.537	318.296	0.143	0.271
-491.522	-90.604	-0.227	-0.066
-490.508	79.324	0.132	-0.141
-489.493	-200.000	0.066	-0.386
-488.478	-14.844	-0.258	0.166
-487.464	-17.528	0.110	0.069
-486.449	514.564	0.025	-0.059
-485.435	-184.282	0.100	0.002
-484.420	-200.000	0.052	-0.280
-483.405	-96.160	0.318	-0.085
-482.391	457.898	0.100	-0.224
-481.376	-200.000	0.000	-0.002
-480.362	237.093	-0.033	-0.054
-479.347	-151.231	0.023	-0.002
-478.332	-59.571	-0.137	0.059
-477.318	235.377	0.107	0.178
-476.303	-200.000	0.042	-0.260
-475.289	-200.000	-0.027	0.403
-474.274	-37.937	-0.171	0.091
-473.259	113.347	0.112	-0.136
-472.245	-6.512	-0.299	0.204
-471.230	-200.000	-0.028	0.253
-470.216	-200.000	-0.029	-0.162
-469.201	-14.557	-0.345	-0.222
-468.186	-118.731	0.204	0.036
-467.172	204.319	-0.046	0.072
-466.157	269.965	-0.075	0.132
-465.143	-17.561	0.125	-0.079
-464.128	251.219	-0.251	-0.428
-463.113	-112.749	0.271	-0.054
-462.099	-129.618	0.197	0.027
-461.084	800.000	-0.089	-0.381
-460.070	301.841	0.189	-0.349
-459.055	-87.582	-0.150	0.045
-458.040	92.973	0.084	-0.095
-457.026	75.371	0.237	-0.250
-456.011	-47.868	0.195	-0.094
-454.997	-200.000	0.022	-0.113
-453.982	800.000	-0.065	-0.188
-452.968	706.949	0.096	0.255
-451.953	-167.464	0.254	-0.010
-450.938	99.653	0.090	0.105
-449.924	-44.855	-0.293	-0.146
-448.909	230.403	-0.270	-0.441
-447.895	285.341	-0.144	0.260
-446.880	-112.710	-0.212	0.042
-445.865	-200.000	0.018	-0.387
-444.851	4.522	0.155	-0.113
-443.836	-108.747	0.336	-0.072
-442.822	-75.167	0.314	0.112
-441.807	-84.231	0.338	-0.107
-440.792	-118.655	-0.249	0.044
-439.778	-126.460	0.236	-0.035
-438.763	-85.180	0.190	-0.059
-437.749	-106.708	-0.119	0.026
-436.734	223.250	-0.117	0.189
-435.719	-127.997	0.289	0.041
-434.705	398.877	0.086	0.181
-433.690	201.576	0.214	0.330
-432.676	-38.543	-0.048	0.025
-431.661	-200.000	0.018	-0.198
-430.646	800.000	0.048	-0.190
-429.632	-21.624	-0.088	-0.053
-428.617	424.845	0.059	-0.127
-427.603	-188.839	0.030	-0.000
-426.588	71.550	-0.153	0.159
-425.573	-60.335	0.155	0.066
-424.559	154.087	-0.063	0.086
-423.544	-74.206	-0.092	-0.033
-422.530	10.554	-0.119	-0.091
-421.515	-19.415	0.042	0.026
-420.500	800.000	0.034	-0.098
-419.486	-23.992	0.104	-0.062
-418.471	-37.945	-0.154	0.082
-417.457	-200.000	0.000	-0.122
-416.442	446.092	-0.033	-0.073
-415.428	800.000	0.010	-0.035
-414.413	-140.903	-0.264	-0.027
-413.398	-200.000	0.022	-0.097
-412.384	-200.000	-0.025	-0.219
-411.369	-46.480	-0.336	-0.165
-410.355	-29.195	-0.018	0.010
-409.340	-200.000	-0.006	-0.130
-408.325	-120.184	0.240	-0.041
-407.311	-150.283	0.290	-0.022
-406.296	-64.633	-0.356	0.144
-405.282	30.499	-0.062	0.053
-404.267	-60.374	0.005	-0.002
-403.252	215.572	0.050	-0.080
-402.238	-200.000	-0.015	-0.155
-401.223	-1.486	0.191	-0.135
-400.209	287.648	0.210	0.379
-399.194	-72.922	0.128	-0.047
-398.179	-192.521	-0.290	0.003
-397.165	48.799	-0.128	0.120
-396.150	176.287	0.189	-0.274
-395.136	-48.491	-0.228	-0.110
-394.121	-96.831	0.170	0.045
-393.106	154.877	0.116	-0.159
-392.092	-200.000	0.037	0.207
-391.077	367.990	0.107	0.215
-390.063	-39.844	-0.232	-0.121
-389.048	-38.008	-0.252	0.134
-388.033	-20.077	-0.384	0.236
-387.019	-200.000	-0.004	-0.161
-386.004	249.590	-0.130	-0.221
-384.990	-114.049	-0.193	-0.037
-383.975	139.553	-0.040	0.052
-382.960	36.908	0.498	0.440
-381.946	415.564	-0.158	0.336
-380.931	191.910	-0.004	0.007
-379.917	579.175	-0.036	0.088
-378.902	-200.000	0.012	-0.115
-377.888	205.534	-0.074	0.115
-376.873	228.057	-0.077	-0.126
-375.858	85.297	0.174	-0.190
-374.844	800.000	0.021	0.070
-373.829	80.427	-0.042	0.045
-372.815	177.335	0.033	0.048
-371.800	-163.228	0.137	0.007
-370.785	-174.447	0.459	0.013
-369.771	-200.000	-0.046	0.434
-368.756	800.000	-0.043	0.149
-367.742	50.657	-0.248	0.234
-366.727	21.276	0.137	-0.111
-365.712	-200.000	0.042	-0.198
-364.698	800.000	0.063	0.201
-363.683	-200.000	-0.012	0.204
-362.669	711.277	-0.075	-0.199
-361.654	-98.651	-0.359	-0.091
-360.639	-112.868	-0.254	0.050
-359.625	162.499	0.225	0.314
-358.610	-126.705	-0.144	0.021
-357.596	-129.963	-0.194	-0.027
-356.581	-166.638	-0.167	-0.007
-355.566	321.590	0.091	0.172
-354.552	-77.887	0.339	-0.117
-353.537	184.358	-0.157	-0.231
-352.523	190.841	-0.191	0.286
-351.508	148.448	0.147	0.198
-350.493	-15.071	0.131	-0.084
-349.479	-132.601	0.115	-0.015
-348.464	-108.029	-0.289	-0.063
-347.450	-13.924	0.115	-0.074
-346.435	24.849	0.322	-0.266
-345.420	-159.441	0.128	-0.007
-344.406	29.059	0.100	0.084
-343.391	132.898	-0.008	-0.011
-342.377	143.801	-0.040	-0.053
-341.362	-153.531	0.218	0.015
-340.348	800.000	0.051	0.197
-339.333	-60.551	-0.039	-0.016
-338.318	-200.000	0.061	0.348
-337.304	422.224	-0.159	-0.340
-336.289	52.492	0.031	0.029
-335.275	-60.626	0.271	-0.115
-334.260	232.604	0.099	0.163
-333.245	800.000	0.050	0.151
-332.231	-134.586	-0.355	-0.043
-331.216	-200.000	0.015	0.189
-330.202	262.224	0.058	0.099
-329.187	-87.252	0.049	-0.015
-328.172	-63.049	-0.283	0.116
-327.158	-200.000	0.031	0.345
-326.143	-200.000	-0.003	-0.135
-325.129	49.165	0.049	-0.045
-324.114	118.589	0.075	0.092
-323.099	-200.000	-0.012	0.112
-322.085	145.122	-0.045	-0.060
-321.070	145.738	0.160	-0.214
-320.056	271.498	0.062	-0.109
-319.041	800.000	0.037	-0.140
-318.026	225.029	0.030	0.048
-317.012	81.072	0.154	-0.165
-315.997	380.992	0.124	0.253
-314.983	4.575	-0.196	-0.143
-313.968	31.202	0.039	-0.033
-312.953	19.391	0.133	-0.107
-311.939	-71.297	-0.297	0.111
-310.924	-200.000	-0.012	0.265
-309.910	-107.725	0.135	0.029
-308.895	288.082	0.201	0.363
-307.880	800.000	0.124	-0.378
-306.866	22.792	-0.088	0.072
-305.851	800.000	0.064	0.271
-304.837	-200.000	-0.048	0.336
-303.822	-200.000	-0.003	-0.303
-302.807	-200.000	-0.022	-0.407
-301.793	155.308	0.128	0.176
-300.778	-39.941	-0.202	-0.105
-299.764	23.639	0.298	-0.244
-298.749	-104.568	0.121	-0.028
-297.735	800.000	-0.099	0.369
-296.720	-69.909	-0.076	0.029
-295.705	33.179	0.124	0.107
-294.691	248.141	0.152	-0.255
-293.676	164.181	0.097	0.135
-292.662	279.187	-0.025	0.044
-291.647	21.769	-0.053	-0.043
-290.632	-74.386	0.267	0.096
-289.618	119.132	-0.273	0.335
-288.603	93.593	-0.132	-0.149
-287.589	104.121	-0.163	-0.190
-286.574	187.672	-0.177	0.263
-285.559	-34.187	0.086	0.047
-284.545	800.000	0.113	0.414
-283.530	88.748	-0.217	0.240
-282.516	7.259	0.340	-0.252
-281.501	-200.000	-0.030	-0.256
-280.486	-126.932	0.043	-0.006
-279.472	-200.000	-0.032	-0.145
-278.457	184.321	0.149	-0.220
-277.443	2.011	0.244	-0.175
-276.428	340.697	-0.121	0.234
-275.413	-106.605	-0.234	-0.052
-274.399	-151.963	-0.102	-0.007
-273.384	708.264	0.118	0.310
-272.370	-5.926	0.052	-0.035
-271.355	65.890	-0.273	-0.275
-270.340	-44.385	-0.106	0.053
-269.326	-67.825	0.137	-0.053
-268.311	-200.000	-0.004	0.175
-267.297	309.715	0.042	-0.077
-266.282	-200.000	-0.025	-0.119
-265.267	50.543	0.184	-0.173
-264.253	-30.734	0.190	-0.107
-263.238	110.921	-0.224	0.268
-262.224	-60.888	0.198	0.083
-261.209	-141.101	-0.184	0.019
-260.195	143.969	0.028	0.037
-259.180	237.574	-0.100	0.165
-258.165	-139.520	0.157	0.017
-257.151	135.432	-0.142	-0.184
-256.136	-68.395	-0.131	0.051
-255.122	409.240	-0.157	0.330
-254.107	792.655	0.076	-0.207
-253.092	7.545	0.104	0.078
-252.078	-200.000	-0.052	-0.358
-251.063	-200.000	-0.029	-0.186
-250.049	-72.114	0.235	0.086
-249.034	-10.266	-0.025	-0.016
-248.019	7.921	0.107	0.080
-247.005	-56.688	0.088	0.039
-245.990	-200.000	0.010	0.215
-244.976	590.680	0.138	0.338
-243.961	800.000	-0.021	-0.068
-242.946	89.013	0.157	0.174
-241.932	175.230	0.180	0.259
-240.917	591.976	-0.064	-0.157
-239.903	-200.000	-0.033	-0.370
-238.888	800.000	-0.059	-0.228
-237.873	-15.783	0.091	-0.057
-236.859	44.766	-0.125	-0.114
-235.844	57.929	0.076	0.073
-234.830	33.897	0.044	0.038
-233.815	38.684	-0.142	0.126
-232.800	221.391	-0.138	-0.219
-231.786	796.464	0.083	-0.228
-230.771	-200.000	-0.021	0.227
-229.757	195.399	0.138	-0.208
-228.742	-54.304	0.049	0.022
-227.727	33.814	0.108	-0.093
-226.713	-78.401	0.171	0.058
-225.698	-80.139	-0.248	-0.083
-224.684	800.000	0.020	0.073
-223.669	765.427	-0.018	-0.048
-222.655	-200.000	0.011	0.169
-221.640	-18.367	0.183	-0.113
-220.625	108.664	-0.121	0.143
-219.611	121.253	0.212	0.261
-218.596	-200.000	-0.032	-0.221
-217.582	134.818	-0.247	0.318
-216.567	-19.179	0.224	-0.138
-215.552	-119.693	0.099	0.017
-214.538	51.150	0.276	-0.260
-213.523	666.157	0.011	-0.028
-212.509	73.832	0.177	0.184
-211.494	800.000	-0.049	0.193
-210.479	440.964	0.051	0.110
-209.465	217.399	0.044	-0.070
-208.450	84.957	-0.197	0.214
-207.436	7.076	0.166	-0.123
-206.421	291.506	-0.233	0.420
-205.406	800.000	-0.043	-0.147
-204.392	695.678	-0.080	0.207
-203.377	800.000	-0.033	0.114
-202.363	800.000	0.066	-0.216
-201.348	47.332	-0.139	-0.128
-200.333	350.281	-0.203	-0.397
-199.319	286.183	-0.065	-0.116
-198.304	800.000	0.051	-0.165
-197.290	-76.992	0.097	-0.034
-196.275	-200.000	0.016	0.162
-195.260	-200.000	-0.037	0.227
-194.246	-200.000	0.012	-0.055
-193.231	-200.000	0.000	-0.238
-192.217	114.816	-0.152	-0.183
-191.202	-131.442	-0.292	0.038
-190.187	-9.177	-0.088	0.058
-189.173	118.647	-0.097	0.119
-188.158	-8.636	-0.026	-0.017
-187.144	800.000	0.095	0.295
-186.129	47.120	0.178	0.164
-185.114	119.107	-0.045	-0.055
-184.100	-94.683	0.378	-0.102
-183.085	-48.508	-0.219	0.104
-182.071	-87.374	-0.080	0.024
-181.056	-112.600	0.135	-0.027
-180.042	-139.631	0.080	0.008
-179.027	62.292	-0.134	0.133
-178.012	315.792	0.118	0.219
-176.998	-48.180	-0.066	0.031
-175.983	157.693	0.129	-0.177
-174.969	399.040	0.094	-0.195
-173.954	-200.000	0.009	0.050
-172.939	-32.341	0.086	0.047
-171.925	-200.000	-0.032	0.181
-170.910	800.000	0.086	0.240
-169.896	125.130	-0.110	-0.137
-168.881	-9.289	0.101	-0.067
-167.866	27.700	-0.114	-0.095
-166.852	-83.149	0.034	0.011
-165.837	-10.251	-0.267	0.176
-164.823	-200.000	-0.013	0.192
-163.808	-39.495	-0.437	0.226
-162.793	-160.688	-0.207	0.011
-161.779	-18.871	0.089	-0.055
-160.764	87.692	-0.186	-0.204
-159.750	-145.683	0.302	-0.027
-158.735	800.000	-0.075	0.246
-157.720	-155.183	0.231	0.015
-156.706	-112.169	0.435	-0.087
-155.691	-43.621	-0.369	0.184
-154.677	800.000	-0.064	0.214
-153.662	19.021	0.141	0.112
-152.647	-200.000	0.003	-0.081
-151.633	-200.000	0.036	0.169
-150.618	64.220	0.374	-0.373
-149.604	-47.263	-0.475	0.229
-148.589	26.331	-0.236	-0.195
-147.574	-116.086	-0.136	-0.025
-146.560	800.000	-0.090	-0.356
-145.545	-87.936	-0.122	-0.036
-144.531	4.419	-0.120	-0.087
-143.516	-70.759	-0.218	-0.081
-142.502	-74.797	-0.258	0.092
-141.487	-126.334	-0.102	-0.015
-140.472	46.614	-0.198	0.181
-139.458	-34.119	-0.111	0.060
-138.443	-123.293	-0.266	-0.042
-137.429	-112.130	-0.435	0.086
-136.414	800.000	-0.042	0.171
-135.399	280.893	0.136	0.241
-134.385	-153.733	-0.052	-0.004
-133.370	-69.202	0.115	0.044
-132.356	516.303	-0.061	-0.141
-131.341	485.242	0.093	-0.210
-130.326	-192.771	0.178	-0.002
-129.312	97.491	-0.127	-0.144
-128.297	228.296	-0.075	-0.120
-127.283	-49.696	-0.217	-0.102
-126.268	64.278	-0.241	0.240
-125.253	-80.400	-0.066	-0.022
-124.239	-200.000	0.052	0.269
-123.224	800.000	-0.024	0.066
-122.210	-10.747	0.183	-0.119
-121.195	-84.332	0.338	-0.106
