DTS Sentinel unit serial number:	SN413079Multiplexer serial number:	ORYXHardware model number:	OX4-SRSoftware version number:	ORYX F/W v4.00 Oryx Data Collector v3.7.2.0data status	okinstallation	princeton_trtdifferential loss correction	single-endedforward channel	channel 3reverse channel	N/Adate	2019/09/12time	21:12:35forward acquisition time	60.00reverse acquisition time	0.00gamma	496.2192k internal	0.2326k external	0.2326temperature offset calibration	1.0126default loss term (dB/km)	0.3790temperature slope calibration	1.0000multiplexer offset coefficient	1.0000multiplexer slope coefficient	1.0000fibre end	0.00T internal ref (°C)	30.69T ext. ref 1 (°C)	3.61T ext. ref 2 (°C)	25.22length (m)	temperature (°C)	Stokes	anti-Stokes-747.200	87.901	-0.047	-0.053
-746.185	-200.000	0.035	0.244
-745.171	-85.116	0.245	0.077
-744.156	74.494	0.219	0.233
-743.142	-93.730	0.075	-0.021
-742.127	155.918	-0.130	0.180
-741.112	47.713	0.211	0.199
-740.098	-32.830	-0.263	0.148
-739.083	-103.416	0.072	0.017
-738.069	-200.000	-0.019	-0.177
-737.054	-166.473	0.147	0.006
-736.039	32.004	0.135	0.118
-735.025	202.117	0.139	0.216
-734.010	-200.000	-0.073	-0.365
-732.996	-74.934	-0.049	-0.018
-731.981	370.106	-0.113	-0.231
-730.966	16.604	-0.166	-0.133
-729.952	538.806	-0.096	0.231
-728.937	-57.901	0.117	-0.052
-727.923	-45.881	-0.080	-0.040
-726.908	31.304	-0.154	-0.133
-725.894	800.000	0.021	-0.087
-724.879	561.297	-0.156	-0.380
-723.864	629.373	-0.150	-0.382
-722.850	-110.943	0.124	0.026
-721.835	-94.520	-0.225	0.062
-720.821	13.738	0.179	0.140
-719.806	-200.000	-0.021	-0.094
-718.791	292.135	-0.047	-0.087
-717.777	-127.046	-0.115	0.017
-716.762	-35.259	-0.127	0.070
-715.748	-200.000	0.002	-0.320
-714.733	-98.586	-0.078	-0.020
-713.718	-200.000	0.089	-0.560
-712.704	-119.243	-0.192	-0.034
-711.689	-43.020	0.403	-0.206
-710.675	-23.951	-0.237	0.143
-709.660	50.679	-0.255	-0.243
-708.645	40.653	0.195	-0.177
-707.631	-40.612	0.097	0.051
-706.616	-200.000	0.052	0.243
-705.602	-83.697	-0.305	-0.098
-704.587	25.542	-0.166	-0.139
-703.572	-71.745	0.094	-0.035
-702.558	-27.333	-0.249	-0.146
-701.543	-62.442	-0.177	0.074
-700.529	591.229	-0.103	0.255
-699.514	73.491	-0.022	0.023
-698.499	-33.003	0.443	-0.247
-697.485	331.629	0.027	-0.052
-696.470	-67.102	-0.281	0.112
-695.456	-200.000	-0.011	-0.163
-694.441	504.039	0.027	-0.064
-693.426	-200.000	-0.026	-0.187
-692.412	51.375	0.167	0.160
-691.397	-124.679	0.129	-0.020
-690.383	84.660	0.089	-0.098
-689.368	532.729	0.128	0.304
-688.354	193.084	0.085	0.130
-687.339	800.000	-0.029	-0.125
-686.324	2.389	-0.088	0.064
-685.310	-200.000	-0.001	-0.258
-684.295	-50.336	0.285	0.136
-683.281	19.863	0.157	0.127
-682.266	800.000	0.069	0.244
-681.251	125.956	0.069	0.087
-680.237	142.704	-0.190	0.254
-679.222	539.753	0.119	-0.285
-678.208	-102.441	0.112	0.027
-677.193	155.485	-0.205	-0.284
-676.178	800.000	-0.059	0.197
-675.164	145.379	0.142	-0.192
-674.149	217.365	-0.159	0.254
-673.135	-23.299	-0.218	0.132
-672.120	280.758	0.190	-0.341
-671.105	-144.538	-0.322	-0.030
-670.091	162.020	0.019	0.027
-669.076	800.000	0.026	0.102
-668.062	109.150	-0.058	-0.070
-667.047	-56.024	0.169	-0.076
-666.032	-26.211	0.207	-0.122
-665.018	-141.273	-0.149	-0.015
-664.003	-87.420	-0.128	0.039
-662.989	24.934	-0.300	0.250
-661.974	138.096	-0.149	-0.196
-660.959	137.609	-0.121	0.159
-659.945	-97.838	-0.362	-0.094
-658.930	142.491	0.102	0.136
-657.916	10.635	0.413	0.317
-656.901	800.000	-0.082	-0.277
-655.886	99.366	0.161	0.187
-654.872	-8.090	0.106	0.072
-653.857	-200.000	-0.014	0.117
-652.843	-89.808	-0.166	0.049
-651.828	547.928	-0.068	-0.165
-650.814	262.919	0.119	0.207
-649.799	471.291	-0.014	0.031
-648.784	82.250	-0.172	-0.187
-647.770	-95.330	-0.197	0.053
-646.755	76.848	-0.101	-0.108
-645.741	-99.384	0.350	-0.089
-644.726	-200.000	-0.047	0.331
-643.711	-200.000	0.019	0.102
-642.697	800.000	0.085	-0.264
-641.682	130.769	-0.288	0.371
-640.668	-200.000	0.006	0.375
-639.653	-108.027	-0.138	0.030
-638.638	-101.630	-0.232	0.057
-637.624	800.000	0.035	0.127
-636.609	-78.768	0.337	-0.116
-635.595	-28.951	0.287	0.165
-634.580	-200.000	-0.016	0.217
-633.565	800.000	0.066	-0.206
-632.551	-200.000	-0.022	-0.222
-631.536	162.530	-0.243	-0.342
-630.522	132.910	0.083	-0.108
-629.507	-200.000	-0.005	0.237
-628.492	-200.000	0.021	-0.164
-627.478	-18.961	0.473	0.295
-626.463	800.000	-0.008	-0.031
-625.449	-200.000	0.023	-0.111
-624.434	-42.193	-0.244	-0.125
-623.419	126.430	-0.142	-0.180
-622.405	213.606	-0.131	0.209
-621.390	264.442	-0.070	-0.123
-620.376	-72.159	-0.202	0.075
-619.361	-170.524	-0.126	0.004
-618.346	800.000	-0.071	-0.265
-617.332	800.000	0.067	0.210
-616.317	-167.681	-0.328	0.013
-615.303	-200.000	0.004	-0.175
-614.288	419.213	0.080	0.171
-613.273	17.292	-0.258	-0.205
-612.259	-200.000	0.071	0.337
-611.244	-12.941	-0.216	0.141
-610.230	-200.000	0.004	-0.036
-609.215	800.000	0.041	-0.131
-608.201	159.286	0.118	-0.165
-607.186	-200.000	-0.004	-0.060
-606.171	-53.509	-0.308	-0.141
-605.157	-147.154	0.188	-0.016
-604.142	38.534	-0.143	0.128
-603.128	204.428	-0.120	-0.186
-602.113	738.540	0.061	0.163
-601.098	113.779	-0.229	-0.279
-600.084	-49.641	0.043	-0.020
-599.069	-143.387	0.177	0.017
-598.055	-137.108	0.129	0.015
-597.040	-113.185	-0.201	-0.040
-596.025	-112.511	-0.152	-0.030
-595.011	188.996	-0.136	0.204
-593.996	776.177	-0.096	0.263
-592.982	-56.241	-0.235	-0.105
-591.967	-99.634	0.444	0.112
-590.952	1.143	-0.114	0.082
-589.938	104.253	-0.089	-0.105
-588.923	-30.389	-0.095	-0.054
-587.909	-101.926	0.432	-0.105
-586.894	-27.747	-0.186	0.108
-585.879	-128.388	-0.306	-0.044
-584.865	-124.504	-0.273	0.043
-583.850	-200.000	-0.019	0.104
-582.836	800.000	-0.079	0.239
-581.821	-60.115	0.175	0.075
-580.806	497.758	0.043	0.099
-579.792	297.527	-0.027	0.049
-578.777	-200.000	-0.004	0.280
-577.763	-39.534	-0.039	0.020
-576.748	-134.654	-0.043	0.005
-575.733	-87.401	0.126	0.038
-574.719	85.270	-0.170	-0.187
-573.704	258.840	-0.073	-0.126
-572.690	78.580	-0.165	0.176
-571.675	-118.055	0.202	-0.036
-570.661	14.280	0.087	0.068
-569.646	-132.254	0.153	0.020
-568.631	-78.624	0.113	0.039
-567.617	40.633	0.121	-0.109
-566.602	-153.331	0.078	0.005
-565.588	800.000	-0.081	0.256
-564.573	250.162	0.111	0.189
-563.558	-139.794	0.303	-0.032
-562.544	-130.025	-0.251	0.034
-561.529	-200.000	-0.056	-0.289
-560.515	-137.749	-0.334	0.037
-559.500	-200.000	-0.039	0.173
-558.485	-140.258	0.087	-0.009
-557.471	-56.574	-0.108	0.048
-556.456	-7.194	-0.078	0.053
-555.442	-200.000	0.041	-0.186
-554.427	157.385	-0.115	0.160
-553.412	338.709	0.108	-0.210
-552.398	-200.000	-0.015	0.156
-551.383	-114.687	-0.256	0.049
-550.369	-144.164	0.123	0.012
-549.354	-166.903	0.151	0.006
-548.339	800.000	-0.039	0.117
-547.325	16.069	0.272	0.215
-546.310	-200.000	-0.005	-0.177
-545.296	-200.000	-0.035	-0.518
-544.281	800.000	-0.019	0.055
-543.266	35.445	-0.305	0.268
-542.252	65.020	-0.250	-0.253
-541.237	24.661	0.089	0.074
-540.223	-200.000	-0.234	-0.000
-539.208	281.375	0.062	0.112
-538.193	316.679	-0.129	-0.244
-537.179	-200.000	0.055	-0.298
-536.164	-87.405	-0.198	-0.060
-535.150	-95.667	-0.192	0.051
-534.135	800.000	0.021	0.065
-533.121	-104.421	-0.195	0.045
-532.106	-111.810	0.227	-0.046
-531.091	-200.000	-0.003	0.344
-530.077	-127.316	0.178	-0.026
-529.062	214.119	-0.186	-0.294
-528.048	43.596	-0.010	0.010
-527.033	75.137	-0.086	-0.090
-526.018	2.485	0.242	-0.175
-525.004	577.445	0.131	0.321
-523.989	-12.382	0.122	0.080
-522.975	49.501	0.117	-0.110
-521.960	122.336	0.188	-0.235
-520.945	800.000	-0.207	0.610
-519.931	266.456	0.129	0.225
-518.916	301.876	0.303	0.561
-517.902	219.431	-0.139	0.222
-516.887	-177.566	0.153	-0.004
-515.872	53.411	-0.027	-0.026
-514.858	-141.105	0.219	0.022
-513.843	-200.000	0.060	-0.288
-512.829	138.964	0.067	0.089
-511.814	-48.459	-0.088	-0.042
-510.799	51.427	-0.049	-0.046
-509.785	-200.000	-0.055	-0.288
-508.770	-15.073	0.109	0.070
-507.756	-34.916	0.074	0.040
-506.741	-66.769	-0.420	0.166
-505.726	115.025	-0.131	-0.160
-504.712	512.730	0.129	-0.300
-503.697	-200.000	-0.023	0.209
-502.683	-117.245	-0.348	-0.063
-501.668	800.000	-0.056	-0.229
-500.653	-62.398	-0.229	-0.095
-499.639	708.334	0.080	0.210
-498.624	456.127	-0.133	0.295
-497.610	-24.782	-0.183	-0.109
-496.595	-20.516	-0.201	-0.124
-495.581	556.552	0.064	-0.155
-494.566	-64.839	-0.333	0.135
-493.551	800.000	0.157	-0.472
-492.537	155.924	0.146	0.201
-491.522	152.979	0.190	0.259
-490.508	-200.000	0.012	0.133
-489.493	-200.000	0.016	-0.275
-488.478	-38.074	-0.270	-0.143
-487.464	800.000	-0.063	-0.238
-486.449	-152.100	0.152	-0.011
-485.435	234.117	0.082	-0.134
-484.420	-200.000	0.014	-0.078
-483.405	611.950	0.025	0.063
-482.391	-0.534	-0.308	0.218
-481.376	581.491	-0.096	0.235
-480.362	396.668	0.188	0.392
-479.347	800.000	0.080	-0.292
-478.332	-96.961	0.156	0.041
-477.318	98.791	-0.098	0.113
-476.303	-71.613	-0.373	-0.139
-475.289	-20.662	-0.546	0.335
-474.274	187.096	-0.087	-0.130
-473.259	281.214	0.142	0.253
-472.245	-92.972	0.227	-0.063
-471.230	81.148	0.138	0.149
-470.216	109.468	-0.224	-0.268
-469.201	-20.596	0.065	-0.040
-468.186	-200.000	-0.030	-0.313
-467.172	52.149	0.061	-0.058
-466.157	800.000	-0.038	0.159
-465.143	130.511	-0.067	0.086
-464.128	800.000	0.074	-0.219
-463.113	800.000	0.076	-0.228
-462.099	241.253	-0.036	-0.060
-461.084	18.774	-0.198	0.158
-460.070	-23.665	0.199	0.119
-459.055	310.568	-0.081	-0.152
-458.040	728.637	-0.010	-0.026
-457.026	-43.571	0.138	0.069
-456.011	-68.433	0.401	-0.155
-454.997	21.138	-0.245	0.198
-453.982	147.915	-0.095	-0.128
-452.968	800.000	0.029	0.083
-451.953	35.874	-0.225	0.197
-450.938	609.525	0.085	-0.212
-449.924	246.222	-0.125	-0.210
-448.909	-200.000	-0.000	-0.263
-447.895	5.787	-0.098	0.072
-446.880	800.000	0.053	0.150
-445.865	745.705	0.115	-0.308
-444.851	-85.183	-0.169	0.053
-443.836	800.000	0.024	0.080
-442.822	-200.000	-0.004	-0.099
-441.807	27.552	-0.112	0.094
-440.792	-200.000	-0.029	0.219
-439.778	-134.064	0.055	0.007
-438.763	9.009	-0.223	-0.168
-437.749	750.626	-0.050	0.136
-436.734	-24.998	-0.098	-0.058
-435.719	98.383	0.254	-0.292
-434.705	800.000	0.031	0.103
-433.690	-200.000	0.178	-0.000
-432.676	-104.770	-0.117	-0.027
-431.661	11.643	0.335	-0.256
-430.646	-131.346	-0.188	-0.025
-429.632	-35.803	-0.182	-0.098
-428.617	142.923	0.137	0.182
-427.603	-200.000	-0.066	-0.331
-426.588	468.780	0.040	0.089
-425.573	515.061	0.037	-0.086
-424.559	88.865	-0.081	-0.090
-423.544	-46.529	0.118	-0.058
-422.530	-61.359	-0.222	0.093
-421.515	-158.087	-0.226	-0.013
-420.500	-101.915	0.136	-0.033
-419.486	6.766	0.156	-0.116
-418.471	535.346	0.040	0.094
-417.457	-66.022	-0.149	0.059
-416.442	-194.150	-0.249	0.002
-415.428	715.872	-0.221	-0.585
-414.413	280.735	0.006	-0.011
-413.398	-140.805	0.116	-0.012
-412.384	58.020	-0.039	-0.038
-411.369	-16.888	0.251	0.158
-410.355	243.289	-0.029	0.049
-409.340	72.178	-0.090	-0.093
-408.325	800.000	0.158	0.482
-407.311	60.372	0.014	0.014
-406.296	-134.130	0.221	-0.027
-405.282	17.714	0.129	-0.102
-404.267	-70.209	0.214	-0.081
-403.252	282.388	-0.163	-0.290
-402.238	18.887	0.251	-0.200
-401.223	-200.000	-0.039	0.245
-400.209	-188.257	0.391	-0.005
-399.194	34.154	0.119	0.103
-398.179	68.690	-0.213	-0.217
-397.165	-78.542	0.126	0.043
-396.150	124.056	-0.034	0.042
-395.136	800.000	0.018	0.061
-394.121	-115.459	0.174	0.033
-393.106	-154.003	-0.416	0.028
-392.092	-200.000	-0.068	0.366
-391.077	-62.376	0.313	0.130
-390.063	-200.000	-0.118	0.586
-389.048	-133.492	0.346	0.043
-388.033	-34.511	-0.445	0.243
-387.019	317.872	0.076	-0.144
-386.004	-9.604	0.053	-0.035
-384.990	-200.000	-0.086	0.393
-383.975	223.892	-0.058	0.092
-382.960	93.935	0.124	0.140
-381.946	236.879	0.169	-0.279
-380.931	-105.626	-0.313	0.071
-379.917	-58.013	-0.153	-0.066
-378.902	-67.090	-0.176	-0.069
-377.888	-29.801	0.142	-0.080
-376.873	515.116	-0.075	0.174
-375.858	189.382	-0.036	-0.053
-374.844	-27.828	-0.119	-0.069
-373.829	-200.000	0.001	0.121
-372.815	-200.000	0.004	0.075
-371.800	73.592	0.099	0.103
-370.785	-81.580	-0.130	-0.042
-369.771	-28.637	-0.125	-0.071
-368.756	800.000	-0.069	0.203
-367.742	-91.861	0.077	0.022
-366.727	-9.311	0.323	0.215
-365.712	-200.000	0.004	-0.201
-364.698	63.421	-0.131	-0.130
-363.683	-178.915	-0.414	0.009
-362.669	-29.761	0.058	-0.033
-361.654	-151.194	0.359	-0.027
-360.639	-29.655	0.576	0.327
-359.625	-8.428	0.234	0.156
-358.610	-137.267	-0.154	-0.017
-357.596	-200.000	-0.037	-0.219
-356.581	9.330	-0.149	-0.112
-355.566	-106.811	0.212	-0.047
-354.552	525.170	-0.022	-0.051
-353.537	-194.345	-0.347	0.003
-352.523	-151.088	0.075	0.006
-351.508	51.543	0.045	-0.043
-350.493	-200.000	-0.012	-0.102
-349.479	-200.000	-0.025	-0.140
-348.464	58.291	0.103	-0.100
-347.450	190.488	0.159	-0.237
-346.435	800.000	0.016	0.062
-345.420	42.397	0.187	-0.169
-344.406	-200.000	-0.010	-0.175
-343.391	113.350	0.159	-0.192
-342.377	-200.000	-0.003	-0.233
-341.362	161.467	0.108	-0.150
-340.348	-200.000	0.050	-0.294
-339.333	320.337	-0.146	0.276
-338.318	-66.126	-0.066	0.026
-337.304	-131.646	0.287	-0.037
-336.289	-17.123	-0.216	-0.135
-335.275	800.000	0.077	0.216
-334.260	-79.269	-0.088	-0.030
-333.245	313.341	-0.132	-0.247
-332.231	175.919	-0.116	0.166
-331.216	-42.803	0.234	0.118
-330.202	76.292	0.080	0.084
-329.187	-43.046	0.073	-0.037
-328.172	800.000	0.046	0.183
-327.158	118.168	-0.277	0.338
-326.143	-89.395	-0.021	-0.006
-325.129	191.316	0.102	0.152
-324.114	134.564	0.191	0.246
-323.099	-5.452	0.071	0.048
-322.085	53.350	0.147	0.140
-321.070	46.450	-0.057	-0.052
-320.056	-200.000	0.045	-0.381
-319.041	-200.000	0.018	-0.178
-318.026	-126.677	0.180	0.026
-317.012	343.230	0.139	-0.271
-315.997	13.360	-0.433	0.333
-314.983	-102.967	-0.248	-0.058
-313.968	-200.000	-0.052	-0.384
-312.953	-38.210	0.121	0.064
-311.939	-138.136	0.072	-0.008
-310.924	800.000	0.052	0.199
-309.910	45.950	-0.133	0.122
-308.895	-143.533	0.123	-0.012
-307.880	-197.109	0.166	-0.001
-306.866	320.355	0.052	0.098
-305.851	-15.554	-0.256	-0.162
-304.837	-200.000	-0.001	0.202
-303.822	-172.405	-0.095	-0.003
-302.807	-200.000	-0.032	0.226
-301.793	0.308	0.219	0.155
-300.778	308.604	0.095	0.175
-299.764	800.000	0.042	0.130
-298.749	800.000	0.122	0.518
-297.735	24.733	0.223	0.183
-296.720	205.002	0.090	-0.138
-295.705	496.282	0.044	0.100
-294.691	-40.881	0.255	0.131
-293.676	479.746	0.147	-0.330
-292.662	-200.000	0.050	-0.585
-291.647	-7.763	0.163	0.109
-290.632	-136.887	0.417	0.047
-289.618	800.000	0.052	-0.175
-288.603	-57.577	-0.187	-0.081
-287.589	-62.098	0.176	0.073
-286.574	-149.480	0.072	-0.006
-285.559	-200.000	0.069	0.329
-284.545	356.024	0.054	0.106
-283.530	119.105	-0.081	-0.100
-282.516	-105.238	-0.329	-0.074
-281.501	9.088	-0.180	0.135
-280.486	71.594	0.102	-0.105
-279.472	66.346	0.154	0.155
-278.457	-63.354	-0.142	-0.058
-277.443	-200.000	-0.005	0.120
-276.428	800.000	0.097	0.307
-275.413	752.306	0.049	-0.131
-274.399	-81.229	0.395	-0.129
-273.384	-200.000	0.057	-0.487
-272.370	161.442	-0.147	0.203
-271.355	475.541	0.024	0.054
-270.340	-200.000	0.006	0.217
-269.326	-200.000	0.085	0.538
-268.311	20.494	0.144	-0.116
-267.297	-200.000	-0.072	-0.453
-266.282	-150.520	0.083	-0.006
-265.267	11.509	0.089	-0.068
-264.253	130.750	-0.075	0.096
-263.238	-200.000	0.038	-0.178
-262.224	-17.741	-0.172	0.107
-261.209	-75.528	-0.163	0.057
-260.195	-200.000	0.043	0.259
-259.180	-55.309	-0.299	-0.133
-258.165	152.714	-0.016	0.022
-257.151	40.160	-0.050	0.044
-256.136	411.516	0.018	0.038
-255.122	38.431	-0.305	0.269
-254.107	218.870	0.139	-0.219
-253.092	569.941	0.060	0.145
-252.078	-200.000	-0.058	-0.428
-251.063	-114.393	-0.182	-0.035
-250.049	143.145	-0.251	-0.331
-249.034	-200.000	-0.002	-0.142
-248.019	40.928	-0.089	-0.080
-247.005	-116.861	0.069	-0.012
-245.990	201.050	0.228	-0.347
-244.976	520.305	-0.098	-0.228
-243.961	391.778	-0.180	-0.369
-242.946	15.107	-0.247	0.191
-241.932	800.000	0.012	-0.048
-240.917	43.238	-0.220	-0.199
-239.903	542.120	0.068	-0.161
-238.888	-131.840	-0.358	-0.046
-237.873	-135.646	0.127	-0.015
-236.859	-57.339	-0.184	-0.080
-235.844	-152.006	0.359	-0.026
-234.830	14.777	0.079	0.061
-233.815	7.965	-0.160	0.119
-232.800	343.401	0.087	0.168
-231.786	-28.565	-0.135	-0.077
-230.771	-116.086	-0.338	-0.062
-229.757	-20.135	0.350	0.214
-228.742	110.490	-0.158	-0.188
-227.727	-126.182	0.184	0.027
-226.713	-98.279	0.405	-0.103
-225.698	223.632	-0.071	0.113
-224.684	-126.425	0.130	-0.019
-223.669	-59.810	-0.334	0.141
-222.655	247.929	0.126	0.211
-221.640	-85.392	-0.301	-0.093
-220.625	800.000	0.145	0.421
-219.611	-175.244	0.265	0.007
-218.596	-17.310	0.251	0.156
-217.582	18.750	-0.356	0.282
-216.567	221.856	0.230	-0.366
-215.552	92.020	0.173	-0.192
-214.538	67.183	-0.087	-0.088
-213.523	147.860	0.134	-0.178
-212.509	-80.205	-0.478	0.158
-211.494	-200.000	-0.025	-0.121
-210.479	191.176	0.073	0.109
-209.465	-44.852	0.146	0.072
-208.450	-37.779	0.300	-0.158
-207.436	-129.932	0.122	0.017
-206.421	159.770	0.225	-0.309
-205.406	309.070	-0.121	-0.224
-204.392	-200.000	-0.004	0.107
-203.377	-71.934	0.442	0.162
-202.363	154.105	-0.099	0.134
-201.348	120.633	-0.179	0.220
-200.333	-164.521	0.443	-0.020
-199.319	-185.028	0.294	0.005
-198.304	32.843	-0.141	0.120
-197.290	434.764	0.066	0.142
-196.275	-200.000	-0.008	0.127
-195.260	-20.472	-0.143	-0.087
-194.246	81.846	0.094	-0.101
-193.231	2.917	0.194	0.139
-192.217	-200.000	-0.016	-0.139
-191.202	350.524	0.083	0.162
-190.187	73.905	0.187	0.194
-189.173	-99.929	0.176	0.043
-188.158	64.003	0.165	-0.164
-187.144	110.014	-0.156	-0.184
-186.129	800.000	-0.089	0.268
-185.114	342.507	-0.059	-0.114
-184.100	188.739	-0.172	0.254
-183.085	141.806	-0.233	-0.305
-182.071	544.845	0.005	-0.012
-181.056	272.371	0.167	0.290
-180.042	31.674	-0.083	0.071
-179.027	10.232	-0.189	0.141
-178.012	-200.000	0.035	-0.247
-176.998	-87.899	0.039	0.012
-175.983	-200.000	0.073	0.407
-174.969	-154.127	-0.374	0.025
-173.954	-200.000	0.035	-0.254
-172.939	634.940	-0.101	-0.254
-171.925	-200.000	0.008	0.058
-170.910	-200.000	0.053	-0.277
-169.896	-40.761	-0.068	0.035
-168.881	-74.095	0.136	0.049
-167.866	-200.000	0.004	0.052
-166.852	-132.033	-0.237	0.030
-165.837	32.392	0.034	-0.029
-164.823	-85.806	0.208	-0.064
-163.808	66.000	-0.153	-0.153
-162.793	-198.993	0.284	-0.002
-161.779	-125.307	-0.304	0.046
-160.764	228.024	0.082	-0.131
-159.750	-49.349	0.156	-0.073
-158.735	78.986	-0.144	0.152
-157.720	-78.452	0.392	-0.132
-156.706	-27.755	0.099	-0.057
-155.691	35.420	0.287	-0.248
-154.677	-152.692	0.226	0.016
-153.662	26.299	0.027	-0.022
-152.647	-171.237	-0.238	-0.008
-151.633	325.732	0.125	-0.236
-150.618	800.000	-0.058	-0.227
-149.604	-35.282	0.176	-0.094
-148.589	216.836	0.088	-0.139
-147.574	-200.000	0.008	0.292
-146.560	31.769	-0.061	-0.052
-145.545	198.185	0.114	-0.172
-144.531	-200.000	-0.001	-0.048
-143.516	800.000	0.033	0.127
-142.502	-200.000	0.003	0.280
-141.487	-72.682	0.214	0.078
-140.472	604.259	0.143	-0.350
-139.458	575.881	-0.069	-0.167
-138.443	-85.064	-0.045	0.014
-137.429	453.313	-0.065	0.143
-136.414	90.912	-0.163	-0.180
-135.399	269.006	0.019	-0.033
-134.385	800.000	-0.088	-0.360
-133.370	450.147	0.106	-0.230
-132.356	-40.735	-0.309	-0.158
-131.341	194.633	0.277	-0.413
-130.326	20.817	-0.064	-0.051
-129.312	-81.904	-0.263	0.085
-128.297	469.683	0.071	0.158
-127.283	-132.666	-0.101	0.013
-126.268	9.599	-0.125	0.093
-125.253	-200.000	-0.018	0.191
-124.239	-71.571	0.261	-0.096
-123.224	127.271	0.105	0.131
-122.210	-200.000	0.057	0.461
-121.195	192.853	0.097	-0.144
