DTS Sentinel unit serial number:	SN413079Multiplexer serial number:	ORYXHardware model number:	OX4-SRSoftware version number:	ORYX F/W v4.00 Oryx Data Collector v3.7.2.0data status	okinstallation	princeton_trtdifferential loss correction	single-endedforward channel	channel 3reverse channel	N/Adate	2019/09/17time	16:12:34forward acquisition time	60.00reverse acquisition time	0.00gamma	496.2192k internal	0.2291k external	0.2291temperature offset calibration	0.9951default loss term (dB/km)	0.3790temperature slope calibration	1.0000multiplexer offset coefficient	1.0000multiplexer slope coefficient	1.0000fibre end	0.00T internal ref (°C)	40.66T ext. ref 1 (°C)	0.37T ext. ref 2 (°C)	38.53length (m)	temperature (°C)	Stokes	anti-Stokes-747.200	-200.000	-0.063	0.413
-746.185	715.652	0.075	0.203
-745.171	-145.181	-0.220	0.020
-744.156	-5.666	0.227	0.159
-743.142	159.114	-0.181	-0.257
-742.127	91.163	0.246	0.282
-741.112	-200.000	-0.040	-0.302
-740.098	-89.344	0.160	0.048
-739.083	800.000	0.052	-0.148
-738.069	-116.034	-0.140	-0.027
-737.054	178.515	-0.165	0.247
-736.039	-1.075	-0.322	-0.233
-735.025	-65.604	0.089	0.037
-734.010	517.134	-0.100	-0.238
-732.996	128.117	0.187	-0.243
-731.981	800.000	0.007	0.029
-730.966	-200.000	-0.024	-0.153
-729.952	99.950	-0.133	0.157
-728.937	-200.000	0.012	0.131
-727.923	151.364	-0.212	-0.295
-726.908	-159.524	-0.119	0.007
-725.894	-65.417	-0.344	0.141
-724.879	-104.450	-0.207	0.049
-723.864	358.736	0.167	-0.342
-722.850	800.000	0.039	0.123
-721.835	-133.566	-0.316	0.040
-720.821	-152.713	0.119	0.009
-719.806	-109.610	-0.538	-0.116
-718.791	497.217	-0.059	-0.140
-717.777	-94.820	-0.293	-0.081
-716.762	800.000	0.113	0.340
-715.748	564.056	-0.052	0.129
-714.733	166.258	0.089	-0.128
-713.718	-31.467	-0.401	0.230
-712.704	163.658	0.049	-0.071
-711.689	101.152	-0.314	0.374
-710.675	226.418	0.139	0.230
-709.660	-106.379	-0.241	0.055
-708.645	-29.128	-0.244	-0.143
-707.631	-98.139	0.319	-0.084
-706.616	210.895	-0.098	-0.157
-705.602	-81.646	-0.254	-0.085
-704.587	-113.040	-0.279	0.056
-703.572	-200.000	0.020	0.094
-702.558	525.115	-0.069	-0.165
-701.543	-105.358	-0.052	0.012
-700.529	-200.000	0.007	0.182
-699.514	229.915	-0.097	-0.161
-698.499	-200.000	-0.021	-0.289
-697.485	90.286	0.214	-0.245
-696.470	636.307	-0.091	0.237
-695.456	-200.000	0.005	0.180
-694.441	-54.445	0.330	-0.153
-693.426	290.447	-0.025	0.047
-692.412	234.479	-0.141	0.237
-691.397	-119.764	-0.210	0.037
-690.383	-1.701	0.118	-0.085
-689.368	-103.182	0.284	0.069
-688.354	99.954	0.062	-0.074
-687.339	73.343	0.239	0.255
-686.324	-122.149	0.111	-0.019
-685.310	-200.000	-0.001	-0.090
-684.295	-200.000	-0.014	-0.241
-683.281	28.698	-0.220	0.190
-682.266	-120.891	-0.097	0.017
-681.251	113.260	-0.026	0.032
-680.237	32.153	-0.171	-0.151
-679.222	800.000	0.030	-0.131
-678.208	-80.856	0.081	-0.027
-677.193	800.000	-0.106	0.329
-676.178	25.048	-0.119	-0.101
-675.164	219.879	0.023	0.037
-674.149	-43.947	-0.201	0.103
-673.135	153.722	0.048	-0.067
-672.120	-200.000	0.062	-0.398
-671.105	128.392	0.055	-0.071
-670.091	661.319	-0.067	0.175
-669.076	-10.543	-0.127	-0.086
-668.062	-200.000	0.036	0.167
-667.047	-130.927	-0.264	-0.036
-666.032	-200.000	-0.004	-0.143
-665.018	-200.000	-0.008	-0.310
-664.003	145.150	0.217	0.296
-662.989	-103.942	-0.208	0.050
-661.974	-200.000	0.012	0.062
-660.959	-140.245	0.099	0.011
-659.945	-200.000	-0.100	0.457
-658.930	209.204	0.197	0.315
-657.916	333.135	0.095	-0.188
-656.901	-78.327	-0.067	-0.024
-655.886	238.478	0.053	0.090
-654.872	-83.469	0.049	-0.016
-653.857	-38.197	-0.226	0.122
-652.843	6.837	-0.158	-0.120
-651.828	134.226	0.174	-0.230
-650.814	-116.917	-0.233	0.043
-649.799	103.848	0.149	0.179
-648.784	800.000	-0.036	-0.115
-647.770	-59.963	-0.115	0.050
-646.755	-6.246	-0.107	-0.074
-645.741	60.744	-0.074	-0.075
-644.726	-3.637	-0.178	0.126
-643.711	2.367	-0.287	-0.212
-642.697	101.141	-0.147	-0.174
-641.682	-200.000	-0.074	0.514
-640.668	800.000	0.017	0.057
-639.653	-6.965	0.234	-0.162
-638.638	-3.843	-0.114	0.081
-637.624	226.108	0.059	0.098
-636.609	-10.179	-0.191	0.129
-635.595	187.620	0.162	-0.247
-634.580	-31.952	-0.185	-0.106
-633.565	-39.613	-0.161	-0.086
-632.551	-200.000	-0.023	0.121
-631.536	-18.759	0.231	-0.147
-630.522	800.000	0.131	0.500
-629.507	572.521	0.067	-0.167
-628.492	-44.389	-0.312	0.159
-627.478	-12.725	-0.291	0.193
-626.463	-200.000	0.056	-0.308
-625.449	-122.923	-0.392	-0.064
-624.434	800.000	0.018	0.076
-623.419	-36.364	-0.231	-0.127
-622.405	184.095	0.173	-0.261
-621.390	408.372	-0.156	-0.336
-620.376	-95.117	-0.129	-0.035
-619.361	-200.000	0.010	0.132
-618.346	-168.606	-0.359	-0.014
-617.332	-147.076	-0.253	0.022
-616.317	-200.000	0.013	-0.306
-615.303	-78.287	0.256	-0.090
-614.288	-189.417	-0.198	-0.002
-613.273	-46.600	0.261	-0.131
-612.259	-200.000	-0.080	0.387
-611.244	-69.492	0.080	0.031
-610.230	-116.131	0.115	0.022
-609.215	26.161	-0.037	0.031
-608.201	800.000	-0.074	0.240
-607.186	800.000	-0.091	-0.285
-606.171	74.721	-0.220	0.236
-605.157	-170.059	0.174	0.006
-604.142	800.000	-0.073	0.243
-603.128	-158.932	-0.078	-0.005
-602.113	-200.000	-0.012	-0.128
-601.098	222.954	-0.157	-0.257
-600.084	-118.783	0.152	-0.027
-599.069	38.131	0.239	0.216
-598.055	-87.041	-0.421	0.131
-597.040	800.000	-0.120	-0.372
-596.025	-168.492	-0.476	-0.019
-595.011	-200.000	0.007	0.102
-593.996	2.776	0.019	-0.014
-592.982	77.307	0.213	-0.230
-591.967	-135.182	0.318	-0.039
-590.952	-200.000	-0.057	-0.281
-589.938	415.091	0.126	-0.272
-588.923	-2.619	-0.316	-0.225
-587.909	-29.473	0.159	0.092
-586.894	162.587	0.079	-0.113
-585.879	42.090	0.218	-0.202
-584.865	91.200	0.186	-0.213
-583.850	41.478	0.252	-0.232
-582.836	-90.520	0.104	0.030
-581.821	-106.732	0.341	0.077
-580.806	-200.000	-0.005	0.046
-579.792	27.254	-0.262	0.223
-578.777	-16.538	-0.087	0.056
-577.763	42.429	-0.096	0.089
-576.748	-151.457	0.386	-0.029
-575.733	447.498	0.058	0.131
-574.719	-89.922	0.062	0.018
-573.704	46.184	0.098	-0.092
-572.690	-200.000	0.001	-0.153
-571.675	-2.454	0.312	-0.222
-570.661	800.000	-0.079	0.253
-569.646	-2.760	-0.284	-0.202
-568.631	61.757	0.148	0.150
-567.617	166.966	0.221	-0.319
-566.602	154.836	0.135	-0.188
-565.588	327.628	0.111	0.217
-564.573	16.599	0.243	0.195
-563.558	-41.296	-0.304	0.159
-562.544	197.950	-0.055	0.085
-561.529	20.817	-0.128	-0.105
-560.515	38.902	-0.101	-0.092
-559.500	-200.000	-0.016	0.137
-558.485	38.927	-0.333	-0.303
-557.471	97.578	0.109	-0.128
-556.456	-94.555	-0.201	0.056
-555.442	800.000	0.015	-0.043
-554.427	98.493	-0.279	-0.327
-553.412	238.040	-0.097	-0.164
-552.398	-200.000	-0.050	0.258
-551.383	7.298	-0.218	0.165
-550.369	15.704	-0.260	-0.208
-549.354	751.449	0.102	0.281
-548.339	-48.569	0.370	0.181
-547.325	-5.671	-0.235	-0.164
-546.310	-140.772	-0.356	0.037
-545.296	10.475	0.110	0.085
-544.281	-146.730	-0.138	0.012
-543.266	-150.506	-0.288	0.022
-542.252	634.934	0.040	-0.102
-541.237	-26.081	0.076	-0.045
-540.223	-60.391	-0.134	0.058
-539.208	-119.022	0.265	0.047
-538.193	-200.000	-0.001	-0.380
-537.179	196.390	0.063	0.098
-536.164	40.762	-0.203	-0.186
-535.150	-200.000	-0.021	0.233
-534.135	-138.561	-0.031	-0.003
-533.121	-146.457	0.053	-0.005
-532.106	-128.936	-0.205	-0.029
-531.091	14.500	-0.151	0.120
-530.077	-102.076	-0.162	0.040
-529.062	264.871	-0.097	-0.171
-528.048	10.418	-0.239	-0.185
-527.033	-0.186	0.255	-0.184
-526.018	-26.572	0.192	-0.114
-525.004	20.717	-0.083	0.068
-523.989	654.603	-0.137	0.356
-522.975	-198.312	-0.154	0.001
-521.960	-25.346	-0.191	0.115
-520.945	800.000	0.076	-0.235
-519.931	-39.687	0.343	-0.182
-518.916	8.800	-0.194	0.149
-517.902	-174.334	0.133	-0.004
-516.887	176.039	0.035	-0.052
-515.872	-11.202	0.107	0.072
-514.858	22.140	0.133	-0.110
-513.843	-180.745	0.148	0.003
-512.829	-1.881	0.347	0.248
-511.814	-97.988	-0.098	-0.026
-510.799	4.924	0.081	0.060
-509.785	342.170	0.056	-0.111
-508.770	60.014	0.426	-0.427
-507.756	324.597	-0.206	-0.399
-506.741	-200.000	0.002	-0.041
-505.726	17.172	0.029	-0.024
-504.712	290.835	-0.125	-0.230
-503.697	-75.628	0.418	0.151
-502.683	-200.000	0.008	-0.106
-501.668	105.147	-0.167	-0.200
-500.653	-200.000	-0.016	-0.144
-499.639	-120.908	-0.126	-0.022
-498.624	9.619	-0.248	0.191
-497.610	92.837	0.078	0.090
-496.595	-117.466	0.294	-0.054
-495.581	-200.000	0.007	-0.055
-494.566	-57.161	0.098	-0.044
-493.551	35.844	-0.132	-0.118
-492.537	800.000	-0.092	-0.272
-491.522	276.301	-0.011	-0.021
-490.508	-200.000	0.011	0.204
-489.493	-86.305	0.245	-0.077
-488.478	60.329	0.197	0.198
-487.464	-96.668	-0.289	-0.077
-486.449	-109.734	-0.123	-0.026
-485.435	-130.947	-0.328	0.044
-484.420	206.294	0.126	0.199
-483.405	-200.000	-0.009	0.097
-482.391	-20.170	0.194	0.121
-481.376	-200.000	-0.004	0.208
-480.362	-153.806	0.158	-0.011
-479.347	-47.232	-0.248	-0.122
-478.332	-12.465	-0.278	-0.184
-477.318	-91.094	-0.231	0.067
-476.303	-126.153	0.109	-0.017
-475.289	328.977	0.145	0.282
-474.274	147.687	0.082	-0.112
-473.259	-200.000	-0.046	-0.218
-472.245	-68.984	-0.186	0.073
-471.230	-200.000	0.059	-0.282
-470.216	105.487	0.052	0.062
-469.201	381.895	-0.084	0.176
-468.186	-200.000	0.022	-0.235
-467.172	111.600	0.151	0.184
-466.157	63.792	-0.017	-0.018
-465.143	-18.296	-0.124	0.078
-464.128	-101.857	-0.016	-0.004
-463.113	89.657	0.295	-0.333
-462.099	800.000	-0.052	-0.188
-461.084	-90.835	0.218	0.064
-460.070	-84.438	0.471	0.151
-459.055	-121.063	-0.287	0.049
-458.040	16.279	-0.281	0.224
-457.026	24.488	0.286	0.239
-456.011	-144.226	-0.245	-0.023
-454.997	-200.000	-0.014	-0.262
-453.982	459.306	0.053	0.120
-452.968	287.066	0.105	-0.192
-451.953	800.000	0.058	0.164
-450.938	-146.234	-0.077	-0.007
-449.924	-98.506	-0.121	0.031
-448.909	-87.584	-0.189	0.058
-447.895	24.057	0.107	-0.090
-446.880	-74.492	0.429	-0.157
-445.865	-40.551	-0.190	0.100
-444.851	800.000	0.036	-0.112
-443.836	177.277	0.043	0.063
-442.822	-68.004	0.313	0.124
-441.807	800.000	0.045	0.187
-440.792	153.628	0.152	-0.210
-439.778	540.024	-0.086	0.208
-438.763	-94.672	0.235	0.065
-437.749	299.157	0.186	-0.346
-436.734	-79.620	0.085	0.029
-435.719	-200.000	0.015	-0.159
-434.705	643.517	0.084	-0.217
-433.690	776.883	0.057	-0.158
-432.676	-128.798	0.124	-0.018
-431.661	10.988	0.419	-0.324
-430.646	-161.559	0.095	-0.005
-429.632	-127.217	-0.221	0.033
-428.617	162.830	0.057	0.081
-427.603	433.657	0.065	0.143
-426.588	-38.133	0.249	0.133
-425.573	-200.000	0.032	-0.165
-424.559	185.748	0.100	-0.151
-423.544	800.000	0.041	-0.115
-422.530	657.847	-0.032	-0.082
-421.515	27.480	-0.096	0.081
-420.500	335.092	-0.048	0.093
-419.486	470.056	-0.176	0.401
-418.471	300.130	0.100	0.186
-417.457	136.114	0.110	0.145
-416.442	800.000	-0.083	-0.291
-415.428	-134.224	0.151	0.019
-414.413	184.608	0.125	-0.188
-413.398	217.782	-0.135	0.217
-412.384	-151.537	0.258	-0.019
-411.369	800.000	0.019	-0.082
-410.355	50.251	0.106	0.101
-409.340	-105.387	-0.165	0.038
-408.325	-55.440	0.153	-0.069
-407.311	3.339	-0.189	0.139
-406.296	696.521	-0.074	0.196
-405.282	23.884	-0.243	0.202
-404.267	0.578	0.223	0.161
-403.252	-126.643	0.231	-0.035
-402.238	205.031	0.046	0.071
-401.223	-200.000	-0.092	-0.000
-400.209	87.117	0.056	-0.063
-399.194	-38.592	-0.173	0.092
-398.179	41.253	-0.117	0.106
-397.165	-200.000	0.021	0.210
-396.150	42.309	0.198	0.182
-395.136	-13.757	-0.027	0.018
-394.121	-59.502	0.174	-0.075
-393.106	-152.793	0.192	-0.014
-392.092	-31.213	-0.183	-0.104
-391.077	-52.628	0.317	-0.148
-390.063	217.941	-0.064	-0.103
-389.048	-64.112	-0.286	-0.118
-388.033	190.112	0.035	-0.053
-387.019	475.502	-0.037	-0.085
-386.004	-200.000	-0.047	0.209
-384.990	800.000	0.069	-0.227
-383.975	209.412	-0.080	-0.126
-382.960	-109.001	0.022	0.005
-381.946	748.104	0.085	0.231
-380.931	-98.851	-0.183	0.047
-379.917	-10.052	0.132	-0.088
-378.902	-41.406	-0.077	0.040
-377.888	7.116	-0.169	-0.127
-376.873	-200.000	0.037	-0.349
-375.858	204.744	0.142	-0.222
-374.844	800.000	0.124	-0.475
-373.829	111.319	0.323	0.392
-372.815	-134.530	0.025	0.003
-371.800	701.740	0.129	-0.343
-370.785	-30.901	-0.333	0.190
-369.771	104.824	-0.169	0.201
-368.756	-77.256	-0.276	-0.097
-367.742	-110.198	-0.086	0.018
-366.727	-124.282	0.096	-0.015
-365.712	-80.186	-0.156	0.053
-364.698	319.948	0.120	-0.231
-363.683	-122.380	-0.125	0.021
-362.669	-200.000	0.002	-0.186
-361.654	-200.000	0.001	-0.049
-360.639	49.215	0.160	0.152
-359.625	-94.842	-0.133	0.036
-358.610	-70.158	-0.118	-0.045
-357.596	1.823	0.161	-0.117
-356.581	-124.431	-0.254	0.040
-355.566	-200.000	-0.020	-0.121
-354.552	-200.000	0.008	-0.153
-353.537	-200.000	-0.019	-0.207
-352.523	142.513	0.107	-0.143
-351.508	-57.815	-0.208	0.092
-350.493	-1.322	-0.171	-0.122
-349.479	94.538	0.173	-0.199
-348.464	800.000	-0.053	-0.225
-347.450	-200.000	0.025	-0.116
-346.435	259.218	-0.136	0.237
-345.420	93.137	0.085	-0.097
-344.406	26.067	0.188	0.158
-343.391	-143.174	-0.125	0.012
-342.377	-99.244	0.091	0.023
-341.362	91.070	0.144	0.162
-340.348	-199.416	-0.284	0.001
-339.333	41.541	0.120	-0.109
-338.318	-68.255	0.139	0.054
-337.304	-126.023	-0.201	0.030
-336.289	174.846	0.108	-0.158
-335.275	301.408	-0.140	0.261
-334.260	-200.000	-0.015	0.320
-333.245	48.435	0.316	0.298
-332.231	24.977	0.148	-0.124
-331.216	800.000	-0.035	0.152
-330.202	310.599	0.109	0.205
-329.187	288.099	0.037	-0.067
-328.172	-200.000	0.028	-0.313
-327.158	-200.000	0.014	-0.194
-326.143	-2.454	0.160	-0.113
-325.129	281.029	-0.098	-0.176
-324.114	-156.849	0.278	-0.017
-323.099	79.817	0.101	0.109
-322.085	693.656	0.046	0.123
-321.070	-19.381	-0.165	0.103
-320.056	-56.567	-0.157	-0.070
-319.041	-200.000	-0.008	0.121
-318.026	-200.000	-0.007	0.120
-317.012	-159.778	0.141	0.008
-315.997	-144.925	0.093	-0.009
-314.983	-134.314	0.032	0.004
-313.968	-127.403	0.035	-0.005
-312.953	-3.267	0.121	0.085
-311.939	-2.843	0.174	-0.122
-310.924	-55.865	0.332	-0.149
-309.910	261.790	0.062	-0.109
-308.895	190.312	-0.146	-0.221
-307.880	-200.000	0.034	0.337
-306.866	-16.858	-0.054	-0.035
-305.851	-200.000	-0.062	-0.481
-304.837	205.173	0.041	0.064
-303.822	-45.389	0.244	0.122
-302.807	-107.397	0.122	-0.027
-301.793	177.683	0.117	-0.172
-300.778	446.955	0.006	0.013
-299.764	-72.126	-0.053	-0.020
-298.749	-129.512	0.163	-0.023
-297.735	69.690	-0.274	-0.285
-296.720	22.714	0.045	-0.037
-295.705	-85.929	0.333	-0.104
-294.691	477.916	-0.104	0.237
-293.676	-50.200	-0.289	0.138
-292.662	198.623	-0.028	-0.044
-291.647	-200.000	0.001	-0.247
-290.632	-122.531	-0.073	-0.012
-289.618	-59.448	0.071	0.031
-288.603	-16.177	-0.178	0.114
-287.589	-30.136	0.145	0.083
-286.574	-107.561	0.271	-0.060
-285.559	84.346	-0.127	0.140
-284.545	561.180	-0.141	-0.343
-283.530	484.155	-0.145	-0.332
-282.516	-25.867	0.078	-0.046
-281.501	614.981	-0.078	-0.196
-280.486	-68.934	-0.181	-0.070
-279.472	-200.000	-0.119	-0.558
-278.457	-33.379	0.362	0.201
-277.443	-200.000	-0.035	0.344
-276.428	138.071	-0.085	0.112
-275.413	232.875	-0.097	0.161
-274.399	40.396	0.095	-0.086
-273.384	-67.331	-0.143	0.056
-272.370	-200.000	0.024	0.493
-271.355	-72.474	0.125	0.046
-270.340	-200.000	-0.060	0.288
-269.326	182.202	0.076	-0.113
-268.311	800.000	-0.055	-0.193
-267.297	602.715	-0.109	0.272
-266.282	225.030	0.135	0.220
-265.267	-174.314	0.280	-0.008
-264.253	-4.575	-0.122	0.084
-263.238	84.516	-0.127	0.140
-262.224	250.336	0.122	0.208
-261.209	357.745	0.055	0.110
-260.195	-109.427	0.047	-0.010
-259.180	-121.677	-0.097	-0.016
-258.165	-6.955	-0.127	-0.087
-257.151	800.000	-0.032	-0.090
-256.136	-200.000	0.015	0.085
-255.122	-200.000	-0.028	0.217
-254.107	239.438	0.104	0.174
-253.092	-30.461	-0.175	0.100
-252.078	-19.903	-0.128	-0.080
-251.063	244.054	-0.061	-0.102
-250.049	-158.873	0.240	0.014
-249.034	74.350	-0.192	0.202
-248.019	-40.648	-0.253	0.132
-247.005	-81.999	-0.241	0.079
-245.990	-200.000	0.034	0.154
-244.976	90.868	0.059	-0.066
-243.961	49.776	0.117	0.111
-242.946	-200.000	0.022	-0.168
-241.932	-7.300	-0.060	-0.041
-240.917	-200.000	-0.008	-0.044
-239.903	41.607	0.219	0.200
-238.888	108.704	0.059	-0.071
-237.873	-200.000	0.016	0.184
-236.859	72.433	0.108	-0.113
-235.844	800.000	-0.056	0.206
-234.830	734.992	0.119	-0.319
-233.815	141.586	-0.062	-0.083
-232.800	-191.198	0.160	0.002
-231.786	289.604	0.078	-0.141
-230.771	253.018	-0.208	0.357
-229.757	800.000	-0.068	0.259
-228.742	47.105	0.226	0.211
-227.727	-54.684	0.128	-0.058
-226.713	147.008	0.046	-0.062
-225.698	0.217	-0.029	0.021
-224.684	338.714	0.123	-0.240
-223.669	32.732	0.088	-0.077
-222.655	38.808	0.134	-0.120
-221.640	555.134	0.119	0.287
-220.625	112.472	-0.176	0.214
-219.611	238.943	-0.089	-0.148
-218.596	-200.000	0.015	-0.140
-217.582	-69.886	-0.156	-0.060
-216.567	-200.000	0.005	-0.161
-215.552	-200.000	-0.044	0.294
-214.538	465.954	0.160	0.359
-213.523	-102.945	0.095	-0.023
-212.509	-159.861	0.332	0.018
-211.494	-96.930	0.115	0.030
-210.479	228.618	0.087	-0.142
-209.465	62.769	-0.027	-0.027
-208.450	-28.800	0.111	-0.064
-207.436	-200.000	-0.060	0.400
-206.421	-85.232	0.143	0.045
-205.406	-57.393	-0.234	0.103
-204.392	271.414	-0.177	0.313
-203.377	-200.000	0.047	-0.238
-202.363	125.753	-0.257	0.325
-201.348	40.492	0.176	-0.159
-200.333	313.132	0.068	0.128
-199.319	377.399	0.128	0.262
-198.304	117.211	-0.142	0.174
-197.290	296.122	-0.167	-0.307
-196.275	108.396	-0.152	0.181
-195.260	-94.175	-0.212	-0.058
-194.246	-68.248	0.254	-0.099
-193.231	-19.243	-0.188	-0.117
-192.217	-16.591	0.344	0.218
-191.202	52.369	-0.088	0.084
-190.187	17.315	-0.049	0.039
-189.173	-140.541	-0.394	-0.041
-188.158	-62.248	-0.107	-0.045
-187.144	50.003	0.088	0.083
-186.129	800.000	0.056	0.174
-185.114	5.778	-0.227	-0.169
-184.100	48.482	-0.040	0.038
-183.085	127.024	0.035	0.044
-182.071	22.216	-0.234	0.192
-181.056	-132.471	-0.357	0.046
-180.042	37.020	0.061	0.054
-179.027	-83.056	0.043	0.014
-178.012	-200.000	-0.022	-0.154
-176.998	191.920	0.162	0.245
-175.983	49.610	0.221	0.209
-174.969	-69.167	-0.148	-0.057
-173.954	-70.635	0.228	-0.086
-172.939	18.041	0.183	-0.146
-171.925	219.626	-0.068	0.110
-170.910	-5.955	-0.327	0.224
-169.896	-117.981	-0.258	-0.046
-168.881	-200.000	-0.017	0.259
-167.866	612.272	0.077	0.192
-166.852	-129.414	-0.293	0.041
-165.837	800.000	0.042	-0.159
-164.823	-171.221	-0.142	-0.005
-163.808	799.052	-0.078	-0.216
-162.793	-175.337	0.132	-0.004
-161.779	33.160	-0.263	-0.229
-160.764	-200.000	0.076	0.412
-159.750	231.082	0.088	0.144
-158.735	-55.349	0.104	0.047
-157.720	-200.000	-0.006	0.056
-156.706	800.000	-0.094	0.268
-155.691	-149.657	0.169	-0.013
-154.677	102.134	-0.103	-0.120
-153.662	-75.827	0.177	0.063
-152.647	373.244	-0.246	0.500
-151.633	-10.571	0.030	-0.020
-150.618	457.011	-0.117	0.260
-149.604	-200.000	0.057	0.321
-148.589	-13.291	-0.122	0.079
-147.574	-96.581	-0.298	-0.079
-146.560	-100.934	0.390	0.096
-145.545	440.141	0.077	0.167
-144.531	-95.829	0.284	-0.076
-143.516	104.147	-0.142	0.168
-142.502	404.113	-0.098	0.206
-141.487	-26.622	-0.077	-0.045
-140.472	-200.000	-0.079	0.000
-139.458	-67.307	0.104	-0.041
-138.443	-112.672	-0.269	0.053
-137.429	-150.412	-0.101	0.008
-136.414	-90.779	0.381	-0.110
-135.399	-200.000	0.005	-0.285
-134.385	-200.000	-0.008	-0.074
-133.370	-145.026	-0.394	0.036
-132.356	-200.000	-0.045	0.313
-131.341	800.000	0.185	-0.579
-130.326	-200.000	-0.016	-0.086
-129.312	-89.210	0.200	0.059
-128.297	-102.723	0.287	0.068
-127.283	193.899	0.142	0.215
-126.268	-21.626	0.265	-0.161
-125.253	721.038	-0.098	-0.261
-124.239	-15.691	0.093	0.059
-123.224	-107.572	-0.189	0.041
-122.210	-200.000	0.039	0.193
-121.195	-200.000	-0.036	0.239
