DTS Sentinel unit serial number:	SN413079Multiplexer serial number:	ORYXHardware model number:	OX4-SRSoftware version number:	ORYX F/W v4.00 Oryx Data Collector v3.7.2.0data status	okinstallation	princeton_trtdifferential loss correction	single-endedforward channel	channel 3reverse channel	N/Adate	2019/09/19time	10:08:35forward acquisition time	60.00reverse acquisition time	0.00gamma	496.2192k internal	0.2343k external	0.2343temperature offset calibration	0.9978default loss term (dB/km)	0.3790temperature slope calibration	1.0000multiplexer offset coefficient	1.0000multiplexer slope coefficient	1.0000fibre end	0.00T internal ref (°C)	23.94T ext. ref 1 (°C)	0.69T ext. ref 2 (°C)	19.65length (m)	temperature (°C)	Stokes	anti-Stokes-747.200	475.599	-0.152	0.343
-746.185	316.114	0.122	0.231
-745.171	-200.000	0.007	0.441
-744.156	-196.258	-0.196	-0.001
-743.142	-200.000	-0.020	0.341
-742.127	-155.582	-0.057	0.004
-741.112	800.000	0.108	-0.325
-740.098	169.202	-0.101	0.144
-739.083	618.144	-0.138	0.346
-738.069	-128.850	-0.352	0.050
-737.054	62.156	0.109	0.109
-736.039	-84.105	-0.442	-0.141
-735.025	-200.000	-0.026	-0.120
-734.010	13.201	-0.441	-0.342
-732.996	-162.221	-0.367	-0.018
-731.981	800.000	-0.063	0.189
-730.966	105.603	-0.306	-0.362
-729.952	743.784	-0.101	-0.273
-728.937	182.836	-0.205	-0.304
-727.923	-5.843	-0.130	0.089
-726.908	84.615	0.154	0.169
-725.894	115.997	0.234	-0.287
-724.879	-200.000	-0.020	0.250
-723.864	-112.054	-0.260	0.052
-722.850	247.806	-0.242	-0.409
-721.835	-73.861	-0.375	0.136
-720.821	304.324	-0.179	-0.333
-719.806	-68.654	0.093	-0.036
-718.791	-200.000	0.014	0.099
-717.777	123.505	-0.137	-0.172
-716.762	-51.537	-0.145	-0.068
-715.748	286.825	-0.088	0.160
-714.733	800.000	-0.047	0.140
-713.718	-200.000	-0.040	-0.375
-712.704	-90.709	0.241	-0.070
-711.689	-47.421	-0.108	0.053
-710.675	-132.845	-0.151	-0.019
-709.660	-109.094	-0.289	-0.062
-708.645	-58.762	-0.226	-0.098
-707.631	625.951	0.139	0.350
-706.616	800.000	0.037	0.115
-705.602	-164.499	-0.212	-0.010
-704.587	-200.000	-0.002	0.008
-703.572	-200.000	-0.001	0.065
-702.558	289.734	-0.144	-0.262
-701.543	185.560	-0.100	-0.149
-700.529	-200.000	-0.017	0.093
-699.514	-200.000	0.332	-0.001
-698.499	324.538	-0.136	-0.259
-697.485	256.188	0.242	-0.415
-696.470	-181.646	0.235	-0.005
-695.456	-38.838	-0.199	0.105
-694.441	353.604	0.195	-0.387
-693.426	-16.401	-0.193	-0.122
-692.412	164.760	-0.148	-0.209
-691.397	-9.396	-0.211	0.141
-690.383	88.837	0.182	0.202
-689.368	-59.436	0.249	-0.107
-688.354	-200.000	0.093	-0.443
-687.339	-89.025	0.200	-0.059
-686.324	-39.361	-0.343	0.180
-685.310	800.000	0.028	0.111
-684.295	-200.000	-0.003	0.417
-683.281	-129.237	0.277	-0.039
-682.266	-200.000	-0.048	-0.229
-681.251	-66.320	0.116	-0.046
-680.237	800.000	-0.010	-0.035
-679.222	164.712	-0.055	-0.077
-678.208	54.493	-0.210	-0.202
-677.193	341.095	-0.085	0.167
-676.178	166.173	-0.137	-0.194
-675.164	-200.000	0.038	-0.337
-674.149	-200.000	0.028	-0.217
-673.135	322.610	0.046	0.087
-672.120	-109.889	-0.238	-0.050
-671.105	-47.890	0.361	0.175
-670.091	-200.000	0.024	0.166
-669.076	800.000	-0.059	0.198
-668.062	-110.228	-0.305	0.063
-667.047	26.122	-0.206	0.172
-666.032	-51.896	0.214	-0.100
-665.018	-35.892	0.376	-0.203
-664.003	-200.000	0.007	-0.165
-662.989	243.241	-0.098	0.163
-661.974	-97.793	-0.350	-0.090
-660.959	-108.660	0.233	-0.050
-659.945	205.553	0.052	-0.080
-658.930	800.000	-0.096	-0.419
-657.916	24.369	0.075	-0.062
-656.901	-58.384	-0.251	-0.109
-655.886	-147.210	0.477	0.041
-654.872	-200.000	0.029	0.199
-653.857	-9.343	0.218	0.145
-652.843	-69.007	-0.248	-0.095
-651.828	-93.921	0.222	0.061
-650.814	126.895	-0.038	-0.048
-649.799	-134.663	-0.149	-0.018
-648.784	-107.933	-0.132	-0.029
-647.770	-144.821	-0.232	0.021
-646.755	-34.224	0.091	-0.050
-645.741	-37.927	0.268	-0.142
-644.726	47.145	0.014	0.013
-643.711	6.255	-0.081	0.060
-642.697	-66.230	0.179	0.071
-641.682	5.449	0.059	-0.044
-640.668	-200.000	0.009	0.059
-639.653	45.842	-0.164	-0.152
-638.638	117.752	-0.212	0.260
-637.624	692.179	0.050	0.132
-636.609	-12.317	-0.338	-0.220
-635.595	-1.699	0.085	0.060
-634.580	800.000	0.118	0.335
-633.565	-123.986	0.297	0.047
-632.551	12.250	0.159	-0.122
-631.536	-200.000	0.021	0.098
-630.522	-20.440	0.271	0.166
-629.507	800.000	0.062	0.173
-628.492	-200.000	-0.048	-0.441
-627.478	387.819	0.136	0.281
-626.463	178.285	-0.060	-0.087
-625.449	-69.046	0.149	-0.057
-624.434	-162.149	0.160	0.008
-623.419	172.245	-0.112	0.160
-622.405	73.002	-0.013	-0.014
-621.390	-200.000	0.003	0.099
-620.376	-18.298	-0.124	0.077
-619.361	15.649	-0.306	-0.240
-618.346	-85.742	-0.231	-0.072
-617.332	-194.059	0.247	-0.002
-616.317	-56.937	-0.277	0.122
-615.303	-200.000	0.006	-0.277
-614.288	125.791	-0.160	0.202
-613.273	-74.575	-0.199	0.071
-612.259	800.000	-0.063	-0.230
-611.244	-200.000	-0.004	-0.319
-610.230	-132.936	0.228	-0.029
-609.215	-1.673	0.160	0.112
-608.201	115.349	0.179	0.218
-607.186	70.400	0.050	0.052
-606.171	-69.992	0.320	0.121
-605.157	-115.847	-0.360	0.067
-604.142	289.675	0.164	0.296
-603.128	-78.739	0.103	0.035
-602.113	114.012	0.180	-0.218
-601.098	332.175	-0.036	-0.069
-600.084	12.572	-0.095	0.073
-599.069	366.159	0.187	0.376
-598.055	-107.648	-0.255	-0.055
-597.040	-20.019	0.272	-0.167
-596.025	-200.000	0.053	-0.398
-595.011	-6.084	-0.095	0.065
-593.996	151.705	-0.186	0.252
-592.982	-113.808	0.326	0.063
-591.967	487.392	0.037	0.083
-590.952	157.490	-0.113	-0.156
-589.938	48.178	0.055	0.051
-588.923	36.148	-0.201	-0.176
-587.909	191.914	-0.130	-0.195
-586.894	-74.104	0.282	0.101
-585.879	-158.141	-0.237	-0.014
-584.865	60.657	0.274	-0.271
-583.850	283.848	0.089	0.160
-582.836	-23.577	0.065	-0.039
-581.821	-200.000	-0.011	-0.055
-580.806	800.000	0.069	-0.202
-579.792	72.530	-0.137	-0.142
-578.777	-135.614	-0.327	0.039
-577.763	-90.023	-0.435	-0.126
-576.748	-75.819	0.192	-0.068
-575.733	-137.532	-0.211	0.024
-574.719	81.763	0.061	-0.065
-573.704	-91.641	-0.068	0.019
-572.690	39.103	-0.111	-0.099
-571.675	-47.290	-0.096	-0.046
-570.661	244.393	-0.091	0.151
-569.646	-200.000	0.056	-0.630
-568.631	800.000	-0.046	-0.131
-567.617	90.774	-0.055	0.061
-566.602	-77.910	0.301	0.103
-565.588	18.257	-0.286	-0.227
-564.573	110.759	0.164	0.196
-563.558	-46.075	0.278	0.136
-562.544	-151.159	-0.329	-0.025
-561.529	800.000	0.103	0.398
-560.515	-200.000	0.008	0.043
-559.500	-200.000	0.036	0.358
-558.485	-125.728	-0.257	0.039
-557.471	800.000	-0.040	0.171
-556.456	161.215	0.163	0.226
-555.442	-99.352	0.280	0.070
-554.427	-74.437	-0.497	0.178
-553.412	328.800	0.026	0.051
-552.398	21.370	-0.137	0.111
-551.383	224.943	-0.068	-0.109
-550.369	-43.378	0.350	0.176
-549.354	2.843	0.335	-0.242
-548.339	-200.000	0.010	-0.076
-547.325	242.771	0.115	0.191
-546.310	800.000	-0.058	0.222
-545.296	-200.000	0.000	0.032
-544.281	-169.283	-0.185	-0.007
-543.266	-109.164	0.026	0.005
-542.252	239.725	0.115	0.190
-541.237	150.236	-0.087	0.117
-540.223	-200.000	0.019	-0.566
-539.208	-91.213	0.249	-0.071
-538.193	800.000	0.007	-0.020
-537.179	800.000	0.116	-0.434
-536.164	-200.000	0.017	-0.100
-535.150	-21.384	0.223	0.135
-534.135	-200.000	0.013	0.283
-533.121	-66.577	0.292	0.115
-532.106	-56.789	-0.130	0.057
-531.091	-200.000	0.003	-0.104
-530.077	-200.000	0.016	-0.430
-529.062	73.146	-0.162	-0.168
-528.048	165.806	-0.095	-0.133
-527.033	124.456	-0.156	0.194
-526.018	208.212	-0.238	-0.369
-525.004	-70.279	-0.189	-0.071
-523.989	-112.302	0.131	0.026
-522.975	-95.858	-0.165	-0.044
-521.960	15.841	0.211	0.165
-520.945	66.303	-0.207	-0.209
-519.931	456.446	0.020	-0.044
-518.916	-200.000	-0.037	0.208
-517.902	-200.000	-0.004	0.119
-516.887	-200.000	0.087	-0.396
-515.872	-27.729	-0.160	-0.092
-514.858	-94.329	0.258	0.070
-513.843	-112.086	-0.209	-0.042
-512.829	-6.088	-0.224	-0.152
-511.814	-126.864	0.043	0.006
-510.799	22.972	0.221	-0.180
-509.785	-125.012	0.113	0.017
-508.770	-123.099	-0.049	-0.008
-507.756	276.390	0.062	-0.110
-506.741	-118.014	0.098	0.017
-505.726	-35.092	-0.129	-0.070
-504.712	-153.513	0.207	0.014
-503.697	-128.171	-0.200	-0.028
-502.683	800.000	0.044	-0.122
-501.668	-200.000	0.028	-0.154
-500.653	348.540	0.055	0.107
-499.639	-200.000	-0.004	-0.146
-498.624	139.673	0.100	-0.130
-497.610	403.820	-0.140	-0.293
-496.595	-200.000	0.006	-0.096
-495.581	800.000	0.066	0.191
-494.566	800.000	0.063	-0.210
-493.551	363.113	-0.050	-0.100
-492.537	-139.541	0.165	0.017
-491.522	-109.150	-0.276	-0.058
-490.508	354.011	0.044	0.087
-489.493	-140.384	0.213	-0.022
-488.478	485.243	-0.085	0.192
-487.464	-104.564	0.425	0.097
-486.449	-4.093	0.026	0.018
-485.435	185.607	-0.281	-0.414
-484.420	-88.863	-0.462	-0.136
-483.405	336.596	-0.274	0.528
-482.391	-200.000	-0.025	0.428
-481.376	-163.650	-0.107	-0.005
-480.362	-103.834	0.365	0.085
-479.347	83.838	0.019	-0.020
-478.332	-94.730	-0.103	-0.028
-477.318	-169.653	0.546	0.020
-476.303	-120.917	-0.438	0.073
-475.289	-73.421	-0.190	-0.069
-474.274	-111.328	0.200	-0.041
-473.259	-152.252	0.108	0.008
-472.245	800.000	-0.064	-0.182
-471.230	360.257	-0.095	-0.188
-470.216	75.725	-0.059	-0.062
-469.201	320.157	-0.022	-0.041
-468.186	79.760	0.258	0.275
-467.172	800.000	0.084	0.246
-466.157	209.594	-0.177	0.275
-465.143	-200.000	0.039	0.291
-464.128	-78.578	0.191	-0.065
-463.113	-79.487	0.271	0.091
-462.099	50.471	0.125	-0.117
-461.084	-66.062	0.155	-0.061
-460.070	155.647	-0.099	0.135
-459.055	92.781	-0.422	-0.472
-458.040	-23.610	-0.347	0.206
-457.026	-81.037	0.101	0.033
-456.011	-68.045	-0.074	0.029
-454.997	-200.000	-0.018	0.175
-453.982	127.886	-0.034	-0.042
-452.968	131.824	-0.062	-0.079
-451.953	800.000	-0.077	0.220
-450.938	-119.340	-0.144	-0.025
-449.924	73.739	0.169	-0.175
-448.909	-200.000	0.004	0.064
-447.895	-200.000	-0.094	0.000
-446.880	-200.000	0.076	-0.376
-445.865	21.332	-0.402	0.323
-444.851	-200.000	-0.093	-0.432
-443.836	-109.611	-0.207	-0.043
-442.822	-20.874	0.125	0.076
-441.807	279.044	-0.084	-0.148
-440.792	14.985	0.147	-0.114
-439.778	-19.027	-0.174	-0.107
-438.763	-200.000	0.002	0.158
-437.749	-158.532	-0.431	-0.025
-436.734	-159.254	-0.242	-0.013
-435.719	-94.424	-0.287	-0.077
-434.705	-200.000	0.031	0.164
-433.690	-22.600	-0.112	-0.067
-432.676	274.231	-0.077	-0.135
-431.661	-200.000	-0.003	0.195
-430.646	110.988	-0.105	-0.125
-429.632	-200.000	-0.143	0.649
-428.617	61.558	-0.264	0.260
-427.603	-127.552	0.297	0.043
-426.588	-130.926	0.158	-0.021
-425.573	-52.208	-0.098	0.045
-424.559	-200.000	0.016	0.177
-423.544	135.572	-0.115	-0.147
-422.530	-122.047	-0.161	0.026
-421.515	-62.715	0.446	-0.183
-420.500	800.000	-0.042	0.143
-419.486	46.397	0.408	0.374
-418.471	91.091	-0.150	0.166
-417.457	-200.000	0.028	0.182
-416.442	-200.000	-0.067	-0.380
-415.428	800.000	0.073	-0.228
-414.413	404.892	0.063	0.132
-413.398	152.623	-0.093	-0.126
-412.384	-37.233	-0.054	0.029
-411.369	243.794	0.114	-0.189
-410.355	800.000	0.086	0.364
-409.340	49.055	-0.038	-0.035
-408.325	-12.649	0.111	-0.071
-407.311	81.868	-0.252	0.269
-406.296	-125.750	0.048	0.007
-405.282	-100.991	0.143	-0.035
-404.267	-169.213	-0.408	-0.015
-403.252	204.659	-0.089	0.136
-402.238	-115.196	-0.378	0.071
-401.223	-200.000	-0.007	-0.591
-400.209	-112.559	-0.130	0.026
-399.194	-18.010	0.088	-0.054
-398.179	-200.000	0.006	-0.167
-397.165	-39.697	-0.209	0.108
-396.150	403.591	0.045	-0.094
-395.136	-101.723	0.071	0.017
-394.121	-76.477	0.124	-0.043
-393.106	139.936	0.111	-0.144
-392.092	-14.661	0.381	-0.242
-391.077	145.337	0.121	-0.160
-390.063	800.000	-0.046	0.191
-389.048	-200.000	-0.020	-0.140
-388.033	-55.087	-0.054	-0.024
-387.019	-200.000	0.078	-0.367
-386.004	-149.835	0.148	0.011
-384.990	800.000	0.165	0.504
-383.975	-25.852	0.281	0.163
-382.960	-101.006	-0.233	-0.057
-381.946	-16.221	0.161	0.101
-380.931	-200.000	0.033	-0.490
-379.917	181.362	-0.158	0.229
-378.902	-200.000	-0.002	-0.240
-377.888	207.142	-0.210	-0.323
-376.873	-151.589	0.319	-0.023
-375.858	7.814	-0.230	0.170
-374.844	153.406	-0.169	-0.228
-373.829	800.000	-0.033	-0.121
-372.815	-163.881	0.428	-0.020
-371.800	27.016	-0.070	-0.058
-370.785	189.147	-0.190	0.282
-369.771	800.000	0.080	-0.340
-368.756	-0.897	-0.294	-0.205
-367.742	-200.000	0.027	-0.132
-366.727	-200.000	-0.000	0.226
-365.712	-72.168	0.046	-0.017
-364.698	-102.882	-0.247	0.058
-363.683	-200.000	0.027	-0.244
-362.669	800.000	0.026	0.109
-361.654	-135.685	-0.319	0.037
-360.639	200.731	0.201	-0.305
-359.625	-115.410	0.061	-0.011
-358.610	-200.000	0.013	0.057
-357.596	47.507	0.197	-0.181
-356.581	351.305	-0.096	-0.188
-355.566	-39.337	-0.093	0.048
-354.552	-5.041	0.191	-0.130
-353.537	-132.380	0.353	0.045
-352.523	-200.000	0.040	-0.223
-351.508	-200.000	0.073	-0.478
-350.493	4.927	0.226	0.164
-349.479	279.703	-0.032	0.056
-348.464	300.530	-0.036	0.066
-347.450	95.205	-0.237	0.266
-346.435	800.000	0.033	-0.119
-345.420	289.827	0.042	-0.075
-344.406	-80.019	-0.356	0.118
-343.391	-30.749	0.098	-0.055
-342.377	-200.000	-0.003	-0.057
-341.362	303.545	0.066	-0.120
-340.348	145.948	0.070	0.093
-339.333	-200.000	0.004	0.141
-338.318	-174.364	0.215	-0.006
-337.304	-47.309	-0.163	-0.078
-336.289	8.944	0.082	0.061
-335.275	-200.000	0.019	0.109
-334.260	154.931	-0.102	-0.139
-333.245	-68.627	-0.275	0.105
-332.231	-114.085	0.273	0.052
-331.216	-200.000	-0.020	-0.093
-330.202	32.631	-0.166	-0.141
-329.187	-50.579	-0.332	0.154
-328.172	-101.495	0.353	-0.085
-327.158	-31.301	0.107	-0.059
-326.143	414.607	0.098	0.206
-325.129	-110.212	0.139	-0.029
-324.114	14.520	-0.176	0.136
-323.099	678.524	0.014	0.037
-322.085	71.559	-0.169	0.173
-321.070	-122.757	-0.085	-0.014
-320.056	-90.932	-0.172	-0.049
-319.041	-31.808	-0.155	0.085
-318.026	-37.727	-0.092	0.048
-317.012	149.188	0.169	0.226
-315.997	-111.349	-0.134	-0.027
-314.983	-132.612	0.267	0.034
-313.968	111.216	0.022	-0.026
-312.953	-49.622	-0.225	-0.106
-311.939	-200.000	0.014	0.139
-310.924	-200.000	0.312	0.000
-309.910	-22.387	0.339	0.202
-308.895	-200.000	0.035	0.222
-307.880	800.000	0.063	-0.238
-306.866	31.548	0.104	-0.088
-305.851	-139.737	-0.161	0.017
-304.837	-56.809	-0.253	-0.110
-303.822	315.278	-0.091	-0.170
-302.807	-200.000	-0.010	0.222
-301.793	667.862	0.118	-0.301
-300.778	-93.976	0.156	0.042
-299.764	-200.000	-0.047	0.228
-298.749	102.150	-0.246	0.283
-297.735	267.307	0.130	-0.224
-296.720	297.450	0.067	0.121
-295.705	-200.000	-0.017	0.163
-294.691	-46.936	0.145	0.070
-293.676	45.451	0.122	-0.111
-292.662	800.000	0.036	0.107
-291.647	90.625	0.281	0.310
-290.632	800.000	0.097	-0.269
-289.618	-115.814	-0.434	0.080
-288.603	74.784	0.167	0.173
-287.589	-183.808	-0.274	0.005
-286.574	-43.345	0.140	-0.070
-285.559	-6.162	0.138	-0.093
-284.545	-200.000	-0.036	0.257
-283.530	-88.063	0.159	-0.047
-282.516	-200.000	-0.045	-0.209
-281.501	726.856	-0.099	-0.261
-280.486	-200.000	-0.006	-0.212
-279.472	39.627	-0.096	0.085
-278.457	-43.661	-0.281	0.139
-277.443	-133.807	0.158	-0.019
-276.428	128.227	0.196	-0.245
-275.413	-200.000	-0.003	-0.032
-274.399	409.935	0.105	-0.219
-273.384	-15.164	-0.204	0.128
-272.370	31.268	-0.127	-0.107
-271.355	87.694	0.237	0.259
-270.340	63.358	0.111	-0.109
-269.326	73.927	-0.131	0.135
-268.311	-95.922	-0.194	0.051
-267.297	800.000	0.035	-0.105
-266.282	-130.727	0.081	0.011
-265.267	-200.000	0.052	-0.322
-264.253	800.000	0.072	-0.210
-263.238	262.378	0.279	0.476
-262.224	800.000	-0.074	0.213
-261.209	-200.000	-0.046	-0.242
-260.195	-68.220	0.181	-0.069
-259.180	-200.000	-0.014	0.147
-258.165	394.720	0.197	0.404
-257.151	800.000	-0.015	0.055
-256.136	157.599	0.045	0.062
-255.122	86.065	-0.125	-0.135
-254.107	42.408	-0.133	-0.119
-253.092	-127.201	-0.301	0.043
-252.078	-5.195	-0.210	0.142
-251.063	41.846	0.073	0.065
-250.049	152.255	0.027	-0.036
-249.034	800.000	0.054	-0.205
-248.019	157.385	-0.033	-0.045
-247.005	10.985	0.093	-0.070
-245.990	-113.048	0.290	-0.056
-244.976	-200.000	0.003	-0.069
-243.961	-200.000	0.035	0.407
-242.946	213.858	-0.103	0.160
-241.932	-68.433	-0.108	0.041
-240.917	143.445	-0.072	0.094
-239.903	31.523	-0.089	0.075
-238.888	-200.000	0.024	-0.293
-237.873	-200.000	-0.042	0.231
-236.859	87.544	0.281	0.305
-235.844	122.188	0.241	0.296
-234.830	-20.544	0.322	0.194
-233.815	156.675	0.026	0.035
-232.800	-63.008	0.184	0.074
-231.786	800.000	0.038	0.136
-230.771	187.424	0.134	0.197
-229.757	18.892	0.136	-0.107
-228.742	800.000	-0.024	-0.071
-227.727	-43.333	0.314	0.156
-226.713	-200.000	0.015	0.093
-225.698	-67.815	0.304	0.117
-224.684	-101.747	-0.243	0.058
-223.669	68.300	-0.085	-0.085
-222.655	167.027	-0.269	-0.375
-221.640	254.403	-0.125	0.210
-220.625	-52.953	-0.248	-0.112
-219.611	-61.538	-0.150	-0.062
-218.596	56.931	-0.204	0.195
-217.582	-200.000	-0.037	0.326
-216.567	-179.215	-0.089	-0.002
-215.552	-7.821	0.051	-0.034
-214.538	-200.000	-0.037	0.250
-213.523	-115.268	-0.178	-0.033
-212.509	800.000	-0.021	0.088
-211.494	-200.000	0.003	-0.075
-210.479	21.294	0.237	0.189
-209.465	147.102	-0.130	-0.172
-208.450	-200.000	0.000	0.067
-207.436	-44.068	-0.011	0.005
-206.421	208.611	-0.172	-0.264
-205.406	18.398	-0.215	0.169
-204.392	303.519	0.073	0.133
-203.377	2.544	0.164	-0.117
-202.363	235.891	0.055	-0.089
-201.348	-8.326	-0.038	0.025
-200.333	180.708	0.269	0.387
-199.319	1.365	-0.328	-0.231
-198.304	-48.173	-0.116	0.055
-197.290	345.337	-0.052	0.100
-196.275	-30.122	0.266	0.148
-195.260	-180.311	-0.198	0.004
-194.246	36.243	-0.164	0.142
-193.231	-175.889	-0.354	0.009
-192.217	62.156	0.101	-0.099
-191.202	-200.000	0.009	0.234
-190.187	-200.000	0.057	-0.280
-189.173	231.797	0.185	-0.298
-188.158	-200.000	0.016	-0.125
-187.144	150.954	-0.156	0.208
-186.129	6.137	0.145	-0.106
-185.114	331.192	0.136	-0.256
-184.100	-127.132	0.349	-0.050
-183.085	-128.031	0.131	-0.018
-182.071	31.822	-0.206	-0.174
-181.056	-139.728	0.219	-0.023
-180.042	-148.564	-0.362	-0.029
-179.027	412.642	-0.046	-0.096
-178.012	-104.139	-0.167	-0.038
-176.998	204.366	0.163	0.247
-175.983	-16.416	-0.045	-0.028
-174.969	-200.000	-0.017	0.157
-173.954	-60.013	0.363	0.152
-172.939	-200.000	0.003	-0.263
-171.925	-175.296	0.170	0.005
-170.910	134.424	0.064	-0.081
-169.896	367.207	-0.065	0.129
-168.881	-127.458	0.100	-0.014
-167.866	-94.135	0.173	-0.046
-166.852	-107.986	-0.108	0.023
-165.837	-200.000	0.180	0.000
-164.823	490.981	0.196	0.440
-163.808	-75.924	-0.053	0.018
-162.793	-125.376	-0.123	0.018
-161.779	-200.000	0.056	-0.241
-160.764	-73.442	0.200	-0.072
-159.750	750.257	0.085	-0.224
-158.735	-200.000	-0.019	-0.271
-157.720	52.682	-0.207	0.194
-156.706	246.486	0.031	-0.052
-155.691	200.632	-0.068	0.102
-154.677	259.686	0.040	0.067
-153.662	-200.000	-0.022	0.151
-152.647	198.396	0.106	-0.159
-151.633	-42.715	0.005	-0.003
-150.618	-40.025	0.140	0.072
-149.604	800.000	-0.077	0.213
-148.589	-123.654	0.289	0.045
-147.574	-30.122	-0.238	-0.132
-146.560	17.289	-0.062	0.048
-145.545	207.477	0.250	0.382
-144.531	-13.100	0.200	0.127
-143.516	-74.024	0.332	0.118
-142.502	790.481	0.029	0.079
-141.487	-67.659	-0.446	0.171
-140.472	-57.294	0.120	-0.052
-139.458	800.000	0.058	-0.181
-138.443	4.146	-0.248	0.178
-137.429	-73.325	-0.154	-0.055
-136.414	789.417	0.060	0.162
-135.399	800.000	0.047	-0.190
-134.385	-91.589	-0.197	-0.055
-133.370	-122.845	0.414	-0.065
-132.356	800.000	-0.041	-0.111
-131.341	30.645	0.240	-0.201
-130.326	-200.000	-0.013	-0.071
-129.312	-132.455	0.107	0.013
-128.297	-63.201	0.077	-0.031
-127.283	429.523	0.125	0.264
-126.268	-200.000	-0.029	-0.320
-125.253	-11.939	0.087	-0.056
-124.239	-200.000	0.002	-0.087
-123.224	11.329	0.119	0.089
-122.210	-96.575	-0.268	-0.069
