DTS Sentinel unit serial number:	SN413079Multiplexer serial number:	ORYXHardware model number:	OX4-SRSoftware version number:	ORYX F/W v4.00 Oryx Data Collector v3.7.2.0data status	okinstallation	princeton_trtdifferential loss correction	single-endedforward channel	channel 3reverse channel	N/Adate	2019/09/13time	19:20:34forward acquisition time	60.00reverse acquisition time	0.00gamma	496.2192k internal	0.2325k external	0.2325temperature offset calibration	1.0090default loss term (dB/km)	0.3790temperature slope calibration	1.0000multiplexer offset coefficient	1.0000multiplexer slope coefficient	1.0000fibre end	0.00T internal ref (°C)	31.11T ext. ref 1 (°C)	3.78T ext. ref 2 (°C)	24.53length (m)	temperature (°C)	Stokes	anti-Stokes-747.200	-200.000	0.009	-0.205
-746.185	-71.305	0.022	0.008
-745.171	-11.289	-0.088	-0.059
-744.156	-200.000	0.068	0.341
-743.142	342.305	-0.023	-0.046
-742.127	200.555	-0.242	0.375
-741.112	156.867	0.207	-0.288
-740.098	800.000	-0.030	0.100
-739.083	-12.067	-0.056	-0.037
-738.069	99.906	-0.134	0.157
-737.054	800.000	-0.034	-0.138
-736.039	-114.950	-0.338	-0.065
-735.025	569.912	-0.064	0.156
-734.010	11.731	0.056	-0.044
-732.996	-13.481	-0.505	-0.330
-731.981	-200.000	0.005	0.448
-730.966	-200.000	-0.002	0.151
-729.952	11.424	-0.417	-0.322
-728.937	-5.523	0.271	-0.188
-727.923	-98.175	0.201	-0.052
-726.908	-60.391	-0.272	0.116
-725.894	94.908	-0.126	0.144
-724.879	130.434	-0.042	-0.055
-723.864	48.604	-0.274	0.259
-722.850	113.501	-0.093	0.114
-721.835	-116.311	-0.318	-0.059
-720.821	800.000	-0.065	-0.207
-719.806	-115.172	0.249	-0.048
-718.791	-163.537	-0.352	0.017
-717.777	-88.840	-0.121	0.036
-716.762	253.931	0.072	-0.124
-715.748	431.529	0.155	0.338
-714.733	330.988	-0.011	0.022
-713.718	75.705	0.071	0.076
-712.704	335.051	0.075	0.146
-711.689	800.000	-0.112	-0.473
-710.675	-200.000	0.047	-0.264
-709.660	87.747	-0.263	-0.293
-708.645	-12.435	0.197	0.129
-707.631	-41.796	-0.394	-0.203
-706.616	-58.943	0.074	0.032
-705.602	-74.047	0.380	-0.139
-704.587	370.892	-0.118	-0.241
-703.572	14.736	0.080	0.063
-702.558	143.557	-0.111	0.148
-701.543	-163.762	0.149	-0.007
-700.529	155.312	0.160	-0.222
-699.514	478.477	0.120	0.275
-698.499	95.266	-0.456	-0.523
-697.485	233.740	-0.081	-0.134
-696.470	47.121	-0.127	0.119
-695.456	350.941	-0.090	-0.179
-694.441	152.251	-0.192	0.264
-693.426	-200.000	-0.005	-0.332
-692.412	436.789	0.149	-0.326
-691.397	800.000	0.042	0.162
-690.383	-200.000	0.024	-0.111
-689.368	-57.509	-0.342	-0.151
-688.354	-112.335	-0.300	-0.060
-687.339	54.523	-0.204	0.198
-686.324	33.569	-0.105	-0.092
-685.310	-93.993	-0.218	0.060
-684.295	-200.000	-0.005	0.112
-683.281	126.919	-0.059	0.075
-682.266	-64.675	-0.153	-0.063
-681.251	95.490	0.112	-0.128
-680.237	643.828	0.124	-0.318
-679.222	115.769	-0.088	-0.108
-678.208	800.000	0.029	0.126
-677.193	268.953	-0.151	0.266
-676.178	-168.396	-0.166	0.006
-675.164	137.765	0.118	-0.156
-674.149	-97.192	-0.437	-0.115
-673.135	-122.302	0.076	0.013
-672.120	8.913	-0.274	0.208
-671.105	-200.000	0.052	0.276
-670.091	454.765	0.168	0.374
-669.076	-85.008	0.343	0.108
-668.062	-125.530	0.356	-0.054
-667.047	112.475	-0.113	-0.137
-666.032	12.209	0.164	0.127
-665.018	-200.000	0.019	-0.100
-664.003	800.000	-0.007	0.024
-662.989	-102.376	0.334	-0.081
-661.974	-53.112	-0.089	0.041
-660.959	-200.000	-0.020	0.161
-659.945	-200.000	0.009	0.070
-658.930	-153.414	-0.056	0.004
-657.916	445.614	-0.089	-0.197
-656.901	800.000	0.060	0.178
-655.886	-102.340	-0.246	-0.059
-654.872	-72.846	-0.347	-0.128
-653.857	-200.000	-0.043	0.197
-652.843	79.366	-0.137	-0.147
-651.828	88.159	0.176	0.196
-650.814	68.692	0.109	-0.112
-649.799	60.357	0.110	-0.109
-648.784	558.718	-0.038	0.092
-647.770	-200.000	0.001	0.176
-646.755	70.537	0.098	-0.102
-645.741	-200.000	-0.050	-0.305
-644.726	144.973	0.159	0.213
-643.711	-8.949	-0.140	0.094
-642.697	456.314	-0.012	0.026
-641.682	68.958	-0.176	-0.181
-640.668	6.401	-0.104	-0.078
-639.653	224.495	0.031	-0.051
-638.638	-200.000	-0.028	-0.283
-637.624	-12.993	0.201	-0.131
-636.609	800.000	0.075	0.212
-635.595	-31.045	-0.160	0.091
-634.580	-184.278	0.112	0.002
-633.565	-53.841	-0.060	0.027
-632.551	-104.840	-0.140	0.032
-631.536	-200.000	0.010	0.147
-630.522	800.000	-0.056	-0.206
-629.507	-18.794	-0.257	0.161
-628.492	43.710	-0.108	0.100
-627.478	86.566	-0.180	-0.199
-626.463	-160.002	-0.356	0.020
-625.449	800.000	-0.015	0.065
-624.434	748.661	-0.060	-0.164
-623.419	-122.811	0.464	-0.075
-622.405	-43.215	-0.279	0.142
-621.390	399.979	-0.148	0.311
-620.376	34.106	0.218	0.191
-619.361	-167.271	-0.140	0.006
-618.346	-200.000	-0.010	-0.345
-617.332	255.782	-0.077	-0.132
-616.317	502.241	0.029	0.068
-615.303	35.089	0.044	-0.039
-614.288	-115.552	-0.284	0.054
-613.273	-102.470	-0.405	-0.097
-612.259	-154.844	0.104	0.007
-611.244	800.000	-0.040	-0.157
-610.230	-27.590	0.445	-0.259
-609.215	-135.022	-0.165	-0.020
-608.201	291.744	-0.050	0.092
-607.186	30.308	-0.161	0.138
-606.171	800.000	-0.064	0.238
-605.157	39.353	0.057	0.052
-604.142	273.696	0.060	-0.106
-603.128	-126.333	0.101	0.015
-602.113	120.972	0.100	-0.125
-601.098	-57.312	-0.193	-0.085
-600.084	86.477	-0.200	0.221
-599.069	41.010	-0.261	-0.236
-598.055	2.846	-0.044	-0.032
-597.040	103.555	-0.223	0.263
-596.025	-29.492	0.095	0.054
-595.011	800.000	0.105	0.312
-593.996	800.000	-0.081	0.296
-592.982	41.544	-0.209	-0.190
-591.967	-153.389	-0.092	-0.006
-590.952	152.085	-0.229	0.313
-589.938	-180.051	-0.282	0.006
-588.923	-30.143	0.062	-0.035
-587.909	-158.944	-0.121	-0.007
-586.894	-200.000	0.028	-0.240
-585.879	-37.470	-0.136	-0.073
-584.865	3.892	0.216	0.159
-583.850	-59.954	0.307	0.132
-582.836	-60.415	-0.231	0.099
-581.821	284.291	-0.027	0.049
-580.806	-124.982	-0.222	-0.034
-579.792	800.000	-0.020	0.070
-578.777	-121.992	0.074	0.012
-577.763	-200.000	-0.092	0.572
-576.748	688.886	0.106	0.277
-575.733	365.630	0.036	0.073
-574.719	45.854	-0.156	0.145
-573.704	-200.000	0.018	0.112
-572.690	-44.393	-0.294	-0.147
-571.675	-162.853	0.150	-0.007
-570.661	352.625	0.151	-0.300
-569.646	-78.116	-0.220	0.076
-568.631	271.367	-0.071	0.125
-567.617	135.892	-0.143	0.186
-566.602	-17.547	-0.236	-0.148
-565.588	-200.000	-0.009	-0.135
-564.573	-146.404	-0.214	0.019
-563.558	-200.000	-0.029	-0.340
-562.544	-178.470	0.277	0.006
-561.529	-200.000	-0.152	0.000
-560.515	-132.534	-0.138	-0.018
-559.500	440.254	-0.144	-0.315
-558.485	-131.649	0.330	-0.043
-557.471	-43.246	0.275	-0.139
-556.456	-132.718	0.177	0.023
-555.442	7.832	-0.212	0.159
-554.427	103.213	-0.150	0.176
-553.412	-152.268	-0.431	0.031
-552.398	800.000	0.044	-0.154
-551.383	800.000	0.108	0.311
-550.369	400.653	0.099	0.208
-549.354	644.623	0.116	-0.298
-548.339	157.448	-0.268	0.371
-547.325	-43.366	-0.113	-0.057
-546.310	108.147	0.147	0.175
-545.296	-59.781	0.170	0.073
-544.281	-200.000	-0.019	-0.097
-543.266	364.313	-0.079	-0.159
-542.252	105.394	-0.079	-0.094
-541.237	-200.000	0.010	0.058
-540.223	452.388	-0.180	-0.399
-539.208	-200.000	-0.060	-0.381
-538.193	55.926	0.067	0.065
-537.179	-200.000	0.000	0.066
-536.164	-39.666	0.111	0.058
-535.150	800.000	-0.040	0.111
-534.135	31.916	0.221	-0.191
-533.121	318.224	-0.130	0.247
-532.106	800.000	-0.050	-0.200
-531.091	-101.057	-0.401	0.098
-530.077	56.792	0.117	0.114
-529.062	-132.243	-0.072	0.009
-528.048	-139.202	0.278	0.030
-527.033	-41.687	0.090	0.046
-526.018	-114.422	0.272	-0.052
-525.004	10.482	0.049	0.037
-523.989	800.000	-0.049	-0.158
-522.975	45.661	0.111	-0.103
-521.960	800.000	-0.019	-0.064
-520.945	-49.013	-0.062	-0.030
-519.931	76.585	0.094	-0.099
-518.916	-200.000	0.013	-0.089
-517.902	-77.225	0.048	0.017
-516.887	-61.501	0.207	0.087
-515.872	-200.000	0.012	0.155
-514.858	-134.415	0.475	-0.058
-513.843	58.062	0.138	0.135
-512.829	17.718	0.126	-0.100
-511.814	-55.534	0.281	-0.126
-510.799	18.307	0.357	0.285
-509.785	160.332	0.148	-0.207
-508.770	20.653	0.158	0.127
-507.756	-79.361	0.181	0.061
-506.741	-200.000	0.033	0.190
-505.726	-200.000	0.009	-0.093
-504.712	-156.492	-0.263	0.016
-503.697	-123.803	-0.063	0.010
-502.683	421.870	0.006	-0.013
-501.668	-116.416	-0.221	-0.041
-500.653	800.000	0.116	-0.375
-499.639	125.845	-0.097	0.122
-498.624	167.442	0.065	0.092
-497.610	-144.366	0.156	-0.014
-496.595	-200.000	-0.029	0.458
-495.581	138.510	-0.157	0.206
-494.566	257.416	-0.040	-0.068
-493.551	130.702	-0.244	-0.312
-492.537	-200.000	-0.044	-0.264
-491.522	5.899	0.186	-0.138
-490.508	-134.040	0.152	-0.019
-489.493	338.463	-0.067	-0.130
-488.478	13.872	0.231	0.180
-487.464	-54.128	-0.198	0.090
-486.449	-200.000	-0.041	0.188
-485.435	-34.008	-0.102	0.056
-484.420	-200.000	0.029	-0.266
-483.405	-80.333	-0.340	0.113
-482.391	49.686	0.110	-0.103
-481.376	800.000	-0.058	0.202
-480.362	645.282	0.038	0.097
-479.347	-200.000	0.001	-0.222
-478.332	-31.802	0.445	-0.249
-477.318	-200.000	0.053	-0.349
-476.303	-200.000	-0.015	-0.119
-475.289	376.472	0.099	0.201
-474.274	-68.988	0.249	0.096
-473.259	-12.607	-0.118	0.077
-472.245	268.804	-0.159	0.279
-471.230	-200.000	0.023	0.239
-470.216	-40.537	0.233	-0.120
-469.201	-62.598	-0.185	0.077
-468.186	117.221	0.105	0.129
-467.172	800.000	0.109	0.402
-466.157	431.179	-0.076	0.165
-465.143	-200.000	0.003	0.084
-464.128	184.817	-0.177	0.262
-463.113	-4.933	-0.203	-0.139
-462.099	-200.000	-0.014	-0.118
-461.084	-73.227	0.345	-0.126
-460.070	-111.814	0.352	0.071
-459.055	-130.198	0.273	0.037
-458.040	40.140	-0.329	-0.295
-457.026	24.298	-0.104	0.086
-456.011	-200.000	0.024	0.173
-454.997	-200.000	0.040	0.244
-453.982	-3.098	-0.320	-0.223
-452.968	-16.358	-0.232	-0.147
-451.953	-86.828	-0.048	0.015
-450.938	222.133	0.032	0.051
-449.924	517.845	-0.051	-0.119
-448.909	-71.717	0.322	-0.120
-447.895	800.000	0.060	-0.194
-446.880	-89.840	-0.164	0.048
-445.865	-200.000	-0.007	0.098
-444.851	-74.415	-0.233	-0.084
-443.836	-70.706	-0.205	0.077
-442.822	800.000	0.079	0.243
-441.807	705.919	-0.091	-0.239
-440.792	-199.590	0.414	0.002
-439.778	-52.890	-0.233	-0.107
-438.763	-200.000	0.011	-0.231
-437.749	-85.722	0.138	0.043
-436.734	19.116	0.236	-0.189
-435.719	686.140	0.028	0.073
-434.705	-39.907	-0.084	-0.044
-433.690	-5.033	0.101	-0.069
-432.676	59.295	0.067	0.065
-431.661	-200.000	0.013	-0.059
-430.646	-200.000	0.322	-0.001
-429.632	-118.767	-0.184	0.032
-428.617	46.255	-0.114	0.106
-427.603	-115.154	0.322	-0.061
-426.588	-200.000	0.006	-0.108
-425.573	344.502	-0.114	0.223
-424.559	-200.000	0.016	-0.100
-423.544	-26.917	-0.100	0.058
-422.530	-47.534	-0.110	0.053
-421.515	800.000	-0.095	-0.307
-420.500	-19.621	0.130	-0.080
-419.486	-106.247	-0.117	-0.026
-418.471	30.848	0.111	-0.095
-417.457	277.276	0.171	-0.303
-416.442	-200.000	0.033	0.212
-415.428	-56.465	-0.111	-0.049
-414.413	-200.000	-0.009	-0.463
-413.398	360.208	-0.060	0.120
-412.384	252.865	0.077	-0.131
-411.369	337.748	-0.105	-0.203
-410.355	-200.000	-0.055	-0.307
-409.340	530.326	0.104	0.245
-408.325	-91.525	-0.169	-0.048
-407.311	76.765	0.147	0.156
-406.296	-93.147	-0.236	-0.065
-405.282	800.000	0.019	0.052
-404.267	-14.401	-0.188	0.120
-403.252	-127.330	0.280	0.041
-402.238	800.000	0.012	-0.044
-401.223	-200.000	-0.024	0.187
-400.209	-200.000	0.015	-0.114
-399.194	75.768	-0.228	-0.240
-398.179	129.277	-0.080	-0.101
-397.165	-13.789	0.074	0.047
-396.150	-125.425	-0.186	0.028
-395.136	800.000	0.058	0.231
-394.121	97.236	0.131	-0.149
-393.106	-91.199	-0.176	0.050
-392.092	-200.000	0.029	0.172
-391.077	-57.885	-0.090	-0.039
-390.063	-73.821	0.116	-0.042
-389.048	-54.204	-0.103	0.046
-388.033	220.591	0.185	0.295
-387.019	248.518	-0.028	0.046
-386.004	340.266	-0.149	-0.289
-384.990	136.581	-0.045	-0.059
-383.975	-13.334	-0.116	0.075
-382.960	-132.394	0.323	0.041
-381.946	-200.000	-0.032	-0.371
-380.931	-13.892	0.102	-0.066
-379.917	800.000	0.081	-0.345
-378.902	-104.520	-0.058	0.013
-377.888	-69.426	0.389	0.148
-376.873	-197.216	-0.012	0.000
-375.858	-78.965	0.131	0.044
-374.844	-130.032	-0.074	0.010
-373.829	332.491	-0.142	0.273
-372.815	-142.040	0.336	-0.033
-371.800	41.850	-0.189	-0.171
-370.785	249.169	-0.053	0.090
-369.771	800.000	0.081	-0.324
-368.756	-200.000	-0.022	-0.201
-367.742	-200.000	-0.005	0.320
-366.727	12.518	0.313	-0.240
-365.712	-81.609	-0.301	-0.098
-364.698	89.454	-0.131	-0.145
-363.683	592.451	-0.046	-0.112
-362.669	-129.402	0.160	0.022
-361.654	481.019	-0.087	0.197
-360.639	-200.000	-0.006	0.059
-359.625	-66.298	0.241	-0.095
-358.610	-52.248	0.046	0.021
-357.596	800.000	-0.030	-0.111
-356.581	-96.129	-0.161	0.042
-355.566	-200.000	-0.023	0.195
-354.552	215.697	0.116	-0.184
-353.537	-75.872	0.214	-0.075
-352.523	76.544	-0.189	0.199
-351.508	-200.000	-0.021	-0.115
-350.493	800.000	0.064	0.182
-349.479	-50.538	0.087	0.041
-348.464	344.247	0.087	0.170
-347.450	191.264	0.068	-0.102
-346.435	22.366	0.013	0.010
-345.420	-157.771	-0.109	0.006
-344.406	-200.000	0.018	-0.379
-343.391	800.000	-0.082	0.295
-342.377	-200.000	-0.021	0.109
-341.362	-55.378	-0.190	-0.085
-340.348	182.871	0.169	-0.247
-339.333	73.209	0.122	0.127
-338.318	-142.960	-0.170	0.016
-337.304	77.516	-0.107	0.113
-336.289	-110.814	-0.254	-0.052
-335.275	539.060	-0.076	0.179
-334.260	-145.569	-0.311	-0.028
-333.245	-106.360	0.273	0.061
-332.231	-72.831	-0.164	0.060
-331.216	53.468	0.322	0.307
-330.202	-200.000	-0.044	0.198
-329.187	39.124	-0.195	-0.173
-328.172	621.728	0.105	0.263
-327.158	-91.980	0.390	0.109
-326.143	430.622	0.065	-0.139
-325.129	-80.765	0.187	0.062
-324.114	-49.026	0.180	-0.085
-323.099	-167.186	-0.161	-0.006
-322.085	422.440	0.045	0.096
-321.070	-118.243	-0.108	-0.019
-320.056	100.841	0.082	0.095
-319.041	800.000	-0.064	-0.211
-318.026	-172.372	-0.115	0.004
-317.012	405.899	-0.144	0.301
-315.997	662.008	0.103	0.263
-314.983	-85.459	-0.121	-0.037
-313.968	800.000	0.080	-0.257
-312.953	34.996	0.210	0.182
-311.939	-200.000	0.028	0.311
-310.924	181.656	-0.084	0.122
-309.910	-200.000	0.029	-0.214
-308.895	-200.000	-0.040	-0.193
-307.880	-200.000	-0.039	-0.348
-306.866	175.896	0.077	-0.111
-305.851	341.948	-0.090	-0.174
-304.837	-125.705	0.246	-0.037
-303.822	14.068	-0.069	-0.053
-302.807	110.597	-0.053	0.063
-301.793	40.772	0.063	0.056
-300.778	155.840	-0.163	0.223
-299.764	-12.077	-0.070	0.046
-298.749	-200.000	0.002	-0.088
-297.735	-86.743	-0.263	0.080
-296.720	800.000	0.119	-0.413
-295.705	-200.000	-0.026	-0.140
-294.691	653.657	0.091	-0.231
-293.676	-111.643	0.295	0.059
-292.662	-37.361	-0.275	0.146
-291.647	-115.387	0.138	0.026
-290.632	55.910	0.095	-0.092
-289.618	115.582	-0.168	-0.204
-288.603	728.205	0.039	0.103
-287.589	-26.428	0.252	-0.146
-286.574	-63.791	-0.324	-0.131
-285.559	68.554	0.083	-0.084
-284.545	72.108	0.071	-0.073
-283.530	-11.587	0.222	-0.145
-282.516	-6.972	-0.072	-0.048
-281.501	259.155	0.046	-0.079
-280.486	169.331	0.069	-0.097
-279.472	-76.817	0.130	0.045
-278.457	800.000	-0.060	-0.178
-277.443	-117.738	-0.278	-0.049
-276.428	42.058	-0.075	0.068
-275.413	64.431	0.067	-0.067
-274.399	524.030	-0.088	0.204
-273.384	-200.000	0.035	-0.191
-272.370	800.000	0.065	-0.239
-271.355	-129.153	-0.131	-0.018
-270.340	800.000	-0.103	-0.303
-269.326	128.207	0.264	-0.333
-268.311	-131.280	0.163	-0.021
-267.297	107.323	-0.190	0.223
-266.282	6.236	0.140	0.103
-265.267	70.341	-0.121	0.124
-264.253	173.402	-0.083	-0.119
-263.238	-14.283	-0.365	0.233
-262.224	0.336	-0.143	0.101
-261.209	183.218	-0.130	-0.189
-260.195	-103.879	0.036	0.008
-259.180	-113.889	0.298	-0.057
-258.165	-88.533	0.237	-0.070
-257.151	-200.000	0.020	0.173
-256.136	-200.000	0.023	-0.200
-255.122	800.000	-0.056	-0.197
-254.107	-93.319	-0.095	0.026
-253.092	-7.287	0.020	-0.014
-252.078	-140.927	0.174	0.018
-251.063	-200.000	-0.037	-0.175
-250.049	-200.000	-0.082	0.385
-249.034	141.784	0.045	0.059
-248.019	328.573	0.053	0.102
-247.005	123.096	-0.113	0.141
-245.990	-200.000	-0.016	-0.188
-244.976	-143.601	0.302	-0.028
-243.961	800.000	-0.030	0.112
-242.946	44.154	-0.266	0.241
-241.932	217.686	-0.118	0.186
-240.917	151.982	0.082	0.111
-239.903	-65.756	0.059	-0.024
-238.888	-144.107	-0.478	-0.044
-237.873	73.070	-0.221	-0.228
-236.859	62.890	-0.161	-0.160
-235.844	58.235	0.030	0.029
-234.830	-53.749	-0.147	0.067
-233.815	-200.000	0.047	-0.342
-232.800	-179.295	-0.315	-0.007
-231.786	-12.771	-0.101	0.065
-230.771	450.414	0.055	-0.120
-229.757	-200.000	0.017	-0.211
-228.742	-117.469	-0.135	-0.024
-227.727	264.395	-0.080	0.138
-226.713	-32.056	0.231	0.128
-225.698	-200.000	-0.056	0.418
-224.684	-93.723	-0.276	0.075
-223.669	-200.000	-0.018	0.217
-222.655	-170.863	-0.129	0.004
-221.640	-105.166	-0.116	0.026
-220.625	75.771	0.120	0.126
-219.611	29.005	0.313	0.262
-218.596	-200.000	-0.020	0.101
-217.582	-186.082	-0.170	-0.002
-216.567	-146.206	-0.317	0.028
-215.552	-124.417	0.152	0.023
-214.538	5.592	-0.052	-0.038
-213.523	-123.529	-0.161	0.025
-212.509	30.597	0.169	0.143
-211.494	292.410	0.078	-0.140
-210.479	-200.000	-0.074	-0.347
-209.465	601.050	-0.054	0.132
-208.450	252.271	0.031	0.052
-207.436	-139.897	0.191	0.020
-206.421	730.553	0.040	0.106
-205.406	216.511	-0.115	-0.180
-204.392	57.149	0.361	0.348
-203.377	433.820	0.108	0.233
-202.363	-200.000	0.001	-0.033
-201.348	-200.000	0.005	-0.229
-200.333	152.749	0.097	0.131
-199.319	-14.243	0.238	0.152
-198.304	-42.597	-0.293	-0.147
-197.290	-52.272	0.107	-0.049
-196.275	800.000	0.016	0.057
-195.260	-96.371	0.129	-0.034
-194.246	-164.068	0.131	0.006
-193.231	-200.000	-0.012	-0.102
-192.217	-11.084	-0.240	-0.156
-191.202	-118.314	-0.159	-0.028
-190.187	800.000	-0.015	-0.046
-189.173	72.859	-0.174	-0.180
-188.158	85.370	-0.166	0.180
-187.144	237.277	0.082	0.135
-186.129	-71.104	0.315	0.117
-185.114	378.442	-0.073	0.147
-184.100	-200.000	-0.005	-0.050
-183.085	-33.165	-0.266	0.145
-182.071	141.463	0.046	-0.061
-181.056	18.408	0.212	-0.167
-180.042	145.580	0.109	-0.144
-179.027	-72.533	0.544	0.198
-178.012	-117.429	-0.059	-0.010
-176.998	-19.146	0.145	0.089
-175.983	683.029	0.076	0.196
-174.969	-50.283	0.159	0.074
-173.954	35.947	0.118	-0.102
-172.939	-102.271	0.018	0.004
-171.925	-200.000	0.022	0.343
-170.910	43.652	-0.201	0.181
-169.896	-11.626	-0.082	0.053
-168.881	112.637	0.091	0.109
-167.866	-200.000	0.025	-0.220
-166.852	-92.193	0.495	0.138
-165.837	64.912	0.101	0.101
-164.823	-200.000	-0.033	0.324
-163.808	800.000	-0.060	0.209
-162.793	-200.000	0.063	0.395
-161.779	-80.227	0.220	0.073
-160.764	800.000	-0.039	-0.122
-159.750	-35.866	0.355	-0.190
-158.735	800.000	0.026	-0.098
-157.720	37.583	0.184	-0.161
-156.706	407.523	0.179	-0.374
-155.691	-37.349	0.316	-0.166
-154.677	-96.265	-0.190	0.050
-153.662	-48.523	0.203	-0.096
-152.647	152.030	-0.112	0.151
-151.633	110.711	-0.223	-0.264
-150.618	800.000	0.052	0.153
-149.604	-31.170	0.467	0.260
-148.589	-9.693	0.239	0.157
-147.574	671.933	-0.068	-0.174
-146.560	14.205	-0.153	0.117
-145.545	-20.237	0.052	-0.031
-144.531	219.901	-0.036	0.057
-143.516	246.709	0.312	0.519
-142.502	-200.000	-0.010	-0.047
-141.487	130.386	-0.006	0.008
-140.472	-200.000	-0.237	0.000
-139.458	-200.000	-0.003	-0.151
-138.443	-106.689	-0.197	0.043
-137.429	800.000	-0.012	0.048
-136.414	-22.066	0.269	-0.161
-135.399	-11.516	0.268	0.173
-134.385	-200.000	-0.005	-0.238
-133.370	-43.173	-0.173	0.087
-132.356	-200.000	0.025	-0.149
-131.341	-162.289	0.316	0.015
-130.326	-23.658	-0.303	0.179
-129.312	134.483	0.197	0.252
-128.297	800.000	0.140	0.545
-127.283	15.466	-0.197	0.152
-126.268	16.393	0.207	0.161
-125.253	59.838	0.379	-0.368
-124.239	-37.099	-0.091	0.048
-123.224	12.955	-0.152	-0.116
-122.210	-200.000	-0.012	-0.066
-121.195	-50.651	-0.235	0.109
