DTS Sentinel unit serial number:	SN413079Multiplexer serial number:	ORYXHardware model number:	OX4-SRSoftware version number:	ORYX F/W v4.00 Oryx Data Collector v3.7.2.0data status	okinstallation	princeton_trtdifferential loss correction	single-endedforward channel	channel 3reverse channel	N/Adate	2019/09/15time	20:04:35forward acquisition time	60.00reverse acquisition time	0.00gamma	496.2192k internal	0.2316k external	0.2316temperature offset calibration	0.9938default loss term (dB/km)	0.3790temperature slope calibration	1.0000multiplexer offset coefficient	1.0000multiplexer slope coefficient	1.0000fibre end	0.00T internal ref (°C)	35.36T ext. ref 1 (°C)	7.60T ext. ref 2 (°C)	26.23length (m)	temperature (°C)	Stokes	anti-Stokes-747.200	565.403	-0.221	0.543
-746.185	-115.605	0.049	0.009
-745.171	364.228	0.071	0.144
-744.156	406.387	0.052	0.111
-743.142	109.384	-0.266	0.323
-742.127	-72.627	0.283	-0.106
-741.112	-112.519	-0.026	-0.005
-740.098	-200.000	-0.041	0.258
-739.083	-75.802	-0.224	0.081
-738.069	-13.827	0.152	0.099
-737.054	-200.000	-0.002	0.321
-736.039	596.926	0.069	0.172
-735.025	-85.724	0.378	-0.119
-734.010	123.341	-0.277	0.352
-732.996	800.000	-0.080	0.260
-731.981	-174.930	-0.123	-0.003
-730.966	-150.484	-0.100	0.008
-729.952	-7.608	-0.199	0.136
-728.937	-166.716	0.161	0.007
-727.923	56.014	0.016	0.016
-726.908	102.842	0.155	-0.183
-725.894	-200.000	-0.004	0.136
-724.879	8.619	-0.211	-0.161
-723.864	-200.000	-0.001	0.238
-722.850	800.000	0.069	0.195
-721.835	-46.074	0.191	-0.095
-720.821	800.000	-0.100	-0.284
-719.806	221.947	0.097	-0.158
-718.791	800.000	-0.034	-0.130
-717.777	-200.000	0.040	-0.317
-716.762	-174.378	-0.088	0.003
-715.748	800.000	0.052	-0.178
-714.733	-200.000	0.007	0.208
-713.718	-200.000	-0.024	-0.241
-712.704	800.000	-0.011	-0.043
-711.689	-200.000	0.024	0.220
-710.675	800.000	0.126	0.354
-709.660	-141.832	-0.121	-0.012
-708.645	106.023	0.146	-0.174
-707.631	800.000	0.020	0.066
-706.616	-130.874	-0.233	-0.032
-705.602	-92.101	-0.398	-0.114
-704.587	800.000	0.048	0.188
-703.572	-90.979	0.199	0.058
-702.558	-164.587	-0.127	0.006
-701.543	-162.192	0.142	-0.007
-700.529	149.426	-0.204	-0.279
-699.514	-129.709	0.228	-0.032
-698.499	-74.699	-0.034	-0.012
-697.485	-82.653	-0.212	-0.069
-696.470	-51.643	-0.221	0.104
-695.456	174.303	-0.042	0.061
-694.441	-26.502	-0.188	-0.112
-693.426	278.984	0.061	0.109
-692.412	2.447	-0.019	-0.014
-691.397	66.722	0.021	-0.022
-690.383	264.239	-0.082	-0.144
-689.368	-70.403	-0.146	-0.056
-688.354	16.172	-0.131	0.105
-687.339	313.702	-0.198	0.377
-686.324	-88.039	0.130	-0.040
-685.310	-116.446	-0.174	0.032
-684.295	109.496	0.126	0.153
-683.281	800.000	0.061	0.211
-682.266	-104.875	-0.276	-0.064
-681.251	68.359	0.122	0.126
-680.237	35.564	-0.238	0.211
-679.222	-84.541	0.173	-0.055
-678.208	-106.025	-0.171	-0.039
-677.193	-200.000	0.004	-0.191
-676.178	-71.734	-0.111	0.042
-675.164	-128.514	-0.321	-0.046
-674.149	-6.542	-0.068	0.046
-673.135	18.162	0.146	-0.118
-672.120	71.519	0.129	0.135
-671.105	68.936	-0.059	0.061
-670.091	-123.895	-0.284	0.045
-669.076	-11.452	0.074	-0.049
-668.062	800.000	0.080	0.263
-667.047	188.239	-0.102	0.153
-666.032	-200.000	0.018	-0.158
-665.018	-200.000	-0.016	-0.155
-664.003	164.016	-0.225	0.320
-662.989	-56.980	-0.283	0.126
-661.974	127.179	0.061	0.078
-660.959	-200.000	-0.037	-0.171
-659.945	60.445	-0.237	-0.237
-658.930	217.935	0.195	-0.314
-657.916	-63.989	-0.159	0.066
-656.901	21.629	-0.267	-0.219
-655.886	-20.854	-0.182	0.113
-654.872	779.842	-0.122	-0.336
-653.857	225.847	0.154	-0.251
-652.843	-200.000	0.033	0.233
-651.828	-200.000	0.041	0.218
-650.814	14.844	-0.147	0.116
-649.799	-73.195	-0.232	-0.086
-648.784	-37.785	0.149	0.080
-647.770	149.303	-0.089	0.121
-646.755	-119.761	-0.334	-0.058
-645.741	599.264	0.037	-0.094
-644.726	-174.298	-0.043	0.001
-643.711	372.600	0.125	-0.255
-642.697	382.334	0.128	0.266
-641.682	-64.427	0.147	-0.060
-640.668	800.000	0.056	-0.174
-639.653	215.233	0.135	-0.215
-638.638	63.927	-0.197	-0.200
-637.624	-4.150	-0.463	0.324
-636.609	-96.116	0.135	-0.036
-635.595	-200.000	0.044	-0.272
-634.580	591.654	-0.052	0.130
-633.565	5.668	0.244	0.182
-632.551	-80.100	-0.300	-0.102
-631.536	87.716	-0.114	-0.128
-630.522	541.011	0.036	-0.086
-629.507	-100.855	0.137	0.034
-628.492	326.584	-0.052	0.100
-627.478	-13.483	0.123	0.080
-626.463	604.147	0.116	-0.290
-625.449	-153.079	0.254	0.018
-624.434	800.000	0.057	0.169
-623.419	316.105	0.122	-0.233
-622.405	46.539	-0.189	0.177
-621.390	-25.746	0.069	-0.041
-620.376	-200.000	-0.014	-0.210
-619.361	800.000	-0.075	0.247
-618.346	390.286	-0.086	0.179
-617.332	-200.000	0.049	-0.367
-616.317	-142.274	0.261	-0.026
-615.303	88.717	-0.092	0.103
-614.288	122.581	-0.173	0.218
-613.273	-200.000	-0.024	0.128
-612.259	-106.589	0.290	0.065
-611.244	317.756	0.084	-0.160
-610.230	-182.298	-0.289	-0.005
-609.215	3.579	-0.092	-0.067
-608.201	-52.143	0.193	0.090
-607.186	575.912	-0.079	-0.193
-606.171	-2.217	0.119	-0.084
-605.157	-6.667	-0.099	-0.068
-604.142	274.901	-0.070	0.124
-603.128	-167.060	-0.243	0.010
-602.113	192.678	0.215	0.327
-601.098	67.213	0.069	0.071
-600.084	-63.158	0.304	0.126
-599.069	692.312	0.027	-0.071
-598.055	117.096	0.237	0.294
-597.040	-9.964	0.330	0.221
-596.025	-127.356	0.049	0.007
-595.011	-68.006	-0.205	-0.080
-593.996	-29.985	-0.282	-0.162
-592.982	-200.000	-0.049	-0.263
-591.967	788.220	0.085	0.236
-590.952	-23.637	0.383	-0.231
-589.938	-5.835	0.073	-0.051
-588.923	-200.000	0.003	0.290
-587.909	-63.358	0.113	0.047
-586.894	-27.139	-0.256	-0.150
-585.879	-96.983	0.163	0.043
-584.865	25.566	-0.130	-0.109
-583.850	-200.000	-0.016	-0.260
-582.836	-26.386	-0.120	-0.071
-581.821	-113.090	0.217	-0.043
-580.806	-39.933	-0.268	0.141
-579.792	-49.987	0.057	-0.027
-578.777	-86.864	0.092	0.028
-577.763	-200.000	0.023	0.191
-576.748	112.835	-0.070	-0.085
-575.733	-200.000	-0.013	0.201
-574.719	-134.203	0.143	0.018
-573.704	800.000	0.053	-0.156
-572.690	-28.257	0.402	0.234
-571.675	-25.031	-0.211	0.126
-570.661	800.000	0.013	0.044
-569.646	95.534	0.156	-0.179
-568.631	-124.383	0.407	0.064
-567.617	177.568	0.029	-0.042
-566.602	30.936	-0.141	0.121
-565.588	-12.290	-0.098	-0.065
-564.573	-135.324	0.361	-0.043
-563.558	85.543	0.075	0.083
-562.544	-200.000	0.037	-0.540
-561.529	407.421	-0.158	-0.337
-560.515	-72.325	0.158	-0.059
-559.500	-128.750	-0.286	0.041
-558.485	169.778	-0.171	0.245
-557.471	-33.191	0.177	0.099
-556.456	349.194	-0.020	-0.039
-555.442	-146.001	0.184	-0.016
-554.427	34.590	-0.131	-0.115
-553.412	-25.964	0.408	0.242
-552.398	-74.831	-0.113	0.041
-551.383	-200.000	-0.017	-0.241
-550.369	-200.000	0.005	0.162
-549.354	800.000	0.048	0.155
-548.339	-200.000	0.012	0.085
-547.325	75.652	-0.180	0.191
-546.310	-183.663	0.176	0.003
-545.296	-85.510	-0.242	0.076
-544.281	-200.000	0.075	0.514
-543.266	251.890	0.141	-0.240
-542.252	-39.813	0.244	-0.128
-541.237	-68.011	-0.191	-0.075
-540.223	101.005	0.036	0.042
-539.208	-116.688	-0.204	0.038
-538.193	-200.000	-0.007	-0.192
-537.179	157.793	0.080	0.111
-536.164	319.105	-0.174	-0.332
-535.150	800.000	-0.072	-0.219
-534.135	94.493	0.051	-0.059
-533.121	800.000	-0.129	0.441
-532.106	-200.000	-0.047	-0.263
-531.091	260.995	0.157	-0.273
-530.077	-96.273	-0.060	0.016
-529.062	11.170	-0.209	0.161
-528.048	0.651	0.230	-0.165
-527.033	-63.614	0.097	0.040
-526.018	10.690	0.247	0.189
-525.004	296.438	-0.059	-0.108
-523.989	192.323	0.039	-0.060
-522.975	-7.398	-0.215	-0.146
-521.960	800.000	0.042	0.136
-520.945	-200.000	-0.008	-0.049
-519.931	733.090	-0.045	-0.120
-518.916	164.492	-0.121	0.171
-517.902	223.634	0.136	0.220
-516.887	800.000	-0.053	0.166
-515.872	12.075	-0.293	-0.226
-514.858	800.000	-0.048	-0.135
-513.843	-156.074	0.277	0.018
-512.829	-200.000	0.032	-0.142
-511.814	-200.000	0.042	-0.338
-510.799	267.573	-0.237	-0.416
-509.785	800.000	-0.062	-0.226
-508.770	-46.613	0.208	0.102
-507.756	-8.528	-0.300	-0.202
-506.741	72.313	0.059	-0.061
-505.726	-81.719	0.425	0.140
-504.712	-51.038	-0.274	-0.129
-503.697	-200.000	-0.014	0.203
-502.683	202.418	0.022	0.035
-501.668	800.000	-0.135	-0.429
-500.653	116.888	-0.238	0.294
-499.639	213.080	0.242	0.383
-498.624	-166.446	0.252	0.011
-497.610	271.122	-0.041	-0.073
-496.595	-125.120	0.198	-0.030
-495.581	-106.794	-0.124	-0.028
-494.566	19.597	0.118	0.095
-493.551	-78.733	-0.161	-0.055
-492.537	-25.909	-0.153	-0.091
-491.522	-200.000	0.006	-0.280
-490.508	-115.511	0.142	-0.027
-489.493	69.393	-0.263	-0.272
-488.478	-42.179	-0.242	-0.124
-487.464	89.258	-0.207	0.231
-486.449	-59.841	-0.262	-0.113
-485.435	149.662	0.074	-0.101
-484.420	236.623	0.210	0.348
-483.405	800.000	0.093	0.257
-482.391	69.928	-0.134	-0.138
-481.376	800.000	0.145	0.499
-480.362	800.000	0.165	-0.562
-479.347	-140.629	-0.111	-0.012
-478.332	-200.000	0.040	0.184
-477.318	-196.073	-0.155	0.001
-476.303	-153.145	0.216	-0.015
-475.289	202.245	0.113	0.174
-474.274	-23.132	0.447	-0.270
-473.259	135.365	-0.060	-0.079
-472.245	121.979	-0.118	0.148
-471.230	5.236	0.190	0.140
-470.216	-200.000	0.040	-0.219
-469.201	800.000	0.159	0.547
-468.186	-146.723	-0.317	0.028
-467.172	38.834	-0.230	-0.206
-466.157	-77.530	-0.385	-0.134
-465.143	209.626	-0.029	0.046
-464.128	414.552	-0.149	0.318
-463.113	-57.641	0.218	0.096
-462.099	255.212	0.040	-0.069
-461.084	108.910	-0.229	0.275
-460.070	321.429	0.004	0.007
-459.055	800.000	-0.051	-0.194
-458.040	-200.000	-0.017	0.173
-457.026	263.019	0.026	0.046
-456.011	-200.000	0.018	-0.232
-454.997	-200.000	-0.008	-0.198
-453.982	34.304	-0.213	0.186
-452.968	-0.449	-0.269	0.191
-451.953	-200.000	0.004	-0.078
-450.938	-200.000	-0.011	0.081
-449.924	-29.102	0.114	-0.066
-448.909	-112.030	0.195	0.039
-447.895	-200.000	0.021	-0.104
-446.880	18.330	0.133	0.107
-445.865	7.528	0.132	-0.099
-444.851	546.343	0.043	-0.103
-443.836	-38.618	-0.233	-0.123
-442.822	800.000	-0.038	-0.106
-441.807	1.238	0.255	0.183
-440.792	-102.409	0.048	-0.012
-439.778	336.939	-0.077	-0.150
-438.763	49.084	-0.002	-0.002
-437.749	-59.690	0.204	0.088
-436.734	-200.000	0.011	-0.162
-435.719	-200.000	-0.063	0.335
-434.705	24.336	-0.145	0.120
-433.690	22.503	-0.228	0.187
-432.676	373.226	-0.204	-0.414
-431.661	3.667	-0.095	0.069
-430.646	667.650	-0.045	0.117
-429.632	-107.949	0.255	0.055
-428.617	176.599	0.102	0.148
-427.603	52.544	0.199	-0.190
-426.588	-122.745	0.053	0.009
-425.573	800.000	-0.102	-0.346
-424.559	329.502	0.061	0.117
-423.544	-200.000	-0.027	-0.193
-422.530	800.000	-0.091	-0.261
-421.515	279.604	0.117	0.210
-420.500	-200.000	-0.033	-0.225
-419.486	172.938	-0.216	-0.311
-418.471	800.000	-0.075	-0.223
-417.457	586.275	0.024	-0.059
-416.442	34.483	0.084	-0.074
-415.428	-11.073	-0.177	0.117
-414.413	187.100	0.063	-0.094
-413.398	-67.866	0.116	-0.045
-412.384	-200.000	0.005	0.028
-411.369	-71.589	-0.239	0.089
-410.355	-51.510	-0.264	0.123
-409.340	-80.706	0.161	-0.053
-408.325	227.553	0.136	0.221
-407.311	-146.889	-0.390	-0.034
-406.296	-200.000	-0.030	-0.407
-405.282	-200.000	-0.022	-0.128
-404.267	29.565	0.113	0.096
-403.252	342.360	-0.164	0.320
-402.238	-57.691	0.110	0.048
-401.223	-78.908	-0.035	-0.012
-400.209	10.583	0.058	0.044
-399.194	99.912	-0.075	-0.087
-398.179	-200.000	-0.011	0.173
-397.165	-101.749	0.153	0.037
-396.150	-82.193	0.320	0.104
-395.136	-200.000	-0.015	-0.115
-394.121	152.213	0.048	0.065
-393.106	-49.681	0.319	-0.152
-392.092	-79.689	-0.210	-0.071
-391.077	-157.844	0.187	0.011
-390.063	-36.212	0.101	0.054
-389.048	163.302	0.185	0.259
-388.033	-200.000	0.009	-0.044
-387.019	-0.698	-0.164	0.116
-386.004	-157.571	-0.086	-0.005
-384.990	-200.000	-0.033	0.212
-383.975	-89.477	-0.136	0.040
-382.960	-115.189	-0.285	0.054
-381.946	-156.049	-0.325	-0.021
-380.931	432.942	-0.127	0.276
-379.917	-25.414	-0.170	-0.100
-378.902	-99.110	0.141	-0.036
-377.888	-200.000	-0.008	0.145
-376.873	164.967	-0.075	-0.105
-375.858	-178.655	-0.159	-0.004
-374.844	-54.858	0.116	-0.052
-373.829	-200.000	0.013	-0.068
-372.815	-16.519	-0.147	0.093
-371.800	-200.000	0.010	0.096
-370.785	-124.017	-0.073	0.011
-369.771	-90.168	-0.172	0.050
-368.756	-47.064	0.153	0.074
-367.742	-178.927	-0.298	0.007
-366.727	-200.000	-0.033	0.169
-365.712	-5.404	-0.125	0.086
-364.698	800.000	0.050	0.171
-363.683	800.000	-0.046	-0.176
-362.669	800.000	-0.088	-0.274
-361.654	-200.000	0.016	0.100
-360.639	-98.067	0.195	0.050
-359.625	-111.581	0.362	0.073
-358.610	-100.554	0.104	-0.026
-357.596	121.935	-0.245	0.305
-356.581	-40.195	-0.082	-0.042
-355.566	-200.000	0.020	-0.303
-354.552	47.379	0.364	-0.339
-353.537	-200.000	0.071	0.333
-352.523	-200.000	0.246	-0.001
-351.508	83.671	0.107	0.117
-350.493	-53.862	0.089	-0.041
-349.479	206.029	0.130	0.202
-348.464	44.208	0.255	-0.233
-347.450	153.548	-0.075	0.103
-346.435	-5.754	-0.255	0.174
-345.420	-200.000	-0.028	0.250
-344.406	-92.942	0.205	-0.057
-343.391	-55.107	-0.419	-0.188
-342.377	40.015	0.225	0.202
-341.362	-143.018	0.227	0.022
-340.348	294.590	-0.158	-0.288
-339.333	-149.578	-0.135	-0.011
-338.318	-15.627	-0.140	0.089
-337.304	-111.833	-0.281	-0.057
-336.289	205.494	-0.107	0.166
-335.275	-200.000	-0.039	0.198
-334.260	43.387	-0.251	-0.229
-333.245	-110.821	0.093	0.019
-332.231	-200.000	0.014	0.266
-331.216	742.412	-0.056	-0.150
-330.202	800.000	0.057	-0.233
-329.187	766.979	0.062	-0.167
-328.172	66.973	0.108	-0.110
-327.158	-200.000	0.005	-0.022
-326.143	-73.286	-0.173	-0.063
-325.129	99.657	-0.220	0.254
-324.114	800.000	0.100	0.283
-323.099	-74.654	-0.159	-0.057
-322.085	-200.000	-0.018	-0.194
-321.070	-200.000	-0.032	-0.269
-320.056	92.045	-0.220	-0.247
-319.041	-78.590	0.150	0.051
-318.026	0.350	-0.239	0.170
-317.012	-200.000	-0.029	0.148
-315.997	-50.477	0.271	0.127
-314.983	189.362	0.180	0.269
-313.968	120.326	-0.242	0.299
-312.953	800.000	0.089	0.276
-311.939	127.298	0.223	-0.281
-310.924	393.891	0.081	-0.167
-309.910	-34.798	-0.044	0.024
-308.895	-171.852	0.322	-0.010
-307.880	103.854	-0.027	0.032
-306.866	24.801	-0.277	-0.229
-305.851	78.595	0.095	0.101
-304.837	153.029	-0.116	0.158
-303.822	-200.000	-0.017	-0.076
-302.807	-180.023	-0.290	0.006
-301.793	-73.955	0.075	-0.027
-300.778	31.317	0.052	0.045
-299.764	198.338	0.127	-0.193
-298.749	170.512	0.231	0.329
-297.735	800.000	-0.036	-0.103
-296.720	98.588	-0.162	-0.186
-295.705	-102.403	0.150	-0.036
-294.691	-72.272	0.204	0.075
-293.676	8.287	-0.231	0.173
-292.662	-200.000	0.075	0.369
-291.647	-111.457	0.123	0.025
-290.632	-200.000	-0.085	-0.437
-289.618	-7.656	-0.085	-0.057
-288.603	-74.144	0.206	-0.074
-287.589	298.816	0.061	0.111
-286.574	800.000	-0.136	-0.508
-285.559	-200.000	0.036	-0.297
-284.545	-39.729	0.132	0.069
-283.530	800.000	0.141	0.408
-282.516	-88.010	-0.390	0.116
-281.501	-82.399	-0.040	0.013
-280.486	-97.547	-0.036	0.009
-279.472	73.074	0.258	-0.268
-278.457	-41.427	-0.159	-0.082
-277.443	-200.000	0.023	-0.218
-276.428	10.399	-0.150	0.113
-275.413	800.000	0.100	0.315
-274.399	3.377	-0.306	0.221
-273.384	-83.462	0.427	0.136
-272.370	306.206	-0.024	-0.044
-271.355	-108.647	-0.190	0.041
-270.340	490.413	-0.081	-0.185
-269.326	145.581	-0.072	-0.096
-268.311	4.244	-0.118	-0.086
-267.297	-34.906	0.208	-0.113
-266.282	135.303	0.187	0.242
-265.267	-3.132	-0.145	-0.100
-264.253	800.000	-0.048	-0.202
-263.238	-0.542	0.133	0.094
-262.224	-189.329	0.198	-0.002
-261.209	-6.961	0.044	0.030
-260.195	115.570	0.135	-0.164
-259.180	241.290	0.048	-0.079
-258.165	381.921	0.039	0.080
-257.151	-107.252	-0.365	0.080
-256.136	315.478	-0.048	0.089
-255.122	-119.824	0.405	-0.069
-254.107	-168.991	-0.338	-0.013
-253.092	48.610	-0.026	0.024
-252.078	102.016	0.257	-0.298
-251.063	124.337	0.065	0.082
-250.049	-31.758	0.195	0.109
-249.034	-200.000	0.019	0.130
-248.019	731.071	-0.127	0.336
-247.005	59.434	-0.292	0.286
-245.990	-200.000	-0.022	-0.196
-244.976	-73.317	-0.290	-0.105
-243.961	20.490	-0.170	0.137
-242.946	-200.000	-0.054	-0.417
-241.932	-200.000	-0.000	0.072
-240.917	-90.031	-0.023	0.007
-239.903	34.894	-0.102	-0.088
-238.888	-200.000	-0.033	-0.427
-237.873	64.467	-0.202	0.202
-236.859	-18.208	0.222	-0.138
-235.844	-200.000	0.009	-0.068
-234.830	42.852	-0.389	-0.352
-233.815	-47.805	-0.043	-0.021
-232.800	67.346	0.171	0.173
-231.786	66.014	0.223	-0.225
-230.771	-3.764	0.041	-0.028
-229.757	-45.255	0.335	-0.165
-228.742	-200.000	-0.031	0.178
-227.727	246.268	-0.069	-0.116
-226.713	800.000	-0.024	0.068
-225.698	-93.186	0.118	-0.033
-224.684	-34.148	-0.481	-0.262
-223.669	52.777	0.139	-0.132
-222.655	219.829	0.021	-0.034
-221.640	-148.550	-0.407	0.033
-220.625	-24.307	-0.324	0.192
-219.611	-122.634	0.283	-0.045
-218.596	-50.991	0.194	0.091
-217.582	74.172	-0.131	0.137
-216.567	688.374	0.065	0.170
-215.552	119.299	0.028	0.035
-214.538	105.475	-0.102	0.120
-213.523	-15.035	0.163	-0.103
-212.509	-79.665	-0.162	0.054
-211.494	-30.881	-0.074	0.041
-210.479	-33.312	0.398	-0.219
-209.465	800.000	-0.069	-0.235
-208.450	15.499	-0.191	-0.149
-207.436	-101.816	0.068	-0.016
-206.421	8.864	-0.131	-0.098
-205.406	272.415	-0.072	-0.126
-204.392	-65.498	-0.122	0.048
-203.377	-69.756	0.076	-0.029
-202.363	800.000	-0.079	0.311
-201.348	192.416	-0.060	-0.090
-200.333	7.237	-0.087	0.065
-199.319	800.000	-0.041	-0.143
-198.304	-46.436	-0.156	0.076
-197.290	-101.053	0.039	0.009
-196.275	-200.000	0.001	0.351
-195.260	-57.538	0.065	0.028
-194.246	-41.107	0.184	0.094
-193.231	-200.000	-0.000	0.198
-192.217	-53.921	0.174	0.079
-191.202	800.000	0.067	-0.260
-190.187	-200.000	-0.065	0.294
-189.173	-92.066	-0.111	0.031
-188.158	31.555	-0.143	0.122
-187.144	800.000	0.124	0.386
-186.129	800.000	-0.058	-0.195
-185.114	-35.446	0.056	0.030
-184.100	664.888	-0.251	-0.642
-183.085	-74.268	0.106	0.038
-182.071	413.705	-0.096	0.203
-181.056	-200.000	-0.007	0.196
-180.042	163.413	-0.126	0.176
-179.027	405.804	0.087	0.182
-178.012	-55.325	0.174	-0.077
-176.998	-117.649	0.039	0.007
-175.983	-76.485	0.380	-0.132
-174.969	-58.096	0.367	-0.158
-173.954	-200.000	0.012	-0.277
-172.939	-200.000	0.002	-0.135
-171.925	-200.000	-0.023	-0.343
-170.910	115.808	0.170	-0.206
-169.896	800.000	-0.094	-0.339
-168.881	4.899	0.173	0.126
-167.866	70.334	0.336	0.344
-166.852	-52.031	0.089	0.041
-165.837	-131.752	-0.125	-0.016
-164.823	331.631	0.056	0.107
-163.808	-167.392	0.151	-0.006
-162.793	35.646	-0.092	0.080
-161.779	-142.720	-0.311	0.030
-160.764	800.000	-0.053	0.167
-159.750	800.000	0.045	0.167
-158.735	-159.099	-0.155	0.009
-157.720	185.997	0.202	0.298
-156.706	663.024	0.038	0.097
-155.691	222.694	0.030	-0.049
-154.677	-33.341	-0.172	0.094
-153.662	35.335	0.220	-0.191
-152.647	-200.000	-0.059	0.339
-151.633	640.473	0.149	0.375
-150.618	-200.000	-0.225	-0.001
-149.604	198.289	0.129	-0.196
-148.589	-67.744	0.344	-0.133
-147.574	-6.342	-0.083	0.056
-146.560	12.584	-0.042	-0.032
-145.545	283.718	-0.154	-0.274
-144.531	-12.426	0.203	0.131
-143.516	-200.000	-0.038	-0.227
-142.502	74.888	0.127	-0.133
-141.487	714.092	0.115	-0.302
-140.472	-79.434	0.369	0.124
-139.458	-200.000	0.040	0.282
-138.443	188.700	-0.076	0.112
-137.429	604.646	0.096	-0.236
-136.414	99.507	0.226	0.259
-135.399	-38.945	0.407	-0.212
-134.385	228.162	0.123	0.198
-133.370	39.837	-0.131	0.116
-132.356	241.125	0.075	0.124
-131.341	50.008	-0.113	-0.106
-130.326	40.205	-0.108	-0.096
-129.312	41.050	0.032	0.028
-128.297	-200.000	-0.019	0.189
-127.283	27.085	0.155	0.129
-126.268	-154.542	-0.407	0.027
-125.253	-136.510	-0.201	0.023
-124.239	353.599	-0.109	0.213
-123.224	158.291	-0.194	-0.267
-122.210	-92.343	0.204	0.057
-121.195	79.805	0.201	-0.214
-120.180	800.000	-0.013	0.044
