DTS Sentinel unit serial number:	SN413079Multiplexer serial number:	ORYXHardware model number:	OX4-SRSoftware version number:	ORYX F/W v4.00 Oryx Data Collector v3.7.2.0data status	okinstallation	princeton_trtdifferential loss correction	single-endedforward channel	channel 3reverse channel	N/Adate	2019/09/15time	13:20:35forward acquisition time	60.00reverse acquisition time	0.00gamma	496.2192k internal	0.2294k external	0.2294temperature offset calibration	0.9962default loss term (dB/km)	0.3790temperature slope calibration	1.0000multiplexer offset coefficient	1.0000multiplexer slope coefficient	1.0000fibre end	0.00T internal ref (°C)	37.27T ext. ref 1 (°C)	4.93T ext. ref 2 (°C)	34.29length (m)	temperature (°C)	Stokes	anti-Stokes-747.200	-118.237	-0.175	-0.032
-746.185	75.015	0.135	0.145
-745.171	-200.000	-0.005	-0.040
-744.156	-18.589	-0.395	0.252
-743.142	-161.296	-0.240	-0.013
-742.127	-95.041	-0.245	0.068
-741.112	-132.585	-0.101	-0.013
-740.098	104.415	0.118	0.142
-739.083	-62.901	0.171	-0.072
-738.069	-188.830	0.347	0.004
-737.054	276.713	0.108	0.197
-736.039	15.449	0.309	-0.248
-735.025	127.970	0.190	0.247
-734.010	800.000	-0.042	-0.143
-732.996	-29.016	-0.189	0.111
-731.981	-200.000	0.018	0.141
-730.966	7.191	-0.203	0.155
-729.952	-137.238	-0.137	-0.016
-728.937	50.116	-0.101	-0.098
-727.923	250.451	0.098	0.169
-726.908	280.583	0.165	-0.301
-725.894	-133.555	0.093	0.012
-724.879	111.643	-0.169	0.208
-723.864	-112.568	0.077	-0.016
-722.850	166.407	0.078	0.113
-721.835	-136.177	0.078	0.009
-720.821	-82.070	-0.304	-0.101
-719.806	-164.501	0.456	-0.021
-718.791	350.214	-0.196	-0.395
-717.777	121.725	-0.170	-0.216
-716.762	-200.000	0.076	-0.378
-715.748	-5.200	0.226	-0.158
-714.733	123.654	0.134	0.172
-713.718	-139.753	-0.152	-0.016
-712.704	-28.941	0.155	0.091
-711.689	-133.055	-0.181	0.023
-710.675	-137.089	0.485	-0.057
-709.660	41.801	-0.058	0.054
-708.645	316.464	-0.124	-0.239
-707.631	-151.097	-0.246	-0.019
-706.616	330.179	-0.163	-0.320
-705.602	553.916	-0.084	-0.206
-704.587	-200.000	-0.013	0.263
-703.572	-200.000	0.008	0.227
-702.558	-82.456	-0.231	0.077
-701.543	-117.300	-0.197	0.037
-700.529	662.018	0.054	-0.141
-699.514	168.075	-0.078	-0.114
-698.499	-200.000	-0.005	-0.395
-697.485	800.000	-0.028	-0.112
-696.470	-160.639	0.209	-0.011
-695.456	512.925	-0.150	0.356
-694.441	283.648	-0.145	-0.266
-693.426	-78.389	0.393	-0.138
-692.412	800.000	-0.014	0.042
-691.397	-160.561	-0.376	0.021
-690.383	-81.680	-0.260	-0.087
-689.368	341.621	-0.094	0.187
-688.354	-200.000	-0.105	-0.484
-687.339	-179.925	0.062	0.001
-686.324	451.092	-0.142	-0.319
-685.310	275.511	0.066	0.119
-684.295	-71.347	0.074	-0.028
-683.281	-112.040	-0.094	-0.019
-682.266	-200.000	-0.010	-0.148
-681.251	62.170	-0.050	0.051
-680.237	113.833	0.237	-0.293
-679.222	143.400	-0.175	0.238
-678.208	800.000	-0.069	-0.240
-677.193	30.909	0.147	-0.129
-676.178	-200.000	-0.041	-0.252
-675.164	-42.783	0.199	0.103
-674.149	-95.463	-0.025	0.007
-673.135	179.618	0.075	-0.112
-672.120	-5.941	-0.206	0.144
-671.105	198.011	-0.249	0.388
-670.091	73.843	-0.047	0.050
-669.076	-122.282	-0.304	-0.051
-668.062	-200.000	-0.036	-0.311
-667.047	112.954	-0.105	0.130
-666.032	-80.285	-0.024	0.008
-665.018	-200.000	-0.009	0.164
-664.003	529.464	-0.120	0.288
-662.989	-143.187	-0.223	0.022
-661.974	386.189	0.083	-0.176
-660.959	-85.511	0.287	-0.091
-659.945	-90.331	-0.031	0.009
-658.930	158.770	0.170	-0.240
-657.916	-79.886	0.188	-0.064
-656.901	66.128	-0.069	0.071
-655.886	121.166	-0.211	0.268
-654.872	-200.000	0.011	-0.174
-653.857	-186.400	0.248	0.004
-652.843	-190.689	0.234	0.003
-651.828	800.000	-0.075	0.241
-650.814	800.000	-0.077	-0.243
-649.799	-14.719	-0.143	-0.093
-648.784	-117.873	-0.199	0.036
-647.770	26.577	-0.047	0.040
-646.755	631.294	-0.064	-0.164
-645.741	-200.000	0.025	-0.206
-644.726	-118.614	-0.124	0.022
-643.711	800.000	-0.074	-0.247
-642.697	31.959	0.114	0.100
-641.682	171.029	0.034	-0.050
-640.668	-200.000	0.033	0.175
-639.653	-111.380	0.554	-0.115
-638.638	-140.291	-0.210	-0.022
-637.624	-89.869	-0.176	-0.052
-636.609	800.000	0.053	0.203
-635.595	307.524	-0.112	-0.212
-634.580	-70.886	0.309	-0.119
-633.565	-120.153	0.142	0.025
-632.551	-87.764	-0.252	-0.077
-631.536	-57.073	0.469	-0.211
-630.522	-174.906	-0.192	-0.005
-629.507	358.225	0.039	-0.079
-628.492	-200.000	0.011	-0.297
-627.478	-200.000	0.031	-0.210
-626.463	163.559	-0.150	-0.215
-625.449	-35.564	-0.256	-0.141
-624.434	300.878	-0.118	-0.222
-623.419	223.918	0.105	0.173
-622.405	-133.182	0.041	-0.005
-621.390	-93.516	0.078	0.022
-620.376	-174.171	0.155	-0.005
-619.361	-104.110	0.327	-0.077
-618.346	546.897	-0.041	-0.100
-617.332	-200.000	-0.004	-0.401
-616.317	-20.314	-0.094	-0.059
-615.303	249.168	-0.071	-0.122
-614.288	397.303	0.033	0.071
-613.273	-26.864	0.148	-0.088
-612.259	30.680	-0.201	-0.175
-611.244	800.000	0.063	0.213
-610.230	800.000	-0.088	0.337
-609.215	233.877	-0.139	0.233
-608.201	298.542	-0.125	0.234
-607.186	400.351	0.068	0.146
-606.171	178.267	0.141	0.210
-605.157	-200.000	-0.005	-0.389
-604.142	-115.236	0.131	-0.025
-603.128	-80.805	-0.229	-0.077
-602.113	-28.131	0.146	0.086
-601.098	-13.382	-0.062	0.041
-600.084	-200.000	-0.009	0.114
-599.069	-141.787	0.286	0.029
-598.055	-5.318	-0.050	-0.035
-597.040	-40.600	0.236	0.125
-596.025	-43.871	-0.292	-0.149
-595.011	-136.341	0.200	0.024
-593.996	169.374	-0.033	-0.049
-592.982	-12.635	0.094	0.062
-591.967	-69.994	-0.331	-0.128
-590.952	800.000	0.009	0.040
-589.938	-84.154	0.020	0.007
-588.923	-60.059	-0.021	0.009
-587.909	283.154	0.026	-0.048
-586.894	-27.010	0.102	-0.060
-585.879	580.016	-0.117	0.291
-584.865	777.522	-0.073	0.204
-583.850	800.000	-0.029	-0.124
-582.836	-67.389	-0.084	-0.033
-581.821	800.000	-0.051	-0.168
-580.806	707.923	0.089	-0.239
-579.792	-77.341	-0.065	0.023
-578.777	14.059	-0.223	-0.177
-577.763	800.000	-0.024	0.082
-576.748	-200.000	0.043	0.335
-575.733	305.004	0.065	0.123
-574.719	-56.269	0.038	0.017
-573.704	145.647	-0.183	-0.250
-572.690	-78.087	0.398	-0.139
-571.675	23.636	0.167	-0.139
-570.661	309.687	0.057	-0.108
-569.646	-200.000	0.014	-0.375
-568.631	-69.735	-0.177	-0.069
-567.617	0.468	0.143	-0.104
-566.602	-200.000	-0.056	0.249
-565.588	-200.000	0.016	0.321
-564.573	-124.429	-0.308	-0.049
-563.558	19.628	-0.291	-0.238
-562.544	73.704	0.278	-0.296
-561.529	-127.604	0.383	-0.056
-560.515	-200.000	-0.007	-0.106
-559.500	-200.000	0.000	0.307
-558.485	-27.157	0.240	-0.142
-557.471	-148.061	-0.259	-0.022
-556.456	-3.174	-0.309	0.219
-555.442	17.284	0.064	-0.052
-554.427	800.000	0.081	-0.319
-553.412	75.132	-0.055	-0.058
-552.398	-200.000	0.001	-0.293
-551.383	-180.934	0.079	-0.002
-550.369	1.992	0.240	-0.176
-549.354	15.087	0.101	-0.080
-548.339	22.563	-0.134	-0.111
-547.325	-114.438	-0.130	0.025
-546.310	-174.638	-0.178	-0.005
-545.296	-119.801	-0.149	-0.026
-544.281	14.179	0.192	0.152
-543.266	-200.000	-0.061	0.315
-542.252	5.368	0.291	0.218
-541.237	91.290	0.061	0.070
-540.223	-120.329	-0.176	-0.030
-539.208	-82.631	0.065	-0.021
-538.193	489.133	-0.169	0.391
-537.179	-166.826	0.374	0.016
-536.164	289.421	0.042	0.078
-535.150	-125.777	0.269	0.041
-534.135	-145.240	0.248	0.023
-533.121	86.015	-0.202	0.225
-532.106	-5.573	0.260	-0.181
-531.091	90.022	-0.090	-0.102
-530.077	16.812	-0.248	0.199
-529.062	800.000	0.057	0.186
-528.048	28.974	0.166	0.143
-527.033	74.515	0.068	-0.072
-526.018	-200.000	0.002	-0.042
-525.004	-200.000	0.064	-0.321
-523.989	-200.000	0.029	-0.335
-522.975	320.967	0.130	-0.250
-521.960	22.957	-0.204	0.170
-520.945	44.586	0.298	-0.278
-519.931	-10.671	-0.428	-0.287
-518.916	80.355	-0.258	-0.282
-517.902	-53.467	-0.171	0.079
-516.887	-200.000	-0.007	0.151
-515.872	-62.059	-0.180	-0.076
-514.858	550.357	0.031	-0.076
-513.843	17.456	0.403	0.324
-512.829	-135.548	0.025	0.003
-511.814	-130.370	0.353	-0.049
-510.799	167.977	-0.220	0.317
-509.785	-98.831	-0.313	-0.081
-508.770	-120.162	0.261	-0.045
-507.756	272.814	0.047	-0.085
-506.741	104.743	0.128	0.153
-505.726	-39.170	0.123	-0.065
-504.712	50.292	-0.164	-0.157
-503.697	-200.000	0.034	-0.215
-502.683	-41.304	-0.131	0.068
-501.668	-7.017	-0.273	-0.188
-500.653	605.244	-0.119	-0.301
-499.639	165.824	0.080	-0.115
-498.624	234.130	0.155	0.259
-497.610	-200.000	0.271	-0.000
-496.595	-118.254	-0.066	-0.012
-495.581	28.897	-0.066	0.057
-494.566	800.000	-0.025	-0.090
-493.551	-56.244	0.352	-0.159
-492.537	-200.000	-0.056	-0.257
-491.522	-168.180	0.135	-0.005
-490.508	-72.113	0.091	0.034
-489.493	-200.000	-0.022	-0.255
-488.478	-65.562	0.117	0.048
-487.464	-90.917	-0.240	0.070
-486.449	-200.000	-0.046	0.224
-485.435	-109.738	-0.178	-0.038
-484.420	175.392	0.133	-0.195
-483.405	-87.761	0.068	-0.021
-482.391	-77.071	0.165	-0.058
-481.376	-151.833	0.307	-0.023
-480.362	64.364	-0.219	-0.223
-479.347	199.575	0.178	-0.277
-478.332	800.000	-0.023	-0.085
-477.318	231.548	0.117	0.195
-476.303	13.138	0.193	-0.151
-475.289	-75.519	0.065	-0.024
-474.274	393.345	-0.127	-0.267
-473.259	-142.369	0.092	-0.009
-472.245	144.216	-0.178	-0.241
-471.230	14.744	0.211	0.167
-470.216	-33.758	-0.197	0.110
-469.201	27.310	0.216	0.184
-468.186	-161.823	0.269	0.014
-467.172	194.074	-0.138	-0.212
-466.157	-200.000	0.044	0.199
-465.143	43.135	0.168	-0.155
-464.128	800.000	-0.065	0.232
-463.113	6.176	-0.108	0.081
-462.099	178.214	0.172	0.253
-461.084	547.511	-0.067	-0.162
-460.070	-81.379	0.301	0.100
-459.055	156.502	0.066	-0.092
-458.040	-200.000	-0.001	-0.226
-457.026	239.958	-0.112	0.189
-456.011	284.153	-0.006	0.011
-454.997	190.069	0.145	-0.219
-453.982	254.471	0.099	-0.172
-452.968	10.158	-0.374	0.287
-451.953	800.000	0.047	0.142
-450.938	-170.348	0.111	-0.004
-449.924	119.379	-0.245	0.307
-448.909	-99.313	0.248	-0.063
-447.895	387.368	0.097	0.203
-446.880	46.042	-0.139	0.130
-445.865	231.773	-0.037	0.061
-444.851	-99.754	-0.290	-0.073
-443.836	296.640	-0.192	0.356
-442.822	14.481	0.323	0.255
-441.807	107.536	0.120	-0.144
-440.792	-126.480	0.225	-0.034
-439.778	94.020	0.269	0.308
-438.763	-200.000	0.009	0.251
-437.749	191.412	0.019	-0.028
-436.734	580.304	0.129	0.318
-435.719	757.887	-0.092	0.252
-434.705	-113.643	-0.114	-0.023
-433.690	800.000	0.048	-0.176
-432.676	266.984	0.043	-0.076
-431.661	385.518	0.116	0.242
-430.646	-46.338	0.120	0.059
-429.632	73.749	0.041	-0.043
-428.617	-82.727	-0.188	-0.061
-427.603	266.395	-0.084	-0.147
-426.588	800.000	-0.043	-0.119
-425.573	-101.259	0.220	0.054
-424.559	418.480	-0.201	0.433
-423.544	-154.280	0.384	-0.026
-422.530	-164.456	-0.257	-0.012
-421.515	-200.000	-0.057	-0.365
-420.500	57.940	0.218	-0.216
-419.486	88.920	0.187	-0.211
-418.471	27.893	-0.194	0.165
-417.457	366.313	-0.229	0.466
-416.442	164.941	-0.135	0.192
-415.428	-200.000	-0.004	0.049
-414.413	-200.000	-0.035	-0.295
-413.398	224.650	-0.101	0.164
-412.384	131.720	0.266	0.345
-411.369	20.783	-0.243	0.198
-410.355	-121.349	-0.154	-0.026
-409.340	-40.130	-0.229	-0.120
-408.325	0.330	-0.087	-0.063
-407.311	259.746	-0.185	0.322
-406.296	-200.000	-0.012	-0.255
-405.282	149.834	0.105	-0.143
-404.267	699.626	0.130	0.345
-403.252	-24.099	0.072	0.044
-402.238	51.147	0.087	-0.083
-401.223	12.158	-0.301	0.234
-400.209	485.767	-0.046	-0.106
-399.194	-200.000	-0.000	-0.068
-398.179	-200.000	0.004	0.067
-397.165	800.000	-0.035	0.127
-396.150	-36.456	-0.040	0.022
-395.136	-200.000	0.025	-0.172
-394.121	184.576	-0.106	-0.159
-393.106	7.611	0.070	0.053
-392.092	-200.000	0.028	-0.238
-391.077	-52.789	0.019	-0.009
-390.063	504.743	0.064	-0.149
-389.048	357.911	-0.054	0.109
-388.033	74.672	-0.148	0.157
-387.019	-133.953	-0.303	-0.038
-386.004	762.316	-0.071	-0.194
-384.990	91.915	-0.070	-0.080
-383.975	-200.000	-0.002	0.166
-382.960	-141.210	-0.105	-0.011
-381.946	50.225	-0.113	0.107
-380.931	181.934	0.115	-0.171
-379.917	-32.049	-0.335	-0.189
-378.902	696.747	0.118	-0.313
-377.888	-81.139	-0.207	0.069
-376.873	38.366	0.153	-0.137
-375.858	-200.000	-0.021	0.169
-374.844	-52.865	0.214	-0.100
-373.829	-36.456	-0.138	0.075
-372.815	-200.000	-0.051	0.233
-371.800	-32.897	-0.170	0.095
-370.785	38.561	-0.107	0.096
-369.771	139.328	0.019	0.025
-368.756	-115.426	-0.464	-0.088
-367.742	368.284	0.063	-0.128
-366.727	-50.608	-0.185	-0.088
-365.712	12.123	-0.124	-0.096
-364.698	-200.000	-0.012	0.115
-363.683	-116.388	-0.374	-0.070
-362.669	-200.000	-0.002	0.144
-361.654	-200.000	-0.023	0.500
-360.639	-112.559	-0.425	0.085
-359.625	-167.260	-0.130	-0.005
-358.610	-97.936	0.051	-0.013
-357.596	-102.401	-0.121	-0.029
-356.581	-77.010	-0.242	-0.085
-355.566	-52.215	-0.174	-0.081
-354.552	140.973	0.080	0.106
-353.537	167.187	-0.032	-0.046
-352.523	-200.000	0.011	0.127
-351.508	-77.362	0.061	-0.021
-350.493	217.125	0.217	-0.348
-349.479	173.603	-0.052	0.075
-348.464	61.939	-0.199	-0.199
-347.450	-43.019	-0.106	0.054
-346.435	-31.127	0.177	0.100
-345.420	293.566	0.184	0.338
-344.406	15.278	-0.201	0.158
-343.391	-86.659	-0.312	-0.096
-342.377	-112.342	-0.138	-0.028
-341.362	-200.000	-0.023	-0.108
-340.348	735.049	0.033	0.090
-339.333	-47.004	-0.278	0.137
-338.318	800.000	0.030	-0.115
-337.304	800.000	0.083	0.280
-336.289	0.317	-0.124	-0.089
-335.275	253.315	0.061	-0.105
-334.260	105.440	-0.126	0.149
-333.245	5.031	0.229	0.170
-332.231	-6.596	-0.133	0.091
-331.216	403.132	0.095	-0.201
-330.202	270.300	0.121	0.215
-329.187	-131.480	0.269	0.036
-328.172	-200.000	0.018	-0.329
-327.158	-122.056	-0.099	-0.016
-326.143	110.404	-0.061	0.074
-325.129	-86.219	-0.303	-0.094
-324.114	-28.541	-0.334	-0.194
-323.099	-145.916	-0.079	-0.007
-322.085	77.417	-0.040	-0.042
-321.070	-36.196	-0.113	0.061
-320.056	-147.020	0.176	-0.015
-319.041	24.038	-0.213	-0.177
-318.026	800.000	-0.076	0.310
-317.012	-78.609	0.135	0.047
-315.997	-200.000	-0.019	-0.214
-314.983	-113.497	-0.254	0.050
-313.968	-200.000	0.050	0.248
-312.953	-55.280	-0.155	0.070
-311.939	368.206	-0.126	-0.256
-310.924	-200.000	-0.042	-0.222
-309.910	-8.510	0.329	-0.222
-308.895	-147.487	-0.088	0.007
-307.880	153.682	0.087	-0.120
-306.866	154.648	0.068	0.094
-305.851	-18.403	0.358	0.225
-304.837	-92.058	-0.217	-0.062
-303.822	-77.659	0.124	0.043
-302.807	-69.374	0.048	0.018
-301.793	-182.842	0.321	0.006
-300.778	-103.673	0.106	-0.025
-299.764	-61.225	-0.381	0.161
-298.749	-25.011	0.209	-0.125
-297.735	29.605	0.080	0.068
-296.720	478.360	0.035	-0.081
-295.705	631.954	0.063	0.161
-294.691	478.479	-0.186	0.423
-293.676	-93.733	0.104	-0.029
-292.662	-70.757	0.122	0.046
-291.647	59.312	-0.230	0.228
-290.632	89.815	0.156	-0.175
-289.618	-27.139	-0.218	0.127
-288.603	9.420	0.149	0.113
-287.589	116.271	0.185	0.228
-286.574	50.596	0.252	-0.239
-285.559	625.266	0.115	-0.292
-284.545	-107.504	-0.181	-0.040
-283.530	719.827	-0.045	-0.121
-282.516	-114.726	0.264	-0.051
-281.501	-12.292	0.129	-0.085
-280.486	-200.000	-0.047	0.320
-279.472	-149.696	0.139	-0.011
-278.457	-181.871	-0.112	0.002
-277.443	-100.980	-0.039	0.010
-276.428	-117.693	-0.086	0.016
-275.413	-112.222	0.211	-0.043
-274.399	-21.286	0.145	-0.089
-273.384	11.428	-0.462	0.355
-272.370	-200.000	0.009	0.084
-271.355	369.678	0.101	-0.205
-270.340	90.747	0.031	0.035
-269.326	-200.000	-0.033	0.372
-268.311	97.553	0.076	-0.087
-267.297	-93.337	0.193	0.054
-266.282	800.000	0.046	-0.132
-265.267	425.799	0.105	0.227
-264.253	165.992	-0.112	-0.159
-263.238	-11.661	0.080	-0.053
-262.224	433.006	0.103	0.225
-261.209	-200.000	-0.010	-0.151
-260.195	-200.000	-0.012	-0.436
-259.180	-158.699	0.214	-0.012
-258.165	135.200	-0.189	-0.247
-257.151	-65.943	0.129	0.052
-256.136	800.000	-0.016	-0.046
-255.122	99.600	0.077	0.089
-254.107	220.870	0.036	0.058
-253.092	-200.000	-0.034	-0.250
-252.078	-42.401	0.217	0.111
-251.063	236.398	-0.140	-0.232
-250.049	-18.040	0.081	0.051
-249.034	-51.725	0.136	0.063
-248.019	416.159	0.140	0.300
-247.005	153.967	0.105	0.145
-245.990	264.831	-0.115	0.202
-244.976	40.053	0.099	0.089
-243.961	16.789	-0.338	-0.268
-242.946	579.519	0.096	0.236
-241.932	-85.774	0.387	-0.120
-240.917	800.000	0.040	-0.169
-239.903	800.000	-0.066	0.241
-238.888	485.871	0.040	-0.091
-237.873	-127.673	-0.056	-0.008
-236.859	-69.424	0.071	0.027
-235.844	-68.370	-0.246	-0.096
-234.830	8.657	-0.511	0.386
-233.815	800.000	0.066	0.275
-232.800	96.965	0.091	0.104
-231.786	194.724	0.209	0.317
-230.771	-5.612	-0.210	-0.144
-229.757	-79.646	-0.081	0.028
-228.742	-147.231	-0.211	0.018
-227.727	-85.209	-0.167	-0.052
-226.713	19.977	-0.219	-0.177
-225.698	259.034	-0.093	-0.160
-224.684	-107.052	0.164	-0.036
-223.669	22.206	0.036	-0.029
-222.655	107.129	0.256	0.305
-221.640	621.487	0.120	0.304
-220.625	-153.181	0.214	-0.015
-219.611	545.659	0.073	0.175
-218.596	22.852	0.040	-0.033
-217.582	188.154	-0.137	-0.206
-216.567	74.212	-0.091	0.096
-215.552	188.155	0.106	-0.159
-214.538	800.000	0.057	0.207
-213.523	800.000	-0.024	0.104
-212.509	110.846	-0.179	0.216
-211.494	-30.412	-0.127	0.072
-210.479	-82.945	-0.105	0.034
-209.465	-26.820	0.106	0.062
-208.450	800.000	0.119	-0.407
-207.436	162.812	-0.104	-0.147
-206.421	-126.709	-0.379	-0.056
-205.406	86.660	-0.048	0.053
-204.392	72.937	0.043	0.045
-203.377	-129.241	0.200	-0.028
-202.363	166.168	-0.140	0.199
-201.348	800.000	0.060	0.179
-200.333	-29.899	0.125	-0.072
-199.319	251.611	0.102	0.174
-198.304	-57.250	-0.269	0.119
-197.290	-45.992	-0.263	0.130
-196.275	-111.899	0.067	0.014
-195.260	371.232	-0.070	0.142
-194.246	-200.000	0.023	-0.171
-193.231	-5.354	-0.330	-0.227
-192.217	800.000	0.086	-0.241
-191.202	-129.772	-0.211	-0.029
-190.187	-46.041	-0.340	0.168
-189.173	-167.206	0.273	-0.011
-188.158	-200.000	0.080	-0.381
-187.144	-200.000	0.036	0.376
-186.129	-12.474	-0.204	-0.133
-185.114	-3.279	-0.122	0.085
-184.100	87.182	-0.118	0.130
-183.085	-113.767	-0.089	0.017
-182.071	-52.199	0.255	-0.119
-181.056	110.890	0.044	0.053
-180.042	-87.069	0.224	0.068
-179.027	-105.764	0.300	-0.068
-178.012	-124.593	0.424	0.066
-176.998	-70.677	0.165	0.062
-175.983	198.206	-0.023	-0.035
-174.969	800.000	0.062	-0.216
-173.954	-200.000	0.010	-0.091
-172.939	-12.976	-0.072	-0.047
-171.925	-162.842	0.235	0.011
-170.910	-110.720	0.117	-0.024
-169.896	-79.339	0.259	0.088
-168.881	600.123	0.076	-0.188
-167.866	15.483	0.111	0.087
-166.852	122.883	-0.207	-0.259
-165.837	-38.578	-0.109	-0.058
-164.823	159.974	0.087	0.122
-163.808	-126.426	0.434	-0.065
-162.793	179.594	-0.266	0.390
-161.779	-200.000	0.025	-0.118
-160.764	-25.963	0.106	-0.062
-159.750	800.000	0.133	-0.437
-158.735	189.839	-0.275	0.412
-157.720	208.867	0.056	0.088
-156.706	339.214	0.163	0.317
-155.691	163.842	0.136	-0.191
-154.677	-56.928	-0.166	0.073
-153.662	-200.000	0.001	0.166
-152.647	-200.000	-0.003	0.084
-151.633	683.279	-0.103	-0.268
-150.618	800.000	0.026	-0.086
-149.604	219.895	-0.141	0.225
-148.589	-21.723	-0.195	0.119
-147.574	-200.000	-0.282	-0.001
-146.560	57.894	0.206	-0.202
-145.545	-167.676	-0.176	-0.007
-144.531	-85.254	0.528	-0.165
-143.516	13.785	0.056	0.044
-142.502	-23.082	0.187	0.113
-141.487	3.445	0.269	0.196
-140.472	377.345	0.027	0.055
-139.458	-167.610	-0.269	-0.011
-138.443	250.155	-0.088	-0.150
-137.429	476.880	0.084	0.190
-136.414	-200.000	-0.001	0.046
-135.399	547.964	0.066	-0.158
-134.385	-200.000	-0.003	-0.347
-133.370	-72.563	0.288	0.106
-132.356	-108.354	-0.065	-0.014
-131.341	56.711	0.100	-0.097
-130.326	-200.000	0.036	-0.187
-129.312	27.203	0.130	-0.109
-128.297	44.413	0.116	0.107
-127.283	-19.769	0.165	0.102
-126.268	-168.347	-0.285	-0.011
-125.253	198.012	-0.068	0.104
-124.239	-35.121	-0.386	-0.210
-123.224	499.271	-0.164	-0.377
-122.210	800.000	-0.079	0.236
