DTS Sentinel unit serial number:	SN413079Multiplexer serial number:	ORYXHardware model number:	OX4-SRSoftware version number:	ORYX F/W v4.00 Oryx Data Collector v3.7.2.0data status	okinstallation	princeton_trtdifferential loss correction	single-endedforward channel	channel 3reverse channel	N/Adate	2019/09/13time	05:16:35forward acquisition time	60.00reverse acquisition time	0.00gamma	496.2192k internal	0.2338k external	0.2338temperature offset calibration	1.0135default loss term (dB/km)	0.3790temperature slope calibration	1.0000multiplexer offset coefficient	1.0000multiplexer slope coefficient	1.0000fibre end	0.00T internal ref (°C)	26.37T ext. ref 1 (°C)	4.05T ext. ref 2 (°C)	20.84length (m)	temperature (°C)	Stokes	anti-Stokes-747.200	64.167	-0.077	0.077
-746.185	29.298	-0.121	-0.103
-745.171	-96.464	0.199	-0.053
-744.156	-23.629	-0.197	0.119
-743.142	-10.066	-0.222	-0.148
-742.127	-178.603	-0.178	-0.004
-741.112	20.757	-0.232	-0.188
-740.098	223.681	-0.108	-0.175
-739.083	221.999	-0.124	0.200
-738.069	800.000	0.101	0.283
-737.054	77.891	-0.075	0.080
-736.039	-200.000	-0.021	-0.152
-735.025	31.040	0.477	0.410
-734.010	-83.677	0.104	0.033
-732.996	-108.570	-0.696	0.150
-731.981	-200.000	-0.007	0.032
-730.966	95.368	0.159	0.182
-729.952	17.496	-0.251	-0.200
-728.937	-200.000	-0.017	0.254
-727.923	-51.034	-0.220	-0.103
-726.908	767.419	0.051	-0.138
-725.894	-200.000	-0.001	-0.317
-724.879	241.517	0.078	0.131
-723.864	282.024	0.042	-0.076
-722.850	-200.000	0.004	-0.277
-721.835	-153.470	-0.354	-0.025
-720.821	800.000	0.057	-0.222
-719.806	-200.000	-0.035	-0.263
-718.791	-121.827	-0.252	0.042
-717.777	471.410	-0.040	0.090
-716.762	432.977	-0.103	0.223
-715.748	800.000	0.032	-0.115
-714.733	-200.000	-0.052	-0.379
-713.718	232.406	-0.066	0.109
-712.704	316.856	0.116	0.220
-711.689	-129.183	0.428	-0.060
-710.675	-200.000	-0.017	0.101
-709.660	-200.000	-0.032	0.329
-708.645	83.544	0.125	-0.137
-707.631	65.969	-0.182	-0.185
-706.616	-49.371	0.189	-0.090
-705.602	16.370	-0.042	0.033
-704.587	290.622	0.135	-0.245
-703.572	-200.000	-0.061	-0.403
-702.558	2.684	-0.140	0.102
-701.543	144.900	-0.211	0.282
-700.529	93.215	0.088	0.100
-699.514	-200.000	-0.005	0.067
-698.499	-46.186	0.455	-0.224
-697.485	58.714	-0.097	0.096
-696.470	182.259	-0.095	0.140
-695.456	-9.267	-0.172	0.115
-694.441	800.000	0.110	-0.437
-693.426	-40.366	0.257	-0.134
-692.412	10.180	-0.183	-0.140
-691.397	59.337	-0.061	0.060
-690.383	-71.358	-0.355	-0.133
-689.368	-143.564	0.136	0.013
-688.354	278.938	0.083	0.149
-687.339	-11.919	-0.048	0.031
-686.324	-128.759	-0.109	0.015
-685.310	-35.308	-0.442	-0.241
-684.295	131.008	-0.104	-0.133
-683.281	185.301	-0.142	-0.210
-682.266	83.994	0.217	0.237
-681.251	-148.765	0.152	0.012
-680.237	142.303	-0.074	-0.098
-679.222	26.104	-0.055	0.046
-678.208	363.444	-0.135	-0.272
-677.193	-7.671	0.121	-0.082
-676.178	-200.000	-0.031	-0.155
-675.164	244.167	0.085	-0.143
-674.149	34.124	0.217	-0.189
-673.135	-10.947	-0.156	0.103
-672.120	-200.000	-0.018	-0.288
-671.105	-200.000	0.019	0.284
-670.091	-82.346	-0.285	0.093
-669.076	658.626	0.066	0.170
-668.062	-200.000	0.036	0.431
-667.047	800.000	0.111	-0.341
-666.032	270.909	-0.145	-0.256
-665.018	-180.273	0.281	-0.006
-664.003	109.679	-0.158	0.190
-662.989	29.330	0.099	0.084
-661.974	142.682	-0.126	-0.167
-660.959	75.343	-0.081	-0.085
-659.945	800.000	-0.056	-0.186
-658.930	-132.150	0.184	0.024
-657.916	12.467	-0.055	0.042
-656.901	-130.555	0.304	-0.041
-655.886	-200.000	0.002	0.053
-654.872	5.356	0.178	0.131
-653.857	228.545	-0.083	-0.135
-652.843	800.000	-0.061	-0.209
-651.828	773.559	0.096	0.262
-650.814	208.178	-0.195	0.305
-649.799	-200.000	-0.072	-0.468
-648.784	-200.000	-0.006	0.179
-647.770	-200.000	0.003	-0.152
-646.755	-119.083	0.495	0.087
-645.741	-20.077	0.109	0.067
-644.726	800.000	-0.092	0.389
-643.711	800.000	-0.042	-0.159
-642.697	800.000	-0.052	-0.171
-641.682	-43.206	0.208	-0.105
-640.668	-114.339	-0.248	-0.048
-639.653	718.574	0.104	0.275
-638.638	-65.139	0.163	-0.066
-637.624	216.331	0.083	0.132
-636.609	-44.173	0.183	0.092
-635.595	81.846	-0.304	-0.329
-634.580	309.327	0.089	-0.167
-633.565	-107.304	0.151	-0.033
-632.551	-39.745	0.217	-0.114
-631.536	25.223	0.181	-0.150
-630.522	-200.000	0.025	-0.295
-629.507	-144.409	0.074	-0.007
-628.492	408.593	-0.091	0.192
-627.478	248.937	-0.080	0.135
-626.463	-94.297	-0.152	0.041
-625.449	-27.471	0.284	0.165
-624.434	150.425	-0.313	-0.424
-623.419	537.581	0.009	-0.022
-622.405	-93.201	-0.146	0.041
-621.390	-154.114	0.191	-0.013
-620.376	100.702	0.039	0.045
-619.361	131.683	-0.147	0.188
-618.346	-38.349	-0.168	-0.089
-617.332	800.000	-0.089	0.263
-616.317	-49.551	0.099	-0.047
-615.303	800.000	-0.005	-0.015
-614.288	-200.000	0.025	0.172
-613.273	-200.000	-0.004	-0.206
-612.259	563.850	-0.110	0.267
-611.244	-9.255	0.082	-0.054
-610.230	108.620	0.243	0.290
-609.215	800.000	-0.049	-0.204
-608.201	-45.586	0.121	-0.060
-607.186	303.980	0.146	-0.271
-606.171	-200.000	-0.033	0.342
-605.157	34.067	-0.085	0.074
-604.142	62.832	0.134	-0.134
-603.128	-200.000	0.013	-0.278
-602.113	-104.565	-0.037	-0.009
-601.098	-25.422	-0.215	-0.127
-600.084	94.566	0.191	-0.217
-599.069	-75.900	0.225	0.080
-598.055	112.063	0.196	-0.236
-597.040	21.291	-0.261	-0.212
-596.025	154.673	-0.122	0.167
-595.011	800.000	0.071	-0.273
-593.996	2.519	-0.095	-0.068
-592.982	800.000	0.039	0.152
-591.967	149.000	0.033	-0.044
-590.952	-30.053	0.062	-0.035
-589.938	-200.000	-0.005	-0.144
-588.923	4.131	0.098	-0.072
-587.909	35.561	-0.116	-0.101
-586.894	315.493	0.107	0.202
-585.879	-64.526	0.100	0.040
-584.865	-90.674	-0.187	-0.054
-583.850	-200.000	-0.040	-0.258
-582.836	-200.000	-0.011	0.116
-581.821	-158.242	-0.332	0.019
-580.806	-42.901	0.141	0.071
-579.792	-170.990	-0.154	0.005
-578.777	-83.255	0.170	0.054
-577.763	-72.630	-0.280	0.103
-576.748	-55.888	-0.194	0.086
-575.733	-18.568	0.192	-0.120
-574.719	-74.063	0.280	-0.101
-573.704	75.874	0.314	0.331
-572.690	-129.116	-0.095	-0.013
-571.675	-200.000	0.006	-0.254
-570.661	166.548	-0.173	-0.244
-569.646	-27.817	0.339	0.196
-568.631	-50.170	-0.311	-0.147
-567.617	495.501	-0.037	-0.086
-566.602	-94.856	-0.058	-0.016
-565.588	149.257	0.113	0.152
-564.573	-60.257	-0.227	0.097
-563.558	-200.000	0.018	-0.215
-562.544	-71.352	-0.163	0.061
-561.529	40.366	-0.086	-0.077
-560.515	149.846	0.131	0.176
-559.500	27.617	0.071	-0.060
-558.485	431.435	-0.121	-0.261
-557.471	-131.592	0.294	0.039
-556.456	-79.872	0.122	0.041
-555.442	-5.416	-0.134	-0.092
-554.427	21.834	-0.212	0.172
-553.412	-102.790	-0.246	-0.058
-552.398	163.652	0.031	0.043
-551.383	-75.670	-0.229	0.081
-550.369	282.502	-0.303	-0.540
-549.354	-200.000	0.018	-0.356
-548.339	-95.205	0.426	0.114
-547.325	-200.000	-0.017	-0.103
-546.310	800.000	-0.028	0.078
-545.296	188.356	0.176	-0.261
-544.281	433.584	-0.140	-0.302
-543.266	39.093	0.452	-0.402
-542.252	800.000	-0.081	-0.278
-541.237	22.305	-0.262	-0.213
-540.223	14.659	0.264	-0.205
-539.208	-200.000	-0.033	0.235
-538.193	-51.552	0.116	0.054
-537.179	66.383	0.073	-0.074
-536.164	308.969	-0.071	-0.133
-535.150	-90.428	-0.168	0.048
-534.135	134.272	-0.099	0.127
-533.121	-139.198	-0.268	0.029
-532.106	-200.000	0.002	-0.464
-531.091	-200.000	0.050	-0.294
-530.077	466.709	0.112	-0.249
-529.062	-37.963	-0.188	0.100
-528.048	-97.887	-0.188	0.048
-527.033	800.000	0.123	0.488
-526.018	-200.000	0.007	-0.058
-525.004	-76.615	0.052	0.018
-523.989	-41.588	0.091	0.046
-522.975	-200.000	0.056	0.345
-521.960	232.170	0.053	0.086
-520.945	38.830	-0.146	-0.130
-519.931	-31.349	-0.010	-0.006
-518.916	-117.574	-0.350	-0.063
-517.902	178.029	0.159	0.230
-516.887	97.478	0.157	0.180
-515.872	-162.717	-0.338	0.016
-514.858	-200.000	-0.104	-0.460
-513.843	-74.490	0.128	-0.046
-512.829	-15.444	0.107	-0.068
-511.814	-22.470	0.237	-0.143
-510.799	57.217	0.181	-0.175
-509.785	-3.325	-0.402	0.278
-508.770	508.098	0.047	0.108
-507.756	-200.000	0.021	-0.222
-506.741	188.903	0.114	0.170
-505.726	35.400	0.051	-0.045
-504.712	-108.868	-0.184	0.039
-503.697	120.497	0.125	0.154
-502.683	-200.000	0.043	0.297
-501.668	56.913	0.066	0.064
-500.653	23.027	-0.156	-0.127
-499.639	-112.400	-0.069	-0.014
-498.624	348.688	-0.138	-0.271
-497.610	-31.478	0.372	-0.208
-496.595	208.611	-0.074	0.115
-495.581	29.061	-0.066	-0.056
-494.566	203.397	0.110	-0.170
-493.551	315.130	0.122	-0.228
-492.537	23.856	0.194	-0.159
-491.522	-101.304	0.144	-0.035
-490.508	-38.456	0.100	0.052
-489.493	-177.003	-0.309	-0.008
-488.478	-75.871	-0.128	0.045
-487.464	-20.355	0.115	0.070
-486.449	46.505	0.074	0.068
-485.435	160.398	0.197	-0.273
-484.420	800.000	0.078	-0.262
-483.405	-131.354	0.246	-0.032
-482.391	-92.576	-0.287	-0.080
-481.376	-14.866	-0.045	0.029
-480.362	26.576	-0.036	-0.030
-479.347	800.000	0.089	0.306
-478.332	-5.449	0.044	0.030
-477.318	74.958	-0.285	0.298
-476.303	419.195	-0.033	0.070
-475.289	212.868	-0.029	0.046
-474.274	800.000	-0.034	0.112
-473.259	-200.000	0.061	0.363
-472.245	673.985	-0.020	0.051
-471.230	-144.782	-0.187	0.017
-470.216	126.852	0.189	-0.238
-469.201	15.009	-0.294	0.229
-468.186	-82.790	-0.393	0.126
-467.172	-59.851	0.127	0.054
-466.157	93.449	-0.073	0.082
-465.143	-15.339	0.199	0.126
-464.128	134.443	0.280	0.361
-463.113	-92.341	-0.195	0.054
-462.099	105.848	0.204	-0.240
-461.084	-66.864	0.085	-0.034
-460.070	-56.949	-0.260	-0.114
-459.055	-200.000	-0.009	-0.210
-458.040	-8.270	-0.075	-0.050
-457.026	147.917	0.115	-0.153
-456.011	387.695	-0.157	0.322
-454.997	-14.561	0.085	0.054
-453.982	800.000	0.091	0.249
-452.968	362.737	0.095	0.189
-451.953	247.332	0.196	-0.329
-450.938	-200.000	-0.065	-0.312
-449.924	-93.291	-0.225	0.062
-448.909	-200.000	-0.000	0.191
-447.895	629.295	0.121	-0.303
-446.880	800.000	0.065	0.232
-445.865	-8.972	-0.196	0.130
-444.851	-39.765	0.222	-0.115
-443.836	105.587	-0.049	0.057
-442.822	-124.836	0.335	-0.051
-441.807	-125.855	-0.408	-0.061
-440.792	-77.674	0.125	-0.043
-439.778	800.000	-0.016	0.051
-438.763	-132.351	-0.141	-0.018
-437.749	625.469	-0.052	-0.130
-436.734	800.000	0.065	-0.202
-435.719	-39.125	-0.240	0.125
-434.705	-26.270	0.167	0.097
-433.690	-27.967	-0.272	0.156
-432.676	-200.000	0.006	-0.218
-431.661	117.019	-0.121	-0.147
-430.646	-126.786	0.212	-0.031
-429.632	104.354	-0.162	-0.189
-428.617	-75.398	-0.105	0.037
-427.603	-200.000	0.044	0.209
-426.588	468.280	-0.064	0.143
-425.573	-200.000	-0.011	-0.069
-424.559	35.886	-0.276	0.241
-423.544	138.343	-0.156	0.203
-422.530	800.000	-0.043	-0.123
-421.515	800.000	-0.023	-0.091
-420.500	-200.000	0.018	-0.153
-419.486	556.889	-0.125	0.298
-418.471	33.472	-0.221	-0.190
-417.457	800.000	-0.063	0.216
-416.442	14.409	-0.048	-0.037
-415.428	15.319	-0.217	0.169
-414.413	-10.905	-0.174	0.114
-413.398	-90.249	-0.164	-0.047
-412.384	51.050	0.090	0.085
-411.369	-142.156	0.269	0.026
-410.355	-14.944	0.111	0.071
-409.340	33.780	0.165	0.142
-408.325	-27.944	0.334	0.191
-407.311	-200.000	-0.003	0.060
-406.296	800.000	0.058	-0.246
-405.282	-146.548	0.075	-0.006
-404.267	129.461	-0.203	0.256
-403.252	-200.000	0.035	0.232
-402.238	26.616	0.141	0.117
-401.223	-200.000	-0.057	0.300
-400.209	345.705	0.134	-0.261
-399.194	-36.219	-0.203	0.109
-398.179	-54.818	-0.453	-0.203
-397.165	-200.000	0.006	-0.145
-396.150	675.942	0.080	-0.205
-395.136	122.682	-0.124	0.154
-394.121	800.000	0.063	0.176
-393.106	102.580	0.132	0.152
-392.092	121.022	-0.108	-0.133
-391.077	-46.125	0.386	0.188
-390.063	-200.000	0.144	-0.001
-389.048	236.253	0.125	0.205
-388.033	-40.270	-0.226	0.116
-387.019	81.008	-0.378	-0.403
-386.004	463.040	-0.038	-0.085
-384.990	350.736	0.045	0.089
-383.975	-3.778	-0.256	0.176
-382.960	-48.100	0.224	0.107
-381.946	-200.000	-0.004	-0.062
-380.931	302.962	0.182	-0.334
-379.917	211.073	-0.094	0.146
-378.902	-200.000	-0.008	0.108
-377.888	-65.855	-0.087	0.034
-376.873	230.806	0.104	0.168
-375.858	800.000	0.082	0.271
-374.844	250.267	-0.019	0.031
-373.829	1.959	0.179	0.128
-372.815	-200.000	-0.006	0.201
-371.800	-200.000	0.035	0.280
-370.785	77.329	0.046	0.048
-369.771	-54.311	-0.156	-0.070
-368.756	298.413	0.094	-0.170
-367.742	2.913	0.108	-0.077
-366.727	800.000	0.067	-0.189
-365.712	-72.954	-0.160	0.058
-364.698	800.000	0.062	0.264
-363.683	-136.460	0.288	-0.033
-362.669	-173.931	-0.177	-0.005
-361.654	-103.697	-0.303	-0.070
-360.639	-128.049	0.364	-0.052
-359.625	16.664	-0.320	0.250
-358.610	-48.301	0.290	0.138
-357.596	229.014	0.049	-0.080
-356.581	-200.000	0.054	-0.236
-355.566	-21.096	0.195	-0.118
-354.552	356.347	-0.072	0.142
-353.537	-200.000	0.470	-0.001
-352.523	800.000	0.072	0.283
-351.508	-127.421	0.303	0.044
-350.493	97.062	0.071	-0.080
-349.479	72.398	-0.085	0.088
-348.464	-36.261	0.120	0.064
-347.450	-69.178	0.323	0.123
-346.435	-105.961	0.095	0.021
-345.420	-53.850	-0.103	-0.046
-344.406	250.393	0.114	-0.192
-343.391	-155.440	-0.007	0.000
-342.377	128.485	-0.064	0.081
-341.362	-200.000	0.029	-0.187
-340.348	-25.641	0.031	-0.018
-339.333	275.896	0.084	0.146
-338.318	-72.185	-0.223	0.082
-337.304	120.544	-0.135	0.166
-336.289	-24.295	0.069	0.041
-335.275	495.236	0.093	0.212
-334.260	174.723	-0.245	-0.349
-333.245	-119.774	-0.334	-0.057
-332.231	-167.232	0.045	0.002
-331.216	10.963	0.245	-0.184
-330.202	-93.513	-0.292	0.080
-329.187	-125.865	-0.144	-0.022
-328.172	-200.000	0.012	-0.300
-327.158	47.223	-0.104	-0.096
-326.143	-200.000	-0.003	0.088
-325.129	50.009	0.093	0.087
-324.114	-146.320	0.435	-0.038
-323.099	-39.759	-0.331	0.171
-322.085	-200.000	-0.022	-0.302
-321.070	-200.000	0.031	-0.550
-320.056	294.586	-0.142	-0.257
-319.041	-200.000	0.004	-0.082
-318.026	-103.955	0.098	-0.023
-317.012	520.849	0.054	-0.125
-315.997	175.429	0.120	0.172
-314.983	-38.254	0.198	0.103
-313.968	-130.589	0.077	0.010
-312.953	-173.732	0.318	-0.009
-311.939	-200.000	-0.044	-0.191
-310.924	800.000	0.015	0.061
-309.910	800.000	0.030	-0.094
-308.895	-60.611	0.238	0.100
-307.880	-133.743	0.150	0.018
-306.866	-49.922	-0.290	-0.136
-305.851	94.712	0.265	0.297
-304.837	800.000	-0.043	0.124
-303.822	-120.813	-0.393	0.065
-302.807	-200.000	0.003	0.159
-301.793	4.999	-0.115	0.084
-300.778	-30.637	-0.271	0.151
-299.764	-33.487	0.177	0.096
-298.749	-200.000	0.002	0.117
-297.735	-124.033	0.075	-0.012
-296.720	-38.968	-0.389	-0.202
-295.705	-113.942	-0.250	0.048
-294.691	526.105	-0.225	0.522
-293.676	206.950	-0.138	-0.212
-292.662	-200.000	-0.043	0.326
-291.647	-15.454	-0.192	0.121
-290.632	-46.344	0.010	0.005
-289.618	234.077	0.231	0.374
-288.603	-32.557	0.116	0.064
-287.589	69.415	0.072	0.073
-286.574	-200.000	0.042	-0.269
-285.559	-94.356	0.230	-0.062
-284.545	-69.596	0.358	-0.135
-283.530	-76.604	0.330	-0.114
-282.516	-9.894	0.171	0.112
-281.501	-65.751	0.238	0.094
-280.486	-4.248	-0.416	-0.284
-279.472	348.918	-0.148	0.287
-278.457	-200.000	-0.038	0.292
-277.443	-16.152	-0.136	0.085
-276.428	222.414	0.122	-0.194
-275.413	-161.559	0.083	0.004
-274.399	800.000	0.099	-0.323
-273.384	-87.919	-0.462	-0.137
-272.370	-200.000	-0.009	0.123
-271.355	400.794	0.067	-0.139
-270.340	-119.256	-0.307	-0.053
-269.326	-149.776	-0.181	0.014
-268.311	-200.000	0.001	0.099
-267.297	800.000	-0.074	-0.262
-266.282	-181.385	-0.261	-0.005
-265.267	559.788	0.100	0.237
-264.253	765.419	-0.059	-0.159
-263.238	49.532	0.080	-0.074
-262.224	-142.521	-0.207	0.020
-261.209	-200.000	-0.044	0.243
-260.195	231.046	0.144	0.233
-259.180	-84.009	0.137	0.043
-258.165	800.000	-0.115	-0.338
-257.151	-110.713	-0.351	-0.071
-256.136	800.000	-0.061	0.169
-255.122	800.000	-0.034	-0.119
-254.107	-49.719	0.260	0.122
-253.092	0.580	0.202	-0.142
-252.078	-188.240	-0.178	-0.002
-251.063	138.513	-0.080	0.104
-250.049	285.588	0.120	-0.212
-249.034	800.000	-0.020	0.060
-248.019	-94.962	-0.327	0.087
-247.005	74.906	-0.237	-0.245
-245.990	17.321	0.227	-0.177
-244.976	29.079	0.096	-0.080
-243.961	-200.000	0.023	-0.150
-242.946	-4.532	0.163	-0.111
-241.932	800.000	0.045	0.146
-240.917	-200.000	0.002	-0.103
-239.903	132.982	-0.136	0.173
-238.888	-60.387	-0.173	0.072
-237.873	-100.933	0.085	0.020
-236.859	-116.044	0.236	-0.043
-235.844	3.247	-0.122	0.087
-234.830	-106.421	0.189	-0.041
-233.815	76.950	-0.127	-0.133
-232.800	800.000	0.047	0.195
-231.786	601.770	0.017	0.041
-230.771	-34.510	0.246	-0.133
-229.757	124.237	0.167	-0.206
-228.742	460.621	-0.091	0.200
-227.727	72.521	-0.065	-0.067
-226.713	-19.238	-0.277	-0.169
-225.698	49.167	-0.148	0.137
-224.684	-102.244	0.124	-0.029
-223.669	-15.649	-0.092	0.058
-222.655	-67.888	0.358	0.138
-221.640	218.426	-0.085	0.134
-220.625	-200.000	0.330	-0.001
-219.611	-143.523	-0.214	0.020
-218.596	-115.763	0.372	0.068
-217.582	-59.083	0.194	-0.082
-216.567	-200.000	-0.017	-0.085
-215.552	198.330	0.015	0.022
-214.538	259.164	-0.077	0.131
-213.523	-25.473	-0.058	-0.034
-212.509	88.239	0.133	-0.145
-211.494	-200.000	-0.076	-0.390
-210.479	-200.000	0.036	-0.295
-209.465	540.277	0.101	-0.237
-208.450	80.928	0.213	-0.226
-207.436	-200.000	-0.004	0.189
-206.421	-200.000	-0.014	0.061
-205.406	800.000	-0.083	0.282
-204.392	-200.000	-0.021	0.203
-203.377	653.212	0.094	-0.237
-202.363	-200.000	-0.067	-0.525
-201.348	-8.986	-0.288	0.190
-200.333	-154.177	-0.194	-0.013
-199.319	186.035	0.253	0.369
-198.304	-148.003	-0.467	-0.038
-197.290	-68.108	0.135	-0.052
-196.275	-167.311	-0.228	-0.009
-195.260	-200.000	0.012	-0.428
-194.246	-10.386	-0.156	-0.102
-193.231	800.000	-0.072	-0.207
-192.217	315.388	0.131	0.243
-191.202	800.000	-0.053	0.213
-190.187	-200.000	0.039	0.190
-189.173	179.878	-0.134	0.193
-188.158	43.900	0.098	-0.088
-187.144	144.282	-0.130	0.170
-186.129	800.000	-0.131	-0.358
-185.114	-200.000	-0.010	0.104
-184.100	267.749	-0.109	0.188
-183.085	547.052	-0.173	0.407
-182.071	-20.757	0.242	0.146
-181.056	800.000	0.053	0.168
-180.042	244.870	0.056	-0.092
-179.027	-132.423	-0.271	0.034
-178.012	-169.191	-0.248	-0.009
-176.998	665.097	0.249	0.630
-175.983	-23.663	0.295	0.173
-174.969	10.740	-0.424	0.317
-173.954	-33.168	0.150	-0.081
-172.939	-147.216	0.431	0.036
-171.925	800.000	-0.069	0.200
-170.910	113.453	0.320	-0.382
-169.896	-107.601	-0.122	-0.026
-168.881	33.203	0.274	0.233
-167.866	110.905	-0.119	-0.140
-166.852	-5.477	-0.211	-0.142
-165.837	-95.220	-0.078	0.021
-164.823	-200.000	0.030	0.252
-163.808	177.925	0.180	-0.258
-162.793	-114.396	0.200	0.038
-161.779	4.740	-0.259	-0.187
-160.764	-200.000	0.058	0.271
-159.750	77.678	0.205	-0.214
-158.735	147.812	-0.159	-0.210
-157.720	-3.583	-0.043	0.029
-156.706	-200.000	-0.008	-0.108
-155.691	387.272	-0.187	0.379
-154.677	-126.841	0.146	-0.021
-153.662	-40.695	-0.115	0.059
-152.647	-200.000	0.017	-0.122
-151.633	-200.000	0.037	0.417
-150.618	126.521	0.140	0.174
-149.604	-22.319	0.374	-0.222
-148.589	800.000	-0.108	0.349
-147.574	-200.000	-0.008	-0.111
-146.560	655.895	-0.078	-0.197
-145.545	-200.000	-0.004	-0.083
-144.531	-68.461	0.464	0.177
-143.516	120.756	0.053	0.065
-142.502	37.370	0.217	0.188
-141.487	-76.508	0.119	0.041
-140.472	-42.735	-0.041	0.020
-139.458	-200.000	-0.021	0.144
-138.443	-72.672	-0.106	-0.038
-137.429	22.697	0.380	-0.305
-136.414	-10.793	0.237	-0.154
-135.399	-76.262	0.093	0.032
-134.385	301.516	0.038	-0.068
-133.370	-11.221	0.127	-0.082
-132.356	3.967	-0.370	-0.265
-131.341	104.853	0.059	-0.068
-130.326	36.365	0.122	0.105
-129.312	223.737	-0.059	-0.093
-128.297	191.486	0.114	-0.168
-127.283	-158.585	-0.244	-0.014
-126.268	-34.020	0.273	-0.147
-125.253	64.605	-0.154	-0.153
-124.239	293.258	-0.190	0.339
-123.224	-80.454	0.154	0.050
-122.210	44.871	-0.111	-0.100
-121.195	-60.228	-0.125	0.052
