DTS Sentinel unit serial number:	SN413079Multiplexer serial number:	ORYXHardware model number:	OX4-SRSoftware version number:	ORYX F/W v4.00 Oryx Data Collector v3.7.2.0data status	okinstallation	princeton_trtdifferential loss correction	single-endedforward channel	channel 3reverse channel	N/Adate	2019/09/13time	20:56:34forward acquisition time	60.00reverse acquisition time	0.00gamma	496.2192k internal	0.2333k external	0.2333temperature offset calibration	1.0050default loss term (dB/km)	0.3790temperature slope calibration	1.0000multiplexer offset coefficient	1.0000multiplexer slope coefficient	1.0000fibre end	0.00T internal ref (°C)	28.69T ext. ref 1 (°C)	3.04T ext. ref 2 (°C)	23.40length (m)	temperature (°C)	Stokes	anti-Stokes-747.200	-200.000	-0.006	0.124
-746.185	-200.000	-0.011	-0.099
-745.171	80.455	0.097	-0.105
-744.156	-200.000	-0.026	0.285
-743.142	-148.613	-0.165	0.014
-742.127	-200.000	0.006	0.284
-741.112	-33.933	-0.261	-0.145
-740.098	62.978	0.048	-0.048
-739.083	-138.794	-0.125	-0.014
-738.069	35.616	0.083	0.074
-737.054	-98.235	-0.110	-0.028
-736.039	-200.000	-0.001	-0.316
-735.025	-122.098	0.156	-0.026
-734.010	-13.802	0.257	0.167
-732.996	357.658	-0.117	-0.235
-731.981	800.000	-0.029	-0.100
-730.966	-31.993	-0.011	0.006
-729.952	-37.436	0.169	-0.090
-728.937	-107.387	-0.199	-0.044
-727.923	-48.406	0.098	-0.047
-726.908	-157.418	-0.328	-0.020
-725.894	-51.990	-0.043	0.020
-724.879	86.666	0.260	0.288
-723.864	69.526	-0.096	-0.100
-722.850	-200.000	-0.013	-0.221
-721.835	391.062	0.110	0.229
-720.821	110.067	-0.158	-0.191
-719.806	58.124	0.293	-0.288
-718.791	11.786	-0.357	-0.275
-717.777	-117.036	-0.211	0.039
-716.762	9.224	0.253	0.192
-715.748	104.987	-0.231	-0.274
-714.733	-200.000	-0.055	0.243
-713.718	-87.144	-0.292	-0.089
-712.704	-83.408	-0.162	-0.052
-711.689	167.198	0.091	0.130
-710.675	-148.767	-0.191	-0.016
-709.660	-200.000	-0.013	-0.120
-708.645	115.904	0.077	-0.094
-707.631	-200.000	0.050	-0.440
-706.616	73.474	-0.096	-0.101
-705.602	800.000	0.056	-0.239
-704.587	4.860	-0.060	-0.044
-703.572	-59.845	-0.267	-0.115
-702.558	86.928	-0.078	-0.086
-701.543	113.819	-0.096	0.117
-700.529	603.461	0.083	-0.206
-699.514	47.472	0.219	0.205
-698.499	58.441	-0.171	0.168
-697.485	-170.837	0.280	0.010
-696.470	139.346	0.232	-0.306
-695.456	106.287	-0.154	-0.183
-694.441	76.704	-0.286	-0.305
-693.426	-43.432	0.209	-0.106
-692.412	-69.594	-0.218	-0.084
-691.397	-200.000	0.000	0.346
-690.383	800.000	0.067	0.226
-689.368	-200.000	0.045	0.270
-688.354	27.537	-0.035	-0.030
-687.339	-123.329	-0.222	-0.036
-686.324	-180.583	0.185	-0.004
-685.310	-88.388	0.222	-0.067
-684.295	257.918	-0.102	0.175
-683.281	-40.272	0.163	0.085
-682.266	-92.691	-0.353	-0.099
-681.251	39.243	0.139	0.125
-680.237	-108.718	-0.323	-0.069
-679.222	-200.000	0.073	-0.337
-678.208	-200.000	-0.028	-0.163
-677.193	-57.616	-0.189	0.083
-676.178	800.000	-0.088	0.268
-675.164	-3.843	0.074	-0.052
-674.149	34.772	-0.439	-0.385
-673.135	800.000	-0.034	-0.114
-672.120	10.866	0.253	0.194
-671.105	-62.299	-0.171	-0.072
-670.091	-133.636	0.245	0.031
-669.076	-25.233	0.290	-0.172
-668.062	-122.881	-0.125	-0.020
-667.047	-133.558	0.169	-0.021
-666.032	110.634	0.104	-0.125
-665.018	24.357	-0.100	0.083
-664.003	759.991	-0.074	0.202
-662.989	-200.000	0.003	0.049
-661.974	-80.910	-0.185	-0.062
-660.959	-116.674	-0.073	-0.013
-659.945	81.913	0.117	0.127
-658.930	800.000	0.060	-0.224
-657.916	0.179	-0.046	-0.033
-656.901	332.911	-0.053	-0.103
-655.886	-160.454	-0.103	0.006
-654.872	-147.090	-0.296	0.025
-653.857	-200.000	-0.016	-0.239
-652.843	-87.704	0.389	-0.118
-651.828	196.544	-0.027	-0.041
-650.814	238.380	-0.063	0.105
-649.799	800.000	0.066	-0.190
-648.784	-28.148	0.145	0.084
-647.770	177.648	0.158	0.230
-646.755	171.765	-0.032	0.047
-645.741	-44.435	-0.209	0.105
-644.726	-200.000	0.063	-0.318
-643.711	-48.750	0.182	-0.088
-642.697	-104.478	-0.219	-0.051
-641.682	-107.412	0.112	-0.025
-640.668	326.128	-0.116	0.222
-639.653	-102.267	-0.179	-0.043
-638.638	233.933	0.172	-0.283
-637.624	-200.000	-0.045	-0.308
-636.609	103.786	-0.131	-0.154
-635.595	-140.265	0.323	0.034
-634.580	-18.549	-0.253	0.158
-633.565	-34.522	0.242	0.133
-632.551	-74.650	-0.125	0.045
-631.536	524.061	0.143	0.337
-630.522	-13.411	-0.140	0.091
-629.507	-200.000	0.109	0.000
-628.492	11.704	0.166	0.127
-627.478	108.521	-0.153	0.183
-626.463	-200.000	-0.018	-0.128
-625.449	-124.110	-0.318	-0.050
-624.434	-38.926	0.162	0.085
-623.419	800.000	-0.013	0.041
-622.405	-200.000	-0.064	0.332
-621.390	-76.687	-0.201	0.071
-620.376	800.000	-0.038	0.121
-619.361	-23.130	-0.326	0.196
-618.346	93.317	-0.110	0.124
-617.332	-200.000	-0.019	0.137
-616.317	-46.253	0.171	-0.084
-615.303	239.746	0.032	0.054
-614.288	-131.178	0.160	0.021
-613.273	150.790	-0.069	0.095
-612.259	-103.355	0.523	0.123
-611.244	169.614	-0.125	-0.179
-610.230	-117.882	-0.116	-0.021
-609.215	271.225	-0.088	-0.155
-608.201	-200.000	0.012	-0.244
-607.186	339.332	0.175	0.341
-606.171	-46.109	-0.390	-0.192
-605.157	222.255	0.081	-0.130
-604.142	800.000	0.134	-0.412
-603.128	-26.353	-0.414	-0.243
-602.113	97.648	-0.019	-0.022
-601.098	800.000	-0.028	-0.099
-600.084	-40.477	-0.176	0.092
-599.069	663.108	0.045	0.117
-598.055	-83.227	-0.241	-0.077
-597.040	-125.825	0.135	-0.020
-596.025	161.174	-0.222	-0.310
-595.011	-200.000	0.023	0.152
-593.996	-80.601	0.403	0.134
-592.982	73.372	-0.397	0.415
-591.967	-149.052	-0.140	0.011
-590.952	-30.259	-0.270	-0.153
-589.938	-167.828	-0.170	0.007
-588.923	231.574	-0.061	-0.101
-587.909	517.873	0.085	-0.199
-586.894	-61.387	0.134	-0.056
-585.879	88.898	-0.111	0.123
-584.865	-2.810	0.333	0.232
-583.850	-200.000	-0.010	0.199
-582.836	68.568	0.168	-0.172
-581.821	153.205	-0.165	-0.226
-580.806	800.000	0.106	-0.363
-579.792	47.568	-0.111	0.104
-578.777	-200.000	-0.009	0.228
-577.763	800.000	-0.053	0.221
-576.748	800.000	0.116	-0.398
-575.733	602.756	0.120	0.299
-574.719	68.656	-0.137	-0.141
-573.704	-63.846	-0.174	-0.071
-572.690	-164.130	0.349	-0.016
-571.675	135.485	0.085	-0.111
-570.661	-200.000	-0.212	-0.001
-569.646	98.650	-0.195	0.224
-568.631	-68.269	-0.216	-0.084
-567.617	-200.000	-0.035	-0.231
-566.602	455.349	-0.007	-0.015
-565.588	450.521	0.051	-0.113
-564.573	800.000	-0.078	0.236
-563.558	427.687	0.064	0.137
-562.544	-200.000	0.078	0.399
-561.529	-38.588	0.217	0.114
-560.515	-12.691	-0.297	-0.193
-559.500	210.958	0.112	0.175
-558.485	605.370	0.020	0.050
-557.471	299.205	-0.162	-0.298
-556.456	-198.411	-0.252	-0.001
-555.442	-60.731	0.269	0.114
-554.427	-144.487	0.023	0.002
-553.412	-200.000	-0.020	-0.215
-552.398	-151.459	-0.176	-0.013
-551.383	174.272	-0.062	0.089
-550.369	-200.000	0.056	0.307
-549.354	800.000	-0.047	-0.167
-548.339	277.851	-0.146	0.260
-547.325	-200.000	-0.026	0.117
-546.310	-13.557	-0.268	0.173
-545.296	-45.192	-0.305	0.151
-544.281	96.845	-0.192	0.219
-543.266	-154.816	0.135	0.009
-542.252	757.932	-0.138	-0.374
-541.237	71.148	-0.257	0.266
-540.223	-85.518	0.097	0.030
-539.208	191.777	-0.200	0.301
-538.193	2.941	0.275	0.199
-537.179	115.056	0.100	-0.122
-536.164	-141.588	-0.169	-0.017
-535.150	-80.398	-0.103	-0.034
-534.135	414.570	-0.084	-0.179
-533.121	71.164	-0.089	-0.092
-532.106	-115.966	-0.129	-0.024
-531.091	-143.681	-0.246	-0.023
-530.077	20.330	0.245	-0.198
-529.062	9.462	0.250	0.189
-528.048	-200.000	0.008	-0.277
-527.033	73.225	-0.179	0.187
-526.018	371.597	0.049	-0.100
-525.004	-200.000	0.020	-0.258
-523.989	-99.589	-0.130	0.033
-522.975	800.000	-0.015	-0.059
-521.960	272.833	0.064	-0.112
-520.945	-200.000	-0.019	0.104
-519.931	-125.245	-0.217	-0.033
-518.916	188.843	-0.062	0.093
-517.902	-77.421	0.146	-0.051
-516.887	607.591	0.070	-0.173
-515.872	-63.074	-0.300	-0.123
-514.858	148.754	-0.124	-0.167
-513.843	380.268	0.093	0.191
-512.829	-134.257	0.116	0.014
-511.814	-134.732	-0.128	-0.016
-510.799	-200.000	0.019	-0.101
-509.785	24.450	-0.325	-0.268
-508.770	-9.262	0.222	0.148
-507.756	-83.518	-0.197	-0.063
-506.741	-149.663	-0.051	0.004
-505.726	93.236	0.135	0.153
-504.712	-156.204	0.693	0.043
-503.697	-200.000	0.021	0.167
-502.683	800.000	0.071	-0.210
-501.668	379.768	0.064	-0.131
-500.653	-36.849	0.353	0.189
-499.639	-68.015	-0.087	-0.034
-498.624	575.919	-0.087	-0.211
-497.610	800.000	0.047	-0.204
-496.595	210.113	-0.144	0.225
-495.581	-76.429	0.326	-0.114
-494.566	-20.807	-0.088	0.054
-493.551	106.861	-0.087	-0.103
-492.537	-57.497	-0.163	0.071
-491.522	55.293	0.067	-0.065
-490.508	-200.000	-0.078	-0.535
-489.493	-151.565	0.554	0.041
-488.478	50.058	-0.102	-0.096
-487.464	71.001	-0.221	-0.228
-486.449	-200.000	-0.030	-0.168
-485.435	3.763	0.155	-0.112
-484.420	-25.158	0.417	-0.246
-483.405	-23.827	-0.206	-0.123
-482.391	800.000	0.040	-0.153
-481.376	8.722	-0.264	0.198
-480.362	272.720	-0.070	-0.123
-479.347	-200.000	-0.020	0.264
-478.332	412.081	0.059	0.126
-477.318	-145.425	0.139	-0.012
-476.303	141.684	-0.039	0.051
-475.289	-200.000	-0.017	0.305
-474.274	800.000	-0.084	0.322
-473.259	272.927	0.208	0.365
-472.245	-70.064	0.202	0.077
-471.230	410.326	-0.063	-0.133
-470.216	21.728	0.201	0.163
-469.201	800.000	0.014	-0.058
-468.186	800.000	-0.077	-0.220
-467.172	800.000	0.086	-0.259
-466.157	251.070	0.141	-0.239
-465.143	12.329	0.146	-0.112
-464.128	-155.583	-0.104	-0.007
-463.113	186.302	-0.142	-0.211
-462.099	-33.935	-0.200	-0.110
-461.084	-155.891	-0.137	0.009
-460.070	-170.198	-0.202	-0.007
-459.055	-200.000	-0.008	-0.253
-458.040	-64.925	0.233	0.094
-457.026	-164.888	0.381	0.017
-456.011	10.008	0.308	0.233
-454.997	-200.000	-0.025	0.224
-453.982	-71.196	0.136	0.051
-452.968	-62.660	0.185	0.076
-451.953	800.000	-0.118	0.431
-450.938	800.000	0.181	-0.561
-449.924	26.312	0.155	-0.129
-448.909	472.254	-0.082	-0.184
-447.895	-4.749	-0.121	0.083
-446.880	-74.463	-0.115	0.041
-445.865	-45.144	-0.204	0.101
-444.851	316.562	0.148	0.279
-443.836	-107.837	0.328	0.071
-442.822	-46.585	0.209	0.102
-441.807	-101.470	0.259	0.063
-440.792	-200.000	0.050	0.270
-439.778	97.530	0.149	0.170
-438.763	26.196	-0.195	-0.162
-437.749	36.806	-0.326	-0.286
-436.734	-107.118	-0.125	-0.027
-435.719	120.791	0.105	0.129
-434.705	188.919	0.289	-0.430
-433.690	504.098	0.064	-0.148
-432.676	672.275	-0.070	-0.181
-431.661	-11.470	-0.132	0.086
-430.646	-200.000	0.017	-0.121
-429.632	99.026	-0.159	-0.182
-428.617	373.489	-0.095	0.191
-427.603	800.000	-0.050	0.139
-426.588	-85.115	-0.256	-0.080
-425.573	-38.079	-0.022	0.011
-424.559	80.272	0.111	-0.118
-423.544	-200.000	-0.050	-0.260
-422.530	-30.707	0.141	0.079
-421.515	325.237	-0.052	-0.099
-420.500	-200.000	-0.004	0.062
-419.486	-200.000	-0.008	0.166
-418.471	-200.000	0.032	-0.158
-417.457	138.537	0.128	0.167
-416.442	1.587	0.147	-0.105
-415.428	468.644	0.033	0.073
-414.413	515.861	0.020	-0.047
-413.398	-200.000	0.005	-0.086
-412.384	568.307	-0.101	-0.245
-411.369	-139.821	-0.104	0.011
-410.355	113.335	0.207	0.250
-409.340	630.015	-0.051	-0.129
-408.325	-200.000	0.002	-0.352
-407.311	-166.922	-0.353	-0.014
-406.296	91.988	0.268	0.299
-405.282	-21.797	-0.127	-0.077
-404.267	169.562	0.185	-0.262
-403.252	6.419	-0.009	-0.007
-402.238	-149.108	-0.094	0.007
-401.223	-200.000	0.011	0.184
-400.209	-99.008	0.172	-0.043
-399.194	-66.456	0.619	0.244
-398.179	800.000	-0.048	0.173
-397.165	-25.567	-0.064	-0.037
-396.150	-118.915	-0.505	0.088
-395.136	-27.244	0.231	0.133
-394.121	-19.161	-0.244	0.150
-393.106	587.982	0.069	0.169
-392.092	-200.000	-0.025	-0.123
-391.077	-126.842	-0.115	0.017
-390.063	-22.208	0.151	0.091
-389.048	-200.000	-0.003	0.181
-388.033	-93.295	0.248	-0.068
-387.019	-34.393	0.439	-0.239
-386.004	-11.748	0.166	-0.108
-384.990	-200.000	-0.056	-0.245
-383.975	-48.724	-0.081	-0.039
-382.960	-126.906	-0.057	0.008
-381.946	-81.669	0.211	0.069
-380.931	30.140	0.127	0.107
-379.917	-26.516	0.146	-0.085
-378.902	391.775	0.056	0.116
-377.888	-108.877	-0.276	-0.058
-376.873	57.171	0.224	-0.217
-375.858	-156.577	0.242	0.015
-374.844	-135.652	-0.267	0.031
-373.829	46.125	0.209	-0.192
-372.815	281.370	-0.148	0.264
-371.800	800.000	0.010	-0.029
-370.785	557.031	-0.100	-0.238
-369.771	24.819	-0.212	0.174
-368.756	-200.000	-0.016	0.150
-367.742	327.698	0.122	-0.232
-366.727	-200.000	0.027	0.279
-365.712	-200.000	-0.058	0.254
-364.698	-200.000	0.031	-0.268
-363.683	395.735	0.101	-0.208
-362.669	800.000	0.084	-0.289
-361.654	204.616	0.134	-0.207
-360.639	-103.451	0.172	0.040
-359.625	-172.340	-0.200	-0.006
-358.610	-200.000	-0.031	-0.232
-357.596	-43.459	-0.171	-0.086
-356.581	800.000	0.049	-0.142
-355.566	90.750	-0.239	-0.265
-354.552	-200.000	-0.054	-0.380
-353.537	-127.141	0.200	-0.029
-352.523	-67.464	0.243	-0.095
-351.508	189.681	0.069	0.103
-350.493	-197.883	0.197	-0.001
-349.479	374.771	-0.073	-0.147
-348.464	46.743	-0.150	0.138
-347.450	144.271	-0.094	0.125
-346.435	50.284	-0.159	0.149
-345.420	-70.802	0.193	-0.072
-344.406	-54.378	0.203	0.091
-343.391	-32.711	-0.196	0.108
-342.377	-12.106	-0.136	-0.088
-341.362	-72.314	-0.234	0.086
-340.348	606.851	0.084	0.209
-339.333	-48.465	-0.085	0.041
-338.318	-128.138	-0.128	0.018
-337.304	800.000	0.102	0.301
-336.289	136.892	0.141	-0.183
-335.275	800.000	-0.088	0.298
-334.260	225.223	-0.125	0.200
-333.245	-153.542	-0.120	0.008
-332.231	-200.000	0.011	0.143
-331.216	286.751	0.092	0.164
-330.202	-8.195	-0.137	-0.091
-329.187	41.146	-0.234	0.209
-328.172	-200.000	0.004	-0.177
-327.158	296.536	-0.077	-0.140
-326.143	-200.000	0.056	0.438
-325.129	-135.830	-0.359	-0.042
-324.114	800.000	-0.051	-0.199
-323.099	111.748	-0.125	-0.150
-322.085	41.084	0.220	-0.196
-321.070	-171.593	-0.133	0.004
-320.056	-25.067	0.174	-0.102
-319.041	299.151	-0.199	-0.363
-318.026	3.415	-0.074	-0.054
-317.012	184.769	-0.130	0.191
-315.997	1.486	-0.153	0.109
-314.983	-200.000	0.041	0.252
-313.968	354.956	-0.034	-0.067
-312.953	-22.186	-0.094	0.056
-311.939	-200.000	-0.003	-0.122
-310.924	167.340	0.058	-0.082
-309.910	-38.532	0.034	0.018
-308.895	-81.849	0.127	0.041
-307.880	311.665	-0.195	0.361
-306.866	-200.000	-0.007	0.101
-305.851	-125.183	0.061	-0.009
-304.837	-200.000	0.009	0.159
-303.822	230.222	0.032	-0.052
-302.807	-200.000	0.063	-0.313
-301.793	-87.609	0.172	-0.051
-300.778	-200.000	-0.052	0.242
-299.764	-44.233	-0.143	-0.071
-298.749	-71.486	-0.151	-0.056
-297.735	358.693	-0.101	0.200
-296.720	-103.827	0.230	-0.053
-295.705	11.180	-0.164	-0.124
-294.691	103.914	-0.095	-0.110
-293.676	800.000	-0.052	-0.207
-292.662	-22.050	0.074	0.045
-291.647	205.663	-0.089	-0.137
-290.632	-15.063	-0.259	0.164
-289.618	-139.410	0.018	-0.002
-288.603	-200.000	-0.032	0.216
-287.589	212.528	-0.163	-0.254
-286.574	-137.270	0.225	0.025
-285.559	594.232	0.145	0.355
-284.545	-68.588	0.206	0.079
-283.530	-65.782	-0.471	-0.186
-282.516	-112.802	-0.163	-0.032
-281.501	-200.000	-0.021	-0.170
-280.486	-147.456	-0.270	0.023
-279.472	-149.451	-0.129	0.010
-278.457	800.000	0.064	-0.178
-277.443	-3.917	-0.132	-0.090
-276.428	-200.000	-0.032	-0.240
-275.413	-200.000	-0.027	0.173
-274.399	-200.000	0.041	0.308
-273.384	800.000	0.046	0.186
-272.370	-118.792	0.167	-0.029
-271.355	686.265	0.080	0.207
-270.340	-17.717	0.067	-0.042
-269.326	800.000	-0.065	-0.189
-268.311	-140.776	-0.093	-0.009
-267.297	800.000	-0.072	-0.201
-266.282	-85.017	0.290	0.090
-265.267	-73.250	-0.241	-0.087
-264.253	-17.529	-0.190	-0.118
-263.238	-122.611	0.237	0.038
-262.224	328.285	0.045	0.084
-261.209	-21.283	-0.240	-0.144
-260.195	800.000	0.059	-0.221
-259.180	166.857	0.124	0.174
-258.165	600.551	0.184	0.450
-257.151	-200.000	0.043	0.279
-256.136	358.115	0.104	-0.204
-255.122	-98.304	-0.171	0.043
-254.107	-200.000	0.014	0.498
-253.092	-200.000	-0.020	0.168
-252.078	51.067	0.268	-0.251
-251.063	-153.493	0.169	-0.012
-250.049	7.704	0.292	0.216
-249.034	58.366	0.118	-0.114
-248.019	-200.000	-0.011	0.099
-247.005	-98.606	0.331	0.083
-245.990	-99.663	-0.168	-0.042
-244.976	217.351	0.242	0.381
-243.961	658.556	-0.049	-0.125
-242.946	-164.486	0.241	0.011
-241.932	23.580	0.257	0.208
-240.917	233.318	0.114	0.185
-239.903	800.000	-0.033	-0.109
-238.888	800.000	-0.072	-0.299
-237.873	-200.000	0.014	0.079
-236.859	-52.937	-0.148	0.067
-235.844	800.000	-0.053	0.228
-234.830	-200.000	0.016	-0.339
-233.815	-200.000	-0.048	-0.313
-232.800	611.671	0.078	0.191
-231.786	-177.438	-0.118	0.003
-230.771	342.286	0.017	0.033
-229.757	-79.395	0.117	0.039
-228.742	42.050	-0.296	-0.265
-227.727	-64.978	-0.227	0.091
-226.713	-135.589	0.466	-0.055
-225.698	104.596	-0.149	-0.172
-224.684	-30.353	0.262	-0.147
-223.669	-155.371	0.206	-0.013
-222.655	-200.000	-0.385	-0.001
-221.640	800.000	-0.045	0.174
-220.625	800.000	0.064	0.183
-219.611	-135.987	-0.138	-0.016
-218.596	800.000	-0.071	-0.244
-217.582	76.812	0.126	0.132
-216.567	97.869	0.103	0.117
-215.552	800.000	-0.009	-0.033
-214.538	-69.812	0.307	0.116
-213.523	128.026	0.101	-0.127
-212.509	563.151	0.107	-0.255
-211.494	-200.000	-0.190	0.000
-210.479	125.060	-0.223	-0.277
-209.465	-200.000	-0.017	0.218
-208.450	-200.000	0.047	0.203
-207.436	-83.076	-0.020	-0.006
-206.421	800.000	0.031	0.097
-205.406	-28.922	0.363	0.205
-204.392	-155.708	-0.339	0.021
-203.377	-113.432	0.111	0.021
-202.363	-171.493	0.040	-0.001
-201.348	6.776	-0.257	-0.188
-200.333	581.811	-0.056	0.136
-199.319	374.857	-0.080	0.161
-198.304	714.360	-0.094	-0.246
-197.290	800.000	0.059	-0.177
-196.275	-200.000	-0.005	-0.147
-195.260	800.000	-0.015	0.046
-194.246	-200.000	0.004	0.248
-193.231	19.297	0.330	-0.261
-192.217	-87.819	-0.215	-0.064
-191.202	716.745	-0.121	0.317
-190.187	17.362	-0.255	0.199
-189.173	-126.728	-0.068	-0.010
-188.158	-111.113	0.366	0.074
-187.144	-126.037	-0.352	-0.052
-186.129	-101.971	0.214	-0.051
-185.114	201.299	0.101	0.153
-184.100	-64.814	-0.430	-0.171
-183.085	63.493	0.078	-0.077
-182.071	-67.236	-0.353	0.137
-181.056	-45.338	-0.163	0.080
-180.042	11.658	0.163	0.123
-179.027	-43.648	-0.130	0.065
-178.012	421.667	-0.040	0.084
-176.998	-200.000	0.029	-0.154
-175.983	511.978	0.041	-0.094
-174.969	-109.259	-0.255	0.053
-173.954	33.377	-0.069	0.059
-172.939	-29.267	0.383	-0.216
-171.925	194.720	-0.093	-0.139
-170.910	400.361	0.102	-0.210
-169.896	-200.000	-0.003	-0.185
-168.881	55.849	0.232	-0.221
-167.866	-31.610	0.293	0.162
-166.852	-28.870	0.198	0.112
-165.837	304.888	-0.228	0.416
-164.823	181.231	0.145	0.209
-163.808	-198.380	0.082	0.000
-162.793	-200.000	0.038	0.165
-161.779	-87.597	-0.144	-0.043
-160.764	-108.808	0.348	0.073
-159.750	45.099	0.127	-0.115
-158.735	-170.039	0.221	0.008
-157.720	-200.000	-0.051	0.334
-156.706	800.000	-0.059	-0.231
-155.691	-109.663	0.224	-0.046
-154.677	50.122	0.062	0.057
-153.662	140.833	0.096	-0.125
-152.647	-200.000	0.019	0.348
-151.633	401.336	0.064	-0.133
-150.618	292.246	0.212	0.380
-149.604	631.605	0.148	0.368
-148.589	206.273	0.028	-0.043
-147.574	96.438	0.263	-0.295
-146.560	800.000	0.077	0.245
-145.545	-25.208	0.257	-0.149
-144.531	800.000	0.168	0.520
-143.516	1.936	-0.060	0.042
-142.502	-79.069	0.184	-0.061
-141.487	-10.522	-0.271	0.176
-140.472	149.917	-0.351	0.467
-139.458	-94.274	0.127	-0.034
-138.443	-115.970	-0.185	0.034
-137.429	-52.417	0.188	0.085
-136.414	-11.611	-0.242	0.156
-135.399	-142.010	0.094	-0.009
-134.385	-200.000	-0.004	-0.023
-133.370	-65.026	0.255	0.101
-132.356	-127.198	0.104	-0.015
-131.341	14.163	0.175	0.133
-130.326	90.029	-0.176	-0.193
-129.312	-183.552	-0.131	-0.002
-128.297	-200.000	-0.024	0.121
-127.283	680.870	0.119	-0.303
-126.268	359.868	-0.047	-0.093
-125.253	800.000	0.149	0.434
-124.239	1.283	-0.163	0.115
-123.224	-25.719	0.206	-0.119
