DTS Sentinel unit serial number:	SN413079Multiplexer serial number:	ORYXHardware model number:	OX4-SRSoftware version number:	ORYX F/W v4.00 Oryx Data Collector v3.7.2.0data status	okinstallation	princeton_trtdifferential loss correction	single-endedforward channel	channel 3reverse channel	N/Adate	2019/09/15time	19:12:35forward acquisition time	60.00reverse acquisition time	0.00gamma	496.2192k internal	0.2294k external	0.2294temperature offset calibration	0.9938default loss term (dB/km)	0.3790temperature slope calibration	1.0000multiplexer offset coefficient	1.0000multiplexer slope coefficient	1.0000fibre end	0.00T internal ref (°C)	40.77T ext. ref 1 (°C)	7.12T ext. ref 2 (°C)	30.08length (m)	temperature (°C)	Stokes	anti-Stokes-747.200	-74.251	-0.130	-0.048
-746.185	800.000	-0.106	0.315
-745.171	-106.549	0.312	-0.071
-744.156	127.999	0.167	0.217
-743.142	-72.312	0.227	-0.086
-742.127	-85.162	-0.231	0.074
-741.112	136.588	0.169	-0.226
-740.098	-82.058	-0.215	-0.072
-739.083	-132.278	-0.411	0.054
-738.069	-200.000	0.014	0.289
-737.054	-132.990	0.040	-0.005
-736.039	800.000	-0.082	-0.230
-735.025	800.000	-0.113	0.350
-734.010	21.391	-0.150	-0.124
-732.996	-90.704	0.194	-0.057
-731.981	-59.101	-0.195	-0.086
-730.966	-12.451	0.379	0.253
-729.952	-200.000	-0.037	-0.187
-728.937	-111.782	-0.266	0.055
-727.923	88.602	-0.196	0.223
-726.908	-30.992	-0.241	-0.139
-725.894	-200.000	-0.078	-0.351
-724.879	221.943	-0.197	-0.324
-723.864	255.956	-0.057	-0.100
-722.850	-92.013	0.035	-0.010
-721.835	-166.748	0.113	0.005
-720.821	-55.988	-0.147	-0.067
-719.806	-56.571	0.326	0.147
-718.791	800.000	0.074	0.285
-717.777	-200.000	0.043	0.198
-716.762	-76.694	0.067	0.024
-715.748	-200.000	0.011	-0.258
-714.733	800.000	0.042	-0.140
-713.718	176.015	0.153	-0.227
-712.704	-119.743	0.363	-0.064
-711.689	-110.240	0.156	0.033
-710.675	60.029	0.162	0.164
-709.660	648.420	0.096	0.251
-708.645	-106.788	-0.186	-0.042
-707.631	-40.078	0.106	-0.057
-706.616	800.000	0.036	-0.148
-705.602	-98.683	-0.230	0.060
-704.587	800.000	0.124	0.540
-703.572	57.639	0.128	-0.127
-702.558	157.165	0.044	-0.062
-701.543	-39.484	-0.335	-0.179
-700.529	-200.000	-0.350	0.001
-699.514	19.358	-0.093	0.076
-698.499	420.793	0.066	-0.143
-697.485	567.377	-0.098	-0.244
-696.470	-23.182	-0.280	0.172
-695.456	-98.862	-0.228	-0.059
-694.441	-28.624	-0.205	-0.120
-693.426	-107.734	-0.072	-0.016
-692.412	-200.000	-0.008	-0.296
-691.397	279.981	0.254	-0.462
-690.383	-106.004	0.029	0.007
-689.368	89.287	0.132	0.150
-688.354	-200.000	-0.005	0.319
-687.339	-200.000	0.000	-0.006
-686.324	376.457	-0.156	0.325
-685.310	788.517	0.096	0.269
-684.295	-119.995	-0.345	-0.060
-683.281	-154.713	-0.357	0.024
-682.266	-1.203	0.225	-0.162
-681.251	258.613	0.088	-0.154
-680.237	-39.500	0.307	0.164
-679.222	194.429	0.044	0.068
-678.208	-200.000	-0.041	-0.186
-677.193	-195.806	0.201	-0.001
-676.178	20.669	-0.127	-0.105
-675.164	81.279	-0.200	0.221
-674.149	-62.942	0.107	-0.045
-673.135	-116.965	-0.313	0.058
-672.120	-147.228	-0.106	-0.009
-671.105	439.722	-0.070	-0.157
-670.091	-79.451	0.157	-0.054
-669.076	-50.647	-0.082	-0.039
-668.062	800.000	-0.052	-0.214
-667.047	-200.000	-0.013	-0.135
-666.032	83.036	0.008	-0.008
-665.018	-102.773	-0.230	0.056
-664.003	520.302	-0.046	0.110
-662.989	-53.178	-0.064	-0.030
-661.974	165.856	-0.193	-0.279
-660.959	1.283	-0.341	-0.249
-659.945	-142.957	-0.088	0.009
-658.930	-150.663	-0.029	0.002
-657.916	10.477	0.339	-0.263
-656.901	-64.418	0.110	0.046
-655.886	575.736	-0.081	0.202
-654.872	800.000	0.063	-0.220
-653.857	82.364	-0.162	0.179
-652.843	182.999	0.113	0.170
-651.828	-74.482	-0.203	0.075
-650.814	800.000	-0.058	0.165
-649.799	-165.465	0.072	0.003
-648.784	30.784	-0.114	0.100
-647.770	-142.432	-0.161	0.016
-646.755	800.000	0.071	-0.254
-645.741	297.172	-0.239	-0.446
-644.726	-16.809	0.201	0.130
-643.711	-200.000	0.039	-0.292
-642.697	288.359	0.135	0.249
-641.682	-200.000	0.031	0.331
-640.668	-155.909	-0.461	0.030
-639.653	184.636	0.199	0.301
-638.638	-49.095	0.207	-0.101
-637.624	800.000	0.091	0.277
-636.609	191.175	0.197	-0.302
-635.595	-66.958	-0.251	-0.101
-634.580	-200.000	-0.005	-0.073
-633.565	22.394	0.393	0.327
-632.551	-130.365	0.008	0.001
-631.536	58.704	0.082	0.082
-630.522	-87.778	-0.187	0.057
-629.507	-45.563	-0.187	-0.094
-628.492	-115.029	-0.288	0.056
-627.478	-101.743	-0.083	0.021
-626.463	-187.300	0.314	0.004
-625.449	-89.350	0.078	-0.023
-624.434	-62.752	0.122	-0.051
-623.419	202.543	-0.185	0.291
-622.405	76.343	0.166	0.179
-621.390	541.907	0.125	-0.303
-620.376	7.246	0.171	0.130
-619.361	-61.421	-0.137	-0.058
-618.346	-49.447	0.401	0.194
-617.332	-200.000	-0.037	-0.435
-616.317	-136.118	0.189	-0.023
-615.303	-72.468	0.130	0.049
-614.288	-60.208	0.219	0.095
-613.273	23.614	-0.160	0.134
-612.259	-200.000	-0.008	-0.094
-611.244	65.964	-0.149	-0.154
-610.230	205.551	-0.207	-0.327
-609.215	438.998	-0.088	-0.195
-608.201	-87.523	-0.237	0.073
-607.186	800.000	-0.032	-0.126
-606.171	-149.408	0.171	-0.014
-605.157	-78.186	0.376	-0.132
-604.142	299.579	0.054	0.101
-603.128	659.679	0.055	-0.144
-602.113	-63.878	-0.158	-0.066
-601.098	153.773	0.125	0.174
-600.084	156.000	-0.106	-0.149
-599.069	35.625	-0.129	-0.115
-598.055	-152.133	-0.571	0.042
-597.040	19.682	-0.175	0.143
-596.025	159.970	-0.152	0.215
-595.011	251.572	-0.196	-0.339
-593.996	-159.871	0.095	-0.005
-592.982	-114.369	-0.369	0.072
-591.967	-200.000	0.021	-0.252
-590.952	-88.150	0.260	0.079
-589.938	715.047	-0.037	0.099
-588.923	-111.664	0.370	-0.076
-587.909	-29.033	0.185	0.108
-586.894	-18.866	0.140	-0.089
-585.879	-5.049	0.053	0.037
-584.865	80.882	0.185	0.203
-583.850	53.279	-0.296	0.288
-582.836	57.054	-0.251	0.249
-581.821	323.250	-0.041	-0.079
-580.806	-171.298	-0.502	-0.017
-579.792	127.084	-0.110	-0.141
-578.777	-200.000	0.005	0.205
-577.763	-45.374	-0.155	-0.078
-576.748	-62.637	-0.278	-0.117
-575.733	26.121	0.092	-0.078
-574.719	129.512	0.100	-0.130
-573.704	-100.542	-0.034	-0.009
-572.690	137.425	-0.134	-0.178
-571.675	800.000	-0.010	-0.034
-570.661	355.993	-0.119	0.241
-569.646	196.823	0.075	0.116
-568.631	92.133	0.251	-0.287
-567.617	152.225	-0.025	-0.035
-566.602	7.832	0.122	-0.093
-565.588	239.624	0.114	-0.192
-564.573	800.000	-0.022	-0.076
-563.558	-159.093	0.344	0.020
-562.544	-200.000	-0.043	0.383
-561.529	92.093	-0.140	0.160
-560.515	-122.089	-0.028	0.005
-559.500	-3.251	-0.376	0.266
-558.485	800.000	-0.056	0.210
-557.471	-114.950	-0.222	-0.043
-556.456	367.514	-0.085	-0.173
-555.442	-31.677	0.180	0.103
-554.427	348.631	0.089	0.178
-553.412	-176.762	-0.269	-0.007
-552.398	-156.394	0.209	-0.013
-551.383	573.991	-0.098	0.243
-550.369	-28.466	-0.146	-0.085
-549.354	-143.712	-0.130	0.012
-548.339	-190.778	0.142	-0.002
-547.325	52.932	0.164	0.160
-546.310	-5.774	-0.058	-0.040
-545.296	138.068	0.147	-0.196
-544.281	-43.735	0.159	-0.081
-543.266	-76.346	0.143	-0.051
-542.252	383.491	0.152	-0.317
-541.237	19.619	-0.149	-0.122
-540.223	338.897	-0.089	-0.176
-539.208	347.888	-0.208	-0.415
-538.193	-90.345	-0.322	0.095
-537.179	432.757	-0.106	0.233
-536.164	105.702	-0.086	-0.103
-535.150	246.911	-0.242	0.414
-534.135	17.486	0.406	0.327
-533.121	32.834	-0.123	0.108
-532.106	163.006	-0.095	-0.135
-531.091	-68.062	-0.275	-0.109
-530.077	800.000	-0.091	0.288
-529.062	-88.999	0.176	0.053
-528.048	-200.000	-0.079	-0.504
-527.033	3.298	0.399	0.294
-526.018	3.798	-0.055	0.041
-525.004	-200.000	-0.008	0.082
-523.989	11.414	-0.111	-0.086
-522.975	86.953	0.184	-0.206
-521.960	11.353	-0.207	0.161
-520.945	-4.404	-0.040	-0.028
-519.931	-114.216	-0.144	-0.028
-518.916	172.304	-0.179	-0.261
-517.902	-200.000	0.021	-0.551
-516.887	-126.360	-0.263	-0.040
-515.872	-13.053	-0.309	0.203
-514.858	1.633	0.225	-0.164
-513.843	88.735	-0.388	-0.437
-512.829	-96.790	0.182	-0.048
-511.814	-200.000	0.023	0.234
-510.799	92.587	0.156	-0.178
-509.785	-110.207	0.184	-0.039
-508.770	-17.067	0.134	0.086
-507.756	-192.775	-0.124	0.001
-506.741	-34.634	-0.102	0.057
-505.726	-5.719	-0.123	0.085
-504.712	71.889	-0.032	-0.033
-503.697	188.251	-0.075	0.113
-502.683	-169.774	0.113	-0.004
-501.668	800.000	-0.065	0.253
-500.653	-200.000	-0.016	-0.201
-499.639	292.147	-0.074	0.136
-498.624	1.892	-0.251	-0.184
-497.610	60.158	-0.102	-0.102
-496.595	-14.236	-0.040	-0.026
-495.581	-200.000	0.003	-0.053
-494.566	145.189	-0.081	-0.110
-493.551	-200.000	-0.016	-0.264
-492.537	18.198	-0.248	-0.200
-491.522	64.195	0.168	-0.171
-490.508	17.178	0.275	0.220
-489.493	715.403	-0.072	0.193
-488.478	-200.000	0.038	-0.355
-487.464	-141.248	-0.297	-0.031
-486.449	-5.608	0.310	0.215
-485.435	-160.548	0.235	0.013
-484.420	-114.836	-0.210	-0.040
-483.405	-119.307	0.342	0.060
-482.391	-69.527	0.171	-0.066
-481.376	254.947	0.080	0.139
-480.362	65.136	-0.225	0.230
-479.347	-147.329	-0.365	-0.031
-478.332	-41.113	-0.219	-0.114
-477.318	-157.305	-0.181	0.011
-476.303	-149.567	0.276	-0.022
-475.289	-36.812	0.163	-0.089
-474.274	-23.589	-0.190	0.115
-473.259	-82.883	0.071	0.023
-472.245	-54.389	-0.350	-0.161
-471.230	-133.191	0.119	-0.015
-470.216	215.738	0.169	-0.272
-469.201	-83.646	0.149	0.048
-468.186	322.564	0.053	0.102
-467.172	-113.653	0.400	-0.079
-466.157	307.523	0.127	0.240
-465.143	-93.102	0.531	0.150
-464.128	-32.533	0.064	-0.036
-463.113	215.148	0.168	0.269
-462.099	800.000	-0.061	0.214
-461.084	-132.266	-0.227	-0.030
-460.070	-181.982	0.426	0.008
-459.055	327.105	-0.197	-0.381
-458.040	-200.000	0.028	-0.124
-457.026	-115.532	-0.166	0.032
-456.011	-200.000	0.039	0.431
-454.997	-32.486	0.107	-0.060
-453.982	-45.538	0.126	-0.063
-452.968	24.487	-0.122	0.102
-451.953	-56.429	-0.257	-0.115
-450.938	-164.102	-0.061	-0.003
-449.924	135.305	0.196	0.257
-448.909	-128.271	0.250	-0.036
-447.895	-90.885	0.228	-0.066
-446.880	-110.144	0.346	0.073
-445.865	136.606	0.045	0.059
-444.851	72.629	0.278	0.293
-443.836	8.837	0.086	-0.065
-442.822	-128.998	-0.253	-0.036
-441.807	25.183	-0.031	0.026
-440.792	-59.799	-0.094	-0.041
-439.778	215.744	-0.119	-0.190
-438.763	127.778	-0.087	-0.112
-437.749	800.000	0.062	0.211
-436.734	-104.098	-0.083	-0.019
-435.719	-151.448	-0.299	0.022
-434.705	-200.000	0.018	0.210
-433.690	703.621	0.105	0.279
-432.676	-200.000	0.001	-0.100
-431.661	317.791	0.166	-0.317
-430.646	90.365	-0.199	0.224
-429.632	-113.391	-0.328	-0.065
-428.617	-200.000	-0.001	-0.095
-427.603	329.638	-0.218	0.424
-426.588	-175.417	-0.160	0.004
-425.573	-200.000	-0.067	0.615
-424.559	-200.000	0.031	-0.324
-423.544	-200.000	0.038	0.349
-422.530	-6.719	-0.194	-0.133
-421.515	417.682	0.085	0.183
-420.500	-200.000	-0.022	0.108
-419.486	0.728	-0.464	0.335
-418.471	84.579	0.137	0.151
-417.457	-200.000	-0.031	-0.150
-416.442	57.813	-0.165	0.163
-415.428	-83.300	-0.289	0.094
-414.413	-200.000	0.014	0.087
-413.398	730.234	0.045	0.122
-412.384	-200.000	-0.046	-0.212
-411.369	-200.000	-0.007	0.274
-410.355	71.201	0.151	-0.158
-409.340	-200.000	0.022	-0.224
-408.325	298.986	-0.171	-0.318
-407.311	369.847	-0.104	-0.213
-406.296	-147.275	0.229	-0.020
-405.282	-60.014	-0.326	0.141
-404.267	800.000	-0.030	0.116
-403.252	65.223	0.260	-0.265
-402.238	-109.967	-0.121	0.026
-401.223	-108.735	0.074	0.016
-400.209	46.107	-0.275	0.257
-399.194	-200.000	-0.028	0.183
-398.179	80.690	0.229	0.249
-397.165	8.880	0.211	-0.160
-396.150	127.327	0.204	0.261
-395.136	-99.559	-0.202	-0.051
-394.121	-26.878	0.464	0.274
-393.106	292.291	0.173	0.317
-392.092	397.038	0.058	0.123
-391.077	79.457	0.028	0.031
-390.063	-23.327	-0.162	0.098
-389.048	246.338	-0.089	-0.151
-388.033	800.000	0.009	0.035
-387.019	-6.191	0.269	-0.185
-386.004	-200.000	0.006	-0.085
-384.990	-200.000	-0.048	-0.239
-383.975	800.000	-0.070	0.272
-382.960	-107.835	-0.156	0.034
-381.946	800.000	0.073	-0.219
-380.931	-200.000	-0.008	-0.116
-379.917	-200.000	-0.013	-0.613
-378.902	564.523	0.081	-0.199
-377.888	-200.000	0.070	-0.452
-376.873	800.000	-0.019	-0.080
-375.858	102.226	0.094	0.111
-374.844	94.331	0.046	0.052
-373.829	-51.120	-0.224	-0.106
-372.815	11.755	0.305	0.236
-371.800	235.026	-0.141	-0.235
-370.785	-35.598	-0.196	0.107
-369.771	-146.195	0.208	-0.018
-368.756	167.270	-0.068	0.097
-367.742	-118.589	0.290	-0.052
-366.727	-200.000	0.026	0.197
-365.712	-53.081	0.169	-0.078
-364.698	-81.666	-0.167	-0.055
-363.683	109.902	-0.112	-0.135
-362.669	92.580	0.163	-0.186
-361.654	-49.814	-0.068	-0.033
-360.639	-68.803	-0.104	-0.040
-359.625	239.052	0.184	0.308
-358.610	-97.151	0.143	-0.038
-357.596	800.000	0.057	0.186
-356.581	282.605	0.045	-0.081
-355.566	-10.656	-0.173	-0.115
-354.552	800.000	-0.072	-0.270
-353.537	323.239	-0.218	0.418
-352.523	800.000	-0.063	0.222
-351.508	-200.000	-0.002	-0.016
-350.493	204.473	0.069	-0.108
-349.479	313.417	0.030	0.057
-348.464	110.950	0.167	-0.202
-347.450	148.525	0.091	-0.124
-346.435	488.515	0.103	0.237
-345.420	638.650	0.036	-0.093
-344.406	139.907	0.026	-0.035
-343.391	-124.788	-0.043	0.007
-342.377	304.571	-0.118	0.221
-341.362	-45.197	-0.107	-0.054
-340.348	108.300	0.135	-0.162
-339.333	800.000	-0.040	0.173
-338.318	-110.745	-0.119	0.025
-337.304	-128.841	-0.361	-0.051
-336.289	80.682	-0.216	0.235
-335.275	-10.959	-0.057	0.038
-334.260	114.104	0.106	0.129
-333.245	-28.176	-0.308	-0.179
-332.231	-70.053	-0.255	-0.098
-331.216	-102.064	0.284	-0.069
-330.202	71.607	0.186	0.194
-329.187	-27.181	0.090	-0.053
-328.172	260.624	0.082	-0.142
-327.158	138.422	0.248	-0.328
-326.143	-87.115	0.294	0.090
-325.129	-200.000	0.012	0.225
-324.114	298.340	-0.122	0.226
-323.099	-57.451	0.215	0.095
-322.085	-37.147	-0.143	0.077
-321.070	158.896	-0.011	0.015
-320.056	198.667	-0.158	-0.244
-319.041	-149.636	0.213	0.017
-318.026	-200.000	-0.016	-0.086
-317.012	62.603	0.059	0.059
-315.997	160.855	0.229	-0.322
-314.983	-17.390	0.249	0.158
-313.968	158.065	0.101	-0.140
-312.953	-200.000	0.022	-0.116
-311.939	-163.035	0.259	-0.013
-310.924	-161.086	-0.159	-0.008
-309.910	416.759	0.102	-0.218
-308.895	-84.386	-0.142	-0.045
-307.880	294.605	0.120	0.220
-306.866	70.069	-0.124	0.128
-305.851	156.799	0.137	-0.190
-304.837	-95.306	-0.346	-0.094
-303.822	-200.000	0.003	-0.277
-302.807	-92.445	0.342	-0.097
-301.793	-128.748	-0.256	0.036
-300.778	195.863	-0.089	-0.136
-299.764	16.444	0.241	0.191
-298.749	800.000	-0.083	0.263
-297.735	800.000	-0.078	-0.242
-296.720	30.460	0.377	-0.324
-295.705	-41.553	0.108	-0.056
-294.691	-200.000	-0.014	0.206
-293.676	-111.071	-0.384	-0.079
-292.662	-179.961	0.320	-0.007
-291.647	800.000	-0.025	0.104
-290.632	17.991	0.319	-0.255
-289.618	-200.000	-0.021	0.094
-288.603	356.742	0.100	0.201
-287.589	77.006	0.185	-0.197
-286.574	177.915	-0.206	0.302
-285.559	-54.889	-0.145	-0.066
-284.545	369.060	0.052	0.107
-283.530	800.000	-0.108	-0.344
-282.516	800.000	0.074	0.274
-281.501	31.750	-0.206	0.178
-280.486	330.477	-0.054	0.104
-279.472	-33.700	-0.055	0.030
-278.457	118.024	-0.019	-0.024
-277.443	96.184	-0.166	0.191
-276.428	724.121	-0.140	0.375
-275.413	-200.000	0.013	0.169
-274.399	46.794	0.091	-0.085
-273.384	670.837	0.050	0.130
-272.370	-82.489	-0.235	-0.076
-271.355	514.362	-0.092	0.216
-270.340	18.245	0.296	-0.237
-269.326	265.946	0.017	-0.031
-268.311	-135.084	0.225	0.027
-267.297	800.000	0.113	-0.408
-266.282	-153.231	-0.565	-0.040
-265.267	800.000	0.091	0.307
-264.253	45.803	0.115	0.107
-263.238	71.921	0.191	0.200
-262.224	-47.955	0.057	-0.027
-261.209	282.534	0.108	-0.194
-260.195	239.682	0.056	-0.094
-259.180	-114.737	0.136	0.026
-258.165	280.647	0.116	-0.209
-257.151	-135.881	-0.304	-0.036
-256.136	800.000	-0.109	-0.321
-255.122	-112.662	-0.155	0.031
-254.107	-200.000	0.023	0.210
-253.092	81.215	0.246	-0.266
-252.078	47.866	-0.078	-0.073
-251.063	-133.809	0.409	-0.051
-250.049	-122.389	0.307	0.050
-249.034	-178.212	-0.244	-0.006
-248.019	-46.086	-0.100	0.049
-247.005	-121.984	-0.116	-0.019
-245.990	-136.277	0.240	0.028
-244.976	-157.394	-0.265	0.016
-243.961	-75.863	-0.114	-0.041
-242.946	217.545	-0.110	-0.177
-241.932	182.530	-0.113	-0.167
-240.917	198.472	-0.110	0.169
-239.903	19.593	0.208	-0.168
-238.888	-148.053	0.244	-0.020
-237.873	-90.417	0.110	0.032
-236.859	32.877	-0.301	-0.261
-235.844	-193.772	-0.163	-0.001
-234.830	110.818	0.153	-0.185
-233.815	-91.789	0.345	-0.098
-232.800	-34.702	0.170	-0.093
-231.786	69.575	-0.176	0.181
-230.771	149.076	0.095	0.129
-229.757	-172.548	-0.137	-0.004
-228.742	109.049	0.182	0.218
-227.727	-173.576	0.243	-0.007
-226.713	70.993	0.114	0.119
-225.698	208.651	-0.055	0.087
-224.684	270.121	-0.128	-0.226
-223.669	-24.059	0.040	-0.024
-222.655	113.060	0.037	-0.045
-221.640	-200.000	0.173	0.001
-220.625	-9.355	0.213	-0.143
-219.611	15.880	0.127	-0.100
-218.596	-58.600	0.349	0.152
-217.582	-200.000	-0.013	-0.071
-216.567	583.383	0.090	-0.222
-215.552	-104.920	-0.234	0.054
-214.538	713.880	-0.059	-0.156
-213.523	-67.032	-0.204	-0.081
-212.509	-200.000	0.006	0.084
-211.494	800.000	0.103	-0.311
-210.479	241.867	-0.131	-0.219
-209.465	40.416	-0.257	0.232
-208.450	-82.889	0.127	-0.041
-207.436	-200.000	0.016	-0.188
-206.421	-25.476	-0.457	-0.271
-205.406	-149.756	0.344	-0.027
-204.392	-117.695	0.425	-0.077
-203.377	206.775	0.106	-0.165
-202.363	46.966	-0.027	-0.025
-201.348	800.000	0.085	-0.334
-200.333	71.495	0.130	0.135
-199.319	18.614	0.209	-0.168
-198.304	11.914	0.292	-0.225
-197.290	-160.811	0.284	-0.015
-196.275	121.389	-0.106	0.132
-195.260	-82.635	-0.258	-0.084
-194.246	161.438	0.061	0.085
-193.231	-101.981	0.371	0.090
-192.217	-103.292	-0.099	0.023
-191.202	800.000	-0.197	0.551
-190.187	210.230	-0.160	-0.251
-189.173	800.000	-0.050	-0.218
-188.158	-118.439	0.070	0.012
-187.144	190.034	-0.186	-0.280
-186.129	41.186	-0.114	-0.103
-185.114	-161.699	-0.466	-0.024
-184.100	-200.000	-0.031	0.171
-183.085	-200.000	0.048	-0.272
-182.071	179.727	-0.202	0.296
-181.056	800.000	-0.177	0.548
-180.042	-67.992	-0.272	-0.106
-179.027	-200.000	0.058	0.511
-178.012	-200.000	0.020	-0.113
-176.998	-200.000	0.058	0.264
-175.983	-74.480	-0.097	-0.035
-174.969	235.092	-0.234	0.386
-173.954	237.774	-0.059	0.098
-172.939	-200.000	-0.013	0.229
-171.925	-200.000	0.037	0.237
-170.910	775.443	0.042	0.116
-169.896	15.822	0.122	-0.096
-168.881	-91.863	-0.215	-0.061
-167.866	132.294	-0.101	0.130
-166.852	722.703	-0.016	0.042
-165.837	438.329	0.071	0.156
-164.823	87.899	0.222	0.246
-163.808	25.709	-0.114	0.095
-162.793	-60.010	-0.183	-0.078
-161.779	82.627	0.098	-0.106
-160.764	-197.563	-0.354	0.002
-159.750	-200.000	0.010	0.266
-158.735	-21.047	0.196	-0.120
-157.720	104.390	0.078	-0.091
-156.706	143.958	-0.154	0.205
-155.691	800.000	0.027	0.081
-154.677	10.443	0.191	0.145
-153.662	800.000	0.040	-0.149
-152.647	-79.826	0.021	-0.007
-151.633	103.679	0.160	-0.188
-150.618	-92.020	-0.150	-0.042
-149.604	800.000	0.076	-0.326
-148.589	-105.028	0.318	0.073
-147.574	-91.984	0.108	0.031
-146.560	-68.180	0.247	0.096
-145.545	-75.492	-0.152	-0.054
-144.531	-113.940	-0.135	0.026
-143.516	-136.752	-0.096	-0.011
-142.502	21.743	0.205	-0.166
-141.487	59.853	0.253	-0.250
-140.472	-19.283	-0.285	0.177
-139.458	-78.482	0.256	0.087
-138.443	-10.295	-0.257	0.170
-137.429	382.637	0.062	0.127
-136.414	147.425	-0.391	0.526
-135.399	-1.918	0.365	-0.257
-134.385	427.047	0.064	0.138
-133.370	267.607	0.048	-0.083
-132.356	-69.632	0.066	0.025
-131.341	-177.435	0.297	0.007
-130.326	95.639	0.193	-0.219
-129.312	-28.628	-0.242	-0.139
-128.297	-200.000	0.015	0.423
-127.283	110.687	0.288	-0.346
-126.268	257.782	-0.012	-0.020
-125.253	29.937	-0.165	-0.140
-124.239	800.000	-0.062	0.190
-123.224	-85.341	-0.082	0.025
-122.210	746.681	0.142	0.382
