DTS Sentinel unit serial number:	SN413079Multiplexer serial number:	ORYXHardware model number:	OX4-SRSoftware version number:	ORYX F/W v4.00 Oryx Data Collector v3.7.2.0data status	okinstallation	princeton_trtdifferential loss correction	single-endedforward channel	channel 3reverse channel	N/Adate	2019/09/18time	14:12:35forward acquisition time	60.00reverse acquisition time	0.00gamma	496.2192k internal	0.2311k external	0.2311temperature offset calibration	0.9971default loss term (dB/km)	0.3790temperature slope calibration	1.0000multiplexer offset coefficient	1.0000multiplexer slope coefficient	1.0000fibre end	0.00T internal ref (°C)	34.37T ext. ref 1 (°C)	0.68T ext. ref 2 (°C)	29.53length (m)	temperature (°C)	Stokes	anti-Stokes-747.200	254.966	-0.102	0.177
-746.185	-200.000	-0.018	0.402
-745.171	-150.690	-0.188	0.015
-744.156	800.000	0.086	0.265
-743.142	-50.152	-0.249	-0.120
-742.127	-85.279	0.282	0.089
-741.112	54.852	-0.232	0.228
-740.098	93.124	-0.278	0.319
-739.083	161.055	0.153	-0.217
-738.069	594.032	0.083	0.208
-737.054	-174.845	0.162	-0.005
-736.039	-43.394	0.080	0.041
-735.025	-23.892	0.275	-0.167
-734.010	63.685	-0.335	-0.341
-732.996	-52.972	0.158	-0.074
-731.981	800.000	-0.063	0.197
-730.966	-200.000	0.014	0.160
-729.952	-92.944	-0.439	0.124
-728.937	-200.000	0.013	-0.168
-727.923	86.801	-0.130	0.146
-726.908	-80.716	-0.198	0.067
-725.894	81.672	-0.264	-0.290
-724.879	72.967	-0.217	-0.230
-723.864	-172.720	-0.109	-0.003
-722.850	800.000	0.082	-0.256
-721.835	-55.918	-0.085	0.038
-720.821	50.556	0.219	-0.210
-719.806	538.080	-0.088	-0.211
-718.791	-200.000	-0.001	0.015
-717.777	-16.950	-0.231	0.148
-716.762	65.261	-0.188	0.193
-715.748	-37.056	-0.093	-0.051
-714.733	-124.675	-0.386	-0.061
-713.718	-167.804	-0.377	0.015
-712.704	-80.150	-0.361	-0.123
-711.689	-60.571	0.108	-0.047
-710.675	-200.000	-0.046	-0.352
-709.660	-56.674	0.092	-0.041
-708.645	800.000	-0.064	-0.190
-707.631	26.162	0.093	0.079
-706.616	542.756	0.091	-0.221
-705.602	-140.449	-0.114	-0.012
-704.587	-200.000	-0.121	0.000
-703.572	-200.000	-0.021	-0.292
-702.558	-19.011	-0.233	0.147
-701.543	-200.000	-0.031	-0.337
-700.529	33.297	0.216	0.190
-699.514	-200.000	0.020	-0.121
-698.499	800.000	-0.071	0.282
-697.485	-122.339	0.082	0.014
-696.470	-151.680	-0.052	-0.004
-695.456	234.845	-0.151	-0.253
-694.441	800.000	0.069	-0.215
-693.426	265.946	0.126	0.223
-692.412	-66.105	0.354	0.143
-691.397	166.640	0.069	-0.100
-690.383	-5.022	0.099	-0.069
-689.368	128.444	0.173	-0.223
-688.354	-45.685	-0.233	0.117
-687.339	-134.880	-0.181	0.022
-686.324	76.577	0.023	0.025
-685.310	-49.627	-0.120	0.058
-684.295	-77.278	0.166	-0.058
-683.281	800.000	0.100	-0.326
-682.266	-6.162	0.323	-0.223
-681.251	-200.000	0.025	0.296
-680.237	-69.066	-0.251	0.098
-679.222	-11.210	-0.162	0.108
-678.208	-74.357	-0.213	-0.078
-677.193	-95.163	-0.141	-0.039
-676.178	-62.069	-0.236	0.100
-675.164	-200.000	-0.019	-0.131
-674.149	-70.940	0.250	-0.095
-673.135	641.503	0.085	0.218
-672.120	800.000	-0.032	0.095
-671.105	800.000	-0.049	0.202
-670.091	185.263	0.065	0.098
-669.076	-23.720	0.086	0.052
-668.062	-48.143	-0.284	0.139
-667.047	-200.000	0.011	0.289
-666.032	715.114	-0.123	-0.330
-665.018	-200.000	-0.001	-0.316
-664.003	-88.023	0.090	-0.027
-662.989	-200.000	-0.007	0.087
-661.974	-200.000	-0.022	-0.137
-660.959	800.000	-0.069	-0.237
-659.945	12.768	-0.200	0.156
-658.930	-200.000	0.024	-0.219
-657.916	313.378	-0.099	-0.188
-656.901	-63.003	0.112	-0.047
-655.886	-50.295	-0.199	-0.095
-654.872	250.880	0.215	-0.369
-653.857	74.573	0.228	-0.243
-652.843	-44.545	0.291	-0.147
-651.828	224.569	-0.073	0.120
-650.814	95.702	0.206	0.238
-649.799	-114.547	-0.417	0.081
-648.784	-72.422	0.013	-0.005
-647.770	88.770	0.132	-0.149
-646.755	220.207	0.067	-0.108
-645.741	310.267	0.110	0.208
-644.726	-56.341	0.229	0.103
-643.711	115.622	-0.151	-0.187
-642.697	-41.190	-0.523	-0.273
-641.682	4.515	0.172	0.128
-640.668	2.674	-0.205	-0.150
-639.653	-32.324	0.116	0.065
-638.638	-103.078	0.189	0.045
-637.624	429.170	-0.101	-0.220
-636.609	384.981	-0.074	0.154
-635.595	-110.401	0.143	0.030
-634.580	-42.971	0.168	-0.086
-633.565	-200.000	-0.037	-0.228
-632.551	562.090	-0.113	-0.275
-631.536	328.009	0.085	0.165
-630.522	168.027	-0.058	0.083
-629.507	-145.679	0.086	-0.008
-628.492	-97.224	-0.102	-0.027
-627.478	759.515	-0.078	-0.213
-626.463	-23.798	-0.220	-0.133
-625.449	800.000	-0.123	0.396
-624.434	268.532	0.210	-0.371
-623.419	534.960	0.127	0.303
-622.405	-200.000	0.009	0.130
-621.390	46.296	0.078	0.073
-620.376	348.648	0.126	0.251
-619.361	800.000	0.066	-0.217
-618.346	-200.000	-0.022	0.191
-617.332	252.024	-0.197	0.338
-616.317	240.135	-0.146	-0.246
-615.303	-158.509	-0.340	0.020
-614.288	-200.000	0.069	-0.457
-613.273	-127.270	0.280	0.041
-612.259	50.446	0.250	-0.238
-611.244	8.150	-0.193	-0.146
-610.230	87.201	0.055	0.062
-609.215	-60.385	0.134	-0.058
-608.201	-103.684	0.016	0.004
-607.186	-104.165	-0.128	-0.030
-606.171	111.525	-0.066	-0.080
-605.157	800.000	0.033	-0.111
-604.142	-25.528	0.175	0.104
-603.128	645.019	-0.036	0.092
-602.113	8.721	-0.171	-0.130
-601.098	-76.946	-0.151	-0.053
-600.084	-64.139	0.255	-0.105
-599.069	-55.466	-0.318	0.144
-598.055	800.000	-0.122	0.451
-597.040	-200.000	-0.004	0.299
-596.025	565.681	0.018	-0.043
-595.011	371.631	-0.053	0.109
-593.996	-200.000	-0.020	0.298
-592.982	78.113	0.375	0.404
-591.967	174.460	-0.289	0.421
-590.952	15.650	0.110	-0.088
-589.938	378.220	-0.110	-0.227
-588.923	-200.000	0.086	-0.418
-587.909	-46.506	0.106	0.052
-586.894	73.475	-0.162	-0.171
-585.879	-166.311	-0.130	-0.006
-584.865	-125.088	0.126	0.020
-583.850	-185.845	-0.066	0.001
-582.836	375.940	0.032	0.066
-581.821	88.772	0.158	-0.178
-580.806	800.000	0.048	0.156
-579.792	-112.979	-0.322	-0.064
-578.777	-126.475	-0.204	-0.031
-577.763	143.541	0.026	-0.035
-576.748	-200.000	0.058	-0.284
-575.733	493.294	0.207	-0.478
-574.719	-147.068	-0.050	0.004
-573.704	-200.000	0.012	0.204
-572.690	-12.522	0.198	0.130
-571.675	88.203	0.121	0.136
-570.661	-200.000	0.077	-0.467
-569.646	-200.000	0.026	-0.153
-568.631	-72.256	0.187	0.070
-567.617	17.203	0.040	0.032
-566.602	124.998	-0.200	0.254
-565.588	10.962	-0.075	-0.058
-564.573	174.983	-0.115	0.167
-563.558	-103.419	0.363	-0.086
-562.544	-107.867	-0.054	0.012
-561.529	345.355	-0.093	-0.184
-560.515	216.940	0.156	-0.251
-559.500	-14.518	0.182	0.118
-558.485	-96.569	0.132	0.035
-557.471	585.729	0.023	0.057
-556.456	-113.568	-0.296	-0.058
-555.442	198.606	0.274	0.422
-554.427	144.270	-0.115	0.154
-553.412	455.953	-0.056	-0.126
-552.398	212.883	-0.232	0.369
-551.383	-42.415	0.194	-0.100
-550.369	-111.410	0.273	-0.056
-549.354	202.260	-0.176	0.274
-548.339	56.525	0.244	0.239
-547.325	800.000	-0.090	0.366
-546.310	-200.000	0.025	-0.345
-545.296	38.132	0.113	-0.101
-544.281	-200.000	-0.053	0.385
-543.266	195.126	0.109	0.166
-542.252	302.389	-0.032	-0.059
-541.237	-85.367	0.435	-0.137
-540.223	271.135	-0.079	-0.141
-539.208	448.102	-0.177	-0.392
-538.193	-112.211	0.138	-0.028
-537.179	49.459	0.127	0.120
-536.164	163.561	-0.100	-0.142
-535.150	-73.599	0.344	0.126
-534.135	-17.169	0.298	0.189
-533.121	-0.734	-0.271	0.193
-532.106	34.056	-0.229	-0.201
-531.091	61.555	-0.114	0.114
-530.077	428.321	-0.130	0.282
-529.062	40.852	-0.224	0.204
-528.048	-42.139	0.204	0.105
-527.033	396.972	0.046	0.096
-526.018	800.000	-0.034	-0.137
-525.004	-43.598	0.192	0.098
-523.989	-200.000	-0.041	0.388
-522.975	16.918	0.021	-0.016
-521.960	129.084	-0.085	-0.109
-520.945	408.234	0.105	-0.222
-519.931	-200.000	-0.013	-0.101
-518.916	-200.000	-0.009	0.255
-517.902	65.616	0.086	-0.088
-516.887	67.017	0.167	0.172
-515.872	11.728	-0.207	0.159
-514.858	25.786	0.174	0.146
-513.843	-76.769	0.262	0.092
-512.829	331.640	0.011	-0.022
-511.814	-134.254	-0.277	0.034
-510.799	26.952	0.264	0.223
-509.785	121.638	0.145	0.182
-508.770	210.427	0.039	-0.061
-507.756	72.517	-0.186	0.195
-506.741	-139.737	0.369	0.039
-505.726	244.152	0.046	0.078
-504.712	-53.001	-0.131	0.061
-503.697	106.435	-0.122	0.146
-502.683	116.482	-0.076	0.094
-501.668	-98.631	-0.201	0.052
-500.653	-15.561	-0.191	-0.122
-499.639	-49.182	0.228	-0.110
-498.624	696.013	-0.110	0.289
-497.610	800.000	0.063	0.246
-496.595	-200.000	0.097	-0.512
-495.581	-200.000	-0.103	-0.466
-494.566	-150.072	-0.063	-0.005
-493.551	-191.513	-0.326	-0.003
-492.537	72.269	0.293	-0.307
-491.522	-141.406	-0.097	0.010
-490.508	-65.234	-0.240	0.097
-489.493	-25.576	0.132	0.078
-488.478	33.160	0.178	-0.155
-487.464	9.390	-0.085	0.065
-486.449	-191.882	0.065	-0.001
-485.435	125.676	-0.096	0.121
-484.420	0.811	-0.156	0.112
-483.405	-167.427	0.158	0.006
-482.391	-200.000	-0.082	0.509
-481.376	-117.141	0.385	-0.070
-480.362	50.837	-0.047	-0.044
-479.347	347.689	-0.131	-0.260
-478.332	-100.655	-0.197	-0.049
-477.318	-200.000	0.023	-0.328
-476.303	800.000	-0.104	0.370
-475.289	139.649	0.110	0.145
-474.274	-69.843	0.083	0.032
-473.259	-200.000	-0.032	-0.485
-472.245	-42.132	0.190	0.098
-471.230	-200.000	-0.001	-0.262
-470.216	98.332	-0.189	0.219
-469.201	-200.000	-0.006	-0.070
-468.186	-20.654	-0.144	-0.089
-467.172	-200.000	0.039	-0.300
-466.157	80.696	-0.087	0.094
-465.143	-133.427	-0.106	-0.013
-464.128	298.634	-0.078	0.144
-463.113	-179.127	0.094	-0.002
-462.099	-48.768	-0.404	-0.194
-461.084	-117.838	-0.253	-0.046
-460.070	-41.572	-0.213	-0.110
-459.055	651.619	0.103	-0.264
-458.040	-101.829	-0.214	-0.052
-457.026	-50.909	-0.350	0.165
-456.011	-92.411	-0.373	0.105
-454.997	-91.970	-0.132	0.038
-453.982	307.525	0.052	0.097
-452.968	233.181	0.170	0.281
-451.953	800.000	-0.049	0.157
-450.938	288.810	0.038	-0.069
-449.924	532.689	0.117	0.278
-448.909	25.899	0.260	-0.217
-447.895	-1.252	-0.210	0.149
-446.880	-145.239	0.251	0.023
-445.865	470.787	-0.045	-0.101
-444.851	800.000	-0.021	0.087
-443.836	225.693	-0.207	0.336
-442.822	-73.726	0.118	-0.043
-441.807	-82.240	-0.034	0.011
-440.792	-200.000	0.005	0.156
-439.778	295.087	-0.026	0.047
-438.763	538.481	-0.036	0.085
-437.749	246.453	0.212	0.359
-436.734	193.946	0.015	-0.023
-435.719	-54.742	-0.065	-0.029
-434.705	-30.730	-0.113	0.064
-433.690	-91.918	-0.348	-0.099
-432.676	-126.237	-0.065	-0.010
-431.661	199.245	0.045	-0.069
-430.646	230.467	-0.135	0.222
-429.632	-200.000	0.043	0.210
-428.617	119.258	-0.150	0.186
-427.603	48.254	-0.177	0.166
-426.588	417.089	-0.066	-0.142
-425.573	9.998	-0.156	-0.118
-424.559	-200.000	-0.050	0.441
-423.544	48.587	0.088	0.082
-422.530	-8.185	-0.249	-0.168
-421.515	800.000	-0.054	-0.216
-420.500	178.549	-0.103	-0.150
-419.486	140.085	0.188	0.249
-418.471	-107.910	-0.311	0.068
-417.457	-200.000	0.036	-0.239
-416.442	-99.671	0.070	-0.018
-415.428	-87.584	-0.463	0.140
-414.413	43.811	0.212	-0.195
-413.398	800.000	0.090	0.367
-412.384	557.595	-0.143	-0.346
-411.369	261.511	-0.120	-0.209
-410.355	266.347	-0.064	0.112
-409.340	-21.100	-0.131	-0.080
-408.325	-64.929	0.039	0.016
-407.311	-200.000	0.057	-0.323
-406.296	-33.146	-0.127	0.071
-405.282	800.000	-0.035	0.140
-404.267	87.767	0.170	0.188
-403.252	-76.161	0.274	-0.097
-402.238	-88.253	0.456	0.137
-401.223	-135.723	0.157	0.019
-400.209	-35.388	0.233	-0.127
-399.194	-78.560	0.121	-0.041
-398.179	104.502	0.123	0.145
-397.165	-136.727	0.130	-0.015
-396.150	-104.966	0.267	-0.061
-395.136	-200.000	-0.014	-0.095
-394.121	342.078	-0.211	-0.414
-393.106	-200.000	-0.043	-0.252
-392.092	15.029	-0.145	0.114
-391.077	-130.550	0.152	-0.021
-390.063	-33.288	-0.068	0.038
-389.048	-200.000	-0.031	0.181
-388.033	264.586	-0.147	-0.257
-387.019	109.137	0.188	-0.225
-386.004	32.606	-0.177	0.154
-384.990	23.900	-0.060	-0.049
-383.975	175.496	0.129	0.186
-382.960	-90.476	0.088	-0.026
-381.946	316.149	0.020	-0.038
-380.931	445.625	0.225	0.494
-379.917	10.591	0.038	-0.029
-378.902	174.497	0.020	0.028
-377.888	-86.704	0.266	0.081
-376.873	-102.329	-0.146	-0.035
-375.858	-194.037	0.254	-0.002
-374.844	-200.000	-0.008	-0.079
-373.829	-30.925	0.300	-0.169
-372.815	-200.000	-0.035	-0.197
-371.800	-167.593	-0.273	-0.011
-370.785	299.950	-0.009	-0.017
-369.771	-130.548	-0.267	0.036
-368.756	94.795	0.136	0.155
-367.742	-116.775	-0.508	-0.093
-366.727	-200.000	-0.022	0.435
-365.712	27.711	-0.277	0.234
-364.698	-200.000	-0.008	-0.133
-363.683	-200.000	0.013	-0.212
-362.669	-55.934	0.059	-0.026
-361.654	-166.866	-0.325	-0.013
-360.639	-165.814	0.440	0.019
-359.625	19.290	-0.203	0.163
-358.610	800.000	0.111	-0.422
-357.596	-200.000	-0.072	-0.322
-356.581	-95.694	0.087	-0.023
-355.566	81.005	-0.215	-0.232
-354.552	800.000	-0.026	0.107
-353.537	257.427	0.140	-0.241
-352.523	-109.843	0.212	-0.045
-351.508	108.965	-0.318	-0.380
-350.493	-19.309	-0.170	-0.105
-349.479	800.000	-0.046	0.132
-348.464	-180.527	0.247	-0.005
-347.450	-116.809	-0.180	-0.033
-346.435	-102.045	0.127	-0.031
-345.420	276.680	-0.091	-0.161
-344.406	-200.000	0.055	-0.270
-343.391	13.032	-0.121	-0.093
-342.377	-200.000	-0.035	-0.280
-341.362	465.974	0.127	-0.285
-340.348	-134.876	-0.043	0.005
-339.333	147.827	-0.034	-0.046
-338.318	800.000	0.020	-0.077
-337.304	-39.070	0.161	-0.084
-336.289	-84.473	0.267	0.084
-335.275	-135.344	-0.318	0.038
-334.260	18.322	0.080	0.064
-333.245	-11.444	-0.182	-0.120
-332.231	800.000	-0.026	-0.111
-331.216	32.954	-0.028	-0.024
-330.202	-143.735	-0.329	0.031
-329.187	51.958	0.271	0.258
-328.172	800.000	0.062	-0.203
-327.158	113.783	0.155	0.188
-326.143	-200.000	0.009	-0.178
-325.129	-200.000	-0.042	-0.296
-324.114	265.364	-0.101	-0.175
-323.099	412.260	0.079	0.167
-322.085	340.295	-0.067	0.131
-321.070	746.559	-0.036	0.096
-320.056	-200.000	0.036	-0.204
-319.041	25.305	0.092	0.076
-318.026	1.107	-0.294	0.210
-317.012	139.112	0.146	-0.191
-315.997	376.401	-0.180	-0.366
-314.983	44.590	0.162	-0.148
-313.968	-200.000	-0.029	-0.145
-312.953	314.421	0.121	-0.227
-311.939	-200.000	0.052	0.434
-310.924	-146.024	0.272	0.024
-309.910	48.050	0.256	0.239
-308.895	100.337	-0.161	-0.186
-307.880	-200.000	0.022	-0.220
-306.866	-49.349	-0.221	0.105
-305.851	-26.872	-0.118	-0.069
-304.837	-82.767	0.127	-0.041
-303.822	-200.000	0.033	-0.271
-302.807	800.000	-0.020	-0.085
-301.793	371.536	-0.221	0.448
-300.778	-103.570	-0.331	-0.077
-299.764	48.532	0.199	0.186
-298.749	113.907	-0.026	-0.032
-297.735	800.000	-0.089	0.266
-296.720	312.922	0.141	0.264
-295.705	21.326	-0.101	0.082
-294.691	-51.081	0.094	-0.044
-293.676	-86.929	-0.140	0.043
-292.662	-179.693	-0.232	0.005
-291.647	85.484	0.180	-0.198
-290.632	-167.483	0.306	-0.012
-289.618	-200.000	0.024	-0.149
-288.603	-44.124	0.174	-0.087
-287.589	-200.000	-0.002	-0.279
-286.574	-158.913	0.100	-0.006
-285.559	-70.783	0.115	-0.043
-284.545	185.704	0.120	-0.178
-283.530	94.778	-0.144	-0.163
-282.516	-184.439	0.093	-0.002
-281.501	800.000	0.039	-0.127
-280.486	521.274	0.019	0.043
-279.472	-200.000	0.020	0.171
-278.457	-73.087	-0.381	0.139
-277.443	-200.000	-0.012	-0.140
-276.428	22.869	-0.175	-0.143
-275.413	800.000	-0.099	-0.356
-274.399	13.278	0.162	-0.125
-273.384	44.861	-0.222	0.204
-272.370	63.020	0.094	0.093
-271.355	50.260	-0.064	-0.060
-270.340	180.932	-0.121	-0.177
-269.326	-111.002	-0.180	-0.037
-268.311	-200.000	0.039	-0.182
-267.297	-41.016	0.126	-0.065
-266.282	-200.000	0.044	0.334
-265.267	800.000	-0.069	-0.223
-264.253	-142.516	0.229	0.022
-263.238	-91.070	-0.241	-0.069
-262.224	-116.112	0.379	-0.070
-261.209	68.671	-0.309	-0.316
-260.195	-200.000	0.058	-0.346
-259.180	89.460	0.176	-0.195
-258.165	-200.000	-0.066	0.317
-257.151	188.214	-0.208	0.309
-256.136	71.180	0.189	0.195
-255.122	-200.000	0.015	-0.194
-254.107	-200.000	0.043	-0.423
-253.092	-200.000	0.014	-0.206
-252.078	38.161	0.188	0.167
-251.063	-91.865	0.328	0.093
-250.049	6.361	-0.331	0.245
-249.034	-86.757	-0.119	-0.036
-248.019	286.189	-0.108	0.193
-247.005	1.282	-0.040	-0.028
-245.990	-200.000	-0.015	0.164
-244.976	216.596	0.061	-0.096
-243.961	-200.000	-0.028	0.195
-242.946	-99.382	-0.342	-0.086
-241.932	46.817	-0.275	-0.255
-240.917	105.261	0.085	0.100
-239.903	414.690	0.058	0.122
-238.888	-69.275	0.257	0.098
-237.873	30.497	0.150	0.128
-236.859	-200.000	-0.016	0.077
-235.844	427.652	-0.121	-0.260
-234.830	378.025	0.033	0.067
-233.815	800.000	0.027	-0.118
-232.800	-200.000	-0.047	0.405
-231.786	-62.548	-0.129	-0.053
-230.771	-140.374	0.295	0.031
-229.757	800.000	-0.099	0.337
-228.742	383.109	-0.095	0.194
-227.727	-4.736	0.094	-0.065
-226.713	11.036	0.144	-0.109
-225.698	121.429	-0.188	0.233
-224.684	-89.367	0.158	-0.046
-223.669	422.196	-0.137	-0.293
-222.655	800.000	0.090	-0.360
-221.640	58.368	0.368	-0.359
-220.625	14.869	0.131	-0.102
-219.611	-73.519	0.321	-0.117
-218.596	412.770	-0.213	0.449
-217.582	-200.000	0.021	0.345
-216.567	-200.000	-0.021	-0.099
-215.552	800.000	-0.046	0.156
-214.538	-200.000	-0.007	0.046
-213.523	-200.000	-0.015	0.279
-212.509	32.010	-0.159	0.137
-211.494	701.290	-0.131	-0.342
-210.479	228.288	-0.059	0.096
-209.465	800.000	-0.043	0.128
-208.450	-200.000	-0.001	0.262
-207.436	496.354	0.088	-0.202
-206.421	64.967	-0.071	-0.072
-205.406	-200.000	0.002	0.043
-204.392	-161.350	-0.184	0.009
-203.377	-200.000	-0.171	0.000
-202.363	-48.767	-0.135	-0.064
-201.348	-126.014	0.041	0.006
-200.333	-105.571	-0.099	0.022
-199.319	-69.045	-0.157	0.060
-198.304	388.605	-0.095	-0.195
-197.290	-166.023	-0.213	0.009
-196.275	-39.733	-0.191	-0.099
-195.260	-136.215	0.295	0.034
-194.246	98.645	0.205	0.235
-193.231	-152.613	0.161	-0.011
-192.217	3.016	-0.142	0.102
-191.202	17.083	0.385	0.304
-190.187	-93.379	0.255	0.070
-189.173	-200.000	-0.035	0.177
-188.158	-78.677	0.289	0.098
-187.144	68.649	0.201	0.204
-186.129	-58.689	-0.062	0.027
-185.114	-73.733	-0.209	0.076
-184.100	-72.483	0.232	0.085
-183.085	280.705	-0.096	0.170
-182.071	-200.000	0.022	0.191
-181.056	-200.000	0.036	-0.280
-180.042	800.000	-0.018	0.068
-179.027	-200.000	0.045	0.262
-178.012	-75.877	0.161	0.057
-176.998	477.337	-0.070	-0.157
-175.983	245.231	-0.150	-0.250
-174.969	-32.402	0.448	0.248
-173.954	19.296	-0.190	-0.152
-172.939	268.721	-0.112	0.195
-171.925	37.268	0.134	0.118
-170.910	-72.011	-0.516	0.190
-169.896	137.658	-0.041	0.054
-168.881	20.680	0.188	0.151
-167.866	800.000	-0.098	-0.418
-166.852	-51.143	0.166	-0.077
-165.837	251.176	-0.043	-0.073
-164.823	617.604	0.021	-0.053
-163.808	-29.642	0.229	-0.130
-162.793	623.206	0.062	-0.156
-161.779	79.416	-0.296	-0.315
-160.764	-100.790	0.612	-0.149
-159.750	-177.982	0.159	-0.004
-158.735	51.295	-0.129	-0.121
-157.720	295.164	0.228	0.413
-156.706	176.135	0.167	0.240
-155.691	153.536	-0.015	0.021
-154.677	-55.705	0.232	0.103
-153.662	98.506	-0.202	-0.232
-152.647	304.972	0.128	-0.236
-151.633	-82.992	0.306	-0.098
-150.618	-20.716	0.129	-0.079
-149.604	-200.000	0.038	-0.347
-148.589	-94.552	-0.455	0.123
-147.574	98.271	0.238	0.272
-146.560	273.698	0.042	0.073
-145.545	587.892	0.039	-0.095
-144.531	-156.660	0.320	-0.020
-143.516	132.331	-0.155	-0.198
-142.502	800.000	-0.093	0.263
-141.487	-200.000	-0.036	0.213
-140.472	-154.387	-0.087	-0.006
-139.458	0.902	0.283	0.201
-138.443	773.463	-0.132	-0.357
-137.429	125.161	-0.174	0.217
-136.414	-43.696	-0.194	0.097
-135.399	322.172	0.058	0.110
-134.385	-74.022	0.404	-0.145
-133.370	139.276	0.202	-0.264
-132.356	-51.111	-0.002	0.001
-131.341	-200.000	-0.027	-0.249
-130.326	-162.769	0.092	-0.004
-129.312	-61.878	-0.291	0.121
-128.297	-200.000	0.045	0.409
-127.283	21.483	0.065	0.052
-126.268	-92.795	-0.310	-0.086
-125.253	-4.935	-0.383	-0.262
-124.239	102.762	-0.229	0.265
-123.224	36.634	0.379	-0.332
-122.210	-200.000	-0.005	0.022
-121.195	73.861	-0.288	0.299
