DTS Sentinel unit serial number:	SN413079Multiplexer serial number:	ORYXHardware model number:	OX4-SRSoftware version number:	ORYX F/W v4.00 Oryx Data Collector v3.7.2.0data status	okinstallation	princeton_trtdifferential loss correction	single-endedforward channel	channel 3reverse channel	N/Adate	2019/09/19time	04:28:35forward acquisition time	60.00reverse acquisition time	0.00gamma	496.2192k internal	0.2347k external	0.2347temperature offset calibration	0.9993default loss term (dB/km)	0.3790temperature slope calibration	1.0000multiplexer offset coefficient	1.0000multiplexer slope coefficient	1.0000fibre end	0.00T internal ref (°C)	20.14T ext. ref 1 (°C)	0.62T ext. ref 2 (°C)	13.16length (m)	temperature (°C)	Stokes	anti-Stokes-747.200	-91.748	-0.122	0.035
-746.185	-100.410	0.236	0.059
-745.171	-69.973	0.260	0.099
-744.156	-200.000	0.002	0.045
-743.142	53.405	-0.298	-0.286
-742.127	196.367	0.142	0.216
-741.112	-98.392	0.074	-0.019
-740.098	-89.435	-0.107	0.031
-739.083	800.000	0.092	-0.316
-738.069	-200.000	-0.015	0.387
-737.054	-98.265	-0.176	0.045
-736.039	112.624	-0.250	-0.303
-735.025	168.046	-0.039	-0.055
-734.010	-151.318	-0.073	-0.005
-732.996	74.087	0.123	0.129
-731.981	186.091	-0.134	0.198
-730.966	287.411	0.206	-0.372
-729.952	-200.000	-0.039	0.294
-728.937	172.101	-0.178	-0.256
-727.923	-81.631	-0.096	-0.031
-726.908	-75.495	-0.182	-0.065
-725.894	547.860	0.071	-0.169
-724.879	-136.902	0.171	0.020
-723.864	800.000	-0.106	-0.299
-722.850	-82.257	0.056	-0.018
-721.835	-158.521	-0.233	0.013
-720.821	-200.000	0.000	0.067
-719.806	800.000	0.038	-0.125
-718.791	46.604	-0.223	0.207
-717.777	-51.926	0.456	-0.212
-716.762	-200.000	-0.037	-0.313
-715.748	-200.000	-0.026	-0.299
-714.733	-41.556	-0.124	-0.064
-713.718	-10.959	0.160	0.105
-712.704	-114.918	0.033	-0.006
-711.689	-200.000	0.064	-0.351
-710.675	-117.898	-0.212	-0.038
-709.660	118.109	-0.083	0.102
-708.645	14.931	0.215	-0.168
-707.631	565.048	0.026	-0.063
-706.616	247.148	0.159	0.268
-705.602	138.029	0.110	-0.144
-704.587	-200.000	-0.004	0.065
-703.572	-41.353	0.331	-0.170
-702.558	129.081	-0.045	0.057
-701.543	800.000	-0.105	0.389
-700.529	1.916	-0.375	0.270
-699.514	-67.110	-0.018	0.007
-698.499	-148.037	0.235	0.019
-697.485	-34.791	-0.276	-0.150
-696.470	474.430	-0.182	-0.410
-695.456	129.481	-0.100	-0.127
-694.441	347.400	0.203	0.399
-693.426	717.989	0.037	-0.098
-692.412	-71.382	-0.573	-0.214
-691.397	-94.736	0.328	0.089
-690.383	-121.833	0.058	-0.010
-689.368	-120.140	-0.270	-0.046
-688.354	-142.350	0.279	0.027
-687.339	-47.777	0.120	-0.058
-686.324	133.287	0.114	-0.147
-685.310	-55.444	-0.279	0.125
-684.295	25.680	-0.450	-0.374
-683.281	-25.315	0.246	-0.145
-682.266	193.601	-0.227	-0.343
-681.251	-100.491	0.086	0.021
-680.237	800.000	-0.024	-0.070
-679.222	-135.948	-0.261	0.031
-678.208	-154.746	0.344	-0.023
-677.193	-19.658	-0.135	-0.083
-676.178	-52.994	0.353	0.162
-675.164	-154.833	-0.143	0.009
-674.149	-125.315	0.264	0.040
-673.135	-200.000	-0.030	-0.264
-672.120	482.708	-0.092	-0.207
-671.105	-11.945	0.391	-0.256
-670.091	-61.422	0.236	-0.099
-669.076	-93.986	-0.317	-0.087
-668.062	94.592	0.205	-0.232
-667.047	-100.752	-0.147	-0.036
-666.032	-200.000	0.015	-0.076
-665.018	92.802	0.242	-0.273
-664.003	800.000	0.029	-0.091
-662.989	-23.081	-0.018	-0.011
-661.974	284.577	-0.067	-0.120
-660.959	-200.000	0.003	0.055
-659.945	278.855	-0.097	-0.173
-658.930	286.281	0.075	-0.134
-657.916	-200.000	-0.027	-0.150
-656.901	-68.272	0.175	-0.068
-655.886	-35.293	-0.144	-0.078
-654.872	628.680	0.070	-0.177
-653.857	175.703	-0.037	-0.054
-652.843	-47.284	0.194	-0.094
-651.828	-34.971	0.213	0.116
-650.814	-47.441	-0.311	-0.151
-649.799	65.511	0.175	-0.177
-648.784	-85.967	0.260	-0.080
-647.770	-9.812	0.101	-0.067
-646.755	-36.179	0.293	-0.157
-645.741	40.489	-0.089	0.080
-644.726	-139.243	-0.217	-0.023
-643.711	-93.434	0.321	0.088
-642.697	403.305	0.043	-0.090
-641.682	-46.498	-0.070	0.034
-640.668	-98.409	-0.018	-0.005
-639.653	800.000	-0.124	-0.366
-638.638	39.566	0.134	-0.120
-637.624	-83.565	0.144	0.046
-636.609	293.015	-0.024	-0.043
-635.595	-200.000	0.005	0.088
-634.580	225.246	-0.247	-0.398
-633.565	-74.266	0.240	0.086
-632.551	-2.706	0.211	0.147
-631.536	-200.000	-0.045	-0.227
-630.522	-135.549	0.267	0.032
-629.507	209.960	0.095	-0.148
-628.492	-106.608	-0.221	-0.049
-627.478	-34.526	0.443	-0.241
-626.463	-200.000	0.011	0.095
-625.449	233.076	-0.076	-0.124
-624.434	481.465	-0.054	-0.121
-623.419	441.986	-0.045	0.097
-622.405	-200.000	-0.016	0.134
-621.390	40.491	0.132	-0.118
-620.376	-79.114	0.345	-0.117
-619.361	99.081	-0.181	0.208
-618.346	-130.713	0.307	0.041
-617.332	800.000	0.023	0.086
-616.317	-138.019	0.132	0.015
-615.303	258.807	0.102	0.175
-614.288	-171.375	0.069	0.002
-613.273	24.644	0.232	0.191
-612.259	154.520	-0.073	-0.100
-611.244	-107.906	-0.345	-0.075
-610.230	217.937	-0.093	0.147
-609.215	-102.952	0.274	-0.065
-608.201	565.883	-0.077	0.185
-607.186	-140.274	0.152	0.016
-606.171	244.969	0.126	-0.211
-605.157	235.371	-0.027	0.045
-604.142	772.013	0.070	-0.191
-603.128	800.000	-0.030	-0.092
-602.113	-39.169	0.075	0.039
-601.098	800.000	0.036	0.152
-600.084	-200.000	-0.011	-0.290
-599.069	61.717	0.234	-0.231
-598.055	-25.919	-0.244	0.143
-597.040	-156.992	0.291	-0.018
-596.025	-17.395	0.103	0.064
-595.011	99.852	0.079	-0.091
-593.996	-34.849	-0.212	-0.115
-592.982	-200.000	-0.054	0.292
-591.967	22.482	-0.154	-0.125
-590.952	197.559	-0.082	-0.125
-589.938	-200.000	-0.005	-0.371
-588.923	-192.112	-0.250	-0.002
-587.909	90.808	0.151	0.168
-586.894	326.142	-0.116	0.220
-585.879	-122.545	-0.086	-0.014
-584.865	-83.865	-0.187	0.059
-583.850	-122.481	-0.178	-0.029
-582.836	79.126	-0.137	-0.146
-581.821	144.286	0.192	0.254
-580.806	180.225	-0.187	-0.272
-579.792	-3.912	0.092	-0.063
-578.777	-76.265	-0.315	-0.110
-577.763	-200.000	0.016	0.212
-576.748	-200.000	-0.021	-0.183
-575.733	-200.000	-0.020	0.091
-574.719	-200.000	-0.020	0.386
-573.704	216.589	0.091	-0.144
-572.690	-136.674	-0.221	-0.025
-571.675	151.307	-0.128	0.173
-570.661	77.052	-0.082	-0.087
-569.646	-153.494	0.130	0.009
-568.631	800.000	-0.034	-0.131
-567.617	31.126	-0.279	-0.238
-566.602	40.672	-0.143	-0.128
-565.588	-132.143	0.104	-0.013
-564.573	800.000	0.108	0.307
-563.558	186.265	-0.118	-0.174
-562.544	-200.000	-0.024	0.181
-561.529	-76.072	0.018	0.006
-560.515	800.000	0.053	-0.192
-559.500	-200.000	0.028	-0.282
-558.485	800.000	0.048	0.178
-557.471	-131.202	-0.303	0.040
-556.456	-1.587	0.032	0.022
-555.442	154.136	0.121	-0.165
-554.427	145.402	-0.188	0.250
-553.412	18.901	0.108	-0.086
-552.398	800.000	0.120	0.329
-551.383	-200.000	-0.035	0.212
-550.369	-200.000	-0.038	-0.416
-549.354	-200.000	-0.006	-0.114
-548.339	103.424	0.185	0.216
-547.325	800.000	0.074	-0.288
-546.310	186.859	-0.154	-0.228
-545.296	520.753	0.239	-0.557
-544.281	-81.012	0.098	0.032
-543.266	15.040	-0.071	-0.055
-542.252	160.501	-0.122	0.169
-541.237	338.298	-0.188	-0.363
-540.223	-8.582	0.267	-0.178
-539.208	148.867	0.215	-0.288
-538.193	-149.133	0.275	-0.022
-537.179	-200.000	0.049	-0.263
-536.164	209.183	0.164	-0.255
-535.150	220.241	-0.197	-0.312
-534.135	145.688	-0.226	-0.301
-533.121	-40.319	-0.305	-0.157
-532.106	-107.027	0.198	0.043
-531.091	52.813	0.218	0.207
-530.077	-80.915	-0.203	0.067
-529.062	29.741	-0.154	-0.130
-528.048	148.006	-0.242	0.324
-527.033	279.432	0.064	0.112
-526.018	-200.000	-0.007	0.246
-525.004	-128.731	-0.078	0.011
-523.989	676.406	0.085	0.219
-522.975	421.596	0.017	-0.036
-521.960	114.964	-0.099	-0.120
-520.945	255.404	0.166	0.282
-519.931	-117.011	-0.048	0.009
-518.916	130.184	-0.019	-0.024
-517.902	800.000	-0.043	0.134
-516.887	57.861	-0.300	-0.291
-515.872	-89.148	-0.343	0.100
-514.858	-200.000	-0.018	-0.476
-513.843	-122.333	0.178	0.029
-512.829	-100.374	0.158	-0.039
-511.814	364.773	0.190	-0.380
-510.799	-200.000	-0.031	-0.217
-509.785	-56.015	-0.232	-0.102
-508.770	-200.000	0.013	-0.258
-507.756	-154.183	-0.217	0.015
-506.741	224.981	-0.214	0.343
-505.726	149.558	-0.102	0.137
-504.712	31.159	0.147	0.125
-503.697	-200.000	0.051	-0.371
-502.683	-100.494	0.041	0.010
-501.668	-184.129	0.055	-0.001
-500.653	42.422	-0.077	0.069
-499.639	-60.469	-0.244	0.103
-498.624	-89.054	0.256	0.075
-497.610	-177.708	0.080	0.002
-496.595	-151.688	-0.135	-0.010
-495.581	428.504	-0.125	0.267
-494.566	-70.900	-0.263	-0.098
-493.551	122.147	0.054	0.066
-492.537	152.052	-0.013	0.017
-491.522	-86.847	-0.072	0.022
-490.508	-119.076	-0.192	-0.033
-489.493	-200.000	0.041	0.186
-488.478	-30.010	0.450	-0.253
-487.464	-27.414	-0.250	-0.144
-486.449	-200.000	-0.003	0.097
-485.435	-30.238	0.134	0.075
-484.420	-90.959	-0.223	-0.064
-483.405	76.041	-0.140	0.146
-482.391	-200.000	0.023	0.118
-481.376	20.940	0.058	0.047
-480.362	47.499	-0.166	0.153
-479.347	-176.367	-0.024	-0.001
-478.332	-200.000	-0.002	-0.083
-477.318	-140.123	-0.176	-0.018
-476.303	800.000	-0.027	-0.109
-475.289	28.420	-0.223	-0.186
-474.274	257.108	0.069	-0.117
-473.259	-74.138	0.282	0.101
-472.245	-200.000	0.019	0.163
-471.230	800.000	-0.078	0.256
-470.216	-11.857	-0.129	0.084
-469.201	-118.855	-0.141	-0.024
-468.186	-200.000	0.030	0.223
-467.172	-200.000	0.259	-0.001
-466.157	-47.446	-0.267	0.129
-465.143	68.012	-0.091	0.092
-464.128	-200.000	0.001	0.072
-463.113	-24.026	0.310	-0.183
-462.099	-44.290	-0.062	-0.031
-461.084	-50.050	0.121	-0.057
-460.070	-198.790	0.309	0.002
-459.055	-25.060	-0.278	-0.163
-458.040	-145.147	-0.275	0.025
-457.026	800.000	0.170	-0.473
-456.011	-200.000	0.032	0.172
-454.997	-83.516	0.089	0.028
-453.982	-200.000	-0.016	0.256
-452.968	196.827	-0.098	0.148
-451.953	118.297	0.113	0.138
-450.938	-200.000	-0.002	-0.024
-449.924	69.841	0.275	0.280
-448.909	-130.988	0.353	-0.047
-447.895	22.229	-0.191	-0.154
-446.880	-110.054	-0.417	-0.086
-445.865	43.246	0.322	-0.291
-444.851	56.435	-0.105	0.100
-443.836	-200.000	-0.083	0.440
-442.822	-200.000	-0.033	-0.153
-441.807	739.278	0.078	-0.206
-440.792	800.000	0.079	-0.321
-439.778	-94.568	-0.209	0.056
-438.763	-165.564	0.173	-0.007
-437.749	294.903	0.063	-0.113
-436.734	312.382	-0.172	-0.318
-435.719	800.000	-0.079	0.221
-434.705	86.295	-0.386	0.420
-433.690	-17.736	-0.162	0.101
-432.676	7.292	0.043	0.031
-431.661	-97.559	-0.142	-0.036
-430.646	-28.800	-0.302	-0.172
-429.632	-200.000	0.033	0.203
-428.617	417.508	0.102	-0.216
-427.603	215.283	0.080	0.125
-426.588	-23.086	0.381	-0.226
-425.573	-20.329	0.130	-0.079
-424.559	800.000	0.097	0.277
-423.544	153.594	-0.145	0.196
-422.530	18.665	0.029	-0.023
-421.515	-99.785	-0.241	-0.060
-420.500	-57.403	-0.365	0.158
-419.486	-136.605	-0.173	0.020
-418.471	201.159	0.130	0.198
-417.457	-200.000	0.006	-0.176
-416.442	800.000	-0.039	-0.108
-415.428	139.526	-0.114	0.148
-414.413	-175.075	-0.249	-0.007
-413.398	36.098	0.242	0.210
-412.384	44.277	0.328	-0.297
-411.369	-145.423	-0.062	0.006
-410.355	-200.000	-0.051	0.260
-409.340	-41.478	-0.191	0.097
-408.325	-19.485	0.138	0.085
-407.311	-38.317	-0.113	-0.059
-406.296	-77.869	-0.144	0.049
-405.282	800.000	-0.177	0.579
-404.267	36.780	0.217	-0.189
-403.252	-96.595	-0.135	0.035
-402.238	-23.971	0.265	0.156
-401.223	655.782	0.084	-0.214
-400.209	-200.000	0.012	0.078
-399.194	-140.986	-0.102	0.010
-398.179	800.000	-0.079	-0.284
-397.165	-200.000	0.001	0.052
-396.150	-200.000	-0.049	0.460
-395.136	652.662	-0.084	0.213
-394.121	-71.896	0.324	-0.119
-393.106	-200.000	-0.021	0.159
-392.092	-93.628	0.071	-0.019
-391.077	-200.000	-0.064	-0.627
-390.063	-200.000	0.011	-0.229
-389.048	175.663	-0.194	0.277
-388.033	146.903	-0.192	0.254
-387.019	-131.651	0.160	0.021
-386.004	401.600	0.146	0.302
-384.990	174.295	-0.084	0.120
-383.975	87.381	0.191	0.208
-382.960	288.523	0.164	0.292
-381.946	-200.000	-0.204	0.001
-380.931	496.598	0.092	-0.208
-379.917	-200.000	0.016	-0.288
-378.902	-139.289	0.439	0.047
-377.888	212.798	-0.097	-0.151
-376.873	-59.181	-0.141	-0.060
-375.858	128.986	-0.260	0.327
-374.844	-200.000	-0.025	0.121
-373.829	-125.212	0.264	-0.040
-372.815	277.792	0.247	-0.433
-371.800	-200.000	0.020	-0.142
-370.785	-63.173	0.165	-0.067
-369.771	-200.000	0.009	0.117
-368.756	68.083	0.117	-0.118
-367.742	-200.000	0.025	0.189
-366.727	-48.487	0.289	-0.137
-365.712	453.142	0.119	-0.260
-364.698	-200.000	-0.016	0.143
-363.683	-92.342	-0.161	-0.045
-362.669	-142.568	0.176	0.017
-361.654	-109.406	0.125	0.026
-360.639	-177.897	-0.180	-0.004
-359.625	-200.000	0.013	0.460
-358.610	126.826	0.202	0.252
-357.596	-200.000	0.010	0.261
-356.581	298.248	-0.158	0.287
-355.566	130.553	0.129	0.163
-354.552	-105.327	0.302	0.068
-353.537	-62.162	0.279	0.114
-352.523	-73.065	-0.300	0.108
-351.508	171.495	-0.150	0.211
-350.493	800.000	0.013	0.036
-349.479	-200.000	-0.020	-0.122
-348.464	800.000	0.053	0.205
-347.450	-46.912	-0.233	-0.112
-346.435	-136.819	-0.385	0.044
-345.420	-200.000	0.029	0.207
-344.406	-67.939	-0.289	0.111
-343.391	-200.000	-0.074	-0.322
-342.377	-200.000	0.024	0.147
-341.362	244.529	0.086	0.141
-340.348	800.000	-0.127	0.369
-339.333	454.905	0.205	-0.448
-338.318	-108.055	-0.356	-0.076
-337.304	20.759	0.261	-0.208
-336.289	590.241	0.027	-0.066
-335.275	-150.289	-0.254	0.019
-334.260	34.410	0.119	-0.102
-333.245	-131.861	-0.314	-0.040
-332.231	-139.698	-0.189	0.020
-331.216	-93.866	-0.072	0.019
-330.202	119.157	0.030	-0.036
-329.187	421.407	0.132	-0.278
-328.172	-75.784	-0.262	-0.092
-327.158	800.000	-0.019	-0.060
-326.143	800.000	-0.006	0.022
-325.129	373.686	-0.100	0.201
-324.114	496.672	-0.044	-0.100
-323.099	-163.389	0.244	-0.011
-322.085	-200.000	-0.011	-0.178
-321.070	-41.677	0.219	-0.111
-320.056	22.937	-0.244	-0.197
-319.041	800.000	-0.039	0.112
-318.026	-90.319	-0.059	-0.017
-317.012	-83.443	-0.184	-0.058
-315.997	60.049	0.206	-0.200
-314.983	235.752	-0.057	0.093
-313.968	800.000	0.058	-0.210
-312.953	-42.438	-0.086	-0.043
-311.939	-200.000	0.058	0.334
-310.924	341.187	0.135	0.260
-309.910	-34.810	-0.241	-0.130
-308.895	-62.158	-0.374	0.153
-307.880	-104.090	-0.077	0.018
-306.866	154.233	0.148	0.200
-305.851	800.000	-0.050	-0.166
-304.837	-117.340	-0.203	-0.036
-303.822	-4.209	-0.106	0.072
-302.807	-200.000	-0.089	-0.475
-301.793	192.008	0.060	-0.089
-300.778	-200.000	-0.026	0.224
-299.764	101.836	0.094	-0.108
-298.749	-103.155	-0.338	-0.079
-297.735	-54.089	0.255	-0.114
-296.720	16.158	-0.179	-0.139
-295.705	800.000	-0.032	0.136
-294.691	-60.427	0.362	0.151
-293.676	67.193	-0.064	-0.064
-292.662	-200.000	-0.004	-0.118
-291.647	-200.000	0.025	0.142
-290.632	-135.528	0.123	-0.014
-289.618	144.451	0.198	0.260
-288.603	-71.675	-0.326	-0.119
-287.589	-68.915	-0.193	-0.073
-286.574	800.000	0.054	0.199
-285.559	-200.000	-0.038	0.274
-284.545	312.011	0.241	0.444
-283.530	-200.000	-0.024	-0.161
-282.516	-32.782	-0.091	-0.050
-281.501	155.414	0.101	0.137
-280.486	-200.000	0.004	-0.020
-279.472	75.907	-0.283	-0.294
-278.457	59.041	0.210	0.203
-277.443	735.782	-0.015	0.041
-276.428	276.277	-0.016	0.028
-275.413	593.895	-0.035	0.086
-274.399	181.097	-0.078	0.112
-273.384	800.000	0.049	0.207
-272.370	39.700	-0.115	-0.101
-271.355	-150.802	-0.172	0.013
-270.340	-112.489	0.392	0.077
-269.326	-200.000	0.020	0.260
-268.311	-89.461	-0.144	-0.042
-267.297	800.000	0.019	-0.079
-266.282	111.723	-0.140	0.166
-265.267	395.732	-0.074	-0.152
-264.253	800.000	0.074	-0.209
-263.238	-131.338	-0.261	0.034
-262.224	278.690	-0.036	0.064
-261.209	800.000	0.070	0.295
-260.195	284.525	-0.151	-0.266
-259.180	-69.900	0.122	0.045
-258.165	-200.000	-0.026	0.395
-257.151	25.874	0.227	-0.186
-256.136	41.026	-0.041	0.036
-255.122	308.522	-0.119	-0.218
-254.107	287.763	-0.147	-0.261
-253.092	-76.201	0.176	-0.061
-252.078	92.459	0.119	-0.131
-251.063	83.147	0.206	0.220
-250.049	-82.909	0.170	-0.054
-249.034	237.113	0.096	-0.156
-248.019	611.445	0.058	-0.141
-247.005	-88.332	0.078	-0.023
-245.990	72.959	-0.180	-0.185
-244.976	-200.000	0.020	0.311
-243.961	27.094	0.163	-0.134
-242.946	52.325	-0.187	0.174
-241.932	105.612	0.088	-0.102
-240.917	551.728	0.029	0.068
-239.903	175.688	0.015	0.022
-238.888	-49.624	0.251	0.117
-237.873	-130.315	0.219	-0.029
-236.859	-55.956	0.294	0.129
-235.844	-200.000	0.010	-0.050
-234.830	-200.000	0.017	-0.411
-233.815	-200.000	0.014	0.123
-232.800	-106.310	0.216	-0.047
-231.786	-31.060	0.202	-0.112
-230.771	-159.475	-0.007	0.000
-229.757	707.835	0.063	0.163
-228.742	-123.442	0.248	-0.039
-227.727	91.854	-0.175	-0.192
-226.713	-147.278	0.265	-0.022
-225.698	51.549	-0.217	-0.202
-224.684	56.612	0.084	0.080
-223.669	-108.311	0.034	-0.007
-222.655	-125.927	0.192	-0.028
-221.640	132.602	-0.090	0.114
-220.625	800.000	-0.101	0.285
-219.611	-28.650	0.210	-0.118
-218.596	616.212	-0.025	-0.060
-217.582	-142.851	-0.549	0.052
-216.567	-65.087	-0.171	-0.068
-215.552	-162.958	0.268	0.013
-214.538	0.805	-0.124	-0.087
-213.523	140.091	0.195	-0.252
-212.509	613.575	0.031	-0.075
-211.494	47.611	0.047	-0.043
-210.479	13.722	-0.016	0.013
-209.465	24.550	0.256	-0.208
-208.450	165.570	0.110	-0.152
-207.436	495.054	-0.072	0.162
-206.421	364.086	0.127	0.250
-205.406	800.000	0.098	0.302
-204.392	75.294	-0.057	0.059
-203.377	-57.340	-0.384	-0.165
-202.363	-5.572	-0.057	0.038
-201.348	-78.654	0.297	0.099
-200.333	-59.862	0.206	0.086
-199.319	211.626	0.121	-0.186
-198.304	-88.201	0.181	-0.053
-197.290	525.056	0.057	0.132
-196.275	-81.339	-0.245	-0.079
-195.260	91.765	0.088	0.097
-194.246	-64.747	0.294	0.117
-193.231	-142.965	0.349	-0.033
-192.217	87.200	-0.221	-0.239
-191.202	376.058	-0.232	-0.463
-190.187	95.853	0.241	0.270
-189.173	15.005	-0.183	0.140
-188.158	-135.098	0.195	0.023
-187.144	800.000	-0.086	0.293
-186.129	-200.000	-0.024	0.292
-185.114	55.447	-0.202	-0.191
-184.100	-131.390	-0.310	-0.040
-183.085	-136.127	-0.338	0.039
-182.071	-183.800	0.290	0.005
-181.056	800.000	-0.088	0.305
-180.042	-200.000	-0.003	0.123
-179.027	6.808	0.151	-0.110
-178.012	176.820	-0.172	0.244
-176.998	-149.487	-0.090	-0.007
-175.983	491.917	0.186	-0.417
-174.969	-43.405	-0.120	-0.059
-173.954	-200.000	-0.033	0.207
-172.939	119.882	0.113	-0.136
-171.925	-99.708	0.131	0.032
-170.910	54.475	0.126	-0.118
-169.896	-0.402	-0.228	-0.158
-168.881	-146.728	0.211	-0.018
-167.866	800.000	-0.035	0.110
-166.852	57.413	0.138	-0.131
-165.837	-112.376	-0.233	0.046
-164.823	199.748	0.135	-0.202
-163.808	800.000	-0.099	-0.378
-162.793	21.782	-0.032	-0.025
-161.779	492.532	-0.053	0.119
-160.764	-200.000	0.066	0.337
-159.750	800.000	-0.016	-0.049
-158.735	57.696	0.181	0.173
-157.720	150.501	-0.222	0.295
-156.706	-105.780	-0.216	0.048
-155.691	131.953	0.300	0.378
-154.677	800.000	0.059	0.198
-153.662	-95.134	0.042	-0.011
-152.647	26.219	-0.325	0.265
-151.633	800.000	0.031	-0.106
-150.618	-150.002	-0.193	0.015
-149.604	711.324	-0.057	-0.147
-148.589	-135.251	0.284	-0.033
-147.574	800.000	-0.050	-0.138
-146.560	427.024	0.159	0.335
-145.545	498.244	0.029	0.066
-144.531	123.731	0.112	0.138
-143.516	-114.126	0.104	0.020
-142.502	46.540	0.083	0.075
-141.487	-200.000	0.020	0.259
-140.472	-20.459	-0.133	0.080
-139.458	-49.340	0.447	0.208
-138.443	-20.809	-0.237	-0.142
-137.429	55.256	0.073	0.069
-136.414	684.173	-0.162	-0.412
-135.399	-200.000	0.024	0.259
-134.385	-91.649	-0.153	-0.042
-133.370	93.035	-0.146	-0.161
-132.356	64.666	0.041	-0.040
-131.341	-200.000	0.009	-0.224
-130.326	-90.465	-0.035	0.010
-129.312	-200.000	0.004	-0.274
-128.297	404.945	-0.018	-0.036
-127.283	117.539	0.161	0.194
-126.268	93.847	-0.145	-0.160
-125.253	-59.531	-0.138	-0.058
-124.239	83.814	0.187	0.199
-123.224	-200.000	-0.027	-0.125
-122.210	40.144	-0.257	0.225
