DTS Sentinel unit serial number:	SN413079Multiplexer serial number:	ORYXHardware model number:	OX4-SRSoftware version number:	ORYX F/W v4.00 Oryx Data Collector v3.7.2.0data status	okinstallation	princeton_trtdifferential loss correction	single-endedforward channel	channel 3reverse channel	N/Adate	2019/09/14time	08:00:34forward acquisition time	60.00reverse acquisition time	0.00gamma	496.2192k internal	0.2336k external	0.2336temperature offset calibration	1.0050default loss term (dB/km)	0.3790temperature slope calibration	1.0000multiplexer offset coefficient	1.0000multiplexer slope coefficient	1.0000fibre end	0.00T internal ref (°C)	26.84T ext. ref 1 (°C)	3.54T ext. ref 2 (°C)	24.47length (m)	temperature (°C)	Stokes	anti-Stokes-747.200	17.538	-0.227	-0.181
-746.185	-163.932	-0.175	0.008
-745.171	57.956	0.183	-0.179
-744.156	186.563	-0.165	0.247
-743.142	-82.014	0.188	0.062
-742.127	-167.290	-0.050	-0.002
-741.112	-200.000	0.031	0.159
-740.098	639.452	0.032	-0.081
-739.083	557.309	-0.096	-0.231
-738.069	-61.946	-0.706	0.296
-737.054	-200.000	0.014	0.102
-736.039	13.921	-0.290	-0.227
-735.025	-102.459	0.417	0.100
-734.010	-27.859	0.013	0.007
-732.996	407.163	-0.124	-0.262
-731.981	-200.000	-0.046	-0.356
-730.966	800.000	-0.080	0.234
-729.952	-101.823	-0.273	-0.066
-728.937	-200.000	-0.043	-0.212
-727.923	-125.741	-0.148	-0.022
-726.908	-200.000	-0.001	0.103
-725.894	32.851	-0.185	0.161
-724.879	38.312	-0.059	-0.053
-723.864	89.467	-0.166	-0.186
-722.850	-200.000	0.010	0.236
-721.835	-200.000	-0.003	-0.133
-720.821	-200.000	-0.020	-0.090
-719.806	-200.000	0.002	0.267
-718.791	-200.000	0.010	-0.107
-717.777	40.272	-0.163	-0.148
-716.762	51.224	-0.300	-0.285
-715.748	-200.000	-0.003	-0.227
-714.733	-64.786	-0.270	-0.110
-713.718	39.844	0.225	-0.203
-712.704	-155.818	-0.104	-0.007
-711.689	800.000	0.053	-0.229
-710.675	-178.528	0.044	0.001
-709.660	-178.400	0.195	-0.005
-708.645	-87.008	0.125	0.038
-707.631	187.620	0.092	-0.138
-706.616	-72.494	0.124	-0.046
-705.602	32.534	0.181	-0.157
-704.587	-10.759	-0.285	0.189
-703.572	800.000	-0.039	-0.112
-702.558	-65.402	-0.144	-0.058
-701.543	19.446	-0.194	-0.156
-700.529	-156.933	-0.150	0.009
-699.514	-155.470	-0.315	-0.020
-698.499	-103.594	-0.259	0.061
-697.485	420.583	-0.096	-0.205
-696.470	416.152	0.109	0.233
-695.456	-200.000	0.010	0.131
-694.441	-200.000	-0.060	-0.442
-693.426	48.645	0.080	0.075
-692.412	14.503	-0.103	-0.081
-691.397	-200.000	0.008	-0.052
-690.383	116.104	0.075	-0.092
-689.368	328.787	0.076	0.146
-688.354	38.250	-0.167	-0.149
-687.339	11.652	-0.265	-0.203
-686.324	-151.409	0.346	-0.026
-685.310	426.446	0.132	-0.285
-684.295	131.137	-0.177	0.228
-683.281	18.598	-0.111	-0.089
-682.266	200.996	0.137	0.211
-681.251	709.208	-0.103	-0.271
-680.237	-200.000	0.059	-0.320
-679.222	81.252	0.198	0.214
-678.208	-200.000	0.035	-0.207
-677.193	136.643	-0.091	0.119
-676.178	-127.997	-0.173	0.025
-675.164	410.994	0.129	-0.273
-674.149	112.659	-0.100	-0.122
-673.135	-62.389	0.261	0.109
-672.120	-97.427	0.067	0.017
-671.105	-157.549	-0.095	0.006
-670.091	412.227	0.078	-0.165
-669.076	78.222	0.306	-0.327
-668.062	800.000	-0.080	-0.270
-667.047	138.016	0.090	-0.118
-666.032	-138.497	-0.187	0.021
-665.018	-128.471	-0.521	0.074
-664.003	-200.000	0.011	0.092
-662.989	-200.000	-0.038	0.224
-661.974	228.044	0.204	0.333
-660.959	-63.090	0.166	-0.069
-659.945	-140.742	0.116	0.012
-658.930	-100.733	0.180	-0.044
-657.916	-200.000	-0.048	-0.438
-656.901	-53.034	0.347	0.159
-655.886	59.913	-0.180	-0.178
-654.872	-133.219	0.219	0.028
-653.857	800.000	-0.065	0.209
-652.843	90.685	-0.231	-0.259
-651.828	-26.627	-0.342	-0.200
-650.814	79.115	-0.170	-0.183
-649.799	165.123	-0.144	-0.204
-648.784	-91.846	0.401	-0.114
-647.770	-91.512	0.236	0.067
-646.755	-157.936	-0.056	0.003
-645.741	57.358	-0.191	-0.187
-644.726	50.207	0.180	-0.170
-643.711	-200.000	0.054	-0.245
-642.697	21.341	-0.213	-0.173
-641.682	800.000	-0.085	0.239
-640.668	-87.972	0.271	-0.082
-639.653	-78.104	-0.345	0.119
-638.638	-92.112	0.049	-0.014
-637.624	-98.981	0.336	-0.085
-636.609	-123.327	0.427	-0.068
-635.595	-200.000	-0.011	0.120
-634.580	247.976	-0.010	-0.018
-633.565	82.619	0.112	0.122
-632.551	59.721	0.216	0.213
-631.536	-110.845	-0.032	0.007
-630.522	125.532	-0.242	-0.305
-629.507	-162.339	-0.387	0.019
-628.492	800.000	-0.066	-0.192
-627.478	45.947	-0.532	-0.492
-626.463	800.000	-0.065	0.249
-625.449	147.165	0.078	0.105
-624.434	-200.000	-0.009	0.219
-623.419	41.301	-0.099	-0.089
-622.405	104.803	0.238	0.280
-621.390	-40.621	-0.235	-0.122
-620.376	-200.000	0.000	0.017
-619.361	800.000	-0.057	0.183
-618.346	-85.034	-0.524	0.164
-617.332	-60.425	-0.341	-0.145
-616.317	-157.888	-0.318	-0.019
-615.303	-140.387	-0.236	-0.025
-614.288	189.973	-0.111	0.166
-613.273	-200.000	-0.008	-0.125
-612.259	503.914	0.153	-0.353
-611.244	-200.000	0.011	-0.135
-610.230	800.000	-0.069	-0.288
-609.215	-21.498	-0.038	-0.023
-608.201	90.235	0.101	-0.113
-607.186	-42.086	-0.152	0.078
-606.171	-64.164	0.210	-0.086
-605.157	-46.247	-0.400	-0.196
-604.142	800.000	0.053	0.155
-603.128	800.000	-0.151	0.423
-602.113	507.176	-0.173	0.401
-601.098	34.901	0.155	0.136
-600.084	-200.000	0.009	0.048
-599.069	-68.232	-0.200	-0.078
-598.055	-91.213	0.121	-0.035
-597.040	174.529	0.214	0.309
-596.025	-200.000	0.025	0.117
-595.011	-48.133	-0.097	0.047
-593.996	-25.607	0.038	0.022
-592.982	49.778	0.170	0.160
-591.967	239.655	-0.041	0.069
-590.952	4.509	0.071	0.052
-589.938	287.633	0.025	0.044
-588.923	-200.000	0.026	-0.202
-587.909	-200.000	-0.100	-0.477
-586.894	350.537	0.222	-0.438
-585.879	291.080	-0.148	-0.268
-584.865	-44.100	0.143	0.071
-583.850	333.438	0.036	-0.069
-582.836	793.833	-0.129	0.354
-581.821	-200.000	-0.023	-0.282
-580.806	-183.742	0.226	0.004
-579.792	-200.000	0.041	0.415
-578.777	-38.989	0.278	-0.146
-577.763	-39.535	-0.092	-0.048
-576.748	-200.000	-0.063	-0.496
-575.733	-178.831	0.159	0.004
-574.719	-107.212	-0.182	-0.040
-573.704	780.027	0.190	0.517
-572.690	516.758	0.023	-0.055
-571.675	-68.011	0.076	0.029
-570.661	-200.000	0.014	0.068
-569.646	-42.126	-0.228	-0.117
-568.631	181.676	-0.067	-0.099
-567.617	40.496	0.111	-0.100
-566.602	-126.348	0.290	-0.043
-565.588	-200.000	0.013	-0.099
-564.573	800.000	0.126	-0.371
-563.558	-23.228	-0.359	0.215
-562.544	-8.846	-0.320	-0.214
-561.529	800.000	0.014	-0.060
-560.515	800.000	-0.099	0.431
-559.500	800.000	-0.078	0.252
-558.485	-118.224	-0.383	-0.068
-557.471	41.181	0.098	0.088
-556.456	43.354	-0.198	0.180
-555.442	143.572	-0.156	-0.208
-554.427	70.488	-0.154	0.159
-553.412	-83.557	-0.140	-0.045
-552.398	-200.000	-0.001	0.289
-551.383	38.070	-0.097	-0.086
-550.369	19.776	-0.055	-0.044
-549.354	-141.649	0.136	-0.014
-548.339	297.454	-0.203	-0.371
-547.325	800.000	-0.090	-0.270
-546.310	90.317	0.208	0.232
-545.296	286.267	0.168	-0.301
-544.281	-65.677	0.091	0.036
-543.266	-117.994	0.205	0.037
-542.252	174.143	-0.087	0.125
-541.237	91.010	0.109	0.122
-540.223	152.735	0.174	0.236
-539.208	800.000	-0.040	0.115
-538.193	386.812	0.067	0.138
-537.179	-97.633	-0.063	0.016
-536.164	214.610	0.085	-0.135
-535.150	420.452	-0.142	-0.303
-534.135	94.432	-0.131	0.148
-533.121	-159.907	0.031	0.002
-532.106	85.234	0.274	-0.299
-531.091	-92.217	-0.213	0.060
-530.077	28.228	0.033	-0.028
-529.062	-60.892	-0.381	0.160
-528.048	-146.151	0.134	-0.012
-527.033	19.175	0.089	-0.071
-526.018	800.000	-0.044	0.175
-525.004	-102.262	-0.334	0.080
-523.989	-7.884	0.256	0.172
-522.975	-168.348	-0.235	-0.009
-521.960	46.494	-0.138	0.128
-520.945	-75.963	-0.406	0.143
-519.931	-200.000	0.047	0.214
-518.916	153.747	0.135	0.184
-517.902	-33.422	0.164	-0.090
-516.887	48.150	-0.053	0.050
-515.872	-117.156	-0.053	-0.010
-514.858	-200.000	-0.023	0.162
-513.843	366.410	0.129	0.260
-512.829	56.762	0.036	0.035
-511.814	9.506	0.422	-0.318
-510.799	-111.674	-0.457	0.092
-509.785	-170.429	-0.047	0.002
-508.770	800.000	0.158	0.478
-507.756	15.646	0.313	-0.245
-506.741	-104.670	0.240	0.055
-505.726	179.055	0.157	-0.228
-504.712	-187.254	-0.048	0.001
-503.697	-47.556	-0.022	-0.011
-502.683	-200.000	0.005	-0.586
-501.668	-79.928	-0.319	0.107
-500.653	800.000	-0.035	0.103
-499.639	28.660	-0.233	-0.196
-498.624	-62.145	-0.077	-0.032
-497.610	384.394	0.122	-0.251
-496.595	164.010	-0.082	0.115
-495.581	-200.000	-0.023	-0.122
-494.566	-3.692	-0.193	-0.133
-493.551	-136.463	-0.241	0.028
-492.537	69.201	-0.034	0.035
-491.522	-200.000	0.036	-0.176
-490.508	800.000	0.124	-0.394
-489.493	88.086	0.258	0.285
-488.478	131.929	-0.180	0.231
-487.464	-44.563	0.292	0.145
-486.449	800.000	0.087	0.278
-485.435	-200.000	0.002	-0.245
-484.420	86.666	0.053	0.058
-483.405	80.966	-0.110	-0.118
-482.391	800.000	0.050	-0.215
-481.376	-200.000	0.069	-0.433
-480.362	-86.170	-0.203	0.062
-479.347	219.177	0.065	-0.104
-478.332	-135.913	0.434	-0.051
-477.318	-138.471	-0.175	0.019
-476.303	104.655	-0.129	-0.151
-475.289	800.000	-0.026	-0.079
-474.274	-46.650	0.104	-0.051
-473.259	-50.322	0.051	0.024
-472.245	-64.700	0.194	-0.078
-471.230	-149.997	-0.061	-0.005
-470.216	78.006	-0.181	-0.191
-469.201	-59.091	0.062	0.027
-468.186	-18.352	0.180	0.112
-467.172	-123.826	0.319	0.050
-466.157	800.000	-0.059	-0.230
-465.143	670.961	0.109	-0.279
-464.128	-106.133	0.272	0.061
-463.113	62.563	0.174	-0.173
-462.099	-28.592	-0.159	-0.091
-461.084	-20.258	0.130	-0.079
-460.070	157.732	-0.108	-0.149
-459.055	228.546	-0.065	0.106
-458.040	-200.000	-0.078	0.438
-457.026	-117.778	0.150	0.027
-456.011	47.605	0.290	0.269
-454.997	-200.000	0.009	-0.257
-453.982	45.015	0.074	0.067
-452.968	-200.000	0.075	-0.000
-451.953	41.847	-0.123	0.111
-450.938	-200.000	0.008	-0.179
-449.924	-174.294	0.404	0.012
-448.909	121.927	-0.171	0.211
-447.895	8.078	0.167	-0.124
-446.880	223.474	-0.055	0.088
-445.865	618.937	-0.014	0.036
-444.851	-112.382	-0.072	0.014
-443.836	106.566	0.134	0.157
-442.822	757.434	0.074	0.199
-441.807	-105.807	0.004	0.001
-440.792	79.866	-0.114	-0.122
-439.778	800.000	-0.045	-0.154
-438.763	387.999	-0.050	-0.103
-437.749	800.000	-0.031	-0.101
-436.734	-35.422	0.119	0.064
-435.719	-27.247	0.060	-0.035
-434.705	635.218	-0.068	0.172
-433.690	-52.722	0.132	-0.060
-432.676	-200.000	0.016	-0.166
-431.661	202.363	-0.271	-0.415
-430.646	-25.456	-0.151	-0.089
-429.632	-64.530	-0.073	-0.029
-428.617	-68.646	0.320	0.123
-427.603	-200.000	-0.034	-0.223
-426.588	-119.138	-0.240	-0.042
-425.573	-160.882	-0.205	0.011
-424.559	40.686	0.193	-0.172
-423.544	37.638	0.045	-0.039
-422.530	600.443	-0.125	0.308
-421.515	20.727	-0.098	-0.079
-420.500	800.000	-0.047	0.156
-419.486	46.534	-0.189	0.174
-418.471	38.424	-0.089	-0.079
-417.457	38.680	0.140	-0.124
-416.442	703.088	-0.045	0.117
-415.428	-57.353	-0.397	-0.173
-414.413	-200.000	0.025	0.179
-413.398	0.846	0.245	0.174
-412.384	185.639	0.145	0.214
-411.369	-200.000	-0.045	0.218
-410.355	800.000	0.047	-0.173
-409.340	-26.206	-0.233	0.136
-408.325	266.040	0.103	0.178
-407.311	190.147	0.129	-0.193
-406.296	-87.480	0.183	-0.055
-405.282	553.770	0.047	-0.113
-404.267	51.701	-0.021	0.020
-403.252	-135.961	0.213	0.025
-402.238	-41.626	0.276	0.141
-401.223	-200.000	0.064	0.306
-400.209	-106.609	-0.395	0.087
-399.194	106.848	-0.236	0.277
-398.179	100.664	-0.081	0.094
-397.165	63.471	0.256	0.255
-396.150	300.243	0.037	0.067
-395.136	-200.000	0.042	-0.260
-394.121	-54.484	0.120	0.054
-393.106	69.297	-0.097	-0.099
-392.092	-84.954	-0.368	0.114
-391.077	-200.000	0.091	0.502
-390.063	1.817	-0.091	0.065
-389.048	67.610	-0.275	-0.278
-388.033	-132.102	0.089	0.011
-387.019	-63.993	0.290	0.117
-386.004	117.210	-0.159	-0.194
-384.990	-112.065	0.176	0.035
-383.975	800.000	-0.100	0.284
-382.960	-66.250	0.206	-0.081
-381.946	87.476	0.044	-0.048
-380.931	13.546	-0.199	-0.153
-379.917	61.962	-0.237	0.233
-378.902	21.571	0.084	0.068
-377.888	800.000	0.075	0.307
-376.873	-8.288	0.150	0.100
-375.858	-27.054	-0.105	-0.061
-374.844	173.135	0.093	0.132
-373.829	800.000	-0.047	0.142
-372.815	210.576	-0.212	0.329
-371.800	343.740	-0.183	-0.356
-370.785	800.000	0.103	-0.383
-369.771	306.362	0.128	0.236
-368.756	-107.197	0.116	-0.025
-367.742	398.883	-0.203	-0.422
-366.727	800.000	0.065	-0.271
-365.712	-86.343	-0.094	0.029
-364.698	255.956	-0.096	0.163
-363.683	-194.388	0.262	-0.002
-362.669	128.076	0.106	0.133
-361.654	-200.000	0.033	0.412
-360.639	90.092	0.086	0.095
-359.625	674.481	-0.163	-0.419
-358.610	126.947	0.176	-0.220
-357.596	-7.156	-0.397	0.266
-356.581	-151.830	-0.168	0.012
-355.566	17.007	0.239	0.187
-354.552	159.750	0.093	-0.128
-353.537	-134.593	0.524	0.063
-352.523	-200.000	-0.022	0.194
-351.508	800.000	0.056	-0.173
-350.493	-69.079	-0.269	-0.103
-349.479	-99.689	-0.135	0.033
-348.464	184.540	-0.155	0.227
-347.450	63.558	-0.099	-0.098
-346.435	-79.619	0.047	0.016
-345.420	-100.858	0.279	-0.068
-344.406	-36.569	0.338	0.180
-343.391	89.794	0.134	0.148
-342.377	-43.120	-0.172	-0.086
-341.362	-134.515	-0.118	-0.014
-340.348	667.782	0.048	-0.123
-339.333	-109.519	-0.127	-0.026
-338.318	-2.761	-0.191	0.132
-337.304	-200.000	0.016	0.127
-336.289	65.629	0.458	-0.458
-335.275	-200.000	0.017	-0.094
-334.260	78.639	-0.202	0.214
-333.245	-200.000	0.006	-0.170
-332.231	-200.000	0.003	-0.162
-331.216	215.664	-0.139	-0.218
-330.202	-123.899	-0.096	-0.015
-329.187	-200.000	-0.038	0.209
-328.172	-87.893	0.316	-0.094
-327.158	113.682	0.168	-0.201
-326.143	-87.973	-0.214	0.064
-325.129	-22.040	-0.109	-0.065
-324.114	-3.203	-0.159	-0.109
-323.099	-168.636	0.293	-0.011
-322.085	800.000	0.063	-0.264
-321.070	-200.000	-0.023	-0.133
-320.056	-90.691	-0.324	0.092
-319.041	800.000	-0.020	-0.078
-318.026	-63.822	0.097	0.039
-317.012	-169.953	0.143	-0.005
-315.997	-75.012	-0.404	-0.143
-314.983	-200.000	-0.031	-0.215
-313.968	-0.118	0.121	-0.085
-312.953	800.000	0.021	-0.086
-311.939	-200.000	-0.008	-0.069
-310.924	288.342	-0.027	-0.048
-309.910	341.985	-0.189	0.364
-308.895	580.461	0.123	0.297
-307.880	-183.433	-0.115	0.002
-306.866	-2.451	0.381	0.264
-305.851	800.000	-0.051	0.184
-304.837	38.680	-0.059	-0.052
-303.822	-67.934	-0.202	-0.078
-302.807	-200.000	-0.342	-0.001
-301.793	-63.911	-0.211	-0.085
-300.778	37.305	-0.174	0.152
-299.764	-86.212	0.128	0.039
-298.749	-200.000	-0.023	0.114
-297.735	121.006	-0.234	0.288
-296.720	-200.000	0.024	-0.233
-295.705	-200.000	-0.010	-0.167
-294.691	20.922	-0.154	0.123
-293.676	151.613	-0.056	0.075
-292.662	-200.000	0.013	-0.122
-291.647	18.481	-0.330	0.260
-290.632	-200.000	-0.036	0.174
-289.618	74.011	0.074	0.077
-288.603	106.927	-0.018	0.021
-287.589	49.631	0.133	0.123
-286.574	-115.268	0.293	-0.055
-285.559	13.122	-0.209	0.160
-284.545	-200.000	0.033	0.282
-283.530	39.953	-0.093	0.083
-282.516	-21.137	0.250	0.151
-281.501	-54.840	0.072	0.032
-280.486	800.000	-0.106	-0.386
-279.472	-92.822	-0.104	0.029
-278.457	-104.289	0.299	-0.068
-277.443	-123.761	0.218	-0.034
-276.428	-39.655	-0.261	-0.135
-275.413	198.468	0.296	-0.447
-274.399	95.504	-0.194	-0.218
-273.384	-104.611	0.237	0.054
-272.370	-200.000	-0.015	-0.068
-271.355	120.402	0.276	-0.338
-270.340	-174.903	-0.349	-0.010
-269.326	337.583	0.085	-0.163
-268.311	-127.938	0.077	0.011
-267.297	-200.000	0.013	0.164
-266.282	-17.646	-0.140	0.087
-265.267	800.000	0.122	0.364
-264.253	507.124	0.100	0.228
-263.238	-102.400	0.170	0.040
-262.224	-67.268	-0.328	0.127
-261.209	-200.000	-0.034	0.153
-260.195	-200.000	-0.007	0.050
-259.180	-200.000	0.001	-0.197
-258.165	-96.227	-0.148	-0.039
-257.151	-85.803	-0.170	-0.052
-256.136	-50.542	-0.191	-0.089
-255.122	184.918	-0.101	-0.148
-254.107	-192.029	-0.219	-0.002
-253.092	-200.000	-0.002	-0.102
-252.078	68.963	0.127	-0.128
-251.063	618.288	0.114	-0.283
-250.049	-9.410	-0.166	0.109
-249.034	250.070	-0.148	0.248
-248.019	800.000	0.023	0.064
-247.005	-0.358	-0.273	-0.191
-245.990	-79.289	0.412	0.137
-244.976	31.988	0.076	0.064
-243.961	60.635	-0.190	-0.185
-242.946	-112.564	0.315	0.062
-241.932	-106.614	-0.274	0.060
-240.917	-12.837	-0.384	0.246
-239.903	-200.000	0.007	-0.040
-238.888	-200.000	0.035	-0.155
-237.873	-8.007	0.218	-0.145
-236.859	557.854	-0.089	-0.212
-235.844	45.630	0.304	-0.277
-234.830	-78.838	0.049	-0.016
-233.815	-200.000	0.008	0.274
-232.800	661.358	0.062	-0.158
-231.786	-128.550	0.077	-0.011
-230.771	122.032	0.122	0.150
-229.757	-7.565	-0.129	0.086
-228.742	-182.272	0.167	-0.003
-227.727	800.000	0.011	0.047
-226.713	-200.000	0.006	-0.048
-225.698	-145.452	-0.157	0.014
-224.684	132.246	0.041	-0.052
-223.669	134.837	-0.112	-0.143
-222.655	-38.311	-0.384	-0.200
-221.640	-7.372	-0.095	0.063
-220.625	159.847	-0.280	0.384
-219.611	-200.000	-0.063	0.340
-218.596	-136.717	0.202	-0.023
-217.582	800.000	0.085	0.250
-216.567	-121.106	-0.044	-0.007
-215.552	-78.720	0.549	-0.184
-214.538	-111.359	-0.186	-0.037
-213.523	-81.469	0.306	-0.099
-212.509	8.087	0.115	-0.085
-211.494	-95.813	0.278	0.073
-210.479	-48.828	-0.275	-0.130
-209.465	-200.000	-0.022	-0.160
-208.450	222.856	-0.154	0.244
-207.436	-200.000	0.018	0.081
-206.421	292.235	0.208	0.373
-205.406	48.911	-0.120	0.110
-204.392	46.624	0.116	0.106
-203.377	121.367	-0.195	-0.239
-202.363	491.865	0.105	-0.236
-201.348	800.000	0.135	0.484
-200.333	-75.445	0.130	-0.046
-199.319	585.263	-0.140	0.338
-198.304	499.608	-0.160	-0.363
-197.290	-30.104	0.080	0.045
-196.275	-85.453	0.103	-0.032
-195.260	512.036	-0.056	-0.128
-194.246	-18.523	-0.283	-0.173
-193.231	25.470	0.055	0.045
-192.217	783.029	-0.038	-0.103
-191.202	1.004	0.200	-0.141
-190.187	-125.527	0.424	-0.063
-189.173	-3.349	-0.210	-0.143
-188.158	-200.000	-0.024	0.232
-187.144	327.337	-0.080	-0.150
-186.129	145.485	0.063	0.083
-185.114	52.019	-0.160	0.150
-184.100	9.422	0.113	-0.084
-183.085	-150.958	0.228	-0.017
-182.071	-200.000	0.079	0.473
-181.056	208.818	0.130	0.200
-180.042	96.657	-0.278	-0.313
-179.027	-112.652	0.286	-0.056
-178.012	-71.091	-0.118	0.044
-176.998	-200.000	-0.285	-0.001
-175.983	800.000	0.033	-0.110
-174.969	518.789	0.063	-0.144
-173.954	-70.699	0.249	0.092
-172.939	-83.682	-0.125	-0.039
-171.925	77.169	0.095	-0.099
-170.910	-2.280	-0.113	0.078
-169.896	-194.397	0.276	-0.002
-168.881	800.000	0.098	-0.314
-167.866	6.885	0.224	-0.164
-166.852	-200.000	0.287	0.000
-165.837	180.152	0.119	0.171
-164.823	198.503	0.191	0.286
-163.808	83.168	-0.316	0.338
-162.793	-200.000	0.002	0.134
-161.779	14.667	0.224	0.172
-160.764	-110.686	-0.373	-0.076
-159.750	7.250	0.137	-0.100
-158.735	-119.235	0.478	-0.082
-157.720	800.000	0.029	-0.111
-156.706	-172.369	0.090	-0.003
-155.691	167.416	0.096	0.134
-154.677	7.435	-0.018	-0.014
-153.662	-64.845	0.241	0.096
-152.647	-45.639	0.158	0.077
-151.633	187.063	0.103	-0.151
-150.618	-103.350	0.139	0.032
-149.604	-28.490	0.352	0.199
-148.589	-200.000	0.117	0.576
-147.574	-158.306	-0.125	0.007
-146.560	4.262	0.210	-0.151
-145.545	-147.905	-0.255	0.021
-144.531	-200.000	-0.034	0.394
-143.516	15.316	-0.139	0.107
-142.502	-92.980	0.252	-0.069
-141.487	91.770	0.123	-0.136
-140.472	368.370	0.040	-0.078
-139.458	639.377	-0.036	-0.091
-138.443	-48.900	0.364	0.171
-137.429	-200.000	0.032	-0.247
-136.414	355.206	0.251	0.490
-135.399	18.956	0.129	0.101
-134.385	-79.649	0.167	0.055
-133.370	800.000	-0.096	-0.276
-132.356	-48.197	-0.244	0.116
-131.341	-12.828	-0.252	-0.161
-130.326	193.956	0.104	-0.155
-129.312	76.081	-0.052	0.054
-128.297	252.684	0.036	0.059
-127.283	-45.089	-0.214	-0.104
-126.268	-41.421	0.230	-0.116
-125.253	-200.000	-0.005	-0.118
-124.239	-24.868	0.290	-0.169
-123.224	-73.637	-0.302	0.108
-122.210	-200.000	-0.018	0.234
-121.195	-200.000	0.009	-0.300
