DTS Sentinel unit serial number:	SN413079Multiplexer serial number:	ORYXHardware model number:	OX4-SRSoftware version number:	ORYX F/W v4.00 Oryx Data Collector v3.7.2.0data status	okinstallation	princeton_trtdifferential loss correction	single-endedforward channel	channel 3reverse channel	N/Adate	2019/09/13time	15:08:35forward acquisition time	60.00reverse acquisition time	0.00gamma	496.2192k internal	0.2301k external	0.2301temperature offset calibration	1.0140default loss term (dB/km)	0.3790temperature slope calibration	1.0000multiplexer offset coefficient	1.0000multiplexer slope coefficient	1.0000fibre end	0.00T internal ref (°C)	35.62T ext. ref 1 (°C)	4.72T ext. ref 2 (°C)	30.92length (m)	temperature (°C)	Stokes	anti-Stokes-747.200	-103.523	-0.114	0.027
-746.185	-111.470	0.117	-0.024
-745.171	-200.000	-0.184	-0.001
-744.156	-108.524	0.189	0.041
-743.142	-200.000	-0.028	-0.330
-742.127	-200.000	-0.005	0.238
-741.112	460.459	0.093	-0.212
-740.098	-200.000	0.046	0.307
-739.083	-200.000	-0.003	-0.133
-738.069	224.873	0.042	0.070
-737.054	800.000	0.036	-0.109
-736.039	-200.000	-0.044	-0.416
-735.025	-64.062	-0.145	0.060
-734.010	-58.202	-0.415	-0.184
-732.996	-200.000	-0.026	-0.248
-731.981	-59.625	0.200	0.087
-730.966	-187.406	-0.129	0.002
-729.952	-144.623	-0.461	0.043
-728.937	-200.000	-0.030	-0.216
-727.923	-37.695	0.197	-0.107
-726.908	-62.134	-0.131	0.056
-725.894	144.623	-0.194	-0.264
-724.879	55.551	-0.046	-0.045
-723.864	800.000	0.079	-0.257
-722.850	-67.420	-0.242	0.097
-721.835	95.540	0.105	-0.122
-720.821	-200.000	0.019	-0.139
-719.806	133.428	0.289	-0.380
-718.791	-200.000	-0.039	-0.280
-717.777	-49.776	-0.145	0.070
-716.762	-200.000	-0.014	-0.100
-715.748	-156.219	0.280	-0.018
-714.733	-79.367	-0.275	0.095
-713.718	236.885	0.110	-0.186
-712.704	37.670	0.168	0.152
-711.689	800.000	-0.153	-0.528
-710.675	-200.000	-0.194	-0.001
-709.660	-86.014	-0.154	0.049
-708.645	197.673	-0.140	0.218
-707.631	-70.792	-0.041	-0.016
-706.616	-59.601	-0.093	-0.040
-705.602	-200.000	-0.036	-0.256
-704.587	40.475	-0.279	0.255
-703.572	235.146	0.085	-0.142
-702.558	-188.952	-0.327	-0.004
-701.543	-55.292	0.207	0.095
-700.529	-200.000	-0.026	0.289
-699.514	-162.520	-0.304	0.015
-698.499	-73.862	0.202	0.075
-697.485	800.000	-0.068	0.223
-696.470	143.410	-0.253	0.343
-695.456	-76.626	0.233	0.083
-694.441	800.000	0.037	-0.115
-693.426	-200.000	0.019	0.258
-692.412	-138.309	-0.290	-0.033
-691.397	452.594	-0.027	0.061
-690.383	-125.141	0.149	0.023
-689.368	800.000	-0.020	0.087
-688.354	-200.000	0.053	-0.375
-687.339	529.950	0.055	-0.133
-686.324	-38.433	0.137	-0.074
-685.310	-106.571	0.236	0.053
-684.295	-20.632	0.137	0.086
-683.281	-200.000	0.013	0.135
-682.266	-200.000	-0.008	-0.067
-681.251	-103.826	-0.331	-0.079
-680.237	-125.699	-0.071	-0.011
-679.222	-125.827	0.081	-0.012
-678.208	8.988	-0.253	0.194
-677.193	165.300	-0.026	0.037
-676.178	402.826	0.114	0.243
-675.164	42.807	-0.073	-0.068
-674.149	800.000	0.043	-0.163
-673.135	-69.559	-0.140	0.055
-672.120	800.000	-0.070	0.228
-671.105	-200.000	0.001	-0.166
-670.091	800.000	0.032	-0.105
-669.076	636.239	0.071	-0.183
-668.062	-98.160	-0.372	-0.097
-667.047	-174.393	-0.157	0.005
-666.032	-27.115	-0.342	0.203
-665.018	-70.479	0.264	0.102
-664.003	-107.929	-0.154	-0.034
-662.989	238.744	-0.239	0.404
-661.974	-200.000	-0.044	0.199
-660.959	36.743	0.230	0.207
-659.945	165.820	-0.117	-0.169
-658.930	-116.901	0.156	-0.029
-657.916	25.971	0.216	-0.183
-656.901	-14.277	-0.177	0.116
-655.886	-200.000	0.005	-0.292
-654.872	-98.682	0.200	0.052
-653.857	98.379	-0.309	-0.362
-652.843	582.527	0.126	-0.315
-651.828	-119.098	0.044	0.008
-650.814	-10.606	-0.253	0.170
-649.799	-20.391	-0.247	-0.154
-648.784	-85.755	0.219	-0.069
-647.770	-65.462	0.197	0.080
-646.755	322.100	-0.035	0.067
-645.741	-70.493	0.071	0.027
-644.726	-187.338	0.185	0.003
-643.711	-19.397	0.179	-0.113
-642.697	800.000	0.111	-0.321
-641.682	123.987	0.146	-0.186
-640.668	10.416	0.252	0.195
-639.653	23.406	0.159	-0.132
-638.638	-6.245	0.206	-0.143
-637.624	-200.000	0.010	0.073
-636.609	-24.184	-0.163	0.099
-635.595	-9.677	0.174	-0.118
-634.580	-112.270	0.225	-0.046
-633.565	-141.614	0.332	-0.034
-632.551	-108.751	0.091	0.020
-631.536	9.511	-0.124	-0.096
-630.522	800.000	0.021	-0.091
-629.507	-69.476	-0.375	0.146
-628.492	-151.603	0.075	0.006
-627.478	79.085	-0.155	-0.168
-626.463	-28.792	-0.099	0.058
-625.449	-62.170	0.247	0.105
-624.434	800.000	-0.074	-0.329
-623.419	-200.000	0.034	-0.320
-622.405	-200.000	0.055	-0.261
-621.390	-4.308	0.254	0.179
-620.376	-9.143	0.166	-0.113
-619.361	-149.746	-0.110	-0.009
-618.346	-104.747	-0.080	-0.019
-617.332	800.000	0.056	0.230
-616.317	800.000	-0.084	-0.298
-615.303	53.778	-0.197	-0.192
-614.288	-140.937	0.249	-0.026
-613.273	-144.059	0.131	-0.012
-612.259	-111.449	0.256	0.053
-611.244	340.793	-0.027	0.054
-610.230	296.282	0.159	0.296
-609.215	88.997	0.162	0.183
-608.201	-148.648	-0.250	0.021
-607.186	162.321	0.205	0.291
-606.171	-200.000	0.002	-0.118
-605.157	-121.747	-0.187	0.031
-604.142	151.139	-0.141	-0.195
-603.128	128.363	0.105	0.135
-602.113	96.215	-0.290	-0.336
-601.098	-111.635	0.102	0.021
-600.084	164.937	0.233	0.333
-599.069	-200.000	-0.029	0.247
-598.055	-164.241	0.060	-0.003
-597.040	303.990	-0.076	0.143
-596.025	-96.404	-0.369	0.099
-595.011	123.669	-0.085	-0.108
-593.996	284.270	-0.056	-0.102
-592.982	-104.514	-0.187	0.044
-591.967	74.250	-0.089	0.095
-590.952	800.000	0.139	-0.559
-589.938	220.276	-0.069	-0.112
-588.923	-58.900	-0.138	-0.060
-587.909	119.428	0.173	0.217
-586.894	-76.585	-0.291	0.103
-585.879	-200.000	0.062	-0.291
-584.865	-200.000	0.040	0.181
-583.850	800.000	0.021	-0.067
-582.836	225.882	-0.115	0.189
-581.821	-154.387	0.124	-0.008
-580.806	-42.812	-0.249	-0.128
-579.792	-200.000	0.013	0.115
-578.777	-200.000	0.005	-0.074
-577.763	74.083	0.322	0.343
-576.748	-57.151	0.130	-0.058
-575.733	-114.335	-0.138	-0.027
-574.719	-200.000	0.055	-0.289
-573.704	246.784	-0.026	-0.044
-572.690	800.000	-0.015	0.045
-571.675	63.768	0.157	0.159
-570.661	-29.863	0.402	0.232
-569.646	-73.574	-0.194	0.072
-568.631	-143.720	-0.400	-0.038
-567.617	410.741	0.212	-0.454
-566.602	-200.000	-0.035	-0.163
-565.588	800.000	0.057	0.223
-564.573	800.000	0.020	-0.058
-563.558	72.636	-0.186	-0.196
-562.544	-41.999	0.114	-0.059
-561.529	-71.582	0.201	0.076
-560.515	221.334	0.101	-0.163
-559.500	-150.274	0.112	0.009
-558.485	78.136	-0.142	-0.154
-557.471	-111.309	-0.288	0.060
-556.456	69.091	0.265	0.276
-555.442	1.320	-0.238	0.173
-554.427	43.772	-0.210	-0.195
-553.412	-200.000	-0.025	-0.177
-552.398	49.867	-0.311	-0.297
-551.383	64.674	0.081	-0.083
-550.369	460.049	-0.046	-0.104
-549.354	206.909	0.125	0.198
-548.339	26.507	0.083	-0.070
-547.325	124.371	0.180	-0.229
-546.310	-96.386	0.167	-0.045
-545.296	31.035	0.084	-0.073
-544.281	-200.000	-0.065	-0.417
-543.266	-200.000	-0.038	0.267
-542.252	-200.000	0.018	0.465
-541.237	-83.241	0.076	-0.025
-540.223	15.053	0.170	-0.135
-539.208	-200.000	0.002	0.164
-538.193	800.000	-0.110	0.309
-537.179	-3.012	0.122	0.086
-536.164	800.000	-0.078	0.329
-535.150	14.060	-0.174	0.137
-534.135	452.434	0.073	0.163
-533.121	213.335	-0.067	-0.108
-532.106	86.723	-0.030	0.034
-531.091	-48.699	0.126	0.061
-530.077	800.000	-0.029	-0.110
-529.062	235.297	0.160	0.267
-528.048	173.041	0.057	-0.083
-527.033	-200.000	-0.010	0.153
-526.018	259.734	-0.138	-0.241
-525.004	-200.000	-0.029	0.368
-523.989	-174.994	-0.273	0.008
-522.975	10.757	0.338	0.260
-521.960	-200.000	0.106	-0.000
-520.945	63.426	0.120	-0.122
-519.931	101.687	0.159	-0.187
-518.916	571.515	-0.106	0.260
-517.902	107.144	-0.179	0.215
-516.887	184.181	0.230	0.345
-515.872	-68.492	0.162	-0.063
-514.858	-42.946	-0.152	-0.078
-513.843	-45.801	-0.128	0.064
-512.829	104.428	0.152	0.181
-511.814	-141.380	-0.279	0.029
-510.799	-200.000	0.070	-0.442
-509.785	-70.073	0.530	-0.204
-508.770	232.656	-0.077	-0.128
-507.756	-200.000	-0.001	-0.271
-506.741	800.000	-0.096	-0.271
-505.726	-111.600	-0.250	0.051
-504.712	194.544	0.144	-0.221
-503.697	-149.203	0.092	0.007
-502.683	-194.006	-0.069	-0.001
-501.668	-200.000	0.007	-0.214
-500.653	-200.000	0.049	0.242
-499.639	-200.000	0.017	0.238
-498.624	800.000	0.155	0.486
-497.610	262.592	0.252	0.441
-496.595	-65.390	0.074	0.030
-495.581	-135.748	0.279	0.033
-494.566	-88.039	-0.089	0.027
-493.551	136.745	-0.148	-0.195
-492.537	6.574	0.254	-0.190
-491.522	36.282	-0.051	-0.046
-490.508	800.000	0.078	-0.318
-489.493	-200.000	-0.007	-0.106
-488.478	21.394	-0.187	-0.153
-487.464	-73.722	-0.232	0.085
-486.449	187.841	-0.223	0.336
-485.435	41.195	-0.024	0.022
-484.420	-52.371	-0.314	-0.147
-483.405	15.975	-0.106	-0.084
-482.391	212.151	-0.206	0.328
-481.376	681.720	0.068	-0.179
-480.362	-133.325	-0.217	0.028
-479.347	-2.284	0.210	0.149
-478.332	-200.000	-0.001	0.183
-477.318	-200.000	0.014	0.232
-476.303	-151.761	-0.258	-0.019
-475.289	450.467	0.027	-0.059
-474.274	-70.053	0.290	0.111
-473.259	327.617	0.040	-0.077
-472.245	-80.660	0.130	-0.044
-471.230	-2.653	0.105	0.074
-470.216	2.669	-0.245	0.179
-469.201	3.721	0.013	-0.010
-468.186	62.586	0.170	-0.171
-467.172	-157.484	-0.228	-0.014
-466.157	104.873	-0.068	0.081
-465.143	-165.198	0.393	-0.018
-464.128	22.709	0.065	-0.054
-463.113	-128.378	0.351	-0.050
-462.099	618.472	0.092	-0.233
-461.084	529.984	-0.074	0.177
-460.070	299.057	-0.159	-0.294
-459.055	-200.000	-0.035	-0.169
-458.040	-116.466	0.321	0.060
-457.026	-196.891	0.200	0.001
-456.011	-200.000	-0.031	-0.314
-454.997	-72.846	-0.217	-0.081
-453.982	159.339	0.064	-0.090
-452.968	-200.000	0.019	-0.240
-451.953	-200.000	0.010	0.121
-450.938	137.258	0.101	-0.133
-449.924	-200.000	-0.013	-0.093
-448.909	-34.872	0.078	0.043
-447.895	15.147	-0.075	-0.059
-446.880	510.599	0.132	-0.309
-445.865	663.913	0.104	-0.270
-444.851	-144.340	0.310	0.029
-443.836	-87.010	-0.469	-0.144
-442.822	380.214	-0.141	-0.291
-441.807	-107.313	-0.057	-0.013
-440.792	-200.000	0.052	-0.462
-439.778	33.438	0.092	-0.081
-438.763	-136.201	-0.184	0.022
-437.749	-112.344	-0.314	0.063
-436.734	800.000	-0.024	-0.071
-435.719	-200.000	-0.030	-0.196
-434.705	651.573	-0.036	0.094
-433.690	-174.326	-0.234	-0.007
-432.676	-138.777	0.189	-0.021
-431.661	800.000	0.093	-0.362
-430.646	0.940	-0.171	-0.123
-429.632	-7.629	-0.187	-0.128
-428.617	87.836	0.165	0.184
-427.603	103.289	-0.287	0.339
-426.588	-54.929	0.111	0.051
-425.573	479.451	-0.046	-0.105
-424.559	-48.302	-0.273	0.133
-423.544	-121.057	0.173	0.029
-422.530	75.939	-0.347	-0.370
-421.515	-200.000	-0.031	-0.507
-420.500	-83.873	0.220	-0.070
-419.486	437.917	-0.059	0.129
-418.471	-35.883	0.206	-0.112
-417.457	122.984	-0.050	-0.063
-416.442	12.159	-0.226	0.175
-415.428	800.000	0.151	0.443
-414.413	-33.049	-0.165	0.092
-413.398	298.267	-0.158	0.293
-412.384	497.842	-0.054	0.125
-411.369	-108.017	0.162	-0.035
-410.355	-200.000	0.001	0.152
-409.340	800.000	0.021	-0.085
-408.325	390.071	0.045	-0.095
-407.311	800.000	0.070	0.300
-406.296	52.921	0.189	0.182
-405.282	800.000	-0.039	-0.127
-404.267	677.820	0.174	0.455
-403.252	556.066	-0.053	-0.128
-402.238	221.000	-0.037	-0.060
-401.223	-88.662	-0.361	-0.108
-400.209	-171.340	0.171	0.006
-399.194	143.708	-0.066	-0.088
-398.179	-143.015	-0.117	0.011
-397.165	800.000	0.024	-0.087
-396.150	-200.000	0.002	0.015
-395.136	-71.089	-0.273	0.103
-394.121	-195.844	0.039	0.000
-393.106	105.388	0.109	-0.130
-392.092	-200.000	-0.063	0.340
-391.077	800.000	0.096	0.284
-390.063	800.000	0.035	-0.129
-389.048	236.617	-0.080	0.134
-388.033	150.902	0.166	0.227
-387.019	743.057	-0.085	0.230
-386.004	-200.000	0.051	-0.249
-384.990	599.168	-0.020	0.050
-383.975	-164.309	0.335	-0.015
-382.960	-13.630	-0.301	-0.196
-381.946	-200.000	0.047	0.379
-380.931	-77.647	-0.141	0.049
-379.917	-0.499	-0.112	-0.080
-378.902	-35.249	0.251	-0.137
-377.888	81.843	0.022	-0.024
-376.873	-200.000	0.013	0.140
-375.858	43.480	0.133	0.122
-374.844	-48.847	-0.072	-0.035
-373.829	-5.194	0.251	0.174
-372.815	58.238	0.255	-0.251
-371.800	-27.755	-0.061	-0.035
-370.785	-200.000	-0.023	0.131
-369.771	800.000	-0.016	0.064
-368.756	25.546	0.123	-0.103
-367.742	40.351	-0.141	-0.128
-366.727	451.452	-0.123	-0.273
-365.712	279.484	0.043	-0.077
-364.698	49.209	0.026	-0.024
-363.683	-200.000	-0.044	0.289
-362.669	-4.709	-0.086	-0.060
-361.654	-200.000	-0.008	-0.248
-360.639	201.850	0.074	0.114
-359.625	-200.000	-0.021	0.289
-358.610	-107.992	-0.094	-0.020
-357.596	419.941	-0.047	-0.101
-356.581	40.965	-0.139	0.126
-355.566	605.663	0.081	0.204
-354.552	-93.107	-0.266	-0.074
-353.537	800.000	-0.011	0.035
-352.523	-200.000	0.003	0.322
-351.508	-25.640	-0.275	0.163
-350.493	-127.313	0.360	0.053
-349.479	31.397	0.124	-0.107
-348.464	530.117	-0.154	-0.365
-347.450	-177.460	0.180	0.004
-346.435	-103.063	-0.085	0.020
-345.420	-138.093	0.286	0.032
-344.406	800.000	0.024	-0.087
-343.391	400.201	0.089	-0.186
-342.377	-42.488	-0.112	-0.057
-341.362	800.000	0.076	-0.249
-340.348	577.780	-0.064	0.158
-339.333	534.915	-0.064	0.153
-338.318	-167.679	0.172	0.007
-337.304	-8.814	-0.103	-0.070
-336.289	16.485	-0.116	-0.092
-335.275	113.190	0.154	0.188
-334.260	-1.836	-0.381	0.269
-333.245	290.858	-0.091	-0.166
-332.231	-18.777	-0.169	0.106
-331.216	475.019	-0.132	0.300
-330.202	800.000	0.043	0.187
-329.187	98.400	-0.172	0.198
-328.172	24.266	0.284	0.235
-327.158	157.493	-0.047	-0.065
-326.143	86.216	0.211	0.234
-325.129	-115.752	0.171	-0.032
-324.114	-144.941	-0.290	0.027
-323.099	800.000	-0.045	-0.155
-322.085	186.588	-0.043	0.064
-321.070	-46.804	-0.159	-0.078
-320.056	-200.000	0.018	-0.595
-319.041	44.997	0.194	0.179
-318.026	755.008	0.095	0.256
-317.012	-152.997	-0.245	0.017
-315.997	800.000	-0.126	0.432
-314.983	-200.000	0.003	0.286
-313.968	-200.000	-0.005	0.234
-312.953	-200.000	0.014	0.086
-311.939	-102.876	0.166	0.039
-310.924	-200.000	-0.004	0.094
-309.910	762.697	0.127	0.345
-308.895	-77.042	-0.170	0.059
-307.880	-101.927	0.282	-0.068
-306.866	219.553	-0.183	0.294
-305.851	-155.350	0.545	0.035
-304.837	143.325	-0.249	-0.332
-303.822	-55.323	0.111	-0.050
-302.807	348.051	0.081	-0.160
-301.793	-89.368	-0.280	-0.083
-300.778	-11.251	-0.315	-0.208
-299.764	159.028	0.180	-0.250
-298.749	800.000	-0.038	-0.126
-297.735	64.411	0.193	-0.195
-296.720	129.034	0.301	-0.384
-295.705	623.009	0.126	-0.317
-294.691	-200.000	0.021	0.199
-293.676	-144.826	0.249	0.023
-292.662	-200.000	0.026	0.390
-291.647	-200.000	0.026	0.208
-290.632	-63.470	-0.137	-0.056
-289.618	-0.991	-0.055	0.039
-288.603	362.548	0.036	-0.072
-287.589	107.432	-0.126	-0.150
-286.574	471.063	0.138	-0.311
-285.559	-200.000	0.006	0.233
-284.545	45.479	-0.148	-0.136
-283.530	-45.693	0.101	0.050
-282.516	-200.000	0.007	-0.062
-281.501	-50.767	0.178	0.084
-280.486	800.000	0.101	0.387
-279.472	-200.000	0.061	0.463
-278.457	99.647	-0.284	0.329
-277.443	333.626	-0.106	0.206
-276.428	33.972	0.095	0.083
-275.413	-72.955	-0.180	-0.066
-274.399	-200.000	-0.026	0.137
-273.384	800.000	-0.096	-0.336
-272.370	-121.729	-0.143	-0.024
-271.355	99.547	0.215	-0.249
-270.340	-200.000	-0.023	-0.283
-269.326	135.721	0.162	0.211
-268.311	800.000	-0.034	-0.100
-267.297	441.603	0.026	0.058
-266.282	-126.653	0.184	0.027
-265.267	121.702	0.168	0.210
-264.253	-200.000	-0.023	-0.128
-263.238	-155.321	0.248	-0.016
-262.224	-35.009	-0.095	0.052
-261.209	-23.410	-0.231	-0.139
-260.195	256.334	0.123	-0.212
-259.180	800.000	-0.051	-0.159
-258.165	-111.872	-0.328	0.066
-257.151	-2.055	-0.269	0.189
-256.136	77.112	0.151	0.161
-255.122	-161.948	0.291	0.015
-254.107	165.394	-0.170	-0.240
-253.092	-200.000	-0.050	0.239
-252.078	66.957	0.151	0.154
-251.063	800.000	0.076	-0.310
-250.049	-149.520	-0.298	0.024
-249.034	-47.531	0.233	0.113
-248.019	-13.383	-0.107	0.069
-247.005	-85.872	-0.079	-0.024
-245.990	800.000	0.023	-0.084
-244.976	363.260	-0.040	0.080
-243.961	-23.746	-0.201	0.120
-242.946	-17.462	-0.343	-0.216
-241.932	800.000	-0.045	0.145
-240.917	800.000	-0.073	-0.230
-239.903	-87.632	-0.260	0.079
-238.888	77.123	0.015	-0.016
-237.873	-57.720	-0.063	-0.028
-236.859	77.393	0.029	-0.031
-235.844	-115.794	0.268	-0.050
-234.830	485.327	0.065	-0.148
-233.815	220.488	0.049	0.078
-232.800	-115.154	-0.229	0.043
-231.786	-200.000	0.033	0.387
-230.771	-200.000	0.005	-0.165
-229.757	-99.580	0.174	0.044
-228.742	237.410	-0.160	0.264
-227.727	-200.000	0.029	-0.347
-226.713	111.134	-0.035	0.043
-225.698	-200.000	-0.028	0.250
-224.684	59.068	-0.100	-0.098
-223.669	-90.916	-0.293	0.084
-222.655	73.868	0.231	-0.242
-221.640	67.400	0.117	-0.119
-220.625	-14.490	-0.218	0.140
-219.611	-88.008	-0.179	0.054
-218.596	233.436	0.270	0.443
-217.582	-105.910	-0.376	-0.085
-216.567	800.000	0.053	0.172
-215.552	-200.000	-0.012	-0.067
-214.538	-200.000	0.036	-0.190
-213.523	53.653	0.257	-0.246
-212.509	-134.358	-0.151	-0.019
-211.494	800.000	-0.075	-0.255
-210.479	-13.203	-0.231	0.150
-209.465	-19.592	-0.075	0.046
-208.450	9.538	-0.178	-0.134
-207.436	-90.332	-0.385	0.112
-206.421	92.676	-0.272	-0.307
-205.406	19.826	0.409	-0.329
-204.392	277.428	-0.049	0.088
-203.377	-138.517	0.124	0.014
-202.363	-73.491	0.435	-0.159
-201.348	58.606	-0.233	0.229
-200.333	-56.042	-0.159	-0.071
-199.319	-200.000	-0.061	-0.338
-198.304	75.599	0.179	-0.189
-197.290	739.002	-0.049	-0.130
-196.275	152.922	0.080	0.110
-195.260	-138.607	0.313	0.034
-194.246	-163.366	0.053	0.003
-193.231	173.944	-0.055	-0.079
-192.217	-200.000	0.019	0.222
-191.202	-53.046	-0.047	0.022
-190.187	29.151	-0.183	-0.155
-189.173	-130.454	0.252	-0.034
-188.158	-200.000	-0.035	-0.250
-187.144	-125.905	-0.054	0.008
-186.129	-86.867	-0.219	0.067
-185.114	-40.977	0.156	0.081
-184.100	-63.662	0.232	-0.095
-183.085	-200.000	0.013	-0.315
-182.071	-101.799	-0.354	-0.086
-181.056	-81.277	-0.193	0.064
-180.042	4.939	0.240	-0.176
-179.027	62.797	0.245	0.245
-178.012	-45.123	-0.063	-0.031
-176.998	354.240	0.132	0.261
-175.983	214.952	0.205	0.323
-174.969	-92.380	0.304	-0.085
-173.954	230.870	0.126	-0.206
-172.939	-101.853	-0.150	-0.036
-171.925	163.353	-0.215	0.301
-170.910	-200.000	0.002	-0.106
-169.896	38.612	0.114	-0.101
-168.881	-138.310	-0.405	0.045
-167.866	-114.301	0.208	0.040
-166.852	-76.654	-0.028	-0.010
-165.837	-102.069	-0.345	0.083
-164.823	-159.494	-0.153	-0.008
-163.808	-76.074	-0.126	0.044
-162.793	-51.852	-0.151	0.070
-161.779	162.040	-0.255	-0.356
-160.764	-89.610	-0.281	0.082
-159.750	-21.387	-0.030	-0.019
-158.735	800.000	0.090	0.365
-157.720	203.697	-0.167	0.257
-156.706	-168.774	-0.181	0.007
-155.691	-200.000	-0.027	0.157
-154.677	-127.120	0.277	-0.040
-153.662	-159.309	0.226	-0.013
-152.647	622.538	0.104	0.261
-151.633	60.347	-0.151	-0.149
-150.618	-200.000	-0.011	-0.248
-149.604	151.762	-0.111	0.151
-148.589	-200.000	0.025	0.158
-147.574	-200.000	0.022	0.166
-146.560	159.318	-0.166	0.230
-145.545	-147.725	-0.344	-0.029
-144.531	52.721	0.187	0.178
-143.516	-84.030	-0.297	0.094
-142.502	-73.539	0.150	0.055
-141.487	-53.320	-0.161	0.073
-140.472	-20.024	0.351	-0.216
-139.458	-146.452	-0.359	0.031
-138.443	-8.079	-0.335	-0.225
-137.429	800.000	-0.104	-0.368
-136.414	67.513	0.189	0.192
-135.399	-200.000	-0.007	0.051
-134.385	25.480	-0.200	0.166
-133.370	-200.000	0.029	0.350
-132.356	-200.000	-0.006	0.177
-131.341	-31.731	0.330	0.184
-130.326	-200.000	0.030	0.204
-129.312	-81.740	-0.457	0.149
-128.297	-48.891	0.301	0.144
-127.283	12.346	-0.238	-0.183
-126.268	518.569	0.093	-0.217
-125.253	-200.000	0.023	-0.112
-124.239	-42.163	-0.156	0.079
-123.224	800.000	0.073	0.212
-122.210	67.613	-0.186	0.190
