DTS Sentinel unit serial number:	SN413079Multiplexer serial number:	ORYXHardware model number:	OX4-SRSoftware version number:	ORYX F/W v4.00 Oryx Data Collector v3.7.2.0data status	okinstallation	princeton_trtdifferential loss correction	single-endedforward channel	channel 3reverse channel	N/Adate	2019/09/16time	13:52:35forward acquisition time	60.00reverse acquisition time	0.00gamma	496.2192k internal	0.2294k external	0.2294temperature offset calibration	0.9940default loss term (dB/km)	0.3790temperature slope calibration	1.0000multiplexer offset coefficient	1.0000multiplexer slope coefficient	1.0000fibre end	0.00T internal ref (°C)	42.36T ext. ref 1 (°C)	13.97T ext. ref 2 (°C)	38.89length (m)	temperature (°C)	Stokes	anti-Stokes-747.200	-200.000	-0.023	0.123
-746.185	-200.000	0.473	0.000
-745.171	-20.459	0.162	0.102
-744.156	305.940	-0.258	0.490
-743.142	95.004	-0.139	0.162
-742.127	-136.862	-0.101	-0.012
-741.112	-155.852	-0.256	-0.017
-740.098	359.272	-0.208	0.425
-739.083	-131.745	-0.235	-0.032
-738.069	169.061	0.067	0.098
-737.054	25.497	0.139	0.118
-736.039	-200.000	-0.007	-0.307
-735.025	-132.179	0.127	0.017
-734.010	-113.897	-0.272	0.054
-732.996	174.295	-0.215	-0.317
-731.981	800.000	0.154	-0.655
-730.966	461.700	0.088	-0.202
-729.952	-42.024	0.095	-0.049
-728.937	-97.584	0.253	0.067
-727.923	-154.814	0.061	0.004
-726.908	-200.000	0.013	0.178
-725.894	108.020	0.166	-0.203
-724.879	-200.000	0.071	-0.490
-723.864	65.244	0.109	-0.112
-722.850	-151.019	0.115	0.009
-721.835	-99.083	0.275	-0.071
-720.821	33.814	-0.068	-0.061
-719.806	335.114	-0.057	0.113
-718.791	-58.196	-0.117	0.052
-717.777	-169.462	0.249	0.009
-716.762	249.409	0.091	-0.158
-715.748	-22.439	-0.263	-0.162
-714.733	35.615	0.050	-0.045
-713.718	-111.823	0.206	-0.043
-712.704	-54.023	-0.046	0.021
-711.689	-61.836	0.078	-0.033
-710.675	218.638	-0.058	0.095
-709.660	800.000	-0.017	0.056
-708.645	-124.937	-0.272	-0.043
-707.631	-21.697	0.067	-0.042
-706.616	-37.165	0.231	-0.126
-705.602	-79.817	0.256	0.088
-704.587	115.528	-0.201	0.250
-703.572	-200.000	-0.002	-0.105
-702.558	-51.535	-0.236	0.112
-701.543	-75.909	-0.028	-0.010
-700.529	-200.000	-0.049	-0.350
-699.514	-39.874	0.355	-0.190
-698.499	-90.956	0.057	-0.017
-697.485	-57.646	-0.040	-0.018
-696.470	-50.426	-0.123	0.059
-695.456	-32.104	0.180	0.103
-694.441	762.903	0.142	-0.394
-693.426	-158.554	-0.135	0.008
-692.412	800.000	-0.093	0.274
-691.397	800.000	-0.025	-0.097
-690.383	150.014	-0.063	0.087
-689.368	-121.605	-0.142	-0.024
-688.354	-200.000	-0.009	-0.169
-687.339	-19.507	-0.174	0.110
-686.324	-200.000	-0.246	0.000
-685.310	-200.000	0.016	-0.075
-684.295	9.958	-0.047	0.036
-683.281	-137.297	-0.267	-0.031
-682.266	-200.000	-0.029	0.228
-681.251	-79.102	0.206	-0.071
-680.237	-157.916	-0.373	-0.022
-679.222	212.077	0.157	-0.253
-678.208	-200.000	0.014	-0.086
-677.193	348.452	0.087	0.176
-676.178	-31.856	-0.146	-0.084
-675.164	-103.711	-0.112	0.027
-674.149	2.624	0.394	0.291
-673.135	223.685	-0.093	0.153
-672.120	17.844	-0.195	0.158
-671.105	12.070	-0.023	0.018
-670.091	-81.455	-0.219	-0.074
-669.076	5.727	0.318	-0.240
-668.062	-200.000	0.027	-0.139
-667.047	54.932	0.165	0.163
-666.032	-200.000	0.019	0.179
-665.018	-130.094	-0.088	-0.012
-664.003	164.241	0.232	-0.333
-662.989	800.000	0.127	-0.460
-661.974	311.678	-0.129	-0.247
-660.959	-103.479	0.142	0.034
-659.945	-200.000	0.018	-0.156
-658.930	625.386	-0.051	-0.131
-657.916	-20.407	0.286	-0.179
-656.901	-33.140	0.229	0.129
-655.886	-200.000	0.018	-0.128
-654.872	-61.922	-0.122	-0.052
-653.857	-149.827	-0.093	-0.007
-652.843	-127.336	0.357	-0.053
-651.828	-137.523	0.087	0.010
-650.814	82.088	-0.106	0.117
-649.799	-44.992	0.312	-0.158
-648.784	-42.856	-0.406	-0.210
-647.770	-200.000	-0.055	0.258
-646.755	-33.566	-0.203	-0.114
-645.741	800.000	-0.040	-0.150
-644.726	28.001	-0.170	0.146
-643.711	-63.322	0.396	-0.166
-642.697	-118.256	0.258	0.047
-641.682	-54.406	0.084	0.039
-640.668	-200.000	-0.041	-0.189
-639.653	-200.000	0.007	-0.232
-638.638	141.786	-0.142	-0.192
-637.624	54.295	-0.287	0.281
-636.609	-200.000	0.021	0.265
-635.595	-67.633	0.094	-0.037
-634.580	272.401	0.092	-0.165
-633.565	180.272	-0.228	-0.340
-632.551	153.021	-0.140	-0.195
-631.536	-88.492	-0.082	0.025
-630.522	134.686	-0.111	0.147
-629.507	-104.610	0.252	0.059
-628.492	110.443	-0.116	-0.142
-627.478	328.339	0.068	0.134
-626.463	-200.000	0.017	0.111
-625.449	-88.571	0.172	0.052
-624.434	272.147	0.035	-0.063
-623.419	409.857	-0.049	0.106
-622.405	-95.328	0.265	0.073
-621.390	-100.174	-0.066	0.017
-620.376	-200.000	0.020	0.151
-619.361	-144.035	-0.296	0.028
-618.346	41.241	-0.319	-0.294
-617.332	-32.801	-0.109	0.061
-616.317	-95.843	0.140	-0.038
-615.303	-7.597	0.058	-0.040
-614.288	22.686	-0.095	0.079
-613.273	-165.490	-0.330	0.015
-612.259	34.716	-0.269	-0.239
-611.244	94.055	0.143	0.164
-610.230	-200.000	-0.009	-0.224
-609.215	-200.000	0.021	0.255
-608.201	-84.905	0.269	0.086
-607.186	-59.467	0.075	0.033
-606.171	40.067	-0.146	0.134
-605.157	800.000	-0.055	0.175
-604.142	-67.346	0.061	-0.024
-603.128	-79.801	-0.273	-0.093
-602.113	-200.000	-0.039	0.297
-601.098	800.000	-0.042	0.180
-600.084	-95.037	-0.184	0.050
-599.069	232.380	-0.091	0.152
-598.055	131.522	-0.079	0.103
-597.040	-200.000	-0.037	-0.286
-596.025	-200.000	0.006	-0.114
-595.011	-177.345	0.161	-0.004
-593.996	800.000	-0.041	-0.124
-592.982	800.000	-0.035	-0.121
-591.967	-102.954	-0.297	0.072
-590.952	-44.738	0.189	0.096
-589.938	800.000	0.026	-0.111
-588.923	-81.175	-0.152	0.051
-587.909	-60.527	-0.078	-0.034
-586.894	-133.381	0.335	-0.043
-585.879	-133.573	-0.119	0.015
-584.865	-182.405	-0.255	-0.005
-583.850	800.000	0.051	0.201
-582.836	257.302	-0.058	-0.102
-581.821	176.591	-0.193	-0.285
-580.806	-143.739	0.099	-0.010
-579.792	-81.004	-0.011	-0.004
-578.777	-200.000	0.013	-0.169
-577.763	-23.164	-0.089	0.055
-576.748	470.576	-0.127	0.290
-575.733	-200.000	0.033	-0.386
-574.719	-200.000	0.007	0.281
-573.704	370.690	-0.057	-0.118
-572.690	42.193	0.053	-0.049
-571.675	-200.000	-0.002	0.020
-570.661	-200.000	0.392	0.001
-569.646	800.000	0.088	-0.281
-568.631	800.000	0.070	-0.231
-567.617	800.000	-0.069	-0.219
-566.602	-67.763	-0.077	0.030
-565.588	10.758	0.143	0.111
-564.573	-104.015	0.251	0.059
-563.558	-105.742	0.191	-0.044
-562.544	121.259	-0.129	0.163
-561.529	52.893	0.174	-0.169
-560.515	-134.573	-0.107	-0.013
-559.500	-200.000	0.002	-0.127
-558.485	103.000	-0.116	0.137
-557.471	67.445	-0.164	-0.170
-556.456	-200.000	-0.034	0.160
-555.442	31.016	-0.186	0.162
-554.427	800.000	0.065	0.190
-553.412	564.012	0.177	-0.436
-552.398	116.807	-0.172	-0.214
-551.383	4.866	-0.121	0.090
-550.369	50.294	0.081	-0.078
-549.354	-200.000	0.020	0.371
-548.339	-168.424	-0.032	-0.001
-547.325	46.789	0.093	-0.087
-546.310	151.353	-0.153	-0.212
-545.296	800.000	0.047	-0.157
-544.281	-200.000	0.002	0.112
-543.266	-200.000	-0.007	0.055
-542.252	-172.089	-0.171	0.006
-541.237	-48.973	0.087	-0.042
-540.223	-129.353	-0.271	-0.038
-539.208	-200.000	0.009	-0.416
-538.193	315.406	-0.120	-0.230
-537.179	-200.000	0.013	-0.285
-536.164	-48.577	0.093	0.045
-535.150	231.328	0.181	0.300
-534.135	-10.831	-0.096	-0.065
-533.121	100.134	-0.088	0.104
-532.106	89.110	-0.298	0.337
-531.091	800.000	0.106	-0.298
-530.077	126.867	-0.130	-0.166
-529.062	-200.000	0.015	-0.240
-528.048	113.957	-0.083	-0.102
-527.033	800.000	-0.079	-0.253
-526.018	-156.249	0.153	0.010
-525.004	-161.468	-0.075	-0.004
-523.989	76.179	-0.129	-0.139
-522.975	800.000	-0.080	-0.229
-521.960	-200.000	0.016	-0.295
-520.945	210.084	-0.058	0.092
-519.931	-124.711	0.296	-0.047
-518.916	40.745	-0.147	-0.134
-517.902	-158.699	0.372	0.022
-516.887	551.286	-0.132	0.322
-515.872	-200.000	-0.000	0.131
-514.858	11.325	0.070	0.054
-513.843	-111.806	-0.103	0.021
-512.829	-44.274	-0.179	-0.091
-511.814	-200.000	-0.076	-0.350
-510.799	-84.094	0.381	-0.123
-509.785	30.473	-0.205	0.178
-508.770	54.770	0.222	0.217
-507.756	-116.286	-0.090	-0.017
-506.741	-50.285	-0.258	-0.123
-505.726	-200.000	-0.031	0.267
-504.712	367.864	0.216	-0.441
-503.697	488.577	-0.131	-0.303
-502.683	159.228	-0.127	-0.179
-501.668	800.000	-0.048	0.188
-500.653	-104.979	-0.302	-0.070
-499.639	-3.567	0.163	0.115
-498.624	129.688	0.159	0.206
-497.610	81.735	-0.112	0.122
-496.595	163.219	-0.136	-0.193
-495.581	225.640	0.099	-0.162
-494.566	56.485	0.179	0.177
-493.551	77.048	0.066	-0.071
-492.537	-200.000	0.011	0.149
-491.522	800.000	0.029	0.101
-490.508	157.513	0.288	-0.404
-489.493	15.210	0.117	0.093
-488.478	24.623	-0.066	-0.055
-487.464	473.086	-0.161	-0.366
-486.449	-94.735	0.170	0.047
-485.435	107.904	0.084	-0.101
-484.420	-200.000	0.029	-0.151
-483.405	-3.658	-0.130	0.091
-482.391	76.971	0.066	-0.071
-481.376	-10.818	-0.199	0.133
-480.362	-40.546	0.107	0.056
-479.347	-54.687	0.046	-0.021
-478.332	61.169	-0.267	0.269
-477.318	800.000	-0.044	-0.125
-476.303	-200.000	-0.016	-0.353
-475.289	-136.486	-0.161	-0.019
-474.274	-85.983	0.138	-0.043
-473.259	425.676	0.030	0.065
-472.245	-200.000	0.107	0.477
-471.230	-149.201	-0.166	-0.013
-470.216	465.246	0.055	0.125
-469.201	51.322	0.087	0.083
-468.186	-34.140	0.076	0.042
-467.172	123.400	0.130	-0.165
-466.157	800.000	0.090	-0.299
-465.143	16.383	0.139	0.111
-464.128	-54.805	0.201	-0.092
-463.113	-200.000	-0.011	-0.080
-462.099	38.714	-0.250	0.226
-461.084	800.000	0.111	-0.418
-460.070	800.000	-0.024	0.068
-459.055	-84.419	-0.274	-0.087
-458.040	193.984	-0.117	-0.179
-457.026	71.093	-0.232	0.243
-456.011	137.131	0.025	-0.033
-454.997	-21.581	-0.070	0.043
-453.982	-160.139	-0.205	0.011
-452.968	48.066	0.038	0.036
-451.953	14.911	-0.079	-0.062
-450.938	-134.443	-0.210	0.026
-449.924	789.445	-0.067	0.186
-448.909	96.169	0.218	0.252
-447.895	800.000	0.083	-0.309
-446.880	62.854	0.116	0.117
-445.865	800.000	0.053	-0.168
-444.851	468.484	0.059	0.133
-443.836	-113.779	0.135	-0.027
-442.822	45.910	0.143	-0.134
-441.807	-46.139	-0.218	0.108
-440.792	800.000	0.054	-0.224
-439.778	524.386	-0.036	0.087
-438.763	-200.000	0.017	-0.132
-437.749	-158.490	0.135	-0.008
-436.734	-24.235	-0.315	-0.190
-435.719	-112.348	-0.470	0.095
-434.705	391.949	0.078	0.164
-433.690	-129.376	-0.171	-0.024
-432.676	2.862	0.119	-0.087
-431.661	-200.000	0.010	-0.089
-430.646	96.309	0.057	-0.066
-429.632	284.151	-0.195	0.353
-428.617	-36.003	-0.478	-0.261
-427.603	-200.000	0.004	-0.191
-426.588	230.439	0.115	0.190
-425.573	210.113	0.041	-0.065
-424.559	42.332	0.079	-0.072
-423.544	421.043	-0.258	-0.558
-422.530	78.307	0.194	-0.209
-421.515	647.237	-0.124	0.321
-420.500	-200.000	0.041	0.319
-419.486	-88.417	0.226	-0.068
-418.471	-111.883	0.117	-0.024
-417.457	37.861	-0.168	0.151
-416.442	-200.000	-0.010	0.215
-415.428	-136.559	-0.198	0.023
-414.413	-166.466	-0.206	0.009
-413.398	800.000	-0.081	0.344
-412.384	-54.975	-0.100	-0.046
-411.369	-107.233	0.193	0.043
-410.355	-200.000	-0.036	-0.160
-409.340	649.484	0.030	-0.077
-408.325	552.105	-0.029	-0.071
-407.311	781.396	0.056	0.155
-406.296	182.942	0.101	-0.151
-405.282	-42.014	0.242	0.125
-404.267	-200.000	0.047	-0.240
-403.252	-200.000	-0.023	0.314
-402.238	-5.749	-0.037	-0.025
-401.223	83.870	-0.154	-0.169
-400.209	755.452	-0.060	-0.163
-399.194	99.279	-0.076	-0.089
-398.179	-200.000	-0.007	0.164
-397.165	208.058	0.115	0.182
-396.150	-128.565	0.279	0.040
-395.136	694.373	-0.084	-0.222
-394.121	-187.141	0.040	0.001
-393.106	-116.361	-0.199	-0.037
-392.092	-93.597	-0.301	-0.084
-391.077	110.428	-0.028	0.034
-390.063	-92.026	0.121	0.034
-389.048	287.174	0.177	-0.322
-388.033	573.742	-0.166	0.409
-387.019	25.249	0.132	0.111
-386.004	45.526	-0.053	0.049
-384.990	185.066	-0.199	0.298
-383.975	151.754	0.130	0.179
-382.960	184.458	0.198	-0.296
-381.946	111.456	0.167	-0.203
-380.931	-200.000	-0.022	-0.105
-379.917	-29.227	0.111	-0.064
-378.902	-200.000	-0.006	0.351
-377.888	97.778	0.114	0.132
-376.873	-47.585	0.343	-0.168
-375.858	-200.000	0.040	0.331
-374.844	738.928	0.055	0.150
-373.829	174.323	-0.153	0.224
-372.815	-54.117	0.331	-0.151
-371.800	154.380	0.114	-0.158
-370.785	-200.000	-0.023	-0.141
-369.771	-200.000	-0.022	-0.114
-368.756	-200.000	-0.053	0.438
-367.742	-113.014	0.112	0.022
-366.727	-143.048	0.246	-0.024
-365.712	800.000	0.039	-0.110
-364.698	51.040	-0.116	-0.111
-363.683	421.150	0.118	0.254
-362.669	-91.992	0.204	-0.058
-361.654	-87.977	0.087	0.026
-360.639	16.351	0.049	0.039
-359.625	-123.915	0.513	0.081
-358.610	17.775	0.205	0.165
-357.596	434.764	0.078	0.170
-356.581	239.497	0.117	0.196
-355.566	-67.711	0.150	0.059
-354.552	-200.000	-0.369	0.001
-353.537	70.651	0.093	-0.097
-352.523	-200.000	0.023	0.300
-351.508	-200.000	0.000	0.020
-350.493	319.877	0.096	-0.184
-349.479	800.000	-0.021	-0.090
-348.464	-4.928	0.212	-0.147
-347.450	800.000	0.076	-0.262
-346.435	-135.437	0.220	0.026
-345.420	210.785	0.012	0.019
-344.406	-200.000	0.014	0.129
-343.391	271.976	-0.108	0.192
-342.377	-69.320	-0.244	0.094
-341.362	-200.000	-0.025	-0.414
-340.348	44.104	-0.375	-0.346
-339.333	800.000	0.047	0.195
-338.318	-7.863	-0.100	0.068
-337.304	-52.592	0.227	0.106
-336.289	-36.874	-0.131	-0.071
-335.275	294.772	0.088	-0.162
-334.260	800.000	0.143	0.441
-333.245	144.534	0.178	0.239
-332.231	-18.711	0.200	0.126
-331.216	-161.775	0.298	0.015
-330.202	-200.000	0.021	-0.202
-329.187	71.679	-0.114	-0.119
-328.172	-65.325	0.041	0.017
-327.158	-124.143	0.151	-0.024
-326.143	-200.000	-0.050	-0.232
-325.129	333.255	0.136	-0.264
-324.114	29.010	-0.211	-0.180
-323.099	-200.000	0.047	0.233
-322.085	9.554	0.237	-0.180
-321.070	800.000	-0.043	-0.190
-320.056	-200.000	-0.004	0.460
-319.041	800.000	-0.045	0.192
-318.026	81.678	-0.228	-0.249
-317.012	-200.000	0.038	0.194
-315.997	-102.197	-0.191	-0.046
-314.983	149.027	-0.168	0.229
-313.968	-23.193	0.197	0.119
-312.953	800.000	-0.079	0.249
-311.939	342.263	-0.153	0.301
-310.924	-200.000	-0.016	-0.075
-309.910	-200.000	-0.311	-0.000
-308.895	327.668	0.072	-0.138
-307.880	-200.000	-0.014	0.482
-306.866	-200.000	-0.036	0.242
-305.851	-98.241	0.211	-0.054
-304.837	58.966	0.217	-0.214
-303.822	-133.467	0.013	0.002
-302.807	-200.000	-0.040	0.209
-301.793	-148.489	-0.157	0.013
-300.778	33.553	0.243	0.212
-299.764	-11.630	0.028	0.019
-298.749	697.468	-0.026	-0.070
-297.735	-135.015	0.344	0.042
-296.720	-45.787	-0.147	0.073
-295.705	-37.777	0.150	0.080
-294.691	159.644	0.090	-0.126
-293.676	734.583	-0.028	-0.075
-292.662	-79.029	-0.350	0.120
-291.647	28.654	0.276	-0.234
-290.632	293.215	0.072	-0.132
-289.618	-200.000	-0.077	0.348
-288.603	-200.000	0.016	0.118
-287.589	-38.978	-0.073	0.038
-286.574	-134.391	-0.145	-0.018
-285.559	17.162	0.135	0.108
-284.545	-151.462	-0.307	-0.023
-283.530	83.071	0.209	0.228
-282.516	444.430	0.059	-0.130
-281.501	-94.214	-0.252	-0.069
-280.486	-78.823	0.131	-0.045
-279.472	-37.603	0.476	0.255
-278.457	463.338	-0.059	0.133
-277.443	-8.051	-0.182	0.123
-276.428	612.293	0.113	0.283
-275.413	-147.081	-0.141	0.012
-274.399	-16.814	0.075	0.048
-273.384	-200.000	-0.034	0.303
-272.370	-112.570	-0.458	0.092
-271.355	366.423	0.130	0.264
-270.340	548.912	-0.208	0.501
-269.326	-200.000	0.020	-0.321
-268.311	-200.000	-0.056	-0.297
-267.297	-182.303	-0.403	0.008
-266.282	800.000	-0.038	0.133
-265.267	-80.385	0.086	0.029
-264.253	-118.457	0.211	0.038
-263.238	-93.003	-0.245	-0.068
-262.224	-69.652	0.147	0.057
-261.209	31.605	-0.121	0.104
-260.195	147.735	-0.187	-0.252
-259.180	299.238	0.081	0.150
-258.165	-77.082	0.214	-0.075
-257.151	-200.000	0.002	-0.096
-256.136	-161.907	-0.129	-0.007
-255.122	-50.603	-0.106	-0.050
-254.107	103.733	0.100	-0.118
-253.092	800.000	0.039	0.115
-252.078	41.613	0.331	-0.301
-251.063	-200.000	0.005	-0.093
-250.049	-23.714	-0.271	-0.163
-249.034	-200.000	-0.027	-0.203
-248.019	-14.135	-0.241	0.156
-247.005	-3.457	0.092	0.064
-245.990	-132.862	-0.270	-0.034
-244.976	800.000	0.034	0.151
-243.961	800.000	0.086	0.302
-242.946	-102.759	-0.281	0.067
-241.932	-54.397	0.263	-0.119
-240.917	-6.112	0.389	-0.267
-239.903	-200.000	-0.034	-0.179
-238.888	84.680	0.092	-0.101
-237.873	255.883	0.184	0.317
-236.859	257.628	0.069	0.118
-235.844	-200.000	0.047	-0.229
-234.830	275.221	0.141	0.250
-233.815	-200.000	-0.011	0.176
-232.800	-200.000	-0.034	0.181
-231.786	80.947	-0.173	-0.187
-230.771	-78.709	-0.172	0.059
-229.757	-23.138	-0.133	0.080
-228.742	167.366	-0.163	-0.232
-227.727	-200.000	-0.061	0.331
-226.713	113.885	0.097	-0.118
-225.698	166.115	0.166	0.235
-224.684	170.640	-0.183	0.263
-223.669	-200.000	-0.010	-0.358
-222.655	-13.974	0.359	-0.232
-221.640	800.000	-0.019	-0.057
-220.625	-44.443	-0.165	0.083
-219.611	733.555	-0.049	0.130
-218.596	411.951	0.063	-0.135
-217.582	-99.769	-0.194	-0.049
-216.567	-146.308	-0.273	-0.024
-215.552	708.382	-0.034	0.091
-214.538	468.426	0.058	0.130
-213.523	582.247	-0.045	0.111
-212.509	-42.084	0.246	0.126
-211.494	123.309	0.214	-0.269
-210.479	294.489	0.057	0.105
-209.465	8.314	0.303	-0.228
-208.450	-145.558	0.257	0.023
-207.436	127.145	0.104	0.133
-206.421	82.812	0.085	0.093
-205.406	-52.382	-0.258	0.120
-204.392	800.000	0.118	0.465
-203.377	800.000	-0.040	-0.138
-202.363	-37.729	0.244	-0.130
-201.348	184.649	0.045	-0.067
-200.333	210.747	0.125	0.197
-199.319	184.705	-0.100	-0.148
-198.304	-7.924	0.216	0.146
-197.290	41.662	0.084	-0.076
-196.275	-61.551	0.206	-0.087
-195.260	42.979	-0.227	-0.207
-194.246	-28.331	0.286	-0.165
-193.231	228.131	0.158	0.257
-192.217	-166.264	0.055	0.002
-191.202	-200.000	-0.041	-0.344
-190.187	-108.274	-0.247	-0.053
-189.173	-200.000	0.013	-0.279
-188.158	-200.000	-0.003	-0.099
-187.144	-57.498	0.067	-0.030
-186.129	-170.594	-0.177	-0.006
-185.114	15.722	0.264	-0.207
-184.100	150.336	0.098	0.133
-183.085	8.225	0.229	-0.172
-182.071	-200.000	-0.060	0.399
-181.056	111.993	-0.133	0.161
-180.042	39.290	0.209	0.187
-179.027	-66.218	-0.230	0.092
-178.012	153.224	0.101	-0.138
-176.998	-109.865	0.059	-0.012
-175.983	-67.091	0.192	0.076
-174.969	75.515	-0.107	0.113
-173.954	65.525	-0.232	0.234
-172.939	-100.991	-0.295	-0.072
-171.925	800.000	0.037	-0.118
-170.910	-200.000	-0.016	0.180
-169.896	-98.733	-0.055	-0.014
-168.881	-200.000	0.013	0.085
-167.866	162.463	-0.182	0.255
-166.852	-9.648	-0.080	0.053
-165.837	-21.067	0.189	-0.116
-164.823	-21.716	0.240	-0.146
-163.808	-111.829	-0.087	-0.018
-162.793	634.727	-0.008	0.021
-161.779	-22.046	0.104	0.063
-160.764	800.000	0.066	-0.253
-159.750	397.684	0.052	-0.108
-158.735	258.120	-0.090	-0.155
-157.720	-15.796	-0.130	-0.083
-156.706	34.666	-0.121	-0.106
-155.691	95.310	-0.023	0.026
-154.677	-135.107	0.188	-0.023
-153.662	-163.069	-0.279	0.013
-152.647	-9.072	-0.199	0.133
-151.633	800.000	0.037	-0.127
-150.618	1.203	0.034	-0.025
-149.604	-200.000	0.009	-0.478
-148.589	-36.044	0.063	0.034
-147.574	-200.000	0.015	-0.095
-146.560	638.097	0.121	0.308
-145.545	11.070	-0.208	-0.159
-144.531	-200.000	0.005	-0.211
-143.516	-9.754	0.059	0.039
-142.502	650.587	0.119	-0.304
-141.487	-134.821	0.171	-0.021
-140.472	543.103	-0.117	0.280
-139.458	-29.465	0.320	-0.183
-138.443	8.421	-0.037	-0.028
-137.429	-126.294	0.047	0.007
-136.414	-131.253	0.330	0.044
-135.399	235.923	-0.132	-0.218
-134.385	-199.601	0.181	-0.001
-133.370	24.061	-0.133	-0.110
-132.356	-104.754	0.223	-0.051
-131.341	150.162	0.089	0.120
-130.326	49.095	-0.115	-0.108
-129.312	17.973	-0.178	0.141
-128.297	-200.000	0.013	0.159
-127.283	-174.026	0.311	-0.009
-126.268	-9.248	0.379	0.253
-125.253	800.000	-0.006	0.017
-124.239	-130.252	0.112	0.015
-123.224	125.529	0.326	-0.411
-122.210	137.005	0.081	-0.105
-121.195	72.862	0.122	0.127
