DTS Sentinel unit serial number:	SN413079Multiplexer serial number:	ORYXHardware model number:	OX4-SRSoftware version number:	ORYX F/W v4.00 Oryx Data Collector v3.7.2.0data status	okinstallation	princeton_trtdifferential loss correction	single-endedforward channel	channel 3reverse channel	N/Adate	2019/09/10time	15:34:11forward acquisition time	60.00reverse acquisition time	0.00gamma	496.2192k internal	0.2297k external	0.2297temperature offset calibration	0.9912default loss term (dB/km)	0.3790temperature slope calibration	1.0000multiplexer offset coefficient	1.0000multiplexer slope coefficient	1.0000fibre end	0.00T internal ref (°C)	37.94T ext. ref 1 (°C)	-0.30T ext. ref 2 (°C)	32.18length (m)	temperature (°C)	Stokes	anti-Stokes-747.200	-92.209	-0.152	0.044
-746.185	435.658	0.229	0.508
-745.171	800.000	0.027	0.111
-744.156	33.193	0.359	0.318
-743.142	-172.449	0.183	0.006
-742.127	22.285	0.240	0.200
-741.112	175.679	-0.203	-0.301
-740.098	186.215	0.167	0.254
-739.083	457.316	0.160	0.364
-738.069	800.000	-0.041	0.137
-737.054	74.784	0.257	0.276
-736.039	-200.000	0.000	0.020
-735.025	68.039	0.280	0.293
-734.010	-112.682	-0.369	0.075
-732.996	-146.790	-0.597	0.053
-731.981	800.000	0.109	-0.440
-730.966	-200.000	-0.015	0.156
-729.952	-51.234	-0.331	0.158
-728.937	800.000	-0.063	-0.262
-727.923	-200.000	-0.055	-0.382
-726.908	589.689	-0.166	-0.418
-725.894	-5.675	0.049	0.034
-724.879	-162.147	-0.142	-0.007
-723.864	-200.000	-0.009	0.113
-722.850	-132.576	0.255	-0.033
-721.835	-75.621	-0.328	-0.119
-720.821	-67.632	-0.240	-0.096
-719.806	29.605	-0.169	-0.147
-718.791	-36.337	-0.072	-0.040
-717.777	-200.000	0.016	-0.129
-716.762	-39.239	0.144	-0.077
-715.748	-54.315	-0.338	-0.157
-714.733	-37.412	0.054	0.029
-713.718	7.446	0.064	-0.049
-712.704	-107.732	-0.252	0.056
-711.689	-132.606	-0.446	-0.058
-710.675	49.518	0.288	-0.277
-709.660	-200.000	0.122	-0.635
-708.645	-65.538	0.086	-0.035
-707.631	761.404	0.076	-0.209
-706.616	527.814	-0.171	-0.410
-705.602	132.648	-0.286	-0.376
-704.587	-44.854	0.075	0.038
-703.572	-66.647	0.282	-0.114
-702.558	390.364	0.066	0.139
-701.543	79.694	0.080	0.088
-700.529	18.704	0.224	-0.183
-699.514	-200.000	0.020	0.245
-698.499	-143.098	-0.360	0.035
-697.485	-200.000	-0.004	-0.161
-696.470	800.000	-0.032	0.095
-695.456	225.361	0.143	0.236
-694.441	114.002	0.070	0.086
-693.426	42.533	-0.085	0.079
-692.412	-63.769	0.120	0.050
-691.397	800.000	-0.055	0.197
-690.383	-200.000	0.005	-0.116
-689.368	227.924	0.094	0.156
-688.354	64.207	-0.354	-0.363
-687.339	479.401	0.037	0.085
-686.324	-156.626	0.106	-0.007
-685.310	224.679	0.253	-0.417
-684.295	744.346	0.193	-0.530
-683.281	92.997	-0.028	0.032
-682.266	18.407	-0.272	-0.222
-681.251	44.951	-0.273	0.256
-680.237	-200.000	-0.059	-0.277
-679.222	-123.898	-0.200	0.032
-678.208	-23.212	-0.383	-0.235
-677.193	-63.408	-0.119	-0.050
-676.178	332.799	-0.074	-0.146
-675.164	800.000	0.044	0.157
-674.149	-200.000	-0.021	0.238
-673.135	800.000	-0.113	0.320
-672.120	-38.820	-0.197	0.106
-671.105	-124.185	-0.118	-0.019
-670.091	-200.000	-0.004	-0.051
-669.076	45.767	0.276	-0.260
-668.062	32.813	0.118	0.104
-667.047	646.021	-0.101	-0.263
-666.032	800.000	-0.106	-0.308
-665.018	371.860	-0.108	0.223
-664.003	8.879	-0.168	0.129
-662.989	519.491	-0.074	0.176
-661.974	114.771	-0.177	-0.219
-660.959	-100.147	-0.259	-0.066
-659.945	78.131	-0.145	0.158
-658.930	512.771	-0.151	0.358
-657.916	10.697	0.215	-0.167
-656.901	-48.206	-0.119	-0.058
-655.886	55.815	-0.118	-0.116
-654.872	232.416	-0.161	0.269
-653.857	-107.076	-0.407	0.091
-652.843	462.512	-0.044	0.099
-651.828	44.809	0.171	-0.160
-650.814	264.747	0.190	0.336
-649.799	17.921	0.429	-0.348
-648.784	-66.694	0.174	0.070
-647.770	58.994	-0.269	0.269
-646.755	-29.401	-0.252	0.147
-645.741	1.055	0.204	-0.149
-644.726	-200.000	0.009	0.223
-643.711	213.029	-0.128	0.205
-642.697	-200.000	-0.101	-0.528
-641.682	393.780	-0.131	-0.277
-640.668	291.183	0.093	-0.171
-639.653	79.319	0.017	-0.019
-638.638	-200.000	0.014	0.239
-637.624	-50.750	-0.071	-0.034
-636.609	-7.734	0.099	-0.068
-635.595	800.000	0.001	-0.005
-634.580	-118.753	0.048	0.009
-633.565	-103.122	-0.063	0.015
-632.551	-10.756	-0.210	0.141
-631.536	2.835	-0.071	0.052
-630.522	800.000	0.009	0.039
-629.507	-136.734	0.038	0.004
-628.492	-126.726	-0.215	0.032
-627.478	70.281	-0.105	-0.110
-626.463	-85.538	-0.020	-0.006
-625.449	58.467	-0.150	-0.150
-624.434	29.268	-0.136	-0.117
-623.419	-114.003	0.351	0.069
-622.405	37.106	0.108	-0.097
-621.390	-200.000	0.050	0.412
-620.376	-124.972	0.159	-0.025
-619.361	-97.195	-0.126	0.033
-618.346	-182.757	-0.329	0.006
-617.332	-8.699	0.097	0.066
-616.317	619.480	-0.041	-0.105
-615.303	-89.133	0.358	0.108
-614.288	-85.080	0.112	0.036
-613.273	163.513	-0.086	0.122
-612.259	89.917	0.304	-0.345
-611.244	-107.862	-0.401	0.089
-610.230	-82.822	-0.409	-0.134
-609.215	-200.000	0.007	-0.038
-608.201	-96.420	-0.542	0.145
-607.186	42.590	0.117	0.108
-606.171	-139.206	0.347	-0.038
-605.157	69.540	0.327	-0.342
-604.142	-151.084	0.173	-0.013
-603.128	-48.781	-0.127	-0.062
-602.113	-163.314	-0.115	0.006
-601.098	-200.000	0.046	0.317
-600.084	800.000	0.076	0.227
-599.069	751.480	0.047	-0.128
-598.055	-200.000	-0.023	-0.190
-597.040	800.000	-0.032	-0.141
-596.025	-25.233	0.045	-0.027
-595.011	-200.000	-0.065	-0.454
-593.996	-200.000	0.055	-0.351
-592.982	-88.446	-0.171	0.052
-591.967	-200.000	0.200	0.001
-590.952	-23.322	0.117	-0.072
-589.938	510.477	-0.044	-0.104
-588.923	359.611	-0.189	0.384
-587.909	374.797	0.181	0.374
-586.894	-200.000	-0.078	0.439
-585.879	-49.065	0.166	0.081
-584.865	-126.287	0.133	-0.020
-583.850	-116.851	0.240	-0.045
-582.836	-200.000	0.010	0.149
-581.821	-165.812	-0.441	0.019
-580.806	-123.331	-0.159	0.026
-579.792	-113.383	0.111	-0.022
-578.777	576.686	-0.065	-0.161
-577.763	208.975	-0.165	-0.262
-576.748	-200.000	-0.523	-0.001
-575.733	800.000	0.199	0.697
-574.719	92.667	0.100	0.114
-573.704	78.044	-0.168	0.182
-572.690	800.000	0.069	-0.262
-571.675	796.676	0.141	-0.393
-570.661	-31.286	-0.112	-0.064
-569.646	419.829	0.101	0.219
-568.631	8.434	0.077	-0.059
-567.617	276.995	-0.030	-0.054
-566.602	47.396	-0.207	-0.195
-565.588	309.870	0.089	-0.169
-564.573	11.291	0.202	-0.157
-563.558	-200.000	0.003	0.063
-562.544	641.530	-0.056	-0.144
-561.529	-115.793	0.230	0.044
-560.515	10.079	0.149	0.115
-559.500	800.000	0.069	0.229
-558.485	-31.529	-0.113	0.064
-557.471	-14.981	-0.118	0.076
-556.456	-200.000	0.042	-0.228
-555.442	31.457	-0.231	0.201
-554.427	-200.000	-0.052	0.365
-553.412	16.328	-0.146	-0.117
-552.398	56.237	0.158	-0.156
-551.383	102.140	-0.103	0.122
-550.369	-50.010	0.336	-0.162
-549.354	-200.000	0.009	-0.138
-548.339	-83.989	-0.207	-0.067
-547.325	-44.924	0.031	-0.015
-546.310	660.426	0.098	0.255
-545.296	-200.000	0.010	0.190
-544.281	-133.188	0.167	0.021
-543.266	67.991	-0.100	-0.103
-542.252	800.000	0.081	-0.269
-541.237	106.425	0.192	-0.230
-540.223	-67.421	-0.236	0.094
-539.208	-200.000	0.026	0.183
-538.193	158.134	0.029	0.041
-537.179	24.330	-0.335	-0.280
-536.164	543.740	0.149	0.361
-535.150	2.234	-0.100	0.073
-534.135	540.228	-0.090	0.218
-533.121	81.555	-0.328	0.359
-532.106	-200.000	0.013	-0.074
-531.091	21.453	-0.182	-0.150
-530.077	522.530	-0.040	0.096
-529.062	-27.517	-0.097	-0.057
-528.048	212.399	0.244	-0.389
-527.033	-84.372	0.239	0.077
-526.018	-200.000	-0.068	0.302
-525.004	366.196	-0.104	-0.212
-523.989	-94.130	-0.254	0.070
-522.975	-140.905	-0.191	-0.020
-521.960	-59.610	0.193	0.084
-520.945	592.037	-0.134	-0.335
-519.931	89.788	-0.134	0.151
-518.916	-200.000	0.003	0.051
-517.902	271.038	-0.172	0.306
-516.887	-133.525	0.318	0.040
-515.872	225.550	-0.151	0.247
-514.858	-49.269	-0.358	-0.173
-513.843	482.054	0.033	-0.075
-512.829	800.000	-0.027	-0.113
-511.814	97.923	-0.221	-0.258
-510.799	800.000	0.114	0.389
-509.785	349.849	-0.047	0.095
-508.770	7.396	-0.223	-0.169
-507.756	-187.922	0.225	0.003
-506.741	-200.000	0.002	0.035
-505.726	-28.975	-0.145	0.084
-504.712	-200.000	-0.027	-0.137
-503.697	-51.135	-0.091	-0.043
-502.683	-0.673	0.123	-0.089
-501.668	563.785	-0.084	-0.207
-500.653	-129.643	0.270	0.038
-499.639	19.373	0.255	0.207
-498.624	131.105	-0.126	0.163
-497.610	-22.968	-0.286	0.175
-496.595	-154.774	-0.209	-0.014
-495.581	197.984	0.085	-0.132
-494.566	-55.126	-0.096	-0.044
-493.551	-200.000	-0.023	-0.124
-492.537	95.269	0.134	-0.155
-491.522	-200.000	0.022	0.114
-490.508	368.696	-0.081	0.166
-489.493	-200.000	-0.383	-0.001
-488.478	-200.000	-0.022	0.106
-487.464	-114.572	-0.418	0.081
-486.449	-200.000	-0.006	0.045
-485.435	-103.670	0.135	-0.032
-484.420	-25.570	0.161	0.096
-483.405	518.349	0.045	0.105
-482.391	184.561	-0.117	-0.176
-481.376	390.350	-0.069	-0.144
-480.362	209.444	-0.053	0.084
-479.347	-141.129	0.437	-0.045
-478.332	-125.216	0.039	0.006
-477.318	91.350	0.084	0.095
-476.303	-27.601	0.235	0.138
-475.289	800.000	-0.041	-0.155
-474.274	284.701	0.128	-0.232
-473.259	-65.050	0.332	0.135
-472.245	-111.699	0.162	0.033
-471.230	-200.000	0.038	-0.168
-470.216	-40.416	-0.077	-0.040
-469.201	328.204	0.174	-0.338
-468.186	483.015	0.097	-0.222
-467.172	-108.184	-0.113	0.025
-466.157	374.082	0.156	-0.321
-465.143	-200.000	-0.069	-0.575
-464.128	-200.000	0.033	-0.440
-463.113	597.372	-0.050	0.126
-462.099	99.760	-0.140	-0.164
-461.084	15.416	0.097	-0.077
-460.070	84.996	0.117	-0.130
-459.055	-13.208	-0.208	-0.137
-458.040	202.643	0.040	-0.062
-457.026	-106.931	0.155	-0.035
-456.011	-200.000	0.031	-0.360
-454.997	6.315	0.104	0.078
-453.982	-80.964	0.188	0.063
-452.968	800.000	-0.061	0.172
-451.953	71.964	0.101	0.106
-450.938	-167.693	0.070	0.003
-449.924	183.058	0.047	0.070
-448.909	38.140	0.183	0.165
-447.895	451.680	0.077	-0.173
-446.880	75.751	-0.092	0.098
-445.865	-200.000	-0.058	0.269
-444.851	18.451	0.322	0.260
-443.836	-85.588	-0.284	-0.089
-442.822	-54.747	0.051	-0.023
-441.807	-107.831	-0.137	-0.030
-440.792	-68.146	0.251	0.099
-439.778	-165.611	0.153	-0.007
-438.763	-30.207	0.080	0.046
-437.749	72.922	-0.139	-0.147
-436.734	800.000	-0.168	-0.505
-435.719	-78.659	0.192	-0.066
-434.705	18.846	0.407	0.329
-433.690	-63.527	-0.186	0.077
-432.676	265.456	-0.067	-0.118
-431.661	-200.000	-0.016	0.380
-430.646	-200.000	-0.034	0.212
-429.632	-179.452	0.400	0.009
-428.617	-200.000	0.036	-0.246
-427.603	800.000	0.057	0.169
-426.588	65.431	-0.197	-0.201
-425.573	-36.145	-0.075	-0.041
-424.559	-29.964	-0.260	-0.149
-423.544	-80.229	-0.056	0.019
-422.530	246.191	0.090	-0.153
-421.515	-81.069	-0.099	0.033
-420.500	-101.513	-0.382	-0.094
-419.486	26.960	0.068	-0.058
-418.471	226.785	-0.160	0.261
-417.457	-151.245	-0.207	-0.016
-416.442	81.283	-0.132	0.143
-415.428	82.605	0.284	0.311
-414.413	5.131	-0.151	0.112
-413.398	255.236	-0.048	-0.083
-412.384	-200.000	0.005	-0.104
-411.369	800.000	0.018	-0.077
-410.355	126.782	-0.061	0.078
-409.340	-200.000	0.054	0.383
-408.325	-171.038	-0.173	-0.006
-407.311	-28.426	-0.165	-0.096
-406.296	117.587	0.374	-0.464
-405.282	-75.431	0.201	-0.072
-404.267	-200.000	0.024	-0.254
-403.252	800.000	0.067	0.232
-402.238	-200.000	-0.066	0.000
-401.223	800.000	-0.072	-0.298
-400.209	301.555	0.167	0.312
-399.194	-200.000	0.003	-0.082
-398.179	98.526	-0.138	-0.160
-397.165	-105.617	0.329	0.075
-396.150	240.420	0.176	0.295
-395.136	800.000	0.048	0.188
-394.121	-120.993	-0.394	0.067
-393.106	-74.098	-0.205	0.075
-392.092	-103.798	0.386	-0.091
-391.077	-200.000	-0.013	0.080
-390.063	-85.710	-0.083	0.026
-389.048	-196.542	0.432	0.003
-388.033	-200.000	0.030	-0.156
-387.019	-110.649	0.066	0.014
-386.004	-124.788	-0.058	0.009
-384.990	296.027	-0.104	-0.193
-383.975	152.520	-0.249	0.343
-382.960	-155.766	0.191	0.012
-381.946	433.394	0.109	0.239
-380.931	44.576	-0.296	0.274
-379.917	123.770	0.190	0.241
-378.902	-90.427	0.140	-0.041
-377.888	266.392	0.027	-0.047
-376.873	-200.000	-0.041	-0.186
-375.858	166.375	0.130	0.186
-374.844	108.554	-0.142	-0.171
-373.829	-99.496	0.182	-0.046
-372.815	-200.000	-0.017	0.154
-371.800	-200.000	-0.018	0.204
-370.785	293.674	-0.079	0.145
-369.771	47.491	-0.220	-0.206
-368.756	-65.019	-0.262	0.106
-367.742	109.959	0.167	0.202
-366.727	-200.000	0.057	-0.353
-365.712	-200.000	0.053	0.257
-364.698	36.715	0.052	0.046
-363.683	-16.243	-0.271	-0.173
-362.669	-200.000	0.061	-0.561
-361.654	94.477	-0.066	-0.075
-360.639	-59.247	-0.026	0.011
-359.625	105.735	0.091	-0.108
-358.610	-65.857	-0.147	0.059
-357.596	-190.356	-0.041	-0.000
-356.581	-15.132	-0.104	-0.067
-355.566	443.839	-0.146	-0.322
-354.552	800.000	0.099	-0.311
-353.537	-3.958	0.046	0.032
-352.523	-45.564	-0.113	-0.056
-351.508	-200.000	0.006	0.168
-350.493	-81.739	-0.290	-0.096
-349.479	61.668	0.221	0.221
-348.464	5.813	-0.225	0.167
-347.450	-127.454	0.362	-0.053
-346.435	-72.418	-0.153	0.057
-345.420	800.000	-0.064	-0.183
-344.406	800.000	-0.024	0.092
-343.391	-72.443	0.068	-0.025
-342.377	-145.815	-0.302	-0.027
-341.362	-115.015	0.163	-0.031
-340.348	-81.592	0.298	0.098
-339.333	283.864	-0.125	0.226
-338.318	0.113	0.092	0.066
-337.304	-81.059	0.092	-0.031
-336.289	532.534	0.043	-0.102
-335.275	98.228	-0.236	0.273
-334.260	40.938	0.087	0.079
-333.245	-24.925	0.026	-0.015
-332.231	800.000	0.022	-0.088
-331.216	195.630	0.098	0.149
-330.202	-98.096	-0.178	-0.046
-329.187	21.984	0.128	0.105
-328.172	-118.764	-0.228	-0.040
-327.158	800.000	0.025	-0.097
-326.143	-47.897	0.261	-0.127
-325.129	-127.769	-0.279	0.040
-324.114	-146.826	-0.271	-0.023
-323.099	-34.747	-0.340	-0.187
-322.085	-22.693	-0.226	0.137
-321.070	76.777	-0.192	-0.205
-320.056	21.254	-0.076	0.062
-319.041	-59.869	0.083	0.036
-318.026	-34.030	0.188	-0.104
-317.012	-10.950	0.085	0.056
-315.997	-39.829	0.123	0.065
-314.983	800.000	-0.162	-0.561
-313.968	800.000	0.035	0.111
-312.953	-124.206	0.100	-0.016
-311.939	130.160	-0.111	0.142
-310.924	647.947	-0.156	0.399
-309.910	191.687	0.139	-0.210
-308.895	-140.648	0.164	0.017
-307.880	-200.000	-0.009	0.176
-306.866	-104.061	0.203	0.047
-305.851	121.645	0.173	0.217
-304.837	-200.000	-0.012	-0.179
-303.822	-200.000	0.002	0.069
-302.807	351.129	-0.023	-0.046
-301.793	-140.313	-0.183	-0.019
-300.778	83.703	-0.242	-0.264
-299.764	-103.061	-0.066	-0.016
-298.749	-26.655	-0.298	-0.175
-297.735	147.145	-0.152	-0.206
-296.720	81.305	0.068	-0.074
-295.705	359.851	-0.108	0.216
-294.691	206.863	0.157	0.246
-293.676	-97.898	0.157	-0.041
-292.662	62.806	-0.053	0.054
-291.647	-200.000	-0.071	-0.313
-290.632	800.000	0.104	-0.409
-289.618	-6.323	0.053	0.037
-288.603	-127.124	-0.271	-0.040
-287.589	-78.805	0.185	0.063
-286.574	-131.237	0.005	-0.001
-285.559	-119.480	-0.077	0.013
-284.545	167.132	0.040	0.058
-283.530	800.000	-0.090	-0.263
-282.516	569.624	0.050	-0.122
-281.501	-21.110	-0.131	0.080
-280.486	-96.883	0.120	-0.032
-279.472	354.892	-0.098	-0.194
-278.457	-37.777	-0.281	-0.150
-277.443	-98.848	-0.131	0.033
-276.428	-38.891	-0.137	0.072
-275.413	199.333	-0.034	0.052
-274.399	267.689	-0.058	-0.101
-273.384	3.257	0.128	-0.094
-272.370	-76.110	0.128	-0.045
-271.355	24.991	-0.133	0.110
-270.340	305.302	-0.023	0.043
-269.326	12.898	0.112	0.087
-268.311	51.961	-0.077	-0.073
-267.297	46.091	0.075	-0.069
-266.282	57.343	0.107	0.105
-265.267	411.723	-0.119	0.253
-264.253	-200.000	0.030	0.160
-263.238	560.096	0.081	-0.197
-262.224	714.532	-0.101	-0.267
-261.209	-200.000	0.007	-0.072
-260.195	-68.966	0.089	-0.034
-259.180	138.788	0.210	0.276
-258.165	800.000	-0.035	-0.103
-257.151	-200.000	0.018	0.208
-256.136	127.873	0.236	-0.301
-255.122	-96.859	-0.086	-0.023
-254.107	-124.130	-0.218	0.034
-253.092	-200.000	-0.016	-0.396
-252.078	64.157	-0.079	0.080
-251.063	-200.000	0.038	0.193
-250.049	149.287	0.299	0.406
-249.034	800.000	-0.092	0.384
-248.019	-200.000	0.005	0.096
-247.005	-86.806	0.436	0.133
-245.990	800.000	0.090	0.254
-244.976	-53.609	0.149	-0.068
-243.961	-200.000	-0.008	0.141
-242.946	176.341	0.145	0.210
-241.932	-200.000	0.034	0.177
-240.917	239.282	-0.033	0.055
-239.903	10.060	0.132	0.100
-238.888	-104.997	0.289	0.066
-237.873	262.954	-0.170	0.296
-236.859	-37.950	0.232	0.123
-235.844	11.426	-0.120	-0.092
-234.830	800.000	-0.075	-0.286
-233.815	-200.000	-0.009	-0.232
-232.800	-86.228	-0.314	-0.097
-231.786	-161.998	-0.379	0.019
-230.771	-47.802	-0.065	-0.031
-229.757	-23.092	-0.185	0.112
-228.742	-200.000	0.027	0.275
-227.727	800.000	0.036	-0.105
-226.713	-200.000	0.013	0.236
-225.698	16.119	-0.190	0.150
-224.684	-38.313	0.156	0.083
-223.669	-200.000	0.019	0.268
-222.655	800.000	0.091	0.392
-221.640	-87.013	-0.206	-0.063
-220.625	-124.246	0.241	0.038
-219.611	-65.824	-0.311	0.124
-218.596	-200.000	-0.024	0.116
-217.582	-4.120	0.139	-0.096
-216.567	17.855	-0.074	0.059
-215.552	131.248	0.107	-0.137
-214.538	50.599	-0.275	-0.261
-213.523	206.427	-0.039	-0.061
-212.509	476.664	-0.043	-0.098
-211.494	98.687	-0.123	0.142
-210.479	72.873	-0.114	0.119
-209.465	-200.000	-0.007	-0.183
-208.450	-141.875	0.136	0.014
-207.436	-115.480	0.064	-0.012
-206.421	-92.990	-0.381	-0.106
-205.406	-50.599	-0.151	-0.071
-204.392	24.544	0.182	0.150
-203.377	25.350	-0.193	-0.160
-202.363	-200.000	-0.063	-0.305
-201.348	707.023	-0.063	-0.167
-200.333	-165.968	0.176	0.008
-199.319	363.774	0.092	-0.186
-198.304	-75.799	-0.134	-0.047
-197.290	800.000	-0.139	-0.529
-196.275	-200.000	-0.015	0.424
-195.260	-200.000	-0.004	-0.056
-194.246	163.285	-0.090	0.126
-193.231	69.669	0.023	-0.024
-192.217	-157.820	0.500	0.030
-191.202	381.968	0.090	-0.184
-190.187	302.136	-0.022	-0.041
-189.173	800.000	0.124	0.402
-188.158	-200.000	0.010	-0.047
-187.144	588.398	0.074	0.181
-186.129	-194.497	-0.209	-0.002
-185.114	-200.000	0.016	0.174
-184.100	27.938	0.129	0.108
-183.085	69.888	0.241	-0.249
-182.071	604.599	-0.164	-0.409
-181.056	-68.156	0.076	0.030
-180.042	-95.344	0.456	0.123
-179.027	-107.962	0.314	-0.068
-178.012	800.000	0.048	-0.166
-176.998	-113.713	0.142	-0.028
-175.983	72.093	0.165	0.172
-174.969	421.600	0.130	0.279
-173.954	-99.678	-0.032	-0.008
-172.939	-112.239	0.190	0.038
-171.925	-96.486	-0.139	0.037
-170.910	244.687	0.106	-0.177
-169.896	-3.326	-0.101	0.070
-168.881	36.980	0.196	-0.173
-167.866	-200.000	-0.003	-0.082
-166.852	-157.815	0.208	-0.012
-165.837	0.744	-0.169	0.121
-164.823	800.000	-0.096	0.381
-163.808	171.329	0.064	0.091
-162.793	16.920	0.253	0.200
-161.779	-99.144	0.324	0.082
-160.764	217.621	-0.125	-0.198
-159.750	-106.717	0.327	-0.073
-158.735	-39.967	0.084	0.044
-157.720	256.011	-0.124	-0.212
-156.706	222.894	-0.036	0.059
-155.691	-142.779	0.466	-0.045
-154.677	588.862	0.103	-0.254
-153.662	-138.123	-0.555	0.062
-152.647	-3.160	0.179	0.125
-151.633	37.634	0.057	0.050
-150.618	-148.488	0.234	-0.019
-149.604	-47.944	-0.323	0.156
-148.589	438.910	0.121	-0.264
-147.574	-166.137	0.080	0.003
-146.560	561.693	-0.099	-0.239
-145.545	-136.006	-0.362	-0.042
-144.531	-24.203	0.201	-0.120
-143.516	-124.683	0.232	-0.036
-142.502	286.107	-0.065	0.116
-141.487	-200.000	0.446	-0.000
-140.472	382.597	-0.160	0.329
-139.458	736.885	0.061	-0.163
-138.443	-200.000	0.020	0.170
-137.429	-20.992	0.051	0.031
-136.414	-200.000	0.041	0.439
-135.399	254.333	-0.027	0.047
-134.385	68.500	0.347	-0.355
-133.370	-98.928	0.145	-0.037
-132.356	244.003	-0.128	-0.215
-131.341	-77.150	0.215	-0.075
-130.326	-152.687	-0.230	-0.016
-129.312	279.189	-0.141	-0.251
-128.297	-200.000	0.036	0.361
-127.283	56.407	0.128	0.124
-126.268	-200.000	0.004	-0.079
-125.253	-81.530	-0.321	-0.105
-124.239	-200.000	-0.008	-0.130
-123.224	-200.000	-0.007	0.151
-122.210	202.725	0.123	0.190
-121.195	-74.422	-0.178	0.064
