DTS Sentinel unit serial number:	SN413079Multiplexer serial number:	ORYXHardware model number:	OX4-SRSoftware version number:	ORYX F/W v4.00 Oryx Data Collector v3.7.2.0data status	okinstallation	princeton_trtdifferential loss correction	single-endedforward channel	channel 3reverse channel	N/Adate	2019/09/14time	13:36:35forward acquisition time	60.00reverse acquisition time	0.00gamma	496.2192k internal	0.2295k external	0.2295temperature offset calibration	1.0065default loss term (dB/km)	0.3790temperature slope calibration	1.0000multiplexer offset coefficient	1.0000multiplexer slope coefficient	1.0000fibre end	0.00T internal ref (°C)	37.92T ext. ref 1 (°C)	4.92T ext. ref 2 (°C)	32.76length (m)	temperature (°C)	Stokes	anti-Stokes-747.200	398.197	0.113	-0.242
-746.185	19.762	0.175	-0.144
-745.171	-109.903	-0.176	0.038
-744.156	-89.330	-0.076	-0.023
-743.142	-27.277	0.206	-0.123
-742.127	43.073	0.201	0.187
-741.112	-124.171	-0.290	-0.046
-740.098	-16.638	-0.255	0.165
-739.083	-25.500	0.040	-0.024
-738.069	86.166	0.143	0.161
-737.054	-57.407	-0.126	0.057
-736.039	4.665	-0.204	-0.153
-735.025	-130.079	0.373	0.052
-734.010	-200.000	-0.013	0.379
-732.996	67.153	-0.252	0.263
-731.981	-83.374	0.226	-0.074
-730.966	418.121	0.105	0.228
-729.952	-70.353	-0.046	-0.018
-728.937	502.790	-0.144	-0.339
-727.923	800.000	-0.084	-0.363
-726.908	102.630	0.044	-0.053
-725.894	745.899	-0.107	-0.293
-724.879	-105.093	0.206	-0.048
-723.864	167.808	-0.159	-0.231
-722.850	657.709	0.075	0.198
-721.835	497.166	-0.077	-0.181
-720.821	-200.000	-0.010	-0.054
-719.806	800.000	0.053	-0.189
-718.791	84.662	-0.052	-0.058
-717.777	-126.836	-0.186	-0.028
-716.762	-4.382	-0.276	-0.195
-715.748	-200.000	0.028	-0.263
-714.733	800.000	-0.056	-0.233
-713.718	525.200	-0.036	0.087
-712.704	-60.810	-0.143	0.062
-711.689	234.175	0.075	-0.126
-710.675	-170.541	0.243	0.009
-709.660	393.410	0.039	-0.082
-708.645	-14.001	0.318	0.210
-707.631	-103.406	-0.258	0.062
-706.616	-104.566	0.103	-0.024
-705.602	-200.000	-0.004	0.090
-704.587	-124.638	-0.121	-0.019
-703.572	388.541	-0.045	0.096
-702.558	55.622	0.085	0.084
-701.543	111.132	-0.107	-0.131
-700.529	-23.623	0.199	-0.122
-699.514	-200.000	0.026	0.190
-698.499	-128.951	-0.408	0.058
-697.485	9.219	-0.160	-0.123
-696.470	338.603	0.133	-0.264
-695.456	68.622	-0.061	-0.064
-694.441	211.969	0.059	0.096
-693.426	-200.000	-0.007	0.046
-692.412	-18.994	-0.343	-0.218
-691.397	-104.838	0.295	0.069
-690.383	-200.000	0.021	-0.143
-689.368	596.856	0.064	-0.162
-688.354	-200.000	-0.058	-0.327
-687.339	231.452	-0.042	0.070
-686.324	290.269	-0.144	-0.268
-685.310	-104.711	-0.293	-0.069
-684.295	8.214	0.078	0.060
-683.281	800.000	-0.059	0.261
-682.266	-200.000	-0.375	-0.001
-681.251	-2.331	-0.211	-0.151
-680.237	613.399	-0.109	-0.280
-679.222	-19.749	-0.144	0.091
-678.208	-106.219	0.090	-0.021
-677.193	-154.865	0.268	0.018
-676.178	33.394	0.171	-0.151
-675.164	191.504	0.256	0.393
-674.149	163.615	0.142	-0.204
-673.135	138.699	0.172	-0.230
-672.120	348.273	0.090	-0.182
-671.105	-200.000	0.031	0.183
-670.091	-200.000	-0.045	0.424
-669.076	800.000	0.033	0.131
-668.062	800.000	0.063	-0.207
-667.047	478.146	-0.109	-0.252
-666.032	-187.988	0.188	-0.002
-665.018	-68.727	0.099	0.039
-664.003	223.196	0.067	-0.110
-662.989	-151.222	0.217	-0.017
-661.974	-22.498	-0.112	-0.069
-660.959	-72.434	0.189	0.071
-659.945	203.936	-0.028	-0.045
-658.930	87.448	-0.091	-0.103
-657.916	532.219	-0.002	0.005
-656.901	195.633	0.074	0.114
-655.886	-37.600	-0.102	0.056
-654.872	-200.000	-0.045	0.264
-653.857	151.961	-0.042	0.058
-652.843	-85.864	0.136	0.043
-651.828	-82.721	-0.027	-0.009
-650.814	-200.000	-0.041	-0.328
-649.799	99.824	-0.225	0.266
-648.784	116.656	0.175	-0.219
-647.770	-103.176	-0.127	-0.031
-646.755	-82.719	-0.170	-0.056
-645.741	-200.000	0.016	0.184
-644.726	-38.404	0.165	-0.089
-643.711	-29.846	0.161	0.093
-642.697	-200.000	0.005	0.117
-641.682	-1.470	-0.091	0.065
-640.668	800.000	0.054	-0.220
-639.653	44.199	-0.216	0.202
-638.638	365.780	-0.147	0.302
-637.624	-5.261	0.228	-0.159
-636.609	-77.102	0.252	0.089
-635.595	442.248	0.075	0.167
-634.580	-138.674	0.259	-0.029
-633.565	800.000	-0.039	-0.140
-632.551	478.413	0.110	-0.254
-631.536	-88.529	0.412	-0.125
-630.522	-200.000	0.034	-0.462
-629.507	-117.449	0.060	-0.011
-628.492	-200.000	0.055	0.275
-627.478	-43.800	-0.229	0.117
-626.463	-167.309	-0.280	-0.011
-625.449	800.000	-0.068	0.284
-624.434	-33.680	0.122	0.069
-623.419	-200.000	0.009	-0.146
-622.405	30.726	0.192	-0.168
-621.390	13.632	-0.130	-0.102
-620.376	-166.839	0.282	0.012
-619.361	130.289	-0.302	0.393
-618.346	82.978	0.147	0.163
-617.332	800.000	-0.050	0.153
-616.317	-200.000	-0.001	-0.018
-615.303	-149.184	0.514	0.042
-614.288	-107.823	-0.180	-0.040
-613.273	575.221	0.094	-0.233
-612.259	-134.196	-0.334	0.042
-611.244	-132.616	-0.222	-0.029
-610.230	433.407	0.111	-0.245
-609.215	-77.896	0.128	-0.045
-608.201	-103.702	-0.214	0.051
-607.186	-200.000	0.024	0.401
-606.171	-66.173	-0.057	0.023
-605.157	-118.958	0.226	0.040
-604.142	-200.000	-0.072	-0.336
-603.128	85.922	0.167	0.187
-602.113	246.448	0.045	-0.078
-601.098	-58.624	0.270	0.119
-600.084	-200.000	-0.089	0.498
-599.069	166.425	0.116	0.167
-598.055	-80.786	-0.251	0.085
-597.040	-134.187	-0.314	0.039
-596.025	195.734	0.148	-0.229
-595.011	-200.000	0.027	0.313
-593.996	-200.000	-0.072	0.346
-592.982	312.313	-0.103	-0.196
-591.967	800.000	-0.081	-0.242
-590.952	51.300	0.232	-0.223
-589.938	218.525	-0.057	0.093
-588.923	-50.891	0.278	0.133
-587.909	-94.470	-0.279	-0.077
-586.894	-18.543	0.274	-0.173
-585.879	118.149	-0.202	0.253
-584.865	800.000	0.161	-0.534
-583.850	23.194	-0.121	-0.101
-582.836	-44.198	-0.397	0.202
-581.821	22.741	0.106	0.088
-580.806	-10.313	-0.259	0.174
-579.792	11.098	-0.043	-0.033
-578.777	-7.351	0.080	-0.055
-577.763	-131.440	0.047	0.006
-576.748	68.147	0.141	-0.147
-575.733	-200.000	0.018	-0.204
-574.719	-9.079	0.024	0.016
-573.704	800.000	0.049	0.160
-572.690	800.000	-0.061	0.181
-571.675	-113.831	0.374	-0.074
-570.661	-103.754	-0.367	-0.087
-569.646	-9.591	0.063	0.043
-568.631	669.724	-0.053	0.139
-567.617	800.000	0.043	-0.162
-566.602	-70.068	-0.367	0.142
-565.588	60.281	0.222	-0.223
-564.573	166.937	-0.141	-0.203
-563.558	42.333	-0.318	0.293
-562.544	-125.371	-0.210	0.033
-561.529	100.045	0.047	-0.055
-560.515	-50.709	-0.183	-0.088
-559.500	216.708	-0.079	-0.127
-558.485	-200.000	0.029	-0.141
-557.471	-200.000	-0.005	0.027
-556.456	167.368	-0.163	0.234
-555.442	46.822	0.076	0.072
-554.427	-200.000	0.296	0.001
-553.412	-152.977	-0.214	-0.015
-552.398	131.098	-0.079	0.103
-551.383	-130.334	0.274	-0.038
-550.369	-25.577	0.117	-0.070
-549.354	-115.347	0.218	-0.042
-548.339	253.113	0.179	0.309
-547.325	-48.259	-0.089	0.044
-546.310	800.000	-0.019	0.063
-545.296	-112.457	-0.225	0.046
-544.281	30.645	-0.222	0.193
-543.266	-119.071	-0.091	-0.016
-542.252	-5.424	-0.219	-0.153
-541.237	70.989	-0.318	-0.334
-540.223	-200.000	0.004	0.079
-539.208	301.918	-0.051	-0.095
-538.193	260.084	0.141	-0.247
-537.179	-200.000	0.019	0.155
-536.164	-103.643	-0.230	0.055
-535.150	800.000	0.064	0.243
-534.135	-70.114	-0.309	-0.119
-533.121	284.508	0.091	-0.166
-532.106	-25.276	-0.332	-0.199
-531.091	800.000	0.149	-0.485
-530.077	-97.062	0.320	0.085
-529.062	134.505	-0.074	-0.097
-528.048	49.986	-0.056	-0.054
-527.033	-200.000	-0.094	-0.504
-526.018	-200.000	-0.021	-0.126
-525.004	-200.000	-0.048	0.333
-523.989	-189.386	0.316	0.004
-522.975	281.412	-0.057	-0.103
-521.960	162.607	0.119	-0.169
-520.945	-140.679	-0.233	0.024
-519.931	55.209	-0.058	0.057
-518.916	-30.225	0.246	-0.142
-517.902	-54.238	-0.136	-0.062
-516.887	-114.146	-0.053	-0.010
-515.872	590.064	-0.033	-0.083
-514.858	8.538	-0.150	-0.115
-513.843	77.398	-0.181	0.195
-512.829	-103.318	0.193	0.046
-511.814	198.390	0.052	-0.081
-510.799	-56.489	0.282	0.127
-509.785	-200.000	0.008	-0.202
-508.770	-163.031	-0.149	-0.007
-507.756	-200.000	0.072	0.425
-506.741	494.514	-0.146	0.340
-505.726	-200.000	-0.067	0.397
-504.712	82.160	-0.014	-0.015
-503.697	-196.129	0.132	0.001
-502.683	-56.958	-0.035	0.016
-501.668	255.243	-0.139	-0.240
-500.653	-200.000	0.003	0.107
-499.639	800.000	-0.069	0.214
-498.624	-200.000	-0.032	-0.175
-497.610	-121.030	0.259	-0.044
-496.595	115.748	-0.120	-0.148
-495.581	800.000	-0.075	-0.221
-494.566	-178.580	0.199	-0.005
-493.551	-25.691	0.239	-0.142
-492.537	-125.662	0.132	0.020
-491.522	-200.000	0.013	0.113
-490.508	-120.322	0.191	0.033
-489.493	-27.264	-0.159	0.093
-488.478	81.404	-0.242	0.265
-487.464	177.483	-0.152	-0.224
-486.449	800.000	0.044	-0.145
-485.435	800.000	-0.070	-0.230
-484.420	800.000	-0.145	0.499
-483.405	257.855	0.176	-0.306
-482.391	410.297	0.038	-0.082
-481.376	72.734	-0.089	-0.094
-480.362	-200.000	-0.012	0.130
-479.347	58.812	0.224	0.223
-478.332	-121.802	-0.387	0.065
-477.318	140.426	0.190	-0.253
-476.303	-200.000	0.025	0.149
-475.289	251.866	-0.070	-0.120
-474.274	312.828	-0.144	0.274
-473.259	261.055	-0.021	-0.036
-472.245	320.684	-0.058	0.111
-471.230	800.000	0.051	0.179
-470.216	-37.696	0.084	-0.045
-469.201	-200.000	0.063	0.293
-468.186	-127.166	0.171	0.025
-467.172	-157.798	-0.149	0.009
-466.157	-114.449	0.525	-0.102
-465.143	138.997	0.149	0.198
-464.128	172.342	0.169	0.245
-463.113	-49.317	0.258	-0.125
-462.099	-169.164	0.295	0.011
-461.084	22.655	-0.249	0.206
-460.070	316.704	-0.290	-0.554
-459.055	-23.595	0.187	0.113
-458.040	-200.000	0.003	-0.089
-457.026	-200.000	0.001	0.128
-456.011	-36.187	0.071	0.039
-454.997	13.636	-0.299	-0.235
-453.982	-24.624	-0.114	-0.068
-452.968	-56.254	0.106	0.048
-451.953	-15.683	0.248	0.160
-450.938	-92.773	-0.106	0.030
-449.924	538.176	0.082	-0.198
-448.909	-38.872	-0.244	-0.130
-447.895	150.923	-0.312	0.429
-446.880	-197.593	-0.160	-0.001
-445.865	800.000	-0.026	-0.101
-444.851	-28.333	-0.290	0.169
-443.836	126.513	0.220	-0.282
-442.822	-200.000	-0.039	0.190
-441.807	413.781	0.044	0.096
-440.792	155.152	-0.204	-0.283
-439.778	-83.020	-0.286	0.093
-438.763	-39.084	0.089	-0.047
-437.749	-38.933	0.081	-0.043
-436.734	114.816	-0.090	-0.111
-435.719	-8.512	-0.152	-0.103
-434.705	-200.000	0.008	0.218
-433.690	800.000	-0.039	0.153
-432.676	-0.032	-0.153	0.110
-431.661	-3.343	0.287	-0.202
-430.646	33.466	-0.041	0.036
-429.632	-200.000	-0.011	0.189
-428.617	285.949	-0.101	0.185
-427.603	0.561	0.066	-0.048
-426.588	230.893	-0.108	-0.179
-425.573	-160.006	0.182	0.010
-424.559	-181.411	0.110	-0.002
-423.544	-200.000	-0.052	0.467
-422.530	609.096	0.045	0.115
-421.515	658.843	-0.025	0.065
-420.500	-22.158	-0.069	-0.042
-419.486	-99.375	0.449	0.114
-418.471	433.617	-0.088	-0.194
-417.457	328.924	0.183	-0.355
-416.442	106.012	-0.237	-0.283
-415.428	-152.632	0.323	0.023
-414.413	-102.296	-0.159	0.038
-413.398	800.000	-0.046	0.148
-412.384	-53.453	-0.189	0.087
-411.369	101.148	-0.154	-0.181
-410.355	-200.000	0.245	-0.000
-409.340	-99.912	-0.413	-0.104
-408.325	20.480	-0.159	-0.130
-407.311	2.459	-0.089	-0.065
-406.296	418.730	0.033	-0.071
-405.282	-35.386	0.132	0.073
-404.267	508.870	0.076	-0.177
-403.252	-200.000	-0.008	0.054
-402.238	549.961	0.057	-0.138
-401.223	-200.000	0.110	0.000
-400.209	150.794	-0.078	-0.107
-399.194	-67.661	-0.119	0.047
-398.179	800.000	-0.044	-0.129
-397.165	148.808	-0.078	0.107
-396.150	-200.000	-0.038	-0.386
-395.136	-200.000	-0.007	0.347
-394.121	209.974	-0.229	0.362
-393.106	-101.189	0.347	-0.085
-392.092	-200.000	0.030	0.257
-391.077	508.858	0.103	-0.242
-390.063	-67.803	-0.268	0.105
-389.048	522.172	0.122	0.290
-388.033	-58.403	-0.461	0.202
-387.019	272.452	0.054	-0.096
-386.004	163.810	-0.323	0.458
-384.990	-200.000	0.025	-0.153
-383.975	-33.838	0.132	-0.073
-382.960	-121.940	-0.469	0.078
-381.946	283.259	-0.171	-0.310
-380.931	-83.858	0.282	0.090
-379.917	-200.000	-0.018	-0.210
-378.902	-97.222	-0.333	-0.088
-377.888	-121.971	0.087	0.014
-376.873	146.136	-0.028	0.037
-375.858	-142.292	0.120	-0.012
-374.844	211.058	0.267	0.424
-373.829	800.000	0.080	0.231
-372.815	-67.719	0.425	-0.168
-371.800	-20.432	0.105	-0.065
-370.785	-13.747	0.175	-0.114
-369.771	-17.831	-0.177	0.112
-368.756	-131.921	-0.210	-0.028
-367.742	468.254	0.051	0.114
-366.727	-159.294	-0.233	0.013
-365.712	605.321	0.088	-0.220
-364.698	-80.538	0.298	-0.100
-363.683	706.750	0.072	-0.192
-362.669	51.171	0.148	0.141
-361.654	72.616	0.212	0.223
-360.639	63.029	-0.266	-0.268
-359.625	-200.000	-0.012	-0.156
-358.610	800.000	-0.031	-0.127
-357.596	-56.424	0.255	-0.114
-356.581	366.753	-0.043	-0.087
-355.566	-117.463	-0.149	0.027
-354.552	123.817	-0.122	0.154
-353.537	409.974	0.122	0.260
-352.523	591.727	0.092	0.229
-351.508	-50.706	0.437	0.207
-350.493	295.866	-0.201	0.371
-349.479	-200.000	-0.037	-0.265
-348.464	217.301	0.197	0.316
-347.450	108.829	0.073	0.087
-346.435	25.713	-0.121	0.102
-345.420	-62.767	0.094	0.039
-344.406	-179.682	0.127	0.003
-343.391	-64.103	0.083	-0.034
-342.377	-200.000	0.018	-0.100
-341.362	9.713	0.099	0.076
-340.348	-91.006	0.065	-0.019
-339.333	-31.019	0.086	-0.049
-338.318	-101.330	0.377	-0.092
-337.304	110.997	0.175	-0.212
-336.289	628.848	0.027	0.069
-335.275	-40.727	-0.245	0.128
-334.260	18.515	-0.075	0.061
-333.245	434.316	0.083	0.181
-332.231	-20.485	-0.214	-0.133
-331.216	-200.000	0.022	-0.296
-330.202	-42.407	0.383	-0.196
-329.187	-33.921	0.023	0.013
-328.172	-153.896	-0.191	0.013
-327.158	246.194	-0.069	0.117
-326.143	-188.651	0.243	-0.003
-325.129	40.397	-0.350	-0.317
-324.114	155.508	-0.072	-0.099
-323.099	18.380	-0.144	-0.115
-322.085	-5.808	0.213	-0.146
-321.070	-200.000	0.001	-0.340
-320.056	-200.000	-0.033	-0.296
-319.041	-200.000	0.004	-0.232
-318.026	-200.000	0.007	-0.416
-317.012	-67.726	0.086	-0.034
-315.997	326.191	-0.096	-0.186
-314.983	800.000	-0.055	-0.238
-313.968	-49.660	-0.143	0.068
-312.953	15.340	0.174	-0.137
-311.939	-55.422	0.227	0.103
-310.924	-40.671	0.218	0.113
-309.910	-21.045	-0.101	0.062
-308.895	-50.860	-0.411	0.194
-307.880	800.000	-0.049	0.140
-306.866	-171.173	-0.322	-0.011
-305.851	71.665	-0.182	-0.190
-304.837	-200.000	-0.023	-0.256
-303.822	578.500	0.107	-0.264
-302.807	3.563	-0.165	-0.121
-301.793	458.647	-0.213	0.475
-300.778	-200.000	-0.001	0.313
-299.764	44.698	-0.163	0.150
-298.749	259.147	-0.054	-0.093
-297.735	438.826	0.070	0.153
-296.720	136.336	0.172	0.225
-295.705	-200.000	-0.004	-0.079
-294.691	-19.536	0.084	-0.052
-293.676	-200.000	0.014	0.282
-292.662	122.575	-0.143	0.180
-291.647	-114.488	-0.245	0.047
-290.632	-200.000	-0.094	0.422
-289.618	-124.124	-0.084	-0.013
-288.603	297.798	0.086	0.158
-287.589	-9.523	-0.133	0.089
-286.574	-122.029	-0.260	-0.043
-285.559	79.789	-0.097	0.105
-284.545	210.271	-0.095	-0.150
-283.530	163.041	0.238	-0.336
-282.516	29.473	0.052	-0.044
-281.501	-200.000	0.020	0.101
-280.486	220.916	-0.210	-0.339
-279.472	99.437	0.148	0.172
-278.457	-115.489	0.227	-0.043
-277.443	-36.683	0.270	0.145
-276.428	163.294	0.174	-0.245
-275.413	-200.000	0.033	-0.195
-274.399	-200.000	-0.014	0.225
-273.384	-119.992	-0.230	-0.040
-272.370	-200.000	-0.019	-0.205
-271.355	-98.080	0.157	-0.041
-270.340	-55.517	0.129	0.058
-269.326	-200.000	-0.030	-0.134
-268.311	-81.948	0.227	0.075
-267.297	800.000	0.050	0.193
-266.282	143.954	0.054	-0.072
-265.267	27.431	-0.172	-0.145
-264.253	-200.000	0.003	-0.173
-263.238	-200.000	-0.028	0.355
-262.224	-88.092	-0.294	0.088
-261.209	-200.000	0.012	-0.075
-260.195	-71.979	-0.083	-0.031
-259.180	38.231	0.140	0.125
-258.165	-74.241	-0.398	0.144
-257.151	-41.482	-0.199	0.103
-256.136	21.790	0.417	0.341
-255.122	-43.606	-0.391	0.198
-254.107	-79.863	0.156	-0.053
-253.092	42.812	0.343	0.313
-252.078	-152.795	-0.164	-0.012
-251.063	68.214	0.070	0.072
-250.049	800.000	-0.054	-0.164
-249.034	-58.046	-0.167	0.073
-248.019	-184.356	0.165	0.003
-247.005	44.163	-0.130	0.120
-245.990	-200.000	-0.020	-0.176
-244.976	-99.278	0.140	0.035
-243.961	62.022	0.140	0.139
-242.946	58.601	0.071	-0.070
-241.932	59.999	-0.123	0.122
-240.917	173.630	-0.155	-0.224
-239.903	-118.367	0.251	0.045
-238.888	-38.097	0.110	0.059
-237.873	30.266	0.150	-0.129
-236.859	-70.197	0.200	-0.076
-235.844	308.241	0.062	0.116
-234.830	-34.144	-0.483	0.266
-233.815	303.306	0.163	0.302
-232.800	151.864	0.114	0.155
-231.786	-72.222	0.118	0.044
-230.771	168.645	0.149	-0.213
-229.757	-138.649	0.273	-0.030
-228.742	800.000	-0.020	0.068
-227.727	-98.522	0.289	0.074
-226.713	-115.729	0.321	-0.060
-225.698	-17.911	0.110	-0.069
-224.684	-200.000	0.004	-0.198
-223.669	800.000	-0.075	-0.244
-222.655	145.690	0.147	-0.197
-221.640	-96.825	0.207	-0.054
-220.625	-200.000	0.025	-0.285
-219.611	-65.329	0.135	0.054
-218.596	-128.075	-0.348	0.050
-217.582	17.443	0.045	0.036
-216.567	-126.364	-0.113	-0.017
-215.552	118.004	-0.289	-0.357
-214.538	45.592	0.200	0.185
-213.523	8.291	-0.081	0.061
-212.509	13.200	-0.270	-0.209
-211.494	286.652	0.111	0.202
-210.479	-200.000	-0.018	-0.131
-209.465	708.980	0.062	-0.165
-208.450	-93.584	-0.497	0.137
-207.436	227.500	0.163	-0.266
-206.421	24.820	0.140	-0.116
-205.406	86.249	0.180	-0.199
-204.392	103.806	-0.138	-0.162
-203.377	-48.729	0.089	-0.043
-202.363	-60.477	0.118	-0.050
-201.348	-102.142	0.283	0.068
-200.333	174.995	0.065	0.094
-199.319	-200.000	0.021	-0.383
-198.304	119.004	0.164	-0.203
-197.290	-5.077	0.274	0.189
-196.275	-187.653	0.262	-0.003
-195.260	39.483	0.282	0.253
-194.246	-94.290	-0.311	-0.085
-193.231	-5.521	0.036	-0.025
-192.217	-14.349	-0.435	-0.281
-191.202	-125.150	-0.139	0.021
-190.187	-200.000	0.065	-0.331
-189.173	-200.000	0.002	-0.012
-188.158	-64.499	-0.267	-0.109
-187.144	-18.597	-0.311	-0.194
-186.129	-98.844	-0.304	0.077
-185.114	22.541	-0.122	0.100
-184.100	-0.038	-0.179	0.127
-183.085	-79.722	0.334	-0.113
-182.071	800.000	-0.083	0.255
-181.056	34.828	-0.141	0.123
-180.042	778.408	0.121	-0.332
-179.027	-50.914	-0.225	-0.106
-178.012	-11.953	-0.191	0.125
-176.998	-178.417	0.301	0.007
-175.983	800.000	-0.008	-0.034
-174.969	-131.852	-0.154	-0.020
-173.954	-200.000	-0.008	0.073
-172.939	-79.758	0.066	-0.022
-171.925	511.569	-0.041	0.095
-170.910	-96.126	0.070	0.019
-169.896	800.000	-0.029	-0.113
-168.881	-140.680	-0.188	0.019
-167.866	-149.934	-0.225	-0.018
-166.852	299.579	0.025	0.045
-165.837	47.189	0.337	0.314
-164.823	-92.570	0.473	0.133
-163.808	-110.135	0.342	0.071
-162.793	-177.955	0.483	-0.012
-161.779	-200.000	-0.041	-0.185
-160.764	-109.477	-0.168	-0.036
-159.750	-200.000	0.038	-0.307
-158.735	-89.184	-0.090	-0.027
-157.720	-75.231	0.099	0.035
-156.706	-140.738	0.090	-0.009
-155.691	-200.000	0.016	-0.073
-154.677	101.794	-0.053	0.062
-153.662	-200.000	0.029	0.212
-152.647	-53.778	-0.219	0.100
-151.633	563.872	-0.155	0.374
-150.618	55.657	-0.066	-0.064
-149.604	26.929	0.153	0.128
-148.589	-123.530	0.317	-0.050
-147.574	91.650	0.042	0.047
-146.560	-200.000	-0.014	-0.133
-145.545	-200.000	0.024	-0.124
-144.531	7.279	0.252	0.188
-143.516	-160.009	0.420	-0.023
-142.502	-111.963	-0.218	0.044
-141.487	-155.810	-0.129	0.008
-140.472	643.632	-0.049	-0.124
-139.458	-115.989	0.164	-0.031
-138.443	36.284	-0.039	0.035
-137.429	-155.046	0.411	-0.027
-136.414	224.995	0.267	0.432
-135.399	-200.000	0.022	0.125
-134.385	-42.190	-0.204	-0.104
-133.370	76.130	0.232	-0.246
-132.356	-200.000	-0.001	-0.039
-131.341	-200.000	0.035	0.157
-130.326	-95.519	-0.100	-0.027
-129.312	403.343	-0.051	-0.106
-128.297	800.000	0.078	0.255
-127.283	-106.455	0.095	-0.021
-126.268	800.000	0.031	-0.100
-125.253	-68.523	-0.167	0.065
-124.239	-82.162	-0.213	0.069
-123.224	347.934	0.051	-0.099
-122.210	-106.300	-0.087	-0.019
