DTS Sentinel unit serial number:	SN413079Multiplexer serial number:	ORYXHardware model number:	OX4-SRSoftware version number:	ORYX F/W v4.00 Oryx Data Collector v3.7.2.0data status	okinstallation	princeton_trtdifferential loss correction	single-endedforward channel	channel 3reverse channel	N/Adate	2019/09/16time	12:08:35forward acquisition time	60.00reverse acquisition time	0.00gamma	496.2192k internal	0.2296k external	0.2296temperature offset calibration	0.9951default loss term (dB/km)	0.3790temperature slope calibration	1.0000multiplexer offset coefficient	1.0000multiplexer slope coefficient	1.0000fibre end	0.00T internal ref (°C)	38.89T ext. ref 1 (°C)	13.22T ext. ref 2 (°C)	36.17length (m)	temperature (°C)	Stokes	anti-Stokes-747.200	-57.623	-0.202	0.091
-746.185	242.394	0.141	-0.241
-745.171	-200.000	-0.001	0.021
-744.156	-1.002	0.089	-0.064
-743.142	-171.582	0.141	-0.005
-742.127	-33.071	-0.431	0.244
-741.112	-48.031	-0.251	-0.124
-740.098	655.029	0.090	0.236
-739.083	21.026	-0.099	0.082
-738.069	800.000	-0.052	0.165
-737.054	-59.093	-0.170	-0.075
-736.039	74.258	0.048	-0.052
-735.025	137.877	-0.150	0.201
-734.010	-200.000	0.014	-0.065
-732.996	-45.061	-0.296	-0.150
-731.981	-200.000	0.049	-0.267
-730.966	-200.000	0.000	0.030
-729.952	-200.000	0.017	-0.075
-728.937	-124.258	-0.096	-0.015
-727.923	800.000	0.025	-0.071
-726.908	53.130	0.110	-0.107
-725.894	-111.830	0.118	-0.024
-724.879	35.353	0.239	0.214
-723.864	-73.977	0.137	-0.051
-722.850	-109.691	0.169	-0.036
-721.835	-37.975	0.096	0.052
-720.821	-200.000	-0.014	-0.226
-719.806	800.000	-0.048	-0.151
-718.791	679.183	-0.054	-0.144
-717.777	-200.000	-0.007	-0.059
-716.762	-141.359	0.232	0.024
-715.748	140.345	-0.229	-0.308
-714.733	-8.930	0.103	0.071
-713.718	-26.175	-0.425	-0.255
-712.704	-200.000	0.024	0.330
-711.689	-52.884	0.139	0.065
-710.675	-88.962	0.048	0.014
-709.660	117.637	0.043	-0.054
-708.645	-95.262	0.268	-0.074
-707.631	241.702	0.223	0.380
-706.616	32.216	-0.205	-0.181
-705.602	-200.000	-0.068	0.398
-704.587	-109.908	-0.224	-0.048
-703.572	-173.044	0.118	-0.004
-702.558	-91.334	0.188	-0.055
-701.543	-158.744	0.124	-0.007
-700.529	35.808	0.159	-0.143
-699.514	-200.000	-0.002	0.030
-698.499	-168.788	0.139	-0.005
-697.485	156.667	-0.167	-0.235
-696.470	-200.000	0.060	-0.411
-695.456	78.258	0.123	0.134
-694.441	-76.047	-0.354	0.128
-693.426	-17.535	0.171	-0.110
-692.412	273.264	0.076	-0.136
-691.397	-62.504	-0.381	-0.161
-690.383	-26.162	-0.088	0.053
-689.368	800.000	0.038	-0.141
-688.354	-66.448	-0.114	-0.046
-687.339	-180.838	0.230	-0.005
-686.324	-11.729	-0.254	-0.170
-685.310	200.403	0.021	0.032
-684.295	89.409	0.157	0.178
-683.281	61.019	0.148	-0.149
-682.266	-200.000	-0.027	-0.244
-681.251	68.150	-0.201	0.210
-680.237	-58.451	-0.163	-0.072
-679.222	203.227	0.162	0.255
-678.208	637.111	-0.065	-0.169
-677.193	-200.000	0.012	0.103
-676.178	-52.848	-0.129	0.060
-675.164	-200.000	-0.078	-0.548
-674.149	27.574	0.236	0.203
-673.135	-52.274	0.185	-0.087
-672.120	-107.942	0.092	0.020
-671.105	-23.889	-0.200	0.122
-670.091	-200.000	0.006	-0.133
-669.076	620.802	0.057	-0.146
-668.062	-142.414	-0.154	0.015
-667.047	344.440	-0.102	-0.203
-666.032	-62.204	0.247	-0.105
-665.018	800.000	0.036	-0.140
-664.003	114.592	-0.100	-0.124
-662.989	57.979	-0.163	-0.162
-661.974	800.000	-0.080	-0.262
-660.959	-94.789	-0.297	0.082
-659.945	800.000	-0.145	0.425
-658.930	458.407	-0.144	0.327
-657.916	126.174	-0.018	-0.024
-656.901	-200.000	0.094	-0.453
-655.886	-65.356	-0.289	0.118
-654.872	158.690	-0.135	0.190
-653.857	698.480	0.096	0.256
-652.843	48.666	0.351	-0.335
-651.828	528.106	-0.082	0.198
-650.814	145.111	0.081	-0.110
-649.799	402.111	-0.114	0.243
-648.784	-46.471	0.032	0.016
-647.770	800.000	0.112	-0.404
-646.755	-200.000	0.013	0.196
-645.741	-145.162	0.236	-0.022
-644.726	-35.787	0.137	0.076
-643.711	-200.000	0.051	0.241
-642.697	-83.524	0.418	0.136
-641.682	-200.000	0.022	-0.128
-640.668	61.401	0.073	0.074
-639.653	-200.000	0.017	0.110
-638.638	-8.538	-0.370	-0.253
-637.624	565.949	0.059	-0.146
-636.609	-41.331	0.225	-0.118
-635.595	-36.216	-0.127	0.070
-634.580	-30.476	-0.090	-0.052
-633.565	-137.905	0.221	-0.025
-632.551	800.000	0.068	0.247
-631.536	-200.000	-0.011	0.227
-630.522	-200.000	0.004	0.339
-629.507	349.986	-0.072	-0.145
-628.492	313.869	-0.107	-0.204
-627.478	97.710	-0.301	-0.352
-626.463	-31.223	-0.059	0.034
-625.449	-126.003	-0.157	0.024
-624.434	-176.899	0.162	0.004
-623.419	-200.000	0.023	-0.295
-622.405	-24.404	0.255	-0.155
-621.390	-200.000	-0.003	0.198
-620.376	-57.750	-0.281	-0.125
-619.361	-75.254	0.164	0.059
-618.346	96.569	-0.051	-0.059
-617.332	-101.269	0.456	-0.113
-616.317	68.626	-0.128	0.133
-615.303	95.537	0.178	0.206
-614.288	326.738	0.047	0.091
-613.273	-7.356	-0.297	-0.204
-612.259	44.223	-0.267	-0.249
-611.244	-20.659	0.182	-0.114
-610.230	-200.000	-0.008	0.145
-609.215	-200.000	0.014	0.378
-608.201	-62.710	-0.341	0.144
-607.186	800.000	-0.077	0.252
-606.171	234.999	-0.245	-0.410
-605.157	-200.000	-0.025	-0.202
-604.142	598.551	0.092	0.232
-603.128	-182.366	-0.275	0.005
-602.113	-18.259	-0.147	0.094
-601.098	-200.000	-0.031	-0.202
-600.084	-200.000	-0.021	-0.191
-599.069	122.087	0.464	-0.589
-598.055	664.962	-0.145	-0.380
-597.040	-3.458	-0.126	0.089
-596.025	-200.000	0.006	-0.128
-595.011	-125.154	0.367	0.057
-593.996	-65.009	0.071	0.029
-592.982	260.062	-0.219	0.385
-591.967	574.360	0.075	0.187
-590.952	-200.000	-0.042	0.209
-589.938	-112.012	0.356	0.073
-588.923	89.727	0.229	0.260
-587.909	70.996	-0.196	0.206
-586.894	-74.716	-0.081	0.030
-585.879	407.858	0.103	-0.222
-584.865	94.114	-0.190	0.219
-583.850	83.370	0.198	-0.219
-582.836	800.000	-0.067	-0.290
-581.821	-19.758	-0.316	-0.198
-580.806	33.425	0.129	-0.113
-579.792	-3.488	-0.341	-0.241
-578.777	-200.000	-0.014	0.220
-577.763	-200.000	0.009	-0.442
-576.748	-9.873	0.071	0.048
-575.733	-151.579	0.483	0.036
-574.719	-110.912	0.198	0.041
-573.704	213.136	0.033	-0.052
-572.690	-200.000	0.060	-0.357
-571.675	55.941	-0.066	0.065
-570.661	-200.000	-0.031	0.185
-569.646	58.105	-0.127	-0.126
-568.631	12.065	0.246	0.192
-567.617	-121.855	0.131	-0.022
-566.602	-142.817	-0.128	0.013
-565.588	-94.171	-0.332	-0.092
-564.573	-128.534	0.126	0.018
-563.558	-200.000	0.007	0.208
-562.544	186.057	-0.084	0.127
-561.529	137.901	-0.172	-0.229
-560.515	-200.000	-0.022	-0.109
-559.500	532.876	0.169	-0.407
-558.485	-115.866	-0.367	0.070
-557.471	-34.009	0.157	0.088
-556.456	184.073	-0.152	0.228
-555.442	126.146	-0.055	-0.071
-554.427	-200.000	0.066	0.000
-553.412	-28.471	0.050	0.029
-552.398	800.000	0.041	-0.136
-551.383	-200.000	0.050	0.251
-550.369	-200.000	0.020	0.236
-549.354	-200.000	0.007	-0.121
-548.339	55.066	0.240	0.235
-547.325	-200.000	0.021	0.194
-546.310	181.904	-0.157	-0.234
-545.296	-27.340	-0.273	0.161
-544.281	-50.325	0.063	0.030
-543.266	-81.712	0.482	0.160
-542.252	295.880	-0.016	0.029
-541.237	-200.000	-0.054	0.253
-540.223	56.456	0.212	-0.209
-539.208	-51.138	-0.072	-0.034
-538.193	800.000	0.109	-0.349
-537.179	-28.549	-0.093	-0.054
-536.164	-20.430	-0.303	0.189
-535.150	-200.000	0.085	-0.396
-534.135	249.579	-0.124	-0.213
-533.121	-17.148	-0.241	0.154
-532.106	96.676	-0.107	0.124
-531.091	-200.000	-0.008	-0.046
-530.077	-145.917	-0.233	0.021
-529.062	-77.754	0.159	-0.056
-528.048	46.154	0.129	-0.121
-527.033	28.263	-0.192	0.165
-526.018	25.751	-0.213	-0.180
-525.004	-145.575	0.363	0.033
-523.989	-200.000	-0.043	0.265
-522.975	-73.328	-0.177	-0.066
-521.960	60.515	-0.289	0.290
-520.945	800.000	0.018	0.057
-519.931	132.312	0.212	-0.277
-518.916	221.461	0.067	0.109
-517.902	-196.824	-0.087	0.001
-516.887	-200.000	-0.020	0.192
-515.872	126.880	0.105	0.135
-514.858	-8.727	0.189	0.128
-513.843	583.342	0.014	0.034
-512.829	-112.819	0.154	-0.031
-511.814	800.000	0.049	-0.176
-510.799	800.000	0.122	-0.383
-509.785	-84.049	-0.345	-0.111
-508.770	-66.881	-0.029	-0.012
-507.756	-132.852	0.376	-0.049
-506.741	761.016	0.057	0.156
-505.726	-1.933	0.243	0.173
-504.712	271.792	-0.343	0.612
-503.697	90.093	-0.062	0.071
-502.683	-200.000	-0.058	0.265
-501.668	-40.533	0.173	0.091
-500.653	-200.000	0.029	-0.163
-499.639	-62.089	-0.268	0.113
-498.624	159.172	-0.158	0.223
-497.610	44.194	-0.206	-0.192
-496.595	29.060	-0.079	0.067
-495.581	800.000	-0.052	0.202
-494.566	236.667	-0.039	0.066
-493.551	42.674	0.163	-0.150
-492.537	-149.040	-0.197	0.016
-491.522	-155.851	0.327	-0.021
-490.508	-157.285	0.104	-0.006
-489.493	128.869	-0.170	0.219
-488.478	-200.000	0.029	-0.322
-487.464	-53.999	-0.120	0.055
-486.449	383.643	-0.089	0.185
-485.435	283.327	-0.055	0.099
-484.420	-76.899	0.034	-0.012
-483.405	349.445	0.122	0.245
-482.391	-200.000	-0.036	0.159
-481.376	800.000	0.030	0.096
-480.362	-188.111	-0.172	0.002
-479.347	-200.000	-0.061	-0.340
-478.332	33.143	-0.194	-0.170
-477.318	253.407	-0.093	-0.161
-476.303	-144.937	-0.257	0.024
-475.289	800.000	-0.043	-0.169
-474.274	800.000	-0.076	0.280
-473.259	272.428	-0.129	-0.230
-472.245	-200.000	0.017	-0.202
-471.230	435.839	-0.099	-0.219
-470.216	504.788	0.110	0.259
-469.201	800.000	-0.030	0.124
-468.186	-121.062	0.203	0.034
-467.172	104.107	-0.191	0.227
-466.157	-200.000	-0.025	0.151
-465.143	174.639	-0.100	0.147
-464.128	-37.986	0.150	-0.081
-463.113	726.762	-0.074	0.200
-462.099	579.886	-0.076	0.187
-461.084	361.464	0.047	-0.094
-460.070	160.415	-0.091	0.128
-459.055	-200.000	-0.032	-0.146
-458.040	-200.000	-0.005	-0.096
-457.026	10.277	0.257	-0.197
-456.011	124.346	-0.070	-0.089
-454.997	-69.454	0.303	-0.117
-453.982	314.116	0.177	-0.338
-452.968	66.293	-0.161	0.165
-451.953	95.756	0.251	0.289
-450.938	-200.000	0.052	0.255
-449.924	800.000	0.113	0.324
-448.909	462.352	0.228	-0.513
-447.895	-99.488	0.105	-0.027
-446.880	-163.503	-0.254	0.012
-445.865	320.794	0.124	-0.238
-444.851	20.868	-0.155	-0.127
-443.836	-111.755	-0.119	-0.024
-442.822	-99.583	0.060	-0.015
-441.807	-200.000	0.044	-0.195
-440.792	289.874	-0.096	0.176
-439.778	6.359	-0.164	0.123
-438.763	67.836	-0.057	0.058
-437.749	800.000	-0.104	-0.294
-436.734	11.027	-0.216	-0.167
-435.719	-102.894	-0.223	0.054
-434.705	735.158	0.026	-0.070
-433.690	-200.000	-0.005	0.129
-432.676	-113.120	0.103	0.020
-431.661	-165.030	-0.069	-0.003
-430.646	31.923	0.118	0.103
-429.632	-200.000	-0.059	-0.337
-428.617	63.123	-0.167	-0.169
-427.603	459.785	-0.036	-0.080
-426.588	186.116	0.280	0.420
-425.573	-40.278	-0.113	-0.059
-424.559	342.935	-0.089	0.175
-423.544	-13.742	0.315	-0.205
-422.530	-126.492	0.414	0.062
-421.515	-132.604	0.095	0.012
-420.500	-200.000	0.030	-0.144
-419.486	703.248	-0.119	-0.316
-418.471	253.938	-0.048	-0.084
-417.457	395.506	-0.087	-0.183
-416.442	303.656	0.054	-0.100
-415.428	425.831	-0.135	0.293
-414.413	455.949	-0.142	-0.317
-413.398	-61.110	-0.180	0.076
-412.384	-97.329	-0.089	-0.023
-411.369	-71.868	0.232	0.087
-410.355	20.712	0.078	-0.064
-409.340	161.421	-0.096	-0.136
-408.325	16.154	-0.151	0.120
-407.311	-62.448	0.107	-0.045
-406.296	364.158	-0.047	-0.096
-405.282	800.000	-0.069	-0.240
-404.267	34.354	0.183	0.161
-403.252	-7.913	0.038	-0.026
-402.238	-200.000	-0.018	-0.118
-401.223	416.922	0.103	0.222
-400.209	-65.955	0.397	-0.160
-399.194	24.649	-0.374	0.313
-398.179	-199.065	0.357	-0.002
-397.165	-151.350	0.322	-0.024
-396.150	-42.795	-0.405	-0.208
-395.136	18.259	0.129	-0.104
-394.121	-127.550	-0.528	0.077
-393.106	-200.000	-0.013	-0.178
-392.092	-200.000	0.051	-0.364
-391.077	525.767	0.126	0.298
-390.063	-67.960	0.341	-0.134
-389.048	103.254	-0.094	-0.111
-388.033	-50.871	-0.126	0.060
-387.019	17.600	0.241	0.193
-386.004	589.197	0.048	0.118
-384.990	-200.000	0.006	-0.260
-383.975	-200.000	-0.028	0.162
-382.960	-93.039	0.187	0.052
-381.946	-174.784	-0.324	-0.009
-380.931	-200.000	0.008	-0.210
-379.917	-135.868	-0.471	-0.056
-378.902	-113.997	-0.329	0.064
-377.888	623.540	-0.063	-0.161
-376.873	-178.140	0.075	-0.002
-375.858	-200.000	-0.139	0.000
-374.844	-132.062	-0.265	-0.035
-373.829	45.985	0.200	-0.186
-372.815	510.859	0.193	-0.451
-371.800	-162.534	-0.024	0.001
-370.785	800.000	0.116	-0.426
-369.771	-52.261	-0.066	0.031
-368.756	-109.439	-0.071	-0.015
-367.742	558.547	0.120	0.291
-366.727	59.743	0.027	0.027
-365.712	72.594	0.223	-0.234
-364.698	-20.748	0.260	-0.161
-363.683	-110.897	0.297	-0.062
-362.669	567.467	-0.070	0.171
-361.654	152.524	0.026	0.036
-360.639	-60.390	-0.095	-0.041
-359.625	-188.073	-0.114	0.001
-358.610	-144.844	0.103	0.010
-357.596	-200.000	0.031	-0.301
-356.581	-88.957	0.173	0.052
-355.566	-36.136	-0.221	-0.120
-354.552	-200.000	-0.037	0.166
-353.537	-45.892	0.234	-0.116
-352.523	-200.000	-0.031	-0.152
-351.508	-200.000	-0.010	0.078
-350.493	-200.000	0.000	-0.212
-349.479	37.630	-0.053	-0.048
-348.464	-95.213	0.198	0.054
-347.450	-23.654	-0.338	-0.204
-346.435	31.570	0.242	0.210
-345.420	-6.134	0.319	0.220
-344.406	800.000	0.065	-0.183
-343.391	73.285	0.126	0.132
-342.377	-22.310	0.278	0.170
-341.362	-74.693	0.330	0.120
-340.348	800.000	0.093	-0.378
-339.333	-200.000	-0.021	0.155
-338.318	800.000	0.056	-0.222
-337.304	272.306	-0.082	0.145
-336.289	-99.854	0.312	-0.079
-335.275	-115.571	-0.130	-0.025
-334.260	3.986	0.097	0.071
-333.245	-87.155	-0.178	0.054
-332.231	687.144	-0.087	0.228
-331.216	-14.734	-0.124	0.080
-330.202	-108.797	-0.439	0.094
-329.187	714.285	0.092	-0.245
-328.172	132.359	-0.261	-0.338
-327.158	-34.742	-0.392	-0.215
-326.143	-124.998	-0.253	0.039
-325.129	-41.531	-0.223	0.116
-324.114	10.000	-0.210	-0.160
-323.099	9.620	-0.209	0.159
-322.085	-50.315	0.376	0.179
-321.070	-153.678	-0.124	0.009
-320.056	-32.247	0.127	-0.071
-319.041	-153.537	0.105	-0.007
-318.026	-84.738	-0.231	-0.073
-317.012	183.348	-0.029	0.043
-315.997	-144.136	-0.223	-0.021
-314.983	166.894	0.145	0.206
-313.968	-77.885	-0.148	0.051
-312.953	-124.204	0.038	0.006
-311.939	14.764	-0.201	0.158
-310.924	204.577	-0.069	-0.107
-309.910	-200.000	-0.029	0.134
-308.895	92.640	-0.196	0.222
-307.880	-150.966	-0.065	-0.005
-306.866	136.907	-0.025	0.033
-305.851	242.787	0.133	0.224
-304.837	592.308	0.078	-0.192
-303.822	147.936	0.141	-0.191
-302.807	-200.000	0.052	0.346
-301.793	13.795	0.109	-0.085
-300.778	78.044	-0.082	-0.088
-299.764	-91.588	0.094	0.027
-298.749	-200.000	0.024	-0.269
-297.735	599.964	0.058	0.144
-296.720	4.508	-0.286	-0.210
-295.705	418.003	-0.158	0.339
-294.691	261.272	0.080	-0.139
-293.676	-118.494	0.059	-0.011
-292.662	-200.000	-0.009	-0.180
-291.647	800.000	0.110	-0.326
-290.632	194.024	0.121	-0.184
-289.618	261.336	-0.041	0.071
-288.603	86.457	-0.190	0.210
-287.589	329.628	0.061	0.118
-286.574	-200.000	0.006	-0.395
-285.559	-67.869	-0.014	-0.006
-284.545	-200.000	-0.005	0.394
-283.530	-200.000	-0.001	0.025
-282.516	186.198	-0.227	-0.339
-281.501	76.531	-0.035	-0.037
-280.486	81.622	0.115	0.125
-279.472	-106.857	-0.521	-0.116
-278.457	-200.000	0.008	-0.210
-277.443	411.759	0.055	0.118
-276.428	-135.197	-0.126	-0.015
-275.413	-99.203	-0.269	0.068
-274.399	-62.641	-0.032	0.013
-273.384	-200.000	0.017	-0.095
-272.370	-200.000	0.022	0.112
-271.355	-200.000	-0.043	0.213
-270.340	-200.000	0.003	0.289
-269.326	13.893	0.176	0.138
-268.311	398.814	0.230	-0.483
-267.297	-106.217	0.163	-0.037
-266.282	800.000	0.106	0.358
-265.267	-200.000	0.018	-0.173
-264.253	-5.686	0.057	0.039
-263.238	72.346	0.230	0.241
-262.224	-200.000	-0.004	0.175
-261.209	89.199	0.148	-0.165
-260.195	119.105	0.253	0.313
-259.180	327.662	0.238	0.458
-258.165	-105.274	0.179	-0.041
-257.151	-8.822	-0.174	0.117
-256.136	-110.015	-0.113	-0.024
-255.122	378.049	-0.160	-0.329
-254.107	83.303	0.106	0.116
-253.092	800.000	0.036	0.138
-252.078	97.938	-0.058	-0.067
-251.063	275.843	-0.169	0.301
-250.049	-200.000	0.001	-0.146
-249.034	-200.000	0.151	0.000
-248.019	-168.489	0.237	-0.009
-247.005	221.484	-0.245	0.394
-245.990	151.238	-0.030	0.041
-244.976	800.000	0.051	-0.182
-243.961	-200.000	-0.018	0.190
-242.946	30.008	0.077	0.065
-241.932	205.099	0.093	-0.145
-240.917	238.858	0.101	-0.167
-239.903	407.065	0.027	0.056
-238.888	455.954	-0.129	0.286
-237.873	-76.858	0.134	0.047
-236.859	699.125	-0.078	-0.205
-235.844	203.947	-0.073	-0.113
-234.830	-169.687	-0.201	0.007
-233.815	164.814	-0.096	-0.135
-232.800	26.218	-0.206	0.172
-231.786	-200.000	0.025	-0.265
-230.771	-110.254	0.141	0.029
-229.757	-106.019	0.190	-0.043
-228.742	124.394	0.214	-0.270
-227.727	-200.000	0.000	0.229
-226.713	-190.232	0.256	0.003
-225.698	-133.192	0.214	0.027
-224.684	-162.352	-0.122	-0.006
-223.669	-200.000	0.064	-0.295
-222.655	177.555	-0.117	-0.170
-221.640	624.356	-0.005	-0.012
-220.625	800.000	0.014	0.053
-219.611	-53.811	-0.339	0.155
-218.596	-32.385	0.294	-0.164
-217.582	800.000	-0.029	0.095
-216.567	430.022	0.172	0.372
-215.552	-78.092	0.129	0.044
-214.538	-104.305	0.083	0.019
-213.523	-59.035	0.163	0.070
-212.509	-69.523	-0.241	0.093
-211.494	433.892	0.222	-0.483
-210.479	33.325	0.105	-0.091
-209.465	-200.000	-0.005	-0.078
-208.450	182.208	-0.145	-0.214
-207.436	-200.000	-0.007	0.101
-206.421	347.598	-0.128	0.251
-205.406	226.845	0.122	-0.198
-204.392	800.000	-0.074	0.259
-203.377	93.781	0.220	0.250
-202.363	158.135	0.190	-0.264
-201.348	85.626	0.050	-0.055
-200.333	-100.906	-0.330	-0.081
-199.319	-73.149	0.269	-0.098
-198.304	-94.418	0.327	0.089
-197.290	-37.260	0.180	0.096
-196.275	32.090	0.253	0.218
-195.260	-62.108	-0.208	0.087
-194.246	244.868	0.074	0.125
-193.231	118.316	0.163	0.201
-192.217	319.964	0.072	0.136
-191.202	800.000	-0.094	0.294
-190.187	-82.042	0.308	0.101
-189.173	172.339	-0.049	0.071
-188.158	-200.000	-0.040	0.265
-187.144	-83.200	-0.163	-0.052
-186.129	596.542	-0.072	-0.179
-185.114	-200.000	-0.028	-0.211
-184.100	-43.331	-0.135	0.068
-183.085	91.486	0.135	0.152
-182.071	9.621	0.156	0.118
-181.056	236.131	0.140	-0.231
-180.042	-51.779	0.076	-0.035
-179.027	800.000	-0.072	-0.255
-178.012	68.022	-0.112	0.115
-176.998	-138.298	0.225	-0.025
-175.983	-34.821	0.034	0.018
-174.969	-59.506	-0.019	0.008
-173.954	-160.821	-0.028	-0.001
-172.939	170.993	-0.133	-0.190
-171.925	800.000	-0.094	-0.274
-170.910	800.000	0.127	0.406
-169.896	800.000	0.108	0.430
-168.881	800.000	-0.064	0.213
-167.866	266.159	-0.142	-0.247
-166.852	792.371	0.027	0.075
-165.837	436.086	-0.044	-0.095
-164.823	-180.234	-0.312	-0.007
-163.808	-92.988	0.133	-0.037
-162.793	-200.000	-0.068	0.497
-161.779	-200.000	-0.015	-0.245
-160.764	101.741	-0.206	0.239
-159.750	88.782	-0.178	-0.198
-158.735	660.172	-0.115	-0.295
-157.720	-54.281	-0.156	-0.071
-156.706	375.950	-0.150	0.306
-155.691	800.000	0.041	-0.140
-154.677	33.676	-0.146	0.127
-153.662	89.898	-0.094	-0.105
-152.647	800.000	0.054	0.152
-151.633	297.655	0.183	0.336
-150.618	-200.000	0.032	-0.146
-149.604	800.000	0.017	-0.058
-148.589	387.921	0.148	0.306
-147.574	-200.000	-0.061	-0.302
-146.560	-46.952	-0.253	0.123
-145.545	25.520	0.146	0.121
-144.531	57.631	0.094	-0.092
-143.516	174.068	0.040	0.058
-142.502	-123.624	-0.401	-0.063
-141.487	14.971	0.215	-0.168
-140.472	-200.000	-0.006	0.144
-139.458	317.401	-0.126	-0.238
-138.443	-108.878	-0.132	-0.028
-137.429	-200.000	-0.026	-0.419
-136.414	-200.000	-0.053	-0.303
-135.399	800.000	0.055	0.168
-134.385	7.101	-0.123	0.092
-133.370	104.305	-0.093	0.109
-132.356	-190.703	0.487	0.005
-131.341	800.000	0.120	0.395
-130.326	-200.000	-0.028	0.132
-129.312	800.000	-0.079	0.298
-128.297	-92.353	-0.191	0.054
-127.283	-33.125	0.224	0.124
-126.268	106.549	-0.071	-0.084
-125.253	-7.824	0.202	0.136
-124.239	-200.000	0.035	-0.225
-123.224	-150.135	0.376	0.029
-122.210	-200.000	-0.004	-0.106
