DTS Sentinel unit serial number:	SN413079Multiplexer serial number:	ORYXHardware model number:	OX4-SRSoftware version number:	ORYX F/W v4.00 Oryx Data Collector v3.7.2.0data status	okinstallation	princeton_trtdifferential loss correction	single-endedforward channel	channel 3reverse channel	N/Adate	2019/09/16time	05:48:35forward acquisition time	60.00reverse acquisition time	0.00gamma	496.2192k internal	0.2335k external	0.2335temperature offset calibration	0.9959default loss term (dB/km)	0.3790temperature slope calibration	1.0000multiplexer offset coefficient	1.0000multiplexer slope coefficient	1.0000fibre end	0.00T internal ref (°C)	27.37T ext. ref 1 (°C)	11.20T ext. ref 2 (°C)	22.21length (m)	temperature (°C)	Stokes	anti-Stokes-747.200	-45.853	0.347	-0.172
-746.185	-200.000	0.016	0.171
-745.171	16.582	0.245	0.195
-744.156	-200.000	-0.013	0.337
-743.142	-83.203	-0.195	-0.063
-742.127	202.868	-0.172	0.268
-741.112	163.250	-0.136	0.193
-740.098	107.554	-0.412	0.493
-739.083	121.799	-0.044	0.056
-738.069	-74.161	-0.327	0.119
-737.054	-22.277	-0.255	-0.156
-736.039	68.976	-0.035	-0.036
-735.025	59.715	-0.044	-0.043
-734.010	-82.307	-0.242	-0.079
-732.996	-45.560	-0.302	0.150
-731.981	23.498	-0.051	-0.042
-730.966	469.495	0.091	-0.206
-729.952	28.020	-0.127	-0.107
-728.937	-68.211	-0.265	0.104
-727.923	-51.310	-0.169	-0.079
-726.908	800.000	-0.026	0.098
-725.894	-105.890	0.145	-0.033
-724.879	-102.420	0.374	0.090
-723.864	-117.522	-0.367	0.067
-722.850	119.405	-0.096	-0.119
-721.835	-114.815	-0.372	-0.071
-720.821	-113.732	-0.493	-0.097
-719.806	-200.000	-0.013	-0.132
-718.791	-102.801	0.109	0.026
-717.777	-26.113	0.080	-0.047
-716.762	-200.000	0.003	-0.031
-715.748	-79.405	-0.184	-0.062
-714.733	38.353	0.223	0.199
-713.718	294.884	-0.213	0.392
-712.704	800.000	0.058	-0.168
-711.689	101.722	-0.218	-0.255
-710.675	-139.300	-0.037	-0.004
-709.660	-107.969	0.327	-0.071
-708.645	-200.000	-0.045	-0.299
-707.631	-101.380	0.212	0.052
-706.616	-52.435	-0.170	0.079
-705.602	-200.000	-0.004	0.236
-704.587	82.038	-0.090	0.098
-703.572	-98.551	-0.230	-0.059
-702.558	-46.154	-0.058	-0.029
-701.543	-41.242	0.146	-0.076
-700.529	29.895	0.059	-0.050
-699.514	533.621	0.078	-0.185
-698.499	-114.638	-0.247	-0.047
-697.485	28.973	-0.338	-0.288
-696.470	-116.112	-0.259	0.048
-695.456	114.088	-0.135	0.164
-694.441	-114.263	-0.173	-0.033
-693.426	-86.867	0.211	0.065
-692.412	429.833	0.199	0.432
-691.397	-148.004	-0.264	0.022
-690.383	-73.748	0.280	-0.102
-689.368	23.453	-0.279	-0.230
-688.354	246.495	0.105	-0.177
-687.339	77.124	0.080	-0.085
-686.324	57.194	0.090	0.088
-685.310	-61.585	0.227	-0.095
-684.295	-149.684	-0.263	-0.021
-683.281	800.000	-0.081	0.226
-682.266	218.735	-0.192	-0.307
-681.251	128.172	0.143	-0.183
-680.237	-24.133	0.104	-0.062
-679.222	800.000	-0.052	-0.148
-678.208	-200.000	0.056	-0.377
-677.193	-63.475	-0.123	-0.051
-676.178	800.000	-0.040	0.171
-675.164	-45.080	0.047	-0.024
-674.149	-200.000	-0.083	-0.536
-673.135	800.000	-0.084	0.309
-672.120	-186.473	-0.164	-0.002
-671.105	-200.000	0.017	0.086
-670.091	169.305	0.036	0.052
-669.076	68.875	-0.056	0.057
-668.062	-144.339	-0.269	-0.025
-667.047	604.069	0.093	0.232
-666.032	-187.097	0.214	-0.003
-665.018	-200.000	-0.090	0.425
-664.003	-200.000	0.016	0.175
-662.989	-120.878	-0.376	-0.063
-661.974	-57.537	0.237	0.104
-660.959	-92.691	-0.331	-0.093
-659.945	-108.061	-0.027	0.006
-658.930	-200.000	-0.025	0.252
-657.916	277.265	-0.102	0.182
-656.901	-200.000	-0.032	0.239
-655.886	140.086	-0.287	-0.379
-654.872	87.805	0.070	0.077
-653.857	342.406	0.106	-0.208
-652.843	-58.885	-0.292	0.126
-651.828	45.321	0.257	-0.238
-650.814	-126.438	-0.124	0.018
-649.799	360.451	-0.011	0.023
-648.784	-200.000	-0.007	-0.265
-647.770	-200.000	-0.033	0.174
-646.755	-143.793	-0.400	0.038
-645.741	47.079	-0.392	-0.365
-644.726	128.302	0.092	0.117
-643.711	800.000	-0.097	0.333
-642.697	-35.332	-0.124	-0.068
-641.682	295.738	0.022	-0.041
-640.668	-30.413	0.127	0.072
-639.653	667.480	-0.059	0.152
-638.638	-121.410	-0.111	0.019
-637.624	-120.925	-0.361	-0.061
-636.609	-200.000	-0.044	-0.273
-635.595	-200.000	0.012	0.057
-634.580	800.000	-0.057	0.183
-633.565	-22.155	0.242	-0.147
-632.551	800.000	0.075	-0.297
-631.536	204.444	0.087	0.135
-630.522	-6.860	-0.200	0.136
-629.507	36.077	0.158	-0.139
-628.492	473.585	0.120	0.271
-627.478	-200.000	0.073	0.325
-626.463	-7.673	-0.232	-0.157
-625.449	-200.000	0.049	-0.322
-624.434	-127.678	0.163	0.024
-623.419	173.358	0.209	0.302
-622.405	-72.660	0.146	-0.054
-621.390	208.929	-0.110	-0.171
-620.376	12.786	-0.198	-0.153
-619.361	461.707	0.141	-0.314
-618.346	-36.617	-0.407	-0.219
-617.332	122.321	0.069	-0.086
-616.317	111.877	-0.146	-0.177
-615.303	800.000	-0.025	-0.087
-614.288	800.000	-0.040	-0.159
-613.273	-200.000	-0.050	-0.361
-612.259	-170.288	0.307	-0.011
-611.244	41.466	0.299	0.271
-610.230	-122.342	-0.114	-0.019
-609.215	-49.099	-0.250	-0.120
-608.201	-138.795	0.264	0.029
-607.186	-128.388	-0.235	0.033
-606.171	-37.074	-0.342	-0.183
-605.157	-4.582	-0.126	0.087
-604.142	359.262	0.097	-0.194
-603.128	-137.398	-0.066	0.007
-602.113	-100.556	0.171	0.042
-601.098	-200.000	-0.021	-0.107
-600.084	67.453	0.243	0.248
-599.069	-13.447	-0.273	-0.177
-598.055	-148.498	0.265	0.022
-597.040	-188.414	-0.270	-0.003
-596.025	310.836	-0.157	0.295
-595.011	-19.449	0.209	0.129
-593.996	51.552	-0.054	-0.052
-592.982	800.000	0.104	-0.377
-591.967	-200.000	-0.004	-0.086
-590.952	-200.000	0.019	-0.311
-589.938	244.563	0.040	-0.068
-588.923	402.767	-0.031	-0.065
-587.909	-19.835	-0.324	0.200
-586.894	3.760	-0.132	0.096
-585.879	84.310	0.102	-0.111
-584.865	-27.942	-0.049	-0.029
-583.850	-141.602	-0.324	-0.033
-582.836	-170.537	-0.385	0.013
-581.821	98.089	0.106	0.122
-580.806	-192.840	-0.199	0.002
-579.792	-120.215	-0.242	0.041
-578.777	-62.927	0.226	0.093
-577.763	-24.987	-0.065	-0.038
-576.748	-142.087	0.257	0.026
-575.733	207.755	0.092	-0.144
-574.719	-104.035	-0.136	-0.032
-573.704	-200.000	0.025	-0.355
-572.690	-95.471	0.239	0.064
-571.675	-140.799	0.275	0.028
-570.661	-200.000	0.032	0.291
-569.646	266.724	-0.080	0.139
-568.631	527.666	-0.135	-0.317
-567.617	800.000	-0.070	-0.240
-566.602	-25.847	-0.111	0.065
-565.588	-118.418	-0.208	-0.037
-564.573	-29.313	-0.049	0.028
-563.558	-145.716	0.134	0.012
-562.544	-77.397	-0.200	0.069
-561.529	142.560	0.212	-0.281
-560.515	-200.000	0.004	0.275
-559.500	-32.030	0.064	-0.036
-558.485	-138.021	-0.285	-0.032
-557.471	-87.591	0.226	-0.068
-556.456	-158.836	0.289	-0.016
-555.442	272.856	0.201	0.353
-554.427	101.838	0.195	0.226
-553.412	-25.339	0.115	0.068
-552.398	-200.000	-0.019	0.141
-551.383	-200.000	-0.006	0.072
-550.369	172.118	-0.087	-0.124
-549.354	-24.604	-0.242	0.144
-548.339	290.956	0.058	0.105
-547.325	26.796	0.158	0.132
-546.310	20.735	0.043	0.035
-545.296	-101.105	-0.211	-0.051
-544.281	-200.000	0.043	0.226
-543.266	-200.000	0.001	-0.379
-542.252	-26.201	0.166	0.097
-541.237	485.031	0.104	0.237
-540.223	-108.422	0.340	-0.073
-539.208	-83.090	-0.174	0.056
-538.193	447.771	0.123	0.270
-537.179	-200.000	0.015	-0.071
-536.164	370.001	-0.216	0.436
-535.150	-200.000	0.007	0.293
-534.135	47.003	0.228	0.211
-533.121	-60.779	0.161	0.068
-532.106	-78.763	-0.098	0.033
-531.091	-78.036	-0.076	-0.026
-530.077	-25.882	0.204	-0.120
-529.062	-144.114	-0.251	-0.023
-528.048	145.945	-0.071	0.095
-527.033	510.135	-0.036	0.083
-526.018	223.956	0.132	-0.212
-525.004	-88.864	-0.146	0.043
-523.989	80.776	0.145	-0.155
-522.975	-34.535	-0.310	0.169
-521.960	-64.697	-0.121	-0.049
-520.945	242.824	0.112	0.187
-519.931	-200.000	0.026	-0.154
-518.916	800.000	0.096	0.270
-517.902	230.695	-0.143	-0.233
-516.887	371.418	-0.123	-0.248
-515.872	-97.210	-0.144	-0.037
-514.858	800.000	0.067	0.200
-513.843	239.136	0.195	0.322
-512.829	-54.045	0.179	0.081
-511.814	-171.353	0.128	-0.004
-510.799	800.000	-0.069	-0.276
-509.785	272.290	0.077	-0.136
-508.770	134.448	-0.197	-0.254
-507.756	-200.000	0.034	-0.215
-506.741	382.301	-0.079	0.162
-505.726	800.000	0.094	-0.290
-504.712	91.410	-0.185	-0.207
-503.697	-200.000	-0.018	-0.195
-502.683	644.798	0.073	0.185
-501.668	38.585	-0.141	-0.125
-500.653	-138.972	0.240	-0.026
-499.639	-68.361	0.580	-0.224
-498.624	162.423	0.144	-0.200
-497.610	496.151	0.060	0.137
-496.595	-121.737	0.087	0.014
-495.581	491.216	-0.074	-0.168
-494.566	61.907	-0.079	-0.078
-493.551	-41.875	-0.193	-0.098
-492.537	-129.891	-0.155	-0.021
-491.522	77.470	-0.226	-0.239
-490.508	86.856	-0.058	0.064
-489.493	-200.000	0.013	-0.095
-488.478	-88.733	0.501	0.148
-487.464	-200.000	-0.047	-0.263
-486.449	148.293	0.074	0.100
-485.435	-89.788	0.222	0.065
-484.420	-19.453	-0.223	-0.138
-483.405	-13.485	-0.064	0.041
-482.391	-200.000	0.051	-0.232
-481.376	-162.893	-0.387	0.019
-480.362	-71.434	0.449	-0.167
-479.347	-149.796	-0.200	0.016
-478.332	-125.173	-0.292	0.045
-477.318	-67.574	0.059	-0.023
-476.303	800.000	-0.068	-0.237
-475.289	-79.798	0.231	0.077
-474.274	712.275	-0.093	-0.244
-473.259	-117.622	-0.072	0.013
-472.245	-110.592	-0.193	0.040
-471.230	59.658	-0.240	0.235
-470.216	701.393	0.040	0.104
-469.201	166.918	-0.060	0.085
-468.186	-175.603	-0.150	0.004
-467.172	800.000	-0.085	-0.251
-466.157	-123.248	0.076	0.012
-465.143	-200.000	-0.002	0.041
-464.128	-66.476	-0.198	0.078
-463.113	800.000	-0.048	0.189
-462.099	52.232	0.115	-0.109
-461.084	138.978	0.094	-0.123
-460.070	-149.641	0.321	-0.025
-459.055	91.221	-0.060	0.067
-458.040	-173.164	0.235	0.007
-457.026	106.496	-0.091	0.108
-456.011	574.361	0.091	-0.221
-454.997	27.918	-0.071	0.060
-453.982	9.747	0.305	-0.230
-452.968	800.000	0.089	0.278
-451.953	256.260	0.119	0.202
-450.938	436.839	0.021	-0.044
-449.924	-200.000	-0.002	0.366
-448.909	-23.995	0.340	-0.202
-447.895	-78.105	-0.217	-0.074
-446.880	-58.280	-0.205	0.088
-445.865	53.026	0.125	-0.119
-444.851	-186.737	0.179	-0.002
-443.836	169.196	-0.129	-0.183
-442.822	131.048	-0.068	-0.086
-441.807	-200.000	-0.037	0.229
-440.792	71.496	0.097	-0.100
-439.778	604.652	0.152	0.376
-438.763	215.539	0.179	-0.282
-437.749	29.774	0.149	0.126
-436.734	-66.106	-0.224	0.089
-435.719	-80.020	0.022	0.007
-434.705	-163.883	-0.322	-0.015
-433.690	-115.862	0.238	0.044
-432.676	-200.000	-0.049	0.253
-431.661	-11.998	-0.149	0.097
-430.646	-146.632	-0.198	-0.017
-429.632	0.359	0.153	0.109
-428.617	800.000	-0.020	0.064
-427.603	0.767	0.360	-0.256
-426.588	12.505	0.142	0.109
-425.573	145.445	-0.228	-0.302
-424.559	-81.777	0.123	-0.040
-423.544	12.742	-0.188	-0.144
-422.530	34.255	0.283	-0.245
-421.515	213.808	0.255	0.400
-420.500	41.374	-0.250	-0.224
-419.486	309.875	-0.148	-0.275
-418.471	92.272	-0.032	0.036
-417.457	-157.858	0.386	-0.023
-416.442	5.401	-0.213	-0.156
-415.428	-59.431	0.129	0.055
-414.413	-27.547	0.184	0.106
-413.398	575.577	0.011	0.027
-412.384	-200.000	-0.048	0.223
-411.369	398.671	0.072	0.149
-410.355	-127.736	0.103	0.015
-409.340	-167.273	-0.144	-0.006
-408.325	163.795	0.068	0.096
-407.311	662.610	0.076	0.195
-406.296	-63.904	0.160	0.065
-405.282	16.679	0.161	-0.126
-404.267	72.142	0.260	0.269
-403.252	-86.699	0.096	-0.029
-402.238	-200.000	-0.009	-0.158
-401.223	339.483	-0.035	-0.067
-400.209	-200.000	-0.025	-0.151
-399.194	-200.000	0.266	-0.000
-398.179	800.000	-0.057	0.168
-397.165	130.145	0.329	-0.418
-396.150	171.822	-0.196	-0.280
-395.136	-43.816	0.355	-0.177
-394.121	-130.953	-0.047	0.006
-393.106	80.194	-0.050	-0.054
-392.092	23.376	-0.068	-0.055
-391.077	147.008	-0.194	0.258
-390.063	-44.139	-0.190	-0.094
-389.048	-102.453	0.473	0.112
-388.033	298.976	0.098	0.179
-387.019	-200.000	0.031	-0.309
-386.004	47.579	-0.196	-0.181
-384.990	800.000	-0.071	0.194
-383.975	-73.939	-0.390	-0.140
-382.960	265.030	-0.156	0.270
-381.946	-200.000	0.030	-0.144
-380.931	-10.367	-0.101	0.066
-379.917	90.793	-0.099	-0.110
-378.902	-89.124	-0.049	-0.014
-377.888	297.811	-0.250	-0.455
-376.873	140.491	0.188	0.246
-375.858	475.511	-0.130	0.291
-374.844	-98.449	-0.263	0.067
-373.829	-158.097	-0.119	-0.007
-372.815	-200.000	0.062	-0.288
-371.800	222.845	0.075	0.120
-370.785	326.101	-0.053	0.101
-369.771	-30.502	-0.406	0.228
-368.756	-147.028	0.059	-0.005
-367.742	181.974	-0.125	-0.182
-366.727	67.041	-0.227	-0.229
-365.712	800.000	0.084	0.302
-364.698	-165.909	-0.217	0.009
-363.683	-27.591	0.147	-0.085
-362.669	126.189	0.082	-0.103
-361.654	-140.555	-0.227	0.023
-360.639	-118.843	-0.295	-0.051
-359.625	108.673	0.038	-0.044
-358.610	-44.938	-0.219	-0.108
-357.596	-35.041	-0.107	-0.058
-356.581	17.859	-0.034	0.027
-355.566	-200.000	0.019	-0.191
-354.552	-113.548	-0.205	0.040
-353.537	800.000	-0.027	0.113
-352.523	120.904	0.108	0.133
-351.508	-49.984	-0.039	0.018
-350.493	79.284	-0.180	-0.191
-349.479	390.269	0.126	0.259
-348.464	-99.949	0.309	0.076
-347.450	-39.420	0.194	-0.101
-346.435	54.996	-0.200	0.191
-345.420	-158.837	0.128	-0.007
-344.406	-200.000	-0.006	0.171
-343.391	-142.197	-0.367	0.036
-342.377	-5.094	-0.144	0.098
-341.362	250.073	0.138	-0.232
-340.348	185.502	-0.089	-0.131
-339.333	30.855	-0.205	0.174
-338.318	259.918	0.118	0.202
-337.304	79.980	0.199	0.212
-336.289	-31.327	-0.175	0.098
-335.275	-102.168	0.091	0.022
-334.260	89.894	0.097	0.108
-333.245	-200.000	0.014	0.398
-332.231	-200.000	0.011	0.125
-331.216	-81.754	-0.042	0.014
-330.202	-90.333	0.025	-0.007
-329.187	-200.000	-0.006	-0.281
-328.172	241.797	-0.154	0.254
-327.158	-124.579	0.309	-0.047
-326.143	-27.118	0.230	-0.133
-325.129	-200.000	0.296	0.000
-324.114	800.000	-0.016	-0.060
-323.099	-19.294	-0.215	-0.132
-322.085	-76.077	0.103	-0.036
-321.070	-1.851	-0.095	0.066
-320.056	800.000	0.104	-0.315
-319.041	-74.813	0.196	-0.070
-318.026	161.100	-0.107	0.148
-317.012	-200.000	0.037	0.209
-315.997	211.797	-0.209	0.326
-314.983	-76.803	0.325	0.112
-313.968	44.427	0.089	-0.081
-312.953	-200.000	-0.044	-0.465
-311.939	33.378	-0.157	-0.134
-310.924	800.000	0.029	0.105
-309.910	800.000	-0.073	0.245
-308.895	-154.796	-0.317	-0.021
-307.880	185.388	-0.061	-0.089
-306.866	99.012	0.134	0.153
-305.851	377.010	-0.089	0.180
-304.837	-200.000	0.012	0.192
-303.822	-200.000	0.040	-0.195
-302.807	68.604	-0.020	0.020
-301.793	432.432	-0.126	0.270
-300.778	-105.173	-0.407	0.092
-299.764	-2.310	-0.066	-0.046
-298.749	132.306	0.113	-0.144
-297.735	88.657	0.107	-0.117
-296.720	127.252	-0.082	-0.102
-295.705	-140.489	0.280	0.029
-294.691	346.136	-0.097	0.189
-293.676	27.316	-0.147	-0.122
-292.662	286.083	0.131	0.234
-291.647	-69.853	0.375	-0.141
-290.632	116.753	0.184	0.223
-289.618	-200.000	-0.040	0.242
-288.603	-200.000	-0.002	-0.047
-287.589	-121.681	-0.243	-0.040
-286.574	105.549	-0.015	-0.018
-285.559	800.000	-0.077	0.243
-284.545	104.370	0.232	-0.270
-283.530	800.000	0.083	-0.226
-282.516	800.000	-0.053	0.157
-281.501	251.019	0.155	0.260
-280.486	-78.369	0.214	-0.072
-279.472	800.000	-0.102	0.368
-278.457	-200.000	-0.043	0.275
-277.443	-137.968	0.298	-0.033
-276.428	800.000	-0.049	0.199
-275.413	36.179	0.118	0.103
-274.399	-45.620	0.225	-0.110
-273.384	58.365	-0.294	-0.285
-272.370	1.665	0.057	0.041
-271.355	-27.904	-0.322	-0.184
-270.340	191.329	-0.042	-0.063
-269.326	655.463	-0.099	0.251
-268.311	2.059	0.216	-0.154
-267.297	800.000	-0.052	-0.161
-266.282	730.670	-0.083	0.218
-265.267	800.000	0.047	0.199
-264.253	451.365	0.065	-0.143
-263.238	-179.907	-0.107	0.002
-262.224	219.211	0.098	-0.155
-261.209	126.699	-0.051	-0.064
-260.195	-76.135	-0.125	0.043
-259.180	670.107	-0.077	0.196
-258.165	-200.000	0.100	-0.470
-257.151	-200.000	-0.017	0.233
-256.136	-87.868	-0.108	-0.032
-255.122	800.000	-0.055	-0.151
-254.107	6.715	0.162	-0.119
-253.092	-112.464	0.119	-0.023
-252.078	517.955	0.080	-0.184
-251.063	-61.062	-0.176	-0.073
-250.049	585.898	-0.173	0.420
-249.034	-200.000	0.006	-0.079
-248.019	-63.615	-0.117	-0.047
-247.005	-200.000	0.020	-0.385
-245.990	-200.000	-0.014	-0.402
-244.976	78.225	-0.091	0.096
-243.961	-157.160	0.471	0.028
-242.946	-81.994	-0.299	0.096
-241.932	-200.000	0.017	-0.312
-240.917	28.535	0.072	0.060
-239.903	115.267	-0.244	0.294
-238.888	-200.000	0.027	0.169
-237.873	337.182	0.034	0.066
-236.859	75.111	0.068	0.071
-235.844	-200.000	-0.007	-0.040
-234.830	-200.000	0.017	-0.105
-233.815	533.078	0.051	0.118
-232.800	-200.000	-0.064	0.304
-231.786	415.536	-0.180	0.377
-230.771	82.941	-0.179	0.192
-229.757	800.000	0.099	0.346
-228.742	-200.000	0.054	-0.339
-227.727	-43.691	0.024	0.012
-226.713	-34.772	0.307	0.165
-225.698	356.039	-0.089	0.174
-224.684	-104.514	-0.301	0.068
-223.669	118.238	0.266	-0.322
-222.655	-128.444	-0.304	-0.043
-221.640	95.173	0.147	0.165
-220.625	134.748	0.183	0.234
-219.611	-200.000	0.028	0.202
-218.596	-200.000	0.070	0.312
-217.582	62.469	0.241	0.237
-216.567	258.403	-0.159	-0.269
-215.552	-200.000	-0.025	0.175
-214.538	-21.622	-0.196	0.117
-213.523	-89.093	0.244	0.071
-212.509	276.798	-0.161	-0.281
-211.494	-200.000	-0.011	-0.176
-210.479	-57.478	0.351	0.152
-209.465	690.322	0.068	-0.176
-208.450	97.266	-0.240	0.271
-207.436	-172.459	-0.158	0.005
-206.421	170.343	0.112	0.157
-205.406	800.000	0.043	0.183
-204.392	-200.000	0.022	0.311
-203.377	552.279	0.181	0.427
-202.363	800.000	0.048	0.148
-201.348	489.243	0.081	0.183
-200.333	-200.000	-0.018	-0.210
-199.319	215.448	-0.078	-0.122
-198.304	165.772	0.162	-0.225
-197.290	-93.413	-0.206	0.056
-196.275	202.724	0.270	-0.410
-195.260	-102.671	0.219	-0.051
-194.246	800.000	-0.100	0.419
-193.231	-15.011	-0.055	0.034
-192.217	-171.458	0.285	-0.009
-191.202	-27.982	0.227	-0.129
-190.187	800.000	-0.080	-0.337
-189.173	-200.000	-0.007	0.183
-188.158	800.000	-0.065	-0.199
-187.144	-144.063	-0.181	-0.017
-186.129	-0.360	0.075	-0.052
-185.114	23.300	-0.043	0.035
-184.100	-100.873	-0.195	0.047
-183.085	348.262	0.130	-0.252
-182.071	341.805	-0.094	0.181
-181.056	116.880	-0.171	-0.206
-180.042	-150.530	-0.122	-0.009
-179.027	-121.730	-0.122	-0.020
-178.012	15.060	-0.039	0.030
-176.998	-139.400	0.152	0.016
-175.983	-8.938	-0.125	-0.082
-174.969	126.446	0.071	0.088
-173.954	800.000	0.025	-0.081
-172.939	355.350	-0.078	0.152
-171.925	-200.000	0.050	-0.330
-170.910	67.177	0.289	-0.290
-169.896	-200.000	-0.016	-0.502
-168.881	339.721	-0.119	-0.229
-167.866	-86.143	0.230	-0.070
-166.852	-58.891	-0.136	0.058
-165.837	478.398	-0.042	0.093
-164.823	-60.681	0.285	-0.119
-163.808	51.965	-0.037	0.035
-162.793	-66.153	0.300	0.117
-161.779	-93.899	0.324	-0.087
-160.764	-114.889	-0.401	-0.075
-159.750	130.612	0.151	0.190
-158.735	372.331	0.093	-0.186
-157.720	800.000	0.018	0.065
-156.706	387.802	0.092	0.187
-155.691	-200.000	0.049	-0.244
-154.677	-164.097	-0.311	0.014
-153.662	800.000	0.009	0.040
-152.647	-102.437	-0.158	0.037
-151.633	-100.269	0.074	-0.018
-150.618	-200.000	-0.052	-0.368
-149.604	9.430	0.114	-0.084
-148.589	-127.285	-0.359	0.051
-147.574	408.468	-0.040	0.082
-146.560	-200.000	-0.003	-0.151
-145.545	800.000	-0.087	0.266
-144.531	99.073	-0.060	-0.068
-143.516	-13.063	0.074	-0.047
-142.502	334.214	-0.041	0.078
-141.487	279.799	0.189	-0.331
-140.472	800.000	0.113	0.351
-139.458	442.708	-0.119	-0.256
-138.443	118.602	-0.050	0.061
-137.429	-200.000	0.046	0.373
-136.414	28.053	0.338	0.280
-135.399	178.973	0.061	0.087
-134.385	-132.393	-0.262	-0.033
-133.370	-26.859	-0.111	-0.063
-132.356	213.197	0.021	-0.032
-131.341	122.718	0.247	0.303
-130.326	-38.873	-0.322	-0.166
-129.312	-2.348	-0.276	0.190
-128.297	800.000	-0.035	0.143
-127.283	-138.562	0.191	-0.021
-126.268	28.514	-0.079	-0.065
-125.253	108.523	0.079	0.092
-124.239	29.066	0.052	-0.043
-123.224	80.083	0.350	0.369
-122.210	454.173	0.037	0.081
