DTS Sentinel unit serial number:	SN413079Multiplexer serial number:	ORYXHardware model number:	OX4-SRSoftware version number:	ORYX F/W v4.00 Oryx Data Collector v3.7.2.0data status	okinstallation	princeton_trtdifferential loss correction	single-endedforward channel	channel 3reverse channel	N/Adate	2019/09/15time	17:44:35forward acquisition time	60.00reverse acquisition time	0.00gamma	496.2192k internal	0.2286k external	0.2286temperature offset calibration	0.9939default loss term (dB/km)	0.3790temperature slope calibration	1.0000multiplexer offset coefficient	1.0000multiplexer slope coefficient	1.0000fibre end	0.00T internal ref (°C)	44.87T ext. ref 1 (°C)	6.30T ext. ref 2 (°C)	39.73length (m)	temperature (°C)	Stokes	anti-Stokes-747.200	-52.888	0.198	0.094
-746.185	54.289	0.237	0.234
-745.171	800.000	-0.070	0.206
-744.156	456.219	-0.151	0.345
-743.142	-167.847	-0.194	-0.008
-742.127	440.592	0.233	0.523
-741.112	800.000	0.067	0.285
-740.098	800.000	-0.131	0.484
-739.083	391.059	-0.181	-0.386
-738.069	143.021	0.143	0.196
-737.054	568.860	-0.096	-0.239
-736.039	-52.152	0.305	-0.145
-735.025	-177.657	0.133	-0.003
-734.010	-138.823	-0.095	0.011
-732.996	-105.435	0.107	-0.025
-731.981	-200.000	0.017	0.128
-730.966	495.933	0.171	-0.403
-729.952	-200.000	-0.008	-0.076
-728.937	-110.966	-0.099	-0.021
-727.923	800.000	-0.098	-0.299
-726.908	-159.463	-0.447	-0.026
-725.894	-61.267	-0.176	0.076
-724.879	-83.020	0.250	-0.082
-723.864	552.514	0.107	0.263
-722.850	-68.722	-0.272	0.108
-721.835	-47.586	0.056	0.028
-720.821	152.194	0.092	-0.129
-719.806	50.292	0.054	-0.052
-718.791	242.586	0.044	0.076
-717.777	-200.000	0.061	-0.320
-716.762	-121.214	0.242	-0.041
-715.748	-166.199	0.203	-0.009
-714.733	-177.016	0.284	-0.007
-713.718	-85.378	0.190	0.061
-712.704	-163.638	-0.317	-0.015
-711.689	800.000	0.042	0.161
-710.675	-182.172	-0.372	0.007
-709.660	19.048	-0.145	0.119
-708.645	800.000	0.020	0.069
-707.631	-126.475	0.195	0.030
-706.616	90.538	-0.017	-0.019
-705.602	800.000	0.070	0.208
-704.587	-104.167	0.227	-0.054
-703.572	168.810	-0.102	-0.148
-702.558	-200.000	-0.158	0.000
-701.543	-27.216	-0.142	-0.085
-700.529	98.285	-0.074	0.087
-699.514	-200.000	-0.005	-0.083
-698.499	338.792	0.044	0.088
-697.485	-98.036	0.116	0.031
-696.470	-94.256	0.189	-0.053
-695.456	800.000	-0.028	0.109
-694.441	-58.707	0.243	0.108
-693.426	740.294	-0.043	-0.117
-692.412	94.209	-0.010	0.011
-691.397	-200.000	-0.007	0.000
-690.383	-124.346	0.223	0.036
-689.368	-6.391	-0.018	0.012
-688.354	-200.000	0.424	0.002
-687.339	-68.183	0.255	-0.102
-686.324	-161.413	0.031	0.002
-685.310	131.668	-0.192	-0.252
-684.295	-38.271	-0.311	-0.169
-683.281	800.000	0.058	-0.199
-682.266	8.394	0.171	-0.132
-681.251	137.674	-0.069	-0.093
-680.237	-200.000	-0.032	0.318
-679.222	74.634	0.134	0.144
-678.208	800.000	-0.036	-0.125
-677.193	800.000	0.059	0.221
-676.178	119.655	-0.161	0.204
-675.164	-71.591	-0.092	-0.035
-674.149	56.853	-0.313	-0.312
-673.135	178.910	-0.161	0.240
-672.120	-154.913	0.141	0.010
-671.105	102.730	-0.209	-0.250
-670.091	244.827	-0.110	-0.189
-669.076	-103.763	0.205	-0.049
-668.062	20.739	-0.072	-0.060
-667.047	326.466	0.087	-0.170
-666.032	39.413	0.197	-0.181
-665.018	-121.189	-0.129	-0.022
-664.003	-200.000	0.003	0.018
-662.989	-200.000	-0.011	-0.170
-661.974	288.640	-0.128	-0.236
-660.959	-200.000	0.064	-0.338
-659.945	502.245	0.095	-0.223
-658.930	-200.000	-0.014	-0.408
-657.916	-98.483	-0.168	0.044
-656.901	-74.866	-0.519	-0.191
-655.886	800.000	-0.082	0.289
-654.872	-200.000	-0.047	0.345
-653.857	-109.015	0.380	-0.083
-652.843	-19.802	-0.275	-0.174
-651.828	-35.044	0.183	-0.102
-650.814	16.382	0.115	0.093
-649.799	268.969	0.149	-0.268
-648.784	-42.865	-0.073	0.038
-647.770	203.577	0.075	-0.119
-646.755	-118.396	0.139	-0.025
-645.741	-136.227	-0.362	-0.043
-644.726	-62.766	-0.053	-0.022
-643.711	768.274	-0.083	-0.231
-642.697	-200.000	-0.005	-0.318
-641.682	50.244	0.025	-0.024
-640.668	-107.835	-0.221	-0.049
-639.653	-137.292	0.296	-0.034
-638.638	70.582	-0.108	-0.114
-637.624	-151.758	0.169	0.013
-636.609	-26.881	0.105	-0.063
-635.595	-25.898	-0.225	-0.135
-634.580	-115.383	0.369	0.071
-633.565	-12.211	-0.191	-0.128
-632.551	-65.294	-0.398	0.164
-631.536	-79.639	-0.031	-0.011
-630.522	-39.122	0.054	-0.029
-629.507	-84.873	-0.308	0.099
-628.492	-6.313	-0.265	-0.185
-627.478	-101.495	0.073	0.018
-626.463	2.772	-0.070	-0.052
-625.449	-80.385	-0.150	-0.051
-624.434	-69.668	0.154	-0.060
-623.419	43.268	-0.164	-0.153
-622.405	440.220	0.133	-0.296
-621.390	369.140	0.149	0.308
-620.376	224.591	-0.038	-0.062
-619.361	207.551	0.109	-0.174
-618.346	-174.115	-0.285	-0.009
-617.332	-200.000	-0.004	0.227
-616.317	-195.694	-0.282	0.002
-615.303	-106.243	-0.243	0.056
-614.288	-79.337	-0.146	-0.050
-613.273	-122.431	0.414	-0.069
-612.259	25.842	0.122	0.104
-611.244	-10.504	-0.298	0.202
-610.230	-3.837	-0.235	0.166
-609.215	800.000	0.106	-0.416
-608.201	-130.590	-0.300	0.041
-607.186	-80.843	0.176	-0.060
-606.171	800.000	-0.031	-0.095
-605.157	5.487	-0.122	0.092
-604.142	661.029	0.051	-0.134
-603.128	-200.000	0.021	0.100
-602.113	-61.777	-0.061	-0.026
-601.098	-136.601	0.226	0.027
-600.084	70.422	0.250	0.263
-599.069	-75.321	-0.282	-0.102
-598.055	-197.993	-0.136	0.001
-597.040	-137.564	-0.285	-0.033
-596.025	800.000	-0.045	-0.198
-595.011	-75.747	0.209	0.076
-593.996	290.421	-0.251	-0.465
-592.982	-200.000	-0.036	0.201
-591.967	800.000	0.024	-0.089
-590.952	-127.794	-0.101	0.015
-589.938	-200.000	0.019	-0.152
-588.923	429.007	0.039	-0.086
-587.909	-200.000	-0.021	-0.191
-586.894	82.819	0.165	-0.183
-585.879	91.019	0.093	-0.107
-584.865	126.476	-0.238	-0.308
-583.850	-16.035	0.140	-0.091
-582.836	55.318	-0.159	-0.157
-581.821	120.048	0.167	-0.211
-580.806	28.305	-0.105	-0.091
-579.792	-200.000	0.014	0.173
-578.777	-61.293	-0.091	-0.039
-577.763	-68.123	-0.303	-0.120
-576.748	81.084	0.205	0.225
-575.733	-200.000	-0.036	0.319
-574.719	57.526	-0.229	-0.228
-573.704	131.422	-0.126	0.165
-572.690	7.142	-0.032	-0.024
-571.675	-60.225	0.247	-0.107
-570.661	340.432	-0.118	-0.234
-569.646	429.154	0.099	-0.218
-568.631	40.508	-0.123	0.113
-567.617	359.635	0.119	-0.243
-566.602	-15.173	-0.160	-0.104
-565.588	71.947	-0.070	0.074
-564.573	-50.481	0.125	0.060
-563.558	130.691	-0.084	0.110
-562.544	40.846	0.266	0.245
-561.529	-31.100	0.255	0.147
-560.515	-74.529	-0.263	0.097
-559.500	125.577	0.107	-0.137
-558.485	86.951	0.210	-0.236
-557.471	800.000	0.075	-0.298
-556.456	-104.382	0.279	0.066
-555.442	12.448	0.280	-0.220
-554.427	800.000	0.127	-0.465
-553.412	-17.156	-0.293	0.188
-552.398	595.616	-0.016	-0.041
-551.383	112.935	0.132	-0.163
-550.369	-87.307	-0.427	0.132
-549.354	123.814	-0.250	0.320
-548.339	-76.455	0.319	0.114
-547.325	5.567	0.118	0.089
-546.310	-165.246	0.450	0.020
-545.296	712.922	-0.113	-0.304
-544.281	709.605	0.043	0.116
-543.266	255.587	-0.173	-0.302
-542.252	-135.139	-0.253	-0.031
-541.237	81.131	0.156	0.171
-540.223	-87.630	0.118	0.036
-539.208	340.772	-0.186	0.370
-538.193	-75.162	-0.172	0.063
-537.179	75.641	-0.190	-0.204
-536.164	800.000	0.022	-0.070
-535.150	-200.000	-0.006	-0.237
-534.135	179.346	-0.011	-0.017
-533.121	-39.744	-0.090	0.048
-532.106	208.820	0.091	0.145
-531.091	-23.513	0.220	0.134
-530.077	-21.782	0.295	-0.182
-529.062	725.565	-0.066	-0.178
-528.048	198.065	-0.058	-0.090
-527.033	32.206	0.207	-0.182
-526.018	44.213	0.114	0.106
-525.004	-22.682	0.282	0.174
-523.989	-62.156	-0.103	0.044
-522.975	-200.000	0.019	0.324
-521.960	-165.127	0.232	0.010
-520.945	-105.543	-0.171	-0.040
-519.931	71.338	0.135	0.143
-518.916	-86.613	0.291	-0.091
-517.902	-67.054	-0.226	-0.091
-516.887	1.035	0.146	-0.106
-515.872	-146.049	-0.138	-0.012
-514.858	-200.000	0.012	-0.116
-513.843	-46.685	0.128	0.064
-512.829	141.974	0.205	-0.276
-511.814	-77.989	-0.119	0.042
-510.799	-200.000	0.036	0.235
-509.785	-200.000	0.030	0.203
-508.770	-200.000	-0.014	0.150
-507.756	-117.798	0.084	-0.015
-506.741	89.500	0.196	0.223
-505.726	-133.589	0.164	0.021
-504.712	-66.107	0.295	-0.119
-503.697	-105.305	0.157	0.036
-502.683	89.911	0.179	-0.203
-501.668	36.993	-0.077	0.069
-500.653	188.953	0.098	0.149
-499.639	-200.000	-0.072	0.529
-498.624	-200.000	0.068	0.345
-497.610	800.000	0.090	0.366
-496.595	-10.356	-0.309	-0.208
-495.581	31.723	0.068	-0.059
-494.566	-7.269	0.167	0.115
-493.551	62.160	-0.140	-0.142
-492.537	17.854	-0.228	0.184
-491.522	-87.811	-0.156	0.048
-490.508	-94.987	-0.097	-0.027
-489.493	-57.296	-0.269	-0.120
-488.478	574.807	-0.099	-0.246
-487.464	386.923	0.085	-0.178
-486.449	-30.473	0.302	-0.174
-485.435	-200.000	0.018	-0.155
-484.420	-200.000	-0.018	-0.175
-483.405	-63.478	0.283	0.118
-482.391	-200.000	0.033	0.219
-481.376	3.780	-0.291	0.216
-480.362	-80.456	0.399	-0.135
-479.347	-44.408	0.211	-0.107
-478.332	-62.788	-0.207	0.087
-477.318	328.470	-0.132	-0.257
-476.303	27.407	0.031	-0.027
-475.289	-36.445	0.149	-0.081
-474.274	154.243	0.131	0.183
-473.259	-83.564	0.467	-0.152
-472.245	-8.074	-0.057	0.039
-471.230	232.151	0.115	0.192
-470.216	-200.000	0.004	0.121
-469.201	-158.325	-0.115	0.007
-468.186	139.847	-0.104	0.139
-467.172	-75.531	-0.161	0.058
-466.157	-187.840	0.141	0.002
-465.143	-146.330	-0.189	0.017
-464.128	-82.909	0.098	-0.032
-463.113	11.850	-0.221	-0.172
-462.099	-95.739	-0.280	-0.076
-461.084	-200.000	-0.006	-0.273
-460.070	122.335	-0.037	0.047
-459.055	800.000	-0.020	-0.073
-458.040	-146.384	-0.224	0.020
-457.026	383.961	0.039	0.081
-456.011	236.060	-0.096	-0.160
-454.997	163.151	0.123	-0.175
-453.982	800.000	-0.054	-0.195
-452.968	327.840	-0.166	0.324
-451.953	164.229	0.075	-0.107
-450.938	-200.000	0.350	0.001
-449.924	49.813	-0.030	-0.029
-448.909	800.000	0.050	0.168
-447.895	-200.000	-0.019	-0.182
-446.880	679.361	-0.109	-0.288
-445.865	577.392	-0.056	-0.139
-444.851	86.762	0.067	-0.075
-443.836	-56.540	0.328	0.147
-442.822	-9.658	-0.213	0.144
-441.807	-118.088	0.185	-0.033
-440.792	-7.747	-0.104	-0.071
-439.778	-112.976	-0.313	-0.063
-438.763	800.000	-0.040	-0.121
-437.749	-89.955	-0.375	0.111
-436.734	12.731	-0.202	0.158
-435.719	-177.380	0.377	0.009
-434.705	97.110	-0.025	0.029
-433.690	-134.120	0.389	0.049
-432.676	-1.028	0.196	0.140
-431.661	-130.842	0.112	-0.015
-430.646	-63.901	0.432	0.179
-429.632	-200.000	-0.039	0.214
-428.617	6.891	0.265	0.200
-427.603	339.752	-0.219	0.433
-426.588	-84.373	0.250	-0.080
-425.573	-112.442	0.077	0.016
-424.559	128.830	-0.069	0.089
-423.544	-156.538	0.242	-0.015
-422.530	-200.000	-0.030	-0.140
-421.515	-11.547	-0.342	0.228
-420.500	779.237	0.045	0.125
-419.486	-200.000	-0.023	0.348
-418.471	-69.119	0.117	0.046
-417.457	-18.478	-0.035	0.022
-416.442	-10.021	-0.147	-0.099
-415.428	177.892	0.119	0.175
-414.413	800.000	-0.065	0.273
-413.398	193.022	-0.067	-0.103
-412.384	140.815	0.118	-0.158
-411.369	-200.000	0.086	0.393
-410.355	468.751	0.068	0.155
-409.340	-77.395	0.578	0.203
-408.325	-127.252	0.111	0.016
-407.311	-58.096	0.134	0.059
-406.296	-115.777	-0.288	-0.055
-405.282	-48.401	0.127	-0.062
-404.267	77.187	-0.237	0.256
-403.252	-52.078	0.069	-0.033
-402.238	32.579	0.187	0.163
-401.223	-200.000	0.013	0.309
-400.209	210.603	-0.091	-0.145
-399.194	-42.921	0.076	0.039
-398.179	-100.386	0.142	-0.036
-397.165	-6.529	0.200	-0.138
-396.150	211.491	-0.129	0.205
-395.136	457.456	-0.129	0.291
-394.121	-200.000	0.029	-0.318
-393.106	-200.000	0.004	0.116
-392.092	-187.714	-0.119	0.002
-391.077	-77.510	0.268	0.094
-390.063	334.789	-0.024	-0.048
-389.048	-200.000	0.024	0.272
-388.033	462.868	-0.123	-0.278
-387.019	-200.000	-0.036	-0.167
-386.004	-15.144	-0.080	0.052
-384.990	446.767	0.173	-0.384
-383.975	-200.000	-0.046	0.242
-382.960	800.000	-0.046	-0.150
-381.946	-200.000	0.016	-0.212
-380.931	-75.198	-0.514	-0.186
-379.917	-200.000	0.020	0.271
-378.902	115.407	0.097	0.120
-377.888	203.515	-0.125	0.196
-376.873	-200.000	0.009	-0.150
-375.858	82.033	-0.083	0.091
-374.844	-200.000	0.032	-0.295
-373.829	-200.000	0.014	-0.141
-372.815	-142.693	-0.131	-0.013
-371.800	-110.870	-0.098	-0.020
-370.785	800.000	0.055	0.184
-369.771	207.195	0.072	0.113
-368.756	800.000	0.031	-0.109
-367.742	131.653	0.157	0.204
-366.727	-32.530	-0.039	-0.022
-365.712	-105.065	0.222	-0.051
-364.698	99.258	-0.113	0.132
-363.683	-95.750	0.035	0.010
-362.669	-13.791	-0.242	0.158
-361.654	-91.913	-0.198	-0.057
-360.639	34.228	-0.212	-0.187
-359.625	57.310	0.139	0.137
-358.610	-200.000	-0.018	0.164
-357.596	-123.616	0.069	0.011
-356.581	380.197	-0.230	0.477
-355.566	-59.348	-0.179	0.078
-354.552	-200.000	0.020	0.211
-353.537	431.667	0.147	-0.323
-352.523	302.104	0.131	0.245
-351.508	-200.000	0.010	-0.136
-350.493	-112.546	0.182	-0.037
-349.479	-47.224	-0.360	0.177
-348.464	214.599	-0.120	-0.192
-347.450	-143.104	-0.246	0.024
-346.435	800.000	0.077	-0.328
-345.420	-96.801	0.128	-0.034
-344.406	-200.000	-0.036	0.173
-343.391	259.253	0.212	0.370
-342.377	-200.000	0.034	0.303
-341.362	-10.835	0.191	0.128
-340.348	-200.000	0.017	0.320
-339.333	-200.000	-0.020	0.293
-338.318	515.805	0.078	0.184
-337.304	-200.000	-0.027	-0.134
-336.289	14.229	-0.110	-0.087
-335.275	749.291	0.031	-0.085
-334.260	283.152	0.098	-0.178
-333.245	800.000	-0.116	-0.361
-332.231	296.260	0.077	-0.143
-331.216	-54.211	0.114	0.052
-330.202	6.698	0.214	0.161
-329.187	-1.182	0.225	-0.161
-328.172	-47.806	0.383	-0.187
-327.158	-66.861	-0.144	-0.057
-326.143	-3.136	-0.093	-0.065
-325.129	531.940	-0.144	0.345
-324.114	664.795	-0.115	-0.300
-323.099	-200.000	-0.067	-0.330
-322.085	-121.687	-0.275	-0.046
-321.070	-79.634	-0.295	-0.101
-320.056	61.922	-0.275	-0.276
-319.041	20.088	-0.310	0.252
-318.026	28.732	-0.219	0.187
-317.012	-164.512	0.182	-0.008
-315.997	-64.228	-0.207	-0.085
-314.983	-49.499	-0.247	-0.119
-313.968	-116.306	0.048	0.009
-312.953	29.722	-0.133	-0.114
-311.939	-200.000	-0.005	-0.345
-310.924	116.610	-0.268	0.331
-309.910	-88.037	-0.352	0.107
-308.895	-81.006	0.251	0.084
-307.880	185.822	-0.101	-0.151
-306.866	-63.261	-0.143	-0.059
-305.851	800.000	0.137	0.452
-304.837	-32.431	-0.103	0.058
-303.822	101.506	-0.124	0.146
-302.807	-200.000	0.005	-0.066
-301.793	-4.667	0.122	-0.085
-300.778	423.551	-0.171	-0.370
-299.764	-81.646	-0.012	0.004
-298.749	96.400	0.077	0.089
-297.735	119.533	-0.087	0.108
-296.720	-105.048	-0.304	-0.070
-295.705	240.007	0.107	0.181
-294.691	-57.271	0.265	-0.118
-293.676	-115.842	0.587	0.111
-292.662	800.000	0.029	0.122
-291.647	-95.730	-0.155	-0.042
-290.632	-200.000	0.300	0.000
-289.618	727.638	-0.078	-0.210
-288.603	800.000	0.055	-0.186
-287.589	-6.301	-0.226	0.156
-286.574	-200.000	-0.027	0.126
-285.559	-36.063	0.063	-0.034
-284.545	161.070	0.087	-0.122
-283.530	-8.827	-0.191	0.129
-282.516	-200.000	-0.010	-0.369
-281.501	-73.222	0.311	-0.115
-280.486	40.867	0.103	0.094
-279.472	-200.000	0.009	-0.159
-278.457	-164.727	0.126	0.006
-277.443	1.756	-0.386	0.280
-276.428	284.095	0.108	-0.196
-275.413	-15.524	0.305	-0.196
-274.399	-200.000	0.046	-0.273
-273.384	-153.167	-0.319	0.023
-272.370	653.899	-0.142	-0.366
-271.355	94.018	-0.031	0.035
-270.340	114.404	-0.163	0.200
-269.326	16.649	0.337	0.269
-268.311	-200.000	0.041	0.404
-267.297	-173.682	0.323	-0.010
-266.282	1.127	0.312	0.226
-265.267	-96.949	-0.218	-0.058
-264.253	193.485	-0.130	-0.198
-263.238	-200.000	-0.019	-0.440
-262.224	-127.491	0.252	-0.037
-261.209	-200.000	0.021	-0.213
-260.195	-200.000	-0.005	0.336
-259.180	403.810	0.045	0.095
-258.165	-56.085	0.183	-0.082
-257.151	-200.000	-0.012	0.121
-256.136	223.904	0.023	-0.037
-255.122	188.024	-0.155	0.232
-254.107	51.705	0.195	0.187
-253.092	-200.000	0.002	0.100
-252.078	-71.604	-0.093	0.035
-251.063	-101.750	-0.305	-0.074
-250.049	294.894	0.103	0.189
-249.034	-19.331	0.308	0.192
-248.019	-140.897	-0.177	-0.018
-247.005	330.094	0.065	-0.126
-245.990	-178.456	0.275	-0.006
-244.976	40.162	-0.115	-0.104
-243.961	-62.967	0.144	-0.060
-242.946	-138.018	0.229	-0.026
-241.932	120.321	-0.245	0.306
-240.917	83.098	-0.149	0.163
-239.903	265.504	0.043	0.076
-238.888	-84.482	-0.231	-0.073
-237.873	206.054	0.056	0.088
-236.859	-89.218	0.200	-0.059
-235.844	734.029	0.020	0.054
-234.830	-140.643	0.134	0.014
-233.815	383.922	-0.091	0.189
-232.800	99.679	-0.116	-0.135
-231.786	-160.486	-0.312	-0.017
-230.771	36.999	0.377	-0.335
-229.757	178.798	0.262	-0.385
-228.742	-200.000	-0.011	-0.213
-227.727	-29.263	0.118	-0.068
-226.713	-83.023	0.202	0.066
-225.698	141.627	-0.182	0.242
-224.684	535.127	-0.143	-0.341
-223.669	434.835	0.081	0.178
-222.655	323.392	-0.035	0.067
-221.640	-120.899	-0.177	-0.030
-220.625	-200.000	0.033	-0.181
-219.611	-41.297	0.192	-0.099
-218.596	-200.000	0.013	0.112
-217.582	-157.255	-0.151	-0.009
-216.567	-180.675	0.155	0.003
-215.552	-64.502	0.193	-0.079
-214.538	-16.198	-0.454	0.290
-213.523	22.966	-0.295	-0.243
-212.509	-102.632	-0.143	0.034
-211.494	-58.040	0.145	0.064
-210.479	35.907	0.112	0.099
-209.465	134.297	-0.089	0.116
-208.450	-200.000	0.001	0.134
-207.436	71.300	-0.052	0.054
-206.421	-3.222	-0.111	0.078
-205.406	723.992	-0.041	0.110
-204.392	800.000	-0.033	0.112
-203.377	-110.573	0.153	0.032
-202.363	-200.000	0.027	0.184
-201.348	45.048	-0.086	-0.079
-200.333	82.074	0.110	0.120
-199.319	55.838	-0.177	-0.173
-198.304	-117.602	-0.283	-0.051
-197.290	115.236	-0.141	-0.172
-196.275	-52.686	-0.258	0.120
-195.260	98.803	-0.128	0.148
-194.246	243.178	0.048	-0.080
-193.231	-111.724	-0.053	-0.011
-192.217	-115.272	-0.145	-0.028
-191.202	39.211	0.199	-0.179
-190.187	170.644	-0.131	-0.188
-189.173	222.078	-0.136	0.220
-188.158	-57.423	0.089	0.039
-187.144	135.217	0.160	0.208
-186.129	-17.060	0.151	-0.096
-185.114	-185.041	0.129	0.002
-184.100	17.098	-0.082	-0.065
-183.085	-182.315	-0.172	0.003
-182.071	-200.000	-0.079	-0.370
-181.056	-200.000	0.007	0.113
-180.042	177.504	-0.045	0.065
-179.027	-200.000	0.035	-0.233
-178.012	-2.779	-0.290	0.203
-176.998	33.689	0.105	-0.091
-175.983	-73.204	0.346	-0.127
-174.969	21.742	-0.179	-0.147
-173.954	-123.430	-0.199	-0.032
-172.939	-123.419	0.175	-0.028
-171.925	-154.635	-0.060	-0.004
-170.910	18.374	0.222	0.178
-169.896	61.680	0.277	0.276
-168.881	-200.000	-0.074	-0.377
-167.866	28.280	0.193	-0.164
-166.852	35.130	-0.201	-0.177
-165.837	-200.000	-0.015	-0.167
-164.823	800.000	-0.103	0.343
-163.808	563.531	-0.048	0.117
-162.793	3.689	-0.087	-0.063
-161.779	-38.948	-0.086	0.046
-160.764	-135.612	-0.076	-0.009
-159.750	-64.089	-0.255	-0.105
-158.735	-151.234	0.275	-0.021
-157.720	63.436	-0.029	-0.030
-156.706	-188.135	-0.009	-0.000
-155.691	800.000	-0.022	-0.083
-154.677	-200.000	0.038	0.328
-153.662	223.561	0.239	0.386
-152.647	-44.684	0.225	-0.113
-151.633	539.694	0.124	0.296
-150.618	-200.000	-0.018	0.111
-149.604	-200.000	-0.061	0.296
-148.589	66.489	0.167	0.170
-147.574	-175.072	-0.372	0.010
-146.560	7.584	-0.182	-0.136
-145.545	-85.503	-0.130	-0.041
-144.531	-102.698	0.196	-0.047
-143.516	193.930	-0.109	0.165
-142.502	-125.513	-0.267	-0.041
-141.487	-48.092	-0.076	0.037
-140.472	54.805	0.186	-0.180
-139.458	-4.871	-0.136	-0.094
-138.443	-47.539	-0.190	-0.092
-137.429	534.218	0.024	-0.058
-136.414	-200.000	-0.014	-0.120
-135.399	-28.000	0.178	0.103
-134.385	-106.790	0.537	-0.119
-133.370	-200.000	-0.060	0.301
-132.356	78.875	0.325	-0.348
-131.341	247.813	0.141	0.238
-130.326	-7.632	-0.170	-0.115
-129.312	-200.000	0.069	-0.434
-128.297	-200.000	0.040	-0.177
-127.283	-31.624	0.312	-0.176
-126.268	-93.767	-0.123	0.034
-125.253	224.152	0.095	0.154
-124.239	-79.163	0.302	-0.102
-123.224	74.207	0.062	-0.065
-122.210	19.689	-0.116	0.094
-121.195	-64.520	0.073	-0.030
