DTS Sentinel unit serial number:	SN413079Multiplexer serial number:	ORYXHardware model number:	OX4-SRSoftware version number:	ORYX F/W v4.00 Oryx Data Collector v3.7.2.0data status	okinstallation	princeton_trtdifferential loss correction	single-endedforward channel	channel 3reverse channel	N/Adate	2019/09/12time	11:50:11forward acquisition time	60.00reverse acquisition time	0.00gamma	496.2192k internal	0.2293k external	0.2293temperature offset calibration	1.0042default loss term (dB/km)	0.3790temperature slope calibration	1.0000multiplexer offset coefficient	1.0000multiplexer slope coefficient	1.0000fibre end	0.00T internal ref (°C)	39.97T ext. ref 1 (°C)	2.03T ext. ref 2 (°C)	37.65length (m)	temperature (°C)	Stokes	anti-Stokes-747.200	-66.261	0.274	0.112
-746.185	61.338	-0.203	0.206
-745.171	-117.201	0.178	0.033
-744.156	137.559	0.146	-0.195
-743.142	163.146	-0.174	-0.250
-742.127	-14.327	0.175	0.115
-741.112	-200.000	-0.005	0.059
-740.098	-200.000	0.055	0.332
-739.083	-200.000	-0.013	-0.142
-738.069	20.389	0.294	0.243
-737.054	232.742	0.303	0.509
-736.039	-163.202	-0.168	-0.008
-735.025	587.221	-0.013	0.033
-734.010	-50.231	-0.294	-0.142
-732.996	59.020	-0.118	-0.119
-731.981	275.221	-0.088	0.160
-730.966	158.804	-0.069	0.099
-729.952	-200.000	0.003	0.277
-728.937	-63.610	0.147	0.062
-727.923	-16.945	0.033	0.021
-726.908	36.568	0.219	0.198
-725.894	800.000	0.045	0.144
-724.879	226.436	-0.225	-0.373
-723.864	-200.000	0.004	0.360
-722.850	-200.000	0.017	0.262
-721.835	-177.500	0.193	-0.005
-720.821	-72.699	0.334	0.126
-719.806	-27.772	0.270	0.160
-718.791	23.679	0.195	-0.164
-717.777	-116.314	-0.196	-0.037
-716.762	42.553	0.201	0.187
-715.748	-7.585	0.163	0.113
-714.733	138.089	-0.193	0.259
-713.718	-60.628	-0.182	-0.079
-712.704	800.000	-0.026	0.085
-711.689	800.000	0.098	0.288
-710.675	-200.000	0.037	-0.193
-709.660	-49.212	-0.121	0.059
-708.645	-72.349	0.339	0.128
-707.631	239.543	0.078	0.133
-706.616	-84.297	-0.110	-0.035
-705.602	-39.986	0.194	0.104
-704.587	-42.778	0.211	0.110
-703.572	-122.856	0.171	-0.028
-702.558	455.042	0.178	0.404
-701.543	-200.000	-0.028	0.205
-700.529	800.000	0.051	0.189
-699.514	84.097	0.056	-0.063
-698.499	13.752	-0.356	-0.283
-697.485	33.537	-0.068	0.060
-696.470	309.410	0.149	0.285
-695.456	-3.313	-0.077	0.055
-694.441	13.509	0.140	-0.111
-693.426	-123.113	0.292	0.048
-692.412	-71.812	0.199	0.076
-691.397	-49.188	0.289	0.141
-690.383	-97.375	-0.127	0.034
-689.368	158.418	-0.253	-0.358
-688.354	-109.167	-0.047	0.010
-687.339	40.919	0.150	0.138
-686.324	-4.622	0.099	-0.070
-685.310	23.591	0.128	-0.108
-684.295	-200.000	-0.072	-0.344
-683.281	-99.532	-0.363	-0.093
-682.266	150.953	0.154	0.213
-681.251	-149.844	0.268	0.021
-680.237	462.352	0.044	0.099
-679.222	-62.151	0.182	0.078
-678.208	67.647	-0.404	-0.421
-677.193	209.596	0.115	0.184
-676.178	323.665	-0.192	0.374
-675.164	-1.700	-0.118	-0.085
-674.149	66.433	-0.140	-0.145
-673.135	-11.137	-0.016	-0.011
-672.120	28.326	0.070	0.060
-671.105	26.283	0.084	0.071
-670.091	109.398	-0.249	-0.305
-669.076	800.000	-0.094	-0.327
-668.062	129.730	0.152	-0.198
-667.047	-124.333	0.230	0.037
-666.032	679.410	0.032	0.085
-665.018	-139.337	0.281	0.031
-664.003	800.000	-0.046	0.164
-662.989	-200.000	0.020	-0.252
-661.974	-10.513	-0.190	0.128
-660.959	25.787	-0.131	-0.111
-659.945	-16.879	0.026	0.017
-658.930	-80.432	0.246	-0.084
-657.916	800.000	0.035	0.156
-656.901	-175.256	-0.172	0.005
-655.886	368.277	-0.118	-0.243
-654.872	-15.880	0.125	-0.081
-653.857	800.000	-0.069	0.195
-652.843	-60.858	0.070	0.030
-651.828	162.926	-0.279	-0.400
-650.814	67.249	-0.345	-0.359
-649.799	-75.778	0.221	-0.080
-648.784	58.474	-0.140	-0.140
-647.770	-33.739	0.069	0.039
-646.755	800.000	0.045	0.185
-645.741	154.133	0.053	0.074
-644.726	-109.356	-0.081	-0.017
-643.711	57.987	0.036	-0.036
-642.697	800.000	-0.085	-0.297
-641.682	-132.490	0.168	-0.022
-640.668	-200.000	0.027	-0.126
-639.653	22.524	0.058	-0.049
-638.638	181.060	-0.050	-0.075
-637.624	572.104	0.136	-0.338
-636.609	312.424	0.061	0.117
-635.595	-200.000	0.004	0.216
-634.580	304.089	0.149	-0.282
-633.565	-200.000	0.010	-0.496
-632.551	-107.783	-0.091	0.020
-631.536	346.616	0.100	-0.199
-630.522	-200.000	-0.039	0.243
-629.507	-123.611	0.293	-0.047
-628.492	-103.385	0.169	0.041
-627.478	-145.341	0.304	-0.028
-626.463	-155.909	-0.228	0.015
-625.449	95.888	-0.253	0.295
-624.434	62.209	0.118	0.120
-623.419	5.771	0.029	0.022
-622.405	800.000	-0.100	-0.343
-621.390	-200.000	0.013	0.106
-620.376	47.316	-0.264	0.250
-619.361	-26.429	-0.171	-0.102
-618.346	480.223	0.030	-0.069
-617.332	-44.766	-0.321	0.163
-616.317	187.116	0.091	0.139
-615.303	-56.096	0.182	0.082
-614.288	119.350	0.016	-0.020
-613.273	122.188	0.274	0.349
-612.259	-200.000	0.002	-0.135
-611.244	30.068	0.143	0.124
-610.230	-127.495	-0.271	0.040
-609.215	-40.543	0.207	-0.109
-608.201	-12.754	-0.100	0.066
-607.186	-162.616	-0.267	-0.013
-606.171	4.294	0.402	0.300
-605.157	54.349	0.358	-0.351
-604.142	507.863	-0.025	-0.060
-603.128	-15.488	0.235	-0.152
-602.113	106.939	0.058	0.070
-601.098	800.000	-0.146	0.454
-600.084	-124.463	0.056	0.009
-599.069	-200.000	0.012	-0.169
-598.055	-73.868	0.185	-0.068
-597.040	139.146	-0.191	-0.255
-596.025	568.480	0.033	0.082
-595.011	141.038	-0.043	0.058
-593.996	27.619	0.195	0.167
-592.982	402.505	0.191	-0.408
-591.967	155.773	-0.104	0.145
-590.952	-200.000	-0.009	0.130
-589.938	-200.000	0.016	-0.149
-588.923	184.120	-0.086	-0.130
-587.909	800.000	-0.051	0.145
-586.894	-200.000	-0.001	-0.045
-585.879	-123.659	0.193	-0.031
-584.865	-77.189	-0.282	0.100
-583.850	-200.000	-0.045	-0.228
-582.836	29.737	-0.050	-0.043
-581.821	800.000	0.030	-0.111
-580.806	340.868	-0.079	0.157
-579.792	-122.847	-0.145	-0.024
-578.777	-76.691	-0.248	0.088
-577.763	-154.897	-0.118	0.008
-576.748	-100.967	0.322	-0.080
-575.733	-117.669	-0.168	-0.031
-574.719	51.159	0.132	0.127
-573.704	-117.353	-0.067	0.012
-572.690	-147.193	-0.101	0.009
-571.675	-76.010	0.234	-0.084
-570.661	-130.683	0.134	0.018
-569.646	70.585	-0.523	0.550
-568.631	-119.180	0.136	-0.024
-567.617	-133.904	0.166	0.021
-566.602	-200.000	-0.019	0.177
-565.588	-154.110	-0.178	-0.012
-564.573	-200.000	-0.068	-0.449
-563.558	50.707	-0.150	0.145
-562.544	-45.933	-0.179	-0.089
-561.529	-200.000	0.016	-0.306
-560.515	-58.504	-0.291	0.128
-559.500	479.382	-0.061	0.141
-558.485	146.169	0.127	0.173
-557.471	-49.400	0.147	-0.071
-556.456	102.025	0.107	0.127
-555.442	-102.077	-0.478	0.117
-554.427	-200.000	-0.022	-0.168
-553.412	-34.516	0.144	0.080
-552.398	-106.968	-0.115	0.026
-551.383	800.000	0.097	-0.355
-550.369	-175.088	0.437	-0.012
-549.354	345.445	-0.170	-0.339
-548.339	109.320	-0.155	-0.189
-547.325	188.437	0.104	-0.159
-546.310	800.000	0.034	-0.100
-545.296	110.348	0.071	-0.086
-544.281	-121.306	-0.504	0.085
-543.266	-133.863	0.259	0.033
-542.252	137.591	-0.120	-0.159
-541.237	-81.324	-0.330	0.111
-540.223	-200.000	-0.026	-0.233
-539.208	12.788	0.179	0.140
-538.193	-27.706	0.113	-0.067
-537.179	36.071	0.244	-0.218
-536.164	213.483	-0.155	0.248
-535.150	674.710	-0.076	0.199
-534.135	169.894	-0.187	0.272
-533.121	-17.445	0.095	0.061
-532.106	228.969	0.189	0.312
-531.091	-17.424	-0.120	0.076
-530.077	800.000	0.038	-0.113
-529.062	-200.000	-0.038	0.498
-528.048	591.018	-0.079	-0.199
-527.033	-200.000	-0.014	-0.190
-526.018	189.012	0.147	0.223
-525.004	-200.000	0.003	-0.183
-523.989	43.939	-0.112	-0.104
-522.975	312.313	0.051	-0.097
-521.960	310.306	-0.117	0.222
-520.945	111.414	-0.207	-0.253
-519.931	-99.152	0.202	0.052
-518.916	800.000	-0.102	-0.301
-517.902	-200.000	0.005	0.124
-516.887	37.552	0.151	-0.136
-515.872	139.275	0.199	-0.265
-514.858	78.983	-0.122	-0.132
-513.843	-95.247	-0.243	0.066
-512.829	188.059	0.094	0.142
-511.814	33.790	0.150	0.132
-510.799	800.000	-0.047	0.184
-509.785	334.250	0.226	-0.443
-508.770	-200.000	0.003	-0.165
-507.756	-200.000	-0.011	-0.069
-506.741	800.000	-0.055	0.237
-505.726	-166.030	0.250	0.011
-504.712	-13.115	-0.075	0.049
-503.697	-71.724	0.131	0.050
-502.683	113.160	-0.099	-0.121
-501.668	118.676	0.101	-0.127
-500.653	800.000	-0.042	0.142
-499.639	-200.000	-0.014	0.140
-498.624	93.952	-0.198	-0.228
-497.610	426.979	-0.040	0.088
-496.595	117.673	0.173	-0.215
-495.581	162.436	-0.130	-0.185
-494.566	-200.000	0.025	-0.190
-493.551	-153.937	-0.244	0.017
-492.537	243.458	-0.093	-0.157
-491.522	-92.193	0.199	-0.057
-490.508	102.906	-0.284	0.337
-489.493	-200.000	-0.033	-0.299
-488.478	570.425	0.168	-0.413
-487.464	-200.000	0.002	0.234
-486.449	18.598	-0.302	0.245
-485.435	24.956	-0.098	-0.082
-484.420	-200.000	0.111	0.509
-483.405	132.329	0.023	0.030
-482.391	-130.125	-0.228	0.032
-481.376	-191.869	-0.283	0.003
-480.362	23.621	-0.077	-0.064
-479.347	-31.678	-0.250	-0.142
-478.332	-154.554	0.218	-0.015
-477.318	284.363	0.050	-0.091
-476.303	248.639	0.173	0.297
-475.289	-200.000	0.014	-0.082
-474.274	800.000	-0.009	-0.032
-473.259	-8.943	-0.167	-0.114
-472.245	-13.863	-0.297	0.194
-471.230	48.981	0.104	0.099
-470.216	-45.130	0.143	0.072
-469.201	-200.000	-0.003	0.135
-468.186	800.000	0.032	0.100
-467.172	122.223	0.129	0.163
-466.157	600.498	-0.142	0.358
-465.143	-31.503	-0.144	0.082
-464.128	300.421	0.079	0.148
-463.113	69.803	-0.135	0.141
-462.099	-27.528	0.195	0.115
-461.084	-133.675	0.453	-0.057
-460.070	36.096	0.288	0.256
-459.055	464.557	-0.187	0.423
-458.040	-200.000	-0.002	0.106
-457.026	-94.992	-0.151	0.041
-456.011	-200.000	-0.043	0.250
-454.997	411.855	0.085	-0.183
-453.982	-115.794	-0.141	-0.027
-452.968	-69.322	0.490	-0.190
-451.953	-3.892	-0.073	-0.051
-450.938	-3.160	-0.264	-0.187
-449.924	644.713	-0.113	0.293
-448.909	40.859	0.054	0.049
-447.895	14.093	-0.350	-0.275
-446.880	-70.126	0.335	-0.129
-445.865	-47.400	-0.250	0.123
-444.851	-69.637	0.200	-0.077
-443.836	-112.129	-0.083	-0.017
-442.822	-200.000	0.013	-0.465
-441.807	72.697	0.139	0.147
-440.792	-10.263	0.212	-0.142
-439.778	88.354	0.118	0.133
-438.763	800.000	0.060	0.170
-437.749	-95.301	0.275	-0.075
-436.734	280.762	0.063	-0.114
-435.719	370.453	0.110	0.225
-434.705	323.419	-0.090	0.174
-433.690	-84.338	-0.182	0.058
-432.676	-106.335	0.195	0.044
-431.661	30.429	0.160	-0.139
-430.646	359.782	0.080	-0.162
-429.632	71.966	-0.177	-0.186
-428.617	-42.270	0.257	0.133
-427.603	-200.000	-0.004	0.387
-426.588	33.091	-0.252	0.220
-425.573	100.284	0.073	0.086
-424.559	-125.728	-0.499	-0.076
-423.544	-200.000	-0.033	0.229
-422.530	800.000	-0.058	0.164
-421.515	800.000	0.077	-0.272
-420.500	-89.742	0.223	0.066
-419.486	-160.970	-0.119	-0.006
-418.471	3.534	-0.281	0.207
-417.457	-110.998	0.264	-0.055
-416.442	-92.040	-0.268	0.077
-415.428	-200.000	-0.014	-0.126
-414.413	96.155	0.045	-0.052
-413.398	-175.769	-0.315	-0.009
-412.384	37.605	-0.250	0.224
-411.369	800.000	-0.028	-0.107
-410.355	-82.704	-0.181	0.059
-409.340	800.000	0.043	-0.162
-408.325	303.144	-0.044	0.083
-407.311	-200.000	0.089	-0.440
-406.296	-124.251	0.107	-0.017
-405.282	-31.301	-0.143	-0.081
-404.267	55.023	-0.165	0.161
-403.252	754.983	0.028	-0.078
-402.238	79.043	0.133	-0.143
-401.223	800.000	0.062	0.212
-400.209	87.365	0.168	-0.188
-399.194	62.749	0.136	0.137
-398.179	-98.183	-0.095	0.025
-397.165	-170.420	0.094	-0.003
-396.150	147.362	-0.225	0.306
-395.136	800.000	-0.076	-0.218
-394.121	800.000	0.054	-0.157
-393.106	-108.502	-0.158	0.034
-392.092	-108.117	0.296	-0.065
-391.077	-98.656	0.163	0.042
-390.063	1.530	0.158	0.114
-389.048	33.817	-0.155	-0.136
-388.033	240.002	-0.058	-0.097
-387.019	328.497	0.045	-0.088
-386.004	-73.557	0.157	-0.058
-384.990	-200.000	0.075	0.342
-383.975	-122.120	-0.160	0.027
-382.960	-113.429	-0.225	-0.044
-381.946	-88.476	-0.070	-0.021
-380.931	21.508	-0.136	0.112
-379.917	-104.058	0.118	-0.028
-378.902	800.000	-0.052	0.175
-377.888	-45.683	-0.164	0.082
-376.873	-50.145	-0.208	0.099
-375.858	7.829	0.166	0.126
-374.844	6.469	-0.399	-0.299
-373.829	79.758	-0.185	0.200
-372.815	100.922	-0.084	0.099
-371.800	742.688	-0.088	-0.239
-370.785	-141.297	0.480	0.049
-369.771	9.293	-0.100	-0.076
-368.756	-200.000	0.013	-0.180
-367.742	-106.785	-0.070	-0.016
-366.727	80.625	-0.234	-0.254
-365.712	139.233	-0.297	0.394
-364.698	-118.865	-0.266	-0.047
-363.683	-128.546	-0.192	0.027
-362.669	9.386	0.073	0.055
-361.654	-122.663	0.353	-0.058
-360.639	-124.799	0.074	0.012
-359.625	181.288	-0.145	0.214
-358.610	-200.000	-0.015	-0.153
-357.596	175.495	0.083	-0.122
-356.581	204.939	0.045	-0.070
-355.566	-49.556	-0.251	-0.121
-354.552	-200.000	-0.011	-0.310
-353.537	-125.265	0.368	0.057
-352.523	-141.021	-0.150	0.016
-351.508	-200.000	-0.021	0.301
-350.493	-22.910	0.387	0.235
-349.479	-200.000	0.018	0.137
-348.464	800.000	0.063	-0.216
-347.450	-200.000	0.017	-0.173
-346.435	-79.345	0.389	0.133
-345.420	-200.000	-0.005	0.340
-344.406	-200.000	-0.052	0.255
-343.391	-37.729	0.193	0.103
-342.377	444.207	-0.192	0.425
-341.362	-94.949	-0.036	0.010
-340.348	-85.498	0.108	-0.034
-339.333	-165.368	0.162	-0.007
-338.318	-50.921	0.154	0.073
-337.304	-23.459	0.246	0.149
-336.289	-200.000	0.003	0.182
-335.275	-116.257	-0.345	0.064
-334.260	327.285	-0.036	-0.070
-333.245	60.267	0.103	0.102
-332.231	26.434	-0.310	-0.261
-331.216	-82.127	0.193	-0.063
-330.202	-200.000	0.045	-0.491
-329.187	-200.000	-0.004	-0.153
-328.172	22.476	0.200	0.165
-327.158	-100.897	-0.182	-0.045
-326.143	181.703	0.089	0.131
-325.129	800.000	0.041	-0.155
-324.114	-198.147	-0.340	0.002
-323.099	41.306	-0.187	0.170
-322.085	-57.870	0.077	0.034
-321.070	-111.298	-0.203	0.042
-320.056	159.873	-0.076	-0.107
-319.041	-82.064	0.197	-0.065
-318.026	-124.238	0.088	-0.014
-317.012	242.624	-0.066	-0.111
-315.997	-84.452	-0.133	0.042
-314.983	322.262	0.133	0.255
-313.968	-72.378	0.110	0.041
-312.953	-38.904	-0.178	-0.094
-311.939	174.908	0.005	0.008
-310.924	-15.045	-0.269	0.173
-309.910	800.000	0.084	-0.315
-308.895	-200.000	0.022	0.180
-307.880	-175.397	-0.170	-0.005
-306.866	-200.000	0.020	-0.164
-305.851	-200.000	-0.001	-0.178
-304.837	258.423	0.068	-0.118
-303.822	-40.007	0.243	0.128
-302.807	47.185	-0.254	0.238
-301.793	-43.600	0.227	0.115
-300.778	401.354	-0.172	0.364
-299.764	76.922	-0.137	-0.146
-298.749	255.301	-0.114	0.196
-297.735	4.843	-0.223	-0.165
-296.720	-200.000	0.043	-0.239
-295.705	800.000	-0.117	-0.354
-294.691	-90.458	-0.180	-0.052
-293.676	142.159	-0.115	0.154
-292.662	-83.993	-0.313	-0.100
-291.647	51.526	0.064	-0.061
-290.632	-67.282	-0.061	0.024
-289.618	-66.264	-0.019	0.008
-288.603	47.842	-0.090	-0.084
-287.589	-200.000	0.010	-0.154
-286.574	-200.000	0.042	-0.215
-285.559	-14.486	0.113	-0.073
-284.545	-143.870	0.246	-0.023
-283.530	286.958	0.061	0.111
-282.516	-34.251	0.370	-0.204
-281.501	-7.036	0.160	0.109
-280.486	273.095	0.116	-0.206
-279.472	8.893	0.286	-0.217
-278.457	-115.434	0.228	-0.043
-277.443	89.572	0.103	0.115
-276.428	-69.893	0.063	0.024
-275.413	-52.824	-0.236	0.109
-274.399	-200.000	0.033	0.167
-273.384	77.068	0.077	0.082
-272.370	563.171	-0.045	0.111
-271.355	-118.213	0.397	0.071
-270.340	27.110	0.246	-0.207
-269.326	-200.000	-0.009	0.218
-268.311	-11.473	-0.074	0.049
-267.297	16.364	0.124	-0.098
-266.282	-195.733	0.187	-0.001
-265.267	-139.780	0.324	-0.034
-264.253	221.042	-0.079	0.127
-263.238	292.717	0.158	-0.288
-262.224	-19.655	0.040	-0.025
-261.209	62.979	0.108	-0.108
-260.195	-125.092	-0.324	-0.050
-259.180	24.126	0.138	-0.114
-258.165	157.532	-0.089	-0.123
-257.151	442.604	-0.005	0.012
-256.136	16.706	0.152	-0.120
-255.122	-68.341	0.178	-0.069
-254.107	650.135	-0.043	0.110
-253.092	-193.941	-0.221	-0.002
-252.078	-50.275	0.252	-0.119
-251.063	236.580	-0.105	0.175
-250.049	-79.333	-0.252	-0.085
-249.034	-197.365	0.153	-0.001
-248.019	-126.741	-0.336	-0.050
-247.005	800.000	0.029	-0.091
-245.990	127.750	-0.072	-0.092
-244.976	134.729	0.070	-0.091
-243.961	70.221	0.234	0.243
-242.946	694.155	-0.083	0.219
-241.932	-200.000	-0.030	-0.258
-240.917	-103.005	0.297	-0.071
-239.903	-200.000	0.004	0.058
-238.888	-200.000	-0.074	-0.324
-237.873	64.912	-0.134	0.136
-236.859	-53.347	0.165	-0.076
-235.844	-200.000	0.001	0.108
-234.830	-110.969	-0.267	-0.055
-233.815	-49.429	-0.135	0.065
-232.800	-200.000	0.034	-0.229
-231.786	-200.000	0.013	-0.201
-230.771	-192.623	0.456	-0.004
-229.757	-200.000	0.004	0.034
-228.742	-200.000	-0.009	-0.285
-227.727	299.093	0.029	0.054
-226.713	-135.675	-0.095	-0.011
-225.698	643.771	-0.052	-0.132
-224.684	800.000	0.128	0.368
-223.669	188.065	-0.219	0.327
-222.655	-43.424	-0.144	-0.073
-221.640	102.462	-0.048	-0.056
-220.625	213.460	0.183	-0.290
-219.611	-10.703	0.161	-0.107
-218.596	-96.216	-0.198	0.053
-217.582	-71.661	-0.153	-0.057
-216.567	-118.733	0.168	0.030
-215.552	800.000	0.064	0.217
-214.538	472.607	0.148	0.335
-213.523	-77.340	0.092	-0.032
-212.509	26.103	0.036	0.030
-211.494	-200.000	-0.013	0.315
-210.479	408.370	0.042	-0.089
-209.465	-200.000	0.006	-0.140
-208.450	-200.000	0.015	0.137
-207.436	-89.571	0.158	0.046
-206.421	226.150	0.126	-0.204
-205.406	132.053	0.205	-0.265
-204.392	-5.042	-0.108	0.074
-203.377	117.179	0.066	0.082
-202.363	800.000	-0.064	0.275
-201.348	-115.944	-0.254	-0.048
-200.333	-87.828	-0.110	-0.033
-199.319	179.565	0.109	0.160
-198.304	167.779	-0.134	-0.190
-197.290	800.000	0.059	-0.206
-196.275	800.000	-0.108	-0.378
-195.260	800.000	-0.055	-0.223
-194.246	28.467	0.148	-0.126
-193.231	12.968	-0.352	0.273
-192.217	-11.600	-0.291	0.192
-191.202	37.803	0.143	-0.127
-190.187	694.665	0.089	0.235
-189.173	-200.000	0.018	-0.176
-188.158	-72.273	-0.219	-0.081
-187.144	-67.654	0.325	-0.128
-186.129	-6.301	0.078	0.053
-185.114	104.293	-0.241	-0.284
-184.100	307.769	-0.102	0.191
-183.085	800.000	0.074	-0.220
-182.071	48.202	0.045	0.042
-181.056	31.827	-0.148	0.127
-180.042	-39.993	-0.131	0.068
-179.027	800.000	-0.054	0.196
-178.012	67.570	0.093	0.095
-176.998	-200.000	0.040	0.288
-175.983	514.224	0.051	0.118
-174.969	96.599	0.232	-0.265
-173.954	-161.081	0.109	0.006
-172.939	-200.000	0.047	-0.220
-171.925	-59.534	0.227	0.098
-170.910	-134.675	-0.215	0.026
-169.896	-200.000	0.015	0.114
-168.881	-200.000	-0.029	0.310
-167.866	301.619	0.277	0.513
-166.852	40.689	-0.081	0.073
-165.837	16.097	-0.123	-0.097
-164.823	-200.000	0.047	-0.298
-163.808	274.261	-0.109	-0.192
-162.793	-46.919	0.088	-0.043
-161.779	-124.139	-0.034	-0.005
-160.764	116.626	-0.138	0.169
-159.750	-12.718	-0.240	0.157
-158.735	23.186	-0.248	0.203
-157.720	-90.816	0.085	-0.024
-156.706	24.628	0.174	-0.144
-155.691	393.426	-0.245	-0.511
-154.677	54.292	0.054	-0.052
-153.662	31.168	0.129	-0.110
-152.647	-200.000	-0.026	0.143
-151.633	28.242	0.171	0.144
-150.618	-79.885	0.180	0.061
-149.604	90.260	0.176	-0.196
-148.589	1.845	-0.162	0.117
-147.574	280.731	-0.164	-0.294
-146.560	189.622	0.077	0.115
-145.545	77.914	-0.146	-0.155
-144.531	24.210	-0.074	-0.061
-143.516	400.183	-0.054	0.114
-142.502	6.724	-0.229	0.171
-141.487	218.827	-0.054	-0.087
-140.472	74.929	-0.157	0.165
-139.458	130.743	0.218	0.279
-138.443	444.593	0.097	0.212
-137.429	32.232	0.114	-0.099
-136.414	-161.435	0.323	-0.017
-135.399	11.420	0.081	0.062
-134.385	154.051	0.114	-0.156
-133.370	800.000	0.041	-0.138
-132.356	493.663	-0.071	0.162
-131.341	731.699	0.073	0.195
-130.326	-200.000	0.022	-0.237
-129.312	-162.760	0.081	0.004
-128.297	-200.000	-0.034	0.209
-127.283	-6.922	0.269	-0.183
-126.268	535.751	0.028	-0.067
-125.253	94.236	0.143	0.162
-124.239	660.721	0.040	0.102
-123.224	-200.000	-0.008	-0.136
-122.210	-200.000	0.033	-0.368
-121.195	512.637	-0.039	0.090
-120.180	-139.577	-0.127	-0.014
