DTS Sentinel unit serial number:	SN413079Multiplexer serial number:	ORYXHardware model number:	OX4-SRSoftware version number:	ORYX F/W v4.00 Oryx Data Collector v3.7.2.0data status	okinstallation	princeton_trtdifferential loss correction	single-endedforward channel	channel 3reverse channel	N/Adate	2019/09/17time	12:48:35forward acquisition time	60.00reverse acquisition time	0.00gamma	496.2192k internal	0.2314k external	0.2314temperature offset calibration	0.9960default loss term (dB/km)	0.3790temperature slope calibration	1.0000multiplexer offset coefficient	1.0000multiplexer slope coefficient	1.0000fibre end	0.00T internal ref (°C)	32.73T ext. ref 1 (°C)	0.43T ext. ref 2 (°C)	30.97length (m)	temperature (°C)	Stokes	anti-Stokes-747.200	64.305	0.065	0.067
-746.185	35.022	0.254	0.225
-745.171	52.733	0.080	0.078
-744.156	800.000	-0.060	0.211
-743.142	587.150	-0.083	0.208
-742.127	104.532	0.084	-0.101
-741.112	135.385	-0.221	-0.292
-740.098	300.075	-0.133	0.249
-739.083	-0.017	-0.060	0.044
-738.069	-200.000	-0.025	0.411
-737.054	-125.206	0.142	-0.022
-736.039	-200.000	0.021	-0.385
-735.025	221.156	0.079	-0.129
-734.010	238.114	-0.138	-0.232
-732.996	-200.000	-0.021	-0.184
-731.981	-34.150	-0.316	-0.176
-730.966	800.000	0.032	0.110
-729.952	-144.775	0.147	0.014
-728.937	-94.548	-0.041	-0.011
-727.923	-50.217	-0.361	0.173
-726.908	42.452	0.119	-0.109
-725.894	41.347	-0.160	-0.147
-724.879	189.586	-0.051	-0.077
-723.864	590.559	0.122	0.305
-722.850	-200.000	-0.042	0.322
-721.835	51.803	-0.150	-0.144
-720.821	-125.161	-0.026	0.004
-719.806	-60.131	-0.331	-0.143
-718.791	-136.043	0.023	0.003
-717.777	381.044	0.156	0.324
-716.762	-200.000	0.031	-0.363
-715.748	-88.840	-0.242	-0.073
-714.733	-200.000	0.002	-0.035
-713.718	407.730	0.081	-0.173
-712.704	242.971	-0.016	0.028
-711.689	83.345	-0.128	-0.141
-710.675	247.614	-0.208	0.356
-709.660	213.698	0.048	-0.078
-708.645	-115.501	0.080	0.015
-707.631	800.000	-0.020	-0.063
-706.616	-74.572	-0.180	-0.066
-705.602	59.681	0.218	-0.218
-704.587	-200.000	0.020	-0.291
-703.572	278.241	-0.107	0.193
-702.558	22.585	-0.291	0.241
-701.543	-20.855	0.166	-0.103
-700.529	-200.000	-0.015	-0.303
-699.514	15.539	0.214	-0.170
-698.499	-200.000	-0.011	0.103
-697.485	535.999	0.087	-0.209
-696.470	-200.000	-0.002	0.026
-695.456	-157.351	0.199	0.012
-694.441	31.561	-0.213	-0.185
-693.426	-200.000	0.068	-0.373
-692.412	-24.176	0.080	-0.049
-691.397	-200.000	0.028	-0.249
-690.383	-8.897	-0.147	0.100
-689.368	-185.927	0.119	0.002
-688.354	124.723	0.043	0.055
-687.339	-16.198	-0.193	0.124
-686.324	-129.585	-0.326	-0.046
-685.310	143.724	-0.032	0.043
-684.295	22.929	-0.171	0.141
-683.281	258.900	-0.034	-0.059
-682.266	-61.316	0.303	-0.129
-681.251	-61.388	-0.236	0.101
-680.237	436.708	-0.041	-0.091
-679.222	-200.000	0.036	-0.248
-678.208	628.258	-0.034	-0.088
-677.193	196.466	-0.103	-0.158
-676.178	29.382	0.300	-0.258
-675.164	-85.474	-0.269	-0.085
-674.149	227.226	0.199	-0.327
-673.135	-200.000	0.027	-0.401
-672.120	-44.627	-0.186	0.094
-671.105	242.874	-0.089	-0.151
-670.091	-72.307	0.293	-0.110
-669.076	151.194	-0.110	-0.152
-668.062	-200.000	-0.013	0.231
-667.047	202.475	0.043	0.067
-666.032	773.369	0.131	0.360
-665.018	-83.811	-0.263	-0.085
-664.003	119.387	0.103	-0.129
-662.989	-166.409	-0.066	-0.003
-661.974	-124.455	-0.133	0.021
-660.959	66.559	-0.202	0.207
-659.945	-163.027	0.052	0.003
-658.930	-127.787	-0.470	-0.069
-657.916	279.087	0.137	-0.246
-656.901	358.554	0.094	0.189
-655.886	-200.000	0.106	0.598
-654.872	800.000	-0.024	0.097
-653.857	-12.323	-0.142	-0.094
-652.843	116.229	-0.160	-0.198
-651.828	104.674	-0.202	0.241
-650.814	-200.000	-0.006	0.233
-649.799	-200.000	-0.033	0.207
-648.784	-200.000	-0.014	0.386
-647.770	-170.492	-0.211	0.007
-646.755	800.000	-0.101	-0.379
-645.741	-200.000	0.013	0.095
-644.726	157.506	-0.072	0.101
-643.711	-200.000	-0.005	0.255
-642.697	104.496	0.166	-0.197
-641.682	-16.641	0.298	-0.191
-640.668	255.517	0.111	-0.193
-639.653	800.000	0.058	-0.202
-638.638	438.387	-0.053	0.116
-637.624	-137.622	0.171	-0.019
-636.609	221.547	0.171	-0.277
-635.595	295.179	0.040	-0.075
-634.580	310.953	0.047	-0.089
-633.565	-33.323	0.316	0.177
-632.551	-142.042	-0.149	-0.015
-631.536	-96.256	0.259	-0.069
-630.522	-87.709	-0.364	0.111
-629.507	290.154	-0.139	0.254
-628.492	-200.000	0.032	0.222
-627.478	800.000	-0.013	-0.046
-626.463	-93.726	-0.051	-0.014
-625.449	-92.102	0.112	0.032
-624.434	800.000	-0.031	0.134
-623.419	142.734	0.059	0.079
-622.405	-135.187	-0.221	-0.027
-621.390	-101.250	-0.140	0.035
-620.376	-126.267	-0.293	-0.044
-619.361	-200.000	-0.011	-0.359
-618.346	262.565	-0.027	-0.048
-617.332	12.834	0.213	-0.166
-616.317	113.497	-0.183	-0.224
-615.303	52.545	0.068	0.065
-614.288	5.767	-0.162	-0.121
-613.273	-76.183	-0.250	0.089
-612.259	134.685	-0.115	-0.151
-611.244	533.938	-0.041	0.097
-610.230	120.334	-0.266	-0.333
-609.215	274.983	-0.078	-0.140
-608.201	-82.883	-0.284	0.093
-607.186	-54.245	-0.294	-0.134
-606.171	-33.882	-0.505	0.281
-605.157	185.758	-0.035	0.053
-604.142	-94.555	-0.407	0.112
-603.128	-131.586	0.393	-0.052
-602.113	-200.000	0.028	0.203
-601.098	-121.048	-0.200	-0.034
-600.084	-100.999	0.180	0.044
-599.069	-93.301	0.163	0.046
-598.055	36.342	-0.146	0.130
-597.040	-65.169	-0.193	0.078
-596.025	102.332	-0.244	0.288
-595.011	-90.289	-0.184	0.054
-593.996	79.593	-0.213	0.231
-592.982	79.881	-0.071	0.077
-591.967	-200.000	-0.008	-0.283
-590.952	-34.313	-0.077	0.042
-589.938	268.384	-0.072	-0.126
-588.923	-148.051	-0.131	-0.011
-587.909	-200.000	0.012	-0.128
-586.894	271.887	-0.148	0.264
-585.879	501.562	-0.065	-0.152
-584.865	-200.000	-0.028	0.202
-583.850	172.610	0.137	0.199
-582.836	-65.444	-0.122	-0.049
-581.821	9.873	0.091	0.070
-580.806	-200.000	0.008	0.148
-579.792	53.374	0.115	0.112
-578.777	188.549	0.160	0.241
-577.763	-27.761	0.179	-0.105
-576.748	-200.000	0.009	0.340
-575.733	800.000	-0.106	0.369
-574.719	-6.336	-0.213	0.147
-573.704	-113.224	-0.211	0.042
-572.690	-106.861	0.161	0.036
-571.675	-66.154	-0.337	-0.135
-570.661	-193.792	-0.263	0.002
-569.646	-138.119	0.374	0.042
-568.631	-53.040	0.110	0.051
-567.617	-200.000	0.043	0.238
-566.602	-177.668	0.231	0.006
-565.588	455.642	-0.137	0.306
-564.573	26.408	-0.025	-0.021
-563.558	61.013	-0.071	0.071
-562.544	-54.864	-0.283	-0.128
-561.529	-113.722	-0.153	0.030
-560.515	-72.910	0.191	-0.071
-559.500	800.000	0.050	0.190
-558.485	-2.260	0.145	-0.103
-557.471	800.000	-0.059	0.197
-556.456	46.481	-0.061	-0.057
-555.442	373.357	-0.089	0.183
-554.427	362.603	-0.083	-0.167
-553.412	161.463	0.118	0.167
-552.398	-57.076	-0.196	0.087
-551.383	-68.658	-0.206	-0.080
-550.369	72.603	-0.142	-0.149
-549.354	-32.153	-0.091	-0.051
-548.339	692.412	-0.087	0.229
-547.325	112.257	-0.032	0.039
-546.310	800.000	0.087	-0.295
-545.296	-29.107	0.103	-0.060
-544.281	-200.000	-0.092	-0.525
-543.266	77.787	-0.195	-0.209
-542.252	-151.683	0.168	0.012
-541.237	-73.370	0.236	0.087
-540.223	28.087	0.222	-0.189
-539.208	-200.000	0.057	-0.259
-538.193	-151.868	-0.419	0.031
-537.179	-146.430	0.258	-0.023
-536.164	-91.513	0.151	-0.043
-535.150	6.988	-0.091	-0.068
-534.135	800.000	-0.069	-0.199
-533.121	-200.000	-0.004	-0.041
-532.106	4.446	-0.306	0.225
-531.091	-134.008	0.214	-0.027
-530.077	41.130	0.171	0.156
-529.062	-91.005	0.251	0.073
-528.048	-95.220	-0.355	0.096
-527.033	-139.299	-0.527	0.057
-526.018	-200.000	-0.012	0.055
-525.004	74.801	0.072	0.076
-523.989	-166.001	-0.190	-0.008
-522.975	-53.414	0.192	-0.089
-521.960	258.972	-0.189	-0.328
-520.945	800.000	0.024	-0.100
-519.931	177.715	-0.105	0.155
-518.916	-86.538	0.242	0.075
-517.902	16.214	0.131	0.104
-516.887	80.169	-0.254	0.274
-515.872	-141.024	-0.131	0.014
-514.858	800.000	-0.054	0.225
-513.843	287.538	-0.034	-0.061
-512.829	800.000	-0.067	-0.239
-511.814	-72.590	0.254	0.094
-510.799	-153.006	0.224	-0.016
-509.785	310.042	0.124	0.233
-508.770	224.221	0.067	0.109
-507.756	-63.486	-0.293	0.121
-506.741	-57.410	-0.257	-0.113
-505.726	393.191	-0.004	0.009
-504.712	201.350	-0.095	0.147
-503.697	-38.151	-0.303	-0.161
-502.683	-87.715	0.226	-0.068
-501.668	-102.117	0.082	-0.020
-500.653	291.062	0.235	0.429
-499.639	-148.570	0.076	-0.006
-498.624	-72.383	-0.093	-0.034
-497.610	-79.795	-0.261	-0.088
-496.595	-200.000	0.018	-0.227
-495.581	-186.395	0.185	0.003
-494.566	89.892	-0.022	-0.024
-493.551	800.000	-0.037	-0.158
-492.537	27.483	0.080	0.067
-491.522	28.603	0.226	-0.192
-490.508	284.782	-0.141	0.254
-489.493	97.269	-0.100	0.115
-488.478	-137.701	-0.212	0.024
-487.464	800.000	0.016	-0.058
-486.449	28.500	-0.309	-0.262
-485.435	-98.329	-0.166	0.043
-484.420	745.919	-0.080	-0.217
-483.405	112.190	0.182	0.221
-482.391	-200.000	0.012	-0.203
-481.376	109.624	0.131	-0.158
-480.362	-51.886	-0.222	-0.104
-479.347	88.697	-0.203	0.227
-478.332	-16.580	0.153	-0.097
-477.318	441.630	0.114	-0.250
-476.303	3.493	0.196	-0.144
-475.289	-66.538	-0.205	-0.082
-474.274	90.951	0.009	0.010
-473.259	-91.758	0.167	-0.048
-472.245	-200.000	0.007	-0.171
-471.230	208.679	-0.135	0.212
-470.216	-200.000	0.007	0.164
-469.201	-68.302	-0.245	0.095
-468.186	139.815	-0.158	0.209
-467.172	436.223	0.045	0.098
-466.157	75.028	-0.017	-0.018
-465.143	-200.000	0.008	-0.058
-464.128	5.089	0.271	0.200
-463.113	-200.000	-0.068	-0.301
-462.099	133.628	0.129	-0.167
-461.084	110.247	-0.053	0.064
-460.070	398.972	-0.159	-0.335
-459.055	-148.462	-0.182	-0.015
-458.040	-132.786	0.087	-0.011
-457.026	-109.328	0.341	0.073
-456.011	14.338	0.086	-0.067
-454.997	-200.000	-0.019	-0.144
-453.982	512.833	0.153	0.357
-452.968	-200.000	0.107	0.000
-451.953	-200.000	0.002	0.247
-450.938	-69.930	0.286	0.109
-449.924	800.000	-0.034	-0.138
-448.909	3.588	-0.049	-0.036
-447.895	42.418	-0.260	-0.237
-446.880	-118.207	0.218	-0.039
-445.865	-200.000	0.047	0.385
-444.851	-12.440	-0.080	-0.053
-443.836	121.004	-0.217	-0.271
-442.822	-200.000	0.037	-0.287
-441.807	153.085	0.022	-0.030
-440.792	-63.638	0.201	0.082
-439.778	-38.542	-0.288	0.152
-438.763	-53.173	-0.334	0.154
-437.749	-16.413	0.192	0.122
-436.734	367.910	0.058	-0.117
-435.719	236.581	0.124	0.206
-434.705	-102.594	0.252	-0.060
-433.690	-154.772	0.411	0.027
-432.676	-65.095	-0.219	0.089
-431.661	800.000	-0.013	-0.043
-430.646	-200.000	0.004	-0.280
-429.632	-200.000	0.007	-0.057
-428.617	-177.412	0.476	0.012
-427.603	-200.000	-0.036	0.225
-426.588	-66.864	-0.279	-0.111
-425.573	570.646	0.027	0.067
-424.559	754.310	0.150	0.406
-423.544	18.567	0.018	-0.015
-422.530	21.187	0.336	-0.273
-421.515	515.933	-0.022	0.050
-420.500	-200.000	0.029	0.233
-419.486	-200.000	-0.010	-0.337
-418.471	23.650	0.190	0.157
-417.457	-10.765	-0.265	0.175
-416.442	-200.000	0.003	-0.028
-415.428	-63.098	-0.326	-0.135
-414.413	143.869	0.229	-0.306
-413.398	-200.000	-0.006	-0.194
-412.384	106.757	0.183	-0.217
-411.369	-97.970	0.194	-0.050
-410.355	-40.450	0.042	-0.022
-409.340	556.276	-0.027	0.066
-408.325	-127.130	-0.069	0.010
-407.311	278.461	0.016	0.028
-406.296	66.361	-0.096	0.098
-405.282	-41.431	0.253	0.130
-404.267	-116.942	-0.267	-0.049
-403.252	216.031	0.171	0.272
-402.238	-200.000	-0.016	0.088
-401.223	370.232	0.075	-0.152
-400.209	-27.735	0.110	0.064
-399.194	119.654	0.156	0.194
-398.179	-200.000	0.047	0.383
-397.165	-200.000	0.003	-0.247
-396.150	800.000	-0.059	0.227
-395.136	-47.864	0.145	0.070
-394.121	-85.458	-0.332	-0.104
-393.106	-10.830	0.244	-0.161
-392.092	219.433	0.111	-0.177
-391.077	-100.696	-0.256	0.063
-390.063	147.480	-0.210	0.283
-389.048	-18.187	0.325	0.203
-388.033	79.762	-0.142	0.153
-387.019	114.035	0.101	-0.123
-386.004	-16.095	-0.081	-0.051
-384.990	159.433	-0.115	-0.160
-383.975	-118.438	0.065	-0.012
-382.960	-124.655	0.289	0.045
-381.946	-5.609	-0.017	-0.011
-380.931	-30.630	0.316	0.179
-379.917	168.658	-0.038	0.054
-378.902	-200.000	-0.039	-0.189
-377.888	391.929	-0.219	-0.455
-376.873	5.325	0.308	-0.227
-375.858	-28.262	-0.191	-0.110
-374.844	-200.000	0.005	-0.102
-373.829	800.000	-0.100	-0.379
-372.815	-0.302	0.318	-0.226
-371.800	-200.000	0.003	0.104
-370.785	20.033	0.154	-0.124
-369.771	-102.227	0.267	-0.064
-368.756	100.813	-0.163	-0.190
-367.742	129.510	-0.097	0.124
-366.727	184.817	0.072	-0.106
-365.712	18.603	0.240	0.191
-364.698	168.812	0.047	-0.067
-363.683	-21.529	0.089	-0.054
-362.669	-200.000	0.033	0.198
-361.654	30.412	-0.112	-0.095
-360.639	113.734	0.277	0.336
-359.625	-12.480	-0.244	0.159
-358.610	-157.764	0.257	-0.015
-357.596	-200.000	-0.043	-0.544
-356.581	-62.947	0.087	0.036
-355.566	-200.000	-0.005	-0.273
-354.552	-85.063	0.341	-0.107
-353.537	800.000	0.113	-0.452
-352.523	-75.611	-0.114	-0.040
-351.508	-55.186	0.232	-0.104
-350.493	-78.031	0.132	0.045
-349.479	667.300	-0.039	0.101
-348.464	137.118	0.397	0.518
-347.450	64.420	0.056	-0.056
-346.435	-9.357	-0.219	0.146
-345.420	-70.457	-0.099	-0.037
-344.406	21.382	-0.409	-0.332
-343.391	-27.019	0.228	-0.133
-342.377	158.817	0.061	-0.084
-341.362	-200.000	0.018	-0.092
-340.348	-182.478	-0.178	0.003
-339.333	-69.635	0.259	-0.099
-338.318	-35.659	-0.142	-0.077
-337.304	-97.179	0.115	-0.030
-336.289	800.000	-0.057	0.159
-335.275	517.578	-0.019	0.044
-334.260	800.000	-0.118	0.418
-333.245	42.343	-0.185	0.168
-332.231	56.970	0.208	-0.202
-331.216	-66.539	0.136	-0.054
-330.202	-157.512	0.406	-0.024
-329.187	-200.000	0.013	0.129
-328.172	260.159	0.155	0.268
-327.158	-200.000	0.046	0.317
-326.143	-22.909	-0.175	0.106
-325.129	-18.286	0.217	0.135
-324.114	-200.000	-0.004	-0.049
-323.099	-200.000	0.024	-0.209
-322.085	-21.237	-0.373	-0.227
-321.070	57.707	-0.170	-0.165
-320.056	160.035	0.095	-0.132
-319.041	142.119	0.191	0.252
-318.026	97.257	0.102	-0.117
-317.012	79.100	0.212	-0.226
-315.997	56.274	-0.357	0.346
-314.983	561.305	0.107	-0.257
-313.968	559.516	0.082	-0.197
-312.953	-115.861	-0.120	-0.022
-311.939	24.007	-0.187	0.154
-310.924	-51.582	-0.205	0.095
-309.910	-54.190	0.061	-0.028
-308.895	-47.534	0.130	0.063
-307.880	-112.596	0.121	0.024
-306.866	90.799	0.099	-0.111
-305.851	-22.853	-0.242	0.145
-304.837	177.699	0.071	0.103
-303.822	800.000	-0.055	0.201
-302.807	19.464	0.145	0.116
-301.793	-73.269	-0.366	-0.134
-300.778	-40.435	-0.255	0.132
-299.764	-34.215	-0.130	-0.071
-298.749	800.000	-0.065	-0.183
-297.735	800.000	0.077	0.233
-296.720	800.000	-0.090	0.295
-295.705	-200.000	0.006	-0.155
-294.691	800.000	-0.058	0.252
-293.676	-200.000	-0.031	0.327
-292.662	282.020	0.195	-0.348
-291.647	-6.131	-0.083	-0.056
-290.632	800.000	-0.033	0.114
-289.618	-112.253	0.209	-0.042
-288.603	-53.086	-0.181	-0.083
-287.589	-200.000	-0.022	-0.182
-286.574	800.000	0.066	0.261
-285.559	-168.658	-0.267	-0.010
-284.545	-200.000	-0.009	-0.114
-283.530	562.130	0.083	0.201
-282.516	-54.978	0.150	0.067
-281.501	126.954	0.008	0.010
-280.486	-10.159	-0.212	0.140
-279.472	800.000	0.083	0.252
-278.457	-52.914	-0.216	0.099
-277.443	-4.696	0.082	0.056
-276.428	571.191	-0.007	-0.017
-275.413	72.550	0.176	-0.183
-274.399	75.006	0.126	0.132
-273.384	558.957	0.083	0.200
-272.370	41.428	0.228	-0.206
-271.355	103.965	0.063	0.074
-270.340	-130.545	0.337	0.045
-269.326	800.000	-0.082	-0.307
-268.311	11.006	-0.208	0.158
-267.297	-59.367	0.078	-0.033
-266.282	46.998	-0.012	0.011
-265.267	-106.846	0.242	0.053
-264.253	-22.842	0.246	-0.148
-263.238	9.898	-0.287	-0.217
-262.224	-23.710	-0.191	0.114
-261.209	-200.000	-0.048	-0.541
-260.195	23.023	-0.086	0.071
-259.180	-90.611	-0.337	0.097
-258.165	231.983	-0.184	-0.300
-257.151	165.693	0.061	0.085
-256.136	-130.965	0.251	0.033
-255.122	-200.000	0.011	0.087
-254.107	375.705	-0.117	0.237
-253.092	154.658	-0.142	0.193
-252.078	316.756	-0.034	0.063
-251.063	800.000	-0.121	0.335
-250.049	54.791	-0.075	-0.072
-249.034	-66.659	0.402	-0.159
-248.019	29.816	-0.305	0.258
-247.005	88.337	0.218	0.241
-245.990	48.950	0.167	0.156
-244.976	137.169	0.173	-0.225
-243.961	281.227	-0.055	0.098
-242.946	-200.000	0.015	0.135
-241.932	382.841	0.191	-0.391
-240.917	163.667	-0.156	-0.218
-239.903	-124.777	-0.272	0.042
-238.888	100.887	0.024	-0.028
-237.873	147.702	0.054	-0.072
-236.859	800.000	0.112	-0.353
-235.844	-200.000	-0.002	0.116
-234.830	-94.822	0.153	-0.041
-233.815	800.000	-0.095	0.300
-232.800	-200.000	0.106	-0.479
-231.786	413.414	0.224	0.473
-230.771	800.000	-0.016	0.064
-229.757	800.000	0.094	-0.410
-228.742	730.840	-0.121	-0.321
-227.727	76.053	-0.043	0.045
-226.713	-74.606	0.165	0.059
-225.698	-52.750	0.117	-0.054
-224.684	89.891	-0.136	-0.151
-223.669	44.965	0.291	-0.266
-222.655	-138.980	-0.140	-0.015
-221.640	-78.926	-0.097	-0.033
-220.625	78.525	-0.021	0.022
-219.611	-200.000	-0.005	0.039
-218.596	-104.346	-0.521	-0.120
-217.582	-130.302	0.179	-0.024
-216.567	61.954	0.171	0.170
-215.552	631.084	-0.158	-0.398
-214.538	49.610	0.157	0.147
-213.523	-141.052	-0.232	0.024
-212.509	273.128	0.114	-0.199
-211.494	-113.278	-0.097	-0.019
-210.479	800.000	0.131	-0.423
-209.465	-200.000	-0.003	0.282
-208.450	9.184	0.221	0.166
-207.436	-5.920	0.232	0.158
-206.421	-200.000	0.006	-0.291
-205.406	-51.910	0.291	-0.134
-204.392	-200.000	0.007	-0.447
-203.377	-53.485	-0.124	0.056
-202.363	-69.304	0.097	0.037
-201.348	-98.356	-0.185	0.047
-200.333	-7.253	0.197	0.132
-199.319	205.098	0.075	-0.116
-198.304	148.599	0.015	0.021
-197.290	575.143	-0.171	-0.415
-196.275	-200.000	-0.044	0.207
-195.260	167.204	0.075	0.106
-194.246	-200.000	-0.028	0.145
-193.231	-200.000	0.034	0.148
-192.217	-10.437	0.209	-0.137
-191.202	800.000	-0.042	0.149
-190.187	102.903	0.013	-0.015
-189.173	-200.000	-0.039	-0.177
-188.158	-165.160	0.348	-0.015
-187.144	-118.651	-0.165	-0.029
-186.129	-128.121	-0.055	-0.008
-185.114	96.152	0.068	-0.077
-184.100	45.956	0.158	-0.145
-183.085	-6.231	-0.212	-0.144
-182.071	-200.000	-0.007	0.214
-181.056	-48.597	0.178	0.085
-180.042	373.680	-0.102	0.206
-179.027	-200.000	-0.003	0.074
-178.012	-200.000	-0.044	-0.298
-176.998	-80.733	0.275	0.091
-175.983	-36.821	-0.188	-0.100
-174.969	795.863	0.062	0.169
-173.954	-200.000	0.030	0.177
-172.939	-22.896	0.056	-0.034
-171.925	800.000	0.031	0.111
-170.910	-72.859	0.293	-0.107
-169.896	-90.517	0.157	0.045
-168.881	-152.817	-0.287	0.020
-167.866	-200.000	-0.012	-0.124
-166.852	280.539	-0.208	0.369
-165.837	-200.000	0.007	0.042
-164.823	-62.731	-0.117	0.048
-163.808	-69.820	0.181	0.069
-162.793	-200.000	-0.009	-0.119
-161.779	-96.763	-0.265	-0.069
-160.764	-200.000	0.023	-0.252
-159.750	-53.621	-0.116	-0.052
-158.735	-64.386	0.079	-0.032
-157.720	-163.708	0.130	-0.006
-156.706	-18.613	0.067	0.042
-155.691	-39.295	0.071	-0.037
-154.677	-9.884	0.276	0.182
-153.662	-66.853	-0.214	-0.084
-152.647	102.829	-0.173	0.201
-151.633	58.652	-0.106	0.103
-150.618	-38.548	-0.223	0.117
-149.604	182.276	-0.065	0.095
-148.589	-86.996	-0.373	0.113
-147.574	-63.016	-0.210	-0.086
-146.560	-6.018	0.109	-0.074
-145.545	-17.495	0.319	0.199
-144.531	-200.000	-0.004	0.073
-143.516	-27.449	-0.150	-0.086
-142.502	-108.511	-0.180	0.038
-141.487	-200.000	0.045	0.272
-140.472	-200.000	-0.010	0.202
-139.458	-32.022	0.311	-0.172
-138.443	63.361	0.163	0.162
-137.429	13.395	0.160	0.123
-136.414	-33.361	0.140	0.077
-135.399	519.316	-0.054	-0.126
-134.385	-157.086	0.157	0.009
-133.370	-200.000	0.064	0.389
-132.356	1.806	0.168	-0.120
-131.341	800.000	0.046	-0.161
-130.326	-117.970	0.187	-0.033
-129.312	-132.748	0.408	0.052
-128.297	-107.238	-0.149	0.032
-127.283	-161.032	-0.151	0.008
-126.268	-200.000	0.049	-0.247
-125.253	154.088	0.161	-0.218
-124.239	-200.000	0.012	0.228
-123.224	800.000	-0.041	-0.120
-122.210	-200.000	0.075	-0.406
-121.195	-200.000	0.049	-0.245
