DTS Sentinel unit serial number:	SN413079Multiplexer serial number:	ORYXHardware model number:	OX4-SRSoftware version number:	ORYX F/W v4.00 Oryx Data Collector v3.7.2.0data status	okinstallation	princeton_trtdifferential loss correction	single-endedforward channel	channel 3reverse channel	N/Adate	2019/09/12time	19:44:04forward acquisition time	15.00reverse acquisition time	0.00gamma	496.2192k internal	0.2322k external	0.2322temperature offset calibration	1.0113default loss term (dB/km)	0.3790temperature slope calibration	1.0000multiplexer offset coefficient	1.0000multiplexer slope coefficient	1.0000fibre end	0.00T internal ref (°C)	32.00T ext. ref 1 (°C)	3.40T ext. ref 2 (°C)	26.54length (m)	temperature (°C)	Stokes	anti-Stokes-747.200	-69.436	-0.657	0.255
-746.185	-200.000	0.069	-0.412
-745.171	663.907	-0.083	-0.217
-744.156	54.990	-0.066	0.065
-743.142	-82.779	0.515	0.168
-742.127	-101.501	0.810	-0.199
-741.112	800.000	-0.291	-1.122
-740.098	-200.000	-0.009	0.233
-739.083	-94.230	0.846	0.234
-738.069	-136.690	0.299	-0.035
-737.054	-144.802	0.607	0.056
-736.039	250.139	-0.165	0.282
-735.025	-200.000	-0.078	0.453
-734.010	-75.115	0.279	-0.101
-732.996	-5.946	0.986	-0.681
-731.981	163.913	0.280	0.398
-730.966	-17.599	-0.559	-0.355
-729.952	-48.916	0.177	-0.086
-728.937	-200.000	0.042	-0.343
-727.923	-100.797	0.615	-0.153
-726.908	-26.565	-0.398	-0.235
-725.894	25.185	-1.619	-1.357
-724.879	-64.736	0.245	0.100
-723.864	8.388	0.351	-0.266
-722.850	291.915	0.183	-0.336
-721.835	-132.477	-0.628	0.082
-720.821	-200.000	-0.152	-0.776
-719.806	-200.000	0.021	-0.211
-718.791	114.983	0.026	-0.032
-717.777	161.027	0.347	-0.489
-716.762	-125.114	-0.616	0.095
-715.748	-83.549	-1.213	0.392
-714.733	-81.451	-0.229	-0.076
-713.718	-2.015	0.815	-0.578
-712.704	-74.566	-1.005	-0.365
-711.689	350.034	-0.149	-0.297
-710.675	-90.942	0.582	0.169
-709.660	-78.837	-0.371	-0.128
-708.645	44.330	0.466	0.432
-707.631	728.193	-0.250	-0.674
-706.616	170.300	-0.180	0.260
-705.602	-120.094	-0.396	0.068
-704.587	549.178	-0.153	0.369
-703.572	-9.989	-0.361	0.242
-702.558	7.779	-0.211	0.159
-701.543	-74.863	-0.826	0.299
-700.529	486.644	-0.033	0.076
-699.514	-200.000	-0.024	-0.136
-698.499	-27.150	-0.674	0.396
-697.485	74.662	-0.634	0.673
-696.470	-150.265	-0.441	0.034
-695.456	-104.023	-0.149	0.035
-694.441	157.676	0.254	0.355
-693.426	-200.000	-0.139	-0.722
-692.412	89.026	-0.205	0.230
-691.397	6.068	-0.730	0.545
-690.383	-193.913	0.787	0.007
-689.368	92.893	-0.757	-0.862
-688.354	28.579	-0.479	-0.409
-687.339	139.634	0.324	0.430
-686.324	114.907	-0.420	0.516
-685.310	-200.000	-0.021	-0.367
-684.295	-153.540	-0.418	0.029
-683.281	-200.000	-0.039	0.207
-682.266	-58.360	-0.059	0.026
-681.251	800.000	-0.050	0.161
-680.237	366.136	0.398	-0.808
-679.222	88.573	0.365	0.409
-678.208	-200.000	-0.007	-0.452
-677.193	213.742	0.288	-0.458
-676.178	-200.000	0.005	-0.123
-675.164	800.000	0.210	-0.833
-674.149	800.000	-0.075	-0.246
-673.135	-69.447	0.414	0.160
-672.120	-77.886	0.452	0.157
-671.105	503.614	-0.210	0.489
-670.091	-31.436	-0.413	0.234
-669.076	407.741	-0.056	0.120
-668.062	278.998	0.501	-0.900
-667.047	-155.526	-0.577	0.037
-666.032	-15.938	0.345	-0.221
-665.018	85.819	-0.371	0.411
-664.003	146.066	-0.294	0.397
-662.989	-151.098	0.525	-0.040
-661.974	-142.464	-0.221	-0.022
-660.959	-167.566	-0.529	0.021
-659.945	-101.391	-0.907	0.223
-658.930	-200.000	-0.033	0.550
-657.916	19.553	0.558	-0.452
-656.901	-142.370	0.120	0.012
-655.886	-200.000	-0.118	0.624
-654.872	110.149	0.372	0.449
-653.857	205.325	0.149	-0.233
-652.843	30.582	-0.208	0.179
-651.828	-30.911	-0.401	0.228
-650.814	256.537	-0.297	0.514
-649.799	-200.000	0.066	-0.359
-648.784	101.959	0.242	-0.284
-647.770	754.313	-0.176	0.480
-646.755	34.368	0.434	0.381
-645.741	-157.925	0.233	-0.014
-644.726	261.845	-0.260	0.453
-643.711	-135.158	0.346	0.042
-642.697	800.000	-0.112	0.388
-641.682	-60.278	-0.316	-0.136
-640.668	209.171	0.163	-0.257
-639.653	550.504	-0.188	-0.454
-638.638	-163.980	0.514	-0.024
-637.624	-6.790	-0.152	0.104
-636.609	-154.535	-0.687	0.046
-635.595	124.363	0.464	-0.587
-634.580	18.191	0.342	0.275
-633.565	-200.000	-0.064	-0.412
-632.551	-14.110	-0.545	0.354
-631.536	-200.000	-0.346	-0.000
-630.522	-28.779	-0.222	-0.129
-629.507	-84.099	-0.306	0.098
-628.492	-46.816	0.540	0.266
-627.478	-65.390	0.257	-0.104
-626.463	305.793	-0.364	0.680
-625.449	-13.434	-0.209	0.136
-624.434	-52.243	0.747	-0.348
-623.419	-118.113	-0.159	0.029
-622.405	-200.000	-0.035	0.351
-621.390	-99.299	-0.436	0.111
-620.376	-96.011	0.217	0.058
-619.361	800.000	0.134	0.424
-618.346	-63.253	0.422	0.175
-617.332	15.688	-0.510	0.403
-616.317	37.539	0.268	-0.239
-615.303	800.000	-0.246	0.914
-614.288	-131.471	0.470	0.062
-613.273	800.000	0.166	-0.525
-612.259	800.000	0.185	-0.517
-611.244	2.583	-0.332	0.242
-610.230	535.196	-0.363	0.865
-609.215	-122.656	0.885	0.144
-608.201	-95.352	-0.434	0.117
-607.186	-144.476	-0.221	-0.021
-606.171	72.356	-0.256	0.268
-605.157	-138.608	-0.454	0.050
-604.142	-28.597	-0.270	-0.156
-603.128	-200.000	0.006	-0.641
-602.113	-200.000	0.053	-0.542
-601.098	62.512	0.348	-0.349
-600.084	-119.367	-1.060	0.185
-599.069	6.120	-0.364	0.271
-598.055	91.871	-0.060	-0.068
-597.040	-44.928	-0.656	0.328
-596.025	-137.135	-0.377	0.043
-595.011	-200.000	0.038	0.519
-593.996	86.684	0.088	0.098
-592.982	-200.000	-0.060	0.585
-591.967	-200.000	-0.010	0.446
-590.952	553.184	0.174	0.420
-589.938	-142.301	0.537	-0.053
-588.923	800.000	0.049	0.184
-587.909	-143.376	0.929	-0.089
-586.894	-142.413	0.650	0.064
-585.879	281.181	-0.152	-0.273
-584.865	-160.038	0.780	-0.043
-583.850	800.000	-0.373	-1.115
-582.836	-171.307	-0.270	0.009
-581.821	83.565	-0.287	-0.314
-580.806	-95.387	-0.343	0.093
-579.792	350.760	0.227	-0.451
-578.777	-109.358	-0.186	0.040
-577.763	301.559	-0.232	-0.431
-576.748	-142.686	0.548	0.054
-575.733	-39.289	0.709	-0.374
-574.719	139.300	-0.414	-0.547
-573.704	406.626	-0.162	-0.342
-572.690	50.387	0.492	0.467
-571.675	-75.428	-0.941	-0.336
-570.661	-138.834	-0.284	-0.031
-569.646	-59.537	-0.505	-0.218
-568.631	-122.628	-0.155	0.025
-567.617	-200.000	-0.090	-0.528
-566.602	123.223	0.486	0.610
-565.588	800.000	-0.287	-0.984
-564.573	103.458	0.187	-0.220
-563.558	51.538	-0.191	-0.182
-562.544	-128.557	-1.056	0.150
-561.529	618.556	-0.216	-0.545
-560.515	800.000	-0.141	-0.481
-559.500	97.877	0.516	-0.595
-558.485	800.000	0.092	-0.375
-557.471	-60.597	-0.426	0.181
-556.456	153.281	-0.554	0.761
-555.442	-200.000	-0.036	-0.267
-554.427	301.975	0.270	-0.501
-553.412	-176.943	0.104	0.003
-552.398	-73.620	0.390	0.142
-551.383	61.911	0.207	-0.206
-550.369	68.159	-0.679	-0.697
-549.354	749.356	-0.195	-0.527
-548.339	-200.000	0.126	0.572
-547.325	-27.115	0.476	-0.278
-546.310	-25.451	0.797	-0.472
-545.296	342.045	-0.092	0.181
-544.281	330.890	-0.398	0.768
-543.266	53.927	0.371	0.358
-542.252	135.696	0.194	0.253
-541.237	800.000	0.147	0.498
-540.223	-84.714	-0.266	0.084
-539.208	377.806	-0.471	0.964
-538.193	-55.344	0.135	0.061
-537.179	800.000	0.180	0.624
-536.164	-123.956	0.415	0.066
-535.150	40.958	-0.352	0.318
-534.135	99.703	-0.231	-0.269
-533.121	-90.297	0.384	-0.112
-532.106	-200.000	-0.040	-0.742
-531.091	-34.924	-0.623	-0.341
-530.077	-133.072	0.085	0.011
-529.062	682.979	-0.132	-0.344
-528.048	89.755	0.383	-0.429
-527.033	-171.749	0.427	-0.014
-526.018	-85.706	0.635	-0.198
-525.004	800.000	-0.039	0.121
-523.989	37.512	-0.239	-0.213
-522.975	-200.000	-0.023	0.144
-521.960	-27.464	0.369	-0.215
-520.945	-200.000	0.099	-0.519
-519.931	-68.974	0.215	0.083
-518.916	-123.826	0.058	0.009
-517.902	-145.014	-0.315	-0.029
-516.887	15.128	0.461	-0.362
-515.872	-200.000	-0.068	0.732
-514.858	100.782	-0.466	0.542
-513.843	382.884	-0.257	-0.530
-512.829	402.909	-0.066	0.138
-511.814	-85.097	0.439	-0.138
-510.799	-70.188	-0.119	-0.045
-509.785	-2.265	0.712	0.500
-508.770	-200.000	0.054	-0.607
-507.756	-65.836	0.586	0.235
-506.741	286.233	-0.500	0.903
-505.726	800.000	-0.228	0.655
-504.712	800.000	0.148	0.423
-503.697	-200.000	0.031	0.145
-502.683	15.907	-0.330	0.260
-501.668	14.349	1.066	0.832
-500.653	800.000	0.153	-0.440
-499.639	-200.000	-0.027	0.330
-498.624	-126.635	-0.300	-0.044
-497.610	-200.000	0.009	-0.063
-496.595	97.631	-0.169	-0.194
-495.581	143.251	-0.197	-0.262
-494.566	131.650	0.226	0.291
-493.551	800.000	-0.063	-0.243
-492.537	-200.000	-0.047	0.209
-491.522	58.402	-0.178	-0.175
-490.508	324.838	0.130	-0.249
-489.493	51.618	-0.332	0.315
-488.478	311.061	0.447	-0.838
-487.464	364.660	-0.152	-0.306
-486.449	150.602	-0.206	0.280
-485.435	-200.000	-0.034	-0.238
-484.420	-127.453	0.322	-0.047
-483.405	468.479	0.187	-0.419
-482.391	-182.212	-0.847	-0.016
-481.376	329.750	0.456	-0.878
-480.362	-72.737	0.741	-0.273
-479.347	-200.000	-0.054	0.295
-478.332	27.823	0.648	0.546
-477.318	800.000	-0.266	-0.842
-476.303	-114.721	-0.510	-0.097
-475.289	23.714	-0.168	0.138
-474.274	30.770	0.094	0.080
-473.259	143.893	0.273	-0.364
-472.245	116.972	0.683	-0.839
-471.230	-163.030	0.457	0.022
-470.216	-200.000	0.004	-0.084
-469.201	-37.187	1.028	-0.550
-468.186	169.202	0.303	-0.432
-467.172	173.312	-0.263	-0.379
-466.157	114.134	0.361	-0.438
-465.143	17.873	0.034	-0.027
-464.128	-124.042	-0.899	0.141
-463.113	800.000	-0.162	-0.708
-462.099	-200.000	0.028	0.125
-461.084	282.091	-0.553	0.991
-460.070	800.000	-0.108	-0.345
-459.055	19.787	-0.334	-0.269
-458.040	800.000	-0.177	0.738
-457.026	328.703	0.143	-0.275
-456.011	-200.000	0.042	0.220
-454.997	-200.000	0.011	0.211
-453.982	378.552	0.047	-0.096
-452.968	744.923	0.153	-0.411
-451.953	187.180	0.581	-0.866
-450.938	-102.700	-0.977	-0.233
-449.924	-172.505	0.386	0.012
-448.909	-200.000	0.020	-0.118
-447.895	-38.662	-0.360	-0.190
-446.880	212.286	-0.177	-0.279
-445.865	40.008	0.019	0.017
-444.851	13.037	-0.499	0.385
-443.836	90.854	0.201	-0.225
-442.822	-31.327	-0.328	0.184
-441.807	-69.693	0.547	0.209
-440.792	257.713	-0.530	-0.911
-439.778	-174.147	-0.865	-0.025
-438.763	-200.000	0.004	0.701
-437.749	-3.691	-1.120	0.777
-436.734	-35.064	-0.495	0.269
-435.719	-200.000	-0.074	0.955
-434.705	-11.867	0.068	-0.045
-433.690	725.102	0.092	0.246
-432.676	-114.555	-0.427	0.082
-431.661	-200.000	-0.121	0.717
-430.646	15.617	0.472	-0.370
-429.632	-45.997	0.389	0.192
-428.617	298.869	0.298	0.547
-427.603	80.444	0.501	0.538
-426.588	180.256	0.551	0.806
-425.573	-135.820	-0.068	0.008
-424.559	62.475	0.479	-0.478
-423.544	215.257	0.283	-0.447
-422.530	-110.249	0.326	-0.068
-421.515	-200.000	-0.139	0.736
-420.500	228.136	-0.160	0.260
-419.486	238.531	0.307	0.508
-418.471	242.054	-0.521	-0.869
-417.457	-54.413	-0.250	0.113
-416.442	66.372	-0.126	0.128
-415.428	28.428	-0.732	-0.617
-414.413	7.658	0.458	-0.342
-413.398	-72.023	-0.732	-0.271
-412.384	269.408	-0.460	-0.806
-411.369	333.699	0.265	-0.512
-410.355	-200.000	0.016	-0.413
-409.340	246.776	-0.436	-0.733
-408.325	-50.659	0.568	0.267
-407.311	146.424	0.685	-0.917
-406.296	-91.072	-0.841	0.241
-405.282	800.000	-0.063	0.269
-404.267	-113.061	0.362	0.071
-403.252	178.243	-0.317	0.461
-402.238	-200.000	0.030	0.861
-401.223	31.937	-0.108	-0.093
-400.209	76.624	0.762	-0.805
-399.194	-62.559	0.477	0.197
-398.179	-111.886	0.453	-0.091
-397.165	-200.000	-0.015	0.570
-396.150	-200.000	0.069	0.634
-395.136	-21.424	0.358	-0.218
-394.121	61.311	-0.659	0.652
-393.106	-200.000	-0.065	-0.339
-392.092	208.099	0.304	0.474
-391.077	-200.000	-0.040	-0.363
-390.063	-126.575	-0.134	-0.020
-389.048	-59.442	-0.814	0.348
-388.033	-181.928	-0.414	-0.008
-387.019	23.387	-0.457	0.374
-386.004	182.384	-0.588	-0.864
-384.990	94.287	-0.400	-0.453
-383.975	-130.568	-0.419	0.056
-382.960	-95.612	0.898	-0.239
-381.946	686.279	-0.186	0.483
-380.931	-200.000	-0.010	0.175
-379.917	-119.279	0.727	0.126
-378.902	-123.527	0.518	0.082
-377.888	-200.000	0.068	-0.344
-376.873	412.501	-0.194	-0.410
-375.858	61.837	0.085	0.085
-374.844	-111.903	0.183	-0.037
-373.829	343.268	-0.303	0.591
-372.815	-9.232	0.417	-0.277
-371.800	177.629	-0.182	-0.264
-370.785	-84.182	-0.493	0.156
-369.771	-38.385	0.455	0.240
-368.756	-35.242	0.381	-0.207
-367.742	501.356	0.123	0.282
-366.727	216.499	0.190	0.300
-365.712	268.392	-0.441	0.769
-364.698	-31.632	-1.102	0.616
-363.683	260.798	-0.580	0.998
-362.669	21.261	0.538	0.435
-361.654	-14.274	-0.325	-0.208
-360.639	-200.000	0.074	0.999
-359.625	-87.477	0.648	0.195
-358.610	174.480	0.266	0.383
-357.596	-12.808	-0.216	0.140
-356.581	-200.000	0.048	0.245
-355.566	-32.059	1.243	0.692
-354.552	30.233	-0.289	0.246
-353.537	56.243	0.333	-0.322
-352.523	160.809	0.072	-0.101
-351.508	14.946	-0.561	0.437
-350.493	-140.514	0.378	-0.039
-349.479	76.534	-0.212	0.224
-348.464	-3.534	-0.453	0.314
-347.450	-117.476	-0.208	-0.037
-346.435	-200.000	0.085	-0.497
-345.420	66.038	-0.609	-0.614
-344.406	13.532	0.550	0.424
-343.391	-183.840	-1.293	0.022
-342.377	800.000	0.197	0.553
-341.362	41.741	0.440	-0.397
-340.348	-29.595	0.602	-0.342
-339.333	-42.360	-0.561	0.285
-338.318	-126.362	0.659	-0.098
-337.304	800.000	-0.045	0.143
-336.289	-38.126	-0.720	-0.380
-335.275	1.220	-0.558	-0.398
-334.260	-53.912	-1.072	-0.486
-333.245	79.407	-0.157	-0.167
-332.231	-18.939	-0.546	-0.338
-331.216	-148.496	0.098	-0.008
-330.202	136.612	0.447	0.579
-329.187	-200.000	0.054	-0.782
-328.172	21.118	-0.127	-0.103
-327.158	800.000	-0.121	0.406
-326.143	701.992	-0.133	-0.349
-325.129	-200.000	-0.479	-0.002
-324.114	-111.508	0.967	0.196
-323.099	229.725	0.674	-1.094
-322.085	21.428	0.615	0.497
-321.070	181.278	-0.409	-0.598
-320.056	800.000	-0.071	0.245
-319.041	-200.000	-0.083	-0.506
-318.026	-155.933	0.756	0.048
-317.012	34.421	-0.197	0.171
-315.997	-53.829	0.538	0.244
-314.983	-8.654	0.263	0.175
-313.968	-36.036	0.598	-0.321
-312.953	800.000	0.109	0.325
-311.939	-200.000	0.039	0.590
-310.924	-200.000	-0.014	-0.548
-309.910	-200.000	0.051	-0.320
-308.895	-200.000	-0.056	0.969
-307.880	40.049	0.722	0.644
-306.866	18.475	-0.244	0.194
-305.851	-82.968	-0.386	0.124
-304.837	-16.362	0.137	0.086
-303.822	68.451	-0.424	0.432
-302.807	570.232	-0.295	-0.714
-301.793	225.233	-0.328	-0.527
-300.778	-200.000	0.141	-0.640
-299.764	-200.000	-0.065	0.500
-298.749	82.850	-0.211	-0.227
-297.735	-74.021	0.315	-0.113
-296.720	749.367	0.263	-0.705
-295.705	-200.000	-0.000	0.618
-294.691	800.000	0.165	-0.577
-293.676	34.675	0.323	0.280
-292.662	-81.730	0.149	-0.048
-291.647	72.239	0.088	0.091
-290.632	756.658	0.195	0.524
-289.618	-137.671	-0.777	0.087
-288.603	-200.000	0.019	0.263
-287.589	68.002	0.386	-0.392
-286.574	800.000	0.289	0.886
-285.559	-174.309	-0.518	0.015
-284.545	-5.182	-0.279	-0.191
-283.530	159.881	0.599	0.828
-282.516	-180.082	-0.182	-0.004
-281.501	419.721	0.414	0.879
-280.486	470.464	0.128	-0.284
-279.472	-200.000	0.073	0.518
-278.457	78.194	-0.356	-0.377
-277.443	-73.994	-1.483	0.533
-276.428	-56.767	0.257	-0.113
-275.413	179.519	0.117	0.170
-274.399	136.662	0.152	-0.197
-273.384	-108.093	0.449	-0.097
-272.370	-89.007	0.197	-0.058
-271.355	10.502	0.644	0.486
-270.340	23.983	0.184	-0.150
-269.326	43.647	0.596	-0.541
-268.311	155.479	0.459	-0.627
-267.297	95.785	-0.399	0.452
-266.282	99.855	-0.206	0.237
-265.267	-51.589	-0.298	0.138
-264.253	-174.251	-0.234	0.007
-263.238	186.510	0.448	0.661
-262.224	184.315	-0.251	0.369
-261.209	54.407	0.307	0.293
-260.195	49.631	-0.386	0.360
-259.180	-200.000	-0.056	-0.724
-258.165	-200.000	-0.018	0.271
-257.151	281.598	0.464	-0.825
-256.136	-200.000	-0.052	0.569
-255.122	-86.700	-0.745	-0.226
-254.107	-15.148	0.817	-0.519
-253.092	261.434	0.119	-0.204
-252.078	-120.845	0.680	-0.114
-251.063	254.709	0.075	-0.128
-250.049	260.900	-0.394	-0.675
-249.034	130.396	-0.446	-0.566
-248.019	-48.860	-0.520	0.247
-247.005	-90.434	0.363	0.104
-245.990	12.623	-0.283	-0.216
-244.976	-41.951	-0.658	-0.334
-243.961	230.743	0.085	0.138
-242.946	-137.414	0.789	-0.089
-241.932	50.720	0.468	0.439
-240.917	504.674	-0.181	-0.416
-239.903	-107.549	0.360	-0.078
-238.888	-77.218	0.210	0.073
-237.873	7.217	0.488	-0.361
-236.859	-62.126	-0.400	-0.165
-235.844	-39.159	-0.449	0.234
-234.830	800.000	-0.184	0.571
-233.815	20.953	-0.153	-0.123
-232.800	10.276	0.390	0.294
-231.786	-200.000	0.015	-0.289
-230.771	217.725	-0.565	-0.891
-229.757	-38.625	-0.365	-0.191
-228.742	-112.938	0.412	0.081
-227.727	-200.000	0.527	0.000
-226.713	-89.664	0.718	-0.208
-225.698	497.912	0.107	-0.244
-224.684	-94.867	0.363	0.097
-223.669	-200.000	-0.129	0.568
-222.655	387.481	-0.292	-0.597
-221.640	12.036	0.385	0.293
-220.625	-58.841	-0.802	-0.343
-219.611	-138.035	0.623	-0.069
-218.596	-107.824	-0.359	0.077
-217.582	-200.000	0.015	1.187
-216.567	-108.245	-0.457	-0.098
-215.552	420.285	0.402	-0.852
-214.538	68.885	-0.263	0.267
-213.523	-200.000	0.006	-0.058
-212.509	-70.167	-0.421	-0.158
-211.494	-32.876	0.259	0.142
-210.479	-200.000	0.077	-0.820
-209.465	-200.000	-0.062	-0.513
-208.450	-4.297	0.079	-0.054
-207.436	-106.914	0.776	0.170
-206.421	43.268	-0.107	0.096
-205.406	195.361	0.479	-0.720
-204.392	-169.261	0.234	0.009
-203.377	478.224	-0.383	0.857
-202.363	800.000	0.045	0.166
-201.348	-200.000	-0.059	0.901
-200.333	-200.000	0.092	-0.805
-199.319	195.974	0.093	-0.140
-198.304	94.229	-0.338	0.380
-197.290	800.000	-0.322	1.069
-196.275	73.854	-0.212	-0.219
-195.260	-94.237	-0.760	-0.206
-194.246	187.819	-0.315	-0.465
-193.231	800.000	0.065	-0.255
-192.217	429.627	0.097	0.208
-191.202	74.794	0.443	0.461
-190.187	-69.381	-0.884	0.336
-189.173	43.971	-0.488	0.443
-188.158	59.959	-0.080	-0.078
-187.144	36.820	0.531	-0.464
-186.129	-86.365	-0.840	-0.255
-185.114	-107.764	0.594	-0.128
-184.100	800.000	-0.153	-0.490
-183.085	-173.780	-1.040	-0.031
-182.071	66.239	0.211	0.212
-181.056	616.720	0.225	0.558
-180.042	13.001	0.388	-0.297
-179.027	-93.142	-0.586	-0.161
-178.012	46.605	-0.114	0.104
-176.998	3.606	-0.315	-0.227
-175.983	-69.263	0.395	-0.150
-174.969	-200.000	-0.044	0.334
-173.954	92.670	-0.296	0.330
-172.939	-38.746	0.268	-0.140
-171.925	-200.000	-0.032	-0.719
-170.910	293.198	0.507	-0.914
-169.896	-200.000	0.019	-0.101
-168.881	233.213	-0.317	0.515
-167.866	800.000	0.136	0.399
-166.852	-96.704	0.669	0.174
-165.837	-200.000	0.052	-0.800
-164.823	-102.754	-0.054	-0.013
-163.808	-5.169	-0.102	0.069
-162.793	523.509	-0.134	-0.310
-161.779	75.322	-0.328	-0.342
-160.764	-200.000	0.028	-0.394
-159.750	-136.276	0.445	0.051
-158.735	-43.500	-0.364	0.182
-157.720	-121.903	-0.421	0.069
-156.706	-40.730	-0.649	-0.332
-155.691	262.877	0.184	0.316
-154.677	208.510	0.437	0.675
-153.662	653.832	0.305	0.773
-152.647	-105.873	0.587	-0.131
-151.633	-26.580	0.486	0.281
-150.618	-170.983	-0.796	0.027
-149.604	-3.768	0.953	0.654
-148.589	133.852	-0.451	0.577
-147.574	-200.000	-0.070	0.750
-146.560	-200.000	-0.032	-0.326
-145.545	35.895	-0.765	0.664
-144.531	20.814	0.694	-0.555
-143.516	191.087	0.224	0.333
-142.502	800.000	-0.042	0.159
-141.487	14.095	-0.701	0.539
-140.472	-0.172	-0.432	0.303
-139.458	145.291	0.271	-0.358
-138.443	-84.645	-0.518	0.161
-137.429	64.298	0.582	0.578
-136.414	-46.942	-1.030	0.496
-135.399	45.908	0.202	0.184
-134.385	-200.000	-0.080	0.914
-133.370	-154.841	-0.610	-0.040
-132.356	-200.000	-0.084	0.679
-131.341	-39.105	-0.305	0.158
-130.326	-136.894	-0.927	0.105
-129.312	215.532	0.259	0.405
-128.297	140.970	-0.237	-0.309
-127.283	-135.280	-0.543	0.064
-126.268	612.340	-0.178	0.439
-125.253	-128.345	0.320	-0.045
-124.239	-38.163	0.662	-0.346
-123.224	41.439	0.662	-0.591
-122.210	402.380	-0.161	0.333
-121.195	-200.000	0.023	-0.168
-120.180	656.300	0.288	0.730
