DTS Sentinel unit serial number:	SN413079Multiplexer serial number:	ORYXHardware model number:	OX4-SRSoftware version number:	ORYX F/W v4.00 Oryx Data Collector v3.7.2.0data status	okinstallation	princeton_trtdifferential loss correction	single-endedforward channel	channel 3reverse channel	N/Adate	2019/09/14time	10:56:35forward acquisition time	60.00reverse acquisition time	0.00gamma	496.2192k internal	0.2300k external	0.2300temperature offset calibration	1.0062default loss term (dB/km)	0.3790temperature slope calibration	1.0000multiplexer offset coefficient	1.0000multiplexer slope coefficient	1.0000fibre end	0.00T internal ref (°C)	35.84T ext. ref 1 (°C)	4.35T ext. ref 2 (°C)	33.41length (m)	temperature (°C)	Stokes	anti-Stokes-747.200	800.000	0.009	-0.038
-746.185	-200.000	-0.001	-0.047
-745.171	76.441	-0.172	0.186
-744.156	151.887	0.065	0.090
-743.142	394.718	-0.073	-0.155
-742.127	139.754	0.081	0.109
-741.112	-126.537	0.226	0.034
-740.098	-200.000	0.051	0.352
-739.083	238.843	-0.193	0.327
-738.069	800.000	-0.079	0.294
-737.054	-200.000	0.024	0.410
-736.039	236.497	-0.188	0.317
-735.025	236.261	0.014	0.024
-734.010	-85.874	0.222	0.070
-732.996	450.784	0.106	-0.238
-731.981	-125.483	0.169	-0.026
-730.966	690.168	-0.109	0.290
-729.952	38.542	0.114	0.103
-728.937	118.710	0.088	0.111
-727.923	800.000	-0.079	0.271
-726.908	-200.000	-0.028	0.182
-725.894	-33.445	0.097	0.055
-724.879	-200.000	0.027	-0.204
-723.864	800.000	0.046	0.145
-722.850	-200.000	0.030	0.222
-721.835	-10.820	-0.041	-0.028
-720.821	-200.000	0.012	-0.210
-719.806	32.621	-0.269	-0.237
-718.791	-43.926	-0.209	-0.107
-717.777	800.000	-0.111	0.371
-716.762	149.100	-0.217	0.299
-715.748	-20.922	-0.166	-0.104
-714.733	-145.193	0.112	0.010
-713.718	92.006	-0.148	-0.170
-712.704	-55.142	-0.199	-0.091
-711.689	175.911	-0.162	0.239
-710.675	-104.653	0.362	-0.085
-709.660	86.024	-0.174	0.196
-708.645	600.866	-0.046	0.115
-707.631	175.762	-0.112	-0.166
-706.616	-25.661	0.180	-0.108
-705.602	-27.407	-0.201	-0.119
-704.587	-24.220	0.082	-0.050
-703.572	-200.000	0.019	0.107
-702.558	800.000	0.060	0.257
-701.543	225.598	0.200	-0.330
-700.529	800.000	0.063	-0.270
-699.514	-200.000	-0.082	0.505
-698.499	333.546	-0.040	0.079
-697.485	-111.670	-0.168	-0.035
-696.470	248.219	0.060	-0.104
-695.456	-200.000	0.010	-0.302
-694.441	-70.730	-0.133	0.051
-693.426	-134.659	-0.282	-0.035
-692.412	-127.134	-0.082	-0.012
-691.397	125.078	-0.121	-0.155
-690.383	-200.000	-0.003	-0.052
-689.368	259.221	0.118	0.208
-688.354	-200.000	-0.001	-0.066
-687.339	-200.000	0.021	-0.204
-686.324	-183.898	0.079	-0.001
-685.310	-200.000	0.008	0.224
-684.295	-200.000	0.032	0.257
-683.281	-114.855	-0.330	0.064
-682.266	157.469	0.169	0.238
-681.251	-0.074	0.163	-0.118
-680.237	164.029	0.093	0.134
-679.222	-64.041	-0.635	-0.264
-678.208	-122.667	-0.096	-0.016
-677.193	-30.753	-0.041	-0.024
-676.178	-97.242	-0.296	-0.079
-675.164	97.327	-0.154	-0.180
-674.149	-200.000	-0.254	0.001
-673.135	-84.908	-0.372	-0.119
-672.120	-200.000	0.009	0.071
-671.105	-200.000	0.010	0.057
-670.091	-45.657	0.205	0.103
-669.076	90.128	-0.294	-0.334
-668.062	36.572	0.100	-0.090
-667.047	800.000	-0.059	0.205
-666.032	-200.000	0.043	-0.294
-665.018	350.111	0.127	-0.255
-664.003	106.847	-0.217	0.262
-662.989	-200.000	-0.403	-0.002
-661.974	268.458	-0.192	0.342
-660.959	703.288	-0.092	-0.248
-659.945	-154.820	0.061	0.004
-658.930	143.667	0.110	-0.149
-657.916	90.533	-0.271	0.309
-656.901	-200.000	-0.002	-0.203
-655.886	-200.000	-0.008	-0.060
-654.872	-128.384	-0.164	0.024
-653.857	-136.038	-0.349	0.042
-652.843	722.934	0.044	-0.118
-651.828	-20.937	-0.142	-0.089
-650.814	-72.563	0.158	-0.059
-649.799	-148.057	0.114	0.010
-648.784	662.100	-0.083	-0.217
-647.770	-200.000	-0.028	-0.163
-646.755	13.133	-0.213	-0.168
-645.741	-174.773	-0.283	0.008
-644.726	-34.767	-0.339	0.188
-643.711	-200.000	-0.044	-0.310
-642.697	-1.642	-0.179	-0.128
-641.682	45.273	0.127	0.119
-640.668	79.136	0.107	-0.116
-639.653	-200.000	-0.034	-0.171
-638.638	-116.322	0.135	-0.025
-637.624	46.424	-0.072	-0.067
-636.609	-99.685	-0.135	-0.034
-635.595	108.721	0.136	0.165
-634.580	48.284	-0.220	0.209
-633.565	800.000	0.015	0.062
-632.551	57.520	-0.183	0.182
-631.536	156.430	0.139	0.195
-630.522	-200.000	-0.038	0.199
-629.507	-200.000	0.008	-0.228
-628.492	-146.234	-0.358	0.032
-627.478	71.355	0.183	-0.193
-626.463	800.000	0.051	0.178
-625.449	98.669	0.319	0.373
-624.434	800.000	0.049	-0.180
-623.419	800.000	0.031	-0.133
-622.405	-86.743	-0.113	-0.035
-621.390	800.000	-0.021	-0.077
-620.376	-67.683	0.288	-0.114
-619.361	49.012	0.210	0.200
-618.346	91.156	-0.136	-0.155
-617.332	-200.000	-0.111	-0.622
-616.317	-200.000	-0.017	-0.230
-615.303	-200.000	-0.005	-0.265
-614.288	-69.026	0.292	-0.114
-613.273	574.450	0.157	-0.390
-612.259	32.928	-0.203	-0.178
-611.244	-40.501	0.081	-0.043
-610.230	800.000	0.021	0.092
-609.215	-152.639	-0.386	-0.028
-608.201	-145.236	-0.393	0.036
-607.186	-50.214	-0.062	-0.030
-606.171	-19.175	0.244	-0.154
-605.157	78.217	0.330	-0.357
-604.142	-62.822	0.133	-0.056
-603.128	143.121	0.164	-0.222
-602.113	4.753	-0.201	0.150
-601.098	-124.510	0.153	-0.024
-600.084	6.760	0.164	-0.124
-599.069	12.951	-0.092	0.072
-598.055	-64.979	-0.081	-0.033
-597.040	-38.988	-0.445	-0.238
-596.025	800.000	-0.061	0.270
-595.011	-140.653	-0.072	0.008
-593.996	-30.555	0.222	-0.127
-592.982	-90.408	-0.059	-0.017
-591.967	-200.000	0.019	0.092
-590.952	45.472	0.327	0.307
-589.938	56.352	-0.229	0.225
-588.923	-149.531	0.111	-0.009
-587.909	-107.861	0.250	0.055
-586.894	14.371	-0.023	0.018
-585.879	-200.000	0.001	-0.187
-584.865	800.000	0.108	-0.411
-583.850	794.080	0.019	-0.053
-582.836	-57.109	0.196	-0.087
-581.821	-200.000	0.009	-0.133
-580.806	-198.735	-0.311	0.002
-579.792	-200.000	-0.019	-0.209
-578.777	181.297	-0.105	-0.157
-577.763	118.443	-0.031	-0.038
-576.748	-53.494	-0.114	0.053
-575.733	-46.207	0.056	-0.028
-574.719	-126.901	0.299	0.045
-573.704	198.663	0.070	-0.108
-572.690	111.995	-0.069	0.084
-571.675	-61.855	-0.110	0.047
-570.661	-194.345	0.215	0.002
-569.646	-200.000	-0.060	0.339
-568.631	800.000	-0.084	0.303
-567.617	800.000	0.143	0.416
-566.602	-157.355	0.190	-0.012
-565.588	-14.582	-0.121	0.079
-564.573	-200.000	0.008	0.046
-563.558	29.997	-0.278	0.240
-562.544	118.659	0.152	-0.190
-561.529	-79.464	0.258	0.088
-560.515	-133.153	0.137	-0.018
-559.500	-200.000	-0.064	0.371
-558.485	181.260	-0.093	-0.138
-557.471	-191.214	0.206	0.002
-556.456	-11.122	-0.061	-0.041
-555.442	-39.121	0.213	0.113
-554.427	-200.000	0.004	-0.231
-553.412	-38.242	0.227	-0.122
-552.398	-97.059	0.321	0.085
-551.383	-24.767	0.214	0.129
-550.369	271.078	-0.045	-0.080
-549.354	11.341	-0.285	0.221
-548.339	-37.332	0.216	0.117
-547.325	-2.626	0.269	0.191
-546.310	-200.000	0.028	0.155
-545.296	800.000	-0.104	-0.298
-544.281	115.761	-0.180	-0.222
-543.266	-200.000	-0.005	0.103
-542.252	3.471	-0.231	-0.170
-541.237	2.035	-0.107	0.078
-540.223	-162.759	0.231	-0.011
-539.208	-174.700	-0.251	0.007
-538.193	-200.000	-0.003	-0.065
-537.179	-200.000	0.003	0.113
-536.164	-200.000	-0.089	0.000
-535.150	-200.000	-0.048	0.263
-534.135	-156.848	-0.412	0.026
-533.121	45.421	-0.052	-0.049
-532.106	-51.946	0.219	-0.103
-531.091	53.772	-0.085	-0.083
-530.077	343.700	0.086	0.171
-529.062	-58.869	-0.249	-0.109
-528.048	95.369	-0.113	-0.130
-527.033	-200.000	0.019	0.141
-526.018	78.765	0.192	0.208
-525.004	-114.146	0.264	0.052
-523.989	-58.149	-0.097	0.043
-522.975	342.085	0.072	0.143
-521.960	-128.464	-0.264	0.038
-520.945	-136.801	0.106	0.012
-519.931	800.000	0.065	0.258
-518.916	-92.165	-0.161	-0.046
-517.902	-200.000	0.008	-0.091
-516.887	131.431	-0.172	-0.224
-515.872	53.727	-0.087	0.085
-514.858	800.000	0.099	-0.294
-513.843	31.410	-0.134	-0.116
-512.829	29.397	-0.122	-0.104
-511.814	-152.329	0.136	0.010
-510.799	34.109	-0.144	-0.127
-509.785	179.784	-0.135	-0.199
-508.770	74.621	-0.135	0.144
-507.756	-10.828	-0.329	0.220
-506.741	-161.228	-0.275	0.014
-505.726	43.484	0.139	0.128
-504.712	316.900	-0.112	-0.214
-503.697	-200.000	0.050	-0.266
-502.683	27.253	0.220	0.187
-501.668	-48.773	0.067	-0.033
-500.653	49.500	-0.153	-0.145
-499.639	109.052	-0.336	0.406
-498.624	-37.554	0.105	0.057
-497.610	-108.469	-0.344	0.075
-496.595	-162.377	0.087	0.004
-495.581	184.839	-0.177	-0.266
-494.566	800.000	-0.014	0.047
-493.551	-200.000	-0.057	0.281
-492.537	800.000	-0.048	0.172
-491.522	-117.369	0.339	0.062
-490.508	168.880	0.139	0.201
-489.493	-145.095	0.477	-0.044
-488.478	-85.986	-0.158	0.049
-487.464	800.000	0.059	-0.226
-486.449	-200.000	-0.011	-0.105
-485.435	800.000	-0.060	0.197
-484.420	-121.330	0.030	-0.005
-483.405	12.858	-0.204	0.159
-482.391	-31.481	-0.225	-0.128
-481.376	192.861	-0.110	0.167
-480.362	-114.740	0.119	-0.023
-479.347	-101.448	-0.087	0.021
-478.332	-83.407	0.043	-0.014
-477.318	-74.030	-0.155	0.057
-476.303	315.158	0.073	-0.138
-475.289	-148.846	0.044	-0.004
-474.274	800.000	0.152	-0.464
-473.259	8.938	-0.156	-0.118
-472.245	-200.000	0.019	0.242
-471.230	151.887	-0.095	0.131
-470.216	-200.000	0.015	-0.073
-469.201	28.984	0.381	0.326
-468.186	152.294	0.284	0.392
-467.172	46.415	-0.173	-0.162
-466.157	301.294	-0.076	-0.141
-465.143	-123.086	-0.285	0.046
-464.128	-200.000	0.011	-0.094
-463.113	-200.000	-0.009	0.091
-462.099	-200.000	-0.012	0.103
-461.084	40.313	0.146	-0.133
-460.070	-200.000	0.033	-0.382
-459.055	-3.092	0.207	0.146
-458.040	489.832	0.011	-0.025
-457.026	-200.000	0.024	0.122
-456.011	47.016	0.164	-0.154
-454.997	266.254	-0.175	-0.308
-453.982	-200.000	-0.055	0.261
-452.968	76.995	0.067	-0.072
-451.953	149.824	-0.310	0.424
-450.938	-127.216	0.335	-0.049
-449.924	-200.000	0.048	0.236
-448.909	-73.203	0.194	0.072
-447.895	-200.000	-0.019	-0.115
-446.880	745.523	0.094	-0.256
-445.865	-63.756	-0.378	0.156
-444.851	692.503	-0.141	0.373
-443.836	800.000	0.052	-0.192
-442.822	357.133	-0.103	-0.206
-441.807	22.091	0.319	-0.263
-440.792	133.510	-0.160	-0.208
-439.778	800.000	0.061	0.175
-438.763	218.483	0.082	0.132
-437.749	-11.070	-0.270	0.180
-436.734	800.000	0.108	0.409
-435.719	75.898	-0.069	0.074
-434.705	-70.596	0.196	0.075
-433.690	168.771	-0.178	-0.255
-432.676	800.000	-0.099	-0.359
-431.661	92.797	0.028	-0.032
-430.646	-182.542	-0.063	0.001
-429.632	266.339	-0.141	0.248
-428.617	-113.381	0.166	0.033
-427.603	-110.646	-0.340	0.071
-426.588	-171.813	-0.113	-0.004
-425.573	196.152	0.211	-0.323
-424.559	-29.069	0.175	0.101
-423.544	165.570	0.052	0.074
-422.530	-107.746	0.295	-0.065
-421.515	-38.412	-0.191	0.102
-420.500	70.496	-0.131	0.137
-419.486	-40.783	0.130	0.068
-418.471	-36.634	-0.244	0.132
-417.457	-200.000	0.176	0.001
-416.442	3.474	0.070	0.052
-415.428	588.892	-0.047	0.116
-414.413	-122.975	-0.123	0.020
-413.398	92.267	0.103	0.117
-412.384	-91.802	-0.065	0.019
-411.369	-184.171	-0.235	0.004
-410.355	60.339	-0.196	-0.195
-409.340	-200.000	0.006	-0.058
-408.325	-21.968	-0.271	-0.166
-407.311	49.745	-0.282	-0.267
-406.296	16.442	0.169	0.135
-405.282	-200.000	0.040	-0.409
-404.267	-200.000	0.052	0.294
-403.252	-111.756	-0.217	-0.044
-402.238	-120.401	0.249	-0.043
-401.223	-200.000	0.002	0.079
-400.209	343.949	0.045	0.088
-399.194	160.943	0.141	-0.199
-398.179	800.000	0.045	-0.144
-397.165	690.521	0.103	0.271
-396.150	-200.000	-0.070	0.515
-395.136	-93.057	-0.265	-0.074
-394.121	800.000	-0.014	-0.051
-393.106	63.508	0.313	0.316
-392.092	62.245	-0.151	-0.152
-391.077	-117.215	0.169	-0.031
-390.063	110.161	0.298	0.360
-389.048	-104.884	0.251	-0.058
-388.033	-6.715	0.296	-0.202
-387.019	193.645	-0.140	-0.213
-386.004	-154.516	-0.214	-0.014
-384.990	109.695	-0.096	0.116
-383.975	-100.866	-0.256	-0.063
-382.960	-86.620	0.302	-0.093
-381.946	137.150	0.191	0.251
-380.931	-200.000	-0.012	0.083
-379.917	-131.063	0.101	-0.014
-378.902	-200.000	-0.001	-0.313
-377.888	652.266	0.122	-0.315
-376.873	-17.583	-0.075	-0.047
-375.858	439.006	-0.022	-0.049
-374.844	-200.000	0.004	0.224
-373.829	-109.698	-0.120	0.025
-372.815	-200.000	-0.050	-0.302
-371.800	458.099	0.183	0.409
-370.785	184.285	-0.156	-0.232
-369.771	59.986	0.147	-0.146
-368.756	-98.541	-0.292	0.075
-367.742	157.664	-0.088	-0.122
-366.727	39.889	0.197	-0.178
-365.712	-96.049	-0.145	-0.039
-364.698	-0.178	0.173	-0.124
-363.683	-200.000	-0.029	-0.271
-362.669	-62.497	0.162	0.068
-361.654	472.267	-0.107	-0.241
-360.639	20.597	0.419	0.340
-359.625	26.599	0.134	0.112
-358.610	-46.347	-0.273	-0.135
-357.596	-200.000	0.005	-0.179
-356.581	19.332	-0.053	0.043
-355.566	800.000	-0.074	0.272
-354.552	54.761	0.042	0.040
-353.537	231.924	0.289	0.477
-352.523	-84.522	0.159	-0.051
-351.508	168.507	0.144	-0.206
-350.493	8.407	-0.229	-0.173
-349.479	482.264	0.038	-0.086
-348.464	-10.070	0.234	-0.156
-347.450	800.000	-0.034	-0.115
-346.435	577.708	-0.072	0.177
-345.420	449.528	0.124	0.274
-344.406	-200.000	-0.002	0.135
-343.391	-163.504	-0.131	-0.006
-342.377	205.882	0.114	-0.178
-341.362	-12.856	-0.234	-0.153
-340.348	262.372	0.039	0.068
-339.333	-200.000	-0.015	0.108
-338.318	-103.833	-0.041	-0.010
-337.304	-85.567	0.226	-0.071
-336.289	-54.327	0.205	0.094
-335.275	80.386	-0.206	-0.222
-334.260	287.800	-0.017	-0.031
-333.245	35.219	0.332	-0.292
-332.231	145.801	-0.117	-0.158
-331.216	-200.000	0.029	-0.140
-330.202	0.281	-0.160	-0.115
-329.187	-76.678	-0.314	-0.110
-328.172	-125.215	-0.243	0.037
-327.158	478.983	-0.082	0.187
-326.143	-139.910	0.139	-0.015
-325.129	228.824	-0.162	0.265
-324.114	-200.000	-0.025	0.208
-323.099	-200.000	-0.020	-0.236
-322.085	-200.000	-0.061	-0.347
-321.070	783.823	-0.127	-0.350
-320.056	1.217	0.123	0.089
-319.041	-21.333	0.211	0.129
-318.026	-200.000	0.062	0.286
-317.012	181.740	0.163	-0.241
-315.997	76.168	-0.150	0.159
-314.983	-109.724	-0.154	0.032
-313.968	-87.577	-0.140	0.043
-312.953	-200.000	0.024	0.126
-311.939	800.000	0.027	-0.102
-310.924	350.570	-0.133	-0.264
-309.910	-142.223	-0.193	0.019
-308.895	678.786	-0.040	0.105
-307.880	121.199	0.270	-0.337
-306.866	-104.438	-0.176	-0.041
-305.851	-170.602	-0.356	-0.012
-304.837	635.083	-0.073	0.186
-303.822	-200.000	0.018	0.270
-302.807	-200.000	0.000	0.181
-301.793	-200.000	0.033	0.216
-300.778	-200.000	-0.014	-0.079
-299.764	446.519	0.238	0.526
-298.749	-74.042	-0.325	-0.118
-297.735	-140.048	-0.230	-0.024
-296.720	-200.000	0.021	-0.144
-295.705	-200.000	-0.031	0.307
-294.691	185.580	0.169	-0.252
-293.676	317.502	-0.157	0.298
-292.662	135.996	0.256	0.334
-291.647	-101.417	0.152	-0.037
-290.632	15.345	0.058	-0.046
-289.618	800.000	-0.075	-0.263
-288.603	338.513	0.127	0.247
-287.589	10.617	-0.315	-0.240
-286.574	-200.000	0.031	-0.261
-285.559	159.286	0.324	0.451
-284.545	-200.000	-0.001	-0.059
-283.530	-200.000	0.014	0.110
-282.516	800.000	0.094	0.409
-281.501	43.143	-0.224	-0.205
-280.486	-42.882	-0.274	-0.139
-279.472	-61.438	0.041	-0.017
-278.457	378.811	-0.061	0.125
-277.443	-105.600	-0.242	-0.055
-276.428	299.713	0.108	-0.200
-275.413	-200.000	-0.029	0.229
-274.399	-97.860	-0.202	-0.052
-273.384	-68.076	-0.394	0.154
-272.370	800.000	0.031	0.120
-271.355	-27.552	-0.225	-0.131
-270.340	80.891	-0.087	-0.094
-269.326	-85.791	0.269	-0.083
-268.311	-38.895	0.331	0.175
-267.297	-2.296	-0.020	0.014
-266.282	2.044	0.050	0.036
-265.267	-91.086	0.116	0.033
-264.253	226.579	-0.135	-0.220
-263.238	155.162	-0.140	0.193
-262.224	-88.789	-0.407	0.121
-261.209	800.000	0.085	0.239
-260.195	-64.786	-0.118	0.048
-259.180	800.000	-0.067	0.280
-258.165	667.514	0.200	0.519
-257.151	-31.017	-0.055	-0.031
-256.136	-74.584	-0.147	-0.053
-255.122	366.381	-0.086	-0.175
-254.107	-156.324	0.111	0.007
-253.092	105.130	0.062	-0.073
-252.078	156.959	-0.168	-0.233
-251.063	617.548	-0.112	-0.281
-250.049	-134.260	0.188	0.023
-249.034	800.000	-0.034	-0.115
-248.019	-71.151	-0.139	-0.052
-247.005	25.637	0.154	-0.128
-245.990	-111.451	-0.038	-0.008
-244.976	64.041	0.107	-0.108
-243.961	110.966	-0.151	0.182
-242.946	-200.000	0.033	0.209
-241.932	317.807	-0.068	0.129
-240.917	-76.117	-0.101	-0.036
-239.903	140.262	-0.103	0.136
-238.888	-113.119	0.361	-0.071
-237.873	249.540	-0.128	-0.217
-236.859	-71.597	0.133	-0.050
-235.844	-129.251	0.136	-0.019
-234.830	36.620	0.120	0.106
-233.815	800.000	0.064	-0.236
-232.800	800.000	-0.067	0.231
-231.786	800.000	0.103	-0.294
-230.771	358.851	-0.027	0.055
-229.757	81.391	-0.101	0.109
-228.742	-87.855	0.208	-0.063
-227.727	-200.000	0.046	-0.322
-226.713	38.776	0.255	-0.227
-225.698	-93.902	0.286	0.079
-224.684	306.995	0.074	-0.137
-223.669	25.613	0.211	-0.175
-222.655	170.848	0.111	0.159
-221.640	-200.000	-0.046	0.261
-220.625	-94.482	0.176	-0.048
-219.611	-88.584	0.217	-0.065
-218.596	800.000	0.149	0.465
-217.582	-200.000	0.014	0.066
-216.567	-1.899	0.154	-0.108
-215.552	138.834	-0.156	0.205
-214.538	79.688	0.076	0.082
-213.523	-36.081	0.161	-0.087
-212.509	-0.142	0.065	0.046
-211.494	32.705	0.088	0.076
-210.479	424.129	0.053	0.114
-209.465	672.171	0.052	-0.134
-208.450	105.848	0.132	-0.156
-207.436	-33.405	0.059	-0.032
-206.421	800.000	-0.035	0.104
-205.406	-27.203	0.292	0.170
-204.392	-200.000	0.037	0.164
-203.377	400.177	-0.085	0.177
-202.363	-37.512	0.204	-0.109
-201.348	712.347	0.040	0.107
-200.333	-96.505	0.185	-0.049
-199.319	800.000	-0.021	0.066
-198.304	-123.924	0.310	-0.049
-197.290	-92.714	0.317	-0.089
-196.275	-200.000	0.009	-0.296
-195.260	333.363	-0.037	0.071
-194.246	800.000	-0.090	-0.291
-193.231	135.277	-0.186	0.241
-192.217	154.530	-0.065	0.090
-191.202	800.000	0.018	0.065
-190.187	-81.138	0.173	0.057
-189.173	211.688	-0.119	0.186
-188.158	-16.247	0.385	-0.244
-187.144	-129.542	-0.213	-0.029
-186.129	800.000	0.068	-0.282
-185.114	57.028	0.201	-0.196
-184.100	-200.000	-0.007	0.144
-183.085	-40.908	-0.159	0.082
-182.071	-195.587	-0.215	-0.002
-181.056	67.840	-0.353	-0.360
-180.042	-54.771	-0.078	0.035
-179.027	-200.000	-0.005	0.109
-178.012	-200.000	0.013	0.353
-176.998	131.712	-0.167	0.214
-175.983	-150.401	-0.053	0.004
-174.969	120.299	0.113	0.140
-173.954	4.691	0.125	-0.091
-172.939	12.776	-0.316	0.244
-171.925	800.000	0.068	-0.252
-170.910	53.125	-0.225	0.215
-169.896	-12.155	0.013	-0.008
-168.881	-137.720	-0.433	0.048
-167.866	120.209	0.158	-0.195
-166.852	800.000	0.077	-0.242
-165.837	76.613	-0.345	-0.364
-164.823	800.000	0.040	0.174
-163.808	800.000	-0.021	-0.066
-162.793	-111.025	-0.064	0.013
-161.779	119.252	0.164	0.202
-160.764	227.132	0.175	0.284
-159.750	-63.369	0.171	0.070
-158.735	2.617	0.163	0.117
-157.720	-189.094	-0.342	0.004
-156.706	-26.479	-0.110	0.064
-155.691	295.999	0.209	-0.382
-154.677	-200.000	0.020	-0.224
-153.662	484.055	0.107	-0.242
-152.647	-200.000	-0.043	0.324
-151.633	236.659	-0.015	-0.025
-150.618	-150.380	0.354	-0.027
-149.604	425.399	0.065	0.140
-148.589	-200.000	0.033	0.255
-147.574	429.758	0.063	-0.137
-146.560	-167.246	0.310	-0.012
-145.545	17.258	0.256	0.202
-144.531	136.381	-0.085	0.111
-143.516	12.323	0.199	0.153
-142.502	-92.101	-0.091	0.025
-141.487	-8.729	0.239	0.160
-140.472	-183.738	-0.395	-0.007
-139.458	-43.036	-0.101	-0.051
-138.443	800.000	-0.064	0.211
-137.429	188.856	-0.074	0.110
-136.414	-124.553	0.422	0.065
-135.399	1.558	-0.222	-0.159
-134.385	-167.124	0.136	-0.006
-133.370	336.388	-0.077	-0.148
-132.356	11.680	0.388	0.296
-131.341	-47.368	-0.211	-0.102
-130.326	450.838	0.131	-0.288
-129.312	144.476	-0.157	-0.209
-128.297	-9.343	0.364	0.242
-127.283	-4.009	-0.166	0.115
-126.268	-200.000	0.009	0.102
-125.253	15.292	-0.257	-0.201
-124.239	-0.760	0.438	0.309
-123.224	10.852	0.159	0.121
-122.210	-150.376	0.147	-0.011
-121.195	800.000	0.095	-0.280
