DTS Sentinel unit serial number:	SN413079Multiplexer serial number:	ORYXHardware model number:	OX4-SRSoftware version number:	ORYX F/W v4.00 Oryx Data Collector v3.7.2.0data status	okinstallation	princeton_trtdifferential loss correction	single-endedforward channel	channel 3reverse channel	N/Adate	2019/09/17time	21:44:34forward acquisition time	60.00reverse acquisition time	0.00gamma	496.2192k internal	0.2344k external	0.2344temperature offset calibration	0.9945default loss term (dB/km)	0.3790temperature slope calibration	1.0000multiplexer offset coefficient	1.0000multiplexer slope coefficient	1.0000fibre end	0.00T internal ref (°C)	26.59T ext. ref 1 (°C)	0.19T ext. ref 2 (°C)	19.18length (m)	temperature (°C)	Stokes	anti-Stokes-747.200	179.386	0.095	-0.139
-746.185	-200.000	-0.014	-0.180
-745.171	32.499	0.216	-0.187
-744.156	91.761	-0.249	0.280
-743.142	-9.031	0.272	0.182
-742.127	23.772	-0.218	0.180
-741.112	-200.000	-0.014	0.065
-740.098	13.893	0.177	-0.138
-739.083	-200.000	-0.060	0.277
-738.069	-18.603	0.113	0.070
-737.054	58.907	-0.244	0.240
-736.039	-150.210	-0.333	-0.026
-735.025	490.575	0.080	-0.182
-734.010	-102.915	-0.262	-0.062
-732.996	-70.149	-0.114	0.043
-731.981	-60.867	-0.111	0.047
-730.966	-71.792	-0.029	-0.011
-729.952	56.749	0.254	-0.248
-728.937	17.180	0.019	-0.015
-727.923	-3.403	-0.153	-0.106
-726.908	-129.941	0.236	0.032
-725.894	254.519	-0.061	-0.104
-724.879	-115.930	-0.037	-0.007
-723.864	-156.489	-0.135	-0.008
-722.850	163.973	-0.138	0.194
-721.835	-156.006	-0.294	-0.019
-720.821	-99.616	-0.341	-0.086
-719.806	800.000	-0.066	0.277
-718.791	194.091	-0.180	-0.272
-717.777	62.610	-0.321	-0.320
-716.762	800.000	-0.023	-0.095
-715.748	800.000	0.050	-0.211
-714.733	15.051	-0.206	-0.162
-713.718	162.678	-0.010	0.014
-712.704	-74.206	-0.253	-0.091
-711.689	139.691	-0.036	-0.048
-710.675	564.341	0.041	-0.100
-709.660	-164.371	0.196	0.009
-708.645	800.000	-0.010	0.037
-707.631	388.741	-0.110	-0.227
-706.616	34.910	0.224	0.196
-705.602	526.207	-0.259	0.610
-704.587	170.505	-0.049	0.070
-703.572	-35.933	-0.059	-0.032
-702.558	512.921	0.029	0.067
-701.543	22.986	-0.076	0.063
-700.529	407.998	0.107	-0.226
-699.514	109.062	0.155	0.185
-698.499	-200.000	-0.068	0.365
-697.485	800.000	-0.062	0.241
-696.470	161.846	0.180	-0.252
-695.456	638.685	-0.053	-0.135
-694.441	-26.393	-0.132	-0.077
-693.426	-105.494	-0.099	-0.022
-692.412	-50.537	-0.189	0.089
-691.397	96.150	-0.118	-0.134
-690.383	507.899	0.093	0.215
-689.368	21.858	-0.024	-0.019
-688.354	779.906	-0.078	0.214
-687.339	-106.689	0.075	-0.017
-686.324	171.892	-0.024	0.034
-685.310	178.260	-0.175	-0.255
-684.295	800.000	0.030	0.132
-683.281	388.051	0.090	-0.185
-682.266	800.000	0.076	-0.271
-681.251	-32.050	-0.216	0.120
-680.237	-200.000	0.014	0.119
-679.222	-138.523	0.370	-0.041
-678.208	-103.810	-0.095	0.022
-677.193	-200.000	0.035	-0.176
-676.178	304.968	-0.076	0.141
-675.164	64.337	0.060	-0.060
-674.149	800.000	0.028	-0.111
-673.135	800.000	-0.065	-0.273
-672.120	-101.083	0.272	0.066
-671.105	-83.558	-0.197	0.063
-670.091	541.124	0.040	0.095
-669.076	-110.066	0.325	0.068
-668.062	-131.616	0.196	-0.026
-667.047	-200.000	-0.076	-0.551
-666.032	-200.000	0.060	0.324
-665.018	540.405	-0.035	-0.083
-664.003	33.126	-0.241	0.209
-662.989	-148.001	0.172	0.014
-661.974	-70.609	-0.219	0.083
-660.959	133.276	-0.233	-0.300
-659.945	94.327	-0.151	-0.171
-658.930	800.000	0.008	-0.034
-657.916	-200.000	-0.011	-0.073
-656.901	51.891	0.143	-0.136
-655.886	78.329	-0.377	0.401
-654.872	23.297	-0.095	-0.078
-653.857	-159.542	0.128	-0.007
-652.843	-152.235	-0.217	-0.016
-651.828	57.484	0.280	-0.273
-650.814	-161.381	0.150	0.008
-649.799	135.785	-0.084	-0.110
-648.784	476.520	-0.041	0.092
-647.770	800.000	-0.085	-0.305
-646.755	-200.000	0.007	-0.117
-645.741	91.277	0.097	-0.109
-644.726	198.254	-0.122	-0.186
-643.711	411.733	0.082	-0.173
-642.697	772.681	0.039	-0.106
-641.682	143.860	-0.256	0.341
-640.668	-12.813	0.049	0.032
-639.653	167.165	0.056	-0.079
-638.638	110.716	-0.144	-0.173
-637.624	800.000	0.077	-0.270
-636.609	-155.801	-0.309	-0.020
-635.595	-125.497	0.212	-0.032
-634.580	406.509	-0.086	-0.180
-633.565	-200.000	0.021	0.158
-632.551	-144.564	-0.210	0.019
-631.536	125.464	-0.066	-0.083
-630.522	235.523	0.177	-0.292
-629.507	314.923	0.078	0.147
-628.492	39.135	-0.255	-0.228
-627.478	-200.000	0.012	0.073
-626.463	41.454	-0.179	0.162
-625.449	333.260	-0.015	-0.028
-624.434	140.403	0.107	-0.141
-623.419	-81.368	0.324	-0.106
-622.405	-93.484	-0.312	0.086
-621.390	-54.330	0.186	0.084
-620.376	800.000	0.072	-0.266
-619.361	285.507	-0.134	0.240
-618.346	-120.887	-0.232	0.039
-617.332	27.747	-0.400	0.335
-616.317	183.220	-0.207	0.305
-615.303	39.755	-0.250	0.224
-614.288	53.303	-0.065	0.062
-613.273	-87.007	-0.154	-0.047
-612.259	-120.769	0.116	-0.020
-611.244	117.021	0.085	-0.103
-610.230	240.363	0.079	0.131
-609.215	469.236	-0.086	0.191
-608.201	90.215	-0.341	-0.380
-607.186	-200.000	-0.010	0.190
-606.171	3.188	0.226	0.164
-605.157	-146.639	0.425	0.037
-604.142	-105.291	0.250	-0.057
-603.128	456.348	0.124	-0.275
-602.113	658.421	-0.114	0.291
-601.098	45.515	-0.172	0.158
-600.084	263.343	0.085	0.148
-599.069	127.443	-0.036	0.046
-598.055	-3.524	-0.160	-0.111
-597.040	-200.000	0.015	-0.193
-596.025	-200.000	-0.070	0.321
-595.011	-62.822	-0.344	-0.142
-593.996	-93.481	0.161	-0.044
-592.982	-54.999	-0.064	0.029
-591.967	800.000	-0.076	-0.237
-590.952	-82.128	0.153	0.050
-589.938	-79.397	-0.195	-0.066
-588.923	48.100	0.108	-0.101
-587.909	21.458	-0.228	0.184
-586.894	239.685	0.041	-0.068
-585.879	-24.886	0.088	0.052
-584.865	4.522	-0.188	-0.137
-583.850	-200.000	0.014	-0.223
-582.836	800.000	-0.074	-0.204
-581.821	238.204	0.123	-0.204
-580.806	-200.000	0.015	0.309
-579.792	66.265	-0.096	-0.097
-578.777	-4.798	-0.416	0.285
-577.763	14.117	0.042	0.032
-576.748	-200.000	-0.083	-0.387
-575.733	-112.623	0.222	-0.044
-574.719	61.704	-0.119	-0.117
-573.704	301.923	-0.104	-0.192
-572.690	403.704	-0.060	-0.126
-571.675	-200.000	-0.024	0.210
-570.661	91.838	0.155	0.173
-569.646	-13.418	-0.111	0.072
-568.631	-32.855	-0.236	0.130
-567.617	-68.128	0.239	-0.092
-566.602	800.000	-0.061	0.190
-565.588	3.302	0.246	0.178
-564.573	480.192	-0.027	0.062
-563.558	800.000	0.123	0.374
-562.544	-56.015	-0.102	0.045
-561.529	-200.000	0.038	0.311
-560.515	26.480	-0.226	-0.188
-559.500	-200.000	0.008	0.346
-558.485	-162.903	-0.101	-0.005
-557.471	-179.917	0.214	-0.005
-556.456	141.989	0.113	-0.149
-555.442	-43.202	-0.125	-0.063
-554.427	6.322	-0.186	-0.137
-553.412	37.918	-0.035	-0.031
-552.398	-68.583	-0.342	0.132
-551.383	610.002	0.082	-0.203
-550.369	378.998	-0.141	-0.286
-549.354	334.167	0.060	-0.116
-548.339	110.681	-0.101	0.121
-547.325	-200.000	0.019	-0.133
-546.310	80.244	0.225	-0.241
-545.296	-200.000	0.006	-0.080
-544.281	160.031	0.117	-0.161
-543.266	-55.349	0.429	-0.191
-542.252	101.121	0.117	0.135
-541.237	-11.926	0.211	0.138
-540.223	-56.339	0.331	-0.146
-539.208	-200.000	0.067	0.299
-538.193	-58.321	0.308	0.133
-537.179	-95.463	-0.302	0.080
-536.164	-49.633	0.036	0.017
-535.150	800.000	-0.050	-0.196
-534.135	-200.000	0.036	-0.249
-533.121	-200.000	-0.043	-0.367
-532.106	-22.014	-0.113	-0.068
-531.091	-200.000	-0.024	0.217
-530.077	800.000	-0.030	-0.101
-529.062	-24.250	0.123	0.073
-528.048	424.749	-0.128	0.273
-527.033	166.109	0.103	0.145
-526.018	217.495	-0.205	0.324
-525.004	-132.009	-0.075	-0.010
-523.989	-200.000	-0.001	0.050
-522.975	-50.951	-0.335	0.156
-521.960	187.542	-0.084	0.124
-520.945	-38.542	-0.250	-0.131
-519.931	-200.000	-0.042	-0.260
-518.916	55.860	-0.189	-0.182
-517.902	88.304	-0.191	-0.211
-516.887	202.727	0.269	0.412
-515.872	33.550	-0.608	0.524
-514.858	-200.000	-0.036	-0.496
-513.843	20.429	0.232	-0.186
-512.829	-200.000	0.015	-0.198
-511.814	235.636	-0.156	-0.256
-510.799	-200.000	0.011	0.128
-509.785	-57.587	-0.085	-0.037
-508.770	-120.339	-0.597	0.101
-507.756	-80.012	-0.144	0.048
-506.741	800.000	0.016	-0.060
-505.726	-172.136	0.163	0.005
-504.712	231.386	-0.065	0.105
-503.697	800.000	0.101	-0.280
-502.683	189.030	-0.036	0.053
-501.668	-100.726	0.147	-0.036
-500.653	47.450	-0.036	-0.034
-499.639	202.330	0.102	0.156
-498.624	-200.000	0.023	-0.247
-497.610	-122.020	-0.110	-0.018
-496.595	-200.000	-0.004	0.113
-495.581	69.569	-0.205	-0.210
-494.566	-200.000	0.000	-0.124
-493.551	37.162	-0.238	0.209
-492.537	-63.040	-0.015	0.006
-491.522	-131.720	-0.181	-0.024
-490.508	243.767	0.223	0.371
-489.493	403.907	0.188	0.393
-488.478	264.706	-0.108	0.187
-487.464	86.885	0.203	-0.223
-486.449	800.000	0.043	0.157
-485.435	-200.000	0.024	-0.168
-484.420	177.218	-0.107	-0.155
-483.405	-20.130	0.198	0.121
-482.391	70.572	-0.072	0.074
-481.376	-200.000	0.020	-0.093
-480.362	506.536	-0.057	0.132
-479.347	800.000	0.105	0.324
-478.332	-102.157	0.150	0.036
-477.318	-190.482	-0.513	0.006
-476.303	6.741	0.239	-0.176
-475.289	-200.000	0.197	-0.001
-474.274	44.546	0.322	0.293
-473.259	-200.000	0.229	-0.001
-472.245	800.000	-0.081	-0.319
-471.230	334.039	0.065	0.124
-470.216	-200.000	-0.011	0.335
-469.201	-56.385	-0.158	0.070
-468.186	-19.200	0.179	0.110
-467.172	-108.227	-0.256	0.055
-466.157	-24.867	-0.082	-0.048
-465.143	-64.939	0.421	-0.168
-464.128	-81.473	-0.355	0.116
-463.113	-83.893	0.188	-0.059
-462.099	-174.124	0.309	0.009
-461.084	188.634	-0.227	0.336
-460.070	171.309	-0.065	-0.093
-459.055	-60.236	0.356	0.150
-458.040	800.000	-0.075	-0.222
-457.026	-148.598	-0.233	-0.019
-456.011	72.965	0.123	-0.127
-454.997	-200.000	0.006	0.484
-453.982	-200.000	-0.038	0.201
-452.968	-200.000	0.008	-0.056
-451.953	687.303	0.069	0.177
-450.938	386.701	0.137	-0.279
-449.924	-41.881	-0.229	-0.116
-448.909	-198.697	-0.077	-0.000
-447.895	-200.000	-0.009	0.277
-446.880	-94.838	0.394	0.106
-445.865	86.877	-0.114	0.125
-444.851	-54.493	-0.175	0.078
-443.836	284.729	0.141	0.250
-442.822	800.000	0.052	-0.151
-441.807	-200.000	-0.003	0.049
-440.792	-160.097	-0.257	0.014
-439.778	-161.582	0.528	-0.027
-438.763	-108.709	-0.287	0.061
-437.749	66.705	0.114	0.115
-436.734	200.660	0.035	0.054
-435.719	216.697	-0.038	0.060
-434.705	-16.633	0.249	-0.156
-433.690	83.997	0.056	-0.060
-432.676	122.824	0.147	-0.182
-431.661	-0.835	-0.077	-0.054
-430.646	-58.936	-0.111	0.047
-429.632	-96.479	-0.222	-0.058
-428.617	-200.000	0.066	0.357
-427.603	-200.000	0.002	0.217
-426.588	800.000	-0.051	0.156
-425.573	165.146	0.143	0.200
-424.559	-69.220	-0.167	0.063
-423.544	455.281	0.101	0.221
-422.530	71.488	-0.131	0.134
-421.515	800.000	0.078	-0.325
-420.500	-107.964	-0.171	0.037
-419.486	-74.066	0.123	-0.044
-418.471	-109.587	-0.142	-0.030
-417.457	151.889	0.262	-0.353
-416.442	-200.000	0.016	0.217
-415.428	-116.038	0.146	0.027
-414.413	261.213	0.092	0.157
-413.398	-200.000	0.023	-0.139
-412.384	-100.291	0.143	0.035
-411.369	523.380	0.031	0.072
-410.355	-32.419	0.258	0.142
-409.340	64.284	-0.126	-0.125
-408.325	-200.000	-0.001	0.072
-407.311	-140.388	0.480	-0.049
-406.296	-124.770	0.207	0.032
-405.282	-91.014	-0.325	0.092
-404.267	14.972	0.099	-0.077
-403.252	562.915	0.063	-0.149
-402.238	130.266	0.219	0.277
-401.223	800.000	0.039	-0.136
-400.209	652.712	0.077	-0.194
-399.194	-86.402	-0.128	-0.039
-398.179	-200.000	-0.023	0.265
-397.165	800.000	0.049	-0.136
-396.150	-5.103	0.179	-0.122
-395.136	-200.000	-0.034	-0.205
-394.121	117.171	-0.043	0.052
-393.106	-17.708	0.174	0.108
-392.092	-86.068	-0.081	-0.025
-391.077	15.223	0.096	-0.075
-390.063	-26.855	-0.211	-0.122
-389.048	69.614	0.116	-0.118
-388.033	-200.000	0.038	-0.199
-387.019	-134.328	0.200	-0.024
-386.004	117.670	0.090	0.109
-384.990	-11.879	0.186	0.120
-383.975	800.000	0.091	0.366
-382.960	-200.000	0.015	0.265
-381.946	201.295	0.063	-0.095
-380.931	-34.681	-0.073	0.040
-379.917	224.465	-0.164	0.262
-378.902	39.753	0.164	0.146
-377.888	-5.312	-0.037	-0.025
-376.873	539.176	-0.115	-0.269
-375.858	-86.552	0.174	0.053
-374.844	43.093	-0.093	0.084
-373.829	-159.039	-0.199	-0.011
-372.815	-200.000	0.093	-0.564
-371.800	-200.000	0.016	-0.224
-370.785	-200.000	0.010	-0.317
-369.771	152.356	0.096	-0.129
-368.756	-200.000	-0.031	0.296
-367.742	-200.000	-0.032	-0.355
-366.727	224.587	-0.127	0.202
-365.712	-55.906	0.142	-0.063
-364.698	98.404	0.113	0.128
-363.683	-66.282	0.357	-0.140
-362.669	-81.082	-0.403	0.132
-361.654	-65.271	-0.049	-0.019
-360.639	-200.000	0.022	-0.209
-359.625	-52.191	-0.361	-0.165
-358.610	718.855	-0.102	-0.267
-357.596	-90.642	0.090	0.026
-356.581	149.512	-0.130	0.173
-355.566	-109.993	-0.119	-0.024
-354.552	288.219	-0.287	-0.511
-353.537	42.835	0.102	-0.091
-352.523	-79.412	0.300	0.100
-351.508	-97.959	0.155	-0.039
-350.493	62.279	0.134	-0.132
-349.479	-200.000	0.060	-0.272
-348.464	-45.179	0.129	0.063
-347.450	66.831	-0.180	-0.181
-346.435	91.356	-0.149	-0.165
-345.420	-200.000	-0.050	0.248
-344.406	-174.930	-0.374	-0.010
-343.391	-23.873	0.191	-0.113
-342.377	438.140	0.118	0.253
-341.362	-200.000	-0.011	0.184
-340.348	-42.578	-0.045	-0.022
-339.333	-131.627	0.160	-0.021
-338.318	435.589	0.201	0.432
-337.304	146.503	-0.221	-0.292
-336.289	-94.689	-0.043	-0.012
-335.275	529.839	-0.070	-0.163
-334.260	580.830	0.026	-0.064
-333.245	-167.617	0.322	0.013
-332.231	-131.508	-0.561	0.073
-331.216	69.003	0.041	0.042
-330.202	-200.000	-0.015	-0.257
-329.187	-200.000	0.007	-0.071
-328.172	-179.102	0.211	0.005
-327.158	-58.151	0.368	-0.158
-326.143	517.209	0.071	-0.163
-325.129	-93.021	-0.168	0.046
-324.114	-200.000	-0.044	0.342
-323.099	150.343	0.033	-0.045
-322.085	115.906	-0.187	0.225
-321.070	-119.010	-0.251	0.043
-320.056	144.027	0.042	-0.055
-319.041	26.493	-0.151	0.124
-318.026	-101.620	-0.378	-0.090
-317.012	-52.820	0.285	0.129
-315.997	-125.265	0.210	-0.032
-314.983	89.962	-0.201	0.221
-313.968	-200.000	-0.022	0.105
-312.953	-200.000	-0.044	0.374
-311.939	-200.000	-0.003	-0.029
-310.924	-11.565	-0.285	-0.184
-309.910	98.490	-0.361	-0.409
-308.895	106.951	0.114	-0.134
-307.880	-4.666	-0.234	-0.159
-306.866	-43.480	0.213	-0.106
-305.851	-112.757	0.239	-0.047
-304.837	-200.000	0.005	-0.196
-303.822	800.000	0.074	-0.291
-302.807	-200.000	-0.003	-0.028
-301.793	182.625	0.103	0.149
-300.778	800.000	0.056	-0.162
-299.764	-107.266	-0.333	-0.072
-298.749	430.472	-0.015	-0.031
-297.735	-119.198	0.248	-0.043
-296.720	4.433	0.086	0.062
-295.705	-200.000	0.051	-0.292
-294.691	52.627	-0.132	0.124
-293.676	-200.000	0.021	0.175
-292.662	-92.712	-0.107	-0.029
-291.647	-144.062	-0.391	0.036
-290.632	82.870	-0.098	-0.105
-289.618	160.487	0.120	0.165
-288.603	0.583	-0.244	0.172
-287.589	5.333	0.330	0.239
-286.574	76.242	0.083	-0.087
-285.559	800.000	-0.069	0.228
-284.545	-200.000	-0.031	-0.309
-283.530	-172.574	0.054	0.002
-282.516	-200.000	0.247	0.001
-281.501	384.464	-0.087	0.176
-280.486	-200.000	-0.046	0.217
-279.472	446.741	0.101	0.219
-278.457	378.138	-0.029	0.058
-277.443	800.000	-0.083	-0.274
-276.428	-118.971	0.446	-0.077
-275.413	-200.000	0.036	0.265
-274.399	33.671	-0.189	-0.161
-273.384	-200.000	0.059	-0.547
-272.370	-200.000	-0.069	-0.437
-271.355	52.644	-0.104	0.097
-270.340	-30.211	-0.197	-0.110
-269.326	-200.000	-0.027	-0.251
-268.311	236.038	0.074	0.121
-267.297	168.237	-0.072	-0.101
-266.282	201.619	-0.142	-0.215
-265.267	30.691	-0.103	0.087
-264.253	54.940	-0.155	0.147
-263.238	-109.964	-0.268	0.055
-262.224	-136.631	-0.129	0.015
-261.209	607.279	0.181	0.443
-260.195	346.966	0.143	-0.277
-259.180	-155.904	0.139	-0.009
-258.165	54.261	0.068	-0.064
-257.151	-44.584	-0.351	-0.172
-256.136	675.730	-0.074	-0.190
-255.122	401.164	-0.087	0.179
-254.107	-41.638	0.369	-0.186
-253.092	399.866	0.049	0.101
-252.078	-184.848	-0.265	-0.004
-251.063	-135.790	-0.170	-0.020
-250.049	230.181	-0.118	0.190
-249.034	-171.973	0.320	-0.010
-248.019	-100.975	0.190	-0.046
-247.005	128.839	-0.295	0.370
-245.990	204.531	0.072	-0.109
-244.976	325.680	-0.094	0.176
-243.961	492.925	0.063	0.141
-242.946	800.000	-0.039	-0.122
-241.932	-52.966	-0.232	-0.105
-240.917	-136.232	-0.136	0.016
-239.903	122.965	0.202	0.248
-238.888	800.000	-0.063	0.268
-237.873	-160.741	-0.377	0.020
-236.859	-112.925	0.293	0.057
-235.844	10.189	-0.412	0.307
-234.830	-104.440	-0.188	0.043
-233.815	-16.223	-0.259	-0.161
-232.800	-200.000	-0.008	-0.187
-231.786	-47.223	0.199	-0.095
-230.771	-6.176	0.196	-0.131
-229.757	-126.462	0.300	-0.044
-228.742	70.086	-0.088	-0.089
-227.727	-178.786	0.333	0.007
-226.713	12.671	-0.255	0.193
-225.698	166.723	0.073	-0.101
-224.684	-200.000	0.009	0.251
-223.669	-200.000	0.011	-0.154
-222.655	-101.872	0.294	0.070
-221.640	242.817	0.018	0.030
-220.625	-117.601	0.368	-0.065
-219.611	74.965	-0.139	-0.144
-218.596	75.981	-0.102	-0.105
-217.582	-101.139	0.274	0.066
-216.567	2.337	0.079	-0.056
-215.552	-200.000	0.016	-0.083
-214.538	-200.000	0.004	-0.345
-213.523	143.496	0.197	0.258
-212.509	-111.810	0.104	-0.021
-211.494	-150.944	-0.345	0.026
-210.479	13.919	0.140	-0.107
-209.465	425.522	-0.018	-0.039
-208.450	800.000	0.135	0.454
-207.436	366.832	-0.068	-0.135
-206.421	800.000	0.099	-0.344
-205.406	800.000	0.042	0.177
-204.392	25.795	0.165	-0.134
-203.377	424.082	0.059	0.124
-202.363	-89.763	-0.084	0.024
-201.348	-45.608	0.246	-0.119
-200.333	-200.000	-0.021	0.113
-199.319	-148.978	0.028	0.002
-198.304	800.000	-0.044	-0.138
-197.290	-123.911	0.050	-0.008
-196.275	177.124	0.127	0.181
-195.260	-200.000	-0.003	0.301
-194.246	-91.952	-0.281	-0.078
-193.231	-200.000	-0.019	-0.422
-192.217	-92.779	0.050	-0.014
-191.202	48.387	0.162	0.148
-190.187	-76.939	0.384	-0.131
-189.173	-120.898	-0.275	0.045
-188.158	119.058	-0.103	0.125
-187.144	800.000	0.047	0.189
-186.129	-38.612	0.185	-0.096
-185.114	-71.352	0.207	-0.076
-184.100	-107.148	-0.295	-0.064
-183.085	161.257	0.159	0.218
-182.071	164.080	-0.074	0.103
-181.056	-200.000	-0.040	0.324
-180.042	-200.000	0.010	-0.098
-179.027	-200.000	-0.003	0.133
-178.012	-200.000	-0.024	-0.183
-176.998	-200.000	0.059	0.270
-175.983	89.041	0.337	0.367
-174.969	205.861	-0.051	0.077
-173.954	102.100	0.048	-0.055
-172.939	-99.425	0.443	0.109
-171.925	800.000	-0.101	0.284
-170.910	160.828	-0.095	-0.130
-169.896	-200.000	0.029	-0.220
-168.881	-84.536	0.134	0.041
-167.866	-63.569	0.425	-0.171
-166.852	292.073	-0.103	0.184
-165.837	-129.214	-0.067	0.009
-164.823	-37.402	0.111	0.058
-163.808	800.000	-0.122	0.399
-162.793	-132.569	-0.080	-0.010
-161.779	-65.661	0.168	0.066
-160.764	199.136	0.082	0.123
-159.750	-38.750	0.051	0.026
-158.735	-200.000	-0.042	-0.596
-157.720	800.000	-0.146	-0.409
-156.706	-134.153	-0.074	-0.009
-155.691	-139.881	-0.096	0.010
-154.677	-66.396	0.198	-0.077
-153.662	0.138	0.297	0.207
-152.647	31.238	0.089	0.075
-151.633	-200.000	-0.043	-0.318
-150.618	800.000	0.129	0.404
-149.604	-60.640	-0.179	0.074
-148.589	800.000	-0.015	0.053
-147.574	-4.746	-0.194	0.131
-146.560	320.148	0.131	-0.242
-145.545	-89.171	-0.072	-0.021
-144.531	6.040	-0.257	0.186
-143.516	800.000	-0.069	-0.279
-142.502	-105.701	-0.204	0.045
-141.487	299.148	-0.046	0.083
-140.472	-73.407	-0.124	-0.044
-139.458	537.955	0.191	-0.444
-138.443	-114.965	-0.070	0.013
-137.429	122.568	-0.160	-0.195
-136.414	800.000	0.054	0.206
-135.399	800.000	0.108	-0.294
-134.385	4.442	-0.078	0.056
-133.370	291.825	-0.061	0.109
-132.356	-57.944	0.170	0.072
-131.341	-200.000	-0.032	0.176
-130.326	448.331	-0.083	-0.178
-129.312	101.830	0.234	0.267
-128.297	-200.000	-0.058	0.253
-127.283	-200.000	-0.006	0.053
-126.268	134.972	0.183	0.233
-125.253	800.000	-0.043	-0.157
-124.239	800.000	-0.050	-0.144
-123.224	701.386	0.114	0.293
-122.210	11.830	0.186	0.139
