DTS Sentinel unit serial number:	SN413079Multiplexer serial number:	ORYXHardware model number:	OX4-SRSoftware version number:	ORYX F/W v4.00 Oryx Data Collector v3.7.2.0data status	okinstallation	princeton_trtdifferential loss correction	single-endedforward channel	channel 3reverse channel	N/Adate	2019/09/19time	01:56:35forward acquisition time	60.00reverse acquisition time	0.00gamma	496.2192k internal	0.2348k external	0.2348temperature offset calibration	0.9986default loss term (dB/km)	0.3790temperature slope calibration	1.0000multiplexer offset coefficient	1.0000multiplexer slope coefficient	1.0000fibre end	0.00T internal ref (°C)	21.31T ext. ref 1 (°C)	0.68T ext. ref 2 (°C)	14.86length (m)	temperature (°C)	Stokes	anti-Stokes-747.200	75.984	0.092	-0.097
-746.185	83.623	-0.122	0.133
-745.171	-172.570	0.201	-0.006
-744.156	800.000	-0.071	0.281
-743.142	-200.000	-0.053	0.266
-742.127	-116.385	0.136	-0.025
-741.112	-16.616	0.091	0.058
-740.098	-200.000	-0.004	0.077
-739.083	21.670	-0.163	0.132
-738.069	800.000	0.027	0.105
-737.054	28.558	-0.181	0.153
-736.039	80.326	-0.167	-0.179
-735.025	571.652	-0.155	0.378
-734.010	90.210	0.063	-0.070
-732.996	-135.228	-0.312	0.037
-731.981	-66.489	0.256	0.101
-730.966	151.096	0.126	-0.171
-729.952	224.978	0.138	-0.223
-728.937	-26.861	0.310	-0.181
-727.923	-105.256	-0.419	-0.095
-726.908	-122.619	0.318	-0.051
-725.894	-10.358	-0.193	-0.128
-724.879	-200.000	0.009	-0.341
-723.864	109.865	0.169	-0.203
-722.850	258.706	0.051	0.088
-721.835	-115.290	-0.032	0.006
-720.821	-200.000	-0.016	-0.187
-719.806	708.962	-0.030	0.078
-718.791	800.000	0.064	-0.202
-717.777	-135.305	-0.360	0.043
-716.762	323.910	-0.109	0.207
-715.748	-56.685	-0.081	0.036
-714.733	-200.000	0.008	-0.217
-713.718	-200.000	-0.004	-0.088
-712.704	800.000	0.057	-0.171
-711.689	-200.000	0.012	-0.119
-710.675	-95.632	-0.367	-0.098
-709.660	-132.798	-0.439	-0.056
-708.645	-200.000	-0.009	0.054
-707.631	780.216	-0.088	-0.241
-706.616	595.064	-0.038	0.094
-705.602	-200.000	0.017	0.090
-704.587	-75.567	0.142	0.050
-703.572	-25.601	0.259	-0.153
-702.558	37.904	-0.070	-0.062
-701.543	-200.000	-0.036	-0.315
-700.529	-200.000	0.048	0.227
-699.514	-146.456	-0.428	0.037
-698.499	-72.784	-0.372	-0.137
-697.485	427.313	0.013	-0.027
-696.470	-48.113	0.202	0.097
-695.456	-200.000	-0.034	0.285
-694.441	198.577	0.138	0.211
-693.426	177.729	-0.074	0.107
-692.412	-180.474	-0.433	0.009
-691.397	-118.172	0.069	-0.012
-690.383	283.294	0.083	0.149
-689.368	-102.148	-0.146	-0.035
-688.354	71.030	0.208	-0.215
-687.339	113.190	0.104	0.126
-686.324	-72.919	0.158	-0.058
-685.310	461.189	-0.091	-0.203
-684.295	-12.729	0.096	0.062
-683.281	7.176	0.223	-0.166
-682.266	-107.935	-0.230	-0.050
-681.251	800.000	0.096	0.270
-680.237	128.218	-0.106	-0.134
-679.222	-34.004	0.180	-0.099
-678.208	-113.502	0.326	0.064
-677.193	195.988	-0.174	0.264
-676.178	-200.000	0.018	-0.219
-675.164	42.992	0.311	0.282
-674.149	800.000	-0.079	-0.319
-673.135	307.465	-0.080	0.148
-672.120	164.070	0.082	0.115
-671.105	528.894	0.131	0.307
-670.091	-75.700	0.077	-0.027
-669.076	-200.000	-0.071	0.623
-668.062	-47.045	-0.161	0.078
-667.047	-200.000	-0.471	0.002
-666.032	35.424	-0.113	-0.099
-665.018	422.943	0.070	-0.150
-664.003	-119.164	-0.191	0.033
-662.989	409.072	-0.126	0.266
-661.974	-36.132	-0.361	-0.194
-660.959	-200.000	-0.089	-0.396
-659.945	53.136	0.263	-0.251
-658.930	-8.652	0.099	0.066
-657.916	88.033	0.054	-0.060
-656.901	-200.000	0.031	-0.331
-655.886	-121.850	0.357	0.059
-654.872	-130.971	0.177	-0.024
-653.857	800.000	0.007	0.020
-652.843	-200.000	-0.079	0.377
-651.828	-200.000	-0.012	0.112
-650.814	-200.000	-0.025	-0.261
-649.799	258.553	0.105	-0.180
-648.784	-33.264	0.067	-0.037
-647.770	-105.003	0.205	-0.047
-646.755	-200.000	-0.001	-0.114
-645.741	800.000	0.067	-0.190
-644.726	134.269	-0.135	0.175
-643.711	78.688	-0.203	0.216
-642.697	-46.189	-0.150	-0.073
-641.682	795.595	0.157	0.431
-640.668	-114.713	-0.358	-0.068
-639.653	-100.244	0.150	0.037
-638.638	588.339	-0.058	0.141
-637.624	6.185	0.104	-0.077
-636.609	-58.392	-0.237	0.103
-635.595	0.482	-0.143	0.101
-634.580	-187.498	-0.334	-0.004
-633.565	473.115	0.091	-0.205
-632.551	-200.000	-0.017	-0.111
-631.536	-4.339	-0.074	-0.051
-630.522	-100.774	0.234	-0.057
-629.507	-200.000	0.071	-0.359
-628.492	-200.000	-0.041	-0.228
-627.478	-200.000	0.034	0.234
-626.463	-200.000	0.022	0.144
-625.449	-141.452	-0.230	0.023
-624.434	-74.720	0.105	-0.038
-623.419	-49.022	-0.257	0.122
-622.405	15.013	0.119	0.093
-621.390	-42.332	-0.077	-0.039
-620.376	-200.000	0.026	0.223
-619.361	-200.000	0.004	-0.220
-618.346	198.523	-0.173	-0.263
-617.332	-39.380	-0.173	0.090
-616.317	-200.000	-0.015	0.146
-615.303	144.265	0.230	-0.306
-614.288	-67.868	-0.108	-0.042
-613.273	702.474	0.130	-0.341
-612.259	-99.510	-0.123	0.031
-611.244	0.694	0.254	0.181
-610.230	64.300	0.131	0.131
-609.215	-200.000	0.014	-0.074
-608.201	-136.820	-0.290	-0.033
-607.186	-200.000	-0.032	0.433
-606.171	-68.761	-0.080	0.031
-605.157	-142.440	0.261	0.026
-604.142	-43.572	-0.238	-0.120
-603.128	-200.000	0.036	0.302
-602.113	-31.335	0.150	0.084
-601.098	-200.000	0.055	-0.308
-600.084	196.764	-0.035	0.053
-599.069	75.296	0.310	0.325
-598.055	509.264	0.192	0.442
-597.040	-119.970	0.238	0.041
-596.025	-13.751	-0.138	-0.089
-595.011	-28.054	-0.240	0.138
-593.996	183.645	0.129	-0.189
-592.982	-164.060	-0.098	0.004
-591.967	120.585	-0.175	-0.216
-590.952	800.000	0.022	-0.078
-589.938	-200.000	0.025	-0.223
-588.923	-151.171	-0.212	0.016
-587.909	-51.785	0.162	0.075
-586.894	800.000	-0.064	0.219
-585.879	26.679	0.217	0.180
-584.865	-164.423	-0.205	-0.009
-583.850	-108.174	0.299	0.064
-582.836	369.218	0.114	-0.228
-581.821	388.854	0.035	-0.071
-580.806	179.073	-0.165	0.239
-579.792	-199.608	0.259	-0.001
-578.777	-23.155	0.215	0.128
-577.763	-200.000	-0.051	-0.261
-576.748	-64.130	0.314	-0.127
-575.733	219.660	-0.152	0.241
-574.719	37.171	0.125	0.110
-573.704	-89.519	-0.270	0.079
-572.690	-200.000	0.054	-0.423
-571.675	-88.154	-0.307	-0.091
-570.661	0.652	0.039	0.028
-569.646	-200.000	0.005	-0.167
-568.631	6.343	0.067	-0.049
-567.617	-200.000	0.011	-0.058
-566.602	-70.876	0.145	-0.054
-565.588	67.518	-0.270	0.274
-564.573	243.235	0.099	-0.165
-563.558	-84.502	0.253	0.079
-562.544	-133.605	-0.070	0.009
-561.529	16.229	-0.060	-0.047
-560.515	-165.382	0.142	-0.006
-559.500	-40.853	-0.180	-0.093
-558.485	-94.312	-0.364	0.099
-557.471	-200.000	-0.028	0.146
-556.456	545.686	-0.104	-0.246
-555.442	36.139	-0.123	-0.107
-554.427	800.000	-0.008	0.033
-553.412	-44.338	0.288	-0.143
-552.398	628.850	0.087	-0.219
-551.383	-25.357	0.212	-0.124
-550.369	45.370	-0.052	-0.048
-549.354	800.000	-0.186	0.561
-548.339	216.063	0.002	0.004
-547.325	20.539	0.190	-0.152
-546.310	293.713	0.086	-0.156
-545.296	42.497	0.108	-0.097
-544.281	71.793	-0.086	0.089
-543.266	-49.792	-0.088	0.041
-542.252	26.480	-0.066	-0.055
-541.237	129.100	-0.090	-0.114
-540.223	36.824	0.135	0.119
-539.208	-114.488	-0.300	-0.057
-538.193	18.063	-0.255	0.201
-537.179	70.909	0.030	-0.031
-536.164	-120.245	-0.150	0.025
-535.150	525.661	-0.085	-0.198
-534.135	9.262	-0.206	-0.154
-533.121	800.000	-0.072	-0.279
-532.106	-200.000	0.065	-0.294
-531.091	68.779	-0.178	-0.181
-530.077	-12.949	-0.173	-0.112
-529.062	-84.813	-0.209	-0.065
-528.048	800.000	-0.060	0.240
-527.033	-52.528	0.068	-0.031
-526.018	218.355	-0.042	-0.066
-525.004	90.775	-0.064	0.071
-523.989	-34.341	0.129	0.070
-522.975	-200.000	-0.060	-0.292
-521.960	-200.000	-0.091	0.484
-520.945	2.533	0.176	-0.126
-519.931	-200.000	-0.001	-0.341
-518.916	-114.506	0.201	0.038
-517.902	-149.801	-0.181	-0.014
-516.887	800.000	0.090	-0.351
-515.872	-82.505	-0.118	0.038
-514.858	800.000	0.052	0.183
-513.843	-41.737	0.217	-0.110
-512.829	-200.000	-0.008	-0.085
-511.814	-158.798	0.077	0.004
-510.799	-116.902	0.156	0.028
-509.785	-200.000	-0.001	-0.260
-508.770	161.114	0.032	0.044
-507.756	-200.000	-0.009	-0.067
-506.741	800.000	-0.047	-0.203
-505.726	-200.000	-0.016	-0.199
-504.712	20.792	0.101	-0.081
-503.697	30.280	0.169	-0.143
-502.683	-120.355	0.372	0.063
-501.668	350.839	0.098	-0.192
-500.653	-7.812	0.210	0.140
-499.639	-50.336	-0.106	-0.049
-498.624	800.000	0.088	0.287
-497.610	-200.000	0.009	0.081
-496.595	800.000	0.027	-0.112
-495.581	146.411	0.149	0.198
-494.566	800.000	-0.093	0.309
-493.551	-147.432	-0.190	0.016
-492.537	-12.211	-0.215	0.139
-491.522	800.000	-0.067	0.230
-490.508	800.000	0.024	0.069
-489.493	-147.331	0.117	0.010
-488.478	800.000	-0.050	0.138
-487.464	-200.000	-0.002	-0.122
-486.449	-95.218	-0.131	-0.035
-485.435	138.340	-0.166	-0.215
-484.420	800.000	0.095	-0.410
-483.405	-138.702	0.313	0.034
-482.391	-200.000	-0.024	0.135
-481.376	4.966	-0.345	-0.251
-480.362	-37.324	0.142	-0.075
-479.347	19.163	0.134	-0.106
-478.332	-76.279	0.155	-0.054
-477.318	-26.157	0.321	-0.186
-476.303	304.283	0.093	-0.171
-475.289	-6.890	-0.083	0.056
-474.274	-79.475	-0.110	0.037
-473.259	63.375	-0.108	0.107
-472.245	-200.000	0.048	-0.265
-471.230	312.266	-0.032	-0.060
-470.216	197.407	0.188	0.283
-469.201	299.074	-0.048	0.087
-468.186	-200.000	0.023	-0.123
-467.172	1.103	-0.155	-0.110
-466.157	11.168	0.211	0.159
-465.143	-200.000	0.356	0.001
-464.128	-79.478	-0.211	0.071
-463.113	-67.409	0.095	-0.037
-462.099	-3.961	0.122	-0.083
-461.084	-200.000	0.026	-0.157
-460.070	-74.385	0.114	0.041
-459.055	-167.469	0.044	-0.002
-458.040	53.312	-0.177	0.167
-457.026	-200.000	-0.000	0.327
-456.011	-200.000	-0.007	0.065
-454.997	-200.000	0.033	-0.183
-453.982	-157.067	-0.274	0.016
-452.968	134.167	-0.165	0.211
-451.953	800.000	-0.080	0.314
-450.938	8.796	0.144	-0.107
-449.924	531.186	0.151	0.353
-448.909	96.903	-0.106	0.120
-447.895	78.309	0.301	-0.318
-446.880	-148.818	0.230	-0.018
-445.865	108.735	0.076	0.089
-444.851	-145.843	0.182	-0.016
-443.836	654.904	-0.055	0.139
-442.822	-92.544	0.244	-0.068
-441.807	244.911	-0.109	-0.181
-440.792	94.524	-0.099	0.112
-439.778	-104.820	0.326	0.074
-438.763	549.594	0.115	0.273
-437.749	261.009	0.099	0.168
-436.734	10.965	0.077	-0.058
-435.719	-7.081	0.242	-0.162
-434.705	17.464	-0.029	-0.023
-433.690	-200.000	0.016	0.361
-432.676	800.000	0.022	0.078
-431.661	166.164	-0.096	-0.134
-430.646	3.023	0.214	-0.154
-429.632	800.000	-0.074	0.204
-428.617	-169.586	0.239	-0.009
-427.603	-129.720	0.363	0.049
-426.588	800.000	0.035	-0.118
-425.573	447.672	0.040	-0.086
-424.559	-200.000	-0.034	0.304
-423.544	800.000	-0.069	0.247
-422.530	230.465	0.048	0.077
-421.515	624.375	-0.132	-0.329
-420.500	-3.645	0.240	0.165
-419.486	225.403	0.155	-0.247
-418.471	-56.401	-0.116	-0.051
-417.457	-99.681	-0.266	-0.066
-416.442	-200.000	-0.028	-0.582
-415.428	-126.062	0.174	-0.026
-414.413	800.000	0.069	0.192
-413.398	-112.949	0.287	-0.056
-412.384	606.173	-0.051	0.126
-411.369	187.338	-0.165	-0.242
-410.355	61.182	0.116	0.114
-409.340	-4.261	-0.114	0.078
-408.325	-64.026	-0.287	0.116
-407.311	231.877	0.203	0.328
-406.296	800.000	-0.111	0.356
-405.282	-200.000	-0.008	0.255
-404.267	357.954	0.065	-0.127
-403.252	-39.906	-0.276	-0.142
-402.238	-189.017	0.079	0.001
-401.223	24.576	-0.223	-0.182
-400.209	159.868	0.153	0.211
-399.194	-200.000	-0.011	0.079
-398.179	3.780	-0.212	0.153
-397.165	-147.566	-0.280	-0.023
-396.150	44.277	0.221	0.200
-395.136	-200.000	-0.006	-0.156
-394.121	-30.863	-0.103	0.057
-393.106	-36.910	-0.277	-0.146
-392.092	168.636	0.041	-0.057
-391.077	-98.047	-0.449	0.114
-390.063	-41.571	0.161	0.081
-389.048	800.000	-0.060	0.258
-388.033	-200.000	-0.011	0.190
-387.019	-28.953	-0.298	-0.169
-386.004	-133.601	0.109	0.013
-384.990	-200.000	-0.020	-0.241
-383.975	-200.000	0.018	-0.251
-382.960	-27.120	-0.314	0.180
-381.946	19.466	0.087	0.069
-380.931	-24.633	-0.214	0.125
-379.917	149.232	0.175	-0.233
-378.902	-95.077	0.086	-0.023
-377.888	-6.981	0.250	0.167
-376.873	18.299	0.108	0.085
-375.858	91.806	-0.101	-0.111
-374.844	-55.240	0.329	-0.145
-373.829	226.310	-0.096	-0.153
-372.815	800.000	0.220	-0.639
-371.800	800.000	0.015	0.045
-370.785	-200.000	0.016	0.188
-369.771	-3.180	-0.129	0.089
-368.756	33.449	-0.091	0.078
-367.742	-141.946	0.187	-0.018
-366.727	-6.060	0.162	0.109
-365.712	-43.514	-0.271	-0.134
-364.698	61.990	0.200	0.196
-363.683	800.000	0.056	0.192
-362.669	-3.370	-0.228	0.156
-361.654	-64.476	0.074	-0.030
-360.639	441.175	-0.063	-0.136
-359.625	-93.609	0.161	0.044
-358.610	-132.714	-0.165	0.021
-357.596	167.221	-0.230	-0.321
-356.581	28.391	0.102	-0.085
-355.566	-87.944	0.256	0.076
-354.552	800.000	0.048	0.163
-353.537	85.218	0.280	0.302
-352.523	543.823	-0.022	0.051
-351.508	355.037	-0.180	0.353
-350.493	-14.726	0.206	-0.130
-349.479	-10.496	0.213	-0.139
-348.464	191.396	0.198	-0.294
-347.450	-117.986	-0.147	-0.026
-346.435	-116.718	0.218	-0.039
-345.420	181.226	-0.032	-0.046
-344.406	-87.281	-0.065	-0.019
-343.391	570.883	-0.049	-0.118
-342.377	72.030	0.218	-0.223
-341.362	90.413	0.076	-0.083
-340.348	-200.000	0.015	0.172
-339.333	7.039	-0.231	-0.169
-338.318	-100.117	0.092	-0.023
-337.304	152.339	-0.031	0.041
-336.289	149.934	0.097	-0.129
-335.275	123.347	-0.036	-0.044
-334.260	365.017	-0.080	-0.159
-333.245	244.596	0.105	0.173
-332.231	0.052	-0.043	-0.030
-331.216	3.619	-0.247	-0.177
-330.202	-200.000	-0.013	0.186
-329.187	148.787	0.082	0.109
-328.172	-112.287	0.089	0.018
-327.158	667.130	0.070	-0.178
-326.143	-132.806	0.246	0.031
-325.129	800.000	-0.136	-0.472
-324.114	800.000	-0.096	-0.325
-323.099	9.781	0.097	0.072
-322.085	-72.278	0.347	0.126
-321.070	137.120	0.100	-0.128
-320.056	387.356	0.187	0.379
-319.041	-200.000	-0.020	0.345
-318.026	-39.988	0.144	-0.074
-317.012	-173.156	-0.255	-0.008
-315.997	-155.811	0.447	-0.028
-314.983	216.019	-0.057	-0.089
-313.968	186.640	-0.069	-0.101
-312.953	-112.370	-0.233	-0.046
-311.939	800.000	-0.046	-0.129
-310.924	-92.405	-0.041	0.011
-309.910	800.000	-0.059	0.251
-308.895	111.607	0.209	-0.247
-307.880	-173.781	-0.218	-0.006
-306.866	-200.000	0.067	0.482
-305.851	800.000	0.042	-0.139
-304.837	-95.304	-0.332	-0.088
-303.822	98.080	0.276	0.312
-302.807	-191.260	-0.055	-0.001
-301.793	14.150	0.299	0.229
-300.778	-39.689	-0.219	0.112
-299.764	249.712	-0.120	0.200
-298.749	-60.140	-0.008	0.003
-297.735	-200.000	-0.036	0.240
-296.720	148.859	-0.238	0.316
-295.705	-200.000	-0.019	-0.396
-294.691	-119.178	-0.263	0.045
-293.676	-200.000	-0.038	-0.307
-292.662	800.000	-0.041	-0.122
-291.647	-2.883	-0.342	-0.234
-290.632	16.541	0.032	0.025
-289.618	658.171	-0.053	-0.134
-288.603	-22.647	-0.154	0.091
-287.589	672.403	-0.106	-0.270
-286.574	-48.609	0.023	-0.011
-285.559	44.333	0.126	0.114
-284.545	-62.029	0.197	0.081
-283.530	48.311	-0.190	-0.174
-282.516	91.442	-0.194	0.214
-281.501	58.577	-0.360	0.347
-280.486	116.986	0.127	0.153
-279.472	104.480	-0.163	0.188
-278.457	-80.770	0.401	-0.131
-277.443	100.140	-0.261	0.296
-276.428	-200.000	-0.014	0.271
-275.413	-103.628	0.312	0.072
-274.399	-18.282	0.058	0.036
-273.384	-71.084	0.064	0.024
-272.370	-200.000	0.080	-0.457
-271.355	-33.641	0.313	-0.170
-270.340	800.000	0.046	0.174
-269.326	-127.512	0.308	-0.044
-268.311	800.000	0.041	-0.128
-267.297	49.326	-0.193	0.178
-266.282	240.104	-0.024	0.040
-265.267	-16.129	-0.245	-0.152
-264.253	234.895	-0.187	-0.303
-263.238	-67.848	-0.156	0.060
-262.224	-124.339	-0.398	-0.061
-261.209	-200.000	-0.048	-0.402
-260.195	-44.241	0.130	0.064
-259.180	437.005	-0.117	-0.250
-258.165	-106.080	-0.118	0.026
-257.151	800.000	0.100	0.280
-256.136	800.000	0.135	-0.365
-255.122	45.729	0.087	0.079
-254.107	-166.771	-0.263	-0.011
-253.092	-200.000	0.015	-0.112
-252.078	-200.000	-0.018	0.200
-251.063	77.803	0.298	0.311
-250.049	7.238	-0.138	-0.101
-249.034	581.654	0.100	0.240
-248.019	-161.178	0.028	-0.001
-247.005	-47.277	-0.116	-0.055
-245.990	211.715	0.068	-0.105
-244.976	-99.953	-0.166	0.041
-243.961	-200.000	-0.016	-0.201
-242.946	800.000	-0.028	-0.079
-241.932	-153.590	0.303	0.021
-240.917	-83.607	-0.091	0.028
-239.903	129.712	-0.133	0.166
-238.888	-45.722	-0.096	0.046
-237.873	53.496	0.085	-0.080
-236.859	167.830	0.205	-0.286
-235.844	-133.906	-0.333	0.041
-234.830	800.000	-0.036	0.103
-233.815	-1.484	-0.109	0.075
-232.800	367.681	-0.062	-0.122
-231.786	336.032	0.117	-0.223
-230.771	122.179	-0.155	-0.190
-229.757	257.775	0.100	0.169
-228.742	-53.777	-0.254	0.113
-227.727	114.279	0.036	0.043
-226.713	291.829	-0.051	-0.090
-225.698	-22.349	-0.238	0.141
-224.684	-97.140	-0.208	0.053
-223.669	589.794	-0.081	-0.195
-222.655	-200.000	0.031	0.139
-221.640	-192.267	0.068	0.001
-220.625	-200.000	-0.011	-0.056
-219.611	68.545	0.115	0.116
-218.596	-80.394	-0.221	0.072
-217.582	175.073	0.073	-0.104
-216.567	800.000	-0.026	0.111
-215.552	-200.000	-0.007	-0.157
-214.538	464.750	-0.055	-0.120
-213.523	-8.764	-0.391	0.257
-212.509	687.883	-0.049	0.126
-211.494	800.000	0.085	0.280
-210.479	-200.000	-0.013	0.275
-209.465	-44.728	-0.298	-0.146
-208.450	-62.624	0.233	-0.095
-207.436	516.091	0.210	-0.479
-206.421	18.858	-0.185	-0.145
-205.406	800.000	0.048	0.144
-204.392	-114.970	0.293	0.055
-203.377	-104.094	-0.126	-0.029
-202.363	-200.000	-0.045	0.274
-201.348	213.128	0.077	-0.119
-200.333	46.267	0.149	0.135
-199.319	34.796	0.100	0.085
-198.304	-200.000	0.035	-0.164
-197.290	15.867	-0.172	-0.133
-196.275	93.980	-0.165	-0.183
-195.260	-126.444	-0.393	0.057
-194.246	-35.152	0.159	0.085
-193.231	-95.093	0.418	-0.110
-192.217	-85.695	0.267	0.081
-191.202	173.918	-0.069	-0.098
-190.187	143.341	-0.098	-0.127
-189.173	-126.994	-0.333	0.048
-188.158	22.780	0.171	-0.137
-187.144	-128.170	-0.220	-0.031
-186.129	-0.871	-0.171	0.118
-185.114	623.981	-0.190	0.468
-184.100	-29.240	0.137	0.077
-183.085	149.437	0.249	0.329
-182.071	-158.750	-0.393	0.022
-181.056	112.057	-0.076	0.090
-180.042	-200.000	-0.022	-0.352
-179.027	-200.000	0.027	0.139
-178.012	-73.901	-0.147	0.052
-176.998	-49.924	0.265	0.123
-175.983	16.411	0.183	0.141
-174.969	800.000	-0.080	0.291
-173.954	-200.000	0.009	-0.142
-172.939	-13.245	-0.182	-0.116
-171.925	216.476	-0.148	0.229
-170.910	-22.434	-0.109	0.064
-169.896	-200.000	-0.016	0.180
-168.881	13.635	0.064	-0.048
-167.866	230.078	0.087	0.140
-166.852	9.615	-0.248	0.184
-165.837	685.408	0.130	0.332
-164.823	-52.264	-0.222	-0.101
-163.808	-105.587	0.265	-0.059
-162.793	800.000	0.033	-0.111
-161.779	-40.721	0.178	-0.090
-160.764	-71.658	-0.337	-0.123
-159.750	107.164	-0.140	-0.162
-158.735	800.000	-0.041	-0.152
-157.720	-145.744	-0.128	-0.011
-156.706	-122.317	0.364	-0.058
-155.691	421.798	0.055	-0.115
-154.677	164.433	0.181	-0.250
-153.662	-200.000	-0.008	0.151
-152.647	302.587	0.190	0.343
-151.633	-109.451	0.233	-0.048
-150.618	-200.000	-0.016	0.225
-149.604	680.444	-0.087	0.220
-148.589	476.712	-0.119	0.263
-147.574	-117.340	0.273	0.048
-146.560	554.877	0.160	0.375
-145.545	402.737	-0.042	-0.087
-144.531	-200.000	0.080	0.355
-143.516	-169.496	0.267	0.010
-142.502	16.467	0.136	-0.105
-141.487	178.027	0.123	-0.176
-140.472	-143.538	0.275	0.026
-139.458	552.172	-0.125	-0.294
-138.443	-200.000	0.087	-0.413
-137.429	-99.291	0.117	-0.029
-136.414	578.329	0.129	-0.308
-135.399	331.440	-0.086	-0.162
-134.385	-108.778	0.225	0.047
-133.370	-37.107	-0.209	0.109
-132.356	-156.247	-0.192	0.012
-131.341	-131.582	0.237	0.030
-130.326	-200.000	-0.034	0.366
-129.312	-106.560	0.397	-0.086
-128.297	158.670	-0.184	0.249
-127.283	800.000	0.056	0.191
-126.268	114.548	-0.229	-0.272
-125.253	-42.991	0.383	0.189
-124.239	73.280	-0.087	0.088
-123.224	800.000	-0.052	0.217
-122.210	79.753	-0.015	0.015
-121.195	134.529	0.038	-0.048
