DTS Sentinel unit serial number:	SN413079Multiplexer serial number:	ORYXHardware model number:	OX4-SRSoftware version number:	ORYX F/W v4.00 Oryx Data Collector v3.7.2.0data status	okinstallation	princeton_trtdifferential loss correction	single-endedforward channel	channel 3reverse channel	N/Adate	2019/09/18time	13:40:34forward acquisition time	60.00reverse acquisition time	0.00gamma	496.2192k internal	0.2311k external	0.2311temperature offset calibration	0.9970default loss term (dB/km)	0.3790temperature slope calibration	1.0000multiplexer offset coefficient	1.0000multiplexer slope coefficient	1.0000fibre end	0.00T internal ref (°C)	34.44T ext. ref 1 (°C)	0.63T ext. ref 2 (°C)	30.35length (m)	temperature (°C)	Stokes	anti-Stokes-747.200	36.111	0.135	-0.121
-746.185	786.916	-0.104	0.289
-745.171	-200.000	-0.026	0.250
-744.156	94.667	-0.050	-0.058
-743.142	-121.435	0.239	0.040
-742.127	734.611	-0.074	0.200
-741.112	-25.297	0.163	-0.098
-740.098	-69.505	-0.340	0.132
-739.083	800.000	0.017	0.064
-738.069	109.798	-0.103	0.125
-737.054	-23.654	-0.263	-0.160
-736.039	77.729	-0.171	0.185
-735.025	102.257	0.058	0.068
-734.010	-61.620	0.055	-0.024
-732.996	-78.713	0.280	-0.097
-731.981	233.900	-0.184	0.307
-730.966	-200.000	0.009	-0.091
-729.952	352.573	0.100	-0.201
-728.937	-93.215	-0.122	-0.034
-727.923	141.908	0.090	-0.122
-726.908	-67.288	-0.371	-0.148
-725.894	-79.203	-0.278	-0.096
-724.879	-123.108	-0.287	-0.047
-723.864	50.438	-0.157	-0.151
-722.850	-29.920	-0.162	0.093
-721.835	-121.319	0.192	-0.033
-720.821	-54.107	-0.033	0.015
-719.806	152.585	-0.013	-0.018
-718.791	800.000	0.097	0.286
-717.777	49.070	0.235	-0.224
-716.762	-169.309	-0.069	-0.003
-715.748	92.915	0.080	-0.091
-714.733	105.905	-0.151	0.181
-713.718	-85.635	-0.226	0.071
-712.704	-3.619	0.117	0.083
-711.689	-200.000	0.007	0.092
-710.675	45.558	-0.245	-0.230
-709.660	-172.345	-0.131	0.004
-708.645	349.933	0.063	0.127
-707.631	-200.000	-0.069	-0.376
-706.616	-200.000	-0.026	-0.301
-705.602	-92.216	0.231	-0.066
-704.587	-200.000	0.024	-0.256
-703.572	-153.651	-0.182	-0.013
-702.558	342.066	-0.013	-0.025
-701.543	76.528	-0.131	0.141
-700.529	246.872	0.115	-0.196
-699.514	-20.931	0.055	-0.034
-698.499	-200.000	-0.005	-0.141
-697.485	-200.000	0.008	0.221
-696.470	-102.955	0.196	-0.047
-695.456	-8.054	-0.085	-0.058
-694.441	800.000	-0.042	0.136
-693.426	-72.928	-0.431	0.160
-692.412	-200.000	0.016	0.089
-691.397	20.070	0.118	-0.096
-690.383	-63.639	0.208	-0.087
-689.368	377.988	0.062	0.128
-688.354	14.352	-0.271	0.214
-687.339	329.817	0.094	-0.183
-686.324	-84.683	-0.240	0.077
-685.310	800.000	0.040	-0.142
-684.295	800.000	0.049	-0.186
-683.281	335.951	0.060	0.118
-682.266	228.796	-0.207	-0.343
-681.251	47.624	0.139	0.132
-680.237	383.477	-0.152	-0.317
-679.222	-200.000	-0.069	-0.495
-678.208	-54.532	-0.085	-0.039
-677.193	1.797	-0.391	0.286
-676.178	-15.955	-0.265	0.171
-675.164	-113.877	-0.176	-0.035
-674.149	11.158	-0.100	-0.078
-673.135	282.674	-0.136	-0.247
-672.120	140.912	0.227	-0.304
-671.105	-200.000	-0.037	-0.372
-670.091	167.589	-0.137	-0.197
-669.076	-200.000	-0.005	-0.160
-668.062	-33.340	-0.127	0.071
-667.047	800.000	-0.064	-0.237
-666.032	43.462	-0.230	-0.213
-665.018	-35.678	-0.221	-0.121
-664.003	107.701	0.228	-0.275
-662.989	126.702	0.190	-0.243
-661.974	182.916	-0.201	-0.300
-660.959	266.246	-0.271	-0.479
-659.945	-146.385	0.029	-0.003
-658.930	800.000	-0.128	-0.415
-657.916	7.523	-0.111	-0.084
-656.901	800.000	-0.109	-0.359
-655.886	-118.980	-0.557	0.099
-654.872	275.809	-0.166	-0.298
-653.857	800.000	-0.007	0.024
-652.843	-89.087	0.231	-0.069
-651.828	204.300	-0.125	-0.196
-650.814	212.735	0.069	-0.111
-649.799	-143.710	-0.109	0.010
-648.784	-179.850	0.188	-0.004
-647.770	99.977	-0.010	-0.012
-646.755	-107.622	-0.084	-0.019
-645.741	-126.656	-0.230	-0.034
-644.726	-47.375	0.330	-0.162
-643.711	-40.681	0.221	-0.116
-642.697	-151.247	-0.219	0.017
-641.682	32.200	-0.059	0.052
-640.668	-129.453	-0.380	0.053
-639.653	80.768	0.051	0.056
-638.638	-16.688	-0.300	-0.192
-637.624	18.104	0.176	-0.142
-636.609	-67.303	0.149	-0.059
-635.595	-77.912	0.368	0.128
-634.580	14.872	0.190	0.150
-633.565	-122.435	-0.166	0.027
-632.551	800.000	-0.084	-0.321
-631.536	-28.159	0.246	-0.144
-630.522	-200.000	-0.026	0.162
-629.507	-56.873	-0.296	0.132
-628.492	115.979	0.094	-0.116
-627.478	336.996	-0.128	-0.252
-626.463	-128.400	0.292	-0.042
-625.449	800.000	-0.124	-0.415
-624.434	144.799	-0.070	-0.095
-623.419	-34.567	0.232	-0.128
-622.405	-200.000	0.025	0.284
-621.390	-64.642	-0.308	-0.126
-620.376	-0.090	0.073	-0.053
-619.361	-68.841	0.061	-0.024
-618.346	-200.000	-0.031	-0.252
-617.332	193.638	0.166	-0.254
-616.317	-200.000	0.031	-0.214
-615.303	-70.003	0.328	0.126
-614.288	122.179	0.178	0.224
-613.273	-200.000	0.028	0.171
-612.259	276.692	-0.052	-0.093
-611.244	123.925	-0.188	0.239
-610.230	99.391	-0.087	-0.102
-609.215	203.038	-0.078	0.121
-608.201	-200.000	-0.008	-0.273
-607.186	-157.930	-0.138	0.008
-606.171	-200.000	0.033	0.196
-605.157	800.000	0.022	-0.079
-604.142	-109.662	0.132	-0.028
-603.128	259.603	-0.128	0.223
-602.113	275.541	-0.136	-0.244
-601.098	800.000	-0.008	-0.031
-600.084	448.351	0.075	0.166
-599.069	-141.847	-0.295	0.030
-598.055	800.000	-0.042	0.168
-597.040	122.736	-0.107	-0.135
-596.025	-72.284	-0.283	0.106
-595.011	230.389	0.235	-0.388
-593.996	242.061	-0.090	-0.152
-592.982	-200.000	-0.042	0.302
-591.967	-83.516	0.230	0.074
-590.952	130.802	-0.098	0.127
-589.938	-200.000	-0.016	0.123
-588.923	800.000	-0.160	0.471
-587.909	-132.887	0.358	-0.046
-586.894	450.524	0.049	0.108
-585.879	609.442	0.070	-0.175
-584.865	19.744	-0.190	-0.154
-583.850	-200.000	0.006	0.061
-582.836	118.578	-0.055	-0.068
-581.821	-200.000	-0.045	-0.234
-580.806	-84.859	-0.124	-0.039
-579.792	322.520	-0.244	0.469
-578.777	78.903	-0.025	0.027
-577.763	-49.415	0.268	0.129
-576.748	-44.924	-0.396	-0.199
-575.733	-3.569	0.298	-0.209
-574.719	62.062	0.177	-0.178
-573.704	319.433	-0.039	0.075
-572.690	-152.629	0.057	0.004
-571.675	436.582	0.085	0.186
-570.661	142.994	-0.029	-0.038
-569.646	800.000	-0.008	-0.030
-568.631	238.490	-0.064	-0.107
-567.617	254.957	0.135	0.232
-566.602	-119.678	-0.191	0.033
-565.588	63.433	-0.023	0.023
-564.573	-200.000	-0.047	-0.210
-563.558	-103.619	-0.259	-0.061
-562.544	251.537	0.121	-0.208
-561.529	-111.708	-0.280	0.057
-560.515	-139.145	0.200	0.022
-559.500	-40.682	-0.051	-0.026
-558.485	120.557	0.073	0.091
-557.471	441.657	-0.077	0.170
-556.456	-200.000	0.008	-0.155
-555.442	-200.000	-0.023	-0.114
-554.427	-118.067	-0.135	-0.024
-553.412	-165.632	-0.131	-0.006
-552.398	-19.723	0.069	-0.043
-551.383	-200.000	0.253	-0.001
-550.369	-85.421	0.251	0.079
-549.354	-142.831	-0.270	-0.026
-548.339	-39.198	0.155	-0.082
-547.325	323.092	0.165	0.317
-546.310	217.306	-0.233	0.374
-545.296	223.902	-0.058	0.095
-544.281	667.887	-0.231	0.601
-543.266	238.359	0.038	0.064
-542.252	149.191	-0.092	-0.125
-541.237	-133.569	-0.243	0.031
-540.223	614.037	0.094	-0.238
-539.208	70.921	0.103	0.108
-538.193	18.188	0.147	0.118
-537.179	-114.895	-0.362	0.070
-536.164	-200.000	-0.047	-0.268
-535.150	-200.000	0.000	-0.079
-534.135	658.448	0.047	0.122
-533.121	682.260	0.124	0.325
-532.106	800.000	-0.046	0.165
-531.091	-21.124	-0.152	-0.094
-530.077	-200.000	-0.039	0.305
-529.062	470.502	-0.043	-0.097
-528.048	-200.000	0.002	0.132
-527.033	56.181	0.184	-0.180
-526.018	33.465	0.227	-0.198
-525.004	565.106	0.075	0.183
-523.989	-19.138	0.132	-0.082
-522.975	800.000	0.039	-0.116
-521.960	-105.277	0.192	0.044
-520.945	-107.460	0.135	0.030
-519.931	263.556	-0.029	-0.051
-518.916	-185.380	-0.254	0.004
-517.902	-78.772	0.339	-0.117
-516.887	-42.870	0.285	-0.146
-515.872	-200.000	-0.004	0.148
-514.858	-54.453	0.213	-0.097
-513.843	-78.039	0.329	0.114
-512.829	280.005	-0.101	-0.182
-511.814	261.048	0.164	-0.286
-510.799	-148.041	0.290	0.024
-509.785	-16.079	-0.224	0.143
-508.770	-200.000	-0.019	-0.161
-507.756	800.000	0.065	-0.222
-506.741	-200.000	-0.043	-0.223
-505.726	282.520	0.058	-0.104
-504.712	800.000	0.024	-0.072
-503.697	25.342	-0.172	-0.144
-502.683	121.558	0.214	-0.269
-501.668	-12.490	-0.048	-0.032
-500.653	-39.492	-0.017	0.009
-499.639	-28.788	0.316	0.183
-498.624	-90.131	0.333	-0.097
-497.610	-200.000	-0.024	-0.223
-496.595	784.891	0.027	0.075
-495.581	337.369	0.038	0.074
-494.566	800.000	-0.103	0.329
-493.551	-200.000	-0.041	-0.189
-492.537	770.666	0.093	-0.255
-491.522	210.266	-0.074	0.117
-490.508	3.778	-0.137	-0.101
-489.493	40.183	0.176	-0.159
-488.478	-58.743	0.085	-0.037
-487.464	316.468	0.203	-0.385
-486.449	-200.000	-0.030	-0.164
-485.435	-78.610	0.102	0.035
-484.420	24.609	-0.231	-0.193
-483.405	307.723	-0.213	-0.399
-482.391	27.256	-0.211	0.178
-481.376	62.233	0.372	0.373
-480.362	-200.000	-0.014	-0.127
-479.347	262.895	-0.094	-0.164
-478.332	-14.265	0.103	-0.067
-477.318	-94.231	-0.061	-0.017
-476.303	-200.000	-0.014	0.065
-475.289	30.598	-0.205	0.176
-474.274	-113.071	-0.394	-0.078
-473.259	-200.000	0.028	0.360
-472.245	516.250	0.051	-0.119
-471.230	101.088	0.143	0.167
-470.216	800.000	0.017	0.069
-469.201	77.527	0.116	0.124
-468.186	6.022	-0.137	-0.102
-467.172	587.846	-0.060	0.149
-466.157	-111.277	-0.387	-0.079
-465.143	-200.000	-0.077	0.378
-464.128	-48.023	0.320	0.155
-463.113	65.241	-0.067	-0.068
-462.099	343.618	0.112	0.221
-461.084	45.604	-0.192	0.178
-460.070	-117.964	0.057	-0.010
-459.055	-10.524	0.118	-0.079
-458.040	-158.838	-0.177	0.010
-457.026	-96.585	-0.395	-0.105
-456.011	-38.235	0.261	-0.139
-454.997	64.809	-0.259	-0.263
-453.982	199.927	0.100	-0.154
-452.968	163.107	-0.202	0.285
-451.953	-200.000	-0.015	-0.109
-450.938	-200.000	0.014	-0.131
-449.924	-73.966	-0.229	-0.083
-448.909	-95.589	0.201	-0.054
-447.895	476.859	0.146	-0.331
-446.880	-116.774	-0.223	0.041
-445.865	800.000	0.016	-0.070
-444.851	166.596	-0.282	0.401
-443.836	58.282	-0.149	0.147
-442.822	-103.373	0.201	0.047
-441.807	-43.721	0.196	-0.099
-440.792	-77.482	0.148	0.052
-439.778	-200.000	0.057	-0.265
-438.763	101.700	-0.240	-0.281
-437.749	-54.290	0.351	0.160
-436.734	-200.000	0.007	-0.134
-435.719	-53.681	-0.049	0.023
-434.705	-2.357	-0.111	-0.078
-433.690	47.603	0.135	-0.127
-432.676	-14.869	-0.198	-0.128
-431.661	96.299	-0.257	-0.295
-430.646	-74.936	-0.065	0.023
-429.632	-200.000	0.013	-0.263
-428.617	84.908	0.299	-0.329
-427.603	-200.000	0.018	-0.143
-426.588	-49.020	-0.155	-0.075
-425.573	800.000	-0.063	0.239
-424.559	-47.476	0.281	-0.137
-423.544	-86.863	-0.037	0.011
-422.530	-149.231	0.162	0.013
-421.515	15.528	0.296	0.233
-420.500	-80.927	0.090	0.030
-419.486	-200.000	-0.029	0.219
-418.471	-90.457	-0.251	0.073
-417.457	-200.000	0.008	-0.140
-416.442	-191.903	0.237	0.002
-415.428	800.000	0.086	0.270
-414.413	800.000	-0.034	0.139
-413.398	592.034	0.066	0.164
-412.384	-39.294	-0.141	0.074
-411.369	45.078	0.164	0.152
-410.355	-200.000	0.021	0.098
-409.340	655.828	-0.118	0.303
-408.325	8.576	0.141	0.107
-407.311	253.896	-0.088	0.151
-406.296	-50.530	-0.283	-0.134
-405.282	-200.000	-0.009	-0.524
-404.267	325.298	-0.161	0.308
-403.252	350.620	0.088	-0.174
-402.238	800.000	-0.085	-0.349
-401.223	-68.616	-0.237	0.092
-400.209	-159.297	0.125	-0.007
-399.194	775.591	-0.111	0.304
-398.179	166.885	0.236	0.336
-397.165	41.110	-0.103	0.094
-396.150	385.947	0.138	-0.284
-395.136	27.006	0.193	-0.162
-394.121	-104.779	-0.215	-0.049
-393.106	12.156	-0.299	0.231
-392.092	-21.636	0.276	0.168
-391.077	800.000	0.059	0.188
-390.063	-27.425	0.153	0.089
-389.048	800.000	-0.095	-0.292
-388.033	800.000	0.102	-0.377
-387.019	-200.000	0.013	0.170
-386.004	-164.159	-0.255	-0.012
-384.990	800.000	-0.054	0.164
-383.975	-41.708	0.075	-0.039
-382.960	64.039	0.027	-0.027
-381.946	-200.000	-0.002	0.340
-380.931	97.352	-0.144	0.165
-379.917	-200.000	0.024	0.269
-378.902	-64.048	-0.151	-0.062
-377.888	-77.538	0.122	-0.042
-376.873	800.000	0.130	-0.469
-375.858	224.252	-0.076	-0.122
-374.844	4.358	0.106	0.078
-373.829	-52.731	0.140	0.064
-372.815	2.213	-0.135	-0.097
-371.800	-200.000	-0.013	-0.156
-370.785	301.909	-0.054	-0.100
-369.771	-200.000	0.005	0.245
-368.756	-163.058	-0.115	0.006
-367.742	-68.630	-0.186	-0.072
-366.727	-103.656	-0.301	0.071
-365.712	14.848	-0.146	-0.114
-364.698	-3.378	-0.136	0.094
-363.683	-117.099	-0.180	-0.033
-362.669	14.090	0.215	0.168
-361.654	-103.704	0.380	-0.089
-360.639	89.003	0.159	0.176
-359.625	-137.402	0.401	-0.045
-358.610	-189.133	-0.069	-0.001
-357.596	-170.884	-0.397	0.014
-356.581	81.720	-0.090	0.097
-355.566	-84.889	0.278	0.087
-354.552	-92.681	0.215	-0.060
-353.537	-142.311	-0.252	0.025
-352.523	-200.000	-0.036	0.275
-351.508	635.581	-0.176	0.446
-350.493	522.575	0.142	-0.334
-349.479	212.283	0.141	-0.223
-348.464	-69.579	-0.185	-0.071
-347.450	146.754	0.123	0.165
-346.435	780.717	-0.048	0.131
-345.420	-200.000	-0.032	-0.168
-344.406	-200.000	0.017	-0.280
-343.391	149.380	0.057	-0.077
-342.377	-200.000	0.073	0.390
-341.362	74.613	0.052	-0.054
-340.348	-31.582	-0.091	-0.051
-339.333	-50.182	0.149	0.071
-338.318	-200.000	-0.036	-0.189
-337.304	-92.571	-0.161	0.045
-336.289	86.657	0.122	-0.135
-335.275	755.469	-0.076	0.206
-334.260	93.126	-0.158	-0.178
-333.245	-58.105	0.146	0.063
-332.231	108.871	0.057	-0.069
-331.216	70.534	-0.072	0.075
-330.202	-200.000	-0.037	0.237
-329.187	-104.183	0.193	-0.045
-328.172	-102.402	-0.127	-0.030
-327.158	-75.742	-0.245	0.087
-326.143	372.022	0.157	0.319
-325.129	534.853	0.073	-0.172
-324.114	800.000	-0.021	0.078
-323.099	20.976	0.056	-0.046
-322.085	321.716	-0.141	0.268
-321.070	218.218	0.170	-0.271
-320.056	285.329	-0.176	-0.317
-319.041	795.400	0.084	0.232
-318.026	201.041	0.238	0.366
-317.012	267.242	0.081	-0.142
-315.997	-91.908	0.237	0.067
-314.983	-113.325	-0.119	-0.023
-313.968	295.863	-0.226	0.414
-312.953	677.298	-0.084	0.218
-311.939	118.211	0.141	0.174
-310.924	-81.221	0.247	-0.081
-309.910	2.816	-0.212	0.153
-308.895	-115.567	-0.341	0.064
-307.880	220.695	0.036	-0.058
-306.866	-189.838	0.087	0.001
-305.851	800.000	0.024	0.078
-304.837	-200.000	0.001	-0.144
-303.822	374.607	-0.077	0.157
-302.807	-112.232	0.182	-0.036
-301.793	61.266	-0.110	0.109
-300.778	448.554	0.060	0.132
-299.764	87.940	-0.169	0.186
-298.749	-109.235	-0.102	-0.022
-297.735	-109.212	0.037	0.008
-296.720	-200.000	0.039	0.282
-295.705	-49.259	0.035	-0.017
-294.691	-151.320	-0.184	-0.014
-293.676	-55.426	-0.294	0.131
-292.662	97.805	-0.105	-0.120
-291.647	-126.522	0.082	-0.012
-290.632	-200.000	-0.010	-0.107
-289.618	343.475	-0.088	0.172
-288.603	14.860	-0.148	0.116
-287.589	300.662	0.161	-0.296
-286.574	-12.199	-0.108	-0.070
-285.559	-60.841	-0.402	0.170
-284.545	800.000	-0.043	-0.126
-283.530	304.416	-0.091	-0.169
-282.516	692.709	0.100	0.261
-281.501	246.610	-0.056	-0.094
-280.486	-126.546	0.193	-0.029
-279.472	-62.607	0.245	0.101
-278.457	37.410	0.146	-0.129
-277.443	-200.000	-0.017	-0.358
-276.428	-98.191	-0.174	0.045
-275.413	284.167	0.198	0.355
-274.399	280.338	0.068	-0.121
-273.384	800.000	0.031	0.110
-272.370	-200.000	0.020	-0.149
-271.355	638.024	0.054	0.138
-270.340	152.714	-0.174	-0.237
-269.326	640.523	0.084	-0.212
-268.311	11.917	-0.073	-0.056
-267.297	-28.154	-0.189	-0.109
-266.282	-83.040	0.280	0.090
-265.267	-159.224	-0.189	-0.011
-264.253	75.017	-0.095	-0.100
-263.238	-200.000	0.060	-0.272
-262.224	-22.809	-0.034	-0.020
-261.209	-200.000	-0.030	0.203
-260.195	800.000	-0.040	-0.145
-259.180	-200.000	0.007	-0.187
-258.165	45.011	0.155	-0.142
-257.151	800.000	-0.056	-0.232
-256.136	-118.774	0.171	0.030
-255.122	320.583	0.066	0.125
-254.107	-16.663	0.165	0.104
-253.092	-96.541	-0.417	0.110
-252.078	-77.495	-0.032	-0.011
-251.063	-128.517	-0.174	0.025
-250.049	269.145	-0.212	-0.370
-249.034	-63.067	0.290	-0.119
-248.019	-200.000	-0.008	0.131
-247.005	-200.000	0.001	0.353
-245.990	277.470	0.086	0.153
-244.976	-151.840	0.253	-0.018
-243.961	-110.005	-0.468	0.097
-242.946	-110.554	0.112	-0.023
-241.932	-58.739	0.137	0.059
-240.917	100.777	0.056	-0.065
-239.903	-116.866	-0.334	-0.061
-238.888	800.000	0.016	0.048
-237.873	-60.016	-0.403	-0.171
-236.859	-34.570	0.275	0.150
-235.844	-200.000	0.018	-0.339
-234.830	-200.000	-0.010	-0.265
-233.815	495.611	0.128	0.293
-232.800	353.618	0.123	0.243
-231.786	-110.608	-0.148	-0.030
-230.771	309.659	0.056	-0.103
-229.757	-3.839	0.337	0.233
-228.742	800.000	-0.080	0.241
-227.727	-196.382	-0.161	-0.001
-226.713	-49.917	0.152	-0.072
-225.698	-100.951	0.392	0.096
-224.684	270.185	-0.212	-0.371
-223.669	254.472	0.054	-0.091
-222.655	-95.862	-0.509	-0.135
-221.640	-107.639	0.225	-0.049
-220.625	32.603	-0.128	-0.110
-219.611	-200.000	0.011	-0.157
-218.596	-200.000	0.011	0.109
-217.582	-78.004	0.234	-0.080
-216.567	-200.000	-0.066	0.414
-215.552	13.056	0.230	-0.177
-214.538	-98.170	0.095	0.024
-213.523	122.826	0.110	0.137
-212.509	-200.000	-0.044	-0.411
-211.494	-163.897	0.120	-0.006
-210.479	-200.000	0.045	-0.400
-209.465	345.469	-0.142	-0.277
-208.450	-94.393	-0.171	-0.046
-207.436	800.000	-0.078	0.315
-206.421	121.582	0.156	-0.193
-205.406	114.508	-0.165	0.199
-204.392	366.477	-0.115	0.231
-203.377	800.000	0.070	-0.253
-202.363	88.921	0.147	0.163
-201.348	-200.000	-0.006	0.175
-200.333	-155.205	0.392	0.025
-199.319	14.753	-0.355	0.276
-198.304	-50.458	0.046	-0.022
-197.290	28.284	0.074	-0.062
-196.275	-200.000	-0.008	-0.160
-195.260	143.930	0.009	0.012
-194.246	51.394	0.058	0.054
-193.231	509.318	0.035	0.081
-192.217	199.589	-0.073	0.112
-191.202	-200.000	-0.023	0.209
-190.187	453.777	-0.022	-0.048
-189.173	320.163	0.106	0.201
-188.158	-200.000	0.036	0.184
-187.144	-46.944	-0.448	0.217
-186.129	-121.382	0.436	0.072
-185.114	800.000	0.056	0.205
-184.100	-200.000	0.018	-0.191
-183.085	51.246	-0.044	-0.042
-182.071	94.718	0.138	0.156
-181.056	800.000	0.022	0.069
-180.042	800.000	-0.051	-0.211
-179.027	-185.501	-0.200	-0.003
-178.012	613.986	0.061	0.151
-176.998	116.982	-0.114	-0.139
-175.983	-132.248	0.194	0.025
-174.969	-132.088	0.207	-0.027
-173.954	441.616	-0.070	-0.153
-172.939	-200.000	0.045	-0.215
-171.925	-200.000	-0.004	0.316
-170.910	-67.915	-0.190	0.074
-169.896	-200.000	0.032	-0.233
-168.881	-136.127	-0.322	0.037
-167.866	-117.234	-0.196	0.035
-166.852	-200.000	-0.002	0.213
-165.837	-200.000	0.036	0.278
-164.823	-200.000	-0.061	0.334
-163.808	800.000	0.076	-0.276
-162.793	288.006	-0.112	0.202
-161.779	-112.038	-0.217	-0.043
-160.764	-200.000	-0.048	-0.228
-159.750	182.583	-0.245	-0.359
-158.735	-64.526	0.236	0.095
-157.720	-113.111	0.147	0.029
-156.706	-116.215	-0.029	0.005
-155.691	71.808	0.297	-0.306
-154.677	38.250	0.451	-0.398
-153.662	144.242	-0.247	0.327
-152.647	60.949	0.116	-0.114
-151.633	145.239	0.190	0.253
-150.618	-200.000	0.031	-0.393
-149.604	120.547	-0.101	0.124
-148.589	510.470	0.139	0.321
-147.574	-103.474	0.103	-0.024
-146.560	-200.000	0.023	-0.125
-145.545	-116.419	0.163	0.030
-144.531	-80.076	-0.209	-0.070
-143.516	-200.000	0.068	0.407
-142.502	800.000	-0.028	0.116
-141.487	-200.000	-0.002	-0.028
-140.472	-127.269	-0.322	-0.047
-139.458	800.000	-0.071	-0.209
-138.443	162.769	-0.029	-0.041
-137.429	-98.725	0.137	0.034
-136.414	-200.000	-0.081	0.470
-135.399	-32.492	0.091	0.050
-134.385	78.411	-0.204	0.216
-133.370	800.000	-0.078	-0.222
-132.356	741.994	0.145	-0.388
-131.341	344.192	0.037	-0.072
-130.326	-200.000	-0.023	-0.242
-129.312	200.368	0.117	0.178
-128.297	88.951	0.064	-0.071
-127.283	486.903	0.118	-0.266
-126.268	-200.000	0.010	0.316
-125.253	86.886	-0.169	0.185
-124.239	800.000	0.015	-0.047
-123.224	-108.834	-0.222	-0.047
