DTS Sentinel unit serial number:	SN413079Multiplexer serial number:	ORYXHardware model number:	OX4-SRSoftware version number:	ORYX F/W v4.00 Oryx Data Collector v3.7.2.0data status	okinstallation	princeton_trtdifferential loss correction	single-endedforward channel	channel 3reverse channel	N/Adate	2019/09/12time	13:58:11forward acquisition time	60.00reverse acquisition time	0.00gamma	496.2192k internal	0.2293k external	0.2293temperature offset calibration	1.0057default loss term (dB/km)	0.3790temperature slope calibration	1.0000multiplexer offset coefficient	1.0000multiplexer slope coefficient	1.0000fibre end	0.00T internal ref (°C)	40.67T ext. ref 1 (°C)	2.20T ext. ref 2 (°C)	34.06length (m)	temperature (°C)	Stokes	anti-Stokes-747.200	-165.366	0.236	-0.011
-746.185	-65.439	-0.241	-0.099
-745.171	-42.156	0.169	0.088
-744.156	-200.000	0.031	0.159
-743.142	222.159	0.073	-0.120
-742.127	-119.354	0.133	-0.024
-741.112	800.000	0.030	-0.087
-740.098	-200.000	-0.038	0.215
-739.083	18.825	0.134	-0.110
-738.069	800.000	0.082	0.244
-737.054	-95.550	-0.181	0.050
-736.039	800.000	0.048	0.173
-735.025	800.000	0.049	0.160
-734.010	800.000	0.039	-0.146
-732.996	-200.000	0.038	-0.344
-731.981	800.000	-0.087	-0.262
-730.966	800.000	-0.082	0.328
-729.952	136.661	-0.184	-0.246
-728.937	43.059	-0.177	0.165
-727.923	-16.006	-0.475	-0.309
-726.908	-40.144	-0.147	0.078
-725.894	48.776	-0.124	-0.119
-724.879	185.015	-0.113	-0.172
-723.864	-18.936	-0.202	-0.128
-722.850	-200.000	-0.295	0.000
-721.835	-2.384	0.230	-0.165
-720.821	48.306	0.168	0.160
-719.806	272.593	-0.103	0.185
-718.791	166.671	-0.193	-0.280
-717.777	-148.509	0.066	0.006
-716.762	1.824	-0.169	-0.125
-715.748	-52.474	-0.314	-0.148
-714.733	-177.385	-0.138	-0.003
-713.718	-34.142	-0.241	-0.136
-712.704	800.000	0.018	0.079
-711.689	-200.000	-0.003	0.060
-710.675	16.950	-0.258	0.209
-709.660	-200.000	0.074	0.518
-708.645	354.644	-0.125	0.254
-707.631	-40.482	-0.201	0.106
-706.616	220.034	0.195	-0.319
-705.602	595.945	-0.147	-0.372
-704.587	193.344	0.133	0.205
-703.572	-200.000	-0.067	-0.397
-702.558	-37.397	0.261	-0.143
-701.543	-130.862	-0.465	-0.064
-700.529	11.305	-0.194	-0.152
-699.514	430.407	0.145	0.322
-698.499	-200.000	0.005	0.256
-697.485	-200.000	0.015	0.116
-696.470	93.761	0.258	-0.299
-695.456	-131.386	0.101	0.014
-694.441	190.989	-0.214	-0.328
-693.426	-200.000	-0.084	-0.380
-692.412	-200.000	-0.036	-0.264
-691.397	800.000	0.052	0.154
-690.383	-47.264	0.103	-0.051
-689.368	310.391	0.194	0.370
-688.354	106.106	-0.279	-0.338
-687.339	40.714	0.161	0.148
-686.324	139.821	0.200	-0.269
-685.310	800.000	-0.069	-0.306
-684.295	-133.197	-0.335	0.043
-683.281	372.009	-0.063	0.130
-682.266	-56.296	-0.158	0.072
-681.251	-54.667	-0.411	0.190
-680.237	89.073	0.141	0.161
-679.222	-139.388	0.154	-0.017
-678.208	-24.639	-0.041	-0.025
-677.193	-64.637	0.036	-0.015
-676.178	-200.000	-0.009	-0.050
-675.164	10.619	-0.066	0.051
-674.149	278.348	-0.112	0.203
-673.135	207.630	0.061	0.096
-672.120	207.033	0.207	0.330
-671.105	-70.976	0.307	-0.118
-670.091	113.757	0.082	0.102
-669.076	-30.573	-0.319	0.184
-668.062	367.909	0.070	0.144
-667.047	-32.482	0.328	0.186
-666.032	9.603	-0.088	0.068
-665.018	81.175	-0.237	0.261
-664.003	-54.930	-0.245	0.113
-662.989	-50.996	0.210	-0.101
-661.974	-187.396	-0.166	-0.002
-660.959	171.078	-0.016	-0.023
-659.945	6.824	-0.124	-0.094
-658.930	-200.000	-0.003	0.030
-657.916	447.203	-0.038	-0.086
-656.901	-82.093	0.207	-0.069
-655.886	-74.999	0.131	-0.048
-654.872	-138.576	-0.118	-0.013
-653.857	56.341	-0.087	-0.086
-652.843	-73.608	-0.164	0.061
-651.828	-72.156	-0.184	0.070
-650.814	-38.611	-0.075	0.040
-649.799	381.879	-0.045	0.093
-648.784	-7.918	0.225	-0.155
-647.770	104.642	-0.214	-0.257
-646.755	-65.789	-0.368	0.150
-645.741	-139.438	-0.255	-0.028
-644.726	-82.970	0.132	0.043
-643.711	585.341	-0.126	-0.315
-642.697	8.288	-0.187	-0.143
-641.682	106.951	-0.159	-0.193
-640.668	-125.796	0.469	-0.072
-639.653	800.000	-0.031	0.112
-638.638	-200.000	0.016	0.150
-637.624	-144.990	0.267	-0.025
-636.609	-200.000	0.012	-0.125
-635.595	-135.619	-0.148	-0.018
-634.580	-200.000	-0.001	0.312
-633.565	137.792	-0.022	-0.030
-632.551	32.718	0.245	-0.216
-631.536	200.623	0.229	-0.359
-630.522	-200.000	0.053	-0.265
-629.507	160.668	0.185	-0.263
-628.492	-80.113	-0.123	0.042
-627.478	-112.489	0.297	0.060
-626.463	-53.108	-0.372	0.174
-625.449	-200.000	-0.007	-0.045
-624.434	7.586	0.046	-0.035
-623.419	-144.696	-0.407	-0.038
-622.405	-159.902	0.212	-0.012
-621.390	6.083	0.120	-0.091
-620.376	-130.444	-0.151	0.021
-619.361	254.335	0.189	-0.330
-618.346	83.162	-0.343	-0.381
-617.332	29.638	-0.208	-0.180
-616.317	-19.878	0.299	-0.188
-615.303	-200.000	0.014	-0.287
-614.288	-48.930	-0.278	-0.136
-613.273	51.537	-0.239	-0.232
-612.259	-150.651	-0.081	0.006
-611.244	-200.000	0.061	0.303
-610.230	616.634	0.172	0.439
-609.215	-75.927	-0.237	0.085
-608.201	-118.759	-0.444	-0.080
-607.186	-11.872	0.114	0.076
-606.171	-113.545	-0.107	0.021
-605.157	7.995	0.219	0.167
-604.142	398.322	-0.172	0.367
-603.128	-200.000	0.030	-0.284
-602.113	0.303	0.349	0.254
-601.098	149.327	-0.107	-0.147
-600.084	86.260	0.113	-0.127
-599.069	-31.526	-0.143	0.082
-598.055	-5.891	0.059	0.041
-597.040	-200.000	0.000	-0.007
-596.025	-73.997	-0.420	0.155
-595.011	-45.751	0.350	-0.176
-593.996	-200.000	-0.023	-0.119
-592.982	-99.709	0.267	-0.068
-591.967	88.631	-0.269	0.305
-590.952	267.355	-0.213	0.378
-589.938	-89.136	-0.128	-0.038
-588.923	800.000	0.095	0.295
-587.909	-161.039	0.321	0.017
-586.894	73.642	0.140	-0.150
-585.879	322.100	-0.144	0.280
-584.865	95.361	-0.044	-0.051
-583.850	56.685	0.168	-0.167
-582.836	-153.577	0.280	-0.020
-581.821	-70.588	0.056	-0.021
-580.806	96.774	0.099	0.116
-579.792	35.709	-0.071	-0.064
-578.777	134.056	0.029	-0.038
-577.763	-200.000	-0.019	-0.266
-576.748	-27.933	-0.151	-0.089
-575.733	-143.988	0.299	0.029
-574.719	58.104	-0.180	0.179
-573.704	5.130	-0.122	0.091
-572.690	-200.000	0.021	0.124
-571.675	22.384	-0.146	-0.121
-570.661	122.859	0.149	-0.189
-569.646	-117.830	0.230	-0.042
-568.631	417.809	-0.025	-0.055
-567.617	-65.582	-0.095	-0.039
-566.602	-113.213	-0.465	-0.093
-565.588	189.979	-0.071	-0.109
-564.573	670.844	0.086	-0.226
-563.558	-200.000	-0.044	0.243
-562.544	241.886	0.248	0.421
-561.529	800.000	-0.066	0.272
-560.515	92.626	0.215	-0.246
-559.500	-18.876	-0.115	-0.073
-558.485	-200.000	0.005	0.056
-557.471	-35.916	-0.381	-0.209
-556.456	-89.120	-0.261	-0.078
-555.442	232.303	-0.218	0.363
-554.427	55.980	0.253	0.250
-553.412	-19.338	0.198	0.125
-552.398	-51.778	0.222	-0.105
-551.383	-200.000	0.060	-0.301
-550.369	-200.000	-0.018	0.416
-549.354	800.000	-0.057	-0.236
-548.339	-143.887	-0.227	-0.022
-547.325	800.000	0.085	0.312
-546.310	19.666	0.125	-0.102
-545.296	135.762	-0.123	-0.163
-544.281	285.918	-0.067	0.122
-543.266	-44.753	-0.065	0.033
-542.252	-60.813	-0.028	-0.012
-541.237	-39.602	0.065	0.034
-540.223	109.953	-0.155	0.189
-539.208	-131.870	-0.482	0.064
-538.193	-200.000	0.004	-0.045
-537.179	-128.381	0.373	0.054
-536.164	800.000	-0.115	0.387
-535.150	-200.000	-0.078	0.392
-534.135	-200.000	-0.035	-0.156
-533.121	305.189	-0.188	-0.354
-532.106	312.401	0.037	-0.070
-531.091	-81.211	0.181	0.061
-530.077	-71.594	-0.103	-0.039
-529.062	-135.535	-0.335	-0.040
-528.048	320.470	0.159	0.307
-527.033	-77.470	0.186	0.066
-526.018	444.648	0.048	-0.107
-525.004	86.954	-0.122	-0.136
-523.989	-200.000	-0.023	-0.165
-522.975	-69.510	0.197	-0.077
-521.960	123.148	-0.063	0.080
-520.945	-5.790	0.207	-0.144
-519.931	222.484	-0.104	-0.169
-518.916	800.000	-0.059	-0.184
-517.902	-29.284	-0.275	-0.160
-516.887	-200.000	-0.006	-0.059
-515.872	383.105	0.156	0.326
-514.858	578.331	0.058	-0.145
-513.843	-200.000	0.050	-0.251
-512.829	-200.000	0.011	0.100
-511.814	-15.550	0.342	-0.221
-510.799	-67.186	0.370	0.148
-509.785	723.057	-0.108	0.293
-508.770	-25.019	0.060	-0.036
-507.756	-200.000	0.005	0.047
-506.741	127.044	0.063	-0.081
-505.726	-167.100	0.188	-0.008
-504.712	800.000	0.015	-0.068
-503.697	-200.000	0.014	0.088
-502.683	-200.000	0.023	0.249
-501.668	-27.236	0.239	0.141
-500.653	62.893	-0.215	-0.219
-499.639	270.960	0.118	0.211
-498.624	-146.215	-0.243	-0.022
-497.610	-86.402	0.356	-0.111
-496.595	-121.745	0.420	0.070
-495.581	85.254	0.011	-0.012
-494.566	-84.490	-0.232	-0.074
-493.551	6.440	-0.064	0.048
-492.537	153.489	0.184	-0.256
-491.522	355.866	-0.104	-0.210
-490.508	85.931	0.063	-0.070
-489.493	93.042	0.074	-0.084
-488.478	128.947	-0.185	0.239
-487.464	-4.669	0.263	-0.184
-486.449	114.987	-0.100	0.124
-485.435	-143.474	-0.139	-0.013
-484.420	351.678	-0.151	-0.304
-483.405	114.589	0.107	0.132
-482.391	-5.504	0.062	-0.043
-481.376	12.755	0.154	0.120
-480.362	666.510	-0.096	-0.251
-479.347	-200.000	-0.204	0.001
-478.332	206.224	-0.080	0.126
-477.318	310.745	0.217	0.412
-476.303	800.000	0.103	0.357
-475.289	285.311	0.156	0.284
-474.274	9.109	-0.121	-0.093
-473.259	223.946	0.148	0.243
-472.245	356.032	-0.029	-0.059
-471.230	-54.107	0.156	0.072
-470.216	-200.000	0.014	0.114
-469.201	118.610	-0.398	-0.498
-468.186	-31.858	-0.232	0.132
-467.172	100.146	0.123	0.144
-466.157	-200.000	0.030	-0.325
-465.143	-200.000	-0.049	-0.297
-464.128	-200.000	-0.009	0.301
-463.113	-59.731	-0.065	0.028
-462.099	-149.728	-0.194	0.015
-461.084	-108.926	0.459	-0.099
-460.070	800.000	0.063	-0.212
-459.055	-134.524	-0.230	0.028
-458.040	-135.641	-0.111	-0.013
-457.026	-80.345	-0.408	0.138
-456.011	-87.598	0.035	0.011
-454.997	-75.139	0.181	-0.065
-453.982	-107.436	0.134	-0.030
-452.968	159.210	0.135	0.190
-451.953	-200.000	-0.030	0.244
-450.938	532.861	-0.110	-0.265
-449.924	-171.912	-0.197	-0.006
-448.909	21.664	-0.093	-0.076
-447.895	-70.931	0.123	-0.047
-446.880	-200.000	0.027	0.179
-445.865	-40.219	-0.237	-0.125
-444.851	414.860	-0.157	0.338
-443.836	800.000	0.081	-0.232
-442.822	64.804	0.115	-0.118
-441.807	-200.000	0.002	0.159
-440.792	214.594	0.177	-0.284
-439.778	-12.248	0.109	0.072
-438.763	-173.388	0.065	-0.002
-437.749	-200.000	-0.016	-0.193
-436.734	-67.782	-0.223	-0.088
-435.719	247.914	0.208	0.356
-434.705	-70.151	-0.288	-0.111
-433.690	800.000	-0.072	0.218
-432.676	113.063	-0.076	0.093
-431.661	-159.677	-0.412	0.023
-430.646	16.513	0.158	0.126
-429.632	-200.000	-0.044	-0.444
-428.617	388.821	-0.037	0.078
-427.603	34.645	0.205	0.181
-426.588	-109.557	0.431	0.092
-425.573	-200.000	-0.012	-0.126
-424.559	507.384	-0.028	0.065
-423.544	-46.889	-0.324	0.160
-422.530	80.140	-0.035	-0.038
-421.515	800.000	0.032	0.094
-420.500	-87.070	-0.238	0.073
-419.486	-71.722	0.355	0.134
-418.471	88.075	-0.254	0.285
-417.457	-200.000	-0.044	0.256
-416.442	-200.000	0.014	-0.070
-415.428	800.000	0.080	0.246
-414.413	-170.222	0.086	0.003
-413.398	-109.050	-0.180	0.039
-412.384	-109.572	0.142	-0.030
-411.369	-32.171	0.108	-0.061
-410.355	-49.263	0.066	-0.032
-409.340	-17.907	0.298	0.189
-408.325	29.011	-0.047	0.040
-407.311	-143.521	-0.166	-0.016
-406.296	19.345	-0.109	-0.089
-405.282	476.979	-0.089	0.203
-404.267	-200.000	0.062	0.544
-403.252	22.432	-0.211	0.175
-402.238	140.982	-0.109	-0.146
-401.223	-135.340	-0.098	-0.012
-400.209	-59.673	0.327	-0.141
-399.194	-1.070	-0.087	-0.062
-398.179	-83.654	0.398	-0.128
-397.165	31.249	-0.191	0.165
-396.150	-50.832	0.331	0.157
-395.136	107.409	-0.120	-0.144
-394.121	-200.000	-0.034	-0.165
-393.106	-64.960	0.297	0.121
-392.092	-39.066	-0.304	0.161
-391.077	-44.346	0.178	0.090
-390.063	157.098	0.278	0.388
-389.048	-40.392	-0.032	-0.017
-388.033	-25.765	-0.204	0.121
-387.019	-141.871	0.172	-0.017
-386.004	552.357	-0.083	0.201
-384.990	-40.693	0.321	0.168
-383.975	-135.953	-0.184	-0.022
-382.960	260.259	-0.043	0.075
-381.946	800.000	-0.037	-0.124
-380.931	124.852	-0.180	-0.228
-379.917	-200.000	0.009	0.493
-378.902	-13.664	-0.085	-0.056
-377.888	678.286	0.042	-0.111
-376.873	280.137	0.027	0.049
-375.858	800.000	-0.036	0.133
-374.844	-22.969	0.135	0.082
-373.829	-200.000	0.004	0.167
-372.815	-42.780	-0.151	0.077
-371.800	-58.065	0.171	0.075
-370.785	363.505	0.051	-0.104
-369.771	-5.267	0.040	0.027
-368.756	483.197	-0.056	-0.129
-367.742	-91.202	0.181	0.052
-366.727	-41.061	0.325	0.170
-365.712	132.848	-0.105	0.136
-364.698	-124.045	0.242	0.038
-363.683	17.099	-0.100	0.080
-362.669	-126.764	-0.217	0.032
-361.654	-128.472	-0.087	-0.013
-360.639	568.810	-0.021	-0.053
-359.625	253.720	-0.107	-0.184
-358.610	-105.980	0.353	-0.080
-357.596	800.000	-0.142	-0.510
-356.581	168.611	-0.089	0.128
-355.566	-163.288	0.270	0.013
-354.552	4.994	-0.222	-0.165
-353.537	84.882	0.166	-0.184
-352.523	-107.940	0.158	-0.035
-351.508	378.542	-0.156	0.322
-350.493	170.957	0.122	-0.176
-349.479	-200.000	-0.008	-0.151
-348.464	-200.000	-0.009	0.362
-347.450	-132.179	-0.550	-0.072
-346.435	-69.674	0.322	0.124
-345.420	800.000	-0.034	0.097
-344.406	-200.000	-0.021	0.227
-343.391	-129.005	-0.256	0.036
-342.377	-86.585	-0.383	0.118
-341.362	124.729	0.116	-0.147
-340.348	220.661	0.178	0.288
-339.333	800.000	0.075	-0.283
-338.318	143.299	0.063	-0.084
-337.304	-40.664	0.166	-0.086
-336.289	-200.000	0.028	-0.325
-335.275	-91.212	0.096	-0.028
-334.260	231.420	0.182	-0.301
-333.245	555.294	-0.094	-0.228
-332.231	-42.253	-0.332	-0.171
-331.216	309.509	-0.059	-0.112
-330.202	-0.261	0.075	0.053
-329.187	-141.546	-0.190	-0.019
-328.172	119.157	-0.204	-0.254
-327.158	29.094	-0.074	0.063
-326.143	-200.000	-0.026	-0.365
-325.129	-195.784	0.192	-0.001
-324.114	-64.761	0.261	-0.106
-323.099	800.000	-0.061	0.255
-322.085	-114.228	0.092	-0.018
-321.070	1.602	-0.147	-0.106
-320.056	-59.470	-0.212	-0.092
-319.041	-106.414	0.134	-0.030
-318.026	-9.116	-0.205	-0.138
-317.012	-200.000	0.009	0.206
-315.997	-82.141	0.223	-0.073
-314.983	149.542	-0.277	-0.378
-313.968	-112.850	-0.078	-0.016
-312.953	156.215	0.140	0.195
-311.939	-37.712	-0.327	0.175
-310.924	-121.181	0.109	0.018
-309.910	-121.208	-0.241	-0.041
-308.895	-72.257	-0.291	-0.109
-307.880	-54.007	0.136	-0.062
-306.866	591.884	-0.125	-0.309
-305.851	217.153	0.067	-0.108
-304.837	800.000	-0.092	0.286
-303.822	-103.432	0.069	-0.016
-302.807	-200.000	-0.036	-0.169
-301.793	221.755	0.031	-0.050
-300.778	365.506	-0.138	0.280
-299.764	-114.388	0.318	0.062
-298.749	79.451	0.094	-0.102
-297.735	90.825	0.090	-0.102
-296.720	-12.938	-0.215	-0.141
-295.705	-61.127	0.174	0.074
-294.691	-33.316	-0.186	0.104
-293.676	-174.473	0.266	-0.008
-292.662	-91.311	-0.322	0.093
-291.647	-60.202	-0.056	0.024
-290.632	-155.092	0.204	0.013
-289.618	800.000	0.135	-0.526
-288.603	184.819	0.113	-0.168
-287.589	33.301	0.098	0.085
-286.574	31.079	0.241	-0.208
-285.559	-19.433	-0.040	0.025
-284.545	-6.294	0.353	-0.242
-283.530	-29.866	-0.155	0.089
-282.516	-82.614	-0.274	-0.089
-281.501	-86.714	-0.140	0.043
-280.486	-148.629	0.057	0.005
-279.472	44.819	-0.243	0.225
-278.457	130.363	0.260	0.335
-277.443	38.942	0.174	-0.156
-276.428	435.731	-0.118	0.258
-275.413	14.353	0.200	0.157
-274.399	-73.509	0.210	0.077
-273.384	800.000	-0.025	-0.107
-272.370	-200.000	0.037	-0.332
-271.355	-91.074	-0.152	-0.044
-270.340	17.933	-0.065	0.052
-269.326	551.219	-0.091	-0.220
-268.311	2.143	0.228	-0.166
-267.297	800.000	-0.054	0.220
-266.282	607.862	-0.054	0.135
-265.267	-136.279	0.455	0.053
-264.253	-200.000	-0.061	0.435
-263.238	-187.533	-0.136	0.002
-262.224	-200.000	-0.005	-0.396
-261.209	-60.909	-0.204	-0.087
-260.195	269.077	0.037	-0.065
-259.180	-33.731	-0.258	-0.143
-258.165	-97.345	0.058	0.015
-257.151	-200.000	0.344	0.001
-256.136	324.372	-0.150	0.288
-255.122	112.888	-0.148	0.180
-254.107	135.361	0.138	0.180
-253.092	-107.901	-0.339	-0.074
-252.078	72.396	-0.301	-0.315
-251.063	605.624	0.156	-0.390
-250.049	265.731	0.206	-0.361
-249.034	-139.612	0.086	0.009
-248.019	-115.148	-0.251	-0.048
-247.005	800.000	0.047	0.148
-245.990	-141.274	-0.191	-0.019
-244.976	613.925	-0.054	-0.135
-243.961	-49.861	-0.275	0.131
-242.946	-19.047	-0.111	-0.069
-241.932	-50.596	-0.193	0.091
-240.917	-67.556	0.213	0.084
-239.903	-42.597	0.118	-0.060
-238.888	-55.705	-0.099	0.044
-237.873	-200.000	-0.062	0.484
-236.859	-21.146	0.157	0.096
-235.844	-131.878	0.054	-0.007
-234.830	-115.561	0.277	0.052
-233.815	-106.973	-0.079	0.018
-232.800	800.000	0.058	0.180
-231.786	-150.843	0.218	0.017
-230.771	-25.236	-0.330	0.196
-229.757	310.606	-0.107	-0.201
-228.742	-115.585	0.123	-0.023
-227.727	-185.000	0.154	-0.002
-226.713	480.932	0.119	0.272
-225.698	-28.815	0.075	-0.043
-224.684	-147.999	0.140	-0.012
-223.669	-11.134	0.267	-0.177
-222.655	-200.000	-0.008	0.184
-221.640	95.570	0.088	0.101
-220.625	59.432	-0.063	-0.062
-219.611	137.425	-0.180	-0.236
-218.596	-172.987	0.070	-0.002
-217.582	-16.680	0.098	-0.062
-216.567	800.000	0.018	-0.073
-215.552	-138.045	-0.214	0.024
-214.538	-117.753	0.027	0.005
-213.523	289.884	0.060	0.109
-212.509	-19.228	0.261	0.162
-211.494	3.510	-0.378	0.276
-210.479	440.214	0.091	0.200
-209.465	325.945	-0.028	0.054
-208.450	-200.000	0.000	0.168
-207.436	157.973	-0.068	-0.095
-206.421	-87.774	-0.154	-0.047
-205.406	101.163	-0.262	-0.306
-204.392	261.896	-0.122	0.213
-203.377	-170.284	-0.120	0.004
-202.363	596.366	0.069	-0.171
-201.348	-48.317	-0.232	0.112
-200.333	-200.000	-0.061	-0.278
-199.319	-52.999	0.212	0.098
-198.304	74.869	-0.102	0.107
-197.290	-59.831	-0.365	0.157
-196.275	-111.832	0.228	-0.046
-195.260	-200.000	-0.014	-0.319
-194.246	800.000	-0.049	-0.213
-193.231	-200.000	-0.004	0.421
-192.217	-31.200	-0.085	-0.048
-191.202	386.937	0.176	0.364
-190.187	502.632	-0.051	-0.117
-189.173	46.622	0.282	0.262
-188.158	-200.000	0.016	-0.431
-187.144	-200.000	-0.062	-0.434
-186.129	-200.000	-0.020	-0.265
-185.114	-92.146	0.237	-0.067
-184.100	33.504	0.105	-0.092
-183.085	245.551	0.169	-0.285
-182.071	386.920	-0.046	-0.095
-181.056	13.465	0.082	0.063
-180.042	-200.000	0.072	-0.348
-179.027	12.447	-0.109	0.084
-178.012	-49.064	-0.287	-0.138
-176.998	205.987	-0.150	-0.233
-175.983	800.000	0.034	0.142
-174.969	800.000	-0.076	-0.212
-173.954	113.953	0.071	0.086
-172.939	-47.312	0.125	-0.061
-171.925	800.000	-0.081	-0.264
-170.910	63.343	-0.088	0.088
-169.896	-103.489	0.271	0.064
-168.881	-122.879	0.054	0.009
-167.866	92.410	-0.052	-0.059
-166.852	-46.326	-0.291	0.143
-165.837	452.499	0.154	0.341
-164.823	800.000	0.042	0.150
-163.808	-6.616	0.251	0.171
-162.793	72.403	0.084	0.088
-161.779	266.051	0.033	0.057
-160.764	-123.785	0.266	-0.042
-159.750	-122.829	-0.231	-0.037
-158.735	-9.391	-0.287	0.192
-157.720	-142.137	0.325	0.032
-156.706	-48.444	0.304	-0.146
-155.691	437.703	0.141	0.307
-154.677	800.000	0.061	-0.234
-153.662	-200.000	0.001	0.033
-152.647	800.000	0.053	0.189
-151.633	-94.532	-0.129	0.035
-150.618	-200.000	0.036	0.160
-149.604	-200.000	-0.023	0.323
-148.589	-20.541	0.108	0.066
-147.574	338.063	0.060	0.116
-146.560	96.313	-0.240	0.274
-145.545	182.261	-0.075	-0.110
-144.531	-200.000	0.163	0.000
-143.516	-112.671	0.385	0.076
-142.502	-66.528	-0.120	-0.048
-141.487	88.412	0.160	0.178
-140.472	64.383	0.203	0.205
-139.458	27.323	0.133	0.112
-138.443	-75.214	0.194	-0.069
-137.429	78.541	0.264	0.282
-136.414	58.542	0.124	-0.122
-135.399	109.144	0.168	0.201
-134.385	129.313	-0.156	0.200
-133.370	-19.454	0.145	-0.090
-132.356	341.966	0.055	0.108
-131.341	18.780	-0.165	-0.132
-130.326	-200.000	0.031	0.323
-129.312	-200.000	-0.021	-0.278
-128.297	-200.000	0.070	0.378
-127.283	375.048	-0.103	0.210
-126.268	-96.390	0.319	-0.084
-125.253	-107.730	-0.175	-0.038
-124.239	-53.064	0.295	-0.136
-123.224	128.626	0.186	-0.236
-122.210	0.784	-0.310	0.222
-121.195	69.989	-0.090	0.093
