DTS Sentinel unit serial number:	SN413079Multiplexer serial number:	ORYXHardware model number:	OX4-SRSoftware version number:	ORYX F/W v4.00 Oryx Data Collector v3.7.2.0data status	okinstallation	princeton_trtdifferential loss correction	single-endedforward channel	channel 3reverse channel	N/Adate	2019/09/18time	16:08:35forward acquisition time	60.00reverse acquisition time	0.00gamma	496.2192k internal	0.2292k external	0.2292temperature offset calibration	0.9982default loss term (dB/km)	0.3790temperature slope calibration	1.0000multiplexer offset coefficient	1.0000multiplexer slope coefficient	1.0000fibre end	0.00T internal ref (°C)	37.92T ext. ref 1 (°C)	0.81T ext. ref 2 (°C)	37.01length (m)	temperature (°C)	Stokes	anti-Stokes-747.200	-99.682	-0.205	-0.053
-746.185	-200.000	0.003	0.437
-745.171	246.541	-0.198	-0.341
-744.156	800.000	0.086	0.366
-743.142	-83.033	-0.249	0.082
-742.127	-7.634	-0.250	0.173
-741.112	-85.779	0.228	0.072
-740.098	800.000	0.067	0.236
-739.083	-200.000	0.060	0.269
-738.069	25.600	-0.201	0.171
-737.054	-53.555	0.346	-0.162
-736.039	-136.584	-0.297	0.035
-735.025	179.884	0.108	-0.163
-734.010	-77.896	-0.214	-0.076
-732.996	-16.205	-0.186	-0.121
-731.981	171.774	0.235	0.346
-730.966	4.006	-0.181	-0.135
-729.952	-200.000	0.013	0.183
-728.937	-99.674	-0.076	0.020
-727.923	-86.409	-0.223	0.070
-726.908	800.000	-0.020	0.088
-725.894	253.516	-0.024	-0.041
-724.879	800.000	0.041	-0.153
-723.864	800.000	-0.086	0.315
-722.850	-8.878	-0.045	-0.031
-721.835	195.877	0.221	-0.344
-720.821	-152.062	-0.130	-0.010
-719.806	-200.000	0.027	0.295
-718.791	-57.837	-0.427	-0.191
-717.777	82.913	-0.062	0.069
-716.762	-200.000	-0.008	-0.218
-715.748	-90.503	0.255	0.076
-714.733	-79.091	-0.193	-0.067
-713.718	-175.635	-0.208	-0.006
-712.704	-200.000	0.040	-0.239
-711.689	-135.443	-0.087	-0.011
-710.675	381.273	0.192	0.402
-709.660	7.501	-0.093	0.071
-708.645	-146.327	-0.200	0.018
-707.631	26.386	0.056	-0.048
-706.616	279.362	0.127	0.231
-705.602	-103.421	-0.249	-0.060
-704.587	-94.589	0.154	-0.043
-703.572	532.835	-0.024	0.058
-702.558	551.521	-0.064	0.157
-701.543	293.810	0.122	0.228
-700.529	61.802	0.068	-0.070
-699.514	-55.614	0.126	-0.057
-698.499	-200.000	0.044	0.269
-697.485	454.801	-0.062	0.140
-696.470	167.365	0.095	0.138
-695.456	461.907	0.082	0.187
-694.441	-159.951	-0.121	-0.007
-693.426	141.094	0.056	-0.076
-692.412	-26.743	0.351	-0.209
-691.397	-134.075	-0.120	0.015
-690.383	-125.876	0.178	0.027
-689.368	-129.996	-0.239	-0.033
-688.354	93.120	0.169	0.195
-687.339	13.012	0.176	-0.139
-686.324	-2.190	-0.205	-0.147
-685.310	794.435	-0.089	0.250
-684.295	-113.307	0.106	0.021
-683.281	-66.148	-0.332	0.135
-682.266	123.180	-0.134	-0.171
-681.251	-58.838	-0.257	-0.114
-680.237	75.837	-0.130	-0.141
-679.222	-69.243	0.169	0.066
-678.208	-93.547	-0.141	0.040
-677.193	-102.659	0.363	0.088
-676.178	62.151	0.091	-0.092
-675.164	800.000	-0.056	-0.163
-674.149	-113.290	0.332	0.067
-673.135	-24.418	-0.172	0.105
-672.120	54.556	-0.213	-0.209
-671.105	47.451	0.295	-0.280
-670.091	800.000	0.035	0.124
-669.076	-200.000	0.024	0.282
-668.062	-200.000	0.011	0.481
-667.047	800.000	0.063	0.178
-666.032	33.250	0.115	-0.102
-665.018	127.123	-0.027	0.034
-664.003	92.148	-0.175	0.201
-662.989	111.369	-0.178	-0.219
-661.974	110.964	-0.212	0.261
-660.959	-72.941	-0.378	0.142
-659.945	-140.051	-0.233	0.025
-658.930	-107.633	-0.084	-0.019
-657.916	33.531	-0.062	0.055
-656.901	-200.000	0.012	-0.322
-655.886	800.000	0.104	0.298
-654.872	-182.080	0.105	-0.002
-653.857	-121.827	-0.449	0.076
-652.843	-10.374	-0.192	0.130
-651.828	305.522	-0.153	0.291
-650.814	-106.140	0.298	0.068
-649.799	-167.877	0.072	-0.003
-648.784	-126.015	0.165	-0.025
-647.770	58.038	0.081	0.081
-646.755	-135.645	0.422	0.051
-645.741	116.138	0.141	-0.177
-644.726	504.716	0.029	0.067
-643.711	22.469	0.044	0.037
-642.697	-127.164	0.257	-0.038
-641.682	-200.000	-0.014	-0.192
-640.668	-26.142	0.039	-0.023
-639.653	-138.369	0.204	-0.023
-638.638	232.077	0.213	0.356
-637.624	195.470	-0.106	0.164
-636.609	-148.217	0.333	-0.028
-635.595	45.952	0.114	-0.108
-634.580	-110.968	0.208	0.044
-633.565	800.000	0.010	0.035
-632.551	9.357	-0.137	-0.105
-631.536	-23.797	-0.297	0.181
-630.522	21.532	0.069	0.057
-629.507	-153.682	-0.052	-0.004
-628.492	-54.319	0.359	-0.166
-627.478	-105.072	-0.179	0.042
-626.463	-162.599	0.433	0.022
-625.449	691.124	-0.083	-0.223
-624.434	282.014	-0.044	-0.080
-623.419	-200.000	-0.023	0.291
-622.405	-200.000	-0.045	-0.219
-621.390	406.869	-0.160	0.344
-620.376	-97.616	0.196	-0.052
-619.361	-200.000	-0.009	-0.171
-618.346	453.006	0.092	-0.208
-617.332	19.779	0.282	0.231
-616.317	-114.287	0.201	0.039
-615.303	800.000	-0.011	0.040
-614.288	84.890	0.193	0.215
-613.273	800.000	0.100	0.388
-612.259	-75.833	-0.369	0.133
-611.244	-1.738	-0.062	-0.044
-610.230	98.479	-0.050	0.059
-609.215	-200.000	0.006	0.105
-608.201	800.000	0.097	-0.285
-607.186	-3.855	-0.256	-0.181
-606.171	-31.678	0.169	-0.097
-605.157	-143.253	0.093	0.009
-604.142	-53.714	-0.179	0.083
-603.128	-99.839	0.296	0.075
-602.113	8.288	0.314	0.240
-601.098	-101.749	-0.053	-0.013
-600.084	115.824	-0.180	-0.224
-599.069	800.000	-0.040	0.151
-598.055	-112.777	-0.218	0.044
-597.040	-200.000	0.035	-0.418
-596.025	43.878	-0.155	-0.144
-595.011	129.677	0.099	-0.128
-593.996	-3.733	0.124	0.088
-592.982	-200.000	-0.011	-0.311
-591.967	150.013	0.203	-0.281
-590.952	-156.218	0.316	-0.020
-589.938	-13.153	-0.071	-0.047
-588.923	719.346	-0.053	0.144
-587.909	34.997	0.094	0.084
-586.894	-93.734	0.222	0.062
-585.879	505.145	-0.091	0.213
-584.865	15.193	-0.240	-0.192
-583.850	74.009	-0.100	-0.106
-582.836	166.536	0.112	-0.161
-581.821	-200.000	0.067	-0.327
-580.806	-28.625	-0.057	0.033
-579.792	-98.962	-0.137	0.035
-578.777	104.980	0.219	-0.262
-577.763	-4.438	0.414	-0.291
-576.748	-104.236	-0.176	-0.041
-575.733	0.859	-0.076	0.055
-574.719	-96.283	0.024	-0.006
-573.704	-22.262	-0.289	0.178
-572.690	-138.733	-0.545	-0.061
-571.675	-91.178	0.424	0.124
-570.661	-179.057	0.126	-0.003
-569.646	68.068	0.121	0.126
-568.631	180.209	-0.096	0.144
-567.617	205.579	-0.189	-0.298
-566.602	134.597	0.231	0.304
-565.588	-77.175	-0.228	0.081
-564.573	800.000	-0.072	-0.252
-563.558	-200.000	0.008	0.054
-562.544	-50.047	0.203	-0.098
-561.529	96.825	-0.298	-0.348
-560.515	-200.000	-0.008	-0.192
-559.500	-200.000	0.035	-0.418
-558.485	499.920	-0.037	-0.087
-557.471	45.121	-0.171	0.160
-556.456	-200.000	0.019	0.162
-555.442	-7.133	0.201	-0.138
-554.427	-73.456	0.121	-0.045
-553.412	-200.000	0.049	0.430
-552.398	-200.000	0.027	-0.219
-551.383	-200.000	-0.021	-0.177
-550.369	-200.000	0.029	0.340
-549.354	-101.440	0.481	-0.119
-548.339	95.247	-0.162	0.188
-547.325	-115.918	0.107	0.020
-546.310	442.743	-0.035	-0.078
-545.296	771.939	-0.161	-0.446
-544.281	145.186	0.016	-0.021
-543.266	217.299	-0.130	-0.211
-542.252	-200.000	0.024	-0.339
-541.237	-117.223	-0.512	-0.095
-540.223	250.344	0.107	-0.185
-539.208	72.110	-0.166	0.175
-538.193	-0.764	0.175	-0.126
-537.179	-200.000	-0.033	-0.253
-536.164	-18.476	0.326	-0.207
-535.150	-194.158	-0.279	-0.002
-534.135	800.000	0.086	0.339
-533.121	-8.577	0.210	0.143
-532.106	395.289	-0.076	0.161
-531.091	540.792	-0.079	0.191
-530.077	118.374	-0.280	0.350
-529.062	-126.114	0.218	-0.033
-528.048	462.255	-0.147	-0.332
-527.033	-76.751	-0.149	0.053
-526.018	-180.337	0.213	-0.005
-525.004	50.427	0.050	-0.048
-523.989	34.244	0.116	0.102
-522.975	59.571	0.042	-0.042
-521.960	-200.000	-0.067	0.419
-520.945	230.876	0.109	-0.181
-519.931	-200.000	-0.017	-0.138
-518.916	191.953	-0.034	-0.053
-517.902	-156.230	-0.250	-0.016
-516.887	15.148	-0.311	0.247
-515.872	128.680	0.034	-0.044
-514.858	143.661	-0.158	0.213
-513.843	94.905	-0.127	0.146
-512.829	-55.095	-0.048	0.022
-511.814	166.571	0.087	0.125
-510.799	464.859	0.068	-0.155
-509.785	22.194	-0.301	-0.250
-508.770	141.928	0.094	0.126
-507.756	-72.839	0.344	0.129
-506.741	-31.367	0.240	0.137
-505.726	-108.293	-0.155	-0.034
-504.712	-24.011	0.127	-0.077
-503.697	87.539	-0.036	0.041
-502.683	507.353	0.043	0.101
-501.668	-108.504	0.087	0.019
-500.653	-106.688	-0.258	0.058
-499.639	673.869	0.104	-0.273
-498.624	8.492	-0.063	0.048
-497.610	800.000	-0.076	-0.331
-496.595	-112.232	0.253	-0.051
-495.581	-123.618	0.154	-0.025
-494.566	1.363	-0.192	-0.140
-493.551	-39.583	-0.339	-0.180
-492.537	-98.522	0.357	-0.092
-491.522	-200.000	-0.082	0.541
-490.508	-88.057	-0.057	-0.017
-489.493	349.095	-0.037	-0.074
-488.478	428.531	0.131	-0.286
-487.464	-91.311	-0.136	-0.039
-486.449	-130.869	-0.044	-0.006
-485.435	-200.000	-0.011	-0.104
-484.420	-200.000	-0.005	0.167
-483.405	-138.854	0.271	-0.030
-482.391	-200.000	0.011	0.119
-481.376	-200.000	0.042	-0.240
-480.362	-83.456	-0.209	0.068
-479.347	-200.000	-0.033	0.209
-478.332	-104.114	-0.139	-0.033
-477.318	-200.000	-0.062	0.473
-476.303	-143.327	0.342	-0.033
-475.289	464.722	-0.031	0.071
-474.274	-200.000	0.032	0.210
-473.259	159.579	0.053	-0.074
-472.245	-135.378	0.219	0.026
-471.230	-19.122	-0.138	0.087
-470.216	171.584	0.073	0.107
-469.201	225.504	-0.297	-0.487
-468.186	127.943	-0.078	0.100
-467.172	11.453	0.223	-0.173
-466.157	-9.605	0.226	0.153
-465.143	319.579	0.056	-0.108
-464.128	-36.010	-0.163	-0.089
-463.113	-42.255	0.189	-0.098
-462.099	-188.917	0.512	0.006
-461.084	82.338	0.204	0.224
-460.070	800.000	-0.057	0.169
-459.055	-17.325	-0.300	-0.192
-458.040	12.671	0.156	-0.122
-457.026	-6.733	-0.323	0.222
-456.011	-200.000	-0.001	0.229
-454.997	105.118	-0.013	0.015
-453.982	-200.000	-0.026	0.183
-452.968	-88.353	0.254	0.077
-451.953	-70.239	-0.125	-0.048
-450.938	-124.481	0.133	-0.021
-449.924	43.813	-0.071	0.066
-448.909	-18.720	0.248	-0.156
-447.895	800.000	-0.022	0.066
-446.880	125.154	-0.139	-0.178
-445.865	-91.683	-0.105	0.030
-444.851	221.470	-0.109	0.177
-443.836	111.563	0.088	-0.108
-442.822	477.340	-0.126	-0.289
-441.807	186.702	-0.230	0.347
-440.792	-194.508	0.157	0.001
-439.778	119.764	-0.153	-0.192
-438.763	278.142	-0.221	0.398
-437.749	800.000	0.038	0.144
-436.734	-55.448	-0.247	0.112
-435.719	-148.058	0.080	0.007
-434.705	416.544	-0.041	0.090
-433.690	-15.981	-0.289	-0.186
-432.676	14.964	0.156	0.123
-431.661	283.522	0.088	-0.161
-430.646	-39.935	-0.097	-0.051
-429.632	114.263	0.184	0.226
-428.617	-200.000	0.037	-0.184
-427.603	-200.000	0.004	-0.202
-426.588	-157.080	0.131	0.008
-425.573	-200.000	-0.009	0.050
-424.559	800.000	-0.121	0.369
-423.544	141.893	-0.166	-0.222
-422.530	800.000	0.071	0.296
-421.515	-55.320	-0.257	0.117
-420.500	-200.000	-0.038	-0.199
-419.486	305.529	0.096	-0.180
-418.471	-134.867	0.185	0.023
-417.457	-200.000	-0.018	-0.125
-416.442	-47.528	0.248	-0.122
-415.428	-200.000	-0.014	-0.082
-414.413	6.837	-0.297	0.223
-413.398	316.903	-0.036	0.068
-412.384	546.785	0.114	0.275
-411.369	800.000	0.063	0.226
-410.355	100.790	0.066	0.077
-409.340	-12.542	-0.291	-0.192
-408.325	-11.484	-0.215	0.143
-407.311	-200.000	0.028	-0.353
-406.296	-200.000	-0.001	-0.004
-405.282	26.952	-0.064	0.054
-404.267	-27.416	0.076	0.045
-403.252	-57.196	-0.449	-0.200
-402.238	206.555	0.112	0.176
-401.223	-200.000	0.053	-0.590
-400.209	800.000	-0.058	-0.169
-399.194	-38.696	0.045	0.024
-398.179	329.262	0.076	0.148
-397.165	-152.391	0.171	-0.012
-396.150	800.000	-0.039	-0.141
-395.136	337.141	-0.165	-0.324
-394.121	-111.753	-0.301	0.062
-393.106	-72.949	-0.135	-0.050
-392.092	-30.862	0.269	-0.153
-391.077	-21.904	0.290	0.178
-390.063	167.067	-0.115	0.164
-389.048	60.470	-0.046	0.046
-388.033	215.737	0.046	0.073
-387.019	-200.000	0.022	0.143
-386.004	38.686	-0.093	-0.084
-384.990	140.739	0.122	0.162
-383.975	-57.778	-0.165	-0.073
-382.960	-24.480	-0.056	0.034
-381.946	-200.000	0.033	0.230
-380.931	-200.000	-0.025	0.111
-379.917	-118.998	-0.187	-0.033
-378.902	493.994	-0.062	-0.144
-377.888	-200.000	-0.038	-0.198
-376.873	-160.434	-0.273	-0.015
-375.858	-169.307	0.373	-0.014
-374.844	701.418	-0.051	-0.134
-373.829	-50.046	-0.121	-0.058
-372.815	92.456	-0.168	0.191
-371.800	-152.641	-0.077	0.006
-370.785	-200.000	0.009	0.364
-369.771	800.000	0.081	0.237
-368.756	690.799	-0.111	0.293
-367.742	-200.000	0.007	-0.084
-366.727	278.502	0.210	0.377
-365.712	229.285	0.130	0.214
-364.698	-3.871	-0.106	0.074
-363.683	800.000	0.043	0.122
-362.669	460.270	0.084	0.189
-361.654	116.684	0.086	-0.106
-360.639	-30.604	-0.351	-0.201
-359.625	47.000	0.185	0.174
-358.610	-200.000	0.005	-0.049
-357.596	-156.584	0.124	-0.008
-356.581	-54.121	-0.097	-0.044
-355.566	415.242	0.054	-0.116
-354.552	-41.251	-0.376	0.195
-353.537	800.000	-0.120	0.333
-352.523	216.748	-0.094	0.151
-351.508	-91.109	-0.499	-0.144
-350.493	-83.128	0.211	-0.068
-349.479	-106.210	-0.125	-0.028
-348.464	-121.237	-0.343	-0.058
-347.450	-200.000	-0.071	0.462
-346.435	-141.542	0.221	0.022
-345.420	-200.000	0.003	-0.227
-344.406	328.265	0.131	0.253
-343.391	-175.344	-0.212	0.006
-342.377	-27.428	0.027	0.016
-341.362	-69.243	-0.041	0.016
-340.348	-16.816	-0.143	0.091
-339.333	26.805	0.080	0.067
-338.318	-200.000	0.010	-0.077
-337.304	547.465	0.155	0.375
-336.289	-200.000	0.086	0.402
-335.275	42.452	-0.117	0.107
-334.260	575.479	-0.082	0.202
-333.245	-53.040	-0.195	-0.090
-332.231	45.015	0.306	0.284
-331.216	-154.246	-0.064	0.004
-330.202	-122.037	-0.346	0.057
-329.187	272.533	-0.038	-0.067
-328.172	800.000	0.023	0.098
-327.158	556.325	0.074	-0.181
-326.143	-118.524	-0.333	0.059
-325.129	281.592	-0.066	-0.118
-324.114	-200.000	-0.037	0.190
-323.099	174.599	0.126	0.183
-322.085	-110.305	-0.302	-0.063
-321.070	266.583	0.070	0.123
-320.056	113.465	-0.131	0.160
-319.041	-200.000	-0.007	-0.084
-318.026	95.573	-0.139	-0.160
-317.012	260.636	0.086	-0.150
-315.997	-140.862	0.267	0.028
-314.983	-113.443	-0.206	0.041
-313.968	-131.575	0.180	-0.024
-312.953	97.421	-0.188	-0.218
-311.939	-39.947	-0.253	-0.133
-310.924	157.300	0.111	-0.154
-309.910	-136.344	0.103	-0.012
-308.895	65.453	0.196	0.200
-307.880	800.000	-0.046	-0.184
-306.866	-81.961	-0.102	0.034
-305.851	-52.694	0.231	-0.107
-304.837	-55.142	0.287	0.130
-303.822	505.734	0.098	0.229
-302.807	-200.000	-0.027	0.195
-301.793	-47.365	-0.178	-0.087
-300.778	387.447	0.106	-0.220
-299.764	-10.043	-0.132	-0.088
-298.749	481.178	-0.045	-0.102
-297.735	235.637	0.158	-0.262
-296.720	-146.402	-0.225	0.020
-295.705	800.000	-0.017	-0.073
-294.691	294.938	-0.163	-0.299
-293.676	19.786	-0.518	-0.419
-292.662	359.304	-0.100	0.201
-291.647	230.014	0.220	0.361
-290.632	88.752	0.062	0.069
-289.618	-200.000	-0.076	0.399
-288.603	237.194	0.091	0.151
-287.589	30.201	0.141	-0.121
-286.574	15.348	0.227	0.179
-285.559	-111.177	-0.272	0.056
-284.545	-85.973	0.024	-0.007
-283.530	393.160	0.035	0.072
-282.516	-200.000	-0.000	-0.115
-281.501	79.076	-0.157	0.169
-280.486	-118.615	-0.381	0.068
-279.472	-86.193	-0.119	-0.037
-278.457	-200.000	0.015	0.087
-277.443	-165.599	-0.203	-0.009
-276.428	68.108	-0.025	-0.025
-275.413	800.000	0.080	-0.250
-274.399	800.000	0.086	-0.347
-273.384	-59.703	-0.101	0.044
-272.370	77.217	-0.195	-0.209
-271.355	236.546	0.113	0.188
-270.340	-23.330	0.316	0.191
-269.326	130.341	0.022	-0.029
-268.311	3.480	0.321	-0.235
-267.297	133.746	0.180	0.234
-266.282	-200.000	-0.007	-0.085
-265.267	262.385	-0.150	-0.261
-264.253	-14.265	0.084	0.055
-263.238	139.726	-0.059	-0.078
-262.224	153.459	0.219	-0.302
-261.209	39.208	0.086	-0.077
-260.195	-10.902	-0.150	-0.100
-259.180	39.796	0.118	-0.107
-258.165	-125.566	-0.180	0.028
-257.151	800.000	0.049	-0.157
-256.136	-59.533	0.077	-0.033
-255.122	-142.016	-0.137	-0.014
-254.107	800.000	0.088	0.332
-253.092	364.085	-0.048	0.097
-252.078	-71.827	-0.132	0.049
-251.063	-200.000	0.030	-0.297
-250.049	68.099	0.157	-0.161
-249.034	-30.710	-0.410	-0.233
-248.019	-200.000	0.007	-0.112
-247.005	-85.264	0.393	-0.123
-245.990	276.578	0.129	0.230
-244.976	207.255	-0.135	0.211
-243.961	-200.000	0.058	-0.354
-242.946	-200.000	0.007	-0.173
-241.932	-31.925	0.303	-0.170
-240.917	800.000	0.020	-0.085
-239.903	-200.000	0.028	0.168
-238.888	159.222	0.142	0.199
-237.873	800.000	-0.036	-0.103
-236.859	-55.746	-0.179	0.080
-235.844	6.751	-0.272	0.203
-234.830	-31.477	-0.120	-0.068
-233.815	-60.057	-0.150	-0.064
-232.800	19.482	-0.035	0.028
-231.786	3.482	-0.151	0.111
-230.771	-75.241	0.192	-0.069
-229.757	27.720	-0.175	0.148
-228.742	-28.238	0.117	-0.068
-227.727	-134.445	-0.230	-0.028
-226.713	-102.985	0.234	-0.056
-225.698	300.767	0.094	-0.174
-224.684	145.076	0.090	-0.121
-223.669	363.091	0.090	-0.182
-222.655	229.523	-0.145	0.237
-221.640	-200.000	-0.025	0.157
-220.625	-200.000	-0.014	-0.148
-219.611	77.633	-0.054	0.058
-218.596	26.303	-0.140	-0.117
-217.582	108.522	-0.020	-0.024
-216.567	-146.227	-0.108	0.010
-215.552	335.648	0.059	0.114
-214.538	378.240	-0.092	-0.190
-213.523	-75.346	-0.135	0.048
-212.509	-106.102	-0.192	0.043
-211.494	-14.464	0.223	-0.144
-210.479	194.430	0.041	-0.062
-209.465	109.715	0.116	-0.140
-208.450	-51.370	-0.374	0.175
-207.436	509.997	0.060	0.139
-206.421	-48.350	-0.139	0.067
-205.406	99.169	0.425	-0.492
-204.392	-139.342	0.169	0.018
-203.377	-200.000	-0.107	-0.000
-202.363	-117.220	-0.085	-0.016
-201.348	-75.277	0.224	-0.080
-200.333	-72.426	0.489	-0.181
-199.319	-200.000	0.008	0.221
-198.304	373.700	-0.113	0.230
-197.290	800.000	0.071	-0.218
-196.275	26.705	-0.037	-0.031
-195.260	-19.838	0.110	-0.068
-194.246	12.188	-0.061	0.047
-193.231	-200.000	-0.018	-0.211
-192.217	298.675	0.200	0.368
-191.202	240.007	-0.172	0.287
-190.187	800.000	-0.121	0.336
-189.173	-64.174	-0.192	0.079
-188.158	392.753	-0.141	-0.293
-187.144	800.000	0.068	0.190
-186.129	571.796	-0.026	-0.063
-185.114	115.304	-0.139	-0.170
-184.100	800.000	0.114	0.334
-183.085	800.000	0.044	-0.181
-182.071	162.830	-0.421	-0.592
-181.056	-200.000	-0.005	-0.104
-180.042	-58.156	0.252	0.110
-179.027	6.699	0.063	0.047
-178.012	259.742	0.094	0.162
-176.998	-200.000	0.006	-0.288
-175.983	223.362	-0.101	0.163
-174.969	800.000	-0.025	-0.093
-173.954	-68.418	0.166	0.065
-172.939	292.944	-0.051	0.093
-171.925	125.789	-0.044	0.055
-170.910	42.492	0.111	0.101
-169.896	252.671	0.131	0.223
-168.881	739.150	0.026	-0.069
-167.866	183.234	0.105	0.155
-166.852	-200.000	0.043	-0.312
-165.837	-200.000	0.029	0.159
-164.823	-51.173	-0.194	0.091
-163.808	-23.503	0.171	-0.103
-162.793	-80.526	0.110	0.037
-161.779	800.000	0.104	-0.299
-160.764	-41.379	-0.274	-0.141
-159.750	-200.000	0.009	-0.216
-158.735	31.628	0.202	0.173
-157.720	-114.815	0.523	-0.100
-156.706	-109.576	-0.192	0.040
-155.691	603.612	-0.077	0.192
-154.677	-55.696	-0.174	0.078
-153.662	-101.472	0.288	-0.070
-152.647	51.628	0.123	0.117
-151.633	699.753	-0.066	-0.173
-150.618	512.036	0.099	0.231
-149.604	-99.175	0.272	-0.069
-148.589	669.128	0.040	-0.104
-147.574	-32.598	-0.172	-0.096
-146.560	-41.514	-0.101	0.052
-145.545	800.000	0.074	-0.219
-144.531	-44.583	-0.144	0.072
-143.516	569.920	0.063	0.152
-142.502	41.467	-0.100	0.090
-141.487	-77.506	-0.072	0.025
-140.472	-69.481	-0.129	-0.049
-139.458	120.747	0.071	0.088
-138.443	-200.000	0.035	0.346
-137.429	15.400	0.221	-0.173
-136.414	267.467	0.083	-0.145
-135.399	-26.815	0.139	-0.081
-134.385	800.000	-0.124	0.424
-133.370	1.531	-0.013	-0.009
-132.356	-200.000	0.031	-0.231
-131.341	154.877	-0.102	0.140
-130.326	-101.397	0.127	0.031
-129.312	14.833	-0.249	-0.195
-128.297	72.402	-0.103	0.108
-127.283	-16.694	-0.203	0.128
-126.268	-200.000	-0.007	-0.089
-125.253	17.282	-0.112	-0.088
-124.239	-155.662	0.242	-0.015
-123.224	-99.642	-0.274	-0.069
-122.210	-81.809	-0.366	0.120
-121.195	653.785	0.022	0.056
