DTS Sentinel unit serial number:	SN413079Multiplexer serial number:	ORYXHardware model number:	OX4-SRSoftware version number:	ORYX F/W v4.00 Oryx Data Collector v3.7.2.0data status	okinstallation	princeton_trtdifferential loss correction	single-endedforward channel	channel 3reverse channel	N/Adate	2019/09/12time	19:30:03forward acquisition time	15.00reverse acquisition time	0.00gamma	496.2192k internal	0.2322k external	0.2322temperature offset calibration	1.0106default loss term (dB/km)	0.3790temperature slope calibration	1.0000multiplexer offset coefficient	1.0000multiplexer slope coefficient	1.0000fibre end	0.00T internal ref (°C)	32.25T ext. ref 1 (°C)	3.30T ext. ref 2 (°C)	26.76length (m)	temperature (°C)	Stokes	anti-Stokes-747.200	232.727	-0.126	0.209
-746.185	800.000	0.038	-0.136
-745.171	311.299	0.424	-0.802
-744.156	-25.124	-0.310	-0.185
-743.142	-200.000	0.003	-0.363
-742.127	-200.000	0.016	0.362
-741.112	-200.000	0.040	0.321
-740.098	381.763	-0.301	0.625
-739.083	-200.000	-0.085	-0.507
-738.069	268.622	0.270	-0.477
-737.054	11.414	0.493	-0.382
-736.039	19.959	0.697	0.568
-735.025	-92.036	0.648	0.185
-734.010	-115.653	-0.450	-0.085
-732.996	-200.000	0.253	-1.158
-731.981	-111.463	0.992	0.204
-730.966	95.349	-0.044	0.051
-729.952	220.643	0.486	-0.788
-728.937	25.108	-0.565	-0.474
-727.923	201.101	-0.284	0.441
-726.908	128.704	-0.164	0.212
-725.894	-68.154	-0.692	0.272
-724.879	800.000	0.106	0.424
-723.864	800.000	-0.084	-0.292
-722.850	-8.390	-1.241	-0.843
-721.835	-59.793	-0.118	-0.051
-720.821	201.280	-0.237	-0.368
-719.806	49.938	-0.600	0.571
-718.791	-74.954	-1.088	-0.394
-717.777	-200.000	0.061	-0.401
-716.762	-200.000	0.095	-0.423
-715.748	66.866	-0.368	0.378
-714.733	-200.000	-0.036	-0.206
-713.718	173.814	0.294	0.429
-712.704	-101.623	0.702	-0.172
-711.689	800.000	0.042	-0.143
-710.675	-166.321	-0.710	0.030
-709.660	208.650	-0.136	-0.215
-708.645	164.006	-0.555	0.788
-707.631	-200.000	-0.069	-1.272
-706.616	-122.768	0.065	0.011
-705.602	26.041	-0.486	-0.409
-704.587	-54.563	0.385	0.176
-703.572	-104.983	0.936	-0.216
-702.558	-105.184	-0.819	0.189
-701.543	800.000	-0.066	0.258
-700.529	-200.000	-0.053	0.381
-699.514	79.493	-0.095	0.102
-698.499	-30.462	0.377	-0.216
-697.485	-125.851	0.276	-0.042
-696.470	-75.395	0.624	0.224
-695.456	-63.815	-0.718	0.297
-694.441	-200.000	0.022	0.117
-693.426	110.607	-0.254	0.308
-692.412	-200.000	-0.074	-0.361
-691.397	5.289	0.591	0.440
-690.383	21.441	0.382	0.313
-689.368	746.815	-0.138	0.375
-688.354	118.920	0.204	0.254
-687.339	-155.688	1.205	-0.078
-686.324	-144.483	-0.448	0.042
-685.310	-127.773	0.175	0.025
-684.295	132.087	-0.070	0.092
-683.281	130.373	0.399	0.515
-682.266	63.840	0.234	0.237
-681.251	100.498	-0.142	0.166
-680.237	-69.941	0.293	0.113
-679.222	40.483	-0.344	0.312
-678.208	-200.000	-0.005	-0.053
-677.193	-39.778	0.638	-0.336
-676.178	-200.000	0.056	-0.299
-675.164	-200.000	-0.019	-0.197
-674.149	329.972	0.324	0.629
-673.135	98.152	-0.643	0.746
-672.120	640.969	-0.291	0.746
-671.105	-200.000	0.044	-0.497
-670.091	-16.353	-0.398	0.254
-669.076	72.509	0.079	-0.083
-668.062	178.807	-0.279	-0.410
-667.047	-61.457	0.136	-0.058
-666.032	-200.000	-0.125	0.888
-665.018	484.178	-0.469	-1.075
-664.003	-162.356	1.038	0.052
-662.989	180.717	0.299	0.442
-661.974	206.324	-0.059	0.092
-660.959	-67.041	1.199	0.477
-659.945	79.779	-0.287	0.310
-658.930	-200.000	0.002	-0.165
-657.916	-21.883	-0.285	-0.174
-656.901	-57.771	0.202	0.089
-655.886	170.465	0.485	0.699
-654.872	41.087	0.181	-0.165
-653.857	-61.329	0.203	-0.086
-652.843	158.693	-0.149	0.208
-651.828	800.000	0.211	-0.899
-650.814	-108.592	0.056	0.012
-649.799	105.125	0.433	-0.514
-648.784	-200.000	-0.004	-0.139
-647.770	164.012	0.525	-0.745
-646.755	-103.989	-0.630	-0.148
-645.741	800.000	-0.188	-0.737
-644.726	-27.378	0.225	0.132
-643.711	-200.000	0.131	-1.124
-642.697	-73.684	-0.490	0.179
-641.682	201.194	-0.299	-0.463
-640.668	-200.000	-0.037	-0.440
-639.653	-196.967	-0.395	0.003
-638.638	-82.147	-0.269	0.088
-637.624	800.000	-0.105	0.448
-636.609	-163.007	-1.043	-0.051
-635.595	242.550	0.410	0.691
-634.580	71.962	0.506	-0.530
-633.565	33.991	0.367	-0.322
-632.551	-53.418	0.473	0.218
-631.536	-200.000	-0.033	0.415
-630.522	430.550	0.192	0.417
-629.507	-95.890	-0.625	0.168
-628.492	-99.053	0.618	-0.157
-627.478	800.000	-0.089	0.287
-626.463	-140.605	0.388	0.040
-625.449	604.693	0.193	-0.484
-624.434	-75.242	-0.419	0.151
-623.419	352.390	0.446	-0.889
-622.405	82.189	0.308	0.336
-621.390	630.979	0.131	0.333
-620.376	165.451	-0.522	0.741
-619.361	-200.000	-0.040	0.210
-618.346	-200.000	-0.014	-0.501
-617.332	-41.510	-0.204	-0.106
-616.317	-4.550	-1.025	0.712
-615.303	61.780	0.376	0.377
-614.288	-132.940	0.533	0.068
-613.273	155.990	-0.716	-0.993
-612.259	800.000	-0.109	-0.449
-611.244	-120.477	-0.254	0.043
-610.230	-36.655	-0.320	-0.173
-609.215	-128.050	0.505	-0.073
-608.201	-36.130	0.365	0.198
-607.186	-200.000	0.001	-1.385
-606.171	8.509	-0.199	-0.150
-605.157	571.046	0.263	-0.642
-604.142	-91.175	0.724	0.209
-603.128	-152.611	-0.108	-0.008
-602.113	-200.000	-0.025	0.294
-601.098	-128.952	1.296	0.183
-600.084	-200.000	0.109	-0.669
-599.069	-12.118	0.105	0.069
-598.055	99.862	0.151	-0.176
-597.040	-200.000	0.023	0.120
-596.025	-93.699	0.273	-0.076
-595.011	-145.515	-0.524	-0.047
-593.996	-200.000	-0.028	0.309
-592.982	-97.795	-0.031	-0.008
-591.967	22.864	-0.297	0.245
-590.952	54.791	-0.221	0.215
-589.938	466.426	0.160	-0.361
-588.923	-200.000	0.019	-0.118
-587.909	182.067	0.445	-0.659
-586.894	28.194	-0.210	0.178
-585.879	124.598	-0.244	0.308
-584.865	167.373	-0.114	-0.162
-583.850	420.669	0.136	-0.294
-582.836	-4.762	-0.529	-0.366
-581.821	-160.862	0.499	-0.026
-580.806	200.507	0.528	0.814
-579.792	-200.000	-0.064	0.373
-578.777	-134.402	0.503	-0.062
-577.763	-76.198	0.183	0.065
-576.748	-102.668	-0.250	0.060
-575.733	-39.086	-0.142	0.075
-574.719	-136.828	0.614	-0.071
-573.704	113.101	-0.445	-0.542
-572.690	-89.966	0.370	0.108
-571.675	-200.000	-0.096	-0.439
-570.661	800.000	0.054	-0.225
-569.646	188.767	-0.299	-0.449
-568.631	-72.933	-0.578	0.213
-567.617	-25.317	-0.812	-0.482
-566.602	623.519	0.155	-0.392
-565.588	22.285	-0.239	-0.196
-564.573	25.717	0.562	-0.470
-563.558	511.585	-0.223	0.521
-562.544	800.000	0.109	0.423
-561.529	-117.939	-0.335	0.060
-560.515	-25.997	0.438	-0.258
-559.500	-200.000	0.002	-0.445
-558.485	-92.033	0.475	-0.135
-557.471	800.000	0.159	0.593
-556.456	444.017	-0.137	0.301
-555.442	253.479	-0.137	0.234
-554.427	800.000	0.099	-0.291
-553.412	213.227	0.430	-0.681
-552.398	205.098	0.438	-0.682
-551.383	-69.712	-0.502	0.192
-550.369	-200.000	0.182	-0.857
-549.354	493.955	0.282	0.649
-548.339	368.897	0.375	0.761
-547.325	-162.467	-0.374	-0.019
-546.310	273.604	-0.410	-0.726
-545.296	-22.964	-0.222	0.134
-544.281	99.584	0.321	-0.372
-543.266	-168.428	0.201	0.008
-542.252	-200.000	-0.038	0.621
-541.237	-119.771	-0.969	0.168
-540.223	84.048	-0.377	-0.412
-539.208	86.205	0.386	-0.426
-538.193	-157.845	0.239	-0.014
-537.179	-200.000	0.018	-0.509
-536.164	-50.798	-0.821	-0.387
-535.150	649.827	0.226	-0.579
-534.135	-200.000	-0.016	0.603
-533.121	557.639	0.297	0.719
-532.106	-200.000	-0.122	0.542
-531.091	-200.000	-0.071	-0.374
-530.077	800.000	-0.209	-0.695
-529.062	-90.304	-0.434	-0.126
-528.048	227.040	-0.128	-0.208
-527.033	447.062	0.395	-0.871
-526.018	-200.000	-0.057	-0.254
-525.004	-100.100	0.242	-0.060
-523.989	42.632	0.653	-0.595
-522.975	-80.123	-0.273	0.092
-521.960	98.666	0.196	0.227
-520.945	214.390	0.320	0.507
-519.931	643.103	0.122	-0.312
-518.916	800.000	0.149	-0.473
-517.902	-116.404	0.766	0.142
-516.887	129.741	-0.487	-0.623
-515.872	-116.913	0.411	0.075
-514.858	-90.122	-0.321	-0.094
-513.843	100.500	-0.765	0.889
-512.829	-3.829	-0.233	0.162
-511.814	0.927	-0.555	-0.398
-510.799	-200.000	-0.073	-0.588
-509.785	224.980	-0.327	0.530
-508.770	-135.923	-0.308	0.036
-507.756	40.109	0.599	-0.539
-506.741	-183.673	-0.446	-0.008
-505.726	-200.000	0.100	0.467
-504.712	-200.000	0.037	0.334
-503.697	-200.000	-0.009	0.289
-502.683	-200.000	-0.103	1.153
-501.668	-46.785	0.543	-0.266
-500.653	-48.320	-0.281	-0.136
-499.639	-200.000	0.013	0.320
-498.624	-200.000	0.176	1.002
-497.610	-200.000	0.012	0.512
-496.595	598.203	-0.152	0.378
-495.581	-30.001	0.274	-0.156
-494.566	800.000	0.226	-0.736
-493.551	-169.544	-0.305	-0.011
-492.537	-200.000	0.008	-0.829
-491.522	-89.384	-0.722	-0.213
-490.508	-90.819	1.016	-0.293
-489.493	-200.000	-0.068	-1.113
-488.478	-26.127	0.403	-0.237
-487.464	9.827	0.329	-0.250
-486.449	64.112	0.562	-0.565
-485.435	223.408	-0.148	0.239
-484.420	103.191	0.312	0.366
-483.405	176.269	0.087	-0.126
-482.391	355.675	-0.176	0.350
-481.376	161.047	-0.163	-0.228
-480.362	162.042	0.572	0.801
-479.347	29.915	-0.365	-0.311
-478.332	649.232	0.197	0.505
-477.318	-144.793	0.476	0.044
-476.303	672.548	0.135	-0.349
-475.289	-200.000	-0.008	-0.210
-474.274	-44.316	-0.668	0.335
-473.259	74.450	0.202	0.212
-472.245	635.447	-0.140	-0.356
-471.230	-86.888	-0.324	-0.099
-470.216	-200.000	0.094	-0.833
-469.201	-147.126	0.988	-0.084
-468.186	-200.000	-0.009	-0.592
-467.172	101.618	0.292	0.340
-466.157	800.000	-0.041	0.130
-465.143	-75.272	-0.491	-0.175
-464.128	-121.782	0.488	0.081
-463.113	-37.212	-0.563	0.301
-462.099	-97.135	0.468	-0.122
-461.084	78.075	-0.410	-0.437
-460.070	185.101	-0.629	-0.933
-459.055	-200.000	0.008	-0.064
-458.040	800.000	-0.051	0.146
-457.026	-43.521	0.285	-0.144
-456.011	-200.000	0.144	0.915
-454.997	-200.000	0.103	0.519
-453.982	141.811	-0.305	0.403
-452.968	-78.327	-0.882	-0.302
-451.953	-114.485	-0.936	-0.180
-450.938	-32.155	-0.387	0.216
-449.924	-59.251	0.749	0.322
-448.909	136.105	0.309	0.402
-447.895	-200.000	0.124	-0.852
-446.880	39.839	0.298	-0.267
-445.865	-103.975	-0.938	-0.219
-444.851	800.000	-0.067	0.272
-443.836	-101.205	0.562	-0.137
-442.822	-57.439	-0.446	0.196
-441.807	-49.252	0.392	0.187
-440.792	117.571	-0.183	0.225
-439.778	-132.708	-0.404	0.052
-438.763	-64.002	0.250	-0.102
-437.749	65.446	0.341	-0.344
-436.734	49.484	0.905	-0.851
-435.719	800.000	-0.080	-0.280
-434.705	800.000	0.127	-0.522
-433.690	-114.203	0.451	0.087
-432.676	-9.487	-0.132	0.088
-431.661	-160.755	-0.693	0.037
-430.646	-64.680	0.961	0.389
-429.632	-157.638	0.089	-0.005
-428.617	-200.000	-0.065	-0.321
-427.603	-124.751	-0.215	-0.033
-426.588	-30.740	0.854	-0.482
-425.573	623.718	-0.404	-1.016
-424.559	556.553	-0.268	0.645
-423.544	43.353	-0.212	0.193
-422.530	-53.038	0.040	0.018
-421.515	187.267	0.269	0.400
-420.500	-200.000	-0.145	0.720
-419.486	161.741	-0.138	-0.192
-418.471	-200.000	-0.014	-0.237
-417.457	77.256	0.529	0.561
-416.442	451.014	0.086	-0.190
-415.428	623.301	0.139	0.348
-414.413	-71.032	-0.216	-0.081
-413.398	19.586	-0.295	0.237
-412.384	800.000	0.166	-0.574
-411.369	637.499	0.098	0.248
-410.355	800.000	-0.169	-0.719
-409.340	471.107	0.279	-0.626
-408.325	780.725	-0.250	0.681
-407.311	-140.715	0.234	0.024
-406.296	336.358	-0.159	-0.309
-405.282	800.000	-0.055	0.179
-404.267	634.040	0.070	-0.178
-403.252	-28.747	0.452	-0.260
-402.238	800.000	-0.194	0.584
-401.223	-200.000	0.071	0.604
-400.209	-200.000	-0.032	-0.917
-399.194	162.874	0.325	-0.455
-398.179	-124.560	-0.467	0.072
-397.165	492.431	0.129	-0.294
-396.150	800.000	-0.183	-0.514
-395.136	-200.000	0.022	0.314
-394.121	-70.475	0.521	0.197
-393.106	-200.000	0.011	-0.056
-392.092	104.720	0.249	-0.292
-391.077	800.000	0.131	0.451
-390.063	589.704	0.306	-0.752
-389.048	-200.000	0.073	-0.531
-388.033	115.824	-0.399	0.487
-387.019	128.076	0.286	-0.362
-386.004	-130.662	-1.130	-0.152
-384.990	800.000	-0.031	-0.119
-383.975	-112.821	-0.499	-0.099
-382.960	21.535	0.304	0.246
-381.946	24.643	0.444	0.366
-380.931	-106.605	0.307	-0.068
-379.917	800.000	0.116	-0.442
-378.902	124.030	0.442	-0.553
-377.888	-157.852	-0.857	0.051
-376.873	-200.000	-0.189	-1.421
-375.858	-128.715	0.758	-0.107
-374.844	-21.697	-0.313	0.190
-373.829	-200.000	0.094	-0.446
-372.815	-97.554	-0.973	-0.252
-371.800	-200.000	-0.002	0.159
-370.785	-169.333	-0.624	0.023
-369.771	800.000	0.150	0.436
-368.756	-200.000	0.029	-0.501
-367.742	292.064	0.409	-0.742
-366.727	-142.566	0.614	0.060
-365.712	-80.006	0.546	-0.183
-364.698	342.139	0.263	0.512
-363.683	-146.219	-0.363	0.032
-362.669	-120.047	-0.193	-0.033
-361.654	17.359	0.163	0.129
-360.639	800.000	0.199	0.777
-359.625	610.368	0.226	0.562
-358.610	82.894	0.405	0.438
-357.596	227.653	0.286	0.463
-356.581	101.052	-0.690	0.799
-355.566	-80.347	-0.311	0.103
-354.552	300.936	-0.335	-0.616
-353.537	158.418	0.222	-0.307
-352.523	63.703	0.279	0.279
-351.508	19.836	-0.309	-0.248
-350.493	29.892	0.405	-0.343
-349.479	-114.299	-0.462	-0.089
-348.464	-125.496	-0.315	-0.048
-347.450	800.000	-0.161	-0.466
-346.435	-12.502	-0.191	-0.124
-345.420	154.235	-0.062	-0.085
-344.406	29.096	-0.158	-0.134
-343.391	800.000	-0.158	0.458
-342.377	-99.378	1.018	0.255
-341.362	-200.000	-0.032	0.247
-340.348	730.568	0.194	-0.515
-339.333	365.007	0.097	-0.193
-338.318	184.082	0.219	-0.323
-337.304	323.882	0.394	0.747
-336.289	-200.000	-0.099	0.493
-335.275	221.462	0.112	0.178
-334.260	8.585	-0.573	-0.429
-333.245	-105.686	0.543	0.122
-332.231	447.246	0.184	0.402
-331.216	-105.371	0.470	-0.106
-330.202	479.803	-0.181	-0.409
-329.187	202.218	-0.045	0.069
-328.172	800.000	-0.024	0.106
-327.158	281.241	-0.120	0.214
-326.143	126.178	0.198	-0.249
-325.129	750.932	0.228	0.611
-324.114	-200.000	0.076	-0.398
-323.099	363.444	0.574	1.146
-322.085	800.000	-0.129	-0.434
-321.070	-200.000	-0.168	0.854
-320.056	28.836	-0.414	-0.349
-319.041	-72.272	0.362	0.133
-318.026	-200.000	0.139	0.617
-317.012	-93.401	-0.963	0.265
-315.997	651.318	-0.302	-0.769
-314.983	-151.533	0.363	-0.027
-313.968	800.000	-0.210	0.826
-312.953	-32.828	1.053	0.582
-311.939	88.723	0.265	0.293
-310.924	-124.197	0.393	-0.061
-309.910	800.000	0.185	0.548
-308.895	-200.000	0.304	1.649
-307.880	-126.620	0.593	-0.087
-306.866	26.735	0.312	-0.260
-305.851	12.501	0.146	0.112
-304.837	-66.470	-0.536	-0.211
-303.822	48.340	-0.470	-0.437
-302.807	-80.874	0.257	-0.085
-301.793	-76.005	0.306	-0.107
-300.778	-52.959	-0.790	0.361
-299.764	-105.305	0.578	-0.131
-298.749	-106.671	-0.896	0.198
-297.735	253.317	0.342	0.580
-296.720	-56.429	0.150	-0.066
-295.705	11.002	-0.437	0.332
-294.691	44.733	-0.282	-0.257
-293.676	23.382	-0.526	-0.429
-292.662	-181.744	-0.479	0.009
-291.647	-200.000	0.053	0.286
-290.632	800.000	0.164	-0.536
-289.618	-89.531	-0.228	-0.067
-288.603	8.737	-0.290	0.217
-287.589	-200.000	0.209	1.292
-286.574	800.000	0.163	0.631
-285.559	59.447	-0.308	0.301
-284.545	55.026	-0.284	0.272
-283.530	-200.000	0.044	0.687
-282.516	299.081	-0.279	-0.509
-281.501	-114.446	-0.743	-0.142
-280.486	100.144	0.303	-0.348
-279.472	-37.690	0.625	0.330
-278.457	-122.824	0.363	0.058
-277.443	-87.756	0.600	0.180
-276.428	93.853	0.057	-0.064
-275.413	-24.516	0.170	0.101
-274.399	800.000	-0.073	-0.234
-273.384	135.398	0.642	0.828
-272.370	32.649	0.226	-0.194
-271.355	-84.581	-0.584	-0.183
-270.340	-46.912	-0.127	-0.062
-269.326	-176.447	-0.379	0.010
-268.311	-28.678	-0.155	0.088
-267.297	34.995	0.526	0.456
-266.282	-200.000	-0.090	0.428
-265.267	-38.431	0.453	0.238
-264.253	-200.000	0.150	-0.943
-263.238	-188.770	-1.031	0.013
-262.224	-102.401	-0.471	0.112
-261.209	-35.235	0.431	-0.233
-260.195	272.510	-0.143	0.250
-259.180	120.985	0.561	0.692
-258.165	98.157	-0.213	0.243
-257.151	-200.000	0.004	-0.254
-256.136	-139.540	-0.615	0.065
-255.122	-200.000	0.155	0.866
-254.107	-153.236	-1.171	0.081
-253.092	-200.000	-0.069	1.019
-252.078	320.622	-0.356	0.670
-251.063	15.319	0.090	-0.070
-250.049	-200.000	0.027	-0.697
-249.034	800.000	-0.137	-0.523
-248.019	78.761	0.176	-0.186
-247.005	800.000	0.144	-0.525
-245.990	-126.463	-0.839	-0.124
-244.976	206.095	0.247	0.381
-243.961	41.091	-0.356	-0.319
-242.946	-200.000	-0.148	-0.739
-241.932	399.576	-0.366	0.761
-240.917	800.000	0.045	-0.128
-239.903	-16.423	-0.678	-0.426
-238.888	-111.971	0.500	0.100
-237.873	-108.596	0.491	-0.104
-236.859	250.795	0.135	-0.227
-235.844	-137.904	0.434	-0.048
-234.830	7.703	0.312	0.232
-233.815	-16.579	-0.396	-0.248
-232.800	-77.323	0.485	-0.167
-231.786	-76.246	-1.131	0.395
-230.771	294.716	0.351	-0.635
-229.757	-149.506	0.597	-0.047
-228.742	22.714	-0.775	-0.629
-227.727	292.306	-0.225	-0.406
-226.713	-10.744	-0.950	0.622
-225.698	-200.000	-0.072	0.605
-224.684	134.270	0.489	0.628
-223.669	-89.833	-0.584	-0.169
-222.655	78.314	-0.232	-0.245
-221.640	-200.000	-0.042	-0.518
-220.625	-200.000	-0.092	-0.629
-219.611	-59.060	-0.673	0.288
-218.596	-124.901	0.665	0.101
-217.582	51.960	-0.318	-0.299
-216.567	-42.757	-0.483	-0.243
-215.552	800.000	0.061	-0.199
-214.538	-52.797	-0.213	0.097
-213.523	800.000	0.143	0.412
-212.509	46.840	0.200	-0.184
-211.494	395.523	0.340	0.702
-210.479	-14.735	0.540	-0.343
-209.465	110.051	0.364	0.433
-208.450	-48.360	-0.592	-0.282
-207.436	150.628	0.350	0.470
-206.421	98.864	0.703	-0.803
-205.406	111.170	0.320	0.382
-204.392	-200.000	0.001	-0.128
-203.377	73.029	-0.364	0.376
-202.363	36.633	0.601	0.525
-201.348	800.000	0.034	0.111
-200.333	-23.657	-0.367	0.218
-199.319	-57.229	-0.431	0.188
-198.304	800.000	0.163	0.560
-197.290	-200.000	0.109	-0.937
-196.275	87.648	0.259	0.283
-195.260	-74.303	-0.815	0.291
-194.246	-200.000	0.020	0.106
-193.231	-99.358	0.543	-0.135
-192.217	-19.064	0.537	-0.330
-191.202	-106.885	-1.156	0.253
-190.187	-143.580	-0.241	-0.023
-189.173	129.960	0.303	-0.383
-188.158	-102.122	-0.580	-0.138
-187.144	274.190	-0.212	0.372
-186.129	-46.292	0.180	0.088
-185.114	-74.109	-0.657	0.235
-184.100	-103.715	-0.518	0.120
-183.085	-34.402	0.491	-0.266
-182.071	71.784	-0.534	0.549
-181.056	7.650	0.793	0.586
-180.042	-89.349	-0.444	0.129
-179.027	-52.746	-0.512	0.233
-178.012	-53.181	-0.836	0.379
-176.998	204.491	-0.490	0.752
-175.983	-200.000	-0.030	0.358
-174.969	-88.727	0.548	-0.161
-173.954	-200.000	0.124	-0.553
-172.939	180.721	0.362	0.525
-171.925	-200.000	0.035	-0.534
-170.910	-51.727	0.224	0.103
-169.896	504.288	-0.111	0.253
-168.881	-3.951	0.074	-0.050
-167.866	800.000	-0.132	-0.420
-166.852	53.412	0.691	0.655
-165.837	69.386	-0.333	-0.339
-164.823	135.300	0.091	0.116
-163.808	-7.199	0.571	0.382
-162.793	666.031	-0.200	-0.510
-161.779	35.133	-0.304	0.263
-160.764	-200.000	0.056	-0.425
-159.750	800.000	-0.220	0.717
-158.735	-200.000	0.129	0.814
-157.720	239.281	-0.260	0.428
-156.706	-200.000	0.085	0.816
-155.691	19.979	-0.241	-0.192
-154.677	-15.537	0.606	0.382
-153.662	800.000	-0.021	0.071
-152.647	800.000	-0.064	0.220
-151.633	-200.000	0.072	0.832
-150.618	-55.448	-1.057	0.468
-149.604	-200.000	-0.010	-0.456
-148.589	-200.000	-0.125	-0.613
-147.574	36.833	-0.134	-0.117
-146.560	-200.000	-0.379	0.000
-145.545	59.338	-0.379	-0.368
-144.531	15.479	0.623	0.483
-143.516	488.322	0.088	0.198
-142.502	138.148	-0.080	0.104
-141.487	-188.626	-0.094	0.001
-140.472	-90.369	-0.196	0.056
-139.458	-92.034	0.546	0.153
-138.443	-140.755	-0.080	-0.008
-137.429	-89.780	-0.177	0.051
-136.414	-158.551	0.680	-0.039
-135.399	166.718	0.415	0.580
-134.385	379.725	0.187	0.379
-133.370	526.374	0.180	0.417
-132.356	-200.000	0.044	0.301
-131.341	-53.597	-0.295	0.133
-130.326	53.513	0.364	0.345
-129.312	270.344	-0.334	0.580
-128.297	-66.026	-0.611	0.241
-127.283	-30.336	-0.334	-0.187
-126.268	430.919	-0.079	0.169
-125.253	800.000	0.210	-0.704
-124.239	-200.000	-0.086	0.565
-123.224	-200.000	-0.019	-0.312
-122.210	24.452	0.459	0.374
-121.195	94.691	-0.373	-0.418
