DTS Sentinel unit serial number:	SN413079Multiplexer serial number:	ORYXHardware model number:	OX4-SRSoftware version number:	ORYX F/W v4.00 Oryx Data Collector v3.7.2.0data status	okinstallation	princeton_trtdifferential loss correction	single-endedforward channel	channel 3reverse channel	N/Adate	2019/09/18time	05:32:35forward acquisition time	60.00reverse acquisition time	0.00gamma	496.2192k internal	0.2343k external	0.2343temperature offset calibration	0.9949default loss term (dB/km)	0.3790temperature slope calibration	1.0000multiplexer offset coefficient	1.0000multiplexer slope coefficient	1.0000fibre end	0.00T internal ref (°C)	23.41T ext. ref 1 (°C)	0.19T ext. ref 2 (°C)	17.04length (m)	temperature (°C)	Stokes	anti-Stokes-747.200	-93.893	-0.255	0.070
-746.185	-200.000	-0.042	0.319
-745.171	-66.489	-0.148	-0.059
-744.156	58.306	-0.144	0.141
-743.142	-19.596	-0.075	-0.047
-742.127	650.774	0.152	0.390
-741.112	-59.986	0.085	-0.036
-740.098	-101.191	-0.245	0.060
-739.083	610.735	0.042	0.106
-738.069	-107.977	-0.274	0.060
-737.054	239.237	-0.102	0.170
-736.039	800.000	-0.054	-0.225
-735.025	-126.972	-0.055	0.008
-734.010	800.000	-0.039	-0.127
-732.996	-200.000	0.016	-0.224
-731.981	3.183	-0.194	0.141
-730.966	178.348	0.007	-0.010
-729.952	10.865	-0.385	-0.294
-728.937	-116.244	-0.096	-0.018
-727.923	-141.988	-0.328	-0.033
-726.908	-124.393	0.076	-0.012
-725.894	73.130	0.174	-0.182
-724.879	-145.705	-0.047	0.004
-723.864	100.641	0.293	-0.340
-722.850	-200.000	0.001	-0.211
-721.835	-200.000	-0.046	-0.319
-720.821	-200.000	0.027	-0.245
-719.806	-120.966	0.280	0.047
-718.791	185.975	-0.129	-0.192
-717.777	-72.635	0.058	-0.022
-716.762	169.056	0.244	-0.348
-715.748	-108.229	-0.203	-0.044
-714.733	-60.434	-0.275	0.117
-713.718	147.156	-0.301	-0.405
-712.704	330.236	-0.310	-0.596
-711.689	520.750	0.111	-0.261
-710.675	108.350	-0.310	-0.369
-709.660	800.000	-0.081	-0.320
-708.645	35.788	0.116	0.102
-707.631	800.000	0.131	0.468
-706.616	-189.659	0.290	-0.003
-705.602	-200.000	-0.001	-0.026
-704.587	-147.178	-0.454	-0.039
-703.572	-47.900	-0.111	-0.054
-702.558	216.311	0.275	0.438
-701.543	379.194	-0.199	0.408
-700.529	-137.493	-0.492	-0.056
-699.514	355.913	0.103	0.205
-698.499	-200.000	-0.030	-0.206
-697.485	-134.846	0.208	0.025
-696.470	-200.000	-0.011	0.103
-695.456	-140.058	-0.401	0.042
-694.441	613.267	-0.115	0.289
-693.426	78.399	0.120	0.128
-692.412	-200.000	0.002	-0.017
-691.397	53.182	0.174	0.167
-690.383	109.276	0.067	-0.080
-689.368	800.000	-0.065	0.221
-688.354	-157.402	0.152	-0.009
-687.339	38.515	0.119	0.106
-686.324	-200.000	0.034	-0.157
-685.310	171.289	-0.221	0.316
-684.295	312.541	-0.183	0.343
-683.281	-112.912	-0.220	0.043
-682.266	-200.000	-0.005	0.103
-681.251	-80.559	-0.256	-0.085
-680.237	-59.819	-0.154	-0.066
-679.222	800.000	0.028	-0.079
-678.208	-93.427	-0.116	0.032
-677.193	-200.000	0.012	0.170
-676.178	-35.924	-0.290	-0.157
-675.164	-200.000	-0.018	0.127
-674.149	-200.000	-0.000	-0.049
-673.135	22.300	0.138	-0.113
-672.120	50.399	0.200	0.189
-671.105	205.911	-0.241	-0.374
-670.091	-200.000	-0.031	0.161
-669.076	-76.758	-0.207	-0.072
-668.062	-41.902	-0.020	-0.010
-667.047	-46.032	0.258	0.127
-666.032	-44.359	0.087	0.044
-665.018	-155.725	0.330	-0.021
-664.003	-105.690	-0.115	0.026
-662.989	280.834	0.088	0.157
-661.974	-200.000	0.060	0.278
-660.959	-200.000	-0.015	-0.402
-659.945	759.484	-0.027	-0.072
-658.930	-22.798	-0.224	-0.135
-657.916	-119.850	0.015	0.003
-656.901	1.786	0.037	0.027
-655.886	-93.644	0.177	-0.049
-654.872	205.856	-0.156	0.242
-653.857	333.266	0.125	-0.241
-652.843	-200.000	0.072	-0.419
-651.828	-200.000	-0.014	-0.123
-650.814	-96.881	-0.424	0.111
-649.799	312.978	0.257	-0.481
-648.784	-169.307	-0.348	-0.013
-647.770	311.728	-0.074	0.138
-646.755	-114.459	0.182	0.035
-645.741	222.406	0.084	-0.135
-644.726	-67.856	-0.217	-0.085
-643.711	-200.000	0.064	-0.514
-642.697	-114.879	0.070	-0.013
-641.682	59.609	-0.191	0.188
-640.668	52.324	0.145	0.138
-639.653	165.612	-0.113	-0.159
-638.638	-200.000	-0.012	-0.197
-637.624	-29.377	-0.220	-0.126
-636.609	-142.628	-0.207	0.020
-635.595	-47.238	0.099	0.048
-634.580	-200.000	-0.003	-0.285
-633.565	800.000	0.094	-0.296
-632.551	99.244	-0.110	0.126
-631.536	-9.939	0.135	-0.089
-630.522	-146.041	-0.200	0.018
-629.507	240.115	-0.158	-0.263
-628.492	-200.000	0.005	0.450
-627.478	-0.836	0.304	0.214
-626.463	-162.932	-0.073	0.004
-625.449	592.139	-0.121	0.297
-624.434	281.989	0.093	-0.166
-623.419	15.468	-0.081	-0.063
-622.405	149.518	-0.114	0.153
-621.390	484.533	-0.039	-0.088
-620.376	-200.000	-0.090	0.406
-619.361	-200.000	-0.030	0.249
-618.346	-79.657	0.192	0.064
-617.332	372.858	-0.191	0.387
-616.317	347.912	0.153	-0.300
-615.303	156.805	0.055	0.076
-614.288	-200.000	0.036	-0.205
-613.273	329.736	-0.133	-0.255
-612.259	-8.965	0.317	0.211
-611.244	-200.000	-0.004	0.225
-610.230	274.121	-0.084	-0.147
-609.215	-200.000	-0.005	-0.193
-608.201	-126.361	-0.382	-0.057
-607.186	800.000	0.056	-0.185
-606.171	-61.097	0.027	0.011
-605.157	-18.992	-0.053	0.033
-604.142	73.309	-0.166	-0.173
-603.128	-200.000	0.014	0.114
-602.113	-44.711	-0.204	-0.101
-601.098	-15.684	0.125	-0.079
-600.084	-12.615	-0.306	0.199
-599.069	122.218	-0.122	0.152
-598.055	493.889	0.145	-0.332
-597.040	421.249	-0.088	-0.188
-596.025	-79.472	0.143	-0.048
-595.011	436.602	0.074	-0.159
-593.996	184.974	-0.240	-0.354
-592.982	800.000	0.042	0.139
-591.967	110.460	0.135	0.162
-590.952	-120.258	-0.179	-0.030
-589.938	158.967	-0.122	-0.169
-588.923	47.264	-0.201	-0.186
-587.909	-146.778	-0.112	0.010
-586.894	54.323	0.151	0.145
-585.879	-75.430	0.045	0.016
-584.865	-200.000	0.039	0.206
-583.850	-28.471	-0.189	-0.109
-582.836	-200.000	0.037	-0.177
-581.821	382.488	-0.059	0.120
-580.806	76.783	-0.162	0.171
-579.792	362.819	-0.014	0.029
-578.777	509.815	-0.114	0.264
-577.763	-129.905	0.144	0.020
-576.748	-55.551	-0.318	-0.142
-575.733	69.500	0.078	-0.080
-574.719	800.000	-0.061	0.188
-573.704	-103.833	-0.518	-0.120
-572.690	-200.000	0.005	0.053
-571.675	-43.031	-0.242	0.122
-570.661	-200.000	-0.015	-0.282
-569.646	29.485	0.097	-0.082
-568.631	-27.415	-0.180	0.104
-567.617	-159.007	0.147	0.008
-566.602	-200.000	-0.049	0.313
-565.588	800.000	-0.010	-0.029
-564.573	141.353	-0.262	-0.344
-563.558	-106.079	-0.233	-0.052
-562.544	-200.000	0.015	0.109
-561.529	98.078	-0.162	-0.186
-560.515	800.000	0.093	-0.291
-559.500	800.000	-0.078	-0.229
-558.485	-200.000	0.013	0.073
-557.471	-122.756	0.160	-0.026
-556.456	-31.421	0.118	-0.066
-555.442	-72.864	0.066	0.024
-554.427	-200.000	-0.014	-0.143
-553.412	-44.513	0.225	-0.112
-552.398	637.280	-0.142	-0.359
-551.383	398.883	0.131	0.272
-550.369	244.100	-0.223	-0.372
-549.354	-18.617	0.126	-0.078
-548.339	-76.163	0.130	0.046
-547.325	44.863	0.226	-0.207
-546.310	83.504	0.219	-0.237
-545.296	96.045	-0.034	-0.038
-544.281	-200.000	-0.038	0.198
-543.266	-63.183	-0.194	-0.079
-542.252	-50.629	0.149	-0.070
-541.237	137.013	0.177	-0.230
-540.223	29.483	-0.162	-0.137
-539.208	-129.935	-0.137	0.019
-538.193	-95.578	0.244	-0.065
-537.179	-200.000	0.060	0.271
-536.164	-200.000	0.037	-0.203
-535.150	-108.889	0.204	-0.043
-534.135	55.689	0.128	0.123
-533.121	252.428	-0.120	0.204
-532.106	11.620	-0.222	0.169
-531.091	753.379	-0.037	0.100
-530.077	-200.000	0.062	-0.380
-529.062	185.375	-0.046	0.067
-528.048	-67.294	0.360	-0.140
-527.033	42.223	0.158	-0.142
-526.018	195.848	-0.051	0.077
-525.004	143.913	-0.149	-0.197
-523.989	-78.074	0.132	0.045
-522.975	-26.539	-0.112	-0.065
-521.960	712.041	-0.080	0.211
-520.945	-99.112	-0.204	0.051
-519.931	-175.029	-0.411	0.011
-518.916	193.968	-0.139	-0.209
-517.902	-68.317	0.216	-0.083
-516.887	-45.412	0.151	-0.074
-515.872	334.936	0.067	0.129
-514.858	47.720	0.250	-0.231
-513.843	-68.260	0.148	0.057
-512.829	-200.000	0.036	-0.180
-511.814	-161.904	-0.161	-0.008
-510.799	-200.000	0.032	-0.293
-509.785	-21.559	-0.071	0.043
-508.770	10.800	0.176	0.133
-507.756	-62.864	0.270	0.111
-506.741	133.124	0.128	0.164
-505.726	-200.000	-0.059	-0.258
-504.712	-51.604	-0.091	0.042
-503.697	-200.000	0.007	-0.078
-502.683	32.420	0.198	0.170
-501.668	-174.252	-0.333	-0.010
-500.653	-44.683	-0.335	0.166
-499.639	-134.547	0.394	0.048
-498.624	-200.000	0.090	-0.408
-497.610	22.150	-0.136	-0.110
-496.595	672.228	0.174	-0.448
-495.581	478.854	0.036	-0.081
-494.566	737.894	-0.086	-0.228
-493.551	-115.629	-0.189	-0.035
-492.537	283.880	0.012	0.021
-491.522	-87.239	-0.278	-0.084
-490.508	800.000	-0.046	0.169
-489.493	-148.369	-0.223	-0.018
-488.478	34.396	0.126	-0.109
-487.464	-78.729	-0.352	-0.119
-486.449	-200.000	0.013	-0.385
-485.435	-28.842	-0.064	0.037
-484.420	278.735	0.138	-0.244
-483.405	-200.000	-0.032	-0.233
-482.391	-120.574	-0.066	0.011
-481.376	62.788	0.319	-0.316
-480.362	800.000	0.150	0.590
-479.347	-143.111	-0.203	0.019
-478.332	-58.141	-0.112	0.048
-477.318	-54.580	0.286	0.128
-476.303	800.000	-0.054	0.224
-475.289	659.401	-0.090	0.229
-474.274	689.171	-0.085	-0.221
-473.259	-8.325	-0.059	-0.039
-472.245	-25.071	0.182	0.107
-471.230	77.939	0.125	-0.132
-470.216	-109.358	0.251	0.053
-469.201	24.435	0.303	-0.248
-468.186	-39.070	-0.110	0.057
-467.172	-135.608	0.032	0.004
-466.157	150.743	0.085	-0.114
-465.143	-200.000	-0.081	0.357
-464.128	237.829	-0.157	0.258
-463.113	45.510	0.155	0.142
-462.099	63.837	0.109	0.108
-461.084	96.415	0.179	-0.203
-460.070	1.450	-0.190	0.135
-459.055	-22.770	-0.146	0.087
-458.040	-200.000	0.014	0.105
-457.026	442.742	0.116	0.252
-456.011	-200.000	-0.019	-0.136
-454.997	-200.000	0.005	0.039
-453.982	-156.874	-0.190	0.012
-452.968	-200.000	0.006	-0.271
-451.953	-84.201	-0.200	0.063
-450.938	-122.711	-0.143	0.023
-449.924	800.000	-0.059	0.223
-448.909	-66.867	0.412	0.161
-447.895	-129.120	-0.221	-0.031
-446.880	-136.866	-0.293	0.033
-445.865	-200.000	-0.009	-0.155
-444.851	-200.000	-0.054	0.278
-443.836	154.782	0.290	-0.394
-442.822	241.659	0.075	-0.123
-441.807	646.361	0.052	-0.131
-440.792	-127.882	-0.314	0.045
-439.778	-24.965	0.225	0.132
-438.763	239.045	-0.238	0.391
-437.749	-85.603	0.117	-0.036
-436.734	-50.837	0.360	-0.168
-435.719	-200.000	0.012	-0.236
-434.705	87.711	-0.042	0.046
-433.690	-85.588	-0.152	-0.047
-432.676	-164.860	-0.206	-0.009
-431.661	34.997	0.111	0.096
-430.646	-200.000	-0.038	-0.341
-429.632	-200.000	-0.008	-0.152
-428.617	217.968	0.151	-0.239
-427.603	-49.263	0.219	0.103
-426.588	157.655	-0.102	-0.140
-425.573	313.515	0.046	-0.086
-424.559	-88.783	0.196	0.058
-423.544	322.333	0.093	0.174
-422.530	-155.964	0.209	-0.013
-421.515	800.000	0.083	-0.302
-420.500	-200.000	-0.037	-0.180
-419.486	-183.927	-0.117	-0.002
-418.471	-87.262	0.354	-0.106
-417.457	289.030	0.044	-0.079
-416.442	75.173	-0.313	-0.326
-415.428	348.746	0.119	0.232
-414.413	-92.352	0.131	0.036
-413.398	-200.000	0.088	0.408
-412.384	-108.140	0.037	0.008
-411.369	-147.314	0.180	0.015
-410.355	55.813	0.264	0.253
-409.340	800.000	-0.055	0.215
-408.325	-67.333	0.132	-0.051
-407.311	97.997	0.148	-0.168
-406.296	-11.953	-0.471	0.305
-405.282	35.992	-0.029	-0.025
-404.267	-87.501	0.305	-0.091
-403.252	28.168	0.147	0.123
-402.238	446.408	-0.054	-0.118
-401.223	800.000	0.026	0.099
-400.209	-100.532	-0.262	0.064
-399.194	-53.810	0.099	0.045
-398.179	-200.000	-0.004	-0.022
-397.165	-200.000	-0.025	0.130
-396.150	25.854	0.284	0.234
-395.136	148.746	0.055	-0.074
-394.121	-200.000	0.020	0.422
-393.106	-64.246	0.284	0.114
-392.092	800.000	0.071	0.280
-391.077	-200.000	0.100	0.527
-390.063	-200.000	-0.164	-0.000
-389.048	-13.963	0.025	-0.016
-388.033	27.492	0.155	-0.129
-387.019	-115.416	0.217	0.040
-386.004	33.613	0.060	-0.052
-384.990	-200.000	-0.007	0.289
-383.975	-59.369	-0.246	-0.104
-382.960	8.142	-0.206	0.152
-381.946	-200.000	0.012	0.265
-380.931	78.065	-0.103	-0.108
-379.917	-143.026	0.398	0.038
-378.902	800.000	0.074	0.234
-377.888	-27.583	-0.254	0.145
-376.873	300.263	-0.084	0.152
-375.858	518.095	0.038	-0.088
-374.844	-21.358	-0.084	-0.051
-373.829	800.000	0.068	0.193
-372.815	800.000	0.024	-0.082
-371.800	87.103	0.148	-0.161
-370.785	-20.222	-0.059	0.036
-369.771	-57.959	0.058	0.025
-368.756	-59.131	-0.039	0.016
-367.742	11.495	-0.327	0.247
-366.727	-200.000	0.030	-0.143
-365.712	100.141	0.162	-0.186
-364.698	713.399	0.195	-0.509
-363.683	800.000	0.057	-0.211
-362.669	-200.000	-0.037	0.221
-361.654	122.244	0.109	0.134
-360.639	344.590	-0.196	0.379
-359.625	72.271	-0.227	0.233
-358.610	-85.386	-0.257	0.079
-357.596	-115.708	0.333	-0.062
-356.581	376.152	-0.119	0.240
-355.566	222.640	-0.096	0.152
-354.552	563.699	0.133	0.317
-353.537	-184.361	-0.059	-0.001
-352.523	239.531	0.131	-0.216
-351.508	-200.000	-0.024	0.267
-350.493	800.000	-0.172	0.480
-349.479	800.000	0.082	-0.332
-348.464	-200.000	0.015	-0.356
-347.450	-65.756	0.176	-0.069
-346.435	800.000	0.117	-0.330
-345.420	238.532	0.265	-0.434
-344.406	800.000	-0.059	-0.217
-343.391	-137.386	0.341	0.038
-342.377	-143.985	-0.350	-0.032
-341.362	-158.683	-0.277	0.016
-340.348	-171.222	0.487	0.016
-339.333	-58.700	-0.237	0.101
-338.318	-99.000	-0.071	0.018
-337.304	-200.000	-0.035	0.199
-336.289	-200.000	-0.027	0.148
-335.275	-65.553	-0.051	0.020
-334.260	-200.000	0.041	-0.222
-333.245	392.352	-0.179	0.367
-332.231	68.566	-0.204	0.206
-331.216	695.923	-0.097	0.251
-330.202	-153.019	-0.157	-0.011
-329.187	-154.994	0.313	0.020
-328.172	-200.000	-0.069	-0.302
-327.158	466.390	0.075	-0.165
-326.143	-91.113	0.465	0.132
-325.129	-200.000	0.040	-0.294
-324.114	221.366	0.182	-0.288
-323.099	-200.000	-0.012	0.261
-322.085	754.668	0.075	0.199
-321.070	-6.438	0.066	0.044
-320.056	-147.550	-0.438	0.036
-319.041	-8.995	0.196	-0.129
-318.026	129.942	0.283	0.356
-317.012	69.511	0.163	-0.165
-315.997	-160.174	-0.131	-0.007
-314.983	-107.270	0.219	0.047
-313.968	237.325	0.251	-0.410
-312.953	119.999	-0.166	-0.202
-311.939	368.642	0.017	0.034
-310.924	307.715	-0.044	-0.081
-309.910	86.742	-0.116	0.126
-308.895	161.157	-0.047	-0.065
-307.880	-100.066	-0.352	-0.086
-306.866	340.452	-0.103	-0.199
-305.851	-24.181	0.218	-0.128
-304.837	800.000	0.090	0.273
-303.822	-71.627	-0.268	0.098
-302.807	222.293	0.139	-0.221
-301.793	-200.000	0.224	0.001
-300.778	-200.000	0.007	-0.127
-299.764	800.000	-0.085	0.246
-298.749	-200.000	-0.001	-0.125
-297.735	-108.915	0.225	-0.047
-296.720	800.000	0.039	0.105
-295.705	-21.437	-0.252	0.151
-294.691	183.186	-0.141	0.205
-293.676	215.545	-0.034	0.053
-292.662	-182.641	0.195	0.003
-291.647	-100.736	-0.094	0.023
-290.632	35.754	0.285	0.246
-289.618	20.437	0.404	0.321
-288.603	-40.399	0.200	0.102
-287.589	126.851	-0.122	-0.151
-286.574	195.676	-0.159	0.237
-285.559	115.214	-0.022	-0.026
-284.545	96.442	0.118	-0.132
-283.530	139.725	0.111	-0.144
-282.516	-15.049	0.079	0.050
-281.501	800.000	0.082	-0.330
-280.486	75.605	-0.127	0.132
-279.472	103.119	-0.303	-0.349
-278.457	16.539	0.231	0.179
-277.443	30.019	-0.117	-0.098
-276.428	-21.184	0.289	0.174
-275.413	2.354	0.179	0.127
-274.399	669.852	0.053	0.135
-273.384	-10.030	0.135	0.088
-272.370	162.610	0.151	0.209
-271.355	254.300	-0.118	-0.198
-270.340	255.217	0.230	0.388
-269.326	-200.000	0.033	0.201
-268.311	-119.247	0.107	0.018
-267.297	-200.000	-0.018	-0.113
-266.282	-200.000	-0.003	-0.074
-265.267	90.073	-0.274	0.301
-264.253	294.159	-0.017	-0.031
-263.238	144.033	-0.180	0.237
-262.224	-200.000	0.004	-0.122
-261.209	-200.000	-0.001	-0.051
-260.195	30.651	0.135	0.113
-259.180	-152.556	-0.230	0.016
-258.165	-200.000	0.024	-0.216
-257.151	-200.000	-0.071	-0.354
-256.136	-200.000	0.051	-0.311
-255.122	-200.000	-0.068	0.317
-254.107	-30.689	-0.195	-0.109
-253.092	281.398	-0.062	0.110
-252.078	-84.977	-0.197	0.061
-251.063	-150.938	0.236	-0.018
-250.049	-57.678	0.183	-0.079
-249.034	247.329	0.017	0.027
-248.019	-179.426	-0.093	0.002
-247.005	-82.863	0.231	0.073
-245.990	-135.846	0.161	-0.019
-244.976	800.000	0.034	0.103
-243.961	118.596	0.287	-0.348
-242.946	-106.733	0.173	0.038
-241.932	-200.000	-0.277	0.001
-240.917	-66.813	0.126	0.049
-239.903	-170.821	-0.245	0.008
-238.888	401.917	-0.096	-0.197
-237.873	585.611	-0.033	-0.081
-236.859	-58.913	-0.193	-0.082
-235.844	234.815	0.188	-0.304
-234.830	-85.411	0.088	-0.027
-233.815	-200.000	-0.006	-0.151
-232.800	-200.000	0.022	-0.141
-231.786	139.158	-0.079	0.102
-230.771	-89.330	-0.294	-0.085
-229.757	-156.280	0.223	-0.014
-228.742	-63.164	0.126	-0.051
-227.727	-90.981	0.236	-0.066
-226.713	427.420	0.099	0.209
-225.698	112.022	-0.169	-0.200
-224.684	-0.614	0.178	-0.124
-223.669	-200.000	0.038	0.166
-222.655	-128.870	0.196	0.027
-221.640	84.404	-0.103	0.111
-220.625	333.458	-0.181	0.344
-219.611	268.406	-0.087	-0.150
-218.596	684.313	0.103	-0.262
-217.582	-110.222	-0.283	0.058
-216.567	-192.848	0.264	0.002
-215.552	-3.557	-0.194	0.132
-214.538	-18.922	-0.269	-0.164
-213.523	38.404	-0.204	0.178
-212.509	33.367	-0.104	-0.089
-211.494	-101.333	0.274	-0.066
-210.479	-66.802	0.258	-0.100
-209.465	6.376	0.124	-0.090
-208.450	238.116	-0.261	0.424
-207.436	-20.628	-0.402	0.242
-206.421	-200.000	-0.020	0.110
-205.406	-106.216	0.350	0.077
-204.392	553.013	-0.030	0.072
-203.377	377.614	-0.083	0.167
-202.363	314.051	0.171	0.316
-201.348	800.000	0.023	0.073
-200.333	-135.310	0.278	0.033
-199.319	505.898	-0.124	-0.281
-198.304	800.000	0.223	-0.620
-197.290	-167.498	0.328	-0.013
-196.275	-74.780	-0.367	-0.129
-195.260	-142.339	-0.087	-0.008
-194.246	800.000	-0.044	-0.188
-193.231	-200.000	-0.001	0.245
-192.217	7.382	-0.106	0.078
-191.202	-153.711	-0.338	-0.023
-190.187	-112.817	-0.167	-0.033
-189.173	-28.397	0.283	0.160
-188.158	32.970	-0.107	-0.091
-187.144	561.651	-0.109	0.258
-186.129	-129.323	0.425	0.058
-185.114	-200.000	0.010	0.189
-184.100	61.507	-0.171	0.167
-183.085	-200.000	-0.019	0.300
-182.071	219.397	0.010	0.016
-181.056	61.270	0.043	-0.042
-180.042	-106.254	0.216	-0.047
-179.027	-111.249	-0.373	-0.075
-178.012	8.430	0.107	-0.079
-176.998	-63.151	0.139	0.056
-175.983	-200.000	0.005	-0.039
-174.969	-200.000	-0.022	-0.142
-173.954	-200.000	0.022	0.122
-172.939	-11.943	-0.215	0.138
-171.925	209.276	0.151	0.231
-170.910	236.776	-0.199	0.322
-169.896	800.000	0.098	0.371
-168.881	-200.000	0.015	0.065
-167.866	-48.942	-0.072	0.034
-166.852	524.477	0.035	-0.081
-165.837	-137.543	-0.368	0.041
-164.823	72.747	-0.025	-0.026
-163.808	146.849	0.133	0.175
-162.793	-82.979	-0.349	-0.110
-161.779	169.514	-0.155	-0.216
-160.764	-81.117	-0.348	-0.113
-159.750	-200.000	0.070	0.370
-158.735	-200.000	-0.032	0.284
-157.720	-200.000	-0.038	-0.394
-156.706	20.304	-0.160	0.127
-155.691	-200.000	0.045	0.368
-154.677	800.000	0.009	0.033
-153.662	-159.980	-0.334	-0.018
-152.647	-101.150	-0.211	-0.050
-151.633	179.237	0.100	-0.144
-150.618	800.000	-0.023	-0.082
-149.604	800.000	0.047	0.135
-148.589	482.261	-0.047	-0.104
-147.574	-144.822	-0.381	-0.034
-146.560	-88.284	0.055	-0.016
-145.545	-200.000	0.064	0.322
-144.531	67.149	-0.212	-0.211
-143.516	71.284	-0.313	-0.318
-142.502	-166.227	0.016	0.001
-141.487	-150.244	-0.237	0.018
-140.472	-200.000	-0.012	-0.084
-139.458	-34.072	-0.104	-0.056
-138.443	272.143	0.087	-0.150
-137.429	800.000	-0.015	-0.048
-136.414	453.648	0.094	-0.203
-135.399	-112.528	-0.116	0.023
-134.385	188.055	-0.059	-0.086
-133.370	-91.752	-0.419	0.116
-132.356	-112.035	-0.384	-0.076
-131.341	-182.460	0.312	0.006
-130.326	60.164	0.118	-0.114
-129.312	148.392	-0.238	0.314
-128.297	-101.851	0.365	0.086
-127.283	-200.000	0.003	0.070
-126.268	-200.000	-0.009	0.291
-125.253	181.854	-0.037	-0.053
-124.239	6.561	-0.061	0.045
-123.224	-11.351	0.245	0.157
