DTS Sentinel unit serial number:	SN413079Multiplexer serial number:	ORYXHardware model number:	OX4-SRSoftware version number:	ORYX F/W v4.00 Oryx Data Collector v3.7.2.0data status	okinstallation	princeton_trtdifferential loss correction	single-endedforward channel	channel 3reverse channel	N/Adate	2019/09/15time	17:40:35forward acquisition time	60.00reverse acquisition time	0.00gamma	496.2192k internal	0.2286k external	0.2286temperature offset calibration	0.9930default loss term (dB/km)	0.3790temperature slope calibration	1.0000multiplexer offset coefficient	1.0000multiplexer slope coefficient	1.0000fibre end	0.00T internal ref (°C)	44.87T ext. ref 1 (°C)	6.25T ext. ref 2 (°C)	39.77length (m)	temperature (°C)	Stokes	anti-Stokes-747.200	-101.419	-0.385	-0.096
-746.185	-86.404	0.190	0.060
-745.171	-115.212	-0.200	-0.039
-744.156	13.657	0.094	0.075
-743.142	-200.000	-0.000	-0.113
-742.127	483.323	0.223	0.521
-741.112	95.396	-0.251	0.294
-740.098	336.180	-0.273	0.544
-739.083	134.274	-0.129	0.172
-738.069	-200.000	0.003	-0.172
-737.054	-137.766	-0.178	-0.021
-736.039	182.425	-0.144	0.217
-735.025	-200.000	0.022	0.198
-734.010	-160.986	0.247	-0.013
-732.996	236.428	0.110	-0.187
-731.981	131.572	0.125	-0.165
-730.966	-200.000	0.007	-0.300
-729.952	455.639	0.040	0.092
-728.937	-200.000	0.021	-0.098
-727.923	-91.237	0.192	-0.056
-726.908	16.086	0.124	0.101
-725.894	-157.950	-0.281	-0.017
-724.879	280.628	0.150	0.274
-723.864	-200.000	-0.074	0.336
-722.850	-145.909	-0.125	0.011
-721.835	15.794	-0.286	0.230
-720.821	-70.421	-0.189	-0.073
-719.806	-200.000	-0.027	0.292
-718.791	375.764	0.162	-0.338
-717.777	-200.000	-0.031	-0.190
-716.762	-200.000	-0.003	-0.085
-715.748	225.914	-0.201	0.335
-714.733	727.581	0.072	-0.197
-713.718	81.771	-0.113	-0.125
-712.704	-133.717	-0.127	-0.016
-711.689	-122.738	0.132	-0.022
-710.675	80.257	-0.008	-0.009
-709.660	22.160	-0.333	0.278
-708.645	75.627	-0.156	0.169
-707.631	-60.617	0.110	0.048
-706.616	-200.000	0.016	0.533
-705.602	-60.625	-0.291	0.127
-704.587	-31.484	0.245	0.141
-703.572	800.000	-0.015	0.050
-702.558	99.346	0.172	0.204
-701.543	-80.296	-0.109	0.037
-700.529	-200.000	-0.003	-0.034
-699.514	-200.000	-0.005	0.243
-698.499	-114.313	0.050	-0.010
-697.485	-31.990	-0.153	0.087
-696.470	800.000	-0.066	-0.257
-695.456	800.000	-0.044	-0.145
-694.441	401.505	-0.116	0.249
-693.426	-80.688	0.253	-0.086
-692.412	361.670	0.030	0.062
-691.397	32.724	0.253	-0.224
-690.383	800.000	0.017	-0.062
-689.368	204.085	-0.042	0.066
-688.354	194.434	-0.151	0.235
-687.339	800.000	-0.068	0.213
-686.324	-200.000	-0.007	-0.172
-685.310	149.275	-0.070	-0.097
-684.295	115.539	0.164	-0.205
-683.281	-101.442	-0.249	-0.062
-682.266	-19.594	-0.179	0.114
-681.251	-97.555	0.240	0.064
-680.237	131.067	0.161	0.212
-679.222	501.560	0.076	0.179
-678.208	528.366	-0.095	0.229
-677.193	-36.299	0.169	0.093
-676.178	-200.000	-0.028	-0.161
-675.164	800.000	0.039	-0.116
-674.149	-200.000	0.019	-0.187
-673.135	-170.794	-0.059	0.002
-672.120	45.457	-0.273	0.258
-671.105	-133.146	-0.127	-0.016
-670.091	-87.067	-0.467	-0.146
-669.076	410.888	-0.134	-0.292
-668.062	116.088	-0.071	0.089
-667.047	800.000	0.017	0.049
-666.032	309.150	-0.112	-0.214
-665.018	690.584	0.039	-0.105
-664.003	800.000	0.043	0.136
-662.989	-200.000	-0.044	-0.279
-661.974	-62.991	-0.340	-0.144
-660.959	-200.000	0.001	-0.028
-659.945	-106.482	0.217	0.049
-658.930	-113.210	-0.321	0.065
-657.916	184.399	-0.325	0.492
-656.901	800.000	0.024	0.098
-655.886	133.567	0.211	0.279
-654.872	-120.985	-0.308	0.053
-653.857	55.013	-0.132	0.130
-652.843	-200.000	-0.002	-0.469
-651.828	-129.967	-0.279	0.039
-650.814	-200.000	-0.008	0.236
-649.799	566.376	0.012	0.031
-648.784	-17.213	0.123	0.079
-647.770	113.340	-0.114	-0.142
-646.755	-200.000	0.051	0.343
-645.741	-76.337	-0.327	0.118
-644.726	239.983	0.180	0.307
-643.711	-23.400	-0.130	-0.080
-642.697	163.221	0.215	-0.309
-641.682	276.903	0.109	-0.198
-640.668	22.581	-0.181	-0.152
-639.653	240.974	-0.186	-0.317
-638.638	-125.915	-0.131	-0.020
-637.624	416.489	-0.127	0.278
-636.609	-112.575	0.301	0.061
-635.595	-49.000	0.262	-0.128
-634.580	93.820	0.095	-0.110
-633.565	55.469	-0.374	-0.370
-632.551	378.608	-0.073	0.153
-631.536	221.796	0.105	0.172
-630.522	-115.732	-0.333	0.064
-629.507	142.195	-0.255	-0.345
-628.492	16.193	-0.089	0.072
-627.478	-27.678	-0.386	-0.229
-626.463	-110.197	-0.282	-0.060
-625.449	173.617	-0.157	0.231
-624.434	-200.000	0.003	0.594
-623.419	110.621	-0.095	-0.117
-622.405	-4.855	-0.058	-0.041
-621.390	263.390	0.144	0.255
-620.376	32.080	0.249	0.219
-619.361	-58.352	-0.039	-0.017
-618.346	0.296	0.194	-0.142
-617.332	-200.000	-0.024	0.193
-616.317	216.479	0.238	-0.387
-615.303	-181.176	-0.379	0.008
-614.288	-40.803	-0.076	-0.040
-613.273	800.000	-0.044	-0.154
-612.259	-170.562	0.192	0.007
-611.244	263.851	-0.111	-0.197
-610.230	20.445	0.023	-0.019
-609.215	-200.000	0.012	-0.070
-608.201	18.104	-0.280	-0.228
-607.186	-69.159	-0.190	0.075
-606.171	-91.316	-0.304	0.089
-605.157	143.284	-0.318	0.432
-604.142	-133.724	0.207	0.026
-603.128	-200.000	0.003	0.038
-602.113	-200.000	-0.046	-0.357
-601.098	-200.000	-0.043	-0.352
-600.084	-60.623	0.027	-0.012
-599.069	800.000	-0.072	0.231
-598.055	-43.129	-0.359	-0.185
-597.040	-44.013	-0.206	-0.106
-596.025	-200.000	-0.006	0.163
-595.011	-44.282	-0.029	-0.015
-593.996	26.627	-0.060	0.052
-592.982	-44.948	0.132	-0.067
-591.967	356.433	-0.082	0.166
-590.952	-148.184	0.096	0.008
-589.938	54.415	0.089	0.087
-588.923	123.611	0.180	0.230
-587.909	38.164	0.143	-0.130
-586.894	-200.000	-0.031	-0.215
-585.879	-83.309	-0.253	-0.083
-584.865	194.099	-0.147	0.227
-583.850	-16.303	-0.051	0.033
-582.836	365.916	-0.051	-0.105
-581.821	36.460	-0.160	0.144
-580.806	800.000	0.085	-0.270
-579.792	-200.000	0.026	0.552
-578.777	-94.039	-0.154	-0.043
-577.763	-67.471	0.172	0.069
-576.748	6.751	-0.168	0.127
-575.733	800.000	-0.057	0.195
-574.719	124.920	0.077	0.099
-573.704	295.721	-0.034	0.063
-572.690	800.000	-0.046	-0.159
-571.675	35.059	-0.259	-0.231
-570.661	-200.000	0.005	0.269
-569.646	800.000	-0.104	0.302
-568.631	65.044	0.171	0.177
-567.617	279.975	-0.035	-0.064
-566.602	-4.446	0.148	0.104
-565.588	-27.001	-0.291	0.173
-564.573	284.476	0.186	0.341
-563.558	-28.956	0.255	-0.149
-562.544	-87.999	-0.149	0.046
-561.529	-165.818	0.231	-0.010
-560.515	111.910	-0.065	0.081
-559.500	-89.686	-0.135	0.040
-558.485	-68.108	0.117	0.046
-557.471	-83.572	0.215	0.070
-556.456	-139.661	-0.166	0.018
-555.442	32.861	0.154	0.136
-554.427	-43.521	0.247	0.127
-553.412	-192.443	0.076	0.001
-552.398	-200.000	0.035	0.169
-551.383	-200.000	-0.005	0.106
-550.369	304.296	0.049	0.092
-549.354	218.050	-0.067	0.109
-548.339	265.657	-0.038	-0.068
-547.325	-200.000	-0.027	0.159
-546.310	-80.386	-0.202	-0.069
-545.296	-105.377	0.095	0.022
-544.281	-64.401	-0.221	0.091
-543.266	-86.672	0.195	0.061
-542.252	-11.572	-0.179	-0.120
-541.237	-200.000	-0.027	-0.287
-540.223	-83.906	-0.029	-0.009
-539.208	1.674	0.212	0.155
-538.193	46.977	0.141	-0.134
-537.179	-200.000	-0.026	0.304
-536.164	-200.000	-0.015	-0.091
-535.150	-79.078	-0.404	-0.140
-534.135	94.623	0.073	0.084
-533.121	-200.000	0.058	0.401
-532.106	-10.110	-0.141	-0.096
-531.091	-159.052	0.395	0.023
-530.077	-200.000	-0.060	-0.499
-529.062	206.262	0.109	0.172
-528.048	-200.000	0.009	-0.163
-527.033	-154.223	-0.213	-0.015
-526.018	-93.718	0.365	0.102
-525.004	16.125	-0.237	-0.190
-523.989	800.000	0.083	0.266
-522.975	-96.902	0.167	0.045
-521.960	13.768	0.178	-0.140
-520.945	-125.639	0.043	-0.007
-519.931	-200.000	0.001	0.172
-518.916	800.000	0.055	0.184
-517.902	-15.538	-0.130	0.084
-516.887	-30.120	0.036	0.021
-515.872	-200.000	0.001	-0.093
-514.858	-200.000	0.001	-0.022
-513.843	-71.636	-0.318	-0.121
-512.829	507.189	0.023	-0.054
-511.814	82.355	0.087	-0.096
-510.799	99.705	-0.173	0.204
-509.785	-78.331	0.108	-0.038
-508.770	-200.000	0.022	-0.299
-507.756	800.000	-0.046	-0.145
-506.741	18.458	-0.239	-0.194
-505.726	-200.000	0.034	-0.197
-504.712	-200.000	0.046	-0.289
-503.697	12.747	-0.291	-0.228
-502.683	-200.000	0.001	-0.034
-501.668	232.954	0.085	0.143
-500.653	44.048	-0.128	0.120
-499.639	-118.323	0.458	0.083
-498.624	-75.270	-0.127	-0.046
-497.610	800.000	-0.110	-0.310
-496.595	-35.678	0.224	0.124
-495.581	-11.884	-0.261	-0.174
-494.566	-200.000	-0.043	-0.331
-493.551	-93.964	-0.269	-0.075
-492.537	-200.000	0.013	0.061
-491.522	-29.228	-0.234	0.136
-490.508	8.029	0.140	-0.107
-489.493	-180.913	-0.193	-0.004
-488.478	-112.697	0.176	0.035
-487.464	-47.796	0.266	0.131
-486.449	-93.080	0.103	-0.029
-485.435	-117.482	0.239	-0.044
-484.420	-200.000	0.013	-0.167
-483.405	-101.743	0.272	-0.067
-482.391	506.701	0.070	-0.164
-481.376	-200.000	0.063	-0.337
-480.362	-200.000	-0.031	-0.304
-479.347	800.000	-0.040	-0.169
-478.332	-55.540	0.088	0.040
-477.318	-200.000	0.012	0.183
-476.303	800.000	-0.056	0.184
-475.289	-88.264	-0.182	-0.055
-474.274	129.180	0.108	-0.141
-473.259	-200.000	0.009	0.109
-472.245	-58.720	0.311	0.137
-471.230	-200.000	0.007	-0.093
-470.216	-132.126	-0.160	-0.021
-469.201	267.303	0.094	0.167
-468.186	-128.024	0.324	-0.047
-467.172	-200.000	0.016	-0.396
-466.157	-91.620	-0.212	0.061
-465.143	-72.972	0.166	0.062
-464.128	32.887	-0.078	0.069
-463.113	800.000	-0.078	0.244
-462.099	-200.000	-0.010	0.046
-461.084	-200.000	-0.034	0.326
-460.070	-200.000	-0.001	0.090
-459.055	41.138	-0.168	-0.154
-458.040	-81.936	0.590	-0.196
-457.026	21.108	0.063	0.052
-456.011	61.299	-0.094	-0.095
-454.997	272.851	-0.121	0.217
-453.982	561.802	-0.040	-0.097
-452.968	800.000	-0.083	-0.319
-451.953	-27.501	-0.270	0.159
-450.938	-200.000	0.003	-0.046
-449.924	104.978	0.095	-0.114
-448.909	-134.795	-0.076	0.009
-447.895	448.593	-0.063	0.140
-446.880	-54.245	0.335	0.154
-445.865	-7.034	0.084	-0.058
-444.851	89.738	0.144	-0.164
-443.836	-200.000	0.029	0.235
-442.822	-159.062	-0.152	-0.009
-441.807	-200.000	0.008	-0.268
-440.792	199.935	0.198	0.309
-439.778	-14.756	-0.154	-0.101
-438.763	7.826	0.106	0.081
-437.749	-99.267	0.117	-0.030
-436.734	-200.000	0.146	0.000
-435.719	-111.949	-0.377	-0.077
-434.705	33.188	-0.137	-0.121
-433.690	409.970	-0.160	-0.343
-432.676	-200.000	0.009	-0.091
-431.661	800.000	-0.097	-0.322
-430.646	-146.825	0.283	-0.025
-429.632	200.731	-0.030	-0.047
-428.617	-200.000	0.041	0.210
-427.603	48.521	0.245	-0.233
-426.588	-58.828	-0.082	-0.036
-425.573	204.377	-0.152	0.239
-424.559	-200.000	0.062	0.337
-423.544	-33.959	0.234	-0.130
-422.530	-12.043	0.181	0.120
-421.515	165.550	0.048	0.068
-420.500	-10.749	-0.241	0.162
-419.486	-19.368	-0.094	-0.059
-418.471	-108.687	0.202	0.044
-417.457	92.123	-0.191	0.218
-416.442	148.813	-0.205	0.281
-415.428	-19.324	0.215	-0.135
-414.413	-200.000	0.003	0.028
-413.398	-108.682	-0.183	-0.040
-412.384	-187.224	0.272	-0.004
-411.369	-35.204	-0.279	-0.154
-410.355	123.422	-0.085	0.108
-409.340	391.227	0.188	0.395
-408.325	528.629	-0.069	0.164
-407.311	-177.874	-0.115	0.003
-406.296	800.000	-0.076	0.307
-405.282	-21.682	-0.156	0.096
-404.267	800.000	-0.022	-0.082
-403.252	11.032	-0.147	0.114
-402.238	164.937	0.210	0.300
-401.223	279.626	-0.156	-0.282
-400.209	36.860	-0.261	-0.234
-399.194	-124.753	-0.210	0.033
-398.179	68.428	0.028	-0.030
-397.165	-200.000	-0.049	-0.221
-396.150	-62.559	0.293	-0.123
-395.136	-107.939	0.150	-0.033
-394.121	-43.320	0.453	-0.232
-393.106	58.831	0.218	0.217
-392.092	3.114	-0.140	0.103
-391.077	-152.263	-0.110	-0.008
-390.063	590.264	0.027	-0.068
-389.048	-121.987	-0.259	0.043
-388.033	10.726	-0.020	0.015
-387.019	621.421	-0.085	0.215
-386.004	-159.451	0.297	0.017
-384.990	-200.000	-0.009	0.129
-383.975	-46.594	-0.356	-0.177
-382.960	300.460	-0.041	-0.077
-381.946	-134.511	0.208	0.026
-380.931	-200.000	-0.032	-0.197
-379.917	271.795	-0.173	-0.309
-378.902	-200.000	-0.047	0.243
-377.888	-45.516	-0.025	-0.012
-376.873	-123.425	0.301	-0.048
-375.858	195.851	-0.185	0.284
-374.844	-103.812	-0.081	0.019
-373.829	-200.000	-0.016	0.245
-372.815	127.988	0.088	0.113
-371.800	700.100	0.078	0.209
-370.785	572.250	-0.042	-0.105
-369.771	-18.735	0.168	0.106
-368.756	-200.000	0.003	-0.286
-367.742	-92.612	0.193	-0.055
-366.727	-73.993	0.328	-0.120
-365.712	79.526	0.118	0.128
-364.698	116.500	0.070	-0.086
-363.683	-200.000	0.031	0.192
-362.669	21.479	0.098	0.081
-361.654	-43.825	0.401	-0.204
-360.639	-115.972	0.241	-0.045
-359.625	-19.314	-0.072	-0.045
-358.610	-41.842	0.064	-0.033
-357.596	-180.254	0.194	-0.004
-356.581	284.057	-0.120	-0.218
-355.566	-47.513	0.222	0.109
-354.552	-149.029	0.416	0.034
-353.537	-56.464	-0.161	-0.072
-352.523	-200.000	-0.041	-0.477
-351.508	800.000	-0.038	-0.124
-350.493	-95.532	0.158	0.043
-349.479	80.283	-0.093	-0.101
-348.464	253.187	-0.149	0.257
-347.450	20.791	-0.100	-0.082
-346.435	800.000	-0.005	-0.013
-345.420	-172.346	-0.430	0.014
-344.406	357.769	0.063	0.126
-343.391	162.225	-0.229	0.324
-342.377	-33.833	0.062	0.035
-341.362	-200.000	-0.025	0.112
-340.348	-200.000	-0.023	0.332
-339.333	-200.000	0.029	0.337
-338.318	11.307	0.039	0.030
-337.304	460.021	0.096	0.217
-336.289	414.123	-0.042	0.090
-335.275	9.453	-0.326	-0.249
-334.260	-32.909	-0.053	-0.030
-333.245	-200.000	0.030	0.337
-332.231	-56.720	-0.092	-0.041
-331.216	-146.162	-0.056	0.005
-330.202	800.000	-0.017	0.050
-329.187	-200.000	0.049	-0.242
-328.172	-138.335	0.070	0.008
-327.158	-98.150	0.128	0.033
-326.143	-49.849	-0.117	-0.056
-325.129	252.166	0.201	-0.346
-324.114	51.072	-0.084	-0.081
-323.099	-134.772	-0.355	-0.043
-322.085	-200.000	0.002	0.456
-321.070	90.211	0.125	-0.141
-320.056	-200.000	-0.010	0.079
-319.041	-8.060	0.405	-0.276
-318.026	-200.000	0.025	0.256
-317.012	-59.949	0.073	-0.032
-315.997	-200.000	-0.019	-0.251
-314.983	-200.000	0.007	-0.087
-313.968	-59.572	-0.307	-0.133
-312.953	-200.000	-0.017	0.139
-311.939	-200.000	-0.012	0.278
-310.924	-200.000	-0.018	-0.141
-309.910	396.529	-0.120	-0.252
-308.895	-200.000	-0.015	0.571
-307.880	-2.652	-0.131	-0.092
-306.866	327.065	0.042	0.081
-305.851	335.124	-0.185	-0.362
-304.837	-69.514	-0.228	-0.088
-303.822	-69.777	-0.225	-0.087
-302.807	-30.575	0.197	0.112
-301.793	-200.000	-0.029	0.231
-300.778	-92.326	0.026	-0.007
-299.764	4.744	-0.266	0.197
-298.749	-86.472	0.279	0.086
-297.735	-200.000	0.011	-0.178
-296.720	77.653	0.032	0.034
-295.705	-38.900	-0.259	0.137
-294.691	372.265	0.044	0.091
-293.676	244.407	0.127	-0.214
-292.662	-115.965	-0.146	-0.027
-291.647	-45.608	0.115	0.057
-290.632	800.000	-0.087	-0.314
-289.618	77.621	-0.156	0.167
-288.603	190.177	0.068	-0.103
-287.589	-173.797	-0.198	0.006
-286.574	-19.733	-0.308	0.192
-285.559	791.229	-0.043	-0.118
-284.545	608.146	0.140	0.352
-283.530	169.510	0.144	0.207
-282.516	-23.534	0.081	0.049
-281.501	-182.861	0.343	0.006
-280.486	115.645	0.160	0.197
-279.472	417.000	-0.085	0.182
-278.457	-120.409	-0.112	0.019
-277.443	-147.155	-0.187	-0.016
-276.428	-200.000	0.016	-0.099
-275.413	57.527	0.184	-0.181
-274.399	-200.000	0.051	0.277
-273.384	-53.663	0.180	-0.083
-272.370	-200.000	0.025	0.236
-271.355	-125.170	-0.152	0.023
-270.340	48.742	0.201	-0.190
-269.326	-188.044	-0.113	0.001
-268.311	101.325	-0.256	-0.300
-267.297	-98.505	-0.196	0.050
-266.282	800.000	0.010	-0.036
-265.267	-124.915	0.144	-0.022
-264.253	219.533	-0.073	0.118
-263.238	800.000	-0.058	0.167
-262.224	-0.231	0.133	0.095
-261.209	-35.218	0.030	0.016
-260.195	-200.000	0.013	0.072
-259.180	800.000	0.031	-0.125
-258.165	-200.000	0.048	0.214
-257.151	800.000	-0.078	-0.315
-256.136	-122.196	-0.359	-0.059
-255.122	-200.000	0.003	0.072
-254.107	-200.000	-0.025	-0.182
-253.092	-63.824	0.240	0.099
-252.078	-45.956	-0.164	0.081
-251.063	-141.145	0.386	-0.040
-250.049	214.629	0.213	-0.340
-249.034	-18.094	0.148	-0.093
-248.019	85.799	0.081	-0.090
-247.005	-200.000	0.011	-0.321
-245.990	-156.749	0.400	-0.025
-244.976	577.647	0.056	-0.137
-243.961	800.000	-0.079	-0.341
-242.946	-53.343	0.260	0.120
-241.932	406.328	0.142	0.301
-240.917	-200.000	-0.001	0.445
-239.903	800.000	0.071	0.220
-238.888	31.284	-0.182	-0.157
-237.873	-156.120	0.206	-0.013
-236.859	612.916	0.081	-0.205
-235.844	-23.667	0.297	-0.179
-234.830	39.936	-0.173	0.156
-233.815	800.000	0.045	-0.184
-232.800	-98.500	0.037	0.010
-231.786	800.000	0.084	-0.287
-230.771	-165.546	-0.221	-0.010
-229.757	-147.923	0.327	0.027
-228.742	130.436	-0.034	0.044
-227.727	-25.792	-0.268	0.159
-226.713	-200.000	-0.007	-0.205
-225.698	-112.206	-0.289	0.058
-224.684	563.876	-0.179	0.436
-223.669	351.596	0.062	0.123
-222.655	171.384	0.103	0.149
-221.640	144.679	-0.196	0.263
-220.625	83.573	0.087	0.095
-219.611	290.783	-0.159	-0.290
-218.596	773.572	0.146	-0.399
-217.582	-200.000	-0.015	0.326
-216.567	-47.846	0.091	-0.044
-215.552	-7.155	0.238	0.162
-214.538	-200.000	-0.030	-0.213
-213.523	-200.000	-0.026	-0.311
-212.509	800.000	0.088	-0.357
-211.494	-142.506	-0.140	0.014
-210.479	800.000	0.068	-0.261
-209.465	800.000	-0.022	0.089
-208.450	800.000	-0.066	-0.260
-207.436	-200.000	0.028	0.134
-206.421	18.580	0.264	-0.212
-205.406	-200.000	-0.008	0.239
-204.392	3.360	0.330	0.242
-203.377	33.771	0.247	0.216
-202.363	214.489	-0.127	-0.203
-201.348	565.703	0.085	-0.207
-200.333	-56.129	-0.195	0.087
-199.319	301.599	-0.116	0.216
-198.304	800.000	-0.037	0.128
-197.290	-140.888	0.373	0.039
-196.275	-14.747	0.161	0.104
-195.260	-164.647	-0.346	0.016
-194.246	-29.836	0.076	-0.043
-193.231	-200.000	0.047	-0.322
-192.217	-52.513	0.229	-0.106
-191.202	-21.303	-0.026	0.016
-190.187	-89.793	0.216	0.063
-189.173	-103.801	-0.130	0.031
-188.158	-32.482	0.042	0.023
-187.144	-200.000	-0.036	-0.377
-186.129	-135.791	0.081	-0.010
-185.114	214.158	-0.064	-0.102
-184.100	-46.022	-0.206	0.102
-183.085	-200.000	0.003	0.127
-182.071	-43.858	-0.085	0.043
-181.056	392.933	0.100	-0.208
-180.042	-42.128	-0.061	0.031
-179.027	88.509	0.101	0.113
-178.012	88.530	-0.227	0.253
-176.998	800.000	0.124	-0.359
-175.983	-21.941	-0.131	0.080
-174.969	-73.785	0.181	0.066
-173.954	-85.153	0.147	-0.046
-172.939	-73.903	0.064	0.023
-171.925	-46.281	-0.371	-0.183
-170.910	202.465	-0.123	-0.190
-169.896	-116.459	0.194	0.036
-168.881	363.903	0.137	-0.276
-167.866	68.620	-0.146	-0.150
-166.852	-111.181	-0.247	0.051
-165.837	-121.041	-0.028	-0.005
-164.823	800.000	0.101	-0.317
-163.808	-67.830	-0.083	-0.033
-162.793	-12.737	-0.115	0.075
-161.779	649.548	-0.044	-0.112
-160.764	42.091	0.118	-0.108
-159.750	171.837	0.096	0.138
-158.735	139.070	0.134	0.177
-157.720	-119.426	0.151	0.026
-156.706	-109.023	-0.221	0.047
-155.691	52.260	0.240	0.229
-154.677	-200.000	0.028	-0.353
-153.662	99.106	0.097	-0.112
-152.647	-200.000	0.004	-0.160
-151.633	52.052	-0.242	0.232
-150.618	800.000	0.076	0.296
-149.604	-85.758	0.217	-0.068
-148.589	-114.930	-0.042	-0.008
-147.574	-166.404	-0.295	-0.012
-146.560	-68.461	0.024	-0.009
-145.545	580.305	-0.208	0.510
-144.531	165.115	-0.062	-0.088
-143.516	114.254	0.097	-0.118
-142.502	-99.968	0.159	-0.040
-141.487	800.000	-0.083	0.364
-140.472	-200.000	-0.007	0.123
-139.458	800.000	0.077	0.254
-138.443	510.599	-0.153	-0.357
-137.429	-200.000	0.000	-0.295
-136.414	800.000	-0.092	0.279
-135.399	-80.193	0.280	0.094
-134.385	14.930	0.163	0.127
-133.370	-60.502	0.237	0.101
-132.356	173.477	-0.167	0.241
-131.341	351.520	-0.128	-0.254
-130.326	-200.000	0.182	0.000
-129.312	-100.682	0.062	-0.015
-128.297	-21.883	0.301	0.183
-127.283	-114.571	0.246	0.047
-126.268	-200.000	-0.007	-0.351
-125.253	-32.223	-0.140	-0.078
-124.239	-166.711	0.178	-0.007
-123.224	598.886	-0.046	-0.113
-122.210	123.442	-0.112	0.141
