DTS Sentinel unit serial number:	SN413079Multiplexer serial number:	ORYXHardware model number:	OX4-SRSoftware version number:	ORYX F/W v4.00 Oryx Data Collector v3.7.2.0data status	okinstallation	princeton_trtdifferential loss correction	single-endedforward channel	channel 3reverse channel	N/Adate	2019/09/18time	21:48:35forward acquisition time	60.00reverse acquisition time	0.00gamma	496.2192k internal	0.2345k external	0.2345temperature offset calibration	0.9991default loss term (dB/km)	0.3790temperature slope calibration	1.0000multiplexer offset coefficient	1.0000multiplexer slope coefficient	1.0000fibre end	0.00T internal ref (°C)	24.78T ext. ref 1 (°C)	0.82T ext. ref 2 (°C)	18.30length (m)	temperature (°C)	Stokes	anti-Stokes-747.200	-200.000	-0.027	0.168
-746.185	-200.000	-0.013	0.119
-745.171	72.280	-0.103	-0.107
-744.156	520.971	0.018	0.041
-743.142	-64.673	0.284	0.115
-742.127	14.493	-0.222	-0.173
-741.112	-200.000	-0.002	-0.133
-740.098	-103.022	0.122	-0.029
-739.083	29.585	-0.056	-0.048
-738.069	364.993	-0.021	-0.041
-737.054	208.520	0.126	0.196
-736.039	-97.486	0.328	-0.085
-735.025	-66.453	0.123	-0.049
-734.010	-123.977	-0.237	0.037
-732.996	129.370	0.107	-0.137
-731.981	296.896	-0.126	0.231
-730.966	-104.440	-0.183	-0.042
-729.952	4.203	-0.185	-0.136
-728.937	410.399	0.118	-0.250
-727.923	-130.344	0.178	-0.024
-726.908	-39.255	-0.448	0.235
-725.894	-200.000	0.033	0.437
-724.879	132.527	-0.067	-0.087
-723.864	281.268	-0.029	0.052
-722.850	-34.215	-0.175	-0.096
-721.835	89.458	-0.119	-0.133
-720.821	74.672	0.129	0.136
-719.806	92.939	-0.067	-0.076
-718.791	800.000	0.093	-0.301
-717.777	161.588	-0.196	-0.273
-716.762	-67.372	-0.299	0.117
-715.748	-102.707	-0.066	-0.016
-714.733	252.469	0.144	-0.246
-713.718	-118.066	-0.267	0.048
-712.704	-156.946	0.221	-0.014
-711.689	128.086	-0.183	0.233
-710.675	-106.567	0.295	-0.066
-709.660	-51.799	-0.329	0.153
-708.645	108.476	0.104	0.124
-707.631	-200.000	-0.025	0.257
-706.616	-76.418	0.183	0.064
-705.602	-48.231	0.254	0.122
-704.587	-178.756	-0.071	0.002
-703.572	-26.443	0.206	0.120
-702.558	-26.165	-0.034	-0.020
-701.543	-200.000	-0.048	-0.311
-700.529	412.439	-0.047	0.101
-699.514	-6.667	-0.267	0.181
-698.499	-124.700	-0.241	-0.037
-697.485	-15.795	-0.196	-0.125
-696.470	16.105	-0.144	0.113
-695.456	134.820	-0.146	0.189
-694.441	-200.000	0.005	-0.162
-693.426	9.390	-0.324	-0.245
-692.412	-69.161	-0.348	0.134
-691.397	-49.974	0.206	0.098
-690.383	-179.082	0.193	-0.004
-689.368	603.690	0.070	0.174
-688.354	-135.930	-0.127	0.015
-687.339	-26.074	-0.153	-0.090
-686.324	-66.434	0.245	-0.097
-685.310	51.859	0.137	-0.130
-684.295	800.000	0.065	-0.186
-683.281	314.024	0.158	-0.297
-682.266	-200.000	-0.058	0.324
-681.251	-165.897	0.158	-0.007
-680.237	499.821	-0.116	-0.268
-679.222	79.873	0.123	-0.132
-678.208	-94.694	-0.026	0.007
-677.193	-7.755	-0.041	-0.028
-676.178	800.000	0.034	-0.118
-675.164	800.000	0.072	-0.259
-674.149	-200.000	-0.008	0.064
-673.135	-84.955	0.105	0.033
-672.120	33.162	0.257	-0.222
-671.105	86.349	-0.115	-0.127
-670.091	158.161	-0.076	-0.105
-669.076	732.828	0.041	-0.110
-668.062	800.000	-0.017	-0.062
-667.047	-10.533	-0.120	-0.079
-666.032	-12.914	0.118	-0.077
-665.018	800.000	-0.081	0.317
-664.003	78.726	-0.187	0.199
-662.989	-20.072	0.158	-0.097
-661.974	9.861	-0.219	0.166
-660.959	160.288	0.089	-0.124
-659.945	-200.000	0.014	-0.304
-658.930	-77.517	0.243	-0.084
-657.916	-83.995	0.358	0.113
-656.901	119.359	-0.292	0.361
-655.886	-6.472	0.129	0.088
-654.872	-200.000	0.001	0.157
-653.857	-200.000	-0.042	0.286
-652.843	-82.446	0.260	0.084
-651.828	68.472	-0.189	0.194
-650.814	-113.054	0.193	-0.038
-649.799	30.668	0.168	0.144
-648.784	113.648	0.156	-0.189
-647.770	-200.000	-0.010	0.069
-646.755	-90.482	0.162	0.047
-645.741	800.000	0.042	-0.133
-644.726	-84.308	-0.324	0.102
-643.711	-129.034	0.206	-0.029
-642.697	-162.093	-0.079	-0.004
-641.682	167.712	-0.151	-0.213
-640.668	-42.889	-0.085	-0.043
-639.653	307.713	-0.056	0.105
-638.638	447.181	0.059	-0.129
-637.624	-60.663	0.329	0.139
-636.609	30.500	0.327	0.279
-635.595	-172.851	0.420	0.013
-634.580	387.479	0.068	-0.141
-633.565	-91.717	-0.297	-0.084
-632.551	800.000	0.096	-0.350
-631.536	45.824	-0.032	-0.029
-630.522	235.590	-0.162	-0.267
-629.507	-200.000	-0.004	0.386
-628.492	116.942	-0.242	0.296
-627.478	-14.100	-0.144	0.093
-626.463	258.052	-0.133	0.228
-625.449	252.119	0.155	-0.263
-624.434	-91.296	0.134	-0.038
-623.419	800.000	-0.092	0.303
-622.405	372.804	0.127	0.257
-621.390	-140.562	-0.289	-0.030
-620.376	-180.432	-0.275	0.006
-619.361	800.000	-0.053	0.211
-618.346	18.491	0.283	0.225
-617.332	-79.612	0.307	0.103
-616.317	15.369	-0.265	-0.207
-615.303	-43.722	0.399	-0.200
-614.288	-45.884	-0.107	0.053
-613.273	184.939	-0.241	-0.356
-612.259	7.526	0.139	0.103
-611.244	52.462	-0.153	-0.146
-610.230	-200.000	-0.043	-0.401
-609.215	-110.582	-0.333	0.069
-608.201	373.736	0.109	0.221
-607.186	19.760	-0.369	0.295
-606.171	-200.000	-0.051	-0.520
-605.157	31.225	-0.088	0.075
-604.142	800.000	-0.031	0.116
-603.128	-158.497	-0.433	0.025
-602.113	348.466	0.139	-0.273
-601.098	-124.136	-0.230	-0.036
-600.084	16.247	0.036	-0.028
-599.069	-59.410	0.413	-0.177
-598.055	-10.206	0.264	0.174
-597.040	19.698	0.071	-0.057
-596.025	622.693	-0.033	0.083
-595.011	61.731	-0.183	0.181
-593.996	92.863	0.153	-0.172
-592.982	-0.768	-0.150	0.106
-591.967	111.993	-0.152	0.182
-590.952	42.965	0.264	0.239
-589.938	-95.910	-0.212	-0.056
-588.923	59.650	0.257	0.252
-587.909	225.739	0.113	-0.182
-586.894	-200.000	-0.024	0.160
-585.879	644.196	0.081	0.206
-584.865	400.406	0.191	0.399
-583.850	800.000	-0.115	0.319
-582.836	-87.678	0.151	-0.045
-581.821	52.238	-0.116	0.110
-580.806	-200.000	-0.024	-0.326
-579.792	-5.510	0.267	0.182
-578.777	16.027	-0.248	0.194
-577.763	-17.749	0.166	0.103
-576.748	39.088	0.048	0.043
-575.733	-200.000	0.041	0.192
-574.719	339.988	0.183	-0.354
-573.704	183.229	-0.115	-0.169
-572.690	800.000	0.103	-0.427
-571.675	138.918	0.065	0.085
-570.661	-21.519	0.131	0.080
-569.646	59.927	-0.397	0.390
-568.631	-200.000	-0.008	0.048
-567.617	112.419	0.128	-0.154
-566.602	-200.000	0.021	-0.219
-565.588	-109.204	-0.018	-0.004
-564.573	-44.311	-0.188	-0.093
-563.558	-200.000	0.011	0.183
-562.544	-174.463	-0.250	-0.007
-561.529	-31.098	-0.157	-0.088
-560.515	-55.715	-0.173	0.077
-559.500	-200.000	0.001	0.069
-558.485	-110.180	0.288	0.060
-557.471	151.274	0.196	0.265
-556.456	-200.000	0.016	0.262
-555.442	-3.115	-0.242	-0.167
-554.427	448.393	-0.188	-0.411
-553.412	-96.275	0.144	0.038
-552.398	-166.654	0.429	-0.018
-551.383	127.872	0.065	0.082
-550.369	449.375	-0.115	-0.251
-549.354	334.775	-0.039	-0.075
-548.339	-91.820	0.122	-0.034
-547.325	-2.007	0.150	0.104
-546.310	-200.000	-0.012	-0.059
-545.296	-7.496	-0.040	-0.027
-544.281	-75.013	0.084	-0.030
-543.266	-200.000	0.004	0.207
-542.252	-92.419	0.056	-0.016
-541.237	-50.182	-0.289	-0.136
-540.223	-32.567	0.318	-0.176
-539.208	693.117	-0.150	-0.389
-538.193	67.447	0.093	-0.094
-537.179	-3.118	0.126	0.087
-536.164	-200.000	0.028	0.211
-535.150	-92.767	-0.211	0.058
-534.135	800.000	0.089	-0.320
-533.121	800.000	-0.043	-0.147
-532.106	-120.291	-0.308	0.052
-531.091	-91.592	-0.171	0.048
-530.077	-78.358	-0.354	0.121
-529.062	157.381	-0.218	0.299
-528.048	-125.575	0.265	-0.040
-527.033	-69.094	-0.170	-0.065
-526.018	-104.096	-0.092	0.021
-525.004	-55.259	0.067	0.030
-523.989	532.175	-0.145	0.339
-522.975	31.229	0.050	0.043
-521.960	-99.243	0.397	-0.100
-520.945	96.599	-0.019	-0.021
-519.931	368.203	0.129	0.259
-518.916	4.168	0.385	0.279
-517.902	-200.000	0.011	0.079
-516.887	-45.874	0.172	-0.084
-515.872	-109.401	-0.355	0.074
-514.858	158.633	-0.206	0.283
-513.843	386.021	-0.135	0.276
-512.829	-200.000	0.004	-0.350
-511.814	115.739	0.098	-0.119
-510.799	40.627	-0.065	-0.058
-509.785	37.586	-0.171	0.151
-508.770	-179.072	-0.083	0.002
-507.756	243.294	0.037	-0.062
-506.741	-78.674	-0.137	-0.046
-505.726	179.150	-0.097	-0.140
-504.712	316.465	-0.045	0.085
-503.697	-200.000	-0.031	-0.401
-502.683	371.255	0.048	-0.096
-501.668	550.332	-0.121	-0.287
-500.653	-46.033	-0.148	-0.072
-499.639	-20.012	0.145	-0.088
-498.624	-73.259	-0.318	-0.115
-497.610	274.325	0.198	0.348
-496.595	-46.180	0.201	-0.098
-495.581	-58.345	-0.262	-0.113
-494.566	545.113	-0.066	0.156
-493.551	800.000	-0.127	-0.368
-492.537	191.694	-0.062	0.093
-491.522	118.562	0.349	0.427
-490.508	800.000	-0.113	-0.331
-489.493	65.224	0.312	0.312
-488.478	168.384	0.256	0.361
-487.464	-146.538	0.334	0.029
-486.449	307.443	-0.138	-0.254
-485.435	-183.023	0.178	-0.003
-484.420	-63.374	0.222	0.090
-483.405	-86.437	-0.337	-0.102
-482.391	-200.000	0.010	-0.135
-481.376	-200.000	-0.033	-0.165
-480.362	8.779	-0.097	-0.072
-479.347	87.581	-0.164	-0.179
-478.332	173.483	0.080	0.114
-477.318	-200.000	-0.033	-0.233
-476.303	57.876	0.109	-0.106
-475.289	231.151	-0.259	0.420
-474.274	-200.000	0.061	0.278
-473.259	141.184	0.057	0.075
-472.245	-200.000	0.016	0.242
-471.230	145.551	0.045	-0.059
-470.216	-36.084	0.079	0.042
-469.201	-117.144	-0.087	-0.016
-468.186	57.963	0.035	0.033
-467.172	4.503	-0.230	-0.167
-466.157	131.200	0.134	-0.170
-465.143	-106.794	-0.319	0.070
-464.128	-77.488	-0.154	0.053
-463.113	37.183	-0.102	0.089
-462.099	647.102	-0.126	0.318
-461.084	-139.228	-0.402	-0.043
-460.070	-194.199	0.360	-0.003
-459.055	41.945	-0.147	-0.132
-458.040	-188.077	0.241	-0.003
-457.026	800.000	0.100	-0.334
-456.011	-42.732	0.256	-0.129
-454.997	800.000	-0.089	-0.257
-453.982	800.000	0.085	0.247
-452.968	74.125	0.108	0.112
-451.953	-127.876	-0.539	0.077
-450.938	-200.000	-0.010	-0.117
-449.924	213.117	-0.095	0.148
-448.909	167.040	-0.109	0.153
-447.895	-69.302	0.127	-0.048
-446.880	5.005	-0.197	-0.143
-445.865	282.755	-0.188	0.334
-444.851	170.160	0.058	0.081
-443.836	-127.903	0.030	0.004
-442.822	-121.029	-0.198	0.033
-441.807	800.000	0.079	0.234
-440.792	33.964	-0.186	0.160
-439.778	-79.865	-0.081	-0.027
-438.763	-200.000	-0.041	0.200
-437.749	-3.979	0.136	-0.093
-436.734	-173.421	-0.312	0.009
-435.719	154.548	-0.104	-0.141
-434.705	357.763	0.091	-0.179
-433.690	-200.000	0.001	-0.236
-432.676	-200.000	-0.060	-0.419
-431.661	-136.860	-0.155	-0.018
-430.646	-200.000	0.032	-0.484
-429.632	-200.000	-0.026	0.169
-428.617	-166.292	0.079	-0.003
-427.603	206.381	0.039	-0.061
-426.588	-45.068	0.129	-0.064
-425.573	-200.000	-0.003	0.339
-424.559	-57.820	0.103	0.044
-423.544	627.121	-0.093	0.232
-422.530	-163.048	0.236	-0.011
-421.515	-200.000	-0.021	-0.340
-420.500	-106.590	0.187	0.041
-419.486	263.003	-0.064	-0.110
-418.471	46.217	-0.047	-0.043
-417.457	800.000	-0.071	0.196
-416.442	-200.000	-0.006	0.227
-415.428	216.218	0.176	-0.276
-414.413	-200.000	0.097	-0.494
-413.398	493.616	0.089	-0.202
-412.384	266.985	-0.059	0.101
-411.369	-86.823	0.230	0.069
-410.355	132.790	-0.119	-0.152
-409.340	-200.000	-0.034	-0.157
-408.325	280.489	0.123	-0.218
-407.311	284.513	0.078	-0.138
-406.296	-62.164	0.248	0.102
-405.282	-200.000	-0.025	-0.435
-404.267	119.587	0.226	-0.276
-403.252	-97.447	-0.238	0.061
-402.238	-88.110	0.290	0.086
-401.223	291.004	-0.139	0.249
-400.209	316.099	0.135	0.251
-399.194	800.000	0.073	0.224
-398.179	167.178	0.225	0.316
-397.165	-32.438	-0.322	0.177
-396.150	800.000	0.063	0.197
-395.136	-108.661	0.333	-0.071
-394.121	-158.042	-0.143	0.008
-393.106	143.798	0.169	0.223
-392.092	201.835	-0.099	0.151
-391.077	200.403	0.084	-0.128
-390.063	-200.000	-0.023	-0.294
-389.048	-106.825	0.448	-0.098
-388.033	-68.013	-0.289	-0.111
-387.019	-200.000	0.018	-0.235
-386.004	-200.000	-0.046	-0.247
-384.990	-100.351	-0.109	0.027
-383.975	109.597	0.127	0.150
-382.960	-131.420	-0.251	-0.033
-381.946	-200.000	0.012	0.266
-380.931	-103.768	0.142	-0.033
-379.917	13.343	-0.152	0.117
-378.902	-77.850	0.121	0.041
-377.888	-109.569	0.323	-0.067
-376.873	17.703	-0.471	-0.369
-375.858	-39.942	0.100	0.052
-374.844	106.926	-0.193	0.226
-373.829	-102.621	-0.130	0.031
-372.815	257.653	0.134	0.227
-371.800	68.217	0.047	-0.048
-370.785	-200.000	0.019	-0.384
-369.771	-30.048	-0.095	-0.053
-368.756	126.886	0.355	-0.444
-367.742	-132.082	0.399	-0.051
-366.727	-200.000	0.017	-0.130
-365.712	328.306	-0.048	0.091
-364.698	58.952	-0.124	-0.120
-363.683	-94.029	-0.081	0.022
-362.669	-119.989	0.446	0.075
-361.654	800.000	-0.031	0.132
-360.639	-113.793	-0.165	0.032
-359.625	18.953	-0.203	-0.160
-358.610	34.183	-0.154	-0.133
-357.596	-200.000	-0.021	-0.275
-356.581	-100.822	0.085	-0.021
-355.566	-109.106	-0.204	0.043
-354.552	-200.000	0.088	-0.000
-353.537	635.201	0.016	-0.040
-352.523	-102.982	-0.146	-0.034
-351.508	503.806	-0.017	-0.038
-350.493	-24.563	-0.129	-0.075
-349.479	-200.000	0.014	0.294
-348.464	-200.000	-0.189	0.000
-347.450	-200.000	0.027	-0.229
-346.435	-63.169	-0.246	-0.100
-345.420	54.843	0.126	-0.120
-344.406	-111.189	-0.202	0.041
-343.391	84.790	0.162	0.174
-342.377	8.100	0.162	0.119
-341.362	-94.513	-0.297	-0.080
-340.348	-37.406	0.082	-0.043
-339.333	206.904	-0.024	-0.038
-338.318	-103.669	0.165	0.038
-337.304	68.840	-0.284	0.287
-336.289	43.469	-0.049	-0.044
-335.275	-98.693	0.058	0.015
-334.260	-200.000	-0.066	-0.308
-333.245	-135.766	-0.154	0.018
-332.231	299.548	-0.126	-0.228
-331.216	-114.379	0.355	0.067
-330.202	800.000	-0.096	0.364
-329.187	279.723	0.082	-0.144
-328.172	-200.000	-0.047	-0.328
-327.158	-200.000	-0.061	-0.271
-326.143	138.981	-0.096	0.124
-325.129	-156.897	0.083	0.005
-324.114	-48.629	-0.209	-0.099
-323.099	207.248	-0.156	0.239
-322.085	132.345	-0.057	-0.072
-321.070	-131.915	-0.054	0.007
-320.056	15.864	-0.153	0.119
-319.041	-58.518	-0.225	-0.096
-318.026	-200.000	-0.004	0.204
-317.012	115.482	0.130	0.156
-315.997	-107.662	-0.208	0.045
-314.983	-121.499	0.184	0.030
-313.968	127.780	-0.168	0.211
-312.953	-44.267	0.084	-0.041
-311.939	800.000	0.025	-0.083
-310.924	-99.238	0.206	0.051
-309.910	22.765	0.265	-0.213
-308.895	-200.000	-0.003	0.183
-307.880	30.750	0.265	-0.223
-306.866	-33.988	-0.047	-0.026
-305.851	-88.486	-0.135	-0.040
-304.837	-62.868	-0.304	-0.124
-303.822	-200.000	-0.038	0.240
-302.807	232.954	-0.128	0.207
-301.793	-82.315	0.165	-0.053
-300.778	-200.000	0.025	0.244
-299.764	-1.074	-0.068	-0.047
-298.749	-65.348	0.050	-0.020
-297.735	643.201	-0.106	0.266
-296.720	-55.482	0.255	0.113
-295.705	171.949	0.048	0.068
-294.691	-83.187	0.443	0.140
-293.676	-127.215	-0.061	0.009
-292.662	-99.146	0.098	0.024
-291.647	-171.575	-0.216	0.007
-290.632	51.681	-0.052	0.049
-289.618	-47.916	0.083	-0.040
-288.603	-4.026	-0.291	0.198
-287.589	792.356	0.027	-0.073
-286.574	-200.000	0.002	0.078
-285.559	-200.000	-0.010	-0.157
-284.545	194.520	-0.160	-0.238
-283.530	-111.385	-0.237	-0.047
-282.516	223.665	0.092	0.147
-281.501	328.800	0.137	0.259
-280.486	800.000	0.027	0.111
-279.472	-41.727	-0.301	0.152
-278.457	576.594	-0.102	0.245
-277.443	-26.322	0.518	-0.298
-276.428	787.979	-0.065	0.176
-275.413	-91.416	-0.037	0.010
-274.399	443.631	-0.031	-0.067
-273.384	-40.623	0.224	0.114
-272.370	265.519	0.065	0.111
-271.355	-98.770	0.208	0.052
-270.340	-123.701	-0.266	-0.041
-269.326	-200.000	0.008	0.183
-268.311	800.000	-0.110	0.360
-267.297	-0.860	0.085	-0.059
-266.282	-200.000	0.041	0.304
-265.267	-33.321	-0.099	-0.054
-264.253	11.551	-0.181	0.136
-263.238	-24.969	-0.235	-0.137
-262.224	93.569	0.154	-0.171
-261.209	41.747	-0.167	0.148
-260.195	-1.510	-0.096	0.067
-259.180	-30.629	0.137	0.076
-258.165	800.000	0.097	0.308
-257.151	-37.129	-0.025	0.013
-256.136	-200.000	0.093	-0.457
-255.122	-111.603	0.028	0.006
-254.107	-167.697	0.187	-0.007
-253.092	-200.000	0.035	-0.153
-252.078	211.859	-0.116	-0.179
-251.063	-200.000	0.024	-0.285
-250.049	484.077	-0.142	0.318
-249.034	-200.000	0.011	0.132
-248.019	-120.919	0.021	-0.003
-247.005	-35.690	-0.356	-0.189
-245.990	-46.225	0.303	-0.146
-244.976	-111.886	0.329	0.065
-243.961	59.643	0.128	-0.124
-242.946	558.640	0.055	0.131
-241.932	800.000	0.034	-0.099
-240.917	-107.293	-0.320	0.069
-239.903	282.117	0.093	-0.164
-238.888	740.052	0.085	-0.224
-237.873	-12.349	0.088	0.056
-236.859	-179.542	0.122	-0.003
-235.844	93.412	0.109	0.121
-234.830	267.311	0.070	0.120
-233.815	-65.329	-0.233	0.092
-232.800	74.660	0.210	0.217
-231.786	23.723	-0.223	-0.180
-230.771	-200.000	0.011	0.399
-229.757	1.048	-0.007	-0.005
-228.742	187.128	0.324	-0.473
-227.727	152.388	-0.077	0.103
-226.713	-151.113	-0.101	0.007
-225.698	800.000	0.048	-0.188
-224.684	-85.345	0.151	-0.046
-223.669	58.148	-0.075	0.072
-222.655	-107.894	-0.087	-0.018
-221.640	-200.000	-0.001	-0.035
-220.625	-200.000	0.313	-0.001
-219.611	-200.000	0.023	0.470
-218.596	109.956	-0.167	0.196
-217.582	-41.700	-0.112	0.056
-216.567	448.375	-0.091	0.197
-215.552	-200.000	-0.039	-0.459
-214.538	-79.143	0.319	0.106
-213.523	-183.156	0.119	0.002
-212.509	125.909	0.166	-0.206
-211.494	-114.464	-0.142	-0.027
-210.479	77.773	-0.173	0.180
-209.465	43.307	0.072	-0.064
-208.450	-200.000	-0.016	-0.437
-207.436	-200.000	0.029	-0.407
-206.421	-200.000	-0.020	0.101
-205.406	138.648	-0.114	0.147
-204.392	-123.119	0.415	0.065
-203.377	-152.595	-0.038	-0.003
-202.363	800.000	-0.060	0.220
-201.348	191.504	0.080	-0.117
-200.333	535.061	-0.070	-0.162
-199.319	-200.000	-0.039	-0.196
-198.304	-18.824	0.097	0.059
-197.290	-72.142	-0.136	-0.049
-196.275	-139.428	0.320	0.034
-195.260	-101.434	0.169	-0.040
-194.246	-191.170	-0.315	0.003
-193.231	-62.242	-0.222	-0.091
-192.217	-195.330	0.277	-0.002
-191.202	-0.846	0.177	0.122
-190.187	181.973	0.053	-0.076
-189.173	459.015	0.070	0.152
-188.158	-145.118	0.323	-0.029
-187.144	-135.529	0.210	0.024
-186.129	-158.966	-0.468	0.026
-185.114	800.000	-0.056	0.216
-184.100	800.000	0.008	-0.031
-183.085	-77.742	-0.252	0.085
-182.071	552.085	0.136	-0.320
-181.056	393.337	-0.138	0.281
-180.042	562.432	-0.067	-0.158
-179.027	69.798	0.267	0.269
-178.012	62.166	-0.147	-0.144
-176.998	-92.630	-0.110	-0.030
-175.983	-200.000	-0.020	0.293
-174.969	-200.000	0.006	0.128
-173.954	-200.000	0.010	0.058
-172.939	434.865	0.044	0.094
-171.925	-200.000	0.011	0.361
-170.910	800.000	-0.059	-0.176
-169.896	-200.000	-0.051	-0.645
-168.881	-200.000	0.020	-0.434
-167.866	-98.003	-0.283	-0.071
-166.852	-200.000	0.008	-0.124
-165.837	92.182	0.230	0.253
-164.823	-90.261	0.490	-0.139
-163.808	144.665	-0.196	0.257
-162.793	-98.819	0.192	-0.048
-161.779	800.000	0.122	-0.346
-160.764	480.030	-0.074	-0.164
-159.750	-200.000	-0.068	0.311
-158.735	13.805	-0.305	-0.232
-157.720	53.605	0.120	-0.113
-156.706	-36.802	-0.094	-0.049
-155.691	-141.224	-0.127	0.013
-154.677	-12.342	0.183	0.117
-153.662	800.000	0.055	0.168
-152.647	-78.070	0.148	0.050
-151.633	-200.000	0.026	-0.392
-150.618	-39.118	0.164	0.084
-149.604	44.609	-0.229	-0.206
-148.589	-94.286	0.107	-0.028
-147.574	-85.368	-0.302	-0.092
-146.560	-22.579	-0.116	-0.069
-145.545	-200.000	-0.032	-0.438
-144.531	23.816	-0.073	-0.059
-143.516	-175.801	-0.229	0.006
-142.502	-200.000	0.084	0.562
-141.487	-81.013	0.159	0.051
-140.472	-17.618	0.407	0.250
-139.458	84.819	0.276	0.295
-138.443	62.612	-0.278	0.271
-137.429	8.114	-0.228	-0.167
-136.414	-141.193	-0.104	-0.010
-135.399	800.000	-0.042	-0.115
-134.385	113.762	0.107	0.127
-133.370	386.857	0.092	0.186
-132.356	-99.310	-0.203	0.050
-131.341	-3.504	-0.013	0.009
-130.326	800.000	-0.158	0.536
-129.312	-182.325	0.520	-0.009
-128.297	-103.411	0.372	-0.085
-127.283	-107.757	-0.367	-0.078
-126.268	200.960	0.068	-0.102
-125.253	-80.187	-0.179	0.058
-124.239	-11.092	0.329	-0.212
-123.224	79.248	0.232	0.243
-122.210	800.000	0.089	-0.288
