DTS Sentinel unit serial number:	SN413079Multiplexer serial number:	ORYXHardware model number:	OX4-SRSoftware version number:	ORYX F/W v4.00 Oryx Data Collector v3.7.2.0data status	okinstallation	princeton_trtdifferential loss correction	single-endedforward channel	channel 3reverse channel	N/Adate	2019/09/13time	18:12:35forward acquisition time	60.00reverse acquisition time	0.00gamma	496.2192k internal	0.2311k external	0.2311temperature offset calibration	1.0115default loss term (dB/km)	0.3790temperature slope calibration	1.0000multiplexer offset coefficient	1.0000multiplexer slope coefficient	1.0000fibre end	0.00T internal ref (°C)	34.34T ext. ref 1 (°C)	4.50T ext. ref 2 (°C)	27.21length (m)	temperature (°C)	Stokes	anti-Stokes-747.200	76.377	0.190	-0.204
-746.185	716.187	0.041	0.111
-745.171	-198.932	0.201	-0.001
-744.156	142.682	0.078	0.106
-743.142	-116.262	0.224	-0.042
-742.127	593.118	-0.069	-0.174
-741.112	-37.144	-0.270	-0.147
-740.098	-200.000	0.024	0.253
-739.083	72.508	0.071	-0.075
-738.069	152.803	-0.316	0.438
-737.054	800.000	0.081	-0.334
-736.039	-95.012	-0.134	0.037
-735.025	-85.614	0.413	0.130
-734.010	-6.218	-0.210	0.146
-732.996	800.000	0.037	0.158
-731.981	-98.958	-0.283	-0.073
-730.966	800.000	-0.035	0.107
-729.952	-24.493	-0.181	0.109
-728.937	155.320	-0.079	-0.111
-727.923	25.570	0.065	0.055
-726.908	-44.083	0.105	-0.053
-725.894	-20.974	0.224	-0.139
-724.879	253.844	-0.040	0.069
-723.864	49.424	-0.050	-0.048
-722.850	-53.083	0.191	0.089
-721.835	-142.366	0.125	0.013
-720.821	543.860	0.072	-0.174
-719.806	-152.728	-0.135	0.010
-718.791	-42.582	0.077	0.040
-717.777	-22.396	0.120	-0.073
-716.762	-200.000	-0.006	0.087
-715.748	-44.346	-0.123	-0.063
-714.733	110.377	-0.022	-0.027
-713.718	-200.000	-0.009	0.058
-712.704	132.576	-0.179	-0.235
-711.689	-18.131	0.088	0.056
-710.675	-174.848	-0.211	0.006
-709.660	38.017	-0.171	0.154
-708.645	-47.387	-0.288	-0.142
-707.631	51.917	-0.198	-0.191
-706.616	-89.578	0.109	-0.033
-705.602	-127.233	0.084	-0.012
-704.587	-119.480	-0.284	0.050
-703.572	-51.275	0.204	-0.097
-702.558	594.878	-0.053	-0.133
-701.543	-103.194	-0.050	0.012
-700.529	-90.403	-0.031	-0.009
-699.514	-200.000	0.020	-0.175
-698.499	-19.850	-0.167	0.105
-697.485	-117.207	-0.157	-0.029
-696.470	218.408	-0.215	-0.348
-695.456	-200.000	0.034	0.251
-694.441	-38.699	0.099	-0.053
-693.426	-30.749	-0.186	-0.107
-692.412	-35.489	0.151	-0.083
-691.397	800.000	-0.118	-0.355
-690.383	-200.000	0.022	-0.306
-689.368	-93.201	-0.108	0.030
-688.354	-31.080	0.310	-0.177
-687.339	800.000	0.030	0.086
-686.324	-116.163	-0.209	-0.039
-685.310	-103.041	0.026	-0.006
-684.295	-74.316	-0.134	-0.049
-683.281	-76.423	-0.119	-0.042
-682.266	-200.000	0.034	0.243
-681.251	-121.461	-0.442	0.074
-680.237	-14.841	-0.142	0.093
-679.222	433.412	0.031	0.069
-678.208	-168.514	-0.228	0.009
-677.193	272.777	-0.163	-0.292
-676.178	800.000	-0.084	-0.235
-675.164	-178.514	-0.357	0.008
-674.149	-69.835	-0.147	0.057
-673.135	95.604	-0.235	-0.272
-672.120	-200.000	0.009	-0.274
-671.105	-144.199	-0.198	0.019
-670.091	-170.620	-0.290	-0.010
-669.076	-77.070	-0.074	0.026
-668.062	123.531	0.056	0.071
-667.047	800.000	-0.070	0.247
-666.032	383.957	-0.130	-0.271
-665.018	601.685	0.079	0.199
-664.003	-155.968	-0.246	-0.016
-662.989	-186.442	-0.137	0.002
-661.974	-200.000	0.028	-0.223
-660.959	-86.154	-0.242	0.075
-659.945	591.672	-0.100	-0.251
-658.930	231.454	-0.084	0.139
-657.916	224.134	-0.176	0.288
-656.901	-71.781	0.343	-0.129
-655.886	-40.886	-0.195	0.102
-654.872	-19.339	-0.083	0.052
-653.857	35.684	-0.115	0.102
-652.843	271.272	0.163	-0.290
-651.828	478.286	0.072	-0.165
-650.814	176.682	0.181	-0.267
-649.799	18.899	-0.254	-0.206
-648.784	-200.000	0.017	-0.192
-647.770	356.006	0.044	0.089
-646.755	-200.000	0.027	-0.351
-645.741	-135.091	0.236	0.029
-644.726	93.904	-0.211	0.242
-643.711	14.971	-0.159	-0.126
-642.697	-200.000	0.025	-0.126
-641.682	-123.611	-0.412	0.066
-640.668	23.151	0.071	0.059
-639.653	-200.000	-0.006	0.140
-638.638	615.244	-0.115	-0.291
-637.624	800.000	0.036	-0.133
-636.609	89.634	-0.030	-0.034
-635.595	-200.000	-0.011	-0.256
-634.580	-157.960	0.389	0.023
-633.565	-200.000	0.014	0.138
-632.551	135.832	0.208	-0.273
-631.536	108.264	-0.110	-0.132
-630.522	-111.635	-0.112	0.023
-629.507	10.573	-0.240	-0.185
-628.492	447.348	0.088	-0.195
-627.478	150.635	0.160	-0.220
-626.463	-112.106	0.325	-0.066
-625.449	14.041	0.107	-0.084
-624.434	-135.500	-0.171	0.021
-623.419	127.556	0.166	-0.214
-622.405	-153.792	-0.271	0.019
-621.390	-200.000	0.087	0.394
-620.376	800.000	-0.096	-0.358
-619.361	-121.962	0.102	0.017
-618.346	332.841	0.086	0.168
-617.332	-175.226	-0.184	-0.005
-616.317	64.059	0.076	0.077
-615.303	-200.000	0.004	-0.066
-614.288	121.700	-0.086	-0.108
-613.273	292.446	0.083	0.152
-612.259	-200.000	0.042	0.289
-611.244	800.000	0.030	0.130
-610.230	-12.375	-0.037	-0.024
-609.215	-176.136	0.315	0.008
-608.201	-135.630	0.257	-0.031
-607.186	-31.917	-0.101	-0.057
-606.171	3.968	0.388	0.287
-605.157	-200.000	-0.401	-0.002
-604.142	-72.466	0.254	0.095
-603.128	59.830	-0.085	-0.085
-602.113	12.657	-0.168	0.131
-601.098	-40.879	-0.341	-0.178
-600.084	329.431	0.144	-0.280
-599.069	722.670	-0.090	-0.242
-598.055	426.156	0.079	-0.172
-597.040	-114.826	-0.394	-0.076
-596.025	-200.000	-0.055	0.251
-595.011	99.456	-0.161	0.188
-593.996	-72.721	-0.061	0.023
-592.982	-149.557	0.120	-0.010
-591.967	41.704	0.062	-0.056
-590.952	800.000	-0.054	0.183
-589.938	-163.595	-0.369	-0.018
-588.923	-44.380	-0.108	-0.054
-587.909	-200.000	-0.002	0.048
-586.894	-200.000	0.013	-0.174
-585.879	341.773	0.069	-0.137
-584.865	115.071	-0.153	0.189
-583.850	333.052	-0.051	0.100
-582.836	591.398	-0.043	0.107
-581.821	254.690	0.047	0.081
-580.806	-57.480	0.185	0.082
-579.792	-200.000	0.028	-0.318
-578.777	-68.270	-0.288	0.113
-577.763	61.435	0.212	0.212
-576.748	360.959	0.080	-0.162
-575.733	-200.000	-0.009	-0.067
-574.719	-138.925	0.461	0.051
-573.704	-183.845	-0.282	0.005
-572.690	-150.923	-0.223	-0.017
-571.675	87.696	-0.161	-0.180
-570.661	800.000	-0.006	-0.024
-569.646	144.260	0.094	0.127
-568.631	165.169	-0.081	-0.116
-567.617	-200.000	0.075	-0.383
-566.602	-93.366	-0.181	0.051
-565.588	-200.000	0.024	-0.270
-564.573	291.430	-0.109	0.201
-563.558	221.395	-0.314	0.508
-562.544	-147.799	-0.138	-0.012
-561.529	155.997	0.125	0.174
-560.515	26.660	0.145	-0.122
-559.500	-141.023	0.506	0.052
-558.485	-122.580	0.440	-0.072
-557.471	10.063	0.017	0.013
-556.456	-52.676	0.589	-0.274
-555.442	-129.115	0.258	-0.036
-554.427	257.279	-0.086	-0.149
-553.412	-60.514	-0.141	-0.060
-552.398	380.071	0.100	0.206
-551.383	800.000	-0.010	-0.042
-550.369	-133.719	0.189	0.024
-549.354	283.701	-0.170	0.307
-548.339	15.564	-0.091	0.072
-547.325	142.839	0.057	0.076
-546.310	-200.000	0.051	0.254
-545.296	0.203	-0.073	-0.053
-544.281	-18.092	-0.337	-0.212
-543.266	-200.000	-0.013	0.091
-542.252	360.288	-0.107	0.215
-541.237	-55.000	0.352	-0.160
-540.223	-149.796	-0.337	0.027
-539.208	-95.260	-0.325	0.088
-538.193	-30.828	-0.120	-0.068
-537.179	-36.642	-0.517	-0.280
-536.164	800.000	-0.081	-0.260
-535.150	-124.569	0.238	0.037
-534.135	-1.567	-0.189	-0.134
-533.121	-4.333	0.073	0.051
-532.106	-30.938	0.240	-0.137
-531.091	206.943	-0.073	-0.115
-530.077	522.167	-0.208	-0.492
-529.062	-200.000	-0.006	-0.318
-528.048	-31.457	0.312	0.177
-527.033	457.047	-0.167	0.374
-526.018	-38.836	-0.036	-0.019
-525.004	544.662	0.097	-0.232
-523.989	-79.095	-0.076	-0.026
-522.975	228.957	-0.060	-0.099
-521.960	-200.000	0.011	-0.099
-520.945	585.585	-0.070	-0.173
-519.931	28.794	-0.179	-0.153
-518.916	45.971	0.377	0.352
-517.902	-141.906	-0.092	0.009
-516.887	396.137	0.171	-0.360
-515.872	-103.718	-0.112	-0.026
-514.858	792.623	-0.087	0.241
-513.843	800.000	-0.043	0.119
-512.829	-49.704	0.283	0.136
-511.814	800.000	0.043	0.124
-510.799	-200.000	-0.024	-0.248
-509.785	292.898	0.137	0.251
-508.770	72.725	0.144	0.151
-507.756	-200.000	-0.018	0.173
-506.741	-55.463	0.136	-0.062
-505.726	-200.000	-0.019	0.163
-504.712	-147.129	0.262	-0.022
-503.697	218.859	0.142	-0.228
-502.683	800.000	-0.026	-0.073
-501.668	67.359	0.249	-0.256
-500.653	800.000	-0.091	-0.301
-499.639	-200.000	0.000	0.035
-498.624	-68.823	-0.470	-0.183
-497.610	-200.000	-0.018	-0.179
-496.595	-134.882	-0.292	0.036
-495.581	8.760	0.305	-0.231
-494.566	-79.074	-0.390	0.133
-493.551	88.887	-0.039	0.044
-492.537	106.995	0.216	0.258
-491.522	206.586	0.052	0.081
-490.508	270.621	0.166	0.293
-489.493	264.393	0.136	0.238
-488.478	-200.000	0.020	0.127
-487.464	32.624	0.063	0.054
-486.449	-123.038	0.094	0.015
-485.435	-118.718	0.178	-0.032
-484.420	99.382	-0.132	0.154
-483.405	-187.303	-0.158	0.002
-482.391	261.826	-0.146	0.254
-481.376	-200.000	-0.033	0.274
-480.362	291.605	-0.229	0.419
-479.347	186.530	0.055	0.083
-478.332	226.063	-0.067	-0.109
-477.318	788.546	-0.099	0.272
-476.303	-200.000	0.018	0.229
-475.289	27.215	-0.257	-0.217
-474.274	-142.481	0.253	0.025
-473.259	-200.000	0.016	-0.119
-472.245	-12.652	0.238	-0.156
-471.230	98.878	0.061	-0.071
-470.216	170.649	-0.022	-0.032
-469.201	91.287	0.096	-0.109
-468.186	-107.180	-0.355	0.079
-467.172	17.994	-0.359	0.287
-466.157	-155.134	-0.155	0.010
-465.143	474.568	0.040	-0.090
-464.128	-37.514	-0.275	-0.147
-463.113	238.740	-0.145	0.242
-462.099	-2.892	-0.203	0.142
-461.084	800.000	-0.067	-0.206
-460.070	-200.000	0.002	0.160
-459.055	239.269	-0.103	0.172
-458.040	524.812	0.107	0.253
-457.026	21.529	-0.120	0.098
-456.011	-200.000	-0.027	-0.266
-454.997	-30.981	0.220	0.125
-453.982	-64.409	0.291	-0.119
-452.968	800.000	-0.107	0.308
-451.953	-200.000	0.026	-0.153
-450.938	103.447	0.123	0.144
-449.924	117.738	-0.171	-0.211
-448.909	11.274	0.128	-0.098
-447.895	-200.000	0.000	0.186
-446.880	-200.000	-0.025	-0.254
-445.865	-60.439	0.177	-0.075
-444.851	-43.764	-0.257	-0.130
-443.836	-54.861	0.054	0.024
-442.822	339.030	0.120	-0.235
-441.807	-80.168	0.112	0.038
-440.792	-128.859	0.132	-0.019
-439.778	-11.168	-0.187	-0.124
-438.763	153.674	-0.099	0.136
-437.749	179.780	0.170	-0.249
-436.734	147.044	0.062	-0.083
-435.719	-200.000	0.021	-0.178
-434.705	480.444	-0.068	0.154
-433.690	186.411	-0.338	0.504
-432.676	382.610	0.144	0.297
-431.661	-89.568	-0.117	-0.035
-430.646	232.198	0.249	-0.410
-429.632	17.718	-0.133	0.106
-428.617	175.461	0.093	-0.135
-427.603	-55.241	0.292	-0.132
-426.588	-200.000	-0.036	0.276
-425.573	-200.000	0.036	-0.272
-424.559	335.366	0.044	0.086
-423.544	-28.084	0.374	0.217
-422.530	-200.000	-0.020	-0.330
-421.515	498.186	-0.107	0.247
-420.500	-12.922	0.142	-0.093
-419.486	516.475	-0.089	0.208
-418.471	108.609	-0.029	0.034
-417.457	554.388	0.094	-0.227
-416.442	-66.429	0.254	0.101
-415.428	226.091	0.148	-0.240
-414.413	10.351	0.090	-0.068
-413.398	170.869	-0.152	0.219
-412.384	98.752	-0.119	-0.137
-411.369	800.000	0.064	-0.204
-410.355	-20.215	0.115	0.071
-409.340	-200.000	0.001	-0.084
-408.325	-42.302	-0.239	0.123
-407.311	346.075	0.074	0.145
-406.296	800.000	0.042	-0.163
-405.282	-91.767	-0.197	0.056
-404.267	800.000	0.031	0.104
-403.252	-86.218	-0.080	0.025
-402.238	-128.470	0.447	-0.064
-401.223	366.268	0.083	-0.168
-400.209	23.592	-0.173	-0.143
-399.194	-171.921	0.120	0.004
-398.179	800.000	-0.030	-0.100
-397.165	-18.918	-0.292	0.182
-396.150	-181.064	0.433	0.009
-395.136	-89.294	0.189	-0.056
-394.121	-177.444	0.136	-0.003
-393.106	58.209	0.061	-0.060
-392.092	209.302	0.229	0.359
-391.077	-68.476	0.260	-0.101
-390.063	800.000	-0.061	0.249
-389.048	413.122	-0.109	0.232
-388.033	-15.897	0.266	0.169
-387.019	-200.000	0.024	-0.127
-386.004	-87.043	-0.259	0.079
-384.990	-56.335	0.292	0.130
-383.975	157.533	0.221	0.306
-382.960	-200.000	-0.027	-0.361
-381.946	-11.346	-0.138	0.091
-380.931	-119.796	0.447	-0.077
-379.917	487.038	0.176	-0.401
-378.902	-33.167	-0.325	-0.180
-377.888	-74.050	0.218	0.079
-376.873	300.303	0.218	0.403
-375.858	45.664	0.008	0.008
-374.844	-98.827	0.059	-0.015
-373.829	138.066	0.030	0.040
-372.815	-200.000	0.006	-0.330
-371.800	133.087	-0.089	0.116
-370.785	23.398	-0.022	0.018
-369.771	-46.776	0.091	0.045
-368.756	120.070	-0.230	0.285
-367.742	-37.155	-0.260	-0.139
-366.727	-52.524	-0.112	-0.052
-365.712	230.065	0.270	-0.442
-364.698	16.849	-0.155	-0.123
-363.683	37.124	-0.102	-0.090
-362.669	47.705	-0.094	-0.088
-361.654	228.877	0.087	0.142
-360.639	135.955	-0.200	-0.260
-359.625	-35.230	0.302	-0.164
-358.610	-105.074	0.046	0.011
-357.596	78.444	-0.126	-0.135
-356.581	-139.881	0.374	-0.040
-355.566	496.817	0.097	-0.222
-354.552	-81.197	0.177	0.059
-353.537	-31.904	0.169	0.095
-352.523	-200.000	-0.123	0.000
-351.508	800.000	-0.169	0.522
-350.493	18.415	0.088	-0.070
-349.479	800.000	0.050	0.169
-348.464	800.000	-0.051	-0.145
-347.450	139.213	-0.085	0.112
-346.435	800.000	-0.016	0.063
-345.420	-67.423	-0.429	0.168
-344.406	448.441	-0.181	0.400
-343.391	800.000	0.084	0.321
-342.377	110.611	0.200	0.241
-341.362	-200.000	0.001	-0.264
-340.348	411.864	-0.113	0.239
-339.333	-18.435	0.248	0.155
-338.318	166.800	-0.103	0.146
-337.304	198.339	0.010	0.016
-336.289	-200.000	0.062	0.391
-335.275	-146.664	-0.471	-0.041
-334.260	-200.000	-0.055	0.251
-333.245	624.518	0.055	-0.138
-332.231	-26.345	-0.221	-0.129
-331.216	59.566	0.241	0.238
-330.202	-200.000	-0.054	-0.235
-329.187	115.386	-0.141	0.173
-328.172	800.000	-0.095	-0.351
-327.158	-4.649	-0.216	0.149
-326.143	-200.000	-0.021	0.429
-325.129	-24.074	0.139	0.083
-324.114	800.000	-0.109	-0.440
-323.099	-57.056	-0.095	-0.042
-322.085	-13.230	0.336	0.218
-321.070	-82.115	-0.182	-0.059
-320.056	-200.000	0.021	0.129
-319.041	-29.146	-0.347	0.199
-318.026	656.386	0.097	0.248
-317.012	251.588	0.118	0.201
-315.997	-161.909	0.154	-0.008
-314.983	-108.100	-0.325	-0.070
-313.968	-173.824	0.388	0.011
-312.953	-200.000	-0.032	-0.380
-311.939	128.436	0.205	-0.260
-310.924	-91.507	0.186	-0.053
-309.910	-125.547	-0.290	0.044
-308.895	-68.462	-0.079	-0.031
-307.880	434.162	0.139	-0.301
-306.866	-118.956	0.105	-0.018
-305.851	1.916	-0.100	-0.072
-304.837	-18.196	-0.192	0.120
-303.822	265.807	-0.215	0.374
-302.807	-14.530	0.119	0.077
-301.793	98.754	-0.265	-0.306
-300.778	-109.593	0.116	0.024
-299.764	440.702	0.040	-0.088
-298.749	47.275	-0.180	-0.167
-297.735	-142.805	0.123	0.012
-296.720	800.000	-0.040	-0.138
-295.705	-59.283	-0.199	0.085
-294.691	-71.347	0.371	0.139
-293.676	800.000	-0.065	0.241
-292.662	67.413	-0.133	-0.136
-291.647	128.841	-0.047	0.059
-290.632	287.907	-0.161	-0.291
-289.618	-125.526	-0.102	-0.016
-288.603	185.513	0.095	-0.140
-287.589	-118.506	-0.114	-0.020
-286.574	-123.058	0.082	-0.013
-285.559	-57.508	0.117	-0.051
-284.545	-10.644	-0.286	0.189
-283.530	81.419	0.113	-0.122
-282.516	-112.246	-0.270	0.054
-281.501	71.978	0.096	0.100
-280.486	50.155	0.135	-0.127
-279.472	-13.771	-0.108	0.069
-278.457	14.832	0.103	0.081
-277.443	-174.425	0.127	-0.004
-276.428	520.661	0.135	-0.316
-275.413	-200.000	0.044	0.211
-274.399	239.346	-0.032	0.054
-273.384	-146.046	0.186	0.016
-272.370	800.000	0.070	0.206
-271.355	209.617	-0.153	-0.239
-270.340	-128.038	0.014	-0.002
-269.326	-200.000	-0.046	-0.223
-268.311	107.001	-0.192	0.228
-267.297	-134.115	0.120	-0.015
-266.282	379.014	0.215	0.439
-265.267	-200.000	-0.001	0.288
-264.253	586.878	0.074	-0.182
-263.238	-62.201	0.134	-0.056
-262.224	52.414	0.176	0.167
-261.209	-146.468	-0.358	0.031
-260.195	-109.310	0.255	-0.054
-259.180	-143.396	0.191	-0.018
-258.165	28.877	-0.044	0.037
-257.151	-178.085	-0.172	0.004
-256.136	-15.148	0.130	-0.083
-255.122	-12.441	-0.292	-0.190
-254.107	109.947	-0.416	-0.497
-253.092	-141.182	-0.321	0.033
-252.078	41.564	0.065	0.059
-251.063	-162.611	0.386	-0.019
-250.049	-200.000	-0.000	0.050
-249.034	-135.198	-0.127	-0.015
-248.019	-200.000	0.043	0.512
-247.005	56.301	0.295	0.286
-245.990	40.676	0.167	-0.150
-244.976	332.061	0.110	0.211
-243.961	114.292	-0.060	0.073
-242.946	-106.887	0.200	-0.044
-241.932	-126.926	0.220	-0.032
-240.917	265.033	-0.088	0.153
-239.903	-13.262	-0.042	0.027
-238.888	90.072	0.052	-0.058
-237.873	-71.917	-0.222	-0.082
-236.859	-200.000	0.016	-0.083
-235.844	-12.509	0.257	0.167
-234.830	182.618	-0.105	-0.154
-233.815	72.108	0.119	-0.123
-232.800	98.643	-0.187	0.215
-231.786	-115.073	0.263	0.050
-230.771	-200.000	0.015	0.198
-229.757	60.129	-0.089	-0.088
-228.742	800.000	0.078	0.233
-227.727	-68.134	0.341	-0.132
-226.713	-200.000	-0.003	-0.057
-225.698	78.614	0.123	0.131
-224.684	-125.795	-0.158	-0.024
-223.669	-24.993	0.149	-0.088
-222.655	185.250	-0.252	0.371
-221.640	-54.616	0.212	-0.095
-220.625	13.016	-0.143	0.110
-219.611	-134.647	0.400	0.048
-218.596	-26.638	0.286	-0.167
-217.582	-63.131	-0.224	-0.092
-216.567	-112.859	0.115	0.023
-215.552	-72.918	-0.244	0.089
-214.538	-41.273	-0.148	-0.076
-213.523	37.808	-0.131	0.116
-212.509	158.676	-0.106	0.147
-211.494	22.302	0.160	0.130
-210.479	166.532	-0.159	-0.224
-209.465	181.370	-0.104	0.152
-208.450	578.728	0.073	0.178
-207.436	183.306	-0.122	0.179
-206.421	-114.965	-0.157	0.030
-205.406	-59.945	0.244	-0.104
-204.392	-21.103	-0.086	0.052
-203.377	9.683	-0.267	-0.201
-202.363	-11.998	-0.126	-0.082
-201.348	800.000	-0.037	-0.131
-200.333	-28.136	-0.116	-0.066
-199.319	191.012	-0.168	0.251
-198.304	-160.860	0.186	-0.010
-197.290	162.539	-0.081	0.112
-196.275	110.415	-0.092	-0.110
-195.260	531.272	0.176	0.413
-194.246	-5.723	-0.062	0.042
-193.231	-119.182	-0.148	0.026
-192.217	-151.369	-0.236	-0.017
-191.202	334.061	0.115	-0.221
-190.187	-125.190	0.399	-0.061
-189.173	119.776	0.302	-0.372
-188.158	155.888	0.046	-0.062
-187.144	-200.000	-0.030	-0.144
-186.129	800.000	0.067	-0.266
-185.114	238.214	0.113	-0.186
-184.100	345.673	-0.074	-0.145
-183.085	-66.870	0.356	-0.140
-182.071	-76.537	0.270	-0.094
-181.056	-200.000	0.048	-0.321
-180.042	-91.468	0.199	0.056
-179.027	-193.720	-0.114	0.001
-178.012	-200.000	-0.020	0.228
-176.998	-105.356	0.240	0.054
-175.983	-200.000	-0.016	-0.233
-174.969	800.000	-0.160	-0.508
-173.954	-49.300	0.077	-0.037
-172.939	-22.991	-0.168	0.100
-171.925	-3.126	0.079	0.054
-170.910	125.146	-0.114	-0.143
-169.896	61.163	-0.055	-0.055
-168.881	578.213	-0.150	0.364
-167.866	-89.764	-0.202	-0.059
-166.852	-119.745	-0.279	0.048
-165.837	164.808	-0.107	0.149
-164.823	-200.000	-0.094	0.423
-163.808	-200.000	0.020	-0.089
-162.793	-10.445	-0.150	0.099
-161.779	-93.986	0.159	0.043
-160.764	42.731	-0.194	0.176
-159.750	-127.835	-0.205	0.029
-158.735	-200.000	-0.048	-0.324
-157.720	-200.000	-0.340	-0.001
-156.706	201.075	-0.075	-0.114
-155.691	800.000	0.051	0.166
-154.677	-200.000	-0.002	-0.216
-153.662	149.486	-0.213	-0.287
-152.647	-47.073	-0.375	0.182
-151.633	428.269	0.175	-0.376
-150.618	-200.000	0.004	-0.226
-149.604	-111.242	0.177	-0.036
-148.589	335.464	-0.105	-0.201
-147.574	-95.424	0.317	-0.085
-146.560	18.488	-0.106	0.084
-145.545	800.000	-0.059	-0.204
-144.531	-200.000	0.001	0.338
-143.516	-73.233	0.359	0.130
-142.502	800.000	-0.017	0.051
-141.487	-61.115	-0.106	0.044
-140.472	-200.000	0.022	-0.212
-139.458	800.000	-0.043	0.137
-138.443	800.000	-0.003	-0.009
-137.429	-200.000	-0.010	-0.409
-136.414	800.000	-0.052	0.165
-135.399	-34.038	0.572	0.312
-134.385	-138.241	0.206	-0.023
-133.370	-105.987	0.135	-0.030
-132.356	788.954	-0.006	-0.017
-131.341	-73.277	-0.206	0.075
-130.326	396.037	0.093	-0.192
-129.312	-24.703	-0.439	-0.259
-128.297	268.475	0.093	0.161
-127.283	-153.851	-0.378	-0.026
-126.268	120.160	-0.034	0.042
-125.253	730.269	-0.073	0.193
-124.239	800.000	-0.076	-0.212
-123.224	-95.939	-0.236	0.062
