DTS Sentinel unit serial number:	SN413079Multiplexer serial number:	ORYXHardware model number:	OX4-SRSoftware version number:	ORYX F/W v4.00 Oryx Data Collector v3.7.2.0data status	okinstallation	princeton_trtdifferential loss correction	single-endedforward channel	channel 3reverse channel	N/Adate	2019/09/13time	00:32:35forward acquisition time	60.00reverse acquisition time	0.00gamma	496.2192k internal	0.2331k external	0.2331temperature offset calibration	1.0124default loss term (dB/km)	0.3790temperature slope calibration	1.0000multiplexer offset coefficient	1.0000multiplexer slope coefficient	1.0000fibre end	0.00T internal ref (°C)	28.37T ext. ref 1 (°C)	3.72T ext. ref 2 (°C)	22.93length (m)	temperature (°C)	Stokes	anti-Stokes-747.200	-200.000	-0.027	0.252
-746.185	-34.322	-0.305	0.168
-745.171	37.376	-0.320	0.285
-744.156	-79.076	0.084	0.029
-743.142	-102.905	-0.128	-0.031
-742.127	529.817	-0.071	0.168
-741.112	29.629	-0.061	-0.052
-740.098	-28.798	0.203	0.117
-739.083	-33.189	-0.219	-0.122
-738.069	41.493	-0.194	0.177
-737.054	-200.000	0.020	0.283
-736.039	493.543	-0.009	0.021
-735.025	197.827	-0.091	0.139
-734.010	156.259	0.233	-0.323
-732.996	-36.882	-0.038	0.020
-731.981	800.000	0.062	-0.207
-730.966	800.000	0.011	-0.044
-729.952	-84.187	0.187	0.060
-728.937	-187.571	-0.213	-0.003
-727.923	66.181	-0.335	-0.342
-726.908	149.549	0.017	0.024
-725.894	-162.941	0.235	-0.011
-724.879	303.719	-0.119	-0.222
-723.864	-72.341	0.149	0.056
-722.850	245.454	-0.267	-0.451
-721.835	390.124	0.077	-0.161
-720.821	231.121	-0.207	-0.342
-719.806	-200.000	-0.003	0.110
-718.791	-17.787	0.276	0.174
-717.777	-23.473	0.166	-0.100
-716.762	53.136	-0.124	-0.120
-715.748	-73.783	0.062	0.023
-714.733	-200.000	0.040	-0.231
-713.718	-99.193	0.308	0.078
-712.704	-101.762	-0.364	-0.089
-711.689	322.133	0.072	-0.137
-710.675	-200.000	0.009	-0.051
-709.660	800.000	0.091	0.302
-708.645	79.596	-0.249	0.269
-707.631	-12.884	-0.248	0.162
-706.616	33.182	-0.196	0.171
-705.602	-36.296	0.140	0.076
-704.587	140.523	-0.108	-0.143
-703.572	-16.647	0.099	0.063
-702.558	-114.269	-0.280	-0.054
-701.543	-109.722	-0.133	0.028
-700.529	-37.981	-0.234	0.125
-699.514	4.205	-0.105	0.078
-698.499	6.387	-0.135	-0.101
-697.485	117.764	0.052	-0.064
-696.470	554.770	-0.090	-0.218
-695.456	354.800	0.118	0.235
-694.441	-51.892	-0.270	-0.126
-693.426	800.000	-0.042	-0.158
-692.412	-40.418	-0.512	0.267
-691.397	-200.000	0.015	-0.211
-690.383	57.712	-0.119	-0.116
-689.368	-104.867	-0.325	0.075
-688.354	800.000	0.057	0.203
-687.339	236.637	-0.173	-0.288
-686.324	-45.485	0.367	0.182
-685.310	272.273	0.174	0.308
-684.295	-39.380	-0.204	0.107
-683.281	113.616	-0.265	-0.323
-682.266	173.648	0.131	0.190
-681.251	-170.249	-0.169	-0.006
-680.237	800.000	0.041	0.177
-679.222	-139.045	0.186	0.020
-678.208	-200.000	-0.032	0.147
-677.193	303.160	-0.019	0.036
-676.178	164.848	-0.292	-0.413
-675.164	800.000	0.098	0.298
-674.149	-28.905	-0.289	-0.167
-673.135	-200.000	-0.014	0.213
-672.120	-80.378	0.291	0.098
-671.105	-14.851	-0.152	0.098
-670.091	-200.000	0.032	-0.437
-669.076	800.000	0.071	-0.276
-668.062	58.984	0.210	-0.207
-667.047	6.423	-0.152	-0.113
-666.032	-39.757	-0.200	0.105
-665.018	252.077	0.165	-0.281
-664.003	-111.069	-0.211	-0.043
-662.989	105.068	-0.349	-0.413
-661.974	218.230	0.138	-0.221
-660.959	-200.000	-0.023	0.177
-659.945	263.984	0.043	0.074
-658.930	800.000	-0.106	-0.304
-657.916	30.922	0.192	0.165
-656.901	144.677	-0.107	0.144
-655.886	159.814	-0.249	-0.348
-654.872	-14.601	-0.177	-0.114
-653.857	-200.000	-0.003	-0.136
-652.843	12.740	0.061	0.047
-651.828	254.445	0.080	0.138
-650.814	-25.452	0.522	0.310
-649.799	800.000	0.082	-0.302
-648.784	-200.000	0.011	0.115
-647.770	428.297	0.059	0.127
-646.755	3.618	-0.075	-0.055
-645.741	800.000	-0.055	-0.186
-644.726	471.229	-0.163	-0.368
-643.711	-13.284	-0.144	0.094
-642.697	-109.188	-0.219	-0.047
-641.682	758.085	-0.050	0.135
-640.668	-107.664	-0.248	-0.054
-639.653	-145.060	0.166	-0.015
-638.638	-59.734	-0.110	-0.047
-637.624	-112.788	-0.092	0.018
-636.609	213.253	-0.218	-0.345
-635.595	-38.074	-0.309	-0.164
-634.580	-92.190	-0.282	0.080
-633.565	255.126	0.179	-0.308
-632.551	109.782	0.066	-0.079
-631.536	-117.048	-0.122	-0.022
-630.522	201.763	0.034	0.052
-629.507	-57.513	0.110	-0.048
-628.492	7.489	-0.372	-0.279
-627.478	-29.170	-0.120	-0.069
-626.463	-144.239	0.145	-0.014
-625.449	-123.803	-0.075	-0.012
-624.434	32.833	0.180	-0.156
-623.419	800.000	-0.108	0.354
-622.405	356.769	0.259	0.517
-621.390	231.786	0.017	-0.029
-620.376	16.605	-0.240	-0.190
-619.361	607.704	0.106	0.266
-618.346	-43.959	-0.482	0.243
-617.332	465.931	-0.146	-0.327
-616.317	800.000	0.044	-0.139
-615.303	283.918	-0.118	-0.212
-614.288	-85.330	-0.194	-0.061
-613.273	-100.226	-0.190	-0.047
-612.259	-47.488	0.327	-0.159
-611.244	663.014	-0.053	-0.136
-610.230	-200.000	0.059	-0.286
-609.215	43.936	0.211	0.194
-608.201	43.154	-0.212	-0.194
-607.186	-92.353	-0.151	0.043
-606.171	-105.252	-0.206	0.047
-605.157	130.318	0.104	0.134
-604.142	246.391	0.115	-0.194
-603.128	-151.363	0.496	-0.037
-602.113	-200.000	0.003	0.141
-601.098	800.000	0.020	-0.084
-600.084	-118.213	-0.338	0.060
-599.069	-104.337	0.128	0.030
-598.055	156.725	-0.131	-0.181
-597.040	-131.807	0.358	-0.047
-596.025	286.515	0.172	-0.310
-595.011	-122.849	0.027	-0.004
-593.996	-68.117	0.109	-0.042
-592.982	800.000	0.063	-0.178
-591.967	-126.647	-0.128	-0.019
-590.952	800.000	-0.097	-0.269
-589.938	82.240	0.261	-0.284
-588.923	-2.248	-0.357	0.251
-587.909	-147.307	-0.076	0.006
-586.894	-200.000	-0.024	-0.236
-585.879	-143.050	0.228	0.022
-584.865	340.440	-0.055	-0.107
-583.850	800.000	0.046	-0.143
-582.836	-200.000	0.020	0.166
-581.821	-200.000	-0.038	0.285
-580.806	-99.273	-0.222	0.056
-579.792	-70.586	-0.247	0.094
-578.777	189.284	-0.175	-0.262
-577.763	365.317	0.103	0.208
-576.748	-19.916	0.174	0.108
-575.733	-45.594	-0.277	-0.137
-574.719	312.766	-0.097	-0.182
-573.704	-39.337	-0.340	0.178
-572.690	-116.149	-0.072	-0.013
-571.675	497.645	-0.133	-0.306
-570.661	-115.726	-0.270	-0.051
-569.646	227.737	-0.036	0.059
-568.631	-200.000	0.011	0.214
-567.617	800.000	0.060	-0.236
-566.602	-78.328	-0.057	-0.019
-565.588	389.353	0.080	-0.167
-564.573	-200.000	0.047	0.273
-563.558	800.000	-0.049	0.180
-562.544	-68.271	-0.029	-0.011
-561.529	272.601	-0.030	0.052
-560.515	-200.000	0.051	0.286
-559.500	800.000	0.079	0.265
-558.485	-103.164	0.249	-0.059
-557.471	-98.804	0.323	-0.082
-556.456	221.719	-0.124	-0.199
-555.442	-139.648	-0.147	0.016
-554.427	-200.000	-0.107	-0.000
-553.412	-166.677	-0.275	0.011
-552.398	-15.974	-0.060	-0.038
-551.383	800.000	0.019	-0.056
-550.369	-113.230	0.456	0.090
-549.354	800.000	-0.118	0.454
-548.339	61.325	-0.025	-0.025
-547.325	184.812	-0.132	-0.196
-546.310	-58.494	0.306	0.133
-545.296	-74.424	-0.221	-0.080
-544.281	-124.837	-0.250	0.039
-543.266	345.055	-0.018	-0.036
-542.252	-200.000	-0.040	-0.326
-541.237	-85.206	-0.365	0.114
-540.223	-187.487	0.309	0.004
-539.208	800.000	-0.069	0.215
-538.193	87.857	-0.149	-0.164
-537.179	-58.736	-0.288	0.125
-536.164	-51.446	-0.231	-0.108
-535.150	179.830	0.162	-0.238
-534.135	-119.994	0.109	0.019
-533.121	-171.502	-0.341	-0.011
-532.106	484.707	0.052	0.117
-531.091	-18.912	-0.088	-0.055
-530.077	42.489	0.312	-0.283
-529.062	800.000	0.112	-0.489
-528.048	-148.983	-0.127	0.010
-527.033	17.557	0.214	0.169
-526.018	-92.022	-0.318	0.090
-525.004	8.859	0.210	0.158
-523.989	800.000	0.071	0.223
-522.975	41.479	-0.095	-0.086
-521.960	-200.000	-0.034	-0.353
-520.945	-27.440	-0.241	0.140
-519.931	-200.000	0.033	0.430
-518.916	-108.482	0.155	-0.033
-517.902	-138.579	0.099	0.011
-516.887	-121.286	0.216	0.036
-515.872	180.221	0.072	0.106
-514.858	-200.000	-0.003	-0.272
-513.843	-171.390	0.182	0.006
-512.829	289.849	-0.098	0.177
-511.814	8.290	-0.267	-0.200
-510.799	251.763	0.033	0.056
-509.785	116.144	0.065	-0.080
-508.770	-100.294	0.235	-0.058
-507.756	28.498	-0.212	-0.179
-506.741	185.413	-0.139	0.205
-505.726	-141.816	0.277	0.028
-504.712	104.645	-0.170	0.200
-503.697	-102.821	-0.078	-0.018
-502.683	159.858	0.061	-0.084
-501.668	25.200	-0.124	-0.103
-500.653	63.158	0.155	-0.155
-499.639	313.937	0.101	0.189
-498.624	-200.000	-0.014	-0.269
-497.610	-39.705	-0.404	0.211
-496.595	800.000	0.031	-0.133
-495.581	76.818	-0.350	0.370
-494.566	800.000	-0.029	-0.103
-493.551	800.000	-0.107	-0.327
-492.537	86.668	0.239	-0.263
-491.522	95.568	-0.130	-0.148
-490.508	-104.787	-0.320	0.073
-489.493	-40.711	-0.182	0.094
-488.478	-64.883	0.554	0.223
-487.464	174.868	0.079	-0.114
-486.449	499.715	0.080	0.183
-485.435	-87.008	-0.278	-0.084
-484.420	-90.561	0.201	-0.058
-483.405	328.400	-0.213	-0.408
-482.391	-91.380	0.123	0.035
-481.376	184.882	-0.074	0.109
-480.362	-200.000	-0.023	0.103
-479.347	-34.915	0.231	0.126
-478.332	-200.000	-0.072	0.379
-477.318	800.000	0.033	-0.137
-476.303	-83.691	-0.172	0.055
-475.289	189.917	0.135	0.202
-474.274	-43.389	-0.219	-0.110
-473.259	-200.000	0.016	-0.255
-472.245	-107.868	0.200	-0.043
-471.230	-22.238	0.078	-0.047
-470.216	744.229	0.061	-0.163
-469.201	800.000	-0.043	0.173
-468.186	254.388	-0.031	-0.053
-467.172	-200.000	-0.082	-0.426
-466.157	-71.716	0.130	-0.048
-465.143	-99.250	-0.356	0.090
-464.128	-123.825	-0.073	-0.011
-463.113	-200.000	-0.016	0.077
-462.099	800.000	0.087	0.343
-461.084	-200.000	-0.039	0.249
-460.070	-200.000	0.025	-0.174
-459.055	361.672	-0.202	-0.403
-458.040	-54.888	-0.275	-0.123
-457.026	10.593	0.269	-0.204
-456.011	-200.000	0.007	0.153
-454.997	-200.000	0.024	-0.123
-453.982	160.638	-0.082	-0.114
-452.968	40.650	-0.211	0.189
-451.953	-122.489	-0.025	-0.004
-450.938	800.000	-0.078	0.255
-449.924	-147.654	0.316	-0.026
-448.909	-47.547	-0.160	-0.077
-447.895	-59.095	-0.046	-0.020
-446.880	-200.000	-0.004	0.128
-445.865	46.331	0.168	-0.155
-444.851	71.639	0.219	-0.227
-443.836	-110.021	0.103	0.021
-442.822	-180.177	0.390	-0.008
-441.807	260.686	-0.086	0.148
-440.792	-200.000	-0.007	0.035
-439.778	-200.000	-0.022	-0.162
-438.763	-151.665	-0.243	-0.018
-437.749	-75.378	0.172	-0.061
-436.734	-200.000	-0.001	0.028
-435.719	-83.643	-0.467	-0.148
-434.705	-71.249	-0.154	-0.058
-433.690	-127.583	-0.245	0.035
-432.676	356.068	-0.108	-0.215
-431.661	483.215	-0.085	0.191
-430.646	-1.637	0.231	-0.162
-429.632	800.000	-0.058	0.247
-428.617	23.595	0.205	0.168
-427.603	115.768	-0.150	0.183
-426.588	309.055	0.134	0.250
-425.573	42.151	-0.024	0.022
-424.559	-87.133	-0.231	-0.070
-423.544	84.152	-0.226	0.246
-422.530	-45.998	-0.095	0.047
-421.515	8.744	-0.091	-0.068
-420.500	-65.366	0.275	-0.110
-419.486	-70.808	0.158	-0.059
-418.471	-69.651	-0.301	-0.115
-417.457	-72.525	0.241	0.089
-416.442	-168.534	0.230	0.009
-415.428	61.846	0.054	0.054
-414.413	-33.743	-0.340	0.186
-413.398	291.789	-0.201	-0.363
-412.384	152.872	-0.145	0.197
-411.369	2.209	-0.193	0.139
-410.355	-100.460	-0.238	0.059
-409.340	800.000	0.039	0.156
-408.325	-152.890	-0.211	-0.015
-407.311	-164.113	-0.185	-0.008
-406.296	-200.000	0.042	-0.262
-405.282	-138.726	-0.503	0.055
-404.267	-131.669	0.218	0.028
-403.252	110.454	0.150	-0.179
-402.238	-200.000	-0.004	0.148
-401.223	-10.927	0.463	0.304
-400.209	800.000	-0.065	0.231
-399.194	-172.407	0.445	0.014
-398.179	208.721	0.132	-0.205
-397.165	93.062	0.162	0.181
-396.150	800.000	-0.038	0.131
-395.136	167.429	0.057	-0.080
-394.121	440.742	-0.081	-0.176
-393.106	70.380	-0.084	-0.086
-392.092	-81.612	0.075	0.025
-391.077	27.722	-0.158	0.132
-390.063	773.283	0.127	-0.345
-389.048	196.068	-0.218	-0.330
-388.033	620.963	0.170	-0.425
-387.019	-200.000	-0.004	-0.070
-386.004	800.000	-0.027	-0.084
-384.990	34.663	-0.078	0.068
-383.975	-147.654	-0.349	-0.029
-382.960	-80.529	0.337	-0.112
-381.946	-44.922	-0.154	0.076
-380.931	-200.000	0.006	0.298
-379.917	69.299	0.045	0.046
-378.902	122.457	-0.067	-0.082
-377.888	-68.088	0.335	0.129
-376.873	-200.000	0.025	-0.151
-375.858	-15.833	-0.217	-0.137
-374.844	263.712	0.109	-0.188
-373.829	28.117	0.392	-0.328
-372.815	428.883	-0.125	-0.268
-371.800	-200.000	0.008	-0.115
-370.785	-64.084	-0.126	0.051
-369.771	65.437	-0.138	0.138
-368.756	179.474	-0.151	-0.220
-367.742	173.469	0.128	-0.183
-366.727	-200.000	0.037	-0.229
-365.712	-164.323	-0.369	-0.017
-364.698	577.108	0.032	-0.077
-363.683	110.736	0.185	0.220
-362.669	60.507	-0.171	0.168
-361.654	-114.761	0.349	-0.066
-360.639	-200.000	-0.011	0.057
-359.625	-54.344	0.047	0.021
-358.610	-38.576	0.140	0.073
-357.596	-93.503	-0.303	0.083
-356.581	-7.656	-0.059	0.039
-355.566	21.630	-0.229	0.185
-354.552	-184.115	0.303	0.005
-353.537	336.472	0.055	-0.106
-352.523	-55.011	0.265	-0.118
-351.508	-74.299	0.217	0.078
-350.493	37.597	0.262	-0.231
-349.479	-107.244	-0.228	0.050
-348.464	-3.310	-0.095	-0.066
-347.450	-112.174	0.012	0.002
-346.435	800.000	0.057	0.177
-345.420	123.500	-0.043	-0.053
-344.406	-200.000	-0.017	0.183
-343.391	-62.957	0.176	0.072
-342.377	513.152	0.069	0.159
-341.362	284.921	0.068	0.121
-340.348	-81.447	-0.113	0.037
-339.333	-90.923	0.099	-0.028
-338.318	-79.656	-0.115	0.039
-337.304	46.911	0.078	-0.072
-336.289	-147.539	-0.111	-0.009
-335.275	-200.000	0.008	0.048
-334.260	-200.000	-0.006	0.065
-333.245	-34.379	0.100	0.054
-332.231	-200.000	0.033	-0.382
-331.216	-75.614	-0.123	0.043
-330.202	-79.026	0.390	0.131
-329.187	32.980	-0.128	0.110
-328.172	-97.523	-0.618	0.159
-327.158	-200.000	-0.046	-0.285
-326.143	-77.806	0.077	0.027
-325.129	163.303	0.175	0.244
-324.114	800.000	0.041	0.132
-323.099	-67.641	-0.149	-0.058
-322.085	26.600	-0.069	0.057
-321.070	-81.287	-0.044	-0.014
-320.056	7.989	-0.043	0.032
-319.041	571.934	0.156	0.376
-318.026	-75.980	0.151	-0.053
-317.012	-116.628	0.186	0.034
-315.997	-200.000	0.011	0.102
-314.983	162.617	0.200	-0.278
-313.968	33.363	0.056	-0.048
-312.953	-173.817	0.136	0.004
-311.939	32.760	-0.205	0.176
-310.924	2.620	0.230	-0.165
-309.910	78.627	0.071	-0.075
-308.895	-128.682	-0.172	-0.024
-307.880	568.306	0.099	0.239
-306.866	800.000	0.039	-0.165
-305.851	37.463	-0.206	-0.181
-304.837	800.000	-0.075	-0.271
-303.822	-200.000	-0.064	0.464
-302.807	-200.000	-0.009	-0.092
-301.793	516.553	0.014	0.033
-300.778	-68.075	-0.200	0.077
-299.764	209.164	0.038	-0.059
-298.749	-74.419	0.177	0.063
-297.735	-145.138	0.465	0.042
-296.720	-34.978	-0.205	0.111
-295.705	157.075	0.125	-0.170
-294.691	-200.000	0.001	-0.094
-293.676	94.103	0.082	0.092
-292.662	18.508	-0.135	0.107
-291.647	680.681	-0.119	0.306
-290.632	-78.132	0.210	0.071
-289.618	-101.905	0.136	0.032
-288.603	-200.000	0.076	-0.336
-287.589	-200.000	-0.042	0.210
-286.574	10.642	-0.088	0.066
-285.559	141.955	0.107	-0.140
-284.545	-62.370	-0.172	-0.071
-283.530	-14.576	-0.102	0.065
-282.516	-200.000	-0.046	-0.411
-281.501	99.208	-0.065	-0.075
-280.486	60.175	-0.119	-0.117
-279.472	527.973	-0.119	0.276
-278.457	-103.036	-0.042	-0.010
-277.443	63.634	0.416	0.412
-276.428	-180.169	0.343	-0.007
-275.413	133.047	-0.244	-0.311
-274.399	-200.000	0.011	0.050
-273.384	-200.000	0.094	-0.411
-272.370	141.830	-0.156	0.204
-271.355	292.672	-0.075	0.135
-270.340	800.000	0.103	0.302
-269.326	-49.922	0.154	-0.072
-268.311	-200.000	0.012	-0.094
-267.297	-200.000	-0.022	0.103
-266.282	172.413	0.069	0.098
-265.267	-200.000	-0.027	0.356
-264.253	137.841	-0.126	0.163
-263.238	-111.587	0.375	-0.075
-262.224	170.606	0.121	0.171
-261.209	24.883	-0.173	0.142
-260.195	153.011	-0.094	0.127
-259.180	103.625	0.098	0.114
-258.165	275.774	0.009	-0.016
-257.151	-81.831	-0.193	-0.062
-256.136	-40.540	0.289	-0.148
-255.122	800.000	0.078	-0.283
-254.107	-107.391	0.283	-0.061
-253.092	-200.000	-0.040	-0.296
-252.078	-126.527	-0.058	0.009
-251.063	101.092	-0.064	0.074
-250.049	69.273	-0.160	-0.162
-249.034	-69.935	0.203	0.076
-248.019	-109.315	-0.125	0.026
-247.005	-47.708	0.282	0.135
-245.990	-40.010	-0.341	-0.175
-244.976	32.345	-0.240	0.204
-243.961	-14.689	-0.110	0.070
-242.946	-85.769	-0.175	0.053
-241.932	113.670	0.238	-0.285
-240.917	-200.000	0.011	0.088
-239.903	-43.124	0.217	0.108
-238.888	-134.680	0.237	0.028
-237.873	34.281	-0.141	-0.121
-236.859	1.566	0.104	-0.074
-235.844	-96.638	0.282	0.073
-234.830	-87.055	0.117	-0.035
-233.815	-200.000	0.020	-0.113
-232.800	-126.506	0.240	0.035
-231.786	-130.055	-0.435	0.059
-230.771	-200.000	0.001	-0.051
-229.757	-70.571	-0.277	0.103
-228.742	-116.043	0.274	0.050
-227.727	221.077	-0.087	0.137
-226.713	800.000	0.039	-0.115
-225.698	-50.126	-0.265	0.124
-224.684	-200.000	0.006	-0.214
-223.669	800.000	0.073	0.305
-222.655	516.873	0.036	0.083
-221.640	-200.000	0.019	0.215
-220.625	-200.000	0.091	0.424
-219.611	338.857	0.067	-0.129
-218.596	-200.000	-0.006	-0.042
-217.582	-200.000	0.016	0.155
-216.567	423.305	0.064	0.135
-215.552	-94.685	0.075	-0.020
-214.538	-43.037	-0.126	0.063
-213.523	1.143	0.125	-0.088
-212.509	-121.211	0.567	0.094
-211.494	800.000	0.058	-0.242
-210.479	228.272	-0.155	0.249
-209.465	800.000	-0.101	-0.284
-208.450	-120.844	0.080	-0.013
-207.436	800.000	-0.028	-0.097
-206.421	351.633	-0.036	-0.070
-205.406	-81.957	0.173	0.056
-204.392	800.000	0.009	-0.035
-203.377	79.105	0.185	0.195
-202.363	-184.630	0.334	0.005
-201.348	-154.950	0.109	0.007
-200.333	-27.519	0.186	0.106
-199.319	42.047	0.315	0.282
-198.304	19.205	0.126	-0.100
-197.290	100.074	-0.161	-0.184
-196.275	-20.412	-0.189	0.114
-195.260	-154.470	0.501	0.033
-194.246	-200.000	0.059	-0.302
-193.231	-44.740	0.271	0.133
-192.217	800.000	0.108	0.329
-191.202	-191.524	0.133	0.001
-190.187	-188.738	0.323	-0.004
-189.173	297.933	-0.263	0.476
-188.158	58.229	0.116	-0.112
-187.144	-200.000	0.024	-0.179
-186.129	-69.000	0.239	0.091
-185.114	-200.000	-0.005	0.418
-184.100	800.000	-0.071	0.209
-183.085	35.764	-0.087	-0.076
-182.071	-26.132	0.323	-0.187
-181.056	675.034	0.137	0.350
-180.042	-124.201	-0.087	-0.013
-179.027	65.129	-0.220	0.219
-178.012	9.646	0.115	-0.086
-176.998	-200.000	-0.038	-0.237
-175.983	247.787	0.139	0.232
-174.969	42.687	-0.204	0.183
-173.954	-92.287	-0.126	-0.035
-172.939	8.078	-0.036	0.026
-171.925	103.737	-0.086	0.099
-170.910	-52.518	0.263	0.120
-169.896	-46.372	-0.260	-0.126
-168.881	567.780	-0.085	0.204
-167.866	-99.833	0.102	0.025
-166.852	-59.446	0.096	0.041
-165.837	800.000	0.023	-0.094
-164.823	800.000	0.061	0.242
-163.808	-109.175	-0.327	0.068
-162.793	158.476	0.250	0.341
-161.779	-38.896	-0.324	-0.168
-160.764	-57.787	0.443	0.191
-159.750	19.987	0.113	0.090
-158.735	401.693	0.183	0.379
-157.720	-17.037	0.272	-0.169
-156.706	121.854	0.051	0.063
-155.691	535.618	-0.144	-0.335
-154.677	-105.291	-0.116	0.026
-153.662	27.864	-0.138	-0.114
-152.647	276.471	0.092	-0.161
-151.633	-58.047	0.025	-0.011
-150.618	-21.834	-0.050	0.030
-149.604	317.172	-0.162	0.302
-148.589	-200.000	0.003	-0.148
-147.574	-16.916	-0.068	0.043
-146.560	151.818	0.159	-0.213
-145.545	239.929	-0.150	-0.246
-144.531	800.000	0.103	-0.348
-143.516	-200.000	0.064	-0.316
-142.502	800.000	-0.120	0.379
-141.487	701.661	0.066	-0.171
-140.472	-180.010	0.148	0.003
-139.458	26.234	0.105	-0.086
-138.443	633.796	-0.178	0.442
-137.429	114.668	-0.144	-0.172
-136.414	-70.359	-0.090	-0.034
-135.399	285.544	-0.054	-0.095
-134.385	-44.912	0.095	-0.046
-133.370	-162.572	0.488	-0.024
-132.356	82.805	0.117	-0.125
-131.341	-200.000	-0.094	0.501
-130.326	800.000	-0.178	0.548
-129.312	-73.057	0.118	0.042
-128.297	76.757	-0.317	-0.330
-127.283	312.879	0.134	-0.248
-126.268	-200.000	0.030	-0.140
-125.253	24.692	-0.205	0.167
-124.239	-51.698	0.211	0.097
-123.224	-127.268	-0.274	-0.039
-122.210	7.987	0.381	-0.281
-121.195	-171.475	0.248	0.008
