DTS Sentinel unit serial number:	SN413079Multiplexer serial number:	ORYXHardware model number:	OX4-SRSoftware version number:	ORYX F/W v4.00 Oryx Data Collector v3.7.2.0data status	okinstallation	princeton_trtdifferential loss correction	single-endedforward channel	channel 3reverse channel	N/Adate	2019/09/18time	10:24:34forward acquisition time	60.00reverse acquisition time	0.00gamma	496.2192k internal	0.2331k external	0.2331temperature offset calibration	0.9955default loss term (dB/km)	0.3790temperature slope calibration	1.0000multiplexer offset coefficient	1.0000multiplexer slope coefficient	1.0000fibre end	0.00T internal ref (°C)	28.19T ext. ref 1 (°C)	0.34T ext. ref 2 (°C)	24.74length (m)	temperature (°C)	Stokes	anti-Stokes-747.200	58.802	0.275	-0.272
-746.185	37.781	0.100	0.089
-745.171	-200.000	-0.042	0.226
-744.156	-200.000	0.029	0.176
-743.142	16.600	-0.428	0.340
-742.127	-147.615	-0.431	0.037
-741.112	389.448	0.160	-0.334
-740.098	-39.854	-0.246	0.129
-739.083	-98.427	-0.375	-0.097
-738.069	-200.000	0.042	0.523
-737.054	-122.001	-0.308	0.051
-736.039	-200.000	-0.046	-0.257
-735.025	14.214	0.210	0.165
-734.010	132.724	-0.116	-0.151
-732.996	762.095	0.126	-0.343
-731.981	-187.653	-0.310	-0.004
-730.966	-26.630	-0.210	0.123
-729.952	349.078	0.073	-0.146
-728.937	800.000	0.053	-0.213
-727.923	-189.297	-0.090	0.001
-726.908	-178.711	-0.266	-0.006
-725.894	-134.820	-0.209	-0.025
-724.879	-200.000	-0.048	-0.302
-723.864	0.473	0.064	-0.046
-722.850	200.756	0.071	-0.109
-721.835	90.532	-0.139	-0.157
-720.821	800.000	0.065	-0.203
-719.806	269.718	-0.139	-0.245
-718.791	-200.000	-0.011	-0.119
-717.777	300.754	0.194	-0.361
-716.762	-152.523	-0.327	0.024
-715.748	800.000	0.077	-0.279
-714.733	30.165	0.021	0.018
-713.718	-200.000	0.015	-0.328
-712.704	16.837	0.159	0.126
-711.689	-25.308	0.048	0.029
-710.675	31.628	-0.128	-0.111
-709.660	-200.000	0.034	-0.247
-708.645	229.215	0.098	-0.161
-707.631	120.739	-0.072	0.090
-706.616	-52.597	-0.270	0.126
-705.602	-16.922	0.108	0.069
-704.587	-132.887	-0.297	0.038
-703.572	800.000	-0.062	0.192
-702.558	18.601	0.223	-0.179
-701.543	444.849	-0.054	0.119
-700.529	800.000	-0.100	0.306
-699.514	-200.000	-0.007	0.244
-698.499	-23.441	-0.218	0.132
-697.485	86.614	-0.052	0.057
-696.470	173.820	0.191	-0.278
-695.456	-200.000	0.026	0.299
-694.441	-54.821	0.288	-0.131
-693.426	-14.431	0.048	-0.031
-692.412	-148.607	-0.353	0.029
-691.397	274.185	0.105	0.187
-690.383	-200.000	-0.000	-0.207
-689.368	800.000	-0.120	-0.414
-688.354	47.387	0.110	-0.103
-687.339	-80.463	-0.290	0.097
-686.324	262.253	-0.048	0.084
-685.310	-27.548	0.358	-0.209
-684.295	800.000	-0.014	-0.043
-683.281	80.377	-0.137	0.148
-682.266	-88.546	0.209	-0.063
-681.251	-151.174	-0.262	0.020
-680.237	331.452	-0.178	-0.345
-679.222	-200.000	0.000	-0.152
-678.208	137.721	-0.163	-0.214
-677.193	17.921	0.101	-0.081
-676.178	-200.000	-0.007	0.042
-675.164	-145.017	-0.242	0.022
-674.149	800.000	-0.109	0.367
-673.135	-198.968	-0.114	0.001
-672.120	-200.000	0.086	-0.416
-671.105	-23.119	0.065	0.039
-670.091	-62.948	0.102	-0.042
-669.076	-200.000	0.008	-0.279
-668.062	-200.000	-0.030	0.292
-667.047	-87.686	0.512	-0.155
-666.032	240.746	0.013	0.022
-665.018	110.834	-0.019	-0.023
-664.003	1.970	-0.093	-0.067
-662.989	-176.732	-0.198	0.005
-661.974	337.328	-0.134	0.262
-660.959	93.990	0.132	-0.150
-659.945	-56.181	0.131	-0.058
-658.930	-45.478	-0.289	0.144
-657.916	-200.000	0.002	0.319
-656.901	-200.000	0.003	0.132
-655.886	-132.844	0.125	0.016
-654.872	57.509	-0.131	-0.129
-653.857	800.000	-0.125	-0.513
-652.843	347.490	-0.063	-0.124
-651.828	-139.427	-0.071	-0.008
-650.814	-200.000	0.049	-0.297
-649.799	-112.479	-0.194	0.039
-648.784	150.434	-0.131	-0.178
-647.770	-84.839	-0.220	-0.069
-646.755	92.289	-0.144	-0.163
-645.741	-200.000	-0.011	0.131
-644.726	800.000	0.068	0.207
-643.711	-89.575	-0.150	-0.044
-642.697	39.778	-0.177	-0.159
-641.682	-200.000	0.004	-0.056
-640.668	97.652	-0.124	0.143
-639.653	137.025	-0.058	-0.075
-638.638	71.849	-0.148	-0.154
-637.624	800.000	-0.110	-0.340
-636.609	-151.669	0.382	0.028
-635.595	-97.667	-0.266	0.069
-634.580	287.173	-0.125	-0.227
-633.565	-28.353	0.118	0.068
-632.551	72.783	0.166	0.174
-631.536	569.263	-0.167	0.407
-630.522	97.676	-0.073	0.084
-629.507	800.000	-0.070	0.217
-628.492	-0.705	-0.336	0.239
-627.478	800.000	-0.010	-0.027
-626.463	-200.000	-0.009	-0.304
-625.449	-200.000	0.020	-0.225
-624.434	-200.000	0.023	-0.192
-623.419	-4.660	0.136	0.094
-622.405	273.350	-0.189	-0.335
-621.390	84.274	0.091	-0.099
-620.376	123.559	-0.209	-0.263
-619.361	83.073	0.102	0.111
-618.346	502.809	0.148	-0.343
-617.332	32.503	-0.138	0.119
-616.317	-90.435	0.256	0.074
-615.303	207.436	-0.047	0.073
-614.288	-200.000	-0.037	-0.446
-613.273	-200.000	-0.009	-0.154
-612.259	525.248	-0.158	0.371
-611.244	405.783	-0.120	0.253
-610.230	-154.540	0.261	-0.017
-609.215	51.782	-0.245	0.234
-608.201	-200.000	-0.016	0.105
-607.186	136.849	0.080	-0.105
-606.171	800.000	-0.072	0.226
-605.157	-200.000	-0.012	-0.091
-604.142	-111.051	-0.419	-0.086
-603.128	103.559	0.111	-0.131
-602.113	73.567	0.320	-0.335
-601.098	65.603	-0.199	-0.202
-600.084	-168.663	0.148	-0.006
-599.069	88.150	-0.251	-0.279
-598.055	51.387	0.130	0.123
-597.040	55.015	0.135	0.130
-596.025	592.195	-0.024	-0.058
-595.011	227.403	0.099	0.161
-593.996	114.461	0.060	0.073
-592.982	-133.174	0.211	0.027
-591.967	-118.643	0.462	-0.082
-590.952	47.323	0.297	0.277
-589.938	-128.298	-0.315	-0.045
-588.923	-122.957	-0.293	0.047
-587.909	163.372	0.090	-0.127
-586.894	-87.008	0.126	0.039
-585.879	158.001	0.069	-0.096
-584.865	4.549	-0.300	-0.220
-583.850	-120.125	0.223	0.038
-582.836	52.541	0.166	0.159
-581.821	231.106	-0.061	-0.100
-580.806	-129.066	0.273	-0.038
-579.792	115.827	-0.198	-0.242
-578.777	145.008	0.200	0.267
-577.763	-200.000	0.096	0.455
-576.748	-200.000	0.014	-0.108
-575.733	-200.000	0.015	-0.163
-574.719	108.197	-0.110	-0.131
-573.704	-200.000	0.042	-0.239
-572.690	800.000	-0.026	0.074
-571.675	39.352	-0.146	0.131
-570.661	-76.173	-0.104	-0.037
-569.646	31.247	0.057	0.049
-568.631	-67.283	0.246	-0.097
-567.617	483.239	-0.137	-0.311
-566.602	-200.000	0.001	-0.099
-565.588	800.000	-0.073	0.313
-564.573	314.490	-0.032	-0.061
-563.558	-122.102	0.214	-0.035
-562.544	-32.410	0.270	0.151
-561.529	170.282	0.248	0.355
-560.515	-200.000	-0.022	0.168
-559.500	800.000	-0.062	-0.190
-558.485	-40.463	0.251	0.130
-557.471	-71.868	-0.135	-0.050
-556.456	-154.321	0.133	-0.009
-555.442	-138.573	0.130	0.014
-554.427	-40.205	0.274	-0.143
-553.412	-81.654	0.073	0.024
-552.398	-200.000	-0.001	-0.371
-551.383	800.000	-0.084	-0.284
-550.369	800.000	-0.033	0.122
-549.354	289.000	-0.051	0.092
-548.339	-133.806	-0.330	-0.041
-547.325	-128.388	-0.215	0.031
-546.310	114.352	0.105	0.128
-545.296	34.293	-0.041	0.035
-544.281	-200.000	-0.002	0.090
-543.266	800.000	-0.016	0.068
-542.252	-200.000	-0.068	-0.366
-541.237	-58.282	0.163	-0.071
-540.223	161.909	0.182	-0.255
-539.208	-200.000	0.047	0.315
-538.193	6.187	-0.213	0.158
-537.179	800.000	-0.091	-0.303
-536.164	87.083	-0.057	0.063
-535.150	800.000	0.083	-0.325
-534.135	-74.433	-0.263	0.095
-533.121	-200.000	-0.025	-0.154
-532.106	338.003	0.058	-0.113
-531.091	284.460	0.098	0.176
-530.077	800.000	-0.078	-0.295
-529.062	800.000	0.053	-0.148
-528.048	-45.241	0.165	-0.082
-527.033	8.739	-0.080	-0.060
-526.018	800.000	-0.057	0.186
-525.004	211.140	0.052	0.082
-523.989	-51.879	-0.070	0.032
-522.975	800.000	0.063	0.187
-521.960	-167.192	-0.234	0.009
-520.945	245.157	0.085	0.143
-519.931	800.000	-0.066	0.203
-518.916	95.950	0.143	0.163
-517.902	-31.155	0.258	0.145
-516.887	-200.000	-0.016	0.119
-515.872	148.245	0.164	-0.221
-514.858	-200.000	0.025	0.120
-513.843	800.000	0.035	0.102
-512.829	-195.437	-0.064	0.000
-511.814	-200.000	-0.021	0.129
-510.799	-200.000	-0.029	-0.285
-509.785	221.309	-0.203	-0.326
-508.770	67.676	0.084	0.085
-507.756	28.212	-0.318	0.267
-506.741	-65.315	-0.172	-0.069
-505.726	158.411	0.187	-0.258
-504.712	-40.685	-0.232	0.120
-503.697	21.106	0.043	-0.034
-502.683	-200.000	-0.004	0.043
-501.668	-200.000	-0.026	-0.150
-500.653	261.309	-0.060	0.103
-499.639	-200.000	0.015	0.296
-498.624	83.523	-0.165	-0.179
-497.610	-200.000	0.022	0.259
-496.595	-200.000	-0.037	-0.274
-495.581	90.885	-0.056	0.063
-494.566	34.065	-0.163	-0.142
-493.551	741.364	0.116	-0.309
-492.537	463.307	-0.236	-0.525
-491.522	800.000	0.030	0.129
-490.508	-156.768	-0.164	-0.010
-489.493	-8.310	0.225	-0.151
-488.478	-166.119	-0.231	-0.010
-487.464	-200.000	0.013	0.125
-486.449	-35.710	0.347	0.188
-485.435	-200.000	-0.004	-0.238
-484.420	122.727	-0.048	-0.059
-483.405	-149.170	0.090	-0.007
-482.391	-200.000	0.035	-0.342
-481.376	-50.116	-0.212	0.100
-480.362	-31.354	-0.391	0.219
-479.347	-200.000	-0.043	0.288
-478.332	-109.434	0.287	0.061
-477.318	-59.579	-0.147	0.063
-476.303	-200.000	0.009	0.089
-475.289	-104.527	-0.370	0.085
-474.274	-61.138	-0.165	0.069
-473.259	800.000	0.105	0.365
-472.245	143.111	0.187	0.247
-471.230	-25.423	-0.141	-0.083
-470.216	25.561	-0.188	0.156
-469.201	-52.465	-0.225	-0.103
-468.186	800.000	0.054	0.159
-467.172	-119.256	0.038	-0.007
-466.157	-109.750	-0.258	-0.054
-465.143	-200.000	0.009	0.095
-464.128	800.000	0.117	0.386
-463.113	800.000	-0.023	0.067
-462.099	1.046	0.284	0.203
-461.084	169.326	-0.153	-0.217
-460.070	712.935	-0.115	0.302
-459.055	-22.569	0.324	-0.195
-458.040	-11.716	0.391	-0.256
-457.026	244.473	0.117	0.196
-456.011	-174.670	-0.172	-0.005
-454.997	-120.828	-0.102	-0.017
-453.982	-102.178	0.379	0.091
-452.968	31.567	0.294	-0.251
-451.953	-94.915	-0.136	0.037
-450.938	-148.040	-0.198	-0.016
-449.924	-179.642	0.198	-0.004
-448.909	-100.239	0.162	-0.040
-447.895	-200.000	0.003	-0.123
-446.880	104.426	0.102	-0.120
-445.865	727.879	-0.043	0.114
-444.851	-3.309	-0.077	0.054
-443.836	383.255	0.039	0.080
-442.822	722.992	-0.020	0.054
-441.807	331.346	0.036	0.068
-440.792	47.507	0.212	-0.197
-439.778	-77.279	-0.316	0.109
-438.763	52.102	-0.052	0.049
-437.749	-102.908	-0.157	-0.037
-436.734	-68.943	-0.049	0.019
-435.719	35.454	-0.188	0.164
-434.705	-69.283	-0.189	0.072
-433.690	-200.000	-0.010	-0.082
-432.676	800.000	0.011	-0.034
-431.661	-200.000	-0.002	0.039
-430.646	-87.219	-0.205	0.062
-429.632	437.498	0.096	-0.207
-428.617	179.968	0.143	-0.209
-427.603	-109.294	0.122	-0.026
-426.588	-200.000	-0.051	-0.262
-425.573	-48.180	-0.196	0.094
-424.559	64.031	-0.163	0.163
-423.544	21.681	0.183	0.148
-422.530	225.269	0.086	-0.138
-421.515	-200.000	0.019	0.121
-420.500	-70.772	0.184	0.069
-419.486	-126.266	0.087	-0.013
-418.471	589.901	0.173	-0.424
-417.457	-9.500	-0.227	-0.151
-416.442	-177.657	0.131	-0.003
-415.428	-200.000	-0.010	0.315
-414.413	180.646	-0.076	0.111
-413.398	39.477	-0.259	-0.231
-412.384	680.491	-0.078	-0.201
-411.369	-94.151	0.496	-0.135
-410.355	501.595	0.127	0.291
-409.340	27.790	0.134	-0.112
-408.325	320.444	0.035	-0.066
-407.311	19.715	0.248	-0.199
-406.296	410.777	-0.081	-0.171
-405.282	36.872	0.146	0.129
-404.267	29.669	-0.100	0.084
-403.252	224.678	-0.242	0.389
-402.238	98.871	0.033	0.038
-401.223	-116.948	-0.350	0.064
-400.209	49.286	0.103	-0.096
-399.194	-200.000	0.001	-0.024
-398.179	800.000	0.103	-0.308
-397.165	11.318	-0.099	-0.075
-396.150	261.434	-0.062	0.107
-395.136	322.852	-0.050	-0.094
-394.121	-186.222	-0.192	0.003
-393.106	18.312	-0.229	0.182
-392.092	-23.434	0.069	0.041
-391.077	761.674	0.144	-0.388
-390.063	-200.000	0.018	0.204
-389.048	800.000	-0.039	-0.162
-388.033	142.805	-0.139	0.184
-387.019	-162.526	0.479	0.023
-386.004	456.782	0.097	0.213
-384.990	-99.196	0.235	-0.059
-383.975	535.595	0.077	0.181
-382.960	800.000	0.041	0.132
-381.946	-200.000	0.004	-0.192
-380.931	254.160	0.118	-0.201
-379.917	-98.825	0.231	0.058
-378.902	294.337	0.050	-0.091
-377.888	-200.000	-0.008	-0.171
-376.873	800.000	0.054	0.202
-375.858	-50.393	0.112	0.053
-374.844	-200.000	-0.010	-0.098
-373.829	-67.866	0.172	-0.067
-372.815	-38.343	-0.035	0.018
-371.800	93.008	-0.077	0.086
-370.785	-126.639	-0.298	0.044
-369.771	-93.951	0.110	0.030
-368.756	-200.000	0.007	0.198
-367.742	-64.680	0.130	-0.052
-366.727	800.000	0.118	-0.405
-365.712	195.514	0.104	0.156
-364.698	-23.290	-0.202	-0.121
-363.683	88.992	0.075	0.083
-362.669	86.402	0.162	-0.177
-361.654	-43.166	0.211	-0.106
-360.639	-187.265	-0.351	-0.005
-359.625	-148.791	-0.441	0.035
-358.610	-76.904	0.243	-0.084
-357.596	391.368	0.055	0.112
-356.581	-200.000	-0.009	0.147
-355.566	286.414	-0.129	-0.230
-354.552	211.782	0.227	-0.354
-353.537	643.409	-0.088	-0.222
-352.523	64.111	-0.075	0.075
-351.508	84.336	-0.181	-0.196
-350.493	-46.565	0.233	-0.113
-349.479	311.619	-0.059	0.110
-348.464	56.657	-0.074	-0.072
-347.450	122.544	-0.108	-0.134
-346.435	25.764	-0.232	0.191
-345.420	-200.000	0.029	0.178
-344.406	-130.771	-0.303	-0.040
-343.391	107.504	-0.158	-0.186
-342.377	-82.273	-0.267	-0.086
-341.362	-200.000	-0.011	-0.170
-340.348	800.000	0.081	0.260
-339.333	-200.000	0.007	-0.093
-338.318	-200.000	0.003	0.264
-337.304	306.030	0.297	0.547
-336.289	32.404	-0.134	0.115
-335.275	-104.147	0.259	0.060
-334.260	345.592	0.118	0.230
-333.245	-116.137	0.143	-0.026
-332.231	800.000	-0.087	0.320
-331.216	-17.279	-0.333	0.208
-330.202	-19.667	-0.038	-0.023
-329.187	50.129	-0.194	0.182
-328.172	194.276	0.078	0.118
-327.158	-78.387	0.248	0.084
-326.143	-109.010	-0.446	0.094
-325.129	199.531	0.009	-0.014
-324.114	-200.000	-0.002	0.030
-323.099	-75.722	-0.368	0.129
-322.085	-133.766	0.261	-0.032
-321.070	-119.929	0.152	0.026
-320.056	61.989	-0.132	-0.130
-319.041	-200.000	-0.052	0.293
-318.026	57.771	-0.236	0.228
-317.012	-8.821	0.080	0.053
-315.997	-102.363	-0.146	0.035
-314.983	-100.283	0.299	0.074
-313.968	-38.969	0.071	-0.037
-312.953	-17.282	-0.289	0.180
-311.939	-78.254	0.398	0.135
-310.924	-80.386	-0.256	0.084
-309.910	-200.000	0.016	-0.160
-308.895	188.935	-0.086	0.127
-307.880	-200.000	-0.088	0.448
-306.866	-7.515	-0.102	-0.068
-305.851	-200.000	-0.042	-0.328
-304.837	800.000	0.010	0.043
-303.822	-200.000	0.047	-0.284
-302.807	-165.278	-0.219	-0.010
-301.793	-200.000	0.035	0.177
-300.778	-71.185	0.251	-0.093
-299.764	27.540	-0.099	0.083
-298.749	218.028	-0.090	0.142
-297.735	-58.292	-0.170	0.073
-296.720	693.687	0.105	0.272
-295.705	-136.118	0.237	0.027
-294.691	-200.000	0.020	0.098
-293.676	-92.661	-0.355	-0.098
-292.662	-130.267	0.381	-0.051
-291.647	-200.000	-0.002	-0.142
-290.632	800.000	-0.051	-0.150
-289.618	-84.344	0.227	0.071
-288.603	-17.111	0.298	-0.186
-287.589	119.354	0.232	0.284
-286.574	-54.373	-0.140	-0.063
-285.559	800.000	0.122	0.391
-284.545	-200.000	-0.054	-0.292
-283.530	611.362	0.115	0.285
-282.516	-0.607	-0.247	-0.173
-281.501	-200.000	-0.024	-0.119
-280.486	-97.224	0.046	0.012
-279.472	29.689	0.215	-0.181
-278.457	14.262	0.166	0.128
-277.443	-200.000	0.006	-0.134
-276.428	-61.959	-0.213	-0.088
-275.413	31.514	0.383	-0.325
-274.399	-27.585	-0.157	-0.090
-273.384	-86.929	-0.186	0.056
-272.370	106.698	0.047	-0.056
-271.355	-200.000	-0.017	0.113
-270.340	800.000	0.043	-0.133
-269.326	-153.815	-0.399	0.027
-268.311	88.137	0.067	-0.073
-267.297	520.623	-0.117	0.271
-266.282	42.922	-0.091	0.082
-265.267	-200.000	0.005	0.203
-264.253	800.000	0.092	-0.320
-263.238	800.000	-0.029	-0.082
-262.224	447.354	0.184	-0.399
-261.209	-200.000	0.034	-0.169
-260.195	331.124	-0.130	-0.248
-259.180	391.490	0.072	-0.148
-258.165	-118.289	-0.046	-0.008
-257.151	536.450	0.100	0.236
-256.136	-23.291	0.278	0.165
-255.122	-18.345	0.113	-0.070
-254.107	-159.338	0.056	0.003
-253.092	85.212	0.119	0.129
-252.078	-111.502	-0.125	0.025
-251.063	396.876	0.099	-0.204
-250.049	800.000	0.082	0.316
-249.034	-126.024	0.250	0.037
-248.019	24.802	-0.221	-0.181
-247.005	-200.000	0.022	0.182
-245.990	96.512	-0.213	0.241
-244.976	-107.691	0.100	-0.022
-243.961	-22.414	-0.184	0.110
-242.946	418.539	0.078	-0.164
-241.932	-200.000	0.033	-0.169
-240.917	268.974	-0.063	-0.109
-239.903	-200.000	0.022	-0.132
-238.888	31.448	0.040	0.034
-237.873	-200.000	0.029	0.218
-236.859	269.816	0.197	-0.342
-235.844	-200.000	0.009	-0.235
-234.830	800.000	0.007	-0.030
-233.815	63.903	-0.157	-0.156
-232.800	-125.379	-0.069	0.010
-231.786	-200.000	-0.043	0.193
-230.771	117.105	-0.119	0.145
-229.757	-24.339	-0.252	0.148
-228.742	-31.873	-0.182	0.101
-227.727	106.414	0.186	0.218
-226.713	-200.000	-0.026	0.114
-225.698	-200.000	-0.048	-0.272
-224.684	210.872	0.137	0.213
-223.669	800.000	0.050	-0.141
-222.655	367.412	0.072	-0.144
-221.640	-101.765	0.357	-0.085
-220.625	259.975	-0.154	-0.262
-219.611	-130.788	-0.194	-0.026
-218.596	-200.000	0.086	0.000
-217.582	-34.460	0.225	-0.122
-216.567	-31.278	0.229	0.127
-215.552	50.542	-0.169	-0.158
-214.538	-29.033	-0.214	-0.121
-213.523	-200.000	-0.023	0.146
-212.509	364.652	-0.083	0.164
-211.494	-200.000	0.035	0.176
-210.479	800.000	-0.068	0.197
-209.465	-200.000	-0.018	-0.273
-208.450	-200.000	0.003	0.260
-207.436	313.356	0.015	-0.028
-206.421	800.000	-0.016	-0.067
-205.406	144.482	-0.025	0.033
-204.392	75.124	0.114	0.118
-203.377	-0.239	-0.130	0.091
-202.363	800.000	0.068	-0.217
-201.348	541.809	0.048	0.113
-200.333	37.734	0.099	0.086
-199.319	34.878	-0.140	-0.120
-198.304	559.337	0.125	0.296
-197.290	-115.113	0.080	0.015
-196.275	331.161	-0.074	-0.140
-195.260	23.928	0.320	-0.260
-194.246	-68.833	-0.366	0.139
-193.231	150.027	0.045	-0.060
-192.217	-91.092	0.273	-0.077
-191.202	-167.996	0.182	-0.007
-190.187	-200.000	-0.032	-0.258
-189.173	-9.682	0.049	-0.032
-188.158	-200.000	0.005	0.095
-187.144	210.066	0.144	0.223
-186.129	-24.355	-0.243	0.143
-185.114	-19.346	0.180	0.110
-184.100	-74.799	0.095	-0.034
-183.085	-49.135	-0.297	-0.140
-182.071	-200.000	0.042	-0.342
-181.056	186.836	0.183	0.269
-180.042	-200.000	0.020	0.152
-179.027	75.617	-0.096	0.100
-178.012	62.197	-0.262	0.257
-176.998	88.428	0.176	-0.193
-175.983	-127.800	-0.098	0.014
-174.969	332.666	-0.078	-0.148
-173.954	432.245	-0.114	-0.244
-172.939	-97.645	0.335	0.086
-171.925	190.574	-0.061	0.091
-170.910	-87.321	-0.150	0.045
-169.896	30.023	0.123	-0.103
-168.881	-81.428	0.263	-0.085
-167.866	-143.573	-0.193	-0.018
-166.852	-91.194	-0.131	0.037
-165.837	215.257	0.144	-0.224
-164.823	39.984	-0.123	0.109
-163.808	-200.000	-0.028	0.134
-162.793	-200.000	-0.012	0.295
-161.779	-93.856	0.272	0.074
-160.764	259.029	-0.086	0.146
-159.750	100.274	-0.044	0.050
-158.735	226.924	0.071	0.114
-157.720	126.162	0.273	-0.340
-156.706	156.207	-0.157	-0.213
-155.691	-107.442	0.232	0.050
-154.677	89.384	0.078	0.085
-153.662	588.344	0.012	0.030
-152.647	4.627	0.072	-0.052
-151.633	-145.621	-0.197	0.017
-150.618	-54.664	0.104	0.046
-149.604	-88.146	-0.229	0.068
-148.589	800.000	0.057	-0.214
-147.574	-10.427	-0.343	-0.224
-146.560	43.952	0.149	0.134
-145.545	-117.913	0.110	0.019
-144.531	-23.492	-0.221	0.131
-143.516	-54.534	-0.506	0.225
-142.502	77.419	-0.280	0.293
-141.487	44.854	-0.244	0.220
-140.472	-200.000	0.056	0.368
-139.458	-85.616	-0.457	-0.140
-138.443	-65.452	-0.437	-0.173
-137.429	131.997	0.181	0.229
-136.414	800.000	-0.046	0.178
-135.399	-111.928	0.099	0.020
-134.385	324.303	0.199	0.374
-133.370	292.405	0.110	0.198
-132.356	-78.103	0.139	-0.047
-131.341	-51.013	-0.143	-0.066
-130.326	-16.062	0.327	-0.204
-129.312	-117.998	-0.382	-0.067
-128.297	534.790	-0.046	0.107
-127.283	-200.000	-0.014	0.368
-126.268	-20.498	-0.288	-0.174
-125.253	-200.000	-0.057	-0.302
-124.239	534.332	0.066	-0.154
-123.224	-21.830	0.357	0.213
-122.210	-47.981	-0.252	0.120
-121.195	26.830	0.207	0.171
