DTS Sentinel unit serial number:	SN413079Multiplexer serial number:	ORYXHardware model number:	OX4-SRSoftware version number:	ORYX F/W v4.00 Oryx Data Collector v3.7.2.0data status	okinstallation	princeton_trtdifferential loss correction	single-endedforward channel	channel 3reverse channel	N/Adate	2019/09/16time	03:28:35forward acquisition time	60.00reverse acquisition time	0.00gamma	496.2192k internal	0.2334k external	0.2334temperature offset calibration	0.9952default loss term (dB/km)	0.3790temperature slope calibration	1.0000multiplexer offset coefficient	1.0000multiplexer slope coefficient	1.0000fibre end	0.00T internal ref (°C)	27.69T ext. ref 1 (°C)	10.56T ext. ref 2 (°C)	21.72length (m)	temperature (°C)	Stokes	anti-Stokes-747.200	800.000	-0.065	0.206
-746.185	-200.000	0.020	-0.166
-745.171	-200.000	0.013	0.175
-744.156	-200.000	0.005	-0.114
-743.142	-92.471	0.225	-0.064
-742.127	-128.616	-0.166	0.024
-741.112	5.008	0.195	-0.144
-740.098	-86.491	0.236	0.073
-739.083	-89.189	0.269	-0.080
-738.069	467.200	0.085	0.191
-737.054	22.573	-0.160	-0.131
-736.039	-32.627	-0.261	-0.146
-735.025	800.000	-0.064	0.185
-734.010	-192.711	0.253	-0.002
-732.996	-130.233	0.215	0.029
-731.981	-33.008	-0.275	0.153
-730.966	-104.683	-0.157	0.036
-729.952	55.613	-0.169	-0.165
-728.937	-4.133	-0.205	-0.143
-727.923	145.938	-0.080	-0.107
-726.908	-160.512	0.216	-0.012
-725.894	-76.325	-0.100	0.035
-724.879	-141.408	0.074	0.008
-723.864	-200.000	0.001	-0.099
-722.850	81.486	-0.242	-0.263
-721.835	-56.153	-0.289	-0.129
-720.821	100.126	0.106	-0.123
-719.806	86.441	0.132	-0.146
-718.791	38.655	0.090	0.081
-717.777	538.438	-0.035	-0.084
-716.762	452.207	-0.110	0.245
-715.748	-55.907	-0.247	0.111
-714.733	4.543	0.206	0.152
-713.718	-118.928	0.330	-0.058
-712.704	-167.000	0.189	-0.008
-711.689	800.000	-0.006	-0.019
-710.675	-200.000	-0.000	-0.328
-709.660	-200.000	0.021	0.248
-708.645	127.877	0.066	0.085
-707.631	51.117	0.058	-0.055
-706.616	-10.459	0.260	0.173
-705.602	-119.734	0.302	0.052
-704.587	94.449	-0.084	0.095
-703.572	236.964	-0.063	-0.105
-702.558	360.570	0.072	0.145
-701.543	220.515	-0.124	0.200
-700.529	-22.985	-0.273	-0.165
-699.514	189.248	0.261	-0.393
-698.499	-200.000	-0.032	0.156
-697.485	19.634	0.197	0.159
-696.470	-62.605	-0.296	0.123
-695.456	57.319	-0.099	-0.097
-694.441	-71.515	-0.130	-0.049
-693.426	190.053	0.189	0.285
-692.412	-80.902	0.110	-0.037
-691.397	800.000	-0.108	-0.302
-690.383	798.536	0.071	-0.197
-689.368	-51.713	0.105	-0.049
-688.354	-67.123	0.170	-0.067
-687.339	384.482	-0.146	0.302
-686.324	-89.554	0.409	-0.120
-685.310	199.895	-0.144	-0.221
-684.295	-200.000	-0.017	0.100
-683.281	299.474	-0.094	-0.174
-682.266	-200.000	0.053	-0.389
-681.251	183.362	0.127	-0.189
-680.237	101.316	0.070	-0.082
-679.222	-27.192	0.247	-0.144
-678.208	412.402	-0.079	0.168
-677.193	-136.779	-0.494	0.057
-676.178	-105.578	0.175	0.040
-675.164	-129.151	-0.292	-0.041
-674.149	-124.512	-0.167	0.026
-673.135	26.535	-0.052	0.043
-672.120	-141.896	0.174	0.017
-671.105	21.592	0.080	-0.065
-670.091	1.206	-0.092	-0.066
-669.076	-200.000	0.002	0.038
-668.062	-200.000	0.023	0.398
-667.047	195.484	-0.107	0.162
-666.032	-99.358	0.439	0.111
-665.018	800.000	-0.037	-0.119
-664.003	310.566	0.121	-0.227
-662.989	474.480	0.094	0.212
-661.974	273.476	0.171	0.303
-660.959	-25.751	-0.232	-0.137
-659.945	172.425	0.129	-0.186
-658.930	-200.000	-0.006	0.201
-657.916	196.043	0.111	0.169
-656.901	-53.697	-0.251	-0.115
-655.886	20.087	0.024	-0.019
-654.872	217.317	-0.189	-0.302
-653.857	116.013	0.048	-0.059
-652.843	-165.437	-0.151	-0.007
-651.828	0.918	-0.232	0.167
-650.814	-200.000	0.004	0.204
-649.799	130.278	-0.020	0.026
-648.784	800.000	-0.050	-0.219
-647.770	-81.672	0.174	-0.057
-646.755	91.631	0.167	0.189
-645.741	45.666	0.038	0.035
-644.726	-49.257	-0.099	-0.047
-643.711	800.000	-0.044	0.151
-642.697	101.692	0.151	0.177
-641.682	-200.000	-0.060	0.331
-640.668	-57.662	-0.211	-0.093
-639.653	800.000	0.032	-0.127
-638.638	-18.806	-0.277	0.172
-637.624	-61.892	-0.238	0.100
-636.609	800.000	0.155	0.446
-635.595	123.810	-0.126	-0.159
-634.580	360.790	-0.069	0.139
-633.565	-200.000	0.013	-0.086
-632.551	120.549	0.371	0.461
-631.536	-104.066	0.332	-0.077
-630.522	-132.734	0.226	-0.029
-629.507	523.108	-0.120	-0.282
-628.492	-103.425	-0.207	0.049
-627.478	-34.547	0.295	0.162
-626.463	-91.244	0.196	0.056
-625.449	-200.000	0.011	-0.186
-624.434	-69.850	-0.241	0.092
-623.419	-20.026	0.215	0.133
-622.405	800.000	-0.077	0.288
-621.390	-7.646	-0.134	-0.091
-620.376	800.000	-0.125	-0.415
-619.361	439.345	-0.091	-0.200
-618.346	32.513	0.028	-0.024
-617.332	-70.658	0.210	-0.079
-616.317	-200.000	0.007	-0.097
-615.303	-4.436	0.206	-0.142
-614.288	158.536	-0.148	0.205
-613.273	-121.401	-0.337	0.056
-612.259	237.209	-0.133	0.221
-611.244	-200.000	0.009	-0.116
-610.230	-200.000	-0.043	0.329
-609.215	600.204	-0.106	-0.263
-608.201	4.968	0.091	-0.067
-607.186	164.629	0.169	0.238
-606.171	-47.288	0.207	0.101
-605.157	-53.879	-0.131	-0.060
-604.142	98.648	-0.064	0.073
-603.128	-200.000	-0.034	0.230
-602.113	-63.706	-0.157	-0.064
-601.098	170.679	0.098	0.141
-600.084	-73.518	0.317	0.115
-599.069	-200.000	0.010	-0.441
-598.055	175.525	-0.122	-0.177
-597.040	800.000	0.030	0.121
-596.025	-89.628	-0.025	0.007
-595.011	414.379	0.261	-0.555
-593.996	-155.050	-0.359	-0.024
-592.982	-147.617	-0.216	-0.018
-591.967	549.880	0.076	-0.181
-590.952	-45.868	0.246	0.121
-589.938	-151.154	0.343	0.026
-588.923	208.933	0.057	0.090
-587.909	-126.827	-0.209	-0.031
-586.894	-103.747	-0.069	-0.016
-585.879	-200.000	-0.028	0.187
-584.865	9.913	-0.156	0.119
-583.850	26.695	0.034	-0.029
-582.836	80.018	-0.097	-0.104
-581.821	664.465	0.060	0.154
-580.806	-80.532	-0.028	-0.009
-579.792	-6.166	-0.137	0.093
-578.777	265.373	0.112	0.195
-577.763	1.104	-0.077	-0.055
-576.748	-139.584	-0.132	0.014
-575.733	1.377	0.276	-0.198
-574.719	-106.629	0.459	0.102
-573.704	-95.543	-0.207	-0.055
-572.690	144.509	0.182	0.243
-571.675	-17.995	-0.243	-0.152
-570.661	291.408	0.097	-0.176
-569.646	173.210	-0.265	0.381
-568.631	800.000	-0.052	-0.185
-567.617	800.000	0.085	0.341
-566.602	35.308	-0.213	0.186
-565.588	-200.000	0.015	0.216
-564.573	212.099	-0.125	-0.197
-563.558	451.070	0.084	-0.184
-562.544	73.656	-0.030	-0.032
-561.529	-200.000	-0.065	0.346
-560.515	-119.659	-0.235	0.040
-559.500	-39.984	0.199	-0.103
-558.485	-109.221	-0.401	-0.085
-557.471	-113.346	-0.168	-0.033
-556.456	-156.344	-0.273	0.017
-555.442	-200.000	0.005	0.280
-554.427	-144.902	-0.251	-0.023
-553.412	-187.836	-0.179	-0.002
-552.398	-33.905	0.367	-0.202
-551.383	270.144	0.079	0.138
-550.369	-95.804	0.280	0.075
-549.354	71.979	0.056	-0.058
-548.339	385.538	0.077	-0.159
-547.325	-200.000	-0.008	0.062
-546.310	196.764	0.096	-0.146
-545.296	671.696	-0.063	-0.162
-544.281	26.205	-0.246	0.205
-543.266	-200.000	0.007	0.144
-542.252	-200.000	-0.007	-0.256
-541.237	-88.207	0.230	0.069
-540.223	-200.000	0.038	-0.191
-539.208	267.529	-0.081	-0.141
-538.193	-10.316	-0.390	0.258
-537.179	-34.217	-0.239	0.131
-536.164	800.000	0.131	0.509
-535.150	800.000	0.043	0.155
-534.135	713.331	-0.109	-0.289
-533.121	800.000	0.049	0.207
-532.106	97.517	0.160	0.183
-531.091	-39.384	-0.224	-0.117
-530.077	171.878	-0.085	-0.122
-529.062	-147.009	-0.250	0.021
-528.048	-72.071	-0.154	-0.057
-527.033	90.680	-0.193	-0.215
-526.018	-57.102	-0.311	-0.137
-525.004	800.000	0.076	0.288
-523.989	800.000	-0.101	0.288
-522.975	349.766	0.080	-0.158
-521.960	206.105	-0.052	0.080
-520.945	-200.000	-0.020	0.152
-519.931	800.000	-0.087	-0.254
-518.916	-96.024	0.209	0.055
-517.902	-17.123	-0.175	-0.110
-516.887	130.915	-0.134	0.171
-515.872	800.000	0.013	0.039
-514.858	130.413	0.089	-0.113
-513.843	-90.168	0.103	-0.030
-512.829	-38.551	-0.318	0.167
-511.814	-200.000	0.022	-0.100
-510.799	-130.819	0.101	0.014
-509.785	-105.497	0.188	0.043
-508.770	-79.798	0.127	-0.043
-507.756	168.767	0.182	0.259
-506.741	-166.262	-0.158	-0.007
-505.726	-21.936	0.055	0.033
-504.712	-79.852	-0.171	0.057
-503.697	800.000	0.047	0.198
-502.683	-108.905	-0.164	0.035
-501.668	419.307	0.141	0.301
-500.653	-96.564	0.260	-0.068
-499.639	-6.814	-0.414	0.280
-498.624	28.544	-0.235	0.198
-497.610	176.538	-0.194	-0.281
-496.595	-146.059	0.141	-0.012
-495.581	800.000	-0.048	-0.146
-494.566	-87.480	-0.220	0.066
-493.551	-7.320	-0.244	-0.164
-492.537	-134.596	0.262	0.032
-491.522	491.862	-0.167	-0.382
-490.508	79.893	0.297	0.318
-489.493	-64.878	-0.157	-0.063
-488.478	331.127	0.008	0.016
-487.464	7.070	-0.220	0.163
-486.449	-200.000	0.052	-0.432
-485.435	33.712	0.082	-0.071
-484.420	-1.939	-0.191	-0.134
-483.405	54.519	0.176	-0.169
-482.391	-12.244	0.101	-0.066
-481.376	409.453	0.227	-0.479
-480.362	-6.247	-0.339	-0.230
-479.347	128.806	-0.205	-0.260
-478.332	-69.860	0.206	0.078
-477.318	5.435	0.302	0.222
-476.303	412.117	0.175	-0.370
-475.289	277.782	0.095	0.168
-474.274	-200.000	0.056	0.353
-473.259	53.082	-0.152	0.144
-472.245	-27.160	0.131	0.076
-471.230	800.000	0.034	0.146
-470.216	800.000	-0.096	-0.343
-469.201	374.217	0.024	-0.049
-468.186	-200.000	-0.021	-0.242
-467.172	-200.000	0.010	0.091
-466.157	-200.000	0.041	0.209
-465.143	-22.380	0.132	-0.079
-464.128	240.098	-0.217	-0.359
-463.113	-39.048	-0.140	-0.073
-462.099	-29.824	-0.181	0.103
-461.084	224.082	-0.065	-0.105
-460.070	800.000	0.019	-0.079
-459.055	-116.579	-0.147	-0.027
-458.040	-29.501	0.245	-0.139
-457.026	64.699	-0.200	-0.200
-456.011	-200.000	0.025	-0.388
-454.997	-8.939	0.141	0.094
-453.982	-67.226	0.169	-0.066
-452.968	263.038	0.087	-0.150
-451.953	800.000	0.021	-0.060
-450.938	-1.720	-0.085	0.059
-449.924	800.000	-0.095	0.283
-448.909	800.000	-0.032	0.101
-447.895	-172.598	0.177	0.006
-446.880	631.561	-0.099	0.249
-445.865	38.926	0.050	-0.044
-444.851	-200.000	0.001	-0.102
-443.836	-200.000	0.004	-0.023
-442.822	-140.569	-0.087	-0.009
-441.807	75.536	-0.124	0.130
-440.792	-112.766	0.077	-0.015
-439.778	-200.000	0.044	-0.250
-438.763	-200.000	0.028	-0.315
-437.749	66.136	-0.133	-0.134
-436.734	800.000	0.093	0.346
-435.719	800.000	-0.047	-0.136
-434.705	499.016	0.100	-0.228
-433.690	-55.456	0.116	-0.052
-432.676	-82.492	0.288	-0.093
-431.661	142.013	0.234	-0.308
-430.646	-115.806	-0.097	0.018
-429.632	-29.504	0.242	0.137
-428.617	206.686	0.168	0.260
-427.603	141.265	-0.115	-0.151
-426.588	72.467	-0.353	0.365
-425.573	-35.783	-0.118	0.064
-424.559	447.254	0.060	0.131
-423.544	255.119	-0.193	0.328
-422.530	-71.282	0.227	0.084
-421.515	162.493	0.241	0.335
-420.500	-84.510	-0.350	-0.110
-419.486	604.236	-0.166	0.410
-418.471	86.021	0.502	0.548
-417.457	-200.000	-0.052	0.286
-416.442	800.000	0.054	-0.224
-415.428	583.506	-0.118	-0.286
-414.413	414.584	-0.118	-0.248
-413.398	-35.985	0.330	0.177
-412.384	13.297	-0.189	-0.145
-411.369	-95.926	-0.050	-0.013
-410.355	283.008	0.108	0.192
-409.340	87.094	0.181	-0.198
-408.325	67.390	0.117	0.119
-407.311	-58.857	-0.266	-0.114
-406.296	-200.000	-0.009	0.093
-405.282	-200.000	0.061	-0.283
-404.267	-167.651	-0.470	0.019
-403.252	-61.077	-0.166	-0.070
-402.238	-134.633	-0.398	-0.048
-401.223	-200.000	0.002	-0.405
-400.209	-50.036	-0.095	-0.045
-399.194	-200.000	-0.084	-0.433
-398.179	-51.829	0.464	0.214
-397.165	176.075	-0.096	0.138
-396.150	46.064	0.069	-0.063
-395.136	236.468	0.056	0.091
-394.121	218.801	0.137	-0.218
-393.106	-107.382	0.274	-0.060
-392.092	-124.770	0.571	0.087
-391.077	-133.861	0.115	0.014
-390.063	800.000	0.126	0.521
-389.048	800.000	0.049	0.146
-388.033	-97.059	-0.116	0.030
-387.019	130.131	0.073	0.093
-386.004	53.800	0.211	0.201
-384.990	3.900	-0.021	-0.016
-383.975	-126.917	0.170	-0.025
-382.960	-200.000	0.009	0.174
-381.946	48.617	-0.152	0.141
-380.931	-64.072	0.216	-0.087
-379.917	446.439	0.037	-0.080
-378.902	-27.431	-0.056	0.033
-377.888	171.258	0.154	-0.218
-376.873	10.593	0.326	0.246
-375.858	-102.865	-0.277	-0.065
-374.844	-88.450	0.338	0.100
-373.829	-200.000	0.022	0.120
-372.815	-118.284	-0.354	0.062
-371.800	-200.000	-0.038	0.169
-370.785	-35.148	-0.268	0.145
-369.771	-98.129	0.153	-0.039
-368.756	-110.765	-0.048	-0.010
-367.742	800.000	0.102	-0.284
-366.727	147.856	-0.042	0.057
-365.712	800.000	-0.024	-0.102
-364.698	208.757	0.128	0.198
-363.683	-200.000	0.053	-0.243
-362.669	-200.000	-0.049	-0.469
-361.654	142.092	-0.064	-0.084
-360.639	-82.973	-0.117	-0.037
-359.625	800.000	-0.142	-0.493
-358.610	-200.000	0.046	-0.380
-357.596	-69.587	-0.060	0.023
-356.581	-63.272	-0.302	0.123
-355.566	-157.046	0.199	-0.012
-354.552	-116.276	0.318	-0.058
-353.537	244.545	-0.246	0.408
-352.523	-200.000	-0.047	0.321
-351.508	-35.301	-0.223	-0.120
-350.493	203.057	-0.227	-0.347
-349.479	336.605	0.057	-0.109
-348.464	144.488	0.162	-0.214
-347.450	-54.032	-0.205	0.092
-346.435	-200.000	-0.021	-0.116
-345.420	143.462	0.066	0.087
-344.406	-46.840	0.165	0.080
-343.391	87.871	-0.177	-0.194
-342.377	268.746	0.097	-0.168
-341.362	-94.814	-0.164	-0.044
-340.348	71.930	-0.019	0.019
-339.333	503.880	-0.075	0.172
-338.318	57.556	-0.166	0.160
-337.304	-114.360	0.100	0.019
-336.289	446.618	0.087	-0.189
-335.275	-52.461	-0.403	0.184
-334.260	800.000	0.106	-0.391
-333.245	-200.000	-0.063	0.349
-332.231	-34.283	-0.218	0.119
-331.216	800.000	0.023	-0.084
-330.202	304.907	0.140	-0.257
-329.187	32.550	-0.242	-0.206
-328.172	-114.634	0.167	-0.032
-327.158	13.634	-0.293	-0.225
-326.143	-200.000	0.053	-0.243
-325.129	39.040	-0.230	0.203
-324.114	-8.406	0.364	0.242
-323.099	-76.477	0.064	0.022
-322.085	-200.000	0.024	-0.256
-321.070	-93.873	-0.118	-0.032
-320.056	550.861	0.031	-0.074
-319.041	-55.639	-0.555	-0.246
-318.026	-34.526	-0.048	-0.026
-317.012	-62.729	0.202	0.083
-315.997	800.000	0.067	-0.193
-314.983	800.000	-0.202	0.578
-313.968	0.852	-0.354	0.251
-312.953	-157.488	-0.169	0.010
-311.939	232.587	0.108	-0.175
-310.924	-118.189	0.180	0.032
-309.910	-58.728	0.178	0.076
-308.895	154.337	0.104	-0.141
-307.880	-200.000	-0.039	0.222
-306.866	213.972	-0.100	-0.156
-305.851	160.664	0.094	-0.130
-304.837	-179.144	0.075	-0.002
-303.822	800.000	-0.139	0.491
-302.807	-173.626	0.197	-0.006
-301.793	156.940	0.278	0.380
-300.778	-200.000	0.022	0.471
-299.764	45.020	0.058	0.053
-298.749	-58.250	0.261	0.112
-297.735	-43.014	0.166	0.083
-296.720	-30.840	0.064	0.036
-295.705	98.919	0.044	-0.050
-294.691	222.672	0.025	-0.040
-293.676	242.230	0.176	-0.290
-292.662	18.907	0.230	-0.182
-291.647	-74.621	-0.204	-0.072
-290.632	22.162	0.051	-0.041
-289.618	-200.000	0.031	-0.160
-288.603	-89.193	0.129	-0.038
-287.589	-23.088	0.231	-0.137
-286.574	-92.995	0.565	0.156
-285.559	-80.214	-0.181	0.060
-284.545	-200.000	0.014	-0.076
-283.530	253.892	-0.200	0.337
-282.516	800.000	0.154	0.420
-281.501	423.129	-0.051	-0.108
-280.486	-200.000	0.083	-0.618
-279.472	-101.852	0.264	-0.063
-278.457	-93.183	-0.120	0.033
-277.443	-12.288	-0.211	-0.136
-276.428	-200.000	0.010	-0.083
-275.413	-135.998	-0.335	0.039
-274.399	51.995	0.236	-0.222
-273.384	506.358	0.111	0.254
-272.370	212.366	-0.143	-0.223
-271.355	372.068	0.165	-0.330
-270.340	800.000	-0.038	-0.131
-269.326	144.319	-0.169	-0.222
-268.311	-60.920	0.191	-0.080
-267.297	-157.741	-0.257	-0.015
-266.282	800.000	0.041	-0.174
-265.267	-200.000	0.008	0.285
-264.253	170.737	-0.156	0.221
-263.238	526.441	0.105	0.244
-262.224	213.465	0.062	-0.096
-261.209	800.000	-0.009	-0.027
-260.195	65.169	0.183	-0.182
-259.180	16.701	0.101	-0.079
-258.165	86.753	-0.113	-0.123
-257.151	-200.000	-0.005	0.052
-256.136	-1.890	-0.312	0.216
-255.122	-200.000	0.038	-0.238
-254.107	322.884	0.081	-0.152
-253.092	310.950	0.164	0.302
-252.078	-32.055	-0.271	-0.150
-251.063	44.622	-0.273	0.247
-250.049	93.933	0.228	0.254
-249.034	-7.648	0.121	-0.081
-248.019	41.143	0.062	-0.055
-247.005	33.461	0.270	-0.231
-245.990	88.360	-0.061	0.067
-244.976	-53.057	0.156	0.071
-243.961	402.620	-0.083	-0.172
-242.946	-178.361	-0.150	0.003
-241.932	-120.639	0.337	-0.056
-240.917	507.972	-0.097	-0.222
-239.903	-35.983	-0.119	-0.063
-238.888	-12.587	-0.132	0.085
-237.873	9.766	-0.224	0.168
-236.859	-200.000	0.045	0.272
-235.844	-137.882	0.283	-0.031
-234.830	691.257	-0.104	0.268
-233.815	177.192	-0.160	-0.230
-232.800	118.682	0.111	0.135
-231.786	800.000	-0.063	-0.253
-230.771	-93.361	0.331	0.090
-229.757	507.797	0.132	0.301
-228.742	-45.474	0.193	-0.094
-227.727	-103.137	-0.358	0.083
-226.713	-17.225	0.197	-0.122
-225.698	277.856	0.205	0.360
-224.684	-129.524	0.092	-0.013
-223.669	-21.327	-0.151	-0.091
-222.655	-200.000	0.003	-0.092
-221.640	-200.000	0.005	-0.218
-220.625	-200.000	-0.012	-0.469
-219.611	164.109	0.109	0.151
-218.596	-28.348	0.078	0.045
-217.582	800.000	-0.047	0.140
-216.567	105.234	0.185	-0.215
-215.552	134.633	0.076	0.097
-214.538	-200.000	0.038	0.188
-213.523	57.785	0.120	-0.115
-212.509	-200.000	-0.034	-0.164
-211.494	-5.587	0.096	-0.065
-210.479	-50.135	-0.393	0.183
-209.465	584.870	-0.127	-0.306
-208.450	-200.000	-0.042	0.196
-207.436	703.920	0.123	0.320
-206.421	82.779	0.287	0.307
-205.406	77.872	0.072	0.075
-204.392	32.487	-0.232	0.197
-203.377	-89.456	-0.306	0.089
-202.363	-200.000	0.041	-0.254
-201.348	224.909	-0.084	-0.133
-200.333	182.886	-0.100	-0.145
-199.319	655.895	0.165	0.416
-198.304	-111.335	0.376	0.076
-197.290	-5.573	0.105	0.071
-196.275	-174.795	-0.242	0.007
-195.260	-108.974	0.241	-0.051
-194.246	129.297	-0.076	0.095
-193.231	-200.000	-0.006	0.157
-192.217	357.933	-0.080	0.157
-191.202	146.118	0.071	-0.094
-190.187	62.470	-0.137	0.135
-189.173	-68.977	-0.272	-0.103
-188.158	609.825	-0.053	0.131
-187.144	-72.923	0.387	0.140
-186.129	77.834	0.108	0.113
-185.114	44.902	-0.329	0.297
-184.100	-65.697	-0.062	-0.025
-183.085	-139.879	-0.176	0.018
-182.071	-18.080	-0.324	-0.200
-181.056	583.705	0.058	0.140
-180.042	-200.000	0.002	-0.157
-179.027	-200.000	-0.014	-0.288
-178.012	129.624	0.148	-0.185
-176.998	-149.242	0.160	0.013
-175.983	800.000	-0.048	-0.151
-174.969	-139.712	-0.277	-0.029
-173.954	355.670	0.166	-0.326
-172.939	-129.607	0.211	0.029
-171.925	-17.035	-0.282	-0.175
-170.910	-88.460	0.445	-0.130
-169.896	-135.914	0.137	-0.016
-168.881	665.407	0.128	0.324
-167.866	147.927	-0.162	-0.215
-166.852	-13.620	0.327	0.208
-165.837	-183.952	-0.285	-0.005
-164.823	-200.000	0.015	0.189
-163.808	-200.000	-0.041	-0.324
-162.793	153.152	-0.088	-0.118
-161.779	-34.989	-0.230	0.123
-160.764	63.347	0.099	-0.097
-159.750	405.937	0.022	-0.046
-158.735	-175.280	-0.177	-0.005
-157.720	-36.666	0.274	-0.144
-156.706	364.272	-0.061	0.120
-155.691	-20.591	-0.006	0.004
-154.677	193.707	0.028	-0.041
-153.662	132.151	-0.164	-0.207
-152.647	-88.526	0.326	0.095
-151.633	-200.000	0.017	-0.116
-150.618	-163.076	0.181	0.009
-149.604	8.261	0.216	-0.160
-148.589	-200.000	0.009	0.166
-147.574	36.787	-0.268	0.233
-146.560	-102.623	0.371	-0.087
-145.545	-200.000	0.010	0.196
-144.531	-193.561	0.208	0.002
-143.516	121.459	0.099	-0.121
-142.502	-200.000	0.087	0.402
-141.487	-200.000	-0.030	-0.383
-140.472	-200.000	-0.023	0.188
-139.458	483.772	0.047	-0.105
-138.443	-200.000	0.034	-0.207
-137.429	75.801	-0.094	0.098
-136.414	391.737	0.122	-0.249
-135.399	59.009	-0.076	-0.074
-134.385	-0.299	0.170	-0.118
-133.370	-78.530	-0.188	-0.063
-132.356	-61.187	0.248	0.103
-131.341	161.824	0.109	0.149
-130.326	-2.916	0.123	-0.084
-129.312	-130.904	0.263	0.035
-128.297	-60.180	0.100	0.042
-127.283	-76.589	-0.164	-0.057
-126.268	545.119	-0.113	0.265
-125.253	158.040	0.145	0.198
-124.239	-20.340	0.219	0.132
-123.224	800.000	0.077	0.240
-122.210	800.000	-0.042	0.141
-121.195	-94.367	0.353	-0.094
-120.180	-200.000	-0.021	-0.182
