DTS Sentinel unit serial number:	SN413079Multiplexer serial number:	ORYXHardware model number:	OX4-SRSoftware version number:	ORYX F/W v4.00 Oryx Data Collector v3.7.2.0data status	okinstallation	princeton_trtdifferential loss correction	single-endedforward channel	channel 3reverse channel	N/Adate	2019/09/15time	19:08:35forward acquisition time	60.00reverse acquisition time	0.00gamma	496.2192k internal	0.2293k external	0.2293temperature offset calibration	0.9934default loss term (dB/km)	0.3790temperature slope calibration	1.0000multiplexer offset coefficient	1.0000multiplexer slope coefficient	1.0000fibre end	0.00T internal ref (°C)	41.22T ext. ref 1 (°C)	7.10T ext. ref 2 (°C)	30.59length (m)	temperature (°C)	Stokes	anti-Stokes-747.200	-65.356	0.129	0.053
-746.185	-15.302	0.359	0.235
-745.171	7.151	-0.297	0.227
-744.156	309.191	-0.044	0.083
-743.142	-200.000	-0.027	0.235
-742.127	-52.045	0.174	0.082
-741.112	-200.000	-0.003	0.013
-740.098	-87.752	-0.127	-0.039
-739.083	-110.529	-0.088	-0.019
-738.069	-200.000	-0.020	0.209
-737.054	-85.025	-0.156	-0.050
-736.039	-56.357	0.252	-0.115
-735.025	-119.015	-0.139	0.025
-734.010	290.722	-0.037	-0.068
-732.996	-78.179	0.192	-0.067
-731.981	-27.398	-0.157	-0.093
-730.966	-57.605	0.050	0.022
-729.952	102.905	-0.198	-0.238
-728.937	-200.000	-0.009	0.443
-727.923	-25.672	-0.094	0.057
-726.908	368.432	0.102	-0.211
-725.894	-21.670	-0.228	0.142
-724.879	145.453	-0.063	-0.087
-723.864	297.396	-0.065	-0.122
-722.850	-60.176	0.108	-0.047
-721.835	737.789	-0.114	-0.313
-720.821	-42.970	0.133	-0.069
-719.806	518.222	-0.120	-0.287
-718.791	-15.441	0.137	0.089
-717.777	399.628	0.049	0.105
-716.762	800.000	0.046	-0.159
-715.748	-200.000	-0.001	0.115
-714.733	-160.958	-0.365	-0.020
-713.718	80.285	-0.214	-0.235
-712.704	-153.057	0.214	0.015
-711.689	44.269	-0.246	-0.230
-710.675	-33.533	0.167	0.094
-709.660	135.843	0.174	0.232
-708.645	191.244	0.093	-0.144
-707.631	-32.210	-0.170	0.097
-706.616	136.683	0.024	0.032
-705.602	-119.867	0.371	0.065
-704.587	169.080	0.121	0.177
-703.572	-68.960	0.391	-0.154
-702.558	-11.369	-0.086	0.058
-701.543	88.205	0.213	0.242
-700.529	-33.772	-0.148	-0.083
-699.514	-172.390	0.324	-0.011
-698.499	5.029	-0.199	0.149
-697.485	-200.000	0.003	-0.206
-696.470	-200.000	-0.020	0.093
-695.456	-20.232	0.196	0.123
-694.441	19.438	0.241	-0.198
-693.426	-200.000	0.040	-0.407
-692.412	-200.000	-0.010	-0.213
-691.397	6.731	0.151	0.115
-690.383	-193.890	0.127	-0.001
-689.368	459.233	0.139	0.316
-688.354	-200.000	-0.026	-0.151
-687.339	-70.834	0.105	-0.041
-686.324	235.849	0.063	0.106
-685.310	8.630	0.083	0.064
-684.295	-200.000	0.043	0.300
-683.281	731.922	0.050	-0.135
-682.266	-126.355	0.113	-0.017
-681.251	33.658	0.096	-0.085
-680.237	386.463	0.163	-0.344
-679.222	-14.633	0.066	-0.043
-678.208	8.433	-0.280	0.215
-677.193	-37.255	0.192	-0.105
-676.178	-200.000	0.036	0.164
-675.164	5.155	0.146	0.110
-674.149	7.748	-0.073	0.055
-673.135	-36.645	0.174	-0.096
-672.120	-200.000	0.002	0.106
-671.105	-122.914	0.035	-0.006
-670.091	-21.078	-0.129	-0.080
-669.076	35.390	0.132	-0.118
-668.062	-18.188	-0.120	0.077
-667.047	-39.766	-0.194	-0.104
-666.032	-200.000	0.021	-0.288
-665.018	-200.000	-0.001	0.142
-664.003	-200.000	0.014	-0.084
-662.989	-82.610	-0.245	-0.081
-661.974	-58.401	0.274	0.121
-660.959	288.825	-0.160	-0.296
-659.945	-141.803	-0.251	0.026
-658.930	-96.378	0.307	0.083
-657.916	-119.854	0.099	0.017
-656.901	679.907	0.153	-0.407
-655.886	-21.068	-0.139	0.087
-654.872	-9.017	0.232	-0.158
-653.857	800.000	0.057	-0.197
-652.843	17.486	0.161	0.130
-651.828	-143.863	-0.199	0.019
-650.814	-4.419	0.260	-0.184
-649.799	-200.000	0.001	-0.063
-648.784	100.794	-0.197	0.233
-647.770	237.765	-0.123	-0.208
-646.755	716.751	-0.121	-0.327
-645.741	-14.749	0.281	-0.184
-644.726	-13.441	-0.127	-0.084
-643.711	-200.000	-0.025	-0.337
-642.697	-97.409	0.073	-0.019
-641.682	-89.191	-0.364	0.109
-640.668	128.670	-0.111	0.144
-639.653	-200.000	0.013	-0.079
-638.638	118.599	-0.154	-0.194
-637.624	-59.056	0.207	-0.091
-636.609	-90.423	-0.221	-0.065
-635.595	195.199	0.134	0.207
-634.580	140.334	0.083	-0.112
-633.565	-31.656	0.096	-0.055
-632.551	800.000	0.044	-0.142
-631.536	-200.000	-0.058	0.316
-630.522	-47.921	-0.285	-0.140
-629.507	-200.000	0.004	-0.112
-628.492	-200.000	-0.013	0.198
-627.478	287.014	0.075	-0.138
-626.463	91.274	-0.083	-0.095
-625.449	-143.363	0.071	0.007
-624.434	800.000	0.010	-0.042
-623.419	-67.680	-0.036	0.014
-622.405	144.970	-0.228	0.311
-621.390	-9.240	-0.068	0.046
-620.376	230.302	-0.170	0.284
-619.361	-28.489	-0.150	0.088
-618.346	4.306	0.114	-0.085
-617.332	202.828	-0.135	-0.212
-616.317	-126.523	-0.136	-0.021
-615.303	-78.223	0.175	0.061
-614.288	-9.162	-0.227	-0.155
-613.273	-116.300	-0.465	0.088
-612.259	380.515	0.118	0.247
-611.244	-123.196	0.224	-0.037
-610.230	-107.839	-0.177	-0.039
-609.215	-120.976	0.301	0.051
-608.201	24.838	-0.072	0.061
-607.186	136.203	-0.078	-0.103
-606.171	42.766	0.104	-0.096
-605.157	165.797	0.048	-0.070
-604.142	146.886	0.018	0.025
-603.128	130.625	-0.282	0.368
-602.113	89.571	-0.116	-0.132
-601.098	-200.000	0.011	-0.126
-600.084	126.173	0.145	0.187
-599.069	-13.990	0.137	0.090
-598.055	-161.931	-0.329	0.017
-597.040	1.388	-0.203	-0.148
-596.025	-68.315	0.274	0.108
-595.011	-200.000	-0.022	0.384
-593.996	-70.108	-0.106	0.041
-592.982	-200.000	0.006	0.284
-591.967	-200.000	0.041	0.230
-590.952	-200.000	0.010	-0.352
-589.938	-200.000	-0.019	-0.392
-588.923	-142.415	-0.130	0.013
-587.909	-136.243	-0.330	-0.039
-586.894	-65.565	0.156	0.064
-585.879	136.789	-0.163	0.217
-584.865	-200.000	0.033	0.349
-583.850	45.114	-0.078	-0.073
-582.836	362.613	-0.150	0.306
-581.821	147.901	0.062	0.084
-580.806	206.623	0.064	-0.101
-579.792	800.000	0.066	-0.261
-578.777	-114.751	0.074	-0.014
-577.763	247.086	-0.072	-0.123
-576.748	800.000	-0.053	-0.180
-575.733	90.759	-0.194	0.221
-574.719	141.092	0.136	-0.183
-573.704	-200.000	-0.002	-0.011
-572.690	260.798	0.068	0.120
-571.675	243.438	-0.064	0.109
-570.661	-22.907	-0.076	0.047
-569.646	800.000	0.061	-0.268
-568.631	-200.000	-0.005	-0.454
-567.617	52.306	0.082	0.080
-566.602	800.000	0.051	-0.227
-565.588	-200.000	-0.024	-0.270
-564.573	-200.000	-0.018	-0.304
-563.558	14.442	0.220	0.174
-562.544	-82.847	-0.297	-0.098
-561.529	-200.000	-0.036	0.211
-560.515	376.909	-0.036	-0.075
-559.500	-200.000	0.020	-0.245
-558.485	-102.322	-0.167	0.041
-557.471	114.133	-0.149	-0.184
-556.456	-159.672	-0.234	0.013
-555.442	-200.000	-0.008	0.151
-554.427	-87.096	0.275	0.085
-553.412	240.466	-0.093	0.158
-552.398	-88.038	0.234	0.071
-551.383	-84.389	-0.088	0.028
-550.369	170.357	0.195	0.283
-549.354	800.000	-0.041	-0.175
-548.339	-55.834	0.074	-0.034
-547.325	201.423	-0.237	0.370
-546.310	26.768	0.172	0.146
-545.296	558.026	0.152	-0.373
-544.281	-200.000	0.011	0.182
-543.266	453.909	0.014	-0.031
-542.252	698.211	-0.039	-0.105
-541.237	79.282	0.056	0.060
-540.223	-168.676	0.302	-0.012
-539.208	25.718	-0.180	0.152
-538.193	-200.000	-0.001	-0.127
-537.179	-173.738	0.442	0.013
-536.164	-200.000	0.061	-0.312
-535.150	287.080	-0.130	-0.239
-534.135	-75.799	-0.354	0.127
-533.121	-29.703	0.239	0.138
-532.106	800.000	0.119	0.375
-531.091	237.707	0.122	0.206
-530.077	-170.224	-0.334	0.012
-529.062	-200.000	0.019	-0.169
-528.048	-8.395	-0.111	-0.075
-527.033	6.828	-0.180	-0.136
-526.018	-200.000	0.008	0.053
-525.004	-14.836	0.070	0.045
-523.989	-31.479	0.093	0.053
-522.975	25.126	-0.127	0.107
-521.960	800.000	-0.034	0.122
-520.945	63.002	0.133	0.135
-519.931	-82.416	-0.119	-0.039
-518.916	-151.478	-0.317	-0.024
-517.902	-47.247	0.055	-0.027
-516.887	116.052	-0.066	-0.082
-515.872	566.713	0.058	0.142
-514.858	-34.981	-0.168	0.093
-513.843	221.464	0.083	-0.135
-512.829	391.612	-0.045	-0.095
-511.814	38.539	0.171	0.154
-510.799	372.447	-0.097	-0.200
-509.785	463.015	-0.021	-0.047
-508.770	232.321	0.052	-0.087
-507.756	291.408	0.092	-0.170
-506.741	387.682	-0.105	-0.220
-505.726	-119.946	0.022	-0.004
-504.712	121.494	-0.131	0.166
-503.697	248.144	0.165	-0.283
-502.683	-200.000	0.051	-0.438
-501.668	-65.345	-0.074	0.030
-500.653	102.233	-0.205	0.243
-499.639	728.668	0.062	-0.167
-498.624	27.728	-0.167	0.142
-497.610	115.988	0.253	-0.313
-496.595	449.236	0.174	0.388
-495.581	-89.307	-0.394	-0.118
-494.566	13.628	0.187	0.147
-493.551	-138.897	-0.061	-0.007
-492.537	-45.247	0.161	-0.081
-491.522	-4.141	-0.107	-0.075
-490.508	501.832	0.108	-0.253
-489.493	21.961	0.209	0.173
-488.478	52.044	-0.055	0.053
-487.464	7.433	-0.198	-0.150
-486.449	-200.000	0.010	0.106
-485.435	-54.652	-0.224	0.102
-484.420	-196.544	0.065	-0.000
-483.405	-115.052	0.180	0.035
-482.391	-200.000	-0.089	-0.475
-481.376	-77.778	-0.161	0.056
-480.362	-21.631	0.251	0.155
-479.347	48.493	-0.012	0.012
-478.332	166.402	0.053	0.075
-477.318	771.692	0.141	0.388
-476.303	-81.752	-0.138	0.046
-475.289	-102.409	-0.309	-0.075
-474.274	-200.000	-0.046	-0.251
-473.259	-200.000	0.007	-0.043
-472.245	137.471	0.158	-0.209
-471.230	-121.483	0.066	0.011
-470.216	226.369	0.162	0.267
-469.201	19.123	0.078	-0.063
-468.186	-27.247	-0.061	0.036
-467.172	-200.000	-0.003	0.183
-466.157	28.559	0.037	-0.032
-465.143	154.658	-0.091	-0.126
-464.128	800.000	0.092	0.288
-463.113	800.000	0.117	-0.359
-462.099	-108.106	-0.357	-0.078
-461.084	-200.000	-0.013	0.119
-460.070	-117.363	-0.164	0.030
-459.055	-47.804	0.194	0.095
-458.040	-3.060	-0.137	0.097
-457.026	207.623	0.195	-0.308
-456.011	22.393	0.162	-0.134
-454.997	501.461	-0.050	-0.117
-453.982	119.297	0.200	-0.250
-452.968	646.734	-0.130	-0.335
-451.953	800.000	0.034	-0.124
-450.938	-8.455	0.090	0.062
-449.924	-58.751	0.549	0.240
-448.909	-39.589	-0.245	0.130
-447.895	96.988	0.080	-0.093
-446.880	97.391	-0.087	0.101
-445.865	408.879	-0.073	0.156
-444.851	280.604	0.114	0.206
-443.836	121.054	-0.100	0.126
-442.822	-34.902	0.195	-0.108
-441.807	319.565	-0.094	-0.180
-440.792	-3.463	0.145	0.102
-439.778	-174.196	-0.318	-0.009
-438.763	-122.866	0.115	0.019
-437.749	276.588	-0.120	0.216
-436.734	-68.240	0.199	0.078
-435.719	-57.161	0.103	0.046
-434.705	-200.000	-0.023	0.124
-433.690	-142.469	0.321	0.032
-432.676	34.063	0.044	-0.039
-431.661	97.950	0.097	-0.113
-430.646	341.090	-0.068	-0.134
-429.632	800.000	0.084	-0.282
-428.617	56.279	0.128	-0.126
-427.603	-200.000	0.046	0.271
-426.588	216.748	0.136	-0.218
-425.573	66.456	0.016	-0.016
-424.559	-200.000	0.012	-0.120
-423.544	-34.023	0.253	0.140
-422.530	586.503	-0.117	0.291
-421.515	-200.000	0.006	0.124
-420.500	-200.000	-0.014	0.146
-419.486	216.924	-0.079	0.127
-418.471	-200.000	0.009	0.053
-417.457	111.541	-0.055	-0.067
-416.442	-17.463	-0.145	0.092
-415.428	588.272	-0.175	-0.436
-414.413	-200.000	0.038	-0.340
-413.398	800.000	0.087	0.258
-412.384	-18.607	-0.154	-0.097
-411.369	89.940	-0.054	-0.061
-410.355	514.039	0.081	-0.192
-409.340	800.000	0.088	0.286
-408.325	185.027	-0.134	-0.200
-407.311	0.436	-0.208	0.150
-406.296	800.000	-0.099	0.294
-405.282	-200.000	-0.044	-0.226
-404.267	800.000	0.014	0.054
-403.252	800.000	0.025	-0.087
-402.238	800.000	0.030	0.125
-401.223	-200.000	0.011	0.131
-400.209	-180.157	0.388	0.008
-399.194	-14.729	-0.237	-0.154
-398.179	183.256	-0.157	0.234
-397.165	91.422	-0.190	0.215
-396.150	217.588	0.180	0.289
-395.136	-1.377	-0.261	-0.186
-394.121	186.106	0.337	-0.506
-393.106	-200.000	-0.005	0.059
-392.092	338.003	0.043	-0.084
-391.077	-13.399	0.399	0.261
-390.063	26.649	-0.305	0.258
-389.048	-48.263	0.134	0.065
-388.033	56.277	-0.081	-0.079
-387.019	-190.069	-0.145	0.002
-386.004	-200.000	0.002	0.095
-384.990	-93.566	-0.131	-0.036
-383.975	151.660	-0.247	0.340
-382.960	-118.627	0.090	-0.016
-381.946	-16.893	-0.154	0.098
-380.931	215.374	-0.076	-0.122
-379.917	-105.992	0.175	0.040
-378.902	153.182	0.060	0.083
-377.888	693.544	0.055	-0.144
-376.873	372.777	-0.045	-0.092
-375.858	61.618	-0.214	-0.214
-374.844	-200.000	0.014	-0.194
-373.829	-68.326	-0.035	0.014
-372.815	88.609	0.097	0.109
-371.800	-23.347	-0.142	-0.086
-370.785	37.747	0.317	-0.284
-369.771	56.325	-0.182	-0.178
-368.756	-96.761	0.549	-0.146
-367.742	-153.177	0.234	-0.017
-366.727	354.304	-0.100	-0.201
-365.712	-147.539	-0.194	-0.017
-364.698	-44.997	-0.242	-0.121
-363.683	138.454	0.118	0.156
-362.669	395.652	-0.039	-0.082
-361.654	205.438	0.046	0.071
-360.639	104.480	-0.114	0.135
-359.625	23.530	-0.188	-0.156
-358.610	-107.986	0.463	-0.101
-357.596	6.287	0.133	-0.099
-356.581	216.479	0.155	-0.249
-355.566	-200.000	0.026	0.249
-354.552	-183.035	-0.282	0.005
-353.537	-127.996	-0.226	-0.033
-352.523	237.298	0.168	0.281
-351.508	93.092	0.117	-0.133
-350.493	-200.000	-0.001	-0.058
-349.479	-154.181	0.290	-0.020
-348.464	323.394	0.030	0.058
-347.450	800.000	-0.053	-0.171
-346.435	95.807	-0.098	-0.113
-345.420	373.388	-0.211	-0.432
-344.406	204.955	0.109	0.170
-343.391	16.187	-0.436	0.346
-342.377	-25.203	0.170	0.101
-341.362	-200.000	0.022	-0.102
-340.348	-141.310	0.080	-0.008
-339.333	800.000	0.033	0.117
-338.318	-92.002	-0.309	0.088
-337.304	-57.727	0.259	0.114
-336.289	-200.000	-0.001	-0.136
-335.275	27.661	-0.139	-0.118
-334.260	69.556	-0.049	0.050
-333.245	114.985	0.136	0.167
-332.231	134.758	-0.022	0.028
-331.216	-200.000	-0.073	0.512
-330.202	800.000	-0.126	0.399
-329.187	-59.217	0.120	0.052
-328.172	778.070	0.067	-0.184
-327.158	-143.664	0.283	-0.027
-326.143	-178.295	0.340	-0.008
-325.129	21.441	0.330	-0.270
-324.114	92.324	-0.289	-0.328
-323.099	-84.363	0.237	0.075
-322.085	-200.000	-0.034	-0.190
-321.070	381.348	0.097	-0.201
-320.056	19.665	0.027	0.022
-319.041	31.682	0.185	0.160
-318.026	-123.820	0.153	0.024
-317.012	-28.274	-0.295	0.171
-315.997	-121.745	-0.055	0.009
-314.983	61.738	0.310	0.310
-313.968	-27.543	0.122	-0.071
-312.953	-87.579	0.179	-0.054
-311.939	-101.727	-0.156	-0.038
-310.924	706.675	-0.150	-0.399
-309.910	-4.661	-0.120	0.084
-308.895	-200.000	-0.043	0.438
-307.880	-38.228	-0.139	0.074
-306.866	675.788	-0.098	0.255
-305.851	800.000	0.123	0.482
-304.837	-85.098	0.147	0.046
-303.822	-42.951	-0.257	0.131
-302.807	-111.096	0.152	0.031
-301.793	27.987	0.118	-0.100
-300.778	183.100	0.184	-0.273
-299.764	-12.265	-0.087	-0.057
-298.749	-200.000	0.024	-0.181
-297.735	800.000	-0.051	-0.145
-296.720	-120.148	0.155	0.027
-295.705	-200.000	0.213	0.000
-294.691	-105.747	0.183	0.042
-293.676	-86.482	0.211	-0.065
-292.662	212.834	-0.210	-0.334
-291.647	-86.264	0.148	-0.046
-290.632	-187.969	-0.122	0.002
-289.618	-55.405	-0.162	-0.073
-288.603	121.462	-0.090	0.112
-287.589	365.271	-0.105	0.213
-286.574	449.593	-0.099	0.218
-285.559	-174.101	0.121	-0.004
-284.545	193.416	-0.075	0.114
-283.530	30.594	-0.041	0.035
-282.516	799.406	0.072	0.201
-281.501	-104.130	0.137	-0.032
-280.486	-200.000	-0.010	-0.145
-279.472	-21.819	0.187	0.114
-278.457	128.593	-0.285	-0.364
-277.443	-200.000	0.034	-0.240
-276.428	-24.528	-0.173	0.103
-275.413	-159.611	0.341	0.019
-274.399	62.888	0.189	0.190
-273.384	118.950	-0.087	-0.108
-272.370	12.129	-0.187	0.145
-271.355	10.412	-0.123	-0.094
-270.340	-88.146	-0.288	-0.087
-269.326	747.093	-0.056	-0.153
-268.311	56.491	-0.193	0.188
-267.297	57.000	0.148	0.145
-266.282	618.369	-0.014	0.036
-265.267	-200.000	0.036	-0.209
-264.253	8.082	0.116	-0.087
-263.238	800.000	-0.084	-0.320
-262.224	-41.983	0.264	-0.136
-261.209	-109.159	-0.339	0.072
-260.195	19.569	-0.211	0.171
-259.180	-154.421	-0.203	-0.014
-258.165	800.000	-0.089	-0.259
-257.151	-50.222	-0.180	0.085
-256.136	267.510	0.141	-0.247
-255.122	-45.919	0.238	0.118
-254.107	-200.000	0.005	0.181
-253.092	-31.622	-0.284	0.160
-252.078	138.159	0.097	-0.128
-251.063	-153.589	-0.227	0.016
-250.049	-97.184	0.055	0.014
-249.034	-56.162	0.099	-0.044
-248.019	-200.000	-0.013	0.164
-247.005	-26.770	-0.151	0.089
-245.990	435.419	-0.090	-0.197
-244.976	-159.141	0.128	0.007
-243.961	60.282	-0.226	0.224
-242.946	-98.189	0.193	-0.050
-241.932	268.357	0.036	0.064
-240.917	428.885	-0.095	0.205
-239.903	800.000	-0.083	-0.278
-238.888	-48.183	0.382	-0.185
-237.873	-45.427	0.232	-0.115
-236.859	391.070	-0.100	-0.207
-235.844	302.687	0.053	-0.099
-234.830	-74.398	0.024	0.009
-233.815	157.030	-0.146	-0.202
-232.800	155.494	-0.013	0.018
-231.786	36.554	0.171	0.151
-230.771	-200.000	0.031	0.246
-229.757	132.461	0.347	0.449
-228.742	-59.994	0.106	0.045
-227.727	-178.136	-0.067	0.002
-226.713	-200.000	0.027	-0.370
-225.698	11.967	0.137	0.106
-224.684	274.947	0.053	0.093
-223.669	-133.502	-0.187	0.024
-222.655	5.277	-0.064	0.047
-221.640	407.206	-0.035	0.074
-220.625	19.850	0.143	-0.116
-219.611	-120.021	0.201	-0.035
-218.596	-98.547	0.151	-0.039
-217.582	34.168	-0.118	-0.103
-216.567	-88.375	-0.067	0.020
-215.552	800.000	0.207	-0.590
-214.538	502.808	0.094	-0.217
-213.523	-200.000	-0.053	0.405
-212.509	-200.000	0.043	-0.210
-211.494	-93.552	0.078	-0.022
-210.479	-101.930	-0.213	0.052
-209.465	800.000	0.037	0.118
-208.450	-93.983	0.424	0.117
-207.436	269.338	-0.088	-0.156
-206.421	98.006	-0.286	-0.330
-205.406	277.756	-0.050	0.088
-204.392	229.082	0.030	-0.049
-203.377	-200.000	-0.028	0.258
-202.363	-200.000	0.020	0.252
-201.348	-79.268	0.194	0.066
-200.333	-27.032	0.111	0.065
-199.319	216.202	-0.217	0.346
-198.304	122.179	0.072	-0.090
-197.290	800.000	0.023	0.097
-196.275	-38.023	-0.285	0.152
-195.260	-159.028	-0.189	-0.011
-194.246	-200.000	0.014	0.127
-193.231	-200.000	-0.008	0.287
-192.217	-200.000	0.030	0.164
-191.202	-105.345	-0.178	-0.041
-190.187	19.384	-0.229	-0.184
-189.173	-200.000	-0.043	0.213
-188.158	-41.739	0.229	-0.118
-187.144	800.000	0.020	-0.069
-186.129	-51.850	0.344	-0.160
-185.114	-200.000	-0.031	-0.181
-184.100	-101.590	-0.071	-0.017
-183.085	519.797	0.133	0.313
-182.071	0.632	0.187	0.134
-181.056	53.623	-0.123	-0.118
-180.042	-1.065	0.179	0.127
-179.027	363.187	0.033	-0.067
-178.012	183.271	0.111	0.164
-176.998	-158.043	-0.301	-0.018
-175.983	-58.508	-0.154	0.067
-174.969	-200.000	-0.001	-0.240
-173.954	-33.676	0.175	0.097
-172.939	22.563	-0.204	0.167
-171.925	-14.664	0.273	-0.176
-170.910	418.390	-0.030	-0.064
-169.896	-200.000	0.037	0.227
-168.881	127.244	-0.132	-0.168
-167.866	-200.000	0.020	0.458
-166.852	-68.260	-0.169	0.066
-165.837	456.196	0.062	-0.138
-164.823	800.000	0.033	-0.094
-163.808	59.427	-0.185	0.183
-162.793	15.343	0.080	0.063
-161.779	-51.360	0.152	0.071
-160.764	-83.746	0.167	-0.053
-159.750	-200.000	0.008	-0.181
-158.735	-200.000	-0.017	-0.086
-157.720	-107.161	0.106	-0.023
-156.706	-151.065	0.025	0.002
-155.691	-36.064	-0.201	0.109
-154.677	-95.973	-0.350	-0.093
-153.662	431.795	0.199	0.431
-152.647	-82.890	0.196	-0.063
-151.633	13.462	0.065	-0.050
-150.618	542.802	0.105	0.250
-149.604	-102.573	0.279	0.067
-148.589	-200.000	-0.006	-0.053
-147.574	-68.259	-0.152	0.059
-146.560	-171.964	0.259	0.008
-145.545	59.171	-0.192	-0.189
-144.531	-186.816	-0.120	-0.002
-143.516	39.591	0.064	0.058
-142.502	167.452	0.024	0.033
-141.487	305.191	-0.032	0.059
-140.472	-25.742	-0.123	0.072
-139.458	-59.373	0.297	-0.128
-138.443	164.909	-0.150	0.211
-137.429	-91.604	-0.094	-0.027
-136.414	33.607	-0.086	0.075
-135.399	-18.755	-0.386	-0.240
-134.385	159.405	-0.124	-0.172
-133.370	800.000	-0.058	-0.208
-132.356	800.000	-0.004	0.012
-131.341	-200.000	-0.070	-0.376
-130.326	-128.147	0.086	-0.012
-129.312	408.213	0.027	0.058
-128.297	458.933	0.154	0.341
-127.283	-32.607	-0.324	0.180
-126.268	-200.000	0.050	0.274
-125.253	323.843	0.202	-0.385
-124.239	4.998	-0.237	-0.174
-123.224	-133.083	0.105	0.013
-122.210	-28.370	0.229	0.132
-121.195	110.008	-0.200	-0.239
-120.180	-32.362	-0.054	0.030
