DTS Sentinel unit serial number:	SN413079Multiplexer serial number:	ORYXHardware model number:	OX4-SRSoftware version number:	ORYX F/W v4.00 Oryx Data Collector v3.7.2.0data status	okinstallation	princeton_trtdifferential loss correction	single-endedforward channel	channel 3reverse channel	N/Adate	2019/09/15time	01:56:35forward acquisition time	60.00reverse acquisition time	0.00gamma	496.2192k internal	0.2321k external	0.2321temperature offset calibration	0.9967default loss term (dB/km)	0.3790temperature slope calibration	1.0000multiplexer offset coefficient	1.0000multiplexer slope coefficient	1.0000fibre end	0.00T internal ref (°C)	31.75T ext. ref 1 (°C)	4.52T ext. ref 2 (°C)	26.66length (m)	temperature (°C)	Stokes	anti-Stokes-747.200	-200.000	0.055	-0.391
-746.185	-200.000	0.016	0.081
-745.171	404.599	-0.060	0.127
-744.156	-200.000	-0.015	-0.082
-743.142	-200.000	0.018	0.367
-742.127	-200.000	0.073	0.381
-741.112	800.000	0.065	0.181
-740.098	-200.000	0.004	-0.243
-739.083	-23.736	0.391	0.237
-738.069	-9.931	-0.336	0.226
-737.054	-200.000	0.055	0.281
-736.039	-19.803	0.110	-0.069
-735.025	128.014	-0.123	0.159
-734.010	740.954	0.058	0.158
-732.996	-31.345	-0.106	0.060
-731.981	-158.798	-0.450	-0.026
-730.966	-36.009	-0.261	0.143
-729.952	-200.000	0.013	-0.120
-728.937	-200.000	-0.011	-0.074
-727.923	770.282	-0.045	-0.125
-726.908	-77.611	-0.181	0.063
-725.894	800.000	-0.122	-0.346
-724.879	-90.508	-0.351	0.103
-723.864	800.000	0.065	-0.191
-722.850	417.332	-0.058	0.125
-721.835	-86.628	-0.071	0.022
-720.821	-200.000	-0.047	-0.249
-719.806	13.654	-0.112	-0.088
-718.791	371.391	-0.089	0.182
-717.777	-200.000	-0.005	-0.295
-716.762	-46.686	-0.289	-0.143
-715.748	15.507	-0.082	-0.065
-714.733	78.594	0.175	0.188
-713.718	-200.000	0.016	0.126
-712.704	-200.000	0.012	0.066
-711.689	-148.998	0.197	-0.016
-710.675	-200.000	0.013	0.321
-709.660	-0.104	0.200	-0.144
-708.645	23.782	-0.305	-0.253
-707.631	37.511	0.120	-0.107
-706.616	800.000	-0.026	-0.106
-705.602	-116.318	0.213	-0.040
-704.587	-200.000	-0.060	-0.311
-703.572	534.656	-0.101	-0.241
-702.558	63.480	-0.058	-0.058
-701.543	74.547	-0.225	-0.239
-700.529	-71.162	-0.099	0.038
-699.514	-193.670	-0.122	-0.001
-698.499	3.898	0.243	-0.179
-697.485	-104.956	0.213	-0.049
-696.470	599.102	-0.133	-0.334
-695.456	800.000	0.093	0.320
-694.441	-34.624	-0.119	0.066
-693.426	1.489	0.097	-0.070
-692.412	800.000	-0.031	-0.107
-691.397	138.647	-0.067	0.089
-690.383	131.039	0.149	0.193
-689.368	159.477	-0.093	-0.131
-688.354	39.972	0.143	0.130
-687.339	-49.530	-0.066	0.032
-686.324	-200.000	-0.008	-0.134
-685.310	-70.131	-0.356	0.137
-684.295	561.863	-0.114	-0.279
-683.281	-125.992	0.270	-0.041
-682.266	87.150	-0.225	-0.251
-681.251	-200.000	0.025	-0.171
-680.237	-136.059	-0.202	-0.024
-679.222	-182.079	-0.305	-0.006
-678.208	-177.865	-0.349	-0.008
-677.193	188.690	0.101	0.152
-676.178	-22.425	-0.238	-0.146
-675.164	14.380	-0.079	-0.062
-674.149	162.298	0.165	0.234
-673.135	115.028	-0.417	0.513
-672.120	497.310	0.043	0.100
-671.105	63.417	-0.048	-0.049
-670.091	-32.523	0.292	-0.164
-669.076	-82.925	-0.125	0.040
-668.062	-69.599	0.266	0.103
-667.047	800.000	-0.020	0.058
-666.032	800.000	-0.027	-0.083
-665.018	800.000	0.082	-0.257
-664.003	65.225	-0.238	-0.242
-662.989	-96.523	-0.276	0.073
-661.974	644.499	-0.052	0.133
-660.959	84.117	-0.144	-0.158
-659.945	-32.415	0.049	-0.027
-658.930	-88.864	0.313	0.094
-657.916	-147.586	0.101	-0.009
-656.901	69.485	-0.302	-0.313
-655.886	800.000	0.058	0.172
-654.872	11.018	0.209	-0.161
-653.857	-200.000	-0.041	-0.211
-652.843	-74.242	-0.310	0.113
-651.828	800.000	0.127	0.461
-650.814	-48.426	-0.175	0.085
-649.799	-200.000	-0.002	-0.042
-648.784	800.000	0.006	-0.026
-647.770	800.000	-0.020	-0.077
-646.755	-122.142	-0.174	0.029
-645.741	-152.533	-0.236	-0.017
-644.726	-200.000	0.021	0.246
-643.711	-200.000	0.021	-0.100
-642.697	-200.000	0.009	-0.254
-641.682	-64.643	0.284	-0.116
-640.668	66.995	0.119	-0.122
-639.653	-157.623	-0.178	0.011
-638.638	-69.629	0.343	0.132
-637.624	-68.153	-0.289	-0.113
-636.609	-200.000	-0.014	-0.141
-635.595	-200.000	-0.028	0.290
-634.580	-115.569	-0.315	-0.060
-633.565	-70.665	-0.050	0.019
-632.551	-87.510	0.097	-0.029
-631.536	800.000	0.029	0.086
-630.522	800.000	0.024	-0.085
-629.507	800.000	-0.088	0.335
-628.492	511.926	0.118	-0.278
-627.478	-96.895	-0.177	0.047
-626.463	-140.410	-0.385	-0.040
-625.449	-22.819	0.241	0.146
-624.434	98.327	0.248	-0.287
-623.419	150.291	-0.090	-0.123
-622.405	185.890	0.118	-0.176
-621.390	130.327	-0.139	-0.179
-620.376	-91.529	0.226	0.065
-619.361	-200.000	-0.007	-0.189
-618.346	156.411	0.094	-0.130
-617.332	-177.863	-0.442	-0.011
-616.317	94.098	-0.069	0.079
-615.303	393.259	0.127	0.265
-614.288	-200.000	-0.018	-0.201
-613.273	-51.126	0.291	-0.137
-612.259	54.344	-0.039	-0.038
-611.244	-200.000	0.028	0.320
-610.230	-200.000	-0.040	-0.188
-609.215	685.934	-0.106	0.279
-608.201	42.153	-0.251	-0.229
-607.186	-17.479	-0.158	-0.100
-606.171	341.242	-0.169	-0.332
-605.157	-200.000	-0.020	-0.420
-604.142	56.933	0.098	0.096
-603.128	800.000	0.004	0.014
-602.113	59.054	-0.060	0.059
-601.098	-93.705	-0.376	-0.104
-600.084	-45.485	0.164	-0.082
-599.069	-10.889	0.307	-0.204
-598.055	457.066	0.048	-0.107
-597.040	800.000	-0.037	-0.111
-596.025	28.626	-0.132	0.113
-595.011	-13.013	0.164	-0.107
-593.996	-200.000	0.042	0.360
-592.982	-200.000	0.033	-0.197
-591.967	-200.000	-0.011	0.087
-590.952	-7.867	-0.114	0.077
-589.938	-200.000	-0.002	-0.242
-588.923	-200.000	-0.359	-0.001
-587.909	156.726	0.179	-0.249
-586.894	800.000	0.052	0.162
-585.879	105.281	0.117	-0.139
-584.865	-200.000	-0.044	-0.375
-583.850	578.727	0.123	0.302
-582.836	-27.700	0.371	0.216
-581.821	53.911	0.168	-0.162
-580.806	-38.790	0.136	0.072
-579.792	-24.061	0.245	-0.147
-578.777	221.494	-0.143	-0.231
-577.763	-60.747	-0.082	-0.035
-576.748	800.000	-0.092	-0.295
-575.733	574.974	-0.123	0.301
-574.719	-200.000	0.050	-0.400
-573.704	-32.137	-0.106	-0.059
-572.690	30.146	-0.051	-0.044
-571.675	492.662	0.019	-0.044
-570.661	246.620	-0.143	-0.242
-569.646	262.273	-0.157	-0.274
-568.631	-200.000	0.012	-0.062
-567.617	457.575	-0.084	-0.188
-566.602	145.188	-0.032	0.044
-565.588	-200.000	0.021	-0.333
-564.573	455.526	-0.048	0.107
-563.558	-51.828	0.137	-0.064
-562.544	-108.784	0.345	-0.074
-561.529	-25.812	0.092	0.054
-560.515	-65.215	0.132	-0.053
-559.500	-53.489	-0.330	-0.152
-558.485	285.878	-0.143	0.258
-557.471	-18.622	0.066	-0.042
-556.456	83.393	0.123	-0.134
-555.442	369.552	0.071	0.144
-554.427	-200.000	-0.070	-0.353
-553.412	74.701	0.151	0.159
-552.398	183.257	-0.069	0.102
-551.383	-98.431	0.139	0.036
-550.369	-105.582	-0.162	0.037
-549.354	-200.000	0.007	-0.096
-548.339	68.491	-0.383	0.394
-547.325	489.796	0.109	-0.251
-546.310	211.140	-0.053	-0.084
-545.296	-59.508	0.338	-0.145
-544.281	303.622	-0.077	0.142
-543.266	-200.000	0.021	-0.289
-542.252	39.805	-0.167	0.151
-541.237	14.690	-0.172	0.135
-540.223	5.559	-0.317	-0.235
-539.208	-200.000	-0.041	-0.252
-538.193	-200.000	-0.028	0.154
-537.179	120.948	-0.119	-0.149
-536.164	-200.000	-0.034	0.324
-535.150	88.155	-0.139	-0.155
-534.135	-35.408	0.287	0.156
-533.121	112.055	0.156	-0.189
-532.106	-76.902	0.123	0.043
-531.091	-59.794	-0.129	0.055
-530.077	9.480	0.322	-0.245
-529.062	800.000	0.090	0.278
-528.048	105.624	-0.084	0.100
-527.033	-88.962	0.165	0.049
-526.018	202.081	-0.162	-0.251
-525.004	144.840	0.143	-0.192
-523.989	800.000	0.080	0.286
-522.975	-193.503	-0.360	0.003
-521.960	156.881	-0.137	-0.190
-520.945	-200.000	-0.008	0.114
-519.931	226.795	0.087	0.141
-518.916	-61.031	-0.205	0.087
-517.902	54.527	-0.115	0.111
-516.887	609.707	-0.061	-0.152
-515.872	-67.932	-0.019	-0.008
-514.858	-41.184	-0.284	0.147
-513.843	364.778	-0.084	0.169
-512.829	-158.109	0.235	-0.014
-511.814	241.160	0.183	-0.307
-510.799	800.000	0.050	-0.210
-509.785	477.790	-0.026	0.060
-508.770	85.363	0.274	0.301
-507.756	-162.019	-0.080	0.004
-506.741	537.140	0.086	-0.205
-505.726	-80.667	0.123	0.041
-504.712	-165.272	0.199	-0.009
-503.697	-200.000	-0.031	0.307
-502.683	24.417	-0.097	0.080
-501.668	-200.000	0.013	0.108
-500.653	310.779	0.195	0.366
-499.639	7.671	0.151	-0.113
-498.624	35.115	-0.139	-0.122
-497.610	-200.000	-0.044	-0.437
-496.595	-72.881	0.387	0.143
-495.581	-28.587	0.206	-0.119
-494.566	419.915	-0.165	-0.353
-493.551	-26.984	0.143	0.084
-492.537	-200.000	-0.024	0.112
-491.522	-97.513	-0.176	-0.046
-490.508	-55.493	-0.162	0.073
-489.493	-200.000	-0.023	-0.223
-488.478	-200.000	0.016	-0.200
-487.464	-200.000	0.018	0.141
-486.449	-117.042	0.080	-0.015
-485.435	125.622	0.281	-0.355
-484.420	8.695	-0.271	0.205
-483.405	545.232	0.014	-0.034
-482.391	-92.977	-0.194	-0.054
-481.376	-55.525	0.128	-0.057
-480.362	-197.497	0.073	-0.000
-479.347	-200.000	-0.006	-0.045
-478.332	-165.380	0.075	-0.003
-477.318	-58.598	-0.109	-0.047
-476.303	-88.380	0.147	0.044
-475.289	211.944	0.098	0.155
-474.274	239.149	-0.081	-0.135
-473.259	-105.357	-0.195	-0.044
-472.245	286.647	-0.044	0.079
-471.230	-27.947	-0.401	-0.232
-470.216	-30.539	0.360	-0.204
-469.201	-89.428	-0.396	-0.116
-468.186	-40.078	-0.384	0.200
-467.172	-200.000	0.067	0.328
-466.157	-200.000	0.054	0.305
-465.143	6.990	0.316	0.235
-464.128	-200.000	-0.014	0.413
-463.113	680.647	0.082	-0.214
-462.099	-35.391	0.227	-0.123
-461.084	158.127	0.210	0.291
-460.070	-27.327	0.353	0.205
-459.055	-22.907	0.286	0.173
-458.040	151.725	-0.162	0.221
-457.026	125.897	-0.074	0.093
-456.011	226.537	-0.199	-0.323
-454.997	-200.000	0.010	-0.179
-453.982	800.000	-0.026	0.107
-452.968	-200.000	0.094	0.454
-451.953	-129.744	-0.143	0.020
-450.938	223.782	-0.038	0.062
-449.924	-200.000	0.048	0.296
-448.909	-84.113	-0.328	-0.104
-447.895	27.014	-0.109	-0.092
-446.880	-200.000	0.024	0.183
-445.865	-150.462	-0.046	0.004
-444.851	-180.406	-0.394	0.008
-443.836	-58.411	-0.272	-0.118
-442.822	779.443	0.047	-0.128
-441.807	57.765	-0.139	0.135
-440.792	-97.657	0.128	0.033
-439.778	-152.353	-0.542	0.039
-438.763	-200.000	-0.032	-0.178
-437.749	-105.593	0.068	-0.015
-436.734	-48.190	0.315	-0.152
-435.719	800.000	-0.073	0.211
-434.705	508.267	0.101	-0.235
-433.690	800.000	0.060	0.205
-432.676	-200.000	-0.024	-0.170
-431.661	390.608	-0.208	0.430
-430.646	-109.939	-0.140	-0.029
-429.632	134.108	0.092	-0.119
-428.617	65.712	0.210	0.212
-427.603	-59.160	0.177	-0.076
-426.588	-83.789	0.130	-0.041
-425.573	-142.009	0.234	0.023
-424.559	-140.825	0.211	0.022
-423.544	-159.200	-0.156	0.009
-422.530	322.469	0.073	0.139
-421.515	-170.899	-0.209	-0.007
-420.500	241.035	-0.034	-0.056
-419.486	349.327	0.175	0.346
-418.471	698.763	-0.081	-0.213
-417.457	800.000	-0.075	-0.254
-416.442	-200.000	-0.023	-0.232
-415.428	-111.418	0.377	0.077
-414.413	5.115	-0.158	0.116
-413.398	-200.000	0.034	-0.163
-412.384	150.744	0.076	-0.103
-411.369	86.888	-0.433	-0.477
-410.355	-70.096	0.079	0.030
-409.340	90.597	0.058	-0.064
-408.325	-20.169	-0.198	-0.121
-407.311	150.753	0.053	-0.072
-406.296	154.842	-0.159	-0.218
-405.282	719.571	0.045	0.120
-404.267	-71.561	-0.358	0.133
-403.252	-200.000	-0.005	-0.078
-402.238	-163.609	-0.356	0.017
-401.223	800.000	0.047	0.179
-400.209	800.000	-0.022	0.090
-399.194	-200.000	0.032	-0.255
-398.179	-138.246	0.331	0.037
-397.165	-200.000	-0.013	-0.120
-396.150	-12.226	0.063	0.041
-395.136	800.000	0.071	-0.227
-394.121	87.212	0.017	-0.019
-393.106	800.000	0.020	-0.074
-392.092	100.809	-0.060	-0.069
-391.077	800.000	-0.057	0.237
-390.063	290.673	0.157	-0.284
-389.048	-86.706	-0.182	-0.056
-388.033	-121.344	-0.255	-0.042
-387.019	-161.743	-0.315	0.016
-386.004	-97.101	-0.221	0.058
-384.990	-168.739	0.173	0.007
-383.975	800.000	0.151	-0.425
-382.960	259.613	0.057	0.099
-381.946	101.912	0.097	0.112
-380.931	-143.834	0.148	0.014
-379.917	36.066	-0.148	0.130
-378.902	46.668	0.138	0.128
-377.888	800.000	0.026	0.102
-376.873	44.260	0.068	-0.062
-375.858	-143.557	-0.356	-0.034
-374.844	683.460	-0.118	0.307
-373.829	-200.000	-0.014	-0.097
-372.815	-31.119	0.063	-0.035
-371.800	245.071	0.095	0.160
-370.785	-132.573	-0.103	0.013
-369.771	482.101	0.108	0.243
-368.756	395.394	0.050	0.103
-367.742	26.705	0.117	-0.098
-366.727	800.000	0.059	-0.190
-365.712	652.466	0.089	0.228
-364.698	6.880	-0.365	0.271
-363.683	8.814	0.430	0.323
-362.669	-87.388	-0.278	-0.084
-361.654	59.982	0.280	0.276
-360.639	448.091	-0.097	0.213
-359.625	800.000	0.040	-0.140
-358.610	-2.036	0.168	0.118
-357.596	244.177	-0.166	0.278
-356.581	-42.330	0.168	-0.085
-355.566	5.270	-0.415	0.305
-354.552	-200.000	-0.009	0.131
-353.537	242.341	0.017	-0.029
-352.523	183.671	0.159	-0.234
-351.508	-200.000	-0.004	0.168
-350.493	-96.896	-0.358	-0.094
-349.479	120.592	-0.074	-0.091
-348.464	800.000	0.036	0.117
-347.450	-200.000	0.037	0.217
-346.435	56.564	0.141	-0.137
-345.420	-29.029	0.127	-0.073
-344.406	-200.000	0.007	-0.061
-343.391	-17.058	0.177	0.111
-342.377	-200.000	0.045	0.298
-341.362	49.316	-0.299	0.280
-340.348	-137.926	-0.142	-0.016
-339.333	33.875	0.182	-0.157
-338.318	-22.082	-0.043	-0.026
-337.304	-14.208	-0.220	-0.141
-336.289	800.000	-0.056	0.168
-335.275	-179.427	0.171	0.004
-334.260	23.014	-0.129	-0.105
-333.245	-134.383	0.195	0.024
-332.231	-200.000	0.008	-0.088
-331.216	-169.164	0.076	-0.003
-330.202	61.205	0.152	-0.150
-329.187	193.566	0.168	-0.253
-328.172	-116.187	0.240	0.044
-327.158	-200.000	0.009	0.203
-326.143	310.019	0.029	-0.053
-325.129	-200.000	0.016	0.078
-324.114	-139.250	0.107	-0.011
-323.099	-31.824	0.072	-0.040
-322.085	25.623	-0.133	-0.110
-321.070	179.375	0.103	0.150
-320.056	-12.336	-0.035	0.023
-319.041	45.748	0.062	0.057
-318.026	-34.036	0.338	-0.185
-317.012	221.731	0.146	-0.233
-315.997	60.451	-0.097	-0.095
-314.983	301.825	-0.069	-0.128
-313.968	-200.000	0.021	-0.340
-312.953	-200.000	-0.004	0.035
-311.939	-19.995	0.218	0.134
-310.924	-200.000	0.000	0.059
-309.910	-200.000	0.029	-0.246
-308.895	112.523	-0.256	0.308
-307.880	73.989	0.204	0.213
-306.866	-76.391	0.318	0.111
-305.851	131.080	0.063	-0.081
-304.837	800.000	-0.063	-0.199
-303.822	281.091	-0.172	0.307
-302.807	-200.000	-0.011	0.051
-301.793	-17.977	-0.177	-0.110
-300.778	71.705	0.028	0.029
-299.764	-151.836	-0.189	0.014
-298.749	489.443	-0.055	0.126
-297.735	800.000	0.108	0.300
-296.720	294.866	-0.116	0.210
-295.705	110.023	0.258	-0.307
-294.691	-13.366	0.257	0.166
-293.676	250.958	-0.061	0.103
-292.662	224.656	0.175	0.281
-291.647	-91.240	-0.272	0.077
-290.632	-200.000	0.061	-0.323
-289.618	115.914	-0.153	-0.186
-288.603	260.206	0.100	-0.172
-287.589	-84.323	0.234	-0.073
-286.574	125.885	-0.105	-0.132
-285.559	-53.177	-0.184	0.084
-284.545	3.049	-0.251	-0.181
-283.530	27.951	-0.020	-0.016
-282.516	80.881	-0.147	0.157
-281.501	-55.536	0.271	0.120
-280.486	-28.272	-0.104	-0.060
-279.472	-161.839	-0.168	0.008
-278.457	105.708	0.104	-0.122
-277.443	-200.000	0.020	0.096
-276.428	-26.688	0.046	0.027
-275.413	239.856	0.087	-0.144
-274.399	800.000	-0.059	0.222
-273.384	-61.906	-0.272	0.113
-272.370	126.654	-0.297	-0.373
-271.355	148.713	-0.166	-0.222
-270.340	-38.340	-0.080	0.042
-269.326	-20.074	0.254	-0.156
-268.311	-104.529	0.346	0.079
-267.297	-93.173	-0.400	0.110
-266.282	503.650	0.119	-0.274
-265.267	-165.360	-0.055	-0.002
-264.253	800.000	0.057	0.167
-263.238	-9.157	-0.151	0.100
-262.224	-200.000	0.023	0.185
-261.209	198.810	0.041	0.063
-260.195	166.366	-0.035	-0.050
-259.180	59.206	0.110	0.108
-258.165	-25.357	0.011	0.007
-257.151	-67.581	-0.397	-0.154
-256.136	-200.000	0.048	-0.213
-255.122	-200.000	0.006	0.062
-254.107	9.501	-0.167	-0.125
-253.092	-138.131	0.117	-0.013
-252.078	99.815	0.166	0.191
-251.063	800.000	-0.068	0.239
-250.049	-102.677	0.389	0.092
-249.034	-200.000	0.004	-0.082
-248.019	341.867	0.137	0.265
-247.005	59.918	0.067	-0.066
-245.990	-200.000	0.045	-0.279
-244.976	800.000	0.069	0.224
-243.961	146.270	0.233	-0.310
-242.946	125.476	0.154	-0.192
-241.932	-200.000	0.037	-0.245
-240.917	-111.397	-0.460	0.093
-239.903	-66.574	-0.239	-0.094
-238.888	-77.926	0.190	-0.065
-237.873	143.848	0.093	0.123
-236.859	-24.871	-0.180	0.106
-235.844	-59.898	0.039	0.016
-234.830	193.680	0.116	0.173
-233.815	610.796	-0.108	0.269
-232.800	-146.510	0.273	-0.024
-231.786	-169.121	0.311	0.011
-230.771	53.205	-0.175	-0.166
-229.757	800.000	0.064	-0.263
-228.742	-31.532	0.137	0.076
-227.727	344.157	-0.130	-0.252
-226.713	800.000	0.069	0.195
-225.698	-86.061	-0.165	-0.050
-224.684	166.001	-0.062	-0.087
-223.669	357.812	-0.175	0.346
-222.655	-2.009	0.199	0.138
-221.640	286.956	0.157	0.282
-220.625	195.159	-0.186	0.280
-219.611	174.331	-0.083	0.119
-218.596	800.000	0.116	0.343
-217.582	-48.974	-0.183	0.087
-216.567	-66.933	0.267	0.104
-215.552	-176.951	0.160	-0.004
-214.538	-82.587	-0.304	-0.097
-213.523	-111.457	0.109	0.022
-212.509	-101.760	0.088	-0.021
-211.494	713.763	0.059	0.154
-210.479	36.276	0.060	-0.052
-209.465	-200.000	-0.036	0.161
-208.450	106.207	-0.166	0.194
-207.436	86.375	-0.285	0.311
-206.421	356.787	0.049	-0.096
-205.406	-165.755	0.261	0.011
-204.392	111.849	-0.207	-0.248
-203.377	800.000	0.148	-0.408
-202.363	-18.430	-0.180	0.111
-201.348	492.287	-0.039	-0.089
-200.333	-141.082	0.123	0.012
-199.319	-15.363	0.056	0.035
-198.304	12.534	0.359	-0.274
-197.290	-45.918	-0.297	-0.145
-196.275	98.183	0.141	0.161
-195.260	352.638	0.168	0.330
-194.246	800.000	0.022	-0.079
-193.231	-200.000	-0.041	-0.346
-192.217	41.958	0.103	-0.093
-191.202	800.000	0.009	0.028
-190.187	45.871	0.180	0.165
-189.173	104.562	-0.302	-0.352
-188.158	-200.000	0.011	0.119
-187.144	-111.660	-0.111	-0.022
-186.129	-13.798	-0.078	-0.050
-185.114	-200.000	-0.039	0.240
-184.100	-200.000	0.033	0.324
-183.085	94.334	0.155	0.174
-182.071	-82.292	-0.057	-0.018
-181.056	64.452	-0.151	0.150
-180.042	-200.000	-0.007	0.308
-179.027	-161.206	-0.429	-0.022
-178.012	-106.299	-0.098	0.022
-176.998	195.023	-0.063	-0.094
-175.983	-20.228	-0.271	0.165
-174.969	-163.234	0.150	-0.007
-173.954	-113.700	0.142	0.027
-172.939	48.199	0.142	-0.131
-171.925	800.000	0.049	-0.185
-170.910	-46.122	0.242	-0.118
-169.896	118.381	0.100	0.122
-168.881	118.573	-0.213	-0.260
-167.866	378.962	0.199	0.403
-166.852	24.768	-0.235	0.193
-165.837	83.875	0.103	-0.111
-164.823	-20.841	0.159	0.097
-163.808	64.158	-0.168	0.167
-162.793	-89.977	0.034	0.010
-161.779	-46.423	0.047	-0.023
-160.764	74.897	0.088	-0.091
-159.750	167.196	-0.063	0.088
-158.735	-112.478	0.511	0.101
-157.720	800.000	0.059	-0.193
-156.706	-94.977	0.049	0.013
-155.691	-161.875	-0.142	-0.007
-154.677	82.291	0.158	-0.169
-153.662	-200.000	-0.013	0.148
-152.647	142.875	-0.192	0.252
-151.633	-200.000	0.050	0.243
-150.618	285.456	-0.099	-0.175
-149.604	-18.716	0.195	0.120
-148.589	83.678	0.146	-0.158
-147.574	-43.555	0.194	-0.096
-146.560	-72.201	-0.239	0.087
-145.545	-53.468	-0.333	0.150
-144.531	-200.000	0.023	0.142
-143.516	-73.436	-0.081	-0.029
-142.502	-157.140	0.163	0.010
-141.487	800.000	0.030	-0.106
-140.472	26.044	0.200	-0.165
-139.458	173.516	0.060	-0.085
-138.443	88.843	-0.121	0.133
-137.429	-61.465	-0.115	0.048
-136.414	-146.486	-0.181	-0.016
-135.399	-200.000	-0.043	0.624
-134.385	631.585	0.033	0.082
-133.370	-200.000	0.004	-0.194
-132.356	-33.715	-0.197	0.107
-131.341	800.000	-0.074	-0.210
-130.326	-200.000	-0.017	0.124
-129.312	-38.329	-0.150	-0.079
-128.297	-200.000	-0.048	0.413
-127.283	44.005	-0.204	-0.184
-126.268	160.892	0.129	-0.178
-125.253	38.090	-0.134	0.118
-124.239	157.872	0.173	0.237
-123.224	475.371	0.070	0.157
-122.210	-91.358	0.337	-0.095
-121.195	-200.000	0.051	0.440
