DTS Sentinel unit serial number:	SN413079Multiplexer serial number:	ORYXHardware model number:	OX4-SRSoftware version number:	ORYX F/W v4.00 Oryx Data Collector v3.7.2.0data status	okinstallation	princeton_trtdifferential loss correction	single-endedforward channel	channel 3reverse channel	N/Adate	2019/09/18time	21:16:35forward acquisition time	60.00reverse acquisition time	0.00gamma	496.2192k internal	0.2345k external	0.2345temperature offset calibration	0.9995default loss term (dB/km)	0.3790temperature slope calibration	1.0000multiplexer offset coefficient	1.0000multiplexer slope coefficient	1.0000fibre end	0.00T internal ref (°C)	25.78T ext. ref 1 (°C)	0.83T ext. ref 2 (°C)	18.04length (m)	temperature (°C)	Stokes	anti-Stokes-747.200	-18.693	0.045	0.028
-746.185	-200.000	0.011	0.183
-745.171	-97.653	0.215	0.056
-744.156	-42.877	-0.340	0.173
-743.142	-55.830	0.285	0.127
-742.127	201.406	-0.141	0.217
-741.112	116.244	-0.100	-0.122
-740.098	61.302	-0.080	-0.080
-739.083	-36.140	0.145	0.078
-738.069	-38.211	-0.168	0.089
-737.054	370.825	0.131	0.267
-736.039	-124.221	-0.368	-0.058
-735.025	164.076	0.265	-0.374
-734.010	116.551	-0.304	-0.373
-732.996	-166.499	-0.231	-0.010
-731.981	-46.277	0.277	0.136
-730.966	547.416	0.155	-0.372
-729.952	-79.790	0.295	-0.099
-728.937	-43.154	-0.423	0.214
-727.923	21.628	-0.293	-0.238
-726.908	800.000	0.044	0.161
-725.894	100.819	0.084	0.098
-724.879	-136.217	-0.326	-0.038
-723.864	587.873	-0.061	0.151
-722.850	-33.010	0.096	-0.053
-721.835	16.155	0.298	0.235
-720.821	569.233	0.106	-0.257
-719.806	-25.310	0.216	0.128
-718.791	800.000	-0.135	-0.545
-717.777	-11.433	-0.337	0.222
-716.762	181.602	-0.194	0.285
-715.748	257.880	-0.050	-0.087
-714.733	-41.075	-0.072	-0.037
-713.718	-168.545	-0.198	-0.008
-712.704	-96.795	0.221	0.058
-711.689	-117.608	0.279	0.050
-710.675	23.785	0.179	-0.148
-709.660	128.530	0.077	0.098
-708.645	-86.117	-0.226	-0.070
-707.631	-38.207	-0.222	-0.118
-706.616	-200.000	0.018	0.083
-705.602	-138.689	-0.265	-0.029
-704.587	74.864	0.256	-0.270
-703.572	781.576	0.069	-0.188
-702.558	-46.986	-0.022	0.011
-701.543	174.664	0.143	-0.206
-700.529	-200.000	0.020	0.241
-699.514	77.893	-0.121	-0.129
-698.499	800.000	-0.014	-0.056
-697.485	444.186	0.097	-0.212
-696.470	-135.948	-0.235	-0.028
-695.456	596.221	0.026	-0.063
-694.441	-127.255	0.333	0.049
-693.426	-132.283	-0.371	0.048
-692.412	590.476	-0.139	-0.343
-691.397	-200.000	-0.008	-0.131
-690.383	737.719	0.046	-0.124
-689.368	34.216	0.187	-0.163
-688.354	132.325	-0.190	0.244
-687.339	13.971	-0.027	-0.021
-686.324	391.156	0.176	-0.366
-685.310	-117.344	-0.083	0.015
-684.295	18.946	-0.522	-0.418
-683.281	87.266	0.022	0.024
-682.266	-95.504	-0.007	0.002
-681.251	-42.523	-0.118	-0.060
-680.237	15.283	-0.149	-0.117
-679.222	-200.000	-0.008	-0.072
-678.208	12.142	-0.021	0.016
-677.193	383.268	-0.140	0.288
-676.178	-104.895	0.101	-0.023
-675.164	-200.000	-0.045	-0.199
-674.149	20.242	0.254	-0.205
-673.135	800.000	0.075	-0.257
-672.120	55.714	-0.262	0.253
-671.105	10.192	0.146	-0.111
-670.091	800.000	-0.052	-0.156
-669.076	487.433	0.161	-0.368
-668.062	130.450	0.222	0.284
-667.047	210.521	0.132	0.206
-666.032	-128.478	-0.197	0.028
-665.018	-109.787	0.137	-0.029
-664.003	652.981	0.198	-0.507
-662.989	138.008	-0.131	0.172
-661.974	102.275	0.183	-0.213
-660.959	-200.000	-0.031	0.370
-659.945	203.856	-0.196	0.303
-658.930	-18.532	0.173	-0.107
-657.916	208.202	0.062	-0.096
-656.901	-101.184	-0.150	-0.037
-655.886	15.448	0.161	0.126
-654.872	437.051	-0.090	0.195
-653.857	800.000	-0.070	-0.221
-652.843	69.986	-0.255	0.262
-651.828	144.112	0.265	0.352
-650.814	-71.883	-0.277	0.103
-649.799	40.434	0.251	0.226
-648.784	-74.064	0.359	0.130
-647.770	150.330	-0.273	-0.369
-646.755	-4.774	0.035	0.024
-645.741	138.590	0.267	-0.350
-644.726	238.150	0.072	0.119
-643.711	257.445	0.101	0.173
-642.697	-200.000	-0.049	-0.221
-641.682	-7.524	0.093	-0.063
-640.668	-173.158	-0.189	-0.006
-639.653	144.778	-0.191	-0.254
-638.638	78.737	-0.021	0.022
-637.624	29.668	-0.292	0.247
-636.609	-131.696	-0.098	0.013
-635.595	-200.000	-0.010	-0.315
-634.580	-39.919	-0.410	-0.213
-633.565	-23.964	-0.289	-0.172
-632.551	-53.514	0.095	0.043
-631.536	443.593	-0.089	-0.194
-630.522	222.137	-0.091	0.147
-629.507	-138.928	-0.133	0.014
-628.492	-200.000	0.054	-0.297
-627.478	-150.181	-0.514	-0.040
-626.463	-200.000	-0.003	-0.369
-625.449	25.052	0.174	-0.144
-624.434	107.225	-0.097	0.115
-623.419	-173.402	-0.305	0.009
-622.405	136.828	0.201	0.261
-621.390	-59.791	-0.188	-0.080
-620.376	-153.821	0.156	-0.011
-619.361	734.465	0.010	0.027
-618.346	-118.159	-0.287	0.051
-617.332	51.887	-0.238	0.225
-616.317	-120.256	-0.175	-0.030
-615.303	65.554	0.124	-0.125
-614.288	-63.380	-0.186	0.076
-613.273	-16.866	0.302	0.190
-612.259	-156.959	-0.136	-0.008
-611.244	343.575	0.054	-0.105
-610.230	-83.768	-0.226	-0.072
-609.215	800.000	0.055	-0.170
-608.201	800.000	-0.082	-0.253
-607.186	337.609	-0.112	0.217
-606.171	800.000	0.111	0.364
-605.157	-200.000	-0.025	-0.138
-604.142	277.668	0.037	-0.066
-603.128	35.171	-0.236	0.206
-602.113	34.294	0.221	-0.191
-601.098	179.814	-0.185	-0.270
-600.084	-116.339	-0.140	0.026
-599.069	83.348	0.200	-0.216
-598.055	-200.000	-0.042	0.307
-597.040	54.392	0.318	0.304
-596.025	-33.360	-0.100	-0.055
-595.011	218.641	0.049	0.079
-593.996	46.342	-0.139	0.128
-592.982	415.864	-0.079	-0.167
-591.967	-21.309	-0.044	-0.027
-590.952	-31.537	-0.231	0.129
-589.938	-78.794	0.257	-0.087
-588.923	-150.377	-0.378	-0.029
-587.909	12.381	0.039	-0.030
-586.894	-200.000	0.016	-0.179
-585.879	-200.000	-0.001	0.018
-584.865	144.547	-0.097	0.129
-583.850	800.000	0.076	0.220
-582.836	-200.000	-0.044	-0.220
-581.821	-30.736	0.236	-0.133
-580.806	-110.400	-0.250	-0.052
-579.792	19.358	0.106	-0.085
-578.777	-81.584	-0.273	0.089
-577.763	363.951	0.030	-0.059
-576.748	694.407	0.102	0.266
-575.733	487.824	-0.235	-0.532
-574.719	522.303	-0.060	-0.140
-573.704	-200.000	-0.012	-0.076
-572.690	-38.135	-0.092	-0.048
-571.675	-74.618	-0.142	0.051
-570.661	800.000	-0.110	0.408
-569.646	-147.087	0.276	0.023
-568.631	89.172	-0.253	0.280
-567.617	87.776	-0.061	0.067
-566.602	-48.936	-0.271	-0.129
-565.588	89.195	-0.261	-0.289
-564.573	-109.056	0.084	-0.018
-563.558	-114.070	0.078	0.015
-562.544	429.367	0.201	-0.431
-561.529	-21.374	0.232	0.141
-560.515	25.523	-0.112	-0.092
-559.500	186.071	-0.079	-0.117
-558.485	-200.000	0.009	-0.072
-557.471	110.541	-0.150	-0.179
-556.456	96.185	0.062	0.070
-555.442	-200.000	0.005	0.052
-554.427	-83.922	-0.178	-0.056
-553.412	-200.000	0.001	0.131
-552.398	-59.129	-0.070	0.030
-551.383	-76.427	0.462	0.161
-550.369	-200.000	-0.031	-0.141
-549.354	-131.357	0.108	-0.014
-548.339	-176.862	0.059	0.001
-547.325	-135.857	0.134	-0.016
-546.310	-27.865	0.090	-0.052
-545.296	494.645	-0.107	-0.243
-544.281	231.598	0.114	-0.185
-543.266	187.796	-0.211	-0.312
-542.252	-200.000	0.029	-0.212
-541.237	-53.439	0.164	-0.074
-540.223	46.295	0.106	-0.098
-539.208	-4.496	-0.296	0.203
-538.193	344.779	-0.106	-0.206
-537.179	229.395	0.123	-0.199
-536.164	800.000	-0.029	-0.113
-535.150	559.492	-0.052	0.124
-534.135	261.779	-0.069	-0.118
-533.121	-153.931	-0.249	-0.017
-532.106	293.403	0.033	-0.060
-531.091	-200.000	0.055	0.288
-530.077	-89.372	0.229	0.067
-529.062	-47.540	-0.096	-0.046
-528.048	122.731	-0.031	-0.038
-527.033	800.000	-0.071	-0.258
-526.018	-10.518	-0.107	-0.070
-525.004	135.366	-0.198	-0.256
-523.989	-200.000	0.009	0.107
-522.975	-200.000	0.033	-0.308
-521.960	217.511	-0.058	0.092
-520.945	24.010	-0.095	0.077
-519.931	76.249	0.229	-0.241
-518.916	-120.444	0.247	0.042
-517.902	60.495	-0.078	-0.076
-516.887	368.487	-0.140	-0.282
-515.872	15.578	0.270	0.211
-514.858	26.191	0.322	0.266
-513.843	-26.914	0.247	-0.143
-512.829	308.975	0.117	0.216
-511.814	-11.784	0.315	-0.205
-510.799	405.579	-0.069	0.144
-509.785	-3.317	0.070	0.048
-508.770	-100.805	0.176	0.043
-507.756	800.000	-0.046	-0.142
-506.741	401.260	0.046	0.096
-505.726	-10.228	0.193	0.127
-504.712	-40.984	-0.321	0.164
-503.697	-45.902	0.196	0.096
-502.683	-189.433	0.190	-0.002
-501.668	-84.693	-0.296	-0.092
-500.653	443.887	-0.050	-0.109
-499.639	-48.448	0.296	-0.141
-498.624	-200.000	-0.062	-0.286
-497.610	-200.000	0.027	-0.142
-496.595	800.000	0.094	0.293
-495.581	105.935	-0.306	0.359
-494.566	-200.000	-0.024	0.370
-493.551	-148.413	-0.303	0.025
-492.537	17.668	-0.363	-0.286
-491.522	254.212	-0.140	-0.237
-490.508	-144.306	-0.222	-0.020
-489.493	-7.434	0.349	-0.234
-488.478	-200.000	0.013	0.158
-487.464	-113.030	-0.380	0.074
-486.449	74.650	0.130	-0.135
-485.435	96.379	0.274	-0.310
-484.420	-159.667	0.542	-0.030
-483.405	-136.196	-0.152	0.018
-482.391	-200.000	0.019	0.213
-481.376	387.602	-0.100	-0.204
-480.362	-27.298	-0.095	-0.055
-479.347	-200.000	-0.020	0.385
-478.332	800.000	-0.024	-0.084
-477.318	-90.820	0.261	-0.075
-476.303	-200.000	-0.011	-0.107
-475.289	-132.516	-0.288	-0.037
-474.274	613.073	0.083	-0.205
-473.259	-63.228	0.154	-0.063
-472.245	21.729	0.201	0.162
-471.230	-54.593	0.085	-0.038
-470.216	-46.633	0.282	0.137
-469.201	-200.000	-0.016	-0.340
-468.186	800.000	-0.056	0.215
-467.172	54.428	0.087	-0.083
-466.157	-138.489	0.077	-0.008
-465.143	-103.095	-0.170	0.040
-464.128	-145.045	0.087	-0.008
-463.113	17.263	0.207	-0.163
-462.099	-200.000	0.063	0.377
-461.084	272.482	-0.039	0.068
-460.070	-94.056	0.292	-0.079
-459.055	-200.000	0.007	-0.320
-458.040	8.657	-0.196	0.146
-457.026	221.009	-0.121	0.193
-456.011	90.724	0.093	-0.103
-454.997	62.607	0.127	0.125
-453.982	-70.686	-0.106	-0.040
-452.968	415.113	0.208	0.438
-451.953	92.221	-0.144	-0.160
-450.938	-91.334	0.131	0.037
-449.924	-185.769	0.132	0.002
-448.909	-71.661	0.147	-0.054
-447.895	78.706	0.271	0.286
-446.880	266.971	-0.060	0.104
-445.865	-112.490	-0.242	-0.048
-444.851	800.000	-0.061	0.240
-443.836	-112.164	0.087	-0.017
-442.822	-200.000	0.044	-0.205
-441.807	28.936	-0.234	-0.196
-440.792	-173.551	0.190	-0.006
-439.778	187.567	0.159	-0.234
-438.763	-22.705	-0.176	0.105
-437.749	-8.710	0.259	-0.172
-436.734	-53.303	-0.378	0.171
-435.719	800.000	0.131	0.363
-434.705	-200.000	-0.025	-0.207
-433.690	517.630	-0.081	0.188
-432.676	-128.023	0.021	0.003
-431.661	-200.000	-0.040	-0.319
-430.646	492.361	-0.054	-0.123
-429.632	217.503	0.197	0.310
-428.617	355.558	-0.214	0.422
-427.603	-94.446	0.372	0.100
-426.588	-63.918	0.155	-0.063
-425.573	-200.000	0.005	-0.171
-424.559	-200.000	-0.002	0.158
-423.544	792.996	-0.041	0.111
-422.530	23.067	0.211	-0.171
-421.515	800.000	-0.119	-0.347
-420.500	354.686	-0.066	0.130
-419.486	-200.000	0.000	-0.055
-418.471	214.457	-0.211	-0.331
-417.457	-15.168	-0.195	-0.124
-416.442	800.000	0.025	0.094
-415.428	-45.682	0.209	-0.102
-414.413	800.000	0.056	0.204
-413.398	800.000	-0.093	0.298
-412.384	-149.287	0.096	-0.008
-411.369	595.712	0.095	0.231
-410.355	101.300	0.197	-0.226
-409.340	279.307	0.246	-0.434
-408.325	460.524	0.054	-0.119
-407.311	80.865	-0.167	0.178
-406.296	800.000	0.039	-0.151
-405.282	800.000	-0.055	-0.178
-404.267	17.864	0.094	-0.074
-403.252	20.748	0.175	-0.140
-402.238	-13.270	0.262	0.168
-401.223	-153.250	-0.300	0.021
-400.209	-114.008	0.281	0.054
-399.194	-200.000	-0.003	0.196
-398.179	88.096	0.177	0.194
-397.165	-86.628	0.245	0.074
-396.150	-200.000	-0.013	-0.187
-395.136	13.887	0.253	-0.194
-394.121	-83.364	0.208	0.066
-393.106	21.148	0.088	-0.071
-392.092	800.000	0.014	0.041
-391.077	-114.096	-0.345	0.066
-390.063	443.323	-0.132	-0.286
-389.048	-200.000	-0.015	0.095
-388.033	257.651	0.182	0.308
-387.019	-179.483	-0.129	-0.003
-386.004	-168.745	-0.291	-0.011
-384.990	57.975	-0.404	0.390
-383.975	800.000	0.085	-0.239
-382.960	-171.456	0.078	0.003
-381.946	-87.099	0.513	0.154
-380.931	-1.967	-0.265	0.184
-379.917	-200.000	0.027	-0.306
-378.902	800.000	-0.062	-0.218
-377.888	-78.931	0.066	0.022
-376.873	-112.999	0.249	0.049
-375.858	24.982	-0.307	-0.251
-374.844	-36.531	0.074	-0.039
-373.829	530.353	0.086	0.200
-372.815	-149.564	-0.320	-0.025
-371.800	-200.000	0.003	-0.090
-370.785	-108.128	-0.210	-0.045
-369.771	245.874	-0.128	-0.212
-368.756	-82.611	-0.288	-0.092
-367.742	-89.099	-0.164	0.048
-366.727	-200.000	0.014	0.355
-365.712	331.907	0.119	0.225
-364.698	800.000	-0.107	-0.297
-363.683	-200.000	-0.019	-0.220
-362.669	132.808	-0.062	0.079
-361.654	-69.566	0.207	0.078
-360.639	-26.423	0.156	0.090
-359.625	116.789	0.136	-0.165
-358.610	-184.001	-0.217	0.004
-357.596	-5.132	0.182	0.124
-356.581	-76.925	0.123	0.042
-355.566	-200.000	-0.012	-0.108
-354.552	-35.318	0.257	-0.138
-353.537	-71.725	-0.320	0.118
-352.523	-200.000	-0.019	-0.332
-351.508	-16.823	0.355	0.221
-350.493	314.488	0.032	-0.059
-349.479	223.102	0.107	-0.169
-348.464	-200.000	0.002	0.177
-347.450	800.000	0.027	-0.105
-346.435	25.506	-0.096	-0.079
-345.420	800.000	0.050	-0.161
-344.406	-30.618	0.242	0.135
-343.391	-139.550	0.179	0.019
-342.377	-22.635	0.104	0.062
-341.362	-200.000	-0.006	0.063
-340.348	459.664	-0.129	-0.282
-339.333	25.830	0.051	-0.042
-338.318	800.000	0.020	0.077
-337.304	-74.032	-0.329	0.117
-336.289	-92.571	0.324	-0.089
-335.275	-125.945	0.213	-0.032
-334.260	-3.627	0.118	-0.081
-333.245	800.000	0.037	-0.137
-332.231	-83.291	-0.099	0.031
-331.216	-200.000	0.015	0.130
-330.202	-200.000	-0.006	-0.233
-329.187	-74.942	-0.105	0.037
-328.172	-167.828	-0.085	0.003
-327.158	-182.175	-0.121	-0.002
-326.143	176.044	0.186	0.265
-325.129	172.739	-0.072	-0.102
-324.114	11.202	0.068	0.051
-323.099	800.000	0.032	0.099
-322.085	-200.000	-0.010	0.281
-321.070	32.690	0.199	0.169
-320.056	-112.924	0.367	-0.072
-319.041	480.115	-0.024	-0.054
-318.026	-200.000	0.066	-0.374
-317.012	6.250	-0.260	-0.190
-315.997	-7.968	-0.235	0.156
-314.983	48.309	-0.108	-0.099
-313.968	800.000	-0.062	-0.186
-312.953	-96.317	-0.075	0.019
-311.939	800.000	0.059	0.186
-310.924	-173.301	0.452	-0.014
-309.910	44.539	0.255	0.230
-308.895	247.680	0.148	-0.247
-307.880	161.920	0.066	-0.091
-306.866	142.008	0.116	0.151
-305.851	130.941	0.086	-0.108
-304.837	297.337	0.063	-0.113
-303.822	-74.490	0.170	0.060
-302.807	215.677	0.065	-0.101
-301.793	-200.000	-0.009	-0.219
-300.778	-26.058	-0.152	-0.088
-299.764	-44.805	0.274	-0.134
-298.749	-200.000	-0.003	0.262
-297.735	-51.817	-0.212	0.097
-296.720	386.310	0.055	-0.112
-295.705	266.346	-0.196	-0.336
-294.691	233.721	-0.159	0.258
-293.676	632.071	-0.119	0.297
-292.662	-131.513	0.200	0.026
-291.647	86.231	0.190	0.206
-290.632	46.688	0.253	0.231
-289.618	800.000	0.069	0.195
-288.603	157.469	0.076	0.104
-287.589	-32.837	0.089	-0.049
-286.574	-70.912	0.047	0.018
-285.559	16.221	0.235	0.182
-284.545	107.530	-0.300	0.351
-283.530	329.725	0.064	0.120
-282.516	529.206	0.066	-0.153
-281.501	-144.828	-0.242	-0.022
-280.486	-137.128	-0.053	-0.006
-279.472	-114.480	0.247	-0.047
-278.457	124.573	-0.097	0.120
-277.443	-200.000	-0.023	0.418
-276.428	181.081	0.092	0.133
-275.413	-25.411	-0.292	-0.169
-274.399	-200.000	0.005	0.286
-273.384	-59.938	-0.102	0.043
-272.370	144.767	-0.131	0.172
-271.355	-200.000	0.028	-0.165
-270.340	-200.000	-0.025	-0.112
-269.326	-200.000	0.024	-0.141
-268.311	407.961	0.008	0.016
-267.297	-164.342	-0.191	-0.009
-266.282	-56.197	-0.430	0.188
-265.267	-107.562	-0.175	-0.038
-264.253	8.998	-0.207	-0.153
-263.238	-200.000	-0.009	-0.175
-262.224	136.980	-0.110	-0.141
-261.209	-68.642	0.118	0.045
-260.195	-185.077	-0.154	0.002
-259.180	-200.000	0.008	0.358
-258.165	-29.635	0.198	-0.111
-257.151	-34.038	0.246	0.133
-256.136	140.480	0.206	0.267
-255.122	240.812	0.044	0.072
-254.107	15.929	0.071	-0.055
-253.092	-62.969	-0.121	-0.049
-252.078	418.926	0.061	0.128
-251.063	-200.000	-0.022	0.122
-250.049	-138.772	-0.430	-0.046
-249.034	-134.939	0.246	-0.029
-248.019	31.686	0.197	-0.166
-247.005	61.010	-0.035	-0.034
-245.990	-120.303	0.081	0.013
-244.976	-143.842	-0.258	-0.024
-243.961	51.182	-0.244	0.227
-242.946	-56.320	0.073	-0.032
-241.932	288.532	0.092	-0.164
-240.917	32.447	0.114	0.096
-239.903	-28.363	-0.050	-0.028
-238.888	-200.000	0.026	0.463
-237.873	-59.192	0.145	0.061
-236.859	800.000	-0.051	-0.150
-235.844	-20.265	0.162	-0.098
-234.830	-163.609	-0.154	0.007
-233.815	-99.994	0.118	0.029
-232.800	34.676	-0.222	-0.190
-231.786	-148.187	-0.244	-0.020
-230.771	1.817	0.021	-0.015
-229.757	-200.000	-0.015	0.214
-228.742	258.122	0.108	0.182
-227.727	800.000	-0.073	-0.217
-226.713	-200.000	0.018	0.136
-225.698	-200.000	0.021	0.371
-224.684	-161.241	0.158	0.008
-223.669	800.000	0.039	-0.119
-222.655	136.018	0.179	-0.229
-221.640	-200.000	0.006	-0.368
-220.625	235.432	0.134	-0.218
-219.611	230.207	-0.086	0.137
-218.596	-200.000	-0.033	-0.438
-217.582	114.408	0.183	0.218
-216.567	-118.394	-0.161	0.028
-215.552	-72.463	0.168	0.061
-214.538	-133.301	0.098	0.012
-213.523	-133.965	-0.326	-0.040
-212.509	385.744	-0.089	0.181
-211.494	56.005	0.131	-0.125
-210.479	-33.492	-0.037	-0.020
-209.465	227.711	-0.159	0.253
-208.450	25.235	0.152	0.124
-207.436	56.252	0.402	0.382
-206.421	-82.152	-0.227	-0.072
-205.406	629.912	0.044	-0.110
-204.392	-140.727	-0.111	-0.011
-203.377	26.977	-0.210	0.173
-202.363	151.228	0.115	-0.154
-201.348	310.969	0.178	0.328
-200.333	132.827	-0.110	0.139
-199.319	-127.433	0.260	-0.037
-198.304	-146.669	-0.203	0.017
-197.290	214.557	-0.086	0.133
-196.275	144.107	-0.161	-0.210
-195.260	-65.514	0.099	-0.039
-194.246	186.629	0.095	0.139
-193.231	85.813	0.111	-0.120
-192.217	-200.000	-0.019	0.305
-191.202	-34.864	-0.191	0.102
-190.187	-87.839	-0.106	0.031
-189.173	800.000	-0.132	0.384
-188.158	434.802	0.041	-0.088
-187.144	-5.827	-0.216	0.145
-186.129	800.000	-0.062	-0.188
-185.114	767.733	-0.144	0.383
-184.100	84.875	0.057	-0.061
-183.085	-140.630	0.227	0.023
-182.071	-200.000	-0.002	-0.158
-181.056	34.310	0.195	-0.167
-180.042	46.140	0.214	0.194
-179.027	-66.650	-0.104	-0.040
-178.012	-200.000	0.006	-0.121
-176.998	800.000	-0.030	0.088
-175.983	-200.000	0.050	0.242
-174.969	800.000	0.099	0.297
-173.954	800.000	-0.026	0.082
-172.939	-200.000	-0.002	-0.162
-171.925	-105.254	-0.191	0.043
-170.910	269.642	-0.154	0.265
-169.896	343.025	0.129	0.246
-168.881	-131.893	0.128	-0.016
-167.866	68.912	-0.194	0.194
-166.852	800.000	-0.054	0.227
-165.837	800.000	0.045	-0.178
-164.823	54.527	0.224	0.211
-163.808	63.283	-0.364	0.357
-162.793	-131.151	-0.293	0.038
-161.779	414.307	0.042	0.087
-160.764	-126.606	-0.218	-0.032
-159.750	376.184	0.028	0.057
-158.735	316.123	0.071	-0.131
-157.720	800.000	-0.061	-0.208
-156.706	800.000	0.036	0.132
-155.691	800.000	-0.049	-0.172
-154.677	-115.417	-0.150	-0.028
-153.662	-83.017	-0.239	0.075
-152.647	-200.000	0.010	0.059
-151.633	15.934	-0.330	-0.254
-150.618	-120.208	0.076	0.013
-149.604	-33.390	0.122	-0.066
-148.589	168.135	-0.162	0.226
-147.574	800.000	0.053	-0.165
-146.560	-165.744	0.239	-0.010
-145.545	-135.334	0.123	0.014
-144.531	-80.458	0.341	-0.111
-143.516	-200.000	0.048	0.208
-142.502	800.000	0.052	0.160
-141.487	9.584	-0.173	0.128
-140.472	800.000	-0.052	-0.198
-139.458	217.357	0.168	-0.261
-138.443	-96.041	0.222	0.058
-137.429	30.432	0.131	-0.109
-136.414	217.691	-0.084	0.131
-135.399	11.470	0.269	-0.201
-134.385	-200.000	0.023	-0.366
-133.370	13.887	0.175	-0.133
-132.356	-200.000	-0.064	0.295
-131.341	47.803	0.114	0.104
-130.326	-115.788	0.207	-0.038
-129.312	-126.196	0.192	0.028
-128.297	-118.126	-0.416	0.072
-127.283	136.880	-0.208	0.265
-126.268	375.471	0.018	0.035
-125.253	49.466	-0.262	0.241
-124.239	-200.000	0.042	0.209
-123.224	100.590	0.087	-0.099
-122.210	-40.580	0.378	-0.191
-121.195	36.511	-0.326	-0.281
