DTS Sentinel unit serial number:	SN413079Multiplexer serial number:	ORYXHardware model number:	OX4-SRSoftware version number:	ORYX F/W v4.00 Oryx Data Collector v3.7.2.0data status	okinstallation	princeton_trtdifferential loss correction	single-endedforward channel	channel 3reverse channel	N/Adate	2019/09/19time	02:16:34forward acquisition time	60.00reverse acquisition time	0.00gamma	496.2192k internal	0.2348k external	0.2348temperature offset calibration	0.9998default loss term (dB/km)	0.3790temperature slope calibration	1.0000multiplexer offset coefficient	1.0000multiplexer slope coefficient	1.0000fibre end	0.00T internal ref (°C)	21.12T ext. ref 1 (°C)	0.67T ext. ref 2 (°C)	14.59length (m)	temperature (°C)	Stokes	anti-Stokes-747.200	282.084	-0.108	-0.193
-746.185	327.914	-0.119	0.227
-745.171	-200.000	0.007	-0.058
-744.156	-200.000	0.009	0.307
-743.142	-133.781	-0.175	-0.022
-742.127	-61.535	-0.361	0.152
-741.112	280.045	-0.149	0.266
-740.098	299.252	-0.203	0.374
-739.083	-85.170	-0.313	-0.098
-738.069	-79.383	-0.337	0.114
-737.054	-151.408	0.177	-0.013
-736.039	78.238	-0.244	-0.260
-735.025	-98.041	0.232	0.060
-734.010	-82.962	-0.441	-0.142
-732.996	-113.958	-0.185	0.036
-731.981	384.059	-0.121	0.248
-730.966	-47.827	-0.019	-0.009
-729.952	-200.000	0.068	-0.385
-728.937	257.077	0.243	-0.417
-727.923	-80.666	-0.238	-0.079
-726.908	-151.042	-0.724	0.054
-725.894	-200.000	0.088	-0.536
-724.879	77.255	-0.083	0.088
-723.864	454.158	-0.065	0.145
-722.850	-200.000	-0.019	-0.232
-721.835	800.000	-0.066	-0.186
-720.821	98.929	-0.152	0.175
-719.806	-200.000	-0.003	-0.051
-718.791	800.000	0.023	-0.064
-717.777	-142.969	-0.156	0.015
-716.762	-200.000	0.018	-0.211
-715.748	-30.641	0.247	-0.139
-714.733	-95.690	0.042	-0.011
-713.718	-200.000	0.051	-0.233
-712.704	208.804	0.032	-0.051
-711.689	-200.000	-0.036	-0.302
-710.675	33.054	-0.045	-0.039
-709.660	-200.000	0.032	-0.278
-708.645	-191.034	0.160	0.002
-707.631	-35.954	-0.235	0.127
-706.616	800.000	-0.027	-0.100
-705.602	344.391	-0.167	-0.326
-704.587	-200.000	0.011	-0.311
-703.572	529.129	-0.166	-0.391
-702.558	-109.600	0.471	0.099
-701.543	-112.176	-0.459	0.092
-700.529	-106.846	-0.201	-0.044
-699.514	10.776	-0.157	-0.120
-698.499	800.000	-0.066	0.245
-697.485	-186.047	-0.297	-0.004
-696.470	171.140	-0.110	-0.157
-695.456	-200.000	0.075	-0.564
-694.441	800.000	-0.018	-0.058
-693.426	225.005	-0.094	-0.151
-692.412	84.056	0.063	0.069
-691.397	-66.080	-0.376	0.150
-690.383	-86.819	-0.131	0.040
-689.368	412.196	-0.062	-0.130
-688.354	800.000	-0.020	0.079
-687.339	-200.000	0.014	-0.082
-686.324	57.024	-0.178	-0.173
-685.310	-37.617	0.292	0.155
-684.295	-76.838	0.175	0.061
-683.281	100.025	0.207	-0.240
-682.266	41.116	0.101	0.091
-681.251	-47.019	0.378	-0.184
-680.237	-67.841	-0.255	0.099
-679.222	-103.714	-0.299	-0.070
-678.208	-131.395	0.214	-0.028
-677.193	258.356	0.217	-0.372
-676.178	-121.569	0.075	0.012
-675.164	-59.324	-0.090	0.039
-674.149	-69.748	-0.044	0.017
-673.135	-49.295	0.236	-0.112
-672.120	-200.000	-0.015	-0.078
-671.105	-148.502	0.023	-0.002
-670.091	-39.772	0.292	-0.152
-669.076	-56.595	-0.074	0.033
-668.062	-11.193	0.191	-0.125
-667.047	-6.727	0.120	-0.081
-666.032	800.000	0.096	0.298
-665.018	800.000	0.066	-0.226
-664.003	800.000	-0.044	-0.192
-662.989	-120.705	-0.247	0.042
-661.974	411.640	0.138	-0.292
-660.959	-200.000	-0.008	-0.142
-659.945	-113.890	0.192	-0.037
-658.930	39.227	-0.101	-0.090
-657.916	629.246	0.086	0.216
-656.901	-60.153	0.189	0.080
-655.886	-71.014	-0.228	0.086
-654.872	-200.000	-0.015	-0.226
-653.857	299.615	0.100	0.184
-652.843	13.194	0.058	-0.045
-651.828	-70.679	0.096	-0.036
-650.814	-79.336	0.285	0.096
-649.799	-56.646	-0.182	0.080
-648.784	-12.323	-0.125	-0.081
-647.770	25.540	0.116	-0.096
-646.755	-33.034	0.333	-0.184
-645.741	-200.000	0.050	0.265
-644.726	-25.272	-0.085	-0.050
-643.711	-87.462	-0.056	0.017
-642.697	-85.582	0.186	-0.058
-641.682	324.900	0.141	0.268
-640.668	800.000	-0.080	0.334
-639.653	21.825	-0.099	-0.081
-638.638	278.428	0.074	0.131
-637.624	-200.000	-0.256	-0.001
-636.609	1.548	0.111	-0.080
-635.595	800.000	0.035	-0.106
-634.580	-85.262	0.244	0.076
-633.565	-81.391	0.061	-0.020
-632.551	2.727	0.375	-0.270
-631.536	-31.162	-0.092	0.052
-630.522	-58.205	-0.367	-0.159
-629.507	444.151	-0.142	-0.310
-628.492	-200.000	-0.020	0.323
-627.478	-200.000	0.094	-0.453
-626.463	-200.000	0.012	-0.239
-625.449	459.882	-0.095	-0.210
-624.434	800.000	-0.040	-0.133
-623.419	-95.388	-0.341	-0.091
-622.405	800.000	-0.039	0.136
-621.390	-200.000	-0.014	-0.199
-620.376	182.562	-0.260	0.382
-619.361	-200.000	0.016	-0.159
-618.346	-200.000	-0.063	-0.314
-617.332	401.064	-0.093	-0.194
-616.317	28.054	-0.017	0.014
-615.303	41.411	0.150	0.135
-614.288	-25.172	0.198	0.117
-613.273	-200.000	0.018	0.206
-612.259	-132.564	-0.111	0.014
-611.244	10.046	0.030	0.022
-610.230	87.401	-0.357	-0.392
-609.215	202.765	-0.206	-0.316
-608.201	47.932	0.203	-0.188
-607.186	-200.000	0.003	-0.183
-606.171	-38.879	-0.075	-0.040
-605.157	800.000	0.049	-0.200
-604.142	66.070	-0.137	-0.138
-603.128	800.000	-0.073	0.274
-602.113	31.454	-0.231	-0.197
-601.098	-28.349	0.121	0.070
-600.084	132.972	-0.115	0.147
-599.069	-44.640	0.249	-0.123
-598.055	-143.361	-0.200	0.019
-597.040	19.768	0.222	-0.177
-596.025	-118.921	0.245	-0.043
-595.011	-126.312	-0.456	0.068
-593.996	800.000	-0.026	-0.103
-592.982	-11.603	0.361	-0.236
-591.967	-132.650	-0.497	-0.063
-590.952	-17.817	0.190	0.118
-589.938	272.154	0.127	-0.223
-588.923	-140.084	0.650	0.068
-587.909	-105.208	0.108	0.024
-586.894	-63.824	0.304	-0.124
-585.879	7.876	-0.133	-0.099
-584.865	-200.000	0.295	0.001
-583.850	148.280	0.124	0.166
-582.836	800.000	0.079	-0.234
-581.821	-200.000	0.077	0.480
-580.806	-142.803	0.314	-0.030
-579.792	-200.000	0.063	-0.314
-578.777	-200.000	-0.031	-0.276
-577.763	109.984	-0.155	-0.185
-576.748	-200.000	0.023	-0.282
-575.733	-10.692	-0.109	-0.072
-574.719	76.808	-0.101	0.107
-573.704	-28.556	-0.193	-0.110
-572.690	-119.211	0.163	-0.028
-571.675	-164.770	-0.098	0.004
-570.661	-19.497	0.333	0.205
-569.646	289.748	-0.039	0.071
-568.631	-130.779	-0.040	0.005
-567.617	-87.463	0.340	-0.102
-566.602	-200.000	-0.083	0.369
-565.588	101.640	0.205	-0.237
-564.573	-200.000	-0.009	0.059
-563.558	-67.212	-0.266	-0.104
-562.544	-30.914	0.170	-0.095
-561.529	-134.468	0.369	-0.045
-560.515	-37.861	-0.410	-0.216
-559.500	54.374	-0.428	0.409
-558.485	23.089	0.246	0.201
-557.471	-158.842	-0.167	0.009
-556.456	508.159	-0.066	-0.152
-555.442	800.000	-0.083	0.259
-554.427	-130.632	0.185	-0.025
-553.412	-200.000	-0.085	0.457
-552.398	-65.061	-0.058	0.023
-551.383	-115.817	0.163	-0.030
-550.369	198.833	0.097	-0.147
-549.354	-153.801	-0.062	0.004
-548.339	-42.640	0.133	-0.067
-547.325	617.903	0.039	0.098
-546.310	-68.582	0.122	-0.047
-545.296	800.000	-0.080	0.294
-544.281	-83.344	0.089	0.028
-543.266	640.993	-0.205	0.518
-542.252	-200.000	-0.106	0.487
-541.237	113.592	0.100	-0.120
-540.223	287.210	0.221	-0.396
-539.208	153.641	-0.174	-0.237
-538.193	-73.934	-0.165	0.059
-537.179	-200.000	0.048	0.373
-536.164	17.395	-0.046	0.036
-535.150	182.428	-0.123	-0.179
-534.135	-50.910	-0.233	0.109
-533.121	20.917	-0.363	-0.292
-532.106	14.903	0.239	-0.185
-531.091	188.548	0.064	0.094
-530.077	46.734	-0.139	-0.128
-529.062	-42.143	-0.179	-0.091
-528.048	-61.474	0.155	0.065
-527.033	121.039	0.106	0.131
-526.018	-47.059	0.146	-0.071
-525.004	-169.275	0.172	-0.006
-523.989	-6.693	0.226	-0.152
-522.975	800.000	0.020	-0.065
-521.960	158.491	-0.258	-0.354
-520.945	14.625	0.189	-0.146
-519.931	800.000	0.036	-0.136
-518.916	7.661	0.051	-0.038
-517.902	800.000	0.060	0.187
-516.887	24.629	0.068	0.056
-515.872	-88.858	-0.371	0.109
-514.858	70.697	0.157	-0.161
-513.843	-174.563	-0.536	0.015
-512.829	628.877	0.136	-0.341
-511.814	300.453	0.102	-0.187
-510.799	-200.000	-0.040	-0.270
-509.785	-55.237	-0.159	0.071
-508.770	-13.856	-0.290	0.185
-507.756	800.000	-0.045	-0.167
-506.741	-200.000	-0.049	0.374
-505.726	-200.000	-0.062	-0.345
-504.712	92.153	-0.225	-0.251
-503.697	2.486	0.389	0.279
-502.683	200.006	0.181	-0.274
-501.668	149.074	-0.096	0.129
-500.653	-122.957	0.403	-0.064
-499.639	-108.768	-0.163	-0.035
-498.624	18.686	0.068	0.054
-497.610	233.394	-0.216	0.352
-496.595	-84.174	0.097	0.030
-495.581	-200.000	-0.008	0.218
-494.566	208.158	0.183	0.282
-493.551	-166.612	-0.226	-0.009
-492.537	-200.000	0.058	-0.352
-491.522	99.171	-0.151	-0.173
-490.508	-200.000	0.060	0.405
-489.493	85.943	0.075	-0.081
-488.478	-61.607	-0.374	-0.155
-487.464	800.000	0.032	0.089
-486.449	74.615	0.380	-0.395
-485.435	-200.000	0.020	-0.090
-484.420	-31.223	-0.230	0.128
-483.405	-77.022	0.039	0.014
-482.391	454.294	-0.102	0.223
-481.376	800.000	0.072	0.253
-480.362	-200.000	0.007	0.161
-479.347	-94.475	-0.152	0.041
-478.332	180.971	0.098	0.142
-477.318	-65.383	0.440	-0.175
-476.303	-200.000	0.007	-0.219
-475.289	41.228	0.201	-0.180
-474.274	31.885	-0.100	-0.085
-473.259	-91.026	-0.388	0.110
-472.245	-200.000	0.012	-0.064
-471.230	800.000	0.154	-0.507
-470.216	-140.543	-0.223	0.023
-469.201	800.000	0.012	0.033
-468.186	164.447	-0.137	0.191
-467.172	-73.096	0.214	-0.078
-466.157	15.702	-0.224	0.174
-465.143	19.427	-0.036	0.028
-464.128	-20.258	0.244	-0.148
-463.113	-200.000	-0.043	0.198
-462.099	153.173	0.080	0.108
-461.084	-200.000	-0.051	0.417
-460.070	-35.424	-0.302	0.162
-459.055	36.951	0.232	-0.203
-458.040	300.713	-0.052	-0.095
-457.026	-5.961	-0.425	0.287
-456.011	561.667	-0.196	0.468
-454.997	-200.000	-0.036	-0.302
-453.982	108.630	-0.185	-0.219
-452.968	-83.783	-0.249	-0.078
-451.953	47.227	-0.270	0.248
-450.938	800.000	0.091	0.339
-449.924	577.440	0.118	-0.284
-448.909	424.359	0.019	0.040
-447.895	53.543	0.279	-0.264
-446.880	800.000	0.013	-0.041
-445.865	-97.011	0.517	-0.134
-444.851	44.809	0.170	0.155
-443.836	51.184	0.196	0.184
-442.822	45.213	0.265	-0.242
-441.807	-11.815	-0.128	0.083
-440.792	-20.887	0.189	-0.115
-439.778	800.000	0.024	-0.092
-438.763	81.903	-0.084	-0.089
-437.749	15.494	0.231	0.179
-436.734	800.000	-0.058	-0.242
-435.719	-86.101	0.118	0.036
-434.705	-200.000	0.002	0.132
-433.690	772.225	0.110	-0.295
-432.676	800.000	-0.038	-0.108
-431.661	87.675	-0.103	-0.112
-430.646	-74.031	0.626	0.224
-429.632	-200.000	0.047	0.303
-428.617	800.000	0.042	0.152
-427.603	125.667	-0.149	-0.186
-426.588	328.118	-0.075	0.142
-425.573	-98.177	0.066	-0.017
-424.559	-137.647	-0.166	0.018
-423.544	-82.638	-0.428	0.137
-422.530	-74.838	-0.102	-0.036
-421.515	389.493	-0.070	0.144
-420.500	-152.162	0.286	-0.020
-419.486	800.000	0.028	0.120
-418.471	-145.240	0.332	-0.030
-417.457	212.799	0.177	0.276
-416.442	-52.535	0.237	0.108
-415.428	-51.732	0.087	-0.040
-414.413	21.038	-0.226	0.181
-413.398	-69.384	0.251	-0.095
-412.384	398.877	0.209	0.432
-411.369	-33.613	0.322	0.176
-410.355	202.146	-0.156	-0.237
-409.340	-200.000	0.061	-0.407
-408.325	29.695	0.252	0.212
-407.311	800.000	0.089	0.363
-406.296	269.960	0.070	0.121
-405.282	-200.000	-0.001	-0.056
-404.267	-134.000	0.215	0.026
-403.252	-11.510	-0.102	0.066
-402.238	-200.000	-0.034	0.240
-401.223	-135.605	0.135	0.016
-400.209	-1.704	-0.200	0.139
-399.194	64.584	0.038	0.038
-398.179	208.932	0.145	0.223
-397.165	-188.959	-0.356	0.004
-396.150	-200.000	-0.013	0.219
-395.136	132.278	0.081	0.103
-394.121	107.533	-0.131	0.154
-393.106	-32.576	0.206	0.113
-392.092	387.998	0.040	-0.081
-391.077	-78.259	-0.218	-0.074
-390.063	42.161	-0.218	0.195
-389.048	-24.390	0.069	-0.041
-388.033	800.000	0.065	0.207
-387.019	-200.000	-0.029	-0.196
-386.004	-200.000	-0.002	-0.110
-384.990	-95.604	-0.395	0.104
-383.975	679.466	0.103	-0.263
-382.960	-200.000	0.012	-0.094
-381.946	-9.450	-0.117	0.077
-380.931	798.400	-0.035	0.096
-379.917	-200.000	0.005	-0.140
-378.902	-28.360	-0.154	0.088
-377.888	-200.000	-0.048	0.285
-376.873	-1.112	-0.239	-0.167
-375.858	336.918	-0.181	0.347
-374.844	-200.000	-0.019	-0.138
-373.829	800.000	-0.106	-0.422
-372.815	100.677	-0.169	-0.194
-371.800	-80.691	-0.146	-0.048
-370.785	-200.000	-0.001	-0.009
-369.771	160.705	-0.075	-0.103
-368.756	-143.841	0.306	0.028
-367.742	-200.000	-0.017	0.208
-366.727	278.822	0.035	-0.062
-365.712	95.419	-0.172	-0.193
-364.698	-162.689	-0.176	-0.009
-363.683	78.764	-0.087	-0.092
-362.669	45.837	-0.205	0.187
-361.654	-200.000	-0.014	0.170
-360.639	20.890	0.136	0.108
-359.625	-67.423	-0.245	0.095
-358.610	-200.000	0.037	-0.223
-357.596	-130.137	-0.299	-0.040
-356.581	-110.024	-0.123	-0.025
-355.566	-66.829	-0.138	0.054
-354.552	-200.000	-0.017	0.248
-353.537	109.912	0.201	0.238
-352.523	-69.346	0.072	-0.027
-351.508	-66.012	-0.171	-0.067
-350.493	-64.480	-0.186	-0.075
-349.479	0.887	-0.145	-0.102
-348.464	-200.000	-0.044	-0.250
-347.450	800.000	-0.040	-0.170
-346.435	726.819	0.065	0.170
-345.420	800.000	-0.045	-0.142
-344.406	-200.000	-0.037	-0.193
-343.391	268.913	0.148	-0.255
-342.377	-67.361	0.171	0.066
-341.362	800.000	-0.013	0.046
-340.348	222.489	0.046	-0.072
-339.333	69.086	0.054	0.055
-338.318	355.476	-0.038	0.074
-337.304	-157.975	0.131	0.008
-336.289	16.528	0.088	-0.069
-335.275	28.879	0.100	-0.083
-334.260	-200.000	-0.004	0.081
-333.245	319.267	0.140	0.261
-332.231	-48.178	0.152	0.072
-331.216	-64.911	-0.172	-0.068
-330.202	-200.000	-0.047	-0.376
-329.187	92.287	-0.191	-0.212
-328.172	-106.055	-0.320	0.071
-327.158	86.766	0.098	0.106
-326.143	121.828	-0.233	0.286
-325.129	-200.000	0.051	0.407
-324.114	800.000	-0.058	0.212
-323.099	124.281	-0.277	-0.342
-322.085	800.000	0.085	0.281
-321.070	800.000	0.030	-0.125
-320.056	-54.754	-0.279	-0.124
-319.041	-99.999	-0.167	0.041
-318.026	59.978	0.045	-0.043
-317.012	-115.274	0.050	0.009
-315.997	-51.609	0.313	0.144
-314.983	-105.687	0.398	0.088
-313.968	195.686	-0.073	0.109
-312.953	47.546	0.044	0.041
-311.939	-143.504	0.094	0.009
-310.924	507.080	0.058	0.132
-309.910	414.639	0.191	0.399
-308.895	225.628	-0.059	0.093
-307.880	-200.000	0.001	0.175
-306.866	800.000	0.049	0.133
-305.851	-64.240	0.331	-0.133
-304.837	494.617	0.016	-0.036
-303.822	-18.373	-0.381	-0.233
-302.807	168.588	0.025	0.035
-301.793	138.960	0.135	-0.174
-300.778	-200.000	-0.014	-0.067
-299.764	-200.000	0.006	0.092
-298.749	-200.000	0.007	0.035
-297.735	-200.000	0.026	-0.149
-296.720	-55.113	0.112	-0.049
-295.705	28.960	-0.037	-0.031
-294.691	-107.836	-0.173	-0.037
-293.676	173.650	-0.072	0.102
-292.662	-200.000	-0.006	0.055
-291.647	-11.840	-0.164	-0.106
-290.632	-147.426	-0.243	0.020
-289.618	-125.543	0.398	-0.059
-288.603	-200.000	0.014	0.214
-287.589	-77.261	-0.398	-0.136
-286.574	-16.881	0.199	0.123
-285.559	-79.936	0.135	-0.044
-284.545	-200.000	-0.008	-0.234
-283.530	-117.319	0.103	-0.018
-282.516	-31.145	-0.168	0.093
-281.501	635.415	-0.053	-0.131
-280.486	-88.601	0.408	-0.119
-279.472	-200.000	0.045	-0.357
-278.457	-155.847	0.120	-0.008
-277.443	800.000	0.024	-0.073
-276.428	98.148	-0.020	0.023
-275.413	-16.724	-0.101	-0.063
-274.399	301.461	-0.052	0.093
-273.384	3.046	0.170	0.121
-272.370	-200.000	-0.002	-0.026
-271.355	800.000	0.079	0.277
-270.340	-109.254	0.197	-0.041
-269.326	800.000	0.038	-0.116
-268.311	-200.000	-0.055	0.292
-267.297	-12.258	-0.132	0.085
-266.282	-131.780	0.221	-0.028
-265.267	-29.895	0.171	-0.096
-264.253	-102.503	-0.270	-0.063
-263.238	-77.738	0.240	0.081
-262.224	-200.000	-0.004	0.031
-261.209	18.764	-0.137	0.108
-260.195	-200.000	0.063	-0.275
-259.180	-76.597	-0.167	0.057
-258.165	125.936	-0.199	-0.247
-257.151	88.591	0.045	0.049
-256.136	-155.597	-0.371	-0.023
-255.122	-60.257	0.374	0.156
-254.107	547.571	-0.118	-0.276
-253.092	-70.166	-0.275	-0.103
-252.078	-33.549	0.173	0.093
-251.063	226.805	0.138	0.220
-250.049	-56.165	0.136	0.059
-249.034	-78.061	0.152	0.051
-248.019	-200.000	-0.102	0.458
-247.005	-200.000	0.010	0.103
-245.990	-126.063	-0.139	-0.020
-244.976	-33.450	0.262	0.142
-243.961	-200.000	-0.016	0.253
-242.946	73.219	-0.138	0.141
-241.932	-101.141	-0.461	0.111
-240.917	-132.308	-0.345	-0.044
-239.903	163.111	0.149	-0.205
-238.888	800.000	-0.056	-0.181
-237.873	-200.000	0.012	0.095
-236.859	144.343	0.104	-0.136
-235.844	-162.137	-0.262	-0.013
-234.830	-120.472	0.233	-0.039
-233.815	158.641	-0.171	0.233
-232.800	210.527	0.075	0.115
-231.786	-51.041	0.116	-0.054
-230.771	291.552	-0.103	-0.184
-229.757	-58.377	0.397	-0.169
-228.742	-200.000	-0.028	-0.206
-227.727	-154.011	-0.173	-0.012
-226.713	592.242	0.123	-0.297
-225.698	-151.590	0.278	-0.020
-224.684	67.437	-0.075	-0.075
-223.669	-81.381	-0.470	-0.152
-222.655	70.705	-0.211	-0.214
-221.640	155.985	0.096	-0.130
-220.625	300.332	-0.178	-0.321
-219.611	370.507	0.116	-0.231
-218.596	191.433	-0.103	-0.153
-217.582	190.350	-0.138	0.203
-216.567	-62.024	0.187	0.076
-215.552	39.852	-0.165	-0.145
-214.538	-199.381	0.162	0.001
-213.523	395.507	-0.024	0.049
-212.509	-200.000	0.045	0.271
-211.494	127.294	-0.110	-0.136
-210.479	-76.961	-0.206	0.070
-209.465	-86.225	-0.239	0.072
-208.450	800.000	-0.077	-0.210
-207.436	-200.000	0.079	-0.372
-206.421	5.027	0.207	-0.149
-205.406	49.181	0.272	0.250
-204.392	-24.963	-0.126	-0.073
-203.377	757.550	-0.085	-0.225
-202.363	650.552	0.036	0.090
-201.348	800.000	-0.012	-0.034
-200.333	-200.000	0.022	0.176
-199.319	-88.274	-0.270	0.079
-198.304	192.246	-0.122	-0.180
-197.290	-47.788	-0.265	0.126
-196.275	-119.918	0.216	0.036
-195.260	-200.000	0.004	-0.063
-194.246	800.000	0.040	-0.147
-193.231	64.744	-0.225	0.222
-192.217	-84.834	0.101	0.031
-191.202	-25.197	0.342	-0.198
-190.187	-53.448	0.225	0.101
-189.173	-200.000	-0.018	0.194
-188.158	-19.603	-0.207	-0.126
-187.144	-164.830	-0.219	-0.010
-186.129	-143.206	0.411	0.039
-185.114	-65.664	0.317	-0.124
-184.100	146.991	-0.053	-0.069
-183.085	-200.000	-0.012	0.191
-182.071	-160.574	0.277	-0.014
-181.056	-157.029	-0.120	0.007
-180.042	800.000	-0.107	-0.308
-179.027	100.201	0.269	-0.305
-178.012	-70.130	-0.053	0.020
-176.998	800.000	-0.088	0.276
-175.983	-74.483	-0.264	0.093
-174.969	237.286	-0.047	0.077
-173.954	-200.000	-0.026	0.195
-172.939	62.316	0.150	0.146
-171.925	800.000	0.037	0.156
-170.910	96.087	0.089	-0.099
-169.896	140.780	0.126	-0.163
-168.881	-18.819	0.223	0.135
-167.866	800.000	-0.037	0.145
-166.852	-98.840	0.169	0.042
-165.837	800.000	0.092	0.372
-164.823	-195.328	-0.228	0.002
-163.808	-90.290	-0.099	0.028
-162.793	800.000	0.058	0.245
-161.779	-141.951	0.135	-0.013
-160.764	-19.842	0.162	-0.098
-159.750	72.525	0.099	-0.101
-158.735	25.573	-0.052	0.042
-157.720	28.311	0.168	0.139
-156.706	0.557	-0.277	0.194
-155.691	800.000	0.096	0.313
-154.677	-89.777	-0.037	-0.010
-153.662	-200.000	0.046	0.389
-152.647	-17.086	-0.268	-0.165
-151.633	216.313	-0.066	-0.103
-150.618	800.000	0.138	-0.448
-149.604	-140.830	0.282	-0.028
-148.589	-88.742	0.088	0.025
-147.574	-200.000	0.003	0.196
-146.560	-200.000	0.000	0.050
-145.545	262.280	0.074	0.125
-144.531	-142.923	-0.047	-0.004
-143.516	800.000	0.039	0.116
-142.502	800.000	-0.080	-0.241
-141.487	-25.020	0.103	0.059
-140.472	-74.585	0.284	-0.100
-139.458	590.117	-0.046	0.110
-138.443	379.601	0.173	0.346
-137.429	-36.318	0.338	-0.178
-136.414	-128.354	-0.182	0.025
-135.399	14.273	-0.057	-0.044
-134.385	-150.816	0.159	0.012
-133.370	-200.000	-0.004	0.375
-132.356	-2.489	-0.312	0.213
-131.341	-200.000	0.008	0.162
-130.326	404.298	0.121	-0.248
-129.312	-62.275	0.074	0.030
-128.297	-90.078	-0.208	-0.059
-127.283	-142.386	0.240	0.023
-126.268	120.241	-0.213	-0.258
-125.253	34.339	-0.159	-0.135
-124.239	800.000	-0.036	0.115
-123.224	398.247	-0.043	-0.089
-122.210	-100.122	0.146	0.035
