DTS Sentinel unit serial number:	SN413079Multiplexer serial number:	ORYXHardware model number:	OX4-SRSoftware version number:	ORYX F/W v4.00 Oryx Data Collector v3.7.2.0data status	okinstallation	princeton_trtdifferential loss correction	single-endedforward channel	channel 3reverse channel	N/Adate	2019/09/19time	04:12:35forward acquisition time	60.00reverse acquisition time	0.00gamma	496.2192k internal	0.2347k external	0.2347temperature offset calibration	0.9993default loss term (dB/km)	0.3790temperature slope calibration	1.0000multiplexer offset coefficient	1.0000multiplexer slope coefficient	1.0000fibre end	0.00T internal ref (°C)	20.31T ext. ref 1 (°C)	0.62T ext. ref 2 (°C)	13.79length (m)	temperature (°C)	Stokes	anti-Stokes-747.200	-174.799	0.328	-0.009
-746.185	-172.170	-0.305	-0.010
-745.171	800.000	0.122	0.346
-744.156	-87.812	-0.176	-0.053
-743.142	800.000	0.024	0.071
-742.127	-200.000	-0.048	0.448
-741.112	-151.635	0.116	0.009
-740.098	4.989	-0.225	-0.166
-739.083	-33.018	-0.213	-0.118
-738.069	800.000	0.049	0.182
-737.054	709.411	-0.084	0.223
-736.039	-101.355	-0.192	-0.047
-735.025	-91.804	0.206	-0.058
-734.010	-35.571	0.090	-0.049
-732.996	-106.187	0.220	-0.049
-731.981	153.173	-0.198	-0.270
-730.966	800.000	0.015	-0.049
-729.952	-100.182	0.251	-0.062
-728.937	193.425	-0.158	-0.239
-727.923	264.772	0.197	-0.343
-726.908	133.933	-0.130	-0.169
-725.894	800.000	-0.127	-0.412
-724.879	13.670	-0.106	0.082
-723.864	-141.603	-0.113	0.011
-722.850	-51.791	-0.332	0.154
-721.835	-68.643	0.322	-0.125
-720.821	800.000	0.046	0.146
-719.806	328.422	-0.151	0.290
-718.791	19.379	-0.190	-0.152
-717.777	-200.000	-0.007	0.064
-716.762	-1.015	-0.069	-0.049
-715.748	-69.778	0.294	0.112
-714.733	-110.887	-0.208	0.043
-713.718	354.212	0.117	0.232
-712.704	-58.202	-0.123	0.053
-711.689	-13.098	-0.226	0.147
-710.675	18.872	-0.209	0.167
-709.660	800.000	-0.014	-0.045
-708.645	148.924	-0.177	-0.239
-707.631	-35.262	-0.263	0.143
-706.616	-22.121	0.059	0.036
-705.602	581.508	-0.040	0.097
-704.587	-200.000	0.010	-0.411
-703.572	-71.895	0.044	-0.016
-702.558	19.564	-0.112	0.090
-701.543	342.191	0.124	0.242
-700.529	-62.832	-0.351	-0.145
-699.514	-38.133	-0.314	0.166
-698.499	-94.084	0.062	0.017
-697.485	36.138	-0.194	0.170
-696.470	187.386	0.042	-0.063
-695.456	73.640	-0.022	0.023
-694.441	84.883	0.227	0.248
-693.426	-200.000	-0.048	-0.296
-692.412	-162.098	-0.120	0.006
-691.397	507.548	0.090	-0.209
-690.383	19.986	-0.098	0.079
-689.368	759.242	-0.028	-0.075
-688.354	-200.000	-0.035	0.152
-687.339	-17.340	-0.360	0.226
-686.324	163.416	0.226	-0.317
-685.310	800.000	0.056	-0.176
-684.295	-174.407	0.214	-0.006
-683.281	36.157	-0.258	-0.226
-682.266	-149.741	-0.101	-0.008
-681.251	22.375	0.129	-0.105
-680.237	318.772	-0.056	0.106
-679.222	-32.027	0.097	-0.054
-678.208	-136.926	-0.157	-0.018
-677.193	-124.768	0.182	0.028
-676.178	456.410	-0.052	-0.116
-675.164	583.699	-0.174	0.427
-674.149	-18.290	-0.412	-0.257
-673.135	-5.022	0.118	-0.081
-672.120	-70.947	-0.201	0.075
-671.105	800.000	0.084	0.347
-670.091	189.404	0.093	-0.139
-669.076	-53.987	0.175	0.080
-668.062	-200.000	-0.030	0.418
-667.047	-69.521	-0.090	0.034
-666.032	10.937	-0.045	0.034
-665.018	-183.702	-0.478	0.008
-664.003	392.555	-0.101	0.210
-662.989	-50.391	-0.123	-0.058
-661.974	-85.254	-0.404	-0.126
-660.959	-28.566	0.406	-0.233
-659.945	231.547	0.059	0.097
-658.930	-200.000	0.024	-0.199
-657.916	74.851	0.075	0.079
-656.901	783.525	-0.071	0.194
-655.886	-99.042	0.206	-0.052
-654.872	-200.000	0.006	0.097
-653.857	-58.117	-0.078	-0.034
-652.843	54.031	0.094	-0.090
-651.828	-200.000	0.012	0.065
-650.814	-18.570	-0.341	-0.212
-649.799	16.641	0.173	-0.137
-648.784	-39.869	-0.145	-0.075
-647.770	-103.991	0.242	0.056
-646.755	295.225	-0.208	-0.380
-645.741	104.569	0.056	0.065
-644.726	178.038	0.045	0.066
-643.711	-85.161	0.151	-0.047
-642.697	-69.276	0.103	0.039
-641.682	800.000	-0.049	0.187
-640.668	-200.000	0.012	0.155
-639.653	68.914	-0.127	0.130
-638.638	-42.089	0.305	-0.155
-637.624	800.000	0.042	-0.170
-636.609	7.296	-0.134	-0.100
-635.595	-11.925	0.225	0.147
-634.580	669.187	-0.111	0.286
-633.565	800.000	-0.147	0.446
-632.551	72.425	-0.105	0.109
-631.536	-81.302	-0.396	0.130
-630.522	-200.000	-0.003	0.223
-629.507	460.253	0.132	-0.293
-628.492	400.271	-0.061	-0.128
-627.478	-90.349	-0.406	-0.117
-626.463	145.470	0.124	0.166
-625.449	-113.298	-0.411	-0.080
-624.434	-200.000	-0.024	-0.336
-623.419	800.000	0.131	-0.363
-622.405	-96.224	0.384	0.101
-621.390	-200.000	-0.012	-0.101
-620.376	-200.000	-0.058	0.522
-619.361	-124.019	0.094	0.015
-618.346	637.925	-0.143	-0.362
-617.332	-200.000	-0.382	0.001
-616.317	-200.000	0.001	-0.429
-615.303	800.000	-0.067	0.263
-614.288	-24.104	0.136	0.081
-613.273	800.000	-0.089	-0.284
-612.259	-90.339	0.351	0.101
-611.244	-200.000	-0.002	0.223
-610.230	-37.319	0.077	-0.041
-609.215	299.105	0.125	-0.228
-608.201	-87.198	-0.190	0.057
-607.186	292.152	0.048	0.087
-606.171	-200.000	0.048	-0.477
-605.157	-130.333	-0.249	0.034
-604.142	-1.218	0.090	-0.063
-603.128	36.829	0.234	-0.206
-602.113	-128.389	0.158	0.022
-601.098	-200.000	-0.066	0.301
-600.084	35.464	-0.086	-0.075
-599.069	-168.217	-0.233	-0.009
-598.055	-104.918	-0.329	0.075
-597.040	-98.793	-0.334	-0.084
-596.025	-40.823	0.197	-0.101
-595.011	126.161	-0.127	0.160
-593.996	-200.000	0.013	-0.112
-592.982	-83.173	-0.141	0.045
-591.967	4.350	-0.203	-0.148
-590.952	481.384	0.049	-0.110
-589.938	-200.000	0.030	-0.240
-588.923	196.354	-0.279	-0.423
-587.909	800.000	-0.036	-0.114
-586.894	-121.770	-0.322	-0.053
-585.879	-53.550	0.137	-0.062
-584.865	-40.072	0.091	-0.047
-583.850	-74.980	0.065	-0.023
-582.836	265.143	0.040	-0.069
-581.821	-21.778	0.133	-0.080
-580.806	-200.000	0.003	0.106
-579.792	-138.684	0.210	0.023
-578.777	-39.769	-0.103	-0.053
-577.763	351.079	0.075	-0.147
-576.748	53.045	-0.092	0.087
-575.733	-153.966	0.349	-0.024
-574.719	-23.200	-0.208	-0.124
-573.704	230.704	0.264	0.429
-572.690	476.728	-0.090	-0.201
-571.675	-39.828	-0.315	0.163
-570.661	65.940	0.167	0.168
-569.646	-9.453	-0.269	-0.178
-568.631	-146.298	0.227	-0.020
-567.617	293.746	-0.018	0.032
-566.602	56.804	0.256	0.247
-565.588	93.949	-0.252	0.284
-564.573	-28.663	-0.279	0.160
-563.558	-200.000	0.009	0.044
-562.544	46.861	0.136	0.126
-561.529	302.675	0.103	0.189
-560.515	81.291	0.104	-0.111
-559.500	-81.894	-0.131	-0.042
-558.485	-96.557	0.050	-0.013
-557.471	800.000	-0.090	-0.305
-556.456	-65.886	-0.040	0.016
-555.442	84.215	0.174	-0.189
-554.427	-145.792	-0.320	-0.028
-553.412	-134.582	-0.101	0.012
-552.398	-160.325	-0.131	-0.007
-551.383	61.681	-0.172	0.170
-550.369	-134.376	-0.058	0.007
-549.354	-40.128	-0.353	-0.182
-548.339	208.883	-0.148	-0.230
-547.325	-75.535	0.123	0.043
-546.310	456.542	-0.104	-0.228
-545.296	8.838	-0.113	0.084
-544.281	-200.000	-0.038	0.307
-543.266	-75.588	-0.337	0.119
-542.252	-200.000	0.032	0.341
-541.237	-45.615	0.236	0.116
-540.223	15.439	-0.044	0.034
-539.208	-56.449	-0.110	-0.048
-538.193	716.086	0.074	-0.195
-537.179	-79.960	-0.259	-0.086
-536.164	-70.170	0.027	-0.010
-535.150	59.118	0.010	-0.010
-534.135	-17.057	-0.194	-0.121
-533.121	-200.000	-0.037	0.222
-532.106	40.900	0.250	-0.224
-531.091	-80.355	-0.201	0.066
-530.077	-61.868	-0.157	-0.065
-529.062	-130.975	0.126	0.017
-528.048	-191.179	-0.209	-0.002
-527.033	-200.000	0.019	-0.139
-526.018	-200.000	-0.038	-0.197
-525.004	800.000	0.028	0.114
-523.989	289.599	-0.166	0.298
-522.975	167.187	0.096	-0.135
-521.960	-61.183	-0.318	-0.133
-520.945	-10.983	0.202	0.132
-519.931	469.129	-0.075	-0.167
-518.916	-200.000	-0.001	-0.180
-517.902	42.689	0.079	0.071
-516.887	137.325	0.152	0.197
-515.872	355.159	-0.238	-0.469
-514.858	638.408	0.057	0.144
-513.843	595.839	-0.137	0.335
-512.829	-200.000	-0.008	0.087
-511.814	17.447	0.194	-0.153
-510.799	-119.257	0.083	0.014
-509.785	-9.766	0.115	-0.076
-508.770	179.871	-0.084	0.121
-507.756	-200.000	-0.045	0.267
-506.741	-200.000	0.061	-0.437
-505.726	125.002	0.203	0.254
-504.712	483.965	-0.093	0.209
-503.697	800.000	0.062	-0.177
-502.683	-31.547	-0.278	-0.154
-501.668	163.753	0.103	0.144
-500.653	-15.005	-0.120	-0.076
-499.639	244.269	-0.169	0.281
-498.624	85.289	-0.152	-0.166
-497.610	800.000	0.042	-0.145
-496.595	37.650	-0.244	-0.214
-495.581	66.152	-0.103	0.103
-494.566	-200.000	-0.017	-0.094
-493.551	-68.702	-0.229	0.088
-492.537	730.369	-0.016	0.042
-491.522	196.662	0.093	-0.140
-490.508	-200.000	-0.028	-0.145
-489.493	-176.040	-0.145	0.004
-488.478	-45.214	0.308	-0.151
-487.464	74.219	0.113	0.117
-486.449	32.999	-0.290	0.248
-485.435	-106.754	0.309	-0.068
-484.420	210.609	-0.190	-0.296
-483.405	-90.537	0.260	-0.074
-482.391	36.491	-0.093	0.081
-481.376	-49.102	-0.225	0.107
-480.362	-47.277	-0.300	0.145
-479.347	72.232	-0.074	-0.076
-478.332	-20.321	-0.108	0.066
-477.318	-109.142	-0.117	-0.025
-476.303	758.292	-0.005	-0.013
-475.289	-99.207	-0.323	0.081
-474.274	-81.104	-0.189	0.062
-473.259	-40.208	-0.157	-0.081
-472.245	-51.078	0.463	0.215
-471.230	92.980	0.243	0.272
-470.216	50.662	-0.077	-0.072
-469.201	800.000	-0.079	0.292
-468.186	60.742	-0.282	0.276
-467.172	41.291	0.200	-0.178
-466.157	-3.454	-0.265	0.182
-465.143	72.273	0.037	-0.039
-464.128	-200.000	0.055	-0.402
-463.113	156.553	-0.044	-0.060
-462.099	-49.267	0.180	-0.085
-461.084	-200.000	-0.011	-0.114
-460.070	391.916	-0.136	0.279
-459.055	-118.796	-0.129	-0.022
-458.040	-88.629	0.307	-0.090
-457.026	213.330	0.093	0.146
-456.011	-25.666	-0.280	-0.163
-454.997	26.362	0.095	-0.079
-453.982	-141.963	-0.609	0.060
-452.968	170.012	-0.061	0.086
-451.953	107.223	-0.054	-0.064
-450.938	-142.346	-0.149	0.014
-449.924	800.000	-0.018	-0.055
-448.909	52.641	-0.159	-0.150
-447.895	272.746	-0.065	-0.113
-446.880	132.207	-0.023	-0.030
-445.865	-65.256	-0.161	0.064
-444.851	71.590	0.386	-0.397
-443.836	-178.315	-0.322	-0.007
-442.822	-61.824	-0.169	0.070
-441.807	629.818	0.080	0.201
-440.792	-148.632	0.123	0.010
-439.778	91.448	-0.380	-0.421
-438.763	-34.910	0.104	-0.056
-437.749	-90.950	-0.193	0.055
-436.734	66.268	-0.152	-0.152
-435.719	800.000	0.059	0.178
-434.705	9.058	0.270	0.202
-433.690	-130.980	0.421	0.056
-432.676	-149.260	0.383	0.030
-431.661	-200.000	0.028	0.225
-430.646	-40.835	0.076	0.039
-429.632	-200.000	0.070	0.311
-428.617	-57.809	-0.301	-0.130
-427.603	-184.373	0.359	-0.006
-426.588	-167.444	-0.055	0.002
-425.573	-160.917	0.129	-0.007
-424.559	172.989	0.193	-0.274
-423.544	-200.000	0.022	-0.168
-422.530	-200.000	-0.018	-0.210
-421.515	-149.066	0.202	0.016
-420.500	-42.040	-0.233	-0.118
-419.486	-200.000	-0.030	0.170
-418.471	83.980	-0.056	-0.060
-417.457	-124.956	0.393	0.060
-416.442	-73.938	0.303	-0.108
-415.428	-123.743	0.354	0.055
-414.413	-133.874	0.108	0.013
-413.398	166.889	-0.012	0.017
-412.384	-109.613	-0.103	0.021
-411.369	-36.460	0.352	-0.187
-410.355	-200.000	-0.011	0.197
-409.340	-126.287	-0.158	0.023
-408.325	-111.672	-0.265	-0.053
-407.311	-42.160	0.097	0.049
-406.296	-35.565	0.137	0.073
-405.282	-20.108	-0.034	-0.020
-404.267	-11.575	-0.204	-0.132
-403.252	800.000	-0.082	-0.248
-402.238	-54.988	0.120	-0.053
-401.223	-117.083	-0.250	0.045
-400.209	800.000	-0.066	-0.200
-399.194	0.626	-0.226	0.159
-398.179	234.772	0.027	0.045
-397.165	-61.850	0.475	-0.196
-396.150	35.820	0.013	-0.011
-395.136	-200.000	-0.029	0.384
-394.121	460.800	-0.038	0.084
-393.106	213.346	0.129	-0.201
-392.092	-58.491	-0.374	-0.160
-391.077	132.772	0.213	0.271
-390.063	-200.000	0.077	-0.379
-389.048	29.786	0.228	-0.192
-388.033	71.541	-0.189	0.194
-387.019	-185.661	0.201	-0.003
-386.004	800.000	0.107	0.358
-384.990	-114.246	-0.278	0.053
-383.975	60.710	-0.146	0.142
-382.960	800.000	-0.003	0.013
-381.946	-69.584	0.359	0.135
-380.931	107.049	-0.188	0.220
-379.917	-160.634	0.414	0.022
-378.902	-69.549	-0.375	-0.142
-377.888	-200.000	-0.038	0.181
-376.873	-200.000	0.049	-0.242
-375.858	-200.000	-0.008	-0.184
-374.844	178.284	-0.151	0.217
-373.829	-56.586	0.325	-0.142
-372.815	453.816	-0.104	-0.226
-371.800	-158.307	0.097	-0.006
-370.785	190.436	0.097	-0.144
-369.771	-200.000	0.054	0.476
-368.756	-66.559	-0.123	0.048
-367.742	-200.000	-0.003	0.113
-366.727	-124.321	-0.419	-0.064
-365.712	16.232	-0.165	0.128
-364.698	800.000	-0.071	0.241
-363.683	800.000	0.061	-0.211
-362.669	81.497	0.345	0.367
-361.654	62.073	-0.129	0.126
-360.639	-137.626	-0.048	0.005
-359.625	235.744	0.170	0.277
-358.610	142.441	0.135	-0.176
-357.596	-200.000	0.037	0.199
-356.581	66.279	-0.132	-0.132
-355.566	-129.848	-0.119	0.016
-354.552	-5.802	-0.257	-0.173
-353.537	-83.968	0.124	-0.039
-352.523	-138.466	0.251	-0.027
-351.508	-43.792	0.079	0.039
-350.493	67.651	-0.053	-0.053
-349.479	59.780	0.205	0.199
-348.464	-200.000	0.000	0.054
-347.450	26.860	0.170	-0.140
-346.435	-126.581	0.090	-0.013
-345.420	459.267	0.051	-0.111
-344.406	42.378	-0.217	-0.194
-343.391	53.898	-0.163	0.154
-342.377	-15.193	0.360	-0.227
-341.362	800.000	-0.033	0.119
-340.348	12.170	0.064	0.049
-339.333	424.230	0.033	-0.070
-338.318	-85.465	-0.119	0.036
-337.304	-101.879	0.138	-0.033
-336.289	-200.000	0.069	0.368
-335.275	-87.821	-0.282	0.084
-334.260	-104.431	-0.159	0.036
-333.245	-128.993	-0.218	0.030
-332.231	-136.709	0.225	0.025
-331.216	800.000	-0.022	0.072
-330.202	-106.773	0.112	0.024
-329.187	73.041	-0.348	0.358
-328.172	112.931	0.231	-0.276
-327.158	-179.826	0.676	-0.014
-326.143	-38.073	-0.167	0.087
-325.129	-123.819	-0.183	-0.028
-324.114	102.495	0.152	-0.174
-323.099	25.183	0.342	-0.279
-322.085	-126.088	0.163	0.024
-321.070	87.750	-0.168	-0.183
-320.056	84.200	-0.058	-0.062
-319.041	224.819	-0.051	0.082
-318.026	12.198	0.033	-0.025
-317.012	7.420	0.099	-0.073
-315.997	562.741	-0.065	-0.155
-314.983	790.825	0.038	-0.102
-313.968	54.974	-0.282	0.268
-312.953	-29.657	0.116	0.065
-311.939	114.212	0.182	-0.217
-310.924	195.002	0.212	-0.317
-309.910	-106.547	-0.318	-0.070
-308.895	207.481	0.127	-0.194
-307.880	-168.364	-0.211	0.008
-306.866	173.168	0.258	-0.366
-305.851	-123.682	-0.068	-0.011
-304.837	264.738	-0.185	0.317
-303.822	-35.925	0.227	0.121
-302.807	59.169	-0.112	-0.108
-301.793	-148.617	0.174	0.014
-300.778	126.048	0.127	-0.157
-299.764	-17.426	0.149	-0.092
-298.749	800.000	0.080	0.228
-297.735	60.881	-0.083	0.081
-296.720	145.412	0.220	0.289
-295.705	-200.000	-0.054	0.364
-294.691	171.376	0.086	0.121
-293.676	1.138	-0.073	0.051
-292.662	-78.348	0.152	0.051
-291.647	235.150	-0.056	0.090
-290.632	-45.488	0.164	0.080
-289.618	204.623	0.149	0.226
-288.603	-200.000	0.025	0.174
-287.589	248.743	-0.301	0.500
-286.574	334.370	0.174	0.330
-285.559	215.936	0.077	-0.120
-284.545	451.048	-0.182	-0.396
-283.530	408.983	-0.010	0.022
-282.516	800.000	0.084	0.254
-281.501	-17.791	-0.173	-0.107
-280.486	800.000	0.062	-0.193
-279.472	-140.383	0.244	-0.025
-278.457	135.056	-0.253	-0.323
-277.443	-70.805	0.176	0.065
-276.428	-35.143	0.146	0.078
-275.413	-48.296	0.184	0.087
-274.399	-154.170	0.191	-0.013
-273.384	11.570	0.072	-0.054
-272.370	-104.359	-0.173	0.039
-271.355	-26.198	0.150	-0.086
-270.340	-200.000	-0.024	0.105
-269.326	800.000	0.050	0.186
-268.311	738.798	0.084	0.222
-267.297	800.000	0.108	-0.335
-266.282	-76.354	-0.060	0.021
-265.267	-200.000	0.009	-0.060
-264.253	83.964	0.112	0.120
-263.238	-163.490	-0.233	-0.011
-262.224	-200.000	-0.005	0.180
-261.209	-95.625	-0.348	-0.091
-260.195	458.198	-0.079	0.172
-259.180	-200.000	-0.058	-0.481
-258.165	61.386	0.157	-0.153
-257.151	-200.000	-0.028	-0.157
-256.136	356.707	0.154	-0.301
-255.122	68.825	-0.086	-0.086
-254.107	491.355	-0.083	0.186
-253.092	119.518	0.222	0.270
-252.078	-89.612	-0.104	0.030
-251.063	-76.744	-0.099	-0.034
-250.049	455.434	0.066	0.144
-249.034	302.834	-0.073	0.133
-248.019	-89.220	0.077	-0.022
-247.005	-160.011	0.482	0.026
-245.990	126.336	-0.072	-0.089
-244.976	-56.689	-0.309	0.134
-243.961	-118.171	-0.107	-0.019
-242.946	-63.028	-0.299	-0.121
-241.932	-128.047	0.347	-0.049
-240.917	-145.360	0.292	-0.026
-239.903	-175.733	-0.369	0.010
-238.888	304.071	-0.139	-0.252
-237.873	-72.153	-0.174	-0.063
-236.859	16.855	0.113	0.088
-235.844	-61.567	0.172	0.071
-234.830	251.599	-0.071	-0.119
-233.815	-200.000	0.034	-0.222
-232.800	35.365	-0.086	0.074
-231.786	272.395	0.184	0.319
-230.771	800.000	-0.055	-0.223
-229.757	91.983	-0.110	-0.121
-228.742	1.952	0.058	-0.041
-227.727	-118.131	-0.111	0.019
-226.713	-12.609	0.140	0.090
-225.698	512.683	-0.120	0.273
-224.684	-15.678	-0.129	0.081
-223.669	-6.876	0.184	-0.123
-222.655	-125.180	-0.150	-0.023
-221.640	352.000	0.152	0.294
-220.625	23.832	0.177	-0.143
-219.611	-58.664	0.147	-0.063
-218.596	583.064	-0.042	0.102
-217.582	9.812	-0.011	-0.008
-216.567	-200.000	-0.009	-0.066
-215.552	-110.548	0.264	0.053
-214.538	134.028	0.058	-0.073
-213.523	4.179	0.133	-0.095
-212.509	-43.469	0.331	-0.164
-211.494	-68.086	0.195	-0.075
-210.479	201.973	-0.118	0.178
-209.465	63.642	-0.110	0.108
-208.450	302.551	-0.050	-0.090
-207.436	-50.367	-0.124	0.057
-206.421	800.000	-0.101	-0.276
-205.406	800.000	-0.051	0.158
-204.392	800.000	0.072	0.195
-203.377	-115.361	0.172	0.032
-202.363	-200.000	0.011	-0.181
-201.348	468.665	0.183	-0.402
-200.333	-185.103	-0.086	0.001
-199.319	-0.628	0.445	0.309
-198.304	800.000	0.106	0.350
-197.290	541.646	0.047	-0.109
-196.275	31.402	-0.189	-0.159
-195.260	-146.359	0.027	-0.002
-194.246	800.000	-0.055	-0.164
-193.231	9.310	-0.129	0.096
-192.217	-107.400	0.230	0.049
-191.202	-53.882	0.093	-0.042
-190.187	321.103	-0.040	0.074
-189.173	54.846	-0.294	-0.278
-188.158	155.294	0.121	-0.163
-187.144	-14.593	0.096	0.061
-186.129	216.032	0.169	0.263
-185.114	-101.274	-0.162	0.039
-184.100	800.000	-0.107	0.336
-183.085	7.293	-0.053	0.039
-182.071	800.000	0.107	0.361
-181.056	-16.636	0.038	0.024
-180.042	647.635	0.088	0.221
-179.027	118.772	-0.119	-0.144
-178.012	255.561	0.076	0.127
-176.998	160.776	-0.311	0.425
-175.983	9.479	0.177	-0.131
-174.969	178.292	-0.134	-0.191
-173.954	566.084	0.180	0.426
-172.939	-41.743	-0.168	0.084
-171.925	800.000	0.012	-0.041
-170.910	180.283	0.032	-0.046
-169.896	4.482	0.123	0.088
-168.881	-29.559	0.115	-0.064
-167.866	616.962	-0.097	-0.239
-166.852	174.150	0.035	-0.050
-165.837	-200.000	0.019	0.221
-164.823	-200.000	-0.040	-0.325
-163.808	359.650	-0.067	0.131
-162.793	-200.000	-0.022	-0.108
-161.779	-63.993	0.230	-0.092
-160.764	-10.296	0.023	-0.015
-159.750	-134.796	0.252	-0.030
-158.735	-128.891	0.238	0.033
-157.720	203.403	0.045	-0.069
-156.706	58.266	0.191	-0.183
-155.691	-174.875	0.098	-0.003
-154.677	-200.000	-0.060	-0.256
-153.662	395.859	0.121	-0.247
-152.647	291.885	-0.027	0.049
-151.633	411.667	-0.138	0.286
-150.618	-24.936	0.094	-0.054
-149.604	-200.000	0.031	-0.134
-148.589	-200.000	-0.029	-0.246
-147.574	-125.941	0.235	-0.035
-146.560	92.702	0.073	-0.081
-145.545	-9.288	-0.167	0.109
-144.531	191.763	0.081	0.119
-143.516	166.417	0.119	0.165
-142.502	287.868	0.148	-0.261
-141.487	-42.840	-0.254	0.126
-140.472	622.271	0.057	-0.139
-139.458	210.984	-0.130	0.199
-138.443	109.743	0.221	0.258
-137.429	-158.128	-0.400	-0.023
-136.414	-62.001	-0.036	0.015
-135.399	-163.402	0.249	-0.012
-134.385	90.408	0.030	0.033
-133.370	19.159	-0.123	-0.096
-132.356	-200.000	-0.005	-0.058
-131.341	-8.587	-0.175	-0.115
-130.326	-133.200	0.351	0.043
-129.312	396.237	0.084	0.170
-128.297	-109.775	-0.506	0.104
-127.283	-173.132	0.182	0.005
-126.268	204.227	-0.211	-0.319
-125.253	159.614	0.105	0.143
-124.239	-40.524	-0.241	0.122
-123.224	137.379	0.081	-0.103
-122.210	138.459	0.096	0.122
-121.195	19.499	-0.196	0.154
