DTS Sentinel unit serial number:	SN413079Multiplexer serial number:	ORYXHardware model number:	OX4-SRSoftware version number:	ORYX F/W v4.00 Oryx Data Collector v3.7.2.0data status	okinstallation	princeton_trtdifferential loss correction	single-endedforward channel	channel 3reverse channel	N/Adate	2019/09/13time	15:04:35forward acquisition time	60.00reverse acquisition time	0.00gamma	496.2192k internal	0.2300k external	0.2300temperature offset calibration	1.0141default loss term (dB/km)	0.3790temperature slope calibration	1.0000multiplexer offset coefficient	1.0000multiplexer slope coefficient	1.0000fibre end	0.00T internal ref (°C)	35.62T ext. ref 1 (°C)	4.72T ext. ref 2 (°C)	30.99length (m)	temperature (°C)	Stokes	anti-Stokes-747.200	800.000	0.016	0.045
-746.185	113.236	0.287	0.356
-745.171	-125.518	0.239	0.037
-744.156	800.000	0.103	0.349
-743.142	-111.842	-0.472	0.097
-742.127	225.216	0.047	0.077
-741.112	-92.549	0.399	0.114
-740.098	120.190	0.136	0.172
-739.083	-90.562	0.159	0.047
-738.069	800.000	-0.032	-0.104
-737.054	-171.090	0.088	-0.003
-736.039	-106.884	-0.385	0.087
-735.025	800.000	0.008	0.028
-734.010	-117.217	-0.376	0.070
-732.996	-82.396	-0.084	0.028
-731.981	4.941	0.277	-0.208
-730.966	19.655	-0.095	0.078
-729.952	24.596	-0.324	-0.274
-728.937	800.000	-0.048	-0.200
-727.923	-127.374	-0.273	-0.041
-726.908	-58.161	-0.050	-0.022
-725.894	-119.330	0.200	0.035
-724.879	90.791	0.096	0.109
-723.864	-120.333	0.385	0.067
-722.850	38.783	-0.124	0.113
-721.835	-200.000	-0.024	-0.269
-720.821	26.866	-0.232	-0.198
-719.806	-79.378	-0.358	0.124
-718.791	-174.188	-0.193	0.006
-717.777	53.492	-0.106	0.103
-716.762	-80.187	-0.404	0.138
-715.748	-97.403	0.257	0.068
-714.733	250.026	-0.100	0.173
-713.718	-63.774	-0.260	-0.109
-712.704	424.742	-0.090	-0.196
-711.689	750.907	-0.041	-0.112
-710.675	-29.702	0.227	-0.132
-709.660	-143.081	0.377	0.037
-708.645	-14.876	0.359	-0.234
-707.631	800.000	0.124	0.403
-706.616	459.833	-0.077	-0.174
-705.602	-39.930	0.347	0.184
-704.587	-106.095	-0.158	-0.036
-703.572	-133.835	-0.043	-0.005
-702.558	-200.000	0.011	-0.204
-701.543	118.133	-0.269	0.338
-700.529	386.362	0.209	0.439
-699.514	332.808	0.069	0.136
-698.499	419.592	0.047	-0.102
-697.485	-200.000	-0.016	0.341
-696.470	-200.000	0.007	-0.385
-695.456	-170.869	0.444	0.015
-694.441	-24.255	0.191	-0.116
-693.426	-200.000	0.057	-0.408
-692.412	-176.980	-0.293	0.008
-691.397	-200.000	-0.002	-0.146
-690.383	-71.073	-0.148	0.057
-689.368	433.784	0.051	0.113
-688.354	-63.650	0.099	0.041
-687.339	64.140	-0.339	0.347
-686.324	-46.700	-0.358	0.178
-685.310	593.685	0.105	-0.263
-684.295	-59.192	-0.138	-0.060
-683.281	-82.733	-0.337	-0.111
-682.266	161.523	-0.065	0.093
-681.251	237.811	-0.179	0.302
-680.237	198.139	0.196	-0.305
-679.222	-37.446	0.097	-0.052
-678.208	-85.938	-0.295	-0.093
-677.193	800.000	-0.151	-0.512
-676.178	-114.916	-0.109	0.021
-675.164	800.000	0.040	0.114
-674.149	-200.000	-0.010	0.051
-673.135	800.000	-0.013	-0.042
-672.120	-200.000	0.015	-0.229
-671.105	116.476	-0.088	-0.109
-670.091	-135.723	0.448	0.054
-669.076	6.685	-0.355	-0.269
-668.062	-52.473	0.139	0.065
-667.047	-200.000	0.023	0.202
-666.032	-148.386	-0.248	-0.021
-665.018	-33.488	-0.107	0.060
-664.003	-200.000	-0.030	-0.332
-662.989	272.855	0.097	0.175
-661.974	-111.929	-0.355	0.073
-660.959	-200.000	0.005	-0.349
-659.945	357.727	0.068	0.137
-658.930	-200.000	0.099	0.466
-657.916	27.611	0.147	-0.126
-656.901	-200.000	-0.046	0.208
-655.886	25.241	0.078	0.066
-654.872	-61.709	-0.151	-0.064
-653.857	-200.000	-0.020	0.439
-652.843	-200.000	-0.017	0.158
-651.828	364.799	-0.075	-0.154
-650.814	-200.000	-0.004	0.067
-649.799	-113.390	0.220	-0.044
-648.784	268.945	-0.259	-0.461
-647.770	225.083	0.025	0.041
-646.755	800.000	-0.046	0.154
-645.741	239.365	-0.152	-0.257
-644.726	-74.074	0.284	-0.105
-643.711	191.972	-0.088	0.135
-642.697	-114.465	-0.245	0.048
-641.682	52.818	-0.153	-0.149
-640.668	141.303	-0.094	0.126
-639.653	800.000	0.109	-0.397
-638.638	-115.704	-0.090	-0.017
-637.624	-200.000	-0.016	0.093
-636.609	339.357	-0.033	-0.064
-635.595	-120.283	-0.488	-0.085
-634.580	590.998	0.061	0.153
-633.565	-49.180	-0.088	-0.043
-632.551	-68.739	-0.096	-0.038
-631.536	107.284	-0.065	-0.079
-630.522	-64.300	-0.107	0.044
-629.507	-119.315	0.303	0.054
-628.492	-93.692	-0.185	0.052
-627.478	303.561	0.140	0.264
-626.463	-0.922	0.131	0.094
-625.449	107.671	0.132	0.160
-624.434	-200.000	0.028	-0.195
-623.419	64.186	-0.140	0.143
-622.405	-159.300	0.205	-0.012
-621.390	-200.000	-0.040	-0.207
-620.376	-66.675	0.223	0.090
-619.361	363.846	-0.078	0.158
-618.346	-142.798	-0.048	-0.005
-617.332	-51.358	-0.220	-0.105
-616.317	-91.004	-0.225	0.066
-615.303	-22.526	-0.312	0.191
-614.288	-49.567	0.387	0.187
-613.273	-179.912	0.188	0.004
-612.259	-2.743	0.181	0.129
-611.244	-161.065	-0.269	-0.014
-610.230	-15.610	-0.057	0.037
-609.215	-200.000	0.026	-0.285
-608.201	-200.000	0.032	0.164
-607.186	-200.000	-0.029	-0.192
-606.171	41.136	0.163	-0.149
-605.157	800.000	0.050	0.147
-604.142	256.058	0.204	0.355
-603.128	97.814	-0.170	0.198
-602.113	-200.000	-0.039	-0.214
-601.098	-200.000	-0.010	-0.297
-600.084	347.367	-0.210	0.419
-599.069	-200.000	-0.023	-0.116
-598.055	-13.218	0.127	0.084
-597.040	-14.639	0.193	-0.126
-596.025	-63.353	-0.156	-0.065
-595.011	472.956	-0.036	0.082
-593.996	-200.000	0.004	-0.148
-592.982	170.209	0.137	0.199
-591.967	-200.000	-0.018	0.395
-590.952	-34.742	0.021	0.012
-589.938	-122.460	-0.113	0.019
-588.923	55.545	0.235	0.230
-587.909	800.000	-0.042	-0.138
-586.894	-190.782	0.213	-0.002
-585.879	-88.361	-0.280	0.085
-584.865	800.000	-0.029	0.111
-583.850	71.593	0.172	-0.181
-582.836	553.010	-0.100	-0.244
-581.821	41.474	0.093	-0.085
-580.806	-111.574	0.247	0.051
-579.792	-200.000	-0.028	-0.372
-578.777	-150.537	-0.159	-0.012
-577.763	-165.761	-0.327	0.014
-576.748	800.000	0.053	-0.233
-575.733	55.658	-0.051	0.050
-574.719	-155.499	-0.436	-0.029
-573.704	-9.530	-0.216	-0.146
-572.690	-200.000	0.050	-0.271
-571.675	800.000	-0.063	-0.238
-570.661	-200.000	-0.023	-0.140
-569.646	533.393	-0.109	-0.262
-568.631	-200.000	0.025	-0.151
-567.617	86.172	-0.123	-0.138
-566.602	-142.855	-0.489	0.048
-565.588	322.208	-0.072	0.139
-564.573	100.554	-0.194	-0.228
-563.558	-34.913	0.106	0.058
-562.544	357.636	-0.074	0.150
-561.529	800.000	-0.057	-0.241
-560.515	60.676	-0.139	-0.139
-559.500	-82.081	0.198	0.065
-558.485	1.333	0.213	-0.155
-557.471	571.055	-0.016	-0.040
-556.456	245.613	-0.073	0.125
-555.442	19.827	0.119	-0.097
-554.427	151.211	-0.037	-0.052
-553.412	-78.275	-0.345	-0.120
-552.398	-86.905	-0.281	-0.087
-551.383	800.000	0.051	-0.205
-550.369	51.893	-0.085	-0.081
-549.354	27.929	-0.263	-0.224
-548.339	-200.000	-0.020	-0.088
-547.325	-200.000	-0.017	0.079
-546.310	-200.000	0.004	-0.225
-545.296	-67.515	0.279	0.111
-544.281	-29.195	-0.316	0.183
-543.266	-200.000	-0.042	0.201
-542.252	-200.000	0.019	0.228
-541.237	-153.588	-0.326	-0.023
-540.223	-33.001	-0.200	-0.112
-539.208	120.215	-0.383	-0.481
-538.193	-89.100	0.148	-0.044
-537.179	-145.643	0.244	-0.022
-536.164	-200.000	-0.004	0.266
-535.150	578.255	0.040	-0.098
-534.135	555.473	0.052	-0.126
-533.121	800.000	0.116	0.363
-532.106	-176.791	0.187	-0.005
-531.091	165.306	0.194	0.277
-530.077	-5.478	0.274	0.190
-529.062	-71.602	0.088	0.033
-528.048	-107.150	-0.417	-0.093
-527.033	51.003	0.085	-0.082
-526.018	-53.790	-0.114	-0.053
-525.004	800.000	0.050	0.167
-523.989	111.781	0.064	-0.078
-522.975	-128.335	0.045	-0.006
-521.960	-84.518	0.433	-0.138
-520.945	99.254	-0.120	-0.140
-519.931	-200.000	0.008	-0.111
-518.916	-200.000	-0.009	0.428
-517.902	-168.287	0.165	-0.006
-516.887	358.163	-0.050	0.100
-515.872	-95.113	0.211	-0.058
-514.858	800.000	0.047	-0.157
-513.843	800.000	-0.066	-0.235
-512.829	44.672	-0.185	0.172
-511.814	63.570	0.142	0.144
-510.799	89.124	0.154	0.173
-509.785	-54.218	-0.176	0.081
-508.770	-12.955	-0.283	-0.186
-507.756	85.831	-0.235	-0.261
-506.741	40.172	0.128	-0.116
-505.726	-59.978	-0.233	-0.100
-504.712	246.789	-0.188	-0.320
-503.697	285.680	0.155	0.282
-502.683	-55.467	-0.272	-0.123
-501.668	-48.064	0.075	-0.037
-500.653	100.259	0.105	-0.123
-499.639	18.067	-0.061	0.049
-498.624	-42.040	-0.195	-0.101
-497.610	-103.092	-0.435	0.104
-496.595	51.001	0.098	0.094
-495.581	2.986	-0.136	-0.100
-494.566	654.652	0.021	-0.055
-493.551	4.345	0.030	0.022
-492.537	-77.091	-0.111	0.039
-491.522	82.698	-0.246	-0.270
-490.508	-74.476	0.336	0.122
-489.493	681.045	0.055	0.145
-488.478	-53.752	-0.167	-0.077
-487.464	-172.310	0.255	0.008
-486.449	-112.129	-0.290	0.059
-485.435	-200.000	-0.042	0.387
-484.420	233.944	-0.109	-0.182
-483.405	-102.641	0.300	0.072
-482.391	478.186	-0.035	-0.080
-481.376	163.816	-0.258	0.366
-480.362	-200.000	-0.018	0.316
-479.347	-200.000	0.019	-0.109
-478.332	-28.305	0.206	-0.120
-477.318	100.550	0.232	0.271
-476.303	-200.000	0.046	-0.238
-475.289	-86.893	-0.239	0.074
-474.274	-114.835	0.349	0.067
-473.259	271.569	-0.155	-0.276
-472.245	-116.020	-0.062	-0.012
-471.230	137.026	-0.111	0.147
-470.216	800.000	-0.093	0.379
-469.201	-169.226	-0.141	-0.005
-468.186	-13.398	-0.258	-0.169
-467.172	178.574	0.252	-0.372
-466.157	209.230	0.125	-0.198
-465.143	-45.778	-0.017	-0.009
-464.128	129.823	-0.085	0.110
-463.113	179.902	-0.080	0.118
-462.099	-200.000	-0.025	0.215
-461.084	-90.081	-0.116	0.034
-460.070	65.488	0.099	0.101
-459.055	-86.235	-0.179	-0.056
-458.040	-200.000	-0.017	-0.170
-457.026	276.898	0.159	-0.285
-456.011	-88.256	0.137	-0.041
-454.997	800.000	0.071	0.224
-453.982	314.687	0.122	0.231
-452.968	266.884	-0.123	0.217
-451.953	800.000	-0.027	0.106
-450.938	-122.931	-0.143	0.023
-449.924	351.669	0.104	0.207
-448.909	-142.302	-0.294	0.029
-447.895	37.921	-0.151	-0.135
-446.880	-95.085	-0.200	-0.054
-445.865	-34.843	0.266	-0.146
-444.851	-200.000	-0.007	-0.128
-443.836	800.000	0.071	-0.225
-442.822	234.636	-0.143	0.237
-441.807	-200.000	0.035	0.326
-440.792	350.452	0.082	0.163
-439.778	707.774	-0.048	0.128
-438.763	-200.000	0.029	-0.281
-437.749	-23.912	0.141	-0.085
-436.734	-1.551	-0.221	0.157
-435.719	800.000	-0.016	-0.056
-434.705	148.364	0.163	-0.221
-433.690	-200.000	0.010	0.187
-432.676	-200.000	-0.003	-0.173
-431.661	-68.571	0.223	-0.087
-430.646	662.357	-0.087	0.227
-429.632	104.944	0.089	0.106
-428.617	0.923	0.063	-0.046
-427.603	-93.647	-0.197	-0.055
-426.588	161.040	0.005	0.007
-425.573	-93.869	0.132	0.037
-424.559	165.580	-0.123	0.174
-423.544	-200.000	0.015	-0.305
-422.530	800.000	-0.078	-0.266
-421.515	-123.593	0.437	0.070
-420.500	-200.000	-0.013	0.121
-419.486	-200.000	-0.335	-0.001
-418.471	265.290	-0.175	0.308
-417.457	-71.121	0.276	-0.105
-416.442	-105.687	0.173	0.040
-415.428	80.716	-0.193	-0.209
-414.413	509.172	-0.121	-0.284
-413.398	-154.789	0.135	-0.009
-412.384	800.000	0.026	-0.110
-411.369	-200.000	-0.029	0.191
-410.355	269.693	0.176	-0.311
-409.340	264.204	0.069	-0.121
-408.325	-200.000	-0.022	-0.168
-407.311	-46.152	-0.166	0.082
-406.296	203.400	0.089	-0.139
-405.282	-177.354	-0.153	-0.004
-404.267	800.000	-0.010	0.035
-403.252	368.740	0.180	-0.366
-402.238	-42.402	-0.303	-0.156
-401.223	-126.044	0.438	-0.066
-400.209	4.295	0.018	0.013
-399.194	122.655	0.225	0.283
-398.179	86.879	-0.199	-0.221
-397.165	800.000	0.101	-0.314
-396.150	103.434	0.117	0.139
-395.136	-120.847	0.118	-0.020
-394.121	-120.031	0.291	0.050
-393.106	65.555	0.345	0.351
-392.092	134.068	0.202	0.263
-391.077	359.639	0.057	0.114
-390.063	122.272	-0.090	-0.113
-389.048	50.955	-0.217	0.207
-388.033	531.353	-0.085	-0.201
-387.019	61.830	-0.143	0.143
-386.004	70.975	-0.241	-0.251
-384.990	-182.228	-0.089	0.002
-383.975	-200.000	-0.009	0.100
-382.960	-101.642	-0.221	0.054
-381.946	110.371	0.238	0.287
-380.931	-163.132	0.232	-0.011
-379.917	78.336	-0.119	-0.128
-378.902	-130.823	0.200	-0.027
-377.888	-177.178	-0.299	-0.007
-376.873	455.955	0.047	0.106
-375.858	800.000	0.009	0.030
-374.844	-200.000	0.021	0.197
-373.829	67.179	-0.056	0.057
-372.815	-159.656	-0.325	-0.018
-371.800	80.314	-0.175	0.189
-370.785	-15.184	0.249	0.161
-369.771	-200.000	0.017	-0.348
-368.756	-42.367	-0.414	-0.212
-367.742	-200.000	-0.011	-0.071
-366.727	206.624	-0.077	0.121
-365.712	8.901	0.263	0.199
-364.698	800.000	-0.104	0.413
-363.683	-144.118	-0.201	-0.019
-362.669	105.012	-0.107	-0.127
-361.654	-168.100	0.306	0.012
-360.639	126.653	0.041	-0.052
-359.625	-26.683	-0.289	-0.170
-358.610	-15.040	0.075	0.048
-357.596	-200.000	-0.001	0.095
-356.581	15.296	-0.267	-0.210
-355.566	1.853	-0.237	0.172
-354.552	97.176	-0.074	0.085
-353.537	-65.117	0.187	-0.076
-352.523	117.091	-0.091	-0.112
-351.508	-200.000	0.015	0.137
-350.493	-200.000	-0.012	-0.125
-349.479	-9.160	-0.083	0.056
-348.464	-200.000	-0.353	-0.002
-347.450	800.000	-0.047	-0.189
-346.435	143.946	0.031	-0.042
-345.420	-68.382	-0.163	0.064
-344.406	25.663	0.209	-0.175
-343.391	-168.596	0.126	0.005
-342.377	-24.477	-0.173	-0.103
-341.362	-200.000	0.012	0.091
-340.348	800.000	-0.044	0.171
-339.333	124.742	0.106	0.133
-338.318	-40.397	0.093	0.049
-337.304	-200.000	0.034	0.193
-336.289	-32.169	0.140	-0.078
-335.275	-100.944	-0.269	-0.066
-334.260	-46.836	0.144	0.071
-333.245	-40.027	0.146	-0.077
-332.231	-200.000	0.020	-0.283
-331.216	-121.148	-0.424	0.071
-330.202	-25.034	0.136	0.081
-329.187	-108.158	-0.070	0.015
-328.172	-80.556	0.284	0.095
-327.158	-99.009	0.046	0.012
-326.143	-25.537	-0.122	-0.072
-325.129	-105.136	0.263	-0.060
-324.114	-43.210	-0.206	0.104
-323.099	131.758	0.086	0.111
-322.085	226.134	-0.091	0.148
-321.070	-93.418	0.073	-0.020
-320.056	800.000	0.034	-0.135
-319.041	-61.745	-0.191	0.080
-318.026	-164.883	-0.133	0.006
-317.012	-200.000	0.035	-0.187
-315.997	-46.361	0.278	-0.137
-314.983	-54.395	-0.048	-0.022
-313.968	150.984	-0.090	-0.123
-312.953	198.896	-0.084	0.129
-311.939	-188.954	-0.028	0.000
-310.924	-200.000	-0.001	-0.462
-309.910	-200.000	-0.020	0.286
-308.895	-200.000	-0.053	-0.559
-307.880	-200.000	0.010	-0.410
-306.866	12.081	0.009	0.007
-305.851	229.643	-0.054	0.088
-304.837	-200.000	0.050	-0.345
-303.822	-200.000	-0.010	-0.184
-302.807	-81.905	0.189	-0.062
-301.793	145.512	-0.181	0.243
-300.778	395.372	0.214	0.448
-299.764	-200.000	0.024	-0.279
-298.749	800.000	0.021	-0.073
-297.735	325.477	-0.175	0.335
-296.720	240.128	0.115	0.192
-295.705	-60.143	0.196	0.084
-294.691	-35.036	0.495	0.270
-293.676	-58.802	-0.077	0.033
-292.662	-200.000	0.020	-0.193
-291.647	-93.940	0.184	0.051
-290.632	-188.402	-0.137	0.002
-289.618	354.401	-0.123	-0.244
-288.603	407.629	0.145	-0.306
-287.589	-200.000	0.006	-0.134
-286.574	214.705	0.046	0.072
-285.559	-151.954	-0.202	-0.015
-284.545	-0.562	-0.130	-0.092
-283.530	99.788	0.123	-0.142
-282.516	71.850	0.060	0.062
-281.501	42.100	0.220	-0.200
-280.486	-200.000	0.012	0.120
-279.472	350.986	0.065	-0.129
-278.457	-170.634	0.134	-0.005
-277.443	-33.527	-0.267	-0.148
-276.428	-200.000	0.006	-0.247
-275.413	543.372	0.101	-0.241
-274.399	45.769	0.417	0.386
-273.384	-20.685	-0.309	-0.190
-272.370	-34.358	0.391	-0.215
-271.355	82.446	0.262	0.284
-270.340	-78.785	0.197	-0.067
-269.326	-200.000	0.040	0.281
-268.311	-140.230	0.231	-0.024
-267.297	-200.000	0.012	0.346
-266.282	-141.635	0.513	-0.052
-265.267	651.931	0.107	0.274
-264.253	220.430	0.260	0.417
-263.238	-143.504	-0.276	-0.026
-262.224	89.600	0.086	-0.096
-261.209	-17.204	-0.359	0.226
-260.195	-116.751	0.298	0.055
-259.180	3.300	-0.402	-0.293
-258.165	-122.051	0.276	0.045
-257.151	71.921	0.109	0.113
-256.136	-200.000	-0.018	0.170
-255.122	306.585	-0.139	0.259
-254.107	210.702	0.185	-0.290
-253.092	800.000	0.072	-0.247
-252.078	299.541	-0.114	-0.210
-251.063	-136.459	-0.367	0.043
-250.049	-120.963	-0.105	0.018
-249.034	-141.345	0.194	-0.020
-248.019	800.000	0.041	0.115
-247.005	-54.892	0.210	-0.095
-245.990	26.171	0.035	-0.029
-244.976	5.358	-0.177	0.131
-243.961	-200.000	0.007	-0.076
-242.946	306.561	0.136	0.252
-241.932	13.166	0.136	-0.105
-240.917	-34.094	-0.110	-0.060
-239.903	-117.581	0.168	0.030
-238.888	-71.306	0.128	-0.048
-237.873	-83.138	0.115	0.037
-236.859	-18.547	0.226	0.141
-235.844	363.297	-0.189	0.380
-234.830	-149.369	-0.128	-0.010
-233.815	-2.621	-0.159	0.111
-232.800	256.559	0.177	0.303
-231.786	-72.074	0.265	-0.098
-230.771	60.371	0.299	-0.296
-229.757	175.680	-0.113	-0.164
-228.742	663.605	-0.117	-0.300
-227.727	-41.404	0.129	0.066
-226.713	-105.373	0.143	-0.032
-225.698	101.369	-0.164	0.191
-224.684	50.477	0.089	0.084
-223.669	-129.967	-0.145	0.020
-222.655	-200.000	-0.012	0.203
-221.640	-131.500	0.247	-0.033
-220.625	283.565	-0.106	-0.189
-219.611	-174.268	-0.372	0.011
-218.596	-33.858	0.248	0.136
-217.582	-200.000	-0.025	0.352
-216.567	79.935	0.075	-0.081
-215.552	48.261	0.171	0.160
-214.538	99.068	-0.162	0.187
-213.523	-166.885	0.106	-0.004
-212.509	-83.348	0.139	-0.045
-211.494	369.056	-0.128	-0.258
-210.479	-99.007	0.271	0.069
-209.465	304.473	0.208	0.385
-208.450	-200.000	0.005	-0.317
-207.436	55.012	-0.204	-0.197
-206.421	-200.000	-0.158	0.001
-205.406	-200.000	-0.008	0.130
-204.392	244.034	0.151	0.254
-203.377	68.308	-0.171	0.174
-202.363	52.561	-0.141	0.135
-201.348	-72.654	0.561	0.207
-200.333	-56.061	0.131	0.058
-199.319	557.925	-0.099	-0.238
-198.304	773.541	0.209	-0.569
-197.290	-44.522	-0.095	0.048
-196.275	445.558	0.087	-0.190
-195.260	73.203	0.161	-0.168
-194.246	55.623	-0.216	0.209
-193.231	-200.000	0.005	-0.130
-192.217	296.567	0.093	0.170
-191.202	-200.000	0.033	0.299
-190.187	487.272	-0.092	-0.210
-189.173	114.166	0.102	0.123
-188.158	-200.000	-0.019	-0.257
-187.144	412.145	0.078	0.166
-186.129	-200.000	0.023	0.164
-185.114	261.361	0.134	-0.231
-184.100	-0.733	0.127	-0.090
-183.085	-62.193	0.073	0.030
-182.071	-91.468	0.187	0.053
-181.056	-56.869	-0.121	-0.053
-180.042	-154.908	0.138	0.009
-179.027	800.000	-0.068	0.233
-178.012	-77.170	-0.120	0.042
-176.998	81.527	0.137	-0.147
-175.983	118.835	0.157	0.193
-174.969	-162.559	-0.077	0.004
-173.954	79.595	0.168	0.180
-172.939	296.397	0.180	0.329
-171.925	76.175	-0.207	0.218
-170.910	23.652	0.250	0.205
-169.896	-73.898	0.142	0.051
-168.881	443.665	-0.051	0.112
-167.866	31.991	-0.125	0.107
-166.852	141.269	0.166	-0.219
-165.837	800.000	0.061	0.184
-164.823	-3.362	-0.096	-0.067
-163.808	90.720	0.132	-0.148
-162.793	-200.000	0.049	0.247
-161.779	800.000	-0.043	-0.151
-160.764	-200.000	-0.025	-0.186
-159.750	-126.765	-0.246	-0.036
-158.735	-36.563	-0.070	0.037
-157.720	-200.000	-0.009	0.144
-156.706	-200.000	-0.017	0.294
-155.691	-170.932	-0.241	0.008
-154.677	610.980	-0.184	0.457
-153.662	366.569	0.070	-0.142
-152.647	-1.240	-0.121	0.085
-151.633	156.227	0.107	-0.147
-150.618	-118.525	0.229	-0.040
-149.604	-114.897	0.108	-0.020
-148.589	83.729	0.240	0.261
-147.574	6.257	0.335	0.248
-146.560	46.058	-0.011	0.010
-145.545	-50.711	0.091	-0.043
-144.531	-86.158	0.337	-0.103
-143.516	0.767	0.180	-0.128
-142.502	-41.324	0.198	0.101
-141.487	-62.639	0.093	-0.039
-140.472	-26.281	-0.050	-0.029
-139.458	-176.353	0.307	-0.008
-138.443	-200.000	0.046	-0.292
-137.429	123.945	0.298	-0.372
-136.414	-149.366	-0.121	0.010
-135.399	69.918	0.070	0.072
-134.385	800.000	-0.080	-0.348
-133.370	105.846	0.276	0.325
-132.356	-125.761	-0.072	0.011
-131.341	277.908	0.108	-0.192
-130.326	108.966	-0.114	-0.135
-129.312	-159.375	-0.161	0.009
-128.297	246.331	0.029	0.048
-127.283	17.591	-0.280	-0.222
-126.268	225.024	-0.058	-0.094
-125.253	-200.000	0.024	0.118
-124.239	-200.000	-0.063	0.396
-123.224	355.531	0.065	0.129
-122.210	-134.007	0.097	0.012
-121.195	-133.224	0.308	0.039
