DTS Sentinel unit serial number:	SN413079Multiplexer serial number:	ORYXHardware model number:	OX4-SRSoftware version number:	ORYX F/W v4.00 Oryx Data Collector v3.7.2.0data status	okinstallation	princeton_trtdifferential loss correction	single-endedforward channel	channel 3reverse channel	N/Adate	2019/09/11time	10:06:11forward acquisition time	60.00reverse acquisition time	0.00gamma	496.2192k internal	0.2300k external	0.2300temperature offset calibration	0.9941default loss term (dB/km)	0.3790temperature slope calibration	1.0000multiplexer offset coefficient	1.0000multiplexer slope coefficient	1.0000fibre end	0.00T internal ref (°C)	35.56T ext. ref 1 (°C)	0.14T ext. ref 2 (°C)	33.12length (m)	temperature (°C)	Stokes	anti-Stokes-747.200	-200.000	-0.008	-0.074
-746.185	-200.000	-0.052	0.281
-745.171	-120.098	-0.183	0.032
-744.156	94.541	-0.244	0.283
-743.142	-162.199	0.349	-0.018
-742.127	179.059	-0.087	0.130
-741.112	-62.680	-0.154	0.065
-740.098	-164.659	-0.235	0.011
-739.083	800.000	-0.063	-0.212
-738.069	-200.000	-0.024	0.135
-737.054	458.795	0.126	0.285
-736.039	21.317	-0.257	0.213
-735.025	-42.088	0.301	-0.157
-734.010	-22.324	-0.482	-0.298
-732.996	-200.000	-0.061	0.353
-731.981	-112.961	-0.361	0.073
-730.966	-200.000	-0.003	0.176
-729.952	-200.000	-0.075	-0.398
-728.937	800.000	-0.105	0.311
-727.923	-200.000	0.020	0.220
-726.908	-200.000	-0.004	-0.138
-725.894	-200.000	-0.001	-0.341
-724.879	-195.707	0.504	-0.004
-723.864	-85.798	0.359	0.113
-722.850	-6.342	0.040	-0.028
-721.835	-85.686	-0.205	-0.065
-720.821	51.747	0.048	-0.047
-719.806	-9.110	0.024	-0.016
-718.791	-67.219	0.182	-0.073
-717.777	-98.830	-0.281	-0.073
-716.762	23.449	0.143	-0.120
-715.748	-178.839	-0.512	-0.012
-714.733	574.521	0.110	-0.273
-713.718	-200.000	0.005	0.203
-712.704	11.329	-0.172	-0.134
-711.689	800.000	0.087	-0.328
-710.675	77.661	-0.061	0.066
-709.660	-5.331	0.201	0.141
-708.645	-133.863	0.293	0.037
-707.631	-200.000	0.013	-0.120
-706.616	273.457	0.175	-0.314
-705.602	472.367	-0.039	0.090
-704.587	17.261	0.012	0.010
-703.572	-103.313	0.432	-0.104
-702.558	-200.000	-0.049	-0.321
-701.543	-95.985	-0.191	0.052
-700.529	-200.000	-0.022	-0.107
-699.514	185.126	0.200	0.302
-698.499	800.000	0.044	-0.140
-697.485	363.472	0.150	0.306
-696.470	-55.398	-0.249	0.114
-695.456	-200.000	0.006	-0.158
-694.441	-4.357	-0.169	0.119
-693.426	75.061	0.203	-0.218
-692.412	-200.000	0.048	-0.408
-691.397	-173.201	-0.062	0.002
-690.383	155.449	0.034	-0.047
-689.368	-200.000	-0.022	0.145
-688.354	61.023	-0.189	0.191
-687.339	-151.700	-0.133	0.010
-686.324	800.000	0.041	-0.160
-685.310	91.883	0.343	-0.393
-684.295	800.000	0.057	-0.206
-683.281	-124.505	-0.265	-0.042
-682.266	-107.107	0.235	-0.053
-681.251	269.367	0.155	-0.277
-680.237	103.383	0.257	-0.307
-679.222	91.196	-0.160	-0.183
-678.208	-200.000	-0.037	-0.193
-677.193	157.607	-0.189	-0.266
-676.178	-200.000	-0.018	0.206
-675.164	-46.636	-0.225	0.112
-674.149	-144.555	-0.444	0.042
-673.135	-4.293	-0.263	0.185
-672.120	-36.350	-0.186	0.102
-671.105	40.651	-0.197	-0.181
-670.091	24.099	-0.181	-0.152
-669.076	800.000	0.056	-0.211
-668.062	-167.967	-0.280	0.011
-667.047	-121.017	-0.109	-0.019
-666.032	49.285	0.166	-0.159
-665.018	13.154	0.107	-0.084
-664.003	-200.000	0.009	-0.105
-662.989	6.192	0.128	-0.096
-661.974	-129.096	-0.216	0.031
-660.959	-200.000	-0.017	0.163
-659.945	583.093	0.105	-0.261
-658.930	59.100	0.303	0.303
-657.916	-200.000	0.012	0.120
-656.901	-14.595	0.270	-0.177
-655.886	-22.946	-0.162	-0.099
-654.872	-114.803	0.181	-0.035
-653.857	26.500	-0.095	0.081
-652.843	262.715	-0.216	-0.381
-651.828	800.000	0.093	0.268
-650.814	618.826	-0.103	-0.263
-649.799	800.000	0.053	-0.177
-648.784	21.693	-0.144	-0.119
-647.770	12.536	0.177	-0.138
-646.755	33.749	0.284	0.251
-645.741	-200.000	0.041	0.201
-644.726	177.975	0.300	0.444
-643.711	287.374	0.114	0.210
-642.697	17.706	-0.121	-0.098
-641.682	-152.696	-0.135	-0.010
-640.668	110.868	0.166	-0.204
-639.653	-103.578	0.045	-0.011
-638.638	573.920	0.127	0.315
-637.624	-160.052	0.166	0.009
-636.609	7.069	-0.288	-0.218
-635.595	158.906	0.195	0.275
-634.580	150.980	0.096	-0.132
-633.565	-84.431	-0.292	-0.094
-632.551	182.840	-0.172	0.257
-631.536	299.942	-0.138	-0.258
-630.522	128.434	-0.058	-0.075
-629.507	4.862	0.087	-0.065
-628.492	107.096	0.121	0.146
-627.478	-118.004	0.451	-0.082
-626.463	-200.000	0.001	-0.146
-625.449	-29.575	-0.155	0.090
-624.434	-200.000	0.039	0.175
-623.419	-8.140	0.084	-0.057
-622.405	152.481	-0.025	0.034
-621.390	800.000	0.074	0.236
-620.376	-200.000	-0.015	0.115
-619.361	191.823	-0.082	0.125
-618.346	-59.294	-0.261	-0.114
-617.332	-99.949	-0.281	-0.071
-616.317	749.052	0.061	-0.167
-615.303	-125.766	0.185	-0.028
-614.288	-200.000	0.004	-0.106
-613.273	238.491	-0.066	-0.112
-612.259	119.925	0.183	-0.230
-611.244	-93.260	-0.062	-0.017
-610.230	-30.521	0.146	-0.084
-609.215	-188.635	-0.261	0.003
-608.201	105.884	0.047	-0.057
-607.186	165.806	-0.107	-0.154
-606.171	-22.499	-0.376	0.231
-605.157	117.380	0.157	0.196
-604.142	13.342	0.150	0.118
-603.128	383.708	0.106	0.222
-602.113	-149.177	0.358	-0.029
-601.098	137.176	0.012	-0.016
-600.084	-200.000	-0.052	-0.438
-599.069	-200.000	-0.026	-0.179
-598.055	196.222	-0.076	0.118
-597.040	13.925	-0.038	0.030
-596.025	45.509	0.141	-0.132
-595.011	82.021	-0.147	0.162
-593.996	-44.591	-0.071	0.036
-592.982	-200.000	-0.000	0.059
-591.967	44.012	0.238	0.221
-590.952	395.588	-0.022	-0.046
-589.938	-200.000	-0.015	-0.109
-588.923	-200.000	0.011	-0.066
-587.909	-200.000	0.002	0.030
-586.894	154.660	-0.154	0.214
-585.879	224.060	-0.077	-0.126
-584.865	-200.000	-0.019	-0.161
-583.850	635.557	-0.046	-0.117
-582.836	-132.759	0.061	-0.008
-581.821	-51.748	0.097	0.046
-580.806	-101.731	0.270	0.066
-579.792	401.213	0.053	0.113
-578.777	-80.341	0.057	0.019
-577.763	781.670	0.045	0.124
-576.748	-21.899	-0.343	0.211
-575.733	303.220	0.145	-0.271
-574.719	91.113	-0.106	-0.121
-573.704	-137.187	-0.175	-0.020
-572.690	89.614	0.107	-0.121
-571.675	-200.000	-0.023	-0.113
-570.661	13.938	-0.149	0.117
-569.646	-200.000	0.043	-0.414
-568.631	66.190	0.131	-0.135
-567.617	-200.000	0.030	0.148
-566.602	199.558	-0.186	0.288
-565.588	92.284	-0.139	-0.158
-564.573	-175.865	0.104	-0.003
-563.558	800.000	-0.030	-0.101
-562.544	205.474	0.115	-0.181
-561.529	800.000	0.050	0.146
-560.515	-79.773	0.124	-0.042
-559.500	-125.820	0.195	-0.030
-558.485	-34.608	0.245	0.136
-557.471	-109.401	0.210	0.045
-556.456	263.748	0.100	-0.176
-555.442	746.945	0.105	-0.287
-554.427	-60.734	-0.094	0.040
-553.412	302.600	0.085	0.160
-552.398	46.693	-0.154	-0.145
-551.383	75.701	-0.159	-0.170
-550.369	-200.000	0.003	-0.152
-549.354	-200.000	-0.022	0.188
-548.339	-182.645	0.065	0.001
-547.325	-29.709	0.090	0.052
-546.310	-200.000	0.018	0.131
-545.296	800.000	0.079	-0.278
-544.281	561.282	-0.073	0.178
-543.266	-129.590	0.218	0.030
-542.252	-200.000	0.015	-0.112
-541.237	224.648	-0.150	0.246
-540.223	-200.000	0.019	-0.153
-539.208	100.015	-0.066	0.078
-538.193	-16.205	0.074	0.048
-537.179	800.000	-0.051	-0.188
-536.164	-143.300	0.410	-0.040
-535.150	-143.903	0.184	0.018
-534.135	800.000	-0.036	-0.115
-533.121	-200.000	0.015	0.136
-532.106	58.830	-0.283	0.282
-531.091	259.925	0.105	0.184
-530.077	25.075	0.226	0.190
-529.062	-116.225	0.245	0.046
-528.048	-200.000	0.034	0.350
-527.033	800.000	0.060	-0.202
-526.018	-149.958	0.145	0.011
-525.004	-200.000	-0.000	-0.016
-523.989	-143.447	0.300	0.029
-522.975	711.226	0.075	0.200
-521.960	-200.000	-0.026	-0.221
-520.945	240.027	-0.305	-0.513
-519.931	-50.247	0.184	-0.088
-518.916	-131.413	-0.180	0.024
-517.902	800.000	0.047	0.173
-516.887	-80.455	-0.478	-0.161
-515.872	-103.953	0.244	-0.058
-514.858	791.043	0.131	0.363
-513.843	-77.058	0.118	0.042
-512.829	83.617	0.117	0.129
-511.814	-121.239	-0.207	-0.035
-510.799	-138.773	0.599	-0.066
-509.785	-87.950	-0.255	-0.078
-508.770	-41.339	-0.400	0.208
-507.756	800.000	0.048	-0.188
-506.741	-79.419	0.300	-0.103
-505.726	-9.141	-0.080	0.054
-504.712	-30.264	-0.073	-0.042
-503.697	16.925	-0.208	-0.167
-502.683	-200.000	0.029	-0.141
-501.668	-47.177	-0.279	0.137
-500.653	800.000	0.075	-0.233
-499.639	9.290	-0.026	-0.020
-498.624	430.593	0.097	-0.212
-497.610	-200.000	-0.072	0.525
-496.595	-142.260	0.143	-0.014
-495.581	42.509	0.084	-0.077
-494.566	118.709	-0.187	-0.233
-493.551	-22.842	-0.087	0.053
-492.537	-28.947	-0.393	0.228
-491.522	9.302	0.044	0.034
-490.508	22.550	-0.263	0.217
-489.493	-101.243	0.103	-0.026
-488.478	-85.602	-0.206	-0.065
-487.464	80.732	-0.022	0.024
-486.449	-1.780	-0.090	0.064
-485.435	184.150	0.182	0.271
-484.420	-50.539	-0.356	0.170
-483.405	160.501	-0.079	-0.112
-482.391	-103.291	-0.009	-0.002
-481.376	91.808	0.135	0.153
-480.362	-95.197	0.249	-0.068
-479.347	-124.780	-0.422	0.066
-478.332	112.775	-0.197	0.241
-477.318	800.000	-0.078	-0.234
-476.303	600.805	0.048	-0.120
-475.289	-109.873	0.245	-0.052
-474.274	43.044	0.143	-0.132
-473.259	262.553	-0.109	0.190
-472.245	-48.030	-0.132	0.064
-471.230	191.635	0.085	0.129
-470.216	800.000	-0.044	-0.172
-469.201	-200.000	-0.019	0.225
-468.186	261.123	-0.156	0.272
-467.172	142.363	-0.288	-0.386
-466.157	800.000	0.039	0.129
-465.143	39.368	0.149	0.135
-464.128	458.993	0.126	0.283
-463.113	172.670	0.110	-0.160
-462.099	109.721	0.059	-0.072
-461.084	19.879	-0.139	0.113
-460.070	-200.000	-0.026	0.298
-459.055	594.421	-0.045	0.112
-458.040	437.864	0.124	0.273
-457.026	608.505	-0.068	0.170
-456.011	-9.613	0.193	-0.130
-454.997	301.547	0.080	0.150
-453.982	-108.001	0.331	-0.072
-452.968	-54.153	-0.095	0.043
-451.953	740.574	-0.120	-0.324
-450.938	83.541	0.244	-0.268
-449.924	106.649	0.151	-0.181
-448.909	439.356	-0.074	-0.162
-447.895	-115.380	-0.440	-0.084
-446.880	-53.272	-0.328	-0.152
-445.865	49.837	0.148	0.140
-444.851	314.296	-0.170	0.324
-443.836	721.986	0.076	0.204
-442.822	432.742	-0.098	0.215
-441.807	-14.949	-0.088	0.057
-440.792	-60.691	-0.169	0.072
-439.778	699.956	-0.035	0.093
-438.763	40.186	0.231	0.210
-437.749	240.115	-0.052	-0.087
-436.734	362.164	-0.026	-0.052
-435.719	800.000	0.075	0.210
-434.705	-143.100	0.168	-0.016
-433.690	273.602	0.089	-0.158
-432.676	-0.851	0.382	-0.273
-431.661	-200.000	0.041	0.220
-430.646	500.432	0.109	0.252
-429.632	290.119	0.042	-0.077
-428.617	800.000	0.012	-0.035
-427.603	-200.000	-0.020	0.112
-426.588	-106.328	0.352	0.079
-425.573	77.940	0.126	-0.135
-424.559	-200.000	-0.001	-0.144
-423.544	-200.000	0.032	0.192
-422.530	93.975	-0.024	-0.027
-421.515	143.041	0.144	0.193
-420.500	125.729	0.030	0.038
-419.486	-25.247	-0.108	0.064
-418.471	-168.098	-0.197	0.008
-417.457	-94.959	-0.083	-0.023
-416.442	181.473	-0.080	0.118
-415.428	43.798	-0.094	0.087
-414.413	362.209	-0.064	-0.130
-413.398	237.708	-0.048	-0.080
-412.384	482.862	-0.102	0.233
-411.369	231.336	-0.164	0.270
-410.355	438.320	-0.144	-0.317
-409.340	514.471	-0.104	0.244
-408.325	-65.710	0.190	0.077
-407.311	182.654	-0.162	0.241
-406.296	329.829	-0.106	0.205
-405.282	-122.295	-0.058	0.010
-404.267	-53.647	0.170	0.078
-403.252	800.000	-0.087	0.287
-402.238	-150.305	0.241	0.019
-401.223	-5.418	0.148	0.102
-400.209	800.000	0.074	-0.299
-399.194	-200.000	0.029	0.165
-398.179	73.227	-0.068	0.071
-397.165	39.617	0.178	-0.161
-396.150	151.509	0.226	-0.310
-395.136	800.000	0.074	0.294
-394.121	-200.000	-0.006	0.071
-393.106	-200.000	-0.044	-0.419
-392.092	-75.050	-0.239	0.086
-391.077	-200.000	-0.002	-0.042
-390.063	379.427	-0.068	-0.141
-389.048	-58.207	-0.324	-0.142
-388.033	-93.748	0.305	-0.084
-387.019	45.514	-0.235	-0.218
-386.004	-153.568	0.141	0.010
-384.990	-200.000	-0.004	-0.236
-383.975	-76.379	0.383	0.135
-382.960	-119.597	0.118	0.020
-381.946	-143.072	-0.346	0.034
-380.931	85.549	-0.084	-0.093
-379.917	25.845	-0.217	-0.182
-378.902	-19.801	0.188	-0.117
-377.888	190.502	0.097	-0.147
-376.873	-200.000	-0.068	-0.310
-375.858	-13.040	-0.139	-0.091
-374.844	-100.358	-0.297	0.074
-373.829	-186.532	0.290	-0.004
-372.815	43.760	0.108	0.100
-371.800	-9.690	0.129	-0.086
-370.785	-171.792	-0.185	0.006
-369.771	-5.623	0.335	0.231
-368.756	107.485	0.138	-0.165
-367.742	-200.000	0.005	-0.186
-366.727	121.486	-0.076	0.095
-365.712	-78.301	-0.301	-0.104
-364.698	556.502	-0.020	-0.049
-363.683	12.901	-0.358	0.278
-362.669	567.113	0.089	0.216
-361.654	-200.000	-0.052	0.329
-360.639	-94.314	0.078	0.022
-359.625	12.444	-0.141	-0.109
-358.610	-89.316	0.432	0.128
-357.596	239.301	0.104	-0.174
-356.581	448.277	0.152	-0.337
-355.566	-13.752	-0.086	-0.056
-354.552	140.891	-0.088	-0.117
-353.537	800.000	-0.021	0.063
-352.523	-146.334	-0.398	-0.035
-351.508	-23.770	-0.202	-0.122
-350.493	175.890	-0.072	0.104
-349.479	246.819	0.206	-0.349
-348.464	170.070	0.028	0.040
-347.450	184.263	-0.174	0.259
-346.435	800.000	-0.104	-0.290
-345.420	-140.766	-0.206	-0.021
-344.406	-200.000	0.055	0.273
-343.391	-100.384	-0.135	0.034
-342.377	-117.275	0.479	0.087
-341.362	9.195	-0.126	-0.095
-340.348	-113.813	0.237	0.046
-339.333	-133.905	-0.048	0.006
-338.318	19.588	0.221	0.178
-337.304	-3.078	0.323	-0.226
-336.289	11.496	0.312	-0.240
-335.275	-53.104	0.086	0.040
-334.260	-11.758	-0.144	-0.095
-333.245	683.556	0.142	-0.372
-332.231	188.610	0.108	0.162
-331.216	-200.000	0.052	-0.253
-330.202	548.329	0.115	-0.277
-329.187	-200.000	-0.036	-0.166
-328.172	-65.257	-0.188	-0.076
-327.158	-0.383	-0.116	0.083
-326.143	-200.000	0.005	0.302
-325.129	55.537	-0.016	0.015
-324.114	-28.535	-0.084	-0.048
-323.099	218.841	-0.126	0.202
-322.085	23.218	-0.150	-0.124
-321.070	8.702	0.128	-0.097
-320.056	-99.923	0.123	0.031
-319.041	-77.017	-0.173	-0.061
-318.026	-70.946	0.179	0.068
-317.012	-200.000	-0.023	0.524
-315.997	-26.545	-0.195	0.115
-314.983	50.663	-0.109	0.103
-313.968	-46.675	0.301	0.148
-312.953	199.031	-0.163	-0.250
-311.939	-101.383	0.462	-0.113
-310.924	215.375	0.083	-0.132
-309.910	-80.127	0.266	-0.089
-308.895	-200.000	0.016	-0.169
-307.880	34.612	-0.380	-0.333
-306.866	-62.967	-0.121	-0.050
-305.851	-140.907	-0.124	-0.013
-304.837	240.261	-0.130	0.217
-303.822	-133.145	-0.105	-0.013
-302.807	2.524	-0.027	0.019
-301.793	120.618	0.098	0.123
-300.778	54.116	-0.079	-0.076
-299.764	800.000	-0.006	0.020
-298.749	800.000	-0.064	-0.184
-297.735	-26.010	-0.235	-0.139
-296.720	-38.296	0.082	0.044
-295.705	-68.720	-0.357	-0.139
-294.691	-52.895	0.171	-0.079
-293.676	-5.974	-0.250	0.171
-292.662	-85.463	-0.357	0.112
-291.647	-126.706	-0.414	-0.061
-290.632	800.000	-0.129	0.392
-289.618	111.315	-0.127	0.154
-288.603	-87.692	-0.172	0.052
-287.589	-68.649	-0.108	0.042
-286.574	-28.478	0.028	-0.016
-285.559	168.261	0.119	-0.170
-284.545	-200.000	0.047	-0.249
-283.530	-105.947	0.309	0.070
-282.516	3.100	0.172	-0.125
-281.501	-69.193	0.148	0.057
-280.486	-51.137	0.034	0.016
-279.472	-96.593	-0.359	-0.095
-278.457	-35.183	0.272	0.148
-277.443	-82.154	0.162	0.053
-276.428	-200.000	-0.008	0.065
-275.413	-154.001	0.222	0.015
-274.399	-78.708	-0.218	-0.075
-273.384	149.451	0.237	0.322
-272.370	-3.004	-0.493	0.344
-271.355	-200.000	-0.043	0.247
-270.340	99.900	0.093	-0.108
-269.326	45.866	0.206	-0.190
-268.311	-85.302	0.143	0.045
-267.297	-200.000	0.019	-0.129
-266.282	800.000	-0.082	-0.345
-265.267	-50.522	0.358	-0.169
-264.253	800.000	-0.093	-0.341
-263.238	-177.269	0.257	-0.006
-262.224	-101.419	0.188	-0.046
-261.209	-56.112	0.156	0.070
-260.195	45.875	0.212	-0.196
-259.180	328.872	-0.088	0.168
-258.165	436.126	-0.156	-0.341
-257.151	-110.288	0.329	0.068
-256.136	0.177	-0.083	-0.059
-255.122	-15.221	-0.160	0.102
-254.107	65.724	0.065	-0.066
-253.092	-71.791	-0.139	0.052
-252.078	-19.238	0.248	-0.154
-251.063	800.000	0.044	0.166
-250.049	-200.000	0.075	-0.390
-249.034	800.000	-0.056	0.204
-248.019	800.000	0.009	0.025
-247.005	27.754	0.194	-0.163
-245.990	-200.000	-0.025	0.210
-244.976	715.610	-0.072	0.190
-243.961	-24.268	-0.208	-0.124
-242.946	800.000	-0.118	-0.470
-241.932	-102.629	-0.125	0.030
-240.917	-100.299	-0.234	-0.058
-239.903	244.376	0.160	0.269
-238.888	-109.362	0.177	-0.038
-237.873	255.923	-0.174	-0.299
-236.859	800.000	-0.073	-0.212
-235.844	-13.703	0.169	-0.109
-234.830	-49.834	-0.247	-0.117
-233.815	171.488	-0.046	-0.066
-232.800	-200.000	-0.052	-0.537
-231.786	153.317	0.060	-0.082
-230.771	-65.674	0.131	-0.053
-229.757	-112.165	0.250	-0.050
-228.742	-200.000	0.002	0.096
-227.727	69.831	0.068	-0.070
-226.713	93.255	-0.062	-0.070
-225.698	777.032	0.057	-0.156
-224.684	800.000	-0.066	-0.273
-223.669	-200.000	0.028	0.277
-222.655	12.223	-0.106	-0.082
-221.640	-200.000	-0.070	0.323
-220.625	800.000	-0.079	0.303
-219.611	800.000	-0.111	0.383
-218.596	-88.194	-0.073	0.022
-217.582	-200.000	0.042	-0.355
-216.567	192.380	-0.170	-0.256
-215.552	264.432	0.151	-0.262
-214.538	-36.922	-0.117	0.063
-213.523	-49.016	-0.100	-0.048
-212.509	20.526	-0.032	0.026
-211.494	-122.397	0.717	-0.117
-210.479	-5.997	-0.348	-0.237
-209.465	-141.032	-0.231	0.024
-208.450	-158.178	-0.104	0.006
-207.436	-138.227	-0.133	0.015
-206.421	18.560	0.062	0.050
-205.406	21.176	0.203	0.165
-204.392	-78.366	0.290	0.099
-203.377	120.327	0.173	-0.215
-202.363	102.042	-0.153	-0.179
-201.348	491.235	-0.141	-0.321
-200.333	-140.576	0.358	0.037
-199.319	-200.000	-0.043	0.365
-198.304	464.778	-0.112	0.250
-197.290	800.000	0.136	0.461
-196.275	441.075	-0.094	-0.206
-195.260	-18.949	-0.090	0.056
-194.246	800.000	-0.018	0.051
-193.231	-43.506	-0.035	-0.018
-192.217	125.894	0.164	0.207
-191.202	-165.875	-0.180	0.008
-190.187	-4.362	-0.180	0.124
-189.173	183.085	0.093	-0.137
-188.158	-200.000	0.030	-0.157
-187.144	116.118	0.093	0.114
-186.129	15.341	0.052	-0.040
-185.114	-200.000	-0.008	-0.270
-184.100	-74.421	-0.348	0.125
-183.085	179.773	0.071	0.104
-182.071	444.163	0.124	0.272
-181.056	-94.758	0.305	-0.083
-180.042	27.114	-0.324	0.271
-179.027	191.690	0.099	0.149
-178.012	3.375	0.226	0.164
-176.998	-130.820	-0.223	-0.030
-175.983	145.591	-0.214	-0.286
-174.969	-130.178	0.225	0.031
-173.954	-70.018	-0.189	0.072
-172.939	-115.345	0.223	0.042
-171.925	-48.734	-0.149	0.072
-170.910	133.804	-0.337	-0.435
-169.896	-11.585	-0.396	-0.260
-168.881	-26.121	-0.110	0.065
-167.866	714.079	-0.046	-0.121
-166.852	128.263	-0.210	0.266
-165.837	333.276	-0.077	0.148
-164.823	-200.000	0.005	0.341
-163.808	-173.264	-0.102	-0.003
-162.793	137.488	-0.164	-0.214
-161.779	94.012	0.041	0.046
-160.764	800.000	-0.057	0.227
-159.750	-153.559	0.047	-0.003
-158.735	11.113	0.070	0.053
-157.720	152.138	0.089	0.121
-156.706	379.935	0.121	-0.248
-155.691	18.757	0.123	-0.098
-154.677	248.098	-0.200	0.337
-153.662	244.748	-0.028	0.046
-152.647	7.976	-0.532	0.397
-151.633	-99.973	0.149	0.037
-150.618	-200.000	-0.015	-0.258
-149.604	113.282	-0.316	0.382
-148.589	-200.000	-0.004	-0.073
-147.574	-92.431	-0.054	-0.015
-146.560	-161.034	0.239	-0.012
-145.545	518.088	0.098	0.228
-144.531	108.014	0.316	0.375
-143.516	54.954	-0.112	-0.108
-142.502	-200.000	0.016	-0.155
-141.487	800.000	0.047	-0.130
-140.472	-84.632	0.272	0.086
-139.458	217.601	-0.108	0.172
-138.443	800.000	0.120	-0.361
-137.429	21.113	0.113	-0.091
-136.414	800.000	-0.068	-0.195
-135.399	127.433	-0.152	-0.193
-134.385	-200.000	0.028	-0.365
-133.370	800.000	0.092	-0.294
-132.356	74.695	-0.071	-0.075
-131.341	342.610	-0.016	-0.031
-130.326	-200.000	-0.027	-0.297
-129.312	228.405	0.230	-0.373
-128.297	106.500	0.096	-0.114
-127.283	77.042	-0.047	0.050
-126.268	210.771	-0.172	0.269
-125.253	100.227	-0.223	-0.257
-124.239	202.366	0.070	-0.107
-123.224	125.688	-0.174	0.218
-122.210	291.691	0.157	0.284
-121.195	23.314	0.402	0.329
