DTS Sentinel unit serial number:	SN413079Multiplexer serial number:	ORYXHardware model number:	OX4-SRSoftware version number:	ORYX F/W v4.00 Oryx Data Collector v3.7.2.0data status	okinstallation	princeton_trtdifferential loss correction	single-endedforward channel	channel 3reverse channel	N/Adate	2019/09/13time	02:28:35forward acquisition time	60.00reverse acquisition time	0.00gamma	496.2192k internal	0.2335k external	0.2335temperature offset calibration	1.0134default loss term (dB/km)	0.3790temperature slope calibration	1.0000multiplexer offset coefficient	1.0000multiplexer slope coefficient	1.0000fibre end	0.00T internal ref (°C)	27.50T ext. ref 1 (°C)	3.95T ext. ref 2 (°C)	22.25length (m)	temperature (°C)	Stokes	anti-Stokes-747.200	769.852	0.034	-0.092
-746.185	-200.000	-0.096	0.493
-745.171	517.256	0.157	-0.370
-744.156	-129.925	0.123	0.017
-743.142	-25.409	-0.255	-0.152
-742.127	11.590	-0.237	0.182
-741.112	17.435	-0.105	0.084
-740.098	-200.000	-0.002	0.371
-739.083	-154.546	0.293	-0.020
-738.069	-79.587	-0.319	0.108
-737.054	-93.708	-0.185	0.051
-736.039	250.637	0.199	-0.339
-735.025	-29.937	-0.124	-0.071
-734.010	533.433	0.043	0.102
-732.996	354.047	-0.127	-0.254
-731.981	-164.349	-0.121	-0.006
-730.966	236.674	-0.083	0.137
-729.952	270.744	0.070	-0.124
-728.937	-178.318	-0.623	-0.015
-727.923	-200.000	-0.033	0.346
-726.908	230.592	-0.132	-0.217
-725.894	-200.000	-0.061	-0.310
-724.879	-200.000	-0.034	-0.495
-723.864	-55.337	-0.309	-0.139
-722.850	800.000	0.068	0.196
-721.835	800.000	-0.153	-0.529
-720.821	-97.716	-0.343	-0.089
-719.806	-200.000	-0.058	0.348
-718.791	273.021	0.070	-0.125
-717.777	-8.448	-0.408	-0.275
-716.762	67.988	-0.089	-0.092
-715.748	-185.501	0.073	-0.001
-714.733	288.545	-0.047	-0.086
-713.718	40.443	-0.280	-0.253
-712.704	-107.273	-0.196	0.043
-711.689	-70.949	0.272	0.103
-710.675	-4.937	-0.089	-0.061
-709.660	-74.006	0.218	-0.079
-708.645	303.551	-0.051	-0.095
-707.631	-200.000	0.144	0.001
-706.616	396.931	-0.136	0.284
-705.602	2.400	-0.154	0.112
-704.587	-129.172	-0.070	-0.010
-703.572	-72.902	0.067	-0.025
-702.558	-24.607	0.413	0.247
-701.543	260.559	0.116	-0.201
-700.529	-63.331	0.231	0.095
-699.514	464.679	-0.104	0.234
-698.499	-95.536	-0.410	-0.110
-697.485	-77.258	-0.209	-0.073
-696.470	96.684	0.051	0.058
-695.456	-74.309	-0.380	0.138
-694.441	-158.022	-0.399	-0.024
-693.426	117.164	0.155	0.191
-692.412	175.147	-0.166	-0.241
-691.397	-200.000	0.041	-0.415
-690.383	337.203	0.026	0.050
-689.368	-135.940	-0.254	-0.030
-688.354	-78.317	0.447	-0.154
-687.339	-164.771	-0.222	-0.010
-686.324	44.798	-0.173	0.159
-685.310	-200.000	-0.039	0.183
-684.295	-74.069	0.098	0.035
-683.281	-97.387	0.135	0.035
-682.266	458.991	0.100	-0.223
-681.251	-98.890	0.153	-0.039
-680.237	-85.763	0.267	-0.083
-679.222	-200.000	0.001	-0.073
-678.208	211.350	-0.163	-0.257
-677.193	288.353	-0.202	-0.366
-676.178	800.000	-0.007	0.027
-675.164	76.440	0.076	-0.081
-674.149	-200.000	0.039	-0.298
-673.135	248.217	0.086	-0.146
-672.120	-113.528	-0.202	-0.040
-671.105	-14.885	-0.078	-0.050
-670.091	-15.372	0.021	-0.013
-669.076	147.863	-0.018	0.025
-668.062	-200.000	-0.038	-0.270
-667.047	38.399	-0.179	0.160
-666.032	-150.117	-0.319	0.025
-665.018	93.808	-0.179	-0.203
-664.003	-60.917	0.277	-0.117
-662.989	-44.848	-0.259	-0.129
-661.974	-200.000	-0.025	-0.219
-660.959	-6.932	-0.260	0.177
-659.945	800.000	-0.059	0.196
-658.930	-200.000	0.012	-0.161
-657.916	-72.291	0.333	0.124
-656.901	-200.000	-0.034	0.162
-655.886	190.380	-0.139	0.210
-654.872	5.337	-0.184	-0.136
-653.857	369.531	0.063	-0.128
-652.843	48.957	0.075	-0.070
-651.828	800.000	-0.106	-0.376
-650.814	-43.369	-0.056	0.028
-649.799	-200.000	0.004	-0.168
-648.784	-200.000	-0.015	-0.221
-647.770	-105.163	-0.152	-0.035
-646.755	800.000	0.071	-0.264
-645.741	-47.140	-0.131	0.064
-644.726	-200.000	0.021	0.278
-643.711	-25.129	-0.321	0.190
-642.697	-44.468	-0.247	0.124
-641.682	237.621	-0.074	-0.122
-640.668	5.150	-0.092	-0.068
-639.653	-30.367	-0.152	-0.086
-638.638	-46.701	0.082	0.040
-637.624	-156.447	0.065	0.004
-636.609	430.882	-0.146	-0.316
-635.595	-31.086	0.281	-0.158
-634.580	137.064	-0.079	0.103
-633.565	-103.835	0.260	-0.061
-632.551	-92.555	0.060	-0.017
-631.536	-113.969	0.368	0.072
-630.522	40.320	0.023	0.021
-629.507	-11.009	-0.075	-0.049
-628.492	800.000	-0.051	-0.208
-627.478	-66.819	0.235	-0.093
-626.463	-200.000	0.020	0.126
-625.449	56.471	-0.131	0.128
-624.434	-200.000	-0.015	-0.233
-623.419	-200.000	-0.379	0.001
-622.405	43.185	0.060	-0.055
-621.390	-32.400	-0.036	0.020
-620.376	-200.000	-0.034	0.177
-619.361	120.628	0.076	0.094
-618.346	285.848	-0.270	-0.487
-617.332	-200.000	-0.009	-0.089
-616.317	237.339	0.165	0.273
-615.303	-27.992	-0.090	-0.052
-614.288	-141.537	0.367	-0.037
-613.273	336.193	0.089	0.173
-612.259	-94.913	0.277	-0.075
-611.244	134.093	-0.022	0.029
-610.230	-173.886	-0.183	-0.005
-609.215	59.591	0.213	0.210
-608.201	163.374	0.137	0.193
-607.186	-101.515	-0.132	0.032
-606.171	-71.702	-0.416	0.155
-605.157	800.000	0.065	-0.278
-604.142	366.523	0.156	0.315
-603.128	800.000	-0.040	-0.159
-602.113	6.486	0.203	-0.151
-601.098	-85.342	0.221	-0.069
-600.084	-111.301	0.061	0.013
-599.069	-108.757	0.295	-0.063
-598.055	-55.420	-0.096	-0.043
-597.040	191.358	-0.090	-0.135
-596.025	278.794	0.045	0.080
-595.011	-32.713	0.154	0.086
-593.996	36.822	-0.182	0.161
-592.982	-25.956	-0.129	0.076
-591.967	-91.063	-0.213	-0.061
-590.952	-42.597	-0.077	-0.039
-589.938	-1.414	-0.068	-0.048
-588.923	412.792	-0.166	-0.353
-587.909	250.871	0.090	-0.153
-586.894	281.361	-0.129	0.231
-585.879	-21.759	0.217	0.132
-584.865	-200.000	0.026	0.290
-583.850	52.043	0.038	0.036
-582.836	-200.000	-0.070	-0.329
-581.821	69.420	-0.225	0.231
-580.806	-200.000	-0.006	0.226
-579.792	37.707	-0.048	-0.042
-578.777	800.000	0.060	-0.235
-577.763	395.234	0.119	-0.248
-576.748	388.618	-0.191	-0.395
-575.733	733.035	-0.137	-0.365
-574.719	-174.210	-0.438	-0.013
-573.704	-200.000	0.007	0.039
-572.690	202.317	0.064	-0.099
-571.675	36.071	-0.231	-0.203
-570.661	800.000	0.100	0.303
-569.646	-200.000	-0.030	0.166
-568.631	478.470	-0.023	0.052
-567.617	-179.173	-0.309	0.007
-566.602	173.937	-0.223	0.322
-565.588	520.518	-0.103	0.242
-564.573	-67.356	0.286	0.112
-563.558	-55.719	0.146	0.065
-562.544	800.000	-0.017	0.073
-561.529	-188.850	-0.434	-0.005
-560.515	-200.000	0.003	-0.088
-559.500	647.595	-0.040	-0.102
-558.485	-108.735	-0.324	0.069
-557.471	800.000	0.021	0.085
-556.456	800.000	-0.111	-0.357
-555.442	-13.335	0.103	0.067
-554.427	800.000	0.013	-0.039
-553.412	149.114	-0.085	-0.115
-552.398	164.883	0.072	-0.101
-551.383	-108.907	0.108	0.023
-550.369	-93.792	-0.193	-0.053
-549.354	-30.360	-0.228	-0.129
-548.339	-200.000	0.406	0.002
-547.325	-200.000	0.010	0.122
-546.310	-200.000	-0.025	-0.111
-545.296	-163.558	0.206	-0.010
-544.281	118.321	-0.432	-0.532
-543.266	-32.768	0.469	0.260
-542.252	-200.000	-0.012	-0.074
-541.237	10.294	-0.195	0.148
-540.223	26.186	0.038	-0.032
-539.208	155.412	0.069	-0.095
-538.193	800.000	-0.072	-0.297
-537.179	-98.118	-0.178	-0.046
-536.164	4.142	-0.438	0.319
-535.150	800.000	-0.106	0.454
-534.135	-98.306	-0.233	0.060
-533.121	35.779	-0.219	0.192
-532.106	-200.000	-0.019	-0.190
-531.091	-60.078	-0.490	-0.208
-530.077	-138.108	0.126	-0.014
-529.062	-200.000	-0.021	-0.222
-528.048	-130.679	-0.278	0.037
-527.033	-200.000	-0.072	-0.377
-526.018	288.605	0.136	0.245
-525.004	121.175	0.194	-0.241
-523.989	62.705	-0.027	-0.027
-522.975	345.392	0.232	0.454
-521.960	130.245	0.210	-0.268
-520.945	302.870	-0.161	-0.297
-519.931	-161.878	-0.130	0.007
-518.916	24.946	0.226	-0.187
-517.902	86.864	-0.292	-0.321
-516.887	325.424	-0.119	0.226
-515.872	35.346	0.256	0.224
-514.858	-200.000	-0.054	0.249
-513.843	-200.000	0.004	0.040
-512.829	168.346	0.061	-0.086
-511.814	-31.491	0.087	0.049
-510.799	13.644	-0.103	-0.079
-509.785	-200.000	-0.030	0.135
-508.770	-200.000	0.049	-0.347
-507.756	2.317	0.079	0.057
-506.741	107.160	0.221	0.261
-505.726	-200.000	0.002	0.324
-504.712	-52.144	0.335	0.155
-503.697	114.737	0.276	-0.335
-502.683	-22.926	-0.128	0.077
-501.668	800.000	0.025	-0.102
-500.653	-144.336	-0.212	0.020
-499.639	-94.638	-0.200	-0.054
-498.624	-200.000	-0.004	0.072
-497.610	-110.876	0.234	0.048
-496.595	-114.587	-0.309	-0.059
-495.581	-110.826	-0.025	-0.005
-494.566	-118.025	0.225	0.040
-493.551	-187.330	0.323	0.004
-492.537	-200.000	0.012	-0.163
-491.522	-47.712	0.149	-0.072
-490.508	-16.540	-0.097	-0.061
-489.493	41.698	0.337	-0.304
-488.478	-29.931	-0.243	-0.138
-487.464	31.547	-0.139	0.119
-486.449	-140.995	-0.171	0.017
-485.435	800.000	-0.029	0.123
-484.420	-5.721	0.228	0.155
-483.405	-200.000	-0.014	-0.064
-482.391	-106.580	0.196	-0.044
-481.376	-54.724	-0.026	-0.012
-480.362	53.214	-0.166	0.158
-479.347	276.611	0.106	-0.187
-478.332	-81.417	-0.127	0.042
-477.318	-156.580	0.237	-0.015
-476.303	-144.583	-0.156	0.014
-475.289	800.000	0.035	0.109
-474.274	-115.581	0.293	-0.055
-473.259	-102.457	-0.100	0.024
-472.245	-200.000	0.023	0.331
-471.230	716.790	-0.098	0.258
-470.216	366.645	-0.026	0.053
-469.201	-124.993	-0.254	-0.039
-468.186	-200.000	0.000	0.032
-467.172	800.000	-0.011	-0.044
-466.157	-160.640	-0.035	0.002
-465.143	-53.638	0.115	-0.052
-464.128	-61.418	0.123	0.051
-463.113	-22.719	0.142	-0.085
-462.099	-33.669	-0.113	0.062
-461.084	-29.872	0.057	0.032
-460.070	323.954	0.049	-0.093
-459.055	-116.318	0.248	-0.046
-458.040	-200.000	-0.021	0.187
-457.026	18.936	0.128	0.102
-456.011	145.755	0.173	-0.231
-454.997	11.384	-0.185	-0.141
-453.982	413.325	0.076	-0.161
-452.968	800.000	-0.056	0.164
-451.953	-111.796	0.338	0.068
-450.938	-9.483	0.091	-0.060
-449.924	-58.940	-0.320	0.137
-448.909	-168.856	0.088	0.003
-447.895	373.260	0.007	-0.015
-446.880	800.000	0.020	0.085
-445.865	623.151	-0.033	0.083
-444.851	40.700	-0.109	-0.097
-443.836	-200.000	-0.004	0.037
-442.822	-121.299	-0.242	0.040
-441.807	800.000	-0.145	0.410
-440.792	-200.000	-0.026	0.000
-439.778	172.480	-0.127	0.181
-438.763	800.000	-0.011	-0.043
-437.749	-66.501	-0.238	-0.094
-436.734	-73.594	-0.213	0.077
-435.719	-94.912	0.229	0.061
-434.705	38.576	0.375	0.332
-433.690	-65.797	0.032	-0.013
-432.676	800.000	-0.022	-0.061
-431.661	254.089	0.129	-0.219
-430.646	-173.227	0.451	0.014
-429.632	-48.641	-0.207	0.099
-428.617	-37.569	-0.114	0.061
-427.603	-72.034	0.274	0.101
-426.588	48.863	0.121	-0.112
-425.573	-0.235	-0.046	-0.032
-424.559	43.415	-0.196	-0.177
-423.544	98.842	-0.057	-0.066
-422.530	234.106	-0.035	0.057
-421.515	-48.137	-0.272	0.131
-420.500	502.446	-0.072	0.164
-419.486	-200.000	-0.007	0.042
-418.471	800.000	-0.090	0.303
-417.457	127.515	-0.215	0.271
-416.442	20.243	0.370	-0.296
-415.428	450.171	0.052	0.115
-414.413	-50.854	-0.249	-0.116
-413.398	-139.256	0.110	0.012
-412.384	-26.157	-0.155	0.090
-411.369	-92.504	-0.256	-0.071
-410.355	485.836	0.061	0.138
-409.340	-66.844	0.301	0.118
-408.325	373.298	0.132	0.267
-407.311	273.965	0.035	0.062
-406.296	-41.093	-0.215	-0.110
-405.282	-119.194	-0.116	-0.020
-404.267	800.000	0.098	0.339
-403.252	-95.978	-0.288	-0.076
-402.238	-200.000	0.017	0.089
-401.223	17.861	-0.086	-0.068
-400.209	-200.000	-0.013	-0.073
-399.194	-167.276	-0.176	0.007
-398.179	62.172	-0.178	0.176
-397.165	-150.866	0.068	0.005
-396.150	-159.362	0.247	0.014
-395.136	461.851	-0.104	-0.230
-394.121	349.123	0.095	0.186
-393.106	-32.662	0.080	0.044
-392.092	800.000	0.073	-0.291
-391.077	-33.476	0.505	-0.277
-390.063	8.462	0.216	0.161
-389.048	-133.155	0.257	0.032
-388.033	118.904	0.317	0.388
-387.019	-200.000	-0.007	-0.176
-386.004	800.000	0.087	-0.267
-384.990	-96.257	0.132	0.035
-383.975	-200.000	0.035	-0.180
-382.960	52.549	0.185	0.176
-381.946	-84.215	0.157	-0.049
-380.931	800.000	0.030	0.102
-379.917	-133.248	-0.139	0.017
-378.902	-10.297	0.417	-0.274
-377.888	-55.071	-0.115	-0.051
-376.873	-200.000	-0.072	0.337
-375.858	406.126	-0.187	0.392
-374.844	800.000	0.027	0.110
-373.829	-120.744	0.237	0.040
-372.815	800.000	0.109	-0.445
-371.800	-120.285	-0.275	-0.047
-370.785	-82.332	0.305	-0.098
-369.771	508.542	0.166	0.382
-368.756	39.305	-0.190	0.169
-367.742	-5.194	0.023	0.016
-366.727	-200.000	0.002	-0.013
-365.712	-36.193	-0.224	0.120
-364.698	62.527	-0.121	0.120
-363.683	-19.569	0.023	-0.014
-362.669	168.913	-0.049	0.070
-361.654	-15.001	0.325	-0.206
-360.639	351.243	0.062	-0.122
-359.625	9.866	-0.350	-0.263
-358.610	91.989	0.133	0.148
-357.596	800.000	0.038	-0.121
-356.581	59.159	0.186	0.182
-355.566	-69.466	-0.124	-0.047
-354.552	-77.974	0.559	-0.191
-353.537	527.024	0.095	-0.222
-352.523	-82.867	0.158	-0.051
-351.508	-3.391	0.270	-0.186
-350.493	-131.468	0.213	-0.028
-349.479	-108.513	-0.221	0.047
-348.464	-85.275	0.135	0.042
-347.450	-72.603	-0.104	-0.038
-346.435	296.959	-0.057	-0.103
-345.420	313.826	0.051	0.095
-344.406	-200.000	-0.031	-0.142
-343.391	-200.000	-0.029	-0.215
-342.377	-56.996	-0.175	-0.076
-341.362	-200.000	0.057	0.288
-340.348	147.738	0.149	-0.199
-339.333	546.923	-0.155	-0.368
-338.318	101.881	0.107	-0.123
-337.304	-138.859	0.574	-0.062
-336.289	366.702	0.131	-0.261
-335.275	161.926	-0.041	-0.056
-334.260	-200.000	-0.030	-0.361
-333.245	11.950	-0.247	0.188
-332.231	105.740	0.148	-0.173
-331.216	140.858	-0.156	-0.204
-330.202	69.725	-0.212	-0.216
-329.187	-0.797	-0.354	0.248
-328.172	165.836	-0.154	-0.216
-327.158	-131.455	0.085	-0.011
-326.143	-20.635	0.058	0.035
-325.129	-16.019	0.155	-0.098
-324.114	-200.000	0.020	0.184
-323.099	164.746	0.230	-0.321
-322.085	-200.000	-0.074	-0.488
-321.070	-51.602	0.157	0.072
-320.056	-32.869	-0.241	-0.133
-319.041	306.684	0.051	0.094
-318.026	-62.776	-0.154	0.063
-317.012	725.489	0.101	-0.265
-315.997	45.738	0.108	-0.099
-314.983	800.000	-0.022	-0.083
-313.968	800.000	0.072	-0.223
-312.953	90.752	-0.098	0.108
-311.939	-127.100	-0.114	-0.017
-310.924	-200.000	-0.047	-0.210
-309.910	-157.722	0.155	-0.009
-308.895	474.687	-0.074	0.165
-307.880	279.448	-0.093	-0.164
-306.866	495.518	-0.030	-0.068
-305.851	800.000	0.086	0.364
-304.837	-147.757	0.012	-0.001
-303.822	21.592	0.226	-0.182
-302.807	-200.000	-0.006	0.190
-301.793	29.732	-0.025	0.021
-300.778	111.793	-0.172	0.205
-299.764	-133.356	0.232	0.029
-298.749	-200.000	-0.005	0.243
-297.735	-200.000	-0.047	0.394
-296.720	3.284	0.208	0.150
-295.705	-104.775	-0.177	0.040
-294.691	8.664	0.105	0.078
-293.676	-200.000	-0.032	0.156
-292.662	-55.801	-0.160	-0.071
-291.647	164.695	-0.063	0.087
-290.632	-117.753	0.116	-0.021
-289.618	-24.250	-0.177	-0.104
-288.603	-198.704	-0.464	0.003
-287.589	-15.015	-0.169	0.107
-286.574	-97.857	0.173	-0.044
-285.559	348.092	-0.112	-0.217
-284.545	800.000	0.029	0.095
-283.530	-200.000	-0.068	-0.469
-282.516	-200.000	-0.048	0.283
-281.501	9.374	-0.198	0.148
-280.486	-25.379	0.189	0.110
-279.472	63.521	0.281	0.278
-278.457	152.477	-0.223	0.301
-277.443	-60.026	-0.406	-0.171
-276.428	-200.000	-0.064	0.280
-275.413	-164.092	-0.225	0.010
-274.399	-200.000	0.044	-0.236
-273.384	236.793	0.142	0.232
-272.370	536.425	0.057	0.133
-271.355	-200.000	0.004	-0.223
-270.340	-200.000	0.010	-0.076
-269.326	200.571	0.090	-0.136
-268.311	115.066	0.038	0.045
-267.297	41.977	-0.069	0.062
-266.282	585.886	0.106	0.256
-265.267	-200.000	0.038	0.269
-264.253	800.000	0.080	-0.267
-263.238	490.419	0.248	-0.560
-262.224	-22.223	0.236	0.141
-261.209	-87.159	-0.098	-0.029
-260.195	-200.000	0.033	0.225
-259.180	-35.342	0.097	-0.052
-258.165	800.000	-0.082	-0.270
-257.151	116.376	0.106	0.129
-256.136	51.345	-0.240	0.224
-255.122	120.296	-0.119	0.146
-254.107	-200.000	0.005	-0.079
-253.092	-11.600	0.262	-0.170
-252.078	-200.000	-0.030	0.164
-251.063	800.000	0.045	0.154
-250.049	44.618	0.132	0.119
-249.034	800.000	0.029	-0.117
-248.019	120.552	0.109	0.133
-247.005	-183.371	-0.203	-0.003
-245.990	800.000	0.073	-0.216
-244.976	236.540	-0.170	-0.277
-243.961	-110.448	-0.235	0.048
-242.946	800.000	0.012	0.052
-241.932	800.000	0.088	0.313
-240.917	-21.989	0.169	-0.101
-239.903	137.212	0.247	-0.319
-238.888	-111.813	-0.243	0.048
-237.873	-59.616	0.119	-0.050
-236.859	267.396	0.106	-0.183
-235.844	5.049	-0.209	-0.151
-234.830	-37.069	-0.284	0.150
-233.815	-98.285	-0.129	-0.033
-232.800	-14.408	-0.100	0.064
-231.786	107.438	-0.193	0.226
-230.771	338.765	-0.145	0.278
-229.757	158.892	0.054	0.074
-228.742	482.718	-0.136	0.304
-227.727	-165.622	0.221	-0.009
-226.713	216.375	-0.127	-0.198
-225.698	-200.000	-0.010	-0.508
-224.684	-157.161	-0.036	-0.002
-223.669	800.000	0.130	-0.384
-222.655	-200.000	-0.022	0.284
-221.640	-11.665	-0.124	0.080
-220.625	-100.074	-0.047	-0.012
-219.611	263.004	-0.108	0.184
-218.596	-32.575	0.052	0.029
-217.582	-36.811	-0.295	0.156
-216.567	86.628	0.118	0.129
-215.552	-125.021	-0.287	-0.043
-214.538	800.000	0.074	0.264
-213.523	-200.000	0.011	0.085
-212.509	-85.083	0.237	0.073
-211.494	-200.000	-0.006	0.068
-210.479	-200.000	0.031	0.190
-209.465	529.428	-0.198	-0.460
-208.450	-200.000	0.001	0.093
-207.436	800.000	0.104	0.378
-206.421	-140.109	0.521	0.054
-205.406	-88.472	0.095	-0.028
-204.392	42.311	-0.112	-0.100
-203.377	362.502	0.029	0.057
-202.363	413.552	0.104	-0.217
-201.348	800.000	-0.030	-0.098
-200.333	39.549	-0.159	-0.140
-199.319	-113.152	-0.237	-0.046
-198.304	125.880	-0.233	-0.289
-197.290	-200.000	0.036	-0.184
-196.275	-154.924	0.237	-0.015
-195.260	-72.362	-0.117	-0.043
-194.246	-200.000	0.019	0.251
-193.231	800.000	0.060	-0.171
-192.217	-86.778	-0.177	0.053
-191.202	-38.362	0.345	0.180
-190.187	371.544	-0.067	0.134
-189.173	-30.640	-0.081	0.045
-188.158	120.694	-0.147	0.180
-187.144	-200.000	0.028	-0.508
-186.129	-200.000	0.003	-0.203
-185.114	-55.617	-0.186	0.082
-184.100	41.072	0.080	0.071
-183.085	129.585	0.122	0.154
-182.071	171.894	-0.030	0.043
-181.056	-25.977	-0.352	0.204
-180.042	-200.000	-0.056	0.273
-179.027	-74.546	-0.095	-0.034
-178.012	63.091	-0.265	-0.261
-176.998	104.899	0.208	-0.241
-175.983	32.101	0.057	-0.048
-174.969	48.079	-0.083	0.076
-173.954	71.759	0.136	-0.139
-172.939	341.773	0.029	-0.056
-171.925	311.669	-0.048	-0.089
-170.910	-200.000	-0.004	-0.042
-169.896	-200.000	-0.011	0.185
-168.881	-145.624	0.254	-0.022
-167.866	136.513	0.154	-0.197
-166.852	-170.321	0.231	-0.008
-165.837	-200.000	-0.004	-0.041
-164.823	58.788	-0.153	-0.148
-163.808	220.427	0.154	-0.242
-162.793	312.391	0.066	0.121
-161.779	-200.000	0.054	0.290
-160.764	-5.349	-0.110	0.074
-159.750	-200.000	0.020	0.309
-158.735	800.000	0.061	0.240
-157.720	77.893	0.148	0.154
-156.706	-53.838	-0.260	-0.117
-155.691	-34.020	0.285	-0.154
-154.677	-167.651	0.256	0.010
-153.662	800.000	0.079	0.295
-152.647	-200.000	0.043	0.389
-151.633	800.000	-0.045	0.129
-150.618	45.115	0.131	-0.118
-149.604	359.236	0.088	-0.173
-148.589	136.203	0.123	0.157
-147.574	-200.000	-0.002	0.011
-146.560	341.309	-0.056	-0.108
-145.545	-130.667	-0.094	-0.012
-144.531	470.883	-0.077	-0.170
-143.516	800.000	0.084	0.263
-142.502	-137.549	0.101	0.011
-141.487	294.892	0.107	0.193
-140.472	800.000	-0.053	-0.162
-139.458	793.970	0.108	0.291
-138.443	800.000	-0.017	0.065
-137.429	-31.248	0.174	0.096
-136.414	90.812	-0.225	0.248
-135.399	-25.230	-0.412	-0.239
-134.385	450.696	-0.100	0.217
-133.370	91.217	-0.226	0.248
-132.356	16.477	-0.191	-0.148
-131.341	-200.000	0.012	-0.062
-130.326	-72.030	0.470	0.171
-129.312	173.602	-0.069	-0.098
-128.297	-200.000	0.008	0.169
-127.283	0.999	-0.179	0.126
-126.268	-200.000	0.009	0.068
-125.253	-102.613	-0.035	-0.008
-124.239	594.361	-0.061	0.149
-123.224	-200.000	0.004	0.026
-122.210	746.524	0.043	0.113
