DTS Sentinel unit serial number:	SN413079Multiplexer serial number:	ORYXHardware model number:	OX4-SRSoftware version number:	ORYX F/W v4.00 Oryx Data Collector v3.7.2.0data status	okinstallation	princeton_trtdifferential loss correction	single-endedforward channel	channel 3reverse channel	N/Adate	2019/09/15time	09:40:35forward acquisition time	60.00reverse acquisition time	0.00gamma	496.2192k internal	0.2309k external	0.2309temperature offset calibration	0.9962default loss term (dB/km)	0.3790temperature slope calibration	1.0000multiplexer offset coefficient	1.0000multiplexer slope coefficient	1.0000fibre end	0.00T internal ref (°C)	33.94T ext. ref 1 (°C)	4.93T ext. ref 2 (°C)	29.70length (m)	temperature (°C)	Stokes	anti-Stokes-747.200	6.914	0.031	-0.023
-746.185	11.281	0.158	-0.123
-745.171	-153.074	0.206	-0.015
-744.156	54.960	-0.102	-0.100
-743.142	-200.000	-0.015	-0.068
-742.127	-90.065	-0.302	0.089
-741.112	494.302	0.102	-0.239
-740.098	57.612	-0.126	0.126
-739.083	6.501	-0.131	0.099
-738.069	294.476	-0.152	0.283
-737.054	473.536	-0.061	0.139
-736.039	-200.000	0.031	0.158
-735.025	-112.927	-0.341	-0.069
-734.010	-8.724	-0.084	0.057
-732.996	64.991	-0.253	-0.259
-731.981	121.653	-0.188	-0.239
-730.966	-66.547	0.108	-0.044
-729.952	-57.856	0.253	-0.112
-728.937	48.489	-0.100	0.095
-727.923	529.547	0.031	0.074
-726.908	125.587	-0.146	-0.188
-725.894	-191.759	-0.489	-0.005
-724.879	800.000	0.063	-0.180
-723.864	-67.985	-0.205	-0.081
-722.850	114.963	0.159	0.196
-721.835	-109.784	-0.094	-0.020
-720.821	-109.575	-0.603	-0.129
-719.806	-30.791	0.030	-0.017
-718.791	-8.011	0.096	0.066
-717.777	-79.465	-0.172	0.059
-716.762	-200.000	0.012	-0.228
-715.748	-200.000	0.015	0.087
-714.733	-9.047	0.090	-0.061
-713.718	-128.414	0.225	0.032
-712.704	-139.073	0.103	-0.011
-711.689	186.726	-0.099	-0.149
-710.675	-136.394	-0.090	0.011
-709.660	22.005	0.084	-0.070
-708.645	244.610	-0.232	-0.395
-707.631	267.864	0.132	-0.235
-706.616	50.764	0.129	-0.124
-705.602	-102.218	-0.514	0.125
-704.587	20.154	0.143	-0.117
-703.572	-165.460	0.221	-0.010
-702.558	-90.056	0.113	0.033
-701.543	170.941	0.092	-0.134
-700.529	-200.000	-0.047	-0.295
-699.514	-12.561	0.076	0.050
-698.499	511.341	0.059	-0.140
-697.485	-133.597	0.319	-0.041
-696.470	205.330	0.149	-0.234
-695.456	424.667	-0.128	0.279
-694.441	-18.053	0.176	-0.112
-693.426	164.038	0.098	-0.141
-692.412	-181.905	-0.312	0.006
-691.397	736.622	0.046	-0.126
-690.383	-87.538	-0.286	-0.088
-689.368	-200.000	0.192	-0.001
-688.354	-95.139	-0.225	0.062
-687.339	-200.000	0.001	0.195
-686.324	-23.252	-0.168	-0.102
-685.310	-135.439	-0.298	-0.036
-684.295	-200.000	-0.061	-0.326
-683.281	433.149	-0.175	-0.385
-682.266	800.000	0.059	-0.171
-681.251	36.830	0.094	-0.084
-680.237	430.249	0.069	0.151
-679.222	-103.279	-0.272	0.065
-678.208	-200.000	-0.004	-0.458
-677.193	800.000	-0.034	-0.116
-676.178	800.000	0.074	0.236
-675.164	800.000	0.045	0.200
-674.149	-31.950	-0.138	-0.078
-673.135	105.497	-0.162	-0.194
-672.120	91.759	-0.075	0.085
-671.105	236.752	0.101	0.170
-670.091	646.682	0.073	-0.189
-669.076	-200.000	-0.012	0.088
-668.062	-200.000	0.016	-0.109
-667.047	46.451	-0.169	-0.159
-666.032	-52.324	-0.098	-0.046
-665.018	13.066	0.230	0.180
-664.003	-154.370	0.066	-0.005
-662.989	32.519	0.124	0.108
-661.974	14.504	0.103	0.081
-660.959	-200.000	0.017	0.346
-659.945	346.276	-0.203	0.404
-658.930	-200.000	-0.022	-0.239
-657.916	76.045	-0.206	-0.220
-656.901	421.453	-0.086	-0.188
-655.886	-106.338	0.302	-0.068
-654.872	-153.917	0.075	0.005
-653.857	-62.797	-0.235	-0.099
-652.843	-200.000	0.023	0.406
-651.828	-200.000	-0.014	-0.176
-650.814	502.177	0.080	0.188
-649.799	15.809	-0.208	0.166
-648.784	-200.000	0.082	-0.399
-647.770	16.326	-0.359	0.287
-646.755	63.581	-0.185	0.188
-645.741	800.000	-0.078	-0.232
-644.726	278.512	-0.095	-0.172
-643.711	-67.296	-0.154	-0.061
-642.697	-141.163	-0.042	-0.004
-641.682	222.565	-0.065	0.105
-640.668	800.000	0.073	-0.228
-639.653	556.506	-0.057	-0.138
-638.638	-200.000	0.018	0.294
-637.624	-92.764	0.201	0.057
-636.609	-65.671	0.196	0.079
-635.595	368.702	-0.034	-0.069
-634.580	49.556	-0.407	0.387
-633.565	272.541	0.140	-0.251
-632.551	-137.585	0.193	-0.022
-631.536	-15.363	0.068	0.044
-630.522	-89.988	-0.110	0.032
-629.507	-200.000	-0.056	0.443
-628.492	144.833	-0.198	-0.268
-627.478	-179.966	0.169	0.004
-626.463	488.985	-0.145	-0.335
-625.449	-48.485	-0.119	0.058
-624.434	357.760	-0.026	-0.053
-623.419	-128.205	0.335	-0.048
-622.405	800.000	0.024	-0.078
-621.390	354.296	-0.089	-0.179
-620.376	-154.427	-0.280	-0.019
-619.361	-16.701	0.318	0.204
-618.346	800.000	0.081	-0.293
-617.332	-200.000	0.023	0.160
-616.317	-78.692	0.041	0.014
-615.303	126.582	0.162	-0.207
-614.288	800.000	-0.118	0.374
-613.273	-15.501	0.404	0.260
-612.259	-70.234	-0.059	-0.023
-611.244	0.426	0.136	-0.098
-610.230	-42.304	0.197	0.102
-609.215	-200.000	0.217	0.000
-608.201	-88.810	-0.279	0.084
-607.186	-113.367	0.416	-0.083
-606.171	-68.741	-0.196	0.077
-605.157	800.000	-0.052	-0.231
-604.142	-161.723	-0.248	-0.013
-603.128	-200.000	0.010	-0.117
-602.113	188.840	-0.174	-0.263
-601.098	162.361	-0.116	-0.165
-600.084	-200.000	0.013	0.192
-599.069	-200.000	0.001	0.086
-598.055	402.156	-0.153	0.325
-597.040	-146.798	-0.305	-0.027
-596.025	-200.000	0.057	-0.293
-595.011	156.536	-0.148	-0.206
-593.996	-29.498	0.281	0.162
-592.982	25.603	-0.168	-0.141
-591.967	125.251	0.123	-0.157
-590.952	57.854	0.193	-0.191
-589.938	-200.000	-0.033	0.196
-588.923	-123.667	-0.124	-0.020
-587.909	239.597	-0.103	0.174
-586.894	-40.952	-0.219	-0.114
-585.879	624.286	0.101	-0.256
-584.865	536.743	-0.039	-0.094
-583.850	800.000	-0.114	0.339
-582.836	44.089	-0.162	0.150
-581.821	-25.616	-0.028	0.017
-580.806	-54.987	0.404	0.184
-579.792	-6.202	0.265	-0.183
-578.777	-103.884	0.105	-0.025
-577.763	-14.249	-0.377	-0.245
-576.748	-74.993	-0.202	0.073
-575.733	-75.702	0.206	-0.074
-574.719	318.943	-0.067	0.128
-573.704	-138.347	0.398	0.044
-572.690	38.967	0.364	-0.328
-571.675	-200.000	0.002	-0.063
-570.661	344.086	-0.082	-0.162
-569.646	-64.297	0.212	-0.087
-568.631	-153.955	0.141	0.010
-567.617	-120.442	-0.198	0.034
-566.602	-200.000	-0.012	-0.317
-565.588	133.627	0.288	0.376
-564.573	-200.000	0.039	0.282
-563.558	115.421	0.174	0.214
-562.544	-126.261	0.228	-0.034
-561.529	613.518	0.039	0.097
-560.515	-19.678	-0.006	0.004
-559.500	76.872	-0.230	-0.247
-558.485	100.120	-0.133	-0.155
-557.471	-134.468	0.121	0.015
-556.456	-118.373	-0.242	0.043
-555.442	-200.000	-0.013	-0.208
-554.427	101.457	-0.128	0.151
-553.412	206.217	0.146	-0.229
-552.398	18.314	-0.211	0.170
-551.383	-151.302	0.540	-0.041
-550.369	-85.437	-0.309	-0.097
-549.354	353.518	0.074	0.148
-548.339	470.056	-0.121	-0.275
-547.325	-12.644	0.241	-0.159
-546.310	-43.203	-0.193	-0.098
-545.296	-7.093	0.428	-0.293
-544.281	8.496	0.111	-0.084
-543.266	4.000	0.128	-0.095
-542.252	374.736	-0.165	0.340
-541.237	322.049	-0.027	0.052
-540.223	76.819	-0.149	-0.159
-539.208	175.619	0.142	0.208
-538.193	-122.731	-0.074	0.012
-537.179	800.000	-0.035	0.114
-536.164	348.588	-0.090	0.179
-535.150	800.000	-0.180	0.543
-534.135	-15.047	0.112	0.072
-533.121	213.658	-0.125	-0.199
-532.106	800.000	0.030	0.108
-531.091	800.000	-0.049	0.200
-530.077	-103.696	0.225	0.053
-529.062	-148.184	0.046	0.004
-528.048	800.000	-0.085	-0.274
-527.033	64.649	-0.324	-0.330
-526.018	-32.898	0.150	-0.084
-525.004	338.306	0.016	-0.031
-523.989	121.045	0.079	0.099
-522.975	93.814	0.071	0.081
-521.960	-15.542	0.248	0.159
-520.945	-200.000	0.014	0.213
-519.931	133.303	0.029	0.038
-518.916	151.073	0.181	-0.248
-517.902	50.402	0.310	-0.295
-516.887	-39.448	0.095	0.050
-515.872	294.382	-0.084	0.155
-514.858	-126.481	-0.292	0.044
-513.843	-29.135	-0.156	-0.090
-512.829	103.353	-0.034	0.040
-511.814	-200.000	-0.000	-0.179
-510.799	800.000	-0.038	0.143
-509.785	-124.766	-0.225	-0.035
-508.770	89.164	0.099	0.111
-507.756	-80.101	0.306	-0.103
-506.741	220.590	0.092	0.148
-505.726	-79.592	-0.111	0.038
-504.712	-7.276	0.183	0.125
-503.697	-136.086	-0.069	0.008
-502.683	-200.000	0.030	-0.220
-501.668	-200.000	0.069	-0.443
-500.653	800.000	-0.032	0.119
-499.639	-200.000	0.306	0.000
-498.624	210.475	0.044	0.069
-497.610	346.222	-0.032	-0.062
-496.595	-6.528	0.357	-0.245
-495.581	97.206	-0.063	-0.073
-494.566	84.300	0.339	0.373
-493.551	-200.000	0.040	0.364
-492.537	-59.931	-0.223	0.096
-491.522	-200.000	-0.001	-0.053
-490.508	-46.770	-0.116	-0.057
-489.493	-74.402	-0.163	-0.059
-488.478	-200.000	-0.052	0.328
-487.464	-105.684	-0.056	-0.013
-486.449	12.597	-0.332	-0.258
-485.435	-200.000	-0.011	0.107
-484.420	170.793	-0.213	-0.307
-483.405	-135.401	-0.216	0.026
-482.391	-40.759	-0.099	0.052
-481.376	-76.710	0.086	0.030
-480.362	221.805	0.120	-0.194
-479.347	504.515	-0.092	0.215
-478.332	800.000	0.064	0.251
-477.318	-200.000	0.126	-0.000
-476.303	-163.201	0.323	-0.016
-475.289	-200.000	0.030	-0.367
-474.274	800.000	-0.104	0.454
-473.259	800.000	0.071	0.238
-472.245	124.239	0.150	-0.190
-471.230	36.391	-0.180	0.160
-470.216	-200.000	0.006	0.374
-469.201	-200.000	-0.012	0.239
-468.186	-92.519	-0.076	0.021
-467.172	-106.711	0.371	-0.083
-466.157	369.683	0.083	0.170
-465.143	-125.878	0.237	-0.036
-464.128	-200.000	-0.014	0.148
-463.113	621.572	0.018	-0.045
-462.099	37.864	-0.082	0.073
-461.084	481.082	0.070	0.159
-460.070	62.038	0.311	-0.312
-459.055	663.397	0.064	-0.167
-458.040	57.586	-0.156	0.153
-457.026	39.009	-0.172	-0.154
-456.011	270.231	0.057	0.101
-454.997	278.244	-0.111	-0.199
-453.982	-200.000	-0.005	-0.062
-452.968	684.786	-0.080	0.209
-451.953	-200.000	0.016	-0.402
-450.938	800.000	0.055	-0.158
-449.924	800.000	0.053	0.167
-448.909	18.640	-0.281	0.226
-447.895	115.404	0.142	0.175
-446.880	103.043	-0.080	-0.094
-445.865	800.000	0.046	-0.140
-444.851	-113.895	0.252	0.049
-443.836	23.678	-0.251	-0.208
-442.822	800.000	0.062	-0.263
-441.807	517.325	0.092	-0.216
-440.792	-51.585	0.177	-0.083
-439.778	-200.000	-0.063	-0.409
-438.763	-147.557	0.064	0.005
-437.749	800.000	0.044	0.122
-436.734	-93.089	-0.396	0.111
-435.719	137.030	0.242	0.318
-434.705	445.031	0.040	-0.088
-433.690	47.649	0.108	-0.101
-432.676	-2.600	-0.039	-0.027
-431.661	47.862	-0.301	-0.282
-430.646	367.691	-0.295	0.598
-429.632	675.255	0.057	-0.149
-428.617	-40.452	0.075	0.039
-427.603	-109.978	-0.173	0.036
-426.588	-200.000	-0.031	-0.196
-425.573	-200.000	-0.004	-0.067
-424.559	-143.677	-0.249	0.024
-423.544	-200.000	0.013	-0.322
-422.530	-38.481	0.198	0.105
-421.515	-128.127	-0.183	-0.026
-420.500	55.761	-0.263	0.256
-419.486	-98.413	0.311	0.080
-418.471	-200.000	-0.028	0.144
-417.457	-4.418	-0.195	0.135
-416.442	-200.000	-0.016	0.074
-415.428	611.880	0.112	-0.282
-414.413	-107.810	-0.276	-0.060
-413.398	-29.617	-0.138	0.079
-412.384	-200.000	-0.030	-0.304
-411.369	-85.578	0.148	0.046
-410.355	59.002	0.153	0.151
-409.340	440.260	0.084	0.184
-408.325	-60.785	-0.244	-0.104
-407.311	78.647	-0.331	-0.355
-406.296	118.029	0.113	-0.139
-405.282	28.744	-0.340	0.289
-404.267	-15.470	0.160	-0.103
-403.252	800.000	0.044	-0.192
-402.238	-43.844	-0.125	0.063
-401.223	653.863	0.042	0.107
-400.209	800.000	0.075	-0.236
-399.194	-2.148	0.143	-0.101
-398.179	-149.650	-0.211	-0.017
-397.165	47.683	0.340	0.318
-396.150	-200.000	0.019	0.349
-395.136	-89.442	0.053	0.016
-394.121	55.989	-0.198	0.193
-393.106	-24.200	0.093	-0.056
-392.092	-36.070	-0.260	-0.141
-391.077	800.000	0.101	0.441
-390.063	41.802	-0.042	-0.038
-389.048	800.000	0.073	-0.293
-388.033	-21.625	-0.145	-0.089
-387.019	-89.407	0.117	0.035
-386.004	179.388	0.136	0.200
-384.990	-106.626	-0.298	-0.066
-383.975	-124.596	0.185	-0.029
-382.960	-168.426	-0.220	-0.008
-381.946	-65.461	-0.201	-0.081
-380.931	-47.122	-0.142	-0.070
-379.917	-47.834	0.159	-0.077
-378.902	-52.535	-0.100	0.046
-377.888	66.392	0.190	-0.194
-376.873	-147.438	0.301	-0.026
-375.858	800.000	-0.136	0.396
-374.844	268.458	-0.200	-0.351
-373.829	-75.826	-0.056	0.020
-372.815	-200.000	-0.042	0.401
-371.800	-68.035	0.219	-0.085
-370.785	-87.268	0.096	-0.029
-369.771	564.632	0.113	-0.275
-368.756	-161.961	-0.188	0.009
-367.742	0.315	0.220	0.157
-366.727	107.043	-0.049	-0.058
-365.712	19.748	0.169	-0.136
-364.698	236.849	-0.042	-0.070
-363.683	-190.529	0.376	-0.004
-362.669	367.822	0.124	0.251
-361.654	9.447	-0.175	-0.133
-360.639	-63.271	0.062	0.026
-359.625	-134.235	-0.483	-0.060
-358.610	-200.000	0.056	-0.319
-357.596	630.094	-0.058	-0.146
-356.581	800.000	-0.153	-0.491
-355.566	-134.017	0.197	0.024
-354.552	-108.599	-0.189	-0.041
-353.537	296.535	0.144	-0.264
-352.523	-42.895	0.036	-0.018
-351.508	1.094	-0.311	-0.223
-350.493	-69.561	0.157	-0.060
-349.479	-129.134	0.251	0.035
-348.464	132.749	0.093	0.120
-347.450	-200.000	-0.009	0.190
-346.435	-200.000	-0.004	0.047
-345.420	252.437	-0.173	-0.296
-344.406	800.000	0.059	-0.197
-343.391	140.288	-0.098	0.130
-342.377	-33.711	-0.289	-0.159
-341.362	-135.448	-0.109	-0.013
-340.348	-94.232	-0.102	0.028
-339.333	-14.421	0.070	0.045
-338.318	-168.687	-0.352	0.013
-337.304	42.118	-0.216	-0.196
-336.289	327.701	-0.080	-0.153
-335.275	271.623	-0.114	0.201
-334.260	61.602	0.123	0.122
-333.245	-71.416	0.140	-0.053
-332.231	523.520	0.167	0.392
-331.216	571.298	0.068	-0.165
-330.202	-80.329	-0.387	-0.129
-329.187	-200.000	0.086	-0.419
-328.172	-119.464	0.334	-0.058
-327.158	-186.581	0.276	-0.004
-326.143	66.601	0.088	0.090
-325.129	15.411	-0.103	-0.081
-324.114	379.647	-0.078	-0.160
-323.099	296.347	-0.109	-0.200
-322.085	-8.742	0.246	0.165
-321.070	180.987	-0.219	0.321
-320.056	-109.551	0.272	0.057
-319.041	292.384	0.105	0.191
-318.026	144.792	0.035	-0.047
-317.012	260.392	0.191	-0.331
-315.997	-20.056	-0.239	-0.147
-314.983	-45.494	0.081	0.040
-313.968	13.147	-0.172	-0.133
-312.953	101.861	0.112	0.131
-311.939	381.775	0.125	0.256
-310.924	-200.000	0.032	0.165
-309.910	-111.872	-0.163	0.033
-308.895	-10.393	-0.268	0.178
-307.880	-200.000	0.045	0.282
-306.866	107.106	0.139	0.165
-305.851	18.545	-0.036	0.029
-304.837	-200.000	-0.024	-0.108
-303.822	538.468	-0.039	-0.093
-302.807	-73.346	0.071	-0.026
-301.793	-82.543	-0.131	-0.042
-300.778	316.090	-0.105	0.198
-299.764	800.000	-0.014	-0.058
-298.749	47.073	-0.023	-0.021
-297.735	-7.811	-0.080	-0.054
-296.720	-144.037	0.058	0.005
-295.705	-49.610	-0.057	-0.027
-294.691	21.759	0.139	0.113
-293.676	74.393	0.277	-0.291
-292.662	-129.239	-0.200	0.028
-291.647	-57.992	0.138	-0.060
-290.632	-200.000	-0.038	0.259
-289.618	92.709	0.111	-0.125
-288.603	-149.315	0.068	-0.005
-287.589	12.308	-0.171	-0.132
-286.574	-115.305	0.256	0.048
-285.559	34.294	-0.366	0.318
-284.545	-200.000	-0.014	0.075
-283.530	-200.000	-0.024	-0.257
-282.516	-120.279	0.293	0.050
-281.501	409.971	-0.211	0.446
-280.486	-41.587	-0.117	-0.060
-279.472	-45.099	0.041	-0.020
-278.457	-200.000	-0.005	-0.061
-277.443	-51.605	0.054	-0.025
-276.428	-80.785	-0.143	0.047
-275.413	-136.910	0.198	0.023
-274.399	-200.000	-0.018	-0.107
-273.384	-53.452	0.403	0.184
-272.370	58.984	-0.094	-0.093
-271.355	20.928	-0.098	-0.080
-270.340	-64.293	0.235	-0.096
-269.326	-20.863	0.300	-0.183
-268.311	-200.000	-0.017	-0.507
-267.297	-1.421	0.141	0.099
-266.282	-149.075	0.251	-0.020
-265.267	-34.822	-0.101	-0.055
-264.253	800.000	-0.075	0.248
-263.238	-75.044	0.226	0.081
-262.224	800.000	0.059	0.199
-261.209	-132.602	-0.284	-0.036
-260.195	368.272	0.185	-0.372
-259.180	158.685	-0.142	0.197
-258.165	800.000	0.112	-0.448
-257.151	14.869	-0.097	-0.076
-256.136	95.091	-0.307	-0.349
-255.122	-200.000	0.038	0.189
-254.107	-15.295	0.196	0.125
-253.092	800.000	0.042	-0.148
-252.078	-81.987	0.061	-0.020
-251.063	-141.705	-0.117	-0.012
-250.049	-75.857	0.121	0.043
-249.034	-97.967	-0.148	0.038
-248.019	-35.613	0.142	0.077
-247.005	3.025	-0.124	-0.090
-245.990	-200.000	-0.074	0.474
-244.976	-41.283	0.114	0.058
-243.961	-200.000	-0.011	0.090
-242.946	-200.000	0.038	0.223
-241.932	-109.634	0.345	0.072
-240.917	-181.434	-0.023	0.000
-239.903	-76.019	0.342	-0.121
-238.888	800.000	-0.089	-0.249
-237.873	337.178	0.091	0.177
-236.859	-56.781	0.181	-0.080
-235.844	-165.112	-0.318	0.014
-234.830	-2.682	0.131	0.091
-233.815	-200.000	-0.006	-0.300
-232.800	33.172	0.095	0.082
-231.786	-36.029	-0.081	0.044
-230.771	41.633	0.153	-0.138
-229.757	1.861	0.065	-0.047
-228.742	97.568	0.212	-0.242
-227.727	746.932	0.035	0.094
-226.713	-165.035	-0.050	-0.002
-225.698	342.316	0.271	-0.528
-224.684	-200.000	0.041	-0.260
-223.669	114.438	-0.199	0.241
-222.655	450.812	-0.108	0.237
-221.640	-200.000	0.036	0.177
-220.625	62.024	0.317	0.315
-219.611	800.000	-0.074	-0.209
-218.596	355.790	0.090	0.178
-217.582	13.176	-0.328	0.252
-216.567	-52.092	0.190	0.088
-215.552	-22.303	0.085	-0.051
-214.538	800.000	0.099	-0.336
-213.523	8.607	-0.404	0.302
-212.509	800.000	0.100	0.306
-211.494	-200.000	0.013	-0.128
-210.479	-200.000	-0.053	0.378
-209.465	-7.991	0.279	0.187
-208.450	410.844	-0.075	0.159
-207.436	-200.000	-0.008	0.226
-206.421	800.000	-0.021	-0.089
-205.406	9.265	-0.105	-0.079
-204.392	171.120	0.032	-0.045
-203.377	94.235	-0.183	0.206
-202.363	-42.872	0.013	-0.007
-201.348	9.686	0.180	0.136
-200.333	-7.469	-0.196	0.132
-199.319	-36.340	-0.300	-0.161
-198.304	-34.530	-0.339	0.184
-197.290	-84.943	0.117	-0.037
-196.275	45.436	0.141	0.130
-195.260	-200.000	0.022	0.119
-194.246	-8.234	-0.389	-0.260
-193.231	800.000	-0.023	0.064
-192.217	-174.197	-0.221	-0.006
-191.202	148.775	-0.079	0.106
-190.187	-71.469	-0.258	0.096
-189.173	-200.000	0.031	0.444
-188.158	624.601	0.063	-0.158
-187.144	-9.274	-0.101	-0.067
-186.129	158.716	-0.211	-0.291
-185.114	-16.266	0.246	0.155
-184.100	254.757	0.042	0.071
-183.085	38.662	-0.205	0.181
-182.071	-21.345	-0.205	0.124
-181.056	-68.565	-0.064	-0.025
-180.042	-200.000	-0.036	-0.286
-179.027	-139.445	-0.142	0.015
-178.012	6.641	-0.139	-0.103
-176.998	-146.332	-0.110	0.010
-175.983	-83.309	-0.261	-0.083
-174.969	47.101	0.154	-0.142
-173.954	-122.193	-0.167	0.027
-172.939	185.448	-0.155	0.228
-171.925	180.141	0.124	-0.181
-170.910	-63.572	-0.256	-0.104
-169.896	-107.072	-0.273	0.060
-168.881	800.000	0.041	-0.123
-167.866	-43.509	-0.053	-0.027
-166.852	-200.000	0.003	0.294
-165.837	-113.978	-0.121	-0.023
-164.823	109.260	0.201	0.239
-163.808	-174.784	-0.164	-0.005
-162.793	800.000	0.094	0.285
-161.779	137.692	0.224	0.291
-160.764	277.605	0.111	0.196
-159.750	325.408	-0.047	-0.089
-158.735	4.107	0.099	-0.072
-157.720	-148.554	0.446	-0.036
-156.706	43.561	-0.097	-0.088
-155.691	77.389	0.168	-0.178
-154.677	258.747	0.040	-0.068
-153.662	-200.000	0.028	0.225
-152.647	-21.561	-0.207	-0.125
-151.633	12.988	0.158	0.121
-150.618	32.409	-0.223	-0.191
-149.604	-123.929	-0.255	-0.040
-148.589	-51.997	0.314	-0.145
-147.574	559.253	0.033	-0.078
-146.560	800.000	0.068	-0.231
-145.545	-200.000	0.087	-0.390
-144.531	-200.000	-0.017	-0.315
-143.516	-122.704	-0.069	-0.011
-142.502	-17.401	-0.298	-0.186
-141.487	800.000	-0.006	-0.023
-140.472	53.943	-0.180	-0.172
-139.458	-102.025	-0.232	-0.055
-138.443	-43.003	0.102	0.051
-137.429	-43.708	-0.209	-0.104
-136.414	-81.126	0.092	0.030
-135.399	-85.599	-0.244	0.075
-134.385	-10.698	0.490	-0.322
-133.370	-63.982	0.104	-0.042
-132.356	6.253	0.069	-0.051
-131.341	209.512	0.067	-0.105
-130.326	-110.066	-0.301	-0.062
-129.312	113.385	0.207	0.250
-128.297	5.835	0.196	-0.144
-127.283	-125.672	0.353	-0.053
-126.268	240.001	-0.112	0.185
-125.253	-177.658	-0.148	0.004
-124.239	-165.904	0.529	0.022
-123.224	53.766	-0.109	-0.104
-122.210	-85.171	-0.378	-0.117
-121.195	-109.047	-0.156	0.033
