DTS Sentinel unit serial number:	SN413079Multiplexer serial number:	ORYXHardware model number:	OX4-SRSoftware version number:	ORYX F/W v4.00 Oryx Data Collector v3.7.2.0data status	okinstallation	princeton_trtdifferential loss correction	single-endedforward channel	channel 3reverse channel	N/Adate	2019/09/13time	16:36:34forward acquisition time	60.00reverse acquisition time	0.00gamma	496.2192k internal	0.2304k external	0.2304temperature offset calibration	1.0144default loss term (dB/km)	0.3790temperature slope calibration	1.0000multiplexer offset coefficient	1.0000multiplexer slope coefficient	1.0000fibre end	0.00T internal ref (°C)	35.06T ext. ref 1 (°C)	4.90T ext. ref 2 (°C)	29.96length (m)	temperature (°C)	Stokes	anti-Stokes-747.200	800.000	0.073	0.304
-746.185	-106.580	0.243	0.055
-745.171	0.225	0.273	0.199
-744.156	16.297	0.069	-0.056
-743.142	98.312	0.302	-0.355
-742.127	800.000	0.010	0.032
-741.112	598.402	0.104	0.263
-740.098	-35.917	0.487	0.268
-739.083	-43.685	0.325	0.167
-738.069	-36.938	-0.095	-0.052
-737.054	-200.000	-0.017	-0.209
-736.039	72.214	0.179	0.189
-735.025	320.584	0.141	0.273
-734.010	-109.712	-0.047	0.010
-732.996	-200.000	0.003	-0.260
-731.981	143.256	0.160	-0.217
-730.966	350.840	-0.046	-0.093
-729.952	-159.411	-0.161	0.009
-728.937	-148.428	-0.448	-0.037
-727.923	-136.216	0.228	0.027
-726.908	113.906	-0.245	-0.303
-725.894	82.804	-0.216	-0.239
-724.879	-63.680	-0.132	-0.055
-723.864	-136.669	0.023	-0.003
-722.850	800.000	-0.036	-0.155
-721.835	393.478	0.055	0.116
-720.821	-60.889	0.406	0.175
-719.806	57.213	0.116	-0.116
-718.791	-143.181	-0.127	0.012
-717.777	1.406	0.297	-0.217
-716.762	-138.483	-0.100	-0.011
-715.748	-200.000	0.013	0.247
-714.733	778.198	-0.063	0.176
-713.718	-147.548	-0.596	-0.051
-712.704	-200.000	0.023	0.491
-711.689	-136.837	-0.246	-0.029
-710.675	7.703	-0.160	-0.122
-709.660	23.889	-0.063	0.052
-708.645	-138.875	0.131	0.015
-707.631	106.013	0.102	-0.123
-706.616	616.834	-0.106	-0.271
-705.602	800.000	-0.056	-0.172
-704.587	153.245	-0.159	-0.221
-703.572	-15.351	-0.002	0.001
-702.558	26.350	-0.257	0.218
-701.543	-40.409	-0.088	0.046
-700.529	-200.000	0.026	-0.127
-699.514	473.308	0.027	0.062
-698.499	341.478	0.133	-0.265
-697.485	471.783	0.108	-0.246
-696.470	-200.000	-0.050	-0.327
-695.456	-170.026	-0.244	0.009
-694.441	-110.726	0.207	0.043
-693.426	-31.783	0.085	0.048
-692.412	53.272	-0.112	-0.109
-691.397	-13.015	0.064	0.042
-690.383	-29.235	0.411	-0.240
-689.368	800.000	-0.021	-0.065
-688.354	-81.581	0.101	-0.034
-687.339	-36.798	0.123	-0.067
-686.324	-101.412	0.073	-0.018
-685.310	11.553	-0.184	-0.143
-684.295	-200.000	0.020	-0.160
-683.281	-179.049	0.301	-0.007
-682.266	46.994	0.164	0.155
-681.251	69.339	0.155	-0.162
-680.237	800.000	-0.018	0.078
-679.222	-200.000	0.056	0.000
-678.208	-200.000	0.016	0.428
-677.193	105.381	-0.114	-0.137
-676.178	-169.531	0.233	-0.009
-675.164	535.769	-0.018	-0.042
-674.149	-38.784	0.052	0.028
-673.135	51.589	-0.056	0.055
-672.120	800.000	-0.143	-0.409
-671.105	179.419	-0.075	-0.111
-670.091	-54.434	0.452	-0.208
-669.076	83.784	-0.212	-0.235
-668.062	-115.302	-0.168	0.032
-667.047	312.843	0.091	0.173
-666.032	-145.144	-0.040	-0.004
-665.018	800.000	0.110	0.317
-664.003	27.580	0.156	-0.133
-662.989	5.671	-0.119	-0.089
-661.974	800.000	0.080	-0.230
-660.959	-127.874	0.054	-0.008
-659.945	111.188	0.031	-0.038
-658.930	34.993	0.081	0.072
-657.916	800.000	0.032	-0.112
-656.901	26.094	0.330	0.279
-655.886	-17.509	-0.018	0.011
-654.872	11.594	0.291	0.226
-653.857	-9.620	-0.136	0.092
-652.843	-3.268	-0.148	0.105
-651.828	22.023	-0.137	-0.113
-650.814	101.913	-0.043	-0.051
-649.799	45.359	0.081	-0.076
-648.784	17.033	-0.267	0.215
-647.770	-171.705	-0.195	0.007
-646.755	-0.405	-0.054	0.039
-645.741	-78.193	-0.057	0.020
-644.726	-25.518	0.026	-0.015
-643.711	32.960	-0.106	0.093
-642.697	65.088	-0.148	0.152
-641.682	492.600	0.091	-0.211
-640.668	577.733	0.146	-0.363
-639.653	283.431	-0.085	0.155
-638.638	-95.366	-0.172	0.047
-637.624	99.928	0.301	0.353
-636.609	204.002	0.168	-0.265
-635.595	800.000	-0.050	-0.171
-634.580	-200.000	-0.007	0.185
-633.565	-113.380	-0.220	-0.044
-632.551	608.854	0.035	0.088
-631.536	3.314	0.160	0.118
-630.522	-87.271	0.337	0.104
-629.507	-82.872	-0.336	-0.110
-628.492	59.195	0.131	-0.131
-627.478	-83.358	-0.140	0.045
-626.463	800.000	0.079	0.240
-625.449	144.413	-0.073	-0.098
-624.434	475.875	-0.027	-0.062
-623.419	-116.429	-0.129	-0.024
-622.405	-102.519	-0.347	-0.084
-621.390	-164.939	0.328	-0.015
-620.376	22.894	0.123	0.102
-619.361	-76.897	0.026	-0.009
-618.346	92.278	-0.146	-0.166
-617.332	-144.992	-0.371	-0.034
-616.317	-200.000	0.003	0.047
-615.303	-121.927	-0.074	-0.012
-614.288	-161.358	-0.293	0.015
-613.273	-200.000	-0.015	-0.133
-612.259	69.123	0.140	-0.146
-611.244	84.583	-0.147	-0.163
-610.230	-121.242	-0.095	0.016
-609.215	-200.000	-0.032	0.173
-608.201	95.436	-0.238	-0.275
-607.186	-79.622	-0.280	-0.096
-606.171	-22.064	0.268	0.165
-605.157	171.993	-0.065	0.095
-604.142	-82.655	-0.184	0.060
-603.128	359.426	-0.137	-0.277
-602.113	-200.000	-0.028	-0.186
-601.098	-99.658	-0.226	0.058
-600.084	440.684	-0.068	0.150
-599.069	308.297	-0.078	-0.147
-598.055	116.278	0.203	-0.252
-597.040	491.650	-0.077	0.179
-596.025	40.679	-0.291	0.265
-595.011	-151.250	0.270	0.020
-593.996	-200.000	0.029	0.186
-592.982	270.372	-0.072	-0.128
-591.967	499.178	0.123	-0.287
-590.952	226.904	0.024	-0.040
-589.938	-187.385	0.127	0.002
-588.923	-121.339	0.379	-0.064
-587.909	11.441	0.186	-0.144
-586.894	164.149	-0.090	0.128
-585.879	-135.797	0.245	0.029
-584.865	103.127	-0.179	-0.212
-583.850	38.050	0.136	0.122
-582.836	489.128	-0.039	-0.090
-581.821	6.255	-0.165	0.124
-580.806	213.331	0.044	-0.070
-579.792	-76.676	-0.079	-0.028
-578.777	-105.929	-0.115	0.026
-577.763	-200.000	-0.028	0.164
-576.748	-46.220	-0.036	0.018
-575.733	-141.888	0.294	0.030
-574.719	-91.008	-0.202	-0.059
-573.704	-102.202	-0.383	0.093
-572.690	-144.181	-0.176	0.017
-571.675	-94.281	0.101	0.028
-570.661	105.537	-0.180	-0.215
-569.646	800.000	-0.052	-0.225
-568.631	96.273	0.031	0.036
-567.617	291.965	-0.117	0.215
-566.602	-200.000	-0.023	0.223
-565.588	-200.000	-0.034	0.265
-564.573	29.593	0.247	0.213
-563.558	-113.006	-0.247	-0.049
-562.544	-200.000	-0.025	-0.217
-561.529	-72.386	-0.131	0.049
-560.515	-58.568	-0.282	0.124
-559.500	-200.000	-0.039	-0.174
-558.485	-168.721	0.062	-0.002
-557.471	-200.000	-0.087	0.443
-556.456	157.692	0.126	-0.176
-555.442	58.891	0.226	0.224
-554.427	168.781	0.142	0.205
-553.412	-18.411	0.047	-0.029
-552.398	-99.604	-0.218	-0.055
-551.383	-168.072	-0.416	-0.016
-550.369	50.309	0.151	-0.144
-549.354	800.000	-0.084	0.278
-548.339	16.205	-0.319	0.254
-547.325	-200.000	0.026	0.142
-546.310	124.117	0.186	0.236
-545.296	800.000	0.017	0.060
-544.281	158.834	0.017	-0.024
-543.266	197.011	0.155	-0.239
-542.252	522.896	-0.089	0.211
-541.237	-68.266	-0.197	0.077
-540.223	228.779	-0.008	0.012
-539.208	163.749	-0.073	-0.103
-538.193	-79.535	-0.437	-0.149
-537.179	282.297	-0.133	-0.241
-536.164	-9.705	-0.189	0.127
-535.150	800.000	-0.046	-0.167
-534.135	-84.265	0.240	0.077
-533.121	800.000	0.048	-0.169
-532.106	200.269	0.062	-0.096
-531.091	98.217	-0.264	-0.307
-530.077	-53.185	-0.248	-0.115
-529.062	-58.876	-0.315	0.138
-528.048	448.309	-0.078	-0.172
-527.033	800.000	-0.074	0.216
-526.018	-5.033	-0.190	-0.132
-525.004	-37.199	-0.167	0.090
-523.989	-125.365	0.143	0.022
-522.975	596.315	0.027	-0.068
-521.960	-164.619	-0.321	-0.015
-520.945	-110.163	0.342	-0.072
-519.931	-20.088	0.159	0.099
-518.916	-8.249	0.169	0.115
-517.902	-200.000	0.046	-0.394
-516.887	800.000	0.050	0.141
-515.872	-65.148	0.156	0.063
-514.858	-176.613	0.202	-0.005
-513.843	800.000	-0.055	-0.205
-512.829	40.060	0.184	-0.167
-511.814	-49.306	0.440	0.212
-510.799	123.945	0.379	0.480
-509.785	78.878	0.080	-0.086
-508.770	-54.775	0.313	0.142
-507.756	25.360	0.212	0.178
-506.741	78.722	-0.108	-0.116
-505.726	160.009	0.037	0.052
-504.712	-29.615	0.219	-0.126
-503.697	-78.296	0.033	0.012
-502.683	-146.055	0.209	-0.019
-501.668	-46.076	-0.101	0.050
-500.653	103.106	0.153	0.181
-499.639	595.148	0.118	-0.295
-498.624	335.176	0.151	-0.294
-497.610	249.594	-0.112	-0.191
-496.595	15.030	0.160	0.127
-495.581	-200.000	-0.000	0.349
-494.566	-200.000	0.000	-0.237
-493.551	408.816	-0.138	-0.295
-492.537	800.000	-0.109	0.378
-491.522	477.077	-0.095	-0.217
-490.508	-200.000	-0.022	0.309
-489.493	75.015	0.284	-0.301
-488.478	-113.262	-0.290	0.057
-487.464	-200.000	0.048	0.418
-486.449	97.460	0.120	-0.139
-485.435	-137.013	-0.049	-0.006
-484.420	204.684	-0.077	0.120
-483.405	-69.899	0.062	0.024
-482.391	151.393	-0.228	0.313
-481.376	-107.973	0.145	0.032
-480.362	-122.993	0.082	-0.013
-479.347	239.404	0.189	-0.317
-478.332	-64.394	0.070	-0.029
-477.318	-140.392	0.354	0.037
-476.303	104.850	0.213	0.253
-475.289	-32.259	0.156	0.088
-474.274	-13.537	0.134	0.087
-473.259	-200.000	-0.036	0.200
-472.245	800.000	0.031	0.123
-471.230	-123.382	-0.254	-0.041
-470.216	-8.626	-0.048	-0.032
-469.201	350.825	-0.142	-0.282
-468.186	488.362	0.078	-0.181
-467.172	-7.679	-0.406	-0.277
-466.157	-91.734	-0.298	0.085
-465.143	18.401	-0.188	-0.151
-464.128	-125.018	0.271	0.042
-463.113	-43.185	-0.235	0.120
-462.099	-70.570	0.212	0.081
-461.084	-19.922	-0.464	-0.288
-460.070	-42.048	0.296	-0.152
-459.055	-200.000	0.047	-0.389
-458.040	-200.000	0.011	-0.242
-457.026	-200.000	-0.001	0.210
-456.011	118.420	-0.164	0.204
-454.997	800.000	0.020	-0.061
-453.982	-72.940	0.073	-0.027
-452.968	-155.156	0.271	-0.018
-451.953	-13.407	-0.081	-0.053
-450.938	-53.719	0.079	0.036
-449.924	371.369	-0.042	0.085
-448.909	1.222	0.166	-0.120
-447.895	-64.856	-0.234	-0.095
-446.880	292.629	0.147	0.270
-445.865	140.822	0.191	0.254
-444.851	-131.059	-0.092	0.012
-443.836	-95.417	-0.408	-0.110
-442.822	800.000	-0.038	-0.118
-441.807	16.537	0.287	-0.228
-440.792	356.029	-0.040	0.080
-439.778	351.300	-0.126	0.252
-438.763	-55.915	0.023	-0.010
-437.749	22.323	0.274	0.225
-436.734	-200.000	0.032	-0.218
-435.719	800.000	-0.055	0.153
-434.705	-9.574	-0.151	0.102
-433.690	602.630	0.051	-0.129
-432.676	-164.569	-0.152	0.007
-431.661	241.471	-0.149	0.250
-430.646	-167.776	0.157	-0.006
-429.632	-145.915	-0.396	-0.035
-428.617	121.046	-0.129	-0.161
-427.603	-60.157	0.340	0.146
-426.588	800.000	-0.020	-0.069
-425.573	-84.513	0.237	0.075
-424.559	-200.000	-0.018	0.085
-423.544	800.000	0.098	0.370
-422.530	800.000	-0.040	0.164
-421.515	-13.764	0.372	-0.242
-420.500	-200.000	-0.045	0.309
-419.486	-5.559	0.268	-0.185
-418.471	-95.296	-0.238	-0.065
-417.457	-3.159	-0.146	-0.102
-416.442	-191.903	-0.062	-0.001
-415.428	-200.000	-0.031	0.404
-414.413	800.000	-0.077	-0.277
-413.398	87.630	-0.293	-0.326
-412.384	800.000	-0.035	0.152
-411.369	17.482	0.151	-0.120
-410.355	1.265	-0.347	0.250
-409.340	-187.892	0.390	-0.005
-408.325	-32.825	-0.188	0.105
-407.311	-121.816	-0.184	0.030
-406.296	-124.770	0.231	0.036
-405.282	-55.010	0.415	-0.188
-404.267	193.638	-0.087	-0.132
-403.252	23.945	-0.028	0.023
-402.238	41.421	-0.047	-0.043
-401.223	800.000	-0.065	0.181
-400.209	-28.167	0.141	-0.082
-399.194	-49.215	0.277	-0.133
-398.179	191.050	-0.041	-0.061
-397.165	-56.345	-0.415	0.185
-396.150	-200.000	0.030	-0.293
-395.136	249.245	0.093	-0.159
-394.121	-61.522	-0.253	-0.107
-393.106	90.219	-0.209	-0.235
-392.092	-120.424	0.320	-0.055
-391.077	11.622	-0.102	0.078
-390.063	-200.000	0.001	0.031
-389.048	800.000	0.086	-0.262
-388.033	154.597	0.087	0.120
-387.019	-200.000	-0.009	0.083
-386.004	616.374	-0.120	0.302
-384.990	189.927	-0.013	-0.020
-383.975	-200.000	-0.025	-0.251
-382.960	105.739	-0.121	-0.143
-381.946	22.935	-0.172	-0.141
-380.931	800.000	0.023	-0.089
-379.917	-200.000	-0.011	0.138
-378.902	113.796	0.185	-0.225
-377.888	-27.876	0.162	0.094
-376.873	18.365	0.062	0.050
-375.858	800.000	0.087	-0.272
-374.844	-123.816	-0.331	-0.052
-373.829	800.000	0.171	0.476
-372.815	-108.749	0.135	0.029
-371.800	-122.549	0.199	0.032
-370.785	-105.168	0.067	0.015
-369.771	748.855	-0.022	0.059
-368.756	-76.884	0.025	0.009
-367.742	-200.000	0.011	-0.117
-366.727	308.595	-0.031	0.057
-365.712	-146.357	0.034	0.003
-364.698	-117.342	0.065	-0.012
-363.683	800.000	0.048	0.194
-362.669	-122.815	0.048	-0.008
-361.654	-62.920	0.224	-0.093
-360.639	177.108	-0.260	0.380
-359.625	-200.000	0.014	0.134
-358.610	-200.000	0.067	-0.360
-357.596	377.693	0.118	-0.241
-356.581	43.584	-0.146	-0.134
-355.566	37.990	-0.077	0.069
-354.552	-2.269	-0.073	-0.051
-353.537	406.337	-0.138	-0.293
-352.523	-188.213	-0.182	0.002
-351.508	-148.197	0.102	-0.008
-350.493	-180.225	0.335	0.007
-349.479	17.136	0.192	-0.153
-348.464	171.778	-0.066	-0.094
-347.450	-15.963	-0.190	0.121
-346.435	135.910	-0.091	0.119
-345.420	191.140	0.078	-0.117
-344.406	800.000	-0.011	-0.043
-343.391	-172.727	0.231	0.007
-342.377	-200.000	-0.030	-0.197
-341.362	800.000	-0.068	0.293
-340.348	-51.297	-0.356	0.167
-339.333	800.000	0.075	0.235
-338.318	381.353	-0.107	-0.221
-337.304	-200.000	-0.001	-0.447
-336.289	-99.821	-0.370	-0.093
-335.275	-200.000	0.056	0.252
-334.260	7.815	0.142	0.107
-333.245	364.195	-0.095	0.192
-332.231	800.000	-0.030	0.111
-331.216	-78.851	0.104	-0.036
-330.202	-200.000	0.002	-0.202
-329.187	280.990	-0.206	0.369
-328.172	29.390	0.178	-0.152
-327.158	-85.286	-0.118	0.037
-326.143	59.902	0.095	-0.094
-325.129	297.529	0.111	-0.204
-324.114	-148.831	0.350	-0.028
-323.099	-6.622	-0.170	0.116
-322.085	797.935	-0.037	0.101
-321.070	-87.896	-0.128	0.039
-320.056	215.506	-0.090	0.143
-319.041	-36.845	-0.039	0.021
-318.026	-142.933	-0.089	-0.009
-317.012	800.000	0.012	-0.038
-315.997	91.598	0.049	0.055
-314.983	-121.259	-0.267	-0.045
-313.968	152.291	0.092	0.126
-312.953	-141.004	-0.147	0.015
-311.939	400.067	-0.098	-0.206
-310.924	132.342	-0.036	-0.047
-309.910	241.532	-0.187	-0.313
-308.895	246.814	0.103	0.173
-307.880	-16.265	0.234	-0.149
-306.866	286.922	0.117	0.212
-305.851	-32.556	-0.219	0.122
-304.837	-126.827	0.126	-0.019
-303.822	-200.000	-0.010	0.410
-302.807	-200.000	0.000	0.115
-301.793	-20.276	-0.203	-0.125
-300.778	-8.087	-0.250	-0.168
-299.764	-95.825	0.016	-0.004
-298.749	-200.000	0.014	0.194
-297.735	-157.717	0.163	-0.010
-296.720	800.000	0.044	0.178
-295.705	-200.000	-0.010	0.207
-294.691	-200.000	0.023	0.183
-293.676	800.000	-0.099	-0.394
-292.662	-200.000	-0.001	-0.013
-291.647	-37.397	-0.033	0.018
-290.632	56.909	0.071	0.069
-289.618	72.423	0.130	0.136
-288.603	235.883	0.118	0.195
-287.589	346.688	0.187	-0.367
-286.574	-14.010	0.137	-0.089
-285.559	-143.768	-0.319	0.030
-284.545	-200.000	0.055	0.358
-283.530	-54.276	-0.157	0.071
-282.516	800.000	0.058	-0.239
-281.501	-171.274	0.178	-0.006
-280.486	111.288	0.211	-0.254
-279.472	-200.000	-0.011	0.257
-278.457	92.097	0.120	0.135
-277.443	-200.000	0.007	0.195
-276.428	-200.000	-0.022	-0.167
-275.413	365.192	0.033	-0.067
-274.399	-200.000	0.044	0.249
-273.384	-11.020	-0.248	-0.163
-272.370	58.061	0.193	0.189
-271.355	-101.970	-0.334	-0.081
-270.340	338.797	0.061	-0.119
-269.326	191.430	0.148	-0.222
-268.311	462.343	0.208	0.463
-267.297	261.338	0.051	-0.089
-266.282	800.000	-0.066	0.256
-265.267	304.270	0.083	0.154
-264.253	-200.000	-0.001	-0.448
-263.238	-31.186	-0.277	-0.156
-262.224	800.000	0.178	0.546
-261.209	800.000	-0.097	0.325
-260.195	-102.857	-0.247	-0.059
-259.180	502.301	-0.096	-0.221
-258.165	-72.561	-0.083	0.031
-257.151	188.066	0.165	0.247
-256.136	800.000	0.056	0.181
-255.122	-147.215	0.112	-0.010
-254.107	35.598	-0.162	-0.142
-253.092	-156.335	-0.215	0.013
-252.078	800.000	0.067	-0.202
-251.063	83.444	-0.243	0.264
-250.049	-91.506	-0.064	-0.018
-249.034	176.800	0.149	0.216
-248.019	36.296	0.177	-0.156
-247.005	1.403	-0.172	-0.123
-245.990	42.191	0.112	-0.101
-244.976	-58.592	-0.181	0.079
-243.961	-151.196	0.204	0.015
-242.946	-62.535	0.093	-0.039
-241.932	-145.684	0.409	-0.036
-240.917	-69.922	0.195	0.074
-239.903	-65.734	-0.159	-0.064
-238.888	158.139	-0.118	-0.163
-237.873	-200.000	-0.019	0.088
-236.859	126.950	-0.037	0.047
-235.844	-200.000	0.028	-0.165
-234.830	-45.791	-0.371	-0.183
-233.815	-52.175	0.361	0.167
-232.800	646.649	-0.103	-0.263
-231.786	-152.577	0.173	-0.012
-230.771	-96.712	0.153	-0.040
-229.757	-111.975	0.467	-0.094
-228.742	521.320	0.066	-0.155
-227.727	-200.000	-0.019	0.194
-226.713	-60.878	0.219	-0.092
-225.698	-200.000	0.032	0.195
-224.684	54.971	0.198	0.191
-223.669	-48.485	0.207	0.099
-222.655	-106.740	-0.135	0.030
-221.640	-200.000	-0.032	-0.276
-220.625	-52.259	0.128	0.059
-219.611	800.000	0.074	0.273
-218.596	76.136	-0.246	-0.259
-217.582	67.988	0.101	-0.103
-216.567	169.996	-0.019	-0.027
-215.552	-60.537	-0.294	0.125
-214.538	-200.000	0.104	-0.519
-213.523	242.519	-0.140	0.234
-212.509	800.000	0.101	0.339
-211.494	-200.000	-0.005	0.318
-210.479	479.839	-0.038	0.086
-209.465	-45.696	0.139	-0.069
-208.450	58.779	-0.313	-0.306
-207.436	-19.264	-0.223	-0.138
-206.421	800.000	0.038	-0.154
-205.406	800.000	-0.055	-0.238
-204.392	-81.208	-0.537	0.177
-203.377	122.925	-0.208	0.260
-202.363	-109.849	-0.188	0.039
-201.348	110.531	0.093	-0.111
-200.333	-200.000	0.041	0.222
-199.319	85.690	0.128	0.141
-198.304	-68.817	-0.196	0.075
-197.290	-83.207	0.195	0.063
-196.275	3.755	-0.072	-0.052
-195.260	22.881	0.207	-0.169
-194.246	-17.165	-0.106	0.067
-193.231	109.248	-0.135	-0.161
-192.217	35.473	0.320	-0.280
-191.202	304.302	0.152	-0.281
-190.187	277.545	0.014	0.024
-189.173	18.422	-0.085	0.068
-188.158	706.601	0.074	-0.194
-187.144	-4.752	0.089	-0.061
-186.129	47.933	-0.163	0.152
-185.114	-160.840	-0.262	0.014
-184.100	-200.000	-0.037	0.244
-183.085	51.787	0.208	0.197
-182.071	408.004	0.099	0.209
-181.056	800.000	-0.031	-0.109
-180.042	-146.974	0.315	-0.027
-179.027	-15.788	0.255	0.162
-178.012	-83.906	0.495	-0.157
-176.998	159.508	0.104	-0.144
-175.983	-35.935	0.267	-0.144
-174.969	800.000	0.039	-0.128
-173.954	77.191	-0.032	-0.034
-172.939	-23.533	-0.245	0.147
-171.925	-160.622	0.153	0.008
-170.910	-34.825	-0.392	-0.213
-169.896	-90.785	0.385	-0.111
-168.881	24.989	0.151	0.125
-167.866	-48.448	0.280	0.134
-166.852	87.418	0.166	0.183
-165.837	-185.443	-0.257	-0.004
-164.823	-200.000	0.034	-0.203
-163.808	-200.000	-0.049	0.289
-162.793	-51.252	-0.094	0.044
-161.779	15.403	-0.351	-0.275
-160.764	52.965	0.218	-0.207
-159.750	-200.000	-0.032	-0.253
-158.735	-82.756	-0.186	0.060
-157.720	-40.350	-0.395	-0.205
-156.706	-131.019	0.352	-0.047
-155.691	-85.264	0.244	-0.076
-154.677	-55.796	-0.218	0.097
-153.662	-164.263	0.307	0.014
-152.647	27.245	0.220	-0.184
-151.633	-178.018	0.278	-0.007
-150.618	-200.000	0.000	0.064
-149.604	-97.426	0.061	0.016
-148.589	15.454	0.133	-0.104
-147.574	-22.968	0.288	0.173
-146.560	1.331	0.233	0.166
-145.545	-200.000	0.035	-0.179
-144.531	-200.000	0.011	-0.072
-143.516	-78.297	-0.263	-0.090
-142.502	-84.810	0.295	0.092
-141.487	-185.019	0.184	-0.003
-140.472	-15.406	0.138	-0.088
-139.458	121.623	-0.285	0.353
-138.443	-97.688	0.028	0.007
-137.429	-156.688	0.154	0.009
-136.414	697.392	0.025	0.066
-135.399	-69.950	0.185	0.070
-134.385	800.000	-0.097	0.278
-133.370	85.044	0.249	0.272
-132.356	-96.317	-0.093	-0.024
-131.341	127.659	-0.157	0.199
-130.326	-200.000	0.026	0.174
-129.312	-37.321	0.096	-0.051
-128.297	-107.111	-0.312	0.069
-127.283	-0.867	0.132	-0.093
-126.268	-200.000	0.383	0.001
-125.253	-200.000	-0.013	0.088
-124.239	78.877	0.166	-0.176
-123.224	800.000	0.036	-0.126
-122.210	15.650	0.293	0.229
-121.195	-86.715	-0.120	-0.036
-120.180	-156.641	-0.147	0.009
