DTS Sentinel unit serial number:	SN413079Multiplexer serial number:	ORYXHardware model number:	OX4-SRSoftware version number:	ORYX F/W v4.00 Oryx Data Collector v3.7.2.0data status	okinstallation	princeton_trtdifferential loss correction	single-endedforward channel	channel 3reverse channel	N/Adate	2019/09/17time	17:28:34forward acquisition time	60.00reverse acquisition time	0.00gamma	496.2192k internal	0.2290k external	0.2290temperature offset calibration	0.9948default loss term (dB/km)	0.3790temperature slope calibration	1.0000multiplexer offset coefficient	1.0000multiplexer slope coefficient	1.0000fibre end	0.00T internal ref (°C)	43.17T ext. ref 1 (°C)	0.35T ext. ref 2 (°C)	39.21length (m)	temperature (°C)	Stokes	anti-Stokes-747.200	97.537	0.132	-0.155
-746.185	351.113	0.147	-0.299
-745.171	-29.110	0.063	-0.037
-744.156	800.000	0.074	0.220
-743.142	-2.277	0.037	0.027
-742.127	800.000	-0.168	0.491
-741.112	-200.000	0.032	-0.150
-740.098	800.000	-0.098	0.436
-739.083	-131.176	0.183	0.025
-738.069	800.000	-0.025	-0.088
-737.054	299.144	0.061	0.115
-736.039	262.605	0.044	0.078
-735.025	800.000	-0.031	0.113
-734.010	-138.540	0.364	0.041
-732.996	800.000	0.073	0.233
-731.981	-101.572	0.047	0.012
-730.966	273.492	-0.026	0.047
-729.952	101.915	-0.249	-0.298
-728.937	-200.000	0.009	-0.116
-727.923	163.705	-0.166	0.239
-726.908	-86.699	-0.252	-0.079
-725.894	-200.000	-0.017	-0.195
-724.879	-75.520	0.196	0.071
-723.864	-138.294	0.223	-0.025
-722.850	-147.003	0.060	0.005
-721.835	-47.665	-0.341	0.169
-720.821	-200.000	0.012	-0.122
-719.806	-10.759	0.123	-0.083
-718.791	-200.000	-0.031	-0.245
-717.777	-25.374	-0.048	0.029
-716.762	800.000	-0.039	-0.167
-715.748	95.598	0.195	-0.227
-714.733	-122.422	-0.203	0.034
-713.718	468.046	0.103	0.236
-712.704	-33.698	-0.583	0.329
-711.689	720.980	-0.087	0.236
-710.675	800.000	0.061	0.247
-709.660	-13.901	-0.105	-0.069
-708.645	800.000	0.027	-0.117
-707.631	-72.374	0.011	-0.004
-706.616	-178.986	0.190	-0.004
-705.602	81.555	0.188	0.208
-704.587	122.365	0.083	0.106
-703.572	-54.128	-0.179	0.083
-702.558	132.856	-0.217	-0.286
-701.543	-200.000	-0.017	0.122
-700.529	75.187	0.055	-0.059
-699.514	-200.000	0.006	0.219
-698.499	262.569	0.175	0.311
-697.485	-103.133	-0.240	-0.058
-696.470	40.148	-0.046	0.042
-695.456	-52.874	-0.182	0.086
-694.441	-174.801	0.455	0.013
-693.426	40.368	-0.099	-0.092
-692.412	-200.000	-0.038	-0.191
-691.397	-60.087	-0.335	0.146
-690.383	-108.004	-0.131	0.029
-689.368	134.687	-0.147	-0.195
-688.354	-114.958	-0.154	-0.030
-687.339	-130.878	0.073	-0.010
-686.324	164.987	-0.152	0.219
-685.310	-151.706	-0.210	0.016
-684.295	174.235	-0.050	0.073
-683.281	20.234	-0.055	-0.045
-682.266	800.000	-0.029	0.107
-681.251	-200.000	-0.008	0.224
-680.237	800.000	0.032	-0.140
-679.222	-200.000	-0.040	0.204
-678.208	708.774	-0.136	-0.367
-677.193	-200.000	-0.048	-0.251
-676.178	-102.267	-0.329	0.081
-675.164	-200.000	0.014	-0.187
-674.149	-143.320	-0.189	-0.018
-673.135	161.640	-0.177	-0.254
-672.120	-134.417	-0.293	-0.037
-671.105	64.673	0.128	0.132
-670.091	-120.796	0.285	-0.049
-669.076	-80.659	-0.079	0.027
-668.062	92.962	-0.277	0.320
-667.047	-95.702	0.092	0.025
-666.032	615.311	-0.138	-0.353
-665.018	311.618	0.090	-0.173
-664.003	-29.091	-0.102	-0.060
-662.989	169.411	0.231	0.337
-661.974	-138.548	-0.138	0.015
-660.959	-39.311	-0.199	0.107
-659.945	-7.472	0.380	0.263
-658.930	187.299	0.130	-0.199
-657.916	-148.391	-0.275	0.023
-656.901	-74.404	-0.177	0.065
-655.886	800.000	-0.061	-0.230
-654.872	-63.462	-0.146	-0.061
-653.857	169.051	0.087	-0.126
-652.843	-135.556	0.277	-0.034
-651.828	-200.000	0.015	-0.077
-650.814	311.779	0.118	-0.225
-649.799	425.163	0.086	-0.188
-648.784	75.980	0.218	0.236
-647.770	-200.000	0.030	-0.248
-646.755	-200.000	0.037	-0.285
-645.741	662.833	0.167	0.439
-644.726	69.644	-0.076	-0.080
-643.711	-108.573	-0.038	0.008
-642.697	374.317	0.054	-0.113
-641.682	191.014	0.034	-0.052
-640.668	70.557	-0.161	0.169
-639.653	-200.000	-0.008	0.143
-638.638	35.102	0.171	-0.152
-637.624	-18.802	-0.272	0.173
-636.609	-47.206	-0.330	0.164
-635.595	800.000	-0.098	0.283
-634.580	800.000	0.039	-0.135
-633.565	-93.055	-0.142	-0.040
-632.551	325.680	-0.059	-0.115
-631.536	41.969	-0.055	-0.051
-630.522	255.275	-0.200	0.350
-629.507	-122.117	-0.253	-0.042
-628.492	-50.534	-0.028	0.014
-627.478	303.738	0.178	-0.336
-626.463	603.749	-0.059	-0.150
-625.449	61.693	-0.128	-0.130
-624.434	-30.392	0.078	0.045
-623.419	113.376	0.095	0.117
-622.405	-200.000	-0.149	-0.000
-621.390	-200.000	-0.017	0.123
-620.376	800.000	-0.063	0.209
-619.361	160.441	0.138	0.196
-618.346	-160.647	0.212	0.012
-617.332	-130.642	-0.320	0.044
-616.317	45.577	0.290	-0.273
-615.303	232.953	0.219	0.367
-614.288	359.167	-0.080	0.162
-613.273	17.209	-0.191	0.154
-612.259	466.257	0.025	-0.057
-611.244	-200.000	-0.030	0.256
-610.230	-58.017	0.094	-0.042
-609.215	25.957	0.159	0.135
-608.201	-145.385	0.460	0.042
-607.186	-133.602	-0.163	0.021
-606.171	-200.000	-0.035	0.216
-605.157	-200.000	-0.023	0.421
-604.142	-68.618	-0.147	0.058
-603.128	-102.798	-0.122	0.030
-602.113	302.311	0.054	0.102
-601.098	41.408	-0.273	-0.252
-600.084	-200.000	-0.009	0.098
-599.069	800.000	0.049	0.141
-598.055	-200.000	0.011	-0.090
-597.040	-132.249	-0.234	0.031
-596.025	-200.000	-0.020	-0.423
-595.011	72.870	-0.093	0.099
-593.996	-68.711	0.253	0.100
-592.982	-134.940	0.259	0.032
-591.967	-137.308	-0.170	-0.020
-590.952	-200.000	-0.013	0.073
-589.938	-105.841	-0.226	-0.052
-588.923	-142.417	-0.301	-0.030
-587.909	442.178	-0.090	-0.201
-586.894	165.233	-0.067	0.096
-585.879	292.313	-0.155	-0.287
-584.865	54.963	0.081	-0.079
-583.850	-200.000	0.006	0.339
-582.836	800.000	0.070	-0.230
-581.821	-149.087	-0.273	-0.022
-580.806	-186.208	0.345	0.005
-579.792	-200.000	-0.027	0.155
-578.777	88.084	0.136	-0.154
-577.763	-15.831	-0.188	0.122
-576.748	-105.028	0.107	0.025
-575.733	-200.000	0.018	0.178
-574.719	291.221	0.092	0.170
-573.704	169.845	-0.121	-0.176
-572.690	207.970	-0.195	0.311
-571.675	-115.999	0.443	0.084
-570.661	276.516	0.153	-0.276
-569.646	-91.751	0.195	-0.057
-568.631	-92.263	0.162	-0.046
-567.617	90.891	0.110	0.125
-566.602	49.355	-0.266	0.255
-565.588	-105.373	0.260	0.060
-564.573	-52.946	-0.088	0.041
-563.558	-6.873	-0.357	-0.247
-562.544	15.892	-0.247	0.198
-561.529	62.902	0.081	-0.083
-560.515	6.310	-0.210	-0.158
-559.500	-95.741	0.199	0.054
-558.485	446.437	0.059	-0.132
-557.471	85.365	-0.091	-0.102
-556.456	496.642	0.024	0.055
-555.442	-39.795	-0.247	-0.131
-554.427	16.756	0.125	0.100
-553.412	-200.000	-0.021	-0.108
-552.398	131.426	-0.103	0.135
-551.383	264.720	-0.133	0.236
-550.369	-200.000	0.001	-0.161
-549.354	-90.414	-0.127	-0.037
-548.339	126.140	0.078	-0.100
-547.325	-200.000	-0.036	-0.174
-546.310	-170.325	0.027	-0.001
-545.296	-89.119	0.167	0.050
-544.281	-113.882	-0.099	0.020
-543.266	42.906	0.185	0.172
-542.252	638.594	-0.118	-0.304
-541.237	-54.127	-0.271	0.125
-540.223	571.281	-0.035	0.086
-539.208	347.261	0.008	0.016
-538.193	-83.780	-0.084	-0.027
-537.179	154.315	-0.198	0.276
-536.164	-137.086	0.269	0.031
-535.150	159.135	0.278	0.393
-534.135	7.297	0.321	-0.244
-533.121	376.309	0.210	-0.435
-532.106	800.000	-0.090	-0.255
-531.091	-124.052	-0.187	-0.030
-530.077	800.000	-0.058	0.168
-529.062	-47.701	-0.330	-0.163
-528.048	503.093	0.060	-0.141
-527.033	125.955	-0.121	-0.155
-526.018	155.044	-0.143	0.199
-525.004	22.861	-0.233	-0.194
-523.989	384.707	0.064	-0.134
-522.975	67.165	-0.136	-0.141
-521.960	250.997	0.017	0.030
-520.945	-200.000	0.005	-0.429
-519.931	-200.000	0.005	0.048
-518.916	-144.885	0.183	0.017
-517.902	-19.718	0.134	0.084
-516.887	-200.000	-0.014	0.143
-515.872	-69.543	0.059	0.023
-514.858	-161.814	-0.295	0.015
-513.843	800.000	0.099	-0.285
-512.829	411.983	-0.034	-0.073
-511.814	222.166	-0.068	0.111
-510.799	-94.273	-0.189	0.053
-509.785	393.372	-0.118	0.249
-508.770	89.157	0.052	-0.059
-507.756	-200.000	-0.008	-0.255
-506.741	-200.000	0.081	-0.445
-505.726	169.766	0.064	-0.094
-504.712	138.712	0.143	-0.191
-503.697	3.232	-0.411	-0.303
-502.683	800.000	-0.047	-0.166
-501.668	517.754	-0.123	-0.293
-500.653	308.585	-0.137	-0.260
-499.639	800.000	-0.015	0.054
-498.624	-12.499	-0.055	-0.036
-497.610	17.870	0.197	-0.159
-496.595	800.000	0.039	0.171
-495.581	-29.998	0.151	0.087
-494.566	-174.668	-0.472	0.014
-493.551	672.198	-0.011	-0.029
-492.537	-150.058	-0.187	0.015
-491.522	-200.000	0.008	0.122
-490.508	-151.763	0.513	0.038
-489.493	-21.631	-0.234	0.145
-488.478	190.986	-0.119	-0.181
-487.464	422.757	-0.137	-0.298
-486.449	73.269	0.114	-0.121
-485.435	-69.861	0.168	-0.065
-484.420	-200.000	-0.025	0.369
-483.405	-200.000	0.034	0.278
-482.391	-67.066	0.040	0.016
-481.376	-29.874	0.115	0.067
-480.362	-74.433	0.148	-0.054
-479.347	-127.541	0.116	0.017
-478.332	800.000	-0.092	-0.387
-477.318	107.277	-0.111	-0.133
-476.303	-200.000	-0.023	-0.256
-475.289	-58.645	0.233	0.102
-474.274	-64.748	-0.421	-0.173
-473.259	49.886	0.213	0.204
-472.245	-200.000	0.009	-0.138
-471.230	-200.000	0.022	-0.197
-470.216	-144.723	-0.078	0.007
-469.201	-200.000	-0.029	0.274
-468.186	333.893	-0.088	-0.173
-467.172	66.381	-0.149	0.154
-466.157	160.901	0.076	0.108
-465.143	800.000	0.084	0.302
-464.128	107.943	0.110	-0.133
-463.113	800.000	0.080	-0.331
-462.099	465.031	0.170	-0.385
-461.084	800.000	0.063	-0.278
-460.070	6.621	-0.041	0.031
-459.055	-35.762	0.131	0.072
-458.040	-200.000	0.048	-0.353
-457.026	-72.082	-0.265	-0.100
-456.011	-200.000	-0.363	0.000
-454.997	-148.259	0.182	0.015
-453.982	800.000	-0.046	0.133
-452.968	-148.295	0.266	0.022
-451.953	-59.367	0.286	0.125
-450.938	-70.520	0.219	-0.084
-449.924	-73.590	0.317	-0.117
-448.909	-52.076	-0.223	0.105
-447.895	31.352	0.005	0.005
-446.880	-92.486	0.480	0.136
-445.865	-74.553	-0.100	0.036
-444.851	68.769	-0.376	0.390
-443.836	-102.304	-0.218	0.053
-442.822	176.609	-0.087	-0.129
-441.807	-200.000	-0.037	-0.232
-440.792	306.720	-0.089	-0.169
-439.778	-15.473	-0.204	-0.132
-438.763	-113.529	-0.316	0.063
-437.749	352.803	-0.083	0.168
-436.734	-16.246	0.039	-0.025
-435.719	-119.813	-0.200	0.035
-434.705	-123.314	0.174	0.028
-433.690	-89.093	-0.139	0.041
-432.676	-200.000	-0.031	-0.406
-431.661	-200.000	-0.053	-0.337
-430.646	82.475	0.248	-0.272
-429.632	-104.477	0.172	-0.040
-428.617	-107.730	-0.150	-0.033
-427.603	-138.167	0.299	0.034
-426.588	-78.601	-0.220	-0.076
-425.573	-35.529	0.421	-0.231
-424.559	513.078	0.154	-0.364
-423.544	800.000	0.094	-0.324
-422.530	800.000	0.040	-0.173
-421.515	126.817	-0.164	-0.210
-420.500	264.668	0.032	0.056
-419.486	8.820	-0.220	0.168
-418.471	-24.359	0.123	0.074
-417.457	-30.757	0.125	0.072
-416.442	-200.000	0.011	-0.371
-415.428	-132.693	-0.179	-0.023
-414.413	134.282	-0.256	-0.336
-413.398	85.695	0.172	-0.192
-412.384	44.685	0.017	-0.016
-411.369	800.000	-0.050	0.172
-410.355	-200.000	0.009	-0.199
-409.340	800.000	0.093	-0.358
-408.325	-26.012	0.125	-0.074
-407.311	-200.000	-0.001	-0.144
-406.296	-156.993	-0.128	0.008
-405.282	154.372	-0.118	0.164
-404.267	-160.367	-0.081	-0.004
-403.252	-200.000	0.026	-0.120
-402.238	130.533	0.273	0.354
-401.223	112.387	-0.141	-0.173
-400.209	-200.000	0.010	-0.073
-399.194	13.506	0.192	0.150
-398.179	144.070	0.152	-0.205
-397.165	-176.082	0.357	-0.010
-396.150	50.200	-0.045	0.043
-395.136	-27.699	-0.212	-0.125
-394.121	-50.790	0.228	-0.108
-393.106	-65.988	0.236	-0.095
-392.092	-154.597	0.155	0.010
-391.077	-71.625	0.224	-0.084
-390.063	55.591	0.147	-0.143
-389.048	-138.027	-0.218	-0.025
-388.033	149.088	0.089	0.122
-387.019	126.536	0.215	0.275
-386.004	483.103	-0.061	-0.140
-384.990	8.953	0.060	0.045
-383.975	-96.755	-0.129	0.034
-382.960	-89.630	-0.312	-0.093
-381.946	-140.284	-0.178	-0.019
-380.931	-200.000	-0.062	0.303
-379.917	67.503	0.302	0.312
-378.902	-200.000	0.030	-0.361
-377.888	352.183	-0.073	0.146
-376.873	-200.000	-0.041	0.261
-375.858	-42.825	0.211	-0.108
-374.844	-200.000	0.008	0.107
-373.829	-200.000	-0.047	0.233
-372.815	800.000	0.031	0.133
-371.800	-110.132	-0.268	0.057
-370.785	151.870	-0.142	0.196
-369.771	-124.711	0.106	-0.017
-368.756	-110.820	0.352	-0.073
-367.742	-4.878	-0.132	0.092
-366.727	800.000	0.057	0.168
-365.712	-128.552	-0.075	-0.011
-364.698	-200.000	-0.021	-0.138
-363.683	-200.000	-0.036	0.170
-362.669	60.202	0.089	-0.088
-361.654	478.982	-0.112	-0.255
-360.639	-200.000	0.019	-0.266
-359.625	-117.989	0.069	-0.012
-358.610	-67.443	0.272	0.108
-357.596	-1.042	0.191	-0.136
-356.581	272.834	-0.057	-0.102
-355.566	-179.082	-0.194	-0.004
-354.552	-127.035	-0.238	-0.035
-353.537	-99.771	0.263	0.066
-352.523	-141.954	-0.288	-0.029
-351.508	-111.035	-0.429	0.089
-350.493	-183.824	-0.349	-0.006
-349.479	339.253	0.047	0.093
-348.464	-104.137	0.300	-0.070
-347.450	-113.146	0.207	-0.041
-346.435	800.000	-0.098	0.366
-345.420	43.297	-0.116	-0.107
-344.406	-146.661	-0.154	0.013
-343.391	-74.021	0.325	0.119
-342.377	800.000	0.026	0.079
-341.362	-88.597	0.355	-0.107
-340.348	-68.287	0.200	-0.078
-339.333	800.000	-0.078	-0.269
-338.318	-3.838	-0.333	-0.233
-337.304	771.493	-0.054	0.148
-336.289	-35.789	-0.162	0.088
-335.275	50.399	-0.104	0.099
-334.260	-146.932	0.160	-0.014
-333.245	95.659	-0.103	-0.118
-332.231	-110.912	0.269	0.056
-331.216	-200.000	0.029	0.261
-330.202	-200.000	0.062	0.391
-329.187	-200.000	-0.079	-0.487
-328.172	128.134	0.190	-0.244
-327.158	115.439	-0.087	-0.107
-326.143	-94.792	-0.174	0.048
-325.129	-67.371	-0.114	-0.045
-324.114	-112.683	-0.104	-0.021
-323.099	-102.229	0.035	-0.009
-322.085	800.000	-0.028	-0.096
-321.070	800.000	-0.058	0.193
-320.056	9.659	0.123	0.094
-319.041	272.486	0.076	0.135
-318.026	292.495	-0.127	0.234
-317.012	-9.188	-0.292	-0.197
-315.997	541.266	-0.078	0.188
-314.983	-103.086	0.094	0.022
-313.968	6.452	0.210	0.157
-312.953	800.000	0.097	-0.349
-311.939	133.916	0.071	-0.093
-310.924	-200.000	0.050	0.268
-309.910	800.000	0.056	0.202
-308.895	-200.000	-0.001	0.087
-307.880	-126.560	0.158	0.024
-306.866	298.194	0.108	-0.200
-305.851	519.898	0.066	-0.157
-304.837	-200.000	0.066	0.298
-303.822	-200.000	-0.028	0.248
-302.807	-9.247	-0.176	-0.118
-301.793	-87.323	-0.175	-0.054
-300.778	-53.421	0.356	-0.164
-299.764	130.057	-0.124	-0.160
-298.749	-200.000	-0.074	-0.344
-297.735	-68.923	0.112	-0.043
-296.720	61.616	-0.167	-0.168
-295.705	22.488	0.077	-0.064
-294.691	-200.000	-0.174	-0.000
-293.676	27.210	-0.150	0.126
-292.662	65.056	0.052	-0.052
-291.647	80.492	-0.144	-0.156
-290.632	69.867	-0.133	-0.138
-289.618	-22.126	0.377	-0.230
-288.603	-200.000	0.027	0.126
-287.589	-53.986	-0.013	0.006
-286.574	114.804	0.036	-0.044
-285.559	-200.000	-0.018	0.135
-284.545	403.960	-0.133	0.282
-283.530	-200.000	-0.005	0.146
-282.516	-18.510	-0.183	0.115
-281.501	-134.763	0.189	0.023
-280.486	3.050	0.189	-0.138
-279.472	174.514	0.087	0.126
-278.457	154.796	-0.133	-0.183
-277.443	800.000	-0.072	0.277
-276.428	-158.716	0.268	0.015
-275.413	55.460	-0.270	0.263
-274.399	73.949	-0.113	-0.120
-273.384	800.000	0.007	0.020
-272.370	47.949	-0.084	0.079
-271.355	213.357	-0.141	0.224
-270.340	800.000	-0.025	-0.077
-269.326	-103.249	-0.144	-0.034
-268.311	800.000	-0.099	0.290
-267.297	-4.351	0.216	0.150
-266.282	-20.235	0.209	-0.129
-265.267	-159.206	0.061	-0.003
-264.253	57.682	-0.193	0.190
-263.238	800.000	-0.128	0.395
-262.224	85.741	0.033	0.037
-261.209	-200.000	-0.053	-0.279
-260.195	-119.048	0.270	0.048
-259.180	-200.000	-0.009	0.228
-258.165	59.328	-0.075	0.074
-257.151	-119.274	-0.078	0.014
-256.136	-78.605	0.248	-0.085
-255.122	503.610	-0.100	0.233
-254.107	119.618	0.112	-0.140
-253.092	-41.007	0.042	0.022
-252.078	37.265	0.171	0.152
-251.063	800.000	0.039	0.128
-250.049	129.381	0.127	0.164
-249.034	-48.264	-0.292	-0.142
-248.019	-167.395	0.039	-0.002
-247.005	-114.466	-0.295	0.057
-245.990	7.829	-0.224	0.169
-244.976	-5.973	0.225	0.154
-243.961	222.023	0.117	0.190
-242.946	-200.000	-0.022	0.283
-241.932	-95.503	-0.168	0.045
-240.917	800.000	0.046	0.187
-239.903	-28.214	-0.263	-0.153
-238.888	114.630	0.089	0.109
-237.873	-144.006	0.494	0.047
-236.859	-15.740	0.058	-0.037
-235.844	800.000	-0.102	0.301
-234.830	78.018	0.161	0.173
-233.815	-123.258	-0.236	0.038
-232.800	-89.324	-0.441	-0.131
-231.786	97.770	-0.162	-0.187
-230.771	-127.099	-0.094	0.014
-229.757	-200.000	0.021	0.276
-228.742	-98.109	0.325	0.084
-227.727	550.202	-0.051	0.122
-226.713	-144.172	0.072	-0.007
-225.698	104.658	-0.049	0.058
-224.684	-200.000	-0.026	0.131
-223.669	570.257	0.037	0.089
-222.655	-89.050	0.117	0.035
-221.640	-51.323	-0.052	-0.024
-220.625	800.000	-0.034	0.108
-219.611	70.031	-0.108	0.112
-218.596	800.000	0.048	-0.151
-217.582	316.848	-0.214	0.406
-216.567	83.757	0.135	0.148
-215.552	-49.639	0.112	0.053
-214.538	-91.057	0.062	-0.018
-213.523	26.600	0.106	-0.089
-212.509	-200.000	0.037	0.230
-211.494	-62.188	-0.098	-0.041
-210.479	-22.604	-0.085	-0.052
-209.465	800.000	-0.152	-0.432
-208.450	-73.119	-0.083	-0.031
-207.436	-3.433	0.181	0.126
-206.421	-91.647	0.247	0.070
-205.406	7.385	-0.186	-0.139
-204.392	-149.021	-0.199	-0.016
-203.377	74.419	-0.066	0.069
-202.363	800.000	0.098	0.328
-201.348	149.469	-0.139	0.189
-200.333	800.000	-0.038	-0.136
-199.319	-102.138	0.168	0.041
-198.304	11.369	0.041	-0.031
-197.290	-65.561	0.148	-0.060
-196.275	-120.110	-0.087	0.015
-195.260	-91.627	0.148	0.042
-194.246	268.578	0.222	0.391
-193.231	-96.395	-0.185	-0.049
-192.217	-95.836	0.259	0.069
-191.202	-200.000	0.056	-0.281
-190.187	800.000	-0.126	-0.424
-189.173	123.593	0.149	-0.187
-188.158	79.043	0.097	0.105
-187.144	60.052	-0.079	0.078
-186.129	800.000	-0.104	0.307
-185.114	-59.919	0.211	0.090
-184.100	25.630	-0.294	-0.245
-183.085	-38.679	-0.111	0.059
-182.071	35.494	0.219	0.193
-181.056	-200.000	-0.014	0.448
-180.042	464.691	0.091	-0.203
-179.027	-9.953	-0.409	0.273
-178.012	-45.506	0.143	-0.071
-176.998	-143.728	0.035	-0.003
-175.983	344.872	0.027	0.053
-174.969	-200.000	-0.017	-0.174
-173.954	289.276	-0.125	-0.227
-172.939	498.166	0.017	0.040
-171.925	-108.611	0.259	-0.056
-170.910	-48.901	0.392	-0.188
-169.896	198.153	0.172	0.263
-168.881	667.712	0.036	-0.093
-167.866	707.483	-0.076	0.201
-166.852	12.091	-0.270	0.208
-165.837	-178.071	0.392	0.009
-164.823	-114.691	-0.182	-0.035
-163.808	175.403	-0.173	-0.251
-162.793	800.000	-0.092	-0.258
-161.779	272.868	0.166	-0.293
-160.764	66.117	0.207	-0.210
-159.750	-200.000	-0.001	0.123
-158.735	-107.065	0.175	0.039
-157.720	-102.071	0.329	-0.079
-156.706	13.040	0.159	-0.123
-155.691	-200.000	-0.039	0.261
-154.677	-122.745	0.225	0.036
-153.662	552.559	-0.114	0.275
-152.647	-72.669	-0.243	0.090
-151.633	132.439	0.113	0.146
-150.618	-200.000	0.014	-0.118
-149.604	13.365	-0.193	-0.150
-148.589	-81.706	-0.151	0.049
-147.574	718.617	0.083	0.221
-146.560	-106.113	0.174	-0.039
-145.545	-74.718	0.226	-0.081
-144.531	6.072	0.107	0.080
-143.516	-110.323	-0.169	-0.035
-142.502	129.181	0.091	0.117
-141.487	-18.315	0.238	-0.149
-140.472	404.642	0.080	-0.168
-139.458	21.925	-0.170	-0.139
-138.443	225.591	0.099	-0.161
-137.429	-53.627	-0.042	0.019
-136.414	90.466	0.016	0.018
-135.399	246.451	0.223	0.376
-134.385	360.613	-0.115	0.229
-133.370	-200.000	-0.041	-0.266
-132.356	800.000	0.113	0.421
-131.341	75.182	0.055	0.058
-130.326	-200.000	-0.008	0.220
-129.312	283.753	-0.211	0.380
-128.297	176.246	0.136	-0.198
-127.283	29.909	0.079	0.067
-126.268	-200.000	0.007	0.176
-125.253	172.690	-0.234	0.336
-124.239	19.722	-0.143	-0.115
-123.224	-200.000	0.014	-0.168
-122.210	-14.669	0.086	0.055
-121.195	100.628	0.159	-0.184
