DTS Sentinel unit serial number:	SN413079Multiplexer serial number:	ORYXHardware model number:	OX4-SRSoftware version number:	ORYX F/W v4.00 Oryx Data Collector v3.7.2.0data status	okinstallation	princeton_trtdifferential loss correction	single-endedforward channel	channel 3reverse channel	N/Adate	2019/09/12time	19:24:04forward acquisition time	15.00reverse acquisition time	0.00gamma	496.2192k internal	0.2321k external	0.2321temperature offset calibration	1.0104default loss term (dB/km)	0.3790temperature slope calibration	1.0000multiplexer offset coefficient	1.0000multiplexer slope coefficient	1.0000fibre end	0.00T internal ref (°C)	32.37T ext. ref 1 (°C)	3.23T ext. ref 2 (°C)	26.88length (m)	temperature (°C)	Stokes	anti-Stokes-747.200	-200.000	0.048	-0.427
-746.185	-32.166	-0.391	-0.221
-745.171	-116.100	-1.391	0.261
-744.156	-200.000	0.006	-0.160
-743.142	271.538	0.153	0.273
-742.127	-135.144	0.090	-0.011
-741.112	-153.842	-0.456	0.032
-740.098	-160.224	0.184	0.010
-739.083	185.258	-0.529	-0.793
-738.069	-200.000	-0.043	-0.564
-737.054	-20.081	-0.540	-0.336
-736.039	-136.549	0.635	0.074
-735.025	-200.000	-0.008	0.177
-734.010	289.322	0.299	-0.548
-732.996	223.252	-0.445	0.725
-731.981	800.000	0.231	0.823
-730.966	800.000	0.161	-0.688
-729.952	57.215	-0.497	-0.490
-728.937	-200.000	-0.025	-0.217
-727.923	800.000	-0.045	0.147
-726.908	-4.407	-0.254	0.177
-725.894	-135.650	-0.471	0.056
-724.879	-91.228	0.611	0.177
-723.864	-200.000	-0.056	-0.273
-722.850	-160.110	0.419	0.023
-721.835	218.986	-0.464	0.748
-720.821	496.624	0.218	-0.507
-719.806	-200.000	0.002	-0.405
-718.791	-84.083	-0.563	-0.180
-717.777	800.000	0.098	-0.317
-716.762	-40.175	0.174	0.092
-715.748	-94.090	-0.568	-0.157
-714.733	-200.000	-0.061	1.257
-713.718	95.893	0.637	0.735
-712.704	-112.262	-0.700	0.142
-711.689	-19.434	0.119	-0.074
-710.675	-81.822	0.414	-0.137
-709.660	800.000	0.259	0.776
-708.645	800.000	0.126	0.423
-707.631	-16.951	-0.854	0.544
-706.616	-93.585	-0.683	-0.191
-705.602	136.014	0.530	0.697
-704.587	-55.070	0.371	-0.168
-703.572	90.206	-0.378	-0.426
-702.558	800.000	-0.052	0.229
-701.543	-200.000	-0.087	0.878
-700.529	-76.438	0.048	-0.017
-699.514	-164.486	0.280	-0.013
-698.499	-10.369	-0.658	-0.440
-697.485	-159.675	0.238	0.013
-696.470	-73.874	-0.266	-0.097
-695.456	-200.000	0.030	-0.146
-694.441	-200.000	-0.029	-0.199
-693.426	57.645	-0.315	-0.311
-692.412	-183.148	-0.579	-0.010
-691.397	-97.862	-0.852	0.222
-690.383	29.286	-0.805	0.690
-689.368	-74.564	0.630	-0.229
-688.354	-110.311	-0.478	-0.100
-687.339	-155.375	-0.721	0.047
-686.324	-107.412	0.280	-0.062
-685.310	-200.000	-0.064	0.672
-684.295	-72.801	-0.385	0.143
-683.281	154.398	0.087	0.120
-682.266	161.464	0.227	0.321
-681.251	-200.000	-0.006	-0.059
-680.237	162.517	-0.096	0.136
-679.222	-200.000	-0.023	-0.517
-678.208	800.000	-0.199	-0.846
-677.193	-128.586	-0.479	-0.068
-676.178	-130.057	0.987	-0.136
-675.164	-161.961	0.978	0.050
-674.149	-35.478	0.566	-0.310
-673.135	800.000	0.153	-0.493
-672.120	-86.326	0.806	-0.250
-671.105	7.812	0.083	-0.063
-670.091	-126.944	0.419	0.062
-669.076	411.133	0.309	-0.660
-668.062	-200.000	-0.076	-0.674
-667.047	126.381	0.239	-0.305
-666.032	-47.156	-0.435	0.214
-665.018	-77.536	-0.644	-0.225
-664.003	73.662	-0.394	-0.416
-662.989	-133.731	0.291	-0.037
-661.974	-95.450	0.402	-0.109
-660.959	-60.250	0.800	0.343
-659.945	-61.634	-0.669	0.283
-658.930	491.013	-0.229	-0.529
-657.916	-103.187	0.372	-0.089
-656.901	-118.550	-0.235	-0.042
-655.886	-53.668	0.636	-0.293
-654.872	-190.866	-0.603	0.006
-653.857	-83.204	0.429	0.139
-652.843	40.271	0.326	0.296
-651.828	-54.073	-0.186	0.085
-650.814	-15.702	0.148	-0.095
-649.799	35.598	0.518	0.458
-648.784	32.775	-0.215	0.187
-647.770	669.280	-0.283	0.737
-646.755	60.569	-0.229	0.228
-645.741	-72.075	-0.499	-0.187
-644.726	148.669	-0.470	0.640
-643.711	-200.000	-0.069	0.627
-642.697	-200.000	0.027	-0.679
-641.682	-66.833	0.481	-0.191
-640.668	800.000	0.121	-0.401
-639.653	-161.222	0.655	0.034
-638.638	-13.772	0.329	-0.214
-637.624	-117.169	-0.395	0.072
-636.609	-200.000	0.008	0.264
-635.595	-200.000	-0.046	0.000
-634.580	-200.000	0.031	-0.511
-633.565	800.000	0.168	-0.601
-632.551	-154.684	-1.080	-0.072
-631.536	270.580	0.191	0.339
-630.522	-10.510	-0.735	0.490
-629.507	-101.070	0.762	0.188
-628.492	-46.904	0.777	-0.382
-627.478	-27.754	0.553	-0.323
-626.463	-135.188	-0.837	0.101
-625.449	189.980	0.160	0.242
-624.434	71.501	-0.323	0.338
-623.419	-88.259	0.992	-0.299
-622.405	518.789	-0.112	0.264
-621.390	-112.539	-0.570	0.114
-620.376	43.458	0.727	0.668
-619.361	-143.619	-0.387	-0.037
-618.346	-13.210	-0.501	0.327
-617.332	-26.185	0.311	-0.184
-616.317	-200.000	-0.056	-0.332
-615.303	81.967	-0.165	0.180
-614.288	800.000	0.090	-0.383
-613.273	-165.391	0.444	-0.020
-612.259	-200.000	0.070	-0.452
-611.244	-102.032	0.830	-0.201
-610.230	121.928	0.278	-0.349
-609.215	800.000	-0.072	0.302
-608.201	-81.760	0.211	-0.069
-607.186	116.934	-0.098	0.120
-606.171	27.412	-0.349	-0.295
-605.157	-65.797	-0.509	0.205
-604.142	23.904	0.211	0.175
-603.128	-200.000	0.004	-0.265
-602.113	-131.524	-0.558	0.074
-601.098	269.833	0.378	0.667
-600.084	133.177	0.507	0.658
-599.069	-40.379	-1.063	0.555
-598.055	800.000	0.106	-0.435
-597.040	-28.867	0.892	-0.515
-596.025	-155.410	-1.058	-0.069
-595.011	389.219	0.096	0.199
-593.996	-13.049	-0.334	0.218
-592.982	545.078	0.274	0.657
-591.967	-43.528	0.630	-0.320
-590.952	800.000	-0.303	-1.107
-589.938	190.239	0.272	-0.410
-588.923	30.850	0.498	-0.429
-587.909	-87.460	-0.494	0.150
-586.894	28.205	-0.343	-0.291
-585.879	-73.951	-0.898	-0.327
-584.865	-185.370	0.408	-0.006
-583.850	27.003	-0.269	-0.227
-582.836	-118.216	-0.416	-0.074
-581.821	580.573	0.153	-0.377
-580.806	-35.327	-0.400	-0.218
-579.792	-200.000	0.059	-0.347
-578.777	-86.490	-0.569	0.175
-577.763	-200.000	0.001	0.435
-576.748	331.849	-0.386	0.748
-575.733	90.807	0.221	0.248
-574.719	47.480	0.592	0.554
-573.704	-94.747	-0.224	-0.061
-572.690	-75.269	0.066	-0.024
-571.675	82.616	-0.535	-0.584
-570.661	-200.000	0.078	-0.492
-569.646	-167.329	-0.357	-0.014
-568.631	705.490	-0.133	-0.352
-567.617	-200.000	-0.383	0.001
-566.602	800.000	0.054	0.157
-565.588	800.000	0.121	0.373
-564.573	-35.770	0.762	-0.414
-563.558	93.184	-0.391	0.444
-562.544	800.000	0.342	0.989
-561.529	-31.796	0.647	-0.364
-560.515	-12.490	-0.348	-0.228
-559.500	-6.017	0.136	0.093
-558.485	800.000	-0.320	-1.029
-557.471	-200.000	0.022	-0.172
-556.456	53.323	0.271	0.261
-555.442	10.687	0.635	0.486
-554.427	-59.890	0.401	0.172
-553.412	302.685	0.356	0.661
-552.398	800.000	0.154	-0.475
-551.383	-148.553	0.430	0.035
-550.369	283.141	0.094	0.168
-549.354	-62.809	-0.302	0.126
-548.339	129.663	-0.406	0.520
-547.325	-100.092	0.768	-0.192
-546.310	800.000	-0.175	-0.584
-545.296	-159.232	-0.376	-0.021
-544.281	1.551	0.197	0.142
-543.266	3.538	-0.126	-0.092
-542.252	-200.000	-0.072	-0.856
-541.237	-97.013	-0.247	0.065
-540.223	-73.188	0.751	0.276
-539.208	-101.253	0.437	0.107
-538.193	194.974	-0.580	-0.883
-537.179	34.505	0.357	-0.313
-536.164	-50.629	-0.419	0.198
-535.150	-200.000	0.125	-1.010
-534.135	-200.000	-0.002	0.364
-533.121	-75.795	0.966	0.343
-532.106	44.054	-0.298	0.274
-531.091	-24.171	-0.312	0.187
-530.077	313.951	0.713	1.345
-529.062	-104.081	1.329	-0.310
-528.048	191.555	-0.742	-1.119
-527.033	-116.301	-0.408	0.076
-526.018	703.659	-0.061	0.160
-525.004	-138.958	-0.415	-0.045
-523.989	-55.150	-0.634	-0.286
-522.975	0.288	-0.318	0.228
-521.960	-45.370	0.726	-0.361
-520.945	-31.015	-0.446	-0.252
-519.931	72.254	-0.201	-0.210
-518.916	-200.000	0.061	0.400
-517.902	477.670	-0.034	-0.077
-516.887	-62.899	-0.828	0.343
-515.872	-200.000	-0.084	-0.616
-514.858	-126.747	-0.575	0.085
-513.843	17.664	0.379	0.302
-512.829	-105.790	-0.552	0.125
-511.814	109.485	0.466	-0.558
-510.799	-25.872	-0.619	0.365
-509.785	800.000	-0.135	-0.573
-508.770	-200.000	0.016	-0.196
-507.756	94.019	0.275	0.312
-506.741	800.000	-0.042	0.169
-505.726	-166.634	-1.189	0.049
-504.712	-33.084	-0.410	0.228
-503.697	23.172	-0.430	-0.353
-502.683	323.730	-0.143	-0.273
-501.668	65.584	-0.248	0.251
-500.653	-39.333	0.479	0.251
-499.639	800.000	0.214	0.709
-498.624	491.117	-0.188	-0.430
-497.610	-200.000	-0.077	0.366
-496.595	85.842	-0.239	-0.263
-495.581	-3.482	0.342	0.238
-494.566	97.772	-0.291	-0.335
-493.551	393.419	-0.344	0.717
-492.537	-166.379	0.208	-0.009
-491.522	15.976	-0.092	-0.073
-490.508	-92.029	-0.919	-0.260
-489.493	221.936	-0.350	0.563
-488.478	800.000	0.062	-0.242
-487.464	239.655	-0.151	-0.251
-486.449	-30.199	0.465	-0.264
-485.435	-14.210	0.193	0.124
-484.420	-200.000	-0.065	-0.396
-483.405	19.985	-0.138	-0.111
-482.391	-200.000	-0.027	-0.352
-481.376	298.210	0.505	-0.929
-480.362	266.127	-0.340	-0.594
-479.347	78.897	0.435	-0.465
-478.332	176.049	-0.082	-0.119
-477.318	99.608	0.704	-0.815
-476.303	386.636	0.263	-0.544
-475.289	39.038	0.048	-0.043
-474.274	592.030	0.155	0.383
-473.259	-171.341	-0.583	0.020
-472.245	-200.000	0.144	-0.791
-471.230	490.237	0.178	-0.406
-470.216	56.472	-0.481	0.467
-469.201	-75.390	-0.909	0.324
-468.186	-76.892	-0.503	-0.176
-467.172	-200.000	-0.566	0.001
-466.157	4.295	-0.406	0.298
-465.143	-200.000	0.210	1.234
-464.128	-200.000	-0.011	-0.076
-463.113	144.583	-0.217	-0.289
-462.099	-74.405	-0.061	-0.022
-461.084	104.708	-0.224	0.264
-460.070	-200.000	-0.007	-0.257
-459.055	-37.789	-0.760	0.404
-458.040	188.816	0.639	0.956
-457.026	800.000	-0.129	0.433
-456.011	-96.198	-0.812	0.215
-454.997	-68.987	0.877	0.338
-453.982	-200.000	-0.092	-0.623
-452.968	-105.373	-0.306	0.070
-451.953	81.402	-0.331	0.358
-450.938	800.000	-0.221	0.691
-449.924	-23.538	0.336	-0.201
-448.909	-200.000	0.013	0.141
-447.895	-27.791	0.329	-0.191
-446.880	-13.870	0.286	0.184
-445.865	169.058	0.080	-0.114
-444.851	331.346	0.245	0.473
-443.836	80.803	0.274	0.296
-442.822	-200.000	0.019	-0.116
-441.807	-200.000	0.045	-0.549
-440.792	77.227	-0.636	-0.675
-439.778	-48.988	1.059	-0.507
-438.763	202.818	-0.216	-0.333
-437.749	31.308	-0.360	0.308
-436.734	67.858	-0.405	-0.414
-435.719	28.656	-0.282	-0.238
-434.705	-130.602	0.170	-0.023
-433.690	-200.000	0.022	-0.289
-432.676	-200.000	-0.011	0.097
-431.661	69.255	0.414	0.425
-430.646	800.000	-0.285	0.969
-429.632	-103.406	0.279	0.066
-428.617	-200.000	0.060	-0.555
-427.603	800.000	0.157	-0.512
-426.588	-5.435	-0.337	-0.231
-425.573	-184.967	0.137	0.002
-424.559	-200.000	0.052	-0.448
-423.544	65.737	0.269	0.273
-422.530	-151.328	-0.657	0.049
-421.515	-25.271	0.394	-0.233
-420.500	12.709	0.287	-0.221
-419.486	-59.088	1.455	-0.627
-418.471	472.896	-0.560	1.259
-417.457	800.000	-0.201	0.609
-416.442	-74.539	-0.866	-0.311
-415.428	800.000	0.115	-0.376
-414.413	-200.000	0.036	-0.688
-413.398	800.000	-0.162	-0.497
-412.384	217.754	-0.423	-0.672
-411.369	94.129	0.072	0.082
-410.355	-200.000	0.032	0.661
-409.340	-46.113	0.398	0.196
-408.325	-48.588	0.851	-0.408
-407.311	723.839	0.099	0.263
-406.296	-124.432	0.315	-0.049
-405.282	800.000	0.218	0.926
-404.267	-84.989	0.441	0.138
-403.252	-200.000	0.003	0.743
-402.238	-161.748	-0.328	-0.017
-401.223	223.854	0.213	-0.343
-400.209	-200.000	-0.045	-1.022
-399.194	-94.430	-0.891	0.242
-398.179	-124.532	0.510	0.079
-397.165	-110.101	0.915	0.191
-396.150	-114.211	-0.739	-0.142
-395.136	-61.663	-1.048	-0.438
-394.121	62.298	0.200	0.199
-393.106	73.318	0.234	-0.244
-392.092	641.410	-0.125	-0.317
-391.077	-200.000	-0.039	-0.400
-390.063	66.152	0.683	-0.691
-389.048	-39.080	0.642	0.337
-388.033	-200.000	0.000	-0.182
-387.019	-80.179	-0.703	-0.234
-386.004	-7.508	0.541	-0.365
-384.990	12.992	-0.395	0.304
-383.975	800.000	0.175	0.635
-382.960	191.696	-0.229	0.344
-381.946	-55.513	0.667	-0.298
-380.931	376.722	-0.124	-0.253
-379.917	126.862	0.197	0.249
-378.902	-25.621	-0.674	0.397
-377.888	-134.215	0.074	-0.009
-376.873	-113.448	0.459	0.090
-375.858	-65.713	-0.391	-0.156
-374.844	-160.788	-0.210	0.011
-373.829	-93.823	-0.281	0.077
-372.815	800.000	0.235	-0.865
-371.800	176.042	-0.289	-0.417
-370.785	-200.000	-0.244	1.172
-369.771	-50.843	-0.659	-0.308
-368.756	800.000	0.126	0.463
-367.742	98.953	0.364	-0.418
-366.727	-22.783	0.356	-0.214
-365.712	800.000	-0.085	0.315
-364.698	553.628	0.250	-0.598
-363.683	-200.000	-0.024	0.790
-362.669	-49.724	-0.249	0.118
-361.654	-76.099	-0.636	-0.224
-360.639	91.103	-0.412	0.460
-359.625	-163.541	0.799	-0.038
-358.610	-200.000	-0.084	-0.698
-357.596	-44.389	-0.256	0.128
-356.581	7.356	-0.521	0.388
-355.566	800.000	-0.050	0.142
-354.552	-117.627	0.892	0.160
-353.537	-200.000	-0.069	0.474
-352.523	102.193	-0.341	0.397
-351.508	181.041	0.381	-0.557
-350.493	95.779	0.379	0.430
-349.479	37.692	-0.143	0.126
-348.464	-27.376	0.870	0.504
-347.450	800.000	-0.255	-1.081
-346.435	-169.615	-0.248	-0.009
-345.420	-106.765	0.364	0.081
-344.406	-130.262	-0.317	-0.043
-343.391	-95.260	-0.740	0.198
-342.377	135.675	0.436	-0.564
-341.362	-200.000	0.101	-0.467
-340.348	91.163	-0.371	-0.415
-339.333	-200.000	-0.060	0.342
-338.318	-125.904	0.642	0.096
-337.304	-23.909	0.584	0.348
-336.289	-161.678	0.704	-0.036
-335.275	-200.000	-0.017	0.954
-334.260	-68.941	0.619	0.238
-333.245	-200.000	0.008	0.593
-332.231	45.009	0.461	0.422
-331.216	-177.640	0.246	0.006
-330.202	-61.857	-0.375	0.156
-329.187	-200.000	-0.148	-0.710
-328.172	-200.000	-0.003	0.106
-327.158	83.721	-0.223	0.242
-326.143	76.149	-0.540	0.569
-325.129	-72.307	0.141	-0.052
-324.114	36.162	0.183	-0.160
-323.099	800.000	-0.102	-0.308
-322.085	-3.568	-0.538	-0.372
-321.070	-77.508	-0.577	-0.199
-320.056	-107.783	0.426	0.092
-319.041	374.193	-0.377	-0.764
-318.026	-65.778	-0.478	0.190
-317.012	800.000	0.183	-0.660
-315.997	-132.630	0.853	-0.109
-314.983	721.620	-0.257	0.680
-313.968	800.000	0.044	-0.134
-312.953	-200.000	0.010	-0.659
-311.939	416.772	-0.052	0.110
-310.924	13.117	0.266	-0.204
-309.910	-94.851	-0.254	-0.069
-308.895	38.551	0.286	-0.253
-307.880	-71.954	0.840	-0.310
-306.866	172.732	0.157	-0.225
-305.851	149.763	-0.427	0.575
-304.837	327.748	-0.338	-0.644
-303.822	-200.000	0.036	-0.358
-302.807	-92.416	0.626	-0.175
-301.793	-85.952	0.193	0.059
-300.778	-125.927	-0.703	0.105
-299.764	94.653	0.287	-0.324
-298.749	129.474	-0.235	0.298
-297.735	297.808	-0.079	-0.144
-296.720	-101.790	1.168	0.281
-295.705	477.413	-0.319	0.716
-294.691	-200.000	-0.205	-1.102
-293.676	-153.793	-0.275	0.019
-292.662	83.969	-0.132	0.143
-291.647	-39.430	0.724	0.377
-290.632	-89.370	0.237	0.069
-289.618	-110.530	-0.489	0.101
-288.603	118.149	-0.126	-0.154
-287.589	-124.393	-0.284	0.044
-286.574	291.859	-0.248	0.447
-285.559	-86.725	-0.573	0.174
-284.545	129.935	-0.436	0.554
-283.530	165.702	0.346	0.486
-282.516	-200.000	-0.116	0.690
-281.501	-76.129	0.545	-0.191
-280.486	723.289	0.103	0.271
-279.472	-200.000	0.198	0.915
-278.457	-104.103	0.652	-0.151
-277.443	-126.804	-0.621	0.091
-276.428	136.504	0.202	-0.261
-275.413	37.283	0.197	0.173
-274.399	172.573	0.476	0.680
-273.384	-45.958	-0.547	-0.268
-272.370	-30.714	-0.464	-0.261
-271.355	-80.371	0.426	-0.141
-270.340	-148.981	-0.175	0.014
-269.326	128.636	0.037	-0.047
-268.311	800.000	-0.327	-0.996
-267.297	-28.348	0.389	0.223
-266.282	-125.277	-0.411	0.062
-265.267	72.356	0.521	-0.538
-264.253	-59.749	0.210	-0.089
-263.238	476.225	-0.242	-0.541
-262.224	800.000	-0.230	0.884
-261.209	-93.404	-0.158	-0.043
-260.195	30.038	-0.326	0.276
-259.180	-200.000	-0.051	0.380
-258.165	800.000	0.041	-0.159
-257.151	-124.654	0.591	-0.091
-256.136	-53.668	0.369	-0.167
-255.122	-24.339	0.418	-0.247
-254.107	466.169	-0.109	0.242
-253.092	800.000	0.003	0.011
-252.078	-24.693	0.627	-0.370
-251.063	-83.481	-0.885	-0.281
-250.049	-200.000	0.003	0.211
-249.034	-88.115	0.462	0.137
-248.019	-20.459	0.705	0.430
-247.005	111.179	0.161	0.193
-245.990	-73.336	-0.398	0.144
-244.976	51.153	-0.549	0.516
-243.961	731.616	-0.367	0.973
-242.946	-74.139	0.210	0.075
-241.932	-167.657	-0.638	-0.025
-240.917	164.903	-0.606	-0.848
-239.903	-24.227	-1.015	0.600
-238.888	-5.310	-0.678	0.461
-237.873	158.785	-0.147	0.203
-236.859	-200.000	-0.013	0.310
-235.844	-126.536	0.535	-0.079
-234.830	-76.824	0.481	-0.167
-233.815	-46.303	-0.972	0.473
-232.800	-200.000	0.032	0.359
-231.786	-200.000	-0.014	0.092
-230.771	-200.000	0.050	-0.506
-229.757	97.315	-0.425	-0.484
-228.742	134.215	0.172	-0.220
-227.727	-200.000	0.140	0.616
-226.713	-96.647	-0.519	-0.135
-225.698	800.000	0.151	0.551
-224.684	47.151	0.585	0.540
-223.669	-64.581	-0.225	-0.090
-222.655	800.000	-0.197	0.648
-221.640	331.245	-0.322	-0.614
-220.625	288.496	0.058	-0.105
-219.611	-200.000	0.067	0.955
-218.596	71.796	0.305	0.314
-217.582	-163.426	0.523	-0.025
-216.567	641.433	0.121	0.305
-215.552	-118.493	0.773	-0.136
-214.538	-79.379	-0.909	-0.304
-213.523	-23.803	-0.391	-0.232
-212.509	-0.446	-0.601	-0.422
-211.494	-4.972	-0.284	0.194
-210.479	35.509	0.190	0.165
-209.465	84.791	0.375	-0.406
-208.450	-58.095	0.402	0.173
-207.436	222.077	0.333	-0.531
-206.421	124.754	0.309	0.385
-205.406	635.085	-0.157	0.395
-204.392	190.020	-0.656	0.975
-203.377	123.817	0.304	0.378
-202.363	800.000	-0.057	-0.206
-201.348	-63.398	0.746	-0.303
-200.333	-200.000	-0.003	0.545
-199.319	110.231	0.213	-0.253
-198.304	669.427	-0.127	-0.325
-197.290	-200.000	0.021	-0.937
-196.275	-200.000	0.041	-0.283
-195.260	-50.379	0.401	-0.187
-194.246	103.968	0.156	0.182
-193.231	122.704	0.335	0.414
-192.217	92.549	0.124	-0.138
-191.202	800.000	-0.237	-0.746
-190.187	57.968	0.244	0.236
-189.173	37.516	-0.411	0.361
-188.158	-200.000	-0.184	1.027
-187.144	-17.498	0.990	-0.616
-186.129	65.149	0.115	0.114
-185.114	-26.876	0.368	-0.212
-184.100	547.315	-0.441	-1.043
-183.085	-73.533	-0.433	-0.156
-182.071	-95.711	0.762	0.201
-181.056	-200.000	0.028	0.671
-180.042	177.968	-0.282	0.407
-179.027	-200.000	0.149	0.743
-178.012	68.233	-0.373	-0.377
-176.998	-200.000	0.002	0.175
-175.983	-13.985	0.426	-0.272
-174.969	508.478	-0.211	-0.485
-173.954	-200.000	-0.068	-0.506
-172.939	-28.886	1.051	0.597
-171.925	800.000	0.130	-0.469
-170.910	606.479	-0.021	-0.051
-169.896	-118.484	0.763	0.134
-168.881	621.631	-0.245	0.609
-167.866	215.126	0.429	0.673
-166.852	96.959	-0.156	-0.176
-165.837	-76.702	0.438	-0.152
-164.823	-200.000	-0.061	0.547
-163.808	306.678	0.261	-0.479
-162.793	632.527	-0.113	0.284
-161.779	-200.000	-0.036	-0.818
-160.764	59.596	-0.546	-0.532
-159.750	-9.067	-0.242	-0.160
-158.735	14.083	0.419	-0.323
-157.720	-118.623	0.901	-0.157
-156.706	-35.552	0.254	0.136
-155.691	34.013	-0.106	-0.091
-154.677	-30.197	-0.286	0.160
-153.662	355.635	-0.086	0.168
-152.647	800.000	0.097	-0.335
-151.633	143.642	-0.413	-0.543
-150.618	800.000	-0.153	0.476
-149.604	-200.000	0.193	-1.313
-148.589	95.116	0.149	0.167
-147.574	-154.527	-1.156	0.076
-146.560	-200.000	-0.075	-0.355
-145.545	102.376	0.533	-0.615
-144.531	-200.000	0.118	-0.935
-143.516	-71.960	-0.101	-0.037
-142.502	-198.865	0.525	-0.003
-141.487	-74.717	-0.013	-0.005
-140.472	214.290	0.372	-0.581
-139.458	233.219	0.168	0.273
-138.443	-131.403	0.597	0.078
-137.429	-200.000	-0.015	-0.143
-136.414	-55.279	0.528	-0.234
-135.399	178.868	0.326	-0.470
-134.385	-118.569	0.115	-0.020
-133.370	-141.109	-1.261	-0.127
-132.356	800.000	0.371	-1.069
-131.341	-5.209	-0.042	0.029
-130.326	-107.318	0.196	0.042
-129.312	-200.000	-0.068	0.514
-128.297	251.969	0.190	0.320
-127.283	-200.000	-0.228	0.000
-126.268	44.352	0.316	0.286
-125.253	-165.595	-0.705	-0.030
-124.239	4.687	-0.518	-0.375
-123.224	126.088	-0.248	-0.309
-122.210	-87.625	0.359	-0.107
