DTS Sentinel unit serial number:	SN413079Multiplexer serial number:	ORYXHardware model number:	OX4-SRSoftware version number:	ORYX F/W v4.00 Oryx Data Collector v3.7.2.0data status	okinstallation	princeton_trtdifferential loss correction	single-endedforward channel	channel 3reverse channel	N/Adate	2019/09/16time	08:32:35forward acquisition time	60.00reverse acquisition time	0.00gamma	496.2192k internal	0.2325k external	0.2325temperature offset calibration	0.9958default loss term (dB/km)	0.3790temperature slope calibration	1.0000multiplexer offset coefficient	1.0000multiplexer slope coefficient	1.0000fibre end	0.00T internal ref (°C)	29.37T ext. ref 1 (°C)	11.91T ext. ref 2 (°C)	25.96length (m)	temperature (°C)	Stokes	anti-Stokes-747.200	-101.482	-0.111	0.027
-746.185	122.649	-0.201	-0.254
-745.171	-78.002	-0.228	0.079
-744.156	-113.243	-0.104	0.021
-743.142	193.182	0.139	-0.212
-742.127	-200.000	-0.002	0.177
-741.112	138.383	0.185	0.245
-740.098	-200.000	0.007	0.255
-739.083	-153.544	0.331	-0.023
-738.069	394.461	0.124	0.261
-737.054	188.887	0.173	-0.262
-736.039	-80.727	-0.215	0.072
-735.025	202.943	-0.011	0.017
-734.010	-56.632	-0.277	-0.124
-732.996	250.419	-0.081	-0.139
-731.981	-11.036	0.054	0.036
-730.966	52.850	0.169	-0.163
-729.952	-10.094	0.127	0.085
-728.937	473.395	0.122	-0.277
-727.923	-51.785	-0.386	-0.181
-726.908	67.037	-0.018	0.018
-725.894	-119.173	-0.255	-0.045
-724.879	-200.000	0.004	0.213
-723.864	-95.320	0.251	-0.068
-722.850	-71.181	-0.189	-0.072
-721.835	117.153	0.162	-0.201
-720.821	-16.168	0.157	0.100
-719.806	-107.254	-0.497	-0.110
-718.791	116.943	0.045	0.056
-717.777	-142.181	-0.237	-0.024
-716.762	94.439	-0.070	-0.081
-715.748	87.065	0.170	-0.189
-714.733	17.708	-0.224	0.180
-713.718	682.957	0.039	0.103
-712.704	41.792	0.062	-0.057
-711.689	-30.076	0.238	-0.137
-710.675	-115.941	-0.242	0.046
-709.660	115.161	0.245	0.301
-708.645	125.100	0.213	-0.271
-707.631	165.576	-0.081	-0.116
-706.616	-129.647	-0.373	-0.052
-705.602	-56.075	-0.275	0.123
-704.587	-200.000	-0.010	-0.255
-703.572	251.287	-0.115	0.198
-702.558	153.564	-0.239	-0.330
-701.543	-93.297	0.246	0.069
-700.529	119.188	0.231	-0.288
-699.514	-102.261	0.213	-0.051
-698.499	-200.000	-0.004	0.072
-697.485	49.469	0.219	-0.208
-696.470	31.812	-0.135	-0.117
-695.456	-200.000	-0.017	0.125
-694.441	-45.555	0.097	0.048
-693.426	-79.334	-0.401	0.137
-692.412	-200.000	0.043	0.290
-691.397	86.323	-0.147	-0.163
-690.383	-88.120	-0.093	0.028
-689.368	800.000	-0.153	-0.439
-688.354	-83.998	-0.062	-0.020
-687.339	27.898	-0.164	-0.139
-686.324	800.000	-0.029	0.116
-685.310	-76.414	-0.314	-0.111
-684.295	70.587	-0.160	-0.167
-683.281	24.637	0.029	-0.024
-682.266	800.000	-0.057	0.230
-681.251	800.000	0.168	0.600
-680.237	6.115	-0.154	-0.115
-679.222	-200.000	0.038	0.231
-678.208	-69.836	-0.182	-0.070
-677.193	-200.000	0.051	-0.614
-676.178	-200.000	0.037	-0.178
-675.164	-4.050	0.212	0.148
-674.149	238.284	-0.165	-0.276
-673.135	-85.630	-0.311	-0.097
-672.120	-188.596	0.098	0.001
-671.105	-58.991	-0.195	-0.085
-670.091	141.793	0.089	0.118
-669.076	-89.366	-0.365	-0.108
-668.062	-39.352	-0.055	0.029
-667.047	-117.419	-0.058	-0.011
-666.032	230.396	0.067	0.111
-665.018	119.536	-0.176	0.219
-664.003	800.000	-0.091	0.343
-662.989	26.737	-0.112	-0.094
-661.974	800.000	-0.060	-0.206
-660.959	-200.000	-0.022	0.227
-659.945	148.908	0.112	-0.153
-658.930	283.973	-0.043	-0.078
-657.916	-200.000	0.046	-0.340
-656.901	339.696	-0.213	-0.417
-655.886	108.225	-0.151	-0.181
-654.872	-200.000	-0.026	-0.229
-653.857	-92.055	0.155	-0.044
-652.843	231.029	0.157	0.259
-651.828	-158.729	-0.357	-0.021
-650.814	155.055	-0.109	0.150
-649.799	-67.828	-0.179	-0.070
-648.784	-88.348	-0.279	0.084
-647.770	-105.165	-0.197	-0.045
-646.755	-45.187	0.098	0.049
-645.741	534.086	-0.037	0.087
-644.726	355.539	-0.068	-0.135
-643.711	-120.744	-0.392	0.067
-642.697	-116.921	-0.173	0.032
-641.682	330.277	-0.093	0.180
-640.668	-200.000	0.001	-0.123
-639.653	29.812	-0.148	-0.126
-638.638	-2.523	-0.096	0.068
-637.624	-47.345	-0.283	-0.138
-636.609	6.347	0.110	0.082
-635.595	-200.000	0.001	0.082
-634.580	15.299	-0.090	-0.071
-633.565	-200.000	-0.021	-0.102
-632.551	-89.668	-0.143	0.042
-631.536	-200.000	-0.018	-0.138
-630.522	-200.000	0.010	-0.176
-629.507	48.316	0.265	-0.249
-628.492	-89.895	-0.129	0.038
-627.478	10.679	0.107	-0.082
-626.463	800.000	-0.091	0.268
-625.449	-200.000	0.052	-0.243
-624.434	-49.936	0.326	-0.155
-623.419	-128.382	-0.512	-0.073
-622.405	800.000	-0.034	-0.103
-621.390	-200.000	0.009	0.257
-620.376	24.023	0.303	0.251
-619.361	-200.000	0.010	0.127
-618.346	259.376	-0.091	-0.158
-617.332	-54.128	-0.110	-0.050
-616.317	800.000	0.025	-0.087
-615.303	-60.789	0.216	-0.092
-614.288	355.794	0.163	0.326
-613.273	-54.253	0.158	0.072
-612.259	800.000	0.099	0.394
-611.244	-52.557	0.291	0.135
-610.230	-125.922	-0.185	0.028
-609.215	-97.131	0.224	-0.059
-608.201	13.255	-0.202	0.157
-607.186	-200.000	-0.015	-0.282
-606.171	158.637	0.206	0.287
-605.157	-138.246	0.126	0.014
-604.142	-173.259	0.072	-0.002
-603.128	750.558	0.011	-0.031
-602.113	-78.225	-0.268	-0.092
-601.098	176.901	0.122	0.178
-600.084	54.858	0.060	-0.058
-599.069	-200.000	-0.009	0.054
-598.055	-63.704	0.084	-0.035
-597.040	800.000	0.053	-0.171
-596.025	-104.322	0.247	-0.058
-595.011	-200.000	0.004	0.100
-593.996	-72.009	-0.233	-0.087
-592.982	3.971	-0.292	-0.214
-591.967	343.761	0.183	0.360
-590.952	-96.955	-0.263	0.069
-589.938	-200.000	0.016	0.179
-588.923	70.587	-0.088	0.091
-587.909	-9.233	0.332	0.223
-586.894	-200.000	0.026	-0.146
-585.879	800.000	0.037	-0.128
-584.865	101.431	-0.254	-0.297
-583.850	348.859	0.087	0.171
-582.836	-71.467	0.176	0.066
-581.821	-200.000	0.044	-0.195
-580.806	-127.106	0.111	0.016
-579.792	-200.000	-0.037	-0.273
-578.777	-200.000	-0.005	0.201
-577.763	-124.245	0.172	0.027
-576.748	-42.324	-0.197	0.101
-575.733	-200.000	-0.004	-0.077
-574.719	-73.184	-0.099	0.036
-573.704	599.539	-0.015	0.037
-572.690	-200.000	0.005	0.129
-571.675	-200.000	0.006	-0.291
-570.661	-148.660	-0.282	0.023
-569.646	-79.658	-0.313	-0.106
-568.631	-200.000	0.038	-0.246
-567.617	16.752	0.335	0.266
-566.602	800.000	0.038	-0.142
-565.588	-200.000	0.035	-0.240
-564.573	115.682	-0.332	-0.407
-563.558	-64.256	0.163	-0.067
-562.544	-107.880	-0.209	0.046
-561.529	21.629	-0.168	-0.137
-560.515	-152.796	0.255	0.018
-559.500	236.665	0.057	0.095
-558.485	-83.696	0.387	0.124
-557.471	800.000	-0.052	0.201
-556.456	-200.000	0.037	-0.186
-555.442	221.469	-0.135	0.217
-554.427	-157.757	0.073	0.004
-553.412	-200.000	0.033	-0.161
-552.398	800.000	0.093	-0.262
-551.383	-103.310	0.087	-0.020
-550.369	-90.895	-0.241	0.069
-549.354	-51.087	-0.111	-0.052
-548.339	144.373	-0.173	0.231
-547.325	-106.407	0.304	-0.068
-546.310	800.000	-0.069	0.199
-545.296	-200.000	-0.000	-0.240
-544.281	39.765	-0.171	0.153
-543.266	54.196	0.089	-0.085
-542.252	800.000	-0.048	-0.203
-541.237	31.600	0.079	0.068
-540.223	800.000	0.028	0.084
-539.208	-200.000	0.014	-0.185
-538.193	-200.000	-0.085	-0.446
-537.179	-71.629	-0.467	0.175
-536.164	800.000	-0.031	0.107
-535.150	-94.678	-0.322	0.088
-534.135	-72.194	0.155	0.057
-533.121	-48.027	0.141	0.068
-532.106	184.540	-0.120	0.178
-531.091	107.242	-0.219	-0.261
-530.077	-200.000	-0.037	-0.346
-529.062	-68.838	-0.216	-0.084
-528.048	-200.000	0.002	0.119
-527.033	-14.224	0.230	0.148
-526.018	29.377	0.012	0.010
-525.004	98.917	0.140	0.162
-523.989	-200.000	0.027	0.362
-522.975	-40.570	0.094	-0.049
-521.960	-142.196	0.110	-0.011
-520.945	-200.000	-0.014	-0.153
-519.931	26.896	0.130	0.109
-518.916	60.783	-0.132	0.131
-517.902	-24.113	0.101	0.060
-516.887	-136.205	-0.279	0.033
-515.872	60.663	0.031	0.031
-514.858	-53.099	0.060	0.027
-513.843	354.045	-0.073	0.146
-512.829	-19.485	0.155	0.096
-511.814	800.000	-0.080	0.223
-510.799	94.348	0.011	0.013
-509.785	-58.252	0.149	0.065
-508.770	87.968	0.086	0.096
-507.756	16.900	-0.163	-0.129
-506.741	40.819	0.106	-0.095
-505.726	-36.554	0.249	-0.134
-504.712	-133.937	-0.340	0.042
-503.697	138.678	-0.054	-0.071
-502.683	-150.328	-0.054	-0.004
-501.668	220.355	-0.100	0.161
-500.653	-200.000	0.022	-0.104
-499.639	-132.926	0.274	-0.035
-498.624	144.838	-0.076	-0.102
-497.610	-36.874	0.181	0.097
-496.595	-200.000	0.004	-0.131
-495.581	-200.000	0.010	-0.101
-494.566	433.121	0.062	-0.134
-493.551	-200.000	-0.001	0.033
-492.537	-88.652	-0.063	0.019
-491.522	800.000	0.064	0.279
-490.508	-65.785	0.237	0.095
-489.493	51.406	0.164	-0.156
-488.478	304.368	0.043	0.080
-487.464	-166.955	0.148	-0.006
-486.449	-136.624	-0.074	-0.009
-485.435	-15.068	0.113	-0.072
-484.420	-200.000	0.001	-0.134
-483.405	-200.000	-0.001	0.115
-482.391	54.137	-0.248	0.239
-481.376	-35.394	0.047	0.026
-480.362	-87.000	-0.331	-0.101
-479.347	-124.315	0.266	-0.041
-478.332	181.070	0.083	0.121
-477.318	-31.558	0.305	-0.171
-476.303	-200.000	0.017	-0.276
-475.289	521.026	0.073	-0.171
-474.274	800.000	-0.050	-0.191
-473.259	-200.000	-0.001	0.209
-472.245	-200.000	0.037	-0.211
-471.230	-118.262	-0.298	-0.053
-470.216	800.000	0.081	0.349
-469.201	-200.000	0.028	0.354
-468.186	71.905	0.233	0.242
-467.172	-72.361	-0.307	0.114
-466.157	-200.000	-0.029	-0.138
-465.143	191.075	0.084	0.127
-464.128	800.000	0.090	0.324
-463.113	-200.000	-0.001	-0.205
-462.099	-200.000	0.013	-0.115
-461.084	235.494	0.058	-0.096
-460.070	334.864	0.137	-0.265
-459.055	105.758	0.147	0.174
-458.040	117.797	-0.108	0.133
-457.026	21.762	0.112	-0.091
-456.011	-14.953	0.226	-0.145
-454.997	-200.000	-0.021	-0.216
-453.982	-200.000	0.006	-0.132
-452.968	50.928	-0.036	-0.034
-451.953	69.995	-0.159	-0.163
-450.938	-59.425	-0.428	0.184
-449.924	-184.929	0.122	-0.002
-448.909	-78.095	0.218	-0.075
-447.895	-96.385	-0.316	-0.083
-446.880	-55.282	0.164	0.073
-445.865	778.448	-0.112	0.305
-444.851	-86.113	0.114	-0.035
-443.836	31.499	0.185	-0.158
-442.822	-200.000	-0.016	-0.138
-441.807	515.016	-0.137	-0.319
-440.792	800.000	0.095	-0.278
-439.778	-200.000	0.002	-0.042
-438.763	-200.000	-0.030	-0.205
-437.749	41.275	0.170	0.153
-436.734	-200.000	-0.007	0.484
-435.719	1.438	0.329	-0.236
-434.705	-137.010	0.375	-0.043
-433.690	333.458	-0.082	-0.158
-432.676	-50.607	0.211	-0.099
-431.661	61.442	-0.245	0.243
-430.646	-200.000	-0.012	-0.399
-429.632	-92.222	0.114	0.032
-428.617	-102.300	0.159	-0.038
-427.603	-7.329	-0.331	-0.223
-426.588	-200.000	0.008	-0.308
-425.573	13.028	0.088	0.068
-424.559	-47.854	-0.182	-0.088
-423.544	196.653	-0.080	0.122
-422.530	196.307	0.090	-0.137
-421.515	-117.686	-0.141	0.025
-420.500	31.385	-0.258	0.221
-419.486	-36.494	0.092	-0.049
-418.471	-200.000	-0.002	-0.100
-417.457	800.000	-0.025	-0.082
-416.442	20.912	-0.236	0.190
-415.428	36.202	-0.048	0.042
-414.413	-107.404	-0.255	0.056
-413.398	-59.562	-0.119	-0.051
-412.384	-114.933	0.277	0.053
-411.369	7.262	-0.207	0.154
-410.355	100.102	0.144	-0.167
-409.340	-200.000	0.007	-0.093
-408.325	-128.180	0.495	-0.070
-407.311	-48.402	0.057	0.027
-406.296	800.000	-0.119	-0.407
-405.282	-51.836	-0.129	-0.060
-404.267	29.683	0.219	-0.186
-403.252	51.447	-0.260	-0.246
-402.238	269.092	0.064	-0.111
-401.223	-200.000	-0.003	0.058
-400.209	268.232	-0.157	-0.274
-399.194	800.000	0.072	-0.238
-398.179	-200.000	-0.016	-0.235
-397.165	-57.892	0.115	-0.050
-396.150	-200.000	0.026	-0.175
-395.136	66.744	-0.280	0.283
-394.121	800.000	-0.063	0.247
-393.106	-200.000	0.049	-0.223
-392.092	267.334	0.203	0.354
-391.077	-29.449	-0.255	-0.145
-390.063	144.196	0.181	-0.241
-389.048	-200.000	-0.017	-0.118
-388.033	-97.680	-0.231	0.060
-387.019	800.000	0.101	-0.281
-386.004	-59.037	0.191	-0.082
-384.990	-100.787	0.097	-0.024
-383.975	-123.689	-0.327	0.052
-382.960	800.000	-0.063	0.242
-381.946	-79.486	-0.040	-0.013
-380.931	-17.671	0.364	0.227
-379.917	-200.000	-0.004	0.069
-378.902	-104.141	-0.056	0.013
-377.888	41.859	0.376	0.339
-376.873	-200.000	0.054	-0.266
-375.858	-144.772	-0.229	-0.021
-374.844	-165.236	-0.304	0.013
-373.829	-163.980	0.278	-0.013
-372.815	-200.000	-0.012	0.123
-371.800	223.462	0.053	-0.086
-370.785	-200.000	-0.014	0.118
-369.771	-61.058	0.271	0.114
-368.756	-200.000	0.003	0.344
-367.742	-76.309	-0.142	0.050
-366.727	184.149	0.110	-0.162
-365.712	800.000	0.046	-0.132
-364.698	800.000	-0.108	-0.322
-363.683	800.000	0.102	0.311
-362.669	-133.002	0.098	0.012
-361.654	68.428	0.153	-0.156
-360.639	-48.536	-0.158	0.075
-359.625	20.627	-0.122	0.098
-358.610	800.000	0.029	0.085
-357.596	-118.295	-0.185	0.033
-356.581	-143.277	0.151	-0.014
-355.566	-200.000	-0.025	0.242
-354.552	298.977	0.025	-0.045
-353.537	225.938	-0.030	-0.048
-352.523	300.280	0.057	-0.105
-351.508	675.565	0.090	-0.232
-350.493	211.879	-0.233	0.364
-349.479	33.019	-0.219	-0.189
-348.464	-30.105	-0.225	-0.127
-347.450	-164.529	-0.196	-0.009
-346.435	8.089	0.292	-0.217
-345.420	-97.217	0.095	-0.025
-344.406	-96.291	-0.119	-0.031
-343.391	430.790	0.267	-0.575
-342.377	-131.555	-0.155	-0.020
-341.362	286.798	-0.106	0.191
-340.348	268.003	0.052	-0.090
-339.333	800.000	0.105	0.313
-338.318	258.431	0.075	0.129
-337.304	-59.861	0.285	-0.121
-336.289	-94.276	-0.038	0.010
-335.275	-117.038	0.218	0.039
-334.260	-141.105	0.190	-0.019
-333.245	800.000	-0.111	0.323
-332.231	-59.895	-0.358	-0.152
-331.216	-200.000	-0.016	0.080
-330.202	360.284	0.054	-0.107
-329.187	-200.000	-0.016	-0.179
-328.172	-40.039	0.241	0.125
-327.158	-6.619	-0.236	0.160
-326.143	-88.485	-0.264	0.078
-325.129	800.000	0.045	-0.147
-324.114	-28.601	-0.174	0.100
-323.099	286.093	-0.234	0.419
-322.085	-58.199	0.152	-0.066
-321.070	-108.954	-0.242	0.051
-320.056	-164.056	0.058	0.003
-319.041	-200.000	0.026	0.115
-318.026	96.873	-0.157	-0.179
-317.012	-92.879	-0.197	-0.055
-315.997	-106.499	-0.285	0.063
-314.983	41.979	0.121	-0.109
-313.968	-112.086	-0.625	0.125
-312.953	-200.000	0.017	-0.153
-311.939	254.485	-0.034	-0.057
-310.924	-146.987	0.396	0.034
-309.910	49.064	-0.156	-0.145
-308.895	34.385	0.115	-0.100
-307.880	327.545	0.060	-0.115
-306.866	131.025	-0.202	0.258
-305.851	-110.606	0.206	0.042
-304.837	-17.100	0.096	-0.060
-303.822	800.000	0.057	0.227
-302.807	131.082	-0.143	-0.182
-301.793	433.427	-0.050	-0.107
-300.778	396.715	0.088	-0.182
-299.764	-200.000	0.002	-0.247
-298.749	113.861	-0.135	0.163
-297.735	-88.219	0.087	-0.026
-296.720	28.323	0.038	0.032
-295.705	-134.547	0.181	0.022
-294.691	-54.834	-0.482	0.216
-293.676	-82.875	0.088	0.028
-292.662	-31.956	-0.284	-0.158
-291.647	-200.000	0.020	0.220
-290.632	-54.500	0.221	0.099
-289.618	182.636	0.016	-0.024
-288.603	90.646	0.120	0.133
-287.589	-200.000	0.055	-0.245
-286.574	-62.915	-0.285	-0.117
-285.559	334.522	-0.175	-0.335
-284.545	165.984	0.075	0.105
-283.530	51.322	-0.197	0.185
-282.516	12.516	0.140	0.107
-281.501	-150.120	0.280	0.022
-280.486	58.836	-0.170	0.166
-279.472	-200.000	0.030	-0.175
-278.457	-200.000	0.054	0.395
-277.443	106.980	0.165	0.194
-276.428	210.056	0.053	-0.083
-275.413	33.014	-0.215	-0.185
-274.399	-62.501	-0.226	0.093
-273.384	652.317	-0.090	-0.229
-272.370	800.000	-0.051	-0.198
-271.355	-200.000	-0.106	0.476
-270.340	-200.000	0.041	-0.219
-269.326	-29.786	0.247	0.140
-268.311	-85.183	0.086	-0.027
-267.297	800.000	-0.039	0.153
-266.282	-67.037	-0.421	0.164
-265.267	800.000	-0.063	-0.175
-264.253	391.924	0.069	0.143
-263.238	800.000	0.068	0.211
-262.224	-19.187	0.073	0.045
-261.209	179.253	-0.007	-0.011
-260.195	374.896	0.043	0.086
-259.180	800.000	0.133	0.442
-258.165	-126.741	-0.099	-0.015
-257.151	-49.058	0.139	-0.066
-256.136	-200.000	0.030	0.262
-255.122	34.850	-0.158	0.137
-254.107	800.000	-0.035	0.110
-253.092	-66.890	0.309	0.121
-252.078	-200.000	-0.027	0.157
-251.063	107.867	0.148	0.174
-250.049	-127.179	0.292	-0.042
-249.034	99.370	0.047	0.053
-248.019	-200.000	0.054	0.449
-247.005	-94.255	-0.143	0.039
-245.990	-200.000	0.008	-0.200
-244.976	145.839	0.128	-0.169
-243.961	-32.985	-0.109	0.060
-242.946	290.644	0.137	0.246
-241.932	-151.283	0.160	-0.012
-240.917	95.394	-0.143	0.162
-239.903	-200.000	-0.034	-0.219
-238.888	-200.000	-0.008	-0.135
-237.873	157.040	-0.077	-0.105
-236.859	173.119	-0.063	0.090
-235.844	258.646	0.047	0.080
-234.830	-45.049	-0.014	-0.007
-233.815	-27.727	-0.429	-0.246
-232.800	302.013	0.012	0.021
-231.786	-200.000	-0.001	-0.136
-230.771	-97.324	0.124	-0.032
-229.757	-18.501	0.124	0.077
-228.742	-181.355	0.327	-0.006
-227.727	-68.233	-0.124	0.048
-226.713	800.000	-0.111	-0.332
-225.698	-121.173	-0.095	0.016
-224.684	68.304	-0.155	0.157
-223.669	309.793	-0.096	-0.177
-222.655	-145.360	0.319	-0.028
-221.640	-200.000	-0.046	0.257
-220.625	479.110	-0.055	0.122
-219.611	48.145	-0.153	0.141
-218.596	-200.000	-0.025	0.341
-217.582	53.614	0.139	0.131
-216.567	-78.997	0.069	-0.023
-215.552	-93.443	-0.195	-0.053
-214.538	-57.220	0.456	0.198
-213.523	-142.115	0.200	0.020
-212.509	60.962	0.199	-0.195
-211.494	-200.000	0.004	0.118
-210.479	800.000	-0.040	-0.120
-209.465	-135.961	0.094	-0.011
-208.450	800.000	-0.106	0.426
-207.436	250.232	0.084	-0.140
-206.421	177.372	-0.022	-0.032
-205.406	-153.425	-0.342	0.023
-204.392	-106.152	0.149	0.033
-203.377	800.000	0.012	0.038
-202.363	-128.808	0.228	-0.032
-201.348	768.821	0.029	0.078
-200.333	800.000	-0.066	-0.213
-199.319	15.421	-0.076	-0.059
-198.304	800.000	0.067	-0.236
-197.290	-37.176	0.326	0.172
-196.275	135.782	-0.142	0.182
-195.260	-146.153	0.163	-0.014
-194.246	-82.057	0.123	-0.040
-193.231	-200.000	0.014	0.074
-192.217	-190.547	0.168	0.002
-191.202	-98.928	0.142	-0.036
-190.187	-126.242	0.109	-0.016
-189.173	-192.735	0.291	-0.003
-188.158	53.247	-0.160	0.152
-187.144	55.934	0.110	-0.106
-186.129	-67.135	0.215	-0.084
-185.114	131.772	-0.194	-0.247
-184.100	800.000	-0.021	-0.063
-183.085	513.125	-0.130	0.299
-182.071	-77.069	-0.210	0.072
-181.056	226.357	0.073	0.117
-180.042	255.967	0.079	-0.133
-179.027	-124.147	-0.294	-0.046
-178.012	328.989	0.148	0.280
-176.998	-5.017	-0.357	-0.242
-175.983	65.832	0.071	-0.071
-174.969	-25.302	0.264	0.154
-173.954	65.297	-0.180	0.180
-172.939	800.000	0.070	-0.197
-171.925	-0.827	-0.300	-0.210
-170.910	-34.554	-0.211	0.114
-169.896	800.000	0.100	-0.294
-168.881	-200.000	0.036	-0.225
-167.866	-200.000	0.016	0.157
-166.852	538.165	-0.059	0.138
-165.837	373.508	0.058	0.117
-164.823	-41.274	0.365	0.186
-163.808	-131.720	0.155	0.020
-162.793	-200.000	0.007	0.285
-161.779	-4.798	0.207	0.141
-160.764	43.459	-0.285	0.257
-159.750	248.591	-0.106	0.177
-158.735	-200.000	0.023	-0.317
-157.720	220.199	-0.089	-0.141
-156.706	148.782	-0.131	-0.175
-155.691	143.007	-0.215	-0.281
-154.677	-200.000	0.014	-0.264
-153.662	-65.817	0.143	0.057
-152.647	72.416	0.208	0.214
-151.633	480.572	-0.046	-0.103
-150.618	454.909	0.098	-0.214
-149.604	-45.296	-0.297	0.145
-148.589	10.485	0.225	-0.169
-147.574	201.881	-0.064	0.097
-146.560	174.971	0.002	0.003
-145.545	104.812	-0.276	0.321
-144.531	-127.956	-0.289	-0.041
-143.516	-106.577	-0.107	0.024
-142.502	172.529	-0.103	0.146
-141.487	-12.655	0.024	-0.015
-140.472	57.413	-0.252	0.243
-139.458	74.772	-0.102	0.106
-138.443	104.071	0.086	0.100
-137.429	-200.000	0.018	-0.083
-136.414	184.061	0.172	0.251
-135.399	521.927	0.148	-0.342
-134.385	635.103	0.033	-0.082
-133.370	10.193	-0.288	-0.216
-132.356	542.114	0.038	0.090
-131.341	780.669	-0.058	-0.155
-130.326	541.919	0.131	0.307
-129.312	800.000	-0.100	-0.308
-128.297	800.000	0.111	0.342
-127.283	716.102	0.103	0.270
-126.268	-200.000	-0.046	-0.300
-125.253	-63.592	-0.274	-0.111
-124.239	439.495	0.168	0.361
-123.224	30.557	0.091	-0.077
-122.210	363.839	0.037	0.073
