DTS Sentinel unit serial number:	SN413079Multiplexer serial number:	ORYXHardware model number:	OX4-SRSoftware version number:	ORYX F/W v4.00 Oryx Data Collector v3.7.2.0data status	okinstallation	princeton_trtdifferential loss correction	single-endedforward channel	channel 3reverse channel	N/Adate	2019/09/14time	16:08:35forward acquisition time	60.00reverse acquisition time	0.00gamma	496.2192k internal	0.2295k external	0.2295temperature offset calibration	1.0045default loss term (dB/km)	0.3790temperature slope calibration	1.0000multiplexer offset coefficient	1.0000multiplexer slope coefficient	1.0000fibre end	0.00T internal ref (°C)	38.37T ext. ref 1 (°C)	5.10T ext. ref 2 (°C)	33.02length (m)	temperature (°C)	Stokes	anti-Stokes-747.200	75.475	-0.081	0.088
-746.185	-200.000	0.005	0.147
-745.171	-200.000	-0.027	-0.258
-744.156	581.754	-0.186	0.466
-743.142	95.317	-0.180	0.210
-742.127	553.768	-0.022	0.054
-741.112	59.883	-0.209	-0.211
-740.098	-38.364	0.386	0.209
-739.083	304.528	0.058	-0.109
-738.069	-200.000	0.001	0.007
-737.054	112.081	-0.063	-0.078
-736.039	-200.000	-0.015	0.284
-735.025	395.186	-0.059	-0.125
-734.010	88.305	-0.277	-0.314
-732.996	-200.000	-0.003	0.080
-731.981	800.000	0.057	0.238
-730.966	100.587	0.163	-0.194
-729.952	796.878	0.082	-0.231
-728.937	108.445	-0.156	-0.190
-727.923	-42.544	-0.170	0.089
-726.908	800.000	0.053	-0.190
-725.894	-39.074	-0.125	0.067
-724.879	7.040	-0.163	-0.124
-723.864	70.742	-0.187	-0.198
-722.850	100.316	-0.035	0.041
-721.835	-30.865	-0.269	-0.155
-720.821	94.296	0.014	-0.016
-719.806	-19.157	0.072	-0.046
-718.791	-12.623	-0.235	0.156
-717.777	-190.482	-0.254	0.003
-716.762	-136.210	-0.199	-0.024
-715.748	350.478	-0.215	-0.433
-714.733	-182.428	-0.286	-0.005
-713.718	630.443	-0.031	-0.080
-712.704	50.754	0.134	0.130
-711.689	722.346	-0.052	-0.142
-710.675	524.357	-0.192	-0.461
-709.660	800.000	0.076	-0.221
-708.645	12.335	-0.081	0.064
-707.631	18.363	-0.177	-0.144
-706.616	800.000	0.047	0.212
-705.602	-200.000	-0.019	-0.141
-704.587	-127.052	0.086	-0.013
-703.572	287.807	0.106	0.197
-702.558	611.754	-0.106	0.271
-701.543	800.000	0.074	-0.240
-700.529	-200.000	-0.002	0.093
-699.514	765.797	-0.029	0.081
-698.499	-200.000	-0.038	-0.231
-697.485	765.385	-0.054	-0.151
-696.470	-170.922	0.168	-0.006
-695.456	-200.000	-0.052	-0.346
-694.441	-67.556	-0.230	-0.092
-693.426	-14.803	0.065	0.043
-692.412	42.858	0.142	-0.132
-691.397	136.530	-0.118	-0.158
-690.383	92.582	0.031	-0.036
-689.368	93.269	-0.058	-0.067
-688.354	800.000	0.037	0.150
-687.339	-200.000	-0.018	-0.083
-686.324	512.430	0.086	-0.203
-685.310	276.353	-0.207	-0.375
-684.295	-66.088	-0.229	-0.093
-683.281	32.192	0.442	-0.388
-682.266	301.239	0.069	-0.130
-681.251	195.129	0.193	-0.298
-680.237	-14.680	0.155	-0.102
-679.222	-151.121	0.130	-0.010
-678.208	-92.740	-0.300	-0.086
-677.193	-195.287	0.274	-0.002
-676.178	800.000	-0.022	0.084
-675.164	61.753	-0.158	0.160
-674.149	-108.805	0.277	-0.060
-673.135	-113.618	-0.148	-0.030
-672.120	-56.156	-0.107	0.049
-671.105	16.906	-0.350	0.282
-670.091	-200.000	0.004	0.105
-669.076	-97.170	-0.264	-0.070
-668.062	800.000	-0.122	-0.432
-667.047	-200.000	-0.042	-0.299
-666.032	8.045	-0.096	-0.073
-665.018	-200.000	-0.055	0.255
-664.003	5.529	-0.145	0.109
-662.989	800.000	0.060	-0.185
-661.974	-200.000	0.019	0.137
-660.959	-16.434	0.161	-0.104
-659.945	-14.605	0.091	0.060
-658.930	409.717	-0.121	-0.261
-657.916	-75.377	-0.383	-0.139
-656.901	164.403	0.142	0.204
-655.886	800.000	0.050	-0.204
-654.872	257.615	0.100	-0.174
-653.857	108.197	0.253	0.308
-652.843	80.875	-0.260	-0.286
-651.828	-157.330	-0.030	-0.002
-650.814	-200.000	0.007	-0.044
-649.799	-49.943	-0.385	-0.186
-648.784	-78.054	0.103	-0.036
-647.770	-99.305	-0.177	-0.045
-646.755	800.000	0.017	-0.049
-645.741	800.000	0.052	-0.164
-644.726	-200.000	0.002	0.033
-643.711	-85.367	-0.016	-0.005
-642.697	27.476	-0.219	-0.188
-641.682	-112.487	-0.124	-0.025
-640.668	76.054	-0.304	0.327
-639.653	144.923	-0.114	-0.155
-638.638	9.664	-0.194	-0.150
-637.624	-23.810	-0.174	0.106
-636.609	93.256	-0.173	0.199
-635.595	46.421	0.033	-0.031
-634.580	21.873	-0.142	-0.117
-633.565	-200.000	-0.005	-0.101
-632.551	534.119	0.114	-0.274
-631.536	-200.000	-0.020	-0.281
-630.522	117.722	-0.150	0.187
-629.507	457.837	-0.081	-0.183
-628.492	-138.421	0.175	-0.020
-627.478	800.000	-0.067	0.289
-626.463	-200.000	-0.001	-0.398
-625.449	-104.332	-0.091	0.021
-624.434	-89.781	0.062	0.018
-623.419	800.000	-0.048	-0.201
-622.405	-200.000	0.069	-0.323
-621.390	-83.087	0.033	0.011
-620.376	791.882	-0.056	0.157
-619.361	-97.313	0.036	0.010
-618.346	-111.034	-0.323	0.067
-617.332	-16.060	-0.205	-0.132
-616.317	132.967	-0.155	-0.204
-615.303	-22.512	0.322	0.198
-614.288	-6.376	-0.038	-0.026
-613.273	-27.623	-0.286	0.169
-612.259	-200.000	-0.032	-0.243
-611.244	-128.340	-0.445	-0.064
-610.230	20.774	0.215	0.177
-609.215	113.336	-0.154	-0.189
-608.201	-157.532	-0.229	-0.014
-607.186	237.786	0.064	0.108
-606.171	178.290	0.017	0.025
-605.157	-39.996	-0.316	0.168
-604.142	800.000	-0.035	-0.123
-603.128	-72.058	0.124	0.047
-602.113	311.573	0.068	-0.130
-601.098	-125.356	0.150	-0.023
-600.084	-104.700	0.180	0.042
-599.069	-12.789	-0.107	0.071
-598.055	11.546	0.323	0.251
-597.040	-106.993	-0.196	-0.044
-596.025	40.521	0.209	-0.191
-595.011	-11.809	-0.105	0.070
-593.996	2.155	-0.204	0.150
-592.982	332.053	-0.119	-0.233
-591.967	3.349	-0.055	0.040
-590.952	-200.000	0.015	0.124
-589.938	-200.000	-0.021	-0.113
-588.923	-113.243	-0.120	-0.024
-587.909	-65.106	0.085	0.035
-586.894	-58.638	-0.124	0.055
-585.879	214.135	-0.202	0.324
-584.865	-200.000	0.058	-0.304
-583.850	-106.423	-0.200	-0.045
-582.836	41.959	0.090	-0.083
-581.821	-31.737	-0.091	0.052
-580.806	78.930	-0.116	0.126
-579.792	209.235	0.244	0.389
-578.777	88.878	-0.036	0.040
-577.763	-20.384	-0.258	-0.161
-576.748	-5.052	0.401	-0.280
-575.733	-118.526	-0.356	0.064
-574.719	-200.000	0.027	-0.128
-573.704	319.757	-0.034	0.065
-572.690	193.096	0.074	-0.113
-571.675	-4.373	0.125	0.087
-570.661	-200.000	-0.018	-0.140
-569.646	177.994	0.129	-0.191
-568.631	-200.000	0.005	0.297
-567.617	-200.000	0.024	-0.147
-566.602	-141.260	-0.340	0.035
-565.588	11.075	0.222	0.172
-564.573	-200.000	-0.026	-0.149
-563.558	800.000	0.039	-0.153
-562.544	53.854	0.352	0.343
-561.529	800.000	-0.015	0.049
-560.515	-200.000	0.015	-0.604
-559.500	800.000	0.020	0.083
-558.485	-3.319	0.075	-0.053
-557.471	-99.320	-0.363	0.093
-556.456	-200.000	-0.066	-0.398
-555.442	9.654	-0.222	-0.171
-554.427	149.359	-0.151	0.207
-553.412	247.789	0.029	-0.050
-552.398	49.223	-0.144	-0.137
-551.383	-200.000	0.027	-0.308
-550.369	-200.000	-0.018	-0.108
-549.354	-35.517	0.236	0.130
-548.339	200.332	-0.131	-0.204
-547.325	281.115	0.225	-0.409
-546.310	426.022	-0.103	-0.225
-545.296	-200.000	-0.078	-0.367
-544.281	738.479	0.098	-0.267
-543.266	-200.000	-0.029	0.135
-542.252	191.299	0.015	-0.023
-541.237	-128.090	-0.387	0.056
-540.223	193.054	0.065	-0.099
-539.208	-200.000	-0.042	-0.425
-538.193	-200.000	-0.005	-0.177
-537.179	-104.753	-0.200	0.047
-536.164	-139.186	-0.123	-0.013
-535.150	-200.000	-0.000	-0.060
-534.135	402.255	-0.168	0.358
-533.121	800.000	-0.060	-0.169
-532.106	-91.196	0.264	0.077
-531.091	136.381	0.272	0.359
-530.077	-99.558	-0.198	0.050
-529.062	62.704	0.207	-0.210
-528.048	-6.821	-0.274	-0.189
-527.033	72.656	-0.184	-0.194
-526.018	58.798	-0.106	-0.105
-525.004	-200.000	-0.002	0.097
-523.989	-91.269	0.120	0.035
-522.975	127.419	-0.187	-0.241
-521.960	-112.496	0.145	-0.029
-520.945	-200.000	0.046	-0.349
-519.931	-200.000	0.058	0.300
-518.916	-200.000	-0.012	0.232
-517.902	-29.362	-0.155	-0.090
-516.887	800.000	-0.054	-0.162
-515.872	-200.000	-0.042	0.230
-514.858	-200.000	-0.068	-0.403
-513.843	361.242	0.172	0.350
-512.829	51.305	0.023	-0.023
-511.814	57.635	-0.191	0.189
-510.799	-187.980	0.160	-0.002
-509.785	-101.934	-0.129	-0.032
-508.770	800.000	-0.070	0.206
-507.756	-12.739	0.154	0.102
-506.741	232.608	-0.212	0.353
-505.726	-200.000	0.028	-0.128
-504.712	234.714	-0.204	0.342
-503.697	31.421	-0.158	0.138
-502.683	-60.101	0.117	-0.050
-501.668	-43.068	0.158	0.081
-500.653	179.517	0.108	0.159
-499.639	800.000	-0.172	0.582
-498.624	-200.000	0.014	-0.306
-497.610	588.128	0.125	0.313
-496.595	-178.094	0.322	-0.008
-495.581	39.099	-0.174	-0.157
-494.566	17.411	0.172	0.138
-493.551	-200.000	-0.000	-0.157
-492.537	100.965	-0.114	0.134
-491.522	800.000	0.036	0.103
-490.508	62.954	-0.386	-0.392
-489.493	99.919	-0.211	-0.248
-488.478	148.672	0.285	0.390
-487.464	-23.001	0.145	-0.088
-486.449	-167.342	-0.259	-0.011
-485.435	133.248	-0.056	0.073
-484.420	800.000	0.059	-0.222
-483.405	69.839	-0.203	0.212
-482.391	-66.941	0.282	0.113
-481.376	800.000	0.095	0.305
-480.362	177.952	0.123	0.182
-479.347	-21.027	-0.186	0.115
-478.332	303.570	0.139	0.261
-477.318	28.935	0.244	-0.209
-476.303	-88.794	-0.457	-0.137
-475.289	-151.260	-0.636	-0.048
-474.274	195.959	0.031	0.048
-473.259	108.368	-0.257	-0.310
-472.245	407.672	0.034	0.073
-471.230	-166.759	0.066	0.003
-470.216	490.540	-0.166	-0.384
-469.201	2.936	-0.084	-0.061
-468.186	800.000	0.019	-0.080
-467.172	-168.095	-0.240	0.009
-466.157	-55.571	0.079	-0.036
-465.143	-29.691	0.174	0.100
-464.128	-43.630	-0.160	-0.082
-463.113	65.513	0.139	0.142
-462.099	522.521	0.173	-0.411
-461.084	800.000	0.023	-0.080
-460.070	-96.880	-0.183	-0.049
-459.055	-102.068	0.406	-0.099
-458.040	55.695	-0.308	-0.302
-457.026	299.754	0.130	0.243
-456.011	-55.758	0.417	-0.188
-454.997	800.000	-0.050	0.153
-453.982	-200.000	0.014	-0.103
-452.968	112.555	0.213	-0.261
-451.953	18.986	-0.192	-0.155
-450.938	800.000	0.085	-0.241
-449.924	-129.892	-0.177	-0.024
-448.909	800.000	0.111	-0.386
-447.895	415.024	-0.142	-0.306
-446.880	-65.513	0.258	0.104
-445.865	-89.138	-0.205	-0.061
-444.851	-200.000	0.002	-0.133
-443.836	-157.702	-0.153	-0.009
-442.822	123.176	-0.065	-0.082
-441.807	-142.325	-0.103	-0.010
-440.792	289.185	0.094	0.172
-439.778	-29.634	0.296	-0.171
-438.763	-200.000	-0.064	0.333
-437.749	800.000	0.054	-0.165
-436.734	-163.138	0.078	0.004
-435.719	-200.000	0.024	0.142
-434.705	800.000	0.020	0.081
-433.690	800.000	0.031	0.130
-432.676	-165.686	0.246	0.011
-431.661	-200.000	0.040	0.312
-430.646	84.324	-0.261	-0.288
-429.632	-110.060	-0.128	0.027
-428.617	-101.218	-0.288	-0.071
-427.603	45.108	0.226	0.210
-426.588	147.170	0.081	-0.110
-425.573	66.981	0.051	0.052
-424.559	43.619	-0.156	0.144
-423.544	-133.375	0.257	0.033
-422.530	-54.101	-0.127	0.058
-421.515	668.144	0.114	0.298
-420.500	-132.241	-0.305	0.040
-419.486	-186.137	0.180	0.003
-418.471	-108.892	0.109	0.024
-417.457	-135.419	0.302	-0.036
-416.442	316.183	0.086	-0.164
-415.428	-200.000	-0.047	0.221
-414.413	245.919	0.110	-0.186
-413.398	162.997	0.149	0.211
-412.384	198.767	0.277	0.427
-411.369	-200.000	0.077	0.404
-410.355	34.228	0.084	0.074
-409.340	42.011	0.172	0.158
-408.325	800.000	-0.123	-0.403
-407.311	-200.000	0.044	0.353
-406.296	800.000	-0.059	-0.249
-405.282	-200.000	-0.012	-0.129
-404.267	-200.000	-0.004	0.167
-403.252	-200.000	0.063	-0.336
-402.238	10.374	0.011	0.008
-401.223	800.000	0.085	0.275
-400.209	-170.614	-0.062	0.002
-399.194	-200.000	-0.014	-0.107
-398.179	-69.163	-0.226	0.088
-397.165	38.535	0.207	-0.187
-396.150	-102.210	-0.126	0.030
-395.136	-63.689	0.306	0.126
-394.121	372.685	0.106	-0.217
-393.106	-200.000	-0.040	0.342
-392.092	425.741	0.089	-0.193
-391.077	95.636	-0.139	-0.160
-390.063	41.898	0.110	-0.100
-389.048	-200.000	0.004	0.161
-388.033	27.395	0.168	-0.143
-387.019	-115.960	0.172	-0.032
-386.004	-150.406	-0.347	0.027
-384.990	86.255	0.169	0.188
-383.975	-117.981	0.078	-0.014
-382.960	281.535	0.053	-0.095
-381.946	-62.843	-0.212	-0.088
-380.931	-56.047	-0.150	-0.067
-379.917	-11.777	0.287	0.190
-378.902	66.311	0.151	-0.154
-377.888	-167.076	-0.392	0.016
-376.873	800.000	-0.078	-0.321
-375.858	-176.440	0.055	0.001
-374.844	-200.000	-0.031	-0.182
-373.829	-38.584	0.488	0.260
-372.815	-98.523	0.384	0.099
-371.800	-172.390	0.224	-0.007
-370.785	-200.000	-0.008	-0.058
-369.771	800.000	0.044	0.167
-368.756	800.000	0.040	0.130
-367.742	294.297	0.134	-0.247
-366.727	-200.000	0.013	-0.118
-365.712	800.000	-0.199	-0.625
-364.698	800.000	-0.044	0.182
-363.683	205.996	0.038	0.059
-362.669	800.000	0.069	-0.251
-361.654	-200.000	-0.058	0.320
-360.639	-80.240	0.140	-0.047
-359.625	-200.000	-0.072	-0.352
-358.610	33.887	0.248	0.217
-357.596	460.447	0.096	-0.216
-356.581	159.693	0.171	0.240
-355.566	-12.786	0.107	-0.070
-354.552	171.508	0.102	-0.147
-353.537	199.369	-0.116	0.178
-352.523	68.863	0.179	0.185
-351.508	723.695	-0.047	0.127
-350.493	57.992	-0.039	-0.038
-349.479	196.374	-0.088	-0.135
-348.464	96.395	-0.092	-0.106
-347.450	-164.780	-0.181	-0.008
-346.435	69.648	-0.025	-0.026
-345.420	-200.000	-0.021	0.122
-344.406	216.184	0.240	0.383
-343.391	224.119	-0.188	0.305
-342.377	-200.000	0.017	-0.103
-341.362	-200.000	-0.019	-0.280
-340.348	379.021	0.026	0.054
-339.333	65.165	0.146	-0.148
-338.318	800.000	-0.071	-0.211
-337.304	161.834	-0.175	0.247
-336.289	-71.727	-0.278	0.104
-335.275	-200.000	0.033	0.391
-334.260	259.033	0.059	0.103
-333.245	395.161	-0.081	0.169
-332.231	-61.818	-0.273	-0.115
-331.216	46.605	0.305	-0.284
-330.202	-43.469	-0.418	0.212
-329.187	800.000	0.032	-0.113
-328.172	114.439	0.158	-0.194
-327.158	33.811	-0.166	0.145
-326.143	188.115	-0.129	-0.194
-325.129	-200.000	-0.084	-0.554
-324.114	173.316	-0.097	0.141
-323.099	433.578	-0.112	0.244
-322.085	227.766	0.116	0.190
-321.070	272.288	0.237	0.421
-320.056	-200.000	-0.013	0.262
-319.041	22.244	0.103	0.084
-318.026	-146.467	-0.298	0.026
-317.012	245.158	-0.022	-0.037
-315.997	-54.463	-0.311	0.142
-314.983	476.379	-0.086	0.195
-313.968	-179.025	0.269	-0.006
-312.953	-89.950	-0.338	-0.099
-311.939	-200.000	-0.021	-0.098
-310.924	507.049	0.031	0.073
-309.910	-200.000	0.012	-0.143
-308.895	-12.933	0.365	-0.239
-307.880	62.925	0.178	-0.179
-306.866	-200.000	-0.021	0.163
-305.851	-200.000	-0.002	0.061
-304.837	-79.563	-0.039	0.013
-303.822	-76.673	-0.094	0.033
-302.807	29.985	0.108	0.092
-301.793	-152.304	-0.211	-0.015
-300.778	-45.132	0.276	-0.138
-299.764	235.693	0.169	0.280
-298.749	71.172	0.099	0.103
-297.735	43.802	0.124	-0.114
-296.720	28.612	-0.231	0.196
-295.705	-94.991	0.159	0.043
-294.691	-116.593	-0.370	0.068
-293.676	49.949	0.011	-0.011
-292.662	-135.825	-0.321	0.038
-291.647	-200.000	-0.037	0.325
-290.632	7.195	0.251	-0.188
-289.618	-25.560	-0.282	0.167
-288.603	-106.656	0.087	0.019
-287.589	-200.000	-0.026	-0.131
-286.574	-200.000	0.031	0.145
-285.559	-83.263	0.208	-0.067
-284.545	-104.848	-0.063	-0.014
-283.530	800.000	0.100	0.284
-282.516	76.239	0.212	0.225
-281.501	1.076	-0.195	0.140
-280.486	-46.980	0.339	0.166
-279.472	-83.324	-0.187	-0.060
-278.457	81.518	0.269	0.292
-277.443	191.647	0.158	-0.239
-276.428	515.962	0.060	-0.140
-275.413	-83.876	-0.099	-0.032
-274.399	293.027	-0.128	0.234
-273.384	725.358	0.036	-0.096
-272.370	800.000	0.053	-0.228
-271.355	-145.071	0.127	-0.012
-270.340	486.158	-0.082	-0.188
-269.326	-200.000	0.020	0.156
-268.311	77.980	-0.119	-0.127
-267.297	-146.784	-0.406	-0.035
-266.282	321.118	0.187	0.356
-265.267	106.786	-0.254	0.303
-264.253	270.339	0.057	-0.100
-263.238	800.000	-0.070	-0.256
-262.224	-40.126	0.151	-0.079
-261.209	-130.915	-0.212	0.028
-260.195	-92.304	0.189	0.053
-259.180	13.460	-0.107	-0.083
-258.165	280.226	-0.057	-0.103
-257.151	182.775	0.078	-0.116
-256.136	269.270	0.019	-0.034
-255.122	-0.025	-0.160	-0.114
-254.107	-121.615	-0.084	0.014
-253.092	-6.071	-0.139	-0.095
-252.078	-67.427	0.283	0.111
-251.063	800.000	-0.033	0.112
-250.049	-200.000	0.008	0.039
-249.034	149.307	0.162	0.220
-248.019	696.818	-0.085	-0.224
-247.005	260.629	0.124	0.215
-245.990	-143.009	0.087	0.008
-244.976	-126.605	0.445	0.066
-243.961	-19.321	0.068	-0.042
-242.946	219.149	-0.070	0.112
-241.932	84.261	0.105	0.115
-240.917	-24.365	0.132	0.079
-239.903	-90.133	0.226	0.066
-238.888	-17.527	-0.141	0.089
-237.873	698.266	0.074	0.195
-236.859	248.319	-0.173	0.293
-235.844	-88.721	0.202	0.060
-234.830	-36.388	-0.258	0.140
-233.815	-124.888	-0.286	0.044
-232.800	391.368	0.121	-0.252
-231.786	-200.000	-0.047	-0.283
-230.771	-160.259	-0.205	0.011
-229.757	-20.559	0.095	0.059
-228.742	-135.138	0.256	-0.031
-227.727	800.000	-0.151	0.426
-226.713	361.669	-0.176	0.353
-225.698	-95.623	-0.168	-0.045
-224.684	-200.000	0.014	0.071
-223.669	587.020	-0.010	-0.023
-222.655	-68.853	-0.041	0.016
-221.640	-133.991	0.312	-0.039
-220.625	-2.751	0.109	0.077
-219.611	-129.234	-0.103	0.014
-218.596	-116.286	-0.470	-0.087
-217.582	-200.000	0.047	0.231
-216.567	3.465	-0.233	0.170
-215.552	-95.290	-0.286	0.077
-214.538	-114.184	0.152	-0.029
-213.523	-200.000	-0.030	0.286
-212.509	271.857	0.058	-0.103
-211.494	-142.522	0.446	0.044
-210.479	69.097	0.056	-0.058
-209.465	-200.000	-0.118	0.001
-208.450	-127.428	0.110	0.016
-207.436	313.659	-0.117	0.221
-206.421	636.852	0.145	-0.368
-205.406	51.056	0.059	-0.056
-204.392	-34.726	-0.101	-0.055
-203.377	-200.000	-0.026	-0.175
-202.363	-200.000	0.006	-0.265
-201.348	-68.264	0.195	0.076
-200.333	-91.293	0.503	0.144
-199.319	-71.741	0.104	0.039
-198.304	-199.252	0.030	-0.000
-197.290	290.959	0.098	-0.179
-196.275	-27.351	0.045	-0.026
-195.260	800.000	0.039	0.156
-194.246	229.735	0.213	-0.349
-193.231	-135.959	0.163	-0.019
-192.217	-98.724	-0.088	-0.022
-191.202	-93.871	-0.471	-0.130
-190.187	-200.000	0.035	-0.279
-189.173	-40.715	-0.207	0.107
-188.158	-137.188	-0.200	0.023
-187.144	55.164	-0.209	-0.202
-186.129	-87.127	0.052	0.016
-185.114	-200.000	-0.022	0.104
-184.100	-200.000	-0.007	-0.055
-183.085	800.000	0.084	0.306
-182.071	262.955	0.036	0.063
-181.056	-52.007	-0.084	0.039
-180.042	-200.000	-0.008	0.200
-179.027	-95.817	0.162	0.043
-178.012	-200.000	0.002	0.099
-176.998	800.000	0.031	0.119
-175.983	800.000	0.078	-0.279
-174.969	12.451	-0.062	-0.048
-173.954	224.811	0.146	-0.236
-172.939	-40.280	0.206	0.107
-171.925	-162.622	0.105	0.005
-170.910	-135.941	0.472	0.056
-169.896	-200.000	0.022	0.203
-168.881	-59.923	0.193	0.083
-167.866	62.702	0.230	-0.230
-166.852	66.570	0.134	-0.136
-165.837	-200.000	0.053	0.343
-164.823	800.000	0.083	0.243
-163.808	-132.149	-0.169	-0.022
-162.793	14.990	0.315	-0.246
-161.779	-6.695	-0.300	-0.204
-160.764	-63.649	0.192	-0.079
-159.750	800.000	0.065	0.243
-158.735	-200.000	0.029	-0.234
-157.720	-124.013	-0.128	-0.020
-156.706	148.810	0.087	-0.118
-155.691	53.997	0.326	0.313
-154.677	-82.949	0.328	0.106
-153.662	-200.000	0.006	0.070
-152.647	-22.994	0.068	-0.041
-151.633	345.394	0.173	0.339
-150.618	166.953	0.132	0.186
-149.604	42.680	-0.093	0.085
-148.589	4.355	-0.294	-0.215
-147.574	800.000	0.046	0.149
-146.560	476.096	0.041	0.092
-145.545	-78.466	-0.227	0.078
-144.531	-127.584	0.193	-0.028
-143.516	669.317	-0.046	0.118
-142.502	-98.205	0.033	0.008
-141.487	800.000	0.081	-0.334
-140.472	-62.895	0.138	0.057
-139.458	53.955	0.235	-0.225
-138.443	8.809	-0.455	0.342
-137.429	-1.743	-0.480	0.338
-136.414	47.444	0.022	-0.021
-135.399	118.545	-0.190	-0.234
-134.385	-160.123	0.483	0.026
-133.370	800.000	-0.067	0.220
-132.356	88.993	0.159	0.177
-131.341	142.418	-0.153	-0.202
-130.326	26.465	0.092	-0.077
-129.312	-200.000	-0.021	-0.269
-128.297	-200.000	0.027	-0.166
-127.283	-124.862	-0.148	-0.023
-126.268	29.886	0.161	0.137
-125.253	-109.017	0.275	0.059
-124.239	-38.900	0.114	0.060
-123.224	362.616	0.042	-0.084
-122.210	209.374	0.310	-0.484
-121.195	-24.672	0.057	0.034
