DTS Sentinel unit serial number:	SN413079Multiplexer serial number:	ORYXHardware model number:	OX4-SRSoftware version number:	ORYX F/W v4.00 Oryx Data Collector v3.7.2.0data status	okinstallation	princeton_trtdifferential loss correction	single-endedforward channel	channel 3reverse channel	N/Adate	2019/09/14time	00:44:35forward acquisition time	60.00reverse acquisition time	0.00gamma	496.2192k internal	0.2340k external	0.2340temperature offset calibration	1.0056default loss term (dB/km)	0.3790temperature slope calibration	1.0000multiplexer offset coefficient	1.0000multiplexer slope coefficient	1.0000fibre end	0.00T internal ref (°C)	26.42T ext. ref 1 (°C)	3.17T ext. ref 2 (°C)	21.05length (m)	temperature (°C)	Stokes	anti-Stokes-747.200	-69.748	0.338	0.130
-746.185	-200.000	-0.040	0.389
-745.171	263.309	0.091	0.158
-744.156	56.852	-0.279	0.272
-743.142	-95.385	-0.027	0.007
-742.127	45.776	0.208	-0.193
-741.112	-200.000	0.014	0.249
-740.098	766.672	-0.105	0.286
-739.083	279.297	0.031	0.055
-738.069	-200.000	-0.020	0.154
-737.054	249.000	-0.133	-0.226
-736.039	-200.000	-0.015	-0.127
-735.025	800.000	-0.025	-0.098
-734.010	44.212	-0.356	-0.327
-732.996	513.691	-0.097	0.226
-731.981	-78.076	-0.328	0.113
-730.966	800.000	0.078	-0.225
-729.952	379.880	-0.124	-0.255
-728.937	-86.134	-0.309	0.096
-727.923	672.809	0.093	0.242
-726.908	800.000	0.052	-0.192
-725.894	-92.439	0.258	-0.073
-724.879	583.472	-0.037	0.091
-723.864	-38.975	0.125	0.066
-722.850	-120.673	-0.427	-0.072
-721.835	-54.553	-0.294	0.133
-720.821	790.749	-0.199	-0.547
-719.806	144.084	-0.162	-0.216
-718.791	200.222	-0.150	0.231
-717.777	-200.000	0.046	-0.247
-716.762	-200.000	-0.057	-0.326
-715.748	-200.000	-0.002	0.291
-714.733	800.000	-0.101	0.371
-713.718	421.516	0.147	-0.317
-712.704	-107.120	0.142	0.031
-711.689	233.520	0.065	0.107
-710.675	-48.487	-0.251	-0.121
-709.660	227.692	0.127	0.206
-708.645	-200.000	-0.046	-0.261
-707.631	523.041	-0.099	0.233
-706.616	-139.312	-0.298	0.032
-705.602	-200.000	0.007	-0.236
-704.587	-5.775	0.119	0.081
-703.572	-47.868	-0.247	-0.120
-702.558	-56.395	-0.314	-0.140
-701.543	202.344	0.153	-0.237
-700.529	-82.388	0.109	-0.035
-699.514	38.785	-0.244	0.218
-698.499	-36.617	0.152	0.082
-697.485	-200.000	-0.015	-0.228
-696.470	-200.000	-0.020	-0.217
-695.456	-36.316	-0.052	-0.028
-694.441	227.447	-0.015	0.024
-693.426	10.088	-0.223	0.170
-692.412	272.080	-0.092	-0.162
-691.397	800.000	0.043	-0.144
-690.383	-98.307	-0.134	0.034
-689.368	-91.189	-0.362	0.104
-688.354	800.000	-0.039	-0.160
-687.339	53.578	-0.397	-0.381
-686.324	-104.223	-0.233	0.054
-685.310	-37.022	0.060	0.032
-684.295	353.241	0.032	-0.064
-683.281	-69.427	-0.264	-0.101
-682.266	712.128	-0.126	-0.334
-681.251	52.274	-0.151	0.144
-680.237	351.916	-0.083	0.164
-679.222	-152.554	0.283	-0.020
-678.208	-69.895	0.266	0.101
-677.193	72.594	0.238	-0.249
-676.178	-141.724	0.139	0.014
-675.164	800.000	0.020	-0.087
-674.149	205.565	-0.099	0.154
-673.135	66.296	-0.066	0.067
-672.120	214.999	0.067	-0.106
-671.105	411.440	0.108	-0.230
-670.091	-200.000	-0.001	-0.046
-669.076	52.216	-0.196	0.187
-668.062	470.268	0.102	0.228
-667.047	-79.529	0.136	-0.046
-666.032	-16.714	0.264	-0.167
-665.018	800.000	-0.038	-0.149
-664.003	-69.483	-0.190	-0.073
-662.989	-200.000	0.132	0.604
-661.974	28.504	0.092	0.078
-660.959	-111.935	0.112	0.023
-659.945	52.759	-0.271	-0.259
-658.930	-72.762	0.061	-0.022
-657.916	638.142	0.062	-0.157
-656.901	318.925	-0.055	-0.104
-655.886	-97.371	-0.472	-0.123
-654.872	-106.430	0.168	-0.038
-653.857	-4.873	0.193	-0.133
-652.843	-18.780	0.476	-0.296
-651.828	80.750	-0.093	0.100
-650.814	139.863	0.342	-0.451
-649.799	57.765	0.156	-0.153
-648.784	-30.640	-0.102	0.058
-647.770	-28.094	0.221	0.128
-646.755	417.009	0.080	0.170
-645.741	-200.000	0.046	-0.312
-644.726	58.867	-0.211	0.207
-643.711	-200.000	-0.023	-0.104
-642.697	-1.527	-0.115	-0.081
-641.682	759.921	-0.091	0.247
-640.668	321.478	0.199	-0.377
-639.653	68.946	-0.244	0.251
-638.638	8.882	0.178	-0.134
-637.624	-159.970	0.195	-0.011
-636.609	-142.064	-0.271	0.027
-635.595	-200.000	-0.016	0.158
-634.580	-132.099	0.437	-0.057
-633.565	-89.138	-0.172	0.051
-632.551	800.000	0.018	0.072
-631.536	69.626	0.161	-0.166
-630.522	759.876	-0.059	0.159
-629.507	-18.749	0.088	-0.055
-628.492	800.000	0.002	-0.006
-627.478	-113.770	0.184	-0.036
-626.463	-35.342	-0.189	0.102
-625.449	40.339	-0.121	-0.109
-624.434	120.327	-0.163	0.202
-623.419	56.553	0.206	0.200
-622.405	-200.000	-0.013	0.173
-621.390	196.922	-0.038	-0.058
-620.376	-156.614	0.130	-0.008
-619.361	58.589	0.115	0.112
-618.346	-88.453	0.268	-0.080
-617.332	37.266	-0.129	-0.114
-616.317	498.730	-0.043	0.098
-615.303	-200.000	-0.054	0.237
-614.288	-30.516	-0.206	-0.117
-613.273	800.000	-0.111	0.315
-612.259	-52.759	-0.477	-0.220
-611.244	-200.000	-0.011	0.201
-610.230	76.748	0.016	-0.017
-609.215	-43.696	-0.354	0.178
-608.201	-200.000	-0.008	0.279
-607.186	64.891	0.171	-0.172
-606.171	-117.358	-0.319	-0.058
-605.157	-109.569	0.366	-0.077
-604.142	-31.949	0.148	-0.083
-603.128	-91.766	-0.169	0.048
-602.113	-157.443	-0.144	-0.009
-601.098	-200.000	-0.027	-0.227
-600.084	-60.802	-0.154	-0.065
-599.069	73.870	-0.140	-0.147
-598.055	-118.850	0.274	-0.048
-597.040	800.000	0.142	0.417
-596.025	-60.618	0.057	-0.024
-595.011	-99.565	-0.075	0.019
-593.996	124.095	-0.062	0.078
-592.982	161.627	0.240	0.335
-591.967	31.149	-0.117	0.100
-590.952	-200.000	0.055	0.253
-589.938	258.907	-0.129	-0.221
-588.923	-47.869	-0.188	-0.091
-587.909	76.584	-0.056	-0.060
-586.894	-113.500	0.073	-0.014
-585.879	-174.279	-0.158	0.005
-584.865	-74.284	-0.103	0.037
-583.850	-95.171	-0.201	0.054
-582.836	40.316	-0.162	-0.145
-581.821	20.883	-0.083	-0.067
-580.806	-47.692	-0.138	-0.067
-579.792	-108.397	0.166	0.036
-578.777	-78.118	-0.171	-0.059
-577.763	455.624	-0.121	0.267
-576.748	2.916	0.048	0.034
-575.733	-102.155	-0.197	0.047
-574.719	-89.386	-0.425	-0.125
-573.704	800.000	-0.087	-0.281
-572.690	-200.000	-0.044	-0.257
-571.675	150.464	-0.174	-0.235
-570.661	-48.152	-0.226	0.109
-569.646	-168.522	-0.239	-0.009
-568.631	-91.314	-0.417	0.119
-567.617	-135.728	0.073	0.009
-566.602	-114.877	0.038	0.007
-565.588	70.822	0.131	-0.135
-564.573	145.429	0.254	0.339
-563.558	-200.000	0.010	-0.045
-562.544	120.336	-0.177	-0.218
-561.529	-200.000	-0.026	-0.316
-560.515	57.334	-0.247	-0.240
-559.500	5.866	0.261	-0.192
-558.485	-200.000	-0.019	-0.141
-557.471	800.000	-0.046	-0.161
-556.456	-200.000	-0.043	-0.361
-555.442	645.349	0.080	-0.204
-554.427	-95.597	0.334	-0.089
-553.412	10.494	-0.174	-0.132
-552.398	800.000	0.059	0.208
-551.383	-21.679	-0.212	0.129
-550.369	-98.186	0.330	0.084
-549.354	800.000	-0.053	0.178
-548.339	-200.000	-0.022	-0.122
-547.325	-127.961	0.016	-0.002
-546.310	63.321	-0.065	-0.065
-545.296	-106.090	0.354	-0.079
-544.281	-200.000	-0.006	-0.096
-543.266	-100.826	-0.375	0.092
-542.252	-11.225	0.171	-0.112
-541.237	-39.214	-0.085	-0.045
-540.223	657.256	-0.052	-0.134
-539.208	800.000	-0.071	0.209
-538.193	504.293	-0.134	-0.309
-537.179	-135.921	0.309	-0.036
-536.164	-73.336	-0.283	-0.103
-535.150	-26.653	-0.095	0.056
-534.135	-44.051	-0.183	-0.091
-533.121	800.000	-0.092	-0.331
-532.106	-100.988	-0.393	-0.096
-531.091	9.378	0.246	-0.185
-530.077	108.644	0.151	-0.179
-529.062	-116.907	-0.191	0.035
-528.048	371.871	0.041	0.083
-527.033	217.485	-0.218	0.345
-526.018	800.000	0.038	-0.122
-525.004	-141.726	0.374	0.037
-523.989	69.015	-0.155	0.158
-522.975	-47.907	-0.181	-0.087
-521.960	-166.681	-0.145	0.006
-520.945	148.012	0.064	-0.085
-519.931	-38.244	-0.144	-0.076
-518.916	-98.837	0.090	0.023
-517.902	122.786	0.070	0.087
-516.887	324.280	0.079	0.150
-515.872	-153.675	0.073	-0.005
-514.858	-200.000	-0.029	-0.246
-513.843	239.589	0.027	-0.045
-512.829	-109.917	0.160	-0.033
-511.814	509.293	0.004	0.009
-510.799	800.000	-0.055	0.183
-509.785	-33.858	0.263	-0.144
-508.770	-145.057	-0.206	-0.019
-507.756	48.325	-0.377	0.351
-506.741	568.876	0.082	0.197
-505.726	-45.371	0.078	0.038
-504.712	-156.359	-0.078	0.005
-503.697	-127.558	-0.154	0.022
-502.683	-120.519	0.168	-0.028
-501.668	-200.000	0.046	0.260
-500.653	19.826	0.050	-0.040
-499.639	-200.000	0.001	0.172
-498.624	800.000	0.063	0.232
-497.610	336.232	0.084	-0.162
-496.595	-12.985	-0.125	0.081
-495.581	800.000	-0.034	0.095
-494.566	291.086	-0.136	0.245
-493.551	-44.215	0.158	-0.079
-492.537	58.244	-0.102	-0.099
-491.522	-200.000	-0.073	-0.411
-490.508	-116.127	0.061	0.011
-489.493	-22.219	0.117	0.070
-488.478	-200.000	0.067	-0.347
-487.464	65.127	0.233	-0.234
-486.449	-80.719	-0.231	-0.076
-485.435	6.464	0.170	0.125
-484.420	16.283	0.253	0.198
-483.405	431.928	-0.058	0.125
-482.391	-21.046	-0.033	-0.020
-481.376	82.535	0.030	-0.032
-480.362	-164.921	-0.048	-0.002
-479.347	50.388	-0.209	0.196
-478.332	261.094	-0.102	0.175
-477.318	-33.316	-0.025	0.014
-476.303	-93.832	0.031	-0.008
-475.289	573.074	0.057	0.138
-474.274	34.728	-0.273	0.237
-473.259	-87.703	0.163	0.049
-472.245	132.295	0.111	-0.142
-471.230	-60.615	-0.157	-0.066
-470.216	593.686	0.151	-0.370
-469.201	-200.000	0.012	-0.211
-468.186	463.902	0.045	0.101
-467.172	16.784	-0.155	-0.122
-466.157	72.500	0.253	-0.262
-465.143	-59.876	-0.198	-0.084
-464.128	169.646	-0.082	-0.116
-463.113	-60.629	-0.105	0.044
-462.099	-57.987	-0.414	-0.179
-461.084	-200.000	0.035	0.192
-460.070	-26.607	-0.260	-0.151
-459.055	-58.397	0.147	0.063
-458.040	-24.218	-0.288	0.170
-457.026	-37.674	0.306	-0.161
-456.011	800.000	0.097	-0.284
-454.997	-66.539	0.103	-0.041
-453.982	474.837	-0.059	0.132
-452.968	-95.214	-0.104	0.028
-451.953	202.457	0.240	0.368
-450.938	39.852	0.073	-0.065
-449.924	-142.336	-0.242	0.024
-448.909	-86.417	-0.181	0.055
-447.895	160.798	0.288	0.399
-446.880	-168.983	-0.177	0.007
-445.865	485.153	-0.120	0.270
-444.851	-193.936	0.291	0.002
-443.836	-51.786	-0.339	-0.156
-442.822	705.487	-0.071	-0.186
-441.807	-200.000	0.043	-0.195
-440.792	304.939	-0.064	0.119
-439.778	800.000	-0.047	-0.194
-438.763	-200.000	0.026	-0.210
-437.749	601.681	-0.031	-0.077
-436.734	218.406	-0.071	0.113
-435.719	52.296	-0.036	-0.034
-434.705	85.162	-0.103	0.112
-433.690	84.640	-0.171	0.185
-432.676	-108.504	0.170	0.036
-431.661	-200.000	0.059	-0.468
-430.646	95.231	-0.201	-0.227
-429.632	-200.000	0.032	0.182
-428.617	458.803	0.058	0.127
-427.603	-12.929	-0.162	-0.104
-426.588	-200.000	0.019	0.166
-425.573	-82.797	-0.167	-0.053
-424.559	4.470	0.262	0.190
-423.544	-72.039	0.294	-0.108
-422.530	-200.000	0.016	-0.232
-421.515	-200.000	0.007	0.109
-420.500	25.796	-0.066	-0.055
-419.486	-2.276	0.083	-0.058
-418.471	-69.004	-0.104	0.040
-417.457	82.346	0.194	0.208
-416.442	208.983	-0.076	0.118
-415.428	-142.749	-0.178	0.017
-414.413	-98.164	0.486	-0.124
-413.398	-156.761	-0.117	-0.007
-412.384	-109.540	-0.104	0.022
-411.369	657.550	0.031	0.079
-410.355	-200.000	-0.003	-0.158
-409.340	-200.000	0.039	-0.203
-408.325	-97.491	0.273	0.070
-407.311	158.438	-0.153	0.210
-406.296	209.337	-0.244	0.378
-405.282	332.327	0.031	-0.060
-404.267	-19.894	-0.163	-0.099
-403.252	114.234	-0.197	0.237
-402.238	320.527	-0.158	0.296
-401.223	37.635	0.256	-0.225
-400.209	-37.323	0.100	0.053
-399.194	-200.000	0.031	-0.240
-398.179	-35.065	0.412	0.222
-397.165	-200.000	0.040	0.222
-396.150	-5.677	-0.097	0.065
-395.136	78.325	-0.235	0.249
-394.121	151.094	-0.094	-0.126
-393.106	112.419	-0.210	-0.251
-392.092	-200.000	-0.036	-0.430
-391.077	146.616	0.140	-0.185
-390.063	-119.084	0.119	0.020
-389.048	-79.137	0.102	0.034
-388.033	-200.000	0.050	-0.272
-387.019	-44.475	-0.033	0.017
-386.004	-200.000	-0.001	0.284
-384.990	800.000	0.020	0.082
-383.975	-200.000	-0.001	-0.074
-382.960	566.377	0.086	0.206
-381.946	-200.000	0.101	0.630
-380.931	117.367	-0.125	-0.152
-379.917	-200.000	0.016	-0.190
-378.902	800.000	0.022	-0.093
-377.888	800.000	0.056	-0.171
-376.873	-22.460	-0.164	0.098
-375.858	-121.384	-0.171	-0.028
-374.844	103.419	-0.085	-0.099
-373.829	225.163	0.034	-0.054
-372.815	-200.000	0.003	-0.196
-371.800	-12.154	-0.063	-0.041
-370.785	238.664	0.175	-0.288
-369.771	22.508	-0.122	0.098
-368.756	275.368	-0.067	0.118
-367.742	-90.561	0.068	0.019
-366.727	-200.000	-0.004	0.233
-365.712	470.769	0.196	0.436
-364.698	-200.000	-0.003	-0.259
-363.683	-200.000	-0.037	0.191
-362.669	800.000	0.061	0.224
-361.654	800.000	0.115	-0.381
-360.639	-167.669	0.184	0.007
-359.625	713.866	-0.094	-0.246
-358.610	-200.000	0.018	-0.552
-357.596	579.315	0.175	-0.423
-356.581	228.449	-0.095	-0.153
-355.566	63.367	-0.223	0.221
-354.552	-200.000	-0.022	-0.210
-353.537	-200.000	0.034	-0.267
-352.523	-36.314	0.361	0.192
-351.508	482.927	-0.137	-0.308
-350.493	62.918	0.197	-0.195
-349.479	-200.000	0.028	0.160
-348.464	198.582	0.174	-0.263
-347.450	-103.078	0.414	-0.097
-346.435	364.584	-0.107	0.214
-345.420	-200.000	-0.054	-0.291
-344.406	-100.866	-0.066	0.016
-343.391	46.221	-0.289	0.264
-342.377	136.622	0.177	0.228
-341.362	800.000	0.042	-0.121
-340.348	-29.017	0.119	0.067
-339.333	64.514	-0.085	-0.085
-338.318	800.000	-0.028	0.081
-337.304	-200.000	-0.004	-0.246
-336.289	-154.594	0.071	-0.005
-335.275	-200.000	-0.072	0.357
-334.260	-30.893	0.106	0.059
-333.245	800.000	0.071	-0.203
-332.231	387.074	-0.230	-0.469
-331.216	-142.017	0.085	0.008
-330.202	386.939	-0.085	-0.173
-329.187	-142.290	-0.111	-0.011
-328.172	-136.126	0.021	-0.002
-327.158	800.000	0.030	0.126
-326.143	800.000	-0.109	0.413
-325.129	109.377	-0.076	0.089
-324.114	4.532	0.078	-0.056
-323.099	-169.605	-0.459	-0.016
-322.085	620.186	0.077	0.192
-321.070	609.216	-0.124	0.304
-320.056	0.718	-0.217	-0.153
-319.041	35.350	0.039	-0.033
-318.026	433.119	0.063	0.135
-317.012	-200.000	-0.033	-0.175
-315.997	-200.000	0.021	0.216
-314.983	-62.289	0.201	-0.083
-313.968	342.254	0.078	0.151
-312.953	-200.000	-0.012	-0.070
-311.939	-200.000	-0.030	0.279
-310.924	78.824	-0.089	-0.094
-309.910	-155.401	0.082	-0.005
-308.895	-172.985	-0.405	0.012
-307.880	-200.000	0.015	-0.195
-306.866	-152.428	0.173	-0.012
-305.851	-2.348	-0.090	0.062
-304.837	-140.525	0.178	-0.018
-303.822	-67.765	-0.188	0.072
-302.807	-119.159	-0.188	0.032
-301.793	73.192	-0.056	-0.058
-300.778	75.666	0.043	-0.044
-299.764	28.051	0.219	-0.182
-298.749	243.270	0.107	-0.177
-297.735	10.399	0.042	0.031
-296.720	202.020	0.048	-0.073
-295.705	-65.413	0.125	-0.050
-294.691	321.039	0.164	-0.308
-293.676	-200.000	0.090	0.506
-292.662	169.612	-0.123	-0.173
-291.647	244.561	-0.198	-0.327
-290.632	-122.741	-0.039	0.006
-289.618	-6.473	0.092	-0.062
-288.603	-200.000	-0.087	0.432
-287.589	396.565	-0.052	0.108
-286.574	182.683	-0.178	-0.258
-285.559	-161.758	-0.236	0.012
-284.545	201.766	0.044	-0.066
-283.530	800.000	-0.084	0.273
-282.516	43.117	0.280	0.252
-281.501	-121.292	-0.093	0.015
-280.486	27.753	-0.098	0.081
-279.472	-123.077	0.107	0.017
-278.457	-44.429	-0.270	0.133
-277.443	800.000	0.072	0.236
-276.428	439.611	0.249	-0.535
-275.413	-42.930	0.126	-0.063
-274.399	-92.659	-0.338	0.093
-273.384	199.649	-0.259	-0.391
-272.370	-75.802	-0.097	0.034
-271.355	-77.836	0.294	0.100
-270.340	179.518	-0.013	-0.018
-269.326	37.336	0.199	0.173
-268.311	14.341	-0.187	0.144
-267.297	800.000	0.086	0.345
-266.282	-200.000	0.015	0.215
-265.267	5.477	-0.172	0.125
-264.253	173.150	-0.129	-0.183
-263.238	-57.986	-0.234	0.100
-262.224	-200.000	0.061	-0.305
-261.209	42.550	0.237	-0.213
-260.195	-200.000	0.008	0.181
-259.180	800.000	-0.037	0.152
-258.165	-200.000	0.052	-0.286
-257.151	602.638	0.038	0.092
-256.136	-33.277	0.127	-0.069
-255.122	-128.067	0.292	0.041
-254.107	-94.849	0.376	0.100
-253.092	800.000	-0.058	0.184
-252.078	213.241	-0.084	-0.131
-251.063	800.000	0.084	-0.336
-250.049	-60.697	-0.205	0.085
-249.034	351.865	0.040	-0.078
-248.019	800.000	0.118	-0.412
-247.005	-25.399	-0.079	-0.046
-245.990	-200.000	0.036	-0.174
-244.976	11.772	-0.151	-0.114
-243.961	418.883	0.104	0.218
-242.946	271.856	0.013	-0.023
-241.932	-138.112	0.497	-0.054
-240.917	-200.000	0.005	-0.206
-239.903	-51.157	-0.172	-0.079
-238.888	270.771	0.127	-0.220
-237.873	237.704	-0.235	0.384
-236.859	-200.000	-0.005	0.133
-235.844	-200.000	-0.052	-0.235
-234.830	-97.110	0.117	-0.030
-233.815	-47.698	0.332	0.158
-232.800	-200.000	-0.031	-0.150
-231.786	23.686	0.285	0.231
-230.771	-134.746	0.322	-0.038
-229.757	-61.201	0.100	0.041
-228.742	-174.365	-0.056	0.002
-227.727	408.481	0.046	-0.097
-226.713	119.398	-0.133	-0.162
-225.698	126.423	-0.115	0.143
-224.684	284.279	0.135	-0.239
-223.669	-22.937	0.250	0.148
-222.655	-200.000	0.025	0.284
-221.640	510.554	-0.166	0.380
-220.625	71.921	0.035	-0.036
-219.611	186.790	-0.149	0.218
-218.596	-133.581	0.295	-0.036
-217.582	-200.000	-0.080	-0.351
-216.567	101.290	-0.151	0.172
-215.552	125.427	0.268	0.331
-214.538	645.744	-0.055	0.137
-213.523	-118.282	0.166	-0.029
-212.509	-200.000	0.009	-0.061
-211.494	-200.000	0.046	0.232
-210.479	514.487	-0.131	-0.300
-209.465	242.541	0.176	-0.290
-208.450	184.492	-0.216	-0.315
-207.436	-26.409	0.105	-0.061
-206.421	-9.788	0.092	-0.060
-205.406	67.671	0.189	-0.190
-204.392	328.476	-0.126	0.238
-203.377	-200.000	0.093	0.426
-202.363	120.066	0.175	-0.213
-201.348	-200.000	-0.085	0.632
-200.333	299.423	-0.156	0.283
-199.319	-102.383	0.362	0.085
-198.304	-200.000	-0.032	0.366
-197.290	129.217	0.094	-0.117
-196.275	7.330	0.140	-0.103
-195.260	201.762	-0.137	0.207
-194.246	138.189	0.107	0.137
-193.231	-43.880	-0.272	-0.134
-192.217	311.527	0.160	-0.295
-191.202	-56.908	-0.248	-0.107
-190.187	-28.955	0.074	0.042
-189.173	-21.010	0.230	-0.138
-188.158	-200.000	0.006	-0.131
-187.144	-3.025	0.091	-0.063
-186.129	47.396	0.125	0.114
-185.114	102.933	0.021	0.024
-184.100	1.903	0.396	0.280
-183.085	-55.541	-0.179	0.079
-182.071	-200.000	-0.028	0.122
-181.056	426.583	0.078	0.165
-180.042	-200.000	-0.019	0.213
-179.027	319.558	0.140	0.260
-178.012	-50.827	0.051	-0.023
-176.998	-200.000	0.026	-0.335
-175.983	202.131	-0.020	-0.030
-174.969	192.091	0.134	-0.198
-173.954	214.538	-0.119	0.185
-172.939	-4.649	0.224	0.151
-171.925	800.000	-0.039	0.120
-170.910	-38.418	0.049	0.025
-169.896	-70.057	-0.128	0.048
-168.881	-200.000	0.000	0.218
-167.866	-65.391	0.156	-0.061
-166.852	250.184	-0.125	0.208
-165.837	-200.000	0.029	-0.154
-164.823	-200.000	0.003	0.122
-163.808	-25.057	0.372	0.216
-162.793	170.161	-0.070	-0.098
-161.779	-68.770	0.058	-0.022
-160.764	-43.634	-0.285	0.141
-159.750	-200.000	0.070	0.458
-158.735	-3.882	-0.096	0.065
-157.720	-135.709	0.218	-0.025
-156.706	-37.056	-0.215	-0.113
-155.691	-147.745	0.241	-0.020
-154.677	52.332	0.259	-0.242
-153.662	132.156	-0.109	0.138
-152.647	-190.101	0.193	0.002
-151.633	-183.823	0.390	0.006
-150.618	-200.000	0.017	-0.154
-149.604	-200.000	0.025	-0.364
-148.589	-49.836	0.146	-0.068
-147.574	-163.867	0.355	0.016
-146.560	61.937	-0.159	0.155
-145.545	-200.000	-0.027	-0.289
-144.531	87.268	0.112	-0.121
-143.516	634.272	-0.055	-0.136
-142.502	-8.269	0.148	-0.097
-141.487	-20.866	0.315	0.189
-140.472	-200.000	-0.003	-0.319
-139.458	-1.108	-0.119	0.082
-138.443	-120.611	-0.327	-0.054
-137.429	-96.782	0.250	0.064
-136.414	16.513	0.138	-0.106
-135.399	-118.270	0.227	0.040
-134.385	20.921	0.329	0.261
-133.370	194.722	-0.163	-0.241
-132.356	29.049	0.037	-0.031
-131.341	-43.775	0.100	-0.049
-130.326	29.517	0.038	-0.032
-129.312	576.830	-0.073	-0.174
-128.297	78.937	0.237	0.249
-127.283	-53.675	0.225	0.101
-126.268	-112.929	-0.278	-0.054
-125.253	-107.072	-0.173	0.037
-124.239	-21.758	-0.315	0.187
-123.224	-200.000	-0.025	0.111
-122.210	-200.000	0.007	-0.197
