DTS Sentinel unit serial number:	SN413079Multiplexer serial number:	ORYXHardware model number:	OX4-SRSoftware version number:	ORYX F/W v4.00 Oryx Data Collector v3.7.2.0data status	okinstallation	princeton_trtdifferential loss correction	single-endedforward channel	channel 3reverse channel	N/Adate	2019/09/14time	06:56:35forward acquisition time	60.00reverse acquisition time	0.00gamma	496.2192k internal	0.2340k external	0.2340temperature offset calibration	1.0055default loss term (dB/km)	0.3790temperature slope calibration	1.0000multiplexer offset coefficient	1.0000multiplexer slope coefficient	1.0000fibre end	0.00T internal ref (°C)	26.22T ext. ref 1 (°C)	3.43T ext. ref 2 (°C)	20.97length (m)	temperature (°C)	Stokes	anti-Stokes-747.200	-97.575	0.101	0.026
-746.185	155.496	-0.411	0.568
-745.171	-181.925	0.020	0.000
-744.156	-200.000	0.002	0.270
-743.142	800.000	-0.034	0.098
-742.127	-40.344	-0.127	-0.066
-741.112	-44.644	0.189	-0.095
-740.098	218.101	-0.219	0.350
-739.083	2.395	0.112	-0.081
-738.069	-96.523	-0.106	-0.028
-737.054	-200.000	0.065	-0.310
-736.039	-79.784	-0.193	0.065
-735.025	8.520	0.234	0.177
-734.010	125.084	0.108	-0.137
-732.996	800.000	-0.040	-0.138
-731.981	43.424	0.227	-0.208
-730.966	-8.725	0.179	-0.120
-729.952	181.319	-0.178	-0.262
-728.937	-69.941	-0.284	-0.109
-727.923	800.000	-0.053	0.150
-726.908	-200.000	0.005	0.257
-725.894	-23.585	-0.192	-0.115
-724.879	-84.977	0.182	-0.057
-723.864	-200.000	0.009	-0.116
-722.850	-200.000	-0.011	-0.117
-721.835	426.127	-0.255	-0.551
-720.821	-142.124	0.467	-0.046
-719.806	-200.000	-0.046	0.225
-718.791	-200.000	-0.025	-0.205
-717.777	30.876	-0.080	-0.069
-716.762	-158.120	-0.408	-0.024
-715.748	-200.000	0.021	0.218
-714.733	450.587	-0.091	-0.201
-713.718	800.000	-0.041	0.119
-712.704	64.242	0.117	-0.118
-711.689	72.535	-0.258	-0.270
-710.675	283.855	0.140	-0.252
-709.660	-200.000	0.000	-0.164
-708.645	179.390	0.163	0.239
-707.631	-83.000	-0.205	0.066
-706.616	4.250	0.032	-0.024
-705.602	575.787	0.153	-0.374
-704.587	-200.000	0.006	-0.152
-703.572	-109.324	0.260	-0.055
-702.558	38.001	0.071	-0.063
-701.543	163.068	0.156	0.219
-700.529	-45.348	0.286	-0.142
-699.514	-200.000	-0.053	-0.253
-698.499	-88.987	0.383	-0.114
-697.485	-116.935	-0.204	-0.037
-696.470	-74.244	-0.338	0.122
-695.456	-32.403	0.197	0.110
-694.441	465.545	0.082	0.185
-693.426	-55.041	-0.458	0.206
-692.412	-200.000	-0.069	0.349
-691.397	-85.058	0.149	0.047
-690.383	59.874	0.106	0.104
-689.368	-147.215	-0.046	0.004
-688.354	-65.421	-0.121	-0.049
-687.339	-200.000	-0.052	0.295
-686.324	595.439	0.014	0.035
-685.310	-26.553	-0.034	-0.020
-684.295	29.712	-0.237	0.202
-683.281	-200.000	0.033	-0.177
-682.266	-127.301	0.265	-0.039
-681.251	43.756	0.028	0.026
-680.237	-49.433	-0.201	0.096
-679.222	9.872	-0.118	-0.089
-678.208	64.763	-0.061	0.061
-677.193	701.708	-0.081	-0.213
-676.178	96.130	0.099	-0.113
-675.164	279.075	-0.210	0.374
-674.149	-60.198	-0.361	-0.154
-673.135	-190.089	-0.352	0.004
-672.120	-119.641	0.179	-0.031
-671.105	-200.000	0.034	-0.561
-670.091	32.527	-0.186	0.160
-669.076	-71.242	0.237	-0.089
-668.062	-145.735	0.217	0.019
-667.047	-76.890	-0.049	-0.017
-666.032	-200.000	-0.049	-0.304
-665.018	800.000	0.073	0.208
-664.003	-90.177	-0.386	-0.112
-662.989	-105.095	-0.382	0.087
-661.974	800.000	-0.036	-0.129
-660.959	389.635	0.052	-0.107
-659.945	417.529	-0.032	-0.068
-658.930	-125.427	-0.203	0.031
-657.916	-125.022	-0.314	-0.048
-656.901	-42.110	-0.030	-0.015
-655.886	800.000	0.107	-0.439
-654.872	22.937	0.343	0.281
-653.857	-174.390	0.358	-0.010
-652.843	83.031	0.072	-0.078
-651.828	-50.192	-0.274	0.130
-650.814	109.115	-0.183	0.219
-649.799	-200.000	0.017	-0.149
-648.784	-200.000	0.012	-0.076
-647.770	-116.457	-0.297	0.055
-646.755	224.386	-0.259	-0.419
-645.741	595.747	-0.043	-0.107
-644.726	-107.192	0.287	-0.063
-643.711	181.051	-0.147	0.216
-642.697	-128.044	0.061	0.009
-641.682	-141.822	0.116	0.012
-640.668	11.746	-0.197	0.151
-639.653	-78.618	0.065	0.022
-638.638	-200.000	0.009	0.363
-637.624	122.428	-0.258	0.322
-636.609	16.607	-0.082	0.065
-635.595	-200.000	0.008	-0.141
-634.580	800.000	0.043	-0.121
-633.565	800.000	0.040	0.155
-632.551	-200.000	0.047	0.417
-631.536	800.000	0.117	0.417
-630.522	-130.150	-0.104	0.014
-629.507	22.550	-0.130	-0.107
-628.492	-200.000	0.044	-0.268
-627.478	-200.000	-0.022	-0.259
-626.463	-38.930	-0.140	-0.074
-625.449	35.825	-0.073	-0.064
-624.434	-66.188	-0.342	0.136
-623.419	76.872	-0.147	0.155
-622.405	-132.606	0.492	0.063
-621.390	800.000	-0.141	-0.407
-620.376	632.734	-0.138	0.350
-619.361	-153.949	0.298	-0.020
-618.346	-99.844	0.195	0.049
-617.332	800.000	0.075	-0.286
-616.317	51.209	-0.164	0.155
-615.303	-200.000	0.054	-0.332
-614.288	-113.948	-0.117	0.023
-613.273	322.012	-0.068	-0.128
-612.259	255.218	-0.037	0.063
-611.244	766.210	-0.037	0.102
-610.230	800.000	0.022	0.080
-609.215	-71.685	-0.207	0.077
-608.201	83.738	0.231	0.252
-607.186	800.000	-0.030	-0.104
-606.171	6.537	-0.078	-0.058
-605.157	70.773	-0.049	0.051
-604.142	-200.000	0.041	-0.214
-603.128	-78.675	-0.018	-0.006
-602.113	-104.250	-0.089	-0.021
-601.098	88.956	-0.120	0.133
-600.084	186.723	-0.102	-0.151
-599.069	-18.873	-0.234	-0.145
-598.055	-34.670	-0.236	0.129
-597.040	-200.000	0.028	0.241
-596.025	38.996	-0.290	0.258
-595.011	79.467	0.271	-0.290
-593.996	114.613	-0.081	0.098
-592.982	283.107	0.062	0.111
-591.967	128.632	0.125	-0.158
-590.952	-30.906	0.287	0.162
-589.938	-20.498	-0.112	0.069
-588.923	-89.521	0.115	0.034
-587.909	65.686	0.048	0.049
-586.894	-135.548	0.191	-0.023
-585.879	-3.729	0.196	0.135
-584.865	-168.517	0.247	-0.009
-583.850	58.381	-0.183	-0.179
-582.836	252.286	0.043	-0.072
-581.821	-172.948	-0.204	0.006
-580.806	-90.458	0.326	-0.094
-579.792	315.810	-0.118	0.221
-578.777	-52.757	0.201	0.092
-577.763	125.892	0.147	0.186
-576.748	-200.000	-0.005	0.087
-575.733	800.000	0.119	0.482
-574.719	423.626	-0.085	0.182
-573.704	33.853	0.137	0.119
-572.690	-140.293	0.166	-0.017
-571.675	-200.000	-0.050	-0.328
-570.661	209.029	-0.077	-0.120
-569.646	800.000	0.088	0.261
-568.631	328.301	0.170	0.324
-567.617	-49.137	0.362	0.172
-566.602	278.030	0.135	-0.239
-565.588	-90.091	-0.311	-0.090
-564.573	-200.000	0.174	0.001
-563.558	-132.682	-0.332	-0.042
-562.544	17.891	0.154	-0.122
-561.529	800.000	0.044	0.187
-560.515	800.000	-0.124	-0.522
-559.500	-74.951	0.341	-0.122
-558.485	159.709	-0.066	0.091
-557.471	-133.342	0.149	-0.019
-556.456	291.670	0.089	0.162
-555.442	-200.000	-0.001	-0.078
-554.427	-200.000	-0.010	0.134
-553.412	-12.687	0.028	-0.018
-552.398	666.695	-0.050	0.127
-551.383	357.204	-0.073	0.144
-550.369	-104.788	-0.178	0.041
-549.354	800.000	-0.083	-0.308
-548.339	-12.229	-0.160	0.104
-547.325	31.617	-0.215	0.184
-546.310	-84.297	-0.558	0.176
-545.296	-17.946	0.091	-0.057
-544.281	-28.785	-0.370	0.211
-543.266	800.000	-0.031	-0.119
-542.252	-85.437	-0.290	-0.090
-541.237	-74.773	0.188	0.067
-540.223	800.000	-0.068	-0.247
-539.208	343.453	0.114	0.222
-538.193	-37.962	-0.108	0.057
-537.179	175.834	-0.208	-0.299
-536.164	184.905	-0.155	-0.228
-535.150	-200.000	-0.031	-0.226
-534.135	-200.000	0.015	-0.130
-533.121	-200.000	0.001	-0.049
-532.106	100.972	0.123	0.142
-531.091	157.459	-0.190	-0.261
-530.077	-200.000	-0.017	-0.329
-529.062	27.887	-0.026	0.022
-528.048	16.885	-0.371	-0.292
-527.033	800.000	0.076	-0.239
-526.018	-200.000	-0.014	-0.198
-525.004	-116.676	-0.121	0.022
-523.989	777.728	-0.102	0.277
-522.975	800.000	-0.028	0.115
-521.960	452.244	-0.150	0.330
-520.945	800.000	0.036	-0.145
-519.931	-86.150	-0.202	-0.062
-518.916	800.000	0.021	0.066
-517.902	105.707	0.253	0.297
-516.887	-200.000	0.018	-0.123
-515.872	-61.705	-0.365	-0.152
-514.858	336.932	0.088	-0.169
-513.843	0.390	0.100	-0.071
-512.829	305.783	-0.023	0.043
-511.814	13.378	0.176	-0.136
-510.799	-1.867	0.182	0.127
-509.785	-54.710	0.160	-0.072
-508.770	-76.529	-0.146	-0.051
-507.756	35.544	0.091	0.080
-506.741	-146.013	-0.472	-0.041
-505.726	211.352	-0.063	0.099
-504.712	-200.000	-0.043	-0.370
-503.697	-171.291	0.242	-0.008
-502.683	-4.271	-0.243	-0.167
-501.668	-112.262	-0.359	-0.072
-500.653	190.632	0.202	0.302
-499.639	-2.492	0.176	-0.123
-498.624	422.721	-0.176	-0.376
-497.610	-53.138	0.102	-0.046
-496.595	-200.000	0.051	0.288
-495.581	24.391	0.165	-0.136
-494.566	-103.641	-0.194	-0.045
-493.551	152.448	0.089	-0.120
-492.537	30.248	0.176	-0.149
-491.522	800.000	-0.037	0.117
-490.508	-61.765	0.361	-0.150
-489.493	-200.000	0.068	-0.332
-488.478	503.307	-0.072	-0.166
-487.464	-84.717	0.287	-0.090
-486.449	169.384	0.052	-0.074
-485.435	-82.771	0.039	-0.012
-484.420	-71.250	-0.353	-0.132
-483.405	-200.000	-0.018	-0.131
-482.391	-139.914	0.039	-0.004
-481.376	-59.424	0.178	-0.076
-480.362	270.650	-0.044	-0.077
-479.347	340.933	0.071	-0.138
-478.332	30.125	-0.140	0.119
-477.318	-44.012	0.158	0.079
-476.303	41.815	-0.260	0.234
-475.289	-200.000	0.018	0.134
-474.274	150.636	-0.082	0.110
-473.259	147.129	0.032	-0.043
-472.245	145.566	-0.043	0.057
-471.230	-42.561	-0.073	0.037
-470.216	-29.024	-0.432	-0.246
-469.201	800.000	0.025	-0.072
-468.186	459.502	-0.035	-0.078
-467.172	-2.988	0.133	-0.092
-466.157	-139.820	-0.232	0.024
-465.143	102.074	0.256	0.296
-464.128	-200.000	0.003	0.103
-463.113	-84.434	-0.100	0.031
-462.099	32.356	0.342	0.293
-461.084	89.190	-0.211	-0.233
-460.070	800.000	-0.074	-0.294
-459.055	-4.108	0.311	0.214
-458.040	-74.835	0.081	0.029
-457.026	107.313	-0.006	0.007
-456.011	-87.868	-0.235	0.070
-454.997	-147.697	0.192	-0.016
-453.982	129.716	0.129	-0.163
-452.968	155.289	0.069	0.095
-451.953	-97.913	-0.364	-0.093
-450.938	-48.630	-0.122	-0.058
-449.924	-54.270	0.144	-0.065
-448.909	-99.819	0.022	-0.006
-447.895	8.129	-0.214	0.159
-446.880	297.498	0.102	0.185
-445.865	245.312	-0.200	-0.333
-444.851	69.697	-0.243	0.248
-443.836	-200.000	-0.015	0.285
-442.822	175.525	-0.051	0.073
-441.807	-76.802	-0.146	0.051
-440.792	-49.056	0.043	0.021
-439.778	-97.428	0.114	-0.029
-438.763	-33.884	0.091	0.050
-437.749	33.517	0.149	-0.128
-436.734	-21.303	-0.406	-0.246
-435.719	314.420	-0.075	0.139
-434.705	-200.000	0.007	-0.105
-433.690	-200.000	-0.045	-0.396
-432.676	72.827	0.271	0.281
-431.661	800.000	0.057	0.225
-430.646	-73.188	-0.192	0.070
-429.632	163.151	0.122	-0.169
-428.617	24.551	-0.197	-0.162
-427.603	-200.000	-0.020	-0.121
-426.588	800.000	-0.088	-0.352
-425.573	-131.125	-0.119	-0.016
-424.559	800.000	-0.062	0.247
-423.544	-200.000	-0.005	0.133
-422.530	35.958	-0.101	0.088
-421.515	293.844	-0.057	-0.103
-420.500	-111.843	-0.160	-0.032
-419.486	-174.343	-0.257	0.007
-418.471	-56.621	-0.137	0.060
-417.457	-108.509	-0.410	0.087
-416.442	652.323	-0.124	-0.314
-415.428	-200.000	-0.047	0.246
-414.413	13.911	0.277	0.214
-413.398	800.000	0.038	-0.123
-412.384	557.579	-0.066	-0.157
-411.369	-200.000	0.012	-0.232
-410.355	-65.079	-0.149	-0.059
-409.340	112.771	0.198	0.237
-408.325	-111.597	0.360	0.072
-407.311	65.878	0.289	-0.290
-406.296	-135.111	0.163	0.019
-405.282	699.591	0.048	-0.124
-404.267	795.753	0.075	-0.204
-403.252	-46.693	-0.070	0.034
-402.238	207.123	-0.126	0.195
-401.223	-36.165	0.344	-0.184
-400.209	-103.571	0.113	0.026
-399.194	-68.690	-0.089	0.034
-398.179	-154.168	0.451	-0.030
-397.165	-200.000	0.079	-0.597
-396.150	468.830	-0.068	0.151
-395.136	-200.000	-0.004	-0.324
-394.121	-200.000	0.017	-0.122
-393.106	34.010	0.123	-0.106
-392.092	231.630	0.086	0.139
-391.077	56.637	-0.146	-0.140
-390.063	-65.054	0.299	0.119
-389.048	83.814	0.060	0.065
-388.033	222.735	-0.058	-0.092
-387.019	-200.000	0.038	-0.275
-386.004	17.959	-0.372	-0.293
-384.990	800.000	0.096	0.289
-383.975	4.809	0.218	0.158
-382.960	-7.208	-0.194	0.130
-381.946	-142.471	0.106	-0.010
-380.931	18.306	0.071	-0.056
-379.917	-47.579	0.329	0.158
-378.902	-82.530	-0.362	0.116
-377.888	228.643	0.259	0.417
-376.873	-59.548	0.226	-0.096
-375.858	139.201	-0.202	-0.262
-374.844	800.000	-0.069	-0.222
-373.829	-73.292	0.376	-0.136
-372.815	339.058	-0.144	-0.277
-371.800	-42.954	-0.111	0.056
-370.785	-200.000	-0.004	-0.202
-369.771	800.000	0.053	0.169
-368.756	-151.926	0.219	0.016
-367.742	16.130	0.094	-0.073
-366.727	-200.000	0.002	0.126
-365.712	160.261	0.102	0.140
-364.698	-200.000	0.000	-0.119
-363.683	800.000	-0.036	-0.154
-362.669	75.130	-0.194	0.202
-361.654	290.009	-0.136	0.243
-360.639	-94.824	0.294	-0.079
-359.625	-109.583	-0.124	0.026
-358.610	100.762	-0.138	-0.159
-357.596	-181.516	0.135	-0.003
-356.581	-75.924	0.236	-0.082
-355.566	6.572	0.122	-0.089
-354.552	-22.203	-0.113	-0.068
-353.537	-200.000	-0.030	-0.332
-352.523	783.859	-0.068	-0.183
-351.508	69.559	0.074	0.075
-350.493	800.000	-0.129	0.426
-349.479	-19.370	0.149	0.091
-348.464	-200.000	-0.022	-0.127
-347.450	800.000	0.080	-0.289
-346.435	-128.560	-0.273	0.038
-345.420	-200.000	-0.003	0.076
-344.406	-93.486	0.252	-0.069
-343.391	-114.246	-0.057	-0.011
-342.377	-30.837	-0.269	0.150
-341.362	-57.607	0.089	-0.039
-340.348	-98.753	-0.217	-0.055
-339.333	755.665	-0.067	-0.180
-338.318	90.620	0.250	-0.276
-337.304	217.740	0.090	0.141
-336.289	145.758	-0.072	-0.095
-335.275	462.827	0.051	-0.111
-334.260	-158.665	0.192	-0.011
-333.245	6.881	-0.197	-0.145
-332.231	658.213	0.038	-0.096
-331.216	-200.000	-0.009	-0.080
-330.202	800.000	0.028	0.110
-329.187	800.000	0.063	0.248
-328.172	-188.723	0.043	-0.001
-327.158	265.792	0.119	0.205
-326.143	-85.045	0.227	-0.070
-325.129	-200.000	-0.076	0.351
-324.114	800.000	-0.100	0.322
-323.099	800.000	-0.074	-0.309
-322.085	-72.085	0.142	-0.052
-321.070	142.717	-0.120	-0.157
-320.056	512.153	0.015	0.035
-319.041	15.287	-0.328	0.254
-318.026	667.990	0.043	0.110
-317.012	128.007	-0.167	0.210
-315.997	-56.204	0.071	-0.031
-314.983	1.704	0.484	-0.344
-313.968	-79.806	0.031	0.010
-312.953	-102.981	-0.057	-0.013
-311.939	-173.949	0.110	0.003
-310.924	-114.602	0.281	-0.053
-309.910	174.476	0.048	-0.068
-308.895	-200.000	-0.035	-0.225
-307.880	-200.000	-0.004	0.047
-306.866	-89.212	-0.336	-0.098
-305.851	-69.258	-0.101	-0.038
-304.837	-119.771	0.112	-0.019
-303.822	-17.588	-0.200	-0.124
-302.807	33.154	0.338	0.289
-301.793	379.019	-0.053	0.108
-300.778	800.000	0.081	-0.225
-299.764	800.000	-0.033	0.136
-298.749	800.000	0.028	-0.078
-297.735	-94.293	0.391	0.105
-296.720	-200.000	0.048	0.251
-295.705	30.586	0.144	0.121
-294.691	-189.869	0.352	-0.004
-293.676	-99.514	0.118	-0.029
-292.662	-35.963	-0.089	-0.047
-291.647	-138.034	0.231	0.025
-290.632	-88.167	0.120	0.035
-289.618	-200.000	-0.063	0.313
-288.603	82.384	-0.172	-0.184
-287.589	32.699	0.067	-0.057
-286.574	-58.913	-0.173	0.074
-285.559	-200.000	-0.004	-0.150
-284.545	476.427	-0.018	0.039
-283.530	-155.637	0.461	-0.029
-282.516	34.572	0.308	0.265
-281.501	103.959	0.111	-0.129
-280.486	158.209	-0.210	0.286
-279.472	113.366	-0.326	0.389
-278.457	113.183	-0.157	-0.188
-277.443	-95.107	-0.343	0.091
-276.428	17.533	-0.385	0.301
-275.413	219.414	-0.016	0.025
-274.399	-200.000	-0.012	-0.222
-273.384	198.356	-0.163	0.245
-272.370	289.181	-0.154	0.275
-271.355	56.825	0.103	-0.099
-270.340	-138.171	-0.384	0.042
-269.326	-200.000	0.057	-0.333
-268.311	-125.996	0.080	-0.012
-267.297	8.548	0.107	-0.080
-266.282	-55.860	-0.308	0.135
-265.267	-105.715	-0.180	0.040
-264.253	76.500	0.050	0.052
-263.238	463.907	-0.032	0.071
-262.224	754.498	0.141	0.374
-261.209	-8.553	0.120	-0.079
-260.195	-53.835	-0.283	-0.127
-259.180	257.049	0.077	0.131
-258.165	-4.129	0.333	0.227
-257.151	-200.000	0.023	0.272
-256.136	95.171	0.140	0.157
-255.122	59.204	-0.103	-0.100
-254.107	-67.156	-0.225	0.087
-253.092	-49.802	0.078	0.036
-252.078	-127.417	0.135	0.019
-251.063	-12.132	0.197	0.127
-250.049	-137.845	-0.237	0.026
-249.034	156.632	-0.124	0.169
-248.019	800.000	-0.076	0.223
-247.005	-139.281	0.281	-0.030
-245.990	-200.000	0.038	-0.180
-244.976	-90.397	0.163	0.046
-243.961	-69.975	-0.258	-0.097
-242.946	16.628	0.245	0.190
-241.932	-200.000	0.042	-0.362
-240.917	800.000	0.075	-0.297
-239.903	91.900	0.217	0.240
-238.888	-177.602	0.146	0.003
-237.873	-132.611	-0.252	-0.032
-236.859	800.000	0.073	-0.239
-235.844	50.121	0.079	0.074
-234.830	-200.000	-0.014	0.134
-233.815	800.000	-0.028	0.097
-232.800	-72.050	-0.104	-0.038
-231.786	422.012	-0.035	-0.074
-230.771	296.092	0.221	-0.398
-229.757	800.000	-0.105	0.331
-228.742	-161.270	0.109	0.006
-227.727	-192.331	-0.295	-0.003
-226.713	73.764	-0.069	0.071
-225.698	-65.462	0.133	0.053
-224.684	-175.489	0.496	-0.013
-223.669	800.000	0.025	0.088
-222.655	-200.000	0.011	0.098
-221.640	34.386	-0.085	0.072
-220.625	800.000	0.032	0.100
-219.611	42.529	0.320	-0.286
-218.596	145.545	-0.197	0.260
-217.582	-119.297	-0.312	-0.053
-216.567	37.107	0.078	0.068
-215.552	-200.000	0.006	-0.098
-214.538	-109.697	-0.053	-0.011
-213.523	-28.483	-0.408	-0.231
-212.509	-200.000	0.087	0.525
-211.494	-82.983	0.064	-0.020
-210.479	231.279	0.052	0.084
-209.465	-33.776	0.210	0.114
-208.450	-78.127	-0.111	-0.038
-207.436	-76.113	-0.455	-0.158
-206.421	35.270	0.206	0.178
-205.406	108.695	0.151	0.177
-204.392	-200.000	0.033	-0.144
-203.377	76.801	0.233	0.242
-202.363	-124.851	-0.063	0.010
-201.348	-200.000	0.007	-0.079
-200.333	89.234	0.013	0.014
-199.319	-100.134	-0.128	0.031
-198.304	242.945	0.068	-0.112
-197.290	-154.001	0.236	-0.016
-196.275	-40.526	-0.122	0.062
-195.260	-139.410	0.194	0.020
-194.246	-147.720	0.246	-0.020
-193.231	74.065	0.211	-0.218
-192.217	48.190	0.139	-0.127
-191.202	-200.000	0.010	-0.175
-190.187	203.179	0.092	0.140
-189.173	-14.426	-0.271	0.171
-188.158	794.175	-0.042	0.114
-187.144	5.269	0.102	-0.073
-186.129	65.529	-0.109	0.108
-185.114	265.120	0.055	-0.094
-184.100	428.366	-0.115	0.245
-183.085	-14.387	-0.244	-0.154
-182.071	28.066	0.333	0.275
-181.056	299.358	-0.014	0.025
-180.042	-200.000	0.009	0.147
-179.027	-1.159	0.221	-0.153
-178.012	-55.724	0.167	0.073
-176.998	-16.626	0.170	-0.106
-175.983	-200.000	-0.025	0.126
-174.969	214.396	0.197	-0.306
-173.954	-200.000	-0.020	-0.136
-172.939	-83.994	0.109	0.034
-171.925	37.720	0.179	0.155
-170.910	217.665	-0.030	-0.047
-169.896	-200.000	0.024	-0.352
-168.881	108.242	-0.093	-0.109
-167.866	179.575	-0.051	0.074
-166.852	-46.902	0.089	-0.043
-165.837	-120.957	-0.321	-0.053
-164.823	-62.837	-0.373	-0.151
-163.808	-10.345	-0.217	-0.141
-162.793	-95.404	0.070	0.018
-161.779	616.354	0.109	0.269
-160.764	-200.000	0.021	0.301
-159.750	800.000	-0.055	-0.187
-158.735	-167.915	-0.291	-0.011
-157.720	-121.296	0.210	0.034
-156.706	616.213	0.045	0.109
-155.691	242.545	-0.084	-0.138
-154.677	-64.737	-0.376	0.149
-153.662	38.190	0.087	0.076
-152.647	543.273	0.092	0.216
-151.633	800.000	0.003	0.010
-150.618	123.310	-0.241	-0.296
-149.604	150.886	0.123	-0.164
-148.589	-30.449	0.103	-0.057
-147.574	87.776	-0.141	-0.153
-146.560	-200.000	0.058	-0.260
-145.545	-169.492	-0.230	0.008
-144.531	193.045	0.106	-0.157
-143.516	-200.000	-0.015	0.135
-142.502	652.835	0.079	0.198
-141.487	-200.000	0.040	0.361
-140.472	-41.240	0.390	0.197
-139.458	-131.580	0.242	-0.031
-138.443	-200.000	0.108	-0.487
-137.429	48.145	0.246	0.225
-136.414	-25.375	0.141	0.081
-135.399	800.000	0.037	-0.125
-134.385	-200.000	0.026	-0.199
-133.370	147.710	-0.234	0.309
-132.356	-140.149	0.331	-0.034
-131.341	-123.611	0.034	0.005
-130.326	153.990	-0.147	-0.197
-129.312	-8.651	-0.308	-0.203
-128.297	67.869	0.073	0.073
-127.283	-18.567	0.305	0.186
-126.268	-200.000	0.041	0.227
-125.253	-55.155	0.133	0.059
-124.239	800.000	0.124	0.385
-123.224	-200.000	0.004	0.175
-122.210	573.925	0.095	-0.227
-121.195	-41.570	0.016	-0.008
