DTS Sentinel unit serial number:	SN413079Multiplexer serial number:	ORYXHardware model number:	OX4-SRSoftware version number:	ORYX F/W v4.00 Oryx Data Collector v3.7.2.0data status	okinstallation	princeton_trtdifferential loss correction	single-endedforward channel	channel 3reverse channel	N/Adate	2019/09/14time	02:40:35forward acquisition time	60.00reverse acquisition time	0.00gamma	496.2192k internal	0.2339k external	0.2339temperature offset calibration	1.0053default loss term (dB/km)	0.3790temperature slope calibration	1.0000multiplexer offset coefficient	1.0000multiplexer slope coefficient	1.0000fibre end	0.00T internal ref (°C)	26.55T ext. ref 1 (°C)	3.23T ext. ref 2 (°C)	21.58length (m)	temperature (°C)	Stokes	anti-Stokes-747.200	-200.000	-0.002	0.245
-746.185	9.404	0.067	0.051
-745.171	620.819	-0.091	0.230
-744.156	800.000	0.054	-0.206
-743.142	61.989	0.017	-0.017
-742.127	800.000	-0.108	-0.308
-741.112	-200.000	0.003	-0.208
-740.098	-101.280	0.298	0.073
-739.083	-97.539	-0.313	-0.082
-738.069	-47.886	-0.170	-0.083
-737.054	-200.000	-0.051	-0.288
-736.039	-185.693	-0.306	0.005
-735.025	-152.706	0.175	-0.012
-734.010	8.249	0.158	-0.119
-732.996	270.594	-0.215	0.379
-731.981	-92.062	-0.208	-0.059
-730.966	-23.222	-0.190	0.114
-729.952	35.519	-0.266	-0.234
-728.937	116.258	-0.045	0.055
-727.923	32.101	0.287	0.248
-726.908	-4.588	-0.153	-0.106
-725.894	-146.955	-0.263	-0.023
-724.879	-200.000	0.008	-0.328
-723.864	334.378	0.078	0.150
-722.850	-13.776	-0.080	-0.052
-721.835	800.000	-0.123	-0.358
-720.821	50.611	0.092	0.088
-719.806	1.611	-0.170	0.123
-718.791	-130.048	-0.285	-0.039
-717.777	-8.658	-0.247	0.166
-716.762	-200.000	0.005	-0.139
-715.748	-123.578	0.177	-0.028
-714.733	-200.000	0.023	-0.245
-713.718	-165.276	0.168	-0.007
-712.704	-127.110	0.209	0.031
-711.689	-83.641	0.176	0.056
-710.675	73.587	-0.282	-0.296
-709.660	65.550	0.110	0.112
-708.645	-55.478	-0.287	-0.129
-707.631	174.405	0.117	0.169
-706.616	-129.422	0.256	0.036
-705.602	-185.649	-0.158	0.002
-704.587	-200.000	-0.007	0.067
-703.572	93.164	0.176	-0.200
-702.558	-110.430	-0.071	-0.015
-701.543	-200.000	0.021	-0.207
-700.529	-80.208	0.121	0.040
-699.514	800.000	-0.056	0.234
-698.499	66.563	-0.413	0.421
-697.485	-113.216	0.315	0.062
-696.470	-62.864	-0.366	0.152
-695.456	204.962	-0.183	-0.284
-694.441	127.054	0.195	0.248
-693.426	29.057	-0.202	-0.171
-692.412	136.074	-0.124	-0.162
-691.397	569.899	-0.111	-0.270
-690.383	-83.176	-0.323	-0.104
-689.368	79.615	0.327	-0.351
-688.354	307.582	0.058	0.108
-687.339	-200.000	-0.029	-0.234
-686.324	82.586	-0.216	-0.235
-685.310	74.172	0.186	0.195
-684.295	-59.626	0.247	-0.106
-683.281	-101.064	0.056	-0.014
-682.266	-155.570	0.035	-0.002
-681.251	308.375	-0.024	-0.045
-680.237	-39.017	-0.064	0.034
-679.222	800.000	0.082	-0.312
-678.208	40.107	0.170	0.152
-677.193	800.000	0.049	-0.193
-676.178	232.816	-0.205	0.336
-675.164	-52.254	0.141	0.066
-674.149	800.000	0.134	-0.379
-673.135	-192.409	-0.160	0.001
-672.120	123.109	0.124	-0.155
-671.105	-97.035	-0.151	0.040
-670.091	76.359	0.104	0.110
-669.076	22.021	0.079	-0.064
-668.062	420.700	0.123	0.264
-667.047	-4.179	-0.156	-0.108
-666.032	41.112	0.086	-0.078
-665.018	1.504	0.132	0.095
-664.003	-87.932	0.317	0.095
-662.989	29.073	-0.300	-0.254
-661.974	340.873	-0.054	-0.106
-660.959	800.000	-0.048	-0.171
-659.945	27.268	0.200	0.168
-658.930	-200.000	-0.019	0.127
-657.916	-145.130	0.325	0.029
-656.901	-21.470	-0.261	-0.159
-655.886	-57.590	0.169	-0.074
-654.872	-88.128	0.434	-0.130
-653.857	-6.426	-0.114	-0.078
-652.843	22.683	-0.227	-0.186
-651.828	-120.230	-0.333	0.057
-650.814	-145.488	-0.228	0.020
-649.799	-78.287	0.185	-0.063
-648.784	731.026	-0.029	-0.078
-647.770	34.912	-0.158	-0.138
-646.755	-51.192	-0.451	-0.211
-645.741	800.000	0.062	-0.272
-644.726	-34.988	-0.316	-0.172
-643.711	-75.742	-0.267	-0.094
-642.697	-200.000	0.010	-0.103
-641.682	-116.349	-0.135	-0.025
-640.668	-68.400	0.165	-0.064
-639.653	-200.000	-0.032	-0.150
-638.638	30.418	-0.120	0.102
-637.624	-200.000	-0.044	-0.350
-636.609	46.119	0.071	-0.065
-635.595	-200.000	0.064	0.340
-634.580	-45.314	-0.271	0.134
-633.565	-83.764	0.179	-0.057
-632.551	-35.164	-0.257	0.140
-631.536	-89.645	-0.396	-0.116
-630.522	-88.297	0.302	0.090
-629.507	-112.168	-0.475	-0.095
-628.492	173.452	-0.297	-0.427
-627.478	49.167	0.266	-0.250
-626.463	-74.381	-0.121	0.044
-625.449	218.034	-0.059	-0.094
-624.434	-46.991	0.290	-0.141
-623.419	-200.000	0.006	-0.186
-622.405	-200.000	-0.040	0.257
-621.390	35.229	0.231	-0.202
-620.376	-76.723	0.150	0.053
-619.361	2.474	0.089	0.065
-618.346	133.953	0.138	0.179
-617.332	-82.702	0.232	-0.075
-616.317	7.859	-0.127	0.095
-615.303	153.213	0.251	-0.343
-614.288	106.001	0.078	0.092
-613.273	92.720	-0.326	-0.367
-612.259	-53.661	0.075	-0.034
-611.244	-62.087	0.047	0.019
-610.230	-47.410	-0.023	-0.011
-609.215	-146.627	0.144	-0.012
-608.201	95.662	0.174	-0.198
-607.186	32.723	0.141	0.122
-606.171	800.000	-0.038	0.134
-605.157	-200.000	0.051	-0.227
-604.142	800.000	0.056	0.160
-603.128	233.587	-0.110	0.181
-602.113	-200.000	-0.030	0.269
-601.098	-200.000	-0.015	-0.087
-600.084	-40.509	-0.341	-0.177
-599.069	314.796	0.055	-0.104
-598.055	75.452	-0.313	-0.329
-597.040	-120.728	0.078	-0.013
-596.025	-148.506	-0.262	0.021
-595.011	127.687	0.078	0.099
-593.996	171.666	0.143	-0.204
-592.982	-78.729	-0.331	-0.113
-591.967	127.549	0.133	-0.169
-590.952	-200.000	0.058	0.270
-589.938	-48.885	0.159	0.076
-588.923	-124.200	-0.341	0.053
-587.909	299.093	0.025	0.047
-586.894	-91.154	-0.093	-0.027
-585.879	196.744	0.088	-0.134
-584.865	-200.000	-0.006	0.283
-583.850	-156.277	-0.536	-0.033
-582.836	-57.747	-0.169	0.074
-581.821	20.188	0.174	0.140
-580.806	800.000	0.106	0.369
-579.792	-105.464	0.159	0.036
-578.777	-195.139	0.036	0.000
-577.763	-117.211	0.189	0.034
-576.748	27.815	0.267	-0.224
-575.733	-116.281	0.174	0.032
-574.719	-7.102	-0.168	-0.113
-573.704	583.085	-0.181	0.443
-572.690	-96.809	-0.153	0.040
-571.675	-75.827	0.075	-0.027
-570.661	27.311	0.206	-0.173
-569.646	800.000	-0.022	-0.088
-568.631	-3.422	-0.237	-0.164
-567.617	-55.726	-0.144	0.064
-566.602	144.013	-0.113	0.149
-565.588	-79.555	-0.204	0.069
-564.573	-189.679	-0.076	0.001
-563.558	-80.934	0.215	-0.071
-562.544	-200.000	-0.017	-0.101
-561.529	391.410	-0.110	-0.228
-560.515	-200.000	0.038	-0.234
-559.500	-92.492	-0.141	-0.039
-558.485	44.181	-0.233	0.212
-557.471	226.540	-0.116	-0.187
-556.456	-54.278	0.254	-0.115
-555.442	460.609	0.022	-0.049
-554.427	364.187	-0.166	-0.333
-553.412	86.178	0.078	0.085
-552.398	142.233	0.052	-0.069
-551.383	-51.735	-0.276	0.128
-550.369	138.862	-0.344	-0.450
-549.354	-200.000	-0.022	0.123
-548.339	191.397	0.140	0.209
-547.325	800.000	0.085	0.259
-546.310	800.000	0.029	-0.103
-545.296	-143.918	0.286	-0.027
-544.281	-116.621	0.275	-0.050
-543.266	450.064	-0.034	0.074
-542.252	187.282	0.193	0.286
-541.237	639.939	0.106	-0.267
-540.223	-11.610	0.111	-0.073
-539.208	800.000	0.077	0.237
-538.193	-200.000	0.026	0.193
-537.179	-113.957	0.137	-0.027
-536.164	-200.000	0.054	-0.251
-535.150	-70.601	-0.101	-0.038
-534.135	-85.277	0.121	-0.038
-533.121	-148.772	-0.368	-0.030
-532.106	240.315	-0.094	-0.156
-531.091	-28.875	0.201	0.115
-530.077	-143.080	0.245	0.024
-529.062	65.042	-0.349	0.350
-528.048	194.859	-0.116	0.175
-527.033	-117.285	-0.374	-0.068
-526.018	-12.859	0.108	0.070
-525.004	45.431	-0.186	-0.171
-523.989	-75.437	0.291	0.103
-522.975	-200.000	-0.004	0.084
-521.960	-158.494	0.212	-0.012
-520.945	122.810	0.354	-0.440
-519.931	94.418	0.201	-0.227
-518.916	-58.171	0.089	-0.038
-517.902	257.918	-0.067	-0.115
-516.887	37.938	0.300	0.265
-515.872	512.275	-0.102	-0.237
-514.858	-129.668	0.336	-0.046
-513.843	-73.557	0.164	0.059
-512.829	41.023	-0.044	-0.039
-511.814	-71.200	-0.103	0.038
-510.799	-165.517	0.301	-0.013
-509.785	-31.523	0.121	-0.067
-508.770	-25.158	0.094	-0.055
-507.756	-24.338	0.139	-0.082
-506.741	-151.617	0.236	-0.017
-505.726	27.753	0.164	0.137
-504.712	-142.256	-0.191	-0.019
-503.697	-200.000	-0.030	0.308
-502.683	196.065	0.136	-0.206
-501.668	-142.125	-0.424	-0.042
-500.653	720.760	0.182	-0.481
-499.639	-4.717	-0.143	-0.098
-498.624	800.000	0.063	0.217
-497.610	-77.211	-0.181	0.063
-496.595	357.860	0.038	-0.075
-495.581	142.613	0.173	-0.228
-494.566	8.828	0.242	0.181
-493.551	-19.715	0.135	0.083
-492.537	-200.000	0.021	0.166
-491.522	276.403	-0.070	-0.123
-490.508	260.075	-0.112	-0.193
-489.493	-200.000	-0.023	-0.125
-488.478	-200.000	-0.035	0.180
-487.464	-46.528	-0.444	-0.216
-486.449	800.000	0.062	0.261
-485.435	271.553	0.141	0.247
-484.420	-80.616	-0.120	0.040
-483.405	-111.785	0.154	-0.031
-482.391	72.738	-0.287	0.298
-481.376	124.482	-0.045	0.056
-480.362	-200.000	0.017	0.087
-479.347	-200.000	-0.022	0.546
-478.332	-37.993	0.279	-0.147
-477.318	-200.000	0.035	-0.396
-476.303	40.184	-0.269	0.240
-475.289	612.547	-0.102	0.254
-474.274	800.000	-0.029	0.122
-473.259	-200.000	0.012	-0.126
-472.245	168.196	0.230	-0.325
-471.230	186.789	0.219	0.324
-470.216	-71.686	-0.157	0.058
-469.201	234.564	0.084	0.138
-468.186	-187.123	0.272	-0.004
-467.172	-27.457	0.103	0.059
-466.157	-200.000	0.046	0.326
-465.143	-122.981	0.280	0.045
-464.128	303.310	0.105	0.194
-463.113	800.000	-0.033	0.132
-462.099	-78.299	0.226	0.077
-461.084	130.172	0.140	-0.177
-460.070	-63.916	-0.117	0.047
-459.055	-200.000	0.012	-0.520
-458.040	-57.166	0.135	-0.059
-457.026	-37.882	0.129	0.068
-456.011	-96.854	0.228	-0.059
-454.997	-39.405	0.258	0.134
-453.982	230.196	-0.304	-0.493
-452.968	-200.000	-0.058	-0.255
-451.953	-79.530	-0.131	0.044
-450.938	-114.855	0.043	0.008
-449.924	454.970	-0.050	0.110
-448.909	-68.863	0.198	0.076
-447.895	-200.000	0.008	0.107
-446.880	-61.172	0.250	0.105
-445.865	131.229	-0.188	-0.239
-444.851	190.133	-0.147	0.219
-443.836	35.338	-0.082	0.071
-442.822	18.101	-0.103	-0.081
-441.807	-120.853	-0.106	0.018
-440.792	800.000	0.088	0.299
-439.778	800.000	-0.133	0.454
-438.763	800.000	0.106	0.293
-437.749	800.000	-0.142	0.423
-436.734	-8.723	0.203	0.135
-435.719	-63.446	0.314	-0.128
-434.705	239.241	0.171	0.281
-433.690	800.000	0.120	-0.519
-432.676	-200.000	0.054	-0.252
-431.661	-200.000	-0.021	-0.484
-430.646	-64.725	0.251	0.101
-429.632	82.816	-0.100	0.108
-428.617	242.606	0.057	-0.094
-427.603	35.420	0.210	-0.182
-426.588	-0.228	0.283	0.199
-425.573	640.233	-0.089	0.224
-424.559	12.011	0.259	-0.198
-423.544	24.341	0.092	-0.075
-422.530	800.000	0.124	0.471
-421.515	-57.609	0.081	-0.035
-420.500	-104.280	-0.257	0.059
-419.486	800.000	-0.096	-0.331
-418.471	-169.996	-0.106	-0.004
-417.457	-200.000	-0.053	-0.336
-416.442	-58.487	-0.307	0.132
-415.428	-103.736	0.170	0.039
-414.413	-143.556	0.372	-0.035
-413.398	149.962	-0.191	-0.257
-412.384	35.947	0.113	-0.098
-411.369	-149.140	-0.276	-0.022
-410.355	-126.942	0.113	0.016
-409.340	-108.953	-0.284	-0.060
-408.325	-200.000	0.013	-0.295
-407.311	32.807	-0.321	0.275
-406.296	154.967	-0.163	0.222
-405.282	289.744	0.171	0.307
-404.267	-97.488	-0.333	-0.086
-403.252	-129.240	-0.274	-0.038
-402.238	129.343	-0.153	-0.194
-401.223	39.311	-0.399	0.353
-400.209	55.422	-0.243	-0.233
-399.194	-161.361	0.217	-0.011
-398.179	180.491	-0.064	0.093
-397.165	202.142	-0.199	-0.304
-396.150	36.488	0.295	-0.258
-395.136	-200.000	-0.028	-0.159
-394.121	800.000	0.108	0.327
-393.106	800.000	0.009	-0.039
-392.092	-133.514	-0.097	0.012
-391.077	566.063	0.176	0.421
-390.063	397.167	-0.140	-0.290
-389.048	-89.262	-0.169	-0.049
-388.033	168.920	-0.112	-0.158
-387.019	502.986	0.051	-0.117
-386.004	238.803	0.176	0.289
-384.990	-16.350	0.298	-0.187
-383.975	115.696	0.075	-0.091
-382.960	-200.000	-0.030	0.415
-381.946	-200.000	-0.001	-0.113
-380.931	450.168	-0.194	-0.423
-379.917	-44.567	-0.288	-0.142
-378.902	-58.934	-0.110	0.047
-377.888	-58.748	0.069	0.029
-376.873	-71.316	0.481	0.178
-375.858	260.983	-0.240	-0.411
-374.844	800.000	0.072	-0.245
-373.829	-3.207	-0.214	0.148
-372.815	46.543	0.259	0.238
-371.800	-32.713	-0.244	0.134
-370.785	-200.000	-0.012	-0.107
-369.771	-200.000	0.009	0.090
-368.756	-200.000	-0.043	-0.214
-367.742	-16.985	0.092	-0.057
-366.727	-35.480	0.126	0.068
-365.712	-4.209	-0.221	0.151
-364.698	-200.000	-0.002	0.037
-363.683	-200.000	-0.003	0.262
-362.669	-60.683	-0.245	0.103
-361.654	-200.000	-0.006	0.141
-360.639	-57.098	0.406	-0.177
-359.625	-142.235	-0.068	-0.007
-358.610	118.567	-0.167	0.204
-357.596	-107.558	0.041	-0.009
-356.581	49.964	-0.111	0.104
-355.566	59.591	0.115	-0.112
-354.552	-143.785	-0.302	0.028
-353.537	800.000	0.093	0.354
-352.523	-200.000	0.028	0.259
-351.508	-190.495	0.178	0.002
-350.493	334.996	0.094	-0.179
-349.479	-200.000	0.055	-0.264
-348.464	87.419	-0.208	-0.227
-347.450	362.222	-0.147	-0.291
-346.435	-44.199	-0.189	0.094
-345.420	467.082	0.135	0.300
-344.406	664.195	-0.099	0.252
-343.391	636.938	-0.070	-0.176
-342.377	220.202	0.141	-0.224
-341.362	48.847	0.175	-0.162
-340.348	-24.804	-0.237	0.139
-339.333	247.920	0.124	-0.207
-338.318	-200.000	-0.015	-0.090
-337.304	-35.698	-0.233	0.124
-336.289	6.966	-0.237	0.174
-335.275	800.000	0.040	-0.125
-334.260	8.229	0.059	0.044
-333.245	-161.105	0.060	0.003
-332.231	800.000	-0.128	-0.392
-331.216	196.407	-0.086	0.130
-330.202	20.847	0.142	0.114
-329.187	260.423	-0.129	-0.221
-328.172	-133.215	0.441	0.055
-327.158	-123.229	-0.346	-0.055
-326.143	70.195	-0.125	0.127
-325.129	145.937	0.120	0.158
-324.114	-82.859	0.122	0.039
-323.099	800.000	0.019	-0.057
-322.085	-200.000	0.001	-0.116
-321.070	-96.294	-0.186	-0.049
-320.056	16.534	0.082	0.064
-319.041	-200.000	0.031	0.306
-318.026	76.631	0.242	-0.254
-317.012	-97.424	0.081	-0.021
-315.997	-200.000	0.056	-0.252
-314.983	304.009	-0.033	-0.061
-313.968	-124.292	-0.505	0.078
-312.953	258.771	0.071	-0.120
-311.939	800.000	0.208	-0.686
-310.924	-109.157	-0.128	0.027
-309.910	-143.532	0.169	-0.016
-308.895	-29.228	0.295	-0.167
-307.880	141.825	0.114	0.149
-306.866	290.411	-0.181	0.323
-305.851	-76.574	0.189	0.065
-304.837	-120.859	-0.241	0.040
-303.822	800.000	-0.070	0.221
-302.807	169.242	-0.016	0.022
-301.793	73.444	-0.138	-0.143
-300.778	-76.933	-0.039	0.013
-299.764	-200.000	0.070	0.421
-298.749	-94.566	-0.229	-0.061
-297.735	-65.344	-0.289	-0.115
-296.720	169.765	0.154	-0.217
-295.705	-200.000	0.009	-0.253
-294.691	88.672	0.109	-0.119
-293.676	-75.876	-0.213	-0.074
-292.662	643.968	0.021	0.053
-291.647	-144.900	-0.155	0.014
-290.632	644.219	-0.085	-0.213
-289.618	-200.000	-0.002	-0.057
-288.603	313.614	0.159	0.294
-287.589	548.307	0.077	-0.183
-286.574	51.235	0.135	0.126
-285.559	17.238	0.096	-0.075
-284.545	369.571	-0.019	0.039
-283.530	-45.143	0.433	0.212
-282.516	-2.148	0.070	0.048
-281.501	67.049	0.141	0.141
-280.486	268.119	-0.325	0.561
-279.472	-131.363	0.101	0.013
-278.457	800.000	0.062	0.267
-277.443	800.000	0.094	-0.279
-276.428	292.885	-0.054	0.096
-275.413	800.000	0.058	-0.161
-274.399	-85.340	-0.332	0.102
-273.384	-138.765	-0.101	-0.011
-272.370	-82.916	-0.384	-0.122
-271.355	-98.780	0.247	-0.062
-270.340	59.447	0.130	-0.126
-269.326	-10.647	0.052	0.034
-268.311	-71.250	0.204	-0.075
-267.297	-128.263	-0.168	0.024
-266.282	-122.437	-0.331	0.053
-265.267	-34.213	0.330	0.179
-264.253	-49.920	-0.292	0.137
-263.238	800.000	0.018	0.072
-262.224	44.350	-0.031	0.028
-261.209	-24.995	-0.191	-0.111
-260.195	96.096	-0.237	0.266
-259.180	800.000	0.080	0.226
-258.165	800.000	-0.163	0.507
-257.151	98.330	0.172	0.195
-256.136	-45.193	0.137	0.067
-255.122	800.000	0.126	0.358
-254.107	143.227	-0.195	0.256
-253.092	170.788	0.270	-0.381
-252.078	800.000	-0.079	-0.310
-251.063	-87.775	-0.435	-0.129
-250.049	17.888	0.084	-0.066
-249.034	-37.863	-0.050	-0.026
-248.019	-30.634	-0.137	0.076
-247.005	-129.554	-0.274	-0.037
-245.990	310.145	-0.093	-0.170
-244.976	24.260	-0.104	0.084
-243.961	402.726	0.034	-0.071
-242.946	-112.788	-0.135	-0.026
-241.932	-95.927	-0.076	-0.020
-240.917	-58.790	-0.203	-0.086
-239.903	36.486	-0.315	0.273
-238.888	-200.000	-0.008	-0.284
-237.873	-48.263	0.172	-0.082
-236.859	70.705	-0.168	0.171
-235.844	-200.000	-0.001	0.369
-234.830	-68.354	0.172	0.066
-233.815	-200.000	0.009	0.070
-232.800	619.016	-0.041	-0.100
-231.786	240.516	0.139	-0.229
-230.771	250.589	-0.279	0.465
-229.757	232.458	-0.065	0.105
-228.742	-146.019	-0.091	0.008
-227.727	156.073	-0.192	0.261
-226.713	86.415	0.193	0.209
-225.698	800.000	-0.036	-0.139
-224.684	-200.000	0.049	-0.303
-223.669	-58.528	0.128	-0.055
-222.655	719.233	0.123	-0.322
-221.640	-143.648	0.070	-0.007
-220.625	-33.781	0.271	-0.147
-219.611	-59.341	0.377	0.160
-218.596	-128.582	0.140	0.019
-217.582	-165.108	-0.361	-0.016
-216.567	-99.536	0.551	-0.136
-215.552	800.000	-0.065	-0.241
-214.538	-26.455	-0.488	0.281
-213.523	-200.000	0.035	0.227
-212.509	263.849	-0.015	0.026
-211.494	289.250	0.050	0.090
-210.479	-136.434	0.099	0.011
-209.465	-139.258	0.220	-0.023
-208.450	-73.947	0.486	0.173
-207.436	391.451	0.081	0.165
-206.421	-166.623	-0.291	0.012
-205.406	19.890	0.107	0.085
-204.392	387.728	-0.114	0.232
-203.377	-17.488	0.337	0.208
-202.363	79.624	0.199	-0.209
-201.348	-122.899	-0.146	0.023
-200.333	-125.853	-0.252	0.037
-199.319	80.055	0.295	0.312
-198.304	196.490	-0.167	0.250
-197.290	214.108	-0.118	-0.183
-196.275	283.365	0.043	0.076
-195.260	-121.361	-0.183	0.030
-194.246	-200.000	0.002	0.025
-193.231	-67.503	0.259	0.100
-192.217	-107.206	0.386	0.084
-191.202	-124.870	-0.189	-0.029
-190.187	-57.725	0.193	0.083
-189.173	-103.832	0.270	0.062
-188.158	61.118	-0.135	-0.132
-187.144	220.276	-0.146	0.230
-186.129	218.076	0.055	0.087
-185.114	121.622	0.181	-0.222
-184.100	800.000	0.053	0.172
-183.085	-95.732	-0.132	0.035
-182.071	-200.000	0.010	0.055
-181.056	-200.000	0.011	0.070
-180.042	-45.549	0.255	-0.124
-179.027	95.238	0.151	-0.169
-178.012	-96.180	-0.281	0.073
-176.998	25.080	-0.092	-0.075
-175.983	306.251	0.208	-0.380
-174.969	-22.409	0.268	-0.159
-173.954	800.000	0.042	-0.178
-172.939	-93.056	-0.156	0.043
-171.925	542.428	-0.063	0.147
-170.910	22.949	0.201	-0.162
-169.896	151.626	-0.062	0.083
-168.881	17.152	0.091	-0.071
-167.866	-30.186	0.107	0.059
-166.852	-62.265	-0.223	0.091
-165.837	-17.914	0.320	-0.197
-164.823	58.838	0.147	-0.141
-163.808	800.000	-0.081	-0.239
-162.793	-13.750	0.167	0.106
-161.779	-108.031	-0.376	0.080
-160.764	-184.259	0.356	0.006
-159.750	-68.447	-0.160	0.061
-158.735	130.886	-0.188	-0.236
-157.720	-200.000	-0.152	-0.000
-156.706	74.054	-0.271	0.278
-155.691	120.009	-0.153	0.186
-154.677	-9.782	-0.249	-0.162
-153.662	-92.281	0.266	0.074
-152.647	33.368	-0.175	-0.149
-151.633	800.000	0.084	0.259
-150.618	-200.000	-0.087	0.409
-149.604	-120.863	-0.199	-0.033
-148.589	-68.057	0.400	-0.153
-147.574	-76.852	-0.150	-0.051
-146.560	54.702	-0.206	-0.195
-145.545	497.440	0.075	-0.169
-144.531	-45.494	-0.178	0.086
-143.516	-125.395	0.126	-0.019
-142.502	-89.365	-0.119	0.034
-141.487	-120.851	-0.443	-0.073
-140.472	800.000	-0.116	0.346
-139.458	-108.527	0.376	-0.079
-138.443	-158.925	0.136	-0.008
-137.429	56.688	-0.191	-0.183
-136.414	195.832	-0.135	-0.201
-135.399	-130.108	0.059	-0.008
-134.385	-200.000	0.022	-0.326
-133.370	800.000	-0.122	0.412
-132.356	-200.000	-0.002	0.026
-131.341	-181.511	0.319	0.006
-130.326	-63.607	-0.127	0.051
-129.312	-69.244	-0.132	-0.050
-128.297	280.037	0.092	0.161
-127.283	-41.106	0.192	-0.097
-126.268	10.346	0.430	-0.320
-125.253	327.284	0.031	-0.058
-124.239	-200.000	0.010	0.122
-123.224	-200.000	0.014	-0.134
-122.210	51.976	0.138	0.129
-121.195	800.000	-0.022	-0.068
-120.180	1.083	-0.075	0.053
