DTS Sentinel unit serial number:	SN413079Multiplexer serial number:	ORYXHardware model number:	OX4-SRSoftware version number:	ORYX F/W v4.00 Oryx Data Collector v3.7.2.0data status	okinstallation	princeton_trtdifferential loss correction	single-endedforward channel	channel 3reverse channel	N/Adate	2019/09/11time	06:26:11forward acquisition time	60.00reverse acquisition time	0.00gamma	496.2192k internal	0.2330k external	0.2330temperature offset calibration	0.9907default loss term (dB/km)	0.3790temperature slope calibration	1.0000multiplexer offset coefficient	1.0000multiplexer slope coefficient	1.0000fibre end	0.00T internal ref (°C)	29.56T ext. ref 1 (°C)	-0.21T ext. ref 2 (°C)	24.09length (m)	temperature (°C)	Stokes	anti-Stokes-747.200	35.936	-0.143	0.127
-746.185	43.749	-0.297	0.273
-745.171	-177.104	-0.211	0.005
-744.156	479.150	-0.089	0.202
-743.142	-74.549	0.164	0.060
-742.127	-64.335	0.069	-0.028
-741.112	800.000	0.035	0.136
-740.098	26.312	-0.191	0.161
-739.083	111.080	-0.082	-0.099
-738.069	-90.608	-0.209	-0.061
-737.054	-77.799	-0.395	-0.138
-736.039	-150.635	0.411	0.032
-735.025	-122.147	-0.285	0.047
-734.010	-86.479	0.087	-0.027
-732.996	291.895	0.061	-0.112
-731.981	-82.015	-0.032	-0.010
-730.966	-4.529	0.264	-0.184
-729.952	-22.945	0.210	-0.128
-728.937	-65.761	-0.285	-0.115
-727.923	-75.746	-0.103	0.037
-726.908	-200.000	-0.009	-0.066
-725.894	490.788	0.159	0.367
-724.879	-12.874	-0.228	0.149
-723.864	-133.660	-0.240	-0.030
-722.850	800.000	0.076	-0.267
-721.835	-80.215	-0.104	-0.035
-720.821	-200.000	-0.012	-0.157
-719.806	-200.000	-0.032	0.187
-718.791	-128.840	0.196	0.028
-717.777	-200.000	-0.011	-0.083
-716.762	-200.000	0.025	-0.115
-715.748	-80.460	0.089	0.030
-714.733	-82.014	-0.221	-0.073
-713.718	-109.984	0.221	-0.046
-712.704	-43.865	0.057	0.029
-711.689	101.658	-0.090	0.105
-710.675	-161.491	0.121	-0.006
-709.660	117.777	-0.152	0.188
-708.645	-138.048	-0.090	0.010
-707.631	-154.272	0.166	0.011
-706.616	-142.417	-0.030	-0.003
-705.602	-111.469	-0.316	0.065
-704.587	-85.873	-0.179	0.056
-703.572	-186.873	-0.171	-0.002
-702.558	-200.000	-0.333	0.001
-701.543	-59.104	-0.072	-0.031
-700.529	675.773	-0.073	-0.192
-699.514	-200.000	-0.019	-0.225
-698.499	-200.000	-0.001	0.219
-697.485	-200.000	0.006	-0.249
-696.470	-8.301	-0.178	0.121
-695.456	49.385	-0.264	-0.250
-694.441	-200.000	-0.024	-0.271
-693.426	124.140	0.172	-0.217
-692.412	-43.894	-0.104	0.052
-691.397	-200.000	0.011	0.072
-690.383	-62.427	-0.213	0.089
-689.368	51.809	-0.085	-0.082
-688.354	-83.970	0.145	-0.046
-687.339	800.000	-0.177	0.539
-686.324	45.154	0.064	-0.059
-685.310	355.335	-0.106	0.212
-684.295	209.699	0.068	0.107
-683.281	243.365	0.048	-0.081
-682.266	-200.000	0.005	-0.107
-681.251	-104.277	0.312	-0.073
-680.237	23.476	0.159	-0.132
-679.222	-125.843	-0.404	-0.061
-678.208	21.287	-0.087	0.071
-677.193	-91.549	0.196	-0.056
-676.178	28.435	0.148	0.126
-675.164	-200.000	-0.005	0.053
-674.149	-200.000	0.038	0.321
-673.135	-200.000	0.017	-0.089
-672.120	-200.000	0.041	-0.195
-671.105	-123.507	-0.390	-0.062
-670.091	73.920	0.061	0.064
-669.076	-200.000	0.001	-0.012
-668.062	253.460	-0.193	-0.331
-667.047	-200.000	-0.005	-0.174
-666.032	800.000	-0.108	0.397
-665.018	539.541	-0.084	0.201
-664.003	152.751	0.049	0.068
-662.989	-26.669	0.281	-0.165
-661.974	-200.000	0.079	-0.360
-660.959	-121.445	-0.296	-0.049
-659.945	-101.812	-0.251	-0.061
-658.930	-82.970	0.223	-0.072
-657.916	-5.999	0.133	-0.091
-656.901	-200.000	-0.004	0.096
-655.886	-0.531	-0.259	-0.185
-654.872	-146.497	0.198	0.017
-653.857	-200.000	0.305	-0.001
-652.843	-137.568	0.162	0.018
-651.828	324.029	-0.039	0.074
-650.814	-115.562	-0.253	-0.048
-649.799	9.537	-0.305	-0.232
-648.784	-114.911	-0.279	0.053
-647.770	11.626	0.175	0.135
-646.755	-184.633	-0.154	0.002
-645.741	23.484	-0.164	-0.135
-644.726	-70.149	-0.068	0.026
-643.711	-9.050	0.145	-0.097
-642.697	-88.780	-0.077	0.023
-641.682	-72.874	-0.169	0.062
-640.668	-200.000	0.016	-0.104
-639.653	-100.373	-0.153	0.038
-638.638	-41.747	0.081	0.042
-637.624	-146.860	-0.256	0.022
-636.609	186.112	-0.067	-0.100
-635.595	389.068	-0.012	-0.025
-634.580	-125.259	-0.214	0.033
-633.565	95.595	0.170	0.195
-632.551	287.870	0.121	0.220
-631.536	800.000	0.105	-0.390
-630.522	-42.934	0.144	0.073
-629.507	215.566	0.148	-0.235
-628.492	-200.000	-0.052	-0.260
-627.478	30.458	-0.150	-0.128
-626.463	81.925	-0.034	-0.037
-625.449	-54.922	0.396	-0.179
-624.434	-25.831	-0.388	-0.229
-623.419	-159.884	-0.411	-0.023
-622.405	310.583	0.214	0.402
-621.390	393.224	0.041	0.086
-620.376	-200.000	0.015	0.080
-619.361	246.272	-0.077	0.130
-618.346	-200.000	0.035	0.281
-617.332	26.227	0.019	0.016
-616.317	772.668	0.048	-0.132
-615.303	-161.208	-0.463	0.024
-614.288	302.525	-0.078	-0.144
-613.273	-147.977	0.179	0.015
-612.259	218.622	0.195	-0.311
-611.244	-200.000	-0.024	0.171
-610.230	800.000	0.037	0.140
-609.215	356.454	0.073	0.145
-608.201	41.720	0.049	-0.044
-607.186	576.084	-0.165	-0.403
-606.171	-140.568	0.159	-0.016
-605.157	-200.000	-0.023	-0.369
-604.142	62.116	-0.259	-0.258
-603.128	-200.000	-0.018	-0.165
-602.113	-125.517	0.097	-0.015
-601.098	-200.000	0.014	-0.220
-600.084	185.372	-0.009	0.014
-599.069	-40.042	0.295	-0.154
-598.055	-100.584	-0.155	0.038
-597.040	-48.623	-0.207	-0.100
-596.025	-53.151	0.348	-0.160
-595.011	-72.226	-0.078	-0.029
-593.996	51.850	-0.126	-0.120
-592.982	75.847	0.234	0.248
-591.967	56.187	-0.083	0.080
-590.952	77.414	0.107	0.114
-589.938	-178.804	-0.170	-0.004
-588.923	230.579	0.043	0.071
-587.909	-137.198	-0.213	0.024
-586.894	144.710	-0.136	0.182
-585.879	64.068	0.187	0.188
-584.865	103.161	-0.098	0.115
-583.850	-74.963	0.045	0.016
-582.836	800.000	-0.062	0.179
-581.821	436.127	0.080	0.174
-580.806	312.200	-0.137	0.258
-579.792	-165.704	-0.220	-0.010
-578.777	264.596	-0.163	0.284
-577.763	-37.073	-0.185	-0.099
-576.748	-25.222	0.277	-0.164
-575.733	-56.970	0.223	0.098
-574.719	-57.418	-0.094	-0.041
-573.704	-190.067	0.237	0.003
-572.690	-35.523	-0.326	0.177
-571.675	-53.438	0.254	-0.116
-570.661	187.409	0.125	-0.187
-569.646	-175.222	0.139	0.004
-568.631	-13.213	0.154	0.100
-567.617	14.901	-0.196	-0.153
-566.602	-200.000	0.011	-0.062
-565.588	-149.533	-0.270	-0.021
-564.573	15.656	0.206	-0.162
-563.558	-29.274	0.188	0.108
-562.544	51.866	-0.183	-0.174
-561.529	-47.627	-0.285	0.138
-560.515	-200.000	-0.014	0.134
-559.500	-185.770	-0.220	-0.003
-558.485	-186.404	0.405	-0.006
-557.471	-50.953	0.187	-0.088
-556.456	800.000	-0.030	0.095
-555.442	-200.000	0.017	-0.237
-554.427	125.644	-0.088	-0.111
-553.412	-88.343	-0.288	0.086
-552.398	-200.000	-0.009	-0.171
-551.383	92.916	-0.086	0.097
-550.369	-94.351	-0.384	0.105
-549.354	-200.000	-0.015	0.091
-548.339	-155.924	0.373	0.024
-547.325	-59.537	0.179	0.077
-546.310	309.480	-0.191	-0.356
-545.296	27.520	0.219	-0.184
-544.281	-70.512	-0.091	0.034
-543.266	-195.067	-0.374	-0.003
-542.252	-50.916	0.197	-0.093
-541.237	-131.289	0.172	-0.023
-540.223	88.528	-0.108	-0.120
-539.208	65.311	0.096	-0.097
-538.193	-16.493	-0.064	-0.040
-537.179	229.055	-0.118	-0.193
-536.164	31.337	0.192	0.165
-535.150	-81.965	0.159	-0.052
-534.135	426.647	0.043	0.093
-533.121	-106.184	-0.134	-0.030
-532.106	800.000	-0.043	0.145
-531.091	-200.000	-0.056	-0.521
-530.077	139.540	0.230	-0.303
-529.062	-94.921	-0.019	-0.005
-528.048	-117.602	-0.100	-0.018
-527.033	297.627	0.104	0.190
-526.018	-200.000	0.040	-0.305
-525.004	-200.000	-0.051	0.380
-523.989	394.618	0.245	0.510
-522.975	178.865	0.138	0.201
-521.960	-120.493	-0.186	-0.031
-520.945	176.212	0.166	0.241
-519.931	45.634	-0.264	-0.244
-518.916	14.700	-0.077	-0.060
-517.902	204.810	-0.203	-0.315
-516.887	35.217	-0.268	-0.234
-515.872	-46.200	-0.038	-0.019
-514.858	-99.959	-0.280	-0.070
-513.843	-9.867	-0.135	-0.090
-512.829	309.340	0.118	-0.219
-511.814	-102.267	-0.079	-0.019
-510.799	-76.377	0.259	-0.091
-509.785	-114.087	-0.464	0.090
-508.770	651.602	0.070	-0.178
-507.756	800.000	0.025	0.088
-506.741	-49.610	0.229	0.109
-505.726	0.330	0.102	0.072
-504.712	-155.285	0.304	-0.020
-503.697	800.000	0.047	0.201
-502.683	-62.009	-0.293	-0.122
-501.668	800.000	0.071	0.198
-500.653	-44.268	0.206	-0.103
-499.639	-16.112	-0.218	-0.138
-498.624	335.629	-0.064	-0.125
-497.610	94.022	0.231	0.261
-496.595	-141.905	0.092	0.009
-495.581	111.479	0.151	-0.182
-494.566	-165.223	-0.284	-0.012
-493.551	125.215	-0.149	0.187
-492.537	198.451	0.143	0.219
-491.522	-80.556	0.067	0.022
-490.508	525.860	0.090	0.212
-489.493	25.140	-0.209	-0.173
-488.478	468.651	0.046	0.103
-487.464	67.133	-0.085	-0.086
-486.449	327.429	-0.073	-0.140
-485.435	359.712	-0.089	-0.178
-484.420	-200.000	-0.006	0.057
-483.405	89.117	0.056	0.063
-482.391	-41.720	-0.280	-0.143
-481.376	16.297	-0.268	-0.211
-480.362	182.392	0.149	0.218
-479.347	-200.000	0.023	0.383
-478.332	-37.791	-0.221	0.117
-477.318	800.000	-0.042	-0.177
-476.303	92.508	-0.099	0.111
-475.289	-38.306	0.097	-0.051
-474.274	-78.432	-0.184	0.063
-473.259	236.322	0.053	0.087
-472.245	-12.541	-0.097	-0.063
-471.230	-79.211	-0.288	0.097
-470.216	114.868	-0.116	-0.141
-469.201	122.540	0.276	-0.343
-468.186	-200.000	-0.025	0.290
-467.172	-200.000	0.095	0.507
-466.157	-200.000	0.052	0.263
-465.143	-26.980	0.238	0.139
-464.128	-200.000	-0.017	0.085
-463.113	270.316	-0.112	-0.197
-462.099	242.378	-0.132	-0.221
-461.084	-91.948	-0.140	-0.040
-460.070	800.000	-0.071	0.212
-459.055	258.420	0.203	-0.347
-458.040	238.710	0.026	-0.043
-457.026	-78.460	-0.163	0.056
-456.011	41.428	-0.156	-0.140
-454.997	131.402	0.188	0.241
-453.982	-200.000	-0.037	0.384
-452.968	-200.000	-0.029	-0.212
-451.953	-200.000	0.002	-0.017
-450.938	203.697	-0.067	0.103
-449.924	674.783	-0.054	0.140
-448.909	68.280	-0.085	-0.087
-447.895	8.637	0.075	-0.056
-446.880	317.122	0.156	-0.294
-445.865	453.690	0.103	-0.227
-444.851	563.682	0.098	-0.236
-443.836	-85.095	-0.254	0.079
-442.822	-64.672	-0.062	0.025
-441.807	18.479	0.039	-0.031
-440.792	70.873	0.160	0.165
-439.778	-200.000	-0.019	0.132
-438.763	-200.000	0.014	-0.100
-437.749	-186.044	-0.100	0.001
-436.734	181.734	-0.106	0.156
-435.719	-121.962	0.252	0.041
-434.705	345.257	0.093	-0.181
-433.690	-182.343	-0.130	-0.002
-432.676	-56.275	-0.188	0.083
-431.661	-200.000	0.004	-0.218
-430.646	-200.000	0.015	0.280
-429.632	-29.921	0.221	-0.125
-428.617	-100.119	0.237	-0.059
-427.603	334.852	0.033	0.063
-426.588	77.910	0.186	-0.197
-425.573	800.000	0.032	0.117
-424.559	-75.627	0.164	0.058
-423.544	39.351	-0.326	-0.290
-422.530	-44.322	0.177	0.088
-421.515	172.674	0.134	0.192
-420.500	800.000	-0.110	0.332
-419.486	-200.000	-0.012	-0.198
-418.471	-55.889	0.180	-0.080
-417.457	-124.873	0.166	0.025
-416.442	402.989	0.171	0.358
-415.428	-152.015	-0.095	-0.007
-414.413	-91.678	-0.414	0.117
-413.398	442.517	0.112	0.244
-412.384	24.705	0.186	0.153
-411.369	800.000	0.070	0.255
-410.355	-90.332	0.109	-0.031
-409.340	-187.617	0.284	-0.004
-408.325	468.396	-0.055	-0.123
-407.311	-117.742	-0.138	0.025
-406.296	371.377	-0.104	-0.210
-405.282	800.000	-0.075	-0.303
-404.267	-200.000	-0.036	0.202
-403.252	-85.154	-0.215	-0.067
-402.238	364.611	0.058	0.116
-401.223	-86.692	0.093	0.028
-400.209	-200.000	-0.048	0.256
-399.194	-100.452	-0.066	0.016
-398.179	639.534	-0.079	-0.199
-397.165	-126.452	0.102	-0.015
-396.150	-65.735	-0.190	-0.076
-395.136	150.688	0.065	0.087
-394.121	-1.406	-0.111	-0.078
-393.106	66.742	0.092	-0.093
-392.092	-200.000	-0.029	-0.305
-391.077	60.068	-0.181	0.177
-390.063	800.000	0.071	-0.295
-389.048	189.975	0.136	0.203
-388.033	9.559	-0.114	0.086
-387.019	-76.611	-0.161	-0.056
-386.004	98.576	-0.093	0.106
-384.990	-105.197	-0.154	0.035
-383.975	17.187	-0.262	0.206
-382.960	800.000	0.106	-0.292
-381.946	-81.108	-0.132	-0.043
-380.931	500.470	0.067	0.153
-379.917	70.896	-0.163	0.168
-378.902	338.090	0.104	0.201
-377.888	48.083	0.227	0.210
-376.873	165.073	-0.235	-0.329
-375.858	441.846	-0.101	0.220
-374.844	-14.048	-0.134	0.086
-373.829	-68.934	-0.280	-0.107
-372.815	-151.888	0.290	-0.021
-371.800	243.530	-0.158	-0.263
-370.785	-165.296	-0.156	0.007
-369.771	52.588	0.159	0.151
-368.756	-156.557	-0.190	-0.012
-367.742	503.256	-0.115	0.265
-366.727	486.358	0.091	-0.205
-365.712	279.830	0.024	0.042
-364.698	97.504	-0.159	0.181
-363.683	-74.289	-0.184	-0.066
-362.669	-85.957	0.304	0.093
-361.654	193.052	-0.108	0.162
-360.639	396.035	0.141	0.291
-359.625	390.614	-0.072	0.147
-358.610	137.506	-0.030	-0.039
-357.596	375.785	-0.091	0.183
-356.581	-66.354	-0.120	0.047
-355.566	-87.481	-0.031	0.009
-354.552	-131.357	0.160	-0.021
-353.537	800.000	0.111	0.321
-352.523	27.307	-0.126	0.105
-351.508	-61.859	-0.072	0.030
-350.493	800.000	0.062	0.260
-349.479	49.312	0.246	0.229
-348.464	-200.000	-0.033	-0.251
-347.450	800.000	0.081	-0.342
-346.435	-120.435	0.139	-0.023
-345.420	661.911	0.090	-0.229
-344.406	-98.192	-0.290	0.074
-343.391	800.000	0.026	0.102
-342.377	800.000	0.027	-0.098
-341.362	459.143	0.199	-0.438
-340.348	-175.302	0.164	-0.004
-339.333	188.088	0.206	0.305
-338.318	514.884	-0.026	-0.061
-337.304	-38.673	-0.280	-0.147
-336.289	-200.000	-0.003	0.019
-335.275	-21.000	0.225	-0.136
-334.260	-200.000	-0.054	-0.347
-333.245	172.197	-0.168	0.239
-332.231	-169.270	-0.240	-0.009
-331.216	-165.154	0.072	-0.003
-330.202	-21.850	0.248	0.149
-329.187	-148.673	0.269	-0.022
-328.172	210.723	0.150	-0.234
-327.158	170.271	0.088	-0.124
-326.143	469.868	0.022	-0.048
-325.129	800.000	0.104	-0.290
-324.114	-43.259	-0.132	0.066
-323.099	55.211	-0.248	0.238
-322.085	206.150	-0.105	-0.162
-321.070	-98.779	0.273	0.069
-320.056	-84.794	0.097	-0.030
-319.041	495.871	0.030	0.068
-318.026	33.195	0.076	-0.065
-317.012	342.613	-0.109	-0.212
-315.997	800.000	0.036	-0.109
-314.983	-78.290	0.072	-0.024
-313.968	-22.966	-0.309	0.184
-312.953	0.381	0.211	-0.150
-311.939	254.150	0.114	-0.193
-310.924	-116.095	0.241	0.044
-309.910	-175.699	-0.194	0.005
-308.895	473.231	-0.091	-0.202
-307.880	105.204	-0.336	0.392
-306.866	800.000	0.062	0.261
-305.851	16.050	-0.085	0.066
-304.837	-44.123	0.246	-0.122
-303.822	800.000	0.031	0.124
-302.807	206.473	0.106	0.163
-301.793	-79.014	0.403	-0.136
-300.778	-200.000	-0.053	-0.264
-299.764	800.000	0.035	-0.145
-298.749	-71.516	-0.091	0.034
-297.735	-44.639	0.204	0.101
-296.720	-25.038	0.382	-0.224
-295.705	-119.364	0.122	-0.021
-294.691	263.507	0.070	0.121
-293.676	171.647	-0.062	0.088
-292.662	-79.882	0.414	-0.138
-291.647	-46.500	0.118	-0.057
-290.632	-107.083	-0.131	0.029
-289.618	-37.828	0.289	-0.152
-288.603	-200.000	0.020	0.187
-287.589	168.582	0.206	-0.290
-286.574	-119.424	-0.122	-0.021
-285.559	-30.754	-0.061	-0.034
-284.545	-78.679	-0.129	-0.044
-283.530	-51.558	-0.015	0.007
-282.516	-89.104	-0.194	-0.057
-281.501	130.339	-0.099	-0.126
-280.486	-117.573	0.153	0.027
-279.472	-106.105	0.292	0.065
-278.457	550.428	0.132	0.314
-277.443	-200.000	-0.045	-0.370
-276.428	1.988	0.174	0.124
-275.413	-200.000	-0.028	0.142
-274.399	-84.537	0.257	-0.080
-273.384	-100.413	0.247	-0.060
-272.370	-24.633	0.221	0.130
-271.355	800.000	0.068	-0.210
-270.340	274.587	0.140	0.246
-269.326	50.489	0.067	-0.062
-268.311	188.660	0.138	-0.204
-267.297	87.837	0.085	-0.093
-266.282	165.554	0.182	-0.254
-265.267	643.224	-0.097	0.245
-264.253	422.459	0.158	0.336
-263.238	47.335	0.164	0.151
-262.224	-59.569	-0.091	-0.039
-261.209	-148.539	0.046	0.004
-260.195	-106.451	-0.164	-0.036
-259.180	72.008	0.226	-0.232
-258.165	-61.871	-0.338	0.140
-257.151	800.000	0.066	-0.203
-256.136	347.998	-0.058	-0.113
-255.122	20.412	-0.137	0.109
-254.107	800.000	0.029	-0.100
-253.092	-200.000	-0.038	-0.203
-252.078	413.510	-0.120	-0.251
-251.063	-60.373	0.328	-0.138
-250.049	-22.232	-0.341	-0.204
-249.034	-152.664	0.092	0.006
-248.019	7.943	-0.158	0.117
-247.005	-33.360	-0.071	0.039
-245.990	61.437	0.206	0.202
-244.976	21.917	-0.031	-0.025
-243.961	-99.243	-0.199	-0.050
-242.946	121.801	0.093	0.115
-241.932	190.238	0.197	0.292
-240.917	-200.000	0.027	-0.122
-239.903	30.859	-0.158	0.133
-238.888	-128.848	0.373	-0.052
-237.873	-200.000	-0.055	0.300
-236.859	-21.586	0.119	0.072
-235.844	-100.907	-0.240	-0.058
-234.830	191.452	0.212	-0.315
-233.815	86.382	0.269	-0.293
-232.800	800.000	-0.033	0.135
-231.786	-140.238	-0.131	-0.014
-230.771	-40.193	0.388	0.199
-229.757	13.948	0.301	0.231
-228.742	-134.079	0.410	-0.050
-227.727	-139.779	0.078	-0.008
-226.713	-141.345	-0.151	0.015
-225.698	398.087	0.021	-0.043
-224.684	137.203	0.009	0.011
-223.669	-4.569	0.082	0.056
-222.655	-156.412	-0.086	0.005
-221.640	-37.626	0.168	-0.089
-220.625	-106.783	-0.194	0.042
-219.611	-45.405	0.223	-0.109
-218.596	21.665	-0.283	-0.227
-217.582	39.985	-0.279	-0.248
-216.567	307.585	0.072	-0.132
-215.552	-92.390	0.241	0.067
-214.538	635.772	-0.125	0.312
-213.523	20.283	0.151	0.120
-212.509	418.133	-0.005	-0.010
-211.494	47.118	0.182	-0.167
-210.479	-200.000	-0.009	-0.366
-209.465	95.149	-0.075	-0.084
-208.450	-47.912	-0.055	0.026
-207.436	-48.079	-0.340	0.162
-206.421	800.000	-0.073	0.287
-205.406	-200.000	-0.023	-0.252
-204.392	-79.671	-0.198	0.066
-203.377	546.891	0.072	-0.169
-202.363	160.544	0.113	0.155
-201.348	800.000	-0.060	-0.215
-200.333	-68.004	-0.307	-0.118
-199.319	268.917	-0.128	-0.222
-198.304	413.577	0.122	0.257
-197.290	800.000	-0.057	-0.187
-196.275	-126.707	-0.209	-0.030
-195.260	800.000	0.030	0.115
-194.246	201.233	0.109	0.166
-193.231	-72.133	0.185	0.068
-192.217	206.520	-0.131	-0.202
-191.202	108.321	-0.291	-0.342
-190.187	48.448	0.197	0.182
-189.173	786.399	0.081	0.220
-188.158	-200.000	-0.047	-0.387
-187.144	519.141	0.127	-0.294
-186.129	45.918	-0.086	0.079
-185.114	-200.000	-0.036	0.264
-184.100	587.994	-0.078	0.190
-183.085	-16.060	-0.285	0.179
-182.071	-200.000	0.015	0.268
-181.056	-60.843	0.222	-0.092
-180.042	-77.355	0.066	-0.023
-179.027	516.447	0.051	0.118
-178.012	-145.468	0.203	-0.018
-176.998	-200.000	-0.004	0.197
-175.983	-200.000	-0.004	0.128
-174.969	-24.905	-0.195	0.114
-173.954	-121.373	0.320	0.052
-172.939	-200.000	-0.015	-0.079
-171.925	800.000	0.026	-0.089
-170.910	208.191	-0.147	0.227
-169.896	-200.000	-0.004	0.394
-168.881	120.779	-0.123	0.151
-167.866	-41.377	-0.299	0.152
-166.852	-143.592	0.193	0.018
-165.837	-188.766	0.101	-0.001
-164.823	800.000	-0.053	0.159
-163.808	685.953	-0.089	0.228
-162.793	79.290	0.061	0.065
-161.779	-156.782	-0.300	0.018
-160.764	-108.501	0.156	-0.033
-159.750	623.124	-0.128	-0.318
-158.735	-170.631	0.175	-0.006
-157.720	468.345	-0.034	0.075
-156.706	-200.000	-0.080	0.588
-155.691	27.979	-0.243	0.201
-154.677	-55.838	-0.231	-0.101
-153.662	-131.032	-0.059	-0.008
-152.647	-200.000	-0.043	-0.226
-151.633	144.976	-0.034	-0.045
-150.618	800.000	-0.077	-0.316
-149.604	-105.753	0.147	-0.033
-148.589	-79.567	-0.290	-0.096
-147.574	-31.332	-0.316	-0.175
-146.560	145.930	0.094	-0.125
-145.545	-12.633	-0.138	-0.089
-144.531	-200.000	0.067	-0.452
-143.516	-162.755	0.326	0.016
-142.502	108.353	-0.167	0.195
-141.487	276.241	0.070	-0.122
-140.472	182.093	-0.076	-0.110
-139.458	84.110	0.038	0.041
-138.443	164.741	0.192	-0.266
-137.429	18.438	0.073	-0.057
-136.414	310.367	0.136	-0.250
-135.399	-61.060	0.100	-0.041
-134.385	-82.173	-0.332	-0.107
-133.370	150.715	0.157	-0.210
-132.356	-200.000	0.014	0.084
-131.341	-161.205	0.107	0.005
-130.326	415.281	-0.144	-0.303
-129.312	-154.970	-0.330	0.021
-128.297	-147.905	-0.245	-0.020
-127.283	-133.751	0.068	-0.008
-126.268	98.564	-0.094	-0.106
-125.253	-200.000	0.001	-0.092
-124.239	-200.000	0.041	-0.266
-123.224	-118.260	-0.333	-0.058
-122.210	145.685	0.171	-0.226
