DTS Sentinel unit serial number:	SN413079Multiplexer serial number:	ORYXHardware model number:	OX4-SRSoftware version number:	ORYX F/W v4.00 Oryx Data Collector v3.7.2.0data status	okinstallation	princeton_trtdifferential loss correction	single-endedforward channel	channel 3reverse channel	N/Adate	2019/09/19time	12:28:35forward acquisition time	60.00reverse acquisition time	0.00gamma	496.2192k internal	0.2336k external	0.2336temperature offset calibration	0.9992default loss term (dB/km)	0.3790temperature slope calibration	1.0000multiplexer offset coefficient	1.0000multiplexer slope coefficient	1.0000fibre end	0.00T internal ref (°C)	26.98T ext. ref 1 (°C)	0.87T ext. ref 2 (°C)	24.41length (m)	temperature (°C)	Stokes	anti-Stokes-747.200	-200.000	0.005	-0.159
-746.185	-91.632	-0.249	0.071
-745.171	92.979	-0.311	0.353
-744.156	192.306	-0.166	0.252
-743.142	800.000	0.028	0.100
-742.127	-200.000	-0.057	0.311
-741.112	28.640	-0.232	-0.197
-740.098	-96.357	0.262	0.070
-739.083	259.919	0.064	-0.112
-738.069	0.446	0.045	-0.032
-737.054	-200.000	0.043	0.338
-736.039	-200.000	0.005	0.262
-735.025	266.206	0.207	0.363
-734.010	46.023	-0.378	-0.351
-732.996	-76.425	-0.027	0.010
-731.981	58.289	0.171	0.169
-730.966	245.057	-0.099	-0.167
-729.952	-200.000	0.055	-0.355
-728.937	-101.299	-0.312	-0.076
-727.923	80.921	-0.265	-0.287
-726.908	-39.937	0.177	0.093
-725.894	-116.356	0.132	0.024
-724.879	-57.943	-0.446	0.195
-723.864	-12.821	-0.028	0.018
-722.850	88.130	-0.245	-0.273
-721.835	412.672	0.088	0.188
-720.821	245.897	-0.086	-0.146
-719.806	-26.171	-0.133	0.078
-718.791	800.000	-0.083	0.243
-717.777	-41.416	-0.211	-0.109
-716.762	47.451	-0.217	0.203
-715.748	748.255	-0.105	0.285
-714.733	-200.000	-0.030	0.141
-713.718	-118.494	-0.273	0.048
-712.704	83.011	-0.160	-0.175
-711.689	-134.405	0.189	0.023
-710.675	-6.348	0.112	-0.077
-709.660	16.937	0.067	-0.053
-708.645	196.407	-0.223	-0.341
-707.631	-77.513	0.241	0.084
-706.616	21.353	-0.191	-0.156
-705.602	7.103	-0.011	-0.008
-704.587	-102.978	-0.257	-0.061
-703.572	140.401	-0.187	-0.247
-702.558	23.998	-0.275	0.228
-701.543	-113.174	-0.165	0.033
-700.529	409.991	0.202	-0.428
-699.514	122.133	0.081	-0.101
-698.499	8.302	0.178	-0.134
-697.485	800.000	-0.069	-0.272
-696.470	75.155	0.171	-0.181
-695.456	757.423	-0.062	0.169
-694.441	350.442	0.051	-0.101
-693.426	150.322	0.039	0.053
-692.412	77.710	0.038	0.041
-691.397	-200.000	0.005	0.325
-690.383	-126.829	-0.307	0.045
-689.368	-173.375	0.244	0.007
-688.354	-64.331	-0.157	-0.064
-687.339	39.564	0.036	-0.033
-686.324	519.495	-0.038	-0.088
-685.310	800.000	-0.003	-0.013
-684.295	-150.143	0.219	-0.017
-683.281	85.991	0.065	-0.072
-682.266	800.000	-0.083	-0.276
-681.251	-200.000	0.025	0.134
-680.237	-52.465	-0.115	-0.053
-679.222	-116.337	-0.530	0.098
-678.208	-47.105	0.297	0.145
-677.193	-200.000	0.013	0.058
-676.178	-14.523	-0.328	0.212
-675.164	487.599	-0.036	-0.083
-674.149	-0.930	-0.110	0.078
-673.135	-17.157	-0.251	-0.159
-672.120	-12.384	-0.244	0.160
-671.105	-114.276	-0.335	-0.065
-670.091	800.000	-0.033	0.108
-669.076	-151.991	-0.292	0.021
-668.062	-107.342	-0.198	0.044
-667.047	137.543	-0.029	0.038
-666.032	68.320	-0.072	-0.074
-665.018	-84.280	-0.132	0.042
-664.003	295.261	0.066	-0.120
-662.989	-139.623	0.139	-0.015
-661.974	-181.231	-0.042	-0.001
-660.959	-25.257	0.018	0.011
-659.945	-200.000	0.060	-0.282
-658.930	800.000	0.011	-0.044
-657.916	577.392	-0.078	-0.191
-656.901	-14.889	0.259	0.166
-655.886	800.000	-0.075	0.249
-654.872	185.928	0.088	0.131
-653.857	270.646	-0.105	0.184
-652.843	52.949	0.143	-0.137
-651.828	277.772	-0.124	-0.221
-650.814	2.014	0.294	-0.212
-649.799	115.657	-0.121	0.149
-648.784	-143.235	-0.311	0.030
-647.770	-200.000	0.005	0.040
-646.755	-21.630	-0.044	0.027
-645.741	-126.187	0.429	-0.064
-644.726	-84.467	0.341	0.108
-643.711	-200.000	0.004	0.058
-642.697	2.465	-0.113	-0.082
-641.682	-77.348	-0.358	0.124
-640.668	-92.890	0.215	0.060
-639.653	800.000	0.024	-0.082
-638.638	-59.321	0.143	-0.061
-637.624	-43.964	-0.146	0.073
-636.609	-200.000	-0.001	0.030
-635.595	6.367	-0.183	-0.136
-634.580	-9.285	0.233	0.155
-633.565	-71.083	-0.272	0.102
-632.551	800.000	-0.059	-0.197
-631.536	-10.552	-0.211	0.140
-630.522	-200.000	-0.011	0.062
-629.507	-86.790	-0.221	0.068
-628.492	7.727	0.166	-0.125
-627.478	-64.408	0.256	0.104
-626.463	800.000	0.075	0.264
-625.449	150.370	-0.042	-0.057
-624.434	43.961	-0.058	-0.053
-623.419	800.000	0.158	-0.461
-622.405	-200.000	-0.007	-0.247
-621.390	-200.000	-0.031	-0.214
-620.376	45.187	-0.175	-0.162
-619.361	-146.956	-0.242	0.021
-618.346	609.988	0.077	0.192
-617.332	-74.185	0.159	0.058
-616.317	800.000	0.070	0.220
-615.303	-200.000	0.035	0.263
-614.288	397.653	0.068	-0.142
-613.273	800.000	-0.034	-0.130
-612.259	-79.141	0.470	-0.160
-611.244	259.884	-0.132	-0.228
-610.230	763.003	-0.101	0.274
-609.215	45.421	-0.096	-0.089
-608.201	13.107	0.208	-0.161
-607.186	487.361	0.079	-0.181
-606.171	-131.828	0.175	-0.023
-605.157	-122.446	-0.177	0.029
-604.142	-5.604	-0.157	-0.108
-603.128	-200.000	0.050	-0.253
-602.113	52.552	-0.158	0.151
-601.098	-27.021	-0.086	0.050
-600.084	-26.526	-0.249	-0.146
-599.069	31.964	-0.228	-0.196
-598.055	-200.000	0.072	-0.462
-597.040	90.360	0.156	-0.175
-596.025	-32.470	-0.227	0.126
-595.011	62.014	-0.189	0.188
-593.996	-200.000	-0.034	-0.197
-592.982	-200.000	-0.024	0.181
-591.967	800.000	-0.032	-0.129
-590.952	-200.000	-0.002	0.240
-589.938	374.616	0.124	-0.253
-588.923	-33.243	-0.320	-0.177
-587.909	-200.000	0.001	0.034
-586.894	-52.316	-0.260	-0.120
-585.879	-140.638	0.531	-0.055
-584.865	61.222	-0.079	-0.078
-583.850	-116.043	0.104	0.019
-582.836	85.202	-0.084	-0.091
-581.821	-200.000	0.032	-0.156
-580.806	34.643	0.041	-0.036
-579.792	-133.131	-0.205	0.026
-578.777	92.444	-0.172	-0.194
-577.763	-67.192	-0.078	-0.031
-576.748	-149.609	-0.293	-0.023
-575.733	168.229	-0.212	0.301
-574.719	-32.851	0.100	-0.055
-573.704	612.908	0.032	0.080
-572.690	800.000	-0.032	0.101
-571.675	-79.139	-0.122	-0.041
-570.661	-0.195	0.065	0.046
-569.646	-29.696	0.327	0.186
-568.631	800.000	-0.098	0.342
-567.617	-120.964	0.209	-0.035
-566.602	-60.762	-0.294	0.124
-565.588	-27.370	-0.274	-0.159
-564.573	-132.059	-0.355	0.046
-563.558	-155.865	0.264	-0.017
-562.544	-31.454	0.096	0.054
-561.529	-51.011	-0.319	0.149
-560.515	-200.000	0.015	-0.118
-559.500	123.606	-0.091	-0.114
-558.485	60.063	0.179	0.177
-557.471	0.032	-0.380	-0.270
-556.456	-16.037	-0.151	-0.096
-555.442	48.218	-0.194	-0.181
-554.427	448.433	0.150	0.330
-553.412	-147.896	-0.321	0.027
-552.398	435.530	0.110	-0.238
-551.383	-200.000	0.031	-0.136
-550.369	-200.000	0.006	-0.229
-549.354	-59.985	-0.334	0.142
-548.339	67.349	0.126	0.128
-547.325	-142.972	-0.125	-0.012
-546.310	-157.421	-0.241	0.014
-545.296	548.642	-0.110	0.263
-544.281	62.627	0.206	-0.205
-543.266	104.946	0.408	0.479
-542.252	-200.000	0.022	0.465
-541.237	-200.000	-0.048	-0.251
-540.223	-76.033	0.268	0.094
-539.208	-70.091	-0.224	-0.085
-538.193	-200.000	0.024	-0.258
-537.179	-200.000	-0.001	-0.112
-536.164	-200.000	0.002	0.046
-535.150	164.467	0.093	-0.131
-534.135	-24.203	-0.087	0.052
-533.121	-200.000	0.032	0.195
-532.106	12.441	-0.105	0.081
-531.091	18.123	0.296	-0.236
-530.077	-65.667	-0.481	-0.192
-529.062	-64.750	-0.210	-0.085
-528.048	-93.395	-0.379	-0.105
-527.033	55.956	0.206	-0.199
-526.018	-143.698	-0.241	0.023
-525.004	263.128	0.131	-0.227
-523.989	36.757	-0.191	-0.168
-522.975	750.666	-0.121	-0.325
-521.960	499.517	-0.039	0.089
-520.945	105.898	-0.172	0.203
-519.931	-79.329	-0.164	-0.055
-518.916	-108.457	0.366	0.078
-517.902	-152.666	-0.093	0.007
-516.887	85.686	-0.207	0.227
-515.872	-200.000	-0.058	0.318
-514.858	357.810	0.032	-0.064
-513.843	66.086	0.128	-0.129
-512.829	-200.000	-0.005	0.142
-511.814	175.078	0.137	0.197
-510.799	-200.000	-0.047	-0.218
-509.785	365.582	-0.068	-0.136
-508.770	54.678	-0.141	0.135
-507.756	23.800	-0.230	0.189
-506.741	186.310	0.011	-0.016
-505.726	-69.559	0.239	0.091
-504.712	718.362	0.033	-0.088
-503.697	-117.448	-0.062	-0.011
-502.683	322.997	0.035	0.066
-501.668	-200.000	-0.022	0.103
-500.653	-200.000	-0.085	0.000
-499.639	-72.773	0.091	-0.033
-498.624	-147.437	-0.190	0.016
-497.610	-69.398	0.192	0.073
-496.595	326.210	-0.101	0.193
-495.581	138.848	-0.085	-0.111
-494.566	-147.134	-0.098	0.008
-493.551	800.000	-0.053	0.170
-492.537	-23.322	-0.123	0.074
-491.522	159.487	-0.090	-0.125
-490.508	-6.148	-0.335	-0.228
-489.493	95.821	-0.206	-0.234
-488.478	22.828	-0.122	-0.100
-487.464	154.695	-0.212	-0.289
-486.449	34.669	0.192	0.167
-485.435	-200.000	0.019	-0.191
-484.420	-200.000	-0.072	0.318
-483.405	-118.784	-0.272	-0.048
-482.391	517.918	0.067	0.155
-481.376	-200.000	0.015	0.240
-480.362	-13.071	-0.203	0.131
-479.347	-83.492	0.160	0.051
-478.332	593.214	-0.118	0.289
-477.318	205.253	0.116	0.178
-476.303	-57.938	-0.259	0.113
-475.289	369.905	-0.163	-0.329
-474.274	-113.664	-0.160	0.031
-473.259	11.557	-0.233	0.178
-472.245	-57.063	-0.136	-0.060
-471.230	-200.000	-0.028	-0.197
-470.216	42.948	0.246	0.223
-469.201	30.967	0.103	0.088
-468.186	800.000	0.066	0.195
-467.172	800.000	-0.050	0.162
-466.157	99.343	-0.218	0.250
-465.143	253.719	-0.123	-0.208
-464.128	-17.882	-0.087	0.054
-463.113	-146.251	-0.273	-0.024
-462.099	-200.000	0.003	-0.228
-461.084	191.127	-0.150	0.225
-460.070	7.016	0.100	-0.074
-459.055	-200.000	-0.053	0.443
-458.040	3.137	0.177	-0.128
-457.026	-81.507	0.208	0.068
-456.011	42.254	0.155	-0.140
-454.997	-114.915	-0.155	-0.029
-453.982	-77.597	0.456	0.157
-452.968	101.773	-0.179	-0.208
-451.953	101.831	-0.315	-0.364
-450.938	-200.000	0.092	-0.517
-449.924	-73.615	0.330	-0.119
-448.909	120.148	0.133	-0.164
-447.895	268.944	-0.088	-0.153
-446.880	461.853	0.010	0.022
-445.865	-69.546	-0.281	0.107
-444.851	-126.032	0.244	-0.036
-443.836	800.000	0.023	-0.098
-442.822	-40.817	0.058	0.030
-441.807	-22.900	0.133	0.080
-440.792	-33.644	0.131	-0.072
-439.778	-200.000	-0.033	-0.157
-438.763	103.910	0.111	-0.130
-437.749	-87.726	-0.086	0.026
-436.734	800.000	0.053	0.169
-435.719	-200.000	-0.016	-0.087
-434.705	-200.000	0.038	0.229
-433.690	-23.726	0.447	-0.266
-432.676	-51.527	-0.133	-0.062
-431.661	-53.731	0.044	0.020
-430.646	-22.927	-0.211	0.126
-429.632	800.000	0.075	0.261
-428.617	-200.000	0.028	-0.122
-427.603	-200.000	-0.032	-0.178
-426.588	800.000	-0.108	-0.299
-425.573	-23.126	-0.083	0.050
-424.559	-200.000	-0.018	0.084
-423.544	-22.326	-0.293	0.176
-422.530	-91.821	0.171	0.048
-421.515	80.672	-0.065	-0.069
-420.500	87.534	-0.196	0.215
-419.486	393.338	-0.005	-0.010
-418.471	-200.000	0.002	-0.246
-417.457	252.298	-0.059	0.099
-416.442	-53.160	-0.152	0.069
-415.428	-139.139	0.248	-0.027
-414.413	110.471	0.127	-0.151
-413.398	34.514	0.248	-0.214
-412.384	-36.177	0.098	-0.052
-411.369	-56.313	-0.163	-0.072
-410.355	-200.000	-0.025	-0.234
-409.340	-79.458	0.235	0.079
-408.325	0.936	-0.367	-0.261
-407.311	800.000	0.047	-0.175
-406.296	-53.018	0.128	0.058
-405.282	-53.576	-0.071	-0.032
-404.267	429.578	-0.069	0.149
-403.252	-23.844	-0.204	-0.121
-402.238	50.510	-0.338	0.317
-401.223	-76.055	0.364	-0.128
-400.209	-46.347	0.269	0.131
-399.194	12.380	0.298	-0.228
-398.179	-200.000	-0.007	-0.173
-397.165	153.983	-0.066	0.089
-396.150	67.075	-0.049	0.050
-395.136	800.000	0.069	0.198
-394.121	8.152	0.062	-0.046
-393.106	-79.673	-0.397	-0.133
-392.092	-108.826	0.238	-0.050
-391.077	-200.000	0.011	0.136
-390.063	-200.000	-0.010	0.086
-389.048	232.773	-0.107	0.174
-388.033	800.000	-0.123	-0.385
-387.019	800.000	-0.095	0.311
-386.004	210.437	0.113	0.175
-384.990	-200.000	-0.060	-0.354
-383.975	-200.000	0.008	0.057
-382.960	-200.000	-0.016	0.093
-381.946	157.197	0.041	-0.056
-380.931	-74.856	0.347	-0.123
-379.917	-65.022	-0.095	0.038
-378.902	-52.803	0.302	-0.138
-377.888	-200.000	0.005	0.077
-376.873	-121.222	0.099	0.016
-375.858	-21.081	0.155	-0.094
-374.844	211.735	0.193	-0.300
-373.829	-200.000	-0.000	0.077
-372.815	800.000	-0.057	0.178
-371.800	-200.000	-0.007	-0.088
-370.785	88.283	-0.040	0.044
-369.771	800.000	0.036	0.102
-368.756	-182.803	-0.315	0.006
-367.742	11.183	0.266	-0.201
-366.727	-200.000	0.027	0.175
-365.712	4.422	0.453	0.329
-364.698	47.435	-0.111	0.102
-363.683	44.398	0.152	0.138
-362.669	-15.518	0.095	-0.060
-361.654	-172.851	-0.128	-0.004
-360.639	-116.542	0.216	0.039
-359.625	144.078	-0.104	-0.137
-358.610	3.044	0.046	0.033
-357.596	-93.244	-0.201	-0.055
-356.581	305.449	0.058	-0.106
-355.566	-104.824	0.387	-0.088
-354.552	116.154	-0.190	-0.230
-353.537	511.686	0.027	-0.062
-352.523	-90.554	-0.507	-0.145
-351.508	292.042	0.085	0.153
-350.493	-133.406	-0.378	0.047
-349.479	-137.725	-0.100	-0.011
-348.464	276.919	-0.117	0.205
-347.450	800.000	0.047	0.151
-346.435	-143.124	-0.282	-0.027
-345.420	800.000	0.052	0.159
-344.406	-187.914	0.253	0.003
-343.391	-1.098	-0.229	-0.160
-342.377	-12.950	0.044	-0.028
-341.362	-79.829	0.208	-0.069
-340.348	27.488	0.172	0.143
-339.333	270.568	0.091	0.159
-338.318	597.258	0.072	0.177
-337.304	-46.095	-0.036	0.018
-336.289	550.597	0.057	0.134
-335.275	-200.000	0.017	-0.150
-334.260	61.145	-0.104	-0.102
-333.245	800.000	0.108	-0.328
-332.231	-123.022	0.205	-0.032
-331.216	94.986	-0.058	0.066
-330.202	-21.566	-0.090	0.054
-329.187	11.037	-0.213	0.161
-328.172	-129.915	-0.157	0.021
-327.158	-200.000	-0.003	-0.260
-326.143	10.998	-0.090	-0.068
-325.129	-200.000	-0.008	-0.224
-324.114	-114.350	-0.376	-0.071
-323.099	-66.398	0.163	0.064
-322.085	85.230	-0.065	0.071
-321.070	800.000	-0.008	0.022
-320.056	-200.000	0.018	-0.087
-319.041	106.500	0.131	0.154
-318.026	-200.000	0.017	0.104
-317.012	-200.000	-0.028	0.206
-315.997	369.611	-0.108	0.216
-314.983	-200.000	0.022	-0.201
-313.968	-200.000	0.018	0.188
-312.953	-200.000	-0.024	0.296
-311.939	-80.108	0.143	-0.047
-310.924	103.448	0.220	-0.255
-309.910	-16.076	0.220	0.138
-308.895	-35.349	0.064	0.034
-307.880	-200.000	-0.023	0.154
-306.866	59.695	0.122	-0.119
-305.851	478.063	0.058	-0.129
-304.837	67.017	-0.382	0.384
-303.822	800.000	-0.063	0.181
-302.807	800.000	0.041	0.142
-301.793	-10.318	0.124	-0.081
-300.778	-30.862	0.212	-0.118
-299.764	89.132	0.268	0.295
-298.749	61.480	0.239	0.235
-297.735	49.944	-0.208	-0.194
-296.720	-17.554	0.402	0.249
-295.705	-200.000	0.031	0.160
-294.691	-200.000	0.048	0.213
-293.676	-200.000	-0.046	0.517
-292.662	-139.306	0.380	-0.040
-291.647	800.000	-0.048	0.189
-290.632	-25.915	0.181	0.105
-289.618	-6.402	0.154	-0.103
-288.603	-116.619	0.265	-0.048
-287.589	-200.000	0.023	-0.199
-286.574	800.000	-0.071	-0.265
-285.559	519.751	-0.098	-0.228
-284.545	-14.468	0.275	-0.174
-283.530	99.297	0.104	-0.118
-282.516	320.432	0.177	-0.332
-281.501	-200.000	0.032	0.409
-280.486	-21.436	0.148	-0.089
-279.472	561.948	-0.050	-0.120
-278.457	-18.407	-0.220	-0.136
-277.443	-200.000	0.034	-0.328
-276.428	-143.184	-0.160	-0.015
-275.413	800.000	-0.089	-0.288
-274.399	-200.000	-0.005	0.072
-273.384	-76.477	0.245	0.085
-272.370	-63.699	0.147	0.060
-271.355	-1.002	0.345	0.241
-270.340	88.238	0.205	-0.225
-269.326	-200.000	0.025	-0.288
-268.311	-9.213	-0.427	0.282
-267.297	-141.543	-0.189	-0.019
-266.282	713.328	-0.032	-0.083
-265.267	38.770	-0.041	0.036
-264.253	371.658	0.118	0.236
-263.238	-55.951	-0.336	-0.148
-262.224	172.584	0.284	0.402
-261.209	-23.047	0.196	0.116
-260.195	649.620	-0.079	-0.199
-259.180	45.138	0.091	0.082
-258.165	800.000	-0.060	0.232
-257.151	35.293	0.176	0.152
-256.136	195.075	-0.210	0.314
-255.122	-200.000	-0.043	0.270
-254.107	-102.111	-0.206	0.049
-253.092	50.062	0.144	0.134
-252.078	448.894	0.091	-0.197
-251.063	-200.000	-0.040	-0.428
-250.049	316.972	0.043	0.081
-249.034	-176.913	0.125	0.003
-248.019	34.020	0.177	-0.152
-247.005	104.471	-0.297	-0.344
-245.990	-96.371	0.264	-0.069
-244.976	-150.898	0.046	-0.003
-243.961	-200.000	0.027	0.244
-242.946	-48.772	-0.142	0.067
-241.932	-200.000	0.053	-0.329
-240.917	129.312	-0.188	-0.236
-239.903	69.424	0.081	0.082
-238.888	-145.326	-0.237	-0.021
-237.873	-200.000	-0.048	0.248
-236.859	-122.404	0.281	0.045
-235.844	58.033	0.085	0.082
-234.830	230.162	0.044	0.072
-233.815	-85.741	0.135	-0.041
-232.800	761.243	0.182	0.486
-231.786	800.000	0.103	0.281
-230.771	247.280	-0.167	0.277
-229.757	-102.423	0.254	0.060
-228.742	275.199	0.195	0.341
-227.727	-138.572	0.046	0.005
-226.713	44.419	-0.269	0.243
-225.698	-200.000	-0.001	0.346
-224.684	800.000	0.074	-0.292
-223.669	-18.859	0.113	-0.069
-222.655	-51.007	0.183	-0.084
-221.640	-3.194	0.092	0.063
-220.625	-134.123	-0.137	0.017
-219.611	28.846	0.079	-0.066
-218.596	-200.000	-0.001	-0.092
-217.582	800.000	-0.160	0.474
-216.567	-63.452	0.242	0.098
-215.552	-200.000	-0.010	0.128
-214.538	8.702	0.137	0.102
-213.523	800.000	0.060	0.165
-212.509	-200.000	0.037	-0.291
-211.494	-106.818	0.212	0.046
-210.479	392.113	-0.083	0.170
-209.465	85.227	-0.122	0.132
-208.450	-91.087	-0.055	0.015
-207.436	7.394	0.101	-0.075
-206.421	279.517	-0.093	0.163
-205.406	10.974	-0.182	-0.137
-204.392	-68.270	0.287	-0.110
-203.377	696.002	-0.081	0.210
-202.363	86.954	0.151	0.164
-201.348	2.479	0.221	-0.157
-200.333	79.133	-0.064	-0.068
-199.319	-9.170	0.081	-0.053
-198.304	-57.450	0.303	-0.131
-197.290	-82.505	-0.087	0.028
-196.275	528.101	0.142	0.329
-195.260	448.179	-0.054	-0.118
-194.246	-200.000	0.020	-0.126
-193.231	242.691	-0.118	0.194
-192.217	-153.740	-0.481	-0.032
-191.202	-200.000	0.018	0.210
-190.187	-144.633	0.152	0.014
-189.173	96.756	-0.097	-0.109
-188.158	-49.551	0.279	0.131
-187.144	418.944	-0.076	-0.160
-186.129	-200.000	-0.001	0.030
-185.114	109.934	0.216	-0.255
-184.100	-200.000	0.003	-0.058
-183.085	-200.000	-0.035	-0.150
-182.071	-88.990	0.258	-0.075
-181.056	-171.666	0.246	-0.008
-180.042	-112.975	0.154	-0.030
-179.027	800.000	0.088	-0.323
-178.012	17.363	-0.325	-0.253
-176.998	84.972	0.187	-0.201
-175.983	-44.374	0.177	0.087
-174.969	-151.673	-0.116	-0.008
-173.954	33.418	-0.242	-0.206
-172.939	-108.663	-0.072	-0.015
-171.925	-200.000	0.002	-0.189
-170.910	-8.000	0.270	-0.179
-169.896	-153.682	-0.038	-0.003
-168.881	-200.000	0.055	-0.274
-167.866	176.205	0.065	-0.093
-166.852	-146.396	0.113	-0.010
-165.837	-17.745	0.057	0.035
-164.823	9.839	0.129	0.096
-163.808	233.075	-0.045	0.072
-162.793	-129.478	0.166	0.023
-161.779	-60.864	0.137	-0.057
-160.764	722.772	-0.094	0.246
-159.750	303.678	-0.094	-0.171
-158.735	-200.000	0.016	-0.119
-157.720	-110.210	-0.163	0.033
-156.706	509.758	-0.069	0.157
-155.691	-123.551	0.186	-0.029
-154.677	-144.195	-0.050	-0.005
-153.662	-129.530	-0.192	0.026
-152.647	-200.000	0.016	-0.299
-151.633	444.446	-0.121	0.260
-150.618	-0.815	-0.169	0.118
-149.604	-58.121	0.090	-0.039
-148.589	28.161	0.155	0.128
-147.574	-200.000	0.010	-0.220
-146.560	800.000	0.074	0.214
-145.545	-200.000	-0.013	-0.216
-144.531	49.923	-0.084	-0.078
-143.516	475.422	-0.070	0.155
-142.502	370.749	-0.079	0.158
-141.487	-49.982	0.160	0.075
-140.472	75.020	0.342	0.354
-139.458	800.000	0.053	-0.203
-138.443	328.370	-0.039	0.074
-137.429	-200.000	0.002	-0.433
-136.414	-137.208	0.112	-0.013
-135.399	-200.000	-0.026	-0.124
-134.385	177.975	-0.191	-0.273
-133.370	280.668	-0.077	-0.134
-132.356	39.231	-0.030	0.026
-131.341	131.335	-0.114	0.144
-130.326	99.420	0.159	0.180
-129.312	212.194	-0.170	-0.262
-128.297	-200.000	-0.007	-0.152
-127.283	800.000	0.147	0.437
-126.268	-80.865	0.203	-0.066
-125.253	591.577	-0.207	-0.500
-124.239	-177.707	-0.421	0.010
-123.224	-147.635	0.092	-0.008
-122.210	565.638	0.145	-0.345
-121.195	-134.957	0.051	-0.006
