DTS Sentinel unit serial number:	SN413079Multiplexer serial number:	ORYXHardware model number:	OX4-SRSoftware version number:	ORYX F/W v4.00 Oryx Data Collector v3.7.2.0data status	okinstallation	princeton_trtdifferential loss correction	single-endedforward channel	channel 3reverse channel	N/Adate	2019/09/17time	07:08:34forward acquisition time	60.00reverse acquisition time	0.00gamma	496.2192k internal	0.2335k external	0.2335temperature offset calibration	0.9946default loss term (dB/km)	0.3790temperature slope calibration	1.0000multiplexer offset coefficient	1.0000multiplexer slope coefficient	1.0000fibre end	0.00T internal ref (°C)	27.37T ext. ref 1 (°C)	0.12T ext. ref 2 (°C)	21.14length (m)	temperature (°C)	Stokes	anti-Stokes-747.200	425.595	-0.122	0.264
-746.185	58.440	-0.049	0.048
-745.171	800.000	-0.069	-0.240
-744.156	-200.000	-0.048	0.287
-743.142	-94.220	-0.510	-0.140
-742.127	-158.073	0.098	-0.006
-741.112	800.000	-0.050	0.159
-740.098	14.966	-0.112	0.088
-739.083	-105.760	-0.405	-0.092
-738.069	229.378	-0.077	-0.127
-737.054	-111.562	0.175	-0.036
-736.039	75.861	0.115	0.123
-735.025	800.000	0.108	0.422
-734.010	-200.000	-0.007	-0.191
-732.996	-200.000	-0.050	-0.292
-731.981	271.504	0.113	0.200
-730.966	339.486	0.073	0.143
-729.952	22.219	-0.264	0.216
-728.937	296.557	0.073	0.134
-727.923	-108.030	-0.098	-0.021
-726.908	800.000	0.099	-0.275
-725.894	-22.009	0.294	-0.179
-724.879	-132.918	-0.198	-0.025
-723.864	-200.000	0.019	-0.106
-722.850	-200.000	0.021	-0.122
-721.835	-126.639	-0.423	-0.063
-720.821	7.726	-0.399	-0.300
-719.806	-131.717	-0.338	0.044
-718.791	-112.861	0.163	-0.032
-717.777	-200.000	0.060	0.305
-716.762	-34.787	0.153	0.084
-715.748	406.007	-0.066	0.141
-714.733	636.796	0.140	0.358
-713.718	-109.909	0.084	0.018
-712.704	72.868	-0.245	0.257
-711.689	-13.525	0.404	0.263
-710.675	800.000	0.060	0.207
-709.660	-47.842	-0.116	0.056
-708.645	-15.124	0.242	-0.155
-707.631	-46.024	0.155	-0.077
-706.616	132.163	-0.159	-0.205
-705.602	-49.273	-0.323	0.155
-704.587	-92.695	0.159	-0.045
-703.572	-141.686	-0.188	-0.019
-702.558	14.810	0.122	0.095
-701.543	-99.493	-0.236	-0.060
-700.529	-200.000	-0.022	-0.408
-699.514	52.117	0.348	-0.333
-698.499	-15.380	-0.297	0.190
-697.485	-156.245	0.400	0.025
-696.470	102.813	-0.222	0.260
-695.456	800.000	0.067	-0.277
-694.441	-36.941	0.420	-0.226
-693.426	800.000	0.024	-0.066
-692.412	513.099	0.156	0.364
-691.397	-200.000	-0.090	0.433
-690.383	40.829	-0.189	-0.171
-689.368	188.562	-0.143	-0.214
-688.354	-200.000	0.021	-0.194
-687.339	-49.528	-0.122	0.058
-686.324	341.958	-0.031	-0.061
-685.310	-200.000	-0.026	-0.180
-684.295	-176.494	0.049	-0.001
-683.281	628.538	0.028	-0.071
-682.266	-200.000	0.003	-0.243
-681.251	800.000	-0.069	0.237
-680.237	-200.000	0.014	-0.151
-679.222	38.284	-0.108	-0.097
-678.208	-158.982	0.317	-0.018
-677.193	-136.906	0.130	0.015
-676.178	128.433	-0.115	0.146
-675.164	6.155	-0.079	-0.058
-674.149	-81.325	0.044	-0.014
-673.135	619.356	0.076	-0.192
-672.120	-200.000	-0.019	0.298
-671.105	-200.000	-0.010	-0.221
-670.091	-104.470	-0.318	0.074
-669.076	-20.046	-0.524	-0.324
-668.062	164.551	-0.095	-0.134
-667.047	-200.000	-0.133	0.000
-666.032	121.169	-0.046	0.057
-665.018	-200.000	0.122	0.549
-664.003	-28.370	0.029	-0.017
-662.989	800.000	-0.101	0.381
-661.974	800.000	0.011	0.046
-660.959	-84.970	0.219	-0.069
-659.945	-200.000	-0.016	-0.340
-658.930	-79.638	-0.188	-0.064
-657.916	-144.849	0.371	0.034
-656.901	-200.000	-0.007	0.290
-655.886	800.000	-0.037	0.138
-654.872	61.996	-0.109	-0.109
-653.857	229.738	-0.140	-0.229
-652.843	-44.696	0.159	-0.080
-651.828	158.608	0.112	-0.155
-650.814	165.356	-0.069	0.098
-649.799	38.651	-0.208	-0.185
-648.784	106.057	-0.091	-0.108
-647.770	800.000	0.106	-0.373
-646.755	-98.513	0.156	0.040
-645.741	18.866	-0.240	-0.192
-644.726	-200.000	0.012	-0.443
-643.711	53.878	-0.025	0.024
-642.697	4.314	0.268	-0.196
-641.682	-94.346	-0.305	0.083
-640.668	33.575	-0.289	0.251
-639.653	237.502	0.035	0.058
-638.638	-7.217	0.426	0.289
-637.624	-6.970	-0.276	-0.187
-636.609	154.778	-0.223	-0.307
-635.595	-200.000	0.028	-0.144
-634.580	-65.231	0.352	-0.142
-633.565	100.653	-0.222	-0.258
-632.551	800.000	0.081	-0.230
-631.536	-62.488	0.059	-0.025
-630.522	41.337	0.046	-0.041
-629.507	548.005	0.107	0.257
-628.492	-36.383	0.276	0.149
-627.478	-35.219	-0.223	0.122
-626.463	76.074	0.235	-0.249
-625.449	8.533	0.090	-0.068
-624.434	406.989	-0.268	-0.567
-623.419	-153.295	0.171	-0.012
-622.405	-69.904	-0.235	-0.089
-621.390	279.463	0.119	-0.213
-620.376	-115.772	0.191	0.036
-619.361	-200.000	0.071	0.448
-618.346	-10.618	-0.322	0.213
-617.332	78.716	-0.176	0.189
-616.317	-200.000	-0.029	-0.136
-615.303	-200.000	-0.006	0.071
-614.288	-95.410	0.544	0.146
-613.273	82.010	0.038	-0.041
-612.259	-69.588	-0.108	-0.041
-611.244	125.137	0.115	0.145
-610.230	70.014	0.045	-0.047
-609.215	-46.574	-0.112	-0.055
-608.201	433.921	0.063	-0.138
-607.186	-181.885	-0.097	-0.002
-606.171	-171.895	0.454	0.015
-605.157	-52.931	-0.341	-0.157
-604.142	424.890	-0.062	-0.133
-603.128	-40.065	0.219	-0.114
-602.113	-84.813	-0.075	0.023
-601.098	800.000	0.098	-0.363
-600.084	-152.285	-0.128	-0.009
-599.069	-200.000	-0.047	-0.233
-598.055	-6.109	-0.168	0.114
-597.040	-45.144	-0.178	0.088
-596.025	800.000	0.059	-0.257
-595.011	224.234	-0.141	-0.228
-593.996	800.000	0.067	0.191
-592.982	-200.000	0.030	0.418
-591.967	-200.000	0.025	-0.142
-590.952	800.000	0.067	0.243
-589.938	-175.765	-0.333	-0.009
-588.923	282.555	-0.123	-0.220
-587.909	-200.000	-0.085	-0.465
-586.894	17.583	0.312	-0.248
-585.879	-71.848	0.443	-0.165
-584.865	48.348	0.154	-0.144
-583.850	201.609	0.056	0.086
-582.836	-5.065	0.274	-0.188
-581.821	-200.000	0.075	-0.000
-580.806	-90.804	0.115	-0.033
-579.792	-146.248	0.090	-0.008
-578.777	-174.772	-0.008	-0.000
-577.763	-200.000	0.002	0.064
-576.748	53.831	-0.016	-0.015
-575.733	540.037	-0.072	0.170
-574.719	-84.500	-0.191	-0.060
-573.704	800.000	0.039	-0.160
-572.690	-32.886	-0.250	0.139
-571.675	315.297	0.192	0.362
-570.661	800.000	0.024	0.090
-569.646	-83.377	-0.219	-0.070
-568.631	-113.334	0.138	-0.027
-567.617	-102.723	0.240	-0.057
-566.602	29.006	-0.161	-0.137
-565.588	-200.000	-0.040	-0.219
-564.573	523.848	-0.099	-0.233
-563.558	-200.000	0.002	0.046
-562.544	-68.470	0.160	-0.062
-561.529	83.290	-0.114	-0.124
-560.515	800.000	0.065	0.253
-559.500	-200.000	-0.009	-0.062
-558.485	-200.000	0.054	-0.325
-557.471	30.020	-0.234	-0.199
-556.456	-87.475	0.426	0.129
-555.442	-200.000	-0.035	-0.238
-554.427	-93.765	0.201	-0.055
-553.412	-200.000	-0.045	0.208
-552.398	-6.626	0.192	0.130
-551.383	800.000	-0.041	-0.171
-550.369	-94.504	0.082	0.022
-549.354	-200.000	0.001	-0.057
-548.339	-88.977	-0.154	-0.045
-547.325	800.000	-0.013	-0.040
-546.310	-200.000	0.036	0.246
-545.296	-200.000	0.071	-0.541
-544.281	-1.182	-0.075	0.053
-543.266	265.086	-0.144	0.250
-542.252	59.197	0.053	0.052
-541.237	-200.000	0.002	0.445
-540.223	-121.255	-0.148	-0.025
-539.208	800.000	0.052	-0.158
-538.193	-200.000	0.009	-0.049
-537.179	45.515	0.154	0.142
-536.164	111.332	0.240	-0.289
-535.150	-2.488	-0.150	0.105
-534.135	800.000	0.040	0.155
-533.121	-200.000	-0.014	0.074
-532.106	160.405	0.110	0.153
-531.091	-200.000	-0.025	0.241
-530.077	-80.595	-0.347	0.115
-529.062	-200.000	0.030	0.164
-528.048	-200.000	0.056	-0.253
-527.033	800.000	-0.063	-0.184
-526.018	628.754	-0.103	0.260
-525.004	-35.543	0.311	0.168
-523.989	513.068	-0.075	0.175
-522.975	-141.968	0.390	-0.039
-521.960	320.421	-0.038	0.071
-520.945	-40.578	0.283	0.146
-519.931	-76.440	0.130	-0.045
-518.916	0.602	0.204	-0.145
-517.902	184.249	-0.168	0.247
-516.887	0.129	-0.127	-0.090
-515.872	148.600	0.247	0.332
-514.858	16.312	0.185	0.145
-513.843	-50.839	-0.212	-0.099
-512.829	451.288	0.046	0.101
-511.814	-78.193	-0.196	-0.067
-510.799	-4.714	-0.111	-0.076
-509.785	73.405	0.065	-0.068
-508.770	-88.876	0.364	0.107
-507.756	706.202	-0.089	-0.233
-506.741	-80.434	-0.137	-0.046
-505.726	-200.000	-0.028	0.186
-504.712	800.000	0.052	-0.227
-503.697	434.671	-0.166	-0.360
-502.683	-71.415	-0.320	-0.119
-501.668	-16.920	0.140	0.088
-500.653	166.082	0.060	0.084
-499.639	11.025	-0.163	0.124
-498.624	-110.983	0.167	-0.034
-497.610	11.485	-0.295	-0.225
-496.595	93.397	-0.108	-0.121
-495.581	-22.092	-0.264	-0.159
-494.566	-35.484	0.116	0.063
-493.551	29.738	0.321	0.272
-492.537	-90.329	-0.156	-0.045
-491.522	-190.950	-0.107	-0.001
-490.508	-112.278	0.147	-0.029
-489.493	2.944	-0.254	-0.183
-488.478	789.279	-0.027	-0.073
-487.464	-53.744	-0.056	-0.026
-486.449	-200.000	0.006	-0.163
-485.435	800.000	-0.103	-0.295
-484.420	-200.000	0.013	0.082
-483.405	479.997	-0.114	-0.256
-482.391	-200.000	0.031	-0.180
-481.376	315.482	0.111	-0.208
-480.362	-200.000	-0.002	-0.136
-479.347	-88.080	-0.330	-0.099
-478.332	83.879	0.075	0.082
-477.318	-200.000	0.010	-0.153
-476.303	127.311	-0.186	-0.235
-475.289	482.207	-0.130	-0.293
-474.274	-7.822	0.163	0.110
-473.259	-53.824	0.164	-0.075
-472.245	-64.750	-0.271	0.109
-471.230	611.868	-0.025	0.063
-470.216	35.053	-0.309	0.269
-469.201	-64.258	-0.212	0.086
-468.186	-107.798	-0.288	0.062
-467.172	-142.670	-0.494	0.048
-466.157	-200.000	0.047	0.412
-465.143	107.018	-0.147	-0.174
-464.128	-18.361	-0.266	0.165
-463.113	-54.769	-0.199	0.089
-462.099	-73.397	0.268	-0.097
-461.084	-200.000	-0.027	-0.141
-460.070	-128.564	-0.357	0.050
-459.055	7.469	0.175	0.130
-458.040	-20.949	0.125	0.076
-457.026	-27.337	-0.073	0.042
-456.011	713.115	-0.122	0.320
-454.997	719.568	-0.055	-0.145
-453.982	12.631	0.265	0.203
-452.968	-72.772	-0.107	0.039
-451.953	-200.000	-0.011	0.287
-450.938	85.939	-0.232	0.254
-449.924	526.897	0.064	0.149
-448.909	-158.376	0.225	-0.013
-447.895	-142.296	0.223	0.022
-446.880	58.360	-0.197	-0.192
-445.865	612.455	0.094	0.235
-444.851	37.032	-0.266	-0.234
-443.836	112.825	-0.151	-0.182
-442.822	397.397	0.049	0.102
-441.807	682.778	-0.069	0.179
-440.792	565.351	-0.089	-0.213
-439.778	-41.014	0.230	-0.118
-438.763	-170.713	0.253	-0.009
-437.749	121.422	-0.097	0.120
-436.734	-136.025	-0.071	-0.008
-435.719	-200.000	-0.014	0.293
-434.705	-200.000	0.012	0.167
-433.690	-97.039	-0.176	0.046
-432.676	47.499	-0.045	0.041
-431.661	-5.678	0.334	-0.227
-430.646	55.214	0.124	-0.119
-429.632	-124.420	-0.176	0.027
-428.617	20.464	-0.251	0.201
-427.603	98.708	-0.105	0.120
-426.588	-124.331	0.087	-0.013
-425.573	-26.949	-0.075	-0.043
-424.559	248.083	-0.098	-0.164
-423.544	1.866	0.101	-0.073
-422.530	-200.000	0.000	-0.106
-421.515	-35.669	-0.227	0.122
-420.500	-200.000	-0.086	-0.373
-419.486	-42.964	0.312	-0.157
-418.471	-110.881	-0.402	0.082
-417.457	-200.000	0.057	0.419
-416.442	-155.433	0.237	-0.015
-415.428	-200.000	0.021	-0.325
-414.413	-54.291	0.234	0.106
-413.398	48.351	-0.209	0.194
-412.384	-47.325	0.230	0.111
-411.369	-59.039	0.233	0.100
-410.355	-200.000	-0.030	0.141
-409.340	-144.075	0.134	0.012
-408.325	61.724	0.456	0.450
-407.311	-97.198	0.169	0.044
-406.296	186.537	-0.166	0.245
-405.282	654.927	-0.157	0.398
-404.267	-200.000	0.041	-0.398
-403.252	499.490	-0.096	-0.218
-402.238	-78.050	0.075	0.026
-401.223	-103.525	-0.212	0.050
-400.209	-200.000	0.038	0.199
-399.194	800.000	0.027	-0.097
-398.179	22.595	-0.128	-0.104
-397.165	-184.118	0.232	0.004
-396.150	-13.222	0.196	-0.126
-395.136	-200.000	-0.014	-0.079
-394.121	775.334	-0.078	0.210
-393.106	561.710	0.011	0.026
-392.092	56.319	-0.026	-0.025
-391.077	418.045	0.096	0.204
-390.063	218.406	0.147	-0.233
-389.048	-89.532	0.141	0.041
-388.033	-37.325	-0.289	0.153
-387.019	-144.720	-0.197	-0.018
-386.004	800.000	-0.101	0.344
-384.990	800.000	-0.061	-0.208
-383.975	327.636	0.035	0.067
-382.960	-21.050	0.174	0.105
-381.946	39.130	0.117	0.103
-380.931	-54.870	-0.231	0.103
-379.917	170.387	-0.013	0.019
-378.902	-200.000	0.062	0.000
-377.888	169.628	0.042	0.060
-376.873	209.997	-0.147	-0.228
-375.858	131.688	-0.158	-0.202
-374.844	30.755	-0.120	0.101
-373.829	-200.000	0.029	0.497
-372.815	-54.765	0.128	0.057
-371.800	800.000	-0.034	-0.117
-370.785	800.000	0.084	0.238
-369.771	-46.314	0.186	-0.090
-368.756	-200.000	-0.036	-0.186
-367.742	762.102	0.146	-0.392
-366.727	154.540	0.240	-0.327
-365.712	-93.988	0.172	0.047
-364.698	-23.132	0.180	0.107
-363.683	212.095	-0.255	0.398
-362.669	800.000	0.032	0.105
-361.654	800.000	0.079	-0.217
-360.639	-95.658	-0.309	-0.082
-359.625	-200.000	0.062	-0.374
-358.610	191.419	-0.086	-0.129
-357.596	278.430	0.067	0.118
-356.581	-151.600	-0.270	-0.020
-355.566	-91.252	-0.111	-0.032
-354.552	69.878	-0.067	0.068
-353.537	800.000	0.133	0.384
-352.523	-80.593	-0.118	-0.039
-351.508	66.875	-0.089	0.090
-350.493	-200.000	-0.024	0.296
-349.479	-200.000	0.058	-0.274
-348.464	-100.770	-0.313	0.076
-347.450	102.711	0.061	-0.070
-346.435	800.000	0.047	0.132
-345.420	-200.000	-0.016	0.098
-344.406	-200.000	0.017	0.141
-343.391	464.901	-0.068	0.151
-342.377	800.000	0.091	-0.367
-341.362	-200.000	0.008	-0.269
-340.348	42.678	0.298	0.268
-339.333	800.000	-0.093	-0.255
-338.318	-200.000	-0.024	0.281
-337.304	224.116	0.113	-0.181
-336.289	-37.235	0.251	-0.133
-335.275	-28.245	0.115	-0.066
-334.260	233.151	0.110	-0.179
-333.245	36.124	-0.151	0.131
-332.231	42.652	-0.072	0.065
-331.216	-122.055	0.143	-0.023
-330.202	10.915	-0.058	-0.044
-329.187	616.960	0.049	0.120
-328.172	-28.385	-0.177	0.101
-327.158	52.576	0.065	0.062
-326.143	53.392	0.055	-0.052
-325.129	257.696	0.127	-0.216
-324.114	22.237	0.060	-0.048
-323.099	-31.666	-0.066	-0.037
-322.085	-85.286	-0.410	0.127
-321.070	28.041	-0.237	0.197
-320.056	-148.940	-0.312	0.025
-319.041	188.348	0.127	-0.187
-318.026	67.191	-0.239	0.241
-317.012	-200.000	-0.011	0.350
-315.997	337.654	-0.206	0.397
-314.983	-110.705	0.125	0.026
-313.968	-200.000	-0.038	-0.178
-312.953	-200.000	-0.040	0.290
-311.939	57.344	0.077	-0.074
-310.924	11.986	0.030	-0.023
-309.910	35.512	0.056	0.048
-308.895	48.557	-0.041	0.038
-307.880	230.508	-0.133	-0.215
-306.866	-22.770	-0.172	0.103
-305.851	-136.806	-0.122	-0.014
-304.837	-49.649	0.163	0.077
-303.822	51.082	-0.248	0.232
-302.807	158.373	0.159	0.217
-301.793	5.343	-0.191	-0.139
-300.778	-12.995	-0.146	0.094
-299.764	-125.858	-0.299	0.045
-298.749	32.026	0.231	-0.196
-297.735	459.481	-0.044	0.097
-296.720	-186.997	0.104	-0.001
-295.705	438.261	-0.102	-0.221
-294.691	-200.000	-0.023	0.361
-293.676	-32.034	-0.214	0.118
-292.662	360.959	-0.076	-0.150
-291.647	428.454	0.084	-0.179
-290.632	75.225	0.056	-0.058
-289.618	-31.742	0.223	-0.124
-288.603	-108.918	0.116	0.025
-287.589	459.589	-0.060	-0.131
-286.574	82.830	-0.076	0.082
-285.559	-200.000	0.034	-0.300
-284.545	-197.452	-0.325	0.002
-283.530	163.633	-0.096	0.133
-282.516	628.712	-0.033	0.083
-281.501	682.107	0.138	-0.356
-280.486	-20.204	0.104	0.063
-279.472	29.894	-0.199	0.167
-278.457	13.531	0.004	-0.003
-277.443	66.759	-0.272	-0.273
-276.428	800.000	-0.008	0.023
-275.413	-26.836	0.099	-0.057
-274.399	103.417	-0.137	0.159
-273.384	143.723	0.134	-0.176
-272.370	800.000	-0.018	-0.070
-271.355	11.161	0.193	-0.146
-270.340	-200.000	-0.056	0.255
-269.326	-109.890	0.405	0.084
-268.311	-121.621	-0.132	0.022
-267.297	-200.000	0.013	0.078
-266.282	125.109	-0.332	-0.412
-265.267	-200.000	-0.041	-0.357
-264.253	-47.975	0.336	-0.160
-263.238	204.465	-0.101	0.154
-262.224	800.000	-0.086	0.365
-261.209	196.994	-0.217	-0.326
-260.195	-149.653	-0.199	-0.016
-259.180	-68.742	-0.287	-0.109
-258.165	-151.476	-0.042	0.003
-257.151	-200.000	0.050	-0.243
-256.136	-53.931	0.120	-0.054
-255.122	-200.000	-0.015	-0.099
-254.107	272.123	0.090	-0.157
-253.092	-176.670	0.152	0.004
-252.078	-160.868	0.215	-0.011
-251.063	-92.835	0.482	-0.133
-250.049	24.829	-0.068	0.056
-249.034	265.957	0.115	0.198
-248.019	-149.996	-0.119	-0.009
-247.005	49.722	-0.186	-0.172
-245.990	56.149	0.143	0.137
-244.976	-136.839	0.082	0.009
-243.961	-200.000	-0.056	0.323
-242.946	-142.036	0.202	0.020
-241.932	-191.803	0.206	0.002
-240.917	-200.000	-0.041	0.340
-239.903	-151.564	0.296	-0.022
-238.888	74.879	-0.145	-0.151
-237.873	34.186	-0.119	0.102
-236.859	-200.000	-0.011	-0.133
-235.844	160.533	0.169	-0.232
-234.830	-39.554	-0.146	0.075
-233.815	-174.761	0.221	-0.006
-232.800	99.410	0.285	0.324
-231.786	800.000	0.046	-0.186
-230.771	-43.942	-0.143	-0.071
-229.757	-38.664	-0.324	0.168
-228.742	494.919	-0.048	0.109
-227.727	-119.215	-0.102	-0.018
-226.713	-2.966	-0.294	-0.202
-225.698	-70.184	0.078	-0.029
-224.684	-127.655	-0.146	0.021
-223.669	-200.000	0.098	0.434
-222.655	-121.645	0.212	-0.035
-221.640	-200.000	0.257	0.001
-220.625	13.290	0.068	0.052
-219.611	31.379	0.232	0.196
-218.596	-124.362	-0.196	0.030
-217.582	-200.000	0.008	0.108
-216.567	64.532	-0.050	0.050
-215.552	230.789	-0.102	-0.165
-214.538	150.804	0.187	0.250
-213.523	6.989	0.261	0.191
-212.509	90.133	0.096	-0.105
-211.494	-200.000	0.016	0.357
-210.479	165.958	0.120	-0.167
-209.465	-75.303	0.093	-0.033
-208.450	223.502	0.093	0.148
-207.436	-38.253	-0.239	-0.125
-206.421	4.701	0.108	0.078
-205.406	-200.000	0.049	-0.348
-204.392	800.000	-0.073	0.245
-203.377	-103.194	0.281	-0.065
-202.363	51.381	-0.177	-0.165
-201.348	89.684	-0.124	0.136
-200.333	50.634	0.208	0.193
-199.319	-101.287	0.224	0.054
-198.304	-196.042	0.325	-0.002
-197.290	-123.421	-0.059	-0.009
-196.275	-200.000	-0.008	-0.068
-195.260	-135.467	0.375	0.044
-194.246	800.000	-0.033	-0.125
-193.231	165.089	0.189	0.262
-192.217	800.000	-0.047	0.178
-191.202	-200.000	-0.030	0.161
-190.187	-200.000	0.019	0.109
-189.173	145.286	-0.147	-0.193
-188.158	72.148	0.139	0.143
-187.144	-137.769	0.093	0.010
-186.129	-103.017	0.114	-0.027
-185.114	166.509	-0.112	-0.156
-184.100	249.246	0.103	-0.172
-183.085	253.266	0.168	-0.281
-182.071	-200.000	0.007	0.286
-181.056	-200.000	0.012	0.054
-180.042	-65.048	0.366	-0.145
-179.027	36.267	-0.146	0.126
-178.012	-123.195	-0.591	0.093
-176.998	-103.616	0.104	0.024
-175.983	-23.937	0.068	0.040
-174.969	-200.000	0.026	0.133
-173.954	48.474	0.062	-0.057
-172.939	800.000	0.036	-0.128
-171.925	401.326	-0.125	-0.258
-170.910	-134.372	0.084	0.010
-169.896	-200.000	0.007	0.114
-168.881	257.796	-0.147	0.249
-167.866	-200.000	-0.019	0.182
-166.852	76.443	0.023	-0.024
-165.837	-6.885	-0.273	0.182
-164.823	-124.308	0.152	0.023
-163.808	-98.219	0.333	0.084
-162.793	-123.244	-0.099	0.015
-161.779	-26.170	-0.097	-0.056
-160.764	244.644	-0.046	-0.076
-159.750	358.737	-0.103	0.202
-158.735	-200.000	-0.003	-0.042
-157.720	800.000	-0.093	-0.345
-156.706	-73.503	0.241	0.087
-155.691	-200.000	0.040	0.327
-154.677	-35.264	0.190	0.101
-153.662	58.254	-0.232	0.224
-152.647	-8.884	0.220	-0.145
-151.633	66.144	-0.233	-0.232
-150.618	-124.422	-0.128	0.020
-149.604	281.452	-0.144	0.254
-148.589	-88.550	0.206	-0.060
-147.574	-71.890	-0.135	0.050
-146.560	-126.701	-0.022	0.003
-145.545	44.817	-0.226	0.204
-144.531	-153.492	-0.223	0.015
-143.516	-180.842	-0.255	-0.005
-142.502	-177.864	-0.318	-0.007
-141.487	800.000	0.060	-0.171
-140.472	202.432	-0.062	-0.094
-139.458	-200.000	0.014	-0.078
-138.443	-50.391	-0.203	-0.094
-137.429	-121.972	0.210	-0.034
-136.414	-74.642	-0.258	-0.091
-135.399	800.000	0.013	0.053
-134.385	-81.341	0.043	-0.014
-133.370	718.872	-0.042	0.111
-132.356	12.862	-0.156	0.118
-131.341	800.000	-0.051	0.153
-130.326	-116.722	-0.367	-0.066
-129.312	-200.000	-0.010	0.094
-128.297	441.750	-0.156	0.335
-127.283	-83.493	0.354	0.111
-126.268	-6.653	-0.310	0.207
-125.253	-52.325	0.250	-0.114
-124.239	241.385	-0.103	-0.168
-123.224	-185.469	0.474	0.007
-122.210	800.000	-0.052	0.173
-121.195	800.000	0.045	-0.153
