DTS Sentinel unit serial number:	SN413079Multiplexer serial number:	ORYXHardware model number:	OX4-SRSoftware version number:	ORYX F/W v4.00 Oryx Data Collector v3.7.2.0data status	okinstallation	princeton_trtdifferential loss correction	single-endedforward channel	channel 3reverse channel	N/Adate	2019/09/17time	17:32:35forward acquisition time	60.00reverse acquisition time	0.00gamma	496.2192k internal	0.2290k external	0.2290temperature offset calibration	0.9948default loss term (dB/km)	0.3790temperature slope calibration	1.0000multiplexer offset coefficient	1.0000multiplexer slope coefficient	1.0000fibre end	0.00T internal ref (°C)	43.25T ext. ref 1 (°C)	0.35T ext. ref 2 (°C)	38.99length (m)	temperature (°C)	Stokes	anti-Stokes-747.200	76.270	0.200	0.217
-746.185	496.379	0.143	0.338
-745.171	-0.838	0.172	-0.125
-744.156	-110.994	0.169	0.036
-743.142	-37.711	-0.343	-0.187
-742.127	123.083	0.192	0.247
-741.112	-140.109	0.091	-0.010
-740.098	-200.000	0.015	0.080
-739.083	-78.136	0.089	-0.031
-738.069	407.624	0.132	0.285
-737.054	232.816	-0.247	0.415
-736.039	-68.258	-0.106	0.042
-735.025	-46.006	0.246	-0.124
-734.010	48.437	-0.079	0.076
-732.996	313.192	-0.117	-0.226
-731.981	367.087	0.089	-0.184
-730.966	-78.773	-0.065	-0.023
-729.952	-148.663	-0.245	0.020
-728.937	-59.659	-0.115	0.050
-727.923	227.487	-0.089	0.148
-726.908	33.747	-0.262	0.234
-725.894	-127.185	-0.306	0.046
-724.879	-129.004	0.229	0.033
-723.864	-132.246	0.190	-0.025
-722.850	513.721	0.200	-0.477
-721.835	298.371	0.226	-0.425
-720.821	-172.606	-0.240	0.008
-719.806	800.000	0.054	-0.196
-718.791	-104.423	-0.367	0.087
-717.777	-39.146	-0.273	-0.147
-716.762	-110.794	0.098	0.021
-715.748	-8.573	0.377	0.259
-714.733	313.340	-0.102	-0.196
-713.718	-20.532	0.280	0.176
-712.704	-200.000	-0.023	0.355
-711.689	232.448	-0.130	-0.219
-710.675	-34.781	-0.162	-0.091
-709.660	6.740	-0.175	-0.133
-708.645	-200.000	0.004	0.039
-707.631	134.645	-0.174	-0.231
-706.616	27.679	0.204	-0.176
-705.602	-200.000	-0.011	-0.307
-704.587	800.000	0.056	-0.163
-703.572	-200.000	-0.014	-0.132
-702.558	-92.344	0.118	0.034
-701.543	-188.383	-0.084	0.001
-700.529	800.000	0.035	0.129
-699.514	-200.000	0.017	-0.224
-698.499	-181.627	0.166	0.003
-697.485	-200.000	-0.008	-0.183
-696.470	-55.419	0.269	-0.124
-695.456	-76.781	0.269	0.096
-694.441	-200.000	0.018	0.177
-693.426	-50.001	0.177	0.086
-692.412	-117.645	0.343	0.063
-691.397	-34.280	0.049	-0.028
-690.383	800.000	0.061	0.181
-689.368	800.000	-0.078	-0.280
-688.354	-134.523	0.355	-0.044
-687.339	113.305	-0.060	-0.075
-686.324	48.814	-0.184	-0.176
-685.310	157.836	-0.092	0.130
-684.295	-200.000	-0.009	-0.176
-683.281	-129.469	0.150	-0.021
-682.266	-200.000	0.018	0.224
-681.251	44.228	-0.256	-0.240
-680.237	-200.000	-0.004	-0.456
-679.222	666.311	-0.087	0.230
-678.208	-166.305	0.107	0.005
-677.193	-90.937	0.398	-0.117
-676.178	84.918	0.101	0.113
-675.164	100.994	0.154	-0.183
-674.149	-194.724	0.244	0.002
-673.135	-48.802	-0.186	0.091
-672.120	-19.685	0.179	-0.113
-671.105	-18.156	0.051	-0.033
-670.091	189.223	-0.281	-0.430
-669.076	-99.661	-0.206	0.053
-668.062	33.070	0.090	-0.080
-667.047	92.122	0.038	-0.044
-666.032	22.178	-0.139	0.116
-665.018	-200.000	0.049	0.389
-664.003	-77.260	0.171	-0.061
-662.989	74.008	-0.164	0.176
-661.974	-97.718	-0.131	-0.035
-660.959	-67.658	0.227	0.091
-659.945	231.514	-0.123	0.206
-658.930	11.234	0.376	0.294
-657.916	764.037	0.054	-0.149
-656.901	-191.261	-0.196	-0.002
-655.886	45.300	-0.193	-0.182
-654.872	-35.490	-0.155	0.086
-653.857	-41.656	-0.090	0.047
-652.843	774.425	0.078	0.216
-651.828	248.784	-0.094	0.163
-650.814	-29.285	0.290	-0.170
-649.799	800.000	-0.095	-0.339
-648.784	55.691	0.243	-0.240
-647.770	-200.000	0.013	0.124
-646.755	-21.253	0.308	-0.192
-645.741	-39.227	0.241	0.129
-644.726	-85.345	0.095	-0.030
-643.711	-200.000	0.010	-0.185
-642.697	691.567	0.073	-0.195
-641.682	-91.621	-0.025	-0.007
-640.668	607.789	0.010	-0.026
-639.653	177.797	-0.072	-0.107
-638.638	26.208	-0.250	0.213
-637.624	-21.615	-0.144	0.089
-636.609	-0.007	-0.231	0.168
-635.595	-200.000	-0.002	-0.117
-634.580	-42.733	0.200	-0.104
-633.565	-9.718	-0.109	0.074
-632.551	-92.566	0.242	0.069
-631.536	-62.785	-0.364	-0.154
-630.522	-137.235	0.549	-0.064
-629.507	123.832	0.106	0.135
-628.492	279.317	-0.107	-0.195
-627.478	-129.206	0.288	-0.041
-626.463	-26.975	-0.256	-0.152
-625.449	-200.000	-0.044	-0.288
-624.434	800.000	-0.050	-0.160
-623.419	6.884	-0.199	0.151
-622.405	56.654	0.108	0.107
-621.390	-174.406	-0.176	-0.005
-620.376	800.000	-0.042	-0.146
-619.361	-68.856	-0.063	0.025
-618.346	-200.000	0.046	0.250
-617.332	-80.394	-0.224	0.076
-616.317	800.000	-0.097	-0.416
-615.303	12.042	-0.214	0.168
-614.288	-200.000	0.002	0.351
-613.273	800.000	-0.058	-0.192
-612.259	-77.821	0.293	0.103
-611.244	361.941	0.054	-0.110
-610.230	-2.512	0.080	-0.057
-609.215	-200.000	-0.014	0.111
-608.201	-24.201	0.278	-0.169
-607.186	800.000	-0.033	0.123
-606.171	-200.000	-0.022	0.149
-605.157	-200.000	-0.006	-0.037
-604.142	39.225	-0.132	-0.120
-603.128	-99.193	0.163	0.042
-602.113	562.988	-0.077	-0.190
-601.098	77.680	-0.216	0.234
-600.084	-122.247	0.096	0.016
-599.069	-71.756	0.232	-0.088
-598.055	-65.082	0.122	0.050
-597.040	328.877	0.014	-0.027
-596.025	800.000	0.083	-0.290
-595.011	464.028	0.130	0.296
-593.996	96.398	0.061	0.071
-592.982	-200.000	-0.026	-0.245
-591.967	12.353	0.147	-0.115
-590.952	44.114	0.235	-0.219
-589.938	-200.000	0.013	-0.073
-588.923	800.000	0.048	-0.153
-587.909	800.000	0.047	0.157
-586.894	-2.475	-0.240	0.171
-585.879	-144.332	-0.369	0.035
-584.865	56.964	0.183	-0.181
-583.850	800.000	0.086	-0.251
-582.836	-138.561	-0.109	-0.012
-581.821	-25.786	0.358	-0.215
-580.806	-122.258	0.119	-0.020
-579.792	-162.866	0.098	-0.005
-578.777	128.347	-0.185	-0.239
-577.763	800.000	0.032	0.129
-576.748	273.636	0.224	-0.403
-575.733	696.886	-0.087	0.234
-574.719	-200.000	0.043	0.214
-573.704	-89.305	0.251	0.075
-572.690	71.769	0.215	0.227
-571.675	-200.000	-0.017	0.430
-570.661	-47.435	0.273	0.135
-569.646	4.757	0.231	-0.173
-568.631	-40.745	0.109	0.058
-567.617	-26.038	-0.149	-0.089
-566.602	-200.000	-0.023	-0.325
-565.588	-113.299	0.026	-0.005
-564.573	-200.000	-0.058	0.338
-563.558	-54.903	0.118	-0.054
-562.544	-200.000	0.076	0.365
-561.529	800.000	-0.129	0.394
-560.515	-76.121	0.365	0.131
-559.500	-68.748	-0.271	-0.107
-558.485	94.625	-0.092	-0.106
-557.471	184.951	0.079	-0.119
-556.456	106.245	0.177	-0.213
-555.442	-40.538	-0.052	-0.027
-554.427	54.255	0.128	0.125
-553.412	-104.243	-0.235	0.055
-552.398	-200.000	-0.040	0.304
-551.383	422.050	0.081	0.177
-550.369	116.785	-0.163	0.204
-549.354	-57.615	0.194	0.087
-548.339	-200.000	0.092	0.530
-547.325	-70.798	-0.404	0.155
-546.310	18.060	-0.083	0.068
-545.296	-103.157	0.341	-0.082
-544.281	-99.773	-0.072	-0.018
-543.266	800.000	-0.060	-0.216
-542.252	490.795	-0.105	-0.243
-541.237	448.266	0.076	-0.170
-540.223	385.212	0.140	0.294
-539.208	800.000	0.038	0.136
-538.193	-200.000	-0.032	-0.192
-537.179	63.119	-0.174	0.177
-536.164	-68.276	-0.157	-0.062
-535.150	-57.298	0.121	0.054
-534.135	-10.145	-0.240	-0.162
-533.121	-131.393	-0.297	-0.040
-532.106	-87.665	-0.095	0.029
-531.091	305.082	0.137	0.259
-530.077	-36.673	0.053	0.029
-529.062	81.982	-0.156	-0.171
-528.048	-91.333	0.116	0.034
-527.033	-123.792	-0.160	-0.026
-526.018	-200.000	-0.050	0.395
-525.004	172.016	-0.142	0.208
-523.989	-146.931	0.048	0.004
-522.975	-116.411	-0.225	-0.042
-521.960	-135.772	-0.072	-0.009
-520.945	800.000	0.019	0.061
-519.931	-114.300	-0.020	0.004
-518.916	-27.672	-0.146	0.086
-517.902	-53.591	-0.242	0.112
-516.887	107.211	0.059	-0.071
-515.872	463.102	0.065	-0.147
-514.858	5.191	0.172	0.129
-513.843	800.000	0.031	-0.136
-512.829	-47.038	0.073	0.036
-511.814	25.289	-0.096	-0.081
-510.799	-200.000	0.065	-0.320
-509.785	-148.510	-0.281	-0.023
-508.770	75.139	-0.104	0.111
-507.756	-72.394	0.032	0.012
-506.741	-71.200	-0.284	0.108
-505.726	-118.003	-0.207	-0.038
-504.712	-200.000	-0.053	0.301
-503.697	-11.509	-0.027	-0.018
-502.683	-25.491	-0.394	0.236
-501.668	67.260	0.067	0.069
-500.653	115.970	-0.028	0.034
-499.639	7.704	-0.118	0.089
-498.624	14.306	-0.126	0.100
-497.610	-136.072	-0.137	-0.016
-496.595	82.836	0.189	-0.208
-495.581	-37.425	0.341	-0.185
-494.566	54.200	-0.015	-0.015
-493.551	616.463	-0.046	0.116
-492.537	-84.773	-0.616	-0.197
-491.522	-200.000	0.028	-0.173
-490.508	112.267	0.098	-0.121
-489.493	634.371	-0.076	0.196
-488.478	46.199	0.345	-0.324
-487.464	-18.348	0.025	-0.016
-486.449	-200.000	-0.100	0.488
-485.435	-200.000	0.044	0.229
-484.420	-9.946	-0.085	0.057
-483.405	21.630	0.022	0.018
-482.391	-200.000	-0.059	0.290
-481.376	-148.894	-0.189	0.015
-480.362	221.289	-0.168	0.273
-479.347	-200.000	0.018	0.282
-478.332	-200.000	0.009	-0.174
-477.318	11.026	0.231	-0.179
-476.303	194.180	-0.111	0.170
-475.289	-192.497	-0.144	0.001
-474.274	-64.613	0.228	0.094
-473.259	-124.849	0.154	0.024
-472.245	-11.548	-0.105	0.070
-471.230	22.361	-0.139	-0.115
-470.216	-66.266	0.039	0.016
-469.201	54.785	0.096	0.094
-468.186	-200.000	-0.030	0.190
-467.172	-200.000	-0.023	0.115
-466.157	-200.000	0.008	0.195
-465.143	36.159	0.461	0.411
-464.128	376.357	0.045	0.093
-463.113	-29.812	-0.177	-0.102
-462.099	52.055	-0.162	0.157
-461.084	-200.000	-0.002	0.196
-460.070	-106.767	-0.242	0.054
-459.055	800.000	-0.046	0.188
-458.040	800.000	-0.005	0.022
-457.026	-196.519	-0.301	-0.002
-456.011	-70.901	0.179	0.068
-454.997	246.704	0.069	-0.118
-453.982	57.557	-0.159	0.158
-452.968	-20.108	-0.150	-0.094
-451.953	-20.736	0.380	-0.236
-450.938	-150.798	-0.361	-0.028
-449.924	-86.965	0.277	-0.086
-448.909	356.668	0.066	-0.133
-447.895	39.846	-0.055	-0.050
-446.880	16.735	-0.166	-0.133
-445.865	184.302	0.171	-0.256
-444.851	-80.295	-0.152	-0.052
-443.836	-82.204	-0.413	0.136
-442.822	-95.346	0.082	-0.022
-441.807	115.917	0.082	0.102
-440.792	-77.107	-0.186	0.066
-439.778	124.920	0.210	0.268
-438.763	30.578	0.075	-0.065
-437.749	12.934	-0.101	-0.079
-436.734	-140.047	0.256	-0.027
-435.719	-66.142	0.259	0.104
-434.705	-24.081	-0.089	-0.054
-433.690	-27.039	-0.079	0.047
-432.676	455.634	-0.066	0.149
-431.661	195.715	-0.080	-0.124
-430.646	161.248	-0.129	0.183
-429.632	-138.529	0.322	-0.036
-428.617	800.000	0.059	-0.206
-427.603	-152.858	-0.306	-0.022
-426.588	66.637	-0.113	-0.117
-425.573	-200.000	0.054	0.248
-424.559	205.939	-0.276	-0.434
-423.544	-102.529	0.081	-0.020
-422.530	-27.645	0.119	-0.070
-421.515	-200.000	0.085	-0.440
-420.500	800.000	-0.024	-0.094
-419.486	-200.000	0.001	-0.313
-418.471	-65.797	-0.243	0.098
-417.457	421.885	0.236	-0.513
-416.442	56.720	0.324	-0.319
-415.428	-120.788	-0.288	-0.049
-414.413	-86.928	0.227	-0.070
-413.398	138.548	-0.163	0.216
-412.384	106.022	0.106	-0.127
-411.369	-200.000	-0.032	-0.230
-410.355	330.513	0.167	-0.325
-409.340	-57.135	-0.269	0.120
-408.325	311.407	-0.191	0.362
-407.311	677.596	0.012	0.031
-406.296	28.009	0.180	-0.154
-405.282	-139.573	-0.329	0.036
-404.267	186.138	-0.134	0.201
-403.252	798.906	0.060	-0.168
-402.238	75.457	0.081	-0.086
-401.223	-9.331	0.105	0.071
-400.209	-101.922	-0.135	-0.033
-399.194	169.136	0.204	-0.294
-398.179	69.570	0.137	0.142
-397.165	48.136	0.106	-0.100
-396.150	45.215	0.384	0.357
-395.136	-200.000	0.020	0.208
-394.121	536.523	0.022	-0.052
-393.106	-14.198	0.186	0.121
-392.092	-178.007	0.110	-0.003
-391.077	-80.644	-0.256	-0.086
-390.063	116.026	-0.181	0.224
-389.048	-128.332	-0.336	-0.048
-388.033	-147.961	-0.129	-0.011
-387.019	-61.986	-0.180	-0.076
-386.004	379.416	-0.100	-0.207
-384.990	-95.342	0.074	0.020
-383.975	-124.747	0.653	0.102
-382.960	-125.818	0.090	0.014
-381.946	-200.000	-0.063	-0.367
-380.931	339.518	-0.184	-0.362
-379.917	33.948	-0.230	-0.202
-378.902	-98.053	0.427	-0.111
-377.888	800.000	0.020	0.088
-376.873	-200.000	0.010	0.145
-375.858	23.983	-0.045	-0.038
-374.844	298.886	0.096	-0.179
-373.829	-200.000	-0.008	-0.099
-372.815	644.504	-0.033	-0.085
-371.800	421.553	-0.162	-0.351
-370.785	-51.564	-0.188	0.088
-369.771	-34.447	0.122	0.068
-368.756	-11.293	-0.086	-0.057
-367.742	35.313	-0.135	0.120
-366.727	190.411	-0.131	-0.199
-365.712	800.000	-0.036	0.122
-364.698	-54.472	-0.140	-0.064
-363.683	-200.000	0.154	0.001
-362.669	-200.000	-0.020	-0.095
-361.654	490.233	0.047	0.108
-360.639	35.861	-0.248	-0.220
-359.625	800.000	0.030	0.101
-358.610	800.000	0.113	-0.371
-357.596	169.656	0.114	-0.164
-356.581	68.132	0.072	-0.074
-355.566	82.427	0.207	-0.226
-354.552	-110.217	0.134	0.028
-353.537	800.000	0.094	-0.295
-352.523	-200.000	-0.000	-0.065
-351.508	800.000	-0.062	0.201
-350.493	-17.431	0.140	0.089
-349.479	-200.000	0.027	-0.169
-348.464	-30.960	-0.263	-0.150
-347.450	240.162	-0.085	-0.143
-346.435	-87.432	-0.247	-0.075
-345.420	35.760	0.379	-0.336
-344.406	51.905	0.148	0.142
-343.391	-111.988	-0.177	-0.036
-342.377	306.057	0.009	-0.018
-341.362	-21.820	-0.181	-0.111
-340.348	-133.547	0.237	-0.030
-339.333	-50.907	-0.137	0.065
-338.318	-84.230	0.072	0.023
-337.304	-200.000	-0.082	0.372
-336.289	-34.250	-0.127	0.070
-335.275	634.699	-0.090	-0.231
-334.260	307.684	-0.055	0.102
-333.245	-10.887	0.156	-0.104
-332.231	138.332	0.172	0.228
-331.216	-200.000	-0.020	0.090
-330.202	-64.521	-0.273	-0.112
-329.187	-33.972	-0.178	-0.099
-328.172	661.282	0.131	-0.339
-327.158	60.006	-0.087	0.086
-326.143	-200.000	-0.051	-0.234
-325.129	548.011	0.121	-0.291
-324.114	-102.712	-0.326	-0.078
-323.099	159.625	-0.172	0.242
-322.085	-18.117	-0.073	-0.046
-321.070	257.555	-0.284	-0.491
-320.056	424.522	-0.050	-0.108
-319.041	-36.368	0.335	0.182
-318.026	-200.000	0.077	0.352
-317.012	213.428	-0.081	-0.128
-315.997	-10.554	0.070	-0.047
-314.983	-6.604	0.101	0.070
-313.968	106.987	-0.247	-0.295
-312.953	800.000	0.084	0.235
-311.939	13.108	0.100	-0.078
-310.924	-100.369	0.292	-0.073
-309.910	40.571	-0.353	0.320
-308.895	1.981	-0.101	0.074
-307.880	-200.000	-0.055	0.304
-306.866	572.178	-0.222	0.546
-305.851	13.800	-0.137	0.108
-304.837	-188.113	-0.436	-0.006
-303.822	-200.000	-0.028	0.385
-302.807	257.942	0.008	-0.013
-301.793	-76.673	0.147	-0.052
-300.778	-148.324	-0.202	-0.017
-299.764	-78.987	-0.292	-0.100
-298.749	-200.000	0.018	0.208
-297.735	-200.000	-0.032	-0.164
-296.720	215.700	0.058	-0.092
-295.705	800.000	-0.011	0.049
-294.691	393.604	-0.016	0.033
-293.676	120.842	-0.244	0.305
-292.662	800.000	-0.052	0.212
-291.647	416.245	-0.070	-0.151
-290.632	409.512	-0.066	0.142
-289.618	-200.000	-0.007	-0.071
-288.603	800.000	0.069	-0.230
-287.589	313.923	0.143	0.271
-286.574	149.527	0.101	0.138
-285.559	-157.321	0.112	-0.007
-284.545	617.297	0.102	-0.257
-283.530	672.660	0.152	0.395
-282.516	30.676	0.075	0.065
-281.501	-180.487	0.134	-0.003
-280.486	409.023	0.108	0.230
-279.472	-142.104	0.106	0.011
-278.457	151.470	0.140	0.192
-277.443	432.587	-0.056	-0.122
-276.428	-28.531	0.106	0.061
-275.413	490.286	-0.030	0.068
-274.399	-85.513	0.075	-0.024
-273.384	205.598	0.211	0.329
-272.370	192.360	0.160	0.243
-271.355	49.959	0.049	-0.047
-270.340	-23.879	0.217	-0.130
-269.326	86.287	-0.030	-0.033
-268.311	-147.057	-0.162	0.014
-267.297	-137.094	0.223	0.026
-266.282	4.141	-0.212	-0.156
-265.267	51.799	0.115	0.110
-264.253	-200.000	0.013	-0.248
-263.238	778.967	-0.082	0.226
-262.224	-48.070	0.299	0.145
-261.209	62.198	0.344	-0.345
-260.195	82.114	0.082	0.090
-259.180	-85.726	0.050	-0.016
-258.165	-30.906	-0.044	-0.025
-257.151	351.168	0.026	-0.052
-256.136	-102.902	0.377	-0.090
-255.122	-101.633	0.160	0.039
-254.107	800.000	-0.034	-0.110
-253.092	-200.000	-0.029	-0.149
-252.078	31.294	0.306	-0.264
-251.063	394.148	-0.232	-0.485
-250.049	784.907	0.063	-0.174
-249.034	146.342	-0.067	0.090
-248.019	-200.000	-0.052	0.383
-247.005	-57.995	0.199	-0.087
-245.990	170.680	-0.018	-0.026
-244.976	-21.906	-0.215	-0.132
-243.961	-200.000	0.041	-0.371
-242.946	-44.569	0.231	0.116
-241.932	-150.914	0.193	-0.015
-240.917	53.059	-0.223	0.215
-239.903	105.183	0.160	-0.189
-238.888	602.631	-0.120	0.300
-237.873	217.920	0.235	0.376
-236.859	-7.819	0.111	-0.075
-235.844	800.000	-0.060	0.228
-234.830	-19.558	0.113	0.070
-233.815	-99.994	0.011	0.003
-232.800	-54.152	0.115	-0.052
-231.786	-67.932	-0.159	-0.062
-230.771	-42.962	0.083	-0.042
-229.757	1.875	-0.218	0.158
-228.742	93.330	0.171	-0.195
-227.727	-140.651	-0.228	-0.024
-226.713	-17.614	0.452	0.285
-225.698	69.433	-0.055	-0.056
-224.684	5.493	0.262	0.194
-223.669	150.077	0.097	0.132
-222.655	-200.000	-0.005	0.031
-221.640	-48.851	-0.143	-0.069
-220.625	11.818	0.081	0.062
-219.611	-144.920	0.369	-0.034
-218.596	93.249	-0.095	0.107
-217.582	-200.000	-0.009	0.318
-216.567	800.000	0.017	0.058
-215.552	-160.403	0.157	-0.008
-214.538	-54.413	0.371	0.169
-213.523	-87.908	0.100	-0.030
-212.509	-22.276	0.177	-0.108
-211.494	-200.000	0.022	0.214
-210.479	175.169	-0.059	-0.085
-209.465	-200.000	-0.062	0.330
-208.450	556.103	-0.122	-0.294
-207.436	387.030	0.035	-0.072
-206.421	-178.411	-0.154	0.004
-205.406	201.847	0.022	-0.033
-204.392	800.000	-0.105	0.453
-203.377	-200.000	0.006	-0.091
-202.363	426.207	-0.170	0.367
-201.348	123.837	-0.121	-0.152
-200.333	800.000	0.038	-0.146
-199.319	32.052	-0.269	-0.233
-198.304	140.066	-0.002	-0.002
-197.290	80.971	-0.105	-0.114
-196.275	-82.316	-0.216	-0.070
-195.260	25.833	0.246	0.206
-194.246	-106.747	-0.229	-0.051
-193.231	286.664	0.042	0.076
-192.217	800.000	-0.111	-0.344
-191.202	-200.000	-0.001	0.022
-190.187	219.046	-0.116	0.186
-189.173	-151.627	0.277	0.021
-188.158	-101.828	0.283	-0.069
-187.144	-158.609	0.093	0.005
-186.129	631.884	-0.114	0.289
-185.114	-200.000	-0.022	0.211
-184.100	269.924	0.127	0.224
-183.085	-62.966	0.190	-0.079
-182.071	-36.222	-0.179	0.097
-181.056	714.067	-0.124	-0.329
-180.042	-78.196	0.347	0.119
-179.027	18.915	-0.158	0.127
-178.012	167.315	-0.023	0.033
-176.998	236.582	-0.129	-0.214
-175.983	800.000	-0.104	0.380
-174.969	-16.270	-0.178	0.113
-173.954	-69.503	-0.189	-0.073
-172.939	-200.000	0.009	-0.090
-171.925	26.582	-0.301	-0.252
-170.910	53.081	0.048	0.046
-169.896	8.395	0.029	-0.022
-168.881	-88.160	-0.287	0.086
-167.866	359.635	0.024	0.049
-166.852	3.838	-0.021	-0.015
-165.837	598.857	0.087	-0.216
-164.823	-200.000	0.006	0.054
-163.808	151.285	0.097	0.132
-162.793	-200.000	-0.028	0.218
-161.779	597.088	-0.121	-0.301
-160.764	-200.000	0.019	0.132
-159.750	307.168	-0.041	0.077
-158.735	97.642	-0.401	-0.462
-157.720	-118.852	0.047	-0.008
-156.706	-128.031	-0.157	0.023
-155.691	-200.000	-0.020	-0.144
-154.677	-200.000	0.020	-0.287
-153.662	-86.335	0.101	-0.031
-152.647	-37.247	0.181	0.097
-151.633	800.000	0.151	-0.500
-150.618	-78.391	0.141	-0.049
-149.604	-200.000	0.033	-0.222
-148.589	67.093	0.094	0.096
-147.574	179.421	-0.063	-0.093
-146.560	-200.000	0.040	-0.351
-145.545	800.000	-0.062	-0.196
-144.531	800.000	-0.098	0.323
-143.516	-200.000	0.017	-0.202
-142.502	13.602	0.202	0.157
-141.487	-200.000	-0.002	-0.194
-140.472	-8.074	-0.364	-0.245
-139.458	-82.377	0.129	0.042
-138.443	248.731	0.102	0.173
-137.429	-67.853	0.173	-0.068
-136.414	489.961	0.067	-0.152
-135.399	800.000	0.062	0.221
-134.385	-114.383	-0.041	-0.008
-133.370	39.654	-0.094	-0.085
-132.356	800.000	-0.113	0.354
-131.341	-74.530	0.114	-0.041
-130.326	267.158	0.112	0.196
-129.312	-28.055	0.198	0.115
-128.297	94.794	-0.130	0.148
-127.283	-200.000	-0.022	-0.133
-126.268	123.470	0.210	-0.264
-125.253	175.916	0.111	0.161
-124.239	30.859	0.276	-0.236
-123.224	800.000	-0.007	0.027
-122.210	21.371	-0.019	-0.015
-121.195	-85.862	-0.131	0.040
