DTS Sentinel unit serial number:	SN413079Multiplexer serial number:	ORYXHardware model number:	OX4-SRSoftware version number:	ORYX F/W v4.00 Oryx Data Collector v3.7.2.0data status	okinstallation	princeton_trtdifferential loss correction	single-endedforward channel	channel 3reverse channel	N/Adate	2019/09/12time	16:22:11forward acquisition time	60.00reverse acquisition time	0.00gamma	496.2192k internal	0.2303k external	0.2303temperature offset calibration	1.0061default loss term (dB/km)	0.3790temperature slope calibration	1.0000multiplexer offset coefficient	1.0000multiplexer slope coefficient	1.0000fibre end	0.00T internal ref (°C)	37.80T ext. ref 1 (°C)	2.49T ext. ref 2 (°C)	30.43length (m)	temperature (°C)	Stokes	anti-Stokes-747.200	-200.000	-0.059	-0.398
-746.185	-200.000	0.000	0.418
-745.171	-110.453	0.393	0.083
-744.156	137.091	-0.134	0.179
-743.142	55.706	-0.051	0.051
-742.127	-200.000	-0.040	0.419
-741.112	-13.760	0.441	-0.291
-740.098	800.000	0.044	-0.126
-739.083	-193.809	-0.283	-0.002
-738.069	-200.000	-0.011	0.262
-737.054	800.000	0.025	-0.077
-736.039	231.525	0.108	-0.180
-735.025	-200.000	0.002	-0.294
-734.010	800.000	-0.105	-0.306
-732.996	40.115	0.105	-0.096
-731.981	157.308	-0.019	0.027
-730.966	800.000	0.063	0.260
-729.952	652.124	-0.112	-0.292
-728.937	800.000	-0.060	0.253
-727.923	-9.338	0.278	0.189
-726.908	-40.331	-0.278	0.147
-725.894	-87.724	-0.285	0.088
-724.879	143.201	-0.254	0.344
-723.864	-200.000	-0.051	0.477
-722.850	-156.732	-0.488	-0.031
-721.835	-200.000	0.014	-0.224
-720.821	85.891	-0.279	0.312
-719.806	232.046	-0.117	0.195
-718.791	-200.000	0.019	0.134
-717.777	-45.366	-0.296	0.149
-716.762	-200.000	0.042	0.232
-715.748	90.897	-0.044	-0.050
-714.733	798.443	-0.102	0.287
-713.718	-83.116	0.324	0.106
-712.704	1.461	0.246	0.180
-711.689	49.344	0.243	-0.233
-710.675	-88.763	0.062	0.019
-709.660	-62.824	0.185	0.078
-708.645	101.210	-0.061	0.072
-707.631	800.000	0.007	0.029
-706.616	57.955	-0.233	0.232
-705.602	-200.000	0.016	0.236
-704.587	232.200	-0.099	-0.166
-703.572	36.170	-0.129	-0.116
-702.558	-97.040	0.355	0.095
-701.543	17.152	0.214	-0.172
-700.529	14.571	-0.182	0.145
-699.514	-91.907	0.171	0.049
-698.499	226.847	-0.123	-0.203
-697.485	-200.000	-0.004	0.161
-696.470	-146.536	-0.311	-0.028
-695.456	-110.911	-0.140	-0.029
-694.441	92.552	-0.080	0.092
-693.426	144.096	0.175	0.238
-692.412	-200.000	0.044	-0.228
-691.397	800.000	-0.098	0.278
-690.383	189.110	-0.030	0.045
-689.368	73.762	0.065	0.069
-688.354	79.357	0.094	0.102
-687.339	-33.469	-0.382	-0.215
-686.324	-74.626	0.287	-0.105
-685.310	336.649	-0.047	-0.092
-684.295	795.524	-0.169	-0.474
-683.281	47.430	0.069	-0.065
-682.266	197.957	-0.092	0.143
-681.251	-59.253	-0.332	-0.145
-680.237	182.051	0.051	-0.076
-679.222	-65.922	-0.280	0.114
-678.208	-93.906	0.344	0.096
-677.193	40.300	-0.223	-0.204
-676.178	186.916	0.232	-0.351
-675.164	-139.529	-0.153	0.017
-674.149	318.666	-0.146	-0.280
-673.135	-65.876	-0.218	0.088
-672.120	-27.775	0.174	0.103
-671.105	800.000	0.033	0.099
-670.091	-113.159	-0.155	0.031
-669.076	-100.330	0.102	-0.026
-668.062	800.000	-0.045	0.144
-667.047	-47.417	0.240	-0.119
-666.032	18.685	0.157	0.128
-665.018	-19.127	-0.053	0.033
-664.003	-59.046	0.171	0.075
-662.989	17.099	-0.055	-0.045
-661.974	-70.804	0.223	-0.085
-660.959	800.000	0.080	0.246
-659.945	-56.624	-0.310	0.140
-658.930	159.516	0.023	0.033
-657.916	800.000	-0.113	0.402
-656.901	-200.000	-0.056	-0.327
-655.886	-200.000	-0.020	0.277
-654.872	646.845	0.162	0.420
-653.857	143.747	0.147	0.199
-652.843	224.383	0.137	-0.225
-651.828	-200.000	0.029	0.169
-650.814	178.464	-0.113	-0.167
-649.799	-56.340	-0.223	-0.101
-648.784	153.066	-0.262	-0.363
-647.770	408.807	-0.050	0.107
-646.755	-200.000	0.018	0.102
-645.741	-200.000	0.023	-0.207
-644.726	-128.529	0.208	0.030
-643.711	403.342	-0.074	0.158
-642.697	-200.000	-0.002	-0.077
-641.682	67.994	-0.157	-0.163
-640.668	272.199	0.103	0.184
-639.653	116.361	-0.334	0.416
-638.638	-200.000	-0.010	-0.115
-637.624	-87.580	-0.026	-0.008
-636.609	-200.000	0.042	-0.238
-635.595	800.000	-0.040	0.123
-634.580	800.000	-0.020	0.067
-633.565	-148.377	-0.203	0.017
-632.551	-200.000	-0.001	-0.203
-631.536	779.031	-0.056	-0.154
-630.522	-98.399	0.136	0.035
-629.507	112.894	-0.162	0.199
-628.492	29.414	0.034	0.029
-627.478	423.144	0.099	-0.216
-626.463	-77.088	0.060	0.021
-625.449	386.418	0.117	0.244
-624.434	647.347	0.103	0.267
-623.419	-200.000	0.014	0.193
-622.405	-157.822	-0.185	0.011
-621.390	1.683	-0.203	-0.148
-620.376	97.532	0.206	0.240
-619.361	-106.911	0.200	0.045
-618.346	-200.000	0.001	0.216
-617.332	-28.688	0.273	0.159
-616.317	-77.249	0.297	0.105
-615.303	-42.900	-0.243	0.125
-614.288	-86.706	0.206	-0.064
-613.273	800.000	0.013	0.052
-612.259	-171.383	-0.267	-0.009
-611.244	-200.000	0.005	0.246
-610.230	296.413	0.212	0.394
-609.215	-90.275	-0.215	-0.063
-608.201	-101.742	0.221	-0.054
-607.186	15.617	0.267	-0.213
-606.171	424.314	0.022	-0.049
-605.157	-14.374	0.377	0.246
-604.142	-200.000	-0.016	-0.138
-603.128	-200.000	-0.008	-0.061
-602.113	-184.358	0.358	0.006
-601.098	654.850	-0.110	-0.287
-600.084	-200.000	-0.056	-0.301
-599.069	80.602	-0.206	-0.225
-598.055	-68.796	-0.435	-0.170
-597.040	693.172	0.158	-0.419
-596.025	-200.000	-0.002	0.051
-595.011	359.230	0.106	0.214
-593.996	-200.000	-0.024	0.110
-592.982	-197.825	0.374	-0.002
-591.967	-151.234	-0.104	0.008
-590.952	-173.343	-0.317	0.010
-589.938	-200.000	-0.003	0.251
-588.923	-69.558	-0.184	0.072
-587.909	-43.823	0.180	-0.092
-586.894	420.199	-0.208	-0.451
-585.879	-117.440	-0.235	-0.043
-584.865	30.823	-0.165	0.143
-583.850	37.097	-0.228	0.205
-582.836	10.003	-0.171	0.132
-581.821	-189.281	0.261	-0.003
-580.806	222.271	-0.050	-0.082
-579.792	-200.000	0.010	0.058
-578.777	68.647	0.044	-0.046
-577.763	-85.934	0.190	-0.060
-576.748	800.000	-0.060	-0.169
-575.733	406.070	0.130	0.278
-574.719	103.743	-0.137	-0.163
-573.704	-114.046	0.153	-0.030
-572.690	-115.482	-0.060	-0.011
-571.675	-18.796	0.117	0.074
-570.661	-200.000	0.030	-0.241
-569.646	-61.797	0.304	0.129
-568.631	800.000	0.129	0.480
-567.617	343.230	0.031	0.062
-566.602	194.268	-0.237	-0.363
-565.588	-8.669	-0.280	-0.190
-564.573	352.821	-0.177	0.355
-563.558	-163.649	0.224	0.011
-562.544	-57.629	-0.067	0.030
-561.529	-48.807	-0.160	-0.078
-560.515	132.072	-0.050	0.066
-559.500	-51.630	-0.331	-0.156
-558.485	-200.000	0.005	-0.302
-557.471	15.246	0.186	-0.148
-556.456	800.000	-0.025	-0.082
-555.442	26.634	-0.131	0.111
-554.427	183.781	0.132	0.198
-553.412	-41.860	-0.323	-0.168
-552.398	-200.000	0.018	-0.322
-551.383	355.023	0.058	-0.116
-550.369	-33.825	0.115	0.064
-549.354	-186.509	0.123	-0.002
-548.339	148.328	-0.111	0.151
-547.325	-37.140	0.093	0.050
-546.310	92.694	0.196	-0.224
-545.296	-133.863	-0.472	-0.059
-544.281	432.355	-0.032	0.070
-543.266	-200.000	0.029	0.273
-542.252	-200.000	-0.004	0.330
-541.237	-24.184	-0.368	0.222
-540.223	-183.768	-0.118	0.002
-539.208	668.187	0.012	-0.032
-538.193	147.967	0.078	-0.106
-537.179	-111.412	0.153	0.031
-536.164	800.000	-0.040	0.120
-535.150	-136.050	0.200	-0.024
-534.135	240.550	0.033	-0.056
-533.121	-200.000	0.018	-0.122
-532.106	800.000	-0.023	0.097
-531.091	649.857	0.055	-0.143
-530.077	-33.298	0.135	0.075
-529.062	-157.776	0.146	0.009
-528.048	-116.747	0.237	-0.044
-527.033	-160.148	0.141	-0.008
-526.018	-120.212	0.338	-0.058
-525.004	162.090	0.107	0.152
-523.989	16.001	0.205	0.163
-522.975	362.365	0.232	-0.470
-521.960	-158.118	-0.244	-0.014
-520.945	32.189	0.186	0.162
-519.931	218.981	-0.024	0.039
-518.916	215.949	0.090	0.144
-517.902	-18.772	0.106	-0.067
-516.887	10.212	0.256	0.197
-515.872	201.498	-0.073	0.113
-514.858	-105.571	-0.167	-0.038
-513.843	422.277	0.079	-0.170
-512.829	579.790	-0.049	-0.120
-511.814	472.524	-0.124	-0.283
-510.799	-62.514	-0.470	0.197
-509.785	-200.000	0.004	0.323
-508.770	-200.000	-0.106	0.542
-507.756	162.914	0.108	0.154
-506.741	-32.906	-0.052	-0.029
-505.726	-81.499	-0.277	0.092
-504.712	355.383	-0.216	-0.434
-503.697	800.000	0.072	-0.210
-502.683	298.177	-0.115	-0.214
-501.668	800.000	-0.024	-0.079
-500.653	-200.000	0.037	0.187
-499.639	-122.735	0.280	-0.046
-498.624	452.252	-0.067	-0.149
-497.610	76.553	0.044	-0.047
-496.595	-155.698	0.367	0.024
-495.581	-79.869	-0.250	0.085
-494.566	-87.257	-0.188	-0.058
-493.551	-121.907	-0.316	0.053
-492.537	-34.683	-0.368	-0.203
-491.522	-49.780	-0.053	0.025
-490.508	800.000	-0.072	-0.234
-489.493	-34.090	0.530	0.294
-488.478	-95.214	-0.157	-0.043
-487.464	-200.000	-0.059	0.356
-486.449	800.000	0.038	-0.156
-485.435	70.572	0.222	-0.231
-484.420	46.865	0.238	0.223
-483.405	100.098	-0.160	-0.187
-482.391	556.441	0.110	0.268
-481.376	87.077	0.051	-0.057
-480.362	-49.254	-0.108	-0.052
-479.347	571.916	-0.228	-0.560
-478.332	413.208	-0.018	0.039
-477.318	217.631	0.170	-0.273
-476.303	98.009	0.141	-0.164
-475.289	385.401	0.033	0.069
-474.274	92.795	0.176	-0.200
-473.259	327.524	0.075	-0.145
-472.245	-200.000	-0.042	-0.320
-471.230	-77.538	0.314	-0.110
-470.216	57.512	0.238	-0.234
-469.201	526.026	0.060	0.141
-468.186	664.474	0.019	-0.050
-467.172	-127.931	0.279	-0.040
-466.157	311.675	0.146	0.276
-465.143	39.410	0.098	-0.089
-464.128	-105.497	0.613	-0.140
-463.113	-200.000	-0.021	0.095
-462.099	-200.000	-0.031	0.136
-461.084	-56.455	-0.202	0.090
-460.070	87.119	-0.061	0.068
-459.055	188.715	0.176	-0.265
-458.040	-80.812	0.193	-0.065
-457.026	63.000	-0.297	-0.299
-456.011	-93.233	-0.030	-0.008
-454.997	365.084	0.145	0.295
-453.982	506.320	-0.076	0.178
-452.968	-200.000	-0.003	-0.206
-451.953	32.540	-0.229	-0.199
-450.938	-156.459	0.129	0.008
-449.924	669.316	-0.105	-0.274
-448.909	729.839	-0.169	0.454
-447.895	-200.000	-0.007	0.326
-446.880	32.705	0.418	-0.364
-445.865	-54.112	-0.569	-0.261
-444.851	-200.000	0.003	-0.120
-443.836	169.092	-0.154	-0.222
-442.822	800.000	-0.032	0.092
-441.807	-139.823	0.054	-0.006
-440.792	-148.901	-0.388	-0.032
-439.778	-28.039	0.283	-0.165
-438.763	-31.234	0.141	0.080
-437.749	212.407	-0.106	0.168
-436.734	-13.879	-0.252	-0.164
-435.719	-40.454	0.116	0.061
-434.705	800.000	0.038	0.160
-433.690	40.392	-0.344	-0.311
-432.676	800.000	-0.053	0.192
-431.661	-144.185	0.201	0.019
-430.646	245.013	0.128	0.216
-429.632	43.265	0.237	0.218
-428.617	-44.737	0.501	-0.252
-427.603	-75.757	0.104	-0.037
-426.588	282.481	0.158	-0.285
-425.573	-173.516	-0.373	-0.011
-424.559	19.254	-0.103	0.083
-423.544	-200.000	-0.027	0.181
-422.530	-31.325	-0.230	0.130
-421.515	-145.988	0.075	-0.007
-420.500	-113.077	0.023	-0.005
-419.486	-200.000	-0.031	0.249
-418.471	444.524	-0.048	-0.106
-417.457	145.268	-0.068	0.091
-416.442	18.203	0.294	0.236
-415.428	-137.023	-0.039	-0.004
-414.413	-200.000	-0.017	-0.216
-413.398	-129.911	-0.041	0.006
-412.384	-170.436	-0.307	0.011
-411.369	-200.000	-0.009	0.194
-410.355	800.000	0.097	0.313
-409.340	332.333	0.096	0.186
-408.325	-165.032	0.049	0.002
-407.311	62.769	-0.167	-0.168
-406.296	-200.000	-0.000	-0.365
-405.282	7.806	0.171	-0.128
-404.267	179.946	-0.203	0.300
-403.252	800.000	0.078	0.278
-402.238	111.003	0.247	-0.299
-401.223	-200.000	-0.033	-0.604
-400.209	124.996	-0.151	-0.191
-399.194	-68.752	-0.402	-0.156
-398.179	-81.107	0.163	0.054
-397.165	800.000	0.017	0.070
-396.150	-25.251	0.282	-0.168
-395.136	707.393	0.021	0.056
-394.121	-200.000	-0.006	0.278
-393.106	800.000	-0.069	-0.203
-392.092	-60.929	0.175	0.074
-391.077	70.428	0.367	-0.381
-390.063	354.238	0.049	0.098
-389.048	-54.767	0.110	-0.050
-388.033	-78.474	-0.152	-0.052
-387.019	-200.000	-0.042	-0.204
-386.004	261.936	0.026	0.045
-384.990	-200.000	-0.030	0.375
-383.975	9.848	-0.059	-0.045
-382.960	-74.387	0.067	0.024
-381.946	800.000	0.035	-0.152
-380.931	-95.714	-0.327	0.088
-379.917	-144.313	0.094	-0.009
-378.902	219.622	-0.192	0.309
-377.888	-200.000	0.002	-0.221
-376.873	-97.251	0.135	0.035
-375.858	-200.000	-0.091	0.476
-374.844	65.533	-0.129	0.131
-373.829	60.592	0.185	-0.184
-372.815	10.865	-0.167	0.128
-371.800	-21.500	-0.265	-0.163
-370.785	-200.000	-0.018	0.241
-369.771	-31.309	-0.092	-0.052
-368.756	-36.035	-0.126	-0.068
-367.742	-74.927	0.075	0.027
-366.727	273.458	-0.086	-0.153
-365.712	119.143	-0.099	0.123
-364.698	678.171	-0.166	0.433
-363.683	-160.162	0.402	-0.022
-362.669	231.656	0.115	0.190
-361.654	-200.000	0.032	0.426
-360.639	19.874	0.173	-0.140
-359.625	532.160	0.118	-0.281
-358.610	-5.370	0.309	0.213
-357.596	-79.969	-0.287	-0.097
-356.581	-200.000	0.010	-0.149
-355.566	-71.694	0.293	-0.110
-354.552	152.841	-0.176	-0.241
-353.537	-3.610	-0.144	0.100
-352.523	-120.764	0.480	-0.081
-351.508	-13.935	-0.193	0.125
-350.493	-144.343	-0.261	0.024
-349.479	-200.000	0.024	-0.252
-348.464	800.000	0.073	-0.257
-347.450	34.107	-0.033	-0.029
-346.435	6.549	0.193	-0.144
-345.420	279.307	-0.111	0.199
-344.406	694.188	-0.185	0.487
-343.391	-200.000	0.015	0.083
-342.377	257.325	0.055	-0.095
-341.362	-119.271	0.303	0.053
-340.348	-168.185	-0.348	0.014
-339.333	-28.322	0.076	0.044
-338.318	-5.361	-0.136	0.094
-337.304	-173.906	-0.353	-0.010
-336.289	-22.661	-0.300	0.181
-335.275	-149.008	-0.199	-0.016
-334.260	309.632	-0.003	0.005
-333.245	-167.937	0.160	-0.006
-332.231	-90.744	0.079	-0.023
-331.216	484.844	0.107	0.243
-330.202	-200.000	-0.016	0.168
-329.187	-133.316	-0.278	0.035
-328.172	800.000	0.052	0.212
-327.158	-200.000	-0.018	-0.111
-326.143	118.794	0.151	-0.187
-325.129	-200.000	0.014	0.354
-324.114	150.945	-0.080	0.109
-323.099	44.251	-0.105	-0.096
-322.085	-79.093	-0.254	-0.086
-321.070	800.000	-0.039	0.113
-320.056	148.715	-0.092	-0.124
-319.041	414.165	-0.026	-0.055
-318.026	63.810	0.123	0.124
-317.012	-200.000	-0.047	-0.342
-315.997	-200.000	-0.028	0.134
-314.983	49.141	-0.123	0.115
-313.968	-200.000	0.044	-0.267
-312.953	-3.417	0.399	-0.278
-311.939	434.461	0.107	-0.233
-310.924	-104.985	-0.398	0.091
-309.910	-104.431	0.261	-0.061
-308.895	-200.000	0.080	-0.430
-307.880	800.000	-0.077	-0.248
-306.866	-146.208	-0.249	0.022
-305.851	-200.000	-0.046	-0.261
-304.837	-135.674	-0.146	0.017
-303.822	800.000	0.050	0.152
-302.807	-118.061	0.283	-0.051
-301.793	-132.455	-0.461	0.059
-300.778	-200.000	-0.059	-0.365
-299.764	800.000	-0.084	0.251
-298.749	499.465	0.050	0.115
-297.735	-40.614	-0.399	0.207
-296.720	231.410	-0.162	0.266
-295.705	-145.635	-0.166	-0.015
-294.691	-117.765	0.065	0.012
-293.676	-200.000	0.063	0.335
-292.662	428.618	-0.119	0.258
-291.647	359.818	0.013	0.027
-290.632	209.618	0.154	-0.241
-289.618	-147.207	0.157	0.013
-288.603	800.000	0.058	-0.172
-287.589	65.539	-0.219	-0.222
-286.574	-200.000	0.019	0.205
-285.559	-89.673	-0.233	0.068
-284.545	-109.533	0.254	0.054
-283.530	109.909	0.149	0.179
-282.516	-146.416	-0.295	-0.026
-281.501	405.892	0.074	0.156
-280.486	93.005	0.241	-0.272
-279.472	162.302	-0.113	0.159
-278.457	-148.353	-0.129	-0.011
-277.443	-200.000	-0.002	-0.502
-276.428	800.000	-0.046	-0.174
-275.413	-103.548	0.182	-0.043
-274.399	424.286	-0.149	0.320
-273.384	-7.431	-0.433	-0.293
-272.370	31.388	0.267	-0.230
-271.355	114.910	-0.100	-0.122
-270.340	235.494	0.143	-0.236
-269.326	-124.494	-0.051	-0.008
-268.311	293.504	-0.101	0.184
-267.297	-120.500	-0.067	0.011
-266.282	-80.459	0.235	-0.078
-265.267	44.695	0.073	0.067
-264.253	-72.269	-0.268	-0.099
-263.238	-53.128	0.220	-0.101
-262.224	-155.212	0.159	0.010
-261.209	320.330	0.052	-0.099
-260.195	26.911	-0.218	-0.183
-259.180	-200.000	-0.021	0.233
-258.165	194.482	-0.062	0.094
-257.151	-3.365	0.112	0.078
-256.136	432.341	0.136	0.295
-255.122	-152.778	0.151	-0.011
-254.107	66.025	-0.081	0.082
-253.092	-188.547	0.203	0.003
-252.078	161.926	0.228	0.319
-251.063	800.000	0.052	-0.222
-250.049	-133.077	-0.032	0.004
-249.034	-124.077	0.336	0.053
-248.019	68.866	0.169	0.173
-247.005	217.299	-0.154	-0.245
-245.990	-112.104	0.184	-0.037
-244.976	43.972	-0.071	0.065
-243.961	-163.040	-0.319	0.015
-242.946	-77.648	0.256	-0.088
-241.932	298.267	-0.106	-0.195
-240.917	-200.000	-0.028	0.349
-239.903	-155.057	0.260	0.017
-238.888	14.540	-0.107	0.083
-237.873	-135.764	-0.177	0.021
-236.859	-156.324	-0.297	0.019
-235.844	169.506	-0.068	-0.097
-234.830	-32.822	0.241	-0.134
-233.815	-33.403	-0.260	0.144
-232.800	385.150	0.167	-0.343
-231.786	800.000	-0.087	0.258
-230.771	-52.734	-0.101	-0.046
-229.757	-76.457	0.129	-0.045
-228.742	-145.750	0.060	-0.005
-227.727	30.762	-0.282	-0.241
-226.713	-160.062	-0.093	0.005
-225.698	122.004	-0.073	0.091
-224.684	-175.028	0.064	0.002
-223.669	-200.000	0.019	-0.164
-222.655	-200.000	-0.036	0.165
-221.640	-94.579	-0.116	0.031
-220.625	253.430	0.085	-0.145
-219.611	-83.570	0.382	0.122
-218.596	169.499	-0.214	0.305
-217.582	17.161	-0.178	0.141
-216.567	-72.372	-0.130	0.048
-215.552	105.850	0.106	-0.125
-214.538	192.763	0.111	-0.168
-213.523	237.498	-0.079	0.131
-212.509	800.000	0.112	0.321
-211.494	-170.354	-0.215	0.008
-210.479	23.717	-0.128	-0.105
-209.465	-200.000	0.056	-0.424
-208.450	77.565	-0.085	0.090
-207.436	-120.311	-0.217	0.037
-206.421	235.336	-0.120	-0.198
-205.406	166.072	0.307	0.433
-204.392	548.170	0.112	0.268
-203.377	800.000	0.056	-0.229
-202.363	143.929	-0.106	0.141
-201.348	-75.720	-0.211	0.075
-200.333	-137.919	0.263	-0.029
-199.319	-118.221	0.321	0.057
-198.304	82.190	-0.256	-0.277
-197.290	61.104	-0.161	-0.159
-196.275	556.387	-0.036	0.088
-195.260	-7.808	0.209	0.141
-194.246	259.096	-0.095	-0.163
-193.231	-200.000	0.007	0.190
-192.217	-200.000	0.008	-0.046
-191.202	-131.392	-0.265	0.035
-190.187	-54.549	0.220	0.099
-189.173	-123.856	0.326	0.051
-188.158	-200.000	-0.007	0.361
-187.144	-25.649	-0.099	-0.058
-186.129	-200.000	0.072	0.418
-185.114	800.000	0.109	0.416
-184.100	-200.000	-0.004	0.023
-183.085	800.000	0.041	-0.156
-182.071	-64.427	0.104	-0.042
-181.056	-78.998	-0.378	-0.128
-180.042	-160.225	0.399	0.022
-179.027	1.302	-0.341	0.244
-178.012	-8.588	0.224	0.150
-176.998	9.458	-0.220	-0.166
-175.983	-200.000	0.048	0.405
-174.969	-78.335	0.442	-0.151
-173.954	5.288	-0.332	0.244
-172.939	-64.762	0.188	0.076
-171.925	800.000	0.025	0.106
-170.910	319.785	-0.091	0.173
-169.896	-42.926	0.177	0.090
-168.881	-161.461	-0.091	-0.005
-167.866	-26.149	0.043	-0.025
-166.852	118.841	0.087	0.107
-165.837	-200.000	0.076	-0.418
-164.823	-147.995	0.145	0.012
-163.808	800.000	0.142	-0.594
-162.793	-200.000	-0.001	0.093
-161.779	61.257	-0.219	-0.217
-160.764	-40.876	0.280	0.144
-159.750	-2.918	0.208	-0.145
-158.735	5.367	0.126	-0.092
-157.720	182.220	-0.027	-0.039
-156.706	94.633	-0.023	-0.026
-155.691	48.028	-0.183	-0.170
-154.677	-200.000	0.026	0.125
-153.662	114.880	-0.080	-0.097
-152.647	-114.281	-0.014	0.003
-151.633	29.039	-0.065	0.055
-150.618	91.247	-0.206	0.230
-149.604	-84.348	0.082	0.026
-148.589	799.604	-0.124	0.340
-147.574	800.000	0.045	-0.188
-146.560	-200.000	0.010	-0.062
-145.545	-11.624	0.197	-0.129
-144.531	118.881	0.114	-0.140
-143.516	120.014	-0.178	0.220
-142.502	14.961	-0.075	0.058
-141.487	-200.000	-0.030	0.265
-140.472	-54.919	0.165	-0.074
-139.458	32.250	0.212	-0.182
-138.443	-200.000	-0.005	0.048
-137.429	-114.340	0.104	0.020
-136.414	-71.745	0.255	-0.095
-135.399	800.000	0.047	-0.205
-134.385	800.000	-0.030	0.094
-133.370	-112.212	-0.394	0.079
-132.356	-111.271	0.230	0.047
-131.341	61.929	-0.162	-0.161
-130.326	800.000	0.015	0.049
-129.312	-200.000	-0.008	0.164
-128.297	119.653	-0.111	0.137
-127.283	190.707	-0.086	0.129
-126.268	-200.000	-0.001	0.307
-125.253	-100.237	0.056	0.014
-124.239	-88.036	0.026	0.008
-123.224	-86.125	0.019	0.006
-122.210	179.394	-0.134	-0.194
-121.195	-200.000	-0.025	-0.165
