DTS Sentinel unit serial number:	SN413079Multiplexer serial number:	ORYXHardware model number:	OX4-SRSoftware version number:	ORYX F/W v4.00 Oryx Data Collector v3.7.2.0data status	okinstallation	princeton_trtdifferential loss correction	single-endedforward channel	channel 3reverse channel	N/Adate	2019/09/15time	19:28:35forward acquisition time	60.00reverse acquisition time	0.00gamma	496.2192k internal	0.2299k external	0.2299temperature offset calibration	0.9934default loss term (dB/km)	0.3790temperature slope calibration	1.0000multiplexer offset coefficient	1.0000multiplexer slope coefficient	1.0000fibre end	0.00T internal ref (°C)	38.91T ext. ref 1 (°C)	7.29T ext. ref 2 (°C)	28.34length (m)	temperature (°C)	Stokes	anti-Stokes-747.200	-74.960	0.322	-0.118
-746.185	204.137	-0.105	0.165
-745.171	134.342	0.148	-0.196
-744.156	172.545	-0.160	0.235
-743.142	409.950	0.134	0.290
-742.127	-200.000	0.001	0.120
-741.112	29.772	0.043	0.037
-740.098	-118.679	-0.116	0.021
-739.083	-39.355	-0.207	0.111
-738.069	-16.250	-0.242	-0.157
-737.054	-200.000	-0.036	0.373
-736.039	-182.222	-0.281	0.005
-735.025	119.669	0.187	0.236
-734.010	800.000	0.043	0.122
-732.996	800.000	0.030	-0.090
-731.981	9.741	0.169	-0.131
-730.966	52.666	0.183	-0.179
-729.952	150.385	0.076	-0.106
-728.937	-0.295	-0.404	-0.293
-727.923	705.373	0.053	-0.144
-726.908	-108.940	-0.383	-0.083
-725.894	-200.000	0.008	-0.112
-724.879	-200.000	0.017	0.495
-723.864	800.000	0.049	0.179
-722.850	-16.910	0.398	0.256
-721.835	-58.812	-0.222	0.098
-720.821	-159.119	0.204	0.012
-719.806	-104.748	-0.168	0.039
-718.791	-200.000	0.031	-0.157
-717.777	-18.131	0.080	-0.051
-716.762	-83.473	0.231	-0.075
-715.748	-108.756	0.059	0.013
-714.733	-54.061	0.161	0.074
-713.718	-200.000	0.014	0.100
-712.704	-200.000	0.002	-0.218
-711.689	800.000	-0.079	-0.290
-710.675	-200.000	-0.014	-0.339
-709.660	57.099	-0.099	0.099
-708.645	800.000	-0.082	-0.269
-707.631	125.592	0.049	0.063
-706.616	209.894	0.121	-0.194
-705.602	583.291	-0.119	-0.297
-704.587	99.725	-0.046	-0.054
-703.572	688.263	0.150	-0.400
-702.558	-95.579	-0.104	0.028
-701.543	90.481	0.141	0.161
-700.529	-72.046	0.196	0.074
-699.514	753.161	-0.069	0.189
-698.499	800.000	-0.035	0.142
-697.485	-200.000	-0.007	-0.263
-696.470	189.088	0.087	-0.133
-695.456	-126.914	0.294	0.044
-694.441	-200.000	-0.020	0.178
-693.426	10.506	-0.079	-0.061
-692.412	-200.000	-0.017	-0.074
-691.397	522.907	0.099	0.237
-690.383	1.564	-0.166	-0.121
-689.368	-91.163	0.236	0.069
-688.354	-53.140	-0.136	0.064
-687.339	-138.557	0.244	0.027
-686.324	295.887	-0.043	-0.080
-685.310	-113.335	-0.384	-0.077
-684.295	800.000	-0.086	0.302
-683.281	-49.458	0.057	0.028
-682.266	338.725	0.100	0.199
-681.251	800.000	-0.051	-0.158
-680.237	800.000	-0.057	-0.212
-679.222	150.606	0.085	-0.118
-678.208	161.534	-0.182	-0.260
-677.193	-102.883	-0.156	-0.038
-676.178	79.069	-0.044	-0.048
-675.164	10.347	0.217	0.168
-674.149	336.527	0.133	-0.264
-673.135	-200.000	0.033	-0.270
-672.120	53.312	0.194	-0.190
-671.105	-200.000	0.006	0.124
-670.091	393.866	0.036	0.077
-669.076	-133.285	-0.200	0.026
-668.062	84.225	-0.127	-0.141
-667.047	143.361	0.037	0.050
-666.032	-156.559	0.046	-0.003
-665.018	331.689	0.046	-0.090
-664.003	-200.000	-0.090	-0.468
-662.989	-200.000	-0.027	0.217
-661.974	-200.000	0.025	-0.186
-660.959	-119.546	-0.310	-0.055
-659.945	-200.000	0.016	-0.178
-658.930	294.568	-0.173	-0.322
-657.916	800.000	0.046	-0.157
-656.901	-200.000	-0.012	-0.224
-655.886	-7.577	0.016	-0.011
-654.872	800.000	-0.098	0.389
-653.857	-200.000	0.015	0.086
-652.843	73.250	-0.111	-0.118
-651.828	28.138	-0.154	-0.132
-650.814	800.000	-0.114	0.365
-649.799	569.841	0.042	-0.103
-648.784	-166.049	-0.335	-0.015
-647.770	-79.009	-0.036	0.013
-646.755	723.537	0.066	0.179
-645.741	-200.000	0.021	-0.141
-644.726	-64.507	0.029	-0.012
-643.711	-102.326	-0.342	-0.083
-642.697	11.952	0.236	0.184
-641.682	-129.905	-0.106	-0.015
-640.668	-200.000	0.012	0.153
-639.653	-180.919	0.178	-0.004
-638.638	-40.423	-0.215	-0.114
-637.624	-82.578	0.309	0.102
-636.609	-124.130	0.115	0.018
-635.595	58.650	-0.189	0.189
-634.580	-200.000	-0.012	-0.231
-633.565	616.434	-0.117	0.299
-632.551	327.115	-0.136	-0.264
-631.536	800.000	-0.073	-0.275
-630.522	165.164	0.181	-0.260
-629.507	-127.686	0.191	-0.028
-628.492	261.189	0.109	0.192
-627.478	129.082	0.281	-0.364
-626.463	800.000	0.084	0.309
-625.449	94.021	-0.146	0.168
-624.434	-80.854	-0.226	-0.076
-623.419	800.000	-0.034	0.136
-622.405	-66.644	-0.178	0.072
-621.390	-58.467	-0.167	-0.074
-620.376	-200.000	0.063	-0.303
-619.361	-182.501	0.260	-0.005
-618.346	128.075	0.135	-0.175
-617.332	-40.614	-0.194	0.102
-616.317	148.495	-0.262	0.360
-615.303	96.671	-0.049	0.057
-614.288	800.000	-0.027	0.112
-613.273	-200.000	-0.021	-0.139
-612.259	198.850	0.074	-0.115
-611.244	56.549	0.116	0.115
-610.230	253.798	-0.045	-0.078
-609.215	-200.000	0.018	-0.270
-608.201	-93.188	-0.164	-0.046
-607.186	68.848	-0.139	-0.145
-606.171	800.000	0.035	0.155
-605.157	-101.589	0.377	0.093
-604.142	4.876	0.149	0.111
-603.128	800.000	-0.021	-0.078
-602.113	-200.000	0.049	-0.296
-601.098	457.867	0.033	-0.074
-600.084	21.292	-0.108	-0.089
-599.069	-21.908	-0.103	0.064
-598.055	-11.490	0.141	0.094
-597.040	-200.000	0.001	-0.089
-596.025	-16.629	-0.131	-0.084
-595.011	800.000	0.024	0.101
-593.996	28.771	0.107	0.092
-592.982	747.078	-0.090	0.245
-591.967	21.193	-0.199	0.164
-590.952	800.000	-0.090	-0.332
-589.938	-44.164	-0.234	-0.119
-588.923	516.468	0.087	-0.207
-587.909	-200.000	0.014	-0.092
-586.894	-173.024	-0.201	0.006
-585.879	-200.000	-0.011	-0.062
-584.865	-70.484	-0.380	0.146
-583.850	-5.864	-0.336	-0.233
-582.836	-113.270	-0.032	-0.006
-581.821	380.264	-0.179	0.372
-580.806	-83.944	-0.143	0.046
-579.792	-200.000	0.015	-0.336
-578.777	-118.667	0.123	0.022
-577.763	800.000	0.080	0.317
-576.748	800.000	-0.117	0.384
-575.733	-173.936	0.232	-0.007
-574.719	96.421	-0.236	-0.274
-573.704	-200.000	0.027	-0.188
-572.690	800.000	-0.034	-0.129
-571.675	-200.000	0.022	-0.136
-570.661	456.224	-0.146	-0.328
-569.646	36.525	-0.313	-0.280
-568.631	81.490	0.092	0.100
-567.617	-16.599	-0.120	-0.077
-566.602	-91.944	0.236	-0.068
-565.588	565.357	-0.098	-0.241
-564.573	197.845	-0.127	0.197
-563.558	51.118	0.044	0.042
-562.544	161.753	-0.048	-0.068
-561.529	-81.808	0.261	-0.087
-560.515	800.000	0.085	0.301
-559.500	-105.087	-0.361	0.084
-558.485	-200.000	-0.001	-0.119
-557.471	137.041	0.040	0.052
-556.456	-159.633	0.324	-0.018
-555.442	800.000	0.021	0.062
-554.427	-200.000	0.014	0.365
-553.412	278.321	0.016	-0.028
-552.398	-153.458	-0.124	-0.009
-551.383	123.223	0.079	-0.100
-550.369	-29.797	-0.179	-0.103
-549.354	365.586	0.060	-0.122
-548.339	-136.343	-0.060	-0.007
-547.325	-72.188	-0.171	-0.064
-546.310	710.640	0.136	0.364
-545.296	-11.212	0.148	0.099
-544.281	-54.625	-0.140	0.064
-543.266	-0.501	-0.048	-0.035
-542.252	-84.038	0.175	0.056
-541.237	-200.000	0.003	-0.392
-540.223	-143.429	0.324	0.031
-539.208	-61.846	0.158	0.067
-538.193	-96.066	-0.121	0.033
-537.179	518.574	0.065	0.155
-536.164	-164.915	0.205	-0.009
-535.150	800.000	-0.031	-0.133
-534.135	500.652	0.052	0.121
-533.121	-39.048	0.348	0.185
-532.106	-200.000	0.009	-0.133
-531.091	89.572	-0.174	-0.197
-530.077	197.766	0.226	-0.349
-529.062	-200.000	0.053	-0.309
-528.048	31.453	-0.072	-0.063
-527.033	183.923	0.130	0.194
-526.018	-62.860	-0.180	0.075
-525.004	-185.109	-0.161	0.003
-523.989	-77.862	0.405	0.142
-522.975	800.000	0.108	-0.402
-521.960	284.350	-0.013	-0.024
-520.945	-89.094	-0.239	-0.072
-519.931	78.760	-0.384	-0.416
-518.916	-6.256	0.089	-0.062
-517.902	-15.332	-0.285	-0.184
-516.887	-200.000	-0.016	0.396
-515.872	119.409	-0.142	0.178
-514.858	181.111	-0.122	-0.181
-513.843	-199.422	0.187	-0.001
-512.829	-65.617	-0.007	0.003
-511.814	136.583	0.060	0.080
-510.799	-76.358	-0.099	0.035
-509.785	-200.000	0.002	0.101
-508.770	51.223	0.094	0.090
-507.756	800.000	-0.012	0.049
-506.741	800.000	-0.109	-0.305
-505.726	-83.184	-0.035	0.011
-504.712	-13.023	-0.098	0.064
-503.697	-82.938	0.345	-0.112
-502.683	-200.000	0.011	0.218
-501.668	-61.870	0.358	0.151
-500.653	-200.000	-0.039	-0.174
-499.639	89.763	-0.038	-0.043
-498.624	-200.000	-0.045	0.478
-497.610	-55.565	-0.170	0.077
-496.595	761.012	-0.050	0.136
-495.581	-200.000	-0.011	0.197
-494.566	423.753	-0.203	-0.441
-493.551	-182.954	0.060	0.001
-492.537	153.237	-0.081	0.112
-491.522	-134.187	-0.445	-0.055
-490.508	148.042	-0.334	-0.455
-489.493	-120.396	0.385	0.066
-488.478	-123.520	-0.140	0.023
-487.464	-51.473	0.323	-0.152
-486.449	800.000	0.072	0.245
-485.435	800.000	0.026	-0.099
-484.420	-18.948	0.048	-0.030
-483.405	262.246	-0.037	0.065
-482.391	-172.613	0.223	-0.007
-481.376	-80.765	0.260	0.087
-480.362	10.784	0.334	-0.257
-479.347	3.251	-0.136	-0.100
-478.332	800.000	0.023	-0.076
-477.318	-200.000	-0.011	0.298
-476.303	800.000	-0.029	-0.095
-475.289	-109.389	0.283	-0.060
-474.274	-64.394	-0.217	-0.089
-473.259	-99.846	0.149	0.038
-472.245	190.482	0.178	0.270
-471.230	-41.571	-0.341	0.177
-470.216	-0.609	0.118	-0.084
-469.201	-165.880	-0.138	0.006
-468.186	182.604	0.242	-0.360
-467.172	128.311	0.085	-0.109
-466.157	6.752	0.185	0.139
-465.143	-18.630	-0.203	-0.128
-464.128	255.422	-0.143	-0.247
-463.113	678.945	-0.107	0.281
-462.099	-60.325	-0.109	0.047
-461.084	226.534	-0.067	0.110
-460.070	9.507	-0.010	0.008
-459.055	95.317	0.104	-0.120
-458.040	253.451	0.034	0.058
-457.026	-44.918	-0.334	-0.168
-456.011	-84.242	-0.170	0.054
-454.997	30.994	-0.149	0.129
-453.982	81.189	-0.127	0.138
-452.968	-66.777	-0.143	-0.057
-451.953	759.370	-0.020	-0.055
-450.938	12.023	-0.193	0.150
-449.924	163.208	0.144	-0.204
-448.909	114.906	0.239	0.294
-447.895	-40.253	0.145	-0.076
-446.880	15.968	0.262	0.208
-445.865	19.869	0.189	0.154
-444.851	132.277	-0.189	-0.246
-443.836	439.120	-0.033	-0.072
-442.822	-200.000	-0.006	0.130
-441.807	-125.298	0.253	-0.039
-440.792	-185.185	-0.552	0.009
-439.778	290.845	0.128	-0.234
-438.763	-118.795	0.210	-0.037
-437.749	176.108	-0.067	0.098
-436.734	-200.000	-0.051	-0.265
-435.719	545.688	-0.142	0.342
-434.705	-124.631	-0.218	0.034
-433.690	800.000	-0.093	0.318
-432.676	-68.982	0.036	-0.014
-431.661	733.220	-0.035	-0.095
-430.646	-200.000	0.033	0.337
-429.632	157.488	0.091	0.127
-428.617	-200.000	0.002	-0.011
-427.603	-200.000	-0.021	-0.126
-426.588	-120.434	0.247	0.042
-425.573	422.971	0.055	-0.119
-424.559	-51.347	0.158	-0.074
-423.544	-90.211	-0.131	0.038
-422.530	-82.631	0.354	0.116
-421.515	-191.045	0.257	0.003
-420.500	85.318	-0.194	0.214
-419.486	438.309	0.096	0.210
-418.471	40.796	0.183	0.167
-417.457	328.982	-0.153	0.296
-416.442	-200.000	0.016	0.400
-415.428	800.000	0.065	0.241
-414.413	-200.000	-0.009	0.092
-413.398	-200.000	-0.035	0.277
-412.384	97.827	0.075	0.087
-411.369	-21.520	0.095	-0.059
-410.355	-125.971	-0.170	-0.026
-409.340	23.524	0.146	0.121
-408.325	66.613	-0.175	-0.179
-407.311	274.659	0.054	-0.096
-406.296	800.000	-0.071	0.314
-405.282	122.004	0.072	-0.091
-404.267	168.067	0.226	-0.324
-403.252	579.952	-0.063	-0.156
-402.238	800.000	-0.056	0.194
-401.223	-33.904	-0.180	-0.100
-400.209	-200.000	0.015	-0.089
-399.194	52.396	0.195	0.187
-398.179	-40.056	-0.455	-0.239
-397.165	-200.000	0.081	-0.560
-396.150	-200.000	-0.005	-0.085
-395.136	163.113	-0.008	0.012
-394.121	445.458	-0.071	0.156
-393.106	-168.624	-0.166	-0.006
-392.092	800.000	0.032	-0.138
-391.077	792.639	-0.060	-0.167
-390.063	-19.450	-0.166	-0.103
-389.048	-101.918	0.132	-0.032
-388.033	-200.000	-0.012	-0.056
-387.019	-200.000	-0.027	0.119
-386.004	-15.252	-0.116	0.075
-384.990	-125.299	0.078	-0.012
-383.975	-200.000	0.018	-0.093
-382.960	-200.000	0.018	-0.137
-381.946	739.235	-0.138	0.374
-380.931	-4.027	0.146	-0.102
-379.917	71.420	0.052	-0.054
-378.902	-156.076	-0.164	0.010
-377.888	-47.983	0.251	0.122
-376.873	-89.566	-0.398	-0.118
-375.858	742.447	0.114	-0.308
-374.844	-200.000	0.018	-0.145
-373.829	256.853	0.142	-0.246
-372.815	470.156	-0.062	-0.141
-371.800	-13.854	-0.284	-0.185
-370.785	195.668	-0.162	-0.248
-369.771	-73.452	0.179	-0.066
-368.756	59.759	0.170	0.169
-367.742	108.007	0.196	-0.235
-366.727	31.881	0.084	-0.073
-365.712	87.323	-0.100	-0.111
-364.698	-132.370	-0.187	-0.024
-363.683	-107.124	0.326	0.072
-362.669	-29.615	0.199	0.115
-361.654	-200.000	0.023	0.156
-360.639	-69.688	0.115	0.044
-359.625	-4.579	0.297	-0.206
-358.610	-4.322	-0.178	-0.124
-357.596	-149.399	0.344	0.027
-356.581	-107.139	0.125	-0.028
-355.566	-42.587	0.326	-0.167
-354.552	-200.000	-0.157	0.000
-353.537	-79.613	0.265	0.090
-352.523	-200.000	-0.036	0.232
-351.508	553.830	0.099	0.240
-350.493	-91.752	0.225	0.064
-349.479	-55.554	-0.093	-0.042
-348.464	34.735	-0.261	-0.229
-347.450	248.486	0.132	-0.224
-346.435	-86.091	0.195	-0.060
-345.420	53.918	0.398	-0.385
-344.406	-200.000	0.036	-0.230
-343.391	70.266	-0.241	0.250
-342.377	-200.000	-0.018	0.152
-341.362	-88.073	0.361	-0.109
-340.348	-114.061	-0.257	0.050
-339.333	-119.588	0.154	-0.027
-338.318	114.396	-0.128	0.157
-337.304	416.698	-0.076	-0.163
-336.289	-200.000	0.003	0.048
-335.275	-200.000	-0.003	-0.107
-334.260	18.578	0.208	0.167
-333.245	-98.993	-0.333	0.085
-332.231	448.187	-0.051	-0.114
-331.216	-5.452	0.261	0.180
-330.202	800.000	-0.029	-0.086
-329.187	-17.601	-0.178	-0.112
-328.172	-117.598	-0.265	0.048
-327.158	-123.789	-0.195	0.031
-326.143	224.305	-0.065	0.105
-325.129	-96.120	-0.528	-0.141
-324.114	-200.000	-0.109	0.000
-323.099	-144.525	0.108	0.010
-322.085	123.841	0.133	-0.167
-321.070	-81.856	0.085	0.028
-320.056	-14.864	0.412	-0.266
-319.041	-14.922	-0.458	-0.295
-318.026	-82.557	0.215	0.070
-317.012	-43.236	-0.173	0.088
-315.997	-200.000	0.002	0.314
-314.983	800.000	-0.054	-0.202
-313.968	25.766	-0.089	-0.074
-312.953	487.099	-0.062	-0.142
-311.939	515.298	-0.059	0.137
-310.924	-19.055	-0.084	0.052
-309.910	-200.000	0.009	-0.100
-308.895	466.115	-0.033	0.074
-307.880	-200.000	-0.021	-0.134
-306.866	112.766	0.236	0.287
-305.851	332.963	0.030	0.057
-304.837	-15.226	0.072	-0.046
-303.822	41.004	0.202	0.183
-302.807	-61.970	0.193	-0.081
-301.793	106.176	0.088	0.104
-300.778	-41.272	0.062	-0.032
-299.764	800.000	-0.109	0.333
-298.749	800.000	-0.078	0.243
-297.735	2.840	-0.233	-0.170
-296.720	800.000	-0.020	-0.055
-295.705	6.108	-0.199	0.148
-294.691	16.985	0.265	0.210
-293.676	153.552	-0.070	-0.096
-292.662	-200.000	-0.019	-0.153
-291.647	-81.766	0.098	-0.032
-290.632	-3.042	0.398	-0.278
-289.618	-111.204	-0.045	-0.009
-288.603	75.040	-0.072	0.076
-287.589	55.140	0.233	-0.226
-286.574	-138.929	-0.202	-0.022
-285.559	388.292	0.083	0.173
-284.545	127.251	-0.139	0.177
-283.530	-200.000	0.000	0.088
-282.516	74.879	0.130	-0.137
-281.501	-200.000	-0.011	-0.092
-280.486	-50.687	0.086	0.040
-279.472	800.000	0.075	0.327
-278.457	-200.000	-0.017	-0.096
-277.443	800.000	-0.038	0.140
-276.428	-133.494	0.170	0.021
-275.413	800.000	-0.049	0.162
-274.399	-200.000	-0.002	0.417
-273.384	99.175	0.228	0.264
-272.370	-200.000	0.042	0.316
-271.355	800.000	-0.095	-0.322
-270.340	-57.144	0.217	0.096
-269.326	80.767	-0.049	-0.053
-268.311	-49.466	-0.336	0.161
-267.297	-4.862	0.092	0.063
-266.282	64.128	-0.121	0.122
-265.267	-152.000	-0.325	0.024
-264.253	49.882	0.443	0.418
-263.238	-200.000	-0.017	-0.171
-262.224	80.723	-0.003	0.003
-261.209	-200.000	0.012	-0.064
-260.195	269.785	-0.141	0.248
-259.180	291.455	-0.102	0.186
-258.165	11.372	-0.190	-0.146
-257.151	93.939	0.055	0.063
-256.136	-67.836	-0.168	0.066
-255.122	18.367	0.331	-0.265
-254.107	361.415	0.075	-0.150
-253.092	-7.448	0.117	0.079
-252.078	-63.526	-0.110	-0.045
-251.063	-89.309	0.226	-0.067
-250.049	376.443	-0.108	0.221
-249.034	432.656	0.046	0.099
-248.019	47.417	0.094	-0.087
-247.005	800.000	-0.066	-0.270
-245.990	308.811	-0.046	0.086
-244.976	-129.870	-0.029	-0.004
-243.961	800.000	-0.028	0.118
-242.946	-31.266	-0.043	0.024
-241.932	-136.049	0.118	-0.014
-240.917	-200.000	-0.070	0.337
-239.903	355.549	-0.087	-0.174
-238.888	-156.184	-0.162	-0.010
-237.873	637.952	0.204	-0.518
-236.859	-64.365	0.108	-0.044
-235.844	49.264	-0.213	-0.200
-234.830	-157.490	0.328	-0.020
-233.815	-78.916	-0.285	-0.097
-232.800	24.141	0.114	0.094
-231.786	-30.870	-0.121	-0.068
-230.771	-200.000	-0.011	0.198
-229.757	346.715	0.068	-0.133
-228.742	58.136	0.162	-0.159
-227.727	-69.064	-0.231	0.089
-226.713	-200.000	-0.026	-0.145
-225.698	306.944	-0.176	-0.328
-224.684	-127.901	0.242	0.035
-223.669	-162.369	0.214	-0.011
-222.655	-200.000	-0.019	-0.088
-221.640	231.262	0.039	0.064
-220.625	-172.716	-0.417	0.013
-219.611	-7.940	0.100	0.068
-218.596	-98.393	-0.232	-0.059
-217.582	221.859	0.161	0.259
-216.567	-74.745	0.067	0.024
-215.552	-89.845	0.307	-0.090
-214.538	-200.000	0.029	0.218
-213.523	-17.493	0.259	-0.163
-212.509	84.956	-0.155	0.170
-211.494	36.375	-0.210	0.185
-210.479	285.364	-0.018	-0.032
-209.465	-0.851	-0.261	-0.184
-208.450	-8.275	0.276	0.185
-207.436	-200.000	-0.017	-0.097
-206.421	429.271	0.022	-0.047
-205.406	241.790	0.075	0.125
-204.392	244.089	-0.056	-0.093
-203.377	480.251	-0.188	-0.426
-202.363	-27.724	-0.211	0.123
-201.348	-200.000	0.048	0.361
-200.333	800.000	0.058	0.171
-199.319	672.293	0.208	0.539
-198.304	648.264	-0.108	-0.276
-197.290	800.000	0.058	-0.209
-196.275	425.507	-0.175	-0.376
-195.260	-200.000	-0.041	0.407
-194.246	-106.720	0.367	-0.081
-193.231	800.000	-0.075	0.271
-192.217	800.000	0.045	-0.142
-191.202	42.234	0.020	-0.018
-190.187	-200.000	-0.013	0.129
-189.173	-3.170	-0.117	0.081
-188.158	465.846	-0.068	-0.151
-187.144	756.731	-0.062	-0.167
-186.129	112.596	0.047	-0.057
-185.114	800.000	0.050	-0.156
-184.100	-200.000	0.032	0.152
-183.085	90.563	-0.101	0.113
-182.071	800.000	-0.154	0.430
-181.056	-161.853	-0.265	-0.013
-180.042	-18.579	0.226	-0.141
-179.027	279.319	-0.156	0.279
-178.012	-114.967	0.148	-0.028
-176.998	800.000	0.059	-0.253
-175.983	-200.000	-0.017	0.075
-174.969	-61.638	0.251	0.105
-173.954	-200.000	0.056	0.300
-172.939	298.732	0.111	-0.204
-171.925	3.194	0.363	0.263
-170.910	800.000	0.121	-0.334
-169.896	234.089	-0.181	-0.298
-168.881	149.995	-0.125	-0.169
-167.866	-200.000	-0.025	-0.144
-166.852	26.108	0.153	-0.127
-165.837	800.000	-0.044	0.181
-164.823	10.635	-0.207	-0.158
-163.808	800.000	0.175	0.728
-162.793	-83.505	-0.120	-0.038
-161.779	231.420	0.019	0.031
-160.764	-59.626	-0.204	-0.087
-159.750	16.891	-0.061	-0.048
-158.735	-200.000	-0.062	-0.423
-157.720	443.534	0.099	0.217
-156.706	800.000	-0.062	0.257
-155.691	-113.503	-0.282	-0.055
-154.677	526.581	-0.094	0.220
-153.662	800.000	-0.115	0.491
-152.647	152.276	0.183	-0.250
-151.633	602.295	0.046	0.115
-150.618	87.222	-0.157	0.173
-149.604	800.000	0.062	-0.238
-148.589	197.151	-0.147	-0.224
-147.574	-9.844	-0.365	0.242
-146.560	229.846	0.280	0.456
-145.545	-110.027	0.359	0.075
-144.531	29.376	-0.179	-0.151
-143.516	-24.382	0.382	-0.227
-142.502	-200.000	0.054	0.256
-141.487	-107.569	0.169	0.037
-140.472	-200.000	-0.003	0.146
-139.458	75.706	0.130	0.137
-138.443	-200.000	0.022	-0.175
-137.429	800.000	0.091	-0.258
-136.414	-200.000	-0.009	-0.160
-135.399	94.377	-0.019	0.022
-134.385	-200.000	0.029	-0.136
-133.370	-4.647	-0.112	0.077
-132.356	-33.039	0.080	0.044
-131.341	-200.000	-0.013	0.107
-130.326	367.460	-0.060	-0.120
-129.312	-200.000	-0.008	-0.159
-128.297	-119.897	-0.160	-0.027
-127.283	263.499	-0.270	0.468
-126.268	800.000	-0.092	0.381
-125.253	-72.474	0.422	-0.156
-124.239	72.209	-0.225	-0.234
-123.224	-1.689	-0.033	-0.023
-122.210	282.674	-0.126	0.226
-121.195	-73.880	0.057	0.021
