DTS Sentinel unit serial number:	SN413079Multiplexer serial number:	ORYXHardware model number:	OX4-SRSoftware version number:	ORYX F/W v4.00 Oryx Data Collector v3.7.2.0data status	okinstallation	princeton_trtdifferential loss correction	single-endedforward channel	channel 3reverse channel	N/Adate	2019/09/18time	23:56:35forward acquisition time	60.00reverse acquisition time	0.00gamma	496.2192k internal	0.2346k external	0.2346temperature offset calibration	0.9994default loss term (dB/km)	0.3790temperature slope calibration	1.0000multiplexer offset coefficient	1.0000multiplexer slope coefficient	1.0000fibre end	0.00T internal ref (°C)	23.16T ext. ref 1 (°C)	0.75T ext. ref 2 (°C)	16.04length (m)	temperature (°C)	Stokes	anti-Stokes-747.200	582.307	0.030	-0.074
-746.185	-200.000	0.085	0.392
-745.171	-51.731	-0.169	-0.079
-744.156	800.000	0.068	-0.253
-743.142	40.944	0.262	-0.236
-742.127	-65.872	-0.347	0.139
-741.112	-117.686	-0.147	-0.026
-740.098	-11.466	0.015	0.010
-739.083	-200.000	0.044	-0.266
-738.069	800.000	0.065	0.278
-737.054	-91.951	-0.479	0.136
-736.039	9.153	-0.554	-0.418
-735.025	62.979	0.214	0.214
-734.010	-200.000	0.016	0.221
-732.996	100.937	-0.087	0.101
-731.981	-125.370	-0.436	0.066
-730.966	-29.912	-0.142	-0.081
-729.952	-200.000	-0.018	-0.202
-728.937	49.016	-0.222	-0.208
-727.923	6.088	0.250	0.185
-726.908	-45.426	-0.318	0.158
-725.894	-101.204	-0.237	0.058
-724.879	-15.166	0.047	0.030
-723.864	800.000	0.041	-0.160
-722.850	69.427	-0.052	-0.053
-721.835	800.000	0.029	-0.083
-720.821	-200.000	0.004	0.236
-719.806	-12.114	-0.528	0.345
-718.791	134.348	-0.119	0.154
-717.777	648.013	-0.059	-0.151
-716.762	-200.000	-0.022	-0.159
-715.748	108.818	0.054	0.064
-714.733	-200.000	0.020	0.091
-713.718	-200.000	0.014	-0.231
-712.704	55.716	-0.185	-0.179
-711.689	793.018	0.063	-0.172
-710.675	-200.000	0.013	0.192
-709.660	1.066	-0.454	0.326
-708.645	84.259	0.243	-0.266
-707.631	356.707	0.146	-0.291
-706.616	113.147	0.022	-0.026
-705.602	-77.289	0.227	0.079
-704.587	249.619	0.135	-0.229
-703.572	658.253	0.081	0.208
-702.558	-200.000	0.003	-0.164
-701.543	262.799	0.066	-0.114
-700.529	800.000	0.005	-0.020
-699.514	-82.244	-0.413	-0.134
-698.499	-115.305	0.333	0.063
-697.485	-5.067	-0.196	0.135
-696.470	587.661	-0.094	0.230
-695.456	326.001	-0.062	-0.119
-694.441	-34.778	0.326	-0.178
-693.426	67.836	-0.195	-0.199
-692.412	250.911	0.134	-0.227
-691.397	-34.607	-0.309	-0.169
-690.383	7.573	-0.102	-0.076
-689.368	-119.289	-0.349	-0.061
-688.354	76.336	0.063	-0.066
-687.339	-200.000	-0.014	-0.334
-686.324	-23.458	-0.366	0.219
-685.310	58.149	-0.253	-0.247
-684.295	-19.197	-0.197	0.122
-683.281	146.541	-0.244	-0.327
-682.266	-196.317	0.184	0.001
-681.251	334.533	0.066	0.127
-680.237	5.127	-0.227	0.167
-679.222	0.261	-0.251	0.179
-678.208	275.614	0.147	-0.260
-677.193	-200.000	-0.009	-0.076
-676.178	-132.631	-0.235	-0.030
-675.164	-23.264	0.298	-0.179
-674.149	16.314	-0.088	-0.069
-673.135	696.119	0.113	-0.296
-672.120	-86.091	-0.431	-0.133
-671.105	-133.228	-0.177	-0.022
-670.091	216.297	-0.052	-0.082
-669.076	-200.000	-0.050	-0.291
-668.062	-97.532	0.152	0.039
-667.047	800.000	0.060	-0.202
-666.032	-114.301	-0.321	-0.062
-665.018	-29.276	-0.354	0.202
-664.003	-200.000	0.000	-0.056
-662.989	-110.998	-0.091	-0.019
-661.974	-100.736	-0.319	-0.078
-660.959	-200.000	0.005	-0.241
-659.945	-15.468	0.101	-0.064
-658.930	-145.091	-0.324	0.029
-657.916	800.000	-0.040	0.172
-656.901	-48.207	-0.199	-0.096
-655.886	634.484	-0.109	-0.275
-654.872	100.457	-0.232	-0.268
-653.857	-31.989	-0.144	0.081
-652.843	-172.758	0.206	-0.006
-651.828	-21.205	0.085	0.052
-650.814	73.167	-0.158	0.164
-649.799	347.569	0.144	0.283
-648.784	-18.253	0.290	-0.181
-647.770	-200.000	0.033	0.205
-646.755	198.738	0.110	0.167
-645.741	190.741	0.040	0.059
-644.726	-60.579	-0.094	0.040
-643.711	-96.291	0.253	0.067
-642.697	-75.288	0.453	0.161
-641.682	-200.000	-0.044	0.253
-640.668	-200.000	0.016	0.183
-639.653	-169.765	0.337	0.012
-638.638	800.000	0.081	-0.250
-637.624	-200.000	-0.010	-0.211
-636.609	657.053	-0.172	-0.440
-635.595	-200.000	-0.005	0.101
-634.580	57.766	0.127	-0.124
-633.565	-114.665	-0.511	-0.097
-632.551	-9.345	-0.072	0.048
-631.536	8.530	0.159	-0.119
-630.522	221.571	-0.113	-0.181
-629.507	-200.000	-0.037	-0.256
-628.492	-200.000	-0.021	-0.313
-627.478	-143.085	-0.161	-0.016
-626.463	-138.732	-0.200	-0.022
-625.449	238.146	0.030	0.050
-624.434	163.084	-0.198	0.277
-623.419	26.977	0.162	0.136
-622.405	800.000	-0.087	0.287
-621.390	189.103	-0.208	-0.309
-620.376	-176.279	0.355	-0.009
-619.361	-54.160	-0.007	-0.003
-618.346	185.910	-0.200	-0.295
-617.332	-49.201	0.119	-0.057
-616.317	-60.551	-0.235	-0.099
-615.303	-109.373	0.006	-0.001
-614.288	-200.000	-0.005	-0.242
-613.273	-200.000	-0.032	-0.171
-612.259	-12.064	-0.099	-0.065
-611.244	-115.446	-0.260	0.049
-610.230	108.501	0.142	-0.169
-609.215	55.586	0.178	0.171
-608.201	174.591	-0.057	0.081
-607.186	-186.531	0.330	-0.005
-606.171	-72.689	0.153	-0.056
-605.157	-200.000	-0.016	0.185
-604.142	-93.578	-0.414	-0.114
-603.128	-12.549	0.113	0.074
-602.113	-200.000	-0.045	0.446
-601.098	242.414	-0.163	0.271
-600.084	-127.540	0.163	-0.023
-599.069	-42.380	0.511	0.259
-598.055	197.054	-0.050	-0.076
-597.040	212.476	-0.196	-0.307
-596.025	133.747	-0.006	-0.007
-595.011	-38.472	-0.272	-0.143
-593.996	547.012	0.064	0.153
-592.982	-187.311	0.315	-0.004
-591.967	-200.000	-0.019	0.514
-590.952	587.470	-0.097	-0.238
-589.938	507.317	0.035	-0.081
-588.923	800.000	-0.046	-0.171
-587.909	-55.400	0.313	0.139
-586.894	156.359	0.099	0.136
-585.879	-200.000	-0.071	0.320
-584.865	334.706	-0.078	-0.150
-583.850	800.000	-0.040	0.168
-582.836	800.000	0.053	-0.197
-581.821	-31.698	0.159	0.088
-580.806	383.052	0.053	0.108
-579.792	112.736	-0.132	0.158
-578.777	8.980	0.234	-0.176
-577.763	139.069	-0.119	0.155
-576.748	-93.940	0.128	0.035
-575.733	800.000	-0.075	0.243
-574.719	219.953	-0.200	-0.318
-573.704	666.551	-0.126	-0.323
-572.690	-123.425	0.063	0.010
-571.675	-200.000	0.075	-0.522
-570.661	252.844	-0.062	-0.106
-569.646	318.240	-0.213	0.401
-568.631	1.071	0.270	-0.192
-567.617	800.000	-0.064	-0.223
-566.602	800.000	-0.081	-0.232
-565.588	-200.000	-0.011	-0.075
-564.573	-115.601	-0.154	-0.029
-563.558	226.317	-0.061	0.098
-562.544	-101.325	-0.171	0.041
-561.529	352.848	-0.061	-0.120
-560.515	-200.000	-0.005	0.048
-559.500	-200.000	-0.007	-0.169
-558.485	-50.468	-0.204	0.095
-557.471	800.000	0.016	-0.062
-556.456	-78.291	0.226	0.077
-555.442	143.340	0.125	-0.165
-554.427	200.525	-0.216	0.329
-553.412	20.057	-0.232	-0.186
-552.398	-200.000	-0.000	-0.241
-551.383	-98.908	-0.095	-0.024
-550.369	-200.000	0.025	-0.188
-549.354	-154.171	0.344	0.023
-548.339	307.441	-0.188	0.348
-547.325	-200.000	-0.009	-0.195
-546.310	800.000	0.001	0.005
-545.296	-200.000	0.032	-0.214
-544.281	125.972	-0.410	-0.514
-543.266	-190.048	0.265	0.003
-542.252	-78.787	-0.029	-0.010
-541.237	-72.667	0.093	-0.034
-540.223	554.117	-0.032	0.077
-539.208	229.555	-0.219	-0.354
-538.193	313.858	-0.125	-0.233
-537.179	12.594	0.201	0.154
-536.164	702.738	-0.080	0.210
-535.150	800.000	-0.060	0.238
-534.135	-146.143	0.303	0.026
-533.121	583.692	-0.064	-0.156
-532.106	-62.664	-0.185	0.076
-531.091	-44.174	-0.273	-0.136
-530.077	-68.060	0.078	0.030
-529.062	-149.975	-0.139	-0.011
-528.048	-101.765	-0.270	-0.065
-527.033	-43.230	0.237	0.119
-526.018	122.931	-0.204	0.254
-525.004	218.741	-0.122	0.193
-523.989	-122.336	-0.089	0.014
-522.975	-58.013	-0.104	-0.045
-521.960	-8.088	0.242	-0.162
-520.945	-109.194	0.195	0.041
-519.931	294.757	-0.180	0.327
-518.916	-200.000	-0.090	0.479
-517.902	51.755	0.333	-0.314
-516.887	215.169	0.099	-0.155
-515.872	-16.083	0.055	-0.034
-514.858	-18.416	0.110	-0.068
-513.843	-157.704	-0.210	0.012
-512.829	-200.000	0.025	0.246
-511.814	-0.072	0.132	0.093
-510.799	800.000	0.125	0.377
-509.785	-118.216	-0.180	-0.032
-508.770	248.105	0.153	0.256
-507.756	-102.815	-0.220	0.052
-506.741	546.398	-0.072	0.170
-505.726	-36.729	-0.269	0.143
-504.712	-88.630	-0.152	-0.045
-503.697	-44.295	-0.283	0.140
-502.683	-69.665	-0.151	0.057
-501.668	-200.000	-0.508	0.002
-500.653	296.518	0.062	-0.113
-499.639	-200.000	0.017	-0.116
-498.624	800.000	-0.044	-0.123
-497.610	286.479	0.148	0.264
-496.595	-125.999	-0.075	0.011
-495.581	162.696	-0.071	0.099
-494.566	-200.000	0.049	0.313
-493.551	77.629	-0.087	-0.092
-492.537	118.365	-0.169	-0.206
-491.522	-115.823	-0.156	-0.029
-490.508	-10.760	-0.174	0.114
-489.493	-110.128	0.227	-0.047
-488.478	84.112	0.090	-0.098
-487.464	508.377	0.144	-0.331
-486.449	-17.219	-0.257	0.160
-485.435	-66.670	0.340	-0.133
-484.420	-200.000	0.058	0.252
-483.405	-83.174	0.197	0.063
-482.391	270.225	0.147	0.257
-481.376	-119.141	0.263	0.045
-480.362	95.296	-0.163	0.184
-479.347	-33.294	0.187	0.102
-478.332	-7.215	-0.338	-0.227
-477.318	-200.000	0.031	-0.142
-476.303	146.504	-0.289	-0.384
-475.289	410.602	-0.025	-0.052
-474.274	404.942	-0.204	-0.424
-473.259	391.106	0.106	-0.219
-472.245	8.436	-0.277	-0.206
-471.230	158.219	-0.183	0.251
-470.216	-108.392	-0.263	0.056
-469.201	470.542	-0.019	-0.042
-468.186	-136.191	0.508	-0.059
-467.172	-127.709	-0.248	-0.035
-466.157	58.155	-0.102	-0.099
-465.143	-200.000	0.023	-0.123
-464.128	163.870	0.145	0.202
-463.113	198.315	-0.060	-0.091
-462.099	17.153	-0.241	0.189
-461.084	368.523	0.140	-0.279
-460.070	139.473	0.142	0.185
-459.055	-116.338	-0.399	0.073
-458.040	-200.000	-0.002	0.194
-457.026	800.000	0.084	-0.305
-456.011	-89.865	0.293	0.085
-454.997	-53.108	0.040	0.018
-453.982	-200.000	0.018	0.100
-452.968	-67.632	-0.198	-0.077
-451.953	800.000	0.056	-0.166
-450.938	113.730	0.126	0.152
-449.924	-147.620	-0.244	0.020
-448.909	630.300	-0.127	-0.318
-447.895	800.000	-0.043	-0.130
-446.880	-98.404	-0.183	0.046
-445.865	-200.000	0.023	0.155
-444.851	-150.200	-0.108	-0.008
-443.836	283.376	-0.053	0.094
-442.822	-200.000	0.015	-0.156
-441.807	-90.665	-0.284	-0.081
-440.792	-82.972	0.097	-0.031
-439.778	68.770	0.169	0.171
-438.763	-200.000	-0.030	0.180
-437.749	46.571	0.124	-0.114
-436.734	-127.826	0.136	0.019
-435.719	26.933	0.109	0.090
-434.705	-131.366	0.254	0.033
-433.690	-200.000	0.021	0.130
-432.676	-200.000	-0.072	0.338
-431.661	-125.557	-0.246	0.037
-430.646	-200.000	-0.009	-0.100
-429.632	110.850	-0.164	-0.195
-428.617	627.204	-0.072	-0.179
-427.603	59.607	0.239	0.233
-426.588	119.719	-0.124	0.152
-425.573	-200.000	0.018	0.194
-424.559	-144.783	0.212	0.019
-423.544	-136.498	-0.096	-0.011
-422.530	-200.000	0.064	-0.496
-421.515	-49.968	0.157	-0.074
-420.500	-183.518	-0.196	0.003
-419.486	-93.232	0.269	0.074
-418.471	-115.790	0.525	-0.097
-417.457	-32.441	-0.121	0.066
-416.442	181.191	-0.030	-0.043
-415.428	-200.000	0.014	-0.221
-414.413	800.000	0.046	-0.147
-413.398	87.836	0.152	0.166
-412.384	165.083	0.032	0.044
-411.369	-144.018	0.312	0.029
-410.355	-105.778	-0.503	-0.112
-409.340	-140.815	0.125	0.013
-408.325	-183.078	-0.335	-0.006
-407.311	-83.375	-0.164	-0.052
-406.296	731.503	0.118	0.311
-405.282	-80.439	0.415	-0.137
-404.267	-106.766	-0.218	-0.048
-403.252	-200.000	0.017	0.348
-402.238	800.000	0.077	0.323
-401.223	-200.000	0.034	-0.262
-400.209	67.162	0.027	0.027
-399.194	362.417	0.155	-0.308
-398.179	800.000	0.096	-0.312
-397.165	-64.091	-0.126	-0.051
-396.150	98.242	0.123	0.140
-395.136	-200.000	-0.051	-0.000
-394.121	-106.267	0.276	-0.061
-393.106	6.643	0.059	0.044
-392.092	-44.048	-0.091	0.045
-391.077	180.497	0.067	-0.096
-390.063	726.189	0.048	0.127
-389.048	-24.074	0.149	-0.088
-388.033	433.433	-0.092	0.197
-387.019	-152.455	-0.365	-0.026
-386.004	800.000	0.088	-0.246
-384.990	-200.000	0.017	0.193
-383.975	800.000	0.027	-0.104
-382.960	-125.249	-0.125	-0.019
-381.946	-200.000	-0.004	-0.040
-380.931	-140.636	-0.198	-0.020
-379.917	-68.219	0.138	0.053
-378.902	-17.815	0.076	0.047
-377.888	-200.000	0.055	0.371
-376.873	-70.369	-0.150	0.056
-375.858	29.373	0.089	-0.074
-374.844	117.816	-0.178	0.216
-373.829	-200.000	0.011	0.172
-372.815	800.000	0.051	0.149
-371.800	-200.000	0.004	0.050
-370.785	-87.996	-0.162	0.048
-369.771	19.249	0.050	-0.040
-368.756	-200.000	-0.016	0.395
-367.742	-22.707	0.300	-0.178
-366.727	-35.691	0.294	0.157
-365.712	-105.191	0.287	0.064
-364.698	213.648	-0.035	-0.054
-363.683	137.794	0.197	-0.255
-362.669	318.041	-0.062	0.115
-361.654	-169.008	-0.304	0.011
-360.639	75.988	-0.162	-0.169
-359.625	21.733	-0.114	-0.091
-358.610	289.788	-0.073	0.131
-357.596	-126.093	0.389	-0.058
-356.581	231.670	-0.061	0.098
-355.566	-24.781	0.168	0.099
-354.552	-200.000	-0.027	0.200
-353.537	-200.000	-0.026	0.297
-352.523	-48.775	0.382	-0.181
-351.508	-80.915	-0.052	0.017
-350.493	-200.000	0.024	0.252
-349.479	-101.733	0.347	-0.083
-348.464	-81.582	-0.146	-0.047
-347.450	-175.494	-0.379	0.010
-346.435	105.411	-0.345	0.402
-345.420	-200.000	-0.052	0.332
-344.406	-146.524	-0.285	0.024
-343.391	-57.302	0.138	0.060
-342.377	-121.721	0.207	-0.034
-341.362	-8.657	0.086	0.057
-340.348	800.000	0.133	-0.412
-339.333	396.434	-0.071	-0.145
-338.318	-200.000	0.006	-0.394
-337.304	267.339	0.089	-0.154
-336.289	99.102	-0.193	-0.219
-335.275	-42.007	-0.545	0.274
-334.260	-200.000	-0.072	-0.326
-333.245	800.000	-0.076	-0.238
-332.231	-200.000	0.005	-0.075
-331.216	-173.475	-0.222	0.007
-330.202	92.588	-0.137	-0.152
-329.187	800.000	-0.072	-0.255
-328.172	-76.857	0.110	-0.038
-327.158	-11.324	-0.306	0.198
-326.143	111.362	0.129	-0.153
-325.129	-15.900	0.229	0.144
-324.114	-19.626	0.086	-0.052
-323.099	-85.043	-0.234	0.072
-322.085	-138.315	-0.184	0.020
-321.070	-61.403	0.299	-0.124
-320.056	-200.000	-0.002	-0.169
-319.041	383.879	-0.169	0.343
-318.026	51.277	0.144	-0.134
-317.012	29.955	-0.097	-0.082
-315.997	-34.547	-0.342	0.184
-314.983	800.000	0.100	0.295
-313.968	-187.500	-0.043	0.001
-312.953	-62.474	-0.241	0.098
-311.939	-200.000	0.003	0.204
-310.924	275.917	-0.116	0.202
-309.910	139.925	0.102	-0.132
-308.895	347.648	-0.086	0.167
-307.880	-104.626	0.087	-0.020
-306.866	-3.360	-0.231	-0.158
-305.851	-18.673	-0.194	-0.119
-304.837	326.429	0.069	0.129
-303.822	-200.000	-0.001	-0.327
-302.807	-200.000	0.014	-0.219
-301.793	-119.375	0.209	-0.036
-300.778	624.185	0.132	0.328
-299.764	94.167	0.160	0.178
-298.749	-200.000	-0.003	0.124
-297.735	440.198	-0.016	-0.035
-296.720	800.000	-0.111	-0.311
-295.705	-136.581	0.256	-0.029
-294.691	-129.824	0.353	-0.048
-293.676	46.861	0.112	0.103
-292.662	-114.773	0.043	0.008
-291.647	106.399	0.166	-0.193
-290.632	-149.300	0.458	0.036
-289.618	-98.982	0.315	-0.078
-288.603	60.010	0.055	-0.053
-287.589	230.190	0.059	-0.094
-286.574	-89.894	-0.188	0.054
-285.559	-145.647	0.566	-0.050
-284.545	800.000	-0.136	-0.427
-283.530	800.000	-0.074	-0.261
-282.516	-20.567	-0.141	-0.085
-281.501	-200.000	0.020	0.175
-280.486	800.000	0.047	-0.189
-279.472	800.000	-0.081	0.282
-278.457	-150.461	-0.097	0.007
-277.443	-200.000	-0.035	0.361
-276.428	-200.000	0.023	0.350
-275.413	-200.000	-0.019	-0.195
-274.399	-58.764	0.262	0.111
-273.384	-200.000	-0.011	-0.433
-272.370	267.696	-0.089	0.154
-271.355	-200.000	0.045	0.276
-270.340	-48.553	-0.110	-0.052
-269.326	56.002	-0.114	0.109
-268.311	-48.880	0.283	0.133
-267.297	-176.960	0.121	-0.003
-266.282	42.974	-0.205	0.183
-265.267	341.351	-0.153	0.294
-264.253	800.000	0.093	0.351
-263.238	269.810	-0.121	0.209
-262.224	-55.567	0.204	-0.090
-261.209	64.712	0.127	0.126
-260.195	-132.512	-0.024	-0.003
-259.180	-72.248	-0.173	0.063
-258.165	104.298	0.091	-0.105
-257.151	-52.648	0.446	-0.202
-256.136	7.796	-0.034	-0.025
-255.122	429.834	-0.044	-0.094
-254.107	99.831	0.229	-0.260
-253.092	-7.071	0.312	-0.208
-252.078	72.275	0.184	0.188
-251.063	-114.395	-0.114	0.021
-250.049	-200.000	-0.068	0.412
-249.034	182.228	0.260	0.376
-248.019	-200.000	0.018	0.169
-247.005	224.154	-0.093	-0.148
-245.990	785.701	-0.101	0.271
-244.976	115.626	0.068	-0.082
-243.961	52.798	0.185	-0.173
-242.946	800.000	-0.085	-0.352
-241.932	-51.886	0.258	-0.118
-240.917	788.354	-0.073	-0.196
-239.903	-110.510	0.387	-0.079
-238.888	-80.695	0.265	0.086
-237.873	-26.347	-0.064	-0.037
-236.859	800.000	-0.064	-0.244
-235.844	-96.756	0.107	0.028
-234.830	-200.000	0.074	-0.386
-233.815	4.105	-0.033	0.023
-232.800	735.907	-0.070	-0.184
-231.786	795.598	0.147	-0.397
-230.771	-167.476	-0.207	0.008
-229.757	619.107	0.160	0.393
-228.742	508.754	0.035	-0.080
-227.727	123.097	0.244	-0.300
-226.713	107.896	-0.171	0.200
-225.698	-84.118	0.120	0.037
-224.684	-70.596	0.326	-0.121
-223.669	60.512	0.035	0.034
-222.655	-84.711	-0.107	-0.033
-221.640	-43.511	0.102	-0.051
-220.625	800.000	-0.049	0.188
-219.611	-166.399	0.164	0.007
-218.596	-200.000	-0.009	-0.085
-217.582	84.737	-0.169	0.181
-216.567	177.016	-0.190	0.270
-215.552	-28.987	0.295	0.166
-214.538	-200.000	0.034	-0.196
-213.523	-95.353	-0.104	0.027
-212.509	-200.000	-0.003	-0.138
-211.494	134.316	-0.101	-0.128
-210.479	19.936	0.081	0.064
-209.465	5.020	-0.143	-0.103
-208.450	103.082	0.058	0.066
-207.436	-85.162	-0.081	0.025
-206.421	-164.232	-0.145	-0.007
-205.406	22.689	-0.144	0.115
-204.392	-200.000	0.027	0.357
-203.377	-200.000	0.020	0.463
-202.363	-16.656	-0.197	0.122
-201.348	118.870	0.176	-0.212
-200.333	-30.304	-0.118	0.066
-199.319	-129.140	-0.336	-0.046
-198.304	83.393	-0.066	0.070
-197.290	-125.287	-0.088	0.013
-196.275	23.944	-0.164	0.133
-195.260	116.545	0.339	0.407
-194.246	-200.000	-0.003	0.429
-193.231	-47.005	-0.210	0.100
-192.217	248.890	0.012	0.020
-191.202	-48.998	-0.089	0.042
-190.187	70.093	0.083	-0.084
-189.173	-19.805	-0.068	0.041
-188.158	-81.961	-0.202	0.065
-187.144	5.149	0.324	-0.233
-186.129	291.218	-0.082	0.146
-185.114	43.955	-0.070	-0.063
-184.100	-158.938	0.377	-0.021
-183.085	-69.627	-0.437	0.164
-182.071	228.539	0.177	-0.281
-181.056	284.879	0.079	-0.138
-180.042	130.343	0.171	0.215
-179.027	12.337	-0.014	-0.010
-178.012	800.000	-0.039	-0.126
-176.998	800.000	0.119	-0.443
-175.983	-35.642	-0.203	0.108
-174.969	-6.747	-0.091	-0.061
-173.954	10.408	0.082	-0.061
-172.939	-70.155	0.203	0.076
-171.925	-200.000	0.020	-0.115
-170.910	-11.721	-0.085	-0.055
-169.896	800.000	0.049	-0.170
-168.881	7.239	-0.316	0.231
-167.866	294.433	-0.158	-0.282
-166.852	-97.491	-0.278	-0.071
-165.837	119.715	0.203	0.245
-164.823	294.899	-0.183	-0.328
-163.808	-200.000	-0.016	-0.083
-162.793	-200.000	-0.071	0.311
-161.779	-200.000	-0.012	-0.094
-160.764	-93.885	-0.182	-0.049
-159.750	-56.258	0.155	0.067
-158.735	25.058	-0.220	0.178
-157.720	239.914	-0.024	-0.039
-156.706	544.481	0.186	-0.434
-155.691	-192.956	0.216	0.002
-154.677	-5.457	0.094	-0.063
-153.662	-200.000	-0.009	-0.048
-152.647	-200.000	-0.020	-0.094
-151.633	157.847	-0.191	-0.259
-150.618	-151.073	0.316	0.023
-149.604	-4.890	0.553	0.372
-148.589	398.499	0.052	-0.106
-147.574	-12.908	0.025	0.016
-146.560	151.236	0.127	-0.169
-145.545	-177.924	0.160	-0.004
-144.531	-125.530	0.193	0.029
-143.516	800.000	-0.014	-0.056
-142.502	411.735	0.104	0.216
-141.487	-36.589	-0.200	-0.105
-140.472	49.417	-0.053	0.049
-139.458	239.587	-0.018	0.029
-138.443	-70.202	0.341	0.127
-137.429	78.295	0.130	0.135
-136.414	170.075	0.109	0.152
-135.399	108.816	-0.153	-0.178
-134.385	94.299	0.023	-0.026
-133.370	-77.052	0.108	0.037
-132.356	-84.721	-0.340	-0.104
-131.341	282.295	-0.140	-0.245
-130.326	-200.000	0.033	-0.271
-129.312	-134.609	-0.590	0.070
-128.297	-200.000	-0.033	0.249
-127.283	356.622	0.043	-0.084
-126.268	-15.221	0.319	0.199
-125.253	-54.844	-0.096	-0.042
-124.239	-200.000	0.050	0.333
-123.224	-35.105	0.371	-0.197
