DTS Sentinel unit serial number:	SN413079Multiplexer serial number:	ORYXHardware model number:	OX4-SRSoftware version number:	ORYX F/W v4.00 Oryx Data Collector v3.7.2.0data status	okinstallation	princeton_trtdifferential loss correction	single-endedforward channel	channel 3reverse channel	N/Adate	2019/09/12time	04:58:11forward acquisition time	60.00reverse acquisition time	0.00gamma	496.2192k internal	0.2322k external	0.2322temperature offset calibration	1.0050default loss term (dB/km)	0.3790temperature slope calibration	1.0000multiplexer offset coefficient	1.0000multiplexer slope coefficient	1.0000fibre end	0.00T internal ref (°C)	31.69T ext. ref 1 (°C)	1.78T ext. ref 2 (°C)	27.04length (m)	temperature (°C)	Stokes	anti-Stokes-747.200	218.128	0.159	-0.256
-746.185	-200.000	-0.040	0.195
-745.171	272.828	0.059	0.106
-744.156	-200.000	0.085	0.503
-743.142	800.000	0.056	-0.166
-742.127	-128.500	-0.254	-0.036
-741.112	103.327	-0.109	0.130
-740.098	-200.000	-0.024	-0.105
-739.083	-48.768	0.175	0.085
-738.069	91.037	0.221	-0.250
-737.054	150.298	0.223	-0.305
-736.039	194.638	-0.200	0.306
-735.025	-16.374	0.286	0.183
-734.010	-14.582	-0.275	-0.178
-732.996	250.147	-0.239	-0.410
-731.981	-98.902	0.198	-0.051
-730.966	294.812	0.157	-0.290
-729.952	-121.161	-0.080	0.014
-728.937	510.009	-0.087	0.204
-727.923	-147.384	-0.141	0.012
-726.908	500.042	-0.026	-0.060
-725.894	189.928	-0.142	-0.215
-724.879	115.547	-0.143	0.177
-723.864	-78.141	0.201	0.070
-722.850	138.797	-0.286	-0.380
-721.835	-95.041	-0.245	0.067
-720.821	17.631	-0.121	-0.098
-719.806	-40.396	-0.264	0.138
-718.791	-200.000	-0.035	-0.236
-717.777	-67.483	-0.172	-0.068
-716.762	-13.523	-0.112	-0.073
-715.748	-88.978	-0.198	-0.059
-714.733	-200.000	0.331	-0.001
-713.718	269.053	-0.357	-0.632
-712.704	-200.000	0.012	-0.419
-711.689	-48.608	-0.313	-0.152
-710.675	800.000	-0.024	0.100
-709.660	11.993	0.138	0.107
-708.645	-88.738	-0.149	0.045
-707.631	413.980	0.095	0.204
-706.616	5.668	0.014	0.010
-705.602	41.122	-0.245	-0.223
-704.587	-28.381	-0.160	-0.093
-703.572	-75.531	-0.158	-0.057
-702.558	-200.000	0.035	0.368
-701.543	67.684	-0.034	0.035
-700.529	75.564	0.024	-0.026
-699.514	-117.231	0.068	0.012
-698.499	-163.351	-0.383	0.018
-697.485	269.674	0.144	0.254
-696.470	-7.455	-0.227	0.155
-695.456	-109.952	-0.096	-0.020
-694.441	51.725	0.132	-0.126
-693.426	-200.000	0.001	0.023
-692.412	247.292	0.148	0.251
-691.397	-95.965	0.138	0.037
-690.383	38.270	-0.236	-0.212
-689.368	-188.408	0.386	-0.005
-688.354	-200.000	0.011	-0.354
-687.339	143.536	0.042	0.056
-686.324	-200.000	0.062	-0.503
-685.310	357.503	0.181	-0.364
-684.295	-57.166	-0.159	0.071
-683.281	-109.638	-0.169	-0.036
-682.266	-24.508	-0.134	0.080
-681.251	293.839	-0.075	-0.137
-680.237	-69.928	-0.207	-0.080
-679.222	120.370	-0.185	0.231
-678.208	800.000	-0.086	-0.278
-677.193	46.241	0.241	0.225
-676.178	30.963	0.263	0.227
-675.164	12.543	-0.181	-0.141
-674.149	228.989	0.233	-0.383
-673.135	-200.000	0.091	-0.427
-672.120	50.472	-0.096	0.092
-671.105	-123.694	-0.201	-0.032
-670.091	-200.000	0.005	0.061
-669.076	800.000	-0.108	0.437
-668.062	52.188	-0.062	-0.060
-667.047	-48.437	-0.202	0.098
-666.032	-121.782	0.359	-0.060
-665.018	-200.000	-0.008	-0.128
-664.003	800.000	0.117	-0.399
-662.989	-164.337	0.083	-0.004
-661.974	-200.000	0.016	0.370
-660.959	111.081	-0.125	0.152
-659.945	81.689	-0.197	0.215
-658.930	285.383	0.190	0.345
-657.916	-200.000	0.005	0.137
-656.901	-176.042	-0.290	0.008
-655.886	98.619	0.187	-0.217
-654.872	-200.000	-0.057	-0.339
-653.857	106.807	-0.104	0.124
-652.843	-200.000	0.090	0.449
-651.828	-157.251	0.352	-0.021
-650.814	524.655	0.203	0.481
-649.799	-118.162	0.010	-0.002
-648.784	-200.000	0.065	-0.330
-647.770	658.446	0.040	-0.104
-646.755	238.847	-0.126	-0.211
-645.741	509.914	-0.116	0.271
-644.726	800.000	-0.021	-0.064
-643.711	-46.156	0.079	0.039
-642.697	-200.000	-0.036	0.213
-641.682	16.389	0.116	0.092
-640.668	-71.066	-0.264	0.100
-639.653	-151.699	-0.045	0.003
-638.638	-125.827	0.221	0.034
-637.624	-109.248	-0.407	0.087
-636.609	800.000	0.150	0.445
-635.595	7.284	0.199	0.149
-634.580	800.000	-0.090	-0.357
-633.565	-0.444	-0.374	-0.267
-632.551	-20.747	-0.231	0.143
-631.536	800.000	-0.070	-0.293
-630.522	452.722	0.133	-0.297
-629.507	697.771	0.121	-0.320
-628.492	41.054	0.039	-0.035
-627.478	64.161	-0.140	-0.142
-626.463	-118.227	0.216	-0.039
-625.449	-153.316	0.249	0.017
-624.434	-56.261	-0.183	0.082
-623.419	-164.584	-0.070	-0.003
-622.405	101.216	-0.129	-0.152
-621.390	-200.000	-0.019	-0.132
-620.376	-75.033	0.486	0.175
-619.361	283.609	-0.148	-0.267
-618.346	-200.000	0.006	-0.414
-617.332	-200.000	-0.041	-0.331
-616.317	-200.000	0.024	0.655
-615.303	90.913	-0.167	0.189
-614.288	-87.782	-0.178	-0.054
-613.273	45.003	-0.151	-0.140
-612.259	36.061	-0.289	-0.255
-611.244	236.180	-0.136	-0.227
-610.230	185.820	0.151	-0.226
-609.215	-7.494	-0.159	0.108
-608.201	-125.204	-0.457	-0.070
-607.186	800.000	-0.048	-0.143
-606.171	-200.000	0.025	0.377
-605.157	-107.381	-0.224	-0.049
-604.142	800.000	0.028	-0.096
-603.128	-200.000	-0.009	0.553
-602.113	-117.746	0.208	0.038
-601.098	-48.101	-0.183	0.089
-600.084	119.116	0.154	-0.192
-599.069	-200.000	-0.018	0.158
-598.055	-136.774	-0.333	0.039
-597.040	-200.000	0.015	-0.226
-596.025	-49.345	0.148	-0.071
-595.011	-166.724	0.166	-0.007
-593.996	800.000	0.079	-0.309
-592.982	-96.982	0.282	0.074
-591.967	241.157	-0.211	0.354
-590.952	106.501	-0.126	-0.150
-589.938	626.624	0.112	-0.283
-588.923	-30.726	0.149	0.085
-587.909	-200.000	-0.014	0.400
-586.894	254.295	-0.053	0.092
-585.879	99.338	0.208	-0.242
-584.865	133.932	-0.097	0.126
-583.850	-103.373	0.137	0.032
-582.836	800.000	-0.104	-0.368
-581.821	800.000	0.031	-0.117
-580.806	324.679	0.134	0.257
-579.792	-83.219	0.232	0.075
-578.777	362.824	0.036	0.073
-577.763	-200.000	-0.037	0.244
-576.748	-38.134	-0.375	-0.200
-575.733	179.602	0.154	-0.226
-574.719	-75.813	0.072	0.026
-573.704	-31.344	-0.134	0.076
-572.690	24.515	0.089	0.073
-571.675	-125.640	-0.163	-0.025
-570.661	-200.000	0.007	0.107
-569.646	253.366	-0.136	0.233
-568.631	291.393	-0.061	-0.111
-567.617	-12.501	0.070	0.046
-566.602	-96.602	0.105	0.028
-565.588	427.291	0.074	-0.160
-564.573	24.263	-0.092	0.076
-563.558	63.532	0.093	0.093
-562.544	-110.610	0.404	-0.084
-561.529	-0.957	0.245	-0.174
-560.515	74.216	-0.018	0.018
-559.500	21.948	-0.194	0.158
-558.485	7.541	-0.165	-0.124
-557.471	800.000	0.076	-0.227
-556.456	-94.281	0.107	0.029
-555.442	-200.000	-0.013	0.494
-554.427	-200.000	-0.004	0.024
-553.412	44.097	0.199	-0.183
-552.398	-200.000	0.012	-0.063
-551.383	-141.327	-0.230	-0.023
-550.369	-200.000	0.107	-0.501
-549.354	-52.521	-0.211	-0.098
-548.339	427.187	-0.028	0.061
-547.325	-200.000	0.003	0.077
-546.310	23.333	0.044	-0.036
-545.296	-200.000	-0.031	0.252
-544.281	-11.917	-0.125	0.082
-543.266	63.197	0.266	-0.267
-542.252	-133.983	0.082	-0.010
-541.237	301.867	0.037	-0.069
-540.223	38.386	0.171	0.153
-539.208	251.811	-0.217	0.370
-538.193	800.000	-0.049	-0.154
-537.179	-28.286	-0.057	0.033
-536.164	-0.085	0.243	-0.174
-535.150	-53.193	0.066	0.030
-534.135	1.713	0.228	-0.165
-533.121	-16.609	0.131	0.083
-532.106	-144.366	-0.205	-0.019
-531.091	134.810	0.246	0.320
-530.077	-8.148	0.162	0.109
-529.062	79.955	-0.195	0.210
-528.048	-2.786	0.132	0.092
-527.033	800.000	-0.024	0.086
-526.018	-42.529	-0.313	-0.160
-525.004	-200.000	-0.034	-0.226
-523.989	-123.712	0.216	-0.034
-522.975	65.259	-0.417	-0.423
-521.960	-78.843	-0.248	0.085
-520.945	-200.000	0.040	0.223
-519.931	83.127	0.140	0.152
-518.916	115.956	-0.056	-0.069
-517.902	-200.000	0.024	-0.206
-516.887	134.796	-0.160	-0.207
-515.872	13.862	-0.059	0.046
-514.858	-141.053	-0.182	-0.019
-513.843	-127.807	0.169	-0.024
-512.829	-169.857	0.107	-0.004
-511.814	27.642	0.109	-0.092
-510.799	293.910	-0.150	0.275
-509.785	37.692	0.056	0.050
-508.770	-34.075	-0.157	-0.086
-507.756	800.000	0.040	0.163
-506.741	-141.943	-0.135	0.014
-505.726	27.618	0.151	-0.127
-504.712	505.220	0.045	0.105
-503.697	-142.675	-0.227	-0.022
-502.683	-58.725	-0.265	-0.115
-501.668	2.030	0.222	-0.161
-500.653	800.000	0.067	-0.193
-499.639	53.688	0.152	-0.146
-498.624	-200.000	0.038	-0.328
-497.610	252.356	-0.107	0.183
-496.595	-160.094	0.316	-0.017
-495.581	-85.807	-0.176	-0.055
-494.566	-93.418	0.404	-0.112
-493.551	800.000	0.147	-0.417
-492.537	800.000	-0.044	-0.172
-491.522	609.222	-0.153	-0.382
-490.508	-200.000	-0.035	0.323
-489.493	800.000	0.057	-0.207
-488.478	800.000	0.049	-0.184
-487.464	3.630	0.053	-0.039
-486.449	-200.000	0.028	0.197
-485.435	-36.701	0.260	0.140
-484.420	-7.500	0.294	-0.199
-483.405	-200.000	0.020	-0.100
-482.391	2.234	-0.205	-0.148
-481.376	800.000	0.106	-0.341
-480.362	800.000	-0.090	0.318
-479.347	-78.687	0.538	0.184
-478.332	-200.000	0.027	0.179
-477.318	13.807	-0.207	-0.161
-476.303	717.518	0.116	-0.307
-475.289	800.000	-0.046	0.141
-474.274	-65.800	0.280	0.112
-473.259	82.549	-0.054	-0.059
-472.245	-0.860	0.078	-0.055
-471.230	-112.652	0.199	-0.040
-470.216	547.391	0.065	-0.156
-469.201	363.266	-0.095	0.190
-468.186	-69.976	0.113	-0.043
-467.172	428.219	0.028	-0.060
-466.157	-189.395	-0.154	0.002
-465.143	574.739	0.072	0.175
-464.128	2.080	-0.151	0.109
-463.113	-11.769	0.142	-0.093
-462.099	635.227	0.070	-0.177
-461.084	-81.532	-0.119	-0.039
-460.070	-200.000	-0.016	-0.151
-459.055	-117.507	-0.396	0.072
-458.040	-87.089	0.038	0.012
-457.026	93.005	0.055	0.062
-456.011	368.891	0.081	0.163
-454.997	-200.000	0.000	-0.045
-453.982	92.852	0.097	-0.110
-452.968	-11.655	0.310	-0.203
-451.953	-48.399	-0.335	-0.161
-450.938	-41.358	-0.066	-0.034
-449.924	51.387	-0.320	-0.304
-448.909	229.864	0.036	0.059
-447.895	-5.152	0.065	0.045
-446.880	-108.628	-0.486	0.104
-445.865	-56.888	0.159	-0.070
-444.851	-39.897	0.265	0.138
-443.836	-143.813	0.144	-0.014
-442.822	242.443	0.086	-0.143
-441.807	-120.866	-0.085	-0.014
-440.792	92.273	-0.106	0.119
-439.778	151.843	-0.199	0.271
-438.763	-67.998	0.123	-0.048
-437.749	-97.444	0.071	0.019
-436.734	19.206	-0.121	0.097
-435.719	9.240	-0.173	0.131
-434.705	800.000	0.068	-0.203
-433.690	182.484	0.205	0.302
-432.676	173.226	0.160	0.231
-431.661	40.510	-0.086	0.078
-430.646	489.641	-0.164	-0.375
-429.632	-200.000	-0.023	-0.163
-428.617	-200.000	-0.002	-0.245
-427.603	-43.659	-0.331	-0.166
-426.588	800.000	0.017	-0.056
-425.573	800.000	0.103	0.316
-424.559	46.731	0.086	-0.079
-423.544	161.105	-0.157	-0.219
-422.530	800.000	-0.084	-0.300
-421.515	203.795	-0.110	0.170
-420.500	220.722	0.067	0.107
-419.486	9.630	0.024	0.018
-418.471	-200.000	-0.011	0.059
-417.457	800.000	-0.043	0.182
-416.442	-88.386	-0.202	-0.060
-415.428	-200.000	0.035	0.222
-414.413	-200.000	-0.016	-0.194
-413.398	611.937	-0.101	-0.252
-412.384	38.138	0.165	-0.146
-411.369	200.972	-0.168	-0.258
-410.355	800.000	-0.061	0.243
-409.340	-69.479	0.398	0.152
-408.325	83.386	-0.160	0.174
-407.311	-104.843	-0.282	0.065
-406.296	89.117	0.145	0.161
-405.282	-200.000	-0.054	0.242
-404.267	-200.000	-0.015	0.266
-403.252	299.781	-0.055	-0.101
-402.238	433.291	-0.020	0.043
-401.223	55.480	-0.152	0.147
-400.209	-1.703	0.148	-0.104
-399.194	358.443	-0.226	-0.451
-398.179	-43.733	0.142	0.072
-397.165	462.730	-0.074	0.166
-396.150	380.366	-0.143	0.293
-395.136	5.177	-0.374	0.275
-394.121	-21.218	0.169	0.103
-393.106	800.000	-0.113	-0.347
-392.092	-67.956	-0.390	0.152
-391.077	9.571	-0.142	-0.107
-390.063	8.067	0.473	0.353
-389.048	180.710	0.262	0.384
-388.033	-200.000	-0.023	0.321
-387.019	-13.396	-0.146	-0.094
-386.004	-31.214	-0.263	0.148
-384.990	163.503	-0.213	-0.298
-383.975	-93.644	0.231	0.064
-382.960	800.000	-0.014	0.041
-381.946	669.936	0.051	0.131
-380.931	800.000	-0.075	-0.274
-379.917	80.645	0.153	-0.164
-378.902	-52.009	-0.283	-0.131
-377.888	-39.264	0.360	-0.188
-376.873	800.000	0.060	-0.198
-375.858	-200.000	-0.143	0.001
-374.844	-30.516	0.153	0.087
-373.829	-52.521	-0.194	0.089
-372.815	-83.631	-0.037	-0.012
-371.800	-65.687	-0.326	0.130
-370.785	180.132	-0.131	0.191
-369.771	20.538	-0.146	0.118
-368.756	-67.508	0.250	-0.098
-367.742	-54.094	-0.440	-0.199
-366.727	752.850	0.157	0.421
-365.712	568.716	-0.086	0.208
-364.698	-121.033	0.268	-0.045
-363.683	209.534	0.090	-0.140
-362.669	3.739	-0.113	-0.082
-361.654	218.071	-0.130	-0.207
-360.639	800.000	-0.048	0.198
-359.625	-53.275	-0.205	-0.093
-358.610	-200.000	0.031	0.166
-357.596	-200.000	-0.001	0.188
-356.581	-200.000	0.059	0.320
-355.566	-153.902	-0.106	0.007
-354.552	-46.943	0.057	0.028
-353.537	719.588	-0.104	-0.276
-352.523	-200.000	0.005	-0.084
-351.508	-56.550	-0.299	0.132
-350.493	-173.749	0.091	0.003
-349.479	-143.237	0.342	0.033
-348.464	-61.677	-0.219	-0.091
-347.450	-200.000	0.005	0.032
-346.435	800.000	0.096	-0.282
-345.420	-200.000	0.032	0.204
-344.406	-103.988	-0.143	0.033
-343.391	16.133	0.184	-0.144
-342.377	21.249	-0.319	0.258
-341.362	-173.839	0.380	0.011
-340.348	-200.000	-0.051	-0.321
-339.333	11.219	-0.178	-0.136
-338.318	-127.269	0.410	0.059
-337.304	283.851	0.075	-0.135
-336.289	-200.000	-0.074	-0.335
-335.275	22.113	-0.260	-0.211
-334.260	467.373	-0.120	0.267
-333.245	157.827	-0.094	0.130
-332.231	39.900	0.176	0.158
-331.216	162.772	0.211	-0.294
-330.202	14.855	-0.155	0.120
-329.187	-79.255	-0.304	0.103
-328.172	-106.260	0.292	0.065
-327.158	294.578	-0.045	-0.082
-326.143	-91.959	0.401	-0.113
-325.129	-82.698	-0.146	-0.047
-324.114	58.410	0.242	-0.236
-323.099	131.391	-0.184	-0.235
-322.085	-72.073	-0.245	-0.091
-321.070	-162.929	-0.355	0.017
-320.056	-200.000	-0.022	0.268
-319.041	532.297	-0.087	0.204
-318.026	-125.132	-0.190	-0.029
-317.012	-43.430	0.196	-0.099
-315.997	-135.169	0.313	-0.037
-314.983	-53.996	-0.261	0.118
-313.968	515.409	0.061	-0.142
-312.953	-200.000	-0.021	-0.302
-311.939	-14.892	0.230	0.147
-310.924	641.517	0.091	0.231
-309.910	-90.519	-0.339	-0.098
-308.895	-200.000	0.061	-0.374
-307.880	-200.000	0.015	-0.390
-306.866	800.000	0.098	-0.345
-305.851	-200.000	0.033	-0.193
-304.837	24.120	-0.158	0.129
-303.822	-96.358	-0.181	-0.048
-302.807	-200.000	0.037	0.213
-301.793	-200.000	-0.001	0.125
-300.778	-22.637	0.327	0.196
-299.764	-139.064	-0.127	0.014
-298.749	9.236	-0.107	0.080
-297.735	-156.002	0.391	-0.025
-296.720	-113.423	-0.254	0.049
-295.705	-200.000	0.009	-0.151
-294.691	800.000	-0.044	0.162
-293.676	17.041	0.271	0.213
-292.662	800.000	-0.051	-0.199
-291.647	77.168	0.284	-0.299
-290.632	-200.000	0.041	0.236
-289.618	-138.656	0.400	-0.043
-288.603	-40.629	0.214	-0.110
-287.589	-94.241	0.250	-0.068
-286.574	-86.724	0.268	0.081
-285.559	-200.000	-0.029	-0.157
-284.545	41.796	0.051	0.046
-283.530	3.716	-0.261	0.189
-282.516	-143.720	0.114	0.011
-281.501	219.618	0.118	0.188
-280.486	444.324	0.038	-0.082
-279.472	95.214	-0.040	0.045
-278.457	-18.727	-0.068	0.042
-277.443	136.311	0.110	-0.142
-276.428	-192.070	0.241	-0.002
-275.413	-86.775	-0.423	-0.128
-274.399	256.748	0.166	-0.283
-273.384	175.841	0.076	0.109
-272.370	232.168	-0.183	0.298
-271.355	50.225	0.044	0.041
-270.340	-164.242	0.096	0.004
-269.326	136.918	-0.054	0.070
-268.311	254.884	-0.052	0.088
-267.297	-145.822	0.170	-0.015
-266.282	-103.520	0.324	-0.075
-265.267	131.204	0.163	-0.208
-264.253	287.369	0.069	-0.124
-263.238	-200.000	-0.001	-0.083
-262.224	-55.078	-0.401	0.179
-261.209	800.000	-0.056	0.171
-260.195	534.549	0.041	-0.098
-259.180	-200.000	-0.038	0.195
-258.165	64.535	0.050	-0.050
-257.151	-24.165	0.235	-0.139
-256.136	-132.220	0.269	-0.034
-255.122	169.729	0.099	0.140
-254.107	-87.000	0.307	-0.093
-253.092	-22.301	-0.060	0.036
-252.078	-20.977	0.185	0.112
-251.063	-159.997	0.253	0.014
-250.049	29.118	-0.181	0.153
-249.034	-82.061	0.122	-0.039
-248.019	-152.353	-0.146	0.010
-247.005	545.680	0.028	0.067
-245.990	250.654	-0.168	0.282
-244.976	-114.053	0.272	-0.052
-243.961	237.658	0.171	-0.281
-242.946	221.967	0.144	0.229
-241.932	-94.178	-0.355	0.096
-240.917	-145.815	0.214	-0.019
-239.903	-200.000	0.011	0.050
-238.888	150.420	0.086	-0.115
-237.873	770.086	-0.020	0.053
-236.859	279.908	0.232	0.410
-235.844	73.400	0.109	-0.112
-234.830	29.547	-0.075	0.063
-233.815	-108.650	0.059	-0.013
-232.800	-200.000	0.072	0.470
-231.786	-25.251	-0.240	-0.141
-230.771	-0.687	-0.358	-0.251
-229.757	-33.630	0.158	0.086
-228.742	-200.000	0.008	0.182
-227.727	552.251	-0.096	-0.228
-226.713	-111.130	0.204	-0.041
-225.698	-84.714	-0.220	-0.068
-224.684	66.016	-0.176	0.176
-223.669	-68.724	0.342	-0.131
-222.655	-200.000	0.026	-0.243
-221.640	34.596	-0.160	-0.138
-220.625	-82.937	-0.319	-0.102
-219.611	-47.329	0.288	-0.139
-218.596	-200.000	-0.025	0.218
-217.582	-96.248	-0.146	0.038
-216.567	-155.485	0.264	-0.017
-215.552	12.805	0.085	0.065
-214.538	-108.691	-0.264	-0.056
-213.523	465.131	0.279	0.618
-212.509	-45.931	0.092	0.045
-211.494	-11.993	-0.310	-0.201
-210.479	-140.104	-0.073	-0.008
-209.465	-198.246	-0.476	0.003
-208.450	105.730	0.108	0.127
-207.436	428.584	0.079	0.168
-206.421	-99.096	-0.190	-0.048
-205.406	-200.000	0.057	0.305
-204.392	800.000	-0.086	0.251
-203.377	-200.000	0.089	0.412
-202.363	800.000	0.094	-0.318
-201.348	-141.221	0.086	-0.009
-200.333	-78.017	-0.224	-0.076
-199.319	338.210	0.094	-0.182
-198.304	-91.027	0.027	0.008
-197.290	-100.176	0.175	0.043
-196.275	-106.243	-0.193	-0.043
-195.260	201.639	0.210	0.320
-194.246	-63.469	0.291	-0.118
-193.231	72.783	-0.214	0.221
-192.217	159.301	0.145	-0.200
-191.202	-96.794	-0.475	0.123
-190.187	124.231	-0.205	-0.255
-189.173	800.000	0.051	0.189
-188.158	393.117	-0.154	0.317
-187.144	402.288	-0.195	0.406
-186.129	-46.099	-0.302	-0.147
-185.114	-36.155	0.347	-0.185
-184.100	-200.000	0.040	0.215
-183.085	-44.688	-0.116	0.057
-182.071	-80.598	-0.249	-0.082
-181.056	348.219	0.222	0.432
-180.042	-135.983	-0.231	0.027
-179.027	-67.478	0.166	-0.064
-178.012	-35.110	-0.035	0.019
-176.998	-200.000	-0.059	0.434
-175.983	-185.896	-0.092	0.001
-174.969	-7.470	0.167	-0.112
-173.954	800.000	-0.035	-0.099
-172.939	-147.538	-0.469	-0.039
-171.925	48.075	0.091	0.084
-170.910	420.485	0.055	-0.115
-169.896	18.127	0.161	-0.127
-168.881	27.782	0.214	-0.178
-167.866	107.699	0.196	0.231
-166.852	81.599	-0.144	0.153
-165.837	800.000	-0.032	0.118
-164.823	-125.430	0.226	-0.034
-163.808	-200.000	-0.012	0.096
-162.793	-25.153	0.270	-0.158
-161.779	-138.402	0.189	-0.021
-160.764	252.965	0.050	0.084
-159.750	73.605	-0.181	-0.187
-158.735	800.000	0.064	0.222
-157.720	800.000	-0.080	-0.225
-156.706	-49.671	-0.249	-0.117
-155.691	-103.064	0.371	-0.087
-154.677	496.379	-0.066	0.150
-153.662	115.609	-0.239	0.289
-152.647	-32.420	0.003	0.002
-151.633	-200.000	0.018	0.345
-150.618	-200.000	0.001	0.115
-149.604	-49.057	0.047	0.022
-148.589	-200.000	0.053	-0.312
-147.574	-200.000	-0.010	0.072
-146.560	-200.000	-0.248	0.000
-145.545	201.035	0.056	-0.086
-144.531	128.994	-0.231	-0.291
-143.516	-94.270	0.502	0.135
-142.502	800.000	0.059	0.221
-141.487	-168.793	0.311	0.012
-140.472	604.813	0.074	-0.181
-139.458	-200.000	0.007	-0.031
-138.443	163.414	0.058	-0.081
-137.429	-81.101	-0.340	-0.111
-136.414	74.299	-0.018	-0.018
-135.399	-200.000	-0.054	-0.253
-134.385	-97.870	-0.191	0.049
-133.370	204.595	-0.232	0.355
-132.356	-19.957	0.148	-0.090
-131.341	-144.896	0.241	-0.022
-130.326	4.486	-0.069	-0.050
-129.312	-126.464	0.368	0.054
-128.297	-128.700	-0.067	-0.009
-127.283	622.739	0.145	-0.361
-126.268	-80.619	0.024	0.008
-125.253	-200.000	-0.027	0.499
-124.239	28.198	0.161	0.134
-123.224	6.664	0.128	0.094
-122.210	83.952	0.044	-0.047
-121.195	73.715	-0.080	-0.082
-120.180	-56.761	-0.364	0.159
