DTS Sentinel unit serial number:	SN413079Multiplexer serial number:	ORYXHardware model number:	OX4-SRSoftware version number:	ORYX F/W v4.00 Oryx Data Collector v3.7.2.0data status	okinstallation	princeton_trtdifferential loss correction	single-endedforward channel	channel 3reverse channel	N/Adate	2019/09/19time	03:20:35forward acquisition time	60.00reverse acquisition time	0.00gamma	496.2192k internal	0.2348k external	0.2348temperature offset calibration	0.9990default loss term (dB/km)	0.3790temperature slope calibration	1.0000multiplexer offset coefficient	1.0000multiplexer slope coefficient	1.0000fibre end	0.00T internal ref (°C)	20.69T ext. ref 1 (°C)	0.65T ext. ref 2 (°C)	14.16length (m)	temperature (°C)	Stokes	anti-Stokes-747.200	-122.225	-0.245	0.040
-746.185	800.000	0.072	0.308
-745.171	-61.797	-0.230	0.096
-744.156	-200.000	0.089	0.461
-743.142	800.000	0.038	-0.162
-742.127	800.000	0.022	0.067
-741.112	-174.292	0.187	-0.005
-740.098	193.715	-0.098	0.148
-739.083	-145.481	0.317	0.028
-738.069	-73.845	-0.270	0.098
-737.054	-116.077	0.378	0.070
-736.039	-90.810	-0.213	-0.061
-735.025	-16.077	0.111	0.071
-734.010	-134.540	-0.147	-0.018
-732.996	800.000	-0.159	0.440
-731.981	323.240	-0.068	-0.129
-730.966	-162.776	0.129	-0.006
-729.952	101.096	-0.056	0.065
-728.937	-200.000	0.019	0.428
-727.923	134.134	-0.066	-0.085
-726.908	151.451	-0.088	-0.119
-725.894	128.703	0.099	0.126
-724.879	800.000	0.124	0.510
-723.864	-129.328	0.239	-0.033
-722.850	231.263	0.091	-0.149
-721.835	-36.294	-0.094	-0.051
-720.821	380.891	-0.071	-0.146
-719.806	-102.037	-0.128	-0.031
-718.791	574.131	-0.144	0.349
-717.777	10.915	0.088	0.067
-716.762	689.710	0.046	-0.120
-715.748	95.889	-0.135	-0.154
-714.733	-134.166	-0.192	-0.024
-713.718	-200.000	0.019	-0.342
-712.704	461.048	-0.132	-0.293
-711.689	-98.773	0.084	0.021
-710.675	-15.868	-0.324	-0.206
-709.660	34.422	0.053	-0.046
-708.645	800.000	0.074	-0.289
-707.631	-200.000	0.030	0.201
-706.616	133.908	0.090	0.117
-705.602	-42.769	0.224	-0.113
-704.587	49.278	-0.158	-0.148
-703.572	72.153	0.300	-0.312
-702.558	675.869	-0.056	-0.146
-701.543	-28.167	-0.143	-0.083
-700.529	365.247	-0.085	-0.171
-699.514	-41.498	0.117	-0.060
-698.499	148.295	0.208	-0.280
-697.485	-200.000	-0.011	0.399
-696.470	59.281	-0.173	-0.170
-695.456	5.969	-0.240	0.177
-694.441	-106.308	0.058	0.013
-693.426	-200.000	0.007	0.062
-692.412	198.970	-0.118	-0.180
-691.397	-117.805	-0.336	-0.060
-690.383	800.000	-0.074	0.316
-689.368	71.360	-0.420	-0.434
-688.354	-45.237	0.413	0.204
-687.339	-70.678	-0.241	0.091
-686.324	-43.339	0.089	-0.045
-685.310	-88.027	-0.218	-0.065
-684.295	800.000	0.089	0.311
-683.281	120.322	0.291	-0.360
-682.266	675.229	-0.040	0.103
-681.251	-35.863	-0.182	-0.098
-680.237	155.716	0.056	0.077
-679.222	115.904	0.043	-0.052
-678.208	-200.000	-0.002	0.013
-677.193	-200.000	0.009	0.059
-676.178	-13.462	0.213	-0.137
-675.164	-200.000	-0.009	0.155
-674.149	200.585	0.110	-0.169
-673.135	-3.501	0.215	0.149
-672.120	-75.057	0.067	-0.024
-671.105	-103.718	0.185	0.043
-670.091	279.065	0.154	-0.274
-669.076	-14.092	-0.252	0.162
-668.062	57.845	-0.139	0.135
-667.047	109.374	-0.122	-0.146
-666.032	-2.658	-0.049	-0.034
-665.018	-200.000	0.007	-0.079
-664.003	-171.251	-0.282	0.009
-662.989	739.787	0.066	0.175
-661.974	353.297	-0.175	-0.347
-660.959	-200.000	0.030	-0.163
-659.945	50.855	0.288	-0.271
-658.930	-5.192	0.420	0.288
-657.916	148.024	0.097	0.130
-656.901	104.374	-0.172	-0.201
-655.886	110.356	0.203	-0.243
-654.872	31.513	-0.053	-0.045
-653.857	-200.000	0.052	-0.263
-652.843	-30.713	0.303	-0.171
-651.828	245.947	0.073	0.123
-650.814	239.607	0.050	-0.083
-649.799	119.090	0.078	-0.095
-648.784	82.850	-0.094	0.101
-647.770	-49.194	-0.147	0.070
-646.755	619.970	-0.111	-0.279
-645.741	112.110	0.079	0.095
-644.726	800.000	-0.046	0.149
-643.711	-129.362	0.106	0.015
-642.697	-200.000	-0.012	0.397
-641.682	-8.116	0.141	0.095
-640.668	-85.672	-0.370	0.114
-639.653	800.000	0.052	0.179
-638.638	152.610	0.064	0.087
-637.624	99.345	-0.224	0.258
-636.609	-76.265	0.168	0.059
-635.595	42.443	-0.252	0.228
-634.580	123.366	0.245	0.305
-633.565	-200.000	0.063	-0.497
-632.551	-200.000	-0.043	-0.251
-631.536	-115.859	0.139	-0.026
-630.522	-96.264	-0.122	-0.032
-629.507	98.039	0.095	-0.109
-628.492	84.089	-0.144	-0.157
-627.478	319.849	0.094	-0.178
-626.463	-200.000	-0.008	-0.189
-625.449	380.005	-0.085	-0.174
-624.434	-93.275	-0.019	0.005
-623.419	-200.000	0.002	0.017
-622.405	-101.426	0.249	-0.060
-621.390	-141.076	-0.091	0.009
-620.376	-112.794	0.163	0.032
-619.361	800.000	-0.068	-0.213
-618.346	-78.731	0.211	0.072
-617.332	-81.000	0.357	0.117
-616.317	13.284	-0.125	-0.096
-615.303	-79.570	-0.057	0.019
-614.288	119.995	0.103	0.127
-613.273	-28.187	-0.037	-0.021
-612.259	-51.763	-0.141	-0.065
-611.244	-24.257	-0.097	-0.058
-610.230	-116.205	-0.244	-0.045
-609.215	256.491	0.115	0.196
-608.201	-200.000	-0.042	0.260
-607.186	-113.812	-0.217	0.042
-606.171	172.891	0.119	0.170
-605.157	-47.010	-0.122	-0.059
-604.142	57.111	0.220	-0.214
-603.128	146.953	-0.244	-0.327
-602.113	249.594	-0.302	-0.508
-601.098	-200.000	0.007	-0.092
-600.084	14.883	-0.237	-0.184
-599.069	459.151	0.027	-0.059
-598.055	179.561	-0.139	0.202
-597.040	-200.000	-0.018	-0.086
-596.025	310.398	-0.056	-0.103
-595.011	-148.818	-0.333	0.027
-593.996	800.000	-0.076	-0.257
-592.982	-111.911	0.175	0.035
-591.967	800.000	-0.092	0.266
-590.952	145.715	-0.092	-0.123
-589.938	-50.689	0.307	0.144
-588.923	-200.000	-0.067	-0.462
-587.909	177.369	0.211	-0.305
-586.894	-12.562	-0.266	-0.173
-585.879	233.942	-0.100	-0.163
-584.865	-177.677	-0.300	0.007
-583.850	-65.555	0.139	-0.055
-582.836	-117.304	0.318	0.057
-581.821	-111.880	0.137	0.028
-580.806	800.000	-0.041	0.116
-579.792	583.319	0.021	0.050
-578.777	562.033	-0.010	-0.023
-577.763	52.626	-0.064	0.060
-576.748	35.721	0.275	0.240
-575.733	121.062	-0.069	-0.085
-574.719	-60.827	0.112	0.047
-573.704	120.676	-0.237	-0.292
-572.690	-124.388	0.097	0.015
-571.675	-200.000	-0.050	0.225
-570.661	-200.000	0.015	-0.249
-569.646	769.653	0.089	-0.241
-568.631	-200.000	0.003	0.030
-567.617	198.279	0.147	-0.223
-566.602	-73.962	-0.368	0.133
-565.588	162.350	-0.118	-0.165
-564.573	203.274	0.124	-0.190
-563.558	-99.900	0.426	0.106
-562.544	175.099	0.195	0.280
-561.529	-59.011	-0.281	0.120
-560.515	800.000	0.168	-0.562
-559.500	-200.000	0.031	-0.190
-558.485	-170.376	-0.121	-0.004
-557.471	-110.261	0.282	-0.058
-556.456	-57.700	0.240	-0.104
-555.442	196.695	-0.133	-0.201
-554.427	-200.000	0.039	0.173
-553.412	-57.875	-0.286	0.124
-552.398	-8.227	-0.146	-0.098
-551.383	18.347	-0.208	-0.165
-550.369	130.324	0.190	0.241
-549.354	501.501	0.062	0.143
-548.339	-200.000	-0.022	-0.285
-547.325	-200.000	0.037	0.228
-546.310	-174.977	-0.282	0.008
-545.296	418.041	0.053	0.113
-544.281	800.000	0.039	-0.161
-543.266	-52.612	-0.126	0.058
-542.252	149.856	-0.057	0.076
-541.237	-143.773	-0.150	0.014
-540.223	-144.899	-0.155	0.014
-539.208	800.000	-0.060	0.251
-538.193	85.572	-0.149	-0.162
-537.179	40.545	0.179	-0.159
-536.164	-22.037	0.389	0.234
-535.150	21.547	0.163	0.132
-534.135	-56.408	-0.221	-0.097
-533.121	6.040	0.269	0.198
-532.106	64.470	-0.075	-0.075
-531.091	-21.211	0.258	-0.156
-530.077	256.780	-0.106	-0.180
-529.062	-96.309	0.186	0.049
-528.048	-76.075	-0.245	0.086
-527.033	800.000	-0.054	0.231
-526.018	513.062	0.093	0.215
-525.004	143.397	-0.179	-0.237
-523.989	-102.929	-0.235	-0.055
-522.975	-75.670	0.092	-0.032
-521.960	-200.000	-0.046	0.230
-520.945	-74.861	-0.150	0.053
-519.931	151.504	0.115	0.155
-518.916	16.744	0.119	0.093
-517.902	257.154	-0.148	-0.251
-516.887	-117.872	0.167	0.030
-515.872	157.926	-0.152	-0.208
-514.858	30.359	0.093	0.078
-513.843	68.372	-0.154	-0.156
-512.829	-45.643	0.083	-0.040
-511.814	92.527	-0.223	0.249
-510.799	177.346	-0.116	0.168
-509.785	251.249	-0.022	-0.036
-508.770	285.094	0.302	0.539
-507.756	-200.000	-0.003	0.139
-506.741	800.000	-0.012	-0.038
-505.726	352.492	-0.078	0.152
-504.712	36.583	-0.325	-0.284
-503.697	-200.000	-0.031	-0.182
-502.683	68.267	0.270	-0.274
-501.668	145.627	0.283	0.376
-500.653	-200.000	-0.056	0.246
-499.639	196.371	-0.071	0.107
-498.624	800.000	0.012	-0.032
-497.610	-200.000	-0.001	0.381
-496.595	-95.654	-0.188	-0.050
-495.581	225.292	-0.069	-0.110
-494.566	-106.878	-0.365	-0.080
-493.551	800.000	-0.066	0.234
-492.537	10.769	0.199	-0.151
-491.522	-32.930	-0.305	-0.167
-490.508	-82.144	-0.154	0.050
-489.493	-79.396	-0.110	-0.037
-488.478	-47.442	0.194	0.093
-487.464	104.544	-0.160	-0.186
-486.449	-94.052	0.140	-0.038
-485.435	-84.882	-0.226	-0.070
-484.420	-103.237	-0.229	0.054
-483.405	-20.414	-0.144	-0.088
-482.391	-200.000	-0.012	0.176
-481.376	9.724	-0.195	-0.146
-480.362	800.000	-0.066	-0.242
-479.347	800.000	-0.069	0.192
-478.332	323.890	0.174	-0.329
-477.318	451.956	0.103	-0.225
-476.303	-200.000	-0.016	-0.119
-475.289	3.004	-0.022	-0.016
-474.274	51.903	0.349	0.329
-473.259	-33.615	0.062	-0.034
-472.245	274.020	0.142	0.248
-471.230	35.164	-0.204	-0.177
-470.216	437.140	0.093	-0.201
-469.201	800.000	-0.050	0.207
-468.186	-58.886	0.020	-0.008
-467.172	144.504	0.174	0.230
-466.157	36.050	-0.031	-0.027
-465.143	408.261	-0.133	-0.278
-464.128	-46.315	-0.107	-0.052
-463.113	-88.623	0.199	0.058
-462.099	-181.958	0.147	-0.003
-461.084	22.064	0.320	0.258
-460.070	-135.106	-0.312	-0.037
-459.055	-35.499	0.252	-0.135
-458.040	392.402	-0.031	0.064
-457.026	-106.524	0.091	0.020
-456.011	-200.000	0.001	0.067
-454.997	51.702	-0.147	0.138
-453.982	-111.089	0.226	-0.046
-452.968	6.781	-0.068	-0.050
-451.953	-200.000	0.057	-0.392
-450.938	-83.856	0.138	0.043
-449.924	-98.157	0.048	0.012
-448.909	-146.662	0.436	-0.037
-447.895	800.000	0.085	0.241
-446.880	21.404	-0.238	0.191
-445.865	525.530	-0.076	-0.177
-444.851	-24.241	0.117	0.069
-443.836	800.000	0.098	-0.312
-442.822	66.958	-0.113	0.114
-441.807	604.440	-0.080	0.196
-440.792	-200.000	0.037	0.190
-439.778	-200.000	-0.021	0.102
-438.763	-200.000	-0.033	-0.358
-437.749	-133.298	-0.267	0.033
-436.734	13.532	0.128	0.098
-435.719	355.260	-0.199	-0.391
-434.705	-78.446	0.192	0.065
-433.690	-200.000	0.009	0.228
-432.676	-60.384	0.126	-0.053
-431.661	-123.867	-0.152	0.024
-430.646	-30.714	0.136	-0.076
-429.632	-200.000	-0.040	-0.246
-428.617	63.832	-0.226	0.224
-427.603	-200.000	0.021	-0.226
-426.588	-200.000	-0.033	0.382
-425.573	-129.223	-0.287	-0.039
-424.559	-200.000	0.001	0.041
-423.544	-39.401	0.220	-0.114
-422.530	800.000	0.028	0.112
-421.515	-92.354	-0.310	-0.086
-420.500	-200.000	-0.024	-0.258
-419.486	-173.261	0.190	0.006
-418.471	167.549	0.076	-0.106
-417.457	-200.000	-0.046	-0.269
-416.442	-36.907	-0.176	0.093
-415.428	-95.105	-0.077	-0.021
-414.413	-122.446	-0.080	-0.013
-413.398	191.588	0.076	0.113
-412.384	-105.630	-0.166	-0.037
-411.369	-137.522	0.550	-0.061
-410.355	58.655	0.266	0.257
-409.340	627.822	-0.059	0.146
-408.325	-123.762	0.264	-0.041
-407.311	93.383	0.171	-0.191
-406.296	652.657	0.066	0.167
-405.282	271.775	-0.103	0.179
-404.267	-140.287	0.169	0.017
-403.252	-118.380	-0.344	-0.060
-402.238	-34.776	-0.269	-0.145
-401.223	58.308	0.036	0.035
-400.209	-79.799	-0.061	-0.020
-399.194	98.486	0.255	-0.290
-398.179	-200.000	0.031	-0.200
-397.165	55.105	0.096	-0.092
-396.150	-76.412	-0.167	-0.058
-395.136	-57.143	0.071	-0.031
-394.121	-103.218	-0.217	0.050
-393.106	280.075	-0.159	-0.281
-392.092	487.989	0.043	-0.097
-391.077	-40.184	0.055	-0.028
-390.063	-149.303	0.158	-0.012
-389.048	122.670	-0.311	-0.383
-388.033	141.010	0.146	-0.191
-387.019	26.178	-0.195	0.160
-386.004	348.481	-0.096	-0.187
-384.990	-200.000	0.050	-0.393
-383.975	-62.083	0.162	-0.066
-382.960	347.584	-0.164	-0.319
-381.946	-37.614	-0.159	-0.084
-380.931	800.000	-0.012	-0.037
-379.917	61.007	-0.276	0.270
-378.902	227.489	0.170	0.272
-377.888	-79.092	0.306	0.102
-376.873	-200.000	0.014	-0.085
-375.858	-126.536	0.294	0.043
-374.844	7.126	0.453	0.333
-373.829	77.256	-0.313	-0.328
-372.815	-200.000	-0.035	0.167
-371.800	-107.533	-0.171	0.037
-370.785	30.593	-0.357	0.301
-369.771	-175.987	0.191	0.005
-368.756	-55.543	0.101	-0.045
-367.742	800.000	-0.103	-0.296
-366.727	800.000	0.058	-0.195
-365.712	-131.678	-0.219	0.028
-364.698	800.000	0.042	0.168
-363.683	553.834	0.115	0.273
-362.669	-182.509	-0.120	-0.002
-361.654	-115.212	0.454	-0.085
-360.639	800.000	-0.139	-0.393
-359.625	-21.147	-0.130	-0.078
-358.610	-38.702	0.175	-0.091
-357.596	-152.883	0.071	-0.005
-356.581	-90.807	0.293	0.083
-355.566	126.784	-0.207	0.258
-354.552	63.060	-0.082	-0.081
-353.537	800.000	0.130	0.370
-352.523	64.365	0.168	0.166
-351.508	151.207	-0.116	0.155
-350.493	-167.833	0.308	0.012
-349.479	-200.000	0.006	0.036
-348.464	800.000	0.075	-0.226
-347.450	-42.351	0.139	-0.070
-346.435	-90.449	-0.112	0.032
-345.420	62.062	0.174	-0.171
-344.406	-14.606	0.082	-0.052
-343.391	404.048	-0.179	-0.372
-342.377	-81.028	-0.286	0.093
-341.362	-200.000	-0.004	0.237
-340.348	-150.803	-0.194	-0.014
-339.333	-113.108	-0.264	-0.051
-338.318	-61.308	0.021	0.009
-337.304	800.000	0.037	-0.126
-336.289	-130.012	-0.091	0.012
-335.275	38.164	0.366	-0.320
-334.260	17.325	0.050	0.039
-333.245	-68.642	-0.441	0.168
-332.231	270.734	0.139	-0.240
-331.216	1.005	0.163	-0.115
-330.202	-8.937	-0.165	0.108
-329.187	800.000	-0.032	-0.099
-328.172	-30.408	-0.180	-0.100
-327.158	548.224	0.124	-0.293
-326.143	-116.154	0.061	0.011
-325.129	368.187	-0.075	0.149
-324.114	-59.992	0.309	0.130
-323.099	-52.834	0.318	-0.144
-322.085	-200.000	0.031	0.186
-321.070	-200.000	0.016	-0.075
-320.056	81.435	0.031	0.033
-319.041	-150.821	0.409	-0.031
-318.026	194.703	0.074	-0.110
-317.012	-166.916	0.219	-0.009
-315.997	280.226	-0.130	0.229
-314.983	-117.832	0.399	0.070
-313.968	193.117	-0.047	-0.070
-312.953	-9.759	-0.038	0.025
-311.939	178.935	0.137	-0.196
-310.924	238.061	0.175	0.286
-309.910	-200.000	0.035	0.465
-308.895	-104.467	-0.032	-0.007
-307.880	-104.342	-0.389	0.088
-306.866	-200.000	-0.033	0.357
-305.851	129.214	-0.287	-0.360
-304.837	58.111	-0.341	-0.328
-303.822	115.401	-0.203	0.244
-302.807	-200.000	0.007	-0.155
-301.793	34.041	0.098	-0.083
-300.778	-137.238	0.132	-0.015
-299.764	26.193	0.170	-0.139
-298.749	-103.676	-0.335	0.077
-297.735	75.056	-0.172	-0.178
-296.720	269.787	0.140	0.241
-295.705	-125.446	-0.200	-0.030
-294.691	-18.529	0.173	0.106
-293.676	134.412	0.152	0.193
-292.662	-147.658	-0.291	-0.024
-291.647	800.000	-0.038	0.112
-290.632	217.306	-0.179	0.280
-289.618	407.219	0.097	0.202
-288.603	-101.836	-0.232	-0.055
-287.589	420.213	-0.070	-0.148
-286.574	149.053	0.097	-0.129
-285.559	621.233	-0.079	0.196
-284.545	-200.000	-0.001	0.177
-283.530	-200.000	-0.045	0.257
-282.516	752.609	-0.090	0.240
-281.501	-24.640	-0.142	0.083
-280.486	-200.000	0.016	-0.157
-279.472	-67.864	-0.097	0.037
-278.457	-64.639	-0.394	-0.157
-277.443	800.000	-0.009	0.031
-276.428	-104.153	0.112	-0.026
-275.413	153.782	-0.069	-0.093
-274.399	-157.240	-0.211	0.013
-273.384	800.000	0.090	0.385
-272.370	37.208	-0.143	0.124
-271.355	291.698	0.184	0.329
-270.340	7.969	0.080	0.059
-269.326	-42.822	-0.339	-0.169
-268.311	75.188	-0.246	-0.254
-267.297	800.000	0.086	-0.284
-266.282	-200.000	0.002	0.023
-265.267	148.417	-0.186	-0.246
-264.253	-41.443	0.283	-0.143
-263.238	149.928	0.169	0.225
-262.224	465.272	0.118	0.258
-261.209	16.545	0.108	-0.084
-260.195	354.912	-0.043	0.084
-259.180	75.049	0.068	-0.070
-258.165	-80.634	-0.063	-0.020
-257.151	-24.419	-0.026	0.015
-256.136	-98.547	0.039	0.010
-255.122	36.391	-0.088	0.076
-254.107	767.942	0.092	0.245
-253.092	-113.159	-0.394	-0.076
-252.078	-121.151	0.197	-0.032
-251.063	388.872	0.225	0.456
-250.049	462.914	-0.088	0.192
-249.034	-80.252	-0.160	-0.053
-248.019	106.949	0.169	-0.197
-247.005	254.956	0.139	-0.234
-245.990	90.631	0.076	0.083
-244.976	-16.754	0.203	-0.126
-243.961	800.000	0.082	0.330
-242.946	438.853	0.033	0.070
-241.932	401.050	0.086	-0.177
-240.917	-200.000	-0.002	0.061
-239.903	65.825	-0.161	0.160
-238.888	35.506	-0.242	0.208
-237.873	-200.000	0.011	-0.117
-236.859	-26.765	0.163	-0.093
-235.844	800.000	-0.027	-0.114
-234.830	-5.215	-0.224	-0.151
-233.815	-200.000	-0.047	-0.382
-232.800	41.549	-0.123	-0.109
-231.786	40.862	0.270	0.238
-230.771	39.526	0.446	0.391
-229.757	529.688	0.310	0.716
-228.742	-95.391	-0.079	0.021
-227.727	-177.990	-0.099	0.002
-226.713	303.467	0.205	0.373
-225.698	142.804	-0.223	-0.290
-224.684	460.044	0.121	-0.263
-223.669	-70.824	0.251	0.093
-222.655	588.423	-0.058	-0.139
-221.640	-70.985	0.276	0.102
-220.625	-85.333	-0.175	0.053
-219.611	1.893	-0.172	0.121
-218.596	105.288	-0.124	-0.143
-217.582	-145.390	0.297	-0.026
-216.567	-147.972	-0.167	0.014
-215.552	800.000	-0.160	-0.519
-214.538	159.145	0.173	0.235
-213.523	800.000	0.041	0.135
-212.509	-74.943	0.101	-0.035
-211.494	575.507	0.038	0.090
-210.479	-68.525	-0.053	0.020
-209.465	0.688	0.244	-0.171
-208.450	-102.837	-0.265	-0.062
-207.436	601.351	-0.086	-0.208
-206.421	59.926	0.119	0.115
-205.406	-44.574	0.372	-0.182
-204.392	-200.000	-0.028	0.193
-203.377	-200.000	0.021	-0.123
-202.363	-200.000	-0.007	0.173
-201.348	-146.092	-0.171	-0.015
-200.333	24.987	-0.141	-0.114
-199.319	-48.915	-0.327	-0.153
-198.304	-38.987	-0.141	0.073
-197.290	-34.856	0.172	-0.092
-196.275	115.453	0.132	0.157
-195.260	800.000	0.028	-0.082
-194.246	27.702	0.114	0.094
-193.231	-7.049	0.026	-0.017
-192.217	-112.887	0.301	0.058
-191.202	517.497	-0.053	0.121
-190.187	800.000	0.110	-0.337
-189.173	92.315	0.199	-0.219
-188.158	-133.022	-0.203	0.025
-187.144	-96.716	0.064	0.016
-186.129	-122.346	0.127	-0.020
-185.114	221.278	-0.102	-0.160
-184.100	-136.000	0.250	-0.029
-183.085	-17.121	0.135	0.083
-182.071	281.530	0.080	0.140
-181.056	391.618	0.117	0.238
-180.042	-44.647	-0.099	0.048
-179.027	-39.992	0.060	-0.031
-178.012	-172.222	0.278	-0.009
-176.998	98.027	0.029	-0.033
-175.983	-200.000	-0.014	0.074
-174.969	51.636	-0.007	0.007
-173.954	-38.297	0.242	0.125
-172.939	-101.234	-0.323	-0.077
-171.925	113.055	-0.091	-0.108
-170.910	-68.081	-0.161	-0.061
-169.896	117.558	-0.093	-0.112
-168.881	-106.443	-0.232	0.051
-167.866	-80.077	0.054	0.018
-166.852	-67.213	-0.074	0.028
-165.837	-14.866	-0.262	0.164
-164.823	-136.255	0.264	0.030
-163.808	134.885	-0.177	-0.224
-162.793	-200.000	0.004	0.398
-161.779	-60.237	-0.156	0.065
-160.764	310.604	0.157	0.288
-159.750	-200.000	0.026	0.226
-158.735	92.273	0.107	-0.118
-157.720	260.269	0.160	0.269
-156.706	73.613	0.251	0.257
-155.691	-83.137	0.280	-0.088
-154.677	288.781	-0.162	0.286
-153.662	-167.405	-0.241	-0.009
-152.647	189.517	-0.112	-0.163
-151.633	800.000	0.124	0.358
-150.618	-67.124	0.185	0.071
-149.604	-190.245	0.157	0.002
-148.589	-109.342	-0.108	0.022
-147.574	-132.120	0.299	0.038
-146.560	134.948	-0.251	0.319
-145.545	-200.000	0.020	0.218
-144.531	-200.000	0.006	0.131
-143.516	-200.000	-0.014	-0.062
-142.502	-121.697	0.093	0.015
-141.487	-130.493	-0.208	0.027
-140.472	-23.877	-0.032	-0.019
-139.458	800.000	-0.020	0.057
-138.443	-143.013	-0.268	-0.025
-137.429	-91.056	-0.115	-0.032
-136.414	168.882	0.150	-0.209
-135.399	-72.112	0.145	-0.052
-134.385	-93.115	-0.141	0.038
-133.370	-200.000	0.019	-0.125
-132.356	-50.337	-0.153	-0.070
-131.341	-106.404	-0.174	0.038
-130.326	101.782	0.213	0.243
-129.312	800.000	-0.058	0.194
-128.297	-200.000	-0.014	0.297
-127.283	-95.267	0.068	-0.018
-126.268	-200.000	0.061	-0.285
-125.253	800.000	0.066	0.230
-124.239	-114.870	-0.254	-0.047
-123.224	-18.852	0.132	0.080
-122.210	-44.568	0.361	-0.176
-121.195	152.428	0.118	0.158
