DTS Sentinel unit serial number:	SN413079Multiplexer serial number:	ORYXHardware model number:	OX4-SRSoftware version number:	ORYX F/W v4.00 Oryx Data Collector v3.7.2.0data status	okinstallation	princeton_trtdifferential loss correction	single-endedforward channel	channel 3reverse channel	N/Adate	2019/09/18time	04:00:35forward acquisition time	60.00reverse acquisition time	0.00gamma	496.2192k internal	0.2343k external	0.2343temperature offset calibration	0.9949default loss term (dB/km)	0.3790temperature slope calibration	1.0000multiplexer offset coefficient	1.0000multiplexer slope coefficient	1.0000fibre end	0.00T internal ref (°C)	23.17T ext. ref 1 (°C)	0.18T ext. ref 2 (°C)	18.09length (m)	temperature (°C)	Stokes	anti-Stokes-747.200	415.759	-0.027	-0.057
-746.185	-128.248	-0.353	-0.050
-745.171	582.917	0.135	-0.332
-744.156	-166.231	-0.129	0.005
-743.142	800.000	0.068	0.222
-742.127	-81.747	-0.229	-0.075
-741.112	-200.000	-0.004	0.035
-740.098	143.728	0.200	-0.267
-739.083	-36.674	0.212	-0.114
-738.069	-121.630	-0.278	0.046
-737.054	359.346	0.060	0.119
-736.039	2.664	0.011	-0.008
-735.025	-79.713	0.271	0.091
-734.010	-132.299	0.012	0.002
-732.996	800.000	0.059	0.200
-731.981	37.772	-0.067	0.060
-730.966	685.806	0.076	-0.199
-729.952	484.520	0.051	-0.117
-728.937	-94.710	-0.108	0.029
-727.923	359.442	-0.086	0.171
-726.908	-162.859	0.189	0.009
-725.894	-200.000	0.013	-0.421
-724.879	5.531	-0.049	-0.036
-723.864	-101.114	0.284	0.070
-722.850	-40.429	0.137	0.071
-721.835	237.220	-0.205	-0.339
-720.821	-111.012	-0.225	0.046
-719.806	-30.881	-0.293	-0.166
-718.791	3.514	0.337	0.246
-717.777	88.886	0.294	-0.327
-716.762	-39.570	0.424	-0.222
-715.748	127.932	-0.304	0.387
-714.733	-70.164	0.099	0.038
-713.718	225.747	0.074	-0.120
-712.704	568.226	0.124	-0.301
-711.689	-76.767	-0.108	-0.038
-710.675	-87.751	-0.163	0.049
-709.660	-119.917	-0.144	0.025
-708.645	-200.000	0.003	-0.235
-707.631	276.139	0.108	0.191
-706.616	-103.557	-0.196	-0.046
-705.602	30.240	0.217	0.185
-704.587	-107.040	-0.280	0.062
-703.572	228.235	-0.094	0.153
-702.558	273.573	-0.046	0.081
-701.543	-87.354	-0.112	-0.034
-700.529	-200.000	0.200	0.001
-699.514	43.798	0.054	-0.049
-698.499	-83.127	0.331	0.107
-697.485	478.350	0.125	-0.282
-696.470	-50.129	-0.260	-0.123
-695.456	800.000	-0.066	-0.281
-694.441	0.720	0.167	0.119
-693.426	-106.318	-0.138	-0.031
-692.412	800.000	-0.072	0.221
-691.397	198.576	-0.105	0.160
-690.383	117.793	-0.237	-0.291
-689.368	-79.637	0.237	-0.080
-688.354	65.694	-0.260	-0.263
-687.339	-105.690	0.211	-0.048
-686.324	19.298	-0.145	0.116
-685.310	-36.351	0.209	0.113
-684.295	-36.633	0.155	0.083
-683.281	-200.000	-0.047	0.257
-682.266	-79.341	0.298	0.101
-681.251	762.804	0.064	-0.174
-680.237	-200.000	0.047	-0.231
-679.222	-148.486	-0.039	0.003
-678.208	36.908	0.074	0.066
-677.193	-200.000	-0.040	-0.202
-676.178	656.216	-0.136	-0.348
-675.164	-123.045	0.233	-0.037
-674.149	800.000	0.048	0.188
-673.135	-200.000	-0.023	0.191
-672.120	-123.829	-0.138	-0.022
-671.105	493.059	-0.133	0.305
-670.091	38.721	-0.042	0.038
-669.076	-42.424	0.348	0.177
-668.062	231.437	0.155	0.254
-667.047	340.534	-0.162	-0.315
-666.032	-7.190	-0.218	0.147
-665.018	-54.243	0.301	-0.137
-664.003	800.000	0.086	-0.363
-662.989	-61.571	-0.208	0.087
-661.974	53.745	0.031	0.029
-660.959	21.112	0.082	0.067
-659.945	800.000	0.027	0.083
-658.930	-200.000	-0.004	0.049
-657.916	385.117	-0.039	-0.081
-656.901	239.075	0.160	-0.265
-655.886	-13.178	0.202	-0.131
-654.872	461.717	0.098	-0.218
-653.857	-132.292	-0.301	0.039
-652.843	325.669	-0.081	-0.155
-651.828	-200.000	0.037	0.400
-650.814	-62.834	0.181	0.075
-649.799	-108.700	-0.429	-0.092
-648.784	330.190	-0.115	0.220
-647.770	-200.000	0.000	0.339
-646.755	-200.000	0.126	0.642
-645.741	110.857	0.210	-0.252
-644.726	-177.951	-0.179	0.004
-643.711	57.416	0.246	-0.240
-642.697	800.000	-0.089	0.356
-641.682	-112.374	-0.109	0.022
-640.668	800.000	0.073	0.243
-639.653	170.997	-0.002	-0.003
-638.638	-200.000	-0.043	-0.470
-637.624	-9.635	-0.152	-0.101
-636.609	2.161	0.321	-0.231
-635.595	-44.367	-0.195	-0.097
-634.580	58.589	0.146	-0.143
-633.565	-35.733	-0.272	0.147
-632.551	-200.000	-0.001	0.030
-631.536	-200.000	-0.060	-0.373
-630.522	363.034	-0.102	0.205
-629.507	164.641	-0.082	-0.116
-628.492	176.327	0.263	-0.381
-627.478	-200.000	0.013	-0.340
-626.463	224.466	0.019	-0.031
-625.449	46.097	0.228	0.211
-624.434	-82.319	-0.239	0.078
-623.419	-85.170	-0.082	-0.025
-622.405	800.000	-0.045	-0.173
-621.390	70.011	-0.177	0.182
-620.376	673.552	0.116	0.300
-619.361	-200.000	-0.029	-0.138
-618.346	-2.630	-0.191	-0.133
-617.332	-200.000	-0.002	0.163
-616.317	-200.000	-0.056	0.301
-615.303	800.000	-0.010	0.043
-614.288	343.216	-0.210	0.409
-613.273	800.000	0.071	0.285
-612.259	95.072	0.067	0.076
-611.244	800.000	-0.117	-0.387
-610.230	-88.673	0.249	-0.074
-609.215	800.000	0.015	0.063
-608.201	-200.000	0.055	-0.405
-607.186	-200.000	0.014	-0.195
-606.171	318.032	-0.090	-0.170
-605.157	525.441	-0.100	-0.236
-604.142	800.000	0.032	0.119
-603.128	-141.123	-0.297	-0.030
-602.113	461.889	0.166	-0.368
-601.098	-66.057	-0.479	-0.190
-600.084	-182.557	-0.100	-0.002
-599.069	338.043	0.068	-0.131
-598.055	44.911	0.044	-0.040
-597.040	323.361	0.102	0.193
-596.025	-64.557	-0.263	-0.106
-595.011	-88.297	-0.224	0.067
-593.996	-200.000	0.006	0.239
-592.982	-64.989	-0.249	0.100
-591.967	-184.654	0.188	-0.003
-590.952	269.907	-0.059	0.103
-589.938	-125.007	0.349	0.053
-588.923	11.540	0.080	0.061
-587.909	-179.387	0.029	-0.001
-586.894	-200.000	0.036	-0.237
-585.879	800.000	0.084	0.307
-584.865	-139.983	0.331	0.035
-583.850	144.474	-0.104	-0.138
-582.836	-200.000	0.040	-0.332
-581.821	-200.000	-0.021	0.135
-580.806	-45.969	0.201	-0.099
-579.792	4.185	0.081	0.059
-578.777	-200.000	-0.057	-0.297
-577.763	-131.774	-0.343	0.045
-576.748	800.000	0.054	0.175
-575.733	-64.003	0.142	0.058
-574.719	-11.823	-0.121	0.079
-573.704	-36.775	-0.355	-0.190
-572.690	-109.444	-0.293	-0.062
-571.675	92.437	-0.083	0.093
-570.661	39.684	-0.234	0.209
-569.646	-18.316	0.126	-0.078
-568.631	-58.256	-0.165	-0.072
-567.617	96.679	0.129	-0.147
-566.602	64.856	0.044	-0.044
-565.588	800.000	-0.012	0.038
-564.573	-43.692	0.247	-0.124
-563.558	-80.968	0.119	-0.039
-562.544	-126.301	0.103	0.015
-561.529	7.323	0.217	0.162
-560.515	-115.938	-0.359	0.067
-559.500	737.531	0.028	-0.074
-558.485	-40.279	-0.127	-0.066
-557.471	800.000	-0.039	-0.144
-556.456	218.340	0.044	0.069
-555.442	278.672	0.090	0.160
-554.427	-47.622	0.059	-0.029
-553.412	-21.383	-0.186	0.113
-552.398	-70.711	0.236	-0.089
-551.383	102.777	0.147	0.171
-550.369	230.848	0.104	0.168
-549.354	82.914	0.132	0.143
-548.339	-54.940	0.191	-0.086
-547.325	248.749	0.094	0.158
-546.310	-0.765	0.313	0.221
-545.296	-35.161	-0.145	0.078
-544.281	135.286	-0.156	-0.201
-543.266	-20.755	0.060	-0.037
-542.252	-178.050	-0.309	0.007
-541.237	-200.000	0.018	-0.375
-540.223	-174.069	-0.031	0.001
-539.208	225.830	-0.133	0.214
-538.193	-104.770	0.212	0.049
-537.179	-148.555	0.435	0.035
-536.164	-200.000	-0.007	-0.239
-535.150	-200.000	-0.065	0.337
-534.135	800.000	-0.116	-0.337
-533.121	384.692	-0.074	-0.151
-532.106	110.241	-0.242	0.288
-531.091	-200.000	0.025	-0.145
-530.077	-74.508	-0.242	0.087
-529.062	-58.478	0.046	-0.020
-528.048	-71.617	-0.229	0.085
-527.033	79.686	0.171	-0.183
-526.018	-113.762	0.097	-0.019
-525.004	800.000	-0.006	-0.018
-523.989	-49.928	0.250	0.118
-522.975	204.850	-0.170	0.261
-521.960	0.767	0.130	-0.093
-520.945	-79.585	-0.266	0.089
-519.931	-74.417	0.207	0.074
-518.916	-20.127	0.045	-0.028
-517.902	800.000	-0.052	-0.152
-516.887	231.631	0.104	0.169
-515.872	653.830	-0.042	-0.107
-514.858	-23.021	-0.027	-0.016
-513.843	-63.083	-0.053	0.022
-512.829	-8.554	0.154	-0.103
-511.814	-24.598	0.069	-0.041
-510.799	800.000	0.045	0.182
-509.785	345.545	-0.061	-0.119
-508.770	442.805	0.076	-0.165
-507.756	614.290	-0.128	0.318
-506.741	-200.000	-0.046	-0.203
-505.726	-200.000	-0.023	0.131
-504.712	-13.086	-0.160	-0.103
-503.697	49.883	-0.143	0.134
-502.683	-146.659	0.639	-0.055
-501.668	550.971	-0.141	0.337
-500.653	-148.646	-0.347	0.028
-499.639	-109.996	-0.084	0.017
-498.624	10.720	0.094	0.071
-497.610	-124.584	0.037	0.006
-496.595	-73.480	0.077	-0.028
-495.581	171.496	0.097	-0.139
-494.566	174.195	0.160	0.230
-493.551	28.232	0.074	0.062
-492.537	-6.386	-0.063	0.043
-491.522	-60.385	0.359	-0.152
-490.508	113.227	-0.082	0.099
-489.493	58.806	0.206	0.201
-488.478	76.912	0.153	-0.161
-487.464	-152.187	-0.256	0.018
-486.449	-200.000	-0.008	-0.077
-485.435	16.402	-0.123	-0.096
-484.420	421.929	0.059	0.126
-483.405	-200.000	0.001	0.026
-482.391	1.262	-0.186	-0.133
-481.376	-7.930	-0.048	-0.032
-480.362	31.635	-0.431	-0.368
-479.347	-22.157	0.132	-0.079
-478.332	-6.575	0.022	-0.015
-477.318	13.276	-0.140	-0.107
-476.303	91.773	-0.095	0.106
-475.289	800.000	-0.012	-0.051
-474.274	-106.724	-0.183	-0.040
-473.259	-128.389	0.095	0.013
-472.245	800.000	-0.073	-0.224
-471.230	-176.247	-0.276	0.007
-470.216	20.434	0.129	0.103
-469.201	131.179	-0.075	0.096
-468.186	-152.575	-0.258	-0.018
-467.172	153.444	0.090	-0.121
-466.157	800.000	-0.033	0.098
-465.143	-200.000	-0.007	0.098
-464.128	-101.770	0.268	-0.064
-463.113	-86.267	-0.129	0.039
-462.099	800.000	-0.038	-0.130
-461.084	-10.254	0.188	-0.123
-460.070	2.760	-0.053	0.038
-459.055	-64.771	0.163	-0.065
-458.040	-52.033	-0.155	-0.071
-457.026	451.218	0.174	-0.381
-456.011	800.000	-0.030	0.100
-454.997	-65.323	0.325	0.129
-453.982	0.505	0.156	0.110
-452.968	-31.234	0.174	0.097
-451.953	-200.000	-0.025	-0.271
-450.938	41.722	0.077	0.069
-449.924	-112.347	-0.192	-0.038
-448.909	2.654	0.131	-0.094
-447.895	30.140	-0.176	-0.149
-446.880	52.130	0.167	-0.158
-445.865	-200.000	-0.020	0.577
-444.851	-17.423	-0.283	0.176
-443.836	-113.207	0.248	-0.048
-442.822	-200.000	-0.028	-0.123
-441.807	-81.678	-0.401	-0.130
-440.792	-135.784	-0.265	0.031
-439.778	-68.269	0.208	-0.080
-438.763	738.212	-0.040	-0.105
-437.749	504.362	-0.131	-0.300
-436.734	-70.016	0.256	0.096
-435.719	21.895	0.351	0.283
-434.705	24.524	-0.032	-0.026
-433.690	-123.403	0.327	0.052
-432.676	-11.352	-0.110	-0.071
-431.661	54.114	0.250	-0.238
-430.646	0.738	0.122	0.086
-429.632	-56.544	-0.054	0.024
-428.617	-200.000	0.017	0.212
-427.603	-186.458	-0.233	-0.003
-426.588	112.634	0.115	-0.138
-425.573	149.049	0.101	0.135
-424.559	209.989	0.051	-0.079
-423.544	230.314	0.205	0.331
-422.530	165.679	-0.209	-0.293
-421.515	-200.000	0.030	-0.298
-420.500	-200.000	-0.006	-0.055
-419.486	-16.226	-0.093	0.058
-418.471	-200.000	-0.036	-0.210
-417.457	-67.201	-0.205	-0.080
-416.442	155.382	-0.103	0.140
-415.428	-161.082	-0.190	-0.010
-414.413	-200.000	0.022	-0.133
-413.398	-103.853	-0.153	0.035
-412.384	-80.611	0.049	-0.016
-411.369	92.976	0.280	-0.312
-410.355	-200.000	0.018	-0.171
-409.340	-59.571	-0.230	0.098
-408.325	-88.939	0.126	-0.037
-407.311	275.029	-0.176	0.309
-406.296	-45.438	-0.316	0.155
-405.282	800.000	0.113	0.373
-404.267	21.949	-0.181	-0.146
-403.252	180.193	-0.162	0.235
-402.238	53.444	0.118	-0.112
-401.223	-200.000	-0.027	-0.249
-400.209	-0.785	0.062	-0.044
-399.194	360.348	0.193	-0.382
-398.179	159.049	-0.142	-0.195
-397.165	-100.933	-0.536	-0.130
-396.150	800.000	0.097	-0.290
-395.136	-81.672	-0.297	0.096
-394.121	800.000	-0.067	-0.279
-393.106	-54.099	0.236	0.106
-392.092	800.000	0.054	0.172
-391.077	-200.000	0.037	-0.381
-390.063	-200.000	-0.038	0.268
-389.048	50.430	-0.073	-0.068
-388.033	-71.204	-0.322	-0.119
-387.019	136.593	0.067	0.086
-386.004	76.414	0.071	-0.074
-384.990	-37.748	0.372	0.196
-383.975	18.508	-0.195	0.154
-382.960	-200.000	-0.042	-0.191
-381.946	800.000	0.135	-0.394
-380.931	-117.118	-0.260	0.047
-379.917	-80.559	0.192	-0.063
-378.902	-96.274	0.182	-0.048
-377.888	139.367	0.103	-0.134
-376.873	437.710	0.118	0.254
-375.858	653.672	-0.076	0.192
-374.844	73.157	0.235	0.243
-373.829	8.688	0.176	0.131
-372.815	223.862	0.217	-0.346
-371.800	365.904	-0.135	-0.268
-370.785	-200.000	-0.071	-0.419
-369.771	-55.201	-0.132	0.058
-368.756	-17.321	-0.043	-0.027
-367.742	21.867	-0.046	0.037
-366.727	297.706	0.118	0.214
-365.712	77.601	-0.067	0.070
-364.698	-200.000	-0.025	-0.276
-363.683	800.000	-0.009	-0.034
-362.669	-67.989	-0.249	-0.096
-361.654	-66.101	0.285	0.112
-360.639	-20.287	-0.239	0.145
-359.625	161.563	0.223	-0.308
-358.610	288.115	-0.163	0.292
-357.596	-106.475	-0.110	-0.024
-356.581	306.417	0.163	-0.300
-355.566	84.874	0.170	0.184
-354.552	50.773	0.230	0.215
-353.537	-26.747	0.372	0.215
-352.523	800.000	0.039	-0.117
-351.508	-200.000	-0.082	0.409
-350.493	-79.977	-0.061	0.020
-349.479	800.000	-0.031	0.126
-348.464	-124.953	0.321	-0.049
-347.450	78.214	-0.208	-0.219
-346.435	25.296	0.203	-0.166
-345.420	326.202	-0.133	-0.251
-344.406	-29.692	0.177	0.100
-343.391	99.859	-0.117	0.133
-342.377	-97.050	-0.254	-0.066
-341.362	55.815	-0.144	0.138
-340.348	84.412	-0.242	-0.260
-339.333	-66.296	-0.062	-0.024
-338.318	-105.040	-0.027	0.006
-337.304	207.054	0.120	0.184
-336.289	10.209	0.238	0.178
-335.275	-60.362	0.421	0.177
-334.260	-144.822	-0.224	-0.020
-333.245	-9.257	0.117	0.077
-332.231	-63.561	-0.217	0.088
-331.216	-35.658	-0.078	0.042
-330.202	-14.876	-0.169	0.107
-329.187	-200.000	-0.076	0.342
-328.172	84.164	-0.061	-0.065
-327.158	-51.429	0.112	0.051
-326.143	-200.000	-0.019	0.460
-325.129	-137.823	0.363	0.040
-324.114	-200.000	-0.019	0.198
-323.099	25.477	-0.264	0.216
-322.085	-200.000	-0.025	-0.221
-321.070	204.550	0.034	-0.052
-320.056	245.541	-0.228	-0.378
-319.041	-59.029	0.126	-0.054
-318.026	800.000	0.081	0.228
-317.012	-11.779	-0.273	0.177
-315.997	67.565	0.071	0.072
-314.983	-76.520	0.125	-0.043
-313.968	426.035	-0.065	0.139
-312.953	694.518	-0.069	-0.179
-311.939	75.741	0.133	-0.138
-310.924	-200.000	0.043	0.189
-309.910	57.531	0.081	-0.078
-308.895	800.000	0.063	0.224
-307.880	-144.283	-0.166	0.015
-306.866	-156.168	-0.131	-0.008
-305.851	-18.730	-0.237	-0.145
-304.837	-82.706	0.084	-0.027
-303.822	0.695	0.096	0.068
-302.807	121.951	-0.087	0.107
-301.793	32.216	0.141	0.120
-300.778	800.000	-0.044	-0.122
-299.764	52.047	0.295	0.277
-298.749	101.179	0.108	-0.124
-297.735	23.018	-0.087	-0.070
-296.720	-182.898	0.228	0.004
-295.705	-144.201	-0.243	0.022
-294.691	800.000	0.090	-0.278
-293.676	-37.652	0.152	-0.080
-292.662	-75.319	0.398	0.140
-291.647	-77.622	-0.173	-0.059
-290.632	132.848	-0.118	0.150
-289.618	-45.939	-0.377	-0.183
-288.603	-8.789	0.099	0.065
-287.589	105.134	-0.222	0.258
-286.574	800.000	0.128	-0.454
-285.559	-200.000	-0.004	0.054
-284.545	-200.000	0.007	-0.073
-283.530	-200.000	-0.020	0.112
-282.516	661.063	-0.062	0.156
-281.501	-200.000	0.019	-0.258
-280.486	350.486	-0.039	-0.077
-279.472	36.992	-0.162	-0.141
-278.457	-20.005	-0.216	-0.131
-277.443	752.862	0.044	-0.118
-276.428	547.388	-0.143	-0.336
-275.413	-167.722	-0.277	0.011
-274.399	11.137	-0.029	-0.022
-273.384	-200.000	0.041	-0.179
-272.370	-200.000	-0.008	0.195
-271.355	136.640	-0.028	-0.036
-270.340	-88.536	-0.164	0.048
-269.326	-200.000	0.001	-0.338
-268.311	425.875	-0.102	-0.217
-267.297	-192.736	0.219	-0.002
-266.282	292.882	0.028	-0.049
-265.267	800.000	0.072	0.212
-264.253	295.002	0.062	-0.112
-263.238	-81.205	0.245	-0.079
-262.224	-130.769	-0.250	0.033
-261.209	-46.120	0.266	0.129
-260.195	0.386	-0.038	0.027
-259.180	-88.458	-0.397	0.116
-258.165	-102.906	0.193	0.045
-257.151	281.940	-0.068	0.119
-256.136	-78.848	-0.268	0.090
-255.122	800.000	0.057	-0.192
-254.107	85.884	0.128	0.138
-253.092	30.703	0.335	0.281
-252.078	-200.000	-0.019	0.167
-251.063	-31.045	0.201	0.112
-250.049	-178.345	-0.434	0.010
-249.034	157.124	0.125	0.170
-248.019	-12.021	0.025	-0.016
-247.005	-200.000	-0.009	-0.068
-245.990	33.821	-0.122	-0.104
-244.976	-71.346	0.117	0.043
-243.961	-200.000	-0.037	-0.210
-242.946	-103.275	0.194	0.045
-241.932	-80.194	0.163	-0.054
-240.917	292.280	0.049	0.087
-239.903	-11.365	-0.207	0.134
-238.888	-190.166	0.194	-0.002
-237.873	136.943	0.089	0.115
-236.859	-196.831	0.213	-0.001
-235.844	167.325	0.134	-0.187
-234.830	-200.000	0.014	-0.197
-233.815	202.489	-0.080	0.121
-232.800	-184.373	0.413	0.007
-231.786	-200.000	-0.023	0.524
-230.771	-10.895	-0.115	0.075
-229.757	435.184	0.144	0.308
-228.742	-200.000	-0.059	-0.336
-227.727	129.966	0.117	0.147
-226.713	-200.000	0.016	0.279
-225.698	-200.000	0.004	0.170
-224.684	204.011	-0.219	0.333
-223.669	800.000	0.079	0.236
-222.655	-200.000	-0.005	-0.336
-221.640	-15.725	-0.130	-0.081
-220.625	-200.000	-0.000	-0.226
-219.611	500.276	0.148	0.334
-218.596	191.975	-0.225	0.333
-217.582	-19.651	0.109	0.066
-216.567	-2.918	-0.063	-0.044
-215.552	-200.000	-0.036	0.359
-214.538	800.000	-0.044	-0.136
-213.523	-186.129	0.071	-0.001
-212.509	100.570	0.053	-0.060
-211.494	146.238	0.030	0.040
-210.479	-67.964	0.141	0.054
-209.465	317.723	0.128	0.237
-208.450	160.770	-0.156	-0.214
-207.436	16.791	0.244	-0.190
-206.421	-88.626	-0.052	0.015
-205.406	358.334	0.079	0.154
-204.392	-63.550	-0.189	0.076
-203.377	-106.535	0.010	0.002
-202.363	34.996	0.182	-0.156
-201.348	81.428	0.072	-0.077
-200.333	-152.640	-0.197	0.014
-199.319	-36.566	0.088	0.047
-198.304	800.000	-0.029	0.119
-197.290	-83.937	-0.027	-0.008
-196.275	-42.250	-0.250	-0.125
-195.260	-96.797	0.331	-0.085
-194.246	684.789	-0.045	-0.116
-193.231	9.644	-0.125	-0.093
-192.217	75.415	0.149	-0.154
-191.202	19.873	-0.098	0.077
-190.187	-128.611	0.195	0.027
-189.173	84.439	-0.144	-0.154
-188.158	-200.000	-0.013	-0.304
-187.144	-119.783	0.257	0.043
-186.129	-200.000	0.057	0.271
-185.114	-44.156	-0.107	0.052
-184.100	-200.000	-0.008	-0.126
-183.085	-22.859	-0.247	-0.146
-182.071	-200.000	-0.004	-0.497
-181.056	-200.000	0.002	0.047
-180.042	800.000	0.028	0.108
-179.027	76.856	0.147	0.153
-178.012	443.078	-0.045	-0.096
-176.998	185.643	-0.020	-0.029
-175.983	-73.142	0.167	-0.060
-174.969	-92.009	0.359	0.100
-173.954	-200.000	-0.046	0.233
-172.939	-46.288	0.124	-0.060
-171.925	256.047	-0.042	0.070
-170.910	131.418	0.185	0.232
-169.896	-200.000	-0.014	0.243
-168.881	-200.000	-0.048	0.366
-167.866	34.802	0.050	0.043
-166.852	198.620	0.165	-0.248
-165.837	138.046	0.113	0.146
-164.823	-200.000	0.023	0.228
-163.808	800.000	-0.024	-0.067
-162.793	-18.917	-0.185	0.113
-161.779	800.000	-0.027	-0.083
-160.764	474.392	0.066	-0.145
-159.750	-135.622	-0.226	-0.026
-158.735	42.393	-0.088	-0.078
-157.720	103.491	-0.162	-0.186
-156.706	723.984	0.122	-0.318
-155.691	-200.000	-0.005	0.055
-154.677	-197.569	-0.126	0.001
-153.662	266.216	-0.132	0.226
-152.647	12.325	0.167	0.126
-151.633	-148.531	0.088	-0.007
-150.618	-200.000	-0.009	-0.039
-149.604	103.764	0.047	0.055
-148.589	-200.000	0.016	-0.096
-147.574	-28.374	0.076	0.043
-146.560	20.922	0.149	0.118
-145.545	-84.509	-0.203	0.063
-144.531	14.471	0.105	-0.080
-143.516	-133.927	0.338	-0.041
-142.502	-4.749	0.099	-0.067
-141.487	-0.319	0.167	0.116
-140.472	56.303	-0.160	-0.152
-139.458	-17.699	0.197	0.121
-138.443	-7.302	-0.064	0.043
-137.429	391.943	0.187	-0.379
-136.414	-14.149	-0.384	-0.242
-135.399	-200.000	-0.011	-0.074
-134.385	-100.954	-0.164	-0.039
-133.370	-200.000	-0.025	0.197
-132.356	-59.659	0.247	-0.104
-131.341	383.171	0.180	0.361
-130.326	-165.788	0.307	0.013
-129.312	-200.000	0.024	0.152
-128.297	-200.000	0.035	0.316
-127.283	-105.996	-0.154	0.034
-126.268	255.600	0.083	-0.138
-125.253	181.132	-0.173	-0.248
-124.239	-172.421	0.201	0.006
-123.224	800.000	0.042	-0.134
-122.210	-29.689	0.318	-0.177
-121.195	158.752	0.067	-0.091
-120.180	38.119	0.165	-0.143
