DTS Sentinel unit serial number:	SN413079Multiplexer serial number:	ORYXHardware model number:	OX4-SRSoftware version number:	ORYX F/W v4.00 Oryx Data Collector v3.7.2.0data status	okinstallation	princeton_trtdifferential loss correction	single-endedforward channel	channel 3reverse channel	N/Adate	2019/09/14time	21:28:34forward acquisition time	60.00reverse acquisition time	0.00gamma	496.2192k internal	0.2318k external	0.2318temperature offset calibration	0.9994default loss term (dB/km)	0.3790temperature slope calibration	1.0000multiplexer offset coefficient	1.0000multiplexer slope coefficient	1.0000fibre end	0.00T internal ref (°C)	32.89T ext. ref 1 (°C)	4.77T ext. ref 2 (°C)	27.74length (m)	temperature (°C)	Stokes	anti-Stokes-747.200	142.209	0.048	-0.064
-746.185	11.827	-0.276	0.214
-745.171	637.708	0.044	0.113
-744.156	24.994	0.100	0.084
-743.142	-103.849	-0.153	0.036
-742.127	800.000	-0.028	0.122
-741.112	-187.916	0.370	0.005
-740.098	800.000	0.039	-0.116
-739.083	800.000	0.089	0.305
-738.069	-200.000	-0.016	0.202
-737.054	-200.000	-0.009	0.141
-736.039	-97.643	0.303	0.079
-735.025	149.653	0.148	-0.203
-734.010	297.695	-0.090	0.168
-732.996	54.470	-0.313	-0.305
-731.981	-8.070	-0.106	-0.073
-730.966	309.455	0.146	0.276
-729.952	-200.000	-0.024	-0.215
-728.937	12.124	0.081	-0.063
-727.923	1.367	-0.234	0.170
-726.908	56.571	-0.308	-0.303
-725.894	800.000	-0.088	-0.344
-724.879	-19.592	-0.158	0.099
-723.864	-111.267	0.238	0.049
-722.850	150.924	-0.111	0.153
-721.835	564.212	-0.150	-0.367
-720.821	-121.851	-0.212	0.035
-719.806	158.964	0.151	0.212
-718.791	800.000	0.085	-0.354
-717.777	-200.000	0.037	-0.328
-716.762	-76.700	0.173	-0.061
-715.748	-98.188	-0.243	0.063
-714.733	-200.000	0.120	-0.599
-713.718	3.673	-0.101	-0.074
-712.704	28.979	0.071	0.061
-711.689	152.767	-0.030	-0.042
-710.675	358.115	0.066	0.133
-709.660	-180.133	-0.277	-0.006
-708.645	168.542	-0.111	-0.161
-707.631	-6.467	0.348	0.240
-706.616	-55.575	-0.391	-0.177
-705.602	-32.644	0.351	-0.197
-704.587	103.278	0.171	-0.202
-703.572	-77.568	-0.190	-0.066
-702.558	-186.666	0.408	-0.006
-701.543	221.938	-0.075	0.121
-700.529	-200.000	-0.046	-0.348
-699.514	-70.379	-0.403	0.154
-698.499	-16.980	-0.081	0.052
-697.485	-40.382	-0.348	-0.183
-696.470	-106.948	0.417	0.093
-695.456	318.738	-0.102	0.195
-694.441	128.220	0.298	-0.383
-693.426	-158.232	0.093	0.006
-692.412	502.980	-0.070	-0.163
-691.397	40.312	-0.239	0.217
-690.383	800.000	-0.081	-0.306
-689.368	-97.105	0.401	-0.106
-688.354	-200.000	-0.022	0.191
-687.339	-145.608	0.402	-0.036
-686.324	-82.804	-0.452	-0.148
-685.310	-110.495	-0.207	0.043
-684.295	-200.000	-0.010	0.293
-683.281	-10.750	-0.162	0.108
-682.266	-59.745	-0.257	0.111
-681.251	800.000	-0.049	-0.201
-680.237	800.000	-0.057	0.211
-679.222	-66.498	-0.241	0.096
-678.208	-100.940	-0.066	0.016
-677.193	766.843	-0.029	-0.080
-676.178	-88.521	-0.280	0.084
-675.164	-21.095	-0.205	-0.126
-674.149	179.067	0.086	-0.126
-673.135	-200.000	0.021	0.097
-672.120	-200.000	0.050	-0.368
-671.105	-129.049	-0.113	0.016
-670.091	-124.138	-0.218	0.035
-669.076	-123.406	0.494	0.080
-668.062	162.490	-0.050	-0.071
-667.047	-81.443	0.203	0.067
-666.032	-141.415	-0.166	-0.017
-665.018	112.042	-0.115	0.140
-664.003	-120.661	-0.127	0.022
-662.989	800.000	0.050	-0.151
-661.974	-50.257	-0.169	-0.080
-660.959	649.166	0.046	-0.119
-659.945	86.597	-0.065	-0.073
-658.930	77.187	0.105	0.113
-657.916	115.118	0.107	0.131
-656.901	185.403	0.081	0.121
-655.886	-200.000	-0.067	0.361
-654.872	136.573	0.024	0.032
-653.857	88.471	0.083	0.093
-652.843	-191.242	0.073	0.001
-651.828	240.468	-0.106	-0.178
-650.814	30.939	0.145	-0.125
-649.799	-200.000	-0.014	-0.082
-648.784	-200.000	0.002	0.052
-647.770	111.808	0.062	0.076
-646.755	7.353	0.273	0.205
-645.741	-71.461	0.113	-0.043
-644.726	-200.000	-0.016	0.203
-643.711	714.584	-0.075	0.201
-642.697	49.246	0.184	0.174
-641.682	-62.754	-0.196	0.082
-640.668	336.199	-0.011	-0.021
-639.653	-89.817	0.031	0.009
-638.638	-200.000	0.004	0.119
-637.624	-104.406	0.123	0.029
-636.609	-63.135	-0.149	-0.062
-635.595	-144.058	0.043	-0.004
-634.580	-108.689	-0.263	-0.057
-633.565	48.986	-0.180	-0.170
-632.551	41.945	0.255	0.233
-631.536	120.201	-0.163	-0.204
-630.522	800.000	0.019	-0.082
-629.507	-200.000	0.026	0.311
-628.492	128.883	-0.224	-0.288
-627.478	-114.118	-0.031	-0.006
-626.463	800.000	-0.064	-0.267
-625.449	-77.212	0.302	-0.106
-624.434	-76.011	0.054	-0.019
-623.419	-200.000	0.002	-0.280
-622.405	-200.000	0.030	-0.150
-621.390	-200.000	0.007	-0.212
-620.376	-107.732	0.273	-0.060
-619.361	198.352	-0.051	-0.078
-618.346	15.470	0.100	-0.079
-617.332	-200.000	0.016	-0.235
-616.317	-174.705	-0.343	0.010
-615.303	800.000	-0.171	-0.489
-614.288	142.798	-0.121	0.161
-613.273	182.119	-0.037	0.056
-612.259	90.770	0.064	0.072
-611.244	245.891	0.089	-0.152
-610.230	44.579	-0.090	-0.083
-609.215	232.485	-0.160	-0.264
-608.201	-200.000	-0.005	0.056
-607.186	20.927	0.216	-0.176
-606.171	-97.507	0.031	-0.008
-605.157	100.999	-0.149	0.174
-604.142	-200.000	0.019	0.180
-603.128	65.892	0.274	-0.279
-602.113	-177.212	-0.220	0.006
-601.098	-101.008	0.398	-0.098
-600.084	-200.000	0.007	-0.282
-599.069	159.373	-0.042	-0.058
-598.055	163.061	-0.155	-0.219
-597.040	145.685	0.116	-0.156
-596.025	-138.251	0.180	0.020
-595.011	160.853	-0.292	-0.411
-593.996	19.451	-0.206	-0.166
-592.982	127.355	-0.118	0.150
-591.967	743.544	-0.092	0.248
-590.952	800.000	-0.045	0.134
-589.938	-42.252	-0.111	-0.057
-588.923	-0.563	-0.047	0.034
-587.909	257.621	-0.082	0.142
-586.894	800.000	-0.114	-0.410
-585.879	-4.373	0.254	-0.177
-584.865	-200.000	0.004	0.278
-583.850	800.000	0.049	0.137
-582.836	-80.369	0.371	-0.125
-581.821	-55.490	0.060	0.027
-580.806	-64.360	-0.256	-0.105
-579.792	800.000	0.040	0.142
-578.777	339.733	-0.077	0.152
-577.763	97.232	-0.171	0.197
-576.748	214.940	-0.224	-0.357
-575.733	-200.000	-0.010	0.142
-574.719	-125.637	-0.102	-0.016
-573.704	21.540	-0.098	0.081
-572.690	-200.000	0.045	0.283
-571.675	186.286	-0.268	-0.400
-570.661	800.000	-0.060	0.190
-569.646	-128.770	-0.291	0.041
-568.631	541.440	0.079	-0.190
-567.617	-101.606	0.121	-0.030
-566.602	14.739	-0.189	-0.149
-565.588	202.235	-0.105	-0.163
-564.573	-3.259	-0.354	0.248
-563.558	351.651	0.074	-0.147
-562.544	-54.530	0.504	-0.229
-561.529	-25.908	0.201	-0.119
-560.515	-119.264	0.094	0.016
-559.500	-200.000	-0.070	-0.315
-558.485	-200.000	-0.053	0.326
-557.471	800.000	0.061	-0.222
-556.456	87.020	0.120	0.134
-555.442	36.847	-0.242	0.215
-554.427	131.877	-0.048	-0.063
-553.412	50.036	-0.071	0.067
-552.398	35.709	0.206	0.182
-551.383	-3.649	0.390	-0.272
-550.369	-122.987	0.179	-0.029
-549.354	664.305	0.051	0.133
-548.339	482.880	-0.078	0.179
-547.325	79.784	0.066	0.071
-546.310	-200.000	-0.021	-0.153
-545.296	-90.366	0.198	0.058
-544.281	-200.000	0.022	-0.237
-543.266	548.952	0.120	0.289
-542.252	-56.447	0.112	-0.050
-541.237	8.882	-0.198	0.150
-540.223	-92.166	0.193	0.055
-539.208	-38.203	-0.203	0.108
-538.193	-44.861	0.024	-0.012
-537.179	32.904	0.127	0.110
-536.164	-59.987	-0.235	0.101
-535.150	300.407	0.026	-0.048
-534.135	-14.787	0.220	-0.142
-533.121	800.000	0.101	0.361
-532.106	-89.060	0.118	0.035
-531.091	-104.874	0.281	-0.065
-530.077	143.256	-0.160	-0.214
-529.062	-200.000	0.001	0.115
-528.048	-200.000	-0.027	-0.185
-527.033	-73.625	-0.380	0.139
-526.018	-200.000	0.025	-0.302
-525.004	-8.199	0.092	-0.062
-523.989	800.000	-0.028	0.108
-522.975	54.001	0.150	0.145
-521.960	386.969	0.138	0.286
-520.945	-70.440	0.332	0.126
-519.931	-62.850	-0.137	-0.057
-518.916	797.078	0.154	0.425
-517.902	796.140	0.057	0.157
-516.887	-142.662	0.159	-0.016
-515.872	-200.000	0.009	0.473
-514.858	-149.141	0.212	0.017
-513.843	800.000	-0.015	0.055
-512.829	-117.717	-0.446	-0.081
-511.814	20.414	0.171	0.139
-510.799	800.000	-0.083	-0.317
-509.785	-96.284	0.242	0.064
-508.770	65.990	0.060	-0.061
-507.756	248.664	0.167	-0.284
-506.741	91.587	0.021	0.024
-505.726	24.410	0.163	0.135
-504.712	-12.497	0.232	0.152
-503.697	330.845	0.053	-0.103
-502.683	44.707	0.264	0.244
-501.668	-200.000	-0.039	-0.228
-500.653	49.698	-0.259	0.245
-499.639	-200.000	-0.009	-0.068
-498.624	92.935	-0.201	0.227
-497.610	-200.000	-0.026	0.181
-496.595	39.498	-0.158	-0.141
-495.581	-87.025	0.199	-0.061
-494.566	34.960	-0.050	0.043
-493.551	-142.645	-0.261	-0.026
-492.537	-10.093	-0.218	0.145
-491.522	-200.000	-0.023	-0.262
-490.508	32.387	-0.087	-0.075
-489.493	380.251	0.233	-0.478
-488.478	-75.103	-0.301	-0.108
-487.464	-156.627	0.262	0.016
-486.449	-86.007	0.178	-0.055
-485.435	-101.018	0.256	0.063
-484.420	182.403	-0.232	0.343
-483.405	-4.174	0.110	0.076
-482.391	-60.486	0.119	-0.051
-481.376	-159.542	-0.187	-0.010
-480.362	214.156	0.069	-0.109
-479.347	37.720	0.069	-0.061
-478.332	508.620	0.086	0.200
-477.318	-200.000	-0.005	0.214
-476.303	84.692	0.125	0.137
-475.289	-75.755	-0.245	0.087
-474.274	92.693	-0.054	-0.062
-473.259	-18.116	-0.208	-0.131
-472.245	-115.380	0.194	-0.037
-471.230	42.871	0.232	0.212
-470.216	429.496	0.092	-0.198
-469.201	-200.000	-0.039	0.304
-468.186	114.919	0.038	-0.046
-467.172	-14.001	0.147	-0.095
-466.157	41.039	-0.175	0.158
-465.143	-58.068	-0.292	0.127
-464.128	800.000	0.016	0.058
-463.113	0.891	0.256	-0.184
-462.099	167.442	0.110	0.156
-461.084	-34.021	-0.075	0.041
-460.070	-87.714	-0.333	0.101
-459.055	-46.890	0.282	-0.138
-458.040	-52.122	-0.123	0.057
-457.026	182.520	-0.191	-0.282
-456.011	800.000	-0.060	0.217
-454.997	-78.636	-0.321	-0.110
-453.982	-15.533	-0.227	0.145
-452.968	270.928	0.097	-0.171
-451.953	260.906	0.093	0.161
-450.938	-200.000	0.022	-0.146
-449.924	223.469	0.121	-0.195
-448.909	800.000	0.083	0.308
-447.895	224.554	0.203	0.328
-446.880	53.154	0.091	0.087
-445.865	-200.000	-0.036	-0.297
-444.851	-119.918	0.113	0.019
-443.836	10.418	0.482	0.367
-442.822	-106.796	-0.114	-0.025
-441.807	-17.854	-0.436	0.273
-440.792	158.376	-0.120	-0.167
-439.778	-33.398	-0.197	-0.109
-438.763	-185.904	-0.382	-0.006
-437.749	-45.830	0.013	-0.007
-436.734	8.913	-0.399	-0.301
-435.719	221.687	-0.130	-0.208
-434.705	-68.122	-0.430	0.168
-433.690	393.427	-0.104	0.217
-432.676	255.776	0.035	-0.060
-431.661	-52.170	-0.182	0.084
-430.646	152.379	-0.257	0.351
-429.632	800.000	0.110	0.378
-428.617	2.948	0.056	-0.041
-427.603	42.867	-0.275	0.251
-426.588	52.829	-0.182	-0.174
-425.573	114.672	-0.204	-0.249
-424.559	-200.000	-0.145	0.000
-423.544	-61.617	0.106	0.045
-422.530	-169.810	-0.510	0.018
-421.515	-76.674	-0.054	-0.019
-420.500	-129.739	0.114	0.016
-419.486	-12.172	-0.290	-0.190
-418.471	340.452	-0.019	0.038
-417.457	-200.000	0.007	0.075
-416.442	-136.996	0.141	0.016
-415.428	-37.274	-0.308	-0.165
-414.413	-33.168	-0.119	-0.066
-413.398	31.861	-0.217	-0.187
-412.384	342.270	-0.165	0.322
-411.369	-200.000	-0.030	-0.136
-410.355	-200.000	-0.014	0.116
-409.340	-6.314	0.147	0.100
-408.325	166.143	0.150	0.213
-407.311	-117.897	0.240	-0.043
-406.296	-32.140	-0.213	0.119
-405.282	-116.650	0.573	-0.105
-404.267	-52.928	0.206	-0.095
-403.252	21.862	-0.165	-0.134
-402.238	331.865	0.085	0.164
-401.223	-111.077	-0.175	0.036
-400.209	-173.651	-0.101	-0.003
-399.194	-95.550	0.230	0.062
-398.179	-129.370	0.315	-0.044
-397.165	306.546	-0.132	-0.246
-396.150	-88.567	-0.224	0.067
-395.136	234.433	-0.047	0.078
-394.121	-101.077	0.216	-0.053
-393.106	607.178	-0.087	-0.217
-392.092	-44.756	-0.199	0.099
-391.077	-142.528	-0.333	-0.033
-390.063	-117.466	0.189	-0.034
-389.048	107.274	0.245	-0.290
-388.033	-24.708	-0.059	0.035
-387.019	154.278	0.209	-0.286
-386.004	-79.340	0.041	0.014
-384.990	36.119	-0.222	0.195
-383.975	-71.246	-0.249	-0.093
-382.960	-200.000	0.090	0.000
-381.946	424.023	0.125	-0.267
-380.931	-33.894	-0.066	-0.036
-379.917	-200.000	0.013	0.174
-378.902	800.000	0.089	-0.280
-377.888	395.462	0.048	-0.101
-376.873	149.360	-0.147	-0.198
-375.858	424.672	-0.020	-0.043
-374.844	-76.194	0.322	-0.113
-373.829	-186.583	0.270	0.004
-372.815	244.998	-0.187	-0.313
-371.800	236.075	-0.224	-0.369
-370.785	515.411	0.046	-0.106
-369.771	161.874	-0.143	-0.200
-368.756	-42.068	0.145	0.074
-367.742	-86.647	0.030	0.009
-366.727	-200.000	0.028	0.244
-365.712	-115.362	0.040	-0.008
-364.698	-121.979	-0.191	-0.031
-363.683	-79.573	-0.336	-0.113
-362.669	752.400	-0.057	-0.153
-361.654	800.000	-0.085	-0.275
-360.639	-34.988	-0.086	0.047
-359.625	136.798	0.133	0.173
-358.610	80.768	-0.111	-0.119
-357.596	798.964	-0.075	0.207
-356.581	162.550	0.113	-0.158
-355.566	22.202	-0.183	-0.149
-354.552	-48.802	0.265	0.127
-353.537	397.875	-0.048	0.100
-352.523	800.000	-0.011	-0.032
-351.508	738.065	-0.046	0.124
-350.493	-56.673	-0.215	-0.095
-349.479	298.336	0.114	0.209
-348.464	61.095	0.222	0.219
-347.450	-115.391	-0.180	0.034
-346.435	87.057	0.081	0.089
-345.420	42.452	0.107	0.097
-344.406	75.033	0.134	-0.141
-343.391	-30.993	-0.091	-0.051
-342.377	800.000	0.024	0.069
-341.362	320.253	0.223	0.422
-340.348	-150.305	0.309	0.024
-339.333	-94.089	-0.249	0.068
-338.318	-200.000	0.027	0.160
-337.304	-200.000	-0.032	-0.209
-336.289	-33.131	-0.088	-0.048
-335.275	-166.585	-0.008	-0.000
-334.260	-74.646	0.305	-0.109
-333.245	-200.000	-0.153	0.682
-332.231	112.655	0.102	0.124
-331.216	800.000	-0.018	0.064
-330.202	39.075	0.233	0.207
-329.187	-79.297	-0.259	-0.088
-328.172	117.820	-0.149	-0.183
-327.158	-56.211	0.203	-0.090
-326.143	-123.606	-0.483	0.076
-325.129	8.354	-0.119	0.089
-324.114	201.089	-0.057	-0.087
-323.099	-48.244	-0.027	-0.013
-322.085	-164.586	0.262	-0.012
-321.070	467.658	-0.125	0.279
-320.056	-89.466	0.093	-0.027
-319.041	117.973	0.020	-0.025
-318.026	296.047	0.124	0.227
-317.012	131.269	-0.094	-0.120
-315.997	-160.990	0.267	-0.014
-314.983	-160.380	-0.249	0.013
-313.968	800.000	-0.071	0.256
-312.953	9.786	0.329	0.248
-311.939	-26.138	0.183	0.107
-310.924	-19.150	0.163	-0.101
-309.910	69.120	0.163	0.167
-308.895	-80.835	0.116	0.038
-307.880	800.000	0.017	0.065
-306.866	-155.866	-0.122	-0.008
-305.851	219.408	-0.011	-0.017
-304.837	170.989	-0.070	0.099
-303.822	-58.404	-0.169	-0.073
-302.807	297.787	0.207	0.379
-301.793	-81.824	0.063	0.021
-300.778	729.886	-0.033	-0.087
-299.764	-200.000	0.021	-0.196
-298.749	800.000	0.037	-0.128
-297.735	17.385	0.123	0.097
-296.720	-85.384	-0.298	-0.092
-295.705	172.031	-0.123	-0.176
-294.691	-200.000	0.011	-0.059
-293.676	126.248	0.217	0.273
-292.662	800.000	0.063	0.212
-291.647	-48.003	-0.179	-0.086
-290.632	72.822	0.073	-0.076
-289.618	193.108	0.182	-0.273
-288.603	-122.641	-0.122	0.020
-287.589	-6.771	-0.236	-0.160
-286.574	-71.032	0.325	-0.122
-285.559	9.690	0.061	-0.046
-284.545	-40.467	0.256	0.132
-283.530	-52.502	-0.150	0.069
-282.516	394.030	-0.020	0.042
-281.501	210.762	-0.167	-0.261
-280.486	125.245	-0.126	-0.158
-279.472	354.963	0.175	-0.346
-278.457	288.858	-0.236	-0.425
-277.443	800.000	-0.007	-0.025
-276.428	119.522	0.323	0.398
-275.413	190.684	0.330	-0.492
-274.399	-113.515	0.307	-0.060
-273.384	10.520	0.349	0.264
-272.370	338.632	0.015	-0.029
-271.355	-99.385	0.068	-0.017
-270.340	-140.445	-0.084	0.009
-269.326	160.349	0.012	-0.017
-268.311	507.757	-0.067	-0.154
-267.297	-132.296	-0.095	0.012
-266.282	-85.174	-0.047	0.014
-265.267	32.929	0.348	0.299
-264.253	-107.641	-0.085	0.018
-263.238	-121.173	0.352	-0.059
-262.224	800.000	0.059	-0.222
-261.209	-200.000	-0.086	-0.405
-260.195	166.025	0.108	0.151
-259.180	-53.263	0.112	-0.051
-258.165	-122.214	0.100	0.016
-257.151	-158.402	0.126	-0.007
-256.136	-200.000	0.038	-0.180
-255.122	-102.380	0.422	0.100
-254.107	800.000	0.034	-0.119
-253.092	-200.000	0.023	-0.120
-252.078	-200.000	-0.009	0.366
-251.063	202.545	0.177	-0.272
-250.049	-200.000	0.057	-0.575
-249.034	90.227	-0.015	0.016
-248.019	13.932	-0.150	0.116
-247.005	32.635	0.198	-0.170
-245.990	190.053	0.128	-0.191
-244.976	-25.266	0.304	0.178
-243.961	127.861	0.169	0.213
-242.946	182.512	-0.201	0.294
-241.932	-191.830	-0.316	0.003
-240.917	22.965	-0.061	-0.049
-239.903	-200.000	0.228	-0.001
-238.888	124.866	-0.230	-0.287
-237.873	-200.000	0.028	0.424
-236.859	-49.507	-0.236	0.112
-235.844	223.028	-0.075	0.119
-234.830	92.568	-0.290	0.324
-233.815	-8.020	-0.111	0.075
-232.800	3.906	-0.272	0.197
-231.786	-200.000	0.012	0.068
-230.771	-200.000	0.070	-0.382
-229.757	388.142	-0.072	0.149
-228.742	800.000	-0.045	0.185
-227.727	230.410	0.034	0.055
-226.713	-200.000	0.035	0.182
-225.698	319.815	0.097	0.182
-224.684	77.019	-0.152	-0.160
-223.669	173.160	0.053	-0.076
-222.655	-1.090	0.007	-0.005
-221.640	9.359	-0.057	-0.043
-220.625	-78.331	0.340	0.116
-219.611	800.000	-0.038	-0.151
-218.596	800.000	0.049	-0.201
-217.582	-54.556	-0.271	0.122
-216.567	-52.054	-0.244	-0.112
-215.552	550.835	0.105	0.251
-214.538	-76.240	-0.163	0.057
-213.523	-146.586	0.190	-0.016
-212.509	612.306	-0.104	0.257
-211.494	-126.109	-0.188	0.028
-210.479	-100.923	-0.219	-0.053
-209.465	800.000	-0.015	-0.050
-208.450	-105.364	0.216	-0.049
-207.436	-200.000	-0.054	-0.249
-206.421	-16.629	0.251	-0.158
-205.406	39.046	0.194	-0.172
-204.392	162.916	0.143	0.198
-203.377	-200.000	-0.023	0.277
-202.363	-88.658	0.048	-0.014
-201.348	-200.000	-0.003	-0.299
-200.333	-5.958	-0.217	-0.147
-199.319	177.667	0.227	-0.328
-198.304	317.122	0.120	-0.225
-197.290	-123.330	0.276	0.044
-196.275	-200.000	0.007	-0.050
-195.260	-31.174	0.380	0.212
-194.246	-200.000	0.035	-0.174
-193.231	-64.760	-0.354	-0.142
-192.217	29.526	0.055	-0.046
-191.202	-29.750	0.315	0.178
-190.187	800.000	-0.019	-0.060
-189.173	-200.000	0.071	0.361
-188.158	48.068	-0.144	-0.133
-187.144	-200.000	0.011	-0.238
-186.129	-58.393	-0.259	0.111
-185.114	76.018	-0.169	0.177
-184.100	179.171	-0.097	-0.140
-183.085	182.091	0.110	0.161
-182.071	-37.023	-0.092	-0.049
-181.056	-5.432	0.229	0.156
-180.042	236.785	0.141	0.232
-179.027	-67.200	0.149	0.058
-178.012	-40.412	-0.331	0.170
-176.998	-150.440	-0.118	-0.009
-175.983	498.257	0.157	-0.357
-174.969	-100.584	0.139	0.034
-173.954	412.763	-0.144	0.304
-172.939	259.823	0.119	0.203
-171.925	615.099	0.115	0.284
-170.910	25.834	-0.123	0.101
-169.896	-0.327	-0.271	0.191
-168.881	-200.000	-0.001	0.110
-167.866	-200.000	0.003	0.025
-166.852	-74.227	0.391	0.140
-165.837	-62.298	0.058	-0.024
-164.823	-59.469	-0.295	0.125
-163.808	-99.964	-0.082	0.020
-162.793	419.752	-0.101	0.214
-161.779	-111.665	-0.159	-0.032
-160.764	314.599	-0.093	-0.174
-159.750	-200.000	-0.052	-0.278
-158.735	-135.989	-0.078	-0.009
-157.720	737.674	-0.134	-0.355
-156.706	-98.037	0.044	-0.011
-155.691	-200.000	-0.013	-0.165
-154.677	126.599	-0.188	-0.236
-153.662	228.357	0.043	-0.070
-152.647	168.973	-0.035	0.049
-151.633	800.000	-0.120	0.342
-150.618	129.964	-0.146	0.185
-149.604	-160.118	-0.298	0.016
-148.589	40.874	-0.283	0.253
-147.574	-100.563	0.319	0.078
-146.560	-114.067	0.286	0.055
-145.545	-69.424	0.186	0.070
-144.531	56.903	-0.229	0.221
-143.516	-56.419	-0.077	-0.034
-142.502	408.161	0.100	0.208
-141.487	800.000	0.043	-0.125
-140.472	-44.380	-0.267	0.132
-139.458	-53.906	-0.283	0.127
-138.443	-200.000	-0.036	0.275
-137.429	33.894	0.134	0.115
-136.414	-66.998	0.223	-0.087
-135.399	-105.451	-0.219	0.049
-134.385	800.000	0.103	-0.400
-133.370	277.389	0.064	0.113
-132.356	173.285	-0.018	-0.026
-131.341	16.891	-0.399	0.312
-130.326	-200.000	0.043	-0.336
-129.312	800.000	-0.039	-0.122
-128.297	51.123	0.116	-0.109
-127.283	-200.000	-0.033	-0.399
-126.268	28.787	-0.168	0.141
-125.253	-35.182	-0.101	-0.054
-124.239	8.233	0.202	0.150
-123.224	-200.000	-0.011	-0.292
-122.210	443.030	-0.063	-0.137
-121.195	250.170	0.062	0.104
