DTS Sentinel unit serial number:	SN413079Multiplexer serial number:	ORYXHardware model number:	OX4-SRSoftware version number:	ORYX F/W v4.00 Oryx Data Collector v3.7.2.0data status	okinstallation	princeton_trtdifferential loss correction	single-endedforward channel	channel 3reverse channel	N/Adate	2019/09/19time	07:08:34forward acquisition time	60.00reverse acquisition time	0.00gamma	496.2192k internal	0.2348k external	0.2348temperature offset calibration	0.9983default loss term (dB/km)	0.3790temperature slope calibration	1.0000multiplexer offset coefficient	1.0000multiplexer slope coefficient	1.0000fibre end	0.00T internal ref (°C)	19.02T ext. ref 1 (°C)	0.56T ext. ref 2 (°C)	13.30length (m)	temperature (°C)	Stokes	anti-Stokes-747.200	-128.099	-0.239	-0.034
-746.185	176.538	0.061	-0.088
-745.171	-200.000	0.030	0.300
-744.156	-53.188	0.419	0.192
-743.142	-164.955	0.089	0.004
-742.127	-105.909	-0.331	-0.075
-741.112	-116.537	0.368	-0.068
-740.098	-200.000	-0.011	0.323
-739.083	306.108	0.102	0.189
-738.069	38.529	0.105	-0.093
-737.054	-200.000	-0.074	0.468
-736.039	3.924	-0.168	0.122
-735.025	8.200	0.301	0.226
-734.010	-148.374	-0.397	0.033
-732.996	800.000	-0.004	0.017
-731.981	462.496	0.038	-0.084
-730.966	275.294	0.096	-0.170
-729.952	-91.991	-0.243	0.069
-728.937	800.000	0.015	0.046
-727.923	-71.390	-0.186	-0.070
-726.908	-66.681	-0.092	-0.037
-725.894	-70.750	-0.185	-0.070
-724.879	-2.601	-0.329	-0.230
-723.864	-200.000	-0.039	-0.219
-722.850	-52.550	0.066	-0.031
-721.835	340.544	-0.155	-0.303
-720.821	-38.565	0.327	-0.173
-719.806	339.712	-0.121	-0.236
-718.791	265.060	0.250	-0.434
-717.777	-200.000	-0.081	-0.376
-716.762	-146.201	-0.256	-0.022
-715.748	-1.453	-0.209	-0.147
-714.733	-200.000	0.002	0.277
-713.718	306.639	0.037	-0.069
-712.704	-54.411	-0.408	0.184
-711.689	605.535	-0.094	-0.235
-710.675	-57.636	0.072	0.032
-709.660	39.405	0.091	0.081
-708.645	130.964	0.025	0.031
-707.631	-96.824	-0.315	-0.083
-706.616	-77.736	0.434	-0.150
-705.602	-3.716	-0.278	0.193
-704.587	-100.676	0.295	-0.073
-703.572	-4.268	-0.197	-0.136
-702.558	145.252	0.081	-0.108
-701.543	-200.000	0.030	-0.171
-700.529	20.776	0.266	0.215
-699.514	-200.000	-0.006	0.026
-698.499	20.589	-0.126	-0.102
-697.485	-200.000	-0.082	-0.386
-696.470	-159.331	-0.079	0.004
-695.456	-200.000	0.037	-0.440
-694.441	81.405	-0.290	-0.313
-693.426	-200.000	-0.089	-0.391
-692.412	29.067	-0.102	0.086
-691.397	24.919	0.100	-0.083
-690.383	-121.338	-0.231	-0.038
-689.368	245.055	0.055	0.093
-688.354	-200.000	0.023	-0.164
-687.339	-131.591	-0.228	-0.030
-686.324	16.942	0.134	0.106
-685.310	186.689	-0.062	-0.093
-684.295	-200.000	-0.010	0.098
-683.281	800.000	0.024	0.071
-682.266	214.507	0.136	0.215
-681.251	-102.433	-0.257	-0.061
-680.237	800.000	-0.033	-0.121
-679.222	190.652	0.073	-0.110
-678.208	-200.000	-0.046	-0.232
-677.193	800.000	0.053	0.177
-676.178	-22.425	-0.048	-0.029
-675.164	377.004	0.098	-0.198
-674.149	-200.000	-0.040	-0.380
-673.135	-71.570	-0.106	-0.039
-672.120	788.946	0.075	-0.205
-671.105	-200.000	-0.045	0.274
-670.091	-200.000	0.005	0.160
-669.076	241.162	0.071	0.118
-668.062	-132.145	0.380	-0.049
-667.047	800.000	0.067	-0.206
-666.032	-139.024	0.295	0.032
-665.018	-200.000	-0.001	-0.036
-664.003	-200.000	-0.035	-0.257
-662.989	62.181	-0.240	-0.239
-661.974	-200.000	-0.016	-0.097
-660.959	-200.000	0.010	0.205
-659.945	296.572	-0.015	0.028
-658.930	-200.000	-0.013	0.199
-657.916	-200.000	0.004	0.023
-656.901	-67.093	0.164	0.064
-655.886	-70.988	0.351	0.132
-654.872	115.617	0.061	-0.074
-653.857	477.871	-0.020	-0.045
-652.843	-53.292	0.173	0.079
-651.828	-200.000	0.056	-0.307
-650.814	272.885	-0.091	-0.159
-649.799	33.172	0.065	0.056
-648.784	-71.653	-0.077	-0.029
-647.770	-124.123	-0.226	0.035
-646.755	181.620	-0.059	0.087
-645.741	-116.838	0.302	-0.055
-644.726	65.720	-0.189	-0.191
-643.711	800.000	-0.025	0.098
-642.697	-200.000	0.001	0.318
-641.682	800.000	-0.037	-0.146
-640.668	-128.986	0.191	0.027
-639.653	363.584	-0.106	0.213
-638.638	-200.000	-0.047	-0.219
-637.624	-107.242	-0.160	0.035
-636.609	800.000	-0.042	-0.142
-635.595	-151.244	0.049	-0.004
-634.580	343.117	0.057	-0.111
-633.565	21.405	0.221	0.179
-632.551	317.576	-0.145	-0.273
-631.536	800.000	0.076	0.311
-630.522	257.475	-0.189	0.323
-629.507	-200.000	-0.035	-0.313
-628.492	119.420	-0.086	-0.106
-627.478	-82.967	-0.101	-0.032
-626.463	-137.335	-0.128	-0.014
-625.449	217.681	0.204	0.323
-624.434	46.358	-0.137	0.126
-623.419	-200.000	0.038	-0.217
-622.405	800.000	0.113	-0.347
-621.390	37.779	0.178	-0.157
-620.376	64.853	0.152	-0.153
-619.361	-200.000	-0.018	-0.143
-618.346	182.308	-0.084	0.124
-617.332	-39.992	0.422	0.219
-616.317	71.988	-0.293	0.303
-615.303	-43.844	0.275	-0.137
-614.288	261.222	-0.159	0.274
-613.273	-83.408	0.166	0.053
-612.259	-200.000	-0.029	-0.131
-611.244	800.000	-0.047	-0.190
-610.230	-80.865	0.358	-0.118
-609.215	-76.250	-0.056	0.020
-608.201	555.032	-0.088	-0.210
-607.186	800.000	0.089	0.254
-606.171	393.189	-0.032	0.066
-605.157	136.924	-0.201	0.261
-604.142	2.131	-0.233	0.168
-603.128	-56.501	0.175	0.077
-602.113	-97.358	0.379	0.098
-601.098	403.341	0.031	-0.064
-600.084	-153.584	-0.209	0.014
-599.069	-80.357	-0.344	0.114
-598.055	-54.301	-0.419	0.189
-597.040	-200.000	-0.001	-0.267
-596.025	116.035	-0.049	0.060
-595.011	343.309	-0.115	0.224
-593.996	20.795	-0.078	0.063
-592.982	-200.000	-0.024	0.373
-591.967	330.822	-0.078	0.149
-590.952	118.846	-0.214	0.263
-589.938	-122.977	-0.251	-0.040
-588.923	-99.274	0.113	0.028
-587.909	-35.339	-0.050	0.027
-586.894	798.593	-0.187	0.512
-585.879	-200.000	-0.045	0.336
-584.865	-52.192	-0.093	0.043
-583.850	-200.000	-0.029	0.322
-582.836	56.012	0.183	-0.176
-581.821	800.000	-0.099	-0.329
-580.806	328.860	-0.087	-0.166
-579.792	-115.929	-0.141	0.026
-578.777	800.000	-0.027	0.083
-577.763	-27.014	0.119	0.069
-576.748	-118.086	0.257	0.046
-575.733	20.211	0.165	-0.132
-574.719	-200.000	-0.019	-0.234
-573.704	-200.000	0.075	-0.399
-572.690	-200.000	-0.010	0.128
-571.675	-76.613	0.065	0.022
-570.661	-9.302	0.034	-0.023
-569.646	-137.681	0.347	-0.039
-568.631	147.476	0.060	0.080
-567.617	20.570	0.162	0.130
-566.602	48.211	0.138	0.128
-565.588	-91.510	0.256	0.072
-564.573	508.559	-0.038	0.088
-563.558	306.564	0.157	0.289
-562.544	129.046	-0.109	0.138
-561.529	-52.117	-0.114	-0.053
-560.515	173.283	0.090	-0.128
-559.500	-26.762	0.147	-0.085
-558.485	148.025	-0.042	0.056
-557.471	181.619	0.124	0.180
-556.456	-200.000	-0.021	0.161
-555.442	-200.000	0.033	-0.307
-554.427	266.655	-0.280	0.485
-553.412	56.460	0.095	0.092
-552.398	-55.259	-0.080	0.036
-551.383	273.379	-0.093	-0.163
-550.369	-127.373	0.164	0.024
-549.354	800.000	0.046	-0.152
-548.339	-34.616	-0.099	-0.054
-547.325	-21.983	-0.140	0.084
-546.310	-200.000	-0.055	-0.372
-545.296	-84.207	-0.087	0.027
-544.281	-33.951	0.128	0.070
-543.266	-200.000	-0.034	0.377
-542.252	-200.000	0.078	0.422
-541.237	470.758	0.063	0.139
-540.223	-90.720	-0.105	-0.030
-539.208	-75.893	-0.393	0.138
-538.193	800.000	-0.030	-0.128
-537.179	-65.601	0.165	-0.066
-536.164	374.058	-0.121	0.243
-535.150	668.256	-0.079	0.203
-534.135	800.000	0.099	-0.281
-533.121	-109.562	-0.162	0.034
-532.106	-109.153	0.132	-0.028
-531.091	-175.912	0.086	-0.002
-530.077	-96.455	-0.050	0.013
-529.062	-175.352	-0.149	-0.004
-528.048	-200.000	-0.005	-0.088
-527.033	110.819	0.135	-0.161
-526.018	-4.724	0.288	0.197
-525.004	-22.718	0.074	-0.044
-523.989	800.000	0.057	-0.218
-522.975	-32.463	0.194	-0.107
-521.960	800.000	0.045	0.152
-520.945	457.344	0.125	0.275
-519.931	-200.000	-0.288	0.000
-518.916	78.099	0.097	0.103
-517.902	-200.000	-0.012	-0.135
-516.887	-22.577	0.223	-0.133
-515.872	74.139	0.127	-0.132
-514.858	63.550	-0.094	0.094
-513.843	-79.583	-0.181	-0.060
-512.829	8.150	-0.041	-0.030
-511.814	-194.097	-0.261	-0.002
-510.799	-182.166	-0.178	-0.003
-509.785	-200.000	-0.084	-0.397
-508.770	-200.000	0.028	-0.168
-507.756	-200.000	0.057	0.319
-506.741	-173.181	0.096	0.003
-505.726	91.605	0.109	-0.122
-504.712	82.014	0.168	0.180
-503.697	-86.515	0.086	-0.026
-502.683	154.481	0.105	0.143
-501.668	-25.184	-0.286	-0.168
-500.653	-35.880	-0.299	0.160
-499.639	128.628	-0.099	-0.124
-498.624	-139.855	0.025	-0.003
-497.610	800.000	-0.032	0.135
-496.595	-200.000	0.033	0.196
-495.581	79.140	-0.185	0.196
-494.566	-200.000	0.009	-0.265
-493.551	77.616	0.139	0.147
-492.537	800.000	0.088	0.339
-491.522	431.868	0.140	-0.301
-490.508	-84.193	0.303	-0.095
-489.493	288.221	-0.194	-0.347
-488.478	-37.903	0.117	0.061
-487.464	-95.034	-0.147	0.039
-486.449	-150.177	-0.365	0.028
-485.435	-200.000	0.036	0.235
-484.420	16.550	0.313	0.245
-483.405	11.613	-0.197	0.149
-482.391	370.247	-0.122	-0.244
-481.376	-93.731	-0.254	0.069
-480.362	-19.887	-0.049	0.030
-479.347	280.707	-0.169	-0.299
-478.332	800.000	-0.022	-0.088
-477.318	-1.648	0.095	-0.066
-476.303	433.990	-0.068	-0.145
-475.289	-93.196	-0.078	-0.022
-474.274	-44.639	-0.221	0.109
-473.259	-200.000	0.019	-0.289
-472.245	-62.778	-0.166	0.068
-471.230	133.747	0.163	-0.209
-470.216	800.000	-0.026	-0.070
-469.201	205.844	-0.073	-0.112
-468.186	800.000	0.018	0.059
-467.172	12.200	0.060	-0.045
-466.157	-42.380	-0.065	0.033
-465.143	454.673	-0.072	0.157
-464.128	-200.000	0.002	-0.036
-463.113	68.088	-0.175	-0.177
-462.099	-69.474	0.449	0.170
-461.084	-79.278	-0.196	0.065
-460.070	413.113	0.117	0.245
-459.055	-148.200	0.168	0.014
-458.040	793.654	0.005	0.013
-457.026	-200.000	-0.010	-0.128
-456.011	-200.000	0.013	-0.134
-454.997	-100.826	-0.216	0.053
-453.982	768.050	0.082	0.219
-452.968	154.812	-0.097	0.132
-451.953	517.346	-0.127	0.294
-450.938	-200.000	0.014	0.065
-449.924	-200.000	-0.037	0.254
-448.909	-139.056	0.024	-0.003
-447.895	-200.000	-0.024	0.269
-446.880	7.693	-0.214	-0.158
-445.865	-200.000	-0.006	-0.068
-444.851	488.319	-0.048	0.109
-443.836	440.576	-0.135	-0.291
-442.822	241.630	0.064	-0.106
-441.807	13.576	-0.154	-0.118
-440.792	-97.030	0.079	-0.020
-439.778	-106.263	-0.309	-0.068
-438.763	-200.000	-0.020	0.239
-437.749	-69.212	-0.381	0.145
-436.734	-116.727	0.503	-0.091
-435.719	341.539	-0.151	-0.291
-434.705	-104.486	0.032	-0.007
-433.690	800.000	-0.016	0.059
-432.676	-178.263	0.194	-0.005
-431.661	629.109	-0.068	0.171
-430.646	36.339	0.098	-0.085
-429.632	-124.688	-0.102	0.016
-428.617	-200.000	-0.006	-0.082
-427.603	-73.971	0.065	0.023
-426.588	-80.087	-0.296	-0.098
-425.573	-12.722	-0.222	0.143
-424.559	800.000	0.050	0.166
-423.544	84.032	-0.244	-0.263
-422.530	-200.000	0.017	-0.132
-421.515	800.000	-0.045	0.164
-420.500	10.961	-0.281	-0.212
-419.486	126.341	0.066	0.082
-418.471	-153.116	-0.096	0.007
-417.457	-200.000	0.005	0.037
-416.442	371.032	-0.165	-0.331
-415.428	-60.264	-0.111	0.047
-414.413	39.132	0.264	-0.233
-413.398	-81.940	-0.287	-0.093
-412.384	396.311	0.073	0.149
-411.369	800.000	0.021	0.079
-410.355	324.731	-0.158	-0.298
-409.340	-200.000	0.003	-0.017
-408.325	129.673	-0.062	0.078
-407.311	-48.232	-0.481	-0.229
-406.296	57.331	-0.248	-0.239
-405.282	322.035	-0.094	-0.176
-404.267	-6.115	-0.087	0.059
-403.252	-94.886	-0.256	-0.068
-402.238	-91.996	0.149	0.042
-401.223	365.256	0.235	-0.467
-400.209	-200.000	-0.040	-0.251
-399.194	-59.198	-0.147	-0.062
-398.179	-200.000	-0.017	0.341
-397.165	-93.544	0.148	0.040
-396.150	188.655	-0.197	0.291
-395.136	-200.000	0.026	-0.189
-394.121	-151.761	-0.169	0.012
-393.106	-200.000	-0.007	-0.124
-392.092	133.296	0.128	0.163
-391.077	800.000	-0.209	-0.663
-390.063	240.765	0.221	-0.363
-389.048	-97.372	0.068	0.017
-388.033	17.433	-0.197	0.154
-387.019	179.406	-0.041	-0.059
-386.004	-200.000	-0.004	-0.058
-384.990	-122.162	-0.205	0.033
-383.975	274.560	-0.026	-0.046
-382.960	-4.863	-0.171	0.116
-381.946	-200.000	0.063	-0.309
-380.931	-65.377	0.331	-0.131
-379.917	172.529	-0.021	-0.030
-378.902	79.618	-0.301	0.318
-377.888	173.378	0.143	0.204
-376.873	26.461	0.122	-0.101
-375.858	178.334	-0.041	-0.059
-374.844	-200.000	0.033	0.145
-373.829	62.103	-0.137	-0.134
-372.815	-89.430	0.409	-0.118
-371.800	-200.000	0.004	-0.330
-370.785	353.320	-0.040	0.078
-369.771	25.967	0.309	-0.254
-368.756	-131.265	-0.338	0.044
-367.742	23.787	-0.295	-0.239
-366.727	-66.448	-0.158	-0.062
-365.712	-47.456	0.163	0.078
-364.698	222.387	-0.133	-0.211
-363.683	800.000	-0.017	-0.054
-362.669	800.000	-0.018	-0.076
-361.654	41.247	0.287	-0.255
-360.639	-200.000	0.031	-0.226
-359.625	800.000	0.031	0.108
-358.610	-200.000	0.020	0.148
-357.596	6.076	0.257	0.188
-356.581	800.000	-0.080	-0.245
-355.566	39.471	-0.046	-0.040
-354.552	543.015	-0.112	-0.263
-353.537	86.400	0.137	-0.148
-352.523	-0.140	0.384	-0.269
-351.508	23.419	-0.253	0.205
-350.493	300.316	-0.299	-0.543
-349.479	289.139	-0.183	-0.326
-348.464	-200.000	0.046	-0.257
-347.450	90.174	-0.075	0.083
-346.435	-200.000	0.039	-0.251
-345.420	126.520	0.177	0.221
-344.406	-79.671	-0.104	0.034
-343.391	800.000	0.112	-0.391
-342.377	800.000	0.073	0.311
-341.362	-200.000	0.012	-0.056
-340.348	-200.000	0.001	0.121
-339.333	-92.060	-0.037	0.010
-338.318	-200.000	-0.022	0.183
-337.304	102.686	0.311	-0.358
-336.289	-136.755	-0.166	0.019
-335.275	663.643	-0.138	0.349
-334.260	-119.294	0.126	0.022
-333.245	309.496	-0.154	-0.284
-332.231	17.194	0.148	-0.116
-331.216	7.220	-0.163	0.119
-330.202	-152.865	0.335	-0.023
-329.187	-21.457	0.106	0.064
-328.172	95.984	-0.240	0.269
-327.158	253.759	0.151	-0.254
-326.143	-34.609	-0.170	-0.092
-325.129	54.071	0.179	-0.169
-324.114	50.659	0.224	-0.208
-323.099	23.718	0.102	-0.083
-322.085	-63.849	-0.181	-0.073
-321.070	321.058	-0.114	-0.213
-320.056	-200.000	-0.040	-0.175
-319.041	-94.108	-0.062	-0.017
-318.026	800.000	-0.051	-0.204
-317.012	-49.551	0.203	-0.095
-315.997	-84.919	0.291	-0.090
-314.983	800.000	-0.057	0.166
-313.968	800.000	0.053	-0.200
-312.953	-128.733	-0.145	0.020
-311.939	-37.337	0.175	0.092
-310.924	23.922	-0.225	0.182
-309.910	800.000	0.029	0.115
-308.895	-91.606	0.147	-0.041
-307.880	54.455	-0.207	0.196
-306.866	-94.409	-0.250	0.067
-305.851	27.810	-0.272	0.226
-304.837	39.973	-0.209	0.185
-303.822	45.628	0.120	-0.109
-302.807	554.519	-0.085	0.201
-301.793	-40.786	0.215	0.109
-300.778	61.311	0.195	0.191
-299.764	100.574	0.208	-0.237
-298.749	254.152	-0.030	-0.050
-297.735	-191.853	-0.380	0.004
-296.720	800.000	-0.036	0.150
-295.705	-49.162	-0.218	-0.102
-294.691	-76.974	-0.271	-0.093
-293.676	16.351	0.142	0.110
-292.662	-156.698	0.130	-0.008
-291.647	-200.000	0.019	-0.098
-290.632	267.373	-0.069	-0.119
-289.618	-200.000	-0.025	0.325
-288.603	-52.176	0.187	0.085
-287.589	800.000	-0.056	-0.188
-286.574	-161.927	-0.121	-0.006
-285.559	92.669	-0.077	0.086
-284.545	-36.887	0.095	0.050
-283.530	97.025	0.078	0.088
-282.516	-200.000	0.044	0.336
-281.501	-120.158	-0.227	-0.038
-280.486	-18.719	0.150	0.092
-279.472	-140.758	0.376	0.038
-278.457	-200.000	-0.076	-0.434
-277.443	43.594	-0.052	-0.047
-276.428	-103.389	-0.065	0.015
-275.413	-14.859	0.133	-0.084
-274.399	-127.725	-0.228	-0.032
-273.384	-196.280	0.278	0.002
-272.370	5.383	0.431	-0.312
-271.355	351.489	0.044	0.086
-270.340	208.242	-0.298	0.456
-269.326	-108.134	-0.188	0.040
-268.311	-200.000	-0.020	-0.266
-267.297	-200.000	-0.035	0.303
-266.282	-56.178	0.031	0.014
-265.267	800.000	-0.043	-0.119
-264.253	351.053	0.083	-0.160
-263.238	-200.000	0.000	-0.431
-262.224	800.000	-0.031	-0.103
-261.209	146.990	-0.129	-0.170
-260.195	-74.603	0.214	-0.076
-259.180	32.414	-0.083	-0.071
-258.165	184.676	0.136	0.197
-257.151	-18.354	-0.171	-0.105
-256.136	-105.888	0.167	-0.037
-255.122	-44.016	0.112	0.055
-254.107	-34.410	-0.160	0.086
-253.092	800.000	0.078	-0.262
-252.078	-167.311	0.149	0.006
-251.063	34.334	0.289	-0.247
-250.049	31.393	-0.093	-0.079
-249.034	11.990	0.145	-0.109
-248.019	-94.398	-0.269	0.072
-247.005	-128.689	-0.170	0.024
-245.990	800.000	0.122	0.469
-244.976	-16.385	0.105	0.065
-243.961	410.566	0.115	0.238
-242.946	-156.910	0.216	-0.013
-241.932	-160.661	0.076	0.004
-240.917	-200.000	-0.009	0.238
-239.903	-200.000	0.021	-0.310
-238.888	61.429	0.074	0.072
-237.873	-119.213	0.307	0.052
-236.859	-55.955	0.164	0.072
-235.844	25.299	0.176	-0.143
-234.830	-27.802	0.445	-0.252
-233.815	800.000	0.091	0.380
-232.800	38.930	-0.100	0.087
-231.786	-200.000	-0.036	0.269
-230.771	-200.000	-0.041	-0.211
-229.757	-200.000	0.015	0.335
-228.742	800.000	-0.086	0.301
-227.727	-200.000	-0.025	0.189
-226.713	-55.201	0.186	0.082
-225.698	-200.000	0.048	0.368
-224.684	156.309	-0.067	0.090
-223.669	-17.812	-0.098	-0.060
-222.655	-111.349	0.360	-0.072
-221.640	381.778	0.097	0.196
-220.625	-8.542	0.126	0.083
-219.611	165.798	-0.235	0.325
-218.596	314.288	0.027	-0.050
-217.582	-104.545	0.243	0.055
-216.567	131.097	0.309	0.388
-215.552	358.401	-0.125	-0.244
-214.538	-118.386	0.352	0.061
-213.523	-89.635	-0.190	0.055
-212.509	-92.514	0.266	0.073
-211.494	-200.000	-0.031	0.192
-210.479	541.659	0.147	0.343
-209.465	-3.278	-0.099	0.068
-208.450	800.000	-0.032	-0.088
-207.436	-200.000	-0.008	-0.062
-206.421	334.503	0.036	0.068
-205.406	467.692	-0.090	0.198
-204.392	-75.755	0.124	0.043
-203.377	13.943	0.158	-0.120
-202.363	-24.715	-0.354	0.206
-201.348	100.871	-0.264	-0.300
-200.333	281.468	-0.160	0.281
-199.319	27.991	0.224	-0.185
-198.304	636.851	0.089	-0.222
-197.290	-150.519	-0.185	0.014
-196.275	187.170	0.157	0.228
-195.260	625.063	0.078	-0.194
-194.246	-1.407	-0.249	-0.172
-193.231	-118.692	0.216	0.037
-192.217	11.587	-0.225	0.169
-191.202	-21.732	0.508	-0.302
-190.187	-23.291	-0.154	0.091
-189.173	-78.150	-0.253	0.085
-188.158	-37.420	-0.233	-0.122
-187.144	-200.000	0.028	-0.293
-186.129	-48.953	0.304	-0.143
-185.114	230.799	0.158	0.253
-184.100	-158.557	0.196	-0.011
-183.085	21.924	0.086	0.068
-182.071	800.000	-0.070	0.224
-181.056	60.781	-0.055	-0.053
-180.042	-200.000	0.043	0.247
-179.027	-200.000	-0.018	0.139
-178.012	41.690	-0.161	-0.142
-176.998	-200.000	0.002	-0.454
-175.983	586.448	0.136	-0.327
-174.969	-94.422	-0.038	0.010
-173.954	800.000	-0.124	0.436
-172.939	425.189	0.109	0.229
-171.925	-200.000	0.049	-0.311
-170.910	140.151	-0.306	-0.395
-169.896	-112.343	0.147	-0.029
-168.881	-36.241	-0.314	0.165
-167.866	-108.540	0.241	0.051
-166.852	-135.829	0.276	0.032
-165.837	800.000	0.068	-0.210
-164.823	421.738	-0.132	0.277
-163.808	800.000	0.089	0.288
-162.793	335.319	0.117	0.221
-161.779	-68.476	0.346	-0.131
-160.764	189.722	0.042	-0.062
-159.750	-114.679	0.269	0.050
-158.735	178.131	0.162	0.230
-157.720	-54.718	0.253	0.112
-156.706	578.590	0.106	-0.253
-155.691	116.572	-0.188	0.225
-154.677	-25.946	0.191	-0.110
-153.662	-46.344	0.246	-0.118
-152.647	-23.108	-0.164	-0.097
-151.633	-200.000	0.014	-0.222
-150.618	800.000	0.102	-0.281
-149.604	800.000	-0.094	-0.289
-148.589	-200.000	0.014	-0.219
-147.574	354.507	0.100	0.194
-146.560	-7.359	0.031	-0.021
-145.545	800.000	0.121	-0.336
-144.531	-200.000	-0.074	-0.453
-143.516	-200.000	-0.014	0.222
-142.502	35.477	-0.175	0.150
-141.487	-148.366	-0.123	-0.010
-140.472	-119.489	-0.336	-0.057
-139.458	-56.577	-0.288	0.125
-138.443	484.355	-0.169	0.376
-137.429	800.000	-0.060	-0.205
-136.414	-200.000	0.039	-0.475
-135.399	-86.485	-0.226	0.068
-134.385	-148.791	0.149	0.012
-133.370	-72.982	-0.313	0.112
-132.356	-200.000	-0.035	-0.464
-131.341	-200.000	0.055	-0.239
-130.326	-138.977	-0.149	-0.016
-129.312	-200.000	-0.042	0.259
-128.297	-31.273	-0.108	-0.059
-127.283	-92.535	-0.293	-0.080
-126.268	-200.000	0.002	-0.110
-125.253	-200.000	-0.005	-0.215
-124.239	-53.966	-0.360	-0.160
-123.224	-18.677	0.045	-0.028
-122.210	551.105	-0.020	-0.048
