DTS Sentinel unit serial number:	SN413079Multiplexer serial number:	ORYXHardware model number:	OX4-SRSoftware version number:	ORYX F/W v4.00 Oryx Data Collector v3.7.2.0data status	okinstallation	princeton_trtdifferential loss correction	single-endedforward channel	channel 3reverse channel	N/Adate	2019/09/19time	03:24:35forward acquisition time	60.00reverse acquisition time	0.00gamma	496.2192k internal	0.2348k external	0.2348temperature offset calibration	0.9991default loss term (dB/km)	0.3790temperature slope calibration	1.0000multiplexer offset coefficient	1.0000multiplexer slope coefficient	1.0000fibre end	0.00T internal ref (°C)	20.69T ext. ref 1 (°C)	0.65T ext. ref 2 (°C)	14.22length (m)	temperature (°C)	Stokes	anti-Stokes-747.200	-87.375	0.128	0.039
-746.185	67.538	-0.291	0.297
-745.171	125.360	0.040	0.050
-744.156	-79.589	0.347	0.117
-743.142	-200.000	-0.003	0.042
-742.127	13.499	-0.265	0.206
-741.112	231.803	0.144	0.235
-740.098	-96.191	-0.285	0.075
-739.083	-8.033	0.228	-0.154
-738.069	800.000	-0.069	0.203
-737.054	-60.893	-0.203	0.086
-736.039	2.944	-0.220	-0.160
-735.025	550.259	-0.154	-0.370
-734.010	-200.000	-0.042	0.186
-732.996	-46.444	-0.176	0.086
-731.981	800.000	-0.022	-0.078
-730.966	-145.247	-0.243	0.022
-729.952	800.000	0.087	-0.297
-728.937	-80.625	-0.166	-0.055
-727.923	19.121	0.145	-0.116
-726.908	217.415	-0.099	-0.158
-725.894	-200.000	0.014	0.237
-724.879	-128.911	-0.288	-0.040
-723.864	-24.260	-0.081	-0.049
-722.850	800.000	-0.063	-0.198
-721.835	68.004	-0.282	-0.288
-720.821	28.599	-0.215	-0.182
-719.806	-200.000	-0.030	-0.184
-718.791	-4.795	-0.083	0.057
-717.777	-62.616	0.123	-0.051
-716.762	-46.394	-0.208	-0.102
-715.748	-61.084	-0.043	-0.018
-714.733	410.091	-0.032	0.067
-713.718	198.449	0.190	0.290
-712.704	-200.000	0.020	0.225
-711.689	-162.416	0.256	-0.013
-710.675	185.103	-0.189	-0.280
-709.660	-69.834	0.348	-0.133
-708.645	41.360	-0.038	0.034
-707.631	29.048	-0.138	-0.117
-706.616	513.760	0.051	0.119
-705.602	231.710	0.095	-0.156
-704.587	159.241	-0.089	0.123
-703.572	-200.000	-0.037	0.392
-702.558	-175.805	0.178	-0.005
-701.543	146.282	-0.290	-0.389
-700.529	-200.000	0.022	-0.183
-699.514	-200.000	-0.010	-0.157
-698.499	548.783	0.099	-0.236
-697.485	-200.000	-0.011	0.201
-696.470	-200.000	0.030	0.182
-695.456	612.160	0.222	-0.554
-694.441	-200.000	-0.005	0.337
-693.426	419.608	-0.149	0.318
-692.412	-38.793	-0.253	0.133
-691.397	31.151	-0.144	-0.123
-690.383	-55.799	0.424	0.189
-689.368	800.000	0.088	-0.267
-688.354	-147.576	0.033	0.003
-687.339	-112.219	-0.152	0.030
-686.324	-150.187	0.140	0.011
-685.310	89.824	-0.183	-0.204
-684.295	182.381	-0.225	-0.331
-683.281	39.002	0.139	0.123
-682.266	109.400	0.250	-0.299
-681.251	4.527	0.165	0.121
-680.237	126.435	-0.108	0.137
-679.222	79.831	0.235	0.252
-678.208	800.000	-0.096	-0.309
-677.193	80.995	0.181	0.195
-676.178	169.722	-0.153	-0.217
-675.164	583.752	0.096	-0.234
-674.149	349.832	0.117	-0.231
-673.135	-200.000	0.020	-0.102
-672.120	-200.000	-0.036	-0.246
-671.105	-24.698	0.226	-0.134
-670.091	-16.799	-0.206	0.130
-669.076	276.593	-0.123	-0.218
-668.062	13.330	-0.340	-0.263
-667.047	-109.192	-0.391	-0.083
-666.032	162.815	-0.098	-0.137
-665.018	-143.111	-0.249	0.024
-664.003	269.695	-0.118	-0.206
-662.989	78.499	0.136	0.145
-661.974	-2.921	-0.193	-0.134
-660.959	5.527	-0.005	-0.004
-659.945	147.273	-0.181	0.243
-658.930	332.246	-0.100	0.193
-657.916	800.000	0.194	0.540
-656.901	-29.235	-0.119	0.068
-655.886	21.358	0.342	-0.277
-654.872	-130.970	-0.152	0.020
-653.857	33.682	0.138	-0.120
-652.843	-3.135	0.239	-0.166
-651.828	88.013	-0.145	-0.160
-650.814	67.481	0.001	0.001
-649.799	181.281	0.039	-0.057
-648.784	-131.387	0.558	-0.073
-647.770	63.993	0.102	-0.102
-646.755	-0.708	0.078	-0.055
-645.741	-78.255	-0.203	0.069
-644.726	4.940	0.228	0.167
-643.711	117.526	0.091	0.112
-642.697	800.000	0.089	-0.264
-641.682	800.000	-0.064	0.255
-640.668	546.270	-0.143	-0.340
-639.653	-48.483	-0.170	-0.081
-638.638	238.400	-0.037	-0.062
-637.624	82.530	0.156	-0.169
-636.609	-70.309	-0.511	-0.193
-635.595	800.000	0.055	-0.156
-634.580	150.011	-0.169	-0.228
-633.565	34.769	-0.115	-0.100
-632.551	-111.308	-0.249	0.051
-631.536	-162.220	-0.211	0.011
-630.522	-200.000	-0.330	0.002
-629.507	800.000	0.077	-0.261
-628.492	-85.619	-0.279	0.086
-627.478	-105.849	0.115	0.026
-626.463	81.230	0.204	0.219
-625.449	-200.000	0.008	-0.515
-624.434	-148.691	-0.102	0.008
-623.419	60.688	-0.169	-0.167
-622.405	-111.746	0.417	0.084
-621.390	56.302	0.169	0.164
-620.376	-93.895	-0.205	-0.056
-619.361	-141.468	0.370	-0.037
-618.346	800.000	0.048	-0.175
-617.332	84.082	0.051	0.055
-616.317	-123.691	-0.420	0.066
-615.303	-80.335	-0.315	-0.105
-614.288	231.336	-0.024	-0.040
-613.273	-187.646	-0.235	0.003
-612.259	-82.956	0.208	0.067
-611.244	735.546	-0.041	-0.110
-610.230	-95.055	0.163	-0.044
-609.215	-200.000	-0.020	-0.112
-608.201	331.775	0.040	0.077
-607.186	800.000	-0.049	-0.159
-606.171	-75.023	-0.293	0.104
-605.157	454.467	-0.083	-0.183
-604.142	204.240	-0.062	0.096
-603.128	-113.012	-0.262	-0.051
-602.113	301.728	0.073	0.134
-601.098	30.793	-0.098	-0.083
-600.084	-200.000	0.035	-0.252
-599.069	800.000	0.102	0.289
-598.055	800.000	0.122	-0.355
-597.040	4.000	0.116	-0.084
-596.025	33.661	-0.396	0.342
-595.011	43.882	0.216	-0.197
-593.996	-7.910	0.265	-0.178
-592.982	-31.291	-0.216	0.121
-591.967	-28.775	0.228	0.130
-590.952	-59.161	0.271	-0.116
-589.938	71.760	-0.123	-0.127
-588.923	381.147	-0.088	0.179
-587.909	25.340	-0.383	-0.316
-586.894	-104.813	0.138	-0.031
-585.879	-82.063	-0.215	0.070
-584.865	-90.606	-0.306	0.088
-583.850	175.533	0.184	-0.265
-582.836	-101.627	0.335	-0.081
-581.821	-179.312	-0.200	0.004
-580.806	-18.049	-0.106	-0.066
-579.792	1.376	0.275	0.197
-578.777	225.731	0.110	0.177
-577.763	-22.184	-0.310	0.187
-576.748	-43.225	-0.209	0.105
-575.733	-51.201	-0.213	-0.099
-574.719	-108.162	0.240	-0.051
-573.704	13.798	-0.192	0.148
-572.690	-200.000	0.046	0.373
-571.675	113.816	-0.116	0.141
-570.661	30.952	0.121	0.103
-569.646	296.002	0.029	0.052
-568.631	-200.000	-0.009	0.214
-567.617	-200.000	-0.016	-0.140
-566.602	-200.000	0.030	-0.307
-565.588	56.567	-0.085	0.082
-564.573	-101.032	-0.084	0.020
-563.558	-185.813	-0.156	0.002
-562.544	75.737	0.161	0.168
-561.529	-105.405	-0.288	0.065
-560.515	-200.000	0.031	0.260
-559.500	-200.000	0.076	-0.333
-558.485	800.000	-0.123	-0.416
-557.471	9.548	0.094	-0.071
-556.456	-105.657	0.127	-0.028
-555.442	171.013	0.156	-0.222
-554.427	299.527	-0.099	-0.182
-553.412	261.870	0.086	0.147
-552.398	-200.000	0.005	0.186
-551.383	-138.450	-0.521	0.057
-550.369	296.705	-0.079	-0.144
-549.354	227.613	0.177	-0.285
-548.339	-60.919	0.051	0.021
-547.325	392.634	0.037	-0.077
-546.310	-174.576	-0.142	-0.004
-545.296	42.093	0.111	0.100
-544.281	800.000	-0.176	-0.535
-543.266	-107.313	0.148	-0.032
-542.252	-200.000	-0.030	-0.156
-541.237	-59.608	0.182	-0.077
-540.223	-37.893	0.020	0.011
-539.208	-40.427	-0.206	0.106
-538.193	350.474	-0.115	0.226
-537.179	29.786	-0.073	0.062
-536.164	332.544	0.055	-0.105
-535.150	-37.032	0.171	-0.091
-534.135	-107.226	0.180	-0.039
-533.121	800.000	-0.165	-0.461
-532.106	53.982	-0.183	-0.174
-531.091	-129.470	0.040	0.005
-530.077	800.000	-0.145	0.475
-529.062	-115.270	0.172	-0.032
-528.048	-61.760	0.059	-0.024
-527.033	-173.249	0.233	0.007
-526.018	800.000	-0.097	-0.303
-525.004	-200.000	0.023	-0.146
-523.989	264.518	-0.178	-0.308
-522.975	-192.428	-0.185	0.002
-521.960	-135.181	0.263	-0.031
-520.945	-150.848	-0.066	0.005
-519.931	87.020	0.246	0.269
-518.916	800.000	0.138	0.378
-517.902	553.374	0.146	0.349
-516.887	-200.000	-0.053	-0.302
-515.872	-24.338	-0.294	0.174
-514.858	30.024	0.228	0.192
-513.843	-73.430	-0.221	0.080
-512.829	-53.425	0.278	0.126
-511.814	-132.844	0.283	-0.036
-510.799	192.317	0.150	0.223
-509.785	-200.000	0.017	-0.103
-508.770	-103.100	-0.221	-0.052
-507.756	547.711	0.060	-0.142
-506.741	-91.066	-0.057	0.016
-505.726	800.000	-0.034	0.119
-504.712	-72.190	-0.277	-0.102
-503.697	-107.088	0.094	0.021
-502.683	-200.000	-0.005	-0.205
-501.668	13.652	-0.343	-0.263
-500.653	-92.248	-0.270	-0.075
-499.639	6.027	-0.144	0.105
-498.624	-123.644	0.276	-0.043
-497.610	-105.687	0.110	0.025
-496.595	-69.328	0.059	-0.022
-495.581	99.828	-0.229	0.263
-494.566	-200.000	0.008	0.258
-493.551	800.000	0.081	-0.279
-492.537	332.974	0.228	-0.436
-491.522	-184.942	-0.182	-0.003
-490.508	555.638	-0.070	-0.168
-489.493	174.974	0.192	0.274
-488.478	631.117	-0.009	0.022
-487.464	800.000	0.104	-0.363
-486.449	-88.609	-0.243	0.072
-485.435	292.297	0.111	-0.199
-484.420	543.766	-0.067	-0.158
-483.405	800.000	0.016	0.050
-482.391	372.777	0.025	0.050
-481.376	-116.909	-0.189	-0.034
-480.362	208.386	-0.039	-0.060
-479.347	23.343	-0.182	0.148
-478.332	103.739	0.162	0.188
-477.318	-200.000	0.085	0.428
-476.303	-76.495	0.192	-0.067
-475.289	-134.321	0.244	0.030
-474.274	-17.692	0.307	-0.191
-473.259	800.000	0.057	-0.210
-472.245	127.681	-0.060	-0.076
-471.230	323.716	0.107	-0.201
-470.216	-133.673	-0.130	0.016
-469.201	160.438	0.145	0.199
-468.186	301.382	0.045	0.083
-467.172	-66.540	-0.236	0.093
-466.157	80.167	0.049	-0.052
-465.143	-101.427	-0.245	-0.059
-464.128	-101.123	0.157	-0.038
-463.113	-42.535	0.215	0.108
-462.099	194.167	0.045	-0.067
-461.084	404.893	-0.130	0.271
-460.070	-40.717	0.331	0.170
-459.055	-113.392	0.424	-0.082
-458.040	-158.101	-0.234	-0.014
-457.026	-5.903	0.166	0.112
-456.011	-200.000	0.043	0.272
-454.997	-103.933	-0.415	0.096
-453.982	146.126	-0.220	-0.291
-452.968	158.322	0.234	-0.320
-451.953	-148.913	-0.298	-0.024
-450.938	189.766	-0.042	-0.062
-449.924	7.303	-0.313	-0.231
-448.909	330.890	0.091	0.172
-447.895	800.000	-0.058	0.186
-446.880	14.146	-0.333	0.256
-445.865	115.315	-0.149	0.180
-444.851	-71.274	-0.388	0.144
-443.836	-200.000	0.069	-0.333
-442.822	-200.000	-0.013	-0.165
-441.807	262.205	0.221	-0.379
-440.792	800.000	0.044	-0.121
-439.778	-180.671	-0.252	-0.005
-438.763	103.717	0.055	0.064
-437.749	93.930	0.137	-0.153
-436.734	57.703	0.048	-0.047
-435.719	-78.759	0.399	0.134
-434.705	89.302	-0.129	0.142
-433.690	-97.535	-0.163	-0.042
-432.676	103.915	0.257	-0.299
-431.661	728.878	0.088	0.232
-430.646	-110.461	-0.221	0.045
-429.632	-47.712	0.199	0.095
-428.617	-135.157	-0.285	0.034
-427.603	166.174	0.100	-0.139
-426.588	800.000	-0.046	-0.178
-425.573	258.230	-0.215	0.366
-424.559	45.308	-0.025	-0.023
-423.544	-200.000	0.353	0.001
-422.530	-200.000	0.001	0.031
-421.515	-168.052	0.245	0.009
-420.500	263.374	0.079	0.135
-419.486	37.410	-0.121	0.106
-418.471	168.543	-0.021	-0.029
-417.457	-26.480	-0.081	0.047
-416.442	-200.000	-0.034	0.346
-415.428	-200.000	0.004	0.229
-414.413	-71.193	0.325	0.120
-413.398	-100.170	-0.130	0.032
-412.384	101.063	0.133	0.153
-411.369	-200.000	-0.002	0.084
-410.355	-125.333	0.062	-0.009
-409.340	-200.000	0.002	0.252
-408.325	510.885	-0.064	-0.148
-407.311	800.000	-0.020	-0.073
-406.296	238.873	0.108	-0.177
-405.282	-12.307	-0.063	-0.040
-404.267	-151.213	0.042	0.003
-403.252	-1.000	0.140	0.098
-402.238	-200.000	0.028	0.383
-401.223	-96.250	0.167	-0.044
-400.209	16.919	-0.170	-0.133
-399.194	-136.957	0.150	-0.017
-398.179	85.370	0.045	-0.048
-397.165	59.631	-0.247	-0.240
-396.150	-172.620	0.115	-0.004
-395.136	145.003	0.164	0.216
-394.121	-200.000	0.014	-0.132
-393.106	-9.387	-0.334	-0.220
-392.092	-164.705	-0.084	-0.004
-391.077	-160.692	-0.080	-0.004
-390.063	207.531	-0.246	-0.378
-389.048	-200.000	0.034	-0.177
-388.033	-135.038	-0.190	-0.023
-387.019	7.816	0.283	-0.209
-386.004	-177.612	-0.166	0.004
-384.990	-41.992	-0.281	-0.142
-383.975	107.471	-0.168	0.197
-382.960	-200.000	-0.038	-0.258
-381.946	-101.400	-0.319	0.076
-380.931	79.511	0.037	0.039
-379.917	38.002	-0.119	-0.104
-378.902	201.656	0.070	0.107
-377.888	800.000	0.089	0.307
-376.873	371.014	-0.102	-0.204
-375.858	205.833	-0.056	-0.085
-374.844	-19.132	0.317	0.194
-373.829	-87.457	0.322	0.096
-372.815	-200.000	-0.022	0.196
-371.800	-50.755	-0.189	-0.088
-370.785	-43.316	0.140	-0.070
-369.771	756.139	-0.058	-0.155
-368.756	233.237	0.218	-0.354
-367.742	13.672	0.068	0.052
-366.727	-88.448	-0.081	0.024
-365.712	-200.000	-0.047	0.309
-364.698	-200.000	-0.040	0.347
-363.683	795.651	-0.084	-0.228
-362.669	2.021	-0.113	0.080
-361.654	-200.000	0.034	0.214
-360.639	-200.000	0.028	0.218
-359.625	-130.220	-0.213	0.029
-358.610	201.830	0.142	0.215
-357.596	-53.568	0.093	0.042
-356.581	0.511	-0.338	0.238
-355.566	-58.153	-0.021	0.009
-354.552	63.007	0.102	-0.100
-353.537	614.507	-0.049	0.122
-352.523	800.000	0.043	-0.181
-351.508	394.850	-0.058	-0.119
-350.493	88.484	-0.210	0.230
-349.479	47.470	0.219	0.201
-348.464	78.348	0.340	0.357
-347.450	-115.773	-0.192	0.035
-346.435	597.111	0.157	0.383
-345.420	779.416	-0.133	-0.357
-344.406	343.555	-0.083	0.160
-343.391	800.000	-0.088	-0.298
-342.377	-41.024	-0.141	0.072
-341.362	127.857	-0.086	-0.107
-340.348	-77.789	0.048	0.016
-339.333	14.416	0.308	-0.236
-338.318	107.791	-0.359	-0.421
-337.304	-115.544	0.180	0.033
-336.289	-120.234	-0.241	0.040
-335.275	104.031	0.247	0.286
-334.260	-61.455	0.185	-0.076
-333.245	351.274	0.129	-0.251
-332.231	313.717	0.148	0.274
-331.216	370.991	-0.170	-0.339
-330.202	285.683	0.153	-0.271
-329.187	800.000	0.067	-0.195
-328.172	228.241	-0.073	0.117
-327.158	79.772	-0.176	0.186
-326.143	-32.801	-0.259	-0.142
-325.129	-119.131	0.284	0.049
-324.114	-200.000	0.020	0.226
-323.099	144.282	-0.043	-0.057
-322.085	-200.000	0.019	0.231
-321.070	16.981	-0.155	0.121
-320.056	-91.586	0.288	0.081
-319.041	25.007	-0.134	-0.109
-318.026	800.000	-0.055	0.162
-317.012	20.234	-0.054	0.043
-315.997	-60.417	0.278	0.116
-314.983	182.497	0.073	-0.105
-313.968	-11.470	-0.116	-0.075
-312.953	-200.000	-0.015	-0.135
-311.939	106.115	-0.093	0.108
-310.924	41.217	-0.124	0.110
-309.910	35.475	0.311	-0.268
-308.895	-137.819	-0.154	-0.017
-307.880	-114.941	0.267	-0.050
-306.866	-71.178	0.157	-0.058
-305.851	25.644	-0.149	0.122
-304.837	800.000	0.145	0.449
-303.822	-200.000	-0.018	-0.132
-302.807	1.018	-0.106	0.074
-301.793	-200.000	0.009	0.143
-300.778	706.448	-0.168	0.435
-299.764	122.815	0.056	0.069
-298.749	44.605	0.240	-0.216
-297.735	-132.072	0.420	-0.054
-296.720	-177.445	0.424	0.010
-295.705	100.262	-0.081	-0.092
-294.691	-200.000	0.010	0.060
-293.676	66.435	0.123	0.122
-292.662	800.000	0.086	0.287
-291.647	-200.000	0.040	-0.264
-290.632	-141.443	-0.364	-0.036
-289.618	66.408	0.109	0.109
-288.603	145.631	0.163	0.214
-287.589	75.349	0.096	-0.099
-286.574	-47.106	0.056	-0.027
-285.559	800.000	0.063	0.248
-284.545	263.127	-0.155	-0.264
-283.530	-100.851	-0.309	-0.075
-282.516	-200.000	-0.053	-0.417
-281.501	-13.617	0.112	-0.071
-280.486	800.000	0.122	0.340
-279.472	46.600	0.287	0.262
-278.457	800.000	0.056	0.177
-277.443	84.777	-0.278	-0.299
-276.428	116.034	-0.200	0.240
-275.413	209.980	0.094	-0.144
-274.399	-5.280	-0.206	0.139
-273.384	230.295	-0.062	0.100
-272.370	-18.690	0.141	-0.086
-271.355	-69.767	-0.306	-0.115
-270.340	-101.213	-0.247	-0.059
-269.326	-63.722	-0.269	-0.108
-268.311	-23.432	0.156	0.092
-267.297	173.481	-0.149	-0.211
-266.282	553.637	-0.040	0.094
-265.267	-7.653	0.212	0.140
-264.253	171.362	-0.104	-0.146
-263.238	-110.729	0.067	0.014
-262.224	800.000	-0.059	-0.234
-261.209	674.608	0.148	0.376
-260.195	-160.814	0.131	0.007
-259.180	-97.123	-0.257	0.066
-258.165	-16.461	-0.177	0.110
-257.151	-35.223	0.142	-0.076
-256.136	348.881	0.120	0.232
-255.122	-61.328	0.075	-0.031
-254.107	-102.872	-0.124	-0.029
-253.092	66.576	0.085	0.085
-252.078	-40.636	0.268	-0.136
-251.063	15.701	-0.201	0.155
-250.049	-200.000	0.034	0.283
-249.034	-53.055	0.080	0.036
-248.019	159.664	-0.304	-0.415
-247.005	25.981	0.171	-0.140
-245.990	-45.581	0.329	-0.160
-244.976	-121.393	-0.279	-0.046
-243.961	434.230	0.173	-0.368
-242.946	87.847	-0.081	0.088
-241.932	283.523	0.189	0.332
-240.917	-42.507	-0.186	-0.093
-239.903	124.072	0.221	-0.273
-238.888	39.726	-0.175	-0.154
-237.873	-110.841	-0.241	0.049
-236.859	-199.686	-0.047	0.000
-235.844	-114.368	-0.176	-0.033
-234.830	-200.000	-0.016	-0.119
-233.815	136.559	-0.228	0.291
-232.800	800.000	0.080	0.255
-231.786	-200.000	0.042	0.223
-230.771	93.293	0.089	-0.099
-229.757	800.000	0.029	0.101
-228.742	102.760	-0.286	-0.328
-227.727	29.585	0.088	0.074
-226.713	5.739	0.105	-0.076
-225.698	-200.000	-0.031	-0.170
-224.684	-200.000	0.010	-0.070
-223.669	356.931	-0.084	0.163
-222.655	-13.966	-0.192	0.121
-221.640	93.562	0.179	-0.198
-220.625	-149.436	0.253	0.020
-219.611	-115.572	0.115	0.021
-218.596	12.890	0.247	0.187
-217.582	-63.913	0.384	-0.154
-216.567	277.254	-0.039	0.067
-215.552	-75.017	0.130	-0.046
-214.538	-10.112	0.057	0.037
-213.523	88.297	-0.296	-0.321
-212.509	322.154	0.134	-0.249
-211.494	-0.634	0.138	0.096
-210.479	85.995	-0.284	0.305
-209.465	167.175	-0.246	-0.342
-208.450	-200.000	0.014	0.317
-207.436	-93.879	0.273	-0.073
-206.421	-71.281	0.235	-0.086
-205.406	-83.414	-0.357	0.112
-204.392	-200.000	-0.013	0.196
-203.377	215.178	-0.068	0.105
-202.363	-124.020	-0.306	-0.047
-201.348	293.224	0.034	0.062
-200.333	332.388	0.086	-0.162
-199.319	-200.000	0.020	0.252
-198.304	-59.850	0.074	0.031
-197.290	-106.638	0.226	-0.049
-196.275	162.997	-0.098	0.134
-195.260	-75.516	0.183	0.064
-194.246	-17.954	0.111	0.068
-193.231	-98.420	0.098	0.024
-192.217	800.000	-0.069	-0.200
-191.202	-200.000	-0.030	-0.248
-190.187	-200.000	0.092	-0.446
-189.173	-98.320	0.201	0.050
-188.158	-153.631	-0.034	-0.002
-187.144	-200.000	0.006	-0.075
-186.129	-17.667	-0.160	-0.098
-185.114	-168.255	0.417	-0.016
-184.100	335.927	-0.221	0.420
-183.085	-67.775	0.140	0.054
-182.071	47.614	-0.096	0.087
-181.056	-116.732	0.179	-0.032
-180.042	102.922	0.279	-0.319
-179.027	-15.912	-0.162	-0.101
-178.012	-96.095	0.370	0.096
-176.998	309.955	0.069	0.126
-175.983	-104.847	-0.267	-0.060
-174.969	135.730	0.126	0.160
-173.954	46.618	0.292	0.265
-172.939	-10.765	0.207	0.134
-171.925	-8.854	0.053	-0.035
-170.910	46.138	-0.193	0.175
-169.896	357.951	-0.067	-0.131
-168.881	800.000	-0.075	0.232
-167.866	-46.887	0.183	0.087
-166.852	139.562	-0.089	-0.114
-165.837	353.824	0.156	0.302
-164.823	-200.000	-0.005	0.203
-163.808	800.000	-0.131	0.485
-162.793	247.215	-0.066	0.108
-161.779	130.344	0.345	-0.432
-160.764	-58.062	0.344	-0.147
-159.750	-167.567	0.208	0.008
-158.735	-200.000	0.024	-0.199
-157.720	800.000	0.040	0.119
-156.706	800.000	-0.147	0.534
-155.691	-54.776	-0.185	0.082
-154.677	-200.000	-0.053	-0.250
-153.662	-77.756	-0.161	-0.054
-152.647	-200.000	0.003	0.121
-151.633	0.069	-0.300	0.209
-150.618	-59.497	0.223	-0.093
-149.604	27.691	0.091	-0.075
-148.589	578.715	0.108	-0.258
-147.574	800.000	0.064	-0.175
-146.560	96.667	-0.072	-0.081
-145.545	-200.000	-0.024	-0.288
-144.531	-200.000	0.048	0.252
-143.516	-138.839	0.335	-0.036
-142.502	19.497	0.059	0.046
-141.487	-200.000	0.009	-0.308
-140.472	91.503	-0.133	-0.146
-139.458	-5.539	-0.215	-0.144
-138.443	8.800	-0.108	-0.080
-137.429	-99.727	0.353	0.086
-136.414	683.516	0.104	0.266
-135.399	-78.789	-0.386	-0.128
-134.385	218.142	-0.136	-0.212
-133.370	405.839	0.053	0.108
-132.356	-200.000	0.001	0.527
-131.341	-200.000	0.069	0.399
-130.326	-200.000	0.034	0.163
-129.312	-140.594	-0.030	0.003
-128.297	800.000	0.047	-0.138
-127.283	132.276	0.116	0.145
-126.268	415.046	-0.160	-0.332
-125.253	-112.656	0.374	0.073
-124.239	800.000	0.015	-0.062
-123.224	316.610	0.273	-0.503
-122.210	172.481	0.162	-0.228
-121.195	-200.000	-0.066	0.296
-120.180	-80.222	0.254	0.083
