DTS Sentinel unit serial number:	SN413079Multiplexer serial number:	ORYXHardware model number:	OX4-SRSoftware version number:	ORYX F/W v4.00 Oryx Data Collector v3.7.2.0data status	okinstallation	princeton_trtdifferential loss correction	single-endedforward channel	channel 3reverse channel	N/Adate	2019/09/16time	08:36:35forward acquisition time	60.00reverse acquisition time	0.00gamma	496.2192k internal	0.2324k external	0.2324temperature offset calibration	0.9956default loss term (dB/km)	0.3790temperature slope calibration	1.0000multiplexer offset coefficient	1.0000multiplexer slope coefficient	1.0000fibre end	0.00T internal ref (°C)	29.48T ext. ref 1 (°C)	11.94T ext. ref 2 (°C)	26.18length (m)	temperature (°C)	Stokes	anti-Stokes-747.200	331.980	0.098	0.190
-746.185	-47.448	0.279	0.137
-745.171	-143.956	-0.318	-0.030
-744.156	-200.000	0.020	0.374
-743.142	40.492	-0.162	-0.147
-742.127	-120.758	-0.281	0.048
-741.112	-200.000	0.006	0.050
-740.098	-10.972	-0.189	-0.126
-739.083	-8.729	-0.178	-0.120
-738.069	-32.134	0.059	-0.033
-737.054	-37.634	0.430	-0.231
-736.039	-200.000	0.008	-0.052
-735.025	-66.737	0.348	-0.139
-734.010	-178.037	0.153	-0.004
-732.996	800.000	-0.022	-0.071
-731.981	-172.258	0.217	0.007
-730.966	800.000	0.021	0.081
-729.952	-20.098	-0.260	0.162
-728.937	505.988	0.128	-0.300
-727.923	33.936	-0.179	0.157
-726.908	-200.000	0.000	-0.381
-725.894	-200.000	-0.029	-0.212
-724.879	800.000	0.063	-0.188
-723.864	-200.000	0.004	-0.027
-722.850	109.721	-0.162	-0.195
-721.835	117.515	0.050	-0.062
-720.821	800.000	-0.020	0.064
-719.806	-131.503	-0.257	-0.034
-718.791	76.148	-0.165	0.176
-717.777	-92.124	0.236	0.067
-716.762	-200.000	0.021	-0.174
-715.748	158.309	0.058	0.081
-714.733	-64.153	0.357	0.147
-713.718	-27.577	0.325	-0.190
-712.704	445.375	-0.067	-0.149
-711.689	800.000	0.095	-0.291
-710.675	-113.805	0.217	0.043
-709.660	-153.800	-0.070	-0.005
-708.645	17.953	-0.047	-0.038
-707.631	-200.000	0.026	0.295
-706.616	306.978	0.296	0.555
-705.602	-166.722	-0.602	0.025
-704.587	92.153	0.045	-0.051
-703.572	-200.000	-0.013	0.253
-702.558	62.577	-0.038	0.039
-701.543	758.050	-0.130	-0.354
-700.529	89.948	0.099	-0.112
-699.514	-128.806	0.042	-0.006
-698.499	303.636	-0.067	-0.125
-697.485	-81.043	-0.099	-0.033
-696.470	-131.187	-0.086	0.011
-695.456	665.182	-0.091	-0.238
-694.441	60.881	-0.232	-0.232
-693.426	-85.256	-0.214	-0.067
-692.412	-97.641	-0.038	-0.010
-691.397	-16.835	0.190	-0.121
-690.383	800.000	-0.054	-0.204
-689.368	13.155	0.153	-0.119
-688.354	-81.235	0.233	-0.078
-687.339	-200.000	-0.011	0.065
-686.324	121.687	0.092	0.115
-685.310	143.787	0.071	-0.096
-684.295	-200.000	-0.009	-0.465
-683.281	-103.945	0.324	-0.076
-682.266	365.620	-0.150	-0.304
-681.251	-74.073	-0.260	0.095
-680.237	587.806	-0.072	-0.178
-679.222	-160.659	-0.067	0.004
-678.208	45.580	0.156	-0.145
-677.193	642.338	0.082	0.209
-676.178	800.000	0.084	-0.269
-675.164	22.997	0.003	0.003
-674.149	-119.389	0.309	-0.054
-673.135	-35.520	-0.302	0.165
-672.120	154.651	0.039	-0.054
-671.105	-12.161	-0.185	-0.122
-670.091	-27.524	-0.187	0.110
-669.076	23.209	-0.412	-0.341
-668.062	8.675	-0.302	0.229
-667.047	-64.344	0.110	-0.045
-666.032	-200.000	0.037	0.308
-665.018	23.691	0.073	0.061
-664.003	-190.639	0.227	0.002
-662.989	51.395	-0.134	-0.128
-661.974	111.454	0.097	0.117
-660.959	263.714	-0.173	-0.302
-659.945	-32.898	0.131	-0.073
-658.930	261.657	-0.117	-0.204
-657.916	-164.993	0.326	0.015
-656.901	-77.172	-0.162	0.057
-655.886	-68.016	0.035	-0.014
-654.872	-200.000	0.023	-0.156
-653.857	18.753	0.386	-0.311
-652.843	-36.385	0.213	0.115
-651.828	248.323	-0.191	0.325
-650.814	-66.114	0.240	-0.096
-649.799	4.663	0.197	-0.146
-648.784	360.617	-0.181	-0.365
-647.770	-33.949	0.011	0.006
-646.755	-200.000	0.007	0.059
-645.741	-114.921	0.294	-0.056
-644.726	-60.852	0.100	0.043
-643.711	3.864	-0.098	0.072
-642.697	31.591	0.302	-0.261
-641.682	-137.298	-0.171	-0.020
-640.668	-118.043	0.295	0.053
-639.653	39.086	0.287	-0.258
-638.638	-99.380	-0.322	0.082
-637.624	800.000	-0.046	-0.159
-636.609	800.000	0.048	-0.152
-635.595	-181.298	-0.176	-0.003
-634.580	-200.000	-0.028	0.230
-633.565	-120.291	-0.462	-0.079
-632.551	21.184	0.175	0.143
-631.536	800.000	-0.043	-0.177
-630.522	205.769	-0.138	0.215
-629.507	-98.446	0.159	-0.041
-628.492	224.405	0.066	0.107
-627.478	-200.000	-0.024	0.287
-626.463	174.235	0.060	0.087
-625.449	-200.000	0.015	0.180
-624.434	-102.697	0.227	0.054
-623.419	-8.124	-0.088	0.060
-622.405	216.766	0.046	-0.074
-621.390	-200.000	-0.025	-0.168
-620.376	-52.552	-0.156	0.072
-619.361	-29.596	0.219	-0.126
-618.346	-167.791	0.143	0.006
-617.332	-200.000	0.074	-0.491
-616.317	120.203	-0.138	-0.172
-615.303	91.621	0.017	0.020
-614.288	-170.154	0.274	-0.010
-613.273	188.820	0.144	-0.217
-612.259	-23.674	0.151	-0.091
-611.244	-59.565	0.163	0.070
-610.230	-105.249	0.057	-0.013
-609.215	512.372	-0.128	-0.299
-608.201	-141.173	-0.144	0.015
-607.186	800.000	-0.015	0.048
-606.171	-152.706	-0.149	-0.011
-605.157	-200.000	0.046	-0.235
-604.142	744.362	-0.070	0.189
-603.128	-31.653	0.161	-0.091
-602.113	-200.000	0.006	-0.099
-601.098	-60.603	-0.140	-0.060
-600.084	-150.224	0.209	0.016
-599.069	77.171	0.125	-0.133
-598.055	-100.644	0.212	0.053
-597.040	-116.499	-0.172	-0.032
-596.025	483.221	-0.168	-0.384
-595.011	88.007	0.093	-0.104
-593.996	-200.000	0.018	-0.520
-592.982	173.059	-0.174	0.252
-591.967	-200.000	-0.019	0.147
-590.952	-44.393	-0.136	0.068
-589.938	262.899	0.235	0.409
-588.923	578.268	0.247	0.605
-587.909	-138.601	-0.341	-0.037
-586.894	-197.102	-0.057	0.000
-585.879	-133.533	-0.256	0.032
-584.865	-50.333	-0.179	-0.085
-583.850	-200.000	-0.028	-0.560
-582.836	114.425	0.233	-0.285
-581.821	40.923	0.205	0.185
-580.806	150.684	0.132	-0.181
-579.792	-166.412	0.309	-0.013
-578.777	-89.314	-0.119	-0.035
-577.763	-95.567	0.150	0.040
-576.748	-200.000	0.008	0.219
-575.733	88.615	-0.055	-0.062
-574.719	-96.125	-0.182	-0.049
-573.704	-30.685	-0.116	-0.066
-572.690	106.085	-0.179	-0.212
-571.675	-37.401	0.139	-0.075
-570.661	800.000	0.083	0.246
-569.646	-116.341	-0.234	-0.043
-568.631	45.774	-0.057	0.053
-567.617	-0.428	-0.193	0.137
-566.602	42.106	0.066	0.060
-565.588	-15.490	-0.064	-0.041
-564.573	-94.936	0.078	-0.021
-563.558	-200.000	-0.008	0.164
-562.544	-144.719	0.107	0.010
-561.529	108.754	-0.147	0.176
-560.515	-79.433	-0.078	0.026
-559.500	548.242	0.009	0.021
-558.485	96.728	0.138	0.158
-557.471	-200.000	0.061	0.297
-556.456	209.843	0.161	0.252
-555.442	-60.579	-0.280	-0.119
-554.427	67.642	-0.081	0.083
-553.412	-144.764	-0.441	-0.041
-552.398	300.501	-0.086	0.159
-551.383	162.919	-0.165	-0.232
-550.369	-200.000	-0.037	0.271
-549.354	117.310	-0.136	-0.167
-548.339	124.888	-0.180	0.227
-547.325	27.056	-0.189	-0.159
-546.310	136.903	0.135	-0.177
-545.296	90.735	0.247	-0.277
-544.281	101.561	-0.143	-0.166
-543.266	323.732	-0.103	-0.197
-542.252	-67.135	0.150	-0.059
-541.237	165.226	0.090	0.128
-540.223	-149.224	-0.081	-0.006
-539.208	159.673	-0.106	0.148
-538.193	144.472	0.014	0.019
-537.179	440.672	0.030	0.065
-536.164	362.827	-0.116	-0.233
-535.150	199.916	0.077	0.119
-534.135	-35.366	0.303	-0.165
-533.121	-39.342	0.039	0.021
-532.106	-76.487	0.094	-0.033
-531.091	-200.000	-0.008	-0.137
-530.077	-11.024	0.075	0.049
-529.062	30.358	-0.218	0.186
-528.048	-184.549	-0.087	0.001
-527.033	455.544	0.095	-0.211
-526.018	-179.510	-0.193	0.004
-525.004	-83.637	0.345	-0.110
-523.989	12.562	0.127	-0.098
-522.975	-200.000	0.000	0.128
-521.960	-114.378	-0.280	-0.054
-520.945	795.235	0.053	-0.146
-519.931	151.101	0.069	-0.095
-518.916	221.279	-0.125	0.200
-517.902	-63.417	0.144	0.059
-516.887	-19.778	0.266	-0.165
-515.872	-4.555	-0.116	0.080
-514.858	404.355	0.095	-0.200
-513.843	450.341	0.136	-0.301
-512.829	-200.000	-0.032	0.191
-511.814	-139.125	0.049	0.005
-510.799	5.261	0.344	0.253
-509.785	-114.157	-0.564	-0.109
-508.770	568.679	0.109	0.265
-507.756	18.145	-0.341	-0.272
-506.741	261.634	-0.049	-0.086
-505.726	-200.000	-0.005	-0.094
-504.712	258.313	-0.093	-0.160
-503.697	-200.000	0.012	-0.326
-502.683	2.821	0.209	0.151
-501.668	178.558	-0.266	-0.388
-500.653	55.830	-0.078	-0.076
-499.639	-37.438	-0.126	0.067
-498.624	322.755	-0.126	0.239
-497.610	314.905	-0.115	-0.216
-496.595	-87.329	0.162	-0.049
-495.581	9.146	-0.228	-0.173
-494.566	-200.000	-0.001	0.070
-493.551	-69.984	0.329	-0.125
-492.537	7.193	0.213	-0.159
-491.522	96.234	0.188	-0.215
-490.508	256.600	0.129	-0.222
-489.493	-200.000	-0.015	0.088
-488.478	38.395	-0.148	0.132
-487.464	87.784	-0.150	0.167
-486.449	-90.458	-0.213	-0.062
-485.435	238.027	0.098	0.163
-484.420	9.789	-0.086	0.065
-483.405	-110.433	0.316	0.066
-482.391	-30.785	-0.249	-0.141
-481.376	-134.982	-0.164	-0.020
-480.362	800.000	-0.046	0.152
-479.347	27.935	-0.121	0.102
-478.332	-186.905	-0.366	0.005
-477.318	757.282	0.079	-0.213
-476.303	-200.000	-0.055	0.298
-475.289	-200.000	0.005	0.024
-474.274	-200.000	-0.039	-0.382
-473.259	-112.393	0.242	0.048
-472.245	664.007	0.090	0.233
-471.230	775.305	-0.099	0.269
-470.216	102.157	0.100	-0.116
-469.201	-28.639	-0.347	-0.199
-468.186	800.000	-0.055	-0.239
-467.172	-85.975	-0.083	0.026
-466.157	-73.911	0.148	-0.053
-465.143	152.342	-0.040	-0.055
-464.128	403.346	0.063	-0.132
-463.113	49.633	-0.301	0.283
-462.099	-171.755	0.298	-0.010
-461.084	-200.000	-0.023	-0.300
-460.070	65.461	0.176	0.178
-459.055	-200.000	0.003	-0.146
-458.040	-28.392	0.203	-0.117
-457.026	800.000	0.049	-0.150
-456.011	-150.868	0.152	0.011
-454.997	168.962	-0.227	0.322
-453.982	-98.926	-0.089	0.022
-452.968	-188.801	0.116	-0.001
-451.953	308.158	0.100	0.186
-450.938	-71.427	0.276	0.103
-449.924	-127.702	0.172	-0.025
-448.909	-151.459	0.007	-0.001
-447.895	359.716	-0.163	0.325
-446.880	153.260	0.127	0.173
-445.865	-97.665	0.203	-0.052
-444.851	-9.642	-0.278	-0.185
-443.836	252.076	-0.102	0.173
-442.822	-112.736	-0.085	-0.017
-441.807	20.693	0.096	-0.077
-440.792	364.278	-0.095	-0.191
-439.778	38.560	0.142	0.126
-438.763	-200.000	0.005	0.067
-437.749	-0.739	0.149	0.105
-436.734	-83.462	0.312	0.100
-435.719	126.249	-0.044	0.055
-434.705	-200.000	0.014	0.207
-433.690	-85.593	-0.155	0.048
-432.676	-130.250	0.228	0.031
-431.661	-200.000	0.020	0.120
-430.646	0.122	-0.163	-0.116
-429.632	-5.136	0.204	0.140
-428.617	-169.291	-0.224	0.008
-427.603	-74.126	0.093	-0.034
-426.588	223.880	0.018	0.028
-425.573	-12.382	-0.340	0.222
-424.559	-200.000	-0.048	-0.272
-423.544	-126.743	-0.177	-0.026
-422.530	-11.250	0.115	0.076
-421.515	-0.143	0.133	-0.095
-420.500	-200.000	0.014	-0.273
-419.486	-200.000	0.016	-0.265
-418.471	-73.515	-0.028	-0.010
-417.457	234.935	0.073	0.119
-416.442	-13.853	0.102	0.065
-415.428	-200.000	-0.017	-0.268
-414.413	-14.267	0.154	-0.099
-413.398	-200.000	0.065	-0.481
-412.384	-161.147	0.061	0.003
-411.369	-200.000	-0.004	-0.138
-410.355	-9.698	0.157	0.104
-409.340	194.256	0.137	-0.206
-408.325	-29.523	-0.398	0.227
-407.311	220.951	-0.037	-0.059
-406.296	-79.397	-0.438	0.147
-405.282	800.000	0.061	-0.232
-404.267	216.068	-0.108	-0.170
-403.252	-200.000	0.009	-0.049
-402.238	256.089	0.083	-0.142
-401.223	41.724	-0.210	-0.190
-400.209	478.550	0.014	-0.031
-399.194	-200.000	0.002	0.137
-398.179	-94.114	-0.469	0.128
-397.165	-200.000	-0.029	0.173
-396.150	302.889	-0.222	-0.409
-395.136	-200.000	0.017	-0.327
-394.121	-138.646	-0.601	-0.065
-393.106	-200.000	0.019	0.106
-392.092	128.589	-0.050	0.063
-391.077	-119.283	-0.397	-0.069
-390.063	-120.055	0.205	-0.035
-389.048	-200.000	0.014	-0.223
-388.033	623.323	-0.135	0.339
-387.019	-115.703	-0.320	0.060
-386.004	-12.934	0.236	0.153
-384.990	-73.357	-0.073	0.026
-383.975	-200.000	0.017	-0.162
-382.960	-9.292	-0.176	0.117
-381.946	-42.705	0.067	-0.034
-380.931	148.372	-0.370	-0.497
-379.917	-36.899	-0.036	-0.019
-378.902	-200.000	-0.007	-0.083
-377.888	800.000	0.136	0.502
-376.873	-101.485	-0.122	0.030
-375.858	-200.000	0.059	0.281
-374.844	584.194	-0.075	0.183
-373.829	120.058	0.257	0.318
-372.815	-83.905	-0.174	-0.055
-371.800	-17.910	0.288	0.180
-370.785	-161.254	-0.412	-0.021
-369.771	800.000	-0.043	-0.160
-368.756	-200.000	0.032	-0.165
-367.742	-200.000	-0.034	0.199
-366.727	-165.955	-0.430	0.018
-365.712	174.808	-0.065	-0.093
-364.698	-200.000	0.050	0.499
-363.683	-200.000	-0.025	0.134
-362.669	-39.575	-0.199	0.104
-361.654	-2.823	-0.147	-0.102
-360.639	-11.744	0.271	-0.177
-359.625	800.000	-0.091	-0.266
-358.610	-41.696	-0.131	0.067
-357.596	-169.020	-0.146	-0.005
-356.581	800.000	-0.047	0.139
-355.566	-200.000	0.421	0.000
-354.552	-200.000	0.010	-0.118
-353.537	126.055	-0.227	-0.285
-352.523	207.643	0.112	0.174
-351.508	800.000	0.081	0.281
-350.493	132.405	-0.272	-0.348
-349.479	-115.056	0.189	-0.036
-348.464	-44.165	0.205	-0.102
-347.450	-185.822	0.265	-0.004
-346.435	201.002	-0.038	-0.058
-345.420	-93.090	-0.177	0.049
-344.406	-148.389	0.261	-0.021
-343.391	-38.084	-0.188	0.099
-342.377	381.507	0.028	-0.057
-341.362	32.001	-0.133	-0.114
-340.348	-54.181	-0.215	0.097
-339.333	20.406	0.211	0.170
-338.318	152.105	0.038	-0.051
-337.304	-89.461	-0.318	-0.093
-336.289	-200.000	-0.009	-0.256
-335.275	-200.000	-0.021	0.293
-334.260	-115.737	0.288	-0.054
-333.245	313.566	0.178	-0.332
-332.231	800.000	-0.075	-0.289
-331.216	125.783	0.068	-0.086
-330.202	137.492	-0.121	-0.157
-329.187	-64.435	0.164	0.066
-328.172	-126.842	0.136	-0.020
-327.158	17.726	-0.163	0.129
-326.143	158.032	0.094	-0.129
-325.129	212.709	0.134	-0.210
-324.114	320.479	0.079	-0.148
-323.099	-107.765	0.128	0.028
-322.085	-121.743	0.094	-0.015
-321.070	798.684	0.034	0.092
-320.056	-178.678	-0.317	-0.007
-319.041	686.059	-0.076	-0.196
-318.026	6.231	0.085	-0.063
-317.012	139.209	0.080	0.105
-315.997	205.636	-0.144	0.221
-314.983	-107.633	0.233	0.050
-313.968	-78.845	-0.049	0.016
-312.953	608.801	-0.037	-0.092
-311.939	355.416	0.228	0.450
-310.924	-105.142	0.306	0.069
-309.910	214.979	-0.127	-0.200
-308.895	-154.793	-0.498	0.033
-307.880	-104.299	0.232	0.053
-306.866	34.760	-0.212	0.184
-305.851	6.251	0.153	0.112
-304.837	35.300	-0.047	-0.041
-303.822	-3.623	0.178	-0.123
-302.807	-14.193	0.153	0.098
-301.793	-61.860	-0.070	-0.029
-300.778	49.187	0.247	-0.231
-299.764	-200.000	-0.001	-0.035
-298.749	-68.107	0.322	-0.124
-297.735	-19.823	-0.245	0.150
-296.720	47.547	-0.067	-0.062
-295.705	-200.000	0.051	0.301
-294.691	-154.504	0.457	-0.030
-293.676	529.057	-0.058	-0.136
-292.662	-126.475	0.138	-0.020
-291.647	127.870	0.220	-0.277
-290.632	20.050	0.264	0.211
-289.618	-200.000	-0.036	-0.308
-288.603	311.156	0.086	0.160
-287.589	800.000	0.067	-0.287
-286.574	145.581	-0.068	0.091
-285.559	-82.903	-0.265	-0.085
-284.545	53.025	0.191	0.181
-283.530	-200.000	0.175	-0.001
-282.516	800.000	0.076	0.225
-281.501	68.223	0.084	-0.086
-280.486	66.829	0.068	0.068
-279.472	133.430	-0.063	0.081
-278.457	-200.000	-0.016	0.254
-277.443	-42.187	0.116	-0.059
-276.428	-51.775	-0.310	0.143
-275.413	178.761	0.331	0.479
-274.399	50.033	0.132	0.124
-273.384	93.644	-0.222	0.249
-272.370	-200.000	-0.051	0.350
-271.355	197.455	0.095	0.144
-270.340	-54.235	0.069	-0.031
-269.326	403.993	0.103	0.215
-268.311	-125.936	0.198	-0.030
-267.297	-50.349	0.211	-0.099
-266.282	-57.463	-0.262	0.114
-265.267	-200.000	0.046	0.282
-264.253	31.653	0.273	-0.232
-263.238	800.000	-0.035	-0.104
-262.224	198.381	0.136	-0.207
-261.209	156.818	0.096	0.131
-260.195	-33.695	0.244	-0.133
-259.180	800.000	-0.054	0.191
-258.165	-7.263	0.136	0.091
-257.151	328.707	0.088	-0.167
-256.136	-146.228	-0.211	0.018
-255.122	151.949	-0.053	0.072
-254.107	291.417	-0.165	0.297
-253.092	-25.441	0.040	0.024
-252.078	126.779	0.060	0.075
-251.063	115.717	0.217	-0.263
-250.049	360.328	-0.097	-0.192
-249.034	-200.000	0.024	-0.270
-248.019	23.718	-0.166	-0.136
-247.005	-200.000	-0.059	0.627
-245.990	-165.282	-0.298	-0.013
-244.976	157.669	-0.084	-0.115
-243.961	-140.936	0.271	0.028
-242.946	-153.378	-0.186	0.013
-241.932	-152.460	-0.237	-0.017
-240.917	-32.258	-0.122	-0.067
-239.903	61.937	-0.077	-0.076
-238.888	39.369	-0.223	-0.198
-237.873	27.170	0.292	0.242
-236.859	277.094	-0.057	0.100
-235.844	-200.000	-0.006	0.256
-234.830	155.437	-0.159	-0.217
-233.815	-31.000	0.143	-0.080
-232.800	-32.553	0.050	0.027
-231.786	-200.000	0.102	0.000
-230.771	-109.511	0.150	0.031
-229.757	631.829	-0.011	-0.028
-228.742	-47.262	0.117	0.056
-227.727	-113.301	-0.293	0.057
-226.713	-136.556	0.435	0.050
-225.698	-200.000	-0.022	0.190
-224.684	769.276	-0.076	0.206
-223.669	128.554	0.197	0.249
-222.655	-200.000	0.020	0.128
-221.640	800.000	-0.032	0.128
-220.625	49.400	-0.052	0.049
-219.611	-165.963	0.233	0.010
-218.596	-12.622	-0.125	-0.080
-217.582	130.881	0.092	0.116
-216.567	169.808	0.100	0.141
-215.552	-148.575	0.422	0.034
-214.538	-200.000	-0.005	0.162
-213.523	31.251	-0.177	0.151
-212.509	46.053	0.113	-0.103
-211.494	-200.000	0.057	0.248
-210.479	753.109	-0.050	-0.133
-209.465	36.623	-0.207	-0.180
-208.450	-81.845	0.257	0.083
-207.436	800.000	-0.021	0.077
-206.421	-20.558	0.087	-0.053
-205.406	-200.000	-0.020	0.100
-204.392	-13.070	0.151	0.097
-203.377	-32.834	-0.117	0.064
-202.363	-54.783	-0.234	0.104
-201.348	-133.781	-0.228	0.028
-200.333	-64.829	0.166	-0.067
-199.319	-27.013	0.495	-0.286
-198.304	-34.622	-0.171	0.092
-197.290	16.996	-0.190	0.149
-196.275	-118.855	0.253	-0.044
-195.260	-133.269	0.180	-0.022
-194.246	224.115	-0.299	0.477
-193.231	79.194	0.081	0.086
-192.217	-200.000	-0.048	0.218
-191.202	-89.410	0.042	0.012
-190.187	141.651	0.127	-0.167
-189.173	325.926	-0.086	0.163
-188.158	-85.906	-0.226	0.069
-187.144	-69.587	0.260	0.098
-186.129	4.353	0.073	-0.053
-185.114	-117.025	-0.143	-0.026
-184.100	-109.536	-0.184	0.038
-183.085	-20.237	0.276	-0.168
-182.071	-200.000	-0.009	0.274
-181.056	-158.401	0.102	0.006
-180.042	418.517	0.039	0.082
-179.027	49.253	0.233	0.216
-178.012	-81.446	-0.200	-0.065
-176.998	-59.339	-0.301	-0.128
-175.983	800.000	-0.037	0.132
-174.969	95.548	-0.281	-0.317
-173.954	800.000	-0.058	0.246
-172.939	55.065	-0.183	-0.174
-171.925	800.000	-0.055	-0.157
-170.910	800.000	-0.019	-0.062
-169.896	420.584	0.198	0.418
-168.881	-200.000	-0.032	-0.436
-167.866	800.000	0.127	-0.364
-166.852	136.818	-0.258	-0.333
-165.837	-74.093	-0.170	0.061
-164.823	97.439	0.290	0.328
-163.808	-200.000	-0.015	-0.358
-162.793	101.452	-0.175	0.202
-161.779	140.192	-0.103	0.135
-160.764	-154.659	0.085	0.006
-159.750	208.620	-0.051	0.079
-158.735	480.996	0.092	0.206
-157.720	237.666	-0.202	0.331
-156.706	-180.227	-0.469	-0.010
-155.691	174.921	0.070	-0.100
-154.677	-200.000	-0.009	-0.173
-153.662	-119.681	0.335	0.057
-152.647	42.433	0.063	-0.057
-151.633	-200.000	0.023	0.186
-150.618	423.335	-0.120	-0.254
-149.604	-171.877	0.199	0.006
-148.589	776.060	0.045	0.122
-147.574	800.000	-0.074	0.294
-146.560	-200.000	0.019	0.233
-145.545	22.818	0.123	0.099
-144.531	-66.619	-0.465	-0.182
-143.516	800.000	-0.041	-0.129
-142.502	-200.000	0.060	0.294
-141.487	-128.843	0.168	-0.023
-140.472	-51.264	-0.167	-0.077
-139.458	360.722	-0.061	0.120
-138.443	-126.903	-0.101	-0.015
-137.429	-113.197	-0.230	0.045
-136.414	-132.466	-0.043	-0.005
-135.399	-200.000	-0.042	0.311
-134.385	-28.155	-0.128	-0.073
-133.370	-121.776	0.131	0.021
-132.356	800.000	0.054	0.161
-131.341	168.473	-0.214	0.300
-130.326	185.964	-0.119	0.174
-129.312	-85.129	-0.301	0.093
-128.297	-51.632	-0.190	0.087
-127.283	530.178	-0.129	0.300
-126.268	-200.000	0.033	-0.156
-125.253	-154.269	-0.172	0.011
-124.239	-71.075	0.199	0.074
-123.224	800.000	0.045	-0.166
-122.210	169.237	-0.129	0.181
