DTS Sentinel unit serial number:	SN413079Multiplexer serial number:	ORYXHardware model number:	OX4-SRSoftware version number:	ORYX F/W v4.00 Oryx Data Collector v3.7.2.0data status	okinstallation	princeton_trtdifferential loss correction	single-endedforward channel	channel 3reverse channel	N/Adate	2019/09/16time	09:08:35forward acquisition time	60.00reverse acquisition time	0.00gamma	496.2192k internal	0.2323k external	0.2323temperature offset calibration	0.9958default loss term (dB/km)	0.3790temperature slope calibration	1.0000multiplexer offset coefficient	1.0000multiplexer slope coefficient	1.0000fibre end	0.00T internal ref (°C)	30.83T ext. ref 1 (°C)	12.10T ext. ref 2 (°C)	28.25length (m)	temperature (°C)	Stokes	anti-Stokes-747.200	-21.196	0.372	0.230
-746.185	-61.894	0.258	0.109
-745.171	800.000	0.031	0.130
-744.156	87.477	-0.249	0.279
-743.142	663.791	-0.093	0.242
-742.127	-102.776	-0.289	-0.069
-741.112	-62.252	-0.195	-0.082
-740.098	-45.803	0.040	0.020
-739.083	-200.000	0.032	-0.238
-738.069	-99.774	-0.370	0.093
-737.054	-174.715	0.196	0.006
-736.039	27.207	-0.155	0.131
-735.025	442.167	0.085	0.188
-734.010	-200.000	-0.007	-0.109
-732.996	-88.091	-0.179	0.054
-731.981	-90.344	-0.239	-0.070
-730.966	58.167	-0.030	0.030
-729.952	67.962	0.228	-0.236
-728.937	-30.896	-0.131	-0.075
-727.923	-127.609	-0.187	0.027
-726.908	-41.074	-0.343	-0.179
-725.894	-55.751	0.325	-0.147
-724.879	461.126	-0.028	0.062
-723.864	-76.498	-0.222	-0.079
-722.850	-34.795	-0.195	-0.108
-721.835	-151.518	0.200	0.015
-720.821	-86.254	-0.225	0.070
-719.806	-66.637	-0.296	0.119
-718.791	159.967	-0.171	-0.240
-717.777	-72.060	-0.189	-0.071
-716.762	-14.424	0.250	-0.162
-715.748	-64.052	-0.085	-0.035
-714.733	-200.000	-0.045	-0.266
-713.718	-36.783	0.159	-0.086
-712.704	184.894	0.187	-0.279
-711.689	-132.408	0.340	0.044
-710.675	800.000	-0.022	0.076
-709.660	120.632	0.209	-0.262
-708.645	-200.000	-0.055	-0.300
-707.631	150.711	-0.172	0.236
-706.616	-200.000	-0.010	-0.116
-705.602	154.951	0.056	-0.078
-704.587	-29.922	0.251	0.144
-703.572	493.074	0.040	0.093
-702.558	182.835	-0.147	-0.219
-701.543	-54.670	-0.104	0.047
-700.529	76.056	-0.104	0.111
-699.514	8.334	-0.195	-0.148
-698.499	-200.000	-0.016	-0.091
-697.485	92.260	0.193	-0.219
-696.470	28.867	-0.054	0.046
-695.456	77.810	0.118	-0.127
-694.441	22.883	0.359	0.297
-693.426	-69.455	0.181	-0.070
-692.412	109.530	-0.141	0.171
-691.397	19.354	0.273	0.221
-690.383	299.986	-0.104	-0.194
-689.368	109.868	0.162	-0.196
-688.354	128.846	0.143	0.184
-687.339	-96.786	-0.186	-0.049
-686.324	800.000	0.073	-0.312
-685.310	213.661	0.154	0.245
-684.295	33.596	-0.210	-0.184
-683.281	240.069	0.122	-0.205
-682.266	-200.000	-0.019	-0.183
-681.251	4.288	-0.137	0.101
-680.237	-200.000	-0.027	-0.176
-679.222	181.186	0.160	-0.237
-678.208	-57.770	0.247	0.109
-677.193	-200.000	0.058	-0.340
-676.178	-200.000	0.021	-0.162
-675.164	75.615	0.208	0.221
-674.149	157.203	-0.108	0.150
-673.135	-41.457	-0.165	-0.085
-672.120	-6.742	0.339	-0.233
-671.105	-200.000	0.058	0.469
-670.091	-101.367	-0.389	0.095
-669.076	205.599	-0.084	-0.131
-668.062	-147.354	-0.448	0.038
-667.047	-200.000	0.039	0.206
-666.032	-138.631	-0.130	0.014
-665.018	-124.325	-0.282	-0.044
-664.003	147.552	-0.070	0.095
-662.989	-200.000	-0.001	-0.099
-661.974	21.798	0.290	0.238
-660.959	-88.174	-0.253	-0.076
-659.945	800.000	-0.045	-0.177
-658.930	-200.000	0.098	-0.000
-657.916	393.095	0.101	-0.212
-656.901	-139.915	-0.138	0.015
-655.886	-92.643	-0.121	0.034
-654.872	-4.553	-0.087	0.060
-653.857	800.000	0.032	-0.099
-652.843	-67.771	0.302	0.119
-651.828	22.597	-0.225	0.185
-650.814	-56.432	0.137	-0.061
-649.799	-200.000	0.023	0.115
-648.784	435.386	0.117	0.256
-647.770	800.000	0.028	-0.084
-646.755	16.780	0.065	-0.052
-645.741	171.014	-0.011	0.016
-644.726	-38.465	-0.106	-0.056
-643.711	624.896	0.095	-0.241
-642.697	800.000	-0.059	-0.254
-641.682	800.000	0.086	0.303
-640.668	800.000	-0.125	0.361
-639.653	-186.741	-0.418	0.006
-638.638	101.748	-0.217	-0.254
-637.624	-40.087	-0.074	-0.039
-636.609	-152.560	-0.163	0.012
-635.595	-200.000	0.016	0.365
-634.580	244.004	-0.065	-0.109
-633.565	117.440	-0.229	-0.284
-632.551	-77.985	-0.127	0.044
-631.536	141.729	-0.163	-0.218
-630.522	-36.997	-0.237	0.128
-629.507	-51.163	0.263	0.124
-628.492	306.654	-0.071	0.133
-627.478	128.978	-0.056	0.072
-626.463	207.490	0.043	-0.067
-625.449	800.000	0.073	-0.233
-624.434	52.551	-0.119	-0.114
-623.419	219.227	0.074	0.118
-622.405	-200.000	0.028	-0.130
-621.390	20.245	0.196	-0.159
-620.376	-56.776	0.079	-0.035
-619.361	800.000	-0.049	0.207
-618.346	-80.091	0.407	0.137
-617.332	-14.582	-0.314	0.203
-616.317	-103.767	0.158	-0.037
-615.303	-200.000	0.025	-0.154
-614.288	59.107	-0.107	0.106
-613.273	-96.462	0.385	0.102
-612.259	-108.725	-0.123	0.026
-611.244	-105.186	0.249	0.057
-610.230	-200.000	0.078	0.455
-609.215	49.612	0.149	0.141
-608.201	-200.000	-0.006	0.250
-607.186	-13.302	0.173	-0.113
-606.171	458.054	0.084	0.187
-605.157	35.914	-0.264	-0.233
-604.142	169.075	-0.199	0.286
-603.128	800.000	-0.071	-0.261
-602.113	-149.334	0.150	0.012
-601.098	-200.000	0.041	0.240
-600.084	-200.000	0.054	0.268
-599.069	-12.380	0.257	-0.168
-598.055	96.908	-0.083	0.096
-597.040	574.878	0.098	-0.241
-596.025	800.000	0.182	-0.608
-595.011	-200.000	-0.020	-0.167
-593.996	59.391	-0.181	0.179
-592.982	4.848	-0.233	-0.172
-591.967	-163.681	0.295	0.014
-590.952	78.821	0.175	-0.188
-589.938	-50.297	-0.219	-0.104
-588.923	271.904	0.023	-0.041
-587.909	-32.413	0.316	-0.177
-586.894	45.241	0.276	-0.256
-585.879	-200.000	0.013	0.188
-584.865	-200.000	-0.002	-0.320
-583.850	-200.000	-0.100	-0.504
-582.836	126.416	0.157	-0.200
-581.821	228.149	0.027	0.044
-580.806	58.034	-0.139	0.137
-579.792	482.410	0.112	0.256
-578.777	-2.151	-0.046	-0.032
-577.763	752.113	0.123	0.334
-576.748	588.540	0.045	-0.111
-575.733	517.021	-0.049	-0.114
-574.719	-200.000	0.005	-0.056
-573.704	12.380	-0.224	-0.173
-572.690	-173.157	0.184	-0.006
-571.675	496.799	-0.205	-0.474
-570.661	-200.000	-0.012	0.324
-569.646	8.108	0.114	0.086
-568.631	154.353	0.124	-0.171
-567.617	-7.185	-0.084	0.057
-566.602	64.446	0.295	0.298
-565.588	-35.525	-0.247	0.134
-564.573	466.576	0.073	-0.164
-563.558	-157.109	-0.201	-0.012
-562.544	-76.573	-0.158	0.055
-561.529	-131.306	0.243	-0.032
-560.515	68.629	0.136	-0.140
-559.500	-8.870	0.259	0.174
-558.485	-200.000	-0.001	-0.100
-557.471	125.266	0.093	-0.117
-556.456	698.577	-0.040	0.107
-555.442	-200.000	0.053	0.258
-554.427	-20.748	0.098	0.060
-553.412	800.000	0.071	-0.238
-552.398	116.250	0.206	-0.253
-551.383	66.251	0.225	-0.229
-550.369	-149.335	-0.327	-0.026
-549.354	-104.586	-0.213	-0.049
-548.339	268.977	-0.068	-0.120
-547.325	80.845	0.145	0.157
-546.310	-200.000	-0.021	0.230
-545.296	-97.929	-0.287	-0.074
-544.281	114.193	-0.013	0.016
-543.266	26.034	-0.118	0.098
-542.252	7.017	-0.309	-0.231
-541.237	24.751	-0.113	-0.094
-540.223	722.864	-0.137	0.367
-539.208	-7.024	-0.301	-0.204
-538.193	46.999	0.347	-0.323
-537.179	67.783	0.161	-0.165
-536.164	800.000	-0.016	0.048
-535.150	-91.940	0.080	0.023
-534.135	-200.000	-0.018	0.157
-533.121	126.204	0.211	0.267
-532.106	41.918	0.195	0.177
-531.091	-153.157	0.017	-0.001
-530.077	9.324	-0.106	-0.081
-529.062	-200.000	-0.007	0.062
-528.048	212.609	0.157	0.248
-527.033	-53.433	0.363	-0.167
-526.018	-162.215	-0.427	-0.021
-525.004	-45.203	0.283	0.141
-523.989	-136.494	-0.161	0.019
-522.975	134.884	0.027	0.035
-521.960	-107.983	-0.124	-0.027
-520.945	800.000	0.078	0.223
-519.931	122.789	-0.128	0.160
-518.916	800.000	0.063	-0.256
-517.902	-178.153	0.068	0.002
-516.887	-200.000	0.055	-0.382
-515.872	-70.371	-0.161	0.061
-514.858	34.266	-0.097	0.085
-513.843	102.794	0.200	-0.234
-512.829	-52.102	0.087	0.040
-511.814	-200.000	0.002	-0.291
-510.799	-200.000	0.054	0.343
-509.785	274.899	0.121	0.214
-508.770	-200.000	-0.051	-0.236
-507.756	-200.000	0.007	-0.151
-506.741	23.154	-0.125	0.103
-505.726	377.278	-0.074	-0.151
-504.712	640.729	0.133	0.338
-503.697	-149.665	-0.156	0.012
-502.683	-37.886	0.075	0.040
-501.668	-200.000	0.013	0.112
-500.653	756.313	-0.020	-0.054
-499.639	-51.101	-0.360	0.169
-498.624	-164.883	-0.215	-0.010
-497.610	440.921	0.049	0.107
-496.595	-34.932	0.194	-0.106
-495.581	340.288	-0.099	0.193
-494.566	800.000	-0.070	0.207
-493.551	23.473	-0.065	0.053
-492.537	190.262	-0.139	-0.208
-491.522	-81.515	-0.085	-0.028
-490.508	-63.946	-0.041	0.017
-489.493	-6.108	-0.171	-0.117
-488.478	542.639	-0.096	0.228
-487.464	-146.132	0.393	-0.035
-486.449	-8.071	0.250	-0.168
-485.435	-124.038	-0.156	-0.024
-484.420	-116.767	0.097	-0.018
-483.405	161.677	-0.084	0.117
-482.391	590.305	-0.062	-0.154
-481.376	-124.544	-0.366	0.057
-480.362	800.000	-0.053	-0.158
-479.347	180.492	-0.062	-0.091
-478.332	-48.216	0.066	0.032
-477.318	47.576	-0.100	-0.093
-476.303	-200.000	-0.014	0.109
-475.289	-200.000	0.019	-0.183
-474.274	442.420	-0.087	-0.190
-473.259	20.894	-0.083	-0.067
-472.245	-48.136	-0.060	0.029
-471.230	-200.000	-0.043	0.203
-470.216	-130.770	0.054	0.007
-469.201	-108.772	0.450	-0.096
-468.186	-148.019	-0.465	0.039
-467.172	670.346	0.070	0.181
-466.157	800.000	-0.042	-0.151
-465.143	79.832	0.236	-0.253
-464.128	800.000	-0.043	-0.122
-463.113	292.085	0.110	0.200
-462.099	-120.594	-0.195	0.033
-461.084	37.513	-0.185	0.164
-460.070	-54.355	0.143	0.065
-459.055	104.862	-0.042	-0.049
-458.040	225.369	-0.026	0.042
-457.026	-198.405	0.151	0.001
-456.011	88.626	0.141	0.156
-454.997	-180.582	-0.172	0.004
-453.982	-51.519	0.463	0.216
-452.968	-133.731	-0.224	-0.028
-451.953	-8.207	0.345	-0.232
-450.938	92.953	-0.408	-0.460
-449.924	-64.865	0.406	-0.164
-448.909	-148.533	0.057	-0.005
-447.895	725.120	0.027	0.071
-446.880	-16.308	-0.101	-0.064
-445.865	-23.585	0.099	-0.059
-444.851	-200.000	-0.012	-0.071
-443.836	685.247	0.121	0.316
-442.822	800.000	0.126	0.439
-441.807	-172.966	0.105	-0.003
-440.792	-47.986	-0.097	-0.047
-439.778	148.705	0.252	0.340
-438.763	800.000	-0.102	-0.298
-437.749	-75.614	-0.550	-0.195
-436.734	-113.158	0.210	0.041
-435.719	-28.919	0.390	-0.224
-434.705	-133.801	-0.323	-0.040
-433.690	93.329	0.095	-0.107
-432.676	-44.066	0.262	0.132
-431.661	78.250	-0.217	0.231
-430.646	428.749	0.206	-0.445
-429.632	70.984	0.133	-0.137
-428.617	-2.583	-0.071	-0.049
-427.603	-57.572	0.163	-0.071
-426.588	6.614	0.232	-0.172
-425.573	88.467	-0.086	0.096
-424.559	-87.577	-0.210	0.063
-423.544	-102.191	-0.211	0.051
-422.530	207.072	-0.103	0.161
-421.515	-200.000	0.006	-0.027
-420.500	800.000	0.034	0.102
-419.486	30.109	-0.103	0.088
-418.471	-200.000	0.062	-0.401
-417.457	235.051	-0.062	0.103
-416.442	-200.000	0.002	-0.096
-415.428	-200.000	-0.002	-0.109
-414.413	-146.620	-0.127	-0.011
-413.398	800.000	-0.057	-0.239
-412.384	328.784	0.050	-0.096
-411.369	-200.000	-0.014	0.292
-410.355	-73.911	0.323	0.117
-409.340	122.668	-0.263	-0.327
-408.325	75.739	0.224	-0.236
-407.311	214.159	-0.047	0.075
-406.296	18.264	-0.189	-0.151
-405.282	-144.841	0.133	0.012
-404.267	270.765	0.124	0.217
-403.252	-105.722	-0.082	-0.019
-402.238	-48.743	-0.095	-0.046
-401.223	6.357	-0.062	0.046
-400.209	-149.019	-0.148	0.012
-399.194	93.653	0.172	-0.194
-398.179	30.922	0.157	0.134
-397.165	-200.000	0.020	0.132
-396.150	800.000	-0.058	0.212
-395.136	-77.446	0.067	-0.023
-394.121	-47.409	0.424	-0.206
-393.106	-132.550	-0.236	-0.030
-392.092	360.334	0.100	0.199
-391.077	-145.413	-0.294	0.026
-390.063	-126.084	0.301	0.045
-389.048	-10.891	0.140	-0.092
-388.033	-200.000	0.042	0.277
-387.019	26.808	-0.238	-0.198
-386.004	526.360	0.136	-0.318
-384.990	689.988	0.019	-0.049
-383.975	-92.626	-0.030	-0.008
-382.960	-112.480	0.264	0.053
-381.946	21.423	-0.272	-0.220
-380.931	83.737	0.033	-0.036
-379.917	16.256	0.245	-0.193
-378.902	-23.006	0.128	-0.077
-377.888	-43.023	0.066	-0.033
-376.873	-38.488	-0.070	0.037
-375.858	-200.000	0.030	0.162
-374.844	800.000	-0.046	0.140
-373.829	800.000	-0.081	0.255
-372.815	-177.037	-0.172	-0.004
-371.800	200.307	0.140	0.215
-370.785	129.138	-0.194	-0.247
-369.771	171.560	-0.162	-0.232
-368.756	199.959	0.206	0.314
-367.742	-43.550	-0.374	-0.188
-366.727	-101.913	-0.209	0.050
-365.712	800.000	0.005	-0.015
-364.698	223.402	0.151	-0.242
-363.683	639.719	0.056	-0.141
-362.669	343.675	-0.019	0.036
-361.654	335.563	0.186	0.360
-360.639	-200.000	0.051	0.253
-359.625	-176.365	0.052	-0.001
-358.610	-84.203	0.059	0.019
-357.596	157.011	0.127	-0.175
-356.581	-19.696	-0.298	-0.183
-355.566	-200.000	-0.049	0.304
-354.552	800.000	0.114	0.476
-353.537	-89.976	0.127	0.037
-352.523	667.833	-0.067	0.173
-351.508	-11.628	-0.114	0.075
-350.493	-185.447	-0.420	0.006
-349.479	64.341	0.190	0.190
-348.464	-74.908	0.086	0.031
-347.450	506.247	-0.023	-0.053
-346.435	-36.191	-0.392	0.211
-345.420	-37.753	0.271	0.143
-344.406	800.000	0.072	-0.211
-343.391	-157.104	0.262	0.016
-342.377	13.748	-0.093	0.072
-341.362	321.240	-0.080	0.151
-340.348	-116.734	0.123	0.022
-339.333	151.820	0.050	-0.067
-338.318	14.847	-0.113	0.088
-337.304	610.895	0.087	-0.216
-336.289	156.713	-0.176	-0.242
-335.275	-143.486	0.199	-0.019
-334.260	-36.470	-0.206	-0.110
-333.245	163.017	-0.149	-0.208
-332.231	-55.958	0.149	0.066
-331.216	-200.000	-0.006	0.305
-330.202	-127.956	-0.143	0.020
-329.187	-110.773	0.211	0.043
-328.172	-79.945	0.172	0.057
-327.158	-45.800	-0.208	-0.102
-326.143	148.872	0.179	0.241
-325.129	731.004	0.058	0.153
-324.114	-200.000	0.114	-0.549
-323.099	184.385	0.253	-0.372
-322.085	92.287	-0.293	0.328
-321.070	-116.589	0.117	0.021
-320.056	253.917	-0.015	0.025
-319.041	-77.002	0.183	0.063
-318.026	-57.195	-0.166	0.072
-317.012	616.796	0.056	-0.140
-315.997	262.007	-0.229	0.394
-314.983	-9.821	-0.357	0.236
-313.968	-200.000	0.037	-0.161
-312.953	516.689	-0.050	-0.116
-311.939	-150.991	0.246	0.018
-310.924	-21.994	0.192	-0.116
-309.910	132.260	0.055	-0.071
-308.895	-200.000	0.039	-0.201
-307.880	-80.736	0.148	-0.049
-306.866	15.371	-0.239	0.186
-305.851	70.456	-0.156	-0.160
-304.837	-11.205	-0.229	0.150
-303.822	-200.000	-0.022	0.146
-302.807	13.594	0.274	0.211
-301.793	800.000	-0.060	0.241
-300.778	-128.167	-0.176	-0.025
-299.764	-5.175	0.250	0.171
-298.749	800.000	-0.014	0.042
-297.735	-200.000	-0.005	-0.044
-296.720	-74.611	0.383	0.137
-295.705	190.462	-0.088	-0.130
-294.691	158.370	0.122	0.167
-293.676	-74.757	0.171	-0.061
-292.662	-5.038	-0.194	0.133
-291.647	-200.000	-0.031	-0.390
-290.632	-8.118	-0.119	-0.079
-289.618	29.130	0.198	-0.167
-288.603	115.411	-0.182	-0.220
-287.589	-56.623	0.342	0.150
-286.574	62.153	0.100	0.099
-285.559	-0.649	-0.261	-0.183
-284.545	800.000	-0.030	-0.087
-283.530	-16.313	0.175	0.110
-282.516	-200.000	0.013	0.162
-281.501	-200.000	-0.024	0.215
-280.486	-27.017	-0.301	0.174
-279.472	75.320	-0.018	-0.019
-278.457	-200.000	-0.022	-0.274
-277.443	194.331	-0.134	0.201
-276.428	523.774	0.105	-0.245
-275.413	-26.427	-0.431	-0.250
-274.399	-200.000	0.025	0.216
-273.384	222.080	0.047	0.076
-272.370	-68.088	0.168	0.065
-271.355	663.888	-0.096	-0.245
-270.340	-110.736	-0.158	-0.032
-269.326	386.681	0.263	-0.538
-268.311	97.259	-0.126	0.143
-267.297	-58.150	0.199	-0.086
-266.282	-200.000	0.008	0.162
-265.267	39.026	0.251	0.222
-264.253	73.345	0.072	0.074
-263.238	-200.000	0.021	0.301
-262.224	-200.000	-0.017	0.303
-261.209	218.246	-0.148	-0.234
-260.195	110.784	0.101	0.120
-259.180	404.826	-0.045	0.094
-258.165	-98.133	-0.172	-0.044
-257.151	800.000	-0.090	-0.261
-256.136	140.734	0.120	0.157
-255.122	534.504	0.104	0.243
-254.107	-87.171	-0.394	-0.119
-253.092	-43.766	0.429	-0.214
-252.078	800.000	-0.050	0.169
-251.063	68.982	0.218	-0.222
-250.049	208.654	-0.110	0.170
-249.034	-200.000	-0.006	-0.062
-248.019	114.081	-0.047	0.056
-247.005	0.779	-0.163	-0.116
-245.990	577.703	0.060	0.145
-244.976	-200.000	-0.018	-0.118
-243.961	-113.495	-0.084	-0.016
-242.946	33.714	-0.376	-0.324
-241.932	-200.000	-0.027	0.229
-240.917	-200.000	-0.029	0.369
-239.903	673.885	0.088	0.226
-238.888	-13.375	-0.226	-0.145
-237.873	-67.882	0.333	0.129
-236.859	-37.443	-0.318	0.168
-235.844	-33.845	-0.370	0.202
-234.830	-62.675	-0.304	-0.125
-233.815	567.949	0.161	0.386
-232.800	563.240	-0.049	0.116
-231.786	1.265	-0.087	0.062
-230.771	-166.232	0.114	0.005
-229.757	-62.862	0.148	-0.061
-228.742	800.000	-0.060	0.180
-227.727	-200.000	0.020	-0.242
-226.713	-200.000	0.002	0.139
-225.698	-70.223	0.128	-0.048
-224.684	190.297	0.120	0.178
-223.669	-14.472	0.138	0.088
-222.655	-112.430	-0.384	0.076
-221.640	-62.266	-0.192	0.079
-220.625	13.398	0.261	-0.200
-219.611	12.156	0.031	0.024
-218.596	-60.563	0.074	0.031
-217.582	800.000	-0.065	0.266
-216.567	93.475	-0.093	0.104
-215.552	-200.000	0.032	-0.458
-214.538	-200.000	-0.017	-0.440
-213.523	-1.232	-0.285	-0.199
-212.509	749.497	-0.079	0.211
-211.494	-41.730	0.253	-0.129
-210.479	-29.858	0.095	-0.054
-209.465	-56.561	-0.172	0.076
-208.450	-154.623	0.435	0.029
-207.436	99.543	0.051	0.059
-206.421	2.546	-0.070	0.050
-205.406	214.247	-0.044	-0.069
-204.392	-26.115	0.350	0.203
-203.377	-84.476	-0.262	0.082
-202.363	-43.904	-0.361	0.180
-201.348	-200.000	-0.004	0.229
-200.333	23.538	0.200	-0.163
-199.319	-153.318	0.200	-0.014
-198.304	185.344	-0.022	0.032
-197.290	123.958	-0.251	-0.311
-196.275	800.000	-0.007	-0.028
-195.260	800.000	0.035	-0.111
-194.246	800.000	-0.017	0.048
-193.231	0.393	-0.127	-0.089
-192.217	-140.955	0.095	-0.010
-191.202	-200.000	0.026	-0.128
-190.187	-64.116	0.284	0.114
-189.173	94.506	0.030	0.034
-188.158	-200.000	-0.046	-0.345
-187.144	-9.101	0.093	-0.061
-186.129	800.000	0.046	-0.177
-185.114	-81.891	0.254	-0.082
-184.100	-114.825	0.031	-0.006
-183.085	-30.816	-0.121	0.068
-182.071	-115.274	-0.127	-0.024
-181.056	-120.869	-0.187	0.031
-180.042	30.232	0.135	0.114
-179.027	800.000	-0.074	0.266
-178.012	589.496	-0.048	-0.117
-176.998	77.439	-0.191	0.201
-175.983	-200.000	-0.002	0.068
-174.969	-55.562	-0.072	-0.032
-173.954	68.382	0.089	0.090
-172.939	-111.403	-0.346	0.070
-171.925	-200.000	0.021	0.420
-170.910	-88.157	-0.186	-0.055
-169.896	-48.269	-0.338	-0.161
-168.881	103.569	-0.059	0.069
-167.866	-75.646	0.010	0.003
-166.852	120.138	-0.310	-0.380
-165.837	-109.780	0.158	-0.033
-164.823	-76.373	0.065	-0.023
-163.808	-68.081	0.296	0.114
-162.793	-200.000	-0.004	0.083
-161.779	-200.000	0.025	0.113
-160.764	191.491	-0.086	0.128
-159.750	-200.000	-0.032	0.172
-158.735	-93.532	0.145	-0.039
-157.720	-200.000	-0.010	-0.147
-156.706	202.384	0.300	-0.456
-155.691	173.251	-0.201	-0.285
-154.677	564.553	0.086	-0.206
-153.662	449.239	-0.065	-0.141
-152.647	-200.000	-0.029	0.361
-151.633	-200.000	-0.040	-0.225
-150.618	-39.820	-0.357	0.184
-149.604	236.428	-0.183	-0.300
-148.589	-200.000	0.003	0.224
-147.574	-172.707	-0.120	0.004
-146.560	-25.766	0.203	-0.118
-145.545	15.377	-0.295	-0.228
-144.531	110.300	-0.084	-0.100
-143.516	98.864	-0.169	-0.192
-142.502	91.923	-0.228	-0.253
-141.487	-1.546	-0.225	-0.156
-140.472	-200.000	-0.027	-0.202
-139.458	800.000	-0.074	-0.258
-138.443	24.807	0.070	0.057
-137.429	800.000	0.025	0.083
-136.414	-137.073	-0.538	0.061
-135.399	-4.351	0.212	-0.145
-134.385	-200.000	-0.038	-0.180
-133.370	-136.339	0.219	-0.025
-132.356	82.960	-0.111	-0.119
-131.341	7.932	-0.338	-0.250
-130.326	-49.070	-0.168	-0.079
-129.312	148.267	0.178	-0.236
-128.297	-30.474	0.354	-0.198
-127.283	-31.560	0.318	-0.176
-126.268	602.330	-0.059	0.146
-125.253	-136.278	0.299	-0.034
-124.239	128.788	0.034	-0.042
-123.224	-146.891	-0.073	-0.006
-122.210	-57.576	0.219	-0.095
-121.195	489.484	0.069	-0.155
