DTS Sentinel unit serial number:	SN413079Multiplexer serial number:	ORYXHardware model number:	OX4-SRSoftware version number:	ORYX F/W v4.00 Oryx Data Collector v3.7.2.0data status	okinstallation	princeton_trtdifferential loss correction	single-endedforward channel	channel 3reverse channel	N/Adate	2019/09/15time	06:40:34forward acquisition time	60.00reverse acquisition time	0.00gamma	496.2192k internal	0.2324k external	0.2324temperature offset calibration	0.9976default loss term (dB/km)	0.3790temperature slope calibration	1.0000multiplexer offset coefficient	1.0000multiplexer slope coefficient	1.0000fibre end	0.00T internal ref (°C)	30.50T ext. ref 1 (°C)	4.79T ext. ref 2 (°C)	25.45length (m)	temperature (°C)	Stokes	anti-Stokes-747.200	193.883	-0.121	-0.185
-746.185	-134.344	-0.091	0.011
-745.171	157.202	0.242	-0.337
-744.156	-94.781	-0.436	0.119
-743.142	-20.619	0.394	0.244
-742.127	192.845	-0.227	0.347
-741.112	-100.575	-0.271	0.068
-740.098	-148.913	-0.122	0.010
-739.083	-0.688	-0.077	0.055
-738.069	95.489	0.304	0.350
-737.054	13.764	0.096	-0.075
-736.039	117.798	-0.088	0.110
-735.025	800.000	0.065	-0.220
-734.010	-1.820	-0.163	-0.115
-732.996	496.946	-0.139	-0.322
-731.981	800.000	0.077	-0.275
-730.966	-83.812	0.086	-0.028
-729.952	-111.404	0.385	-0.079
-728.937	29.456	-0.300	-0.257
-727.923	-103.166	0.418	-0.100
-726.908	13.534	-0.193	-0.151
-725.894	800.000	0.062	-0.185
-724.879	47.351	0.215	0.202
-723.864	-90.073	-0.320	-0.094
-722.850	49.181	0.138	0.131
-721.835	-54.566	-0.083	0.038
-720.821	158.026	0.314	-0.439
-719.806	75.647	0.238	-0.254
-718.791	-85.906	0.173	-0.054
-717.777	-26.449	-0.206	-0.122
-716.762	-17.714	0.195	0.124
-715.748	-52.465	0.221	0.103
-714.733	158.606	0.061	-0.085
-713.718	-57.719	-0.305	0.135
-712.704	-200.000	0.005	0.099
-711.689	800.000	-0.063	-0.276
-710.675	-100.009	-0.089	0.022
-709.660	-30.980	0.509	0.290
-708.645	-200.000	0.042	-0.313
-707.631	-118.403	-0.255	0.046
-706.616	24.288	0.180	-0.149
-705.602	-86.415	-0.185	-0.057
-704.587	-1.813	-0.177	0.125
-703.572	-170.380	0.354	0.012
-702.558	146.437	0.199	-0.270
-701.543	10.621	0.264	-0.203
-700.529	-200.000	0.346	0.002
-699.514	-200.000	0.063	0.322
-698.499	-100.646	0.179	-0.044
-697.485	-200.000	0.028	-0.343
-696.470	-86.185	-0.277	0.086
-695.456	243.194	0.114	-0.192
-694.441	-115.197	0.165	-0.031
-693.426	-30.270	-0.368	0.211
-692.412	-117.165	-0.133	0.024
-691.397	-113.722	0.317	0.062
-690.383	-29.029	-0.172	0.100
-689.368	8.882	0.077	-0.058
-688.354	394.516	-0.107	-0.224
-687.339	-45.671	0.303	0.151
-686.324	-20.928	0.137	-0.085
-685.310	118.788	-0.154	0.191
-684.295	126.413	0.116	0.148
-683.281	241.809	-0.280	0.472
-682.266	-63.883	-0.185	-0.076
-681.251	51.817	0.060	0.057
-680.237	100.461	0.274	-0.320
-679.222	-132.607	-0.197	-0.025
-678.208	800.000	0.089	-0.254
-677.193	-116.794	0.262	0.048
-676.178	-200.000	0.003	-0.299
-675.164	-17.729	0.299	0.189
-674.149	-46.451	-0.272	0.135
-673.135	-152.118	0.273	-0.020
-672.120	264.846	-0.064	-0.113
-671.105	-113.665	-0.306	-0.060
-670.091	-130.776	-0.207	0.028
-669.076	800.000	0.127	0.398
-668.062	-200.000	0.016	0.311
-667.047	103.910	0.109	-0.129
-666.032	129.762	0.160	-0.206
-665.018	144.924	0.111	-0.149
-664.003	108.139	-0.094	-0.113
-662.989	-200.000	0.004	-0.299
-661.974	-200.000	-0.017	-0.217
-660.959	281.232	0.096	-0.174
-659.945	-38.416	-0.070	-0.037
-658.930	-200.000	0.009	-0.168
-657.916	-52.464	-0.103	-0.048
-656.901	9.491	0.082	0.062
-655.886	534.717	0.089	-0.212
-654.872	-200.000	-0.001	-0.248
-653.857	-22.587	0.106	0.064
-652.843	-200.000	0.072	0.332
-651.828	-200.000	0.025	0.186
-650.814	-81.166	-0.174	-0.058
-649.799	48.456	0.170	-0.160
-648.784	14.419	-0.086	-0.068
-647.770	227.795	-0.048	0.078
-646.755	130.009	-0.178	-0.230
-645.741	-14.052	0.204	-0.133
-644.726	477.784	-0.037	-0.083
-643.711	-128.258	0.175	-0.025
-642.697	-200.000	-0.005	-0.107
-641.682	-29.419	0.446	-0.256
-640.668	-109.953	-0.225	0.047
-639.653	800.000	-0.122	-0.457
-638.638	-200.000	0.009	-0.147
-637.624	81.458	0.059	-0.064
-636.609	116.974	0.017	-0.021
-635.595	-138.620	-0.197	0.022
-634.580	240.460	0.094	0.157
-633.565	-200.000	-0.020	-0.159
-632.551	-200.000	-0.053	-0.575
-631.536	52.362	-0.088	-0.084
-630.522	-9.544	0.300	0.201
-629.507	273.324	-0.044	0.079
-628.492	-200.000	-0.012	0.230
-627.478	61.287	0.140	-0.140
-626.463	111.752	0.069	-0.083
-625.449	42.295	-0.052	0.047
-624.434	-165.759	-0.343	0.015
-623.419	-200.000	-0.000	0.002
-622.405	-200.000	-0.014	0.145
-621.390	-200.000	0.307	-0.001
-620.376	-200.000	-0.008	-0.080
-619.361	-200.000	0.065	-0.318
-618.346	-60.313	-0.235	-0.100
-617.332	386.508	-0.250	0.519
-616.317	318.762	0.163	0.311
-615.303	800.000	-0.024	0.077
-614.288	152.686	0.168	-0.231
-613.273	251.437	0.090	-0.154
-612.259	-200.000	-0.004	0.122
-611.244	-67.648	-0.319	0.126
-610.230	-200.000	-0.024	0.273
-609.215	-41.416	0.125	-0.065
-608.201	-21.020	0.125	-0.077
-607.186	747.190	0.089	-0.241
-606.171	80.059	-0.340	-0.367
-605.157	-51.681	-0.098	-0.046
-604.142	-169.221	-0.093	0.003
-603.128	220.215	0.058	-0.093
-602.113	-200.000	0.002	0.034
-601.098	-155.533	-0.131	0.008
-600.084	800.000	-0.099	-0.340
-599.069	66.478	0.062	0.063
-598.055	112.127	-0.258	0.313
-597.040	-163.565	0.169	0.008
-596.025	800.000	0.018	-0.075
-595.011	-44.986	0.088	-0.044
-593.996	-61.046	0.256	-0.109
-592.982	800.000	-0.072	0.254
-591.967	159.233	-0.067	-0.093
-590.952	166.601	0.158	0.225
-589.938	-121.337	-0.111	-0.019
-588.923	-200.000	0.041	0.286
-587.909	-161.032	-0.140	-0.007
-586.894	-52.742	0.043	-0.020
-585.879	98.594	-0.097	-0.113
-584.865	-129.898	0.087	0.012
-583.850	308.703	0.075	-0.141
-582.836	96.172	-0.059	-0.068
-581.821	259.402	-0.157	-0.272
-580.806	-200.000	-0.009	0.081
-579.792	500.329	0.172	-0.397
-578.777	-102.432	0.006	0.001
-577.763	-200.000	0.018	0.088
-576.748	525.004	-0.126	-0.298
-575.733	-166.124	-0.074	0.003
-574.719	453.039	0.021	0.047
-573.704	-52.938	-0.172	0.080
-572.690	-137.164	0.245	0.028
-571.675	10.648	-0.072	0.055
-570.661	-23.862	-0.183	-0.110
-569.646	216.831	0.055	-0.089
-568.631	-67.073	-0.158	0.063
-567.617	72.800	-0.092	-0.096
-566.602	-152.782	-0.327	-0.023
-565.588	390.098	-0.059	-0.122
-564.573	100.290	0.234	0.273
-563.558	-22.858	-0.157	-0.095
-562.544	-110.362	0.197	0.041
-561.529	-200.000	0.040	-0.209
-560.515	800.000	-0.131	-0.455
-559.500	800.000	0.082	0.245
-558.485	41.396	0.169	-0.153
-557.471	800.000	0.032	0.094
-556.456	-18.401	-0.097	-0.061
-555.442	-67.603	0.142	-0.056
-554.427	-10.754	-0.176	0.116
-553.412	-117.652	0.072	0.013
-552.398	108.557	-0.156	-0.187
-551.383	-159.025	0.134	0.008
-550.369	-6.689	-0.171	-0.117
-549.354	127.351	0.387	-0.492
-548.339	-97.723	0.224	0.058
-547.325	-111.067	0.108	0.022
-546.310	132.585	0.206	0.266
-545.296	315.837	0.120	-0.227
-544.281	224.701	-0.117	0.189
-543.266	-200.000	-0.046	0.236
-542.252	685.354	0.079	0.207
-541.237	-75.436	-0.438	-0.156
-540.223	800.000	-0.098	0.367
-539.208	386.567	-0.034	0.069
-538.193	451.439	-0.162	0.359
-537.179	-91.152	-0.115	0.033
-536.164	-200.000	0.012	-0.211
-535.150	-186.050	0.294	0.004
-534.135	-94.304	-0.244	-0.067
-533.121	-103.151	0.105	0.025
-532.106	103.862	-0.120	-0.141
-531.091	-72.878	-0.326	0.120
-530.077	68.505	-0.099	-0.102
-529.062	-4.683	-0.055	0.038
-528.048	-200.000	0.025	-0.176
-527.033	-200.000	-0.069	-0.312
-526.018	101.357	0.194	0.226
-525.004	-200.000	-0.054	0.272
-523.989	800.000	-0.046	0.163
-522.975	-200.000	-0.026	0.237
-521.960	303.684	0.088	-0.163
-520.945	367.726	-0.128	0.259
-519.931	-73.786	0.254	0.092
-518.916	-179.316	-0.309	0.007
-517.902	35.348	-0.136	0.120
-516.887	647.005	-0.056	0.144
-515.872	-78.852	-0.310	0.106
-514.858	179.601	0.088	-0.128
-513.843	-200.000	0.009	-0.208
-512.829	800.000	0.070	0.304
-511.814	-200.000	0.014	-0.249
-510.799	-33.582	-0.094	0.052
-509.785	126.130	-0.279	-0.353
-508.770	800.000	-0.124	-0.452
-507.756	-200.000	-0.024	-0.272
-506.741	71.584	0.100	0.104
-505.726	113.869	-0.162	0.197
-504.712	33.005	-0.189	-0.164
-503.697	-127.040	-0.527	0.077
-502.683	-47.161	-0.434	-0.212
-501.668	60.220	0.272	0.269
-500.653	-40.329	0.095	-0.050
-499.639	800.000	-0.075	-0.235
-498.624	44.343	0.054	0.049
-497.610	-137.894	0.125	-0.014
-496.595	65.165	-0.098	-0.099
-495.581	5.889	-0.024	0.017
-494.566	-200.000	-0.017	-0.202
-493.551	-53.944	-0.296	0.135
-492.537	74.640	0.172	-0.181
-491.522	25.774	-0.108	-0.090
-490.508	-34.194	-0.299	0.164
-489.493	-40.610	-0.302	0.156
-488.478	-32.099	0.222	0.124
-487.464	-82.577	-0.198	0.064
-486.449	-27.200	-0.076	-0.044
-485.435	-200.000	0.044	0.353
-484.420	171.737	0.108	0.155
-483.405	-132.843	0.284	0.036
-482.391	675.674	0.134	0.347
-481.376	-62.610	0.178	0.074
-480.362	-60.024	0.071	-0.030
-479.347	1.073	-0.270	-0.194
-478.332	6.747	-0.246	0.183
-477.318	26.430	-0.142	0.118
-476.303	63.901	-0.084	0.085
-475.289	-200.000	0.018	-0.143
-474.274	-25.050	0.156	-0.093
-473.259	565.026	0.114	-0.276
-472.245	800.000	0.106	0.441
-471.230	140.495	-0.141	-0.186
-470.216	-200.000	-0.026	0.135
-469.201	74.482	0.124	0.130
-468.186	158.171	-0.202	-0.280
-467.172	-133.981	0.358	0.044
-466.157	-51.581	-0.086	0.040
-465.143	-44.676	0.075	-0.037
-464.128	225.799	-0.127	-0.206
-463.113	700.433	-0.173	0.453
-462.099	800.000	-0.155	0.508
-461.084	-91.635	-0.121	-0.034
-460.070	0.957	0.123	-0.088
-459.055	93.335	0.176	-0.199
-458.040	-7.272	-0.108	-0.073
-457.026	-200.000	0.026	-0.297
-456.011	-147.993	-0.280	-0.023
-454.997	-129.628	0.265	-0.036
-453.982	44.682	0.354	-0.324
-452.968	58.458	0.089	-0.087
-451.953	-136.808	-0.302	-0.035
-450.938	-168.398	-0.360	0.014
-449.924	-200.000	0.034	0.367
-448.909	583.049	-0.074	0.182
-447.895	-60.170	0.350	0.149
-446.880	-126.705	0.092	-0.014
-445.865	-200.000	-0.024	-0.181
-444.851	9.290	0.166	-0.125
-443.836	-28.203	-0.172	-0.099
-442.822	-200.000	-0.036	0.315
-441.807	-78.162	0.058	-0.020
-440.792	800.000	-0.016	0.053
-439.778	-30.048	-0.117	0.066
-438.763	306.995	0.116	0.215
-437.749	-200.000	-0.031	-0.311
-436.734	9.502	0.068	0.051
-435.719	-163.524	0.332	-0.016
-434.705	27.957	-0.284	-0.238
-433.690	281.863	-0.148	-0.265
-432.676	88.941	0.189	-0.209
-431.661	800.000	0.078	0.321
-430.646	251.183	-0.158	-0.268
-429.632	-14.731	0.412	-0.264
-428.617	-21.816	-0.347	0.210
-427.603	-79.672	-0.260	-0.087
-426.588	47.402	-0.041	-0.038
-425.573	320.636	0.017	-0.033
-424.559	37.522	-0.194	0.172
-423.544	83.725	0.105	-0.114
-422.530	40.857	0.423	-0.381
-421.515	-5.955	0.214	0.146
-420.500	-200.000	0.040	0.212
-419.486	-200.000	-0.020	0.116
-418.471	-86.373	-0.280	0.086
-417.457	523.759	0.048	-0.112
-416.442	95.835	0.088	-0.100
-415.428	-200.000	0.014	0.316
-414.413	463.884	0.073	0.163
-413.398	187.842	0.199	-0.297
-412.384	-66.400	-0.309	-0.122
-411.369	-50.822	0.079	0.037
-410.355	-48.535	0.366	0.176
-409.340	-200.000	-0.000	0.279
-408.325	-200.000	-0.028	0.219
-407.311	-37.260	-0.095	-0.051
-406.296	400.579	-0.060	0.125
-405.282	-3.529	0.158	0.109
-404.267	-67.527	-0.069	-0.027
-403.252	371.729	-0.037	0.074
-402.238	165.509	0.166	-0.234
-401.223	800.000	-0.062	-0.179
-400.209	800.000	-0.128	0.382
-399.194	245.665	-0.143	-0.240
-398.179	-112.632	-0.163	0.032
-397.165	-123.414	0.236	-0.037
-396.150	-17.574	0.217	0.136
-395.136	-88.757	-0.314	0.093
-394.121	-123.272	-0.222	-0.035
-393.106	-122.016	-0.231	0.038
-392.092	-33.329	0.292	-0.161
-391.077	-200.000	0.002	0.217
-390.063	-61.482	-0.193	-0.081
-389.048	-200.000	-0.003	-0.175
-388.033	-181.680	-0.193	-0.004
-387.019	-120.378	0.204	-0.035
-386.004	800.000	-0.034	0.105
-384.990	22.301	0.149	-0.121
-383.975	454.700	0.051	0.111
-382.960	-108.396	0.516	-0.111
-381.946	533.638	0.110	-0.260
-380.931	-57.232	0.125	0.055
-379.917	28.152	0.103	-0.087
-378.902	-122.384	-0.187	0.030
-377.888	22.023	0.045	0.037
-376.873	600.763	-0.015	-0.038
-375.858	148.239	-0.106	-0.143
-374.844	218.547	0.226	-0.360
-373.829	-105.631	0.329	-0.074
-372.815	-39.929	0.195	-0.101
-371.800	60.655	-0.295	-0.290
-370.785	-152.844	-0.510	0.036
-369.771	-68.770	0.327	0.126
-368.756	135.574	0.059	0.076
-367.742	-34.186	0.206	-0.112
-366.727	187.646	0.042	0.062
-365.712	-48.189	-0.347	0.167
-364.698	-200.000	0.109	-0.551
-363.683	-85.746	0.093	0.029
-362.669	-86.659	-0.227	-0.069
-361.654	236.391	-0.208	-0.342
-360.639	72.680	-0.060	0.063
-359.625	-200.000	-0.001	0.116
-358.610	-5.901	-0.140	0.095
-357.596	-71.814	-0.078	-0.029
-356.581	-170.626	-0.223	-0.008
-355.566	-200.000	-0.002	0.175
-354.552	800.000	-0.025	0.102
-353.537	791.546	-0.056	-0.154
-352.523	28.144	-0.062	-0.052
-351.508	800.000	-0.087	0.340
-350.493	-200.000	0.012	0.246
-349.479	800.000	-0.042	0.135
-348.464	163.163	-0.187	0.261
-347.450	75.737	-0.055	-0.058
-346.435	-66.351	0.118	0.047
-345.420	188.194	0.118	-0.175
-344.406	-97.270	-0.121	0.031
-343.391	-57.049	0.142	0.062
-342.377	130.302	0.200	-0.255
-341.362	80.557	-0.243	-0.261
-340.348	-50.062	0.101	0.047
-339.333	19.304	-0.271	0.216
-338.318	-32.300	-0.044	-0.025
-337.304	108.063	-0.157	-0.186
-336.289	115.401	-0.131	-0.159
-335.275	-39.059	0.251	0.131
-334.260	134.520	-0.193	-0.249
-333.245	76.172	0.114	-0.120
-332.231	-74.804	0.216	0.077
-331.216	144.128	-0.088	0.116
-330.202	132.870	0.195	-0.250
-329.187	-73.379	0.433	-0.157
-328.172	-200.000	-0.023	0.105
-327.158	-181.930	0.204	0.004
-326.143	-200.000	0.021	0.147
-325.129	0.549	0.222	-0.158
-324.114	-116.225	-0.191	0.035
-323.099	88.149	-0.024	0.027
-322.085	28.335	0.105	-0.088
-321.070	-147.949	0.165	-0.014
-320.056	-148.608	0.044	-0.004
-319.041	215.889	0.067	0.106
-318.026	-46.738	-0.515	0.250
-317.012	-200.000	-0.079	-0.548
-315.997	800.000	-0.042	0.148
-314.983	-174.654	0.110	0.003
-313.968	-200.000	-0.001	0.241
-312.953	143.140	-0.237	-0.313
-311.939	100.901	0.080	0.092
-310.924	57.609	-0.155	0.151
-309.910	800.000	-0.026	-0.082
-308.895	240.203	0.152	-0.251
-307.880	80.698	0.114	-0.122
-306.866	-167.178	0.420	0.017
-305.851	-200.000	-0.009	0.203
-304.837	-200.000	0.011	0.357
-303.822	-96.894	0.125	0.033
-302.807	93.920	-0.119	0.134
-301.793	149.748	0.192	0.258
-300.778	-165.905	-0.094	-0.004
-299.764	-200.000	0.013	-0.208
-298.749	-200.000	-0.001	0.113
-297.735	53.596	-0.080	-0.076
-296.720	52.548	0.338	0.320
-295.705	800.000	0.034	-0.101
-294.691	-96.647	0.312	-0.081
-293.676	-119.461	-0.179	0.031
-292.662	7.421	0.123	-0.092
-291.647	-110.479	0.224	0.046
-290.632	-200.000	-0.012	0.215
-289.618	36.964	-0.037	0.033
-288.603	663.721	-0.116	0.296
-287.589	441.303	-0.114	0.248
-286.574	-50.258	-0.061	0.028
-285.559	-200.000	-0.018	0.108
-284.545	447.166	-0.053	-0.116
-283.530	244.788	0.130	-0.216
-282.516	-200.000	-0.064	0.470
-281.501	-87.347	0.230	0.069
-280.486	-200.000	-0.014	0.440
-279.472	28.001	0.214	-0.179
-278.457	-82.754	-0.218	0.070
-277.443	-25.006	-0.249	0.146
-276.428	5.722	-0.057	0.042
-275.413	-5.539	0.192	-0.131
-274.399	-200.000	0.037	0.234
-273.384	-95.545	0.287	-0.076
-272.370	-200.000	-0.033	-0.259
-271.355	41.763	-0.200	0.180
-270.340	27.345	-0.155	0.129
-269.326	4.024	0.260	-0.188
-268.311	72.197	0.250	0.258
-267.297	-95.450	0.213	0.057
-266.282	535.125	0.054	-0.127
-265.267	-14.577	0.210	0.134
-264.253	170.564	0.112	0.160
-263.238	-44.653	0.189	-0.093
-262.224	800.000	0.079	-0.271
-261.209	-110.224	-0.060	0.012
-260.195	-200.000	0.057	-0.272
-259.180	-26.952	-0.133	0.077
-258.165	-3.136	0.109	-0.075
-257.151	-124.366	-0.272	0.042
-256.136	350.785	-0.147	0.288
-255.122	-172.217	-0.178	0.006
-254.107	800.000	0.040	-0.132
-253.092	-28.916	0.230	-0.131
-252.078	800.000	-0.079	0.290
-251.063	217.931	-0.082	-0.130
-250.049	-126.692	0.182	0.027
-249.034	18.136	0.238	-0.188
-248.019	800.000	-0.056	0.222
-247.005	-177.412	0.312	0.008
-245.990	154.126	-0.091	-0.124
-244.976	191.635	-0.137	0.205
-243.961	800.000	-0.102	-0.341
-242.946	-200.000	-0.066	0.288
-241.932	-200.000	0.007	0.089
-240.917	800.000	-0.043	0.127
-239.903	248.002	0.122	-0.204
-238.888	346.405	-0.099	0.192
-237.873	-130.361	0.521	0.070
-236.859	299.886	0.053	0.097
-235.844	-54.653	-0.284	-0.127
-234.830	-200.000	0.015	0.110
-233.815	204.664	-0.014	-0.022
-232.800	83.089	-0.163	0.176
-231.786	348.300	0.096	-0.188
-230.771	-10.761	0.265	0.173
-229.757	-55.798	-0.307	-0.136
-228.742	-200.000	-0.000	-0.079
-227.727	-178.991	-0.313	-0.007
-226.713	800.000	-0.043	-0.152
-225.698	-77.021	0.340	-0.117
-224.684	-200.000	-0.062	-0.381
-223.669	409.690	-0.097	-0.203
-222.655	-200.000	-0.019	0.484
-221.640	800.000	0.055	-0.228
-220.625	-137.077	0.265	-0.030
-219.611	-108.379	0.229	0.049
-218.596	800.000	-0.071	-0.203
-217.582	-84.562	-0.058	-0.018
-216.567	-200.000	-0.018	0.349
-215.552	-62.535	-0.293	0.120
-214.538	800.000	0.064	0.240
-213.523	159.973	-0.120	-0.165
-212.509	-90.466	0.292	-0.084
-211.494	143.805	-0.072	0.094
-210.479	-118.983	-0.145	-0.025
-209.465	-198.629	-0.161	-0.001
-208.450	118.989	0.190	0.232
-207.436	60.312	0.158	0.154
-206.421	-52.970	0.135	0.062
-205.406	-161.535	-0.152	0.008
-204.392	-200.000	-0.092	-0.420
-203.377	-12.359	0.425	-0.274
-202.363	-200.000	0.006	0.136
-201.348	500.476	0.019	-0.043
-200.333	154.814	0.093	0.127
-199.319	-107.379	0.137	-0.030
-198.304	207.186	0.160	0.247
-197.290	49.576	-0.158	-0.147
-196.275	-16.862	-0.360	0.225
-195.260	111.648	0.064	-0.076
-194.246	-200.000	-0.020	0.162
-193.231	-116.503	-0.186	-0.034
-192.217	92.012	-0.114	0.127
-191.202	36.933	-0.119	0.104
-190.187	800.000	-0.097	0.265
-189.173	-87.459	-0.456	0.136
-188.158	45.958	0.204	-0.186
-187.144	-193.579	0.176	-0.001
-186.129	-152.865	0.106	0.007
-185.114	122.914	0.090	-0.111
-184.100	-80.831	-0.092	0.030
-183.085	339.684	0.119	0.229
-182.071	148.003	0.149	-0.198
-181.056	800.000	0.055	0.153
-180.042	58.064	0.060	-0.058
-179.027	153.485	0.079	0.107
-178.012	-135.604	-0.229	0.027
-176.998	800.000	0.142	0.461
-175.983	-66.795	-0.150	0.059
-174.969	-128.826	0.370	0.051
-173.954	-147.106	0.159	0.013
-172.939	-200.000	0.006	0.090
-171.925	38.777	0.019	0.016
-170.910	-19.359	0.324	-0.198
-169.896	171.228	0.126	0.179
-168.881	-200.000	0.004	-0.206
-167.866	-18.757	0.180	-0.111
-166.852	800.000	-0.063	-0.202
-165.837	-134.847	0.170	-0.020
-164.823	2.467	-0.231	-0.165
-163.808	-200.000	0.061	0.452
-162.793	2.488	-0.151	-0.108
-161.779	352.213	0.127	-0.247
-160.764	800.000	0.079	0.259
-159.750	572.019	-0.057	-0.138
-158.735	-114.958	-0.208	-0.039
-157.720	120.190	0.145	-0.177
-156.706	800.000	-0.045	0.146
-155.691	-116.910	-0.065	0.012
-154.677	-200.000	-0.069	0.308
-153.662	-200.000	-0.004	-0.138
-152.647	-200.000	-0.001	0.043
-151.633	-52.885	-0.258	0.117
-150.618	197.619	-0.082	0.123
-149.604	258.173	0.133	0.225
-148.589	-91.926	0.028	0.008
-147.574	-105.465	-0.072	0.016
-146.560	140.705	0.125	-0.163
-145.545	95.622	0.153	0.172
-144.531	-168.517	-0.043	0.002
-143.516	42.868	0.263	0.236
-142.502	122.558	-0.106	0.130
-141.487	152.108	-0.093	-0.125
-140.472	-113.365	0.258	-0.050
-139.458	-31.494	-0.408	-0.226
-138.443	-6.156	-0.061	-0.041
-137.429	153.654	-0.046	0.062
-136.414	-130.146	0.174	0.023
-135.399	-200.000	-0.005	0.030
-134.385	213.576	-0.058	0.091
-133.370	490.409	0.063	-0.141
-132.356	125.434	0.094	0.116
-131.341	61.986	-0.265	0.260
-130.326	-100.003	0.145	-0.036
-129.312	-200.000	-0.009	0.090
-128.297	384.389	0.134	0.272
-127.283	-89.880	-0.112	-0.032
-126.268	800.000	0.022	0.090
-125.253	-9.575	0.365	-0.239
-124.239	-127.372	0.391	-0.056
-123.224	101.043	-0.087	0.099
-122.210	-68.653	-0.158	-0.060
-121.195	206.725	-0.130	0.199
