DTS Sentinel unit serial number:	SN413079Multiplexer serial number:	ORYXHardware model number:	OX4-SRSoftware version number:	ORYX F/W v4.00 Oryx Data Collector v3.7.2.0data status	okinstallation	princeton_trtdifferential loss correction	single-endedforward channel	channel 3reverse channel	N/Adate	2019/09/12time	07:50:11forward acquisition time	60.00reverse acquisition time	0.00gamma	496.2192k internal	0.2315k external	0.2315temperature offset calibration	1.0037default loss term (dB/km)	0.3790temperature slope calibration	1.0000multiplexer offset coefficient	1.0000multiplexer slope coefficient	1.0000fibre end	0.00T internal ref (°C)	32.87T ext. ref 1 (°C)	1.65T ext. ref 2 (°C)	28.97length (m)	temperature (°C)	Stokes	anti-Stokes-747.200	800.000	-0.036	-0.155
-746.185	31.285	-0.181	0.157
-745.171	118.141	-0.129	0.161
-744.156	115.047	-0.025	-0.031
-743.142	800.000	-0.056	0.204
-742.127	-200.000	0.015	0.338
-741.112	151.938	0.206	-0.284
-740.098	606.005	-0.045	-0.114
-739.083	-21.869	-0.164	-0.101
-738.069	800.000	0.085	0.335
-737.054	-13.531	0.249	0.163
-736.039	3.651	-0.211	0.156
-735.025	70.584	-0.174	-0.182
-734.010	-24.954	-0.009	-0.006
-732.996	-60.190	0.316	-0.137
-731.981	-30.226	-0.413	-0.237
-730.966	132.964	-0.304	-0.397
-729.952	-99.838	0.331	0.084
-728.937	207.571	-0.074	0.116
-727.923	-200.000	0.057	0.274
-726.908	-15.994	-0.389	-0.251
-725.894	800.000	0.050	0.201
-724.879	74.410	0.036	-0.038
-723.864	-159.183	-0.093	-0.005
-722.850	47.176	0.045	-0.043
-721.835	63.524	-0.299	-0.304
-720.821	-7.719	0.139	0.095
-719.806	76.454	-0.121	-0.130
-718.791	535.242	-0.084	-0.202
-717.777	49.528	-0.352	-0.336
-716.762	-12.807	-0.287	-0.189
-715.748	-200.000	0.033	-0.213
-714.733	800.000	0.028	-0.105
-713.718	-181.555	0.527	-0.010
-712.704	800.000	0.161	0.530
-711.689	9.938	-0.244	0.187
-710.675	59.480	-0.033	0.033
-709.660	-66.190	0.122	0.049
-708.645	-200.000	0.005	-0.032
-707.631	-90.321	-0.055	0.016
-706.616	-49.261	-0.199	-0.096
-705.602	433.515	-0.027	-0.059
-704.587	505.833	0.100	0.235
-703.572	648.046	0.096	-0.249
-702.558	-110.470	0.362	-0.076
-701.543	379.187	-0.041	0.085
-700.529	346.332	-0.060	0.120
-699.514	501.488	0.142	-0.331
-698.499	-132.143	-0.287	-0.038
-697.485	-130.794	-0.088	-0.012
-696.470	567.423	0.186	-0.457
-695.456	-105.143	-0.094	0.022
-694.441	182.264	0.118	-0.175
-693.426	-14.221	0.169	0.110
-692.412	-163.197	-0.146	-0.007
-691.397	-172.679	0.238	-0.008
-690.383	28.930	0.056	0.048
-689.368	-200.000	-0.000	-0.066
-688.354	-200.000	0.015	-0.083
-687.339	-87.961	-0.076	0.023
-686.324	800.000	0.033	0.097
-685.310	158.538	-0.111	-0.156
-684.295	550.242	-0.094	0.228
-683.281	-200.000	0.008	-0.256
-682.266	26.897	0.183	0.155
-681.251	18.642	-0.144	0.116
-680.237	26.869	0.230	0.195
-679.222	-200.000	0.081	0.360
-678.208	800.000	-0.058	-0.178
-677.193	-113.403	-0.355	-0.070
-676.178	795.066	0.063	0.176
-675.164	-89.427	-0.113	-0.034
-674.149	105.678	-0.077	-0.092
-673.135	800.000	-0.027	-0.101
-672.120	-18.886	0.292	-0.184
-671.105	-44.130	0.325	-0.165
-670.091	-200.000	0.018	-0.099
-669.076	800.000	0.058	-0.198
-668.062	574.852	-0.081	-0.201
-667.047	-200.000	-0.010	-0.091
-666.032	-8.724	-0.128	0.087
-665.018	70.052	0.136	0.141
-664.003	51.891	0.114	0.110
-662.989	-114.266	-0.427	0.083
-661.974	-200.000	0.011	0.169
-660.959	-138.107	-0.348	0.039
-659.945	50.291	-0.087	-0.083
-658.930	800.000	-0.062	0.185
-657.916	493.021	0.053	-0.122
-656.901	16.350	-0.324	-0.258
-655.886	93.009	0.189	-0.216
-654.872	-81.262	-0.178	0.059
-653.857	-33.342	0.136	0.076
-652.843	800.000	0.023	0.065
-651.828	722.507	-0.107	0.287
-650.814	-200.000	-0.001	-0.124
-649.799	-124.598	0.301	-0.047
-648.784	800.000	-0.113	-0.474
-647.770	800.000	-0.076	-0.230
-646.755	-200.000	-0.002	-0.087
-645.741	-200.000	-0.010	-0.369
-644.726	-63.604	-0.197	0.081
-643.711	290.974	-0.118	-0.217
-642.697	-58.778	0.359	0.157
-641.682	526.865	-0.038	0.091
-640.668	800.000	0.045	-0.162
-639.653	-200.000	-0.036	0.165
-638.638	26.227	-0.315	0.265
-637.624	-39.477	0.178	-0.094
-636.609	-25.059	0.037	-0.022
-635.595	-53.995	0.153	0.070
-634.580	424.620	-0.081	-0.176
-633.565	290.595	-0.137	0.250
-632.551	-33.971	-0.174	0.097
-631.536	-147.740	0.304	0.026
-630.522	-143.456	0.034	0.003
-629.507	-200.000	0.026	0.169
-628.492	161.952	-0.254	-0.360
-627.478	-27.873	-0.232	-0.135
-626.463	-172.164	-0.105	0.003
-625.449	14.197	-0.236	-0.186
-624.434	-200.000	0.017	-0.300
-623.419	19.961	0.170	-0.139
-622.405	-200.000	0.003	-0.183
-621.390	800.000	0.048	-0.163
-620.376	-76.058	-0.196	-0.070
-619.361	550.348	0.116	-0.281
-618.346	-200.000	-0.022	0.232
-617.332	21.241	-0.214	-0.176
-616.317	504.383	0.082	-0.191
-615.303	800.000	-0.054	-0.157
-614.288	253.454	-0.131	0.225
-613.273	-109.099	0.150	0.032
-612.259	-104.783	-0.111	-0.026
-611.244	-49.597	0.098	0.047
-610.230	40.763	-0.164	0.149
-609.215	363.042	-0.276	-0.559
-608.201	-200.000	0.025	0.189
-607.186	500.912	-0.128	-0.299
-606.171	58.387	0.225	-0.223
-605.157	800.000	-0.045	-0.154
-604.142	162.859	0.293	0.415
-603.128	51.521	0.322	0.309
-602.113	-200.000	-0.051	0.231
-601.098	-162.222	-0.221	0.011
-600.084	23.919	-0.119	0.099
-599.069	-7.230	0.137	0.094
-598.055	-133.899	-0.187	-0.023
-597.040	-135.807	-0.229	-0.027
-596.025	731.046	0.064	0.172
-595.011	-133.555	-0.271	-0.034
-593.996	-72.353	0.426	0.159
-592.982	497.404	-0.067	0.154
-591.967	26.091	-0.189	0.159
-590.952	-26.046	-0.270	0.160
-589.938	123.786	-0.149	0.189
-588.923	-200.000	-0.009	-0.257
-587.909	-47.795	-0.206	0.101
-586.894	155.036	-0.200	0.277
-585.879	-90.184	-0.228	0.067
-584.865	59.724	0.158	0.157
-583.850	-200.000	0.023	-0.128
-582.836	-200.000	0.010	0.107
-581.821	92.706	0.037	-0.042
-580.806	-200.000	0.020	-0.135
-579.792	800.000	-0.076	-0.232
-578.777	-200.000	0.048	0.382
-577.763	-165.493	-0.077	-0.003
-576.748	25.568	0.222	-0.186
-575.733	-63.094	0.185	0.077
-574.719	-0.982	0.044	-0.031
-573.704	154.003	-0.139	0.191
-572.690	25.150	0.268	-0.224
-571.675	-93.913	-0.283	0.078
-570.661	-57.570	0.184	0.081
-569.646	262.751	0.185	0.324
-568.631	-56.764	-0.197	-0.088
-567.617	12.181	0.184	-0.142
-566.602	-130.123	0.387	0.053
-565.588	334.772	0.061	0.119
-564.573	-200.000	-0.037	-0.220
-563.558	737.811	0.102	-0.277
-562.544	74.810	0.101	-0.107
-561.529	138.447	0.084	0.111
-560.515	-200.000	0.017	-0.223
-559.500	800.000	-0.097	0.412
-558.485	133.579	0.196	0.255
-557.471	800.000	0.058	-0.195
-556.456	-77.431	-0.310	-0.108
-555.442	-21.052	-0.093	-0.057
-554.427	-200.000	0.011	-0.334
-553.412	-123.070	-0.149	0.024
-552.398	30.887	-0.155	-0.134
-551.383	-134.465	-0.153	-0.019
-550.369	800.000	0.049	-0.159
-549.354	-126.079	-0.158	-0.024
-548.339	-174.878	-0.037	0.001
-547.325	-200.000	0.032	0.219
-546.310	-200.000	-0.017	-0.236
-545.296	-200.000	-0.004	-0.023
-544.281	115.589	0.071	-0.088
-543.266	-34.168	0.396	0.219
-542.252	-200.000	0.046	0.270
-541.237	89.278	-0.243	-0.273
-540.223	-200.000	0.003	0.031
-539.208	114.476	-0.197	0.242
-538.193	23.458	0.114	0.094
-537.179	28.329	-0.127	-0.108
-536.164	-169.085	-0.246	-0.009
-535.150	28.437	-0.141	0.120
-534.135	-137.583	0.412	0.047
-533.121	-27.172	-0.169	-0.099
-532.106	-19.050	-0.288	0.180
-531.091	344.651	-0.142	0.280
-530.077	20.960	-0.077	-0.062
-529.062	-130.873	-0.403	-0.054
-528.048	-28.550	-0.089	-0.052
-527.033	164.707	-0.169	0.240
-526.018	-10.935	-0.226	0.150
-525.004	61.214	0.242	0.242
-523.989	-88.508	0.161	-0.048
-522.975	-200.000	-0.001	-0.105
-521.960	-108.070	-0.235	0.051
-520.945	-143.492	-0.145	-0.014
-519.931	-200.000	0.038	0.239
-518.916	25.789	-0.144	0.120
-517.902	122.907	-0.106	0.133
-516.887	-170.289	-0.277	0.010
-515.872	128.575	0.085	-0.109
-514.858	-200.000	-0.006	-0.333
-513.843	37.633	0.209	-0.186
-512.829	800.000	0.036	-0.114
-511.814	138.991	0.154	0.203
-510.799	-36.358	0.339	-0.184
-509.785	520.884	-0.144	-0.340
-508.770	-2.311	0.096	0.068
-507.756	389.029	-0.057	-0.119
-506.741	174.595	0.166	-0.240
-505.726	-128.527	-0.212	0.030
-504.712	390.181	0.094	-0.196
-503.697	-134.315	0.326	-0.040
-502.683	64.558	0.196	-0.198
-501.668	115.220	-0.267	-0.327
-500.653	74.800	-0.091	-0.096
-499.639	-179.671	0.177	0.004
-498.624	78.070	-0.090	0.096
-497.610	373.004	-0.131	-0.267
-496.595	800.000	-0.066	0.186
-495.581	3.174	0.158	0.116
-494.566	41.885	0.053	0.048
-493.551	-46.282	0.167	-0.082
-492.537	-54.023	-0.261	0.119
-491.522	-200.000	0.024	-0.183
-490.508	83.732	-0.067	0.074
-489.493	22.767	-0.117	0.096
-488.478	-200.000	0.077	0.000
-487.464	103.302	0.254	0.299
-486.449	-200.000	-0.004	-0.051
-485.435	-77.598	0.050	-0.017
-484.420	-81.989	0.173	-0.057
-483.405	183.084	0.231	-0.342
-482.391	800.000	-0.057	0.245
-481.376	-173.727	-0.278	0.008
-480.362	-35.508	-0.222	-0.121
-479.347	-55.136	-0.178	-0.080
-478.332	75.504	0.154	-0.163
-477.318	-200.000	0.228	0.001
-476.303	-61.937	-0.221	-0.093
-475.289	-95.284	-0.045	-0.012
-474.274	-200.000	-0.020	-0.278
-473.259	-200.000	-0.003	0.259
-472.245	80.514	0.301	-0.326
-471.230	-200.000	0.001	-0.222
-470.216	112.705	0.069	-0.084
-469.201	85.158	-0.125	-0.138
-468.186	-200.000	0.008	-0.081
-467.172	-50.529	-0.125	-0.059
-466.157	-67.079	0.256	-0.101
-465.143	153.353	0.109	0.150
-464.128	800.000	-0.082	-0.231
-463.113	32.070	-0.343	-0.296
-462.099	-163.081	-0.065	0.003
-461.084	-17.121	-0.105	0.066
-460.070	224.353	0.113	0.184
-459.055	-55.249	-0.152	0.068
-458.040	73.998	0.110	0.115
-457.026	-148.369	-0.088	-0.007
-456.011	-148.461	0.085	-0.007
-454.997	-35.919	-0.210	0.114
-453.982	88.883	0.199	0.222
-452.968	-131.455	0.402	0.053
-451.953	15.210	-0.239	0.187
-450.938	-200.000	-0.024	0.532
-449.924	99.724	-0.205	0.237
-448.909	800.000	0.039	-0.135
-447.895	117.400	0.146	0.180
-446.880	-200.000	0.009	-0.103
-445.865	-95.230	0.125	-0.034
-444.851	800.000	0.063	-0.276
-443.836	800.000	-0.055	-0.201
-442.822	-101.660	0.199	0.048
-441.807	347.777	-0.177	-0.348
-440.792	347.057	-0.106	-0.209
-439.778	114.210	0.081	0.099
-438.763	98.466	0.204	-0.236
-437.749	-32.384	-0.098	-0.055
-436.734	793.104	0.087	0.239
-435.719	55.841	-0.297	-0.288
-434.705	28.082	0.137	-0.116
-433.690	-36.135	0.117	-0.063
-432.676	800.000	-0.087	-0.263
-431.661	-86.626	-0.193	0.059
-430.646	800.000	0.078	0.237
-429.632	-106.384	0.204	-0.046
-428.617	487.740	-0.080	0.182
-427.603	196.614	0.069	0.105
-426.588	-200.000	-0.022	0.156
-425.573	584.421	0.124	-0.306
-424.559	-39.952	-0.340	-0.178
-423.544	197.035	0.154	-0.236
-422.530	-95.475	-0.056	-0.015
-421.515	81.102	0.015	-0.016
-420.500	-200.000	0.208	-0.001
-419.486	359.250	0.030	-0.061
-418.471	-200.000	-0.000	0.136
-417.457	41.716	0.003	-0.003
-416.442	-200.000	-0.045	0.258
-415.428	-149.508	-0.348	0.028
-414.413	-200.000	0.042	0.360
-413.398	-149.086	-0.207	0.017
-412.384	-200.000	0.022	-0.186
-411.369	800.000	0.103	-0.325
-410.355	-27.332	-0.049	0.029
-409.340	39.152	0.272	0.243
-408.325	-106.518	0.049	0.011
-407.311	800.000	0.076	-0.305
-406.296	365.098	0.042	-0.085
-405.282	88.430	-0.120	-0.133
-404.267	56.987	0.044	0.043
-403.252	800.000	0.022	-0.086
-402.238	-193.944	0.302	-0.003
-401.223	-50.959	-0.054	0.025
-400.209	-200.000	0.049	-0.312
-399.194	-200.000	0.021	0.226
-398.179	288.613	-0.013	-0.023
-397.165	-167.543	0.253	-0.010
-396.150	16.158	-0.230	0.181
-395.136	89.714	0.269	0.300
-394.121	-91.968	0.535	-0.152
-393.106	-200.000	0.003	-0.085
-392.092	433.686	-0.115	0.249
-391.077	206.292	0.201	0.312
-390.063	-97.256	0.142	-0.037
-389.048	172.931	-0.081	0.116
-388.033	-90.662	-0.123	-0.035
-387.019	159.602	-0.118	0.165
-386.004	95.461	0.086	-0.097
-384.990	51.727	-0.145	-0.138
-383.975	518.427	0.016	0.037
-382.960	-114.802	0.194	0.037
-381.946	-64.733	-0.162	-0.066
-380.931	-4.237	-0.110	-0.076
-379.917	-104.417	-0.385	-0.089
-378.902	800.000	0.056	-0.234
-377.888	662.448	0.157	0.405
-376.873	66.307	0.152	0.154
-375.858	105.284	-0.206	0.243
-374.844	57.379	-0.272	0.266
-373.829	-30.162	-0.060	0.034
-372.815	261.116	-0.086	0.149
-371.800	578.333	-0.175	0.428
-370.785	249.792	-0.131	0.221
-369.771	800.000	0.073	0.313
-368.756	-91.507	-0.178	0.051
-367.742	125.132	0.052	-0.065
-366.727	-111.401	-0.204	-0.042
-365.712	563.394	0.088	-0.213
-364.698	-200.000	-0.019	0.202
-363.683	-9.140	0.239	0.159
-362.669	800.000	-0.065	-0.210
-361.654	135.662	-0.076	0.099
-360.639	446.055	-0.155	0.341
-359.625	-10.503	0.122	-0.081
-358.610	-153.456	-0.195	-0.013
-357.596	-200.000	0.034	0.156
-356.581	-170.527	-0.371	-0.013
-355.566	-200.000	-0.063	-0.293
-354.552	-62.475	0.124	0.052
-353.537	27.527	-0.002	0.002
-352.523	-142.405	0.116	0.011
-351.508	800.000	-0.063	0.204
-350.493	21.054	0.165	0.134
-349.479	79.378	0.267	-0.286
-348.464	-200.000	0.001	-0.008
-347.450	105.208	-0.164	0.193
-346.435	-120.300	-0.167	-0.028
-345.420	157.797	0.133	0.184
-344.406	-200.000	0.030	-0.161
-343.391	212.338	0.064	0.100
-342.377	366.580	0.061	0.123
-341.362	-122.701	-0.309	0.050
-340.348	-200.000	-0.024	-0.160
-339.333	-94.692	0.119	-0.032
-338.318	38.052	0.191	-0.169
-337.304	-94.158	-0.394	-0.108
-336.289	-66.886	0.229	0.090
-335.275	-200.000	0.018	-0.110
-334.260	800.000	0.088	-0.369
-333.245	-82.963	-0.179	0.058
-332.231	57.466	0.213	-0.207
-331.216	800.000	-0.035	0.116
-330.202	-152.684	-0.163	-0.012
-329.187	11.399	-0.328	0.250
-328.172	-155.042	0.304	0.020
-327.158	681.946	0.064	0.167
-326.143	-200.000	0.002	-0.058
-325.129	269.978	0.077	-0.135
-324.114	-83.771	-0.165	-0.052
-323.099	800.000	-0.105	0.385
-322.085	625.672	-0.022	0.056
-321.070	-200.000	-0.001	-0.276
-320.056	0.817	-0.206	0.147
-319.041	-200.000	-0.007	0.066
-318.026	789.379	0.165	0.452
-317.012	-200.000	0.030	0.379
-315.997	-143.249	0.401	-0.038
-314.983	245.431	-0.090	0.150
-313.968	742.525	-0.122	-0.327
-312.953	-200.000	-0.040	-0.189
-311.939	-200.000	0.017	-0.122
-310.924	414.460	-0.183	0.387
-309.910	214.933	-0.047	-0.074
-308.895	50.365	0.149	0.140
-307.880	-107.513	0.235	-0.051
-306.866	125.449	0.061	0.077
-305.851	800.000	0.087	0.297
-304.837	800.000	-0.050	0.193
-303.822	-80.340	-0.217	0.072
-302.807	-133.547	0.423	0.053
-301.793	-159.331	-0.101	0.006
-300.778	14.436	-0.191	0.148
-299.764	173.611	0.098	-0.141
-298.749	278.147	0.168	-0.297
-297.735	-200.000	0.006	0.102
-296.720	29.617	0.262	-0.222
-295.705	800.000	-0.046	-0.165
-294.691	-19.837	0.274	-0.168
-293.676	384.378	0.021	-0.042
-292.662	-31.784	-0.154	-0.086
-291.647	-107.929	-0.088	0.019
-290.632	49.759	0.194	-0.182
-289.618	-87.613	0.548	-0.165
-288.603	-69.728	-0.054	-0.020
-287.589	800.000	0.021	-0.084
-286.574	-80.656	0.079	0.026
-285.559	-33.627	-0.409	-0.225
-284.545	-58.955	-0.430	-0.185
-283.530	339.606	0.127	0.246
-282.516	-102.782	0.311	0.074
-281.501	-175.984	0.297	-0.008
-280.486	-89.754	0.192	-0.056
-279.472	-200.000	0.017	-0.253
-278.457	-200.000	-0.071	-0.519
-277.443	-200.000	0.000	0.426
-276.428	352.701	0.072	-0.142
-275.413	4.665	0.059	0.043
-274.399	-139.509	-0.357	-0.038
-273.384	-0.467	0.184	-0.130
-272.370	153.203	0.053	-0.072
-271.355	800.000	0.107	-0.395
-270.340	120.456	-0.171	-0.212
-269.326	125.314	0.110	-0.138
-268.311	-153.719	0.022	-0.001
-267.297	-104.066	0.200	-0.046
-266.282	81.722	-0.016	-0.017
-265.267	-133.898	-0.172	0.021
-264.253	800.000	-0.072	-0.241
-263.238	-200.000	0.019	-0.148
-262.224	21.963	-0.058	-0.047
-261.209	-56.268	-0.229	-0.101
-260.195	-138.676	-0.288	0.031
-259.180	800.000	0.043	-0.126
-258.165	16.440	0.380	0.298
-257.151	216.228	0.050	-0.079
-256.136	-43.562	0.068	0.034
-255.122	-61.690	0.401	0.167
-254.107	8.903	-0.078	-0.058
-253.092	754.531	-0.079	0.213
-252.078	455.673	-0.025	0.054
-251.063	669.603	0.078	-0.201
-250.049	243.717	-0.147	0.245
-249.034	41.551	0.096	0.087
-248.019	603.870	0.071	-0.177
-247.005	-200.000	0.012	-0.140
-245.990	-40.968	0.362	0.186
-244.976	214.530	0.020	-0.032
-243.961	-200.000	0.022	0.134
-242.946	127.760	-0.180	0.228
-241.932	-200.000	-0.005	-0.021
-240.917	267.936	-0.155	-0.270
-239.903	-170.387	0.154	0.005
-238.888	40.319	0.017	-0.015
-237.873	56.127	0.133	-0.128
-236.859	-200.000	-0.049	-0.289
-235.844	-105.460	-0.159	-0.036
-234.830	-50.423	-0.034	-0.016
-233.815	30.193	-0.173	0.147
-232.800	33.997	0.170	-0.147
-231.786	-41.525	-0.348	-0.178
-230.771	-190.001	0.052	-0.001
-229.757	-53.386	-0.180	-0.082
-228.742	-200.000	0.013	-0.123
-227.727	211.058	0.143	0.224
-226.713	-200.000	0.038	0.315
-225.698	-124.734	0.188	-0.029
-224.684	166.636	0.257	-0.362
-223.669	-143.677	-0.308	-0.029
-222.655	359.172	-0.042	0.083
-221.640	800.000	-0.072	0.200
-220.625	-200.000	0.039	0.240
-219.611	-90.774	0.381	-0.109
-218.596	-5.154	-0.256	-0.175
-217.582	-102.572	-0.234	-0.056
-216.567	-134.607	0.044	-0.005
-215.552	-63.860	0.186	0.076
-214.538	116.061	-0.211	-0.257
-213.523	20.974	0.146	0.118
-212.509	-62.068	-0.174	0.072
-211.494	39.689	-0.079	0.070
-210.479	-5.892	-0.047	0.032
-209.465	798.238	-0.084	0.231
-208.450	-200.000	0.009	-0.454
-207.436	-150.262	-0.230	0.018
-206.421	5.243	0.394	-0.288
-205.406	-7.143	-0.218	0.147
-204.392	-50.666	-0.136	0.064
-203.377	167.942	-0.179	0.253
-202.363	-200.000	-0.030	0.359
-201.348	111.757	-0.054	0.064
-200.333	28.747	0.179	-0.151
-199.319	-200.000	0.011	-0.368
-198.304	-113.190	0.357	-0.070
-197.290	113.910	-0.169	-0.204
-196.275	-200.000	0.076	0.370
-195.260	320.415	0.130	-0.246
-194.246	580.638	0.073	-0.178
-193.231	428.006	0.140	-0.300
-192.217	-110.263	0.282	0.058
-191.202	68.375	0.087	0.088
-190.187	-200.000	0.009	-0.388
-189.173	-14.574	0.213	0.136
-188.158	-61.143	0.361	0.151
-187.144	-36.111	0.088	-0.047
-186.129	73.729	0.167	0.173
-185.114	29.711	0.094	0.079
-184.100	121.509	0.191	-0.236
-183.085	-63.113	-0.156	0.064
-182.071	-21.713	-0.186	-0.112
-181.056	-200.000	-0.036	0.398
-180.042	353.778	0.131	0.258
-179.027	306.200	-0.123	0.227
-178.012	123.706	0.213	0.266
-176.998	-33.370	-0.097	-0.053
-175.983	274.791	-0.113	0.199
-174.969	267.878	-0.088	0.152
-173.954	166.812	-0.144	-0.202
-172.939	800.000	-0.063	-0.180
-171.925	144.467	0.148	0.196
-170.910	23.797	-0.063	0.051
-169.896	50.109	0.202	0.189
-168.881	402.763	0.112	0.233
-167.866	85.881	-0.092	0.100
-166.852	381.110	-0.079	0.161
-165.837	-95.170	-0.102	0.027
-164.823	-200.000	0.016	0.135
-163.808	102.006	0.309	-0.357
-162.793	-120.792	-0.038	0.006
-161.779	325.758	-0.125	0.238
-160.764	375.071	0.095	0.192
-159.750	318.022	-0.172	0.323
-158.735	-200.000	0.034	0.213
-157.720	100.451	-0.245	0.282
-156.706	310.588	0.130	0.241
-155.691	91.253	-0.310	0.345
-154.677	115.710	0.263	-0.319
-153.662	-21.607	-0.261	-0.158
-152.647	-80.545	0.248	-0.082
-151.633	-200.000	-0.013	0.631
-150.618	89.684	0.163	-0.180
-149.604	-200.000	0.035	0.274
-148.589	-66.895	-0.232	0.091
-147.574	-122.086	0.286	0.046
-146.560	-200.000	0.035	-0.214
-145.545	-48.845	-0.183	0.087
-144.531	67.231	-0.161	0.163
-143.516	234.638	0.085	-0.139
-142.502	178.512	0.122	0.177
-141.487	149.143	0.053	0.072
-140.472	800.000	-0.071	-0.291
-139.458	327.045	-0.077	0.146
-138.443	800.000	0.102	-0.292
-137.429	-80.944	0.357	-0.117
-136.414	78.809	0.177	-0.188
-135.399	-200.000	-0.042	0.575
-134.385	406.305	0.133	-0.278
-133.370	207.310	0.106	0.163
-132.356	96.779	-0.126	-0.143
-131.341	800.000	-0.091	0.294
-130.326	-200.000	0.029	0.225
-129.312	-39.424	0.040	0.021
-128.297	800.000	-0.040	0.148
-127.283	-191.492	-0.267	-0.003
-126.268	74.369	0.047	-0.049
-125.253	-32.717	0.514	0.283
-124.239	-174.171	0.252	-0.007
-123.224	-200.000	-0.008	0.116
-122.210	1.797	0.169	0.120
-121.195	253.349	0.069	0.116
