DTS Sentinel unit serial number:	SN413079Multiplexer serial number:	ORYXHardware model number:	OX4-SRSoftware version number:	ORYX F/W v4.00 Oryx Data Collector v3.7.2.0data status	okinstallation	princeton_trtdifferential loss correction	single-endedforward channel	channel 3reverse channel	N/Adate	2019/09/18time	08:20:35forward acquisition time	60.00reverse acquisition time	0.00gamma	496.2192k internal	0.2341k external	0.2341temperature offset calibration	0.9948default loss term (dB/km)	0.3790temperature slope calibration	1.0000multiplexer offset coefficient	1.0000multiplexer slope coefficient	1.0000fibre end	0.00T internal ref (°C)	24.06T ext. ref 1 (°C)	0.21T ext. ref 2 (°C)	19.69length (m)	temperature (°C)	Stokes	anti-Stokes-747.200	195.356	-0.058	-0.088
-746.185	90.610	-0.144	0.162
-745.171	32.737	0.199	0.172
-744.156	396.141	0.053	0.111
-743.142	800.000	-0.075	0.277
-742.127	59.505	0.151	0.150
-741.112	25.234	0.135	0.113
-740.098	-200.000	0.033	0.407
-739.083	65.422	0.018	-0.018
-738.069	694.637	-0.141	0.371
-737.054	-200.000	0.009	-0.074
-736.039	-200.000	-0.023	-0.248
-735.025	-74.946	0.309	-0.111
-734.010	800.000	-0.032	0.099
-732.996	213.660	0.156	-0.248
-731.981	-78.426	-0.295	0.101
-730.966	146.383	-0.175	-0.236
-729.952	-166.141	0.147	0.006
-728.937	800.000	-0.052	-0.161
-727.923	-66.157	-0.315	0.126
-726.908	-105.729	-0.134	-0.030
-725.894	-173.600	0.386	0.012
-724.879	800.000	0.053	0.200
-723.864	-97.832	0.094	-0.024
-722.850	251.325	0.077	0.132
-721.835	12.235	-0.058	-0.045
-720.821	-188.956	-0.041	-0.001
-719.806	-53.331	0.447	0.205
-718.791	-12.850	0.048	-0.031
-717.777	-22.812	-0.171	0.104
-716.762	-33.436	0.024	-0.013
-715.748	138.397	-0.151	-0.198
-714.733	-92.953	-0.159	-0.045
-713.718	-76.843	-0.123	-0.043
-712.704	-95.811	0.131	-0.035
-711.689	-142.832	0.050	-0.005
-710.675	-200.000	0.002	-0.018
-709.660	-112.521	-0.053	-0.011
-708.645	-46.437	0.162	-0.080
-707.631	77.062	0.206	0.219
-706.616	-115.185	0.393	-0.075
-705.602	-200.000	0.018	0.178
-704.587	208.903	0.222	-0.347
-703.572	-200.000	-0.007	-0.160
-702.558	99.216	-0.384	-0.444
-701.543	13.684	-0.191	-0.148
-700.529	-200.000	-0.076	0.367
-699.514	-128.771	0.274	-0.039
-698.499	131.349	-0.154	0.198
-697.485	68.295	-0.095	0.097
-696.470	111.506	-0.207	-0.250
-695.456	441.035	-0.052	-0.114
-694.441	-131.848	0.203	0.026
-693.426	-104.729	0.183	0.042
-692.412	-127.701	0.062	-0.009
-691.397	-95.450	-0.260	0.070
-690.383	74.134	0.231	-0.243
-689.368	37.111	-0.027	0.024
-688.354	-78.668	-0.178	-0.061
-687.339	-84.499	-0.235	0.074
-686.324	-46.784	-0.122	-0.060
-685.310	-57.319	-0.050	-0.022
-684.295	-200.000	0.001	-0.076
-683.281	-61.106	-0.177	-0.075
-682.266	-200.000	0.071	-0.341
-681.251	-153.814	-0.055	0.004
-680.237	39.879	-0.090	-0.080
-679.222	125.412	0.093	0.117
-678.208	-200.000	0.029	-0.306
-677.193	185.786	-0.172	0.255
-676.178	-116.575	-0.204	-0.038
-675.164	-200.000	0.021	0.167
-674.149	19.194	0.102	-0.082
-673.135	-100.051	0.318	0.079
-672.120	76.799	-0.055	0.058
-671.105	-137.989	0.480	0.053
-670.091	-200.000	-0.035	0.191
-669.076	223.173	0.043	-0.070
-668.062	-28.672	0.265	0.152
-667.047	277.797	-0.184	-0.327
-666.032	800.000	-0.058	-0.163
-665.018	158.869	-0.030	-0.041
-664.003	-200.000	-0.101	0.000
-662.989	128.363	0.117	-0.149
-661.974	-104.052	0.263	-0.061
-660.959	-200.000	0.004	-0.074
-659.945	-200.000	-0.077	-0.405
-658.930	94.070	-0.095	-0.108
-657.916	40.814	0.156	0.140
-656.901	-200.000	0.017	-0.169
-655.886	718.382	-0.031	0.083
-654.872	-90.180	-0.152	0.044
-653.857	-34.556	-0.081	0.044
-652.843	94.536	-0.245	0.278
-651.828	-17.490	0.103	0.065
-650.814	102.172	-0.025	0.029
-649.799	31.976	-0.114	0.098
-648.784	86.664	0.100	0.110
-647.770	-90.340	-0.146	-0.042
-646.755	800.000	0.089	-0.264
-645.741	0.494	0.229	0.163
-644.726	88.511	-0.078	-0.086
-643.711	111.368	0.114	0.137
-642.697	-129.331	-0.276	0.038
-641.682	-200.000	0.028	-0.271
-640.668	-90.856	-0.212	0.061
-639.653	180.914	0.163	-0.239
-638.638	76.485	0.120	0.127
-637.624	-87.931	0.206	0.062
-636.609	-169.017	0.103	-0.004
-635.595	800.000	-0.062	0.223
-634.580	-183.701	0.216	-0.004
-633.565	-200.000	0.017	0.078
-632.551	-72.746	-0.282	0.104
-631.536	-31.821	-0.122	0.068
-630.522	800.000	0.163	-0.592
-629.507	75.889	-0.120	0.126
-628.492	-29.508	-0.263	-0.150
-627.478	-112.950	-0.380	0.075
-626.463	20.529	0.143	0.115
-625.449	116.124	0.170	0.208
-624.434	-98.773	-0.280	0.071
-623.419	388.791	-0.057	0.117
-622.405	105.839	0.090	0.106
-621.390	-50.260	0.264	-0.124
-620.376	60.090	0.118	0.117
-619.361	800.000	-0.072	0.246
-618.346	800.000	0.103	0.409
-617.332	702.618	-0.023	-0.061
-616.317	-158.150	-0.196	0.011
-615.303	120.405	0.075	-0.093
-614.288	19.846	-0.079	0.063
-613.273	800.000	-0.064	-0.231
-612.259	170.271	0.264	-0.377
-611.244	10.044	-0.293	-0.222
-610.230	44.207	-0.175	-0.160
-609.215	266.053	-0.067	0.117
-608.201	-131.288	-0.317	-0.042
-607.186	46.086	-0.273	-0.252
-606.171	-124.468	0.309	-0.048
-605.157	59.404	-0.141	-0.138
-604.142	493.248	0.048	-0.109
-603.128	116.917	-0.011	0.014
-602.113	173.218	-0.187	0.269
-601.098	-200.000	0.010	0.195
-600.084	361.189	-0.079	0.158
-599.069	-73.891	0.189	-0.069
-598.055	-41.828	0.127	-0.065
-597.040	251.933	0.127	-0.216
-596.025	330.809	-0.118	-0.227
-595.011	100.002	-0.074	0.086
-593.996	-34.173	-0.138	-0.076
-592.982	177.808	0.285	0.415
-591.967	-200.000	0.031	-0.425
-590.952	-61.521	0.083	0.035
-589.938	530.811	-0.068	0.159
-588.923	-30.509	0.095	0.053
-587.909	-200.000	-0.007	0.078
-586.894	800.000	0.014	-0.043
-585.879	-52.573	0.037	-0.017
-584.865	-100.448	-0.174	0.043
-583.850	588.526	-0.153	-0.376
-582.836	-77.979	-0.172	0.059
-581.821	760.373	0.070	0.190
-580.806	59.650	0.059	0.058
-579.792	-70.268	0.224	0.085
-578.777	-200.000	-0.017	0.263
-577.763	-117.539	0.268	0.048
-576.748	20.819	0.223	0.180
-575.733	-11.470	0.174	0.114
-574.719	800.000	-0.108	0.363
-573.704	-151.650	-0.385	-0.028
-572.690	75.617	0.066	0.070
-571.675	-77.082	-0.297	-0.103
-570.661	-200.000	-0.034	-0.262
-569.646	135.931	0.189	0.245
-568.631	-1.115	-0.126	-0.089
-567.617	463.084	0.084	-0.187
-566.602	-85.911	-0.095	0.029
-565.588	453.891	0.038	0.084
-564.573	414.321	0.103	-0.217
-563.558	55.754	0.291	-0.281
-562.544	-17.977	-0.146	0.091
-561.529	-136.051	0.174	-0.020
-560.515	800.000	0.081	0.234
-559.500	-200.000	0.021	0.453
-558.485	800.000	-0.065	-0.267
-557.471	800.000	-0.031	0.117
-556.456	722.442	-0.055	0.145
-555.442	-169.114	-0.147	-0.005
-554.427	280.398	-0.033	-0.059
-553.412	-45.118	0.016	0.008
-552.398	-14.609	0.318	-0.203
-551.383	-97.726	-0.150	0.039
-550.369	40.568	-0.098	-0.088
-549.354	-140.682	-0.107	0.011
-548.339	-115.868	-0.120	-0.022
-547.325	-40.561	-0.223	-0.115
-546.310	-59.351	-0.450	0.192
-545.296	317.259	0.028	0.053
-544.281	172.781	0.236	-0.339
-543.266	85.672	-0.239	-0.261
-542.252	800.000	0.089	-0.344
-541.237	-116.497	0.103	-0.019
-540.223	123.364	-0.169	-0.211
-539.208	-200.000	-0.054	-0.254
-538.193	127.523	-0.241	0.304
-537.179	33.379	0.232	0.200
-536.164	122.864	0.056	-0.069
-535.150	574.076	0.054	-0.130
-534.135	535.235	0.125	-0.294
-533.121	-200.000	-0.055	0.358
-532.106	314.588	-0.134	-0.250
-531.091	-200.000	-0.023	-0.208
-530.077	-200.000	-0.002	0.193
-529.062	80.183	-0.225	0.241
-528.048	-16.044	0.227	0.144
-527.033	158.284	0.189	-0.260
-526.018	-200.000	0.039	0.260
-525.004	52.141	-0.121	0.114
-523.989	-200.000	-0.013	0.111
-522.975	-25.146	-0.108	-0.064
-521.960	65.937	0.113	-0.113
-520.945	48.548	-0.084	0.078
-519.931	-98.268	-0.158	-0.040
-518.916	800.000	-0.033	-0.105
-517.902	16.886	0.192	0.151
-516.887	-200.000	0.023	0.141
-515.872	-200.000	-0.004	-0.587
-514.858	-200.000	0.047	0.292
-513.843	-105.334	0.267	0.060
-512.829	-22.034	-0.335	0.202
-511.814	-132.243	-0.076	0.010
-510.799	60.602	0.090	-0.088
-509.785	-76.692	-0.314	0.109
-508.770	10.560	-0.158	-0.119
-507.756	-200.000	0.018	-0.150
-506.741	-125.002	0.133	-0.020
-505.726	406.506	0.270	-0.565
-504.712	-65.040	-0.285	-0.114
-503.697	800.000	-0.030	-0.100
-502.683	800.000	-0.159	-0.599
-501.668	-50.735	0.137	0.064
-500.653	403.337	0.014	-0.030
-499.639	398.861	0.122	0.253
-498.624	69.615	-0.068	-0.070
-497.610	239.981	0.053	-0.088
-496.595	-178.210	0.179	0.004
-495.581	-200.000	0.019	-0.260
-494.566	-18.415	0.073	0.046
-493.551	40.321	0.235	-0.209
-492.537	-49.690	-0.127	0.060
-491.522	-200.000	0.025	0.132
-490.508	-200.000	-0.011	-0.089
-489.493	161.668	0.044	0.061
-488.478	800.000	0.043	0.183
-487.464	-90.385	0.092	0.026
-486.449	5.953	0.084	0.062
-485.435	140.917	-0.030	-0.039
-484.420	-36.928	-0.188	-0.100
-483.405	800.000	-0.023	0.091
-482.391	800.000	-0.105	0.441
-481.376	-200.000	0.016	0.234
-480.362	-138.916	0.077	0.008
-479.347	113.254	0.163	-0.196
-478.332	-184.262	0.265	0.004
-477.318	-24.008	-0.147	0.087
-476.303	287.774	-0.131	0.234
-475.289	-137.336	0.303	0.034
-474.274	-200.000	0.037	0.239
-473.259	74.453	0.137	0.142
-472.245	118.981	0.187	-0.230
-471.230	114.383	-0.205	-0.248
-470.216	-164.722	0.042	-0.002
-469.201	800.000	0.046	-0.159
-468.186	-153.114	-0.176	-0.012
-467.172	27.459	-0.183	0.153
-466.157	12.920	0.243	0.186
-465.143	800.000	0.035	0.126
-464.128	281.284	-0.102	0.182
-463.113	27.475	-0.396	-0.330
-462.099	-200.000	0.045	0.381
-461.084	800.000	0.013	-0.039
-460.070	800.000	-0.012	-0.036
-459.055	-145.804	-0.310	0.027
-458.040	-200.000	0.029	-0.362
-457.026	306.711	-0.081	-0.149
-456.011	-25.975	0.116	0.068
-454.997	540.472	0.092	-0.217
-453.982	-154.584	-0.098	-0.006
-452.968	192.055	-0.097	0.145
-451.953	248.682	0.100	0.168
-450.938	216.503	0.114	0.179
-449.924	133.689	-0.123	0.158
-448.909	-73.524	-0.355	0.128
-447.895	-74.678	-0.260	0.093
-446.880	463.209	0.074	0.163
-445.865	-33.650	0.288	0.157
-444.851	137.082	0.105	0.135
-443.836	-101.457	-0.236	-0.057
-442.822	41.666	0.189	-0.170
-441.807	42.267	-0.040	0.036
-440.792	800.000	-0.099	-0.311
-439.778	-146.624	0.274	-0.024
-438.763	485.614	0.057	0.128
-437.749	297.089	-0.125	-0.227
-436.734	137.651	-0.039	-0.051
-435.719	-47.060	-0.185	-0.089
-434.705	-111.888	-0.161	0.032
-433.690	-123.252	-0.196	-0.031
-432.676	800.000	0.048	-0.178
-431.661	528.311	0.081	0.190
-430.646	195.016	0.224	-0.337
-429.632	411.807	0.097	-0.204
-428.617	131.882	0.254	0.324
-427.603	-92.399	-0.274	-0.076
-426.588	218.288	0.183	0.289
-425.573	293.984	-0.137	-0.247
-424.559	-200.000	0.034	-0.243
-423.544	245.858	-0.083	-0.138
-422.530	800.000	-0.045	0.194
-421.515	239.377	0.045	0.075
-420.500	-163.819	-0.168	-0.008
-419.486	337.666	0.074	0.143
-418.471	800.000	0.008	0.026
-417.457	-84.586	-0.359	-0.112
-416.442	800.000	-0.014	0.045
-415.428	-103.727	-0.423	0.098
-414.413	-127.422	-0.395	0.057
-413.398	46.248	0.059	0.054
-412.384	380.222	0.112	0.227
-411.369	-104.888	-0.225	-0.051
-410.355	-200.000	0.002	-0.052
-409.340	52.862	-0.036	0.034
-408.325	96.184	-0.303	0.343
-407.311	-200.000	-0.038	0.226
-406.296	10.281	-0.369	0.278
-405.282	-159.048	0.030	0.002
-404.267	-33.886	-0.454	0.247
-403.252	-22.338	0.034	-0.021
-402.238	-86.570	0.175	-0.053
-401.223	19.313	0.157	0.125
-400.209	-61.184	-0.209	-0.087
-399.194	-42.031	0.131	0.066
-398.179	97.557	-0.197	0.223
-397.165	800.000	-0.160	-0.532
-396.150	28.556	0.210	0.176
-395.136	-200.000	-0.001	0.325
-394.121	-105.961	0.389	0.087
-393.106	800.000	0.015	-0.055
-392.092	-110.638	-0.481	-0.098
-391.077	-56.839	0.256	-0.112
-390.063	-61.615	-0.161	-0.067
-389.048	601.998	-0.028	-0.069
-388.033	24.946	-0.130	-0.106
-387.019	-27.667	0.109	0.062
-386.004	-153.124	-0.249	-0.017
-384.990	-52.011	0.145	0.067
-383.975	-83.512	0.457	0.145
-382.960	718.279	-0.010	-0.027
-381.946	-147.772	-0.275	0.023
-380.931	54.430	0.355	0.338
-379.917	-24.803	0.148	-0.087
-378.902	-4.285	0.140	-0.096
-377.888	484.010	0.134	-0.302
-376.873	-200.000	0.072	0.382
-375.858	180.693	-0.096	-0.139
-374.844	283.180	-0.120	0.212
-373.829	-104.699	0.257	-0.058
-372.815	-65.447	0.279	0.111
-371.800	-107.723	-0.452	-0.097
-370.785	-32.871	0.257	-0.141
-369.771	-92.451	-0.170	0.047
-368.756	223.644	-0.105	-0.167
-367.742	-9.498	0.185	-0.122
-366.727	-155.130	-0.266	-0.017
-365.712	442.593	-0.179	-0.387
-364.698	26.955	-0.257	0.213
-363.683	148.046	-0.214	0.285
-362.669	-116.840	0.240	-0.043
-361.654	-100.540	-0.194	0.047
-360.639	-200.000	0.016	0.313
-359.625	195.530	-0.046	0.069
-358.610	-146.752	-0.260	-0.022
-357.596	-95.166	0.318	0.085
-356.581	-13.011	0.138	-0.089
-355.566	21.827	0.073	0.059
-354.552	46.690	-0.131	-0.120
-353.537	50.026	0.156	-0.145
-352.523	328.174	0.025	0.048
-351.508	687.214	-0.081	-0.208
-350.493	507.665	-0.062	0.142
-349.479	-138.396	0.287	-0.031
-348.464	-92.004	0.079	0.022
-347.450	-200.000	-0.023	0.552
-346.435	98.579	0.148	0.168
-345.420	331.983	0.085	-0.162
-344.406	-34.433	-0.129	-0.070
-343.391	-74.291	-0.112	0.040
-342.377	-200.000	0.033	0.206
-341.362	265.005	0.034	-0.058
-340.348	-200.000	0.001	-0.090
-339.333	-200.000	-0.068	0.346
-338.318	717.228	-0.065	-0.169
-337.304	43.118	-0.172	0.154
-336.289	-200.000	0.043	-0.313
-335.275	-102.713	-0.340	0.080
-334.260	-200.000	-0.020	0.147
-333.245	-200.000	0.000	-0.201
-332.231	389.634	0.151	-0.309
-331.216	-140.657	-0.216	-0.022
-330.202	-200.000	0.004	0.120
-329.187	-200.000	0.016	0.085
-328.172	-83.268	0.275	0.087
-327.158	12.312	0.173	-0.131
-326.143	2.275	0.282	-0.201
-325.129	16.922	-0.251	0.196
-324.114	-110.124	0.409	0.084
-323.099	-12.191	0.261	-0.169
-322.085	-200.000	-0.014	-0.274
-321.070	-89.217	0.229	0.067
-320.056	-200.000	-0.373	-0.000
-319.041	-95.659	0.207	0.055
-318.026	69.307	-0.152	-0.154
-317.012	-29.139	-0.355	0.201
-315.997	-77.409	-0.366	-0.125
-314.983	28.881	0.177	-0.147
-313.968	7.307	-0.019	0.014
-312.953	92.750	0.136	0.151
-311.939	295.728	0.055	0.100
-310.924	-120.707	0.290	-0.048
-309.910	-34.800	0.172	-0.093
-308.895	-109.573	0.403	0.084
-307.880	179.147	0.200	-0.289
-306.866	45.641	-0.036	-0.033
-305.851	-140.015	0.120	-0.012
-304.837	-136.452	-0.199	0.023
-303.822	-43.100	0.210	0.105
-302.807	115.880	-0.061	-0.073
-301.793	-123.775	0.108	-0.017
-300.778	66.486	-0.286	0.286
-299.764	-148.180	-0.201	0.016
-298.749	-56.802	-0.258	0.113
-297.735	-63.934	-0.146	-0.059
-296.720	-200.000	-0.035	-0.381
-295.705	-81.133	-0.198	-0.064
-294.691	134.178	-0.154	-0.196
-293.676	-200.000	0.005	-0.125
-292.662	179.428	0.099	-0.142
-291.647	635.097	-0.097	0.243
-290.632	98.369	-0.119	0.135
-289.618	-200.000	0.012	-0.275
-288.603	25.979	-0.104	-0.085
-287.589	-55.783	-0.352	0.155
-286.574	-200.000	-0.025	-0.410
-285.559	800.000	-0.023	-0.087
-284.545	6.752	0.184	-0.135
-283.530	-7.360	0.134	-0.090
-282.516	12.880	-0.139	0.106
-281.501	800.000	-0.027	-0.088
-280.486	-200.000	-0.035	0.437
-279.472	189.244	0.143	-0.210
-278.457	-200.000	0.026	-0.358
-277.443	-200.000	-0.036	-0.156
-276.428	19.741	-0.150	-0.119
-275.413	160.670	-0.096	0.132
-274.399	86.208	0.214	0.232
-273.384	-200.000	-0.016	-0.159
-272.370	15.810	0.260	0.201
-271.355	-9.049	0.220	0.145
-270.340	-200.000	-0.490	0.002
-269.326	-30.042	-0.139	-0.078
-268.311	800.000	0.120	0.375
-267.297	800.000	0.058	0.241
-266.282	-170.421	0.252	-0.009
-265.267	800.000	0.016	-0.059
-264.253	170.879	-0.180	0.254
-263.238	-0.263	-0.336	0.235
-262.224	69.604	-0.287	0.291
-261.209	727.157	-0.172	0.452
-260.195	-64.727	0.313	-0.125
-259.180	-107.771	-0.050	-0.011
-258.165	-200.000	0.019	-0.133
-257.151	305.892	-0.089	0.162
-256.136	800.000	0.054	0.201
-255.122	124.532	-0.176	-0.218
-254.107	696.473	0.048	-0.124
-253.092	285.124	-0.119	0.210
-252.078	-45.575	0.161	-0.078
-251.063	281.005	-0.127	-0.223
-250.049	62.098	0.083	0.082
-249.034	-200.000	-0.007	0.042
-248.019	207.316	-0.064	-0.099
-247.005	102.918	0.288	-0.331
-245.990	800.000	0.115	0.324
-244.976	-45.911	0.035	0.017
-243.961	-55.779	-0.081	-0.036
-242.946	9.602	-0.361	0.269
-241.932	-20.508	-0.254	0.153
-240.917	800.000	0.027	-0.102
-239.903	-200.000	0.039	0.175
-238.888	11.209	-0.038	-0.029
-237.873	-131.793	0.189	-0.024
-236.859	-200.000	0.008	0.044
-235.844	404.955	-0.103	0.213
-234.830	233.180	0.068	0.110
-233.815	-45.408	0.095	0.046
-232.800	230.379	0.101	0.163
-231.786	-200.000	0.048	0.351
-230.771	391.313	0.109	0.222
-229.757	-116.458	0.230	-0.042
-228.742	178.675	-0.084	-0.121
-227.727	-18.814	-0.128	0.078
-226.713	-56.021	0.103	-0.045
-225.698	800.000	-0.082	-0.346
-224.684	-11.514	0.229	-0.148
-223.669	-102.904	0.100	0.023
-222.655	360.699	0.098	0.192
-221.640	-50.624	-0.105	0.049
-220.625	800.000	-0.147	-0.531
-219.611	372.533	0.084	-0.169
-218.596	-152.824	0.185	-0.013
-217.582	-185.689	0.365	-0.005
-216.567	-52.896	0.147	0.066
-215.552	-123.763	0.285	0.044
-214.538	680.654	-0.114	-0.291
-213.523	24.331	0.168	0.136
-212.509	-200.000	0.006	0.255
-211.494	359.615	0.137	-0.268
-210.479	-1.811	-0.193	-0.133
-209.465	28.009	-0.170	-0.140
-208.450	161.260	0.124	-0.170
-207.436	-23.807	-0.275	-0.162
-206.421	-200.000	0.022	0.194
-205.406	-200.000	-0.035	0.150
-204.392	-200.000	-0.010	-0.099
-203.377	-163.630	0.213	0.010
-202.363	65.192	-0.202	0.200
-201.348	-64.421	0.171	0.068
-200.333	-32.808	0.126	0.069
-199.319	14.949	-0.312	-0.240
-198.304	95.473	0.051	0.057
-197.290	800.000	0.042	-0.153
-196.275	-65.641	0.165	-0.065
-195.260	-200.000	0.014	-0.166
-194.246	-56.873	0.317	0.137
-193.231	6.091	0.108	-0.079
-192.217	-195.800	0.279	0.002
-191.202	-118.264	0.029	0.005
-190.187	693.985	0.013	-0.033
-189.173	-76.822	0.189	-0.065
-188.158	-2.651	0.235	0.161
-187.144	255.507	0.123	-0.208
-186.129	-111.085	0.201	-0.040
-185.114	-105.557	0.246	-0.055
-184.100	-60.287	0.230	-0.096
-183.085	47.675	-0.092	0.084
-182.071	-14.966	0.183	0.115
-181.056	-106.285	-0.087	-0.019
-180.042	-161.785	0.187	-0.009
-179.027	86.824	-0.188	-0.203
-178.012	-165.924	0.230	0.010
-176.998	-86.824	0.088	-0.026
-175.983	800.000	-0.083	-0.301
-174.969	-200.000	-0.028	0.175
-173.954	33.735	0.019	-0.016
-172.939	-83.659	-0.327	-0.102
-171.925	-200.000	0.012	-0.176
-170.910	-69.189	0.497	-0.188
-169.896	271.111	-0.027	0.046
-168.881	-22.723	0.044	-0.026
-167.866	-193.965	0.223	0.002
-166.852	12.758	-0.204	0.154
-165.837	-200.000	0.021	0.167
-164.823	-76.191	-0.139	0.048
-163.808	-87.899	-0.223	-0.066
-162.793	-134.413	-0.072	0.009
-161.779	16.630	0.188	0.146
-160.764	82.985	0.199	0.212
-159.750	579.146	-0.075	-0.180
-158.735	502.229	0.104	-0.235
-157.720	-144.421	0.098	-0.009
-156.706	518.123	0.095	-0.219
-155.691	773.960	-0.015	0.041
-154.677	104.389	0.170	-0.196
-153.662	527.081	0.079	0.182
-152.647	-101.302	0.393	-0.094
-151.633	49.519	-0.249	-0.230
-150.618	225.083	0.078	0.124
-149.604	-200.000	-0.015	-0.068
-148.589	-200.000	0.049	0.309
-147.574	103.010	0.113	-0.130
-146.560	-78.172	0.169	0.057
-145.545	140.409	-0.142	-0.183
-144.531	-200.000	-0.005	0.050
-143.516	95.445	-0.175	-0.196
-142.502	134.826	-0.049	0.063
-141.487	-86.512	0.155	-0.047
-140.472	-19.240	0.040	0.024
-139.458	-85.389	0.273	-0.083
-138.443	-200.000	-0.026	-0.146
-137.429	-104.182	-0.048	0.011
-136.414	-84.038	-0.283	-0.088
-135.399	0.127	0.181	0.126
-134.385	357.541	-0.205	0.399
-133.370	800.000	-0.112	0.302
-132.356	247.986	0.111	0.184
-131.341	215.534	-0.189	-0.294
-130.326	705.791	0.085	-0.220
-129.312	800.000	-0.083	-0.249
-128.297	-47.976	0.127	-0.060
-127.283	-4.147	-0.326	0.221
-126.268	74.218	0.113	-0.116
-125.253	18.614	-0.083	0.065
-124.239	31.090	-0.175	0.146
-123.224	-132.833	0.066	0.008
-122.210	-53.863	-0.204	-0.091
-121.195	800.000	0.037	0.129
-120.180	-142.385	-0.227	-0.022
