DTS Sentinel unit serial number:	SN413079Multiplexer serial number:	ORYXHardware model number:	OX4-SRSoftware version number:	ORYX F/W v4.00 Oryx Data Collector v3.7.2.0data status	okinstallation	princeton_trtdifferential loss correction	single-endedforward channel	channel 3reverse channel	N/Adate	2019/09/15time	10:48:35forward acquisition time	60.00reverse acquisition time	0.00gamma	496.2192k internal	0.2308k external	0.2308temperature offset calibration	0.9974default loss term (dB/km)	0.3790temperature slope calibration	1.0000multiplexer offset coefficient	1.0000multiplexer slope coefficient	1.0000fibre end	0.00T internal ref (°C)	34.25T ext. ref 1 (°C)	5.03T ext. ref 2 (°C)	29.66length (m)	temperature (°C)	Stokes	anti-Stokes-747.200	800.000	0.084	0.294
-746.185	-200.000	0.032	0.424
-745.171	-200.000	0.021	-0.167
-744.156	-101.596	-0.193	-0.048
-743.142	-167.858	-0.270	0.011
-742.127	-15.369	-0.116	-0.076
-741.112	56.299	0.093	0.092
-740.098	800.000	0.043	0.151
-739.083	-115.562	0.355	0.068
-738.069	28.539	0.114	0.098
-737.054	-11.193	0.289	-0.194
-736.039	8.568	-0.211	-0.162
-735.025	297.146	0.051	0.095
-734.010	-146.788	-0.173	-0.015
-732.996	-179.733	-0.069	-0.002
-731.981	-8.396	-0.286	-0.195
-730.966	-125.042	0.262	-0.041
-729.952	-7.322	-0.216	0.149
-728.937	-71.345	-0.159	-0.060
-727.923	-51.022	-0.221	-0.106
-726.908	722.542	0.051	-0.137
-725.894	-200.000	0.042	-0.288
-724.879	-66.831	-0.323	-0.130
-723.864	28.457	0.133	0.114
-722.850	-44.228	-0.252	-0.128
-721.835	-61.305	0.151	-0.065
-720.821	125.069	-0.165	-0.211
-719.806	-200.000	-0.015	0.237
-718.791	-46.654	-0.568	-0.283
-717.777	284.474	-0.071	-0.131
-716.762	-200.000	-0.036	-0.161
-715.748	295.618	0.122	-0.227
-714.733	-58.682	0.190	-0.084
-713.718	27.474	-0.149	-0.127
-712.704	281.532	0.207	-0.377
-711.689	-10.599	0.214	-0.144
-710.675	438.193	0.193	-0.428
-709.660	163.642	-0.142	0.203
-708.645	-39.694	-0.165	-0.088
-707.631	-181.648	-0.361	0.007
-706.616	-49.243	0.251	-0.121
-705.602	800.000	0.062	-0.269
-704.587	-37.756	-0.145	-0.078
-703.572	31.826	0.119	-0.104
-702.558	-200.000	-0.006	-0.116
-701.543	-200.000	0.013	-0.424
-700.529	-149.906	0.442	-0.035
-699.514	-75.714	-0.186	0.067
-698.499	59.465	0.153	0.153
-697.485	56.911	-0.076	0.075
-696.470	-96.679	-0.131	-0.035
-695.456	56.609	0.296	-0.292
-694.441	-116.949	-0.237	0.044
-693.426	70.527	0.338	0.355
-692.412	-139.917	-0.381	-0.041
-691.397	-43.015	-0.399	-0.205
-690.383	-93.137	-0.095	0.027
-689.368	174.213	-0.151	0.222
-688.354	-42.600	-0.273	-0.141
-687.339	-141.273	0.309	0.032
-686.324	-33.196	-0.095	0.054
-685.310	-146.702	0.215	-0.019
-684.295	-93.220	-0.101	0.029
-683.281	-102.242	0.289	0.070
-682.266	468.717	-0.065	0.147
-681.251	-7.366	-0.071	0.049
-680.237	-100.582	-0.080	0.020
-679.222	-200.000	-0.041	0.334
-678.208	131.093	-0.258	-0.335
-677.193	248.171	0.248	-0.426
-676.178	114.061	-0.116	-0.143
-675.164	-200.000	-0.013	0.088
-674.149	-151.619	-0.176	0.013
-673.135	588.056	-0.121	0.302
-672.120	-148.636	-0.196	-0.016
-671.105	48.717	-0.236	-0.224
-670.091	-157.434	0.342	0.021
-669.076	337.659	-0.010	-0.020
-668.062	23.774	-0.220	-0.183
-667.047	-102.640	-0.160	-0.039
-666.032	-200.000	-0.072	-0.400
-665.018	-127.327	-0.218	-0.032
-664.003	-125.707	-0.105	0.016
-662.989	-103.815	0.350	-0.083
-661.974	-86.842	-0.234	0.072
-660.959	30.438	0.150	0.130
-659.945	56.763	0.097	0.095
-658.930	-200.000	0.007	-0.200
-657.916	-82.235	0.094	0.031
-656.901	281.728	0.026	0.047
-655.886	791.021	0.067	-0.186
-654.872	-200.000	0.002	0.034
-653.857	-200.000	0.056	-0.339
-652.843	331.706	0.117	0.228
-651.828	91.569	-0.070	0.079
-650.814	-200.000	0.323	0.001
-649.799	189.542	0.089	-0.135
-648.784	-36.418	0.143	0.078
-647.770	42.433	0.137	-0.127
-646.755	-200.000	-0.102	0.478
-645.741	30.567	-0.083	0.072
-644.726	-70.494	0.174	0.067
-643.711	337.921	0.071	-0.141
-642.697	50.135	0.244	-0.233
-641.682	-200.000	-0.030	0.184
-640.668	-164.443	-0.439	0.020
-639.653	12.695	0.206	-0.161
-638.638	800.000	0.156	0.492
-637.624	73.304	0.293	-0.310
-636.609	-74.812	-0.095	-0.035
-635.595	-200.000	0.008	-0.054
-634.580	154.814	0.139	-0.193
-633.565	-200.000	-0.036	-0.352
-632.551	259.743	-0.291	-0.508
-631.536	-200.000	0.017	-0.334
-630.522	-200.000	-0.004	0.049
-629.507	-146.496	-0.280	0.025
-628.492	-130.128	0.087	0.012
-627.478	541.023	-0.119	0.288
-626.463	-126.016	-0.345	-0.053
-625.449	-134.073	0.049	0.006
-624.434	-82.635	-0.055	0.018
-623.419	-105.356	-0.116	-0.027
-622.405	-146.943	-0.087	0.008
-621.390	-103.764	-0.329	0.078
-620.376	49.937	0.187	0.179
-619.361	-28.256	-0.107	-0.063
-618.346	-200.000	0.008	0.168
-617.332	-170.286	-0.022	-0.001
-616.317	-162.226	0.263	0.013
-615.303	-65.645	0.275	-0.111
-614.288	54.353	0.106	0.104
-613.273	-108.624	-0.138	-0.030
-612.259	-186.037	0.131	-0.002
-611.244	287.632	-0.130	0.238
-610.230	-96.393	-0.366	0.098
-609.215	214.402	-0.113	-0.181
-608.201	-85.164	0.279	-0.088
-607.186	800.000	0.075	0.263
-606.171	31.282	0.163	-0.142
-605.157	-86.345	-0.394	0.122
-604.142	-154.429	-0.444	0.030
-603.128	174.775	-0.123	-0.181
-602.113	-200.000	-0.042	0.189
-601.098	-45.904	-0.085	0.042
-600.084	797.719	-0.144	-0.401
-599.069	-74.548	0.351	-0.128
-598.055	-147.445	-0.138	0.012
-597.040	184.313	0.090	-0.134
-596.025	800.000	-0.010	-0.035
-595.011	-152.594	0.169	-0.012
-593.996	-28.959	0.173	-0.101
-592.982	-122.816	-0.124	0.020
-591.967	152.755	0.189	-0.261
-590.952	114.225	0.092	-0.113
-589.938	53.149	0.044	0.043
-588.923	-81.852	0.225	0.074
-587.909	198.456	-0.180	0.279
-586.894	51.018	-0.227	-0.217
-585.879	-133.412	0.182	-0.023
-584.865	800.000	-0.014	-0.059
-583.850	800.000	0.017	0.072
-582.836	440.755	-0.143	-0.315
-581.821	-9.688	-0.149	-0.100
-580.806	-115.205	0.166	0.032
-579.792	407.420	-0.119	0.255
-578.777	181.402	-0.188	0.279
-577.763	147.529	-0.116	0.159
-576.748	-20.826	0.379	-0.235
-575.733	150.113	0.208	0.286
-574.719	-155.652	-0.070	0.005
-573.704	-26.861	0.192	0.113
-572.690	-85.171	0.289	0.091
-571.675	-200.000	-0.003	0.013
-570.661	-142.370	0.141	0.014
-569.646	-55.231	-0.259	-0.118
-568.631	800.000	-0.053	0.224
-567.617	-1.842	-0.151	-0.107
-566.602	-54.011	-0.253	-0.116
-565.588	114.447	-0.202	0.248
-564.573	99.395	-0.102	0.119
-563.558	800.000	0.020	-0.081
-562.544	24.344	0.195	-0.163
-561.529	-174.113	-0.235	0.007
-560.515	54.861	-0.201	0.196
-559.500	-15.304	0.071	0.046
-558.485	-125.410	-0.142	-0.022
-557.471	59.758	-0.372	0.371
-556.456	-147.278	0.365	-0.031
-555.442	-200.000	0.033	0.494
-554.427	199.619	0.076	0.118
-553.412	-200.000	0.011	-0.153
-552.398	-10.528	-0.262	-0.175
-551.383	800.000	0.052	-0.167
-550.369	-77.396	0.429	-0.150
-549.354	15.272	-0.221	0.175
-548.339	326.642	-0.148	-0.286
-547.325	5.181	0.173	0.129
-546.310	29.940	0.091	-0.078
-545.296	-56.966	-0.069	-0.031
-544.281	205.517	0.147	-0.230
-543.266	258.985	-0.183	0.318
-542.252	261.698	-0.104	0.181
-541.237	178.351	0.105	-0.155
-540.223	-200.000	0.071	-0.353
-539.208	-104.235	-0.079	-0.019
-538.193	418.540	-0.051	0.109
-537.179	-200.000	-0.033	0.180
-536.164	800.000	-0.086	0.255
-535.150	-80.072	-0.461	-0.156
-534.135	-22.237	-0.377	0.231
-533.121	319.649	0.095	0.183
-532.106	220.002	0.054	0.087
-531.091	-16.860	0.145	-0.093
-530.077	-42.252	-0.034	-0.018
-529.062	-176.616	-0.293	-0.008
-528.048	145.308	-0.045	0.061
-527.033	-200.000	0.041	-0.288
-526.018	800.000	0.034	-0.136
-525.004	-107.754	-0.470	-0.103
-523.989	676.597	-0.043	0.111
-522.975	438.761	-0.118	-0.260
-521.960	800.000	0.060	0.239
-520.945	-200.000	-0.051	0.332
-519.931	335.541	0.209	-0.408
-518.916	-200.000	0.003	-0.194
-517.902	-65.258	0.050	0.020
-516.887	482.545	0.021	0.048
-515.872	-4.279	0.131	-0.091
-514.858	-51.957	-0.507	0.238
-513.843	-200.000	-0.017	0.149
-512.829	137.987	0.112	0.148
-511.814	-200.000	-0.004	-0.024
-510.799	-200.000	-0.029	0.206
-509.785	157.737	-0.198	0.276
-508.770	28.944	0.237	-0.202
-507.756	-200.000	0.032	0.319
-506.741	-128.460	0.188	0.027
-505.726	-81.994	-0.159	0.052
-504.712	156.229	0.023	-0.032
-503.697	800.000	0.039	0.109
-502.683	-200.000	-0.049	0.388
-501.668	91.233	-0.221	-0.250
-500.653	-200.000	-0.011	0.119
-499.639	-200.000	-0.041	-0.280
-498.624	-40.532	-0.156	-0.082
-497.610	9.036	-0.274	-0.208
-496.595	-200.000	0.037	-0.378
-495.581	-200.000	-0.002	-0.028
-494.566	145.411	-0.088	-0.119
-493.551	-72.049	-0.317	0.119
-492.537	124.840	-0.226	-0.287
-491.522	-122.569	0.427	-0.070
-490.508	-36.159	0.099	-0.054
-489.493	-200.000	-0.005	-0.076
-488.478	16.567	0.373	-0.297
-487.464	197.741	0.183	-0.281
-486.449	21.697	-0.382	-0.313
-485.435	800.000	0.072	-0.205
-484.420	800.000	-0.055	-0.227
-483.405	-200.000	-0.034	0.384
-482.391	-6.319	-0.261	0.179
-481.376	-70.164	-0.045	-0.017
-480.362	274.129	-0.124	0.221
-479.347	-51.131	0.165	-0.078
-478.332	800.000	0.111	-0.329
-477.318	-200.000	-0.025	0.117
-476.303	-61.044	-0.225	-0.096
-475.289	74.087	0.140	-0.148
-474.274	800.000	-0.107	-0.308
-473.259	-60.998	0.192	-0.081
-472.245	258.240	-0.147	0.255
-471.230	87.577	-0.123	0.137
-470.216	57.584	0.212	-0.208
-469.201	-33.251	0.182	-0.102
-468.186	-200.000	-0.024	0.213
-467.172	4.291	0.191	-0.141
-466.157	-83.050	0.199	-0.065
-465.143	-155.586	-0.066	0.004
-464.128	-65.476	0.075	-0.030
-463.113	79.658	0.195	0.210
-462.099	-106.541	-0.147	0.033
-461.084	-67.038	-0.345	0.137
-460.070	-100.849	-0.302	-0.075
-459.055	-200.000	-0.013	0.221
-458.040	-142.918	0.245	-0.024
-457.026	-200.000	0.000	0.213
-456.011	-100.307	-0.022	0.006
-454.997	23.068	-0.172	0.142
-453.982	182.475	-0.063	0.093
-452.968	78.038	-0.063	-0.068
-451.953	-6.107	-0.062	-0.043
-450.938	55.860	0.232	0.226
-449.924	202.567	0.084	0.130
-448.909	15.784	0.239	-0.189
-447.895	16.253	0.150	-0.119
-446.880	77.947	0.181	0.194
-445.865	-56.834	0.272	0.121
-444.851	362.894	0.115	0.232
-443.836	-200.000	0.026	0.265
-442.822	217.168	-0.083	0.133
-441.807	-100.346	0.270	-0.067
-440.792	-112.128	-0.088	-0.018
-439.778	265.010	-0.150	-0.263
-438.763	-49.624	0.271	0.129
-437.749	-148.088	0.256	0.021
-436.734	800.000	-0.019	-0.079
-435.719	25.857	-0.173	-0.144
-434.705	800.000	-0.015	-0.049
-433.690	417.212	0.109	-0.234
-432.676	-75.115	-0.244	0.088
-431.661	398.920	0.093	0.197
-430.646	190.580	-0.150	-0.226
-429.632	-25.200	0.272	0.162
-428.617	-95.948	0.540	-0.144
-427.603	37.693	0.088	-0.078
-426.588	-200.000	0.011	-0.061
-425.573	-18.478	-0.153	0.096
-424.559	-33.826	-0.255	0.141
-423.544	-93.484	-0.318	0.089
-422.530	-200.000	-0.044	0.296
-421.515	-86.941	-0.261	-0.080
-420.500	-96.226	-0.294	-0.078
-419.486	-88.876	0.212	-0.063
-418.471	-54.372	0.171	0.078
-417.457	516.770	0.099	-0.231
-416.442	-106.907	-0.263	0.059
-415.428	-95.535	0.112	0.030
-414.413	69.681	0.099	-0.103
-413.398	34.648	-0.058	0.051
-412.384	-200.000	-0.022	-0.256
-411.369	136.883	-0.126	0.165
-410.355	348.147	0.078	-0.155
-409.340	-200.000	0.026	-0.224
-408.325	-58.844	-0.319	-0.139
-407.311	-76.559	-0.125	0.044
-406.296	192.690	-0.160	-0.242
-405.282	-83.508	-0.377	-0.121
-404.267	-123.095	-0.314	-0.051
-403.252	-61.736	0.317	-0.133
-402.238	-156.771	-0.111	-0.007
-401.223	-22.276	-0.228	-0.138
-400.209	800.000	0.065	0.204
-399.194	-99.116	-0.197	0.050
-398.179	106.881	0.146	-0.174
-397.165	-85.357	0.273	-0.085
-396.150	165.428	0.126	-0.179
-395.136	-141.223	-0.181	0.019
-394.121	-200.000	0.000	-0.165
-393.106	55.569	0.008	0.008
-392.092	-54.423	-0.390	0.177
-391.077	-64.901	-0.193	-0.078
-390.063	-144.191	0.135	-0.013
-389.048	800.000	-0.074	-0.246
-388.033	-117.750	0.111	-0.020
-387.019	800.000	-0.062	-0.217
-386.004	800.000	-0.036	-0.119
-384.990	54.236	0.251	0.243
-383.975	62.099	0.050	-0.050
-382.960	294.227	-0.113	0.207
-381.946	-200.000	0.009	0.363
-380.931	43.111	0.376	0.344
-379.917	800.000	0.094	-0.360
-378.902	792.402	0.051	-0.141
-377.888	-200.000	0.019	-0.101
-376.873	-44.821	-0.348	-0.174
-375.858	116.660	0.219	0.269
-374.844	420.623	0.074	-0.158
-373.829	58.473	-0.367	-0.360
-372.815	-78.681	0.228	-0.078
-371.800	243.375	-0.214	0.359
-370.785	-131.846	0.225	0.029
-369.771	776.391	0.096	-0.263
-368.756	20.492	-0.202	0.164
-367.742	-200.000	-0.026	0.426
-366.727	-200.000	-0.004	0.149
-365.712	51.037	-0.171	0.162
-364.698	-200.000	-0.004	-0.097
-363.683	47.167	-0.071	-0.066
-362.669	23.238	0.165	0.136
-361.654	-89.913	-0.191	0.056
-360.639	-45.110	-0.226	0.112
-359.625	-59.725	-0.215	-0.092
-358.610	-51.584	0.124	0.058
-357.596	173.152	0.026	0.037
-356.581	35.495	-0.094	-0.082
-355.566	-96.520	-0.118	-0.031
-354.552	248.686	-0.039	0.066
-353.537	-133.650	-0.301	0.038
-352.523	191.261	0.169	-0.255
-351.508	-10.523	0.109	-0.072
-350.493	41.039	0.188	-0.170
-349.479	85.287	0.186	-0.205
-348.464	-155.131	0.238	-0.016
-347.450	200.745	-0.007	-0.011
-346.435	-200.000	0.022	0.162
-345.420	-154.405	0.297	0.020
-344.406	-96.512	0.053	-0.014
-343.391	-139.584	-0.256	0.027
-342.377	208.103	-0.032	0.051
-341.362	48.453	0.259	0.243
-340.348	-174.657	0.343	0.010
-339.333	-16.104	0.265	-0.169
-338.318	28.918	0.105	-0.089
-337.304	-6.574	0.267	0.182
-336.289	-132.074	0.181	-0.024
-335.275	-98.110	-0.195	0.050
-334.260	-45.260	-0.162	0.080
-333.245	800.000	0.090	0.307
-332.231	-109.981	-0.230	-0.048
-331.216	-39.847	0.148	0.078
-330.202	-96.825	0.153	0.040
-329.187	-99.395	0.376	-0.095
-328.172	-72.961	-0.181	-0.066
-327.158	-13.248	-0.334	-0.217
-326.143	438.117	-0.149	-0.325
-325.129	555.047	-0.067	-0.162
-324.114	-66.638	0.187	0.074
-323.099	800.000	0.069	0.205
-322.085	-66.888	0.153	0.061
-321.070	-40.926	-0.423	-0.219
-320.056	-74.005	0.182	0.066
-319.041	-47.839	-0.010	-0.005
-318.026	3.565	0.057	0.041
-317.012	-200.000	-0.010	0.125
-315.997	-148.653	0.097	-0.008
-314.983	-57.354	0.213	-0.093
-313.968	596.497	-0.127	-0.314
-312.953	800.000	-0.051	-0.218
-311.939	71.749	0.161	0.167
-310.924	-111.716	-0.011	0.002
-309.910	-200.000	0.070	-0.343
-308.895	-99.463	-0.226	-0.057
-307.880	800.000	0.053	-0.145
-306.866	316.003	-0.095	0.178
-305.851	-123.684	0.244	0.039
-304.837	-51.755	-0.147	0.068
-303.822	-94.543	-0.061	-0.016
-302.807	-145.970	0.123	-0.011
-301.793	-3.008	0.360	-0.251
-300.778	-80.974	-0.248	0.082
-299.764	20.307	-0.167	0.135
-298.749	800.000	-0.027	-0.082
-297.735	-115.595	0.044	0.008
-296.720	-166.421	-0.325	0.014
-295.705	390.700	-0.123	0.256
-294.691	-126.409	0.020	-0.003
-293.676	373.880	-0.044	0.089
-292.662	123.710	0.204	-0.256
-291.647	800.000	-0.051	-0.178
-290.632	-6.786	-0.340	-0.231
-289.618	157.880	0.153	0.212
-288.603	159.248	-0.139	-0.193
-287.589	24.587	-0.297	0.246
-286.574	-200.000	-0.042	0.291
-285.559	-109.617	-0.363	-0.076
-284.545	403.524	0.096	-0.201
-283.530	-102.366	0.289	-0.069
-282.516	348.030	0.007	-0.014
-281.501	135.906	-0.239	0.311
-280.486	-137.643	-0.302	0.034
-279.472	-97.189	-0.027	0.007
-278.457	-112.777	0.280	0.055
-277.443	-0.273	0.044	0.031
-276.428	3.961	-0.150	0.110
-275.413	169.320	0.112	-0.159
-274.399	106.089	0.123	0.145
-273.384	-49.139	-0.203	-0.097
-272.370	26.216	-0.133	0.111
-271.355	-56.199	-0.075	-0.033
-270.340	-59.302	0.103	0.044
-269.326	295.331	-0.072	0.132
-268.311	62.746	-0.024	-0.024
-267.297	-155.883	-0.149	0.009
-266.282	378.859	-0.110	0.224
-265.267	-71.471	0.190	-0.071
-264.253	800.000	-0.125	-0.390
-263.238	-200.000	0.017	-0.170
-262.224	-109.074	0.261	-0.055
-261.209	568.641	0.056	-0.135
-260.195	-108.864	0.359	-0.077
-259.180	-168.915	0.530	0.020
-258.165	800.000	0.065	0.267
-257.151	361.891	-0.135	0.270
-256.136	-116.063	0.087	-0.016
-255.122	-94.159	0.320	-0.087
-254.107	800.000	0.032	0.115
-253.092	-200.000	-0.003	0.062
-252.078	800.000	-0.033	-0.132
-251.063	22.028	0.115	-0.093
-250.049	4.111	-0.285	0.208
-249.034	800.000	-0.059	0.213
-248.019	-9.264	0.295	0.196
-247.005	800.000	-0.116	0.336
-245.990	26.059	0.094	-0.078
-244.976	800.000	-0.047	-0.181
-243.961	-61.527	-0.179	-0.075
-242.946	631.226	-0.119	0.300
-241.932	326.809	0.031	0.060
-240.917	-116.133	-0.180	0.033
-239.903	1.253	-0.137	0.098
-238.888	-127.803	0.178	0.026
-237.873	259.045	0.127	0.218
-236.859	66.590	0.084	-0.086
-235.844	483.868	0.068	-0.154
-234.830	-33.364	0.253	-0.139
-233.815	12.022	-0.068	0.052
-232.800	-59.109	0.152	-0.065
-231.786	-38.628	0.059	0.031
-230.771	-13.863	0.117	0.075
-229.757	191.086	0.165	0.247
-228.742	-167.397	0.349	-0.014
-227.727	-200.000	-0.019	-0.109
-226.713	800.000	-0.031	0.131
-225.698	-200.000	-0.020	-0.118
-224.684	-85.493	-0.011	0.003
-223.669	342.362	0.074	-0.145
-222.655	-200.000	0.003	-0.070
-221.640	-78.336	0.149	-0.051
-220.625	59.947	-0.280	-0.275
-219.611	-116.768	0.240	-0.044
-218.596	800.000	0.091	-0.249
-217.582	800.000	-0.065	0.193
-216.567	-22.271	0.205	0.124
-215.552	-138.543	0.169	0.018
-214.538	196.573	-0.203	0.308
-213.523	-43.158	0.269	0.136
-212.509	-33.483	0.068	0.037
-211.494	38.259	0.201	0.178
-210.479	479.023	0.050	0.114
-209.465	-107.652	-0.165	0.036
-208.450	-52.038	-0.077	0.036
-207.436	263.973	0.121	-0.209
-206.421	180.272	0.126	0.184
-205.406	-36.269	0.404	-0.217
-204.392	27.132	-0.101	0.084
-203.377	-200.000	-0.029	0.355
-202.363	184.143	-0.161	-0.237
-201.348	71.001	0.200	0.207
-200.333	-80.519	0.154	-0.051
-199.319	-200.000	-0.014	0.319
-198.304	7.958	-0.261	-0.195
-197.290	3.657	-0.212	-0.154
-196.275	-71.155	0.242	-0.090
-195.260	-25.853	0.167	0.098
-194.246	78.051	-0.061	0.065
-193.231	-110.419	0.211	-0.044
-192.217	800.000	-0.068	0.284
-191.202	-163.670	-0.227	0.011
-190.187	130.093	0.193	0.246
-189.173	30.092	0.230	0.195
-188.158	-200.000	0.049	0.240
-187.144	-135.154	-0.418	0.050
-186.129	-200.000	-0.008	-0.164
-185.114	-103.676	0.168	-0.039
-184.100	142.523	0.171	-0.226
-183.085	176.639	0.133	0.192
-182.071	-71.208	0.410	0.153
-181.056	-77.636	-0.190	-0.065
-180.042	415.554	0.229	-0.486
-179.027	-67.248	-0.137	-0.053
-178.012	-54.000	0.068	-0.031
-176.998	96.226	0.141	-0.160
-175.983	79.452	-0.209	-0.222
-174.969	-124.230	0.074	0.012
-173.954	-200.000	-0.007	0.146
-172.939	800.000	0.076	0.238
-171.925	800.000	0.043	0.171
-170.910	295.367	-0.137	-0.248
-169.896	-128.111	0.026	0.004
-168.881	-113.007	0.050	-0.010
-167.866	-200.000	-0.051	-0.393
-166.852	212.503	-0.124	0.195
-165.837	91.277	0.087	-0.097
-164.823	-93.594	-0.052	-0.014
-163.808	-200.000	-0.001	0.060
-162.793	-200.000	-0.037	-0.205
-161.779	-109.204	-0.360	0.076
-160.764	99.646	0.155	0.179
-159.750	140.574	0.113	0.148
-158.735	-74.256	-0.220	-0.079
-157.720	182.815	-0.183	-0.269
-156.706	-200.000	-0.002	0.068
-155.691	800.000	0.060	0.250
-154.677	800.000	-0.057	0.231
-153.662	-147.207	0.294	0.025
-152.647	-200.000	0.003	-0.034
-151.633	-111.779	-0.129	0.026
-150.618	281.121	0.182	0.323
-149.604	-184.757	-0.279	0.004
-148.589	8.885	0.228	-0.171
-147.574	-101.000	0.474	-0.116
-146.560	79.665	0.130	-0.138
-145.545	264.499	-0.148	-0.256
-144.531	-183.167	0.150	0.003
-143.516	207.686	0.163	0.252
-142.502	67.593	0.124	-0.126
-141.487	118.058	0.115	-0.141
-140.472	145.454	0.049	-0.066
-139.458	87.244	-0.183	-0.201
-138.443	58.038	-0.160	0.156
-137.429	-8.948	-0.137	-0.091
-136.414	-143.586	0.095	-0.009
-135.399	-154.600	0.121	0.008
-134.385	35.823	-0.159	-0.139
-133.370	175.292	-0.019	0.028
-132.356	352.718	0.028	0.056
-131.341	-90.472	0.109	-0.031
-130.326	32.102	0.334	0.286
-129.312	24.624	0.112	0.092
-128.297	-64.623	-0.150	-0.060
-127.283	93.607	-0.239	-0.268
-126.268	87.910	0.066	-0.073
-125.253	-125.356	-0.204	0.031
-124.239	472.546	-0.048	-0.107
-123.224	271.109	-0.136	0.237
-122.210	23.662	0.326	-0.266
-121.195	-142.788	-0.402	0.039
