DTS Sentinel unit serial number:	SN413079Multiplexer serial number:	ORYXHardware model number:	OX4-SRSoftware version number:	ORYX F/W v4.00 Oryx Data Collector v3.7.2.0data status	okinstallation	princeton_trtdifferential loss correction	single-endedforward channel	channel 3reverse channel	N/Adate	2019/09/15time	04:36:35forward acquisition time	60.00reverse acquisition time	0.00gamma	496.2192k internal	0.2323k external	0.2323temperature offset calibration	0.9974default loss term (dB/km)	0.3790temperature slope calibration	1.0000multiplexer offset coefficient	1.0000multiplexer slope coefficient	1.0000fibre end	0.00T internal ref (°C)	30.81T ext. ref 1 (°C)	4.68T ext. ref 2 (°C)	25.46length (m)	temperature (°C)	Stokes	anti-Stokes-747.200	89.965	0.130	0.146
-746.185	43.200	0.036	-0.033
-745.171	92.053	-0.072	0.082
-744.156	-175.488	0.369	-0.010
-743.142	-106.031	-0.056	-0.013
-742.127	87.816	-0.285	0.319
-741.112	-107.141	0.182	0.041
-740.098	-200.000	0.002	0.137
-739.083	105.068	-0.054	-0.064
-738.069	-200.000	-0.074	0.450
-737.054	633.842	-0.061	0.157
-736.039	-59.953	0.284	0.123
-735.025	46.057	0.228	0.213
-734.010	-127.593	-0.368	0.054
-732.996	125.343	0.082	-0.104
-731.981	-139.206	-0.385	-0.042
-730.966	-200.000	-0.002	0.169
-729.952	-58.945	-0.202	0.088
-728.937	56.935	0.317	-0.311
-727.923	4.297	0.314	-0.232
-726.908	-137.984	-0.122	-0.014
-725.894	556.165	-0.096	-0.232
-724.879	-106.063	-0.322	-0.073
-723.864	96.457	0.144	0.166
-722.850	-200.000	0.071	0.386
-721.835	-34.112	-0.549	-0.304
-720.821	800.000	-0.052	0.165
-719.806	-11.756	-0.073	-0.048
-718.791	784.405	0.147	-0.405
-717.777	-125.151	-0.182	-0.028
-716.762	305.304	0.038	-0.070
-715.748	-62.010	0.200	0.084
-714.733	-161.400	0.129	-0.007
-713.718	800.000	0.112	-0.410
-712.704	55.467	0.055	0.053
-711.689	345.926	0.050	-0.100
-710.675	346.683	-0.093	-0.185
-709.660	-200.000	0.009	-0.134
-708.645	-200.000	0.022	-0.442
-707.631	-15.799	-0.102	0.066
-706.616	800.000	0.026	-0.096
-705.602	29.003	0.217	-0.185
-704.587	-26.452	-0.215	-0.127
-703.572	800.000	-0.069	-0.199
-702.558	39.665	0.107	-0.097
-701.543	-40.497	-0.231	-0.121
-700.529	281.753	-0.083	-0.150
-699.514	800.000	-0.053	0.206
-698.499	11.306	-0.050	0.039
-697.485	66.600	0.173	0.178
-696.470	-200.000	0.020	-0.159
-695.456	281.382	0.052	0.094
-694.441	74.237	0.210	-0.222
-693.426	98.418	-0.157	-0.183
-692.412	800.000	-0.034	0.109
-691.397	-30.400	0.030	0.017
-690.383	-200.000	0.020	-0.238
-689.368	107.210	-0.190	0.228
-688.354	800.000	0.098	0.298
-687.339	54.696	0.045	0.044
-686.324	48.479	-0.086	0.081
-685.310	-69.152	0.148	0.057
-684.295	-200.000	0.198	0.001
-683.281	183.183	-0.072	-0.108
-682.266	-141.019	-0.231	0.024
-681.251	-133.644	-0.234	-0.029
-680.237	-110.900	0.336	-0.070
-679.222	-112.507	-0.146	0.029
-678.208	6.682	0.177	0.132
-677.193	800.000	-0.008	-0.035
-676.178	-54.748	-0.160	0.073
-675.164	-103.872	0.213	-0.050
-674.149	47.041	-0.293	0.274
-673.135	7.356	0.283	0.213
-672.120	454.350	-0.076	-0.170
-671.105	800.000	0.035	0.153
-670.091	156.835	0.061	0.084
-669.076	-200.000	0.024	-0.242
-668.062	345.854	0.172	0.339
-667.047	-200.000	-0.059	-0.280
-666.032	-105.257	0.136	-0.031
-665.018	470.801	-0.092	0.208
-664.003	108.080	-0.363	-0.435
-662.989	117.577	-0.123	-0.153
-661.974	800.000	0.105	-0.304
-660.959	-170.723	0.109	0.004
-659.945	226.005	0.107	0.175
-658.930	-151.084	-0.032	-0.002
-657.916	800.000	-0.133	-0.376
-656.901	96.438	0.195	0.225
-655.886	-154.945	0.599	0.040
-654.872	451.742	-0.127	-0.283
-653.857	-6.234	0.259	-0.178
-652.843	102.121	0.270	-0.318
-651.828	392.198	-0.078	0.162
-650.814	-96.705	0.271	0.072
-649.799	-200.000	0.003	0.145
-648.784	-17.777	-0.205	-0.129
-647.770	-151.148	-0.014	-0.001
-646.755	800.000	-0.031	0.100
-645.741	61.243	0.082	-0.082
-644.726	249.277	-0.129	0.219
-643.711	-67.549	-0.091	0.036
-642.697	-179.384	-0.158	0.003
-641.682	-162.095	0.133	-0.007
-640.668	83.510	-0.183	0.201
-639.653	-74.333	0.111	0.040
-638.638	-105.384	0.284	0.065
-637.624	-23.766	0.029	0.017
-636.609	-158.889	-0.372	0.021
-635.595	-65.719	-0.220	0.089
-634.580	-45.983	-0.198	-0.098
-633.565	86.061	-0.175	0.194
-632.551	800.000	0.049	0.175
-631.536	-106.519	0.133	0.030
-630.522	215.851	-0.110	-0.175
-629.507	178.345	-0.092	-0.135
-628.492	-27.677	0.180	-0.105
-627.478	-200.000	0.018	0.290
-626.463	48.292	-0.261	-0.246
-625.449	-8.692	-0.193	-0.130
-624.434	-130.410	0.193	0.026
-623.419	34.891	-0.239	-0.210
-622.405	-159.323	-0.270	-0.015
-621.390	75.294	0.100	-0.107
-620.376	-135.741	0.255	-0.030
-619.361	-121.121	-0.208	0.035
-618.346	-200.000	-0.025	-0.271
-617.332	-149.950	0.431	-0.034
-616.317	-200.000	0.007	0.142
-615.303	-200.000	-0.025	-0.333
-614.288	-200.000	-0.021	0.215
-613.273	800.000	0.138	0.412
-612.259	154.004	-0.133	-0.183
-611.244	75.979	-0.272	-0.289
-610.230	-167.939	0.187	0.007
-609.215	180.209	0.127	-0.188
-608.201	-94.169	0.124	0.034
-607.186	-84.547	-0.169	0.054
-606.171	-104.266	-0.395	-0.092
-605.157	111.255	0.174	0.211
-604.142	-101.284	-0.243	-0.060
-603.128	-200.000	0.001	0.124
-602.113	321.921	0.068	-0.131
-601.098	-71.339	-0.202	0.076
-600.084	-24.756	-0.090	0.054
-599.069	24.594	-0.209	-0.174
-598.055	191.631	0.195	-0.295
-597.040	-200.000	-0.013	0.192
-596.025	-84.302	-0.080	0.025
-595.011	-200.000	-0.009	0.184
-593.996	-200.000	-0.054	0.261
-592.982	800.000	0.117	0.336
-591.967	-126.230	0.040	-0.006
-590.952	-200.000	-0.001	-0.490
-589.938	211.460	0.129	0.204
-588.923	131.003	-0.098	0.127
-587.909	-143.632	0.065	0.006
-586.894	215.102	-0.145	0.231
-585.879	-81.583	0.327	0.108
-584.865	800.000	0.098	-0.365
-583.850	45.944	0.134	-0.125
-582.836	-99.909	-0.327	-0.082
-581.821	-94.518	-0.065	-0.018
-580.806	-36.978	-0.088	0.048
-579.792	127.825	0.258	-0.329
-578.777	34.209	-0.214	-0.187
-577.763	800.000	-0.068	-0.201
-576.748	26.606	-0.270	0.227
-575.733	246.947	0.357	0.605
-574.719	-97.719	-0.305	-0.079
-573.704	-91.671	-0.365	-0.104
-572.690	-200.000	0.018	0.185
-571.675	-47.442	0.346	-0.169
-570.661	-200.000	-0.022	-0.111
-569.646	39.358	-0.137	-0.123
-568.631	-27.495	0.307	0.179
-567.617	-200.000	0.006	-0.083
-566.602	19.928	0.114	0.092
-565.588	-200.000	-0.038	0.250
-564.573	-86.871	-0.151	-0.046
-563.558	170.328	0.027	-0.039
-562.544	10.365	-0.171	-0.131
-561.529	-200.000	-0.050	0.224
-560.515	292.245	0.090	0.164
-559.500	37.029	0.219	-0.194
-558.485	-20.977	0.092	-0.057
-557.471	-111.313	-0.033	-0.007
-556.456	-22.332	-0.313	0.190
-555.442	46.668	-0.121	0.112
-554.427	111.215	-0.137	0.166
-553.412	800.000	-0.034	-0.123
-552.398	-200.000	-0.010	0.055
-551.383	320.616	0.085	0.161
-550.369	-151.497	0.034	-0.003
-549.354	-145.900	0.249	-0.022
-548.339	-200.000	-0.028	-0.266
-547.325	-200.000	-0.031	-0.269
-546.310	-153.763	0.110	0.008
-545.296	213.025	-0.094	0.149
-544.281	121.865	0.119	-0.149
-543.266	270.920	-0.092	0.162
-542.252	-83.745	0.032	-0.010
-541.237	-58.801	-0.185	0.080
-540.223	-139.299	0.302	-0.033
-539.208	215.550	-0.252	0.401
-538.193	-200.000	-0.005	-0.288
-537.179	144.326	0.191	-0.255
-536.164	800.000	0.021	0.082
-535.150	-200.000	-0.039	-0.339
-534.135	-200.000	-0.042	0.263
-533.121	-200.000	0.008	-0.073
-532.106	-31.018	0.116	-0.065
-531.091	-29.855	-0.052	-0.030
-530.077	-53.320	-0.223	-0.103
-529.062	305.852	-0.067	0.125
-528.048	-200.000	-0.050	-0.269
-527.033	-1.957	0.172	-0.121
-526.018	-148.444	-0.115	0.009
-525.004	800.000	0.051	-0.212
-523.989	-60.315	-0.205	-0.087
-522.975	800.000	0.056	-0.230
-521.960	-107.199	0.041	-0.009
-520.945	249.442	-0.096	-0.162
-519.931	-33.623	-0.254	0.140
-518.916	209.419	-0.067	0.105
-517.902	-85.004	-0.381	-0.120
-516.887	155.208	0.120	0.165
-515.872	103.700	0.242	-0.284
-514.858	-106.837	0.170	0.038
-513.843	-68.021	0.211	-0.082
-512.829	-200.000	-0.033	-0.178
-511.814	12.952	-0.237	0.183
-510.799	24.430	0.064	-0.053
-509.785	324.939	0.124	0.237
-508.770	140.496	0.154	-0.203
-507.756	-25.623	0.092	-0.055
-506.741	-156.764	-0.165	0.010
-505.726	129.251	-0.252	-0.322
-504.712	59.911	-0.202	0.199
-503.697	285.019	0.134	0.242
-502.683	157.508	0.037	-0.051
-501.668	-135.852	-0.051	0.006
-500.653	-1.989	-0.072	0.051
-499.639	-200.000	-0.002	-0.058
-498.624	9.463	0.202	0.153
-497.610	-10.842	-0.054	-0.036
-496.595	235.363	-0.164	-0.270
-495.581	-19.169	0.096	0.060
-494.566	249.988	0.283	-0.481
-493.551	51.260	-0.106	-0.100
-492.537	6.330	0.180	-0.134
-491.522	-182.874	0.126	-0.002
-490.508	49.427	0.037	0.034
-489.493	228.368	0.131	0.213
-488.478	-46.950	0.092	-0.045
-487.464	64.981	-0.188	0.190
-486.449	-53.974	-0.117	0.053
-485.435	800.000	0.038	-0.158
-484.420	-200.000	0.018	-0.133
-483.405	-111.581	-0.199	-0.040
-482.391	-34.989	0.489	0.266
-481.376	-79.127	0.276	0.094
-480.362	31.244	0.141	-0.121
-479.347	162.815	-0.073	0.103
-478.332	461.189	-0.073	0.162
-477.318	-3.280	0.228	-0.159
-476.303	-65.806	0.155	0.062
-475.289	-200.000	-0.006	-0.131
-474.274	-27.655	0.212	-0.123
-473.259	719.926	-0.078	-0.207
-472.245	-112.519	0.429	-0.085
-471.230	800.000	-0.054	-0.235
-470.216	-200.000	0.007	-0.190
-469.201	466.725	-0.088	-0.198
-468.186	-26.502	-0.284	-0.166
-467.172	-162.156	0.273	-0.014
-466.157	90.060	-0.167	0.186
-465.143	-191.874	0.316	0.003
-464.128	-97.376	0.295	0.077
-463.113	-66.250	0.191	-0.076
-462.099	-16.995	-0.296	0.187
-461.084	85.283	0.124	0.136
-460.070	107.354	-0.282	-0.335
-459.055	-31.571	0.046	-0.026
-458.040	-1.998	0.078	0.055
-457.026	-200.000	0.037	-0.341
-456.011	-6.710	-0.145	-0.099
-454.997	-69.622	-0.316	-0.121
-453.982	-130.252	0.228	0.031
-452.968	-132.917	0.036	-0.005
-451.953	328.208	0.078	0.149
-450.938	575.341	0.071	-0.174
-449.924	-38.290	-0.271	0.143
-448.909	431.102	0.097	0.209
-447.895	202.457	-0.144	-0.222
-446.880	-200.000	-0.041	-0.189
-445.865	-13.662	-0.324	-0.209
-444.851	-161.495	0.343	0.018
-443.836	123.570	0.133	-0.167
-442.822	-4.962	0.235	-0.162
-441.807	-200.000	0.003	0.154
-440.792	289.352	-0.038	0.069
-439.778	-200.000	0.080	-0.360
-438.763	7.733	0.220	0.165
-437.749	-133.595	-0.450	0.056
-436.734	583.417	0.097	0.237
-435.719	-120.930	-0.223	-0.037
-434.705	-98.385	0.284	0.072
-433.690	-200.000	0.060	-0.277
-432.676	-200.000	-0.003	0.079
-431.661	-200.000	0.020	0.125
-430.646	88.118	0.362	-0.401
-429.632	-200.000	0.057	-0.534
-428.617	108.471	0.145	0.172
-427.603	125.642	-0.056	0.071
-426.588	800.000	0.119	0.485
-425.573	35.759	-0.114	-0.100
-424.559	16.278	-0.198	-0.156
-423.544	800.000	-0.113	-0.427
-422.530	-58.338	-0.046	0.020
-421.515	800.000	-0.054	-0.201
-420.500	-200.000	0.006	-0.116
-419.486	-114.444	0.089	0.017
-418.471	-161.613	-0.239	-0.012
-417.457	643.116	-0.012	-0.030
-416.442	-62.040	-0.226	-0.094
-415.428	-200.000	0.026	0.149
-414.413	40.322	0.048	-0.043
-413.398	307.863	-0.210	-0.391
-412.384	-200.000	0.030	-0.266
-411.369	-114.236	0.292	-0.056
-410.355	-17.007	-0.138	-0.087
-409.340	110.087	0.222	0.266
-408.325	-14.639	-0.126	-0.080
-407.311	-10.748	0.145	0.096
-406.296	356.225	0.091	0.180
-405.282	387.360	0.109	0.225
-404.267	800.000	0.046	-0.168
-403.252	-5.492	-0.058	0.040
-402.238	199.486	0.061	-0.093
-401.223	0.542	0.093	0.066
-400.209	56.707	0.174	-0.169
-399.194	600.433	0.027	0.067
-398.179	-200.000	-0.007	0.115
-397.165	447.762	-0.071	0.155
-396.150	-200.000	-0.010	0.165
-395.136	-200.000	0.007	0.160
-394.121	-200.000	0.059	-0.308
-393.106	-182.160	-0.314	0.006
-392.092	-111.453	0.246	0.050
-391.077	800.000	0.167	0.534
-390.063	-58.660	-0.220	0.095
-389.048	-29.517	-0.269	-0.153
-388.033	-200.000	-0.004	0.098
-387.019	-200.000	-0.006	0.119
-386.004	-41.743	-0.060	-0.030
-384.990	-107.509	-0.232	0.051
-383.975	121.832	0.270	0.336
-382.960	677.530	-0.105	0.271
-381.946	795.782	0.077	-0.212
-380.931	800.000	-0.093	-0.315
-379.917	-200.000	-0.028	0.226
-378.902	-20.963	-0.184	0.112
-377.888	800.000	-0.037	0.133
-376.873	371.559	-0.227	0.459
-375.858	157.032	0.174	-0.239
-374.844	-6.216	-0.145	0.099
-373.829	-200.000	-0.034	-0.254
-372.815	355.156	0.042	0.083
-371.800	800.000	-0.056	0.168
-370.785	201.372	-0.159	0.244
-369.771	187.178	-0.060	-0.089
-368.756	15.790	0.229	0.179
-367.742	-77.389	0.216	0.075
-366.727	800.000	-0.052	-0.158
-365.712	-18.922	-0.097	-0.060
-364.698	-15.557	0.439	0.279
-363.683	-200.000	-0.023	0.237
-362.669	97.216	0.078	-0.089
-361.654	-87.356	-0.151	-0.046
-360.639	233.276	0.105	0.173
-359.625	-119.009	0.020	0.004
-358.610	-53.789	-0.465	0.211
-357.596	-57.932	-0.139	-0.061
-356.581	4.028	-0.124	0.090
-355.566	-85.398	-0.179	0.055
-354.552	193.486	0.006	-0.009
-353.537	66.182	-0.119	-0.120
-352.523	165.712	0.187	0.263
-351.508	800.000	-0.107	-0.300
-350.493	800.000	0.015	0.057
-349.479	-26.274	-0.219	0.128
-348.464	-63.681	-0.032	-0.013
-347.450	-200.000	0.042	0.226
-346.435	161.662	-0.225	0.313
-345.420	800.000	0.079	-0.225
-344.406	800.000	0.051	0.220
-343.391	237.270	-0.013	0.022
-342.377	800.000	-0.100	0.365
-341.362	111.144	0.177	-0.212
-340.348	-30.022	0.085	-0.048
-339.333	-200.000	0.011	0.109
-338.318	68.463	0.119	-0.122
-337.304	-84.630	0.300	0.094
-336.289	-200.000	-0.015	-0.193
-335.275	147.875	-0.153	0.205
-334.260	-123.004	0.273	-0.044
-333.245	-184.122	-0.217	-0.004
-332.231	151.764	0.034	-0.047
-331.216	308.603	0.076	-0.140
-330.202	800.000	0.014	-0.043
-329.187	-23.625	-0.149	0.089
-328.172	731.383	-0.130	0.345
-327.158	56.034	0.270	-0.260
-326.143	-200.000	-0.039	-0.253
-325.129	-77.682	0.194	0.067
-324.114	-69.494	-0.147	0.056
-323.099	-200.000	-0.049	-0.265
-322.085	-96.504	-0.210	0.055
-321.070	-105.358	-0.046	-0.010
-320.056	12.772	0.084	-0.064
-319.041	-200.000	-0.002	0.109
-318.026	-200.000	0.005	-0.291
-317.012	270.622	-0.046	-0.080
-315.997	-11.216	-0.022	-0.014
-314.983	127.432	0.033	0.042
-313.968	-122.077	-0.109	0.018
-312.953	63.186	0.217	-0.216
-311.939	-200.000	0.007	0.105
-310.924	116.322	0.023	0.028
-309.910	25.207	0.234	0.193
-308.895	50.155	0.205	0.193
-307.880	-23.175	0.163	0.098
-306.866	-84.963	-0.180	0.056
-305.851	-200.000	0.046	-0.208
-304.837	-200.000	0.023	-0.205
-303.822	-41.130	-0.162	-0.083
-302.807	250.532	0.028	0.046
-301.793	42.981	-0.194	0.176
-300.778	-73.158	0.156	-0.057
-299.764	-91.845	0.299	-0.084
-298.749	-93.383	-0.625	-0.172
-297.735	7.495	-0.215	0.159
-296.720	800.000	0.063	0.259
-295.705	800.000	0.025	-0.073
-294.691	800.000	0.019	0.060
-293.676	800.000	-0.119	-0.370
-292.662	74.197	-0.038	-0.040
-291.647	-101.722	0.108	0.026
-290.632	4.291	-0.152	0.111
-289.618	-27.931	0.145	0.083
-288.603	-133.694	0.219	-0.027
-287.589	118.521	0.031	-0.037
-286.574	68.342	0.048	0.049
-285.559	-200.000	0.039	-0.181
-284.545	-200.000	-0.042	0.480
-283.530	-10.035	0.053	-0.035
-282.516	-200.000	0.014	-0.274
-281.501	283.523	0.109	0.195
-280.486	-200.000	0.029	0.133
-279.472	-23.783	-0.181	0.107
-278.457	-200.000	-0.029	0.228
-277.443	292.168	0.138	-0.250
-276.428	-200.000	0.021	-0.124
-275.413	800.000	-0.060	0.205
-274.399	38.296	0.267	-0.235
-273.384	100.886	0.141	0.163
-272.370	-23.821	0.223	0.132
-271.355	-55.160	-0.126	-0.056
-270.340	147.376	-0.200	0.267
-269.326	-200.000	0.017	0.436
-268.311	19.984	0.176	-0.141
-267.297	800.000	-0.118	0.452
-266.282	800.000	-0.071	0.201
-265.267	50.752	-0.114	0.107
-264.253	97.065	0.012	0.014
-263.238	140.435	-0.058	0.076
-262.224	-77.799	-0.181	-0.062
-261.209	26.984	0.159	-0.132
-260.195	51.503	-0.283	-0.266
-259.180	-200.000	-0.028	-0.428
-258.165	-178.582	0.096	0.002
-257.151	280.402	0.103	0.182
-256.136	-200.000	0.001	0.045
-255.122	-18.181	0.307	-0.190
-254.107	-23.777	0.183	-0.109
-253.092	-200.000	-0.001	0.033
-252.078	-200.000	0.018	0.183
-251.063	-160.015	-0.100	-0.005
-250.049	-200.000	-0.008	0.110
-249.034	244.906	-0.288	-0.480
-248.019	-200.000	-0.006	-0.237
-247.005	-60.643	-0.133	0.056
-245.990	410.459	-0.101	0.212
-244.976	155.409	-0.064	0.087
-243.961	800.000	0.006	-0.023
-242.946	0.775	-0.016	0.012
-241.932	207.690	-0.144	0.223
-240.917	82.829	-0.203	0.219
-239.903	357.945	-0.095	0.187
-238.888	-50.696	-0.075	-0.035
-237.873	15.858	-0.126	-0.098
-236.859	0.275	0.146	-0.103
-235.844	-200.000	-0.025	0.244
-234.830	800.000	0.086	-0.360
-233.815	-135.328	0.134	0.016
-232.800	-200.000	0.025	0.134
-231.786	24.940	-0.253	-0.207
-230.771	265.200	-0.092	0.159
-229.757	325.559	0.142	0.269
-228.742	-200.000	0.013	0.193
-227.727	280.702	-0.075	0.133
-226.713	-171.192	-0.282	-0.009
-225.698	-44.600	-0.230	-0.114
-224.684	-34.711	0.213	0.115
-223.669	-15.939	0.097	-0.061
-222.655	-17.036	0.091	0.057
-221.640	-32.019	0.174	0.096
-220.625	256.046	-0.229	-0.389
-219.611	60.999	-0.149	-0.147
-218.596	43.699	0.226	0.205
-217.582	362.368	0.134	0.267
-216.567	564.324	-0.080	-0.192
-215.552	168.303	0.139	-0.195
-214.538	15.186	0.110	-0.085
-213.523	-38.927	0.032	0.017
-212.509	-44.363	-0.202	0.100
-211.494	-47.135	-0.293	0.141
-210.479	-108.395	-0.086	-0.018
-209.465	371.939	-0.061	-0.123
-208.450	102.599	-0.074	0.085
-207.436	12.443	0.262	0.200
-206.421	-75.488	0.088	-0.031
-205.406	-26.635	0.197	0.114
-204.392	201.501	-0.073	0.111
-203.377	-124.800	-0.192	-0.029
-202.363	-200.000	0.019	-0.147
-201.348	291.547	-0.258	0.464
-200.333	232.647	-0.086	-0.139
-199.319	-185.260	0.318	0.005
-198.304	-60.842	-0.275	0.115
-197.290	-200.000	-0.075	0.000
-196.275	37.365	0.271	-0.238
-195.260	176.864	-0.085	-0.122
-194.246	-90.667	0.606	-0.173
-193.231	259.763	-0.087	0.148
-192.217	-200.000	0.007	0.048
-191.202	800.000	0.162	0.465
-190.187	127.367	-0.072	-0.090
-189.173	-200.000	0.013	-0.190
-188.158	144.361	0.019	-0.025
-187.144	64.148	0.190	-0.189
-186.129	139.716	0.081	-0.106
-185.114	54.629	-0.087	0.083
-184.100	29.793	0.275	-0.231
-183.085	-38.070	-0.219	-0.115
-182.071	-200.000	-0.020	-0.106
-181.056	-6.414	0.188	0.127
-180.042	-86.138	0.133	-0.041
-179.027	-6.090	-0.197	0.133
-178.012	326.103	-0.097	-0.183
-176.998	-40.079	-0.381	-0.196
-175.983	-200.000	0.000	0.181
-174.969	-200.000	0.028	-0.249
-173.954	-121.968	0.367	0.060
-172.939	-200.000	-0.028	-0.282
-171.925	-26.527	-0.062	0.036
-170.910	566.526	0.114	-0.274
-169.896	395.493	-0.082	0.168
-168.881	38.082	0.250	0.219
-167.866	-143.269	0.340	-0.032
-166.852	-99.522	0.163	-0.041
-165.837	-200.000	0.002	-0.110
-164.823	-13.262	0.147	0.094
-163.808	-200.000	-0.020	0.116
-162.793	-0.550	0.088	-0.062
-161.779	-88.704	0.081	0.024
-160.764	-200.000	-0.019	-0.117
-159.750	-114.751	-0.210	0.040
-158.735	56.205	0.360	0.345
-157.720	-200.000	0.008	0.044
-156.706	-61.365	-0.330	-0.137
-155.691	-28.175	0.219	0.125
-154.677	800.000	-0.007	-0.024
-153.662	88.399	0.154	0.168
-152.647	34.657	0.139	0.120
-151.633	35.410	-0.101	0.087
-150.618	677.946	-0.053	0.136
-149.604	-150.108	-0.081	0.006
-148.589	200.243	0.101	0.153
-147.574	525.866	0.071	-0.164
-146.560	800.000	-0.025	-0.097
-145.545	-88.463	0.318	-0.094
-144.531	-200.000	-0.037	0.394
-143.516	-112.116	0.289	-0.057
-142.502	-37.820	0.156	-0.082
-141.487	800.000	-0.008	-0.027
-140.472	-200.000	-0.012	0.167
-139.458	-34.002	0.219	0.119
-138.443	-200.000	-0.004	0.050
-137.429	39.907	0.071	-0.063
-136.414	-131.560	0.303	0.039
-135.399	30.984	0.168	0.142
-134.385	-51.555	0.052	0.024
-133.370	-15.632	0.261	-0.164
-132.356	-60.355	0.103	-0.043
-131.341	265.218	-0.112	0.192
-130.326	25.124	0.318	-0.260
-129.312	-1.041	0.101	-0.071
-128.297	-181.953	0.220	0.004
-127.283	-92.067	-0.106	0.030
-126.268	28.241	0.093	-0.078
-125.253	558.384	-0.125	-0.298
-124.239	327.235	0.020	-0.038
-123.224	-165.966	-0.108	0.005
-122.210	-200.000	0.116	-0.607
-121.195	122.744	0.084	0.103
