DTS Sentinel unit serial number:	SN413079Multiplexer serial number:	ORYXHardware model number:	OX4-SRSoftware version number:	ORYX F/W v4.00 Oryx Data Collector v3.7.2.0data status	okinstallation	princeton_trtdifferential loss correction	single-endedforward channel	channel 3reverse channel	N/Adate	2019/09/12time	06:38:11forward acquisition time	60.00reverse acquisition time	0.00gamma	496.2192k internal	0.2320k external	0.2320temperature offset calibration	1.0032default loss term (dB/km)	0.3790temperature slope calibration	1.0000multiplexer offset coefficient	1.0000multiplexer slope coefficient	1.0000fibre end	0.00T internal ref (°C)	32.14T ext. ref 1 (°C)	1.58T ext. ref 2 (°C)	27.17length (m)	temperature (°C)	Stokes	anti-Stokes-747.200	-114.235	0.463	0.090
-746.185	38.115	-0.109	-0.098
-745.171	31.322	-0.224	0.195
-744.156	216.188	-0.058	0.093
-743.142	495.698	-0.112	0.261
-742.127	-37.758	0.117	0.063
-741.112	100.815	-0.161	0.189
-740.098	678.583	0.100	0.263
-739.083	-200.000	0.034	0.170
-738.069	-68.847	-0.442	-0.173
-737.054	416.829	0.171	0.370
-736.039	-122.509	-0.392	-0.064
-735.025	-200.000	-0.014	0.111
-734.010	-200.000	0.006	0.079
-732.996	53.354	-0.158	0.153
-731.981	230.348	0.059	-0.097
-730.966	-102.987	-0.118	-0.028
-729.952	-200.000	0.019	-0.191
-728.937	-200.000	-0.065	-0.680
-727.923	533.245	-0.044	-0.105
-726.908	800.000	0.107	0.301
-725.894	121.953	-0.092	-0.116
-724.879	-28.958	-0.296	0.172
-723.864	66.341	-0.121	-0.124
-722.850	25.852	0.190	0.160
-721.835	-98.575	-0.270	-0.070
-720.821	-200.000	0.048	0.231
-719.806	777.059	-0.069	0.191
-718.791	-111.669	0.038	0.008
-717.777	-27.061	0.084	0.050
-716.762	454.689	-0.010	0.023
-715.748	-49.682	0.398	0.191
-714.733	-200.000	-0.084	0.484
-713.718	-107.260	0.232	-0.051
-712.704	-200.000	-0.003	-0.094
-711.689	-106.964	-0.175	-0.039
-710.675	250.510	-0.209	-0.359
-709.660	275.738	0.023	-0.042
-708.645	-99.854	-0.458	-0.116
-707.631	40.774	-0.222	-0.202
-706.616	-105.618	0.203	0.046
-705.602	-180.899	0.153	0.003
-704.587	522.964	0.049	-0.115
-703.572	53.965	0.120	-0.117
-702.558	157.659	0.188	0.263
-701.543	-138.934	-0.574	-0.063
-700.529	512.086	0.077	-0.180
-699.514	-98.687	0.279	0.072
-698.499	16.779	0.154	-0.123
-697.485	249.085	-0.034	0.058
-696.470	131.703	0.142	-0.185
-695.456	250.755	0.089	0.153
-694.441	-67.139	0.168	-0.067
-693.426	800.000	0.055	0.239
-692.412	1.087	0.172	-0.125
-691.397	800.000	-0.038	-0.148
-690.383	-159.203	-0.125	0.007
-689.368	800.000	0.018	0.073
-688.354	234.602	0.116	0.194
-687.339	-180.554	0.121	0.003
-686.324	34.586	0.109	0.096
-685.310	-200.000	-0.006	-0.058
-684.295	-100.697	-0.481	-0.120
-683.281	-149.891	-0.284	-0.022
-682.266	78.555	-0.097	-0.105
-681.251	221.894	-0.092	-0.149
-680.237	800.000	-0.132	-0.412
-679.222	-33.839	-0.111	-0.062
-678.208	-2.317	0.155	-0.110
-677.193	236.278	0.103	0.172
-676.178	-65.112	-0.128	0.052
-675.164	-200.000	-0.004	-0.267
-674.149	295.244	0.179	-0.331
-673.135	-59.052	-0.184	-0.080
-672.120	-17.424	-0.062	-0.040
-671.105	541.355	-0.007	0.016
-670.091	-112.067	-0.118	-0.024
-669.076	589.301	-0.133	-0.329
-668.062	-200.000	-0.032	-0.178
-667.047	-200.000	0.003	0.183
-666.032	-200.000	0.012	-0.111
-665.018	-80.536	-0.294	0.099
-664.003	-200.000	0.008	-0.132
-662.989	-145.947	-0.193	-0.017
-661.974	78.477	-0.104	-0.112
-660.959	394.389	0.116	0.244
-659.945	-100.291	-0.093	-0.023
-658.930	155.906	0.167	-0.231
-657.916	-1.395	-0.293	0.209
-656.901	157.151	-0.154	-0.215
-655.886	-32.797	-0.163	-0.091
-654.872	-35.430	-0.226	0.124
-653.857	46.218	0.122	0.113
-652.843	626.691	0.134	-0.340
-651.828	75.984	0.047	-0.050
-650.814	461.580	0.039	0.088
-649.799	-12.067	0.094	0.062
-648.784	-18.153	-0.104	-0.065
-647.770	697.459	0.117	-0.310
-646.755	-1.346	0.235	0.167
-645.741	-51.112	0.125	0.059
-644.726	800.000	-0.095	0.290
-643.711	-79.585	-0.191	0.065
-642.697	-12.083	0.145	0.096
-641.682	-200.000	0.043	-0.253
-640.668	-64.499	-0.211	-0.086
-639.653	-200.000	-0.020	-0.264
-638.638	150.121	-0.072	0.098
-637.624	-97.153	0.252	-0.066
-636.609	521.452	-0.029	-0.068
-635.595	-200.000	-0.083	0.378
-634.580	-86.809	0.106	-0.033
-633.565	-200.000	0.002	-0.017
-632.551	-27.305	0.305	-0.179
-631.536	-100.977	-0.095	0.024
-630.522	-2.615	-0.075	0.053
-629.507	-200.000	-0.005	-0.247
-628.492	186.218	-0.085	0.127
-627.478	-176.280	-0.304	0.008
-626.463	-95.198	0.174	0.047
-625.449	175.985	0.264	-0.386
-624.434	800.000	-0.044	-0.179
-623.419	-19.427	0.115	0.072
-622.405	-4.270	0.179	0.125
-621.390	-29.047	-0.175	0.101
-620.376	-53.406	-0.197	-0.091
-619.361	-200.000	-0.008	-0.326
-618.346	207.155	0.055	0.087
-617.332	52.886	-0.256	-0.246
-616.317	341.299	-0.165	-0.324
-615.303	-200.000	-0.008	0.151
-614.288	-200.000	0.001	0.099
-613.273	322.492	0.100	-0.191
-612.259	-70.160	0.122	-0.047
-611.244	-200.000	0.010	-0.166
-610.230	-120.177	0.107	-0.018
-609.215	800.000	-0.049	0.170
-608.201	161.332	-0.176	-0.248
-607.186	-106.098	0.106	0.024
-606.171	18.321	0.047	0.037
-605.157	44.532	-0.133	0.123
-604.142	-75.926	0.098	-0.035
-603.128	28.965	0.053	-0.046
-602.113	-165.372	-0.151	-0.007
-601.098	-200.000	0.064	-0.389
-600.084	93.985	0.245	0.280
-599.069	-49.907	0.195	-0.093
-598.055	-40.236	0.086	-0.045
-597.040	-94.259	0.199	-0.055
-596.025	412.751	-0.077	0.166
-595.011	800.000	-0.043	-0.141
-593.996	92.741	-0.111	-0.126
-592.982	-200.000	-0.096	-0.000
-591.967	-81.257	0.161	-0.053
-590.952	-106.024	-0.384	0.087
-589.938	46.568	0.212	0.198
-588.923	753.320	-0.033	-0.089
-587.909	-41.310	-0.229	-0.119
-586.894	596.820	-0.079	-0.197
-585.879	624.522	0.068	0.173
-584.865	-68.782	0.356	-0.138
-583.850	21.116	-0.117	0.095
-582.836	233.690	0.073	-0.122
-581.821	800.000	-0.049	-0.157
-580.806	-200.000	-0.029	0.359
-579.792	2.778	0.026	-0.019
-578.777	53.310	-0.116	0.112
-577.763	-77.760	0.043	-0.015
-576.748	158.342	0.229	-0.319
-575.733	397.247	0.158	-0.331
-574.719	371.483	-0.243	-0.496
-573.704	519.032	0.049	-0.115
-572.690	16.672	-0.195	-0.155
-571.675	-200.000	-0.001	0.234
-570.661	15.576	0.118	-0.093
-569.646	-65.003	-0.310	0.126
-568.631	-14.003	0.202	0.131
-567.617	262.503	-0.079	-0.138
-566.602	-112.859	0.190	0.038
-565.588	800.000	-0.120	0.510
-564.573	-3.405	-0.167	-0.117
-563.558	800.000	-0.052	0.147
-562.544	-200.000	0.008	-0.045
-561.529	-60.095	0.286	0.123
-560.515	-62.452	0.169	-0.071
-559.500	-73.467	0.153	-0.056
-558.485	-200.000	-0.047	-0.351
-557.471	-20.007	0.235	0.146
-556.456	782.113	-0.110	0.303
-555.442	40.435	-0.152	0.137
-554.427	652.743	0.083	-0.214
-553.412	-199.678	0.117	0.001
-552.398	-127.671	0.063	0.009
-551.383	82.534	0.027	0.029
-550.369	-139.447	-0.131	-0.014
-549.354	29.081	0.220	0.187
-548.339	179.647	-0.116	-0.171
-547.325	-126.296	0.063	-0.009
-546.310	-2.499	0.144	0.101
-545.296	-142.312	-0.469	-0.046
-544.281	407.503	-0.171	0.362
-543.266	110.042	0.208	-0.250
-542.252	-169.190	0.224	-0.008
-541.237	-1.604	-0.088	0.062
-540.223	244.536	-0.157	0.264
-539.208	213.784	0.110	-0.175
-538.193	83.586	-0.053	-0.058
-537.179	270.444	-0.068	-0.120
-536.164	98.615	-0.240	-0.278
-535.150	-200.000	-0.013	-0.221
-534.135	312.643	-0.130	0.245
-533.121	28.420	0.195	-0.165
-532.106	-114.696	-0.111	0.021
-531.091	-31.729	-0.229	0.129
-530.077	244.801	0.233	-0.393
-529.062	-200.000	-0.012	-0.454
-528.048	-148.379	-0.143	-0.012
-527.033	-31.558	0.116	0.065
-526.018	-87.669	-0.341	0.103
-525.004	46.156	-0.219	0.203
-523.989	-200.000	0.012	-0.095
-522.975	212.538	-0.187	0.296
-521.960	34.011	0.045	0.039
-520.945	233.546	0.185	-0.305
-519.931	355.256	0.064	0.127
-518.916	-200.000	-0.066	0.333
-517.902	-200.000	0.036	0.312
-516.887	143.221	0.174	-0.233
-515.872	14.208	-0.249	-0.195
-514.858	800.000	0.029	-0.126
-513.843	780.346	-0.050	0.137
-512.829	-200.000	-0.065	-0.294
-511.814	-115.010	-0.360	0.069
-510.799	-88.827	-0.064	-0.019
-509.785	593.816	-0.154	-0.381
-508.770	-200.000	0.046	-0.372
-507.756	575.264	0.021	0.051
-506.741	-76.743	-0.401	0.141
-505.726	800.000	0.049	0.203
-504.712	52.802	0.126	-0.121
-503.697	-42.214	0.118	-0.060
-502.683	-99.253	0.188	0.048
-501.668	-36.815	-0.208	0.112
-500.653	-200.000	0.059	0.517
-499.639	-200.000	-0.026	0.197
-498.624	-200.000	-0.025	0.237
-497.610	22.847	0.210	0.172
-496.595	-48.146	-0.129	-0.062
-495.581	-140.246	-0.375	0.039
-494.566	-86.329	0.107	0.033
-493.551	-81.987	0.334	-0.109
-492.537	648.544	0.170	-0.434
-491.522	-200.000	-0.010	0.043
-490.508	-200.000	-0.012	0.452
-489.493	366.117	-0.114	-0.230
-488.478	166.556	-0.093	-0.131
-487.464	-48.680	-0.121	0.058
-486.449	-4.945	-0.268	0.185
-485.435	497.747	-0.168	-0.387
-484.420	-200.000	-0.025	-0.226
-483.405	-152.094	-0.138	0.010
-482.391	75.697	0.237	-0.251
-481.376	-44.838	0.275	0.137
-480.362	-160.222	-0.260	-0.014
-479.347	6.926	0.183	0.136
-478.332	-200.000	-0.004	0.094
-477.318	-133.012	-0.396	-0.050
-476.303	-103.764	0.203	-0.047
-475.289	23.878	0.120	0.099
-474.274	-149.819	0.170	-0.013
-473.259	71.911	-0.178	0.185
-472.245	-200.000	0.065	-0.355
-471.230	372.405	-0.087	0.177
-470.216	343.458	0.025	-0.049
-469.201	-77.362	-0.148	0.051
-468.186	-66.758	0.181	0.072
-467.172	-13.655	-0.250	0.162
-466.157	534.815	0.170	0.404
-465.143	-113.828	-0.392	-0.076
-464.128	369.086	0.058	0.118
-463.113	360.698	-0.063	-0.126
-462.099	-18.824	-0.168	-0.104
-461.084	-109.128	0.080	-0.017
-460.070	-38.616	-0.199	0.105
-459.055	548.705	-0.108	0.259
-458.040	-116.121	0.482	-0.090
-457.026	-200.000	0.037	0.340
-456.011	-108.352	-0.166	0.036
-454.997	32.953	0.237	-0.206
-453.982	-195.814	0.061	-0.000
-452.968	-119.827	-0.228	-0.039
-451.953	73.696	0.162	0.170
-450.938	-91.455	0.226	0.064
-449.924	800.000	-0.030	0.111
-448.909	100.734	0.088	-0.102
-447.895	86.034	0.031	0.035
-446.880	317.653	-0.114	0.216
-445.865	-200.000	0.006	-0.050
-444.851	185.956	-0.017	-0.026
-443.836	-200.000	-0.040	0.200
-442.822	-200.000	-0.017	0.097
-441.807	18.392	0.201	0.161
-440.792	-200.000	-0.028	-0.334
-439.778	8.501	0.213	-0.160
-438.763	-200.000	0.005	0.213
-437.749	15.821	0.171	-0.135
-436.734	62.621	-0.379	0.378
-435.719	-200.000	0.063	-0.466
-434.705	116.006	-0.113	-0.138
-433.690	-18.238	-0.175	-0.109
-432.676	88.169	0.215	0.239
-431.661	-200.000	-0.203	0.001
-430.646	521.140	-0.171	0.401
-429.632	379.051	0.113	0.231
-428.617	-200.000	0.018	-0.202
-427.603	-9.255	-0.024	-0.016
-426.588	82.613	-0.123	-0.133
-425.573	800.000	0.082	0.236
-424.559	-57.256	0.194	0.085
-423.544	-179.457	-0.129	0.003
-422.530	138.549	0.105	-0.138
-421.515	86.872	-0.034	-0.038
-420.500	-104.296	0.179	-0.041
-419.486	800.000	-0.082	0.284
-418.471	15.878	0.024	0.019
-417.457	84.596	-0.167	-0.183
-416.442	301.045	0.125	0.230
-415.428	-23.978	-0.263	0.157
-414.413	-200.000	0.012	0.072
-413.398	85.845	-0.196	0.216
-412.384	177.765	-0.080	-0.117
-411.369	-96.296	0.386	0.102
-410.355	8.594	0.166	0.124
-409.340	-74.156	0.271	0.098
-408.325	-140.838	0.293	0.030
-407.311	-91.091	-0.091	-0.026
-406.296	-43.471	-0.062	-0.031
-405.282	-14.163	0.286	-0.184
-404.267	800.000	-0.024	0.100
-403.252	106.599	0.171	-0.203
-402.238	142.559	-0.190	0.252
-401.223	127.490	0.105	0.133
-400.209	93.097	-0.357	0.403
-399.194	138.029	0.204	-0.267
-398.179	800.000	-0.072	0.289
-397.165	-115.731	-0.225	0.042
-396.150	-200.000	-0.051	-0.326
-395.136	317.912	0.070	-0.132
-394.121	341.427	0.213	0.415
-393.106	439.596	0.069	0.151
-392.092	-200.000	-0.024	-0.136
-391.077	-102.619	0.284	-0.068
-390.063	85.995	-0.172	-0.189
-389.048	-79.417	-0.365	0.123
-388.033	-200.000	-0.022	0.685
-387.019	649.322	0.070	0.179
-386.004	-118.286	-0.249	-0.044
-384.990	-41.577	0.206	-0.106
-383.975	407.705	-0.106	0.223
-382.960	-9.313	-0.133	0.089
-381.946	-136.136	-0.156	0.018
-380.931	-92.584	0.362	-0.101
-379.917	153.479	-0.214	-0.292
-378.902	-114.019	-0.291	-0.056
-377.888	-15.482	0.095	0.061
-376.873	-17.394	-0.234	-0.147
-375.858	726.163	0.090	-0.238
-374.844	-200.000	-0.018	0.208
-373.829	25.023	0.131	0.108
-372.815	156.012	0.129	-0.177
-371.800	-200.000	0.024	0.105
-370.785	-200.000	0.013	-0.403
-369.771	269.438	0.141	-0.247
-368.756	476.020	-0.155	-0.350
-367.742	-94.087	-0.140	-0.038
-366.727	-57.452	0.229	0.100
-365.712	-64.082	-0.360	0.146
-364.698	5.550	0.254	0.187
-363.683	25.104	0.102	-0.084
-362.669	25.628	0.121	-0.100
-361.654	-49.830	0.250	0.118
-360.639	-56.093	-0.263	0.117
-359.625	800.000	0.155	-0.441
-358.610	-134.825	-0.145	0.018
-357.596	-70.960	0.135	-0.051
-356.581	-147.101	-0.211	0.018
-355.566	-148.659	0.320	0.026
-354.552	-200.000	-0.011	0.133
-353.537	4.440	0.096	0.070
-352.523	-16.444	-0.027	-0.017
-351.508	-200.000	-0.011	0.096
-350.493	-200.000	0.011	-0.047
-349.479	-26.022	-0.311	0.182
-348.464	344.058	0.146	0.286
-347.450	-24.489	0.393	0.233
-346.435	194.933	-0.099	-0.150
-345.420	800.000	-0.101	-0.366
-344.406	295.374	-0.158	-0.287
-343.391	144.361	-0.199	-0.265
-342.377	231.585	-0.229	0.373
-341.362	389.556	-0.074	-0.153
-340.348	778.783	-0.127	0.345
-339.333	-82.548	0.253	0.082
-338.318	-200.000	-0.004	0.245
-337.304	-58.440	0.117	-0.051
-336.289	50.184	-0.134	-0.126
-335.275	-107.140	0.349	0.077
-334.260	-200.000	-0.028	-0.156
-333.245	-63.847	0.476	-0.194
-332.231	800.000	0.088	0.249
-331.216	800.000	0.042	-0.136
-330.202	390.472	0.049	-0.102
-329.187	-200.000	0.064	-0.417
-328.172	-200.000	-0.027	0.213
-327.158	-53.538	0.349	-0.159
-326.143	-200.000	0.019	0.083
-325.129	800.000	0.027	-0.105
-324.114	-95.298	-0.286	-0.077
-323.099	91.267	-0.139	-0.155
-322.085	-142.066	-0.133	-0.013
-321.070	-200.000	0.022	0.249
-320.056	576.270	-0.071	-0.173
-319.041	262.298	0.074	0.128
-318.026	-192.985	-0.233	0.002
-317.012	-3.652	0.254	-0.175
-315.997	25.732	0.098	0.081
-314.983	253.502	0.236	0.402
-313.968	-147.201	-0.159	-0.013
-312.953	91.192	0.129	0.144
-311.939	44.339	-0.333	-0.304
-310.924	53.758	-0.069	0.066
-309.910	-50.281	-0.152	-0.072
-308.895	-74.265	-0.280	-0.101
-307.880	175.375	-0.082	0.119
-306.866	495.382	-0.082	-0.187
-305.851	-200.000	0.043	0.216
-304.837	-61.958	0.173	0.072
-303.822	-121.685	0.180	0.030
-302.807	-27.589	-0.218	0.126
-301.793	800.000	-0.027	-0.080
-300.778	-135.849	0.117	-0.014
-299.764	357.465	-0.063	0.125
-298.749	-200.000	0.022	0.170
-297.735	-91.203	-0.095	0.027
-296.720	79.593	-0.042	0.045
-295.705	476.443	-0.142	-0.319
-294.691	113.550	0.241	-0.291
-293.676	-118.380	-0.444	-0.078
-292.662	92.892	-0.255	0.286
-291.647	-107.576	0.061	-0.013
-290.632	-200.000	0.105	-0.480
-289.618	-79.616	-0.024	0.008
-288.603	-200.000	0.054	-0.269
-287.589	800.000	-0.053	-0.196
-286.574	-98.165	0.195	0.050
-285.559	-200.000	-0.045	-0.206
-284.545	31.718	-0.198	-0.169
-283.530	28.106	0.161	-0.135
-282.516	340.191	0.048	-0.094
-281.501	145.125	0.163	0.217
-280.486	90.667	0.038	0.042
-279.472	345.421	-0.080	0.156
-278.457	800.000	0.074	-0.307
-277.443	-200.000	-0.101	-0.474
-276.428	163.390	-0.102	-0.142
-275.413	109.855	0.105	-0.125
-274.399	-200.000	-0.008	0.094
-273.384	213.540	0.116	-0.182
-272.370	7.755	0.180	0.134
-271.355	-200.000	-0.006	0.074
-270.340	-200.000	-0.031	-0.214
-269.326	-119.468	0.168	-0.029
-268.311	-71.353	-0.225	-0.084
-267.297	-0.233	0.231	-0.163
-266.282	-189.170	0.426	0.005
-265.267	-200.000	-0.038	0.343
-264.253	180.991	-0.158	0.230
-263.238	-200.000	-0.011	-0.292
-262.224	-9.369	0.263	0.174
-261.209	-78.601	-0.140	0.047
-260.195	-200.000	0.057	0.283
-259.180	485.344	0.015	0.033
-258.165	-23.221	0.382	-0.228
-257.151	-200.000	-0.016	0.312
-256.136	-200.000	0.049	-0.475
-255.122	800.000	0.088	0.273
-254.107	-200.000	0.085	0.386
-253.092	14.151	0.255	0.197
-252.078	-160.896	-0.005	0.000
-251.063	196.331	0.104	0.156
-250.049	244.217	-0.291	0.484
-249.034	41.082	0.285	0.255
-248.019	188.021	0.115	-0.171
-247.005	142.839	-0.076	-0.100
-245.990	-134.107	0.150	0.018
-244.976	-122.342	0.028	0.005
-243.961	25.515	0.297	0.245
-242.946	105.543	-0.100	0.117
-241.932	450.801	-0.047	-0.102
-240.917	-91.928	0.209	-0.059
-239.903	-111.301	-0.234	-0.047
-238.888	-57.028	-0.221	-0.096
-237.873	-13.738	0.296	0.190
-236.859	-84.522	0.099	-0.031
-235.844	15.283	0.241	-0.187
-234.830	-200.000	0.018	0.080
-233.815	128.353	-0.220	0.278
-232.800	-74.476	-0.020	0.007
-231.786	800.000	-0.051	0.166
-230.771	-200.000	0.029	0.256
-229.757	-115.328	0.138	-0.026
-228.742	-92.091	0.059	0.017
-227.727	-133.162	-0.099	0.012
-226.713	-76.597	-0.317	-0.110
-225.698	587.578	-0.094	-0.228
-224.684	-200.000	-0.020	0.219
-223.669	-200.000	0.025	-0.119
-222.655	27.354	0.257	0.214
-221.640	-116.555	-0.416	-0.076
-220.625	800.000	0.133	-0.402
-219.611	296.700	-0.092	-0.168
-218.596	-200.000	-0.006	-0.099
-217.582	-90.393	0.349	0.100
-216.567	-60.466	-0.109	-0.046
-215.552	-200.000	-0.025	0.169
-214.538	-92.993	0.451	-0.124
-213.523	-92.634	0.265	0.074
-212.509	120.918	-0.142	0.176
-211.494	16.047	-0.191	0.149
-210.479	-87.935	0.155	0.046
-209.465	278.408	0.110	0.194
-208.450	-172.324	-0.328	-0.010
-207.436	800.000	-0.068	-0.216
-206.421	-140.714	-0.197	-0.020
-205.406	379.720	-0.042	0.085
-204.392	-108.539	-0.162	-0.035
-203.377	76.216	-0.193	0.203
-202.363	453.105	-0.130	-0.285
-201.348	139.154	0.106	0.138
-200.333	40.887	-0.148	0.132
-199.319	234.694	0.205	-0.335
-198.304	-112.588	-0.131	0.026
-197.290	-113.671	0.076	-0.015
-196.275	34.393	-0.118	0.102
-195.260	-72.030	-0.176	-0.065
-194.246	67.301	-0.181	0.183
-193.231	-200.000	0.001	-0.031
-192.217	-200.000	0.011	-0.222
-191.202	-168.555	0.074	0.003
-190.187	484.681	0.059	-0.134
-189.173	800.000	-0.064	0.191
-188.158	280.338	-0.018	-0.032
-187.144	202.394	-0.186	0.284
-186.129	-51.039	0.334	-0.155
-185.114	-78.119	-0.247	-0.084
-184.100	49.503	0.147	-0.137
-183.085	-73.328	0.075	0.027
-182.071	-185.328	0.068	-0.001
-181.056	-200.000	-0.039	0.331
-180.042	319.402	0.106	0.199
-179.027	140.564	-0.069	-0.091
-178.012	-62.073	0.079	0.033
-176.998	-72.052	-0.113	0.041
-175.983	10.475	-0.335	-0.252
-174.969	800.000	0.034	0.134
-173.954	-120.182	0.052	-0.009
-172.939	67.048	-0.192	0.193
-171.925	-132.656	0.255	-0.032
-170.910	-200.000	0.006	0.147
-169.896	50.663	-0.432	-0.404
-168.881	-26.773	-0.109	0.063
-167.866	-90.201	-0.329	-0.095
-166.852	171.524	-0.056	0.079
-165.837	-130.133	0.103	-0.014
-164.823	-96.882	0.365	-0.095
-163.808	28.593	-0.176	-0.147
-162.793	-26.973	0.124	-0.072
-161.779	23.396	-0.041	0.033
-160.764	-200.000	0.007	-0.040
-159.750	-199.280	0.284	0.001
-158.735	35.505	-0.130	-0.113
-157.720	166.540	-0.166	0.233
-156.706	-200.000	0.012	0.240
-155.691	-183.135	0.034	-0.001
-154.677	-200.000	0.003	-0.174
-153.662	-184.496	0.166	-0.003
-152.647	534.056	0.056	-0.130
-151.633	-200.000	0.001	0.252
-150.618	73.675	0.074	0.077
-149.604	129.615	0.101	0.128
-148.589	800.000	0.173	0.482
-147.574	413.524	-0.071	0.149
-146.560	-200.000	-0.026	0.299
-145.545	-96.630	-0.142	-0.037
-144.531	-200.000	-0.002	0.402
-143.516	-5.760	-0.122	0.083
-142.502	571.083	0.163	0.393
-141.487	12.993	-0.091	0.069
-140.472	211.817	-0.204	0.318
-139.458	332.395	0.097	0.184
-138.443	-200.000	-0.034	0.190
-137.429	165.170	-0.039	-0.055
-136.414	-200.000	0.028	-0.416
-135.399	-146.077	0.307	0.027
-134.385	5.959	-0.180	0.132
-133.370	-113.203	0.128	-0.025
-132.356	572.104	0.113	0.272
-131.341	-200.000	0.021	-0.197
-130.326	21.668	-0.097	-0.078
-129.312	40.332	0.175	-0.156
-128.297	425.596	0.144	-0.306
-127.283	-115.832	0.181	-0.033
-126.268	-12.554	0.093	-0.060
-125.253	-134.364	-0.033	0.004
-124.239	-200.000	-0.020	-0.087
-123.224	-200.000	-0.037	-0.194
-122.210	-77.221	-0.070	-0.024
