DTS Sentinel unit serial number:	SN413079Multiplexer serial number:	ORYXHardware model number:	OX4-SRSoftware version number:	ORYX F/W v4.00 Oryx Data Collector v3.7.2.0data status	okinstallation	princeton_trtdifferential loss correction	single-endedforward channel	channel 3reverse channel	N/Adate	2019/09/16time	06:44:35forward acquisition time	60.00reverse acquisition time	0.00gamma	496.2192k internal	0.2335k external	0.2335temperature offset calibration	0.9960default loss term (dB/km)	0.3790temperature slope calibration	1.0000multiplexer offset coefficient	1.0000multiplexer slope coefficient	1.0000fibre end	0.00T internal ref (°C)	27.37T ext. ref 1 (°C)	11.44T ext. ref 2 (°C)	21.83length (m)	temperature (°C)	Stokes	anti-Stokes-747.200	231.086	-0.265	0.437
-746.185	800.000	0.106	0.435
-745.171	148.869	0.121	0.164
-744.156	-146.881	-0.206	0.018
-743.142	14.496	0.118	0.092
-742.127	216.305	-0.119	-0.190
-741.112	10.453	0.353	-0.270
-740.098	-87.212	-0.366	0.112
-739.083	-61.549	0.178	0.075
-738.069	800.000	-0.067	0.218
-737.054	-150.682	-0.110	0.008
-736.039	-200.000	0.049	-0.301
-735.025	108.708	-0.095	0.114
-734.010	2.312	-0.282	0.205
-732.996	800.000	0.020	-0.076
-731.981	-49.344	0.287	0.138
-730.966	-147.669	-0.460	0.039
-729.952	111.120	-0.075	-0.090
-728.937	123.697	-0.182	0.229
-727.923	20.635	-0.176	0.143
-726.908	-200.000	-0.038	-0.463
-725.894	-200.000	-0.054	0.312
-724.879	-12.700	-0.153	-0.100
-723.864	-121.951	-0.263	0.043
-722.850	-200.000	-0.025	-0.114
-721.835	-200.000	-0.085	-0.530
-720.821	-200.000	-0.089	-0.508
-719.806	37.158	-0.221	-0.196
-718.791	-84.426	-0.151	-0.048
-717.777	-157.862	0.355	0.021
-716.762	124.199	-0.161	-0.203
-715.748	88.274	0.063	0.070
-714.733	101.024	-0.073	0.085
-713.718	442.120	-0.081	-0.178
-712.704	800.000	-0.006	0.019
-711.689	-73.414	0.260	0.095
-710.675	-68.202	0.202	0.079
-709.660	800.000	-0.097	-0.334
-708.645	-179.231	-0.303	0.007
-707.631	-37.496	0.315	-0.169
-706.616	-100.767	0.235	-0.058
-705.602	360.966	0.141	-0.284
-704.587	109.982	0.012	-0.015
-703.572	4.734	-0.191	0.141
-702.558	-75.474	-0.171	0.061
-701.543	-127.818	0.123	-0.018
-700.529	-200.000	-0.004	-0.204
-699.514	110.585	-0.109	-0.131
-698.499	-200.000	0.074	-0.442
-697.485	115.589	0.127	-0.156
-696.470	-160.582	-0.273	0.015
-695.456	-35.585	-0.126	0.068
-694.441	-200.000	-0.044	-0.259
-693.426	-158.168	-0.328	-0.019
-692.412	-153.121	0.256	0.018
-691.397	-38.377	0.122	0.065
-690.383	800.000	-0.072	0.301
-689.368	-200.000	0.038	0.270
-688.354	-13.631	0.056	0.036
-687.339	162.124	0.060	-0.085
-686.324	-60.294	0.369	-0.158
-685.310	45.344	-0.219	-0.202
-684.295	85.001	0.154	-0.169
-683.281	-63.312	0.125	0.052
-682.266	-49.557	0.172	0.082
-681.251	-200.000	-0.034	-0.181
-680.237	-50.225	-0.119	-0.056
-679.222	-111.630	0.107	0.022
-678.208	-200.000	0.003	0.262
-677.193	443.539	-0.089	-0.195
-676.178	800.000	-0.070	-0.254
-675.164	41.059	0.226	-0.205
-674.149	-200.000	-0.025	-0.226
-673.135	186.974	-0.176	-0.263
-672.120	-15.291	0.282	-0.181
-671.105	-154.406	-0.525	0.035
-670.091	-200.000	0.010	0.060
-669.076	355.471	0.254	0.507
-668.062	162.661	0.129	0.182
-667.047	308.512	-0.137	0.256
-666.032	77.052	-0.107	0.114
-665.018	-163.595	-0.376	0.018
-664.003	42.667	0.272	0.248
-662.989	-200.000	-0.020	-0.282
-661.974	110.709	0.077	-0.093
-660.959	10.628	-0.123	0.094
-659.945	-200.000	-0.012	-0.300
-658.930	-200.000	0.017	-0.162
-657.916	56.456	0.266	0.259
-656.901	417.703	-0.084	0.180
-655.886	-64.574	-0.062	-0.025
-654.872	135.698	0.137	0.179
-653.857	52.704	0.341	0.326
-652.843	-38.053	-0.146	0.077
-651.828	-200.000	0.018	0.246
-650.814	-200.000	-0.017	0.191
-649.799	46.252	-0.324	-0.301
-648.784	-200.000	-0.069	-0.343
-647.770	629.942	0.086	-0.217
-646.755	-147.809	-0.163	0.014
-645.741	-200.000	0.021	-0.180
-644.726	518.036	0.079	-0.184
-643.711	314.934	0.014	0.027
-642.697	-200.000	-0.015	0.099
-641.682	-149.271	0.120	0.010
-640.668	210.235	0.078	0.123
-639.653	397.547	-0.112	-0.235
-638.638	6.416	-0.131	-0.097
-637.624	-138.043	0.091	0.010
-636.609	-158.349	-0.130	-0.008
-635.595	136.439	-0.035	-0.046
-634.580	135.337	-0.273	0.355
-633.565	-97.048	0.230	0.060
-632.551	-77.888	-0.092	0.032
-631.536	60.276	-0.124	0.123
-630.522	-200.000	0.005	0.098
-629.507	-50.813	-0.139	-0.065
-628.492	800.000	0.057	-0.230
-627.478	-1.457	0.256	-0.181
-626.463	51.218	0.275	0.261
-625.449	21.906	0.101	0.082
-624.434	-95.269	0.425	-0.114
-623.419	-142.602	-0.409	-0.040
-622.405	402.183	0.137	-0.287
-621.390	-131.125	-0.033	0.004
-620.376	84.371	-0.243	-0.266
-619.361	-200.000	-0.004	0.201
-618.346	420.474	-0.047	-0.100
-617.332	-52.963	-0.081	-0.037
-616.317	474.557	0.112	-0.252
-615.303	-65.873	0.227	-0.091
-614.288	-200.000	0.084	-0.374
-613.273	-73.564	-0.111	-0.040
-612.259	800.000	-0.028	-0.117
-611.244	-70.581	0.471	-0.178
-610.230	249.732	0.102	-0.173
-609.215	-98.959	0.231	-0.059
-608.201	-117.715	0.173	0.031
-607.186	-131.639	0.158	-0.021
-606.171	112.269	-0.231	-0.280
-605.157	-200.000	-0.027	0.204
-604.142	351.876	-0.099	0.197
-603.128	146.939	-0.211	0.283
-602.113	-200.000	-0.034	0.153
-601.098	199.468	-0.137	0.209
-600.084	-73.960	-0.149	-0.054
-599.069	44.192	0.049	-0.045
-598.055	-9.747	-0.098	-0.065
-597.040	67.905	-0.110	-0.112
-596.025	-94.815	-0.062	-0.017
-595.011	241.105	-0.085	-0.142
-593.996	-90.459	0.065	-0.019
-592.982	111.883	0.082	-0.099
-591.967	-200.000	0.018	0.098
-590.952	-200.000	0.044	-0.455
-589.938	160.671	0.115	0.160
-588.923	-68.930	-0.038	0.014
-587.909	800.000	0.036	-0.112
-586.894	-27.638	-0.175	0.101
-585.879	147.168	0.110	0.148
-584.865	-200.000	0.039	-0.191
-583.850	50.745	-0.040	-0.038
-582.836	-200.000	-0.026	0.250
-581.821	-200.000	0.015	0.114
-580.806	-54.831	0.195	-0.088
-579.792	58.762	0.216	-0.212
-578.777	-200.000	0.038	0.491
-577.763	83.414	0.070	0.077
-576.748	-200.000	0.011	-0.054
-575.733	800.000	0.051	0.221
-574.719	-166.207	-0.233	-0.010
-573.704	-106.212	0.391	-0.088
-572.690	781.758	-0.187	-0.512
-571.675	-200.000	-0.017	-0.130
-570.661	8.782	-0.105	0.079
-569.646	-22.320	-0.252	-0.152
-568.631	27.713	0.035	0.029
-567.617	-106.054	0.065	0.015
-566.602	800.000	-0.032	0.091
-565.588	-71.069	-0.102	-0.038
-564.573	477.488	0.165	0.374
-563.558	681.054	-0.157	0.409
-562.544	-54.938	-0.444	0.200
-561.529	54.248	0.182	-0.175
-560.515	5.680	-0.263	-0.194
-559.500	36.793	-0.372	-0.328
-558.485	-200.000	-0.078	-0.450
-557.471	-112.796	-0.066	0.013
-556.456	-200.000	-0.052	-0.494
-555.442	124.706	-0.194	0.244
-554.427	143.830	-0.101	-0.134
-553.412	800.000	0.060	0.168
-552.398	86.120	0.181	0.199
-551.383	32.408	0.132	-0.114
-550.369	-134.915	-0.215	0.026
-549.354	455.680	0.166	-0.367
-548.339	-159.633	0.332	0.018
-547.325	800.000	0.087	-0.304
-546.310	93.636	0.344	-0.388
-545.296	82.261	0.289	0.312
-544.281	800.000	0.062	-0.185
-543.266	-38.063	0.180	-0.095
-542.252	39.657	-0.180	-0.161
-541.237	-200.000	0.007	-0.184
-540.223	91.630	-0.134	-0.150
-539.208	-116.848	-0.331	-0.060
-538.193	10.052	0.179	-0.136
-537.179	-152.257	0.225	0.016
-536.164	201.212	0.177	0.272
-535.150	-200.000	0.004	0.157
-534.135	-192.248	0.103	0.001
-533.121	70.819	0.240	0.248
-532.106	-141.308	-0.122	0.012
-531.091	-23.100	-0.307	-0.184
-530.077	95.121	-0.231	0.263
-529.062	-50.011	-0.290	0.137
-528.048	1.964	-0.092	-0.066
-527.033	800.000	-0.065	0.185
-526.018	57.149	-0.146	0.141
-525.004	120.881	0.165	-0.204
-523.989	69.121	-0.136	-0.139
-522.975	-82.954	-0.095	-0.030
-521.960	27.656	0.169	0.142
-520.945	-200.000	0.059	-0.378
-519.931	-57.979	0.318	0.138
-518.916	-90.425	0.158	-0.045
-517.902	800.000	0.039	-0.151
-516.887	737.323	0.127	0.340
-515.872	-21.932	-0.212	-0.128
-514.858	-55.084	-0.219	-0.098
-513.843	-171.136	-0.116	-0.004
-512.829	-200.000	-0.047	0.348
-511.814	-0.970	-0.173	0.122
-510.799	-184.993	-0.314	0.005
-509.785	429.633	0.056	-0.121
-508.770	-104.682	0.132	-0.030
-507.756	800.000	0.114	0.405
-506.741	-42.791	0.062	-0.031
-505.726	-20.629	-0.249	-0.153
-504.712	-39.423	0.237	-0.124
-503.697	-32.901	0.044	-0.024
-502.683	20.425	-0.391	-0.315
-501.668	-200.000	-0.023	-0.249
-500.653	-32.150	-0.099	-0.055
-499.639	275.389	-0.119	-0.210
-498.624	-106.723	-0.523	0.116
-497.610	-34.135	0.140	0.076
-496.595	26.878	0.151	-0.126
-495.581	166.957	0.034	-0.048
-494.566	-200.000	0.002	0.247
-493.551	262.411	-0.117	-0.202
-492.537	-65.831	0.173	0.069
-491.522	-114.968	0.170	-0.032
-490.508	-200.000	0.014	-0.308
-489.493	800.000	-0.043	0.146
-488.478	446.798	-0.009	-0.021
-487.464	399.158	-0.128	0.266
-486.449	546.925	0.051	-0.122
-485.435	-113.910	-0.162	-0.031
-484.420	499.502	0.025	-0.058
-483.405	-74.089	0.263	-0.095
-482.391	-200.000	0.007	0.198
-481.376	-189.464	-0.044	-0.001
-480.362	800.000	-0.043	-0.174
-479.347	179.062	0.212	-0.308
-478.332	399.957	0.131	0.274
-477.318	-200.000	0.006	0.173
-476.303	-14.013	-0.133	0.085
-475.289	-102.017	-0.468	-0.112
-474.274	309.149	0.078	-0.144
-473.259	90.654	-0.119	0.133
-472.245	800.000	-0.063	-0.183
-471.230	-200.000	-0.034	-0.268
-470.216	468.708	0.069	0.153
-469.201	49.949	0.096	0.090
-468.186	-40.815	0.117	-0.060
-467.172	-176.843	0.314	-0.008
-466.157	-5.177	0.048	0.033
-465.143	41.160	-0.163	-0.146
-464.128	800.000	-0.045	-0.169
-463.113	-13.810	-0.175	0.112
-462.099	-27.173	0.325	0.188
-461.084	383.516	0.121	-0.247
-460.070	-200.000	-0.050	-0.272
-459.055	-200.000	-0.075	-0.376
-458.040	-200.000	0.010	-0.107
-457.026	57.334	0.056	-0.054
-456.011	602.181	0.052	0.129
-454.997	29.233	-0.278	0.234
-453.982	-134.989	-0.011	-0.001
-452.968	-97.599	-0.126	-0.033
-451.953	-107.565	-0.289	0.063
-450.938	-55.929	-0.157	-0.070
-449.924	-46.635	-0.068	0.033
-448.909	72.233	0.265	0.274
-447.895	-155.704	-0.418	0.027
-446.880	-61.958	-0.290	0.120
-445.865	-56.582	0.187	-0.082
-444.851	377.618	0.114	0.232
-443.836	138.884	-0.072	0.094
-442.822	103.273	-0.059	-0.068
-441.807	800.000	-0.103	0.291
-440.792	800.000	-0.105	-0.372
-439.778	800.000	-0.089	-0.286
-438.763	-200.000	0.011	-0.349
-437.749	-161.897	0.197	-0.010
-436.734	14.925	-0.248	0.193
-435.719	-132.899	-0.091	0.011
-434.705	-135.364	-0.179	-0.021
-433.690	625.072	-0.047	0.117
-432.676	157.752	-0.153	-0.210
-431.661	-85.658	-0.209	0.065
-430.646	68.659	0.078	-0.079
-429.632	-200.000	-0.013	0.178
-428.617	-66.666	0.082	0.032
-427.603	111.081	-0.029	-0.035
-426.588	-89.473	-0.218	-0.064
-425.573	-145.981	0.157	-0.014
-424.559	-200.000	-0.002	0.067
-423.544	-200.000	-0.014	-0.065
-422.530	-200.000	-0.017	-0.191
-421.515	240.363	-0.051	-0.084
-420.500	-71.533	-0.372	-0.138
-419.486	-70.724	0.267	-0.100
-418.471	-88.015	-0.129	-0.038
-417.457	-137.097	0.081	-0.009
-416.442	-97.676	-0.212	-0.054
-415.428	576.016	-0.163	0.394
-414.413	220.739	-0.188	0.299
-413.398	800.000	-0.144	-0.449
-412.384	273.159	-0.243	0.426
-411.369	-200.000	-0.006	0.175
-410.355	493.558	0.087	0.198
-409.340	-22.717	0.158	-0.095
-408.325	207.821	-0.133	0.206
-407.311	-131.491	-0.359	-0.047
-406.296	-56.173	-0.156	-0.069
-405.282	-12.411	-0.303	-0.196
-404.267	14.056	0.117	0.090
-403.252	-143.157	0.144	-0.014
-402.238	148.501	-0.168	0.224
-401.223	800.000	-0.012	0.046
-400.209	-23.270	-0.279	0.166
-399.194	258.648	-0.270	-0.462
-398.179	342.790	0.221	-0.428
-397.165	721.815	0.072	0.190
-396.150	106.309	-0.142	0.167
-395.136	-200.000	0.039	0.359
-394.121	19.250	0.202	0.161
-393.106	262.126	-0.007	-0.012
-392.092	-43.653	0.503	-0.251
-391.077	-0.508	0.141	0.099
-390.063	310.095	-0.050	0.092
-389.048	46.302	0.146	0.134
-388.033	203.736	0.182	0.279
-387.019	296.822	0.106	0.192
-386.004	379.460	-0.080	0.163
-384.990	219.560	0.130	-0.207
-383.975	-111.680	0.406	-0.082
-382.960	188.142	0.252	-0.373
-381.946	-37.737	0.191	0.100
-380.931	-127.923	-0.314	0.045
-379.917	128.564	0.080	-0.100
-378.902	800.000	-0.090	-0.388
-377.888	172.155	-0.114	-0.163
-376.873	-14.936	-0.093	-0.059
-375.858	800.000	-0.021	0.075
-374.844	-200.000	0.011	-0.129
-373.829	-63.487	-0.104	0.042
-372.815	-200.000	0.050	0.330
-371.800	-200.000	-0.013	-0.084
-370.785	-37.434	0.145	-0.077
-369.771	-99.889	-0.172	-0.042
-368.756	-146.171	0.155	0.014
-367.742	800.000	0.068	-0.200
-366.727	-200.000	-0.022	-0.124
-365.712	328.881	0.189	-0.359
-364.698	-200.000	0.075	0.417
-363.683	154.673	0.182	-0.247
-362.669	21.682	0.128	0.103
-361.654	649.832	0.102	0.259
-360.639	438.290	-0.053	-0.114
-359.625	-200.000	-0.022	0.188
-358.610	103.905	-0.133	0.155
-357.596	-90.349	-0.119	0.034
-356.581	4.108	-0.171	0.124
-355.566	303.913	0.018	0.033
-354.552	-200.000	0.001	0.242
-353.537	-119.050	0.289	-0.050
-352.523	77.746	-0.072	-0.076
-351.508	-200.000	0.001	0.107
-350.493	30.583	0.173	-0.147
-349.479	-149.419	0.314	-0.025
-348.464	-200.000	-0.023	0.143
-347.450	184.015	-0.070	-0.103
-346.435	-27.206	0.212	0.122
-345.420	121.257	-0.257	0.317
-344.406	400.218	-0.150	0.311
-343.391	800.000	-0.065	0.268
-342.377	-200.000	-0.000	0.053
-341.362	-105.318	-0.284	0.064
-340.348	-19.052	0.186	0.115
-339.333	-167.795	0.131	-0.005
-338.318	-200.000	0.038	0.260
-337.304	428.388	0.067	-0.144
-336.289	-88.064	-0.326	0.097
-335.275	-22.596	-0.173	0.103
-334.260	65.348	0.130	-0.130
-333.245	-45.382	0.038	-0.019
-332.231	-200.000	0.227	0.001
-331.216	-104.654	0.134	-0.031
-330.202	265.812	-0.090	-0.155
-329.187	-162.795	-0.130	-0.006
-328.172	-200.000	-0.102	-0.442
-327.158	-66.418	0.196	-0.077
-326.143	14.441	0.276	-0.213
-325.129	-200.000	0.002	-0.015
-324.114	192.055	0.181	-0.270
-323.099	800.000	-0.026	0.111
-322.085	800.000	-0.013	0.048
-321.070	272.445	0.078	-0.136
-320.056	-104.700	-0.299	0.068
-319.041	-129.643	0.344	-0.047
-318.026	29.235	0.494	0.415
-317.012	-105.414	-0.027	-0.006
-315.997	-119.332	0.263	-0.045
-314.983	-200.000	-0.013	0.190
-313.968	-34.343	-0.085	-0.046
-312.953	-200.000	-0.026	-0.269
-311.939	-165.882	0.125	-0.005
-310.924	-160.943	0.184	0.010
-309.910	-31.982	0.179	0.099
-308.895	-65.780	0.199	-0.079
-307.880	-88.187	0.357	0.106
-306.866	-179.230	-0.151	-0.003
-305.851	-136.551	0.232	0.027
-304.837	508.835	-0.094	-0.215
-303.822	90.501	-0.125	-0.139
-302.807	538.179	0.070	-0.163
-301.793	-200.000	-0.023	-0.193
-300.778	-106.987	0.413	-0.090
-299.764	-90.003	-0.204	-0.059
-298.749	-146.467	-0.288	-0.025
-297.735	-100.683	-0.088	-0.021
-296.720	360.844	0.075	-0.147
-295.705	8.698	-0.179	0.133
-294.691	-104.729	-0.329	0.075
-293.676	-1.502	-0.289	0.201
-292.662	-194.720	0.046	-0.000
-291.647	-145.570	0.242	0.021
-290.632	719.068	0.051	0.135
-289.618	14.270	-0.239	-0.184
-288.603	-200.000	-0.013	-0.383
-287.589	10.432	0.155	0.116
-286.574	-67.215	0.347	0.135
-285.559	-140.692	-0.090	-0.009
-284.545	84.579	-0.115	0.125
-283.530	-200.000	-0.075	0.392
-282.516	23.719	0.170	-0.138
-281.501	-200.000	0.007	0.458
-280.486	-200.000	0.013	0.362
-279.472	-145.456	-0.365	0.032
-278.457	-200.000	-0.019	0.353
-277.443	300.714	-0.162	-0.296
-276.428	800.000	0.121	0.343
-275.413	-66.385	0.164	-0.064
-274.399	-13.347	0.242	0.155
-273.384	213.713	-0.057	-0.089
-272.370	264.928	0.186	0.320
-271.355	482.889	0.063	0.140
-270.340	258.694	0.139	0.236
-269.326	88.047	0.104	-0.114
-268.311	66.690	0.071	-0.071
-267.297	800.000	-0.049	0.163
-266.282	-200.000	0.007	0.185
-265.267	-122.992	0.384	-0.061
-264.253	99.480	-0.151	0.172
-263.238	-14.087	0.128	-0.082
-262.224	-200.000	0.027	-0.161
-261.209	379.267	0.177	0.357
-260.195	800.000	0.098	-0.361
-259.180	22.320	0.035	0.029
-258.165	60.414	0.099	0.097
-257.151	-63.490	-0.302	0.122
-256.136	-72.875	-0.160	0.058
-255.122	164.503	-0.196	-0.272
-254.107	-73.276	-0.343	0.124
-253.092	319.574	0.032	-0.060
-252.078	-200.000	-0.031	0.334
-251.063	-100.519	-0.216	-0.053
-250.049	-200.000	-0.073	-0.367
-249.034	84.558	0.106	-0.114
-248.019	-65.445	0.440	0.174
-247.005	-73.611	0.274	0.098
-245.990	185.698	-0.083	-0.121
-244.976	800.000	0.047	-0.180
-243.961	800.000	-0.044	0.140
-242.946	-32.786	-0.287	0.157
-241.932	121.153	-0.083	0.102
-240.917	216.439	0.054	0.085
-239.903	74.837	-0.236	0.245
-238.888	-200.000	-0.000	0.010
-237.873	233.907	-0.126	0.205
-236.859	800.000	-0.110	0.349
-235.844	194.744	-0.022	0.032
-234.830	202.713	-0.028	0.043
-233.815	800.000	-0.031	-0.109
-232.800	373.147	-0.242	0.485
-231.786	-49.613	0.336	0.158
-230.771	272.157	0.184	0.319
-229.757	-45.505	-0.123	0.060
-228.742	800.000	0.031	-0.113
-227.727	356.031	-0.053	-0.105
-226.713	-98.827	-0.236	-0.059
-225.698	-112.702	0.372	0.073
-224.684	800.000	-0.026	-0.113
-223.669	204.695	0.136	0.208
-222.655	-98.768	0.301	0.076
-221.640	-36.895	-0.177	0.093
-220.625	-98.766	-0.313	0.078
-219.611	-67.361	0.083	-0.032
-218.596	800.000	0.052	0.201
-217.582	-200.000	0.026	0.216
-216.567	-117.601	0.158	0.028
-215.552	-200.000	-0.017	0.266
-214.538	508.250	0.033	0.076
-213.523	355.293	0.099	-0.194
-212.509	233.419	0.157	-0.255
-211.494	-17.837	0.445	0.275
-210.479	-6.611	-0.327	0.219
-209.465	-122.786	-0.206	0.033
-208.450	27.013	0.212	-0.175
-207.436	22.160	0.072	0.058
-206.421	-200.000	0.025	0.278
-205.406	57.822	0.136	0.130
-204.392	-38.608	-0.118	-0.061
-203.377	-70.040	0.191	0.071
-202.363	-188.990	-0.365	0.004
-201.348	620.265	-0.038	-0.093
-200.333	-131.046	0.265	-0.035
-199.319	-200.000	-0.018	-0.201
-198.304	-128.441	0.251	0.035
-197.290	-194.551	-0.255	-0.002
-196.275	68.399	0.060	-0.061
-195.260	314.646	0.194	-0.360
-194.246	-200.000	0.006	-0.071
-193.231	800.000	-0.078	-0.334
-192.217	658.323	0.065	0.164
-191.202	-200.000	0.024	-0.181
-190.187	-200.000	0.017	-0.122
-189.173	-97.909	-0.294	-0.075
-188.158	112.806	0.051	-0.060
-187.144	-200.000	0.019	0.081
-186.129	-60.193	0.193	0.081
-185.114	480.133	-0.071	0.159
-184.100	201.604	0.146	0.221
-183.085	-200.000	-0.014	-0.206
-182.071	800.000	0.060	-0.182
-181.056	-90.137	0.260	0.074
-180.042	-200.000	-0.018	0.101
-179.027	-200.000	-0.045	0.264
-178.012	-107.891	-0.070	-0.015
-176.998	218.476	0.121	-0.190
-175.983	800.000	-0.045	0.161
-174.969	620.345	0.081	0.199
-173.954	-25.452	0.095	0.055
-172.939	523.010	-0.124	0.286
-171.925	306.617	-0.106	-0.194
-170.910	-27.586	-0.091	-0.052
-169.896	-48.952	-0.235	-0.111
-168.881	-200.000	-0.026	0.490
-167.866	-94.359	0.223	0.060
-166.852	102.540	0.191	-0.219
-165.837	800.000	-0.062	-0.171
-164.823	-38.327	-0.314	-0.163
-163.808	-200.000	0.009	-0.118
-162.793	-16.177	0.227	-0.141
-161.779	800.000	0.064	-0.210
-160.764	-28.538	0.214	0.121
-159.750	766.481	-0.072	-0.193
-158.735	-200.000	0.001	0.121
-157.720	418.294	-0.059	0.123
-156.706	-200.000	0.013	-0.291
-155.691	-140.101	-0.229	0.024
-154.677	-13.945	0.058	0.037
-153.662	58.684	-0.097	0.093
-152.647	30.488	0.127	0.106
-151.633	-77.952	-0.200	0.068
-150.618	315.419	0.028	0.052
-149.604	337.773	0.120	-0.229
-148.589	-40.223	0.124	0.064
-147.574	-67.590	-0.222	-0.085
-146.560	800.000	-0.057	0.245
-145.545	-200.000	-0.012	0.313
-144.531	-58.033	0.161	0.069
-143.516	-91.745	0.392	0.109
-142.502	140.977	0.247	-0.321
-141.487	-123.599	0.163	-0.025
-140.472	-132.031	0.114	0.015
-139.458	41.013	0.148	0.131
-138.443	306.273	-0.042	0.076
-137.429	-200.000	-0.018	0.102
-136.414	740.690	-0.041	-0.108
-135.399	131.135	0.200	-0.252
-134.385	-8.231	-0.022	0.015
-133.370	40.771	0.338	-0.299
-132.356	118.228	0.147	0.178
-131.341	-200.000	-0.042	0.217
-130.326	138.637	0.056	0.072
-129.312	-17.247	0.428	0.265
-128.297	-200.000	-0.028	0.316
-127.283	-67.023	-0.570	0.221
-126.268	-94.649	-0.078	0.021
-125.253	-68.732	0.314	-0.119
-124.239	-167.276	0.373	0.015
-123.224	-200.000	-0.002	-0.099
-122.210	30.014	0.067	0.056
