DTS Sentinel unit serial number:	SN413079Multiplexer serial number:	ORYXHardware model number:	OX4-SRSoftware version number:	ORYX F/W v4.00 Oryx Data Collector v3.7.2.0data status	okinstallation	princeton_trtdifferential loss correction	single-endedforward channel	channel 3reverse channel	N/Adate	2019/09/19time	05:32:34forward acquisition time	60.00reverse acquisition time	0.00gamma	496.2192k internal	0.2349k external	0.2349temperature offset calibration	0.9994default loss term (dB/km)	0.3790temperature slope calibration	1.0000multiplexer offset coefficient	1.0000multiplexer slope coefficient	1.0000fibre end	0.00T internal ref (°C)	19.37T ext. ref 1 (°C)	0.60T ext. ref 2 (°C)	12.94length (m)	temperature (°C)	Stokes	anti-Stokes-747.200	8.770	-0.267	-0.201
-746.185	-93.597	0.336	0.093
-745.171	800.000	-0.026	0.087
-744.156	-200.000	0.339	-0.001
-743.142	96.866	0.136	-0.155
-742.127	-9.646	0.029	-0.019
-741.112	-66.336	-0.215	0.085
-740.098	-200.000	0.012	0.279
-739.083	-60.492	0.267	0.113
-738.069	352.455	-0.184	0.364
-737.054	209.632	-0.283	0.442
-736.039	800.000	0.039	0.117
-735.025	91.108	0.107	0.120
-734.010	82.352	-0.119	-0.129
-732.996	-163.040	-0.050	-0.002
-731.981	-127.783	-0.540	-0.078
-730.966	221.073	-0.213	-0.341
-729.952	-41.055	-0.528	-0.272
-728.937	736.068	0.036	-0.096
-727.923	-90.505	-0.556	0.161
-726.908	41.893	-0.230	-0.208
-725.894	221.033	0.140	-0.225
-724.879	-6.149	0.297	0.203
-723.864	39.703	-0.137	-0.123
-722.850	-64.907	-0.092	0.037
-721.835	-200.000	0.013	0.146
-720.821	-108.611	-0.395	0.085
-719.806	-16.522	-0.273	-0.173
-718.791	25.580	-0.077	-0.064
-717.777	60.825	0.252	0.249
-716.762	28.689	0.254	0.214
-715.748	-71.850	-0.039	0.014
-714.733	-200.000	0.008	-0.152
-713.718	-99.240	-0.207	-0.052
-712.704	800.000	-0.072	0.295
-711.689	-68.466	-0.280	-0.108
-710.675	-32.804	-0.221	0.123
-709.660	-110.862	0.232	0.048
-708.645	-30.916	-0.140	-0.079
-707.631	123.221	0.017	0.021
-706.616	141.087	-0.124	0.164
-705.602	-200.000	0.001	-0.108
-704.587	131.273	-0.218	-0.279
-703.572	133.127	0.065	0.084
-702.558	-92.076	0.163	0.046
-701.543	-68.981	-0.227	-0.087
-700.529	-173.312	-0.045	-0.001
-699.514	61.251	0.220	0.218
-698.499	109.017	-0.104	-0.124
-697.485	79.720	0.028	0.029
-696.470	-97.342	-0.226	0.059
-695.456	32.783	-0.220	-0.190
-694.441	-38.984	-0.378	-0.198
-693.426	800.000	0.103	-0.343
-692.412	139.440	0.224	-0.293
-691.397	220.903	-0.158	-0.253
-690.383	123.593	-0.181	0.226
-689.368	-200.000	0.010	-0.126
-688.354	-96.434	-0.158	-0.042
-687.339	48.607	-0.169	-0.158
-686.324	-200.000	0.013	0.094
-685.310	31.187	0.293	-0.250
-684.295	68.329	0.144	-0.147
-683.281	-179.645	0.408	0.009
-682.266	-200.000	0.005	0.141
-681.251	42.835	-0.195	-0.177
-680.237	-47.032	0.174	0.085
-679.222	296.883	0.130	-0.237
-678.208	12.002	-0.178	-0.136
-677.193	-86.554	0.288	0.088
-676.178	20.956	0.029	-0.023
-675.164	-200.000	-0.043	-0.338
-674.149	800.000	-0.037	-0.132
-673.135	53.749	0.068	0.065
-672.120	-112.004	0.205	-0.041
-671.105	-164.052	-0.159	-0.007
-670.091	104.774	-0.207	-0.243
-669.076	26.538	0.110	-0.092
-668.062	-122.175	-0.016	-0.003
-667.047	294.245	-0.040	-0.073
-666.032	6.375	-0.429	-0.318
-665.018	1.184	0.209	0.149
-664.003	92.001	-0.190	0.213
-662.989	-1.260	-0.063	0.044
-661.974	56.794	0.185	0.179
-660.959	-200.000	0.014	0.086
-659.945	-187.438	0.165	0.002
-658.930	520.712	-0.080	0.188
-657.916	-90.107	0.153	0.044
-656.901	225.763	0.361	-0.583
-655.886	-42.616	-0.170	0.086
-654.872	303.608	0.093	0.172
-653.857	166.615	0.228	0.322
-652.843	366.986	-0.163	0.327
-651.828	287.111	-0.028	0.050
-650.814	800.000	-0.116	-0.364
-649.799	-200.000	-0.074	-0.330
-648.784	52.500	0.104	-0.099
-647.770	193.785	-0.066	-0.099
-646.755	530.565	-0.082	0.193
-645.741	183.587	0.175	0.258
-644.726	368.535	-0.169	-0.339
-643.711	0.363	-0.196	-0.139
-642.697	143.186	0.205	0.271
-641.682	437.846	-0.121	0.262
-640.668	231.850	-0.069	-0.113
-639.653	50.926	-0.166	-0.156
-638.638	800.000	0.040	0.124
-637.624	-200.000	0.036	0.344
-636.609	204.381	0.115	-0.177
-635.595	107.215	0.072	-0.085
-634.580	-145.934	-0.561	-0.049
-633.565	420.280	0.095	-0.202
-632.551	-200.000	-0.065	0.347
-631.536	-127.160	-0.178	-0.026
-630.522	-200.000	-0.020	0.166
-629.507	667.460	-0.133	0.342
-628.492	-89.938	-0.152	-0.044
-627.478	-11.799	-0.045	0.029
-626.463	544.448	-0.016	0.037
-625.449	800.000	-0.033	0.132
-624.434	-200.000	0.015	0.106
-623.419	-2.164	0.120	0.084
-622.405	-200.000	-0.004	0.218
-621.390	302.330	-0.191	-0.351
-620.376	-200.000	-0.055	-0.334
-619.361	-108.641	0.338	0.072
-618.346	-134.371	0.266	0.032
-617.332	26.582	0.254	0.211
-616.317	33.406	0.208	-0.179
-615.303	98.217	-0.057	0.065
-614.288	127.231	0.214	-0.270
-613.273	800.000	-0.087	-0.332
-612.259	-200.000	-0.017	0.128
-611.244	-200.000	-0.006	0.248
-610.230	-200.000	-0.004	0.023
-609.215	800.000	0.039	0.170
-608.201	-76.730	0.073	-0.026
-607.186	124.181	0.014	0.017
-606.171	130.981	-0.140	0.179
-605.157	-103.063	-0.131	0.031
-604.142	151.576	-0.111	0.151
-603.128	116.964	0.117	0.143
-602.113	-200.000	-0.021	0.223
-601.098	-200.000	0.083	0.373
-600.084	165.687	0.085	0.119
-599.069	-200.000	0.041	0.357
-598.055	547.919	0.153	0.364
-597.040	-142.787	0.345	-0.033
-596.025	800.000	-0.060	-0.208
-595.011	-200.000	0.026	-0.221
-593.996	-167.801	0.225	0.009
-592.982	157.053	0.108	0.149
-591.967	193.053	-0.062	0.093
-590.952	800.000	-0.058	-0.207
-589.938	800.000	-0.069	-0.210
-588.923	800.000	0.066	-0.182
-587.909	426.991	0.025	-0.053
-586.894	81.182	-0.189	0.202
-585.879	-22.724	-0.062	0.037
-584.865	-121.443	-0.185	-0.031
-583.850	295.517	0.038	-0.069
-582.836	-133.043	-0.053	0.007
-581.821	-51.495	0.200	0.093
-580.806	22.639	0.099	-0.081
-579.792	-97.288	-0.295	0.076
-578.777	5.917	0.108	0.080
-577.763	25.173	0.360	-0.296
-576.748	-148.811	-0.048	-0.004
-575.733	457.260	-0.075	0.164
-574.719	-112.104	0.279	-0.056
-573.704	145.463	0.055	0.073
-572.690	-18.018	-0.207	-0.129
-571.675	153.793	0.097	0.132
-570.661	-200.000	-0.072	-0.616
-569.646	413.411	0.079	-0.167
-568.631	-122.236	-0.169	-0.027
-567.617	152.784	0.070	-0.094
-566.602	-200.000	0.021	-0.224
-565.588	17.419	0.077	-0.061
-564.573	8.379	-0.045	0.033
-563.558	-200.000	0.056	-0.274
-562.544	-19.872	-0.377	-0.231
-561.529	202.742	-0.317	-0.485
-560.515	49.097	-0.280	-0.261
-559.500	91.878	0.074	0.083
-558.485	-175.144	-0.350	0.010
-557.471	-139.281	0.162	-0.017
-556.456	-32.748	-0.053	0.029
-555.442	49.598	0.065	-0.061
-554.427	-31.382	-0.203	-0.113
-553.412	290.671	0.190	-0.343
-552.398	-62.425	-0.175	-0.072
-551.383	72.054	-0.169	0.174
-550.369	147.508	0.145	-0.194
-549.354	-50.316	-0.401	0.188
-548.339	65.010	0.173	-0.173
-547.325	800.000	0.077	-0.238
-546.310	491.655	-0.020	-0.046
-545.296	-83.928	0.044	-0.014
-544.281	-15.563	-0.345	-0.218
-543.266	-200.000	0.013	-0.088
-542.252	-28.728	-0.112	0.064
-541.237	10.923	0.235	0.178
-540.223	-179.786	-0.216	-0.005
-539.208	-54.444	-0.097	-0.044
-538.193	-3.231	0.321	0.221
-537.179	126.983	0.115	0.145
-536.164	159.509	0.035	0.049
-535.150	-76.172	0.103	-0.036
-534.135	-200.000	0.010	-0.069
-533.121	-47.895	0.143	-0.069
-532.106	192.586	0.110	0.165
-531.091	218.491	0.094	-0.148
-530.077	800.000	-0.118	-0.464
-529.062	-200.000	0.006	0.080
-528.048	800.000	-0.034	-0.096
-527.033	-159.258	0.191	0.011
-526.018	-200.000	-0.021	-0.169
-525.004	113.930	0.139	0.167
-523.989	-122.223	-0.122	0.020
-522.975	52.634	-0.189	0.179
-521.960	-56.745	0.075	0.033
-520.945	-71.933	-0.059	-0.022
-519.931	-61.178	0.131	-0.055
-518.916	-200.000	0.049	0.283
-517.902	800.000	-0.074	-0.231
-516.887	800.000	0.056	-0.236
-515.872	146.761	-0.073	0.098
-514.858	800.000	0.038	-0.128
-513.843	593.622	-0.029	-0.070
-512.829	-200.000	0.012	0.213
-511.814	202.527	-0.126	-0.193
-510.799	50.368	0.294	0.275
-509.785	83.220	0.094	-0.102
-508.770	-163.080	-0.449	0.021
-507.756	73.918	-0.168	-0.174
-506.741	147.460	0.160	0.213
-505.726	-92.067	-0.277	0.078
-504.712	-200.000	0.011	0.303
-503.697	69.641	-0.234	0.239
-502.683	114.083	-0.272	-0.328
-501.668	-57.168	0.272	-0.118
-500.653	-59.672	-0.297	-0.126
-499.639	-200.000	0.009	-0.200
-498.624	291.171	-0.083	-0.150
-497.610	47.340	0.181	-0.167
-496.595	321.743	-0.092	0.174
-495.581	-39.125	-0.197	-0.102
-494.566	103.276	-0.330	0.383
-493.551	800.000	0.049	-0.141
-492.537	419.436	0.084	-0.179
-491.522	-123.743	0.316	0.050
-490.508	297.124	-0.037	0.068
-489.493	-85.850	-0.051	-0.016
-488.478	-177.537	0.292	0.007
-487.464	130.630	0.099	-0.126
-486.449	-200.000	-0.058	0.332
-485.435	125.634	-0.119	0.148
-484.420	-116.604	0.306	0.056
-483.405	-3.402	-0.094	-0.065
-482.391	240.467	0.139	-0.228
-481.376	37.229	-0.140	-0.122
-480.362	-57.975	0.142	0.061
-479.347	-29.418	-0.274	-0.155
-478.332	464.212	-0.154	-0.341
-477.318	800.000	-0.053	0.190
-476.303	241.518	-0.159	-0.262
-475.289	-200.000	-0.046	0.353
-474.274	19.767	0.213	0.169
-473.259	-51.657	-0.040	-0.018
-472.245	147.792	0.101	-0.134
-471.230	46.867	-0.127	-0.117
-470.216	-113.997	0.205	-0.039
-469.201	-167.075	0.442	0.018
-468.186	800.000	0.062	0.171
-467.172	12.790	0.092	-0.070
-466.157	-200.000	-0.001	-0.032
-465.143	-200.000	-0.036	0.252
-464.128	125.257	-0.139	-0.173
-463.113	-31.819	0.138	-0.077
-462.099	800.000	-0.078	-0.239
-461.084	420.960	0.095	-0.202
-460.070	-186.222	-0.335	-0.005
-459.055	146.985	-0.182	0.242
-458.040	800.000	0.044	-0.163
-457.026	800.000	-0.022	0.072
-456.011	-121.066	-0.069	-0.011
-454.997	-200.000	0.063	0.325
-453.982	41.325	0.130	0.116
-452.968	-146.516	-0.207	0.018
-451.953	-200.000	-0.001	-0.229
-450.938	-145.798	-0.164	-0.014
-449.924	98.601	-0.143	-0.163
-448.909	130.837	-0.184	-0.233
-447.895	-200.000	0.024	0.162
-446.880	800.000	-0.064	0.218
-445.865	30.008	-0.252	0.212
-444.851	252.906	0.073	0.122
-443.836	-13.179	-0.165	-0.106
-442.822	-115.897	-0.249	0.046
-441.807	-17.192	-0.257	-0.160
-440.792	800.000	-0.051	0.216
-439.778	751.743	0.084	0.223
-438.763	48.271	-0.202	0.187
-437.749	192.213	0.074	0.111
-436.734	486.542	-0.174	-0.390
-435.719	-148.208	-0.294	-0.024
-434.705	-101.523	0.264	-0.063
-433.690	385.295	0.164	0.334
-432.676	207.134	-0.086	-0.132
-431.661	800.000	0.022	-0.078
-430.646	800.000	0.029	-0.090
-429.632	18.642	-0.248	-0.196
-428.617	44.792	-0.024	-0.022
-427.603	69.487	0.246	0.250
-426.588	102.940	-0.099	-0.115
-425.573	-100.102	-0.242	0.060
-424.559	-48.589	-0.190	-0.090
-423.544	348.792	-0.230	-0.447
-422.530	800.000	-0.064	0.232
-421.515	140.493	-0.190	0.248
-420.500	-200.000	-0.043	-0.259
-419.486	4.740	0.069	-0.050
-418.471	125.180	-0.135	0.167
-417.457	-165.964	0.089	-0.004
-416.442	-174.134	0.092	0.003
-415.428	-200.000	0.014	0.494
-414.413	25.021	-0.095	-0.078
-413.398	10.308	0.243	0.182
-412.384	-71.192	0.411	-0.152
-411.369	-200.000	-0.033	-0.172
-410.355	-1.762	-0.234	0.162
-409.340	157.939	0.073	-0.100
-408.325	-200.000	-0.006	-0.065
-407.311	635.818	0.027	0.067
-406.296	84.732	-0.108	-0.117
-405.282	-200.000	0.001	-0.008
-404.267	-168.653	0.100	-0.004
-403.252	75.782	0.110	-0.115
-402.238	-200.000	-0.046	-0.402
-401.223	82.806	0.115	-0.123
-400.209	-103.480	-0.040	0.009
-399.194	-200.000	0.015	0.151
-398.179	-200.000	0.005	0.071
-397.165	-200.000	-0.015	-0.267
-396.150	-200.000	0.032	0.238
-395.136	-21.860	0.083	-0.049
-394.121	-135.882	-0.314	-0.037
-393.106	-200.000	0.003	0.116
-392.092	78.801	0.075	-0.079
-391.077	-77.822	0.313	-0.107
-390.063	-76.984	-0.100	0.034
-389.048	-79.169	0.149	-0.050
-388.033	800.000	0.035	0.147
-387.019	255.373	-0.140	-0.237
-386.004	800.000	-0.042	0.148
-384.990	-89.298	0.212	0.062
-383.975	-16.023	0.156	0.098
-382.960	-200.000	-0.006	0.191
-381.946	57.913	-0.152	-0.147
-380.931	-105.434	-0.259	-0.058
-379.917	208.932	0.131	-0.202
-378.902	55.124	0.034	-0.032
-377.888	540.838	-0.022	0.052
-376.873	9.542	0.164	0.122
-375.858	800.000	-0.084	-0.298
-374.844	-96.071	-0.077	-0.020
-373.829	-200.000	-0.087	-0.472
-372.815	-155.912	-0.203	0.013
-371.800	47.767	-0.141	0.130
-370.785	-92.051	0.245	-0.068
-369.771	-163.246	0.044	0.002
-368.756	800.000	0.129	-0.389
-367.742	800.000	-0.072	0.227
-366.727	381.393	-0.126	-0.255
-365.712	-200.000	0.021	0.371
-364.698	28.748	-0.049	-0.041
-363.683	146.656	0.065	0.086
-362.669	-86.801	-0.490	-0.147
-361.654	-105.334	0.577	-0.129
-360.639	800.000	0.045	-0.161
-359.625	241.390	0.167	0.274
-358.610	-59.402	-0.234	-0.099
-357.596	800.000	0.069	0.237
-356.581	25.547	0.252	-0.206
-355.566	33.022	-0.090	0.077
-354.552	369.789	0.103	-0.205
-353.537	221.555	0.078	-0.123
-352.523	-138.711	0.217	-0.023
-351.508	-126.834	-0.314	-0.046
-350.493	6.297	-0.197	-0.143
-349.479	-200.000	-0.018	0.195
-348.464	-58.250	-0.211	-0.090
-347.450	19.677	-0.410	-0.324
-346.435	-105.997	-0.096	0.021
-345.420	-133.888	-0.105	0.013
-344.406	166.087	0.044	0.061
-343.391	-82.664	0.239	-0.076
-342.377	290.755	0.080	-0.142
-341.362	-128.698	0.192	-0.027
-340.348	-58.203	0.031	0.013
-339.333	-67.822	0.099	0.038
-338.318	-200.000	0.304	0.001
-337.304	666.766	-0.052	-0.132
-336.289	-113.242	0.062	0.012
-335.275	-159.537	-0.296	-0.016
-334.260	-9.575	-0.349	0.229
-333.245	52.079	0.184	0.173
-332.231	794.910	-0.098	0.266
-331.216	614.352	0.035	-0.085
-330.202	137.835	-0.181	-0.232
-329.187	-68.692	0.483	-0.183
-328.172	800.000	-0.049	-0.169
-327.158	638.329	-0.211	-0.527
-326.143	-51.984	-0.244	0.111
-325.129	-16.809	0.185	0.115
-324.114	-27.263	0.310	0.177
-323.099	-30.232	0.206	-0.115
-322.085	546.467	0.089	0.209
-321.070	-9.853	-0.452	0.296
-320.056	-200.000	-0.003	0.149
-319.041	-82.230	0.167	0.054
-318.026	396.795	-0.044	-0.090
-317.012	708.569	0.107	-0.277
-315.997	511.299	0.058	0.133
-314.983	-83.878	0.065	0.020
-313.968	-140.235	0.220	-0.023
-312.953	98.893	0.179	0.202
-311.939	-11.661	0.370	-0.239
-310.924	800.000	-0.050	-0.142
-309.910	-107.422	-0.185	-0.040
-308.895	-200.000	0.013	0.126
-307.880	-200.000	-0.028	-0.225
-306.866	-152.151	0.295	0.021
-305.851	129.951	-0.067	-0.084
-304.837	-46.453	0.265	-0.128
-303.822	-200.000	-0.009	-0.130
-302.807	-92.474	0.255	0.070
-301.793	384.305	-0.063	-0.127
-300.778	112.445	0.232	0.275
-299.764	-81.903	-0.142	0.045
-298.749	229.110	0.052	-0.083
-297.735	49.533	-0.135	0.124
-296.720	81.970	0.099	-0.105
-295.705	-60.654	-0.281	0.117
-294.691	-51.479	-0.140	0.064
-293.676	-101.473	-0.228	0.054
-292.662	-200.000	0.029	0.291
-291.647	-109.727	-0.212	-0.044
-290.632	-200.000	-0.058	-0.349
-289.618	-46.623	0.231	-0.111
-288.603	-26.605	0.236	0.136
-287.589	-200.000	-0.033	0.141
-286.574	-200.000	-0.003	0.499
-285.559	56.478	-0.097	-0.092
-284.545	-200.000	-0.000	-0.010
-283.530	-106.221	0.410	0.090
-282.516	139.717	0.122	-0.158
-281.501	127.977	0.285	0.356
-280.486	-147.810	0.219	0.018
-279.472	-136.103	-0.150	-0.017
-278.457	-81.402	0.319	0.103
-277.443	-10.676	-0.251	-0.163
-276.428	132.215	0.195	0.247
-275.413	189.352	0.199	-0.292
-274.399	81.286	0.284	0.301
-273.384	423.598	0.072	0.153
-272.370	-32.037	-0.102	-0.056
-271.355	15.636	0.175	-0.135
-270.340	288.979	-0.335	-0.596
-269.326	-114.317	0.150	-0.028
-268.311	9.942	0.130	0.097
-267.297	-111.997	0.131	0.026
-266.282	-98.507	0.343	-0.086
-265.267	150.758	0.058	0.077
-264.253	-7.100	-0.398	-0.265
-263.238	10.844	0.184	0.138
-262.224	800.000	0.057	-0.191
-261.209	194.277	-0.130	0.193
-260.195	72.205	0.194	0.198
-259.180	277.405	-0.063	-0.110
-258.165	201.592	-0.127	-0.191
-257.151	40.491	-0.327	0.289
-256.136	-76.344	0.155	-0.054
-255.122	-153.204	-0.219	-0.015
-254.107	-128.897	0.281	-0.039
-253.092	-68.590	0.086	0.033
-252.078	-62.781	-0.368	-0.150
-251.063	-41.431	0.231	-0.116
-250.049	-66.952	0.230	-0.089
-249.034	-33.508	0.360	0.195
-248.019	-200.000	-0.080	-0.526
-247.005	-81.657	0.442	-0.142
-245.990	77.747	-0.060	0.063
-244.976	35.963	-0.271	0.233
-243.961	800.000	-0.049	0.199
-242.946	13.036	0.227	0.172
-241.932	-200.000	-0.018	0.092
-240.917	0.410	-0.063	0.044
-239.903	800.000	0.095	0.261
-238.888	-96.157	-0.187	-0.049
-237.873	800.000	0.072	0.238
-236.859	-78.262	0.221	0.074
-235.844	-76.922	0.167	0.057
-234.830	-60.536	-0.128	-0.053
-233.815	800.000	-0.167	0.464
-232.800	180.861	-0.229	0.329
-231.786	412.791	-0.032	0.067
-230.771	-33.686	-0.182	0.099
-229.757	-62.041	-0.097	0.040
-228.742	215.228	0.211	0.327
-227.727	-47.394	0.188	-0.090
-226.713	-93.194	-0.056	0.015
-225.698	125.013	0.096	-0.119
-224.684	69.977	0.123	0.124
-223.669	11.792	-0.143	-0.107
-222.655	221.191	-0.035	0.055
-221.640	-75.409	0.277	0.097
-220.625	332.204	-0.018	-0.034
-219.611	14.784	0.245	0.187
-218.596	-200.000	-0.044	0.214
-217.582	-38.162	0.212	0.110
-216.567	-59.710	-0.077	0.032
-215.552	493.469	0.047	-0.106
-214.538	-41.424	-0.237	0.119
-213.523	221.729	0.216	-0.340
-212.509	800.000	0.020	-0.063
-211.494	-200.000	0.035	0.217
-210.479	-200.000	0.042	0.187
-209.465	82.290	-0.039	-0.041
-208.450	-200.000	0.025	0.305
-207.436	-67.431	0.271	0.104
-206.421	32.096	-0.154	-0.130
-205.406	-200.000	0.009	0.200
-204.392	800.000	0.113	-0.418
-203.377	29.252	-0.032	0.026
-202.363	-200.000	0.003	0.118
-201.348	-200.000	0.048	0.313
-200.333	-73.470	-0.251	-0.089
-199.319	-56.585	0.224	0.097
-198.304	33.028	-0.055	-0.047
-197.290	41.100	-0.122	-0.108
-196.275	91.446	-0.194	-0.214
-195.260	800.000	-0.091	0.324
-194.246	17.117	0.098	-0.076
-193.231	-126.702	-0.421	0.061
-192.217	149.657	0.092	-0.122
-191.202	-86.396	0.277	0.083
-190.187	256.256	-0.190	0.318
-189.173	92.170	0.229	0.252
-188.158	-114.027	-0.146	-0.028
-187.144	-113.259	-0.178	-0.034
-186.129	-92.636	-0.045	-0.012
-185.114	470.277	0.043	-0.095
-184.100	-200.000	-0.009	-0.114
-183.085	-200.000	-0.001	0.148
-182.071	-200.000	0.012	-0.067
-181.056	-37.280	-0.032	0.017
-180.042	399.996	-0.057	0.116
-179.027	-101.446	-0.143	0.034
-178.012	800.000	-0.049	-0.190
-176.998	800.000	0.037	-0.106
-175.983	304.645	0.185	-0.335
-174.969	-15.519	-0.179	-0.112
-173.954	103.982	-0.103	0.118
-172.939	-200.000	-0.039	0.292
-171.925	-175.569	0.131	-0.003
-170.910	100.926	-0.268	0.305
-169.896	-17.494	0.115	0.070
-168.881	-200.000	0.014	0.123
-167.866	-73.283	-0.285	0.102
-166.852	56.304	-0.175	0.166
-165.837	-80.286	0.252	0.082
-164.823	800.000	-0.095	0.318
-163.808	35.976	-0.112	-0.096
-162.793	-65.845	-0.339	0.132
-161.779	800.000	0.094	0.367
-160.764	800.000	-0.072	0.219
-159.750	240.865	0.154	0.252
-158.735	-49.562	0.324	-0.151
-157.720	157.148	0.111	-0.150
-156.706	-47.935	0.245	-0.116
-155.691	92.453	0.161	-0.177
-154.677	280.199	0.033	-0.058
-153.662	269.348	-0.237	-0.406
-152.647	575.044	-0.088	-0.210
-151.633	298.955	0.016	-0.028
-150.618	-200.000	-0.004	0.256
-149.604	194.301	-0.055	0.081
-148.589	11.965	-0.275	-0.206
-147.574	-200.000	0.009	-0.107
-146.560	-20.312	-0.174	0.105
-145.545	-50.326	-0.211	-0.097
-144.531	-45.027	0.280	-0.136
-143.516	462.122	-0.098	-0.213
-142.502	800.000	-0.079	0.316
-141.487	-139.569	-0.190	-0.020
-140.472	88.267	0.047	-0.051
-139.458	227.187	0.084	-0.133
-138.443	800.000	0.056	0.155
-137.429	-107.825	-0.220	0.047
-136.414	-33.204	0.155	-0.084
-135.399	425.763	0.084	-0.177
-134.385	-200.000	-0.017	-0.083
-133.370	6.252	0.315	0.228
-132.356	278.265	0.076	-0.133
-131.341	300.240	0.144	0.260
-130.326	-50.583	-0.343	-0.158
-129.312	800.000	0.058	-0.164
-128.297	429.401	-0.088	0.186
-127.283	-9.061	-0.118	-0.077
-126.268	109.809	-0.216	0.253
-125.253	125.778	-0.112	0.138
-124.239	-105.002	-0.207	-0.046
-123.224	-200.000	0.017	-0.417
-122.210	763.974	-0.025	0.066
-121.195	727.831	0.051	0.133
-120.180	-42.798	0.073	-0.036
