DTS Sentinel unit serial number:	SN413079Multiplexer serial number:	ORYXHardware model number:	OX4-SRSoftware version number:	ORYX F/W v4.00 Oryx Data Collector v3.7.2.0data status	okinstallation	princeton_trtdifferential loss correction	single-endedforward channel	channel 3reverse channel	N/Adate	2019/09/13time	02:08:35forward acquisition time	60.00reverse acquisition time	0.00gamma	496.2192k internal	0.2334k external	0.2334temperature offset calibration	1.0125default loss term (dB/km)	0.3790temperature slope calibration	1.0000multiplexer offset coefficient	1.0000multiplexer slope coefficient	1.0000fibre end	0.00T internal ref (°C)	27.56T ext. ref 1 (°C)	3.87T ext. ref 2 (°C)	22.24length (m)	temperature (°C)	Stokes	anti-Stokes-747.200	407.081	-0.191	0.405
-746.185	696.043	0.214	0.564
-745.171	207.251	0.184	-0.288
-744.156	-78.351	-0.313	-0.108
-743.142	39.364	0.055	0.049
-742.127	35.807	0.067	0.059
-741.112	238.694	0.148	0.247
-740.098	-109.456	0.351	0.075
-739.083	7.065	-0.283	0.212
-738.069	-36.901	-0.278	0.150
-737.054	-10.660	0.336	-0.223
-736.039	63.394	-0.169	-0.171
-735.025	-171.902	-0.282	-0.009
-734.010	-82.747	-0.314	0.102
-732.996	28.953	-0.166	0.141
-731.981	800.000	-0.097	-0.274
-730.966	-200.000	-0.029	0.261
-729.952	-26.457	-0.212	-0.125
-728.937	-95.439	-0.244	0.066
-727.923	-115.624	-0.077	0.015
-726.908	78.617	-0.046	-0.049
-725.894	-73.619	-0.249	-0.091
-724.879	-200.000	0.017	-0.116
-723.864	682.402	-0.097	0.254
-722.850	53.517	0.042	-0.040
-721.835	-200.000	-0.012	0.246
-720.821	-200.000	-0.036	0.168
-719.806	-133.493	-0.452	-0.057
-718.791	-200.000	-0.018	-0.366
-717.777	16.649	-0.090	0.071
-716.762	-200.000	-0.007	0.335
-715.748	61.530	-0.107	0.107
-714.733	340.262	-0.056	0.109
-713.718	-40.333	0.053	-0.027
-712.704	-174.173	-0.153	-0.004
-711.689	139.759	0.234	-0.309
-710.675	-200.000	-0.002	0.128
-709.660	109.027	0.144	0.173
-708.645	-26.659	-0.527	0.309
-707.631	308.762	-0.107	-0.202
-706.616	11.638	0.098	-0.076
-705.602	-35.187	0.097	0.053
-704.587	-21.719	-0.131	0.080
-703.572	800.000	-0.016	-0.050
-702.558	335.548	-0.092	0.179
-701.543	-85.956	0.130	-0.040
-700.529	120.909	0.122	-0.153
-699.514	29.620	-0.062	0.053
-698.499	-54.198	0.054	0.025
-697.485	800.000	-0.055	-0.191
-696.470	-200.000	0.006	-0.158
-695.456	28.917	0.229	-0.195
-694.441	-200.000	-0.001	0.011
-693.426	-200.000	0.010	-0.253
-692.412	-95.365	-0.343	-0.093
-691.397	220.953	-0.109	0.176
-690.383	29.545	-0.097	0.083
-689.368	183.302	0.148	0.219
-688.354	-112.688	-0.319	-0.064
-687.339	236.780	0.107	-0.177
-686.324	145.544	-0.047	-0.064
-685.310	-181.813	0.355	-0.007
-684.295	27.191	0.081	-0.068
-683.281	-113.785	0.175	0.034
-682.266	800.000	-0.027	-0.114
-681.251	800.000	0.047	0.135
-680.237	44.737	0.133	0.123
-679.222	-119.990	-0.307	0.053
-678.208	129.509	0.044	0.057
-677.193	-127.957	-0.033	-0.005
-676.178	-103.146	-0.138	-0.033
-675.164	-46.846	-0.299	-0.146
-674.149	-200.000	0.026	0.118
-673.135	800.000	-0.076	0.246
-672.120	-172.623	0.300	0.009
-671.105	800.000	0.062	0.180
-670.091	25.382	0.147	0.123
-669.076	-39.283	-0.091	-0.048
-668.062	180.411	0.076	0.112
-667.047	-92.476	-0.370	0.104
-666.032	-135.922	-0.211	0.025
-665.018	-3.676	-0.150	-0.104
-664.003	353.810	-0.070	-0.140
-662.989	-165.480	-0.356	0.016
-661.974	-24.731	0.308	-0.183
-660.959	-8.903	0.153	0.103
-659.945	0.366	-0.093	-0.066
-658.930	154.829	-0.157	0.216
-657.916	-155.121	-0.353	-0.023
-656.901	37.090	0.311	0.276
-655.886	-200.000	-0.064	-0.348
-654.872	311.093	-0.148	-0.279
-653.857	-128.938	0.206	-0.029
-652.843	-101.828	0.127	0.031
-651.828	-51.128	0.120	0.056
-650.814	309.395	-0.137	-0.256
-649.799	62.799	-0.093	0.093
-648.784	-42.267	-0.422	-0.216
-647.770	-143.719	0.227	-0.022
-646.755	-200.000	0.011	0.260
-645.741	-159.777	-0.532	0.029
-644.726	24.819	0.070	0.058
-643.711	136.428	-0.095	0.124
-642.697	114.092	0.048	-0.059
-641.682	82.931	0.138	-0.150
-640.668	341.072	0.176	0.344
-639.653	-18.320	-0.178	0.111
-638.638	129.177	-0.182	0.233
-637.624	-148.745	0.253	0.021
-636.609	-200.000	-0.001	0.212
-635.595	176.060	0.089	0.129
-634.580	600.582	0.051	0.128
-633.565	24.423	0.166	-0.138
-632.551	-87.942	0.284	-0.086
-631.536	19.750	0.049	0.039
-630.522	-86.512	-0.226	-0.070
-629.507	-23.558	-0.266	0.160
-628.492	-43.312	0.044	-0.022
-627.478	-77.460	-0.233	0.081
-626.463	142.493	-0.036	-0.048
-625.449	-57.951	-0.089	0.039
-624.434	800.000	-0.067	0.187
-623.419	-177.506	0.129	-0.003
-622.405	12.206	-0.314	0.242
-621.390	18.180	0.284	-0.227
-620.376	-138.930	-0.160	0.017
-619.361	727.982	0.109	0.290
-618.346	388.428	0.205	0.425
-617.332	-149.230	-0.573	0.046
-616.317	218.648	0.029	-0.046
-615.303	-111.799	-0.085	-0.017
-614.288	116.211	0.185	0.226
-613.273	-0.339	-0.134	-0.095
-612.259	199.880	0.234	0.359
-611.244	-64.166	0.362	0.148
-610.230	121.577	-0.051	0.064
-609.215	-103.705	-0.205	-0.048
-608.201	-200.000	-0.007	-0.108
-607.186	8.702	-0.224	0.169
-606.171	-126.024	-0.134	-0.020
-605.157	75.152	0.176	0.186
-604.142	110.140	-0.154	-0.185
-603.128	-145.293	0.134	0.012
-602.113	-119.439	-0.385	-0.067
-601.098	87.428	0.090	0.099
-600.084	-200.000	-0.032	-0.160
-599.069	-200.000	-0.062	-0.421
-598.055	-19.913	-0.104	-0.064
-597.040	800.000	0.013	0.036
-596.025	-200.000	-0.003	0.065
-595.011	800.000	0.090	0.310
-593.996	80.292	0.237	-0.255
-592.982	123.083	-0.210	-0.262
-591.967	-128.581	0.162	-0.023
-590.952	-20.427	-0.049	0.030
-589.938	-200.000	-0.003	-0.199
-588.923	-200.000	-0.058	-0.255
-587.909	-200.000	-0.058	-0.270
-586.894	131.897	0.050	0.064
-585.879	-81.096	0.197	-0.065
-584.865	800.000	-0.049	0.191
-583.850	180.744	0.170	0.249
-582.836	381.592	-0.060	0.123
-581.821	-78.197	-0.026	0.009
-580.806	-200.000	-0.020	-0.238
-579.792	165.341	-0.101	-0.143
-578.777	-53.395	0.215	0.098
-577.763	276.751	0.031	0.054
-576.748	-112.748	0.173	-0.034
-575.733	308.110	-0.084	-0.157
-574.719	-33.333	0.124	0.068
-573.704	800.000	-0.028	0.082
-572.690	-57.286	0.173	-0.076
-571.675	-184.168	0.170	-0.003
-570.661	-101.859	-0.402	-0.097
-569.646	800.000	0.047	-0.160
-568.631	800.000	0.050	0.161
-567.617	-200.000	0.080	0.488
-566.602	474.403	-0.115	0.259
-565.588	33.756	0.183	-0.159
-564.573	497.039	-0.078	0.180
-563.558	800.000	0.008	0.033
-562.544	-136.870	0.146	-0.017
-561.529	512.862	0.059	0.137
-560.515	-157.856	-0.250	0.015
-559.500	672.446	0.085	0.221
-558.485	-200.000	-0.007	-0.247
-557.471	-32.763	-0.216	-0.120
-556.456	162.118	-0.033	0.046
-555.442	-187.810	0.307	0.004
-554.427	-200.000	-0.069	-0.519
-553.412	800.000	0.078	0.299
-552.398	63.381	0.150	-0.150
-551.383	-65.219	-0.406	0.163
-550.369	449.215	0.082	-0.180
-549.354	133.122	0.026	-0.033
-548.339	800.000	0.086	-0.245
-547.325	71.435	-0.192	-0.199
-546.310	-149.784	0.332	-0.026
-545.296	46.392	-0.118	0.109
-544.281	752.831	0.079	-0.212
-543.266	567.232	0.179	-0.433
-542.252	50.440	-0.248	-0.234
-541.237	-134.051	0.089	0.011
-540.223	758.982	-0.127	-0.343
-539.208	800.000	-0.063	-0.252
-538.193	240.080	-0.056	-0.094
-537.179	-134.880	-0.119	0.014
-536.164	609.387	-0.105	-0.262
-535.150	-200.000	-0.017	-0.080
-534.135	292.367	-0.181	0.328
-533.121	-117.521	0.233	0.042
-532.106	-200.000	-0.010	-0.171
-531.091	-78.330	-0.169	-0.058
-530.077	127.719	0.067	-0.085
-529.062	-145.592	0.056	-0.005
-528.048	447.240	-0.057	0.126
-527.033	179.881	-0.074	0.108
-526.018	-139.225	0.144	-0.015
-525.004	162.683	0.081	0.113
-523.989	-96.354	0.114	-0.030
-522.975	293.806	-0.156	-0.284
-521.960	-5.232	-0.125	-0.086
-520.945	45.659	0.338	0.311
-519.931	-70.392	-0.248	0.094
-518.916	49.418	0.186	0.174
-517.902	-40.454	-0.270	0.140
-516.887	783.924	0.088	-0.240
-515.872	-63.692	0.177	0.072
-514.858	19.595	0.197	-0.158
-513.843	-200.000	0.033	-0.486
-512.829	391.504	0.130	0.269
-511.814	280.045	-0.054	-0.096
-510.799	-40.838	-0.162	-0.083
-509.785	-21.118	-0.186	-0.113
-508.770	26.039	-0.257	-0.214
-507.756	125.472	-0.260	0.327
-506.741	212.002	-0.031	-0.048
-505.726	-70.497	-0.179	0.068
-504.712	116.836	-0.250	0.306
-503.697	-153.415	-0.340	0.024
-502.683	37.513	-0.053	-0.047
-501.668	-126.141	-0.241	0.036
-500.653	37.357	-0.333	0.294
-499.639	-84.463	0.194	-0.061
-498.624	27.199	0.184	-0.154
-497.610	-200.000	0.055	-0.556
-496.595	-200.000	-0.010	-0.094
-495.581	-200.000	0.018	0.321
-494.566	-145.436	-0.116	0.010
-493.551	-3.497	-0.299	0.207
-492.537	800.000	0.011	-0.035
-491.522	-21.451	0.230	0.140
-490.508	-92.690	0.146	0.041
-489.493	6.082	0.017	-0.012
-488.478	-117.853	0.210	-0.038
-487.464	-96.003	0.323	-0.085
-486.449	480.043	-0.034	0.078
-485.435	-22.798	-0.102	-0.061
-484.420	-131.658	-0.051	-0.007
-483.405	-200.000	-0.187	-0.000
-482.391	800.000	0.072	0.214
-481.376	-200.000	-0.009	0.239
-480.362	-0.034	-0.386	-0.273
-479.347	-96.461	0.134	-0.035
-478.332	-200.000	0.005	-0.093
-477.318	-71.689	0.342	-0.127
-476.303	-9.120	0.248	-0.165
-475.289	-192.059	0.499	-0.005
-474.274	-200.000	0.076	-0.398
-473.259	1.557	-0.201	-0.144
-472.245	-104.964	-0.233	-0.053
-471.230	-103.636	0.293	0.068
-470.216	-183.543	-0.216	-0.004
-469.201	148.965	0.184	-0.248
-468.186	-184.478	0.385	-0.006
-467.172	-49.474	0.214	0.101
-466.157	47.449	-0.219	0.203
-465.143	8.926	0.204	0.153
-464.128	685.429	-0.075	0.194
-463.113	39.000	-0.207	-0.184
-462.099	-200.000	0.011	0.355
-461.084	235.636	0.128	-0.210
-460.070	-200.000	0.008	-0.263
-459.055	800.000	-0.197	-0.575
-458.040	-15.167	0.238	-0.151
-457.026	-87.896	0.176	-0.053
-456.011	-200.000	0.000	0.171
-454.997	800.000	-0.116	-0.333
-453.982	-200.000	0.017	0.265
-452.968	-142.460	-0.163	-0.016
-451.953	-67.116	-0.185	0.072
-450.938	-200.000	0.016	-0.197
-449.924	81.432	0.039	-0.042
-448.909	-200.000	0.044	0.203
-447.895	-200.000	-0.078	0.453
-446.880	-200.000	-0.065	0.000
-445.865	23.237	0.123	-0.100
-444.851	-34.720	0.116	0.063
-443.836	-86.520	-0.237	0.072
-442.822	31.757	0.062	0.053
-441.807	3.331	0.190	-0.138
-440.792	800.000	0.022	0.063
-439.778	-200.000	-0.044	0.236
-438.763	-44.032	-0.081	0.040
-437.749	-200.000	-0.029	-0.516
-436.734	140.852	-0.023	0.031
-435.719	51.240	0.275	-0.259
-434.705	-9.286	0.163	0.108
-433.690	62.067	-0.228	-0.226
-432.676	480.231	0.040	0.090
-431.661	-32.886	-0.155	0.086
-430.646	-41.563	-0.273	0.140
-429.632	389.930	-0.236	-0.485
-428.617	-115.162	0.219	-0.041
-427.603	800.000	-0.126	0.367
-426.588	296.719	0.157	-0.285
-425.573	-200.000	-0.005	0.215
-424.559	-200.000	0.014	-0.124
-423.544	800.000	-0.092	-0.290
-422.530	336.907	0.134	-0.259
-421.515	267.446	0.150	0.261
-420.500	-117.971	-0.107	0.019
-419.486	72.083	-0.050	-0.051
-418.471	-200.000	0.014	0.212
-417.457	32.685	-0.132	0.113
-416.442	47.318	0.081	-0.075
-415.428	800.000	-0.018	0.076
-414.413	16.499	-0.093	0.073
-413.398	17.972	-0.153	-0.121
-412.384	-200.000	0.038	-0.209
-411.369	-22.461	0.244	0.146
-410.355	-71.664	0.298	0.110
-409.340	-110.034	-0.207	0.043
-408.325	-50.594	0.053	-0.025
-407.311	196.818	-0.189	0.286
-406.296	-108.776	0.197	0.042
-405.282	16.555	-0.204	0.160
-404.267	-138.930	-0.242	0.026
-403.252	-36.865	0.269	0.143
-402.238	222.842	0.075	0.119
-401.223	-97.369	0.036	0.009
-400.209	-200.000	-0.007	-0.173
-399.194	-98.194	-0.069	-0.017
-398.179	-116.889	0.329	-0.060
-397.165	-200.000	0.042	-0.343
-396.150	-169.179	0.298	0.011
-395.136	77.016	0.135	-0.143
-394.121	-14.492	0.062	0.039
-393.106	-200.000	0.014	-0.106
-392.092	677.771	0.042	-0.107
-391.077	53.193	-0.123	-0.117
-390.063	320.225	-0.002	0.003
-389.048	324.491	-0.106	-0.200
-388.033	-200.000	0.007	-0.087
-387.019	-30.914	0.137	0.077
-386.004	123.877	-0.290	0.362
-384.990	-14.618	-0.031	-0.020
-383.975	-30.135	-0.357	0.202
-382.960	63.269	0.099	-0.099
-381.946	-71.103	0.353	0.131
-380.931	-124.302	0.190	-0.029
-379.917	6.627	-0.167	-0.123
-378.902	-200.000	-0.184	-0.001
-377.888	238.208	0.108	0.178
-376.873	13.062	-0.255	-0.196
-375.858	98.574	0.161	0.184
-374.844	10.225	0.184	-0.139
-373.829	182.264	0.151	0.221
-372.815	35.397	0.095	-0.082
-371.800	-200.000	-0.040	-0.191
-370.785	690.610	0.079	0.204
-369.771	800.000	0.037	0.145
-368.756	219.861	0.075	-0.119
-367.742	248.185	-0.106	-0.178
-366.727	400.017	0.042	-0.086
-365.712	-47.704	0.148	-0.071
-364.698	-95.013	0.223	-0.060
-363.683	781.287	0.102	0.276
-362.669	-75.718	-0.151	0.053
-361.654	-135.013	-0.271	0.032
-360.639	-52.051	0.036	-0.016
-359.625	-123.164	0.341	-0.054
-358.610	-106.393	0.150	0.033
-357.596	-26.852	-0.088	-0.051
-356.581	-145.461	-0.270	0.024
-355.566	211.890	0.089	0.139
-354.552	212.224	0.055	0.087
-353.537	-200.000	0.002	0.116
-352.523	-134.721	-0.201	-0.024
-351.508	-39.199	-0.044	-0.023
-350.493	-67.185	0.228	-0.089
-349.479	-75.732	0.178	0.063
-348.464	29.578	-0.168	0.141
-347.450	-200.000	-0.009	0.212
-346.435	95.450	0.158	0.178
-345.420	-200.000	0.005	-0.258
-344.406	-200.000	0.007	0.085
-343.391	159.012	-0.089	0.123
-342.377	-128.726	0.111	0.015
-341.362	-14.477	-0.317	0.202
-340.348	210.268	-0.370	0.575
-339.333	25.304	0.234	0.193
-338.318	800.000	-0.033	-0.102
-337.304	-47.931	-0.102	0.049
-336.289	-200.000	0.306	-0.001
-335.275	-200.000	0.003	-0.219
-334.260	-80.340	-0.191	0.063
-333.245	-146.456	0.311	0.027
-332.231	61.764	-0.127	0.125
-331.216	800.000	-0.002	-0.007
-330.202	73.572	0.452	-0.468
-329.187	-148.282	0.203	-0.016
-328.172	102.286	-0.140	-0.162
-327.158	-200.000	0.017	-0.130
-326.143	249.192	-0.112	0.188
-325.129	221.703	-0.199	-0.317
-324.114	16.368	-0.017	-0.014
-323.099	-111.244	0.288	0.058
-322.085	47.360	0.046	-0.042
-321.070	207.004	0.161	0.248
-320.056	-67.354	-0.234	0.091
-319.041	-200.000	0.023	-0.135
-318.026	-85.691	0.430	0.132
-317.012	14.525	-0.390	-0.301
-315.997	-137.178	0.228	-0.026
-314.983	800.000	-0.043	0.165
-313.968	543.599	0.031	-0.074
-312.953	800.000	0.086	0.324
-311.939	800.000	-0.078	-0.252
-310.924	800.000	0.041	0.114
-309.910	212.574	-0.007	-0.011
-308.895	100.621	0.136	-0.156
-307.880	-165.354	0.441	-0.019
-306.866	-200.000	-0.023	-0.143
-305.851	-38.940	-0.233	0.121
-304.837	-39.856	-0.322	-0.166
-303.822	-173.393	-0.124	0.004
-302.807	-200.000	0.003	0.094
-301.793	-200.000	0.008	-0.108
-300.778	-18.198	0.204	0.126
-299.764	-20.647	-0.205	0.125
-298.749	49.698	-0.213	-0.198
-297.735	-200.000	-0.042	-0.195
-296.720	800.000	0.034	0.119
-295.705	-171.854	0.087	-0.003
-294.691	800.000	0.095	-0.332
-293.676	605.005	0.096	0.235
-292.662	-200.000	0.001	-0.016
-291.647	-200.000	0.017	0.197
-290.632	214.698	0.058	-0.091
-289.618	575.396	-0.103	-0.248
-288.603	144.932	0.152	-0.200
-287.589	-44.137	0.159	-0.079
-286.574	-200.000	0.030	0.375
-285.559	-29.742	0.127	0.072
-284.545	-1.799	-0.117	-0.081
-283.530	477.542	0.096	0.213
-282.516	-200.000	-0.008	0.098
-281.501	-200.000	0.011	-0.349
-280.486	-104.628	-0.105	0.024
-279.472	-113.652	-0.047	0.009
-278.457	377.690	0.134	-0.270
-277.443	-200.000	-0.019	-0.154
-276.428	-71.537	-0.180	0.066
-275.413	-200.000	-0.002	-0.037
-274.399	31.927	-0.114	0.097
-273.384	800.000	-0.044	-0.134
-272.370	-200.000	-0.037	-0.269
-271.355	-36.725	-0.131	-0.069
-270.340	-120.802	-0.258	0.043
-269.326	-65.144	0.154	-0.061
-268.311	49.102	0.073	0.067
-267.297	800.000	0.094	0.301
-266.282	-9.598	-0.223	0.147
-265.267	-200.000	-0.060	-0.260
-264.253	-200.000	-0.037	-0.171
-263.238	-40.188	0.059	0.030
-262.224	597.670	0.039	0.096
-261.209	74.211	-0.203	-0.210
-260.195	-120.055	0.442	0.075
-259.180	-6.233	-0.266	0.179
-258.165	-80.283	0.436	-0.144
-257.151	12.042	0.147	-0.112
-256.136	-106.036	-0.382	0.085
-255.122	191.444	-0.193	-0.286
-254.107	-200.000	0.021	-0.165
-253.092	800.000	0.047	-0.140
-252.078	-30.302	-0.153	0.086
-251.063	21.493	0.322	0.258
-250.049	-56.889	0.155	-0.068
-249.034	22.070	-0.232	-0.187
-248.019	-200.000	-0.019	0.098
-247.005	165.080	0.186	0.259
-245.990	-74.888	-0.260	0.092
-244.976	44.592	-0.156	-0.142
-243.961	33.946	0.185	0.159
-242.946	-87.716	0.118	0.035
-241.932	73.598	0.174	0.180
-240.917	77.540	-0.115	0.121
-239.903	800.000	-0.068	0.282
-238.888	-124.312	0.262	-0.040
-237.873	-200.000	-0.060	0.443
-236.859	190.848	0.073	-0.109
-235.844	800.000	0.103	0.297
-234.830	-137.144	0.183	-0.021
-233.815	-192.437	-0.205	0.002
-232.800	-24.030	0.201	-0.118
-231.786	800.000	-0.072	-0.224
-230.771	20.532	-0.280	0.223
-229.757	-24.995	-0.304	0.177
-228.742	-27.747	0.212	-0.121
-227.727	-18.028	-0.305	0.188
-226.713	133.930	0.150	0.191
-225.698	800.000	0.084	0.319
-224.684	-38.534	0.365	0.190
-223.669	180.501	0.070	0.101
-222.655	-146.631	0.071	-0.006
-221.640	800.000	-0.067	0.284
-220.625	-200.000	-0.001	0.063
-219.611	-123.079	-0.055	0.009
-218.596	50.447	-0.204	-0.190
-217.582	-88.883	0.290	-0.085
-216.567	800.000	-0.042	0.150
-215.552	-200.000	-0.092	0.621
-214.538	-21.875	-0.332	0.199
-213.523	-68.285	0.122	-0.047
-212.509	-22.032	0.119	-0.071
-211.494	58.163	-0.304	-0.294
-210.479	-200.000	0.028	0.258
-209.465	149.714	0.260	-0.347
-208.450	2.929	0.088	-0.063
-207.436	304.255	-0.028	-0.051
-206.421	112.077	-0.183	0.218
-205.406	-56.910	-0.383	0.166
-204.392	390.131	-0.135	-0.275
-203.377	97.303	0.196	-0.222
-202.363	50.255	0.058	-0.054
-201.348	120.944	-0.221	-0.271
-200.333	-200.000	0.044	0.222
-199.319	-39.753	-0.031	0.016
-198.304	800.000	0.097	-0.270
-197.290	142.629	0.214	-0.280
-196.275	-22.435	-0.029	0.017
-195.260	132.302	-0.222	0.282
-194.246	-96.513	-0.068	-0.018
-193.231	269.800	-0.147	-0.255
-192.217	-200.000	-0.003	0.192
-191.202	-200.000	0.004	-0.041
-190.187	-117.491	-0.276	-0.049
-189.173	-200.000	0.003	0.139
-188.158	-200.000	-0.006	-0.434
-187.144	246.301	0.037	0.061
-186.129	-131.777	0.353	-0.046
-185.114	800.000	-0.118	0.341
-184.100	88.907	-0.076	0.083
-183.085	-200.000	0.045	0.282
-182.071	-28.806	0.105	0.059
-181.056	-157.361	0.173	-0.010
-180.042	28.194	0.220	-0.183
-179.027	800.000	-0.014	-0.046
-178.012	-12.654	-0.286	-0.183
-176.998	161.274	0.065	0.089
-175.983	26.055	0.184	-0.151
-174.969	110.693	-0.199	-0.235
-173.954	-200.000	0.001	0.374
-172.939	195.410	0.037	-0.055
-171.925	-87.597	-0.219	-0.065
-170.910	800.000	0.038	-0.107
-169.896	569.138	-0.056	-0.135
-168.881	-38.035	0.085	0.044
-167.866	254.199	0.080	-0.135
-166.852	-160.596	-0.094	-0.005
-165.837	-71.804	0.060	-0.022
-164.823	-200.000	0.004	0.257
-163.808	-111.344	-0.079	0.016
-162.793	-200.000	0.033	-0.291
-161.779	800.000	-0.042	-0.134
-160.764	800.000	0.129	-0.391
-159.750	-69.883	0.121	0.046
-158.735	-71.916	-0.261	0.095
-157.720	800.000	-0.023	-0.069
-156.706	-130.781	0.213	0.028
-155.691	-200.000	0.011	0.139
-154.677	87.863	0.147	0.160
-153.662	-124.159	-0.085	0.013
-152.647	-151.729	-0.309	0.022
-151.633	66.080	-0.126	0.126
-150.618	-94.802	-0.316	0.084
-149.604	-200.000	-0.023	-0.152
-148.589	539.227	0.035	-0.082
-147.574	-98.707	0.267	0.067
-146.560	-119.706	-0.136	0.023
-145.545	8.576	-0.060	0.044
-144.531	490.380	-0.068	0.154
-143.516	45.050	-0.062	-0.056
-142.502	-174.948	0.120	-0.003
-141.487	91.097	0.141	0.156
-140.472	800.000	-0.164	0.484
-139.458	278.136	-0.143	0.250
-138.443	-25.358	-0.110	0.064
-137.429	-104.766	0.164	0.037
-136.414	800.000	-0.021	-0.076
-135.399	-116.010	0.278	-0.051
-134.385	189.471	-0.094	0.138
-133.370	-18.442	-0.318	0.195
-132.356	27.197	-0.124	-0.102
-131.341	-166.814	-0.344	-0.014
-130.326	685.466	0.038	-0.097
-129.312	88.817	-0.112	0.122
-128.297	18.291	-0.315	0.247
-127.283	-46.587	-0.204	-0.098
-126.268	31.612	-0.110	-0.092
-125.253	800.000	-0.077	-0.256
-124.239	121.878	0.130	0.160
-123.224	351.651	-0.090	-0.175
-122.210	-23.411	0.174	0.103
-121.195	-29.302	-0.438	0.246
