DTS Sentinel unit serial number:	SN413079Multiplexer serial number:	ORYXHardware model number:	OX4-SRSoftware version number:	ORYX F/W v4.00 Oryx Data Collector v3.7.2.0data status	okinstallation	princeton_trtdifferential loss correction	single-endedforward channel	channel 3reverse channel	N/Adate	2019/09/17time	17:12:35forward acquisition time	60.00reverse acquisition time	0.00gamma	496.2192k internal	0.2290k external	0.2290temperature offset calibration	0.9956default loss term (dB/km)	0.3790temperature slope calibration	1.0000multiplexer offset coefficient	1.0000multiplexer slope coefficient	1.0000fibre end	0.00T internal ref (°C)	42.81T ext. ref 1 (°C)	0.35T ext. ref 2 (°C)	38.90length (m)	temperature (°C)	Stokes	anti-Stokes-747.200	-90.789	0.195	0.058
-746.185	51.946	0.109	0.107
-745.171	61.224	-0.202	-0.206
-744.156	412.516	0.118	0.256
-743.142	800.000	-0.023	-0.101
-742.127	544.567	0.059	0.144
-741.112	-200.000	-0.081	0.463
-740.098	-49.605	-0.063	-0.031
-739.083	800.000	-0.062	-0.208
-738.069	187.329	-0.173	0.265
-737.054	98.594	-0.177	0.209
-736.039	-133.230	-0.171	-0.022
-735.025	88.482	0.180	-0.204
-734.010	-105.913	-0.068	0.016
-732.996	-14.224	-0.038	0.025
-731.981	533.686	0.036	0.088
-730.966	192.573	0.064	0.099
-729.952	18.038	-0.252	-0.205
-728.937	50.082	0.208	0.201
-727.923	-7.659	-0.297	-0.206
-726.908	-174.966	-0.409	-0.012
-725.894	10.487	0.044	-0.034
-724.879	382.106	-0.033	-0.070
-723.864	-98.872	-0.229	0.060
-722.850	-189.703	-0.203	-0.002
-721.835	87.240	0.198	0.224
-720.821	82.581	-0.059	0.065
-719.806	220.990	0.126	0.208
-718.791	-74.284	-0.151	-0.056
-717.777	-63.124	-0.148	-0.063
-716.762	-148.406	-0.040	0.003
-715.748	486.970	0.120	0.280
-714.733	-40.210	0.238	-0.127
-713.718	-160.011	-0.126	0.007
-712.704	117.750	-0.077	0.097
-711.689	-49.274	-0.264	-0.129
-710.675	-164.302	-0.149	-0.007
-709.660	-123.502	0.146	0.024
-708.645	-42.089	0.187	-0.098
-707.631	-142.436	0.178	0.018
-706.616	-82.827	-0.125	0.041
-705.602	-50.564	-0.298	0.144
-704.587	503.342	-0.128	-0.303
-703.572	800.000	0.039	-0.161
-702.558	800.000	0.046	-0.134
-701.543	53.660	-0.073	-0.072
-700.529	132.194	-0.161	0.212
-699.514	-68.187	-0.277	0.110
-698.499	-200.000	0.042	0.196
-697.485	8.149	-0.154	0.118
-696.470	367.103	0.115	-0.238
-695.456	-39.056	-0.169	-0.091
-694.441	167.699	0.195	-0.284
-693.426	31.955	0.366	0.322
-692.412	152.186	-0.134	-0.188
-691.397	800.000	-0.034	0.129
-690.383	71.691	-0.027	-0.028
-689.368	38.924	0.146	-0.133
-688.354	-112.774	-0.156	-0.032
-687.339	800.000	-0.019	0.077
-686.324	-200.000	-0.239	0.001
-685.310	-31.315	-0.234	-0.135
-684.295	-160.975	0.246	-0.013
-683.281	-19.843	-0.233	0.147
-682.266	61.643	0.059	0.060
-681.251	-200.000	-0.032	-0.198
-680.237	-200.000	-0.005	0.026
-679.222	151.619	-0.119	0.166
-678.208	-200.000	-0.009	-0.351
-677.193	-142.466	-0.073	-0.007
-676.178	7.509	-0.103	0.079
-675.164	800.000	0.020	-0.068
-674.149	800.000	-0.095	-0.302
-673.135	148.818	-0.084	-0.117
-672.120	609.492	-0.140	-0.358
-671.105	93.264	0.221	-0.256
-670.091	-132.015	0.281	-0.037
-669.076	199.825	-0.103	-0.161
-668.062	-79.874	0.432	-0.148
-667.047	-200.000	0.009	-0.051
-666.032	130.133	-0.131	0.172
-665.018	-68.521	0.224	-0.089
-664.003	267.257	-0.169	0.301
-662.989	-154.972	0.147	-0.010
-661.974	182.162	-0.133	0.200
-660.959	-146.839	-0.090	-0.008
-659.945	-24.147	-0.418	0.255
-658.930	157.331	0.221	-0.312
-657.916	-200.000	0.003	-0.158
-656.901	-83.187	-0.166	-0.054
-655.886	38.252	-0.142	0.129
-654.872	100.370	0.132	-0.157
-653.857	61.086	-0.244	-0.247
-652.843	-200.000	0.020	-0.263
-651.828	-200.000	-0.005	-0.206
-650.814	-200.000	0.018	0.226
-649.799	-200.000	-0.005	0.094
-648.784	-107.565	-0.276	-0.062
-647.770	-143.934	-0.284	0.027
-646.755	-102.841	-0.166	-0.040
-645.741	105.550	-0.298	0.359
-644.726	737.190	-0.140	-0.383
-643.711	-200.000	-0.032	0.283
-642.697	-200.000	-0.063	0.395
-641.682	-140.807	-0.169	0.018
-640.668	348.207	0.006	0.013
-639.653	-149.034	0.394	0.032
-638.638	-99.951	-0.146	0.037
-637.624	554.431	0.092	0.226
-636.609	2.976	-0.114	-0.084
-635.595	77.240	-0.121	0.131
-634.580	-66.777	0.100	-0.040
-633.565	-55.229	-0.139	-0.064
-632.551	443.611	0.158	-0.354
-631.536	639.440	0.077	-0.200
-630.522	-200.000	-0.052	-0.361
-629.507	800.000	0.116	-0.510
-628.492	3.501	0.098	-0.073
-627.478	148.728	-0.217	0.299
-626.463	-22.495	0.118	0.073
-625.449	-200.000	-0.062	0.454
-624.434	-200.000	0.012	-0.101
-623.419	378.161	-0.108	-0.226
-622.405	-100.501	0.126	0.032
-621.390	-142.965	0.109	0.011
-620.376	-92.280	-0.183	0.053
-619.361	206.585	0.072	-0.114
-618.346	-91.531	0.189	-0.055
-617.332	-105.443	0.054	0.012
-616.317	146.239	0.093	-0.127
-615.303	-129.451	0.409	-0.058
-614.288	800.000	0.061	0.188
-613.273	-121.547	0.170	-0.029
-612.259	138.429	0.076	-0.102
-611.244	120.455	0.148	0.188
-610.230	50.335	0.133	-0.128
-609.215	800.000	0.071	-0.303
-608.201	-87.957	-0.325	0.100
-607.186	-60.383	-0.339	0.147
-606.171	-169.036	0.408	-0.015
-605.157	-41.255	-0.024	-0.013
-604.142	40.964	-0.257	0.236
-603.128	-200.000	-0.038	0.224
-602.113	-200.000	-0.011	-0.090
-601.098	-57.963	-0.338	-0.151
-600.084	800.000	0.111	-0.319
-599.069	-33.683	-0.148	0.083
-598.055	-200.000	-0.020	0.110
-597.040	-104.746	0.364	0.085
-596.025	-30.738	0.324	0.187
-595.011	217.302	-0.082	0.134
-593.996	-154.475	0.108	0.007
-592.982	-31.468	0.198	-0.113
-591.967	676.391	0.073	0.193
-590.952	209.718	-0.050	-0.079
-589.938	235.996	-0.056	-0.093
-588.923	483.424	0.108	0.251
-587.909	-118.592	-0.157	-0.028
-586.894	265.472	-0.077	-0.137
-585.879	-200.000	-0.011	-0.069
-584.865	378.806	-0.099	0.207
-583.850	-19.094	0.247	0.156
-582.836	-83.253	0.116	-0.038
-581.821	45.534	0.128	0.121
-580.806	-77.217	-0.228	0.081
-579.792	-25.074	-0.097	0.059
-578.777	800.000	-0.064	-0.200
-577.763	-102.269	0.137	-0.034
-576.748	-200.000	-0.007	-0.211
-575.733	66.876	0.037	0.038
-574.719	-170.163	0.172	0.006
-573.704	28.501	0.398	-0.342
-572.690	127.173	0.237	-0.305
-571.675	-112.817	0.282	-0.057
-570.661	-142.660	-0.049	0.005
-569.646	-12.134	-0.211	-0.140
-568.631	-200.000	0.023	-0.168
-567.617	-200.000	-0.007	0.229
-566.602	-70.359	0.207	0.080
-565.588	249.196	-0.105	0.182
-564.573	443.289	0.034	0.076
-563.558	-68.116	0.249	0.099
-562.544	72.793	0.165	0.175
-561.529	-131.392	-0.326	-0.044
-560.515	756.240	-0.069	-0.190
-559.500	70.805	-0.255	0.268
-558.485	-84.810	-0.187	-0.060
-557.471	300.087	-0.059	0.110
-556.456	800.000	-0.102	-0.331
-555.442	-167.760	-0.197	-0.008
-554.427	-100.856	-0.199	-0.050
-553.412	1.775	-0.228	0.167
-552.398	-104.529	-0.143	0.033
-551.383	600.761	0.090	-0.228
-550.369	54.663	-0.129	0.126
-549.354	-200.000	-0.002	-0.222
-548.339	418.691	0.193	0.419
-547.325	-200.000	-0.006	-0.035
-546.310	800.000	-0.038	-0.150
-545.296	606.036	-0.055	-0.140
-544.281	800.000	-0.117	0.367
-543.266	20.568	0.203	0.167
-542.252	800.000	-0.066	0.245
-541.237	-45.575	-0.318	0.160
-540.223	-162.229	-0.219	0.011
-539.208	54.561	0.109	-0.107
-538.193	102.615	-0.092	0.109
-537.179	226.814	-0.093	0.154
-536.164	-130.259	-0.195	-0.027
-535.150	-200.000	0.007	0.366
-534.135	-119.590	0.141	0.025
-533.121	-80.256	0.288	0.098
-532.106	-60.301	0.145	-0.063
-531.091	-24.049	0.287	0.174
-530.077	-126.911	0.395	0.059
-529.062	243.778	-0.170	-0.290
-528.048	-71.769	-0.240	-0.091
-527.033	-200.000	-0.052	-0.331
-526.018	-41.180	-0.305	0.160
-525.004	-2.237	0.248	-0.177
-523.989	-200.000	-0.004	0.065
-522.975	54.982	0.186	-0.183
-521.960	-200.000	0.026	0.122
-520.945	233.569	0.119	0.199
-519.931	79.935	0.076	-0.083
-518.916	685.285	0.043	0.115
-517.902	-76.519	0.137	0.049
-516.887	-106.685	-0.348	0.079
-515.872	66.070	-0.177	0.182
-514.858	105.015	0.045	0.054
-513.843	-100.144	-0.135	0.034
-512.829	-110.049	0.389	0.083
-511.814	18.572	-0.010	0.008
-510.799	800.000	-0.022	-0.075
-509.785	101.370	0.184	0.218
-508.770	72.345	-0.373	-0.394
-507.756	800.000	-0.064	0.197
-506.741	-63.358	-0.244	-0.102
-505.726	-144.105	-0.169	-0.016
-504.712	295.824	-0.138	0.257
-503.697	-82.707	0.346	0.114
-502.683	291.013	0.085	0.156
-501.668	122.829	-0.115	-0.147
-500.653	800.000	0.063	-0.210
-499.639	278.013	0.161	-0.292
-498.624	-57.052	0.257	-0.115
-497.610	276.214	0.025	-0.045
-496.595	355.201	0.126	-0.255
-495.581	-50.751	0.034	0.016
-494.566	-200.000	-0.040	0.251
-493.551	119.217	-0.068	-0.085
-492.537	40.122	-0.138	-0.126
-491.522	-200.000	0.034	0.203
-490.508	-200.000	0.007	0.068
-489.493	-3.482	-0.121	0.086
-488.478	-17.786	-0.221	-0.141
-487.464	104.041	-0.089	-0.106
-486.449	-84.037	0.307	0.099
-485.435	196.587	-0.065	-0.101
-484.420	-200.000	0.048	-0.324
-483.405	-34.044	-0.083	0.047
-482.391	-173.257	-0.377	0.012
-481.376	-10.982	-0.296	0.198
-480.362	-70.712	-0.276	0.106
-479.347	-200.000	-0.014	0.114
-478.332	-106.688	-0.146	-0.033
-477.318	-200.000	-0.016	0.209
-476.303	-200.000	0.019	0.182
-475.289	55.053	0.088	0.086
-474.274	800.000	-0.054	-0.227
-473.259	408.397	0.062	-0.134
-472.245	-63.638	0.234	0.097
-471.230	-78.158	0.034	0.012
-470.216	-48.781	0.095	0.046
-469.201	-200.000	0.026	-0.122
-468.186	-96.216	-0.070	-0.019
-467.172	267.332	-0.068	-0.121
-466.157	110.361	-0.074	-0.090
-465.143	-195.872	-0.289	-0.002
-464.128	800.000	-0.109	0.313
-463.113	-42.096	0.120	0.062
-462.099	800.000	0.061	-0.234
-461.084	86.294	-0.231	-0.258
-460.070	-104.590	-0.314	0.073
-459.055	-118.941	-0.178	-0.032
-458.040	-44.356	-0.125	-0.063
-457.026	171.340	-0.138	-0.200
-456.011	800.000	0.111	-0.399
-454.997	220.890	-0.114	-0.186
-453.982	-200.000	-0.012	0.068
-452.968	131.196	0.005	-0.006
-451.953	16.014	0.265	-0.211
-450.938	-96.325	-0.052	-0.014
-449.924	-200.000	0.029	0.292
-448.909	234.819	-0.050	-0.083
-447.895	771.488	0.097	-0.267
-446.880	53.861	-0.147	0.143
-445.865	144.159	0.248	0.336
-444.851	163.654	-0.065	0.092
-443.836	-11.604	0.250	-0.166
-442.822	230.026	-0.095	-0.157
-441.807	-129.864	-0.362	-0.050
-440.792	24.788	-0.187	0.157
-439.778	-44.841	0.166	0.084
-438.763	-140.712	-0.316	-0.033
-437.749	800.000	0.081	-0.234
-436.734	-48.230	0.153	-0.075
-435.719	121.170	-0.214	-0.269
-434.705	84.283	0.214	-0.237
-433.690	-42.967	0.139	-0.071
-432.676	-109.927	0.251	-0.053
-431.661	-119.692	0.374	0.065
-430.646	294.370	0.014	-0.026
-429.632	-14.586	0.112	0.073
-428.617	800.000	0.047	-0.166
-427.603	-11.675	-0.132	-0.088
-426.588	-200.000	-0.004	0.261
-425.573	228.057	-0.139	0.229
-424.559	-11.222	0.032	-0.021
-423.544	-200.000	-0.015	-0.211
-422.530	800.000	0.020	0.076
-421.515	-40.712	0.280	-0.147
-420.500	-118.074	0.326	0.059
-419.486	-200.000	0.039	0.277
-418.471	-16.729	0.409	-0.262
-417.457	120.191	0.205	-0.257
-416.442	800.000	0.043	-0.145
-415.428	-200.000	-0.071	-0.391
-414.413	204.814	0.114	-0.178
-413.398	79.041	-0.213	0.230
-412.384	445.071	0.057	0.126
-411.369	-7.071	-0.157	0.108
-410.355	-200.000	0.014	-0.080
-409.340	351.398	-0.054	0.107
-408.325	226.923	0.098	-0.161
-407.311	236.563	-0.110	-0.184
-406.296	303.437	-0.043	0.081
-405.282	773.127	0.102	0.281
-404.267	524.226	-0.087	0.208
-403.252	36.246	0.039	0.035
-402.238	-200.000	0.058	-0.359
-401.223	-33.176	-0.334	-0.187
-400.209	800.000	-0.098	-0.367
-399.194	152.618	-0.198	0.273
-398.179	-133.610	-0.239	0.030
-397.165	-96.635	-0.074	-0.020
-396.150	800.000	-0.129	-0.568
-395.136	800.000	0.082	0.330
-394.121	-163.051	-0.173	-0.008
-393.106	500.430	0.047	0.109
-392.092	-157.882	0.516	0.031
-391.077	64.224	0.113	0.115
-390.063	87.439	-0.087	0.097
-389.048	-70.584	-0.140	0.053
-388.033	392.674	0.104	-0.219
-387.019	-81.631	0.191	-0.063
-386.004	196.468	0.198	0.305
-384.990	57.101	0.030	-0.030
-383.975	294.497	-0.058	0.107
-382.960	480.778	-0.124	-0.285
-381.946	-200.000	0.022	0.298
-380.931	800.000	-0.065	0.211
-379.917	800.000	0.017	0.067
-378.902	-48.408	0.041	0.020
-377.888	-200.000	-0.008	-0.086
-376.873	29.092	0.077	0.066
-375.858	-25.070	-0.289	-0.173
-374.844	-91.628	-0.301	-0.087
-373.829	205.588	-0.019	-0.030
-372.815	634.221	0.091	0.234
-371.800	16.553	-0.151	-0.120
-370.785	800.000	0.022	0.087
-369.771	800.000	-0.039	0.151
-368.756	-91.933	-0.070	-0.020
-367.742	387.951	-0.162	-0.339
-366.727	216.122	-0.127	0.204
-365.712	-61.069	-0.054	0.023
-364.698	-134.896	0.093	0.011
-363.683	800.000	-0.104	-0.432
-362.669	-7.159	-0.150	-0.103
-361.654	75.071	0.175	-0.186
-360.639	55.622	-0.026	0.025
-359.625	-200.000	0.041	-0.221
-358.610	800.000	0.068	0.284
-357.596	-200.000	-0.081	0.374
-356.581	3.666	0.106	0.078
-355.566	800.000	-0.028	0.096
-354.552	148.708	-0.126	0.171
-353.537	800.000	-0.004	-0.011
-352.523	-131.419	-0.122	0.016
-351.508	-200.000	-0.021	-0.093
-350.493	-74.699	0.292	0.106
-349.479	-200.000	0.005	0.069
-348.464	169.300	-0.123	-0.177
-347.450	14.988	-0.167	-0.132
-346.435	483.933	-0.108	-0.249
-345.420	800.000	0.014	-0.058
-344.406	-38.135	0.346	-0.185
-343.391	800.000	0.055	0.234
-342.377	-82.963	-0.232	-0.075
-341.362	243.299	0.042	0.071
-340.348	-148.978	-0.158	-0.013
-339.333	369.474	0.060	0.122
-338.318	-135.184	-0.357	-0.043
-337.304	-36.069	0.055	-0.030
-336.289	800.000	-0.014	-0.045
-335.275	-65.583	0.047	-0.019
-334.260	-200.000	-0.004	0.131
-333.245	-7.401	0.097	0.066
-332.231	510.515	0.141	0.330
-331.216	-67.236	-0.331	0.131
-330.202	-132.775	0.226	-0.029
-329.187	785.312	-0.118	0.325
-328.172	165.119	0.060	0.085
-327.158	-157.726	0.208	-0.012
-326.143	-200.000	-0.012	0.155
-325.129	-17.133	0.274	-0.174
-324.114	-48.148	0.280	0.136
-323.099	-32.242	-0.166	0.094
-322.085	-107.687	0.180	-0.040
-321.070	-147.037	0.265	-0.023
-320.056	-29.025	0.150	0.087
-319.041	82.791	0.134	-0.147
-318.026	-200.000	-0.003	-0.071
-317.012	-97.753	-0.147	-0.038
-315.997	-200.000	0.000	-0.146
-314.983	-125.688	0.089	-0.014
-313.968	24.634	-0.035	0.029
-312.953	-103.090	0.083	-0.020
-311.939	800.000	-0.071	0.199
-310.924	-162.814	0.100	-0.005
-309.910	624.659	0.082	0.208
-308.895	-26.551	0.413	-0.244
-307.880	537.797	-0.084	-0.200
-306.866	-200.000	-0.006	-0.159
-305.851	33.637	0.073	0.064
-304.837	-200.000	-0.028	0.248
-303.822	-43.557	-0.087	0.044
-302.807	-6.420	0.077	-0.053
-301.793	800.000	0.098	-0.368
-300.778	800.000	0.137	-0.428
-299.764	-200.000	0.026	0.138
-298.749	800.000	-0.095	-0.357
-297.735	-100.299	-0.223	-0.056
-296.720	-200.000	0.021	-0.187
-295.705	-64.410	-0.196	0.080
-294.691	-23.421	0.438	0.265
-293.676	526.667	-0.034	-0.080
-292.662	278.594	0.166	-0.297
-291.647	-35.412	-0.009	0.005
-290.632	-200.000	-0.097	-0.465
-289.618	-11.956	-0.080	0.053
-288.603	238.130	0.176	0.294
-287.589	800.000	0.090	-0.362
-286.574	-150.957	0.136	0.010
-285.559	256.634	0.072	0.124
-284.545	100.552	-0.126	-0.147
-283.530	800.000	-0.051	0.195
-282.516	-100.914	-0.202	0.050
-281.501	34.333	0.150	0.132
-280.486	143.283	-0.163	0.218
-279.472	-51.539	0.243	0.114
-278.457	-200.000	0.039	0.364
-277.443	-200.000	0.017	-0.480
-276.428	34.619	-0.144	-0.127
-275.413	-6.508	0.102	0.070
-274.399	-135.780	0.116	0.014
-273.384	800.000	0.096	-0.366
-272.370	560.091	-0.057	-0.138
-271.355	-24.025	-0.102	0.061
-270.340	263.033	0.054	0.094
-269.326	190.139	0.050	0.075
-268.311	-82.944	-0.359	0.116
-267.297	-200.000	-0.055	0.412
-266.282	-77.003	0.244	-0.086
-265.267	-200.000	0.062	-0.295
-264.253	49.337	0.123	0.117
-263.238	-130.311	-0.297	0.041
-262.224	-146.763	0.336	-0.029
-261.209	13.961	0.172	0.135
-260.195	24.825	-0.075	0.063
-259.180	-200.000	0.001	0.147
-258.165	-200.000	-0.014	0.224
-257.151	800.000	0.135	-0.380
-256.136	366.519	0.075	-0.152
-255.122	179.111	0.041	0.060
-254.107	-42.588	-0.033	-0.017
-253.092	-126.003	-0.334	-0.050
-252.078	22.647	0.300	0.247
-251.063	64.108	0.378	0.382
-250.049	800.000	-0.035	-0.132
-249.034	333.023	0.123	0.240
-248.019	-187.281	-0.489	0.007
-247.005	-145.774	0.435	0.039
-245.990	-200.000	-0.021	-0.402
-244.976	1.167	0.313	-0.226
-243.961	131.266	0.158	0.203
-242.946	-200.000	0.015	-0.311
-241.932	-21.934	-0.322	-0.197
-240.917	53.649	-0.091	0.087
-239.903	225.854	0.018	-0.030
-238.888	-172.968	-0.170	0.005
-237.873	478.132	-0.068	0.154
-236.859	800.000	0.042	0.151
-235.844	-153.056	0.305	-0.022
-234.830	0.632	-0.078	-0.056
-233.815	10.399	-0.121	-0.093
-232.800	15.619	-0.203	-0.160
-231.786	-133.662	0.385	0.048
-230.771	15.518	-0.134	-0.106
-229.757	-47.125	0.096	0.047
-228.742	400.472	0.099	0.208
-227.727	-74.955	0.082	0.029
-226.713	387.229	-0.122	-0.253
-225.698	-135.140	-0.473	-0.057
-224.684	155.736	0.190	-0.263
-223.669	-200.000	-0.022	0.124
-222.655	-200.000	-0.201	-0.001
-221.640	-17.701	0.054	0.034
-220.625	-12.433	0.056	-0.037
-219.611	-62.303	0.111	-0.046
-218.596	62.550	0.102	-0.102
-217.582	-47.050	-0.238	-0.117
-216.567	64.596	-0.252	0.255
-215.552	-69.468	0.235	0.091
-214.538	291.364	0.155	0.283
-213.523	-200.000	0.027	0.122
-212.509	2.179	-0.103	0.075
-211.494	61.661	-0.085	-0.085
-210.479	800.000	-0.146	0.515
-209.465	-134.168	-0.046	-0.006
-208.450	130.824	0.220	-0.283
-207.436	4.302	-0.252	-0.185
-206.421	433.197	-0.122	-0.265
-205.406	278.351	0.158	-0.283
-204.392	191.895	-0.184	0.278
-203.377	52.132	-0.252	0.241
-202.363	-143.897	-0.344	-0.033
-201.348	-74.732	0.114	0.041
-200.333	-77.709	-0.117	0.041
-199.319	12.877	0.062	0.048
-198.304	-133.218	-0.085	0.011
-197.290	-159.040	-0.199	-0.011
-196.275	-200.000	0.030	0.352
-195.260	137.133	-0.129	0.169
-194.246	-126.915	-0.296	0.044
-193.231	-123.723	0.275	0.044
-192.217	-200.000	-0.037	-0.204
-191.202	-126.748	0.105	0.016
-190.187	396.166	0.058	-0.122
-189.173	800.000	0.029	-0.081
-188.158	145.753	-0.164	-0.220
-187.144	800.000	0.069	0.209
-186.129	-55.590	0.089	0.040
-185.114	158.349	0.077	-0.107
-184.100	149.155	-0.182	0.246
-183.085	-200.000	-0.032	0.165
-182.071	71.692	-0.150	-0.156
-181.056	701.378	0.105	0.278
-180.042	-63.912	0.328	0.135
-179.027	-71.272	-0.155	-0.058
-178.012	800.000	0.061	-0.171
-176.998	-53.899	0.151	0.069
-175.983	-122.666	-0.209	-0.034
-174.969	-114.721	-0.242	-0.046
-173.954	-200.000	0.087	0.461
-172.939	-200.000	-0.014	0.409
-171.925	28.995	0.215	-0.182
-170.910	286.427	-0.013	-0.023
-169.896	82.513	0.135	-0.147
-168.881	258.849	0.079	0.136
-167.866	-162.750	-0.014	0.001
-166.852	-92.897	0.113	0.032
-165.837	72.632	-0.159	0.166
-164.823	44.285	0.268	0.246
-163.808	-34.439	0.292	-0.160
-162.793	800.000	-0.135	-0.391
-161.779	51.135	-0.216	0.205
-160.764	110.579	-0.093	0.112
-159.750	-30.187	0.099	-0.056
-158.735	-200.000	0.021	0.216
-157.720	58.452	-0.143	-0.140
-156.706	428.403	-0.082	0.178
-155.691	76.788	0.109	-0.116
-154.677	-172.568	0.188	-0.006
-153.662	800.000	-0.022	-0.078
-152.647	-200.000	0.001	-0.297
-151.633	62.018	-0.136	0.135
-150.618	213.769	-0.098	0.155
-149.604	21.767	0.236	-0.192
-148.589	-71.102	-0.080	-0.030
-147.574	-200.000	-0.009	-0.414
-146.560	12.026	0.057	-0.044
-145.545	-11.428	0.063	0.041
-144.531	-200.000	0.005	0.093
-143.516	-146.340	0.194	0.017
-142.502	-200.000	0.023	0.219
-141.487	-126.391	-0.074	-0.011
-140.472	44.450	0.273	-0.251
-139.458	-21.197	0.239	-0.146
-138.443	-70.042	0.114	-0.044
-137.429	800.000	0.061	-0.188
-136.414	633.468	-0.138	0.350
-135.399	800.000	0.082	0.285
-134.385	535.556	0.080	0.189
-133.370	-17.995	-0.305	0.191
-132.356	-172.366	0.297	0.009
-131.341	127.719	0.222	-0.282
-130.326	-200.000	0.035	0.163
-129.312	800.000	-0.097	0.413
-128.297	38.397	0.403	0.359
-127.283	46.963	0.046	0.043
-126.268	22.262	-0.184	-0.150
-125.253	-108.909	0.085	-0.018
-124.239	-183.009	-0.124	0.002
-123.224	-10.956	-0.095	-0.063
-122.210	-135.560	0.350	0.042
-121.195	-200.000	0.011	0.067
