DTS Sentinel unit serial number:	SN413079Multiplexer serial number:	ORYXHardware model number:	OX4-SRSoftware version number:	ORYX F/W v4.00 Oryx Data Collector v3.7.2.0data status	okinstallation	princeton_trtdifferential loss correction	single-endedforward channel	channel 3reverse channel	N/Adate	2019/09/15time	06:08:35forward acquisition time	60.00reverse acquisition time	0.00gamma	496.2192k internal	0.2324k external	0.2324temperature offset calibration	0.9977default loss term (dB/km)	0.3790temperature slope calibration	1.0000multiplexer offset coefficient	1.0000multiplexer slope coefficient	1.0000fibre end	0.00T internal ref (°C)	30.56T ext. ref 1 (°C)	4.82T ext. ref 2 (°C)	25.09length (m)	temperature (°C)	Stokes	anti-Stokes-747.200	14.968	-0.272	0.215
-746.185	471.128	0.145	0.329
-745.171	-38.788	-0.178	0.095
-744.156	443.112	0.139	0.307
-743.142	-90.120	-0.250	0.073
-742.127	140.926	-0.228	0.305
-741.112	316.096	0.142	-0.270
-740.098	-126.902	-0.259	0.038
-739.083	-200.000	-0.011	0.056
-738.069	-93.435	-0.293	0.082
-737.054	184.996	-0.167	-0.249
-736.039	-54.001	-0.291	0.134
-735.025	-200.000	0.451	0.002
-734.010	89.605	-0.216	-0.243
-732.996	387.478	-0.139	0.290
-731.981	-200.000	0.016	-0.181
-730.966	-83.305	0.242	0.078
-729.952	70.989	0.052	0.055
-728.937	-200.000	-0.028	-0.164
-727.923	-72.195	-0.353	-0.132
-726.908	-28.851	0.058	0.034
-725.894	-200.000	-0.067	-0.496
-724.879	-200.000	-0.032	-0.172
-723.864	-61.253	-0.148	-0.063
-722.850	455.274	-0.025	-0.055
-721.835	63.833	-0.062	0.062
-720.821	800.000	-0.134	-0.436
-719.806	173.816	-0.154	0.224
-718.791	-200.000	-0.015	-0.300
-717.777	800.000	0.033	0.107
-716.762	-200.000	-0.006	-0.336
-715.748	47.328	-0.091	0.086
-714.733	588.213	0.086	0.214
-713.718	-132.075	0.146	0.019
-712.704	800.000	-0.046	-0.154
-711.689	176.773	-0.319	0.467
-710.675	519.881	0.045	0.105
-709.660	303.885	0.124	-0.231
-708.645	-200.000	0.009	-0.354
-707.631	-55.669	-0.183	0.083
-706.616	800.000	0.034	0.143
-705.602	-58.459	0.136	-0.059
-704.587	-200.000	-0.037	0.176
-703.572	-8.283	-0.238	-0.161
-702.558	-200.000	-0.002	0.133
-701.543	-136.688	0.387	-0.045
-700.529	-97.469	-0.103	-0.027
-699.514	-200.000	-0.084	-0.391
-698.499	-144.326	-0.262	-0.025
-697.485	-200.000	-0.028	0.274
-696.470	-114.304	-0.192	0.037
-695.456	-36.865	0.544	0.294
-694.441	11.914	-0.260	-0.201
-693.426	13.454	-0.113	-0.088
-692.412	-43.011	-0.200	0.102
-691.397	118.770	0.087	0.108
-690.383	61.030	-0.445	0.444
-689.368	-41.212	-0.155	0.081
-688.354	800.000	0.107	-0.299
-687.339	-53.323	-0.158	-0.073
-686.324	118.038	-0.201	-0.250
-685.310	341.545	0.169	-0.332
-684.295	275.193	0.194	-0.346
-683.281	-200.000	-0.012	-0.057
-682.266	160.707	-0.123	-0.173
-681.251	28.498	-0.381	-0.324
-680.237	-136.249	-0.178	0.021
-679.222	203.230	-0.065	0.101
-678.208	-156.664	-0.775	0.048
-677.193	-88.652	-0.145	0.043
-676.178	54.991	-0.046	0.045
-675.164	6.783	0.442	0.331
-674.149	187.305	-0.109	0.164
-673.135	-72.669	-0.279	0.103
-672.120	-173.116	0.232	0.007
-671.105	800.000	0.032	0.125
-670.091	-123.247	0.143	0.023
-669.076	419.777	-0.077	0.165
-668.062	771.475	-0.096	0.264
-667.047	-161.516	-0.128	-0.007
-666.032	-200.000	-0.005	-0.120
-665.018	-96.708	-0.239	0.063
-664.003	-200.000	0.020	-0.153
-662.989	698.229	0.024	0.064
-661.974	-143.389	0.139	0.013
-660.959	63.727	0.146	-0.147
-659.945	50.262	0.394	-0.374
-658.930	-116.052	-0.159	-0.030
-657.916	196.470	0.018	-0.028
-656.901	441.698	0.059	0.129
-655.886	800.000	-0.026	-0.087
-654.872	306.588	-0.138	0.258
-653.857	-14.588	-0.115	-0.074
-652.843	61.407	0.150	0.150
-651.828	277.904	0.180	0.323
-650.814	-34.275	-0.328	-0.181
-649.799	402.311	-0.016	-0.034
-648.784	-200.000	-0.023	0.271
-647.770	0.496	-0.421	-0.303
-646.755	7.991	0.279	-0.210
-645.741	-127.373	0.042	-0.006
-644.726	-200.000	-0.025	-0.265
-643.711	183.109	-0.136	-0.202
-642.697	285.077	-0.159	0.287
-641.682	64.435	0.144	-0.146
-640.668	-49.412	0.075	-0.036
-639.653	323.085	-0.088	0.168
-638.638	490.213	0.128	-0.294
-637.624	-135.520	-0.237	-0.028
-636.609	800.000	0.021	-0.088
-635.595	-103.354	-0.067	-0.016
-634.580	358.757	0.031	0.063
-633.565	-107.530	-0.130	-0.029
-632.551	-200.000	0.014	-0.205
-631.536	8.111	-0.124	-0.094
-630.522	-200.000	0.035	0.191
-629.507	-200.000	0.003	0.108
-628.492	69.881	0.136	-0.141
-627.478	-200.000	-0.015	-0.200
-626.463	207.935	-0.107	-0.168
-625.449	13.059	-0.125	-0.097
-624.434	132.503	-0.089	0.115
-623.419	-90.853	-0.085	-0.025
-622.405	-94.502	-0.061	-0.017
-621.390	42.293	-0.307	-0.280
-620.376	1.493	-0.118	0.085
-619.361	-194.254	-0.087	-0.001
-618.346	-155.765	-0.256	-0.016
-617.332	-200.000	0.014	0.137
-616.317	33.331	-0.218	0.190
-615.303	219.406	0.166	0.266
-614.288	10.300	0.049	-0.038
-613.273	-50.488	0.300	0.142
-612.259	151.214	0.046	0.063
-611.244	228.525	-0.159	-0.261
-610.230	103.746	0.110	-0.129
-609.215	366.247	-0.004	0.007
-608.201	-122.449	0.188	0.031
-607.186	-105.138	0.040	-0.009
-606.171	-200.000	0.017	-0.367
-605.157	-29.812	0.250	0.143
-604.142	-76.057	0.138	0.049
-603.128	-200.000	0.022	-0.320
-602.113	103.639	0.128	-0.150
-601.098	800.000	0.092	-0.280
-600.084	439.380	-0.150	-0.329
-599.069	-96.555	0.213	0.056
-598.055	-18.836	0.252	0.157
-597.040	-103.827	-0.186	0.044
-596.025	-61.584	-0.193	-0.081
-595.011	56.606	-0.189	-0.185
-593.996	287.397	-0.117	0.212
-592.982	-10.058	-0.024	0.016
-591.967	-145.421	0.096	0.009
-590.952	-127.779	-0.118	-0.017
-589.938	-37.358	0.296	0.159
-588.923	-22.474	0.197	-0.120
-587.909	77.699	-0.052	-0.055
-586.894	-103.395	0.296	-0.070
-585.879	253.450	-0.113	0.194
-584.865	-78.567	-0.302	0.104
-583.850	14.982	-0.187	-0.147
-582.836	-200.000	0.017	-0.274
-581.821	-91.426	0.181	-0.052
-580.806	6.338	0.112	0.083
-579.792	-148.468	0.111	-0.009
-578.777	-172.811	0.317	-0.010
-577.763	-200.000	0.004	0.030
-576.748	-2.327	-0.203	0.143
-575.733	-120.171	0.207	-0.035
-574.719	800.000	0.108	-0.333
-573.704	-29.049	0.091	0.052
-572.690	-45.188	-0.138	-0.069
-571.675	102.371	-0.029	-0.034
-570.661	241.697	-0.062	-0.104
-569.646	-126.707	-0.324	-0.048
-568.631	-200.000	0.027	-0.249
-567.617	800.000	-0.049	-0.156
-566.602	-23.668	-0.139	0.084
-565.588	-40.193	-0.182	-0.095
-564.573	-21.545	-0.369	-0.226
-563.558	37.051	0.366	0.325
-562.544	215.727	0.212	-0.337
-561.529	800.000	0.071	0.234
-560.515	-16.737	0.244	0.155
-559.500	800.000	-0.058	0.183
-558.485	159.719	-0.173	-0.241
-557.471	-5.510	-0.304	0.209
-556.456	35.483	-0.230	-0.203
-555.442	29.665	0.062	-0.053
-554.427	112.942	0.207	-0.252
-553.412	-200.000	-0.010	0.134
-552.398	-44.353	-0.313	0.157
-551.383	-35.440	-0.223	0.121
-550.369	-72.787	-0.125	0.046
-549.354	-200.000	0.020	-0.118
-548.339	-87.461	-0.183	-0.056
-547.325	76.123	-0.226	0.240
-546.310	-47.562	0.119	-0.058
-545.296	443.159	0.035	-0.077
-544.281	800.000	-0.052	0.155
-543.266	-46.893	0.240	0.117
-542.252	-83.936	0.290	-0.092
-541.237	-200.000	-0.026	-0.226
-540.223	800.000	0.092	-0.369
-539.208	-92.369	-0.720	0.203
-538.193	20.019	0.169	0.136
-537.179	-200.000	-0.076	0.351
-536.164	157.059	-0.308	-0.427
-535.150	-120.152	0.140	-0.024
-534.135	800.000	-0.036	-0.117
-533.121	-200.000	0.080	0.425
-532.106	-13.627	-0.146	-0.094
-531.091	-200.000	0.000	-0.178
-530.077	-88.685	0.216	0.064
-529.062	358.703	-0.084	0.168
-528.048	118.924	0.257	-0.318
-527.033	-25.612	-0.134	0.079
-526.018	-134.990	-0.434	-0.052
-525.004	800.000	-0.069	0.221
-523.989	-188.613	-0.159	0.002
-522.975	25.670	-0.080	-0.067
-521.960	-200.000	0.002	-0.037
-520.945	-200.000	0.033	0.294
-519.931	42.281	-0.191	-0.174
-518.916	-200.000	0.039	-0.334
-517.902	-108.999	0.145	0.031
-516.887	361.400	0.100	0.201
-515.872	-117.923	0.423	-0.076
-514.858	134.574	-0.074	-0.096
-513.843	-200.000	-0.047	-0.293
-512.829	-62.120	0.085	0.036
-511.814	-200.000	0.040	0.227
-510.799	-200.000	0.027	0.193
-509.785	-38.116	0.248	0.131
-508.770	-34.963	-0.125	0.068
-507.756	-200.000	-0.048	0.221
-506.741	-200.000	-0.024	-0.160
-505.726	118.519	0.118	0.146
-504.712	-39.083	0.361	0.190
-503.697	-200.000	0.009	-0.065
-502.683	-119.561	0.306	0.053
-501.668	-116.842	0.249	-0.046
-500.653	-18.742	-0.277	-0.172
-499.639	-45.267	-0.237	0.117
-498.624	-140.190	-0.065	-0.007
-497.610	-1.913	-0.120	0.084
-496.595	40.626	-0.090	-0.081
-495.581	-200.000	0.053	0.350
-494.566	-51.591	0.189	0.088
-493.551	167.931	0.153	0.218
-492.537	-143.658	-0.182	0.017
-491.522	-167.402	0.180	-0.007
-490.508	212.790	-0.105	-0.165
-489.493	-200.000	0.004	-0.075
-488.478	17.362	0.136	-0.108
-487.464	-122.003	-0.272	0.045
-486.449	-114.502	0.137	-0.026
-485.435	-77.170	-0.005	-0.002
-484.420	-62.096	-0.157	0.065
-483.405	-66.728	0.180	-0.071
-482.391	800.000	-0.059	-0.220
-481.376	-125.226	0.374	-0.057
-480.362	371.426	0.015	0.030
-479.347	20.201	-0.032	0.026
-478.332	65.462	0.127	-0.128
-477.318	361.735	0.064	-0.127
-476.303	-176.449	0.237	0.006
-475.289	-77.031	-0.181	0.063
-474.274	346.656	-0.142	0.278
-473.259	800.000	0.057	-0.184
-472.245	284.527	0.036	-0.064
-471.230	-200.000	-0.030	0.172
-470.216	-200.000	0.025	-0.146
-469.201	-18.570	-0.344	0.214
-468.186	505.168	0.111	0.256
-467.172	-81.726	0.160	-0.052
-466.157	-126.974	0.312	0.046
-465.143	539.617	-0.078	0.185
-464.128	-30.180	-0.304	-0.173
-463.113	38.228	-0.174	0.155
-462.099	-200.000	-0.017	-0.144
-461.084	-128.036	-0.320	-0.046
-460.070	-162.141	0.298	-0.015
-459.055	65.652	-0.193	0.195
-458.040	694.499	-0.057	-0.148
-457.026	-200.000	0.014	0.260
-456.011	310.189	-0.064	-0.119
-454.997	-57.699	-0.155	-0.068
-453.982	-35.529	0.194	0.105
-452.968	-200.000	-0.018	0.316
-451.953	111.649	-0.150	-0.181
-450.938	591.432	0.085	0.210
-449.924	321.033	0.149	-0.283
-448.909	186.110	0.186	0.277
-447.895	800.000	0.031	-0.088
-446.880	80.880	-0.154	-0.165
-445.865	800.000	0.088	-0.324
-444.851	-200.000	-0.053	0.236
-443.836	238.911	-0.145	0.241
-442.822	-14.724	0.161	0.103
-441.807	-8.178	0.099	0.067
-440.792	-97.674	-0.180	0.046
-439.778	-64.309	-0.083	-0.034
-438.763	-1.125	-0.408	-0.288
-437.749	800.000	-0.051	0.144
-436.734	770.475	-0.054	0.147
-435.719	-200.000	0.002	-0.180
-434.705	446.336	0.066	0.145
-433.690	-200.000	0.014	-0.131
-432.676	800.000	0.052	0.146
-431.661	-138.386	0.181	0.020
-430.646	-200.000	-0.002	-0.120
-429.632	-200.000	-0.005	-0.222
-428.617	293.393	0.068	0.123
-427.603	-88.662	0.469	0.139
-426.588	648.968	-0.123	-0.314
-425.573	-200.000	0.010	0.085
-424.559	-91.300	-0.143	-0.041
-423.544	-197.389	0.183	-0.001
-422.530	-176.965	-0.288	-0.007
-421.515	-200.000	-0.004	-0.084
-420.500	591.177	-0.084	0.206
-419.486	546.961	0.015	0.037
-418.471	-77.203	-0.274	0.095
-417.457	550.126	0.032	-0.077
-416.442	365.371	-0.164	-0.329
-415.428	-125.739	-0.213	-0.032
-414.413	800.000	0.101	-0.368
-413.398	800.000	0.045	-0.140
-412.384	-47.628	0.134	0.065
-411.369	209.933	-0.170	-0.266
-410.355	-22.280	-0.138	-0.084
-409.340	-110.219	0.047	0.010
-408.325	-200.000	0.056	-0.355
-407.311	-21.849	-0.187	0.113
-406.296	689.143	0.103	0.268
-405.282	-129.503	0.045	-0.006
-404.267	464.591	-0.071	-0.159
-403.252	-200.000	-0.030	-0.230
-402.238	-200.000	-0.024	0.192
-401.223	59.673	-0.123	0.121
-400.209	64.939	0.226	-0.227
-399.194	250.051	-0.075	-0.126
-398.179	574.126	0.072	0.175
-397.165	800.000	0.001	0.002
-396.150	44.161	0.139	0.127
-395.136	-121.272	-0.185	0.031
-394.121	-153.380	-0.137	-0.009
-393.106	-0.781	-0.035	0.025
-392.092	-72.630	0.170	0.062
-391.077	-200.000	0.091	-0.434
-390.063	190.937	-0.109	-0.163
-389.048	-72.611	0.211	-0.077
-388.033	-152.590	-0.353	0.025
-387.019	-71.968	0.167	-0.062
-386.004	-200.000	0.013	0.110
-384.990	85.126	-0.292	0.319
-383.975	-132.619	-0.093	-0.012
-382.960	247.613	-0.080	0.135
-381.946	123.509	0.134	-0.168
-380.931	782.086	-0.036	0.098
-379.917	-93.680	-0.122	0.034
-378.902	800.000	0.019	0.075
-377.888	36.790	0.186	-0.164
-376.873	-66.253	0.255	-0.101
-375.858	-179.707	0.008	0.000
-374.844	-66.886	-0.175	-0.069
-373.829	-93.290	-0.230	0.063
-372.815	800.000	0.055	0.208
-371.800	-97.454	0.306	0.079
-370.785	-39.801	0.121	0.063
-369.771	-9.037	0.227	0.151
-368.756	800.000	0.063	0.204
-367.742	-69.623	-0.264	0.100
-366.727	-200.000	-0.069	-0.312
-365.712	784.204	-0.086	-0.235
-364.698	800.000	-0.040	0.154
-363.683	73.712	-0.222	-0.231
-362.669	-63.959	-0.124	-0.050
-361.654	-114.157	-0.223	0.043
-360.639	113.016	0.114	-0.138
-359.625	-11.497	-0.013	-0.008
-358.610	800.000	-0.015	-0.044
-357.596	-29.405	0.354	0.201
-356.581	-40.633	-0.065	-0.034
-355.566	117.363	-0.235	-0.287
-354.552	211.192	-0.043	-0.068
-353.537	-92.861	-0.274	-0.076
-352.523	-167.786	0.224	0.009
-351.508	-141.329	-0.084	0.008
-350.493	85.532	0.065	0.071
-349.479	-200.000	-0.002	-0.117
-348.464	73.556	0.288	-0.300
-347.450	-200.000	0.002	0.175
-346.435	458.184	-0.094	-0.207
-345.420	428.801	0.045	0.097
-344.406	-200.000	-0.019	0.222
-343.391	-200.000	-0.017	0.128
-342.377	-200.000	0.017	-0.081
-341.362	209.748	0.133	-0.207
-340.348	-109.756	0.071	-0.015
-339.333	-185.462	-0.129	0.002
-338.318	-200.000	-0.082	0.377
-337.304	-200.000	0.041	0.460
-336.289	-200.000	-0.029	0.236
-335.275	800.000	0.182	-0.508
-334.260	-99.980	-0.122	-0.030
-333.245	-59.426	-0.172	-0.073
-332.231	142.730	0.100	0.132
-331.216	43.222	0.126	0.114
-330.202	37.704	-0.171	0.151
-329.187	-28.897	-0.049	-0.028
-328.172	480.459	-0.114	0.257
-327.158	253.555	-0.081	-0.137
-326.143	328.787	0.068	-0.129
-325.129	-200.000	-0.038	-0.376
-324.114	-200.000	0.046	0.320
-323.099	114.690	-0.072	-0.087
-322.085	-162.965	-0.309	0.015
-321.070	800.000	0.014	0.054
-320.056	114.880	-0.136	-0.165
-319.041	288.058	0.059	0.106
-318.026	-200.000	-0.019	-0.330
-317.012	-66.658	-0.080	-0.031
-315.997	-73.946	-0.267	-0.096
-314.983	132.761	0.184	-0.236
-313.968	15.988	-0.101	-0.079
-312.953	-200.000	-0.007	0.140
-311.939	-99.261	0.324	-0.081
-310.924	120.229	0.203	-0.250
-309.910	-191.746	0.298	-0.003
-308.895	217.180	-0.090	0.143
-307.880	-48.527	-0.231	-0.110
-306.866	36.678	0.373	0.327
-305.851	319.267	-0.034	0.064
-304.837	66.834	-0.241	0.243
-303.822	800.000	-0.025	0.094
-302.807	-142.106	0.112	0.011
-301.793	124.349	-0.123	0.154
-300.778	-200.000	-0.015	-0.141
-299.764	800.000	-0.035	-0.141
-298.749	240.335	0.066	0.109
-297.735	-106.926	0.159	-0.035
-296.720	-1.847	0.042	0.029
-295.705	-200.000	-0.130	0.595
-294.691	103.067	0.184	0.214
-293.676	-200.000	-0.072	0.000
-292.662	300.739	-0.075	-0.137
-291.647	-83.665	-0.282	-0.089
-290.632	-128.251	0.307	-0.043
-289.618	-66.214	-0.212	-0.084
-288.603	-168.070	-0.162	0.006
-287.589	20.482	0.058	-0.047
-286.574	-108.698	-0.388	0.083
-285.559	800.000	0.021	0.065
-284.545	316.069	-0.081	-0.151
-283.530	-44.391	0.387	-0.192
-282.516	752.619	-0.039	-0.106
-281.501	-119.151	0.163	-0.028
-280.486	-200.000	-0.025	-0.138
-279.472	-1.082	0.195	-0.137
-278.457	-111.320	0.185	-0.037
-277.443	-2.565	0.155	0.107
-276.428	-200.000	-0.020	-0.408
-275.413	66.032	0.190	0.191
-274.399	-114.549	0.366	-0.070
-273.384	-134.674	0.215	-0.026
-272.370	800.000	0.071	0.224
-271.355	3.663	-0.106	0.076
-270.340	-200.000	-0.018	-0.112
-269.326	-26.645	-0.356	0.207
-268.311	-169.064	0.108	-0.004
-267.297	-200.000	-0.023	-0.132
-266.282	569.645	-0.053	0.127
-265.267	462.632	0.190	-0.421
-264.253	-100.939	0.178	-0.043
-263.238	-71.586	0.544	0.201
-262.224	-3.104	0.191	-0.132
-261.209	39.869	0.180	-0.160
-260.195	233.917	0.069	-0.113
-259.180	19.183	0.228	-0.181
-258.165	-96.135	-0.405	0.106
-257.151	-14.290	-0.140	0.089
-256.136	2.561	-0.173	0.124
-255.122	-32.253	0.172	0.095
-254.107	-6.100	0.145	0.098
-253.092	-17.611	0.132	0.082
-252.078	-3.170	0.119	0.082
-251.063	-20.042	-0.238	0.145
-250.049	503.615	0.112	0.256
-249.034	-63.823	0.268	0.109
-248.019	169.889	0.046	-0.065
-247.005	2.960	-0.101	0.072
-245.990	-200.000	0.094	0.586
-244.976	-53.667	-0.046	-0.021
-243.961	-200.000	-0.009	0.333
-242.946	401.092	-0.147	0.305
-241.932	-105.304	0.237	0.053
-240.917	-200.000	0.036	0.258
-239.903	-200.000	0.049	0.289
-238.888	29.441	-0.213	0.180
-237.873	167.326	0.074	0.104
-236.859	582.978	0.059	0.144
-235.844	46.391	-0.174	0.160
-234.830	-157.910	-0.349	-0.020
-233.815	-81.039	-0.294	-0.096
-232.800	90.850	-0.159	0.176
-231.786	-200.000	0.027	-0.135
-230.771	-96.149	0.186	-0.049
-229.757	157.857	0.096	-0.131
-228.742	222.427	0.146	-0.233
-227.727	-200.000	-0.013	0.355
-226.713	194.449	0.179	-0.269
-225.698	-23.372	0.020	-0.012
-224.684	-141.192	0.064	0.006
-223.669	-32.092	-0.188	-0.104
-222.655	-40.613	0.121	-0.062
-221.640	800.000	-0.074	-0.312
-220.625	800.000	0.073	0.251
-219.611	-200.000	0.003	0.664
-218.596	-109.361	-0.160	-0.033
-217.582	328.223	-0.142	-0.269
-216.567	762.629	0.064	0.172
-215.552	-78.556	-0.235	-0.080
-214.538	800.000	-0.080	0.283
-213.523	800.000	0.091	0.328
-212.509	800.000	0.038	0.146
-211.494	-134.479	0.224	-0.027
-210.479	-15.901	-0.042	0.026
-209.465	205.322	0.122	-0.187
-208.450	306.612	0.045	0.083
-207.436	-112.210	0.056	0.011
-206.421	37.921	-0.034	-0.030
-205.406	177.249	0.054	-0.077
-204.392	-134.601	-0.375	0.045
-203.377	587.796	0.058	-0.142
-202.363	-50.240	-0.201	-0.094
-201.348	-47.215	0.212	0.102
-200.333	-169.896	0.274	0.010
-199.319	-5.625	0.146	-0.099
-198.304	-44.335	-0.283	0.140
-197.290	-49.170	0.447	0.211
-196.275	-137.477	-0.277	-0.031
-195.260	-108.562	-0.278	0.059
-194.246	-28.778	-0.065	-0.037
-193.231	-164.978	-0.028	0.001
-192.217	-97.306	-0.309	0.080
-191.202	800.000	0.043	0.139
-190.187	-200.000	-0.041	-0.278
-189.173	-127.656	0.163	0.023
-188.158	62.047	0.191	-0.188
-187.144	800.000	0.061	0.233
-186.129	-86.295	0.307	-0.093
-185.114	-10.979	0.147	0.096
-184.100	85.533	-0.075	-0.082
-183.085	-200.000	-0.012	-0.145
-182.071	762.757	0.048	-0.128
-181.056	115.832	-0.056	0.068
-180.042	781.475	-0.057	0.153
-179.027	-117.957	0.171	0.030
-178.012	-111.624	0.090	0.018
-176.998	-129.733	0.162	-0.022
-175.983	-177.895	-0.174	-0.004
-174.969	-78.445	0.106	0.036
-173.954	83.333	-0.191	0.205
-172.939	282.676	0.106	0.187
-171.925	-200.000	0.020	-0.128
-170.910	182.048	0.258	0.375
-169.896	126.861	-0.190	-0.238
-168.881	375.450	0.157	0.315
-167.866	-45.392	-0.170	0.083
-166.852	-118.656	0.321	-0.056
-165.837	800.000	0.130	-0.468
-164.823	81.104	-0.260	0.276
-163.808	122.846	0.181	-0.223
-162.793	280.911	-0.051	0.090
-161.779	800.000	0.065	-0.190
-160.764	-109.355	0.207	-0.043
-159.750	218.411	-0.138	0.218
-158.735	-42.185	0.144	-0.073
-157.720	-8.975	0.103	-0.068
-156.706	740.549	-0.065	0.172
-155.691	800.000	0.087	-0.325
-154.677	541.481	-0.029	0.068
-153.662	82.301	-0.018	0.019
-152.647	85.063	0.077	-0.084
-151.633	-72.262	-0.230	0.084
-150.618	-200.000	0.009	0.230
-149.604	-200.000	0.002	0.014
-148.589	-109.275	0.165	0.034
-147.574	-200.000	0.023	0.130
-146.560	239.767	0.043	0.070
-145.545	-21.705	0.181	-0.109
-144.531	328.117	-0.078	0.148
-143.516	-84.521	0.157	-0.049
-142.502	-102.973	0.142	0.033
-141.487	-18.012	0.183	-0.113
-140.472	-163.793	-0.287	0.013
-139.458	-200.000	0.059	0.316
-138.443	-200.000	0.017	0.181
-137.429	-128.800	-0.146	-0.020
-136.414	-148.058	0.122	0.010
-135.399	42.373	-0.134	-0.120
-134.385	619.260	0.068	0.169
-133.370	486.174	0.068	0.154
-132.356	54.478	-0.031	0.030
-131.341	49.673	0.085	0.079
-130.326	149.760	-0.116	0.155
-129.312	-200.000	0.089	0.463
-128.297	252.415	0.030	0.050
-127.283	53.749	-0.260	0.246
-126.268	-19.532	-0.034	0.021
-125.253	-200.000	-0.011	0.195
-124.239	-200.000	-0.017	0.376
-123.224	19.856	-0.020	0.016
-122.210	-70.605	-0.251	0.094
