DTS Sentinel unit serial number:	SN413079Multiplexer serial number:	ORYXHardware model number:	OX4-SRSoftware version number:	ORYX F/W v4.00 Oryx Data Collector v3.7.2.0data status	okinstallation	princeton_trtdifferential loss correction	single-endedforward channel	channel 3reverse channel	N/Adate	2019/09/12time	19:03:03forward acquisition time	15.00reverse acquisition time	0.00gamma	496.2192k internal	0.2319k external	0.2319temperature offset calibration	1.0090default loss term (dB/km)	0.3790temperature slope calibration	1.0000multiplexer offset coefficient	1.0000multiplexer slope coefficient	1.0000fibre end	0.00T internal ref (°C)	32.69T ext. ref 1 (°C)	3.02T ext. ref 2 (°C)	27.28length (m)	temperature (°C)	Stokes	anti-Stokes-747.200	1.526	-0.426	-0.310
-746.185	-61.434	-0.837	0.356
-745.171	800.000	0.089	-0.377
-744.156	360.054	0.360	-0.730
-743.142	582.737	0.209	0.520
-742.127	800.000	0.130	-0.511
-741.112	217.906	0.162	-0.261
-740.098	11.259	-0.239	0.185
-739.083	-14.912	-0.726	-0.471
-738.069	-24.523	0.387	-0.233
-737.054	-91.236	-0.316	0.091
-736.039	-109.375	0.261	0.056
-735.025	28.857	0.441	-0.378
-734.010	144.585	-0.080	0.108
-732.996	531.902	-0.203	-0.485
-731.981	140.577	-0.055	-0.074
-730.966	32.820	0.235	-0.205
-729.952	169.341	-0.486	-0.701
-728.937	-132.166	0.135	0.018
-727.923	594.634	-0.062	-0.156
-726.908	-14.430	-0.528	0.344
-725.894	800.000	0.190	0.575
-724.879	-13.216	-0.448	-0.294
-723.864	301.905	0.294	-0.549
-722.850	107.965	-0.153	-0.184
-721.835	-61.383	-0.114	-0.048
-720.821	286.397	-0.524	-0.956
-719.806	800.000	0.192	0.639
-718.791	58.297	-0.167	0.166
-717.777	-200.000	-0.036	0.163
-716.762	-8.307	-0.381	0.259
-715.748	-60.468	0.274	0.117
-714.733	176.276	0.295	-0.432
-713.718	-89.880	0.264	0.078
-712.704	800.000	-0.182	-0.758
-711.689	304.800	0.379	0.712
-710.675	588.687	0.145	-0.362
-709.660	-42.842	-0.447	-0.230
-708.645	-164.710	0.448	-0.020
-707.631	-200.000	0.168	-0.982
-706.616	-200.000	0.020	-0.242
-705.602	-85.531	0.344	0.108
-704.587	-132.902	-0.695	-0.089
-703.572	131.654	-0.290	-0.377
-702.558	800.000	0.053	-0.154
-701.543	-80.188	0.525	-0.177
-700.529	800.000	-0.386	-1.110
-699.514	-200.000	-0.012	-1.024
-698.499	-156.982	0.697	0.043
-697.485	-200.000	0.037	-0.676
-696.470	800.000	0.320	1.301
-695.456	-111.622	-0.467	-0.096
-694.441	7.515	-0.313	0.237
-693.426	774.434	-0.085	0.233
-692.412	64.682	-0.249	-0.254
-691.397	96.786	0.372	0.431
-690.383	550.559	0.139	0.336
-689.368	331.797	0.311	0.605
-688.354	-39.239	-0.536	0.284
-687.339	-67.839	0.669	0.264
-686.324	108.820	0.691	0.834
-685.310	40.803	-0.260	0.237
-684.295	782.848	0.203	0.562
-683.281	-61.875	-0.763	0.322
-682.266	800.000	0.125	-0.477
-681.251	303.670	-0.231	0.432
-680.237	148.619	-0.242	0.330
-679.222	800.000	0.083	-0.305
-678.208	108.222	-0.350	0.421
-677.193	-200.000	0.057	-0.394
-676.178	5.689	-0.169	0.126
-675.164	-67.762	-1.019	-0.402
-674.149	-80.669	0.029	0.010
-673.135	-200.000	-0.024	0.411
-672.120	-200.000	-0.106	0.494
-671.105	-69.204	0.444	-0.172
-670.091	-200.000	0.099	-0.767
-669.076	70.795	0.488	0.510
-668.062	-200.000	0.083	-0.461
-667.047	-45.465	0.522	-0.261
-666.032	800.000	0.008	0.028
-665.018	-40.349	-0.281	-0.147
-664.003	400.857	-0.422	-0.894
-662.989	-102.520	-0.286	0.069
-661.974	800.000	-0.105	-0.319
-660.959	223.779	0.307	-0.499
-659.945	-2.812	0.434	-0.306
-658.930	120.593	0.198	-0.248
-657.916	-200.000	-0.049	0.421
-656.901	8.826	-0.484	0.368
-655.886	-29.809	-0.802	-0.461
-654.872	-200.000	-0.171	1.013
-653.857	-153.129	0.993	-0.070
-652.843	65.668	0.414	-0.422
-651.828	50.033	-0.455	-0.432
-650.814	-200.000	0.037	0.559
-649.799	-200.000	-0.078	0.575
-648.784	-145.309	-0.602	-0.055
-647.770	-200.000	-0.058	-0.379
-646.755	-114.044	1.192	-0.233
-645.741	21.715	0.700	-0.574
-644.726	-71.489	-0.248	0.093
-643.711	-120.139	-0.774	-0.133
-642.697	201.092	0.103	0.160
-641.682	-200.000	0.060	-0.326
-640.668	51.605	-0.430	0.412
-639.653	-60.526	-0.428	-0.183
-638.638	118.535	0.508	-0.631
-637.624	232.491	-0.086	-0.143
-636.609	-200.000	-0.110	-0.632
-635.595	-44.370	-0.326	-0.165
-634.580	-200.000	0.072	0.449
-633.565	315.581	0.110	-0.209
-632.551	-106.434	0.354	0.080
-631.536	-51.216	0.691	0.326
-630.522	-80.022	0.444	0.150
-629.507	45.016	0.050	-0.047
-628.492	-173.958	1.023	0.030
-627.478	-200.000	0.167	-0.973
-626.463	800.000	-0.272	0.921
-625.449	-169.693	-0.627	-0.023
-624.434	-82.212	0.085	0.028
-623.419	48.076	-0.130	0.122
-622.405	90.559	0.106	-0.120
-621.390	-200.000	-0.054	-0.589
-620.376	109.102	-0.250	-0.301
-619.361	-200.000	0.018	-0.132
-618.346	-10.577	-0.263	0.175
-617.332	-104.021	0.750	-0.176
-616.317	384.658	-0.124	0.258
-615.303	-200.000	-0.006	0.032
-614.288	572.068	-0.284	-0.697
-613.273	800.000	-0.058	-0.254
-612.259	1.436	-0.185	-0.134
-611.244	-75.111	-0.757	0.273
-610.230	328.350	0.120	-0.232
-609.215	-18.010	-0.204	0.129
-608.201	256.351	-0.343	-0.593
-607.186	169.538	0.241	0.347
-606.171	-104.658	0.380	-0.088
-605.157	-84.956	-0.805	0.254
-604.142	56.012	1.035	-1.011
-603.128	670.582	-0.165	-0.430
-602.113	-114.043	0.189	-0.037
-601.098	215.422	-0.206	0.329
-600.084	-115.344	0.255	0.048
-599.069	-200.000	0.111	0.634
-598.055	138.451	0.266	-0.351
-597.040	220.911	-0.645	1.041
-596.025	80.658	-0.193	-0.209
-595.011	800.000	-0.068	0.289
-593.996	800.000	0.224	-0.737
-592.982	-33.377	-0.230	-0.128
-591.967	-140.242	0.760	-0.080
-590.952	-84.791	0.473	-0.150
-589.938	-129.851	0.235	-0.032
-588.923	38.769	-0.262	0.235
-587.909	122.754	0.040	-0.050
-586.894	77.738	-0.437	0.468
-585.879	118.822	-0.648	0.806
-584.865	-200.000	-0.167	-1.092
-583.850	162.163	0.222	-0.313
-582.836	790.073	-0.161	-0.446
-581.821	160.783	-0.281	0.394
-580.806	101.998	0.137	-0.161
-579.792	211.668	0.205	-0.325
-578.777	71.280	0.422	0.440
-577.763	-18.322	-1.219	0.766
-576.748	-137.305	0.884	0.101
-575.733	464.892	0.285	0.641
-574.719	495.137	0.074	0.171
-573.704	89.617	0.294	0.330
-572.690	244.205	0.193	0.325
-571.675	-200.000	0.035	-0.279
-570.661	34.112	0.534	0.467
-569.646	176.400	0.687	-1.004
-568.631	-127.041	-0.513	-0.076
-567.617	-200.000	0.011	-0.132
-566.602	41.438	0.506	-0.460
-565.588	342.014	-0.241	0.474
-564.573	-103.894	1.175	0.276
-563.558	-53.833	-0.626	0.287
-562.544	75.546	0.135	0.143
-561.529	-121.097	-0.240	-0.040
-560.515	-25.737	0.542	-0.321
-559.500	-58.910	1.021	-0.443
-558.485	-200.000	-0.105	0.579
-557.471	176.214	-0.157	0.230
-556.456	487.784	0.301	-0.690
-555.442	-25.243	-0.237	-0.141
-554.427	-200.000	-0.164	0.865
-553.412	800.000	-0.119	-0.383
-552.398	282.779	0.258	0.464
-551.383	119.825	0.222	0.276
-550.369	71.833	0.427	-0.446
-549.354	-82.852	-0.807	-0.262
-548.339	22.621	0.345	-0.284
-547.325	-200.000	0.088	-0.464
-546.310	24.807	0.320	-0.266
-545.296	119.053	-0.234	-0.290
-544.281	726.096	-0.304	0.813
-543.266	800.000	-0.267	0.876
-542.252	505.995	0.463	1.076
-541.237	-33.008	0.221	0.123
-540.223	84.873	-0.341	-0.376
-539.208	168.895	-0.351	-0.503
-538.193	-90.118	-0.210	-0.061
-537.179	800.000	-0.127	0.415
-536.164	-19.699	0.315	0.196
-535.150	100.288	0.339	-0.394
-534.135	-64.402	-0.507	0.207
-533.121	732.327	0.375	-1.008
-532.106	-200.000	-0.044	0.276
-531.091	81.482	-0.158	-0.172
-530.077	-84.390	0.310	0.098
-529.062	-129.823	0.689	0.095
-528.048	-141.421	0.053	-0.005
-527.033	423.648	-0.494	1.066
-526.018	15.174	-0.330	-0.259
-525.004	-27.428	-0.811	0.473
-523.989	110.488	-0.082	0.099
-522.975	56.713	-0.497	-0.486
-521.960	800.000	-0.098	-0.389
-520.945	-47.145	0.120	0.058
-519.931	-180.355	0.360	0.008
-518.916	-98.678	-0.295	-0.075
-517.902	-171.241	-0.843	0.028
-516.887	-31.518	-0.431	-0.243
-515.872	26.235	0.368	0.308
-514.858	169.729	-0.569	0.816
-513.843	800.000	0.158	-0.461
-512.829	-200.000	0.080	0.693
-511.814	1.641	-0.077	0.056
-510.799	489.448	-0.153	0.351
-509.785	-173.131	0.504	-0.016
-508.770	-140.922	0.847	-0.087
-507.756	800.000	-0.244	-1.006
-506.741	391.712	0.045	-0.094
-505.726	138.869	-0.289	0.381
-504.712	-132.424	-0.101	0.013
-503.697	-152.515	0.154	0.011
-502.683	260.178	0.276	0.478
-501.668	329.629	0.225	-0.434
-500.653	800.000	-0.087	0.248
-499.639	43.478	0.535	0.490
-498.624	-200.000	-0.040	0.402
-497.610	-96.357	-0.830	0.220
-496.595	49.784	0.415	-0.392
-495.581	-87.853	-0.488	-0.147
-494.566	-200.000	-0.016	-0.432
-493.551	317.845	0.435	0.824
-492.537	623.586	-0.060	0.152
-491.522	403.777	0.210	0.442
-490.508	741.394	0.055	-0.148
-489.493	-26.082	0.319	0.188
-488.478	176.456	-0.160	-0.234
-487.464	-61.679	0.561	-0.235
-486.449	800.000	0.231	0.874
-485.435	-165.650	0.296	0.013
-484.420	800.000	-0.242	-1.005
-483.405	274.876	-0.386	-0.685
-482.391	-200.000	-0.068	-0.667
-481.376	36.243	0.221	0.195
-480.362	210.515	-0.129	0.202
-479.347	-112.755	0.898	-0.179
-478.332	800.000	-0.182	-0.797
-477.318	8.893	0.481	-0.363
-476.303	-60.975	0.340	-0.144
-475.289	-121.942	-0.370	0.061
-474.274	47.000	0.318	-0.296
-473.259	2.007	0.732	0.529
-472.245	-200.000	0.013	0.123
-471.230	-80.044	0.415	0.139
-470.216	116.396	-0.148	0.181
-469.201	350.663	-0.404	-0.799
-468.186	-102.226	-0.338	-0.081
-467.172	-85.337	0.589	-0.184
-466.157	122.715	0.726	-0.908
-465.143	-76.294	0.670	0.236
-464.128	-200.000	-0.004	0.503
-463.113	272.946	-0.246	0.434
-462.099	-200.000	-0.079	0.477
-461.084	-98.683	-0.128	0.033
-460.070	-26.036	0.523	0.308
-459.055	-46.750	0.501	0.245
-458.040	52.133	-0.535	0.510
-457.026	-200.000	0.029	-0.936
-456.011	800.000	-0.109	0.419
-454.997	800.000	-0.080	0.273
-453.982	800.000	-0.404	-1.248
-452.968	-186.949	-0.276	-0.004
-451.953	198.924	0.048	0.074
-450.938	44.781	0.178	-0.164
-449.924	800.000	-0.140	0.525
-448.909	2.001	-0.314	-0.226
-447.895	-3.992	0.237	0.165
-446.880	-200.000	0.085	0.786
-445.865	-21.918	0.087	0.053
-444.851	22.856	-0.723	-0.592
-443.836	800.000	0.084	0.250
-442.822	-66.993	0.748	0.295
-441.807	-65.538	-0.721	0.289
-440.792	800.000	-0.153	0.462
-439.778	800.000	0.100	0.317
-438.763	-195.092	0.756	0.006
-437.749	-29.639	-0.131	0.075
-436.734	199.004	0.315	-0.483
-435.719	117.646	-0.360	-0.443
-434.705	-62.043	0.711	0.297
-433.690	16.505	-0.103	-0.082
-432.676	-8.954	-0.248	0.166
-431.661	365.158	-0.047	-0.094
-430.646	733.366	-0.168	0.448
-429.632	-200.000	-0.001	-0.943
-428.617	-129.248	0.385	-0.054
-427.603	800.000	0.163	-0.488
-426.588	-122.661	-0.987	0.160
-425.573	-104.307	-0.681	-0.158
-424.559	11.929	-0.255	-0.195
-423.544	115.455	-0.067	0.082
-422.530	71.660	-0.716	0.743
-421.515	441.632	0.126	0.276
-420.500	-200.000	0.023	-0.786
-419.486	800.000	-0.323	-1.067
-418.471	28.504	-0.997	-0.842
-417.457	28.598	0.626	0.529
-416.442	-75.332	-0.407	-0.145
-415.428	-200.000	-0.005	0.782
-414.413	800.000	0.093	0.314
-413.398	-200.000	-0.053	-0.542
-412.384	-17.722	0.603	-0.378
-411.369	-9.500	-0.061	0.041
-410.355	29.941	0.091	0.077
-409.340	-50.356	0.619	0.292
-408.325	-176.869	-0.487	0.012
-407.311	-76.918	0.602	-0.210
-406.296	-200.000	0.096	-0.575
-405.282	-66.433	0.495	0.197
-404.267	-32.817	0.687	-0.381
-403.252	2.205	-0.477	-0.344
-402.238	74.773	0.356	0.374
-401.223	-120.249	-0.642	-0.109
-400.209	-130.899	-0.337	-0.045
-399.194	-19.978	-0.087	0.054
-398.179	319.547	-0.564	-1.067
-397.165	-99.575	0.704	-0.177
-396.150	-147.200	-0.621	0.053
-395.136	800.000	-0.163	-0.663
-394.121	335.910	0.266	-0.516
-393.106	-200.000	0.468	0.001
-392.092	-98.675	-0.829	0.211
-391.077	72.083	-0.207	0.215
-390.063	86.939	0.168	-0.185
-389.048	-128.030	0.257	0.037
-388.033	-69.446	0.393	0.150
-387.019	-200.000	-0.047	0.362
-386.004	-200.000	0.055	0.344
-384.990	-71.325	-0.652	0.244
-383.975	-200.000	0.001	-0.311
-382.960	-200.000	0.104	-0.595
-381.946	21.539	-0.517	-0.420
-380.931	800.000	-0.128	0.482
-379.917	-175.260	0.375	0.010
-378.902	-64.724	0.776	-0.314
-377.888	-200.000	-0.160	-0.796
-376.873	35.285	0.457	-0.400
-375.858	8.466	-0.426	-0.320
-374.844	-172.713	0.732	0.023
-373.829	237.405	0.097	-0.160
-372.815	496.176	-0.415	-0.950
-371.800	-0.873	-0.426	-0.301
-370.785	58.058	0.181	-0.177
-369.771	-31.212	-0.566	-0.318
-368.756	-48.734	-0.425	0.203
-367.742	-0.350	-0.275	-0.195
-366.727	-161.211	0.050	-0.003
-365.712	-90.851	0.181	-0.052
-364.698	-19.984	-0.801	0.493
-363.683	728.916	-0.237	-0.632
-362.669	800.000	0.292	1.084
-361.654	62.647	0.202	0.202
-360.639	800.000	-0.152	-0.481
-359.625	136.055	0.332	0.431
-358.610	-77.200	-0.451	-0.157
-357.596	-57.464	0.377	0.165
-356.581	-125.476	0.607	0.092
-355.566	-6.528	-0.287	-0.195
-354.552	34.399	0.749	0.651
-353.537	185.001	0.214	0.316
-352.523	18.967	0.887	-0.708
-351.508	253.569	0.216	0.367
-350.493	-122.523	-0.715	0.116
-349.479	-200.000	0.033	0.411
-348.464	237.257	0.478	-0.790
-347.450	-200.000	-0.034	-0.709
-346.435	105.269	-0.295	-0.347
-345.420	-132.812	0.625	-0.080
-344.406	-200.000	0.080	1.148
-343.391	-33.197	-0.607	0.335
-342.377	-34.384	0.698	-0.381
-341.362	407.004	0.489	1.028
-340.348	292.837	0.122	0.221
-339.333	-200.000	-0.022	0.176
-338.318	147.951	-0.354	-0.475
-337.304	-120.963	0.183	-0.031
-336.289	32.034	0.382	-0.328
-335.275	-17.108	-0.559	-0.351
-334.260	38.887	0.778	-0.692
-333.245	-200.000	0.043	-0.520
-332.231	-123.620	0.591	-0.093
-331.216	762.116	-0.293	0.792
-330.202	25.502	0.402	0.333
-329.187	244.817	0.286	0.479
-328.172	-52.799	0.289	0.132
-327.158	368.096	-0.205	0.412
-326.143	-169.751	-0.221	-0.008
-325.129	73.479	-0.652	-0.679
-324.114	-123.999	0.484	-0.076
-323.099	-30.862	-0.635	-0.357
-322.085	-136.213	-1.104	-0.128
-321.070	524.351	-0.473	-1.106
-320.056	238.020	0.218	-0.360
-319.041	742.483	-0.307	0.820
-318.026	62.371	-0.451	-0.448
-317.012	102.028	0.527	-0.612
-315.997	529.480	0.135	0.316
-314.983	-200.000	0.071	0.385
-313.968	619.346	-0.077	-0.192
-312.953	-58.673	-0.401	-0.173
-311.939	800.000	0.149	-0.508
-310.924	436.956	-0.403	0.872
-309.910	-72.648	-0.583	-0.214
-308.895	-77.957	-0.066	-0.023
-307.880	141.799	0.162	-0.214
-306.866	-56.323	0.284	0.125
-305.851	3.352	0.157	0.114
-304.837	12.096	-0.573	-0.438
-303.822	-200.000	0.074	1.206
-302.807	231.809	-0.314	0.513
-301.793	-200.000	-0.000	0.070
-300.778	-140.329	-0.523	0.054
-299.764	800.000	-0.099	-0.410
-298.749	98.507	0.255	0.293
-297.735	-38.908	-0.870	0.456
-296.720	-76.104	0.477	0.168
-295.705	474.637	0.249	-0.558
-294.691	800.000	0.081	0.242
-293.676	-84.502	-1.026	0.322
-292.662	-87.227	0.747	-0.226
-291.647	-200.000	0.032	0.260
-290.632	115.693	0.391	0.475
-289.618	0.587	-0.225	-0.160
-288.603	-17.845	-0.768	-0.479
-287.589	-24.883	0.227	0.134
-286.574	-81.155	0.735	0.242
-285.559	10.549	-0.529	0.401
-284.545	800.000	0.045	0.137
-283.530	12.517	0.273	0.209
-282.516	239.153	0.146	0.241
-281.501	-41.189	-0.464	-0.238
-280.486	-19.209	0.208	-0.128
-279.472	225.491	0.268	-0.431
-278.457	-18.177	0.480	-0.298
-277.443	6.114	0.457	-0.337
-276.428	-15.131	-0.499	-0.318
-275.413	245.367	-0.243	0.406
-274.399	52.490	0.333	0.315
-273.384	-68.360	-0.355	0.137
-272.370	122.777	-0.297	-0.369
-271.355	-183.138	-0.352	-0.006
-270.340	-30.672	0.663	0.373
-269.326	-92.215	0.399	0.112
-268.311	-200.000	-0.135	-1.013
-267.297	-200.000	-0.029	-0.171
-266.282	-20.310	-0.399	0.244
-265.267	102.829	-0.669	-0.778
-264.253	-96.357	0.312	0.082
-263.238	-200.000	-0.056	0.327
-262.224	-200.000	0.024	-0.263
-261.209	-89.798	-0.542	0.157
-260.195	-102.186	-1.102	0.263
-259.180	-137.836	-0.754	-0.084
-258.165	79.284	0.556	-0.591
-257.151	263.223	0.229	-0.395
-256.136	-125.865	-0.700	-0.105
-255.122	38.959	-0.368	0.326
-254.107	-26.105	-0.794	0.463
-253.092	373.752	-0.258	0.522
-252.078	-120.851	-0.754	0.126
-251.063	-46.135	0.323	0.158
-250.049	-120.462	0.664	-0.112
-249.034	11.916	0.328	-0.250
-248.019	-200.000	-0.004	-0.492
-247.005	446.847	0.237	-0.518
-245.990	-200.000	0.082	0.704
-244.976	-200.000	-0.033	0.416
-243.961	-0.745	-0.375	-0.264
-242.946	-81.803	0.408	0.133
-241.932	-113.636	1.239	-0.240
-240.917	-46.272	-0.393	-0.192
-239.903	-72.508	0.671	0.246
-238.888	-200.000	0.206	-0.000
-237.873	800.000	-0.231	0.667
-236.859	17.166	0.145	-0.114
-235.844	-200.000	-0.129	1.007
-234.830	-90.517	0.768	0.220
-233.815	-95.719	0.238	0.063
-232.800	39.125	-0.391	-0.347
-231.786	-46.782	-0.111	-0.054
-230.771	160.215	-0.311	0.429
-229.757	272.262	0.238	0.416
-228.742	-200.000	0.020	0.304
-227.727	157.168	-0.284	0.389
-226.713	-148.809	0.737	0.059
-225.698	-200.000	-0.475	-0.002
-224.684	182.866	0.395	0.577
-223.669	-30.091	0.350	-0.198
-222.655	-24.379	0.183	-0.108
-221.640	-40.346	0.632	0.326
-220.625	-44.062	1.012	0.504
-219.611	-200.000	-0.040	0.194
-218.596	800.000	-0.226	-0.677
-217.582	-84.857	-1.096	-0.341
-216.567	186.896	0.193	-0.285
-215.552	-120.880	-0.182	-0.030
-214.538	-146.590	0.217	-0.019
-213.523	68.334	-0.149	0.151
-212.509	-4.097	0.456	0.313
-211.494	603.411	0.177	0.436
-210.479	-38.556	-0.102	0.054
-209.465	-200.000	0.187	1.119
-208.450	-200.000	0.108	0.746
-207.436	83.336	0.635	0.685
-206.421	-103.552	-0.957	0.223
-205.406	45.848	-0.403	-0.370
-204.392	5.219	-0.455	-0.332
-203.377	-157.039	-0.623	0.038
-202.363	-83.225	0.513	-0.163
-201.348	-2.227	-0.532	-0.370
-200.333	14.053	0.253	-0.195
-199.319	-35.522	-0.238	0.128
-198.304	-104.602	-0.294	-0.067
-197.290	119.718	-0.177	-0.217
-196.275	770.810	-0.072	0.194
-195.260	581.666	-0.116	-0.281
-194.246	800.000	0.098	0.296
-193.231	800.000	-0.047	-0.136
-192.217	515.400	-0.251	0.579
-191.202	-200.000	0.036	-0.420
-190.187	-140.289	-0.803	0.083
-189.173	-158.670	-0.383	0.022
-188.158	260.188	-0.076	-0.130
-187.144	119.299	-0.215	0.264
-186.129	-11.053	-0.317	0.207
-185.114	321.755	-0.192	-0.361
-184.100	-200.000	-0.106	-0.559
-183.085	-185.183	-0.156	0.002
-182.071	314.327	0.300	0.559
-181.056	800.000	-0.248	0.779
-180.042	800.000	-0.119	0.407
-179.027	394.089	0.255	0.526
-178.012	35.941	-0.783	-0.682
-176.998	-32.171	0.977	0.540
-175.983	-200.000	0.065	0.396
-174.969	263.228	0.386	-0.664
-173.954	130.507	0.188	0.239
-172.939	-77.003	-0.635	0.219
-171.925	99.568	0.456	0.522
-170.910	-200.000	-0.105	-0.702
-169.896	-142.215	-0.308	0.030
-168.881	800.000	-0.198	-0.798
-167.866	19.884	0.440	0.351
-166.852	800.000	-0.140	-0.547
-165.837	-200.000	0.050	0.649
-164.823	-200.000	-0.055	0.566
-163.808	630.140	-0.413	1.034
-162.793	-85.256	0.524	0.162
-161.779	69.049	-0.589	0.599
-160.764	279.219	-0.075	-0.132
-159.750	288.467	0.173	0.310
-158.735	800.000	-0.156	-0.546
-157.720	-41.987	-0.984	-0.498
-156.706	-147.793	0.536	-0.044
-155.691	-154.159	-0.242	-0.016
-154.677	356.700	0.206	-0.406
-153.662	800.000	0.053	-0.206
-152.647	-102.689	0.620	-0.146
-151.633	-200.000	-0.017	0.230
-150.618	-200.000	0.110	1.188
-149.604	-67.924	0.496	-0.191
-148.589	-106.001	0.203	-0.045
-147.574	43.339	0.375	0.339
-146.560	-65.083	-0.356	-0.142
-145.545	356.229	0.193	-0.380
-144.531	800.000	-0.150	-0.459
-143.516	-137.585	0.677	0.075
-142.502	800.000	0.138	-0.553
-141.487	800.000	-0.077	0.275
-140.472	800.000	0.247	-0.840
-139.458	96.644	-0.295	-0.334
-138.443	800.000	-0.083	-0.340
-137.429	-124.764	0.427	-0.065
-136.414	24.647	-1.135	0.929
-135.399	-83.962	0.438	-0.138
-134.385	800.000	-0.087	-0.326
-133.370	244.631	-0.418	-0.694
-132.356	-30.724	0.646	-0.361
-131.341	6.415	-0.155	0.114
-130.326	-200.000	-0.006	0.332
-129.312	-200.000	-0.079	-0.738
-128.297	288.066	-0.091	-0.164
-127.283	55.491	0.479	0.458
-126.268	800.000	-0.075	-0.257
-125.253	101.485	0.159	-0.183
-124.239	102.250	0.325	0.375
-123.224	-142.538	0.692	0.067
-122.210	-200.000	0.123	-0.919
-121.195	-200.000	-0.012	-0.088
-120.180	72.601	0.369	-0.380
