DTS Sentinel unit serial number:	SN413079Multiplexer serial number:	ORYXHardware model number:	OX4-SRSoftware version number:	ORYX F/W v4.00 Oryx Data Collector v3.7.2.0data status	okinstallation	princeton_trtdifferential loss correction	single-endedforward channel	channel 3reverse channel	N/Adate	2019/09/15time	11:28:35forward acquisition time	60.00reverse acquisition time	0.00gamma	496.2192k internal	0.2307k external	0.2307temperature offset calibration	0.9976default loss term (dB/km)	0.3790temperature slope calibration	1.0000multiplexer offset coefficient	1.0000multiplexer slope coefficient	1.0000fibre end	0.00T internal ref (°C)	34.31T ext. ref 1 (°C)	5.02T ext. ref 2 (°C)	29.82length (m)	temperature (°C)	Stokes	anti-Stokes-747.200	-200.000	0.063	-0.314
-746.185	105.167	-0.123	0.148
-745.171	245.473	-0.100	-0.172
-744.156	-200.000	-0.036	0.459
-743.142	800.000	0.061	0.251
-742.127	-200.000	-0.040	-0.222
-741.112	137.560	-0.043	0.058
-740.098	-200.000	0.064	0.332
-739.083	46.814	-0.159	0.151
-738.069	-200.000	0.002	0.182
-737.054	-18.809	-0.079	-0.050
-736.039	-68.398	-0.214	0.084
-735.025	800.000	0.020	-0.057
-734.010	14.398	0.024	-0.019
-732.996	-115.947	-0.257	-0.049
-731.981	800.000	-0.108	0.315
-730.966	89.690	0.016	0.018
-729.952	-63.268	-0.187	-0.078
-728.937	-10.507	-0.458	0.308
-727.923	47.847	-0.172	-0.163
-726.908	22.585	-0.222	-0.184
-725.894	-21.999	-0.210	-0.130
-724.879	-200.000	-0.012	-0.080
-723.864	102.801	-0.185	0.220
-722.850	-179.913	0.240	-0.005
-721.835	422.489	0.141	0.307
-720.821	673.921	-0.055	-0.145
-719.806	-49.208	-0.127	-0.061
-718.791	-118.624	-0.092	-0.016
-717.777	109.784	-0.230	-0.281
-716.762	-200.000	0.020	0.207
-715.748	-73.301	0.188	-0.070
-714.733	-70.199	0.379	-0.146
-713.718	-87.498	-0.130	0.040
-712.704	-136.938	-0.057	0.007
-711.689	800.000	0.033	-0.138
-710.675	-162.263	-0.201	0.010
-709.660	45.210	-0.381	0.357
-708.645	191.796	-0.202	0.309
-707.631	70.068	0.040	0.042
-706.616	458.958	-0.022	-0.051
-705.602	-110.161	-0.101	0.021
-704.587	39.084	0.255	0.232
-703.572	68.782	-0.254	0.264
-702.558	149.273	-0.075	0.103
-701.543	-200.000	0.002	-0.097
-700.529	-149.835	0.137	-0.011
-699.514	646.843	-0.058	-0.150
-698.499	695.176	0.083	0.220
-697.485	-89.856	-0.307	0.091
-696.470	-123.491	-0.041	-0.007
-695.456	-152.828	0.104	0.008
-694.441	-200.000	-0.048	-0.327
-693.426	800.000	-0.046	-0.189
-692.412	800.000	0.044	0.156
-691.397	-80.613	-0.223	-0.076
-690.383	27.910	0.099	0.084
-689.368	-18.216	0.343	0.218
-688.354	-200.000	0.014	0.196
-687.339	800.000	0.131	-0.387
-686.324	-200.000	0.024	0.243
-685.310	704.803	-0.060	0.160
-684.295	800.000	-0.040	-0.170
-683.281	710.625	0.025	0.068
-682.266	-144.366	-0.285	-0.027
-681.251	-200.000	-0.022	-0.403
-680.237	-200.000	-0.014	0.185
-679.222	-111.860	0.266	-0.054
-678.208	800.000	-0.100	-0.290
-677.193	-200.000	0.030	-0.177
-676.178	250.713	-0.132	-0.228
-675.164	305.128	0.061	0.115
-674.149	800.000	0.157	-0.489
-673.135	-70.554	-0.177	-0.068
-672.120	-42.792	-0.074	0.038
-671.105	-7.555	0.178	0.122
-670.091	-5.342	0.103	0.072
-669.076	-200.000	-0.003	0.172
-668.062	-109.539	0.096	-0.021
-667.047	-200.000	-0.022	-0.218
-666.032	-64.128	0.032	0.013
-665.018	184.110	-0.076	-0.114
-664.003	213.287	0.030	-0.047
-662.989	293.695	0.048	0.088
-661.974	-200.000	-0.003	-0.040
-660.959	39.648	0.177	-0.161
-659.945	-200.000	-0.001	-0.309
-658.930	800.000	0.052	0.192
-657.916	69.155	-0.089	-0.092
-656.901	475.291	0.076	-0.175
-655.886	-200.000	0.017	0.237
-654.872	91.931	-0.221	-0.253
-653.857	-133.722	0.157	0.020
-652.843	-72.320	0.140	-0.053
-651.828	128.932	0.130	0.168
-650.814	-200.000	0.044	0.212
-649.799	-200.000	-0.012	-0.111
-648.784	76.077	0.230	0.247
-647.770	752.163	-0.018	0.048
-646.755	-160.423	0.384	0.021
-645.741	148.399	-0.175	-0.239
-644.726	483.209	0.114	-0.263
-643.711	111.996	0.143	-0.175
-642.697	-200.000	-0.054	-0.264
-641.682	-200.000	-0.010	0.110
-640.668	-39.273	-0.311	-0.165
-639.653	-186.013	-0.325	0.005
-638.638	-1.902	0.181	0.129
-637.624	-200.000	-0.046	-0.212
-636.609	-93.681	0.369	0.103
-635.595	69.203	0.207	0.215
-634.580	-108.677	0.193	-0.042
-633.565	25.608	0.352	0.297
-632.551	-75.274	-0.221	-0.080
-631.536	800.000	-0.047	0.199
-630.522	-32.761	0.094	0.053
-629.507	800.000	0.108	-0.392
-628.492	-1.266	0.163	-0.116
-627.478	-47.281	-0.176	0.087
-626.463	65.080	0.211	-0.216
-625.449	136.885	-0.129	-0.170
-624.434	-200.000	0.001	-0.076
-623.419	-146.864	-0.083	0.007
-622.405	-4.535	-0.245	-0.171
-621.390	-108.706	-0.211	0.046
-620.376	443.334	-0.103	0.229
-619.361	-61.179	-0.190	-0.081
-618.346	306.606	-0.044	-0.082
-617.332	103.914	-0.296	-0.351
-616.317	-200.000	0.010	-0.298
-615.303	800.000	-0.079	-0.339
-614.288	-9.838	0.184	-0.124
-613.273	-138.291	0.123	0.014
-612.259	800.000	-0.067	-0.239
-611.244	-82.736	0.026	-0.008
-610.230	279.045	0.129	-0.232
-609.215	-200.000	-0.083	0.392
-608.201	4.626	-0.253	-0.188
-607.186	800.000	0.124	0.346
-606.171	116.363	-0.121	0.151
-605.157	580.226	-0.089	-0.222
-604.142	-3.029	-0.245	0.173
-603.128	-113.359	-0.069	0.014
-602.113	-76.035	-0.241	-0.086
-601.098	599.245	-0.109	-0.273
-600.084	-175.687	0.298	0.008
-599.069	800.000	0.063	0.183
-598.055	-126.266	0.160	0.024
-597.040	220.421	0.150	0.243
-596.025	-118.633	0.168	0.030
-595.011	428.477	-0.063	0.138
-593.996	-80.745	-0.140	-0.047
-592.982	-200.000	-0.009	-0.079
-591.967	-83.154	-0.279	0.091
-590.952	-101.847	0.203	-0.050
-589.938	-126.467	-0.050	0.008
-588.923	-200.000	-0.041	0.312
-587.909	323.675	0.071	-0.137
-586.894	141.697	0.171	-0.229
-585.879	-65.086	0.139	-0.057
-584.865	800.000	-0.039	-0.121
-583.850	-36.760	0.162	0.088
-582.836	484.023	-0.087	0.201
-581.821	54.187	-0.274	-0.266
-580.806	-88.166	-0.265	-0.080
-579.792	-0.813	-0.023	0.016
-578.777	-200.000	-0.015	-0.161
-577.763	-200.000	0.003	-0.143
-576.748	-81.665	-0.171	0.057
-575.733	-44.640	0.248	0.125
-574.719	-200.000	-0.032	0.238
-573.704	800.000	0.039	0.125
-572.690	-167.991	0.419	0.017
-571.675	-200.000	0.024	0.211
-570.661	-96.272	-0.327	0.087
-569.646	-56.590	-0.250	-0.112
-568.631	800.000	0.110	-0.401
-567.617	-200.000	-0.020	0.246
-566.602	13.480	0.254	-0.199
-565.588	-76.729	-0.204	-0.072
-564.573	-107.369	-0.150	-0.033
-563.558	-200.000	-0.037	0.176
-562.544	-19.858	0.440	0.275
-561.529	70.075	-0.019	0.020
-560.515	227.723	0.125	0.206
-559.500	-200.000	-0.021	0.185
-558.485	22.814	0.042	-0.035
-557.471	-137.557	-0.043	0.005
-556.456	800.000	0.069	-0.306
-555.442	-73.446	-0.429	-0.158
-554.427	329.329	-0.210	0.407
-553.412	293.225	0.038	0.070
-552.398	-200.000	-0.001	-0.012
-551.383	-165.007	-0.022	0.001
-550.369	-200.000	-0.000	0.274
-549.354	-105.345	0.284	-0.065
-548.339	800.000	0.023	0.074
-547.325	225.767	-0.040	-0.066
-546.310	168.627	0.172	-0.247
-545.296	99.420	-0.129	-0.151
-544.281	-61.640	0.562	-0.238
-543.266	-84.381	-0.524	0.167
-542.252	57.797	-0.187	0.185
-541.237	-134.895	0.221	-0.027
-540.223	359.964	0.121	-0.243
-539.208	69.511	-0.252	-0.262
-538.193	47.497	0.214	-0.201
-537.179	-80.035	-0.279	0.094
-536.164	-11.158	0.159	-0.106
-535.150	-120.172	-0.254	-0.044
-534.135	-138.448	-0.114	0.013
-533.121	-80.396	-0.095	-0.032
-532.106	-200.000	0.026	0.284
-531.091	-35.288	-0.177	-0.097
-530.077	528.130	-0.152	-0.362
-529.062	-158.144	-0.130	0.008
-528.048	800.000	-0.107	0.347
-527.033	-114.020	-0.174	0.034
-526.018	43.900	-0.212	0.196
-525.004	-200.000	-0.001	-0.222
-523.989	-66.737	-0.321	-0.128
-522.975	800.000	-0.047	-0.178
-521.960	16.690	-0.344	0.274
-520.945	-130.955	0.207	0.028
-519.931	440.038	0.075	0.166
-518.916	800.000	-0.066	-0.257
-517.902	-58.474	-0.059	-0.026
-516.887	410.244	-0.076	-0.162
-515.872	101.726	0.112	-0.131
-514.858	-200.000	0.044	-0.386
-513.843	179.354	-0.141	-0.209
-512.829	62.471	0.078	-0.078
-511.814	-66.747	0.402	0.160
-510.799	-5.160	-0.221	0.153
-509.785	285.361	0.082	0.148
-508.770	-29.438	-0.107	0.062
-507.756	-38.285	0.137	0.073
-506.741	800.000	0.199	-0.737
-505.726	-128.432	0.212	-0.030
-504.712	139.301	-0.122	-0.161
-503.697	782.885	-0.132	-0.365
-502.683	-91.560	-0.215	-0.062
-501.668	-178.811	0.286	-0.007
-500.653	245.621	-0.210	-0.357
-499.639	7.525	-0.208	-0.157
-498.624	-104.925	-0.229	-0.053
-497.610	-108.409	-0.175	0.038
-496.595	-200.000	0.027	0.198
-495.581	383.059	0.200	0.415
-494.566	-21.933	-0.231	0.141
-493.551	-17.696	0.278	-0.176
-492.537	-200.000	0.003	-0.211
-491.522	85.130	-0.147	0.162
-490.508	-78.656	-0.092	0.032
-489.493	-15.309	0.147	0.095
-488.478	109.300	-0.093	0.113
-487.464	477.742	-0.011	-0.026
-486.449	-134.445	0.414	-0.051
-485.435	-200.000	-0.045	-0.210
-484.420	-200.000	0.019	-0.331
-483.405	16.045	0.104	0.083
-482.391	-1.763	0.217	-0.154
-481.376	800.000	-0.088	-0.294
-480.362	146.156	0.060	0.082
-479.347	-127.754	0.233	-0.034
-478.332	-63.604	0.234	-0.097
-477.318	130.591	-0.039	-0.051
-476.303	66.436	0.110	0.113
-475.289	-158.778	0.163	-0.009
-474.274	445.470	0.049	0.108
-473.259	191.467	0.085	0.129
-472.245	-66.337	-0.119	-0.048
-471.230	-21.896	0.283	0.173
-470.216	109.211	-0.155	-0.187
-469.201	18.595	-0.213	0.171
-468.186	419.149	-0.104	-0.223
-467.172	89.153	0.082	-0.091
-466.157	531.045	0.079	-0.187
-465.143	-200.000	-0.071	-0.466
-464.128	-41.107	0.133	0.069
-463.113	-200.000	0.040	0.213
-462.099	52.069	0.151	-0.145
-461.084	87.462	-0.026	0.029
-460.070	120.442	0.153	-0.191
-459.055	-175.191	0.361	0.010
-458.040	123.152	0.220	-0.277
-457.026	-53.386	-0.288	-0.133
-456.011	-200.000	0.040	0.341
-454.997	-49.692	-0.152	-0.073
-453.982	-200.000	-0.050	-0.242
-452.968	66.124	-0.160	-0.164
-451.953	352.748	0.197	-0.394
-450.938	-84.017	-0.105	-0.034
-449.924	-25.652	0.192	-0.114
-448.909	-22.837	0.180	0.109
-447.895	800.000	-0.069	0.274
-446.880	180.003	0.144	0.212
-445.865	-49.522	-0.122	0.059
-444.851	147.143	-0.124	0.168
-443.836	142.287	0.276	0.368
-442.822	800.000	0.062	-0.190
-441.807	-200.000	-0.039	0.207
-440.792	-36.407	-0.020	0.011
-439.778	-200.000	-0.015	-0.160
-438.763	-171.004	-0.153	-0.005
-437.749	-99.636	-0.313	0.079
-436.734	-200.000	-0.046	-0.405
-435.719	-178.865	-0.304	0.007
-434.705	-200.000	0.010	0.102
-433.690	-50.305	0.255	0.121
-432.676	438.676	0.101	0.221
-431.661	101.275	-0.124	0.146
-430.646	800.000	-0.066	-0.203
-429.632	270.511	-0.060	-0.106
-428.617	-200.000	0.024	0.145
-427.603	-20.669	-0.228	0.140
-426.588	59.722	-0.300	-0.297
-425.573	-200.000	-0.004	-0.133
-424.559	-145.655	-0.132	0.012
-423.544	231.922	0.142	-0.234
-422.530	-150.966	-0.025	0.002
-421.515	234.120	0.040	-0.066
-420.500	-200.000	-0.001	0.176
-419.486	-45.736	0.311	-0.154
-418.471	36.138	0.129	0.114
-417.457	-200.000	0.004	0.056
-416.442	-200.000	-0.040	-0.419
-415.428	-71.812	-0.157	-0.059
-414.413	23.870	0.099	-0.082
-413.398	63.110	0.103	0.104
-412.384	800.000	0.013	0.056
-411.369	-29.298	0.198	0.114
-410.355	-137.717	0.169	0.019
-409.340	70.134	0.086	0.089
-408.325	-83.591	0.162	0.052
-407.311	-155.280	0.119	-0.008
-406.296	78.289	-0.130	0.139
-405.282	-82.503	-0.171	-0.056
-404.267	3.608	0.197	-0.144
-403.252	90.478	0.216	0.243
-402.238	492.581	0.092	-0.211
-401.223	-47.567	0.135	-0.066
-400.209	-70.482	0.186	-0.071
-399.194	23.533	0.164	-0.136
-398.179	800.000	0.022	0.083
-397.165	-200.000	-0.002	-0.086
-396.150	515.257	-0.047	0.110
-395.136	19.045	0.250	-0.201
-394.121	800.000	-0.066	-0.226
-393.106	-61.664	0.179	0.075
-392.092	-127.740	0.465	-0.067
-391.077	-63.780	0.153	-0.063
-390.063	5.326	-0.109	-0.080
-389.048	2.874	0.119	-0.086
-388.033	-200.000	0.106	0.552
-387.019	-12.702	0.060	-0.039
-386.004	800.000	-0.111	0.369
-384.990	4.427	0.274	0.201
-383.975	-135.974	-0.111	-0.013
-382.960	348.903	-0.176	-0.348
-381.946	336.196	-0.177	0.344
-380.931	370.602	-0.026	-0.054
-379.917	-200.000	0.014	-0.121
-378.902	-200.000	0.044	0.238
-377.888	800.000	-0.070	-0.206
-376.873	157.037	-0.047	0.065
-375.858	800.000	-0.022	0.078
-374.844	56.345	0.086	0.084
-373.829	-41.554	0.181	-0.093
-372.815	800.000	-0.060	0.190
-371.800	540.530	-0.018	0.042
-370.785	603.326	-0.020	0.049
-369.771	-173.999	-0.230	0.007
-368.756	-89.657	-0.298	0.088
-367.742	-56.869	-0.222	-0.098
-366.727	-101.495	0.196	-0.048
-365.712	-200.000	-0.008	-0.176
-364.698	226.955	-0.087	-0.141
-363.683	259.773	-0.264	-0.456
-362.669	-143.794	0.064	0.006
-361.654	800.000	-0.085	0.257
-360.639	-199.610	-0.078	0.000
-359.625	37.579	-0.057	0.050
-358.610	226.644	0.060	-0.098
-357.596	-74.961	-0.213	0.076
-356.581	-200.000	0.071	-0.471
-355.566	343.564	-0.166	0.325
-354.552	-200.000	-0.288	0.001
-353.537	252.290	-0.084	-0.144
-352.523	175.683	-0.195	0.283
-351.508	124.130	-0.213	0.268
-350.493	451.618	-0.060	-0.132
-349.479	-4.845	0.173	-0.120
-348.464	-44.408	0.207	0.104
-347.450	-58.723	0.195	0.085
-346.435	800.000	0.048	-0.140
-345.420	160.496	-0.144	-0.201
-344.406	327.177	0.204	0.392
-343.391	-57.209	0.073	-0.032
-342.377	323.861	-0.132	0.253
-341.362	-169.981	0.115	0.004
-340.348	-118.984	-0.524	0.092
-339.333	-200.000	-0.018	-0.279
-338.318	222.015	-0.116	0.187
-337.304	-32.395	-0.265	0.148
-336.289	76.803	-0.101	0.107
-335.275	-149.991	-0.152	0.012
-334.260	8.145	0.310	-0.233
-333.245	-74.761	0.097	0.035
-332.231	800.000	-0.033	-0.124
-331.216	51.062	-0.232	-0.220
-330.202	-74.031	-0.065	0.024
-329.187	800.000	0.050	-0.185
-328.172	800.000	-0.072	0.267
-327.158	-110.437	-0.238	0.049
-326.143	800.000	-0.076	0.225
-325.129	69.309	0.130	0.134
-324.114	800.000	0.034	0.126
-323.099	-24.978	-0.130	0.077
-322.085	-90.561	-0.238	0.069
-321.070	-112.737	0.102	0.020
-320.056	-200.000	0.003	0.164
-319.041	-25.060	0.107	0.064
-318.026	-200.000	-0.044	-0.296
-317.012	120.798	-0.030	-0.037
-315.997	-139.665	0.058	0.006
-314.983	-200.000	0.007	-0.036
-313.968	800.000	-0.074	-0.266
-312.953	-57.712	-0.075	-0.033
-311.939	-110.440	0.222	-0.046
-310.924	-122.243	-0.340	-0.056
-309.910	-53.069	-0.245	-0.113
-308.895	-6.617	0.077	-0.052
-307.880	51.304	-0.317	0.301
-306.866	-24.529	-0.116	0.069
-305.851	665.061	0.068	-0.176
-304.837	134.524	0.092	-0.119
-303.822	-200.000	0.061	0.366
-302.807	-200.000	-0.028	-0.379
-301.793	173.980	0.162	0.233
-300.778	-7.759	-0.292	0.197
-299.764	-118.241	-0.266	0.047
-298.749	326.968	-0.036	0.068
-297.735	800.000	0.042	-0.150
-296.720	196.449	0.096	0.146
-295.705	800.000	0.018	-0.058
-294.691	-141.730	-0.314	0.032
-293.676	119.020	0.045	0.056
-292.662	-80.985	-0.154	-0.051
-291.647	-200.000	-0.030	0.154
-290.632	204.222	-0.094	-0.146
-289.618	-41.036	0.196	-0.101
-288.603	-121.371	0.068	0.011
-287.589	-200.000	-0.038	-0.201
-286.574	-199.243	0.119	-0.001
-285.559	-25.351	0.025	0.015
-284.545	800.000	0.028	0.103
-283.530	-122.093	0.212	-0.035
-282.516	-31.029	0.159	-0.090
-281.501	-45.819	-0.187	0.092
-280.486	-84.092	0.133	0.042
-279.472	182.935	-0.038	0.056
-278.457	22.876	0.330	0.270
-277.443	-54.912	0.604	-0.272
-276.428	156.900	-0.112	-0.154
-275.413	-46.402	0.203	-0.100
-274.399	1.338	0.190	0.136
-273.384	-14.625	0.190	-0.122
-272.370	200.473	-0.111	-0.170
-271.355	4.067	-0.060	0.044
-270.340	-44.542	0.212	-0.106
-269.326	800.000	0.047	0.134
-268.311	-151.494	-0.299	-0.022
-267.297	800.000	0.013	-0.043
-266.282	-33.015	0.298	-0.165
-265.267	1.340	0.155	0.111
-264.253	-83.347	0.360	0.115
-263.238	-115.956	-0.342	-0.064
-262.224	-81.807	0.021	0.007
-261.209	23.328	0.272	0.223
-260.195	108.358	-0.255	0.304
-259.180	-11.339	-0.065	-0.043
-258.165	-200.000	0.017	-0.077
-257.151	25.537	-0.205	0.170
-256.136	55.641	-0.227	0.220
-255.122	-200.000	0.032	0.437
-254.107	-108.715	0.166	-0.035
-253.092	299.496	-0.112	-0.205
-252.078	596.220	0.065	-0.161
-251.063	397.233	0.112	0.233
-250.049	414.757	0.062	-0.132
-249.034	800.000	0.062	0.174
-248.019	8.359	0.278	-0.208
-247.005	-200.000	0.013	-0.190
-245.990	643.863	0.116	-0.296
-244.976	-40.968	0.179	0.092
-243.961	-68.573	0.260	0.100
-242.946	-136.009	-0.117	-0.014
-241.932	-64.842	-0.446	-0.180
-240.917	800.000	0.063	0.189
-239.903	20.602	-0.133	0.107
-238.888	39.209	0.068	-0.061
-237.873	32.774	0.053	-0.045
-236.859	-200.000	0.029	0.239
-235.844	-106.138	0.259	0.058
-234.830	673.991	0.039	0.101
-233.815	800.000	0.093	0.309
-232.800	-130.273	-0.110	0.015
-231.786	4.234	0.091	0.066
-230.771	221.614	-0.023	0.037
-229.757	-200.000	-0.035	-0.203
-228.742	144.342	0.050	0.067
-227.727	5.109	-0.232	-0.171
-226.713	380.666	-0.093	-0.190
-225.698	30.379	-0.164	0.140
-224.684	-61.241	0.231	0.097
-223.669	77.491	-0.117	0.124
-222.655	-152.085	0.107	-0.008
-221.640	21.220	0.077	-0.062
-220.625	-140.222	0.453	0.047
-219.611	355.316	0.101	0.201
-218.596	250.331	0.199	0.337
-217.582	-57.532	0.157	-0.069
-216.567	189.867	0.094	-0.140
-215.552	92.322	-0.073	0.082
-214.538	-51.773	-0.224	0.104
-213.523	62.838	-0.058	0.058
-212.509	-39.410	-0.233	0.122
-211.494	-200.000	0.024	-0.210
-210.479	623.569	-0.025	0.063
-209.465	67.521	-0.365	0.371
-208.450	800.000	0.123	0.382
-207.436	-45.868	-0.431	-0.212
-206.421	38.915	-0.228	0.203
-205.406	243.332	0.073	-0.123
-204.392	183.675	-0.119	-0.175
-203.377	122.756	-0.195	-0.243
-202.363	2.860	0.189	-0.137
-201.348	16.452	-0.177	-0.140
-200.333	-200.000	-0.029	0.192
-199.319	-6.490	0.273	0.185
-198.304	-200.000	0.020	-0.105
-197.290	540.040	-0.098	-0.231
-196.275	800.000	-0.012	0.042
-195.260	-200.000	-0.004	-0.138
-194.246	800.000	-0.044	0.157
-193.231	-138.501	-0.261	-0.029
-192.217	-1.730	0.293	0.206
-191.202	-200.000	-0.007	0.348
-190.187	800.000	0.069	0.294
-189.173	-36.461	0.357	0.191
-188.158	-156.990	-0.421	0.026
-187.144	-184.567	0.343	-0.006
-186.129	-24.198	-0.096	-0.057
-185.114	109.831	0.249	0.297
-184.100	-200.000	0.030	0.583
-183.085	-79.119	-0.106	-0.036
-182.071	-51.584	0.185	-0.086
-181.056	174.210	0.103	-0.148
-180.042	12.201	0.152	-0.116
-179.027	244.336	-0.091	-0.152
-178.012	727.362	-0.143	0.380
-176.998	-42.534	0.441	0.223
-175.983	60.664	-0.233	0.230
-174.969	800.000	-0.062	0.193
-173.954	96.589	0.128	0.146
-172.939	-70.140	-0.028	0.010
-171.925	-113.820	-0.232	-0.045
-170.910	-114.407	0.165	-0.032
-169.896	-66.372	-0.064	0.025
-168.881	56.938	-0.075	-0.073
-167.866	-21.176	-0.184	-0.112
-166.852	244.363	-0.131	0.219
-165.837	570.419	0.067	0.163
-164.823	53.685	0.084	-0.080
-163.808	-200.000	-0.050	0.247
-162.793	57.235	0.063	-0.061
-161.779	-200.000	-0.030	-0.226
-160.764	243.263	-0.240	0.400
-159.750	-200.000	-0.004	0.084
-158.735	85.852	0.198	0.217
-157.720	-48.500	0.295	0.141
-156.706	116.535	-0.029	0.035
-155.691	-200.000	-0.062	-0.295
-154.677	-169.119	0.156	0.006
-153.662	64.334	0.094	-0.094
-152.647	-200.000	-0.013	0.157
-151.633	4.603	-0.318	0.232
-150.618	-117.045	0.153	-0.028
-149.604	-34.736	0.135	0.073
-148.589	43.514	-0.132	0.120
-147.574	-12.765	0.068	0.044
-146.560	-17.023	0.062	-0.039
-145.545	-10.519	-0.065	0.043
-144.531	-116.368	-0.112	0.021
-143.516	800.000	-0.034	-0.133
-142.502	7.422	0.141	-0.105
-141.487	142.906	0.131	0.173
-140.472	-200.000	0.047	0.314
-139.458	-7.220	-0.163	-0.110
-138.443	-200.000	-0.007	0.163
-137.429	305.459	-0.228	0.420
-136.414	-200.000	0.001	0.330
-135.399	112.363	0.101	0.121
-134.385	-200.000	0.003	0.416
-133.370	-81.513	-0.177	0.058
-132.356	-200.000	0.020	-0.092
-131.341	800.000	-0.076	0.300
-130.326	-178.305	0.282	-0.007
-129.312	-120.610	0.157	0.026
-128.297	-66.484	0.152	-0.060
-127.283	131.369	-0.127	-0.162
-126.268	-1.518	0.081	-0.057
-125.253	-47.654	0.316	-0.152
-124.239	-200.000	-0.025	-0.167
-123.224	144.198	-0.161	0.213
-122.210	800.000	0.074	-0.229
-121.195	-83.667	-0.136	0.043
