DTS Sentinel unit serial number:	SN413079Multiplexer serial number:	ORYXHardware model number:	OX4-SRSoftware version number:	ORYX F/W v4.00 Oryx Data Collector v3.7.2.0data status	okinstallation	princeton_trtdifferential loss correction	single-endedforward channel	channel 3reverse channel	N/Adate	2019/09/18time	16:56:35forward acquisition time	60.00reverse acquisition time	0.00gamma	496.2192k internal	0.2293k external	0.2293temperature offset calibration	0.9992default loss term (dB/km)	0.3790temperature slope calibration	1.0000multiplexer offset coefficient	1.0000multiplexer slope coefficient	1.0000fibre end	0.00T internal ref (°C)	40.05T ext. ref 1 (°C)	0.90T ext. ref 2 (°C)	35.18length (m)	temperature (°C)	Stokes	anti-Stokes-747.200	-62.319	-0.369	-0.157
-746.185	-28.357	-0.097	0.057
-745.171	241.053	-0.096	0.163
-744.156	-200.000	-0.035	0.240
-743.142	158.992	0.222	0.316
-742.127	-200.000	-0.021	0.383
-741.112	-10.362	-0.270	0.183
-740.098	-200.000	-0.032	0.154
-739.083	-119.857	0.096	0.017
-738.069	299.807	0.152	0.286
-737.054	-200.000	-0.008	0.430
-736.039	780.553	-0.032	0.090
-735.025	-147.137	-0.138	-0.012
-734.010	215.879	-0.178	-0.290
-732.996	517.362	0.066	-0.157
-731.981	-198.460	-0.191	-0.001
-730.966	381.941	-0.148	-0.311
-729.952	86.117	-0.206	-0.232
-728.937	6.427	-0.220	-0.167
-727.923	71.364	-0.285	-0.303
-726.908	-10.216	-0.128	0.087
-725.894	-41.568	0.204	0.107
-724.879	252.392	0.138	-0.240
-723.864	-109.040	-0.251	0.055
-722.850	54.520	-0.141	0.139
-721.835	-74.659	-0.087	-0.032
-720.821	-75.169	0.177	-0.065
-719.806	141.554	0.223	-0.301
-718.791	800.000	-0.098	0.293
-717.777	30.321	-0.076	0.067
-716.762	158.473	0.088	-0.125
-715.748	-33.512	-0.192	0.108
-714.733	-74.887	-0.106	0.039
-713.718	9.357	0.288	-0.223
-712.704	263.928	-0.159	0.283
-711.689	69.808	-0.046	-0.049
-710.675	-3.237	-0.261	-0.186
-709.660	-82.962	-0.134	0.044
-708.645	50.627	0.375	-0.362
-707.631	590.478	-0.107	-0.269
-706.616	77.530	-0.265	0.288
-705.602	31.133	-0.188	0.165
-704.587	-200.000	0.055	0.332
-703.572	24.417	0.090	-0.076
-702.558	-94.736	0.102	0.028
-701.543	277.790	-0.038	-0.070
-700.529	27.027	0.119	-0.102
-699.514	-63.596	0.174	0.073
-698.499	-187.264	0.170	-0.002
-697.485	487.717	-0.060	0.140
-696.470	139.106	-0.078	0.105
-695.456	-200.000	-0.011	-0.400
-694.441	-12.438	-0.260	0.174
-693.426	-120.153	-0.582	-0.102
-692.412	457.362	0.086	0.196
-691.397	352.176	-0.038	-0.078
-690.383	58.120	0.299	-0.299
-689.368	800.000	0.131	-0.450
-688.354	-83.099	0.231	0.076
-687.339	389.634	0.125	-0.265
-686.324	50.563	-0.100	0.096
-685.310	246.263	-0.317	0.546
-684.295	562.913	0.048	0.119
-683.281	-105.351	-0.283	-0.066
-682.266	186.773	-0.141	0.215
-681.251	800.000	0.110	-0.390
-680.237	800.000	0.024	0.098
-679.222	-109.195	0.141	-0.031
-678.208	188.378	-0.139	-0.212
-677.193	-61.131	0.175	0.075
-676.178	-16.536	0.343	-0.222
-675.164	-128.205	0.323	0.047
-674.149	-41.267	0.087	-0.046
-673.135	-0.331	-0.075	0.055
-672.120	800.000	0.074	0.241
-671.105	-65.165	-0.058	-0.024
-670.091	-123.126	0.186	-0.030
-669.076	-200.000	-0.060	0.373
-668.062	-36.034	0.249	0.137
-667.047	455.926	-0.033	0.074
-666.032	750.343	-0.093	-0.255
-665.018	201.484	0.123	0.193
-664.003	35.921	0.042	-0.038
-662.989	298.002	-0.031	0.058
-661.974	125.328	0.154	-0.198
-660.959	-30.778	0.215	-0.124
-659.945	-77.417	0.098	0.035
-658.930	110.182	0.116	-0.143
-657.916	-89.489	0.131	0.039
-656.901	-104.907	0.182	0.043
-655.886	800.000	-0.071	-0.228
-654.872	-97.098	-0.152	-0.040
-653.857	212.346	-0.140	0.225
-652.843	272.195	-0.037	-0.066
-651.828	-200.000	-0.038	-0.193
-650.814	-124.054	0.257	0.041
-649.799	-28.322	0.139	0.082
-648.784	-150.083	-0.168	0.013
-647.770	-84.719	-0.291	-0.093
-646.755	287.528	0.083	0.152
-645.741	10.231	-0.175	-0.136
-644.726	187.929	-0.102	0.155
-643.711	-200.000	0.016	-0.078
-642.697	97.056	0.095	-0.111
-641.682	-189.822	-0.358	-0.004
-640.668	132.841	-0.070	-0.092
-639.653	378.514	-0.086	0.178
-638.638	-44.631	0.144	-0.073
-637.624	-200.000	-0.030	-0.134
-636.609	-130.833	-0.355	0.048
-635.595	-200.000	-0.037	0.274
-634.580	7.249	-0.139	0.105
-633.565	-109.743	-0.193	0.041
-632.551	800.000	-0.067	-0.288
-631.536	-99.249	0.169	0.044
-630.522	-200.000	-0.008	0.052
-629.507	-66.645	0.114	-0.046
-628.492	112.203	0.146	-0.179
-627.478	307.049	0.164	0.311
-626.463	-200.000	0.008	0.183
-625.449	-66.873	0.039	-0.016
-624.434	-200.000	-0.020	0.215
-623.419	-81.793	-0.410	0.137
-622.405	-34.217	0.244	0.136
-621.390	553.126	0.144	-0.352
-620.376	286.609	-0.105	0.193
-619.361	-10.899	0.210	0.141
-618.346	-23.415	-0.145	-0.089
-617.332	-113.461	-0.269	0.054
-616.317	-88.974	-0.181	0.055
-615.303	47.459	-0.166	0.157
-614.288	-3.673	-0.115	0.082
-613.273	-66.684	0.085	0.034
-612.259	403.898	0.112	-0.240
-611.244	485.307	0.144	-0.334
-610.230	-71.230	-0.428	-0.163
-609.215	40.825	0.123	0.113
-608.201	-200.000	-0.011	-0.124
-607.186	-116.537	-0.028	-0.005
-606.171	-94.353	0.231	-0.064
-605.157	103.699	-0.052	-0.062
-604.142	-16.651	-0.203	-0.131
-603.128	-59.186	0.062	-0.027
-602.113	-6.661	0.082	0.057
-601.098	-200.000	-0.002	-0.086
-600.084	800.000	-0.011	0.050
-599.069	432.171	0.021	0.046
-598.055	-86.579	-0.139	0.043
-597.040	485.015	0.067	-0.156
-596.025	800.000	-0.039	-0.119
-595.011	-111.682	-0.173	-0.036
-593.996	-4.057	0.304	0.214
-592.982	-200.000	0.017	0.209
-591.967	30.975	0.090	-0.079
-590.952	-200.000	0.036	-0.260
-589.938	190.460	-0.076	0.116
-588.923	-200.000	-0.032	-0.326
-587.909	235.160	0.093	0.156
-586.894	209.956	0.122	0.195
-585.879	-48.943	0.217	0.106
-584.865	44.156	-0.177	-0.165
-583.850	-200.000	0.050	0.420
-582.836	85.328	0.123	0.137
-581.821	114.585	0.195	0.241
-580.806	719.311	0.043	0.117
-579.792	26.014	-0.241	0.204
-578.777	359.787	0.117	-0.239
-577.763	-134.701	-0.219	-0.027
-576.748	348.292	0.028	-0.056
-575.733	-200.000	-0.014	0.233
-574.719	-101.189	0.259	0.064
-573.704	-167.050	-0.367	0.015
-572.690	9.795	-0.324	0.250
-571.675	555.371	-0.077	0.190
-570.661	91.931	-0.173	0.198
-569.646	-66.533	-0.180	0.072
-568.631	102.257	-0.046	-0.054
-567.617	-200.000	0.023	-0.197
-566.602	-30.185	-0.129	0.075
-565.588	-200.000	-0.008	-0.276
-564.573	-130.642	-0.113	-0.015
-563.558	800.000	0.062	0.234
-562.544	23.313	-0.090	0.075
-561.529	100.418	-0.199	-0.234
-560.515	-15.679	-0.173	0.112
-559.500	114.078	-0.057	-0.070
-558.485	-31.613	0.239	0.137
-557.471	-200.000	0.009	-0.257
-556.456	636.986	-0.079	0.204
-555.442	371.059	0.195	0.401
-554.427	78.836	-0.226	-0.245
-553.412	-101.387	-0.149	0.037
-552.398	696.072	-0.167	0.445
-551.383	800.000	-0.112	-0.349
-550.369	-200.000	-0.010	0.064
-549.354	207.991	0.044	-0.070
-548.339	-78.419	-0.075	0.026
-547.325	59.162	-0.065	-0.065
-546.310	239.827	0.094	-0.160
-545.296	205.152	0.216	-0.341
-544.281	-27.932	-0.031	-0.018
-543.266	800.000	0.031	0.098
-542.252	-100.881	-0.142	0.036
-541.237	50.637	0.226	0.218
-540.223	693.410	0.052	0.138
-539.208	-200.000	-0.023	0.173
-538.193	-149.078	-0.273	-0.022
-537.179	-200.000	-0.015	-0.073
-536.164	145.441	-0.150	0.204
-535.150	439.125	0.141	-0.312
-534.135	-64.596	-0.507	-0.209
-533.121	-200.000	0.058	-0.358
-532.106	294.972	-0.208	-0.387
-531.091	319.989	-0.114	-0.220
-530.077	800.000	0.024	0.080
-529.062	240.541	0.077	-0.131
-528.048	-98.300	0.196	0.051
-527.033	-65.857	-0.322	-0.130
-526.018	-115.331	-0.239	0.046
-525.004	31.452	-0.303	-0.264
-523.989	-200.000	0.052	-0.334
-522.975	205.708	0.185	-0.292
-521.960	-98.092	0.389	0.102
-520.945	120.058	-0.034	0.043
-519.931	407.088	-0.192	-0.412
-518.916	-177.283	0.316	-0.008
-517.902	-200.000	0.045	-0.262
-516.887	-200.000	0.061	0.285
-515.872	-137.086	-0.174	-0.020
-514.858	777.027	0.083	-0.230
-513.843	188.386	-0.031	-0.047
-512.829	-61.193	-0.175	0.075
-511.814	21.418	0.076	-0.063
-510.799	-109.476	-0.047	0.010
-509.785	-53.077	-0.180	-0.084
-508.770	-200.000	0.004	0.153
-507.756	-200.000	0.007	0.056
-506.741	407.991	0.129	-0.276
-505.726	800.000	-0.070	0.212
-504.712	-200.000	0.006	0.092
-503.697	-97.727	-0.168	0.044
-502.683	-150.817	-0.142	-0.011
-501.668	7.361	0.094	-0.071
-500.653	-173.388	-0.017	-0.001
-499.639	-115.947	0.197	-0.037
-498.624	-200.000	0.003	-0.169
-497.610	800.000	0.110	0.385
-496.595	-115.918	0.040	0.008
-495.581	800.000	0.080	0.234
-494.566	80.426	0.083	-0.091
-493.551	-200.000	-0.022	-0.502
-492.537	-101.098	-0.241	0.060
-491.522	-33.931	0.102	-0.057
-490.508	-51.624	-0.330	-0.156
-489.493	-126.734	-0.136	-0.020
-488.478	800.000	0.105	0.374
-487.464	-200.000	0.019	-0.262
-486.449	-200.000	-0.027	0.305
-485.435	800.000	0.131	-0.387
-484.420	244.192	-0.022	0.037
-483.405	-147.283	0.104	0.009
-482.391	224.954	-0.102	-0.166
-481.376	300.010	0.038	-0.071
-480.362	-20.459	0.046	-0.029
-479.347	-71.572	0.206	0.078
-478.332	2.431	-0.202	0.148
-477.318	-200.000	0.027	0.142
-476.303	26.826	-0.071	0.060
-475.289	171.389	0.227	-0.330
-474.274	800.000	0.014	-0.046
-473.259	-52.517	0.233	-0.109
-472.245	255.216	-0.188	0.326
-471.230	-200.000	0.014	-0.191
-470.216	-200.000	-0.015	0.281
-469.201	800.000	0.031	-0.114
-468.186	17.448	-0.090	-0.072
-467.172	79.760	-0.104	-0.113
-466.157	-2.248	0.305	-0.217
-465.143	-73.885	-0.274	-0.101
-464.128	800.000	-0.041	-0.123
-463.113	207.911	0.093	-0.146
-462.099	-200.000	0.019	-0.218
-461.084	325.234	0.122	-0.235
-460.070	-200.000	-0.011	0.065
-459.055	19.152	-0.093	-0.076
-458.040	536.388	-0.105	-0.252
-457.026	119.108	-0.154	0.193
-456.011	-57.025	-0.185	-0.083
-454.997	-88.247	-0.182	-0.055
-453.982	56.301	0.095	0.093
-452.968	109.155	0.077	-0.093
-451.953	421.191	0.039	0.085
-450.938	-195.936	0.064	0.000
-449.924	185.829	-0.167	0.251
-448.909	86.487	0.105	-0.118
-447.895	-65.332	0.173	-0.070
-446.880	-200.000	0.036	-0.425
-445.865	-200.000	-0.010	-0.311
-444.851	-2.845	-0.234	-0.165
-443.836	4.782	0.182	-0.135
-442.822	-200.000	0.036	0.291
-441.807	-63.436	0.107	0.044
-440.792	11.352	-0.130	0.100
-439.778	-66.079	0.173	-0.070
-438.763	13.039	0.427	-0.334
-437.749	696.297	0.022	0.058
-436.734	-117.428	0.221	-0.041
-435.719	-48.576	-0.321	-0.156
-434.705	-157.851	0.109	-0.007
-433.690	658.577	0.025	-0.064
-432.676	-7.984	0.109	0.074
-431.661	33.160	-0.193	0.169
-430.646	-200.000	0.045	-0.232
-429.632	-101.388	0.117	-0.029
-428.617	-45.605	0.343	0.172
-427.603	143.270	-0.146	-0.197
-426.588	800.000	0.066	0.186
-425.573	-41.050	0.039	0.021
-424.559	181.243	-0.082	0.122
-423.544	381.253	0.106	-0.219
-422.530	800.000	-0.100	-0.339
-421.515	-49.021	0.157	-0.076
-420.500	-200.000	0.013	0.115
-419.486	203.135	0.055	0.086
-418.471	-51.371	0.159	0.075
-417.457	-38.773	0.121	0.065
-416.442	-126.905	-0.125	0.019
-415.428	102.289	0.242	0.286
-414.413	-103.548	0.454	0.108
-413.398	272.638	0.092	-0.164
-412.384	-200.000	0.029	0.131
-411.369	799.243	0.034	-0.096
-410.355	56.349	-0.291	-0.286
-409.340	15.726	0.255	0.203
-408.325	800.000	0.113	-0.493
-407.311	800.000	-0.029	-0.087
-406.296	-131.836	0.188	0.025
-405.282	236.314	0.137	0.229
-404.267	19.341	-0.293	0.238
-403.252	-85.870	0.071	0.022
-402.238	777.949	-0.130	0.357
-401.223	74.594	0.214	-0.227
-400.209	800.000	-0.062	0.208
-399.194	6.041	0.127	0.095
-398.179	565.251	0.074	-0.181
-397.165	800.000	0.032	0.134
-396.150	82.527	-0.334	-0.366
-395.136	448.092	0.237	0.526
-394.121	-4.634	0.234	0.163
-393.106	336.228	0.037	0.072
-392.092	-27.358	0.236	0.138
-391.077	123.271	-0.152	-0.192
-390.063	-1.152	-0.298	-0.212
-389.048	-200.000	0.043	0.334
-388.033	190.773	0.175	-0.266
-387.019	-32.329	0.204	0.115
-386.004	800.000	0.044	0.126
-384.990	-47.931	0.141	0.069
-383.975	-200.000	-0.044	0.304
-382.960	158.530	-0.100	0.140
-381.946	-200.000	-0.054	0.254
-380.931	-30.620	0.203	-0.116
-379.917	-1.159	-0.185	-0.132
-378.902	-119.763	-0.371	0.065
-377.888	764.303	0.042	0.116
-376.873	86.269	0.307	0.342
-375.858	49.505	0.115	-0.109
-374.844	-127.766	-0.163	-0.024
-373.829	800.000	0.022	0.063
-372.815	-79.382	0.156	0.053
-371.800	32.800	-0.161	-0.141
-370.785	-200.000	0.031	0.312
-369.771	421.017	-0.178	-0.385
-368.756	-67.140	-0.066	0.026
-367.742	165.608	-0.173	0.247
-366.727	800.000	-0.019	-0.073
-365.712	15.992	-0.027	0.022
-364.698	-200.000	0.051	-0.350
-363.683	-200.000	0.042	-0.197
-362.669	800.000	-0.156	-0.444
-361.654	-200.000	-0.019	0.191
-360.639	-90.899	-0.376	0.109
-359.625	-190.290	-0.280	-0.003
-358.610	55.203	0.185	-0.180
-357.596	-30.882	-0.053	-0.030
-356.581	156.955	-0.128	-0.178
-355.566	-96.632	0.220	0.059
-354.552	-5.221	0.275	0.191
-353.537	49.215	0.180	0.171
-352.523	63.385	-0.108	0.110
-351.508	-200.000	-0.058	0.290
-350.493	108.239	0.100	0.120
-349.479	-125.111	0.187	0.029
-348.464	-133.483	-0.184	0.023
-347.450	-31.003	-0.041	0.023
-346.435	-200.000	-0.014	-0.110
-345.420	-0.553	0.139	0.099
-344.406	-92.147	-0.265	-0.076
-343.391	-94.885	-0.131	0.036
-342.377	-46.811	-0.049	-0.024
-341.362	132.539	0.088	-0.115
-340.348	-10.084	-0.214	-0.143
-339.333	-107.911	0.094	0.021
-338.318	567.672	-0.090	-0.220
-337.304	552.693	0.142	0.343
-336.289	800.000	0.048	0.212
-335.275	-200.000	-0.053	0.319
-334.260	-200.000	0.006	0.154
-333.245	-44.456	0.157	0.079
-332.231	229.084	-0.180	-0.295
-331.216	-92.594	0.165	-0.047
-330.202	-145.328	0.334	-0.030
-329.187	-66.444	-0.387	0.155
-328.172	110.906	0.079	-0.096
-327.158	91.197	0.186	-0.210
-326.143	474.104	0.071	0.161
-325.129	3.977	-0.261	-0.192
-324.114	93.045	-0.139	-0.158
-323.099	-18.799	0.239	0.150
-322.085	147.716	0.193	0.262
-321.070	345.875	-0.089	0.175
-320.056	71.158	-0.115	0.120
-319.041	146.103	-0.057	0.077
-318.026	-200.000	-0.006	0.193
-317.012	-101.740	0.208	-0.051
-315.997	35.175	-0.151	-0.133
-314.983	-200.000	-0.015	-0.224
-313.968	291.557	-0.107	-0.196
-312.953	-88.307	0.260	-0.078
-311.939	-200.000	-0.034	-0.262
-310.924	-200.000	0.049	0.314
-309.910	46.370	-0.084	-0.079
-308.895	358.620	0.181	-0.364
-307.880	-84.140	0.101	0.032
-306.866	46.467	0.144	0.135
-305.851	-200.000	0.019	0.109
-304.837	-128.029	0.139	-0.020
-303.822	711.188	-0.109	0.291
-302.807	-133.243	0.206	-0.026
-301.793	-115.510	0.392	0.074
-300.778	-169.111	-0.286	-0.011
-299.764	-200.000	-0.023	0.351
-298.749	-123.633	0.206	-0.033
-297.735	122.365	0.127	-0.159
-296.720	-200.000	-0.022	0.364
-295.705	-116.667	-0.155	-0.029
-294.691	-200.000	0.010	0.238
-293.676	-200.000	0.018	0.216
-292.662	800.000	0.058	-0.195
-291.647	800.000	0.082	-0.283
-290.632	-79.657	0.304	-0.103
-289.618	-103.809	0.310	-0.073
-288.603	139.382	-0.176	-0.232
-287.589	-78.905	-0.247	-0.084
-286.574	-83.181	-0.143	-0.046
-285.559	-44.530	0.306	-0.154
-284.545	-200.000	0.018	-0.296
-283.530	291.980	0.025	0.047
-282.516	-200.000	0.021	0.117
-281.501	-80.154	-0.207	-0.070
-280.486	17.969	0.333	0.267
-279.472	800.000	0.094	0.310
-278.457	296.379	0.110	0.203
-277.443	-40.904	-0.114	-0.059
-276.428	-200.000	-0.069	0.356
-275.413	-200.000	-0.004	-0.298
-274.399	105.632	0.239	-0.284
-273.384	-103.049	-0.058	-0.014
-272.370	502.475	-0.082	0.191
-271.355	-189.726	0.045	0.001
-270.340	800.000	-0.086	-0.335
-269.326	-200.000	-0.013	0.222
-268.311	-200.000	-0.005	-0.057
-267.297	800.000	0.048	0.151
-266.282	121.442	-0.097	0.121
-265.267	-67.390	-0.186	0.073
-264.253	-86.854	0.062	-0.019
-263.238	-105.806	-0.187	-0.042
-262.224	283.803	0.031	-0.055
-261.209	-53.771	-0.099	0.045
-260.195	486.644	-0.069	0.157
-259.180	101.003	-0.041	-0.047
-258.165	-18.915	-0.063	-0.039
-257.151	-46.454	0.284	0.140
-256.136	328.895	0.090	0.174
-255.122	800.000	-0.033	0.091
-254.107	-200.000	0.024	0.177
-253.092	-61.656	0.159	-0.067
-252.078	800.000	0.077	0.240
-251.063	-166.668	0.184	0.008
-250.049	-200.000	-0.018	0.236
-249.034	-200.000	0.002	0.326
-248.019	-180.181	0.190	0.004
-247.005	-7.025	-0.141	-0.096
-245.990	220.268	-0.062	0.099
-244.976	-50.092	0.278	-0.132
-243.961	-9.193	-0.123	-0.083
-242.946	39.168	0.062	-0.056
-241.932	729.096	0.177	-0.474
-240.917	119.541	-0.191	-0.237
-239.903	-42.259	0.066	0.034
-238.888	-159.853	0.247	-0.014
-237.873	-200.000	-0.017	-0.291
-236.859	-135.820	0.159	-0.019
-235.844	71.195	0.155	0.161
-234.830	-200.000	0.018	0.167
-233.815	-158.379	-0.322	0.019
-232.800	41.924	-0.221	-0.201
-231.786	-200.000	0.023	0.264
-230.771	-58.516	-0.223	-0.097
-229.757	187.084	-0.107	-0.160
-228.742	-12.892	-0.147	0.096
-227.727	34.933	0.154	0.135
-226.713	800.000	-0.047	-0.139
-225.698	353.815	-0.102	-0.203
-224.684	-78.637	-0.063	0.021
-223.669	-200.000	0.020	0.118
-222.655	466.954	0.046	0.103
-221.640	36.731	-0.264	0.234
-220.625	59.261	0.126	0.124
-219.611	-200.000	0.011	0.150
-218.596	516.200	0.029	-0.067
-217.582	12.302	0.012	0.010
-216.567	-68.960	-0.184	-0.071
-215.552	200.702	-0.209	0.323
-214.538	-63.474	0.119	0.049
-213.523	-200.000	-0.108	-0.479
-212.509	358.821	0.106	-0.212
-211.494	263.247	-0.160	-0.279
-210.479	800.000	0.085	-0.247
-209.465	571.579	-0.098	0.239
-208.450	-13.660	0.188	0.122
-207.436	100.673	0.237	0.276
-206.421	134.867	0.077	-0.100
-205.406	52.490	0.051	0.049
-204.392	345.310	0.079	-0.156
-203.377	-86.073	0.266	0.082
-202.363	-108.821	0.208	0.045
-201.348	-9.054	-0.048	-0.032
-200.333	455.352	0.103	0.228
-199.319	35.965	-0.147	-0.129
-198.304	414.751	0.059	0.126
-197.290	740.353	-0.014	0.037
-196.275	160.270	-0.103	0.144
-195.260	294.340	0.126	0.231
-194.246	196.828	0.150	-0.230
-193.231	-196.557	-0.152	-0.001
-192.217	-121.407	-0.076	-0.013
-191.202	276.414	-0.058	-0.103
-190.187	-53.815	0.226	0.103
-189.173	117.642	0.010	-0.012
-188.158	-200.000	0.024	-0.569
-187.144	56.890	-0.320	0.312
-186.129	-200.000	-0.019	0.171
-185.114	275.646	-0.179	-0.318
-184.100	28.913	0.201	0.170
-183.085	800.000	-0.067	-0.256
-182.071	-200.000	0.071	-0.410
-181.056	162.859	0.057	-0.080
-180.042	-18.721	0.099	0.062
-179.027	773.007	0.073	0.199
-178.012	110.887	0.189	-0.227
-176.998	32.081	0.065	0.056
-175.983	-66.493	0.047	-0.018
-174.969	-122.449	0.154	0.025
-173.954	-47.010	-0.168	-0.082
-172.939	49.814	-0.205	-0.193
-171.925	379.816	-0.109	0.223
-170.910	-136.325	0.280	0.033
-169.896	603.713	-0.166	0.414
-168.881	103.937	-0.052	-0.061
-167.866	46.695	-0.114	-0.106
-166.852	-200.000	-0.035	0.230
-165.837	203.614	-0.111	0.172
-164.823	-158.860	-0.112	-0.006
-163.808	-13.068	-0.340	0.221
-162.793	150.360	-0.082	-0.111
-161.779	800.000	-0.057	-0.163
-160.764	20.999	0.135	-0.109
-159.750	131.145	0.096	-0.123
-158.735	119.071	0.138	0.171
-157.720	16.024	-0.233	0.183
-156.706	800.000	0.027	0.098
-155.691	800.000	-0.046	-0.143
-154.677	-130.016	0.076	-0.010
-153.662	800.000	0.029	-0.085
-152.647	-200.000	0.019	0.121
-151.633	-200.000	0.053	0.267
-150.618	506.033	-0.056	-0.130
-149.604	-200.000	0.038	0.219
-148.589	376.362	-0.111	0.226
-147.574	-71.872	-0.290	-0.108
-146.560	-31.989	-0.090	0.050
-145.545	-132.969	-0.135	-0.017
-144.531	-90.548	-0.405	-0.117
-143.516	-78.391	-0.136	-0.047
-142.502	-39.097	0.246	-0.129
-141.487	176.967	0.091	0.132
-140.472	-143.286	-0.277	-0.027
-139.458	2.744	-0.191	-0.138
-138.443	-126.793	0.198	0.029
-137.429	-70.937	-0.053	-0.020
-136.414	22.237	-0.167	0.136
-135.399	420.665	-0.099	-0.212
-134.385	-67.828	0.127	0.050
-133.370	535.168	0.036	0.086
-132.356	-114.942	-0.101	0.019
-131.341	159.306	0.116	0.162
-130.326	96.455	0.060	-0.069
-129.312	84.600	-0.058	-0.064
-128.297	-127.174	0.145	0.021
-127.283	-200.000	0.017	-0.231
-126.268	-200.000	0.046	-0.349
-125.253	-36.648	0.211	0.113
-124.239	-19.774	-0.151	-0.093
-123.224	-12.951	0.190	-0.123
-122.210	660.477	-0.147	0.378
-121.195	116.631	-0.367	0.450
