DTS Sentinel unit serial number:	SN413079Multiplexer serial number:	ORYXHardware model number:	OX4-SRSoftware version number:	ORYX F/W v4.00 Oryx Data Collector v3.7.2.0data status	okinstallation	princeton_trtdifferential loss correction	single-endedforward channel	channel 3reverse channel	N/Adate	2019/09/14time	20:32:35forward acquisition time	60.00reverse acquisition time	0.00gamma	496.2192k internal	0.2315k external	0.2315temperature offset calibration	1.0008default loss term (dB/km)	0.3790temperature slope calibration	1.0000multiplexer offset coefficient	1.0000multiplexer slope coefficient	1.0000fibre end	0.00T internal ref (°C)	33.50T ext. ref 1 (°C)	4.86T ext. ref 2 (°C)	28.12length (m)	temperature (°C)	Stokes	anti-Stokes-747.200	800.000	-0.087	0.329
-746.185	-200.000	-0.002	0.097
-745.171	-73.861	-0.628	0.231
-744.156	531.097	0.046	0.111
-743.142	-200.000	-0.033	0.416
-742.127	215.234	0.269	0.432
-741.112	272.939	-0.026	0.046
-740.098	204.771	0.229	0.361
-739.083	-200.000	0.204	0.001
-738.069	36.006	-0.083	0.074
-737.054	-200.000	0.005	0.265
-736.039	72.750	-0.250	0.264
-735.025	-83.991	0.377	0.121
-734.010	230.287	-0.133	-0.221
-732.996	-32.108	-0.041	-0.023
-731.981	-55.110	-0.499	0.227
-730.966	505.461	0.045	-0.106
-729.952	-168.702	0.037	-0.001
-728.937	-47.291	0.278	0.137
-727.923	319.758	-0.108	-0.208
-726.908	-2.760	-0.292	-0.207
-725.894	-135.392	-0.173	0.021
-724.879	800.000	0.077	-0.273
-723.864	36.742	0.214	-0.192
-722.850	-158.516	0.106	0.006
-721.835	187.663	0.112	0.169
-720.821	-178.434	0.235	-0.006
-719.806	71.652	0.168	-0.176
-718.791	800.000	-0.098	-0.422
-717.777	54.473	-0.022	0.021
-716.762	358.805	0.125	0.253
-715.748	187.890	-0.142	-0.214
-714.733	481.242	0.055	-0.127
-713.718	800.000	-0.038	0.160
-712.704	-200.000	0.004	0.040
-711.689	-88.758	-0.408	0.123
-710.675	41.016	-0.135	-0.123
-709.660	290.918	0.109	0.200
-708.645	-38.086	-0.056	-0.030
-707.631	-200.000	-0.073	-0.382
-706.616	-200.000	0.003	-0.120
-705.602	4.666	0.072	-0.054
-704.587	-85.851	0.253	0.079
-703.572	55.100	0.155	-0.151
-702.558	-200.000	-0.019	0.140
-701.543	66.562	-0.204	0.210
-700.529	-11.835	0.219	0.145
-699.514	214.464	-0.233	0.374
-698.499	-48.695	-0.142	-0.069
-697.485	-123.842	0.164	-0.026
-696.470	-112.916	0.523	-0.105
-695.456	305.001	0.040	0.075
-694.441	25.531	0.071	-0.060
-693.426	177.998	-0.033	0.049
-692.412	-200.000	0.038	0.259
-691.397	-200.000	-0.007	0.163
-690.383	-126.644	-0.226	-0.034
-689.368	154.595	-0.155	0.215
-688.354	46.675	-0.048	0.045
-687.339	78.102	-0.057	0.062
-686.324	225.670	-0.079	0.129
-685.310	108.844	-0.227	-0.274
-684.295	707.683	-0.095	0.254
-683.281	205.434	0.243	0.381
-682.266	-200.000	-0.033	-0.183
-681.251	70.661	0.047	-0.049
-680.237	84.953	-0.170	-0.188
-679.222	-38.878	-0.289	0.154
-678.208	-200.000	0.047	-0.212
-677.193	-68.131	-0.283	0.111
-676.178	-35.104	0.217	-0.119
-675.164	-200.000	0.027	0.184
-674.149	249.263	-0.079	-0.136
-673.135	-200.000	-0.032	-0.177
-672.120	64.877	0.169	-0.173
-671.105	448.970	0.189	0.421
-670.091	-138.333	0.298	-0.033
-669.076	272.139	0.123	-0.219
-668.062	55.065	0.196	0.191
-667.047	-200.000	-0.037	-0.356
-666.032	-200.000	-0.063	-0.411
-665.018	168.364	-0.203	0.292
-664.003	140.418	0.171	0.229
-662.989	-10.134	-0.287	0.193
-661.974	-110.612	-0.227	-0.047
-660.959	-20.768	0.172	0.106
-659.945	32.070	-0.055	0.048
-658.930	-55.700	0.140	0.063
-657.916	-8.133	0.190	0.129
-656.901	58.607	-0.254	0.252
-655.886	122.524	-0.201	0.253
-654.872	-103.426	-0.246	0.058
-653.857	255.786	0.165	-0.286
-652.843	800.000	0.153	-0.460
-651.828	800.000	0.070	-0.275
-650.814	800.000	-0.044	-0.139
-649.799	-200.000	0.003	-0.189
-648.784	-170.314	0.202	0.007
-647.770	-200.000	0.010	-0.170
-646.755	-200.000	0.003	-0.354
-645.741	80.459	0.227	0.247
-644.726	83.581	-0.148	0.163
-643.711	-148.108	-0.094	-0.008
-642.697	-110.951	-0.373	0.077
-641.682	-108.107	-0.123	-0.027
-640.668	-72.729	-0.413	0.153
-639.653	0.460	0.398	0.287
-638.638	437.928	-0.088	0.193
-637.624	59.280	0.134	0.133
-636.609	-117.956	0.255	-0.046
-635.595	-69.994	-0.650	-0.250
-634.580	167.689	-0.114	0.164
-633.565	800.000	-0.051	-0.175
-632.551	-89.449	-0.162	0.048
-631.536	437.692	0.108	0.237
-630.522	50.639	-0.116	0.111
-629.507	-200.000	-0.014	0.170
-628.492	-14.243	-0.258	-0.168
-627.478	-75.075	-0.288	0.104
-626.463	-200.000	0.023	0.165
-625.449	-52.541	-0.361	-0.168
-624.434	318.504	0.065	-0.124
-623.419	-105.132	0.299	0.069
-622.405	-90.587	-0.183	-0.053
-621.390	86.178	-0.214	0.237
-620.376	150.312	0.043	-0.059
-619.361	-200.000	0.074	-0.369
-618.346	311.001	-0.139	-0.262
-617.332	-106.985	0.243	0.054
-616.317	-200.000	0.008	-0.066
-615.303	-56.913	0.184	0.082
-614.288	-115.216	-0.384	0.073
-613.273	-65.588	-0.200	-0.081
-612.259	292.523	0.055	-0.101
-611.244	-200.000	0.018	-0.209
-610.230	-78.395	0.193	-0.067
-609.215	-82.704	-0.154	0.050
-608.201	-200.000	0.015	-0.166
-607.186	-101.557	0.290	0.071
-606.171	-138.917	-0.269	-0.029
-605.157	-95.151	0.103	-0.028
-604.142	63.786	-0.102	-0.104
-603.128	46.839	-0.177	0.166
-602.113	357.519	-0.023	-0.047
-601.098	235.026	-0.071	0.119
-600.084	-31.972	0.154	0.087
-599.069	-41.756	0.035	-0.018
-598.055	-200.000	0.007	0.190
-597.040	-123.516	-0.345	-0.055
-596.025	109.708	0.070	0.084
-595.011	-3.270	0.404	0.284
-593.996	-78.524	-0.073	-0.025
-592.982	39.978	-0.259	-0.234
-591.967	-200.000	-0.024	0.189
-590.952	62.771	-0.164	0.165
-589.938	321.070	-0.110	-0.211
-588.923	-71.248	0.332	-0.125
-587.909	-127.599	-0.069	0.010
-586.894	3.834	-0.182	-0.134
-585.879	-27.293	0.108	-0.064
-584.865	29.469	-0.240	0.205
-583.850	-173.818	-0.390	-0.012
-582.836	-139.461	-0.147	0.016
-581.821	49.650	0.220	0.209
-580.806	800.000	0.050	0.153
-579.792	205.249	0.154	-0.241
-578.777	18.370	-0.244	0.196
-577.763	-31.894	0.097	0.055
-576.748	153.257	0.062	0.086
-575.733	800.000	-0.034	-0.113
-574.719	-115.506	-0.254	0.048
-573.704	16.564	0.364	0.289
-572.690	159.322	-0.077	-0.108
-571.675	233.750	0.152	-0.252
-570.661	383.827	-0.123	0.255
-569.646	-26.187	-0.258	-0.152
-568.631	464.245	-0.125	0.280
-567.617	-200.000	-0.213	-0.000
-566.602	-5.461	-0.242	-0.167
-565.588	81.569	0.137	0.149
-564.573	251.428	-0.067	0.115
-563.558	-21.119	0.272	0.167
-562.544	-126.537	0.075	-0.011
-561.529	519.612	-0.028	-0.067
-560.515	28.124	-0.146	0.124
-559.500	21.749	-0.018	-0.015
-558.485	17.053	0.203	0.162
-557.471	2.721	0.138	-0.101
-556.456	-200.000	0.024	0.158
-555.442	-107.385	0.135	0.030
-554.427	-200.000	-0.011	0.181
-553.412	-45.926	0.391	-0.194
-552.398	-67.329	-0.084	-0.033
-551.383	591.349	0.009	0.022
-550.369	112.881	0.081	0.099
-549.354	-191.219	-0.023	-0.000
-548.339	1.860	0.224	-0.162
-547.325	39.936	0.050	0.045
-546.310	-70.034	0.076	0.029
-545.296	-50.645	0.373	-0.177
-544.281	150.589	0.166	0.226
-543.266	-47.510	0.072	0.035
-542.252	202.632	0.294	-0.456
-541.237	-200.000	0.002	0.090
-540.223	152.727	0.152	0.208
-539.208	-187.800	0.289	-0.004
-538.193	800.000	-0.111	0.458
-537.179	-57.558	0.198	-0.087
-536.164	94.016	0.108	-0.123
-535.150	285.630	-0.022	-0.041
-534.135	-84.643	-0.098	-0.031
-533.121	32.115	0.137	-0.119
-532.106	-200.000	-0.003	-0.277
-531.091	295.529	-0.055	0.101
-530.077	-128.513	-0.338	0.048
-529.062	103.201	0.019	-0.022
-528.048	-47.634	-0.127	-0.062
-527.033	6.629	0.160	0.119
-526.018	687.155	0.082	-0.214
-525.004	-171.728	0.322	-0.011
-523.989	-47.157	-0.546	0.267
-522.975	608.187	-0.077	0.194
-521.960	-13.053	-0.296	0.193
-520.945	-18.737	-0.299	0.187
-519.931	113.815	-0.310	0.379
-518.916	61.688	0.326	-0.326
-517.902	-200.000	-0.009	-0.235
-516.887	-200.000	0.001	-0.270
-515.872	800.000	-0.030	-0.097
-514.858	88.411	-0.076	0.085
-513.843	93.879	-0.109	-0.124
-512.829	143.898	-0.127	-0.170
-511.814	-26.671	-0.257	-0.151
-510.799	718.135	-0.096	0.255
-509.785	-106.311	0.119	0.027
-508.770	-81.133	-0.202	0.067
-507.756	800.000	-0.066	-0.204
-506.741	-200.000	0.001	-0.161
-505.726	-82.638	0.315	0.103
-504.712	800.000	0.030	-0.114
-503.697	800.000	-0.077	0.235
-502.683	-200.000	-0.048	-0.225
-501.668	8.147	-0.274	0.207
-500.653	404.373	-0.077	-0.164
-499.639	97.930	0.140	0.162
-498.624	-200.000	0.040	0.260
-497.610	-107.899	0.184	0.040
-496.595	-156.598	0.165	0.010
-495.581	-200.000	0.031	0.196
-494.566	-200.000	-0.065	-0.406
-493.551	113.643	-0.026	-0.032
-492.537	107.269	0.150	-0.178
-491.522	297.165	-0.108	-0.198
-490.508	-56.924	0.075	-0.033
-489.493	113.845	-0.239	0.291
-488.478	-29.771	0.449	-0.257
-487.464	-7.176	-0.041	-0.028
-486.449	104.659	-0.149	0.176
-485.435	-111.864	-0.415	0.084
-484.420	54.686	-0.039	0.038
-483.405	12.412	-0.362	-0.280
-482.391	-86.425	0.260	-0.080
-481.376	510.933	-0.087	-0.203
-480.362	-200.000	-0.010	0.218
-479.347	522.484	0.120	-0.283
-478.332	-200.000	0.064	0.298
-477.318	-20.781	0.114	-0.070
-476.303	79.302	-0.069	-0.074
-475.289	-15.846	0.184	0.118
-474.274	16.662	0.103	-0.082
-473.259	-100.917	-0.115	0.028
-472.245	-116.090	-0.103	0.019
-471.230	-112.932	-0.089	0.018
-470.216	-5.742	-0.326	0.224
-469.201	-114.109	-0.164	-0.032
-468.186	141.839	-0.059	0.078
-467.172	109.763	0.235	-0.282
-466.157	313.428	-0.046	-0.086
-465.143	235.289	-0.101	-0.168
-464.128	-200.000	0.013	-0.335
-463.113	-168.501	-0.036	-0.001
-462.099	-55.526	0.335	0.150
-461.084	-65.116	0.169	0.068
-460.070	-31.438	0.186	0.105
-459.055	-200.000	-0.029	-0.223
-458.040	-200.000	0.005	0.122
-457.026	61.188	-0.227	-0.226
-456.011	406.659	-0.093	0.196
-454.997	205.428	-0.143	-0.222
-453.982	800.000	-0.056	-0.164
-452.968	33.612	0.145	-0.126
-451.953	-9.176	0.188	0.126
-450.938	-137.325	-0.156	0.018
-449.924	-182.761	0.323	0.006
-448.909	129.496	-0.045	-0.057
-447.895	-46.626	-0.169	-0.083
-446.880	34.306	-0.222	-0.194
-445.865	-200.000	0.042	0.310
-444.851	117.662	-0.115	0.142
-443.836	-32.686	-0.384	-0.214
-442.822	-173.653	0.254	-0.008
-441.807	-6.192	0.217	0.148
-440.792	23.575	-0.043	0.035
-439.778	628.978	-0.055	0.138
-438.763	-155.155	0.285	0.019
-437.749	-155.112	-0.103	0.007
-436.734	132.850	-0.119	-0.153
-435.719	747.624	0.189	-0.510
-434.705	483.103	-0.136	-0.310
-433.690	35.284	-0.106	-0.093
-432.676	-17.545	0.080	0.051
-431.661	189.380	-0.151	-0.227
-430.646	-129.669	0.251	0.035
-429.632	-36.822	0.244	-0.131
-428.617	594.410	-0.055	0.135
-427.603	389.625	0.101	-0.210
-426.588	-73.407	0.355	-0.130
-425.573	273.460	0.040	-0.071
-424.559	-200.000	0.005	0.105
-423.544	800.000	0.069	0.230
-422.530	-45.335	0.337	0.167
-421.515	-112.712	0.056	-0.011
-420.500	-99.607	-0.069	-0.017
-419.486	-200.000	0.079	0.492
-418.471	800.000	-0.046	0.175
-417.457	-164.493	-0.367	-0.017
-416.442	64.928	-0.172	-0.173
-415.428	-59.579	-0.160	-0.069
-414.413	-200.000	-0.010	0.219
-413.398	-200.000	-0.063	0.501
-412.384	45.970	-0.125	0.116
-411.369	617.917	-0.073	0.183
-410.355	411.938	0.014	0.030
-409.340	-174.972	-0.247	-0.007
-408.325	800.000	0.078	0.232
-407.311	-83.680	0.184	-0.059
-406.296	-184.628	0.237	0.004
-405.282	525.459	-0.014	-0.033
-404.267	800.000	0.045	0.168
-403.252	30.793	-0.161	-0.138
-402.238	-200.000	0.077	-0.344
-401.223	-122.927	-0.310	-0.050
-400.209	-95.101	-0.066	0.018
-399.194	-102.571	-0.192	-0.046
-398.179	-157.686	0.139	0.008
-397.165	-131.965	0.287	-0.037
-396.150	81.308	0.144	-0.156
-395.136	154.345	-0.063	0.087
-394.121	343.433	-0.010	-0.020
-393.106	110.320	0.142	-0.170
-392.092	321.762	-0.254	0.483
-391.077	-74.137	-0.210	0.076
-390.063	193.748	-0.226	0.341
-389.048	229.979	-0.086	0.141
-388.033	53.208	0.039	-0.037
-387.019	35.009	0.130	0.114
-386.004	-142.260	-0.196	0.019
-384.990	26.700	0.466	-0.390
-383.975	800.000	0.171	-0.499
-382.960	-180.548	-0.384	0.008
-381.946	-200.000	0.030	0.267
-380.931	-106.686	0.107	-0.024
-379.917	-200.000	0.007	0.176
-378.902	59.229	-0.113	0.111
-377.888	-53.302	0.148	-0.068
-376.873	-69.032	0.143	0.055
-375.858	-118.293	-0.082	0.015
-374.844	-200.000	-0.042	0.421
-373.829	-140.446	-0.094	-0.010
-372.815	-20.900	0.102	0.062
-371.800	20.366	0.282	-0.228
-370.785	-14.033	0.173	-0.112
-369.771	-124.761	-0.033	-0.005
-368.756	-135.518	0.077	-0.009
-367.742	-85.805	0.045	-0.014
-366.727	5.347	0.127	-0.094
-365.712	390.996	-0.147	0.305
-364.698	-10.746	-0.354	0.234
-363.683	-53.177	-0.239	-0.109
-362.669	205.470	-0.160	0.248
-361.654	-64.591	0.281	-0.114
-360.639	-112.743	-0.124	-0.025
-359.625	-200.000	0.043	0.201
-358.610	161.334	-0.090	0.125
-357.596	288.968	-0.036	-0.066
-356.581	-200.000	0.026	-0.149
-355.566	800.000	0.066	0.206
-354.552	-25.868	0.268	-0.157
-353.537	800.000	-0.024	0.071
-352.523	-165.463	0.131	0.006
-351.508	-145.950	0.237	-0.021
-350.493	-157.152	-0.363	-0.022
-349.479	-200.000	0.006	-0.201
-348.464	15.600	0.198	-0.155
-347.450	24.116	0.052	-0.043
-346.435	-64.889	0.247	-0.100
-345.420	118.938	0.105	-0.129
-344.406	-124.028	-0.270	0.042
-343.391	70.582	-0.122	0.126
-342.377	37.359	-0.112	-0.099
-341.362	-85.523	0.170	0.053
-340.348	204.934	0.008	-0.012
-339.333	-126.382	-0.106	-0.016
-338.318	69.058	-0.140	-0.144
-337.304	800.000	-0.049	0.158
-336.289	-169.229	-0.167	-0.006
-335.275	-200.000	-0.024	-0.117
-334.260	-100.324	-0.307	0.076
-333.245	104.907	-0.229	0.269
-332.231	-92.393	0.141	-0.040
-331.216	-93.907	0.078	0.021
-330.202	-200.000	-0.051	-0.388
-329.187	18.186	0.165	-0.132
-328.172	-62.840	0.108	0.045
-327.158	800.000	-0.084	0.323
-326.143	144.688	0.152	-0.203
-325.129	74.659	-0.171	0.180
-324.114	800.000	0.047	0.204
-323.099	176.858	-0.112	0.163
-322.085	-80.579	0.244	0.081
-321.070	49.329	-0.108	0.102
-320.056	-128.486	0.308	0.044
-319.041	341.664	0.102	-0.198
-318.026	-86.410	0.334	-0.102
-317.012	4.794	-0.184	0.135
-315.997	88.717	-0.065	0.072
-314.983	-116.648	0.268	-0.049
-313.968	-117.688	-0.214	0.038
-312.953	144.849	0.249	0.331
-311.939	112.282	0.139	0.167
-310.924	446.500	-0.010	-0.022
-309.910	-200.000	-0.035	0.206
-308.895	-62.985	0.209	-0.086
-307.880	100.510	0.055	-0.064
-306.866	25.156	0.289	0.239
-305.851	800.000	-0.057	0.202
-304.837	-119.216	0.137	0.024
-303.822	-90.873	-0.316	-0.091
-302.807	22.105	-0.216	-0.175
-301.793	-200.000	0.004	-0.114
-300.778	-137.892	-0.364	-0.041
-299.764	210.325	-0.200	0.313
-298.749	-37.136	0.207	-0.110
-297.735	-74.475	0.033	0.012
-296.720	800.000	0.043	0.155
-295.705	169.230	0.028	0.040
-294.691	586.405	-0.047	-0.116
-293.676	-200.000	0.031	-0.135
-292.662	-200.000	-0.002	0.152
-291.647	46.738	-0.214	0.198
-290.632	-200.000	0.011	-0.103
-289.618	-200.000	0.039	-0.179
-288.603	800.000	0.058	-0.229
-287.589	-200.000	0.003	-0.426
-286.574	194.789	0.139	-0.210
-285.559	-138.904	0.152	-0.016
-284.545	164.972	0.114	0.160
-283.530	-154.749	0.060	-0.004
-282.516	468.186	0.128	-0.285
-281.501	156.924	-0.102	-0.141
-280.486	157.508	0.069	-0.096
-279.472	-179.121	-0.123	0.003
-278.457	-111.767	-0.302	0.061
-277.443	125.338	-0.186	0.233
-276.428	288.508	0.100	0.179
-275.413	-107.524	0.252	0.055
-274.399	800.000	-0.096	-0.393
-273.384	2.605	0.242	-0.175
-272.370	-137.321	-0.142	0.016
-271.355	800.000	-0.016	0.050
-270.340	800.000	0.086	-0.242
-269.326	-200.000	0.022	0.160
-268.311	69.859	-0.224	-0.229
-267.297	-200.000	-0.008	-0.157
-266.282	800.000	0.068	-0.206
-265.267	-200.000	-0.046	0.241
-264.253	-133.256	-0.148	-0.019
-263.238	209.818	0.151	0.235
-262.224	273.512	0.130	-0.228
-261.209	-49.575	-0.343	-0.162
-260.195	-106.181	-0.132	-0.029
-259.180	-57.372	0.053	0.023
-258.165	-116.893	-0.282	0.051
-257.151	22.592	-0.164	0.134
-256.136	95.960	-0.241	-0.274
-255.122	6.801	-0.263	-0.194
-254.107	-53.878	0.101	-0.046
-253.092	-83.662	-0.047	-0.015
-252.078	97.574	0.128	0.146
-251.063	-86.016	0.136	-0.042
-250.049	-11.782	0.231	-0.151
-249.034	31.580	-0.138	-0.118
-248.019	-200.000	0.001	-0.087
-247.005	-35.916	-0.149	0.080
-245.990	800.000	-0.083	-0.254
-244.976	60.756	-0.312	-0.307
-243.961	349.516	-0.106	-0.208
-242.946	617.890	-0.096	0.240
-241.932	-87.730	-0.305	0.091
-240.917	222.389	0.155	0.247
-239.903	-111.058	0.067	-0.014
-238.888	800.000	0.062	-0.208
-237.873	174.441	0.245	-0.351
-236.859	-49.575	-0.121	0.057
-235.844	224.183	0.074	-0.118
-234.830	3.671	-0.132	-0.095
-233.815	800.000	0.072	-0.306
-232.800	-69.366	0.306	0.117
-231.786	161.207	-0.239	-0.332
-230.771	-24.698	0.053	0.031
-229.757	-66.973	-0.199	-0.078
-228.742	-72.206	-0.007	0.003
-227.727	-107.281	0.418	-0.091
-226.713	49.624	-0.342	-0.320
-225.698	-139.761	0.111	-0.012
-224.684	-94.603	-0.311	0.084
-223.669	193.261	0.126	-0.189
-222.655	118.527	0.102	0.124
-221.640	74.007	0.142	-0.148
-220.625	86.909	0.181	-0.199
-219.611	360.828	0.091	0.180
-218.596	335.441	-0.084	0.161
-217.582	-153.565	-0.185	0.013
-216.567	-121.225	-0.279	-0.046
-215.552	-58.524	-0.217	-0.093
-214.538	-101.900	-0.220	0.053
-213.523	-19.078	0.240	-0.148
-212.509	800.000	-0.121	0.415
-211.494	58.903	-0.194	0.189
-210.479	481.530	0.017	-0.039
-209.465	98.379	0.075	0.086
-208.450	654.973	-0.060	-0.153
-207.436	173.790	0.152	-0.218
-206.421	-1.326	0.176	-0.124
-205.406	130.521	0.156	-0.198
-204.392	-65.164	-0.050	-0.020
-203.377	-24.865	0.509	-0.300
-202.363	-109.573	0.298	0.062
-201.348	-92.392	0.092	-0.026
-200.333	-40.830	-0.209	0.107
-199.319	113.407	0.397	0.477
-198.304	-115.226	0.251	-0.047
-197.290	138.402	0.138	0.180
-196.275	-26.170	-0.086	0.050
-195.260	-82.323	-0.052	0.017
-194.246	86.258	0.206	-0.225
-193.231	-200.000	-0.056	-0.289
-192.217	-102.019	-0.023	-0.005
-191.202	800.000	0.062	0.173
-190.187	-200.000	-0.000	0.057
-189.173	253.901	0.216	0.365
-188.158	-2.912	-0.187	-0.129
-187.144	39.370	0.143	-0.127
-186.129	5.365	0.065	-0.047
-185.114	-200.000	0.042	0.277
-184.100	-135.935	0.010	-0.001
-183.085	161.318	0.058	0.080
-182.071	-24.355	0.228	-0.135
-181.056	800.000	-0.085	-0.287
-180.042	-200.000	-0.006	-0.369
-179.027	-65.381	0.309	-0.123
-178.012	-127.025	-0.057	-0.008
-176.998	559.679	-0.115	-0.275
-175.983	661.087	-0.074	0.189
-174.969	356.934	-0.255	0.505
-173.954	29.071	0.236	0.198
-172.939	238.015	0.163	0.268
-171.925	101.142	0.207	0.238
-170.910	-103.467	-0.146	-0.034
-169.896	-200.000	0.009	-0.334
-168.881	800.000	-0.022	-0.067
-167.866	-6.650	0.392	0.264
-166.852	189.993	-0.102	0.151
-165.837	800.000	-0.087	0.337
-164.823	75.251	0.267	0.279
-163.808	-22.651	0.133	0.080
-162.793	110.896	0.169	0.201
-161.779	800.000	0.061	0.230
-160.764	-22.799	-0.209	0.125
-159.750	-200.000	-0.030	0.275
-158.735	-157.611	0.192	0.011
-157.720	-34.792	0.094	-0.051
-156.706	72.937	0.120	-0.124
-155.691	-46.143	-0.011	-0.005
-154.677	-82.181	0.481	0.155
-153.662	-105.661	-0.248	0.056
-152.647	-200.000	-0.007	-0.085
-151.633	304.404	0.100	-0.183
-150.618	-144.744	0.039	0.004
-149.604	33.477	-0.110	-0.095
-148.589	-106.085	0.014	0.003
-147.574	47.613	0.311	0.287
-146.560	-98.178	0.182	0.046
-145.545	20.328	0.287	0.229
-144.531	589.415	0.127	0.310
-143.516	800.000	-0.024	-0.097
-142.502	-167.632	0.321	-0.013
-141.487	-200.000	0.002	0.224
-140.472	-110.079	0.448	-0.093
-139.458	-55.601	0.136	0.060
-138.443	800.000	-0.062	0.181
-137.429	-148.053	0.310	-0.025
-136.414	-83.887	0.245	-0.077
-135.399	800.000	-0.045	-0.164
-134.385	-93.287	0.306	0.084
-133.370	84.455	0.154	0.167
-132.356	333.750	-0.111	0.212
-131.341	-200.000	0.029	-0.143
-130.326	-200.000	0.007	-0.336
-129.312	146.982	0.128	0.170
-128.297	16.059	-0.177	-0.138
-127.283	-42.277	0.241	0.122
-126.268	-192.194	-0.232	0.002
-125.253	800.000	0.109	0.360
-124.239	-54.980	0.347	-0.155
-123.224	36.799	-0.097	-0.085
-122.210	58.981	-0.321	-0.312
-121.195	-65.927	0.197	0.078
-120.180	-79.409	0.164	0.055
