DTS Sentinel unit serial number:	SN413079Multiplexer serial number:	ORYXHardware model number:	OX4-SRSoftware version number:	ORYX F/W v4.00 Oryx Data Collector v3.7.2.0data status	okinstallation	princeton_trtdifferential loss correction	single-endedforward channel	channel 3reverse channel	N/Adate	2019/09/17time	00:16:35forward acquisition time	60.00reverse acquisition time	0.00gamma	496.2192k internal	0.2324k external	0.2324temperature offset calibration	0.9945default loss term (dB/km)	0.3790temperature slope calibration	1.0000multiplexer offset coefficient	1.0000multiplexer slope coefficient	1.0000fibre end	0.00T internal ref (°C)	29.50T ext. ref 1 (°C)	0.09T ext. ref 2 (°C)	23.67length (m)	temperature (°C)	Stokes	anti-Stokes-747.200	514.343	0.098	-0.230
-746.185	800.000	-0.050	0.153
-745.171	-163.134	-0.303	-0.015
-744.156	256.981	0.250	0.434
-743.142	386.859	-0.139	-0.290
-742.127	298.539	0.071	0.132
-741.112	-192.560	0.279	0.003
-740.098	-200.000	-0.058	0.372
-739.083	152.097	-0.268	0.370
-738.069	120.762	0.211	0.265
-737.054	800.000	-0.145	0.429
-736.039	628.612	-0.141	-0.360
-735.025	140.044	0.037	-0.049
-734.010	115.043	-0.167	-0.205
-732.996	306.009	-0.163	-0.306
-731.981	800.000	-0.044	-0.130
-730.966	18.581	-0.196	-0.158
-729.952	-200.000	-0.007	-0.322
-728.937	-200.000	-0.067	0.312
-727.923	-12.935	-0.298	0.196
-726.908	-111.144	-0.208	0.043
-725.894	800.000	-0.044	-0.180
-724.879	-200.000	0.013	0.114
-723.864	-80.342	-0.134	0.045
-722.850	-200.000	0.009	0.065
-721.835	-158.217	-0.289	-0.017
-720.821	15.241	-0.395	0.312
-719.806	-117.128	-0.129	0.024
-718.791	-112.259	-0.139	0.028
-717.777	800.000	0.047	-0.195
-716.762	13.176	-0.288	0.225
-715.748	-117.144	-0.026	-0.005
-714.733	-200.000	0.052	-0.375
-713.718	-200.000	-0.044	-0.223
-712.704	398.795	0.049	-0.103
-711.689	-158.532	-0.197	0.011
-710.675	-200.000	-0.017	-0.213
-709.660	-129.066	0.228	-0.032
-708.645	-149.580	-0.081	0.006
-707.631	245.159	-0.141	-0.240
-706.616	-42.866	0.060	-0.031
-705.602	5.954	-0.050	0.037
-704.587	-4.865	0.183	-0.127
-703.572	-122.031	-0.234	0.039
-702.558	28.626	-0.169	0.144
-701.543	22.090	0.138	-0.114
-700.529	-153.067	-0.192	-0.014
-699.514	800.000	0.054	0.181
-698.499	800.000	-0.016	-0.066
-697.485	-24.660	-0.092	-0.055
-696.470	124.008	0.203	-0.256
-695.456	-162.628	0.138	0.007
-694.441	800.000	0.101	0.310
-693.426	-200.000	0.019	-0.220
-692.412	-32.209	-0.032	0.018
-691.397	-36.283	-0.276	0.150
-690.383	-38.439	-0.065	-0.035
-689.368	-200.000	0.030	-0.328
-688.354	553.004	-0.125	-0.303
-687.339	-94.963	-0.101	-0.027
-686.324	-69.760	0.111	0.043
-685.310	-161.157	0.354	0.019
-684.295	-25.514	-0.205	-0.122
-683.281	-123.448	0.115	-0.018
-682.266	-200.000	-0.044	-0.227
-681.251	800.000	0.059	0.209
-680.237	800.000	-0.071	-0.240
-679.222	115.408	-0.058	-0.072
-678.208	384.381	0.051	0.106
-677.193	146.694	0.068	-0.092
-676.178	56.367	0.120	0.117
-675.164	37.525	-0.104	-0.092
-674.149	261.263	0.207	0.361
-673.135	-200.000	0.017	-0.349
-672.120	390.110	-0.066	-0.138
-671.105	89.268	-0.041	0.046
-670.091	-112.084	0.096	0.019
-669.076	111.128	0.149	0.180
-668.062	46.446	-0.030	-0.028
-667.047	-154.999	0.097	0.006
-666.032	-47.486	0.266	-0.130
-665.018	-140.831	0.377	0.039
-664.003	-200.000	0.049	0.270
-662.989	-200.000	0.005	-0.097
-661.974	-67.356	0.098	0.039
-660.959	180.674	0.186	-0.274
-659.945	461.967	-0.080	0.180
-658.930	-200.000	0.041	-0.316
-657.916	-80.313	0.458	0.154
-656.901	-43.853	0.154	0.078
-655.886	690.694	0.090	-0.236
-654.872	9.372	0.296	-0.225
-653.857	98.077	0.313	-0.362
-652.843	309.713	-0.050	0.094
-651.828	275.999	-0.055	0.099
-650.814	120.484	0.225	0.281
-649.799	171.206	0.109	-0.157
-648.784	800.000	0.030	0.123
-647.770	-200.000	-0.021	-0.420
-646.755	-36.281	-0.146	-0.079
-645.741	277.753	0.217	-0.389
-644.726	-84.323	0.255	0.081
-643.711	708.157	0.073	-0.193
-642.697	-119.420	0.267	-0.047
-641.682	-200.000	0.040	0.315
-640.668	84.851	0.017	0.019
-639.653	550.656	-0.133	0.322
-638.638	122.054	0.253	0.318
-637.624	13.699	-0.147	-0.115
-636.609	88.635	-0.134	0.149
-635.595	-200.000	0.054	-0.338
-634.580	-200.000	-0.006	-0.091
-633.565	20.972	-0.161	0.131
-632.551	249.853	-0.076	-0.130
-631.536	-45.871	-0.135	-0.067
-630.522	-147.877	0.154	0.013
-629.507	74.670	0.068	-0.072
-628.492	800.000	0.108	-0.341
-627.478	14.835	0.079	-0.062
-626.463	-14.412	-0.359	-0.232
-625.449	-27.788	0.188	-0.109
-624.434	82.154	-0.047	-0.051
-623.419	-54.945	-0.294	0.133
-622.405	-200.000	-0.017	0.246
-621.390	79.109	0.118	0.127
-620.376	-127.917	-0.153	0.022
-619.361	140.058	0.167	0.222
-618.346	-65.700	-0.167	0.067
-617.332	540.229	0.120	0.287
-616.317	-35.658	0.185	0.101
-615.303	-1.782	0.139	-0.098
-614.288	72.858	-0.310	-0.325
-613.273	127.443	-0.264	-0.337
-612.259	599.045	-0.020	0.050
-611.244	242.265	0.197	-0.332
-610.230	-64.888	-0.265	-0.108
-609.215	-70.838	0.186	0.070
-608.201	-200.000	-0.007	0.104
-607.186	-73.082	0.282	-0.104
-606.171	-33.349	-0.367	-0.204
-605.157	-137.570	0.512	-0.058
-604.142	136.748	-0.205	-0.269
-603.128	-153.805	-0.260	-0.018
-602.113	131.512	0.187	0.241
-601.098	-10.393	0.266	-0.177
-600.084	-113.243	0.114	0.023
-599.069	-200.000	0.015	-0.597
-598.055	-200.000	0.003	0.425
-597.040	800.000	0.061	0.258
-596.025	35.099	-0.152	-0.133
-595.011	-171.352	0.161	-0.005
-593.996	-10.955	-0.091	0.060
-592.982	800.000	-0.103	-0.427
-591.967	-200.000	0.033	-0.179
-590.952	11.969	-0.253	-0.195
-589.938	162.493	-0.068	-0.096
-588.923	130.723	0.171	0.220
-587.909	-58.653	-0.236	0.103
-586.894	-9.614	0.193	-0.129
-585.879	-4.898	0.363	-0.251
-584.865	-200.000	-0.006	0.123
-583.850	39.126	-0.279	0.250
-582.836	422.325	-0.107	-0.231
-581.821	-27.592	-0.247	0.144
-580.806	40.993	-0.374	0.339
-579.792	-108.821	0.230	0.049
-578.777	-103.613	-0.150	-0.035
-577.763	-72.688	0.040	-0.015
-576.748	146.876	0.096	-0.130
-575.733	-36.351	-0.325	0.176
-574.719	3.215	-0.137	-0.100
-573.704	-123.149	-0.160	-0.026
-572.690	-66.609	0.158	-0.063
-571.675	350.968	0.162	-0.321
-570.661	9.127	-0.301	-0.228
-569.646	493.181	-0.079	0.182
-568.631	187.207	-0.061	0.092
-567.617	-85.967	-0.159	-0.049
-566.602	-200.000	0.023	-0.150
-565.588	800.000	-0.100	-0.334
-564.573	241.349	-0.105	0.176
-563.558	-200.000	-0.044	-0.287
-562.544	-39.633	0.233	-0.122
-561.529	-200.000	0.035	0.383
-560.515	700.179	-0.039	0.103
-559.500	-167.232	-0.165	0.007
-558.485	-137.080	0.060	-0.007
-557.471	-177.038	-0.466	-0.012
-556.456	-125.459	0.154	0.024
-555.442	-120.253	-0.347	-0.059
-554.427	118.652	-0.258	0.319
-553.412	-72.455	-0.190	0.070
-552.398	378.680	-0.064	-0.131
-551.383	330.328	-0.150	-0.290
-550.369	107.406	-0.161	-0.192
-549.354	58.726	0.207	0.203
-548.339	32.414	-0.051	0.044
-547.325	11.780	-0.225	-0.173
-546.310	-161.595	-0.120	-0.006
-545.296	1.972	0.216	-0.156
-544.281	-49.114	-0.313	0.150
-543.266	62.265	-0.168	-0.168
-542.252	67.227	0.250	0.255
-541.237	-200.000	0.053	-0.234
-540.223	294.331	-0.205	-0.376
-539.208	263.436	-0.138	0.240
-538.193	-71.968	-0.278	-0.104
-537.179	-19.048	-0.320	-0.199
-536.164	-81.191	0.212	0.070
-535.150	-152.154	-0.148	0.011
-534.135	-34.900	-0.216	-0.118
-533.121	-72.100	0.265	-0.098
-532.106	-100.134	0.071	-0.018
-531.091	-0.348	0.308	-0.219
-530.077	12.200	-0.385	0.297
-529.062	-46.775	0.256	0.125
-528.048	375.764	0.121	0.246
-527.033	97.110	-0.057	-0.065
-526.018	-105.199	-0.151	0.034
-525.004	449.227	-0.068	0.150
-523.989	22.975	0.121	-0.100
-522.975	-75.140	0.090	-0.032
-521.960	-31.484	0.099	-0.056
-520.945	105.805	-0.042	-0.049
-519.931	-200.000	0.011	-0.232
-518.916	800.000	-0.057	-0.202
-517.902	800.000	-0.034	-0.124
-516.887	800.000	0.011	0.045
-515.872	800.000	0.043	0.180
-514.858	142.508	-0.047	0.062
-513.843	-0.747	0.258	0.183
-512.829	-200.000	-0.003	0.090
-511.814	322.617	0.048	0.091
-510.799	10.075	0.217	0.165
-509.785	-200.000	0.025	0.203
-508.770	-153.796	0.135	0.009
-507.756	-11.186	-0.425	-0.280
-506.741	46.286	-0.113	-0.105
-505.726	-92.777	0.057	0.016
-504.712	-89.987	-0.299	-0.087
-503.697	-115.766	0.272	-0.051
-502.683	254.090	0.077	0.132
-501.668	-86.618	0.154	0.047
-500.653	-180.731	0.203	-0.004
-499.639	-75.993	0.174	-0.062
-498.624	-62.374	0.274	-0.114
-497.610	303.779	0.064	0.119
-496.595	-28.449	0.145	-0.084
-495.581	445.543	0.119	-0.260
-494.566	-115.379	0.385	-0.073
-493.551	-31.783	-0.371	0.208
-492.537	-200.000	0.060	-0.274
-491.522	-200.000	-0.028	0.295
-490.508	800.000	-0.097	0.392
-489.493	-200.000	0.010	-0.223
-488.478	-200.000	0.038	-0.399
-487.464	180.036	0.015	0.022
-486.449	200.751	-0.093	0.143
-485.435	40.119	0.272	0.244
-484.420	223.333	-0.219	0.353
-483.405	-2.210	0.359	-0.251
-482.391	33.916	-0.236	-0.205
-481.376	-200.000	-0.009	-0.276
-480.362	-77.985	-0.095	-0.033
-479.347	123.538	0.263	0.330
-478.332	800.000	0.043	-0.163
-477.318	-200.000	0.019	-0.192
-476.303	-17.252	-0.088	-0.056
-475.289	139.400	0.115	-0.152
-474.274	-146.266	0.308	-0.027
-473.259	-115.219	0.495	-0.094
-472.245	82.153	0.073	0.079
-471.230	48.061	0.072	0.068
-470.216	17.645	-0.109	0.087
-469.201	800.000	-0.045	-0.187
-468.186	350.858	0.184	0.363
-467.172	-7.254	-0.290	-0.196
-466.157	-142.687	0.131	-0.013
-465.143	-200.000	0.016	-0.235
-464.128	-200.000	0.052	0.250
-463.113	69.448	-0.192	0.197
-462.099	306.299	-0.248	-0.461
-461.084	68.447	0.048	0.049
-460.070	307.627	0.034	0.063
-459.055	424.859	0.056	0.119
-458.040	-27.054	0.399	-0.233
-457.026	-200.000	-0.035	0.159
-456.011	-68.887	-0.138	-0.053
-454.997	459.969	-0.077	0.171
-453.982	-42.728	0.018	0.009
-452.968	208.312	-0.133	-0.207
-451.953	8.839	-0.167	-0.125
-450.938	800.000	0.029	-0.105
-449.924	-85.485	-0.175	0.054
-448.909	51.007	-0.108	0.102
-447.895	-119.814	0.490	-0.084
-446.880	348.492	-0.175	0.344
-445.865	-168.254	0.255	0.010
-444.851	345.469	-0.142	-0.278
-443.836	-169.916	-0.167	0.006
-442.822	270.344	0.055	0.096
-441.807	-200.000	0.055	-0.283
-440.792	-63.458	-0.194	0.080
-439.778	153.428	0.117	-0.159
-438.763	-200.000	-0.014	-0.194
-437.749	-148.871	0.240	0.019
-436.734	563.464	-0.135	-0.327
-435.719	618.746	0.062	0.156
-434.705	265.335	-0.077	-0.134
-433.690	-128.571	-0.490	0.069
-432.676	-200.000	0.017	-0.314
-431.661	-38.469	-0.315	0.166
-430.646	800.000	-0.102	0.334
-429.632	22.115	0.138	-0.113
-428.617	-10.958	0.189	0.124
-427.603	123.769	0.136	0.170
-426.588	-123.595	-0.264	0.042
-425.573	757.590	-0.018	0.050
-424.559	800.000	-0.015	0.052
-423.544	-99.660	0.102	0.025
-422.530	-70.677	-0.233	0.088
-421.515	60.949	-0.418	0.414
-420.500	-18.108	0.391	-0.244
-419.486	160.605	-0.159	-0.220
-418.471	291.936	0.095	0.172
-417.457	-9.773	-0.182	-0.121
-416.442	-105.582	0.337	-0.076
-415.428	393.871	-0.107	-0.221
-414.413	-200.000	-0.003	-0.086
-413.398	-200.000	-0.001	0.102
-412.384	-97.498	-0.261	0.068
-411.369	-154.451	0.296	-0.020
-410.355	-42.585	0.194	0.098
-409.340	-49.896	-0.076	-0.036
-408.325	331.770	-0.160	0.307
-407.311	27.599	-0.088	-0.074
-406.296	-82.539	-0.198	0.064
-405.282	20.280	-0.306	-0.246
-404.267	346.436	-0.084	0.165
-403.252	-53.168	0.158	-0.072
-402.238	-200.000	0.087	-0.501
-401.223	324.220	0.035	-0.066
-400.209	-51.340	-0.199	0.093
-399.194	68.676	0.058	-0.059
-398.179	-123.811	-0.332	-0.052
-397.165	800.000	0.035	0.146
-396.150	-134.914	0.127	0.015
-395.136	-143.995	0.122	0.011
-394.121	444.712	-0.058	-0.127
-393.106	-200.000	-0.019	0.174
-392.092	800.000	-0.016	-0.058
-391.077	1.104	0.210	-0.150
-390.063	149.967	0.246	0.333
-389.048	-18.467	0.260	0.162
-388.033	159.973	-0.080	-0.111
-387.019	204.589	0.159	0.245
-386.004	117.471	0.035	-0.042
-384.990	-200.000	0.003	-0.017
-383.975	-200.000	-0.040	0.286
-382.960	759.972	0.104	0.279
-381.946	-200.000	0.015	0.249
-380.931	28.119	0.115	-0.097
-379.917	414.770	-0.049	-0.104
-378.902	800.000	-0.038	-0.127
-377.888	-112.919	-0.089	-0.018
-376.873	219.430	0.090	0.144
-375.858	-96.782	-0.196	-0.051
-374.844	82.010	0.247	0.266
-373.829	-97.529	0.135	-0.035
-372.815	203.691	0.105	0.162
-371.800	-48.620	0.338	0.162
-370.785	191.437	0.185	-0.277
-369.771	-30.891	0.373	0.209
-368.756	139.388	-0.078	-0.102
-367.742	1.288	0.229	-0.163
-366.727	148.694	0.285	-0.383
-365.712	800.000	0.020	0.059
-364.698	800.000	-0.082	0.265
-363.683	261.131	0.060	-0.103
-362.669	800.000	0.071	0.304
-361.654	-147.445	-0.091	-0.008
-360.639	800.000	0.049	0.200
-359.625	-38.062	-0.127	0.067
-358.610	247.833	-0.070	0.118
-357.596	-193.869	0.100	0.001
-356.581	-200.000	-0.004	0.029
-355.566	9.900	-0.392	0.296
-354.552	-45.206	-0.196	0.097
-353.537	299.924	0.102	-0.186
-352.523	140.051	-0.299	-0.391
-351.508	-74.820	0.340	-0.121
-350.493	-148.239	-0.139	-0.011
-349.479	-56.707	-0.343	-0.151
-348.464	80.974	-0.114	0.122
-347.450	-200.000	-0.017	0.115
-346.435	-108.761	0.193	0.041
-345.420	97.567	-0.069	0.079
-344.406	-196.473	-0.202	0.001
-343.391	-200.000	0.019	-0.118
-342.377	27.751	0.040	0.034
-341.362	195.800	0.118	-0.178
-340.348	313.737	0.074	0.139
-339.333	36.644	-0.080	0.070
-338.318	-200.000	0.029	0.172
-337.304	-200.000	0.016	0.115
-336.289	56.250	0.235	-0.227
-335.275	491.801	-0.033	0.076
-334.260	800.000	-0.097	0.321
-333.245	-133.139	0.123	-0.015
-332.231	34.469	0.134	0.117
-331.216	-186.989	-0.234	0.003
-330.202	89.717	-0.262	0.291
-329.187	-200.000	0.002	-0.059
-328.172	-44.646	-0.219	-0.109
-327.158	566.256	0.079	0.191
-326.143	-81.903	-0.421	0.137
-325.129	-94.144	0.359	0.098
-324.114	151.246	-0.076	-0.102
-323.099	-200.000	-0.055	0.295
-322.085	-200.000	-0.008	-0.038
-321.070	800.000	0.128	-0.380
-320.056	151.853	-0.053	-0.072
-319.041	48.792	-0.331	0.308
-318.026	-200.000	0.031	-0.316
-317.012	-200.000	0.093	-0.550
-315.997	113.708	0.145	-0.174
-314.983	31.667	-0.089	0.076
-313.968	-46.946	0.175	-0.085
-312.953	514.991	0.065	0.151
-311.939	133.673	-0.088	0.113
-310.924	571.380	-0.069	0.167
-309.910	40.217	0.104	-0.093
-308.895	195.140	-0.077	-0.116
-307.880	37.311	-0.155	-0.136
-306.866	800.000	-0.080	-0.229
-305.851	-66.985	-0.070	-0.028
-304.837	66.438	-0.224	-0.226
-303.822	136.095	0.118	-0.152
-302.807	303.808	-0.114	0.209
-301.793	-143.150	-0.262	-0.025
-300.778	191.990	-0.057	0.085
-299.764	-8.130	0.175	0.117
-298.749	-21.526	-0.231	0.140
-297.735	-10.759	0.160	-0.105
-296.720	162.477	0.119	-0.165
-295.705	211.588	-0.149	0.232
-294.691	-200.000	0.008	-0.277
-293.676	97.759	0.265	-0.302
-292.662	-200.000	-0.042	0.361
-291.647	800.000	-0.082	-0.259
-290.632	-200.000	-0.003	-0.075
-289.618	-200.000	0.043	0.233
-288.603	664.836	-0.110	0.280
-287.589	-52.974	-0.208	-0.095
-286.574	-200.000	-0.031	0.211
-285.559	55.139	-0.204	-0.196
-284.545	-61.076	0.048	0.020
-283.530	48.196	0.046	0.042
-282.516	5.752	-0.381	0.279
-281.501	-40.339	0.079	-0.041
-280.486	-29.491	-0.116	0.066
-279.472	32.835	0.090	0.077
-278.457	321.748	-0.108	-0.204
-277.443	-200.000	0.043	-0.330
-276.428	580.073	-0.059	-0.143
-275.413	214.731	0.104	-0.163
-274.399	616.991	-0.096	-0.240
-273.384	-115.954	-0.110	-0.020
-272.370	175.293	0.090	0.129
-271.355	-142.947	0.150	0.014
-270.340	172.566	-0.291	0.415
-269.326	83.338	-0.191	0.206
-268.311	-63.647	-0.184	0.075
-267.297	150.920	0.140	0.189
-266.282	-200.000	0.029	-0.155
-265.267	800.000	-0.046	-0.191
-264.253	-42.888	0.078	0.039
-263.238	66.646	0.191	0.193
-262.224	-200.000	-0.008	0.119
-261.209	74.249	0.224	0.233
-260.195	800.000	-0.069	-0.217
-259.180	22.065	0.081	0.066
-258.165	509.299	-0.050	-0.114
-257.151	-200.000	-0.035	0.334
-256.136	12.150	-0.116	-0.089
-255.122	-200.000	-0.024	0.298
-254.107	59.485	0.318	0.311
-253.092	7.144	0.114	0.084
-252.078	443.940	-0.073	0.158
-251.063	800.000	0.053	-0.176
-250.049	-200.000	-0.028	0.232
-249.034	327.771	-0.163	-0.309
-248.019	13.319	-0.028	0.021
-247.005	-53.658	0.290	-0.131
-245.990	-2.437	-0.167	0.116
-244.976	-37.276	-0.217	-0.115
-243.961	-154.430	0.120	0.008
-242.946	-200.000	0.009	-0.060
-241.932	441.003	-0.099	0.215
-240.917	87.888	-0.017	-0.019
-239.903	-59.289	0.286	0.122
-238.888	166.682	-0.138	-0.193
-237.873	188.221	-0.068	0.101
-236.859	-112.821	-0.223	0.044
-235.844	140.209	0.232	-0.303
-234.830	-31.749	0.181	-0.101
-233.815	61.621	0.170	-0.168
-232.800	-46.509	0.163	0.079
-231.786	-130.864	0.160	0.021
-230.771	-6.897	0.193	-0.130
-229.757	-49.719	-0.077	0.036
-228.742	800.000	0.010	-0.035
-227.727	26.279	0.257	0.212
-226.713	-69.648	-0.257	-0.097
-225.698	-147.089	-0.184	0.016
-224.684	-58.574	0.262	0.112
-223.669	800.000	0.096	0.347
-222.655	-88.236	0.273	0.081
-221.640	-69.789	0.232	0.088
-220.625	21.775	0.150	-0.121
-219.611	704.646	0.056	-0.147
-218.596	800.000	-0.036	-0.120
-217.582	-96.930	-0.186	0.048
-216.567	-18.222	0.145	0.090
-215.552	481.398	0.124	0.278
-214.538	18.184	-0.059	0.047
-213.523	800.000	-0.055	0.229
-212.509	58.806	-0.082	-0.079
-211.494	120.200	0.138	-0.170
-210.479	123.083	-0.179	0.221
-209.465	-200.000	-0.011	0.176
-208.450	324.684	-0.128	-0.242
-207.436	-7.077	0.381	0.256
-206.421	155.765	0.232	-0.316
-205.406	237.579	-0.229	0.375
-204.392	-60.921	-0.057	-0.024
-203.377	9.862	-0.050	0.038
-202.363	55.938	-0.195	0.187
-201.348	800.000	-0.093	-0.329
-200.333	-50.594	0.123	-0.057
-199.319	-8.440	-0.077	0.051
-198.304	800.000	-0.033	0.132
-197.290	328.942	0.225	0.427
-196.275	204.568	-0.227	0.348
-195.260	287.420	-0.093	0.166
-194.246	-200.000	-0.005	0.367
-193.231	34.625	0.226	-0.195
-192.217	-19.173	0.194	0.119
-191.202	-130.013	-0.077	-0.010
-190.187	345.336	-0.129	0.249
-189.173	182.837	0.085	-0.124
-188.158	-83.528	0.323	0.102
-187.144	800.000	0.053	-0.153
-186.129	401.625	0.065	0.134
-185.114	261.135	0.062	0.106
-184.100	-32.989	0.115	-0.063
-183.085	-200.000	0.040	-0.195
-182.071	72.393	-0.238	0.245
-181.056	435.138	0.104	0.222
-180.042	-200.000	0.023	0.326
-179.027	104.346	-0.150	-0.174
-178.012	321.367	0.138	-0.259
-176.998	-29.884	0.187	-0.105
-175.983	-200.000	0.008	0.071
-174.969	-200.000	0.036	-0.222
-173.954	111.908	0.082	0.097
-172.939	-12.354	-0.220	0.142
-171.925	45.291	-0.183	0.166
-170.910	-200.000	0.009	-0.077
-169.896	160.772	-0.181	0.249
-168.881	-52.577	0.247	0.113
-167.866	-10.882	0.256	0.167
-166.852	-154.071	-0.409	-0.027
-165.837	-49.830	-0.265	-0.124
-164.823	-26.653	0.038	0.022
-163.808	86.802	0.082	-0.090
-162.793	167.336	0.120	-0.168
-161.779	39.858	0.035	-0.031
-160.764	-18.563	-0.083	0.051
-159.750	104.227	0.121	-0.140
-158.735	96.304	-0.075	0.085
-157.720	-162.838	0.232	0.011
-156.706	-200.000	0.033	-0.318
-155.691	-143.682	0.341	-0.032
-154.677	92.962	0.152	-0.170
-153.662	398.920	-0.066	0.137
-152.647	-200.000	-0.031	-0.139
-151.633	-22.199	0.211	-0.126
-150.618	-33.273	0.220	0.120
-149.604	-151.320	0.008	-0.001
-148.589	567.900	0.055	-0.132
-147.574	-66.313	-0.361	-0.142
-146.560	-200.000	0.002	-0.131
-145.545	-200.000	-0.068	0.383
-144.531	536.820	-0.038	-0.089
-143.516	93.427	0.154	0.171
-142.502	60.520	-0.389	0.380
-141.487	58.920	-0.118	0.114
-140.472	242.017	-0.164	-0.270
-139.458	-200.000	0.039	-0.172
-138.443	193.060	-0.072	-0.107
-137.429	279.184	0.097	-0.170
-136.414	-90.675	0.235	0.067
-135.399	18.849	0.266	-0.210
-134.385	-200.000	0.095	-0.627
-133.370	799.510	0.070	0.191
-132.356	46.229	-0.175	0.159
-131.341	-120.420	0.066	0.011
-130.326	-36.762	0.100	0.053
-129.312	37.534	-0.156	0.136
-128.297	800.000	0.103	0.283
-127.283	165.020	-0.080	0.111
-126.268	800.000	0.029	-0.104
-125.253	510.975	0.060	-0.137
-124.239	83.661	0.310	-0.333
-123.224	500.294	0.081	-0.183
-122.210	84.788	-0.150	0.162
-121.195	724.403	-0.016	0.043
-120.180	-122.026	-0.110	-0.018
