DTS Sentinel unit serial number:	SN413079Multiplexer serial number:	ORYXHardware model number:	OX4-SRSoftware version number:	ORYX F/W v4.00 Oryx Data Collector v3.7.2.0data status	okinstallation	princeton_trtdifferential loss correction	single-endedforward channel	channel 3reverse channel	N/Adate	2019/09/11time	02:34:11forward acquisition time	60.00reverse acquisition time	0.00gamma	496.2192k internal	0.2332k external	0.2332temperature offset calibration	0.9910default loss term (dB/km)	0.3790temperature slope calibration	1.0000multiplexer offset coefficient	1.0000multiplexer slope coefficient	1.0000fibre end	0.00T internal ref (°C)	29.25T ext. ref 1 (°C)	-0.31T ext. ref 2 (°C)	23.36length (m)	temperature (°C)	Stokes	anti-Stokes-747.200	19.461	0.204	-0.165
-746.185	-90.362	-0.297	0.087
-745.171	180.635	0.212	-0.313
-744.156	550.068	-0.119	0.286
-743.142	-200.000	-0.008	0.302
-742.127	-135.013	-0.126	0.015
-741.112	800.000	0.075	0.252
-740.098	1.277	0.119	0.086
-739.083	302.008	0.071	-0.133
-738.069	258.104	0.069	0.120
-737.054	-178.408	0.359	-0.008
-736.039	-200.000	-0.015	-0.195
-735.025	13.739	0.147	-0.115
-734.010	-23.233	-0.157	0.095
-732.996	-121.743	-0.430	0.071
-731.981	278.188	0.082	-0.147
-730.966	-102.367	0.122	-0.029
-729.952	9.085	-0.218	0.166
-728.937	800.000	0.077	-0.269
-727.923	-29.842	-0.327	0.187
-726.908	-95.118	-0.100	-0.027
-725.894	-177.705	-0.215	0.005
-724.879	121.022	-0.236	-0.296
-723.864	-161.907	-0.135	0.007
-722.850	32.959	0.255	0.222
-721.835	247.754	0.079	-0.134
-720.821	114.225	-0.188	0.230
-719.806	326.046	-0.071	0.136
-718.791	95.155	0.129	-0.148
-717.777	-200.000	-0.006	-0.147
-716.762	-200.000	-0.084	-0.385
-715.748	30.583	-0.116	-0.100
-714.733	-65.526	-0.177	0.071
-713.718	-74.285	0.181	-0.066
-712.704	133.648	-0.321	-0.417
-711.689	139.178	-0.104	-0.138
-710.675	383.046	0.087	0.181
-709.660	85.139	0.017	-0.019
-708.645	551.233	-0.086	0.206
-707.631	118.004	0.121	0.150
-706.616	800.000	0.057	-0.163
-705.602	-46.926	-0.196	-0.096
-704.587	-200.000	0.062	-0.302
-703.572	-29.905	-0.104	0.060
-702.558	281.104	-0.151	-0.271
-701.543	277.604	-0.291	0.520
-700.529	137.320	0.217	-0.285
-699.514	800.000	-0.100	0.328
-698.499	129.762	0.314	0.403
-697.485	-200.000	-0.030	0.131
-696.470	6.545	-0.077	-0.057
-695.456	800.000	0.069	-0.225
-694.441	-67.600	-0.111	0.044
-693.426	-200.000	0.031	-0.182
-692.412	-115.747	-0.210	0.040
-691.397	604.323	-0.060	-0.149
-690.383	87.227	-0.221	0.245
-689.368	64.967	0.083	-0.084
-688.354	-8.035	0.147	0.099
-687.339	-135.410	0.252	-0.030
-686.324	-200.000	-0.003	-0.137
-685.310	586.181	-0.076	-0.187
-684.295	40.138	-0.116	0.105
-683.281	141.864	-0.117	-0.156
-682.266	37.534	0.255	-0.227
-681.251	-66.531	0.238	-0.095
-680.237	44.466	0.171	0.158
-679.222	-11.292	-0.118	0.078
-678.208	-2.061	0.302	-0.213
-677.193	15.956	-0.067	0.053
-676.178	800.000	0.083	-0.255
-675.164	-200.000	-0.022	-0.186
-674.149	19.557	0.165	-0.133
-673.135	-87.149	0.112	0.034
-672.120	19.330	-0.165	0.133
-671.105	536.325	0.039	0.093
-670.091	-24.010	0.112	-0.067
-669.076	-184.645	0.098	-0.002
-668.062	-200.000	0.007	-0.091
-667.047	-104.102	-0.120	-0.028
-666.032	-120.599	-0.286	-0.049
-665.018	-90.144	0.364	-0.106
-664.003	-200.000	-0.039	-0.267
-662.989	-58.577	-0.227	-0.099
-661.974	-61.555	0.184	-0.077
-660.959	-200.000	0.045	-0.229
-659.945	-49.189	0.139	0.067
-658.930	-200.000	0.015	-0.323
-657.916	-49.881	-0.181	-0.086
-656.901	365.096	-0.134	-0.270
-655.886	-94.565	0.249	0.068
-654.872	-200.000	-0.067	0.343
-653.857	169.328	0.088	-0.126
-652.843	-84.877	-0.164	-0.052
-651.828	-93.793	0.222	-0.061
-650.814	81.416	-0.136	-0.147
-649.799	-200.000	0.007	-0.198
-648.784	-119.782	-0.140	0.024
-647.770	293.985	0.189	-0.346
-646.755	231.491	0.048	0.079
-645.741	495.251	-0.129	0.297
-644.726	-111.630	0.180	0.037
-643.711	-190.049	-0.154	-0.002
-642.697	-200.000	0.023	0.195
-641.682	800.000	0.065	-0.244
-640.668	5.105	0.258	0.190
-639.653	-64.955	-0.243	-0.098
-638.638	-25.220	0.133	0.079
-637.624	-58.093	0.131	-0.057
-636.609	-108.073	-0.081	-0.018
-635.595	64.546	-0.265	0.268
-634.580	122.278	0.347	0.434
-633.565	275.809	-0.161	0.287
-632.551	270.952	0.099	-0.175
-631.536	800.000	-0.041	0.157
-630.522	-141.511	0.083	-0.008
-629.507	-200.000	-0.025	0.155
-628.492	-176.697	-0.245	0.006
-627.478	-70.801	0.119	-0.045
-626.463	222.814	0.104	-0.167
-625.449	-105.764	-0.239	-0.054
-624.434	-90.425	-0.139	-0.040
-623.419	233.953	-0.073	0.120
-622.405	-200.000	0.042	0.324
-621.390	-120.629	-0.155	-0.026
-620.376	800.000	0.040	-0.137
-619.361	295.777	-0.120	-0.221
-618.346	-200.000	-0.019	-0.230
-617.332	57.092	-0.133	0.129
-616.317	643.116	0.027	-0.069
-615.303	-111.224	-0.140	-0.029
-614.288	664.989	-0.027	-0.069
-613.273	800.000	0.086	-0.254
-612.259	275.038	0.094	-0.167
-611.244	-200.000	0.016	-0.124
-610.230	-200.000	-0.118	-0.001
-609.215	633.964	-0.047	0.120
-608.201	-200.000	0.003	0.155
-607.186	-0.945	-0.166	0.118
-606.171	-200.000	-0.006	-0.042
-605.157	11.508	-0.257	0.197
-604.142	29.325	0.290	-0.247
-603.128	800.000	-0.038	0.115
-602.113	45.110	0.113	0.105
-601.098	-136.841	0.080	0.009
-600.084	15.062	-0.264	-0.207
-599.069	45.064	0.078	-0.071
-598.055	215.746	0.182	-0.289
-597.040	364.997	-0.192	-0.387
-596.025	-20.379	0.144	0.088
-595.011	-200.000	-0.013	-0.280
-593.996	800.000	-0.075	-0.274
-592.982	-102.368	-0.278	-0.067
-591.967	138.986	-0.108	-0.142
-590.952	506.479	-0.140	0.325
-589.938	56.312	-0.050	-0.049
-588.923	28.647	-0.118	0.100
-587.909	797.121	0.116	-0.320
-586.894	12.418	-0.179	-0.138
-585.879	-135.077	0.335	0.040
-584.865	82.613	0.171	0.185
-583.850	102.637	0.204	-0.239
-582.836	35.219	-0.197	0.173
-581.821	-126.017	0.271	-0.041
-580.806	-200.000	0.012	-0.169
-579.792	-71.260	0.287	-0.108
-578.777	-117.080	0.322	-0.059
-577.763	-200.000	0.038	-0.215
-576.748	2.321	-0.325	-0.235
-575.733	-66.883	0.140	-0.055
-574.719	-200.000	-0.005	0.035
-573.704	-47.111	-0.176	0.086
-572.690	91.805	-0.246	-0.276
-571.675	50.739	0.133	-0.126
-570.661	-22.759	0.122	-0.074
-569.646	94.410	0.229	0.260
-568.631	-28.358	-0.110	0.064
-567.617	32.430	0.209	0.180
-566.602	119.622	0.290	0.358
-565.588	-200.000	-0.009	-0.044
-564.573	-150.096	-0.280	-0.022
-563.558	-176.132	0.081	0.002
-562.544	-105.608	0.166	-0.037
-561.529	-101.739	-0.168	0.041
-560.515	59.951	0.102	0.101
-559.500	-73.902	0.150	-0.054
-558.485	-24.872	0.210	-0.125
-557.471	-1.270	-0.434	0.306
-556.456	-73.659	-0.196	0.071
-555.442	173.192	-0.216	-0.311
-554.427	-111.713	0.181	0.037
-553.412	56.963	-0.131	-0.127
-552.398	-200.000	0.011	0.060
-551.383	114.632	-0.198	0.241
-550.369	77.276	0.128	-0.135
-549.354	-200.000	-0.024	-0.146
-548.339	125.306	-0.146	0.184
-547.325	-200.000	-0.092	0.403
-546.310	-92.246	-0.213	-0.060
-545.296	-141.440	-0.292	-0.029
-544.281	10.203	0.158	0.120
-543.266	146.890	-0.057	0.076
-542.252	303.608	-0.119	0.220
-541.237	435.305	0.101	-0.218
-540.223	-112.200	0.266	0.053
-539.208	-200.000	-0.002	0.022
-538.193	800.000	-0.112	-0.363
-537.179	-178.762	0.341	0.008
-536.164	246.986	-0.164	-0.276
-535.150	-116.806	-0.259	-0.047
-534.135	103.744	0.170	-0.199
-533.121	347.466	0.178	0.351
-532.106	181.232	-0.245	0.359
-531.091	-77.443	-0.132	0.046
-530.077	-88.302	0.285	0.085
-529.062	43.910	0.133	-0.122
-528.048	-200.000	0.050	0.236
-527.033	-200.000	-0.019	0.170
-526.018	53.233	0.225	0.215
-525.004	-11.435	0.124	-0.081
-523.989	209.852	-0.118	-0.184
-522.975	-86.413	-0.010	-0.003
-521.960	-28.560	0.259	-0.149
-520.945	259.634	0.042	0.072
-519.931	-200.000	0.011	0.447
-518.916	800.000	-0.106	-0.302
-517.902	-3.467	0.090	-0.063
-516.887	-200.000	-0.045	-0.238
-515.872	286.914	-0.204	-0.367
-514.858	-200.000	0.011	-0.152
-513.843	-200.000	0.046	-0.293
-512.829	-144.760	0.114	0.010
-511.814	-27.104	-0.156	0.091
-510.799	56.068	-0.380	-0.367
-509.785	149.984	0.063	-0.085
-508.770	-200.000	-0.047	0.377
-507.756	-1.183	-0.069	0.049
-506.741	-200.000	0.008	-0.168
-505.726	85.507	-0.225	-0.246
-504.712	579.841	-0.024	0.059
-503.697	-153.917	0.160	-0.011
-502.683	-200.000	0.048	-0.340
-501.668	56.776	-0.182	0.177
-500.653	131.749	0.118	-0.152
-499.639	222.501	0.028	-0.044
-498.624	-82.412	0.280	-0.091
-497.610	253.346	-0.068	-0.116
-496.595	-51.584	-0.224	0.104
-495.581	-130.951	0.158	0.021
-494.566	-28.358	0.136	-0.078
-493.551	105.809	0.139	0.163
-492.537	275.095	-0.083	-0.146
-491.522	620.623	0.052	-0.129
-490.508	-30.319	-0.141	0.080
-489.493	-9.676	-0.207	0.137
-488.478	107.125	-0.201	-0.238
-487.464	16.829	-0.062	-0.049
-486.449	-200.000	-0.085	-0.411
-485.435	800.000	0.006	0.024
-484.420	800.000	0.071	0.268
-483.405	76.790	0.292	-0.309
-482.391	-83.252	0.099	0.032
-481.376	-114.652	0.302	-0.058
-480.362	-180.813	-0.134	0.003
-479.347	800.000	-0.057	-0.171
-478.332	-54.240	0.349	-0.158
-477.318	1.749	0.194	-0.139
-476.303	800.000	-0.005	0.021
-475.289	-129.562	0.166	0.023
-474.274	-65.874	-0.143	-0.057
-473.259	-17.984	-0.231	-0.144
-472.245	-58.201	0.156	-0.068
-471.230	800.000	-0.058	0.213
-470.216	177.575	-0.177	0.257
-469.201	-132.868	0.189	-0.024
-468.186	575.671	-0.090	0.219
-467.172	-142.836	-0.281	-0.027
-466.157	90.456	0.198	0.221
-465.143	-19.605	-0.034	0.021
-464.128	-84.240	-0.163	-0.051
-463.113	-200.000	-0.021	-0.097
-462.099	-200.000	-0.000	0.194
-461.084	72.586	0.180	-0.187
-460.070	44.717	-0.178	0.163
-459.055	800.000	0.037	-0.148
-458.040	320.267	-0.124	-0.235
-457.026	-40.876	0.207	0.107
-456.011	227.857	0.128	-0.208
-454.997	54.661	0.113	-0.108
-453.982	69.619	0.164	0.168
-452.968	65.096	0.061	-0.061
-451.953	-200.000	-0.010	-0.068
-450.938	-18.755	0.219	0.136
-449.924	-200.000	-0.036	-0.230
-448.909	25.283	-0.108	0.089
-447.895	-151.093	-0.348	0.026
-446.880	16.676	0.143	0.112
-445.865	-152.015	0.157	-0.011
-444.851	330.897	-0.170	0.325
-443.836	18.360	-0.098	0.078
-442.822	133.825	0.105	0.135
-441.807	-200.000	0.023	-0.156
-440.792	16.402	-0.092	-0.072
-439.778	-95.777	-0.185	-0.049
-438.763	800.000	-0.044	-0.150
-437.749	-34.077	-0.076	0.041
-436.734	49.211	0.190	-0.178
-435.719	-200.000	0.039	0.189
-434.705	-200.000	-0.025	0.308
-433.690	-86.166	-0.272	-0.083
-432.676	5.127	-0.102	-0.075
-431.661	640.131	-0.067	-0.168
-430.646	522.636	-0.104	0.244
-429.632	-50.407	0.265	-0.124
-428.617	-78.306	-0.192	-0.065
-427.603	251.471	-0.106	0.179
-426.588	-200.000	0.034	0.256
-425.573	4.183	-0.121	0.088
-424.559	-9.031	0.377	-0.251
-423.544	-109.815	0.251	-0.052
-422.530	-200.000	0.030	-0.321
-421.515	122.430	-0.132	-0.164
-420.500	123.290	0.296	0.369
-419.486	-112.372	0.153	0.030
-418.471	-55.563	0.295	0.131
-417.457	33.648	-0.233	-0.202
-416.442	51.989	0.157	-0.148
-415.428	-153.086	0.086	0.006
-414.413	329.100	0.095	-0.182
-413.398	-200.000	-0.011	0.205
-412.384	162.364	0.249	0.346
-411.369	-200.000	-0.020	-0.238
-410.355	322.527	-0.071	0.134
-409.340	800.000	0.047	-0.187
-408.325	-200.000	0.013	-0.161
-407.311	168.472	-0.278	-0.393
-406.296	38.850	0.180	0.159
-405.282	-46.369	-0.162	0.079
-404.267	181.369	0.187	-0.273
-403.252	234.418	0.176	-0.289
-402.238	-200.000	-0.044	0.405
-401.223	192.262	0.130	0.195
-400.209	58.658	-0.095	-0.092
-399.194	-156.706	-0.140	-0.009
-398.179	10.551	0.098	0.074
-397.165	-134.491	-0.219	0.027
-396.150	273.630	-0.051	0.089
-395.136	-57.167	0.077	-0.034
-394.121	-6.632	-0.069	-0.047
-393.106	303.075	-0.090	-0.165
-392.092	800.000	-0.040	0.167
-391.077	33.076	-0.079	0.068
-390.063	241.320	-0.088	0.145
-389.048	-89.279	0.368	-0.108
-388.033	737.858	0.093	-0.248
-387.019	-34.701	-0.285	0.155
-386.004	800.000	-0.129	0.416
-384.990	260.119	-0.092	0.159
-383.975	800.000	-0.035	0.128
-382.960	-200.000	0.015	-0.182
-381.946	-8.517	-0.296	0.197
-380.931	-119.436	-0.358	-0.062
-379.917	115.433	-0.181	-0.219
-378.902	-200.000	0.080	-0.375
-377.888	-103.087	0.287	0.067
-376.873	-128.244	-0.384	0.054
-375.858	800.000	0.080	-0.265
-374.844	-43.290	-0.147	0.074
-373.829	-200.000	-0.055	0.263
-372.815	204.623	0.095	-0.147
-371.800	177.965	-0.156	-0.225
-370.785	800.000	0.089	0.337
-369.771	262.867	-0.089	0.153
-368.756	-200.000	-0.061	0.301
-367.742	-200.000	0.001	0.145
-366.727	217.319	0.119	-0.188
-365.712	86.490	-0.177	0.193
-364.698	-92.545	-0.139	0.039
-363.683	-200.000	-0.039	0.237
-362.669	-95.931	-0.166	0.044
-361.654	82.204	0.091	0.098
-360.639	-8.038	0.074	0.049
-359.625	131.886	0.084	-0.107
-358.610	310.367	-0.044	-0.081
-357.596	5.111	-0.350	-0.255
-356.581	-200.000	-0.018	-0.091
-355.566	347.566	-0.048	-0.094
-354.552	-123.221	0.107	0.017
-353.537	83.710	-0.165	0.178
-352.523	-200.000	0.069	0.408
-351.508	-49.049	0.229	0.109
-350.493	-10.171	-0.250	0.165
-349.479	800.000	-0.043	0.123
-348.464	22.578	-0.102	-0.082
-347.450	514.909	-0.064	0.147
-346.435	-200.000	0.013	0.165
-345.420	-188.487	0.031	-0.000
-344.406	-120.855	0.429	-0.072
-343.391	-200.000	0.029	-0.166
-342.377	22.311	-0.088	-0.071
-341.362	12.919	-0.091	-0.069
-340.348	-200.000	0.007	0.384
-339.333	-200.000	-0.028	0.257
-338.318	-8.755	0.178	-0.118
-337.304	-110.430	0.416	-0.086
-336.289	139.302	0.179	0.233
-335.275	46.661	-0.201	-0.185
-334.260	651.725	-0.020	0.050
-333.245	800.000	0.064	-0.263
-332.231	800.000	-0.011	-0.042
-331.216	-138.393	0.134	0.015
-330.202	-91.076	-0.244	0.069
-329.187	-167.707	-0.347	-0.014
-328.172	1.249	-0.354	0.252
-327.158	-200.000	0.000	-0.113
-326.143	500.723	0.155	-0.354
-325.129	-12.898	-0.163	-0.105
-324.114	-16.136	0.097	-0.061
-323.099	-200.000	-0.039	0.414
-322.085	-125.315	-0.341	-0.052
-321.070	-22.786	-0.091	0.055
-320.056	-172.993	0.474	-0.014
-319.041	82.742	0.057	-0.062
-318.026	800.000	-0.078	-0.295
-317.012	-78.179	-0.059	-0.020
-315.997	105.006	-0.333	-0.389
-314.983	-200.000	0.013	-0.167
-313.968	7.844	0.216	-0.160
-312.953	800.000	0.049	0.168
-311.939	-200.000	-0.139	-0.613
-310.924	161.279	0.038	-0.052
-309.910	71.132	0.130	0.134
-308.895	93.187	0.282	0.315
-307.880	395.705	0.029	0.061
-306.866	800.000	-0.092	0.395
-305.851	-200.000	0.025	0.303
-304.837	-200.000	-0.020	0.160
-303.822	22.265	0.163	0.132
-302.807	-200.000	0.010	0.345
-301.793	13.480	0.088	0.067
-300.778	-127.188	0.079	-0.011
-299.764	553.803	0.024	-0.056
-298.749	30.729	-0.452	-0.383
-297.735	-200.000	0.037	0.183
-296.720	552.826	0.116	-0.276
-295.705	800.000	0.037	0.136
-294.691	4.556	0.197	-0.143
-293.676	390.802	0.193	-0.395
-292.662	20.157	0.094	-0.075
-291.647	-197.449	-0.353	-0.002
-290.632	-110.575	0.055	0.011
-289.618	800.000	-0.048	-0.198
-288.603	800.000	-0.089	0.276
-287.589	-200.000	0.015	0.163
-286.574	800.000	0.100	-0.305
-285.559	-84.760	0.332	0.103
-284.545	800.000	-0.054	-0.201
-283.530	329.193	-0.086	0.163
-282.516	-55.977	0.254	-0.112
-281.501	-200.000	-0.007	0.080
-280.486	7.366	0.205	-0.151
-279.472	196.612	-0.083	0.126
-278.457	-132.714	-0.449	0.057
-277.443	-88.230	0.153	0.045
-276.428	800.000	-0.120	-0.424
-275.413	143.985	-0.117	-0.154
-274.399	-111.848	0.215	0.043
-273.384	-200.000	-0.001	0.045
-272.370	-87.713	0.067	0.020
-271.355	-48.049	0.399	0.190
-270.340	363.436	0.133	0.263
-269.326	3.244	-0.266	0.191
-268.311	-122.037	-0.033	-0.005
-267.297	-62.953	-0.158	-0.064
-266.282	-48.629	0.214	-0.102
-265.267	-200.000	-0.001	0.117
-264.253	285.387	-0.186	0.332
-263.238	127.299	-0.113	0.141
-262.224	746.808	0.057	-0.151
-261.209	-200.000	0.076	-0.382
-260.195	800.000	0.182	0.527
-259.180	-64.185	-0.310	0.125
-258.165	-108.959	-0.208	-0.044
-257.151	-63.161	-0.022	0.009
-256.136	-74.060	0.278	-0.100
-255.122	-147.008	0.182	-0.015
-254.107	246.412	0.071	-0.119
-253.092	192.889	-0.189	-0.281
-252.078	-131.791	-0.012	0.002
-251.063	-200.000	-0.024	-0.167
-250.049	-14.151	0.260	-0.166
-249.034	660.531	-0.066	0.167
-248.019	391.222	-0.068	0.139
-247.005	-111.827	-0.287	0.057
-245.990	-4.096	-0.144	-0.098
-244.976	-94.835	0.095	-0.025
-243.961	-200.000	0.021	0.290
-242.946	101.608	0.111	-0.127
-241.932	194.790	0.116	0.174
-240.917	-159.273	0.274	0.015
-239.903	73.081	-0.296	-0.305
-238.888	158.901	-0.032	-0.044
-237.873	55.316	-0.331	0.316
-236.859	356.473	0.113	0.221
-235.844	4.782	0.272	0.197
-234.830	273.586	-0.155	0.271
-233.815	-28.737	-0.293	-0.166
-232.800	-121.531	-0.302	0.049
-231.786	-123.697	0.116	-0.018
-230.771	-175.998	0.053	0.001
-229.757	-200.000	0.005	-0.158
-228.742	-168.954	-0.340	-0.013
-227.727	800.000	0.122	-0.396
-226.713	790.026	0.038	-0.102
-225.698	-65.185	-0.405	-0.161
-224.684	-112.929	-0.237	0.046
-223.669	557.668	-0.103	0.244
-222.655	78.263	0.189	-0.199
-221.640	-71.076	0.101	-0.037
-220.625	800.000	-0.085	0.247
-219.611	221.489	0.117	-0.186
-218.596	252.843	0.164	-0.275
-217.582	-174.575	0.056	-0.002
-216.567	-75.912	0.267	0.093
-215.552	-17.369	0.118	0.073
-214.538	-57.278	0.273	0.118
-213.523	-200.000	-0.035	-0.182
-212.509	4.223	0.472	-0.341
-211.494	-5.511	-0.159	-0.108
-210.479	173.697	-0.142	0.202
-209.465	-12.726	0.507	-0.326
-208.450	542.275	-0.034	0.079
-207.436	-200.000	-0.060	-0.276
-206.421	-70.299	-0.260	0.097
-205.406	291.859	0.175	-0.314
-204.392	206.670	-0.045	0.069
-203.377	-200.000	0.007	-0.077
-202.363	-62.592	-0.081	0.033
-201.348	568.029	0.088	0.211
-200.333	62.229	0.117	0.115
-199.319	-59.765	-0.090	-0.038
-198.304	271.501	-0.059	-0.103
-197.290	-200.000	0.012	0.132
-196.275	65.154	0.274	0.273
-195.260	800.000	-0.047	0.138
-194.246	-88.274	0.365	-0.108
-193.231	132.281	0.230	-0.292
-192.217	100.729	-0.219	0.251
-191.202	-134.371	0.233	-0.028
-190.187	-200.000	-0.015	-0.085
-189.173	-127.513	-0.346	0.049
-188.158	-86.652	-0.282	-0.085
-187.144	-200.000	0.018	-0.123
-186.129	20.518	0.083	0.066
-185.114	-136.911	-0.174	-0.020
-184.100	-116.870	-0.202	0.036
-183.085	58.405	0.160	0.154
-182.071	-120.190	0.209	0.035
-181.056	-90.988	0.190	-0.054
-180.042	-31.870	0.099	-0.054
-179.027	-102.999	-0.311	0.073
-178.012	-200.000	-0.116	0.591
-176.998	-55.931	-0.055	-0.024
-175.983	-46.178	-0.170	-0.082
-174.969	-200.000	0.065	0.458
-173.954	186.119	-0.185	0.270
-172.939	-200.000	-0.006	-0.184
-171.925	-200.000	0.027	0.149
-170.910	-106.112	0.296	-0.065
-169.896	-200.000	0.027	0.212
-168.881	-131.426	0.133	0.017
-167.866	120.311	0.248	0.303
-166.852	393.594	-0.067	-0.137
-165.837	-8.026	0.425	0.282
-164.823	-200.000	0.021	0.453
-163.808	101.400	-0.113	-0.129
-162.793	28.954	-0.081	0.067
-161.779	-57.919	0.251	-0.108
-160.764	800.000	-0.040	-0.114
-159.750	6.120	-0.136	0.099
-158.735	-94.480	0.210	0.056
-157.720	645.621	-0.061	0.153
-156.706	167.391	-0.103	-0.144
-155.691	-200.000	0.002	-0.129
-154.677	466.410	-0.073	0.160
-153.662	800.000	-0.085	0.278
-152.647	-15.371	-0.237	-0.149
-151.633	55.367	0.239	0.227
-150.618	4.819	0.289	0.209
-149.604	-155.374	0.216	-0.014
-148.589	-93.022	-0.205	-0.056
-147.574	36.161	-0.443	-0.384
-146.560	84.289	0.068	-0.073
-145.545	-200.000	0.009	-0.149
-144.531	-93.699	-0.164	-0.045
-143.516	-200.000	-0.066	-0.294
-142.502	27.237	-0.191	-0.158
-141.487	422.486	0.178	-0.376
-140.472	243.474	0.238	-0.393
-139.458	149.517	0.198	0.263
-138.443	732.539	0.098	0.258
-137.429	-200.000	0.017	0.212
-136.414	-103.691	0.136	-0.031
-135.399	15.250	-0.158	0.121
-134.385	181.119	0.093	-0.134
-133.370	800.000	0.022	0.069
-132.356	63.870	0.142	0.140
-131.341	55.592	0.078	0.074
-130.326	578.828	-0.047	-0.113
-129.312	24.300	0.066	-0.054
-128.297	462.355	0.064	-0.140
-127.283	106.620	0.256	-0.298
-126.268	-51.550	-0.355	0.163
-125.253	61.142	-0.063	-0.062
-124.239	265.159	-0.080	-0.137
-123.224	373.846	0.093	-0.186
-122.210	-200.000	-0.043	-0.416
-121.195	393.071	-0.093	0.190
