DTS Sentinel unit serial number:	SN413079Multiplexer serial number:	ORYXHardware model number:	OX4-SRSoftware version number:	ORYX F/W v4.00 Oryx Data Collector v3.7.2.0data status	okinstallation	princeton_trtdifferential loss correction	single-endedforward channel	channel 3reverse channel	N/Adate	2019/09/18time	02:00:35forward acquisition time	60.00reverse acquisition time	0.00gamma	496.2192k internal	0.2345k external	0.2345temperature offset calibration	0.9945default loss term (dB/km)	0.3790temperature slope calibration	1.0000multiplexer offset coefficient	1.0000multiplexer slope coefficient	1.0000fibre end	0.00T internal ref (°C)	22.94T ext. ref 1 (°C)	0.16T ext. ref 2 (°C)	16.68length (m)	temperature (°C)	Stokes	anti-Stokes-747.200	-65.768	0.133	-0.053
-746.185	-8.706	0.199	0.134
-745.171	76.658	0.326	0.347
-744.156	800.000	-0.035	0.150
-743.142	187.626	0.209	0.312
-742.127	-200.000	0.013	0.095
-741.112	-120.198	0.335	-0.057
-740.098	570.559	-0.063	-0.153
-739.083	-113.600	-0.134	0.026
-738.069	111.965	0.061	0.074
-737.054	-87.264	0.171	0.052
-736.039	-51.590	-0.561	-0.262
-735.025	-146.915	0.202	0.017
-734.010	-200.000	-0.068	-0.320
-732.996	526.075	0.123	-0.289
-731.981	-200.000	-0.066	-0.416
-730.966	29.314	0.229	-0.194
-729.952	118.335	-0.184	0.227
-728.937	-62.096	0.070	-0.029
-727.923	624.155	-0.061	0.155
-726.908	-200.000	-0.012	-0.069
-725.894	32.088	0.197	0.170
-724.879	800.000	0.092	-0.290
-723.864	62.882	-0.047	-0.047
-722.850	-200.000	-0.070	0.410
-721.835	-88.712	-0.099	-0.029
-720.821	-200.000	-0.026	-0.126
-719.806	-100.605	0.323	-0.080
-718.791	800.000	-0.060	-0.224
-717.777	-52.870	-0.375	0.173
-716.762	341.939	-0.153	-0.299
-715.748	109.459	0.164	-0.196
-714.733	-20.010	0.344	0.212
-713.718	-151.177	-0.191	-0.014
-712.704	298.383	-0.114	-0.210
-711.689	-200.000	0.032	-0.168
-710.675	-76.317	-0.216	0.076
-709.660	265.481	0.099	-0.173
-708.645	800.000	-0.062	-0.184
-707.631	-200.000	-0.006	0.087
-706.616	-95.508	0.177	-0.047
-705.602	186.121	0.161	-0.240
-704.587	-72.041	-0.236	0.088
-703.572	53.312	-0.358	-0.343
-702.558	-200.000	0.013	-0.150
-701.543	3.117	0.321	0.233
-700.529	-13.978	-0.251	-0.162
-699.514	-184.831	-0.023	-0.000
-698.499	1.144	0.126	-0.090
-697.485	800.000	0.051	-0.172
-696.470	261.834	-0.126	-0.218
-695.456	-106.823	0.127	0.028
-694.441	-49.060	-0.108	0.052
-693.426	112.951	-0.243	0.294
-692.412	141.058	0.209	-0.276
-691.397	303.130	0.118	-0.219
-690.383	545.751	-0.176	0.421
-689.368	-11.617	0.151	-0.099
-688.354	0.435	0.427	-0.305
-687.339	-64.503	-0.071	0.029
-686.324	-18.239	0.203	-0.127
-685.310	-2.627	0.166	0.116
-684.295	-200.000	0.013	-0.172
-683.281	-122.632	-0.240	-0.039
-682.266	-71.141	0.210	0.079
-681.251	629.051	-0.057	0.143
-680.237	5.573	0.029	0.021
-679.222	-111.089	-0.203	-0.042
-678.208	-72.509	0.124	0.046
-677.193	-83.907	-0.005	0.002
-676.178	-21.948	0.176	-0.107
-675.164	800.000	-0.063	0.231
-674.149	-76.183	0.229	0.081
-673.135	139.236	0.053	0.070
-672.120	311.222	-0.139	-0.260
-671.105	755.963	0.010	0.028
-670.091	9.738	-0.152	-0.115
-669.076	-200.000	0.075	-0.385
-668.062	10.007	0.143	-0.108
-667.047	168.901	0.140	-0.200
-666.032	-200.000	0.007	0.236
-665.018	-72.671	-0.045	-0.016
-664.003	37.885	0.041	-0.037
-662.989	76.087	0.139	0.146
-661.974	22.403	-0.293	-0.239
-660.959	89.568	-0.197	-0.219
-659.945	-76.480	0.178	-0.062
-658.930	-65.649	-0.508	0.203
-657.916	-1.702	0.099	0.069
-656.901	204.113	-0.146	-0.225
-655.886	44.684	-0.272	-0.249
-654.872	-92.169	0.136	-0.038
-653.857	229.738	-0.142	0.231
-652.843	-122.528	-0.073	-0.012
-651.828	-200.000	-0.030	-0.168
-650.814	-0.353	-0.148	-0.105
-649.799	-63.611	0.101	-0.041
-648.784	-81.070	-0.099	-0.033
-647.770	-0.728	-0.324	0.229
-646.755	83.045	-0.041	-0.044
-645.741	251.800	0.174	0.296
-644.726	126.566	-0.200	0.253
-643.711	-200.000	-0.006	0.219
-642.697	-141.095	-0.272	-0.028
-641.682	159.643	-0.053	-0.073
-640.668	-200.000	0.019	-0.100
-639.653	-78.897	-0.310	0.105
-638.638	149.263	-0.101	0.137
-637.624	250.617	-0.146	-0.248
-636.609	-72.067	0.075	0.028
-635.595	-20.733	-0.207	0.127
-634.580	527.858	-0.008	-0.018
-633.565	123.164	-0.208	-0.259
-632.551	228.257	-0.185	-0.301
-631.536	-2.094	0.147	0.103
-630.522	-116.128	0.250	0.046
-629.507	-89.410	0.378	-0.111
-628.492	-42.156	-0.132	-0.067
-627.478	102.190	-0.175	-0.204
-626.463	-78.100	-0.131	-0.045
-625.449	46.699	0.089	0.082
-624.434	-110.211	0.191	0.040
-623.419	-8.522	0.329	0.220
-622.405	-14.581	0.120	0.077
-621.390	-200.000	0.017	-0.174
-620.376	800.000	0.021	-0.067
-619.361	-200.000	-0.008	-0.377
-618.346	-200.000	-0.054	-0.276
-617.332	116.741	0.097	0.119
-616.317	-29.101	-0.121	-0.069
-615.303	-200.000	0.017	-0.186
-614.288	-39.463	-0.182	-0.095
-613.273	800.000	-0.027	0.092
-612.259	-116.330	-0.255	-0.047
-611.244	-143.103	0.102	-0.010
-610.230	-38.598	-0.243	-0.128
-609.215	-121.404	-0.083	0.014
-608.201	468.821	0.054	-0.122
-607.186	-73.067	0.068	-0.025
-606.171	75.488	-0.118	-0.124
-605.157	14.728	-0.158	0.123
-604.142	-200.000	-0.006	0.060
-603.128	800.000	0.036	-0.110
-602.113	308.170	0.055	0.102
-601.098	-28.724	-0.123	-0.070
-600.084	-81.905	-0.207	0.067
-599.069	-15.612	0.142	-0.090
-598.055	-137.734	0.268	0.030
-597.040	195.512	0.064	-0.097
-596.025	25.725	-0.078	0.064
-595.011	66.864	-0.179	0.182
-593.996	-52.997	0.171	0.078
-592.982	800.000	0.081	-0.240
-591.967	494.370	-0.093	-0.213
-590.952	108.772	-0.338	-0.401
-589.938	420.521	0.102	0.217
-588.923	-200.000	0.024	0.260
-587.909	24.812	0.076	0.063
-586.894	800.000	0.034	-0.105
-585.879	-33.642	0.323	0.177
-584.865	-43.159	0.044	0.022
-583.850	-200.000	-0.021	0.118
-582.836	664.453	0.151	0.387
-581.821	57.889	-0.186	0.181
-580.806	-200.000	-0.002	-0.022
-579.792	-200.000	-0.099	-0.502
-578.777	-121.083	0.245	0.041
-577.763	55.070	-0.262	0.252
-576.748	-142.336	0.371	0.036
-575.733	-200.000	-0.002	0.198
-574.719	800.000	-0.142	-0.404
-573.704	800.000	-0.039	-0.129
-572.690	-200.000	0.016	0.139
-571.675	-119.390	-0.311	-0.054
-570.661	47.643	-0.078	0.073
-569.646	-105.869	0.318	-0.071
-568.631	800.000	0.104	-0.407
-567.617	723.015	0.168	0.443
-566.602	800.000	-0.070	0.214
-565.588	465.048	-0.144	0.321
-564.573	-200.000	-0.268	0.000
-563.558	-200.000	-0.034	-0.214
-562.544	283.999	-0.123	-0.220
-561.529	-95.168	0.084	0.022
-560.515	-152.541	-0.221	-0.016
-559.500	627.214	-0.162	-0.406
-558.485	-200.000	-0.020	-0.404
-557.471	-200.000	0.005	0.052
-556.456	250.198	0.203	-0.342
-555.442	-120.171	0.139	0.024
-554.427	-54.110	0.144	0.065
-553.412	75.771	0.059	-0.062
-552.398	99.584	0.101	0.116
-551.383	172.116	-0.190	0.271
-550.369	140.728	-0.104	0.136
-549.354	195.880	0.012	-0.017
-548.339	-19.379	0.213	-0.131
-547.325	255.181	-0.057	0.097
-546.310	-103.496	-0.429	0.100
-545.296	575.156	0.074	0.178
-544.281	544.669	0.195	0.461
-543.266	-200.000	0.004	0.117
-542.252	800.000	-0.008	-0.034
-541.237	-200.000	0.061	0.357
-540.223	-19.103	0.135	-0.084
-539.208	-126.510	-0.382	0.056
-538.193	145.422	0.390	0.518
-537.179	-200.000	-0.035	0.268
-536.164	-117.455	-0.500	0.090
-535.150	-76.263	-0.119	0.042
-534.135	766.827	-0.060	-0.163
-533.121	-19.716	0.432	-0.265
-532.106	-127.783	-0.241	-0.035
-531.091	-0.113	-0.267	-0.188
-530.077	29.500	0.185	-0.156
-529.062	-102.768	-0.074	-0.018
-528.048	-58.130	-0.206	-0.089
-527.033	25.082	0.207	-0.170
-526.018	60.173	0.196	0.192
-525.004	711.676	0.091	0.240
-523.989	-158.137	-0.103	0.006
-522.975	410.693	0.154	0.325
-521.960	181.577	-0.241	-0.352
-520.945	-90.272	-0.081	-0.023
-519.931	-133.745	0.048	-0.006
-518.916	88.255	-0.102	0.112
-517.902	105.721	-0.086	-0.101
-516.887	-85.379	0.106	-0.033
-515.872	800.000	-0.032	0.127
-514.858	-17.738	0.137	0.085
-513.843	-18.591	0.205	-0.127
-512.829	450.716	-0.075	-0.165
-511.814	-109.234	-0.143	0.030
-510.799	52.612	-0.212	0.201
-509.785	-56.908	0.064	-0.028
-508.770	188.290	-0.228	-0.338
-507.756	-145.499	0.235	0.021
-506.741	610.656	0.046	-0.114
-505.726	40.686	-0.231	0.206
-504.712	38.469	-0.132	-0.117
-503.697	-60.675	0.235	-0.099
-502.683	89.681	-0.182	-0.201
-501.668	148.233	0.022	-0.029
-500.653	800.000	0.022	-0.087
-499.639	37.435	-0.201	-0.176
-498.624	62.737	0.137	0.136
-497.610	-200.000	-0.021	0.137
-496.595	-200.000	0.006	-0.525
-495.581	-200.000	0.021	-0.131
-494.566	-4.733	-0.258	0.176
-493.551	-200.000	-0.055	-0.316
-492.537	-81.203	-0.342	-0.112
-491.522	-33.437	0.181	0.099
-490.508	96.071	-0.165	-0.187
-489.493	-135.782	0.090	0.011
-488.478	26.748	-0.244	0.202
-487.464	477.335	-0.177	0.396
-486.449	-200.000	0.054	0.328
-485.435	39.227	-0.133	0.117
-484.420	-30.707	0.027	-0.015
-483.405	800.000	0.084	-0.354
-482.391	53.651	-0.201	-0.191
-481.376	-164.529	-0.197	-0.009
-480.362	524.504	0.198	0.461
-479.347	800.000	0.073	0.213
-478.332	800.000	0.029	0.120
-477.318	-118.583	0.166	0.029
-476.303	-94.744	-0.212	-0.057
-475.289	0.183	-0.103	0.073
-474.274	-10.398	0.356	-0.234
-473.259	-130.970	0.103	-0.014
-472.245	-6.978	-0.156	0.105
-471.230	180.361	0.206	0.300
-470.216	-200.000	-0.009	0.202
-469.201	226.298	0.079	-0.128
-468.186	135.752	0.228	0.294
-467.172	-134.878	0.225	-0.027
-466.157	-200.000	0.064	-0.280
-465.143	210.062	0.099	0.153
-464.128	-200.000	-0.000	0.149
-463.113	294.098	-0.141	-0.255
-462.099	-44.031	0.103	-0.051
-461.084	174.540	-0.226	0.324
-460.070	752.902	0.073	0.194
-459.055	-10.916	0.235	-0.154
-458.040	-170.729	-0.625	0.021
-457.026	8.298	0.393	-0.293
-456.011	-23.029	-0.028	-0.017
-454.997	800.000	-0.045	-0.167
-453.982	13.108	0.128	-0.098
-452.968	-87.715	0.216	0.064
-451.953	165.197	-0.064	-0.089
-450.938	28.836	-0.115	0.096
-449.924	800.000	-0.078	-0.231
-448.909	800.000	0.034	-0.095
-447.895	83.968	0.135	-0.146
-446.880	27.582	0.091	0.076
-445.865	-116.414	-0.276	-0.050
-444.851	720.117	0.057	0.149
-443.836	-145.789	0.304	0.027
-442.822	13.584	-0.124	0.095
-441.807	-200.000	0.062	-0.363
-440.792	48.779	-0.266	-0.247
-439.778	800.000	-0.073	-0.252
-438.763	230.290	-0.131	0.211
-437.749	7.636	-0.133	-0.098
-436.734	800.000	-0.054	0.180
-435.719	-148.977	-0.223	0.018
-434.705	800.000	0.030	-0.101
-433.690	-99.393	-0.062	-0.016
-432.676	482.589	-0.042	-0.094
-431.661	800.000	-0.075	0.221
-430.646	170.836	0.189	-0.267
-429.632	-54.083	-0.074	0.033
-428.617	-77.198	-0.147	0.051
-427.603	93.818	-0.198	-0.222
-426.588	-200.000	0.014	0.284
-425.573	-2.534	0.345	0.239
-424.559	-75.877	-0.106	-0.037
-423.544	193.328	0.112	-0.167
-422.530	-39.070	-0.052	0.027
-421.515	800.000	0.060	-0.238
-420.500	-48.872	0.195	-0.092
-419.486	72.705	-0.207	0.213
-418.471	43.243	0.199	0.179
-417.457	-200.000	-0.001	-0.078
-416.442	-200.000	-0.002	0.057
-415.428	800.000	-0.090	0.361
-414.413	178.841	0.100	0.144
-413.398	800.000	-0.067	0.219
-412.384	-200.000	0.004	0.081
-411.369	800.000	-0.045	0.129
-410.355	529.251	0.100	0.233
-409.340	-110.965	0.090	0.018
-408.325	-200.000	0.051	-0.225
-407.311	-129.645	0.161	0.022
-406.296	152.224	-0.054	-0.073
-405.282	-187.256	0.082	-0.001
-404.267	739.228	-0.162	-0.430
-403.252	211.357	0.152	-0.236
-402.238	-165.501	0.340	-0.015
-401.223	800.000	-0.039	-0.142
-400.209	-73.114	0.170	0.061
-399.194	-73.922	0.106	-0.038
-398.179	-40.230	0.098	-0.050
-397.165	-161.485	0.305	-0.016
-396.150	800.000	-0.044	-0.168
-395.136	57.617	-0.227	0.219
-394.121	290.325	0.224	-0.402
-393.106	-200.000	0.031	-0.180
-392.092	800.000	0.122	0.387
-391.077	770.923	-0.048	-0.130
-390.063	800.000	-0.033	-0.104
-389.048	181.030	-0.129	0.187
-388.033	328.701	0.110	0.209
-387.019	-15.670	-0.113	-0.071
-386.004	137.486	-0.164	-0.212
-384.990	285.458	0.087	-0.155
-383.975	300.660	-0.240	-0.436
-382.960	-200.000	0.036	-0.302
-381.946	272.414	-0.124	-0.216
-380.931	4.761	0.090	0.065
-379.917	173.743	0.128	-0.183
-378.902	-84.130	-0.117	-0.037
-377.888	481.150	0.166	0.371
-376.873	58.687	-0.427	0.414
-375.858	34.999	0.096	-0.083
-374.844	-69.624	-0.146	-0.055
-373.829	59.153	0.140	-0.136
-372.815	-107.730	0.031	0.007
-371.800	-159.390	-0.327	0.018
-370.785	-42.005	-0.130	-0.066
-369.771	-87.230	0.162	0.048
-368.756	76.188	0.145	0.151
-367.742	183.887	-0.093	0.135
-366.727	27.926	-0.090	-0.074
-365.712	-104.123	0.310	-0.071
-364.698	46.122	0.270	-0.247
-363.683	-56.204	-0.365	-0.160
-362.669	-55.949	0.142	-0.062
-361.654	-88.387	-0.259	-0.076
-360.639	282.394	0.070	0.124
-359.625	-200.000	0.003	0.215
-358.610	-81.402	-0.269	-0.087
-357.596	207.330	-0.050	0.078
-356.581	-200.000	0.020	0.276
-355.566	10.840	-0.277	0.208
-354.552	478.324	-0.085	-0.191
-353.537	119.464	-0.061	0.075
-352.523	-200.000	0.089	-0.577
-351.508	-200.000	0.078	-0.410
-350.493	374.660	0.083	-0.167
-349.479	-80.840	0.386	-0.126
-348.464	-22.468	-0.119	-0.071
-347.450	-81.279	-0.131	0.043
-346.435	-0.132	0.253	0.177
-345.420	-144.967	-0.146	-0.013
-344.406	-200.000	-0.028	0.284
-343.391	173.335	-0.136	0.193
-342.377	800.000	-0.056	0.188
-341.362	800.000	-0.084	-0.323
-340.348	-89.234	0.119	0.035
-339.333	-120.187	-0.207	0.035
-338.318	-133.015	0.189	0.024
-337.304	461.298	0.111	0.244
-336.289	-200.000	0.010	-0.137
-335.275	319.252	-0.017	-0.033
-334.260	-120.273	0.390	-0.066
-333.245	-11.852	-0.315	-0.204
-332.231	101.797	-0.171	0.197
-331.216	541.051	0.146	0.343
-330.202	-200.000	-0.001	-0.087
-329.187	-18.949	-0.160	0.098
-328.172	123.201	0.254	0.314
-327.158	-200.000	0.003	0.035
-326.143	-92.084	-0.278	-0.077
-325.129	-112.637	0.066	0.013
-324.114	461.585	0.220	-0.483
-323.099	-37.221	-0.179	-0.094
-322.085	-167.028	-0.094	0.004
-321.070	-57.981	-0.167	0.072
-320.056	244.779	0.158	-0.261
-319.041	84.156	0.050	-0.054
-318.026	-42.238	0.163	-0.082
-317.012	-56.984	0.206	0.090
-315.997	800.000	0.031	-0.120
-314.983	800.000	0.135	-0.520
-313.968	19.107	-0.219	0.173
-312.953	-45.994	0.269	0.130
-311.939	348.050	-0.108	-0.209
-310.924	-191.914	-0.491	-0.005
-309.910	-48.688	0.102	0.048
-308.895	-200.000	-0.000	0.119
-307.880	-198.226	0.222	0.001
-306.866	-182.790	0.261	0.005
-305.851	-200.000	-0.047	0.257
-304.837	-148.292	0.040	-0.003
-303.822	2.104	0.211	0.150
-302.807	-200.000	-0.012	-0.117
-301.793	-200.000	-0.092	0.418
-300.778	76.437	-0.196	0.204
-299.764	-79.709	0.176	0.058
-298.749	-200.000	-0.014	0.157
-297.735	55.258	0.028	0.026
-296.720	-200.000	-0.002	-0.049
-295.705	800.000	0.089	0.296
-294.691	157.358	-0.197	0.268
-293.676	12.036	-0.240	0.181
-292.662	-200.000	-0.008	-0.145
-291.647	-62.445	0.077	-0.032
-290.632	-200.000	0.007	-0.051
-289.618	746.284	-0.050	-0.133
-288.603	-200.000	-0.044	-0.192
-287.589	800.000	0.111	-0.352
-286.574	-200.000	-0.018	-0.119
-285.559	-200.000	-0.003	-0.018
-284.545	-200.000	0.025	-0.165
-283.530	-5.854	0.325	-0.219
-282.516	-200.000	0.047	0.256
-281.501	18.592	-0.247	0.194
-280.486	-76.003	-0.130	0.045
-279.472	-66.114	0.173	0.068
-278.457	800.000	-0.022	-0.070
-277.443	355.297	0.154	-0.301
-276.428	738.640	0.072	0.191
-275.413	-200.000	0.024	0.254
-274.399	290.029	-0.068	0.121
-273.384	306.594	-0.075	0.136
-272.370	-200.000	-0.006	0.032
-271.355	113.527	-0.018	-0.021
-270.340	-200.000	0.014	0.232
-269.326	-200.000	-0.056	-0.356
-268.311	52.173	-0.110	0.103
-267.297	800.000	0.081	0.253
-266.282	-116.292	0.290	-0.053
-265.267	74.478	0.338	-0.349
-264.253	800.000	-0.101	0.301
-263.238	710.024	0.056	0.145
-262.224	-20.281	-0.208	0.126
-261.209	800.000	-0.084	0.261
-260.195	800.000	-0.114	0.401
-259.180	159.185	-0.046	0.063
-258.165	-200.000	0.022	0.270
-257.151	246.268	0.179	0.296
-256.136	800.000	0.123	-0.372
-255.122	152.951	-0.109	0.146
-254.107	200.586	0.129	0.195
-253.092	800.000	-0.030	0.108
-252.078	800.000	0.069	0.255
-251.063	800.000	-0.067	0.235
-250.049	-200.000	0.009	-0.100
-249.034	-182.541	0.268	-0.005
-248.019	-200.000	-0.063	0.282
-247.005	-9.723	-0.314	-0.205
-245.990	-35.853	0.129	0.068
-244.976	-200.000	0.037	0.286
-243.961	-200.000	0.013	-0.215
-242.946	526.582	0.157	-0.363
-241.932	-65.659	-0.057	-0.022
-240.917	-75.931	-0.078	-0.027
-239.903	-123.219	-0.191	-0.030
-238.888	-200.000	0.005	-0.199
-237.873	764.730	-0.060	-0.161
-236.859	-135.088	0.219	0.026
-235.844	54.662	0.103	-0.098
-234.830	-19.043	-0.117	-0.071
-233.815	800.000	0.083	0.284
-232.800	-200.000	-0.004	-0.090
-231.786	1.196	-0.162	-0.114
-230.771	-48.562	-0.176	0.083
-229.757	-200.000	0.037	0.272
-228.742	-64.655	0.157	-0.063
-227.727	-73.819	-0.367	-0.131
-226.713	-130.795	0.348	-0.046
-225.698	222.330	0.159	-0.251
-224.684	99.789	0.205	0.232
-223.669	-4.625	0.381	-0.258
-222.655	304.142	0.088	-0.161
-221.640	394.772	0.133	-0.273
-220.625	-116.301	0.093	-0.017
-219.611	-27.160	0.059	-0.034
-218.596	368.942	-0.052	0.104
-217.582	47.013	-0.125	0.114
-216.567	9.077	0.235	0.174
-215.552	559.392	0.079	0.187
-214.538	-47.978	0.297	-0.141
-213.523	-128.363	-0.224	0.031
-212.509	642.537	-0.013	-0.032
-211.494	800.000	0.108	0.424
-210.479	800.000	-0.064	0.178
-209.465	-200.000	-0.036	0.335
-208.450	413.300	-0.034	0.070
-207.436	-200.000	0.020	-0.106
-206.421	215.395	-0.193	-0.300
-205.406	298.470	0.073	-0.131
-204.392	99.570	0.143	-0.162
-203.377	-84.559	-0.185	0.057
-202.363	-47.587	0.280	-0.133
-201.348	-55.819	-0.218	0.095
-200.333	609.418	0.045	0.110
-199.319	-132.230	-0.289	-0.037
-198.304	3.799	0.026	0.018
-197.290	623.852	-0.019	-0.046
-196.275	311.410	-0.167	-0.306
-195.260	4.522	0.250	-0.180
-194.246	12.406	-0.201	0.152
-193.231	-125.110	-0.216	0.032
-192.217	219.050	-0.091	0.142
-191.202	93.375	0.084	0.093
-190.187	-146.939	0.100	-0.008
-189.173	147.797	-0.167	-0.221
-188.158	150.548	0.179	0.238
-187.144	-72.902	0.368	-0.132
-186.129	262.143	-0.017	0.028
-185.114	426.996	0.083	0.176
-184.100	800.000	0.039	-0.146
-183.085	-38.004	0.187	-0.097
-182.071	-200.000	0.006	0.264
-181.056	738.416	0.100	0.261
-180.042	10.136	0.177	-0.132
-179.027	-200.000	-0.019	0.405
-178.012	800.000	0.024	0.068
-176.998	-200.000	0.021	-0.157
-175.983	100.820	0.294	-0.335
-174.969	198.730	-0.062	-0.093
-173.954	-122.533	-0.257	-0.041
-172.939	-102.073	0.291	-0.069
-171.925	21.035	0.094	0.075
-170.910	800.000	0.041	-0.120
-169.896	268.537	0.024	0.042
-168.881	-200.000	0.075	-0.425
-167.866	800.000	0.023	0.075
-166.852	260.314	-0.038	0.063
-165.837	143.065	-0.150	-0.195
-164.823	800.000	0.040	0.138
-163.808	215.704	0.098	0.152
-162.793	19.849	0.160	0.126
-161.779	800.000	-0.037	-0.140
-160.764	-168.395	0.046	-0.002
-159.750	-159.647	-0.161	0.009
-158.735	15.819	0.309	0.238
-157.720	508.143	0.168	0.381
-156.706	-36.639	-0.357	-0.188
-155.691	94.724	-0.178	-0.198
-154.677	-48.800	-0.085	0.040
-153.662	9.876	-0.173	-0.128
-152.647	4.674	-0.234	-0.168
-151.633	23.961	0.142	-0.115
-150.618	800.000	-0.096	0.266
-149.604	-200.000	0.015	-0.177
-148.589	-200.000	0.023	0.132
-147.574	800.000	0.057	-0.157
-146.560	-58.949	-0.331	0.140
-145.545	-20.289	0.423	-0.255
-144.531	-92.004	-0.192	0.053
-143.516	202.655	-0.009	-0.013
-142.502	7.468	0.113	0.083
-141.487	-49.423	0.199	-0.093
-140.472	-141.026	0.229	-0.023
-139.458	-200.000	0.077	0.334
-138.443	-200.000	0.011	-0.391
-137.429	64.889	-0.194	0.191
-136.414	-37.829	-0.059	-0.031
-135.399	-46.919	0.290	-0.138
-134.385	-200.000	-0.017	-0.075
-133.370	-112.533	-0.171	0.033
-132.356	88.695	-0.134	-0.146
-131.341	-136.508	-0.035	-0.004
-130.326	60.506	-0.273	-0.264
-129.312	64.909	0.110	0.108
-128.297	800.000	-0.014	0.061
-127.283	-43.666	0.087	-0.043
-126.268	-86.722	0.118	0.035
-125.253	140.889	0.169	-0.218
-124.239	-55.548	0.150	-0.065
-123.224	-155.242	0.424	0.027
-122.210	546.018	-0.098	0.229
-121.195	45.337	-0.185	-0.167
