DTS Sentinel unit serial number:	SN413079Multiplexer serial number:	ORYXHardware model number:	OX4-SRSoftware version number:	ORYX F/W v4.00 Oryx Data Collector v3.7.2.0data status	okinstallation	princeton_trtdifferential loss correction	single-endedforward channel	channel 3reverse channel	N/Adate	2019/09/16time	04:28:35forward acquisition time	60.00reverse acquisition time	0.00gamma	496.2192k internal	0.2336k external	0.2336temperature offset calibration	0.9961default loss term (dB/km)	0.3790temperature slope calibration	1.0000multiplexer offset coefficient	1.0000multiplexer slope coefficient	1.0000fibre end	0.00T internal ref (°C)	27.27T ext. ref 1 (°C)	10.85T ext. ref 2 (°C)	21.37length (m)	temperature (°C)	Stokes	anti-Stokes-747.200	263.792	0.090	-0.158
-746.185	-200.000	0.007	0.249
-745.171	-142.270	0.360	0.036
-744.156	-99.149	0.136	0.035
-743.142	-66.817	0.239	0.095
-742.127	48.184	0.198	0.186
-741.112	-54.901	-0.096	0.043
-740.098	-71.247	-0.133	-0.050
-739.083	-52.391	-0.236	-0.110
-738.069	169.395	0.198	-0.284
-737.054	74.210	0.106	0.112
-736.039	800.000	0.045	0.189
-735.025	-58.727	0.478	-0.208
-734.010	-85.455	-0.242	-0.076
-732.996	-200.000	0.003	-0.177
-731.981	145.169	-0.176	-0.236
-730.966	310.139	-0.122	-0.229
-729.952	-200.000	-0.009	-0.304
-728.937	-22.655	-0.165	-0.100
-727.923	800.000	-0.063	0.275
-726.908	-118.494	0.308	0.055
-725.894	-71.883	0.244	-0.091
-724.879	-9.355	-0.153	0.103
-723.864	130.930	-0.093	-0.120
-722.850	-88.887	0.344	-0.102
-721.835	60.136	-0.088	0.087
-720.821	236.791	-0.202	0.335
-719.806	11.218	-0.327	0.251
-718.791	-200.000	-0.004	0.045
-717.777	-200.000	-0.012	-0.105
-716.762	-161.057	-0.393	-0.021
-715.748	-200.000	-0.048	-0.409
-714.733	312.171	-0.134	-0.253
-713.718	800.000	0.024	0.070
-712.704	547.757	0.037	0.088
-711.689	4.979	-0.144	-0.106
-710.675	755.935	0.077	-0.209
-709.660	709.018	0.058	-0.153
-708.645	-200.000	-0.021	-0.231
-707.631	553.931	0.071	0.172
-706.616	514.013	-0.133	0.312
-705.602	-24.118	-0.212	-0.127
-704.587	1.732	-0.395	-0.285
-703.572	-200.000	0.006	0.138
-702.558	-131.481	-0.279	0.037
-701.543	-171.819	-0.042	0.001
-700.529	170.711	0.032	-0.046
-699.514	333.346	0.187	-0.362
-698.499	-34.980	0.038	-0.021
-697.485	-200.000	-0.007	-0.234
-696.470	-200.000	0.040	0.284
-695.456	-55.352	-0.256	0.115
-694.441	-105.693	0.199	0.045
-693.426	-200.000	-0.083	0.456
-692.412	-33.226	-0.012	0.007
-691.397	-146.669	0.036	0.003
-690.383	-46.554	0.045	-0.022
-689.368	-135.865	-0.084	0.010
-688.354	800.000	-0.023	-0.069
-687.339	-200.000	-0.165	-0.000
-686.324	-74.096	-0.233	-0.085
-685.310	174.283	-0.075	-0.109
-684.295	81.151	0.285	0.309
-683.281	-90.560	-0.097	0.028
-682.266	26.492	-0.335	-0.281
-681.251	133.580	-0.159	-0.206
-680.237	185.885	0.141	-0.210
-679.222	-200.000	-0.006	0.130
-678.208	164.284	0.071	-0.100
-677.193	-2.151	-0.320	-0.225
-676.178	-110.100	-0.075	0.016
-675.164	800.000	0.048	0.163
-674.149	800.000	-0.074	0.207
-673.135	-70.168	-0.232	-0.088
-672.120	-0.677	0.035	-0.025
-671.105	-151.612	0.410	0.030
-670.091	37.070	-0.155	0.138
-669.076	-26.828	0.171	-0.100
-668.062	545.617	0.071	-0.170
-667.047	-200.000	-0.006	-0.124
-666.032	130.131	0.231	-0.296
-665.018	-200.000	-0.025	-0.154
-664.003	453.754	0.037	-0.082
-662.989	732.484	0.164	-0.438
-661.974	-200.000	0.065	-0.317
-660.959	-73.519	-0.102	0.037
-659.945	55.193	-0.050	-0.049
-658.930	-200.000	-0.040	-0.293
-657.916	54.529	0.148	-0.143
-656.901	-118.172	-0.364	-0.065
-655.886	-131.123	-0.187	0.025
-654.872	23.758	0.240	0.198
-653.857	8.683	-0.189	-0.142
-652.843	210.122	-0.085	-0.133
-651.828	-97.741	-0.259	0.067
-650.814	242.330	-0.160	-0.268
-649.799	258.047	-0.194	0.335
-648.784	-125.511	-0.372	-0.057
-647.770	-200.000	-0.030	0.180
-646.755	53.199	-0.163	0.156
-645.741	-49.615	0.209	-0.100
-644.726	9.893	-0.277	-0.210
-643.711	-32.612	0.188	-0.105
-642.697	702.526	0.132	0.347
-641.682	-200.000	-0.078	-0.449
-640.668	6.554	0.282	0.210
-639.653	128.187	-0.048	0.061
-638.638	-30.097	-0.171	0.097
-637.624	3.768	-0.191	0.140
-636.609	673.203	-0.070	0.182
-635.595	-90.911	0.228	0.066
-634.580	-111.702	0.335	-0.068
-633.565	-148.931	0.125	0.010
-632.551	-200.000	-0.025	0.249
-631.536	361.677	0.107	-0.215
-630.522	659.035	0.068	-0.176
-629.507	232.252	-0.097	-0.159
-628.492	-51.423	-0.235	-0.110
-627.478	657.622	-0.033	-0.085
-626.463	133.614	0.141	-0.183
-625.449	-120.718	-0.155	0.026
-624.434	-51.996	0.244	-0.114
-623.419	260.504	-0.092	0.159
-622.405	149.093	0.191	0.259
-621.390	308.834	-0.081	-0.152
-620.376	-104.446	-0.164	-0.038
-619.361	-135.308	-0.115	-0.014
-618.346	-28.457	0.154	-0.089
-617.332	387.857	0.115	0.237
-616.317	800.000	0.062	-0.248
-615.303	12.875	0.134	-0.104
-614.288	-23.601	-0.187	0.112
-613.273	-200.000	0.033	-0.318
-612.259	-200.000	0.000	-0.141
-611.244	800.000	0.022	0.079
-610.230	-57.497	0.368	-0.161
-609.215	-200.000	0.005	-0.206
-608.201	-200.000	0.054	-0.319
-607.186	30.199	0.123	-0.105
-606.171	650.064	0.157	-0.402
-605.157	800.000	0.068	0.213
-604.142	-200.000	-0.034	0.168
-603.128	-200.000	0.047	0.208
-602.113	273.405	-0.168	0.297
-601.098	373.961	0.153	0.311
-600.084	132.270	0.099	0.128
-599.069	-200.000	0.009	-0.093
-598.055	92.354	-0.102	-0.115
-597.040	-129.702	-0.297	-0.041
-596.025	312.844	-0.139	-0.261
-595.011	-161.380	-0.167	-0.009
-593.996	-131.835	-0.097	0.013
-592.982	297.475	0.062	-0.113
-591.967	432.253	0.037	-0.079
-590.952	107.932	-0.116	0.138
-589.938	79.064	-0.298	-0.318
-588.923	-200.000	0.031	-0.152
-587.909	-200.000	0.016	0.192
-586.894	513.437	-0.053	0.124
-585.879	80.289	-0.271	-0.291
-584.865	-173.562	-0.262	-0.008
-583.850	-200.000	0.003	0.017
-582.836	-33.284	-0.075	-0.041
-581.821	-200.000	-0.013	-0.060
-580.806	-200.000	0.008	0.187
-579.792	1.011	0.089	0.063
-578.777	-121.098	-0.080	-0.013
-577.763	-37.502	-0.249	-0.133
-576.748	-200.000	-0.056	-0.379
-575.733	188.408	0.091	-0.135
-574.719	-22.059	-0.234	0.142
-573.704	142.592	0.007	-0.009
-572.690	-17.048	0.217	-0.137
-571.675	800.000	0.037	-0.105
-570.661	-81.601	-0.159	-0.052
-569.646	58.124	-0.057	0.055
-568.631	-200.000	0.024	0.177
-567.617	169.689	0.081	-0.116
-566.602	-200.000	-0.008	-0.062
-565.588	97.642	0.113	-0.130
-564.573	-102.165	0.476	0.114
-563.558	-151.552	0.128	-0.009
-562.544	460.361	-0.069	0.154
-561.529	99.742	0.033	0.038
-560.515	79.050	-0.134	0.143
-559.500	84.522	0.118	-0.129
-558.485	-200.000	-0.009	-0.107
-557.471	3.852	0.028	-0.020
-556.456	-71.273	-0.137	0.051
-555.442	-163.659	0.309	-0.015
-554.427	321.927	-0.066	-0.126
-553.412	-90.202	-0.150	-0.044
-552.398	-92.508	-0.304	0.085
-551.383	441.840	-0.155	-0.338
-550.369	1.879	0.122	0.088
-549.354	-200.000	-0.010	0.056
-548.339	708.706	0.066	-0.175
-547.325	-200.000	-0.002	0.497
-546.310	-49.775	0.335	0.159
-545.296	-38.462	-0.168	-0.089
-544.281	654.034	0.095	0.242
-543.266	-23.723	-0.228	0.136
-542.252	148.024	0.031	0.041
-541.237	-104.635	-0.240	-0.055
-540.223	21.784	-0.046	-0.038
-539.208	-179.382	0.167	-0.004
-538.193	-40.815	-0.376	0.194
-537.179	800.000	0.019	-0.074
-536.164	-94.619	-0.076	-0.021
-535.150	15.098	-0.270	0.210
-534.135	355.952	-0.043	-0.086
-533.121	258.795	-0.134	0.230
-532.106	546.601	0.071	-0.168
-531.091	745.373	-0.080	-0.215
-530.077	646.999	0.004	-0.010
-529.062	-1.563	-0.237	0.167
-528.048	800.000	0.032	-0.122
-527.033	772.752	0.130	-0.353
-526.018	800.000	-0.068	-0.235
-525.004	16.297	-0.242	0.190
-523.989	90.734	-0.145	-0.162
-522.975	-200.000	-0.048	-0.267
-521.960	-136.490	-0.274	-0.032
-520.945	-200.000	-0.025	-0.225
-519.931	-38.058	0.351	0.186
-518.916	-104.295	-0.072	0.017
-517.902	19.281	0.158	0.127
-516.887	800.000	-0.017	-0.048
-515.872	-200.000	0.069	0.332
-514.858	-200.000	0.024	0.404
-513.843	-81.509	0.269	-0.088
-512.829	46.106	-0.116	-0.107
-511.814	97.214	-0.220	-0.252
-510.799	39.931	0.064	0.057
-509.785	723.793	0.106	0.281
-508.770	66.224	0.179	-0.181
-507.756	-95.773	0.183	-0.049
-506.741	-104.100	-0.091	-0.021
-505.726	-56.054	-0.168	0.074
-504.712	-200.000	0.049	-0.253
-503.697	800.000	0.035	0.135
-502.683	-200.000	-0.049	-0.286
-501.668	800.000	-0.091	0.288
-500.653	800.000	0.050	0.138
-499.639	-200.000	-0.028	0.128
-498.624	-33.876	-0.354	0.194
-497.610	333.874	-0.090	0.173
-496.595	800.000	0.118	0.385
-495.581	-200.000	0.072	0.474
-494.566	-200.000	0.027	0.328
-493.551	136.042	-0.143	-0.185
-492.537	35.460	0.212	0.185
-491.522	800.000	-0.127	-0.430
-490.508	3.282	-0.167	-0.121
-489.493	362.505	0.162	-0.324
-488.478	120.648	0.116	-0.144
-487.464	-90.359	-0.130	0.038
-486.449	-127.647	-0.184	-0.027
-485.435	-200.000	-0.041	-0.301
-484.420	-200.000	0.046	0.254
-483.405	191.532	0.180	0.270
-482.391	-54.003	-0.325	-0.147
-481.376	-200.000	0.052	-0.264
-480.362	-158.115	0.304	0.018
-479.347	-18.861	0.209	-0.129
-478.332	-46.974	-0.218	-0.106
-477.318	357.977	0.030	0.059
-476.303	376.523	-0.115	0.233
-475.289	630.858	0.046	0.117
-474.274	467.216	-0.103	0.228
-473.259	-125.914	-0.084	0.013
-472.245	800.000	0.128	0.408
-471.230	-96.614	0.258	-0.068
-470.216	-61.302	0.176	0.074
-469.201	255.511	0.051	0.087
-468.186	-200.000	-0.029	0.199
-467.172	-200.000	0.025	-0.296
-466.157	20.547	0.068	-0.055
-465.143	800.000	-0.064	-0.182
-464.128	654.807	-0.054	-0.139
-463.113	-37.124	-0.267	-0.142
-462.099	-72.620	-0.143	0.052
-461.084	-98.223	0.353	-0.090
-460.070	141.784	0.099	-0.130
-459.055	-49.333	-0.174	-0.083
-458.040	596.917	-0.064	-0.158
-457.026	-93.459	-0.295	-0.081
-456.011	408.143	0.107	-0.225
-454.997	36.748	-0.105	0.092
-453.982	-139.942	-0.317	0.033
-452.968	-76.167	-0.096	0.034
-451.953	-200.000	-0.015	0.336
-450.938	800.000	-0.064	0.190
-449.924	90.075	0.014	-0.016
-448.909	-85.616	0.050	0.015
-447.895	4.055	0.326	-0.236
-446.880	-200.000	0.002	0.497
-445.865	602.085	-0.119	0.293
-444.851	162.864	0.084	0.117
-443.836	495.656	0.113	-0.257
-442.822	800.000	-0.061	-0.181
-441.807	-73.771	-0.149	-0.054
-440.792	-77.744	-0.182	0.062
-439.778	-200.000	0.057	0.260
-438.763	-123.494	-0.366	0.058
-437.749	19.750	0.182	0.145
-436.734	65.709	-0.140	0.141
-435.719	280.462	-0.083	0.148
-434.705	800.000	0.053	-0.185
-433.690	-6.526	-0.131	0.089
-432.676	800.000	0.054	0.153
-431.661	13.223	-0.031	0.023
-430.646	-200.000	-0.010	0.107
-429.632	80.957	-0.246	-0.263
-428.617	685.346	0.078	-0.201
-427.603	418.351	0.080	0.170
-426.588	800.000	-0.063	0.233
-425.573	30.101	-0.069	0.059
-424.559	206.481	-0.059	0.091
-423.544	546.204	-0.070	-0.167
-422.530	-200.000	-0.007	0.095
-421.515	-63.047	-0.011	0.004
-420.500	-30.972	-0.135	-0.076
-419.486	-157.648	0.236	0.014
-418.471	0.096	-0.123	0.087
-417.457	225.668	0.196	0.315
-416.442	-200.000	-0.004	-0.144
-415.428	329.809	-0.086	-0.163
-414.413	36.239	0.267	-0.233
-413.398	242.426	0.098	0.162
-412.384	-85.993	0.290	0.089
-411.369	-200.000	0.004	0.288
-410.355	-34.930	-0.344	-0.186
-409.340	-23.529	0.195	0.116
-408.325	-200.000	0.008	-0.103
-407.311	-60.206	0.178	-0.075
-406.296	50.325	0.099	-0.092
-405.282	61.365	-0.194	-0.191
-404.267	210.752	0.153	0.239
-403.252	-200.000	-0.046	-0.247
-402.238	800.000	-0.063	-0.241
-401.223	-44.845	-0.019	-0.009
-400.209	407.328	0.209	0.439
-399.194	162.407	0.095	0.131
-398.179	-76.291	0.100	0.035
-397.165	119.489	-0.101	-0.123
-396.150	138.916	0.070	0.091
-395.136	-29.894	0.259	0.146
-394.121	265.864	-0.090	0.156
-393.106	-200.000	-0.005	-0.251
-392.092	334.324	0.091	-0.174
-391.077	209.104	-0.056	-0.087
-390.063	-200.000	0.031	-0.360
-389.048	256.001	0.170	0.288
-388.033	144.986	0.025	0.033
-387.019	104.854	-0.181	0.211
-386.004	378.711	-0.144	-0.292
-384.990	-200.000	-0.032	-0.160
-383.975	-200.000	0.041	0.198
-382.960	800.000	-0.045	0.131
-381.946	-200.000	0.012	0.094
-380.931	37.766	-0.058	-0.051
-379.917	-88.992	-0.111	-0.033
-378.902	117.290	-0.036	0.044
-377.888	437.429	0.069	-0.150
-376.873	-141.479	-0.202	0.020
-375.858	-108.813	-0.085	-0.018
-374.844	82.221	-0.170	0.183
-373.829	800.000	0.064	0.187
-372.815	-142.348	-0.323	0.032
-371.800	415.193	0.102	-0.214
-370.785	273.131	-0.178	0.310
-369.771	-69.139	-0.193	0.073
-368.756	-53.094	0.137	0.062
-367.742	132.855	0.132	-0.168
-366.727	-4.368	0.147	0.100
-365.712	464.461	-0.040	0.088
-364.698	-200.000	0.031	-0.220
-363.683	-72.032	-0.089	-0.033
-362.669	800.000	-0.108	-0.450
-361.654	-200.000	0.042	-0.274
-360.639	800.000	-0.078	-0.245
-359.625	800.000	-0.079	0.227
-358.610	-200.000	-0.001	-0.094
-357.596	-102.889	0.391	0.092
-356.581	-200.000	0.050	0.233
-355.566	-104.984	0.232	0.053
-354.552	98.514	0.093	0.106
-353.537	75.958	0.057	-0.060
-352.523	-176.475	-0.161	-0.004
-351.508	-200.000	-0.017	-0.181
-350.493	317.994	0.169	0.317
-349.479	-117.815	-0.471	0.084
-348.464	155.074	0.057	-0.078
-347.450	-49.210	-0.243	0.115
-346.435	-87.170	-0.174	-0.052
-345.420	377.788	-0.180	-0.363
-344.406	131.999	0.059	0.076
-343.391	228.439	0.084	-0.135
-342.377	-112.944	0.210	0.041
-341.362	72.919	0.340	0.351
-340.348	-27.813	0.083	0.047
-339.333	44.992	-0.123	-0.112
-338.318	-28.969	-0.178	-0.101
-337.304	-100.996	-0.258	0.063
-336.289	5.944	0.249	-0.182
-335.275	282.987	0.112	-0.199
-334.260	-179.042	-0.049	0.001
-333.245	42.372	0.059	0.053
-332.231	130.621	-0.178	-0.226
-331.216	-76.155	0.252	-0.088
-330.202	-2.722	0.225	0.156
-329.187	-96.039	0.204	-0.054
-328.172	57.555	0.245	0.237
-327.158	-200.000	0.065	0.299
-326.143	-200.000	0.014	-0.301
-325.129	465.990	-0.146	-0.323
-324.114	14.466	-0.144	-0.111
-323.099	38.085	-0.178	0.156
-322.085	347.123	0.155	-0.302
-321.070	-6.635	-0.153	0.103
-320.056	79.825	0.125	-0.133
-319.041	-31.446	-0.230	0.128
-318.026	-142.788	0.095	0.009
-317.012	800.000	-0.073	0.285
-315.997	605.668	0.134	-0.329
-314.983	-200.000	0.037	0.210
-313.968	-200.000	0.012	-0.240
-312.953	-119.377	0.177	0.030
-311.939	-200.000	0.035	0.174
-310.924	46.869	-0.289	0.265
-309.910	-30.656	0.335	0.187
-308.895	340.262	0.181	-0.348
-307.880	39.362	0.052	0.046
-306.866	-59.400	0.222	-0.094
-305.851	291.601	0.206	0.370
-304.837	-170.850	0.035	0.001
-303.822	-36.388	0.204	0.108
-302.807	-139.272	0.256	-0.027
-301.793	800.000	-0.049	0.186
-300.778	800.000	-0.097	0.293
-299.764	800.000	-0.044	0.185
-298.749	153.975	0.135	0.182
-297.735	-128.929	-0.302	-0.042
-296.720	249.480	-0.108	0.180
-295.705	742.293	0.009	0.025
-294.691	-71.623	-0.193	0.071
-293.676	-200.000	0.021	0.178
-292.662	138.494	0.073	-0.095
-291.647	800.000	0.029	0.086
-290.632	-200.000	-0.029	-0.147
-289.618	-130.534	0.215	-0.029
-288.603	-32.284	-0.141	-0.078
-287.589	162.330	-0.075	-0.103
-286.574	-57.648	0.445	-0.192
-285.559	-74.242	0.201	-0.072
-284.545	-120.358	0.126	-0.021
-283.530	126.807	0.147	0.184
-282.516	800.000	-0.100	-0.275
-281.501	-44.933	-0.244	-0.120
-280.486	217.197	-0.126	0.198
-279.472	800.000	-0.015	-0.048
-278.457	-46.656	-0.123	0.060
-277.443	-114.194	-0.260	-0.050
-276.428	-200.000	0.031	-0.415
-275.413	-177.916	-0.222	0.005
-274.399	449.817	0.052	-0.112
-273.384	354.688	0.136	-0.266
-272.370	-200.000	0.013	0.142
-271.355	130.111	-0.053	-0.066
-270.340	64.195	0.274	-0.272
-269.326	-200.000	-0.018	0.365
-268.311	-63.102	0.090	0.037
-267.297	-200.000	-0.002	0.210
-266.282	278.266	0.132	0.231
-265.267	-125.165	-0.238	0.036
-264.253	116.465	0.213	-0.257
-263.238	800.000	-0.082	0.243
-262.224	-10.038	-0.093	-0.061
-261.209	4.522	0.236	0.171
-260.195	-40.408	-0.098	-0.050
-259.180	64.465	0.158	-0.157
-258.165	-27.334	0.165	0.095
-257.151	-101.285	-0.230	-0.055
-256.136	-200.000	-0.041	-0.203
-255.122	-154.647	0.407	-0.027
-254.107	-70.227	-0.171	0.064
-253.092	-200.000	-0.001	0.100
-252.078	143.043	0.046	0.060
-251.063	-200.000	-0.024	0.168
-250.049	-200.000	-0.008	-0.128
-249.034	37.735	0.136	0.119
-248.019	211.184	-0.077	-0.119
-247.005	539.873	0.039	-0.092
-245.990	-200.000	0.018	0.181
-244.976	-200.000	-0.008	0.139
-243.961	-141.137	0.301	0.030
-242.946	-131.403	-0.097	0.013
-241.932	130.926	-0.276	0.349
-240.917	282.657	-0.103	-0.181
-239.903	-200.000	0.077	-0.341
-238.888	94.436	-0.288	-0.322
-237.873	-200.000	0.050	-0.436
-236.859	773.865	0.066	-0.177
-235.844	-90.693	0.166	0.047
-234.830	37.602	0.100	-0.088
-233.815	-118.084	-0.141	0.025
-232.800	800.000	-0.022	-0.080
-231.786	800.000	0.064	0.242
-230.771	-68.069	0.107	0.041
-229.757	89.748	-0.224	0.246
-228.742	361.771	-0.127	-0.251
-227.727	-200.000	0.034	0.382
-226.713	39.081	-0.218	-0.192
-225.698	-88.277	0.251	-0.074
-224.684	-125.201	-0.512	0.077
-223.669	800.000	-0.081	-0.242
-222.655	-31.534	0.175	-0.097
-221.640	-7.979	0.350	0.233
-220.625	-6.315	0.156	-0.104
-219.611	531.862	-0.028	0.066
-218.596	-200.000	0.030	-0.152
-217.582	-134.443	-0.221	0.027
-216.567	87.755	-0.135	-0.147
-215.552	22.056	0.304	-0.244
-214.538	598.922	0.104	0.254
-213.523	-64.916	0.133	0.053
-212.509	128.500	0.059	0.074
-211.494	-200.000	0.079	-0.346
-210.479	-200.000	-0.035	0.261
-209.465	-200.000	-0.004	0.311
-208.450	-72.261	0.168	-0.061
-207.436	-193.822	0.107	-0.001
-206.421	165.933	-0.062	-0.086
-205.406	440.978	0.070	-0.150
-204.392	191.787	0.090	-0.133
-203.377	-20.893	0.142	-0.086
-202.363	-52.260	-0.220	0.100
-201.348	242.396	0.230	0.379
-200.333	227.331	-0.060	0.096
-199.319	26.698	-0.176	0.145
-198.304	-130.407	0.224	0.030
-197.290	24.129	-0.202	0.164
-196.275	800.000	-0.094	-0.255
-195.260	111.396	-0.268	0.317
-194.246	65.155	0.352	-0.350
-193.231	2.339	-0.161	0.114
-192.217	-200.000	-0.036	0.291
-191.202	-72.893	0.107	-0.039
-190.187	-78.554	0.103	-0.035
-189.173	-185.192	0.117	0.002
-188.158	-200.000	-0.005	0.199
-187.144	294.892	0.063	-0.112
-186.129	-19.838	0.361	0.219
-185.114	-155.178	0.354	-0.023
-184.100	-179.685	0.416	-0.009
-183.085	-89.474	0.100	0.029
-182.071	800.000	0.057	-0.226
-181.056	-34.798	-0.192	-0.103
-180.042	-58.772	-0.057	-0.024
-179.027	-85.069	-0.127	-0.039
-178.012	146.837	0.166	0.219
-176.998	-200.000	0.012	-0.141
-175.983	-16.055	0.520	0.325
-174.969	113.821	-0.157	0.187
-173.954	-200.000	0.019	-0.127
-172.939	-50.884	0.018	-0.008
-171.925	-54.623	-0.206	0.091
-170.910	-5.719	-0.231	0.156
-169.896	261.189	0.019	-0.032
-168.881	-200.000	0.013	0.103
-167.866	262.290	0.061	-0.103
-166.852	0.834	-0.104	-0.073
-165.837	37.431	-0.233	-0.203
-164.823	-32.908	-0.241	0.131
-163.808	34.839	-0.157	0.135
-162.793	162.112	-0.214	-0.294
-161.779	80.092	0.145	-0.154
-160.764	-64.212	-0.019	-0.008
-159.750	179.436	0.052	-0.074
-158.735	-29.834	0.153	0.086
-157.720	105.410	-0.171	0.198
-156.706	-160.191	0.148	0.008
-155.691	-130.392	-0.103	-0.014
-154.677	-200.000	0.044	-0.380
-153.662	119.144	-0.118	-0.143
-152.647	800.000	-0.107	-0.411
-151.633	50.789	0.079	-0.073
-150.618	-200.000	0.000	-0.152
-149.604	-200.000	-0.041	-0.258
-148.589	800.000	0.122	-0.383
-147.574	333.298	-0.114	-0.216
-146.560	-14.210	-0.151	0.095
-145.545	331.565	0.141	-0.267
-144.531	-185.155	0.223	-0.003
-143.516	266.012	0.164	0.280
-142.502	-200.000	-0.010	0.109
-141.487	-75.874	-0.018	-0.006
-140.472	-48.121	0.153	0.073
-139.458	-200.000	0.031	-0.289
-138.443	-112.454	0.134	-0.026
-137.429	-200.000	-0.008	0.266
-136.414	38.907	0.007	0.006
-135.399	33.637	-0.170	-0.145
-134.385	-73.424	0.059	-0.021
-133.370	62.750	0.065	-0.063
-132.356	-106.192	0.337	0.074
-131.341	8.608	0.080	0.059
-130.326	-200.000	-0.007	0.050
-129.312	103.342	-0.106	-0.122
-128.297	-17.024	-0.118	0.073
-127.283	800.000	-0.106	0.379
-126.268	-200.000	0.024	0.195
-125.253	-12.735	-0.271	-0.173
-124.239	62.481	0.137	-0.134
-123.224	22.689	0.137	-0.110
-122.210	93.789	-0.232	-0.257
-121.195	800.000	0.059	-0.244
