DTS Sentinel unit serial number:	SN413079Multiplexer serial number:	ORYXHardware model number:	OX4-SRSoftware version number:	ORYX F/W v4.00 Oryx Data Collector v3.7.2.0data status	okinstallation	princeton_trtdifferential loss correction	single-endedforward channel	channel 3reverse channel	N/Adate	2019/09/12time	09:02:11forward acquisition time	60.00reverse acquisition time	0.00gamma	496.2192k internal	0.2307k external	0.2307temperature offset calibration	1.0035default loss term (dB/km)	0.3790temperature slope calibration	1.0000multiplexer offset coefficient	1.0000multiplexer slope coefficient	1.0000fibre end	0.00T internal ref (°C)	34.30T ext. ref 1 (°C)	1.78T ext. ref 2 (°C)	31.53length (m)	temperature (°C)	Stokes	anti-Stokes-747.200	767.697	0.185	0.512
-746.185	-137.382	-0.170	-0.020
-745.171	-200.000	0.030	0.229
-744.156	-200.000	-0.039	0.219
-743.142	96.194	-0.028	0.033
-742.127	-200.000	0.036	0.481
-741.112	800.000	-0.078	0.305
-740.098	-200.000	0.018	0.082
-739.083	-23.204	-0.090	0.055
-738.069	101.680	-0.144	0.171
-737.054	800.000	0.106	0.300
-736.039	-200.000	-0.003	0.109
-735.025	-11.818	0.205	0.137
-734.010	261.480	-0.115	-0.202
-732.996	48.165	-0.288	-0.274
-731.981	-149.965	-0.403	-0.032
-730.966	-200.000	0.009	0.146
-729.952	118.837	0.029	-0.037
-728.937	-200.000	-0.319	-0.001
-727.923	-0.176	0.115	-0.083
-726.908	163.207	0.096	-0.138
-725.894	507.122	0.044	-0.104
-724.879	800.000	0.058	-0.202
-723.864	314.050	-0.060	-0.116
-722.850	-86.835	0.097	-0.030
-721.835	-34.020	-0.188	-0.105
-720.821	-149.171	0.079	0.006
-719.806	-167.154	-0.256	-0.011
-718.791	-119.434	-0.224	0.039
-717.777	15.813	0.214	-0.171
-716.762	57.953	0.176	-0.175
-715.748	15.174	0.214	0.171
-714.733	-120.842	0.442	-0.076
-713.718	627.537	-0.068	-0.175
-712.704	51.821	-0.325	0.314
-711.689	206.755	-0.087	0.138
-710.675	-200.000	-0.079	-0.384
-709.660	-94.354	0.199	0.055
-708.645	10.225	0.091	-0.070
-707.631	800.000	-0.092	0.288
-706.616	44.583	-0.049	-0.045
-705.602	147.284	-0.099	-0.135
-704.587	152.928	0.285	-0.395
-703.572	-94.118	0.428	-0.119
-702.558	258.654	0.072	-0.125
-701.543	800.000	-0.032	-0.137
-700.529	-32.685	0.212	-0.119
-699.514	39.779	-0.178	-0.163
-698.499	-200.000	0.000	-0.368
-697.485	2.230	0.322	-0.236
-696.470	101.445	0.089	-0.105
-695.456	-200.000	-0.010	-0.185
-694.441	-20.106	-0.104	0.065
-693.426	200.039	0.073	-0.113
-692.412	0.941	-0.082	-0.060
-691.397	0.855	0.051	-0.037
-690.383	-146.220	0.089	-0.008
-689.368	-89.525	0.287	-0.086
-688.354	800.000	0.118	0.451
-687.339	-186.926	-0.292	0.004
-686.324	-200.000	0.216	0.001
-685.310	-49.726	0.185	-0.089
-684.295	45.740	0.161	-0.151
-683.281	-191.895	-0.191	0.002
-682.266	-200.000	0.013	-0.301
-681.251	-68.551	-0.193	-0.076
-680.237	211.185	0.123	-0.196
-679.222	327.603	0.022	0.044
-678.208	99.001	-0.341	-0.399
-677.193	93.948	0.355	-0.408
-676.178	-157.629	0.173	-0.010
-675.164	-61.131	0.149	0.064
-674.149	146.296	-0.073	0.100
-673.135	-84.627	-0.067	-0.022
-672.120	236.391	0.091	-0.152
-671.105	-77.183	0.344	0.121
-670.091	800.000	-0.049	-0.168
-669.076	-104.015	-0.402	-0.095
-668.062	-200.000	0.007	-0.075
-667.047	-80.532	0.090	-0.030
-666.032	-200.000	0.009	0.170
-665.018	184.907	0.022	0.034
-664.003	71.426	-0.293	-0.308
-662.989	-34.252	0.298	0.166
-661.974	-200.000	-0.022	-0.393
-660.959	-9.616	-0.290	-0.196
-659.945	96.555	-0.364	0.423
-658.930	-58.574	-0.338	0.149
-657.916	-32.446	0.138	0.078
-656.901	-110.179	-0.153	-0.032
-655.886	-200.000	-0.002	0.068
-654.872	-200.000	-0.021	-0.213
-653.857	181.782	-0.128	-0.191
-652.843	800.000	0.076	0.302
-651.828	42.647	-0.062	0.057
-650.814	-68.619	-0.213	0.084
-649.799	36.431	0.099	-0.088
-648.784	-12.721	0.182	-0.120
-647.770	-32.034	-0.508	-0.288
-646.755	-200.000	0.009	0.110
-645.741	58.421	-0.103	0.102
-644.726	-183.979	-0.155	0.003
-643.711	52.049	0.189	-0.182
-642.697	800.000	0.037	-0.124
-641.682	-82.378	0.162	0.053
-640.668	38.453	-0.144	0.130
-639.653	-81.417	0.196	-0.066
-638.638	58.048	0.095	-0.094
-637.624	-200.000	0.012	-0.076
-636.609	800.000	-0.070	-0.274
-635.595	681.723	0.028	-0.073
-634.580	800.000	-0.079	0.230
-633.565	-132.214	-0.197	-0.026
-632.551	41.939	0.089	0.081
-631.536	92.604	-0.116	-0.132
-630.522	-86.400	-0.135	-0.042
-629.507	-40.620	-0.278	-0.146
-628.492	-0.528	0.415	0.298
-627.478	103.064	-0.092	-0.109
-626.463	-98.917	-0.134	0.035
-625.449	-62.226	-0.101	-0.043
-624.434	-168.711	0.283	-0.011
-623.419	240.186	-0.067	-0.112
-622.405	-198.322	-0.260	-0.002
-621.390	220.278	0.181	0.294
-620.376	550.798	-0.061	-0.147
-619.361	339.544	-0.122	-0.241
-618.346	226.469	-0.105	0.173
-617.332	306.736	-0.002	-0.004
-616.317	-200.000	-0.064	-0.622
-615.303	521.130	-0.114	-0.271
-614.288	408.277	-0.227	-0.485
-613.273	800.000	-0.095	-0.311
-612.259	227.183	0.034	-0.057
-611.244	-16.884	-0.203	0.130
-610.230	-138.281	0.166	-0.019
-609.215	-200.000	0.048	0.237
-608.201	174.490	0.014	0.020
-607.186	80.196	-0.107	0.117
-606.171	-78.910	-0.061	0.021
-605.157	-138.767	0.217	0.024
-604.142	716.479	-0.134	0.358
-603.128	694.422	-0.082	0.216
-602.113	43.748	-0.179	0.166
-601.098	-200.000	0.049	0.235
-600.084	341.938	0.080	0.158
-599.069	-116.288	-0.208	0.039
-598.055	-8.448	-0.337	0.229
-597.040	488.119	0.122	0.282
-596.025	132.459	0.053	-0.069
-595.011	20.387	-0.228	-0.186
-593.996	108.922	-0.190	-0.229
-592.982	-116.469	-0.297	0.055
-591.967	10.976	-0.090	0.070
-590.952	-200.000	-0.014	0.230
-589.938	163.850	-0.148	0.210
-588.923	405.818	-0.126	-0.269
-587.909	35.712	-0.257	0.228
-586.894	-125.817	0.198	0.030
-585.879	-198.649	-0.242	-0.001
-584.865	177.156	0.024	0.036
-583.850	243.008	-0.082	0.139
-582.836	-151.893	-0.427	-0.032
-581.821	42.952	0.166	-0.153
-580.806	154.539	0.114	-0.158
-579.792	-155.715	-0.107	0.007
-578.777	-200.000	0.070	-0.447
-577.763	-200.000	-0.017	0.075
-576.748	78.320	0.300	-0.324
-575.733	216.439	0.159	-0.255
-574.719	-92.657	-0.094	-0.027
-573.704	-66.116	-0.342	-0.138
-572.690	-97.893	-0.176	-0.046
-571.675	-86.924	0.135	-0.042
-570.661	-200.000	-0.007	-0.249
-569.646	-171.560	0.194	0.006
-568.631	53.780	-0.071	0.069
-567.617	-200.000	0.004	-0.120
-566.602	800.000	0.065	0.201
-565.588	-88.809	0.467	-0.140
-564.573	-69.150	-0.147	0.057
-563.558	-200.000	0.024	-0.113
-562.544	-0.726	-0.174	-0.125
-561.529	57.007	0.147	0.145
-560.515	76.833	0.044	-0.047
-559.500	800.000	0.098	0.347
-558.485	58.556	-0.251	0.249
-557.471	9.821	0.088	0.067
-556.456	18.844	-0.323	-0.261
-555.442	2.254	-0.243	-0.177
-554.427	7.766	-0.328	-0.248
-553.412	-200.000	0.068	-0.360
-552.398	-150.158	-0.469	0.037
-551.383	661.283	-0.081	0.210
-550.369	187.219	0.100	0.151
-549.354	35.756	0.193	-0.171
-548.339	-26.518	0.297	0.175
-547.325	-200.000	0.002	-0.015
-546.310	36.311	-0.070	0.062
-545.296	-23.920	-0.222	-0.134
-544.281	-45.734	0.348	-0.173
-543.266	320.768	0.130	-0.249
-542.252	-65.735	0.232	0.094
-541.237	41.453	-0.161	-0.147
-540.223	86.155	0.214	0.238
-539.208	12.149	-0.246	0.191
-538.193	800.000	0.049	-0.151
-537.179	800.000	-0.083	-0.291
-536.164	-57.976	0.153	0.067
-535.150	-22.692	-0.415	0.253
-534.135	197.145	0.139	-0.215
-533.121	-134.116	0.177	0.022
-532.106	800.000	-0.009	0.034
-531.091	-200.000	-0.009	-0.108
-530.077	-72.308	-0.124	-0.046
-529.062	11.812	0.207	-0.160
-528.048	16.541	-0.127	0.101
-527.033	-200.000	0.027	0.310
-526.018	800.000	0.105	-0.380
-525.004	-70.413	-0.165	-0.063
-523.989	-86.629	0.223	-0.069
-522.975	53.871	0.209	-0.202
-521.960	-107.269	-0.347	-0.077
-520.945	-160.229	0.320	0.017
-519.931	61.901	-0.091	0.091
-518.916	439.289	0.247	0.544
-517.902	-135.138	-0.486	0.059
-516.887	800.000	0.036	-0.118
-515.872	89.583	-0.143	-0.161
-514.858	88.153	0.007	0.007
-513.843	-39.876	-0.200	-0.105
-512.829	36.443	-0.070	-0.062
-511.814	-153.369	-0.229	0.016
-510.799	144.582	0.248	0.334
-509.785	36.926	-0.024	-0.022
-508.770	206.410	-0.121	0.190
-507.756	-200.000	0.073	-0.492
-506.741	800.000	0.027	-0.101
-505.726	-200.000	-0.023	0.135
-504.712	56.212	-0.173	-0.170
-503.697	92.443	-0.064	0.073
-502.683	-92.848	0.118	-0.033
-501.668	331.878	0.016	-0.031
-500.653	-200.000	0.062	-0.429
-499.639	-27.304	0.329	0.193
-498.624	112.387	0.136	0.166
-497.610	27.038	-0.155	0.131
-496.595	800.000	-0.077	0.328
-495.581	-123.329	0.091	0.015
-494.566	-6.788	-0.193	-0.132
-493.551	37.963	-0.239	-0.214
-492.537	-46.967	0.136	-0.067
-491.522	145.334	0.145	0.195
-490.508	-200.000	0.001	0.123
-489.493	81.806	-0.239	-0.261
-488.478	-56.576	-0.307	0.137
-487.464	18.073	0.292	0.234
-486.449	8.550	0.138	0.104
-485.435	119.267	0.256	0.319
-484.420	438.938	-0.028	0.061
-483.405	-79.661	-0.315	-0.107
-482.391	-19.154	-0.309	-0.193
-481.376	-189.379	0.142	0.002
-480.362	-82.799	-0.087	0.028
-479.347	-148.475	-0.068	-0.006
-478.332	43.363	0.044	0.040
-477.318	-40.711	-0.165	-0.086
-476.303	-99.943	0.278	-0.070
-475.289	118.915	0.212	-0.263
-474.274	392.160	0.050	0.105
-473.259	-13.606	-0.116	0.076
-472.245	-74.760	0.171	-0.062
-471.230	192.852	0.077	0.117
-470.216	218.453	-0.100	0.161
-469.201	-200.000	-0.033	0.151
-468.186	149.985	0.108	0.147
-467.172	-128.901	0.169	0.024
-466.157	22.088	0.136	-0.112
-465.143	-111.566	-0.182	-0.037
-464.128	191.044	0.130	-0.197
-463.113	50.313	-0.132	0.126
-462.099	-88.221	0.185	0.056
-461.084	-127.345	0.506	0.074
-460.070	312.518	0.091	0.171
-459.055	-27.709	0.198	0.116
-458.040	14.613	-0.170	0.133
-457.026	631.061	-0.032	-0.081
-456.011	238.267	-0.191	-0.319
-454.997	-92.470	-0.146	0.041
-453.982	-112.550	-0.287	-0.058
-452.968	-121.917	0.137	-0.023
-451.953	800.000	0.160	0.482
-450.938	522.063	-0.060	0.142
-449.924	-121.218	-0.373	-0.063
-448.909	-71.075	0.350	0.132
-447.895	-123.083	-0.145	-0.023
-446.880	-200.000	-0.007	-0.188
-445.865	-103.917	0.317	-0.074
-444.851	-200.000	-0.001	0.007
-443.836	47.152	-0.196	-0.183
-442.822	8.406	-0.096	-0.073
-441.807	252.359	-0.081	-0.139
-440.792	335.552	-0.097	-0.188
-439.778	-93.903	-0.109	-0.030
-438.763	-139.703	0.062	-0.007
-437.749	23.451	0.056	-0.046
-436.734	-116.530	-0.127	0.023
-435.719	114.220	0.047	0.057
-434.705	3.221	0.161	0.118
-433.690	-78.148	0.171	-0.059
-432.676	-98.652	-0.019	-0.005
-431.661	207.760	-0.289	0.454
-430.646	232.911	0.096	-0.158
-429.632	-18.973	-0.105	-0.066
-428.617	301.400	-0.163	0.303
-427.603	-114.713	-0.098	-0.019
-426.588	-169.432	0.140	-0.005
-425.573	376.873	-0.046	0.094
-424.559	-165.538	-0.389	-0.017
-423.544	-200.000	0.012	0.065
-422.530	90.358	-0.216	0.242
-421.515	-200.000	-0.067	0.356
-420.500	26.996	0.168	0.142
-419.486	684.357	0.080	-0.209
-418.471	-57.027	-0.274	-0.121
-417.457	144.945	0.137	0.184
-416.442	-8.388	0.171	0.116
-415.428	193.521	0.264	0.401
-414.413	136.997	0.152	-0.199
-413.398	326.131	-0.129	0.248
-412.384	-98.869	0.091	-0.023
-411.369	-200.000	-0.022	-0.196
-410.355	-133.300	-0.336	-0.043
-409.340	-200.000	-0.247	-0.001
-408.325	-46.709	-0.321	0.158
-407.311	-0.458	-0.197	0.140
-406.296	376.822	0.015	-0.031
-405.282	-200.000	-0.017	0.168
-404.267	800.000	0.049	0.172
-403.252	-28.689	0.454	-0.262
-402.238	491.946	0.142	-0.326
-401.223	800.000	-0.061	0.255
-400.209	92.433	0.283	-0.320
-399.194	800.000	0.083	-0.268
-398.179	19.017	-0.125	0.100
-397.165	136.469	-0.218	-0.286
-396.150	-170.786	0.165	0.006
-395.136	-200.000	0.014	0.133
-394.121	658.319	0.075	-0.193
-393.106	-37.112	-0.213	0.114
-392.092	246.858	0.068	0.115
-391.077	159.103	-0.183	0.255
-390.063	23.519	0.243	0.201
-389.048	-138.694	0.144	0.016
-388.033	63.054	-0.093	0.093
-387.019	-200.000	0.008	-0.255
-386.004	219.643	0.156	0.251
-384.990	-179.870	0.153	-0.003
-383.975	-35.925	0.221	0.120
-382.960	-78.749	-0.178	0.061
-381.946	-97.781	0.101	-0.026
-380.931	-41.816	0.141	0.072
-379.917	231.917	-0.023	0.038
-378.902	670.155	-0.111	0.288
-377.888	-137.028	-0.119	-0.014
-376.873	231.596	0.068	0.111
-375.858	89.986	-0.073	-0.082
-374.844	19.290	0.224	-0.180
-373.829	95.516	0.174	-0.198
-372.815	-87.468	0.189	-0.057
-371.800	10.235	0.094	0.072
-370.785	-200.000	0.003	-0.214
-369.771	-103.770	0.155	-0.036
-368.756	800.000	0.024	-0.073
-367.742	232.539	0.310	0.510
-366.727	-200.000	-0.005	0.222
-365.712	-200.000	0.070	0.358
-364.698	-159.634	0.182	-0.010
-363.683	-4.818	-0.090	-0.062
-362.669	244.334	-0.085	-0.143
-361.654	800.000	-0.014	0.058
-360.639	-200.000	0.040	0.195
-359.625	-37.935	-0.243	0.130
-358.610	59.624	-0.126	-0.125
-357.596	-61.656	-0.080	-0.034
-356.581	49.716	-0.056	-0.053
-355.566	-30.131	0.094	-0.053
-354.552	434.321	-0.032	0.069
-353.537	118.580	-0.147	-0.182
-352.523	97.706	-0.100	0.115
-351.508	-105.029	-0.031	0.007
-350.493	-87.781	0.163	0.049
-349.479	169.642	-0.017	-0.024
-348.464	-54.921	0.127	-0.057
-347.450	38.853	-0.324	-0.289
-346.435	-56.142	0.198	-0.088
-345.420	-92.959	0.351	0.098
-344.406	65.335	0.044	-0.045
-343.391	-200.000	-0.001	0.105
-342.377	-61.244	-0.311	-0.131
-341.362	-200.000	0.018	0.181
-340.348	615.311	-0.076	-0.190
-339.333	249.540	0.139	-0.235
-338.318	12.561	0.131	0.101
-337.304	380.407	0.070	0.143
-336.289	800.000	0.085	0.269
-335.275	133.660	-0.078	0.101
-334.260	-146.986	0.208	-0.018
-333.245	-47.346	0.004	0.002
-332.231	800.000	-0.035	-0.122
-331.216	260.142	0.100	-0.172
-330.202	-166.458	0.137	0.006
-329.187	800.000	-0.089	-0.300
-328.172	-65.607	0.167	-0.067
-327.158	-115.960	0.225	-0.042
-326.143	-24.539	-0.334	0.199
-325.129	-142.178	0.358	-0.036
-324.114	800.000	0.014	-0.058
-323.099	135.691	0.061	0.079
-322.085	292.529	0.184	0.335
-321.070	800.000	-0.128	-0.432
-320.056	-200.000	-0.040	0.327
-319.041	-167.102	0.249	0.010
-318.026	-133.829	-0.107	0.013
-317.012	24.811	-0.200	-0.166
-315.997	56.945	-0.016	0.016
-314.983	800.000	0.052	-0.184
-313.968	-31.013	-0.245	0.138
-312.953	760.977	0.019	0.051
-311.939	79.221	-0.114	-0.122
-310.924	-200.000	0.023	0.308
-309.910	-177.134	-0.302	0.008
-308.895	299.872	0.257	-0.474
-307.880	103.113	0.031	0.037
-306.866	183.038	0.158	0.234
-305.851	800.000	0.027	0.094
-304.837	175.909	-0.093	0.135
-303.822	-200.000	-0.051	-0.393
-302.807	61.011	-0.164	-0.163
-301.793	-200.000	0.016	-0.197
-300.778	-200.000	0.007	-0.055
-299.764	-107.048	0.054	-0.012
-298.749	326.708	-0.048	-0.092
-297.735	-74.469	0.055	0.020
-296.720	-17.712	-0.077	-0.048
-295.705	-200.000	-0.022	-0.247
-294.691	-89.526	0.373	-0.109
-293.676	-125.422	0.256	-0.039
-292.662	-200.000	0.023	0.114
-291.647	-73.591	0.112	0.041
-290.632	-200.000	-0.072	0.333
-289.618	30.104	0.056	-0.048
-288.603	-83.961	0.131	0.042
-287.589	23.704	-0.241	-0.198
-286.574	276.724	0.130	0.231
-285.559	800.000	0.031	0.123
-284.545	-162.421	-0.260	-0.013
-283.530	-160.214	-0.028	-0.002
-282.516	-77.065	0.381	-0.133
-281.501	800.000	-0.083	-0.322
-280.486	6.134	0.068	0.050
-279.472	422.325	-0.071	-0.151
-278.457	-118.891	-0.228	0.040
-277.443	-118.514	-0.216	-0.038
-276.428	800.000	0.031	0.130
-275.413	-8.374	0.148	0.099
-274.399	473.521	0.112	-0.253
-273.384	-59.400	-0.091	0.039
-272.370	800.000	0.061	0.170
-271.355	800.000	0.028	-0.119
-270.340	-80.155	-0.158	0.053
-269.326	-46.490	0.146	-0.071
-268.311	-83.398	-0.088	0.028
-267.297	-31.147	-0.118	0.067
-266.282	-200.000	-0.007	0.089
-265.267	-28.548	0.136	0.078
-264.253	55.613	0.061	-0.059
-263.238	-174.744	-0.251	0.007
-262.224	-200.000	-0.026	0.174
-261.209	800.000	-0.006	-0.025
-260.195	-79.724	0.137	-0.046
-259.180	27.243	-0.037	0.031
-258.165	-16.264	-0.036	-0.023
-257.151	-79.594	-0.189	0.064
-256.136	-200.000	0.006	0.175
-255.122	-138.790	0.359	-0.039
-254.107	-41.096	-0.255	0.132
-253.092	-44.716	0.141	-0.070
-252.078	170.436	0.149	-0.212
-251.063	-2.506	0.225	-0.158
-250.049	-200.000	0.049	-0.307
-249.034	-200.000	0.002	-0.042
-248.019	27.254	-0.186	0.156
-247.005	12.688	0.149	-0.115
-245.990	-200.000	-0.110	0.563
-244.976	343.386	0.203	0.396
-243.961	195.995	0.079	-0.120
-242.946	17.041	-0.234	0.185
-241.932	341.622	-0.066	-0.128
-240.917	-123.153	-0.223	0.036
-239.903	800.000	-0.054	-0.152
-238.888	122.886	-0.043	-0.054
-237.873	800.000	-0.058	-0.214
-236.859	-200.000	-0.021	-0.273
-235.844	-126.813	-0.242	-0.036
-234.830	310.673	0.167	-0.311
-233.815	-106.804	0.299	-0.066
-232.800	-200.000	0.020	-0.138
-231.786	-149.034	-0.012	-0.001
-230.771	-76.616	0.204	-0.071
-229.757	53.103	-0.046	0.044
-228.742	-200.000	-0.009	0.196
-227.727	-50.354	-0.158	-0.074
-226.713	-200.000	-0.010	-0.188
-225.698	800.000	0.171	0.521
-224.684	-107.536	0.245	0.053
-223.669	5.027	-0.064	0.047
-222.655	-200.000	0.046	0.318
-221.640	-137.358	-0.510	-0.058
-220.625	-38.549	0.031	-0.016
-219.611	11.014	0.051	-0.039
-218.596	800.000	-0.035	-0.150
-217.582	-200.000	-0.015	-0.171
-216.567	26.103	0.124	-0.103
-215.552	-200.000	0.036	-0.246
-214.538	-200.000	0.015	-0.237
-213.523	-200.000	-0.041	0.362
-212.509	92.860	-0.267	-0.300
-211.494	-149.002	-0.078	0.006
-210.479	130.250	-0.147	-0.188
-209.465	-179.279	0.347	-0.008
-208.450	10.285	0.178	-0.135
-207.436	-200.000	-0.036	0.198
-206.421	397.652	-0.052	0.108
-205.406	-200.000	-0.011	0.068
-204.392	86.991	0.076	0.084
-203.377	-200.000	-0.006	-0.131
-202.363	-115.530	0.136	-0.025
-201.348	-68.771	0.201	0.077
-200.333	-47.716	0.094	-0.046
-199.319	-18.246	0.238	-0.148
-198.304	68.854	-0.126	-0.129
-197.290	204.457	0.122	0.187
-196.275	650.268	-0.077	-0.197
-195.260	-144.589	0.211	-0.019
-194.246	169.778	0.187	-0.266
-193.231	-97.426	0.085	-0.022
-192.217	-34.655	0.309	0.168
-191.202	800.000	-0.103	0.312
-190.187	-82.977	-0.143	0.046
-189.173	195.478	0.088	-0.132
-188.158	-139.231	0.111	-0.012
-187.144	-39.837	0.252	-0.131
-186.129	278.686	0.106	0.187
-185.114	473.334	-0.099	0.222
-184.100	129.817	-0.039	-0.050
-183.085	153.791	0.024	-0.033
-182.071	-200.000	-0.004	0.105
-181.056	410.434	-0.029	-0.061
-180.042	26.990	0.250	0.209
-179.027	-200.000	0.026	0.148
-178.012	-200.000	-0.007	0.113
-176.998	271.128	0.059	0.103
-175.983	-200.000	-0.010	-0.113
-174.969	221.683	0.085	0.135
-173.954	-10.480	0.253	-0.167
-172.939	22.382	-0.218	0.177
-171.925	-4.879	0.142	0.097
-170.910	-76.589	-0.124	0.043
-169.896	-47.588	0.228	-0.110
-168.881	-144.656	0.218	-0.020
-167.866	7.227	-0.359	0.267
-166.852	-46.051	0.139	-0.068
-165.837	24.410	-0.149	-0.123
-164.823	187.086	-0.088	-0.130
-163.808	269.377	-0.011	0.020
-162.793	-96.416	-0.084	-0.022
-161.779	-110.156	-0.151	-0.031
-160.764	-200.000	-0.001	-0.171
-159.750	-18.702	-0.235	0.146
-158.735	-20.021	0.251	0.154
-157.720	23.498	-0.185	0.151
-156.706	-200.000	-0.003	0.201
-155.691	133.105	0.170	0.218
-154.677	-18.693	0.123	0.076
-153.662	596.862	0.059	-0.146
-152.647	-154.641	-0.113	0.007
-151.633	-200.000	-0.007	0.286
-150.618	-73.917	0.183	0.066
-149.604	-154.485	-0.062	0.004
-148.589	86.447	-0.430	-0.471
-147.574	74.190	0.275	-0.287
-146.560	99.358	0.059	0.068
-145.545	50.136	0.116	0.109
-144.531	75.774	-0.164	-0.172
-143.516	454.110	-0.154	0.338
-142.502	28.761	0.138	-0.116
-141.487	469.052	0.082	-0.183
-140.472	800.000	-0.078	0.329
-139.458	483.486	0.114	0.256
-138.443	429.839	0.032	0.068
-137.429	-152.178	0.275	-0.020
-136.414	-94.859	-0.182	0.049
-135.399	216.398	0.140	0.221
-134.385	19.391	0.156	-0.124
-133.370	182.635	-0.084	-0.122
-132.356	-191.261	0.244	-0.002
-131.341	97.680	0.271	-0.309
-130.326	-145.884	-0.562	-0.049
-129.312	162.772	0.268	0.373
-128.297	-102.922	-0.048	0.011
-127.283	800.000	-0.076	0.240
-126.268	-32.999	0.063	0.035
-125.253	-200.000	0.001	0.237
-124.239	800.000	0.065	-0.270
-123.224	380.529	0.074	0.151
-122.210	-144.165	0.110	-0.010
-121.195	-43.723	0.087	0.044
-120.180	800.000	0.090	-0.250
