DTS Sentinel unit serial number:	SN413079Multiplexer serial number:	ORYXHardware model number:	OX4-SRSoftware version number:	ORYX F/W v4.00 Oryx Data Collector v3.7.2.0data status	okinstallation	princeton_trtdifferential loss correction	single-endedforward channel	channel 3reverse channel	N/Adate	2019/09/11time	21:02:11forward acquisition time	60.00reverse acquisition time	0.00gamma	496.2192k internal	0.2307k external	0.2307temperature offset calibration	1.0032default loss term (dB/km)	0.3790temperature slope calibration	1.0000multiplexer offset coefficient	1.0000multiplexer slope coefficient	1.0000fibre end	0.00T internal ref (°C)	36.62T ext. ref 1 (°C)	1.59T ext. ref 2 (°C)	30.61length (m)	temperature (°C)	Stokes	anti-Stokes-747.200	-103.041	-0.217	-0.052
-746.185	-16.507	-0.071	0.046
-745.171	131.898	0.105	-0.137
-744.156	-9.818	-0.112	0.076
-743.142	19.027	0.269	-0.220
-742.127	-78.628	-0.252	0.087
-741.112	800.000	0.015	-0.055
-740.098	-113.983	-0.251	0.049
-739.083	-126.096	0.289	-0.044
-738.069	-110.362	0.239	0.051
-737.054	-200.000	0.020	-0.109
-736.039	17.447	-0.165	0.133
-735.025	517.097	0.088	-0.210
-734.010	21.781	0.168	-0.139
-732.996	-200.000	0.022	0.128
-731.981	-200.000	0.011	-0.049
-730.966	56.107	-0.172	-0.170
-729.952	-10.568	0.312	-0.210
-728.937	650.296	0.024	-0.063
-727.923	-98.864	-0.120	0.031
-726.908	-200.000	-0.017	-0.206
-725.894	160.560	0.097	0.138
-724.879	-97.258	-0.132	-0.035
-723.864	201.386	-0.040	-0.063
-722.850	-18.425	-0.252	-0.160
-721.835	-117.380	0.329	-0.061
-720.821	-200.000	-0.003	0.291
-719.806	-128.300	-0.343	0.050
-718.791	79.278	0.178	-0.193
-717.777	-182.784	-0.125	0.002
-716.762	-101.159	-0.085	-0.021
-715.748	-85.292	-0.295	-0.094
-714.733	366.906	0.130	0.267
-713.718	-95.270	0.352	0.096
-712.704	-130.751	0.262	-0.036
-711.689	-159.868	0.126	0.007
-710.675	-63.660	-0.160	-0.067
-709.660	800.000	0.032	0.103
-708.645	19.330	-0.374	-0.305
-707.631	-178.558	-0.086	-0.002
-706.616	528.000	0.011	-0.026
-705.602	-120.126	-0.178	-0.031
-704.587	260.514	0.096	-0.168
-703.572	408.685	-0.142	-0.305
-702.558	-29.790	-0.214	-0.124
-701.543	800.000	-0.034	-0.146
-700.529	-91.846	0.190	-0.055
-699.514	-28.869	-0.189	-0.110
-698.499	-155.388	0.300	-0.020
-697.485	256.422	-0.122	0.212
-696.470	11.292	0.150	-0.117
-695.456	-72.202	0.070	-0.026
-694.441	-145.821	0.146	-0.013
-693.426	800.000	-0.043	0.188
-692.412	84.164	-0.120	0.133
-691.397	49.303	-0.109	0.104
-690.383	1.536	0.169	0.123
-689.368	163.191	-0.135	-0.193
-688.354	-200.000	-0.031	-0.227
-687.339	574.886	0.177	0.438
-686.324	-31.375	-0.252	-0.144
-685.310	9.768	-0.148	-0.114
-684.295	16.254	0.206	-0.165
-683.281	-60.964	0.308	0.132
-682.266	-99.538	0.149	0.038
-681.251	-32.255	-0.221	-0.125
-680.237	-200.000	-0.023	-0.105
-679.222	-157.283	-0.347	-0.021
-678.208	-200.000	0.092	0.533
-677.193	-126.886	-0.389	0.058
-676.178	-73.101	0.055	0.021
-675.164	53.442	0.024	0.024
-674.149	-113.032	0.064	-0.013
-673.135	-119.291	0.168	0.030
-672.120	70.133	0.131	-0.137
-671.105	-200.000	-0.007	0.071
-670.091	-34.133	-0.382	-0.213
-669.076	392.662	-0.232	-0.488
-668.062	-200.000	0.042	-0.265
-667.047	-34.936	-0.134	-0.074
-666.032	-104.696	-0.297	-0.069
-665.018	800.000	0.057	-0.216
-664.003	17.751	0.045	-0.036
-662.989	-131.775	0.313	0.042
-661.974	555.662	0.169	0.411
-660.959	51.745	0.202	0.194
-659.945	-40.195	-0.282	0.149
-658.930	-200.000	-0.018	0.353
-657.916	-21.987	0.266	-0.164
-656.901	-59.285	0.265	-0.116
-655.886	800.000	0.152	-0.483
-654.872	-200.000	0.013	0.279
-653.857	-110.552	0.303	0.064
-652.843	-27.929	-0.165	0.097
-651.828	178.115	-0.060	-0.088
-650.814	602.767	0.129	0.326
-649.799	120.102	0.158	-0.198
-648.784	8.086	0.193	-0.147
-647.770	-200.000	0.033	-0.256
-646.755	146.803	0.102	-0.139
-645.741	278.822	-0.187	-0.338
-644.726	-53.407	-0.128	-0.059
-643.711	-116.599	0.151	0.028
-642.697	-200.000	-0.046	-0.264
-641.682	155.125	0.268	0.374
-640.668	379.604	-0.139	-0.289
-639.653	-177.119	0.164	0.004
-638.638	101.025	-0.239	0.281
-637.624	-200.000	-0.027	-0.336
-636.609	-45.591	0.121	-0.061
-635.595	-200.000	-0.023	-0.165
-634.580	540.821	-0.085	-0.205
-633.565	-116.018	0.213	0.040
-632.551	-0.918	-0.110	0.079
-631.536	246.136	-0.124	-0.211
-630.522	800.000	0.032	0.089
-629.507	-50.534	0.130	-0.062
-628.492	-81.516	-0.059	-0.020
-627.478	168.228	-0.138	0.199
-626.463	584.414	0.066	-0.165
-625.449	-84.975	0.197	-0.063
-624.434	-165.212	-0.201	-0.009
-623.419	-112.862	0.179	-0.036
-622.405	356.957	0.072	-0.145
-621.390	-200.000	0.036	0.266
-620.376	39.970	0.229	-0.208
-619.361	-99.297	0.358	0.092
-618.346	125.263	-0.139	0.177
-617.332	176.193	-0.160	0.235
-616.317	227.628	-0.038	0.062
-615.303	-39.794	0.112	0.059
-614.288	4.438	-0.184	-0.137
-613.273	-200.000	-0.003	-0.031
-612.259	800.000	-0.045	0.132
-611.244	72.938	-0.059	-0.062
-610.230	8.057	-0.191	0.145
-609.215	740.797	0.187	-0.509
-608.201	-9.085	0.171	0.116
-607.186	124.690	0.252	0.321
-606.171	-200.000	-0.028	-0.262
-605.157	-30.019	0.141	0.081
-604.142	291.944	-0.089	-0.165
-603.128	461.718	0.072	0.163
-602.113	-200.000	0.020	0.171
-601.098	30.288	-0.144	0.124
-600.084	33.155	-0.061	-0.053
-599.069	-146.064	-0.199	0.018
-598.055	120.356	0.056	-0.070
-597.040	89.373	-0.071	0.079
-596.025	-181.700	0.125	0.002
-595.011	114.773	0.047	0.058
-593.996	-200.000	-0.001	-0.117
-592.982	92.706	0.042	0.048
-591.967	14.636	-0.190	-0.150
-590.952	47.037	0.153	-0.144
-589.938	-97.032	-0.015	0.004
-588.923	390.277	0.046	0.097
-587.909	-106.779	-0.321	-0.072
-586.894	-10.904	-0.285	-0.190
-585.879	-110.781	0.213	-0.044
-584.865	267.746	0.313	0.554
-583.850	-100.875	0.118	-0.029
-582.836	64.823	-0.026	0.026
-581.821	-155.703	0.150	-0.010
-580.806	107.203	-0.066	-0.079
-579.792	-200.000	-0.019	-0.460
-578.777	121.011	-0.119	-0.149
-577.763	48.873	0.024	-0.023
-576.748	-60.985	0.102	0.044
-575.733	308.175	-0.111	-0.208
-574.719	3.987	-0.393	-0.290
-573.704	201.127	-0.209	-0.324
-572.690	173.425	-0.183	-0.267
-571.675	800.000	-0.011	-0.043
-570.661	-60.336	-0.178	-0.077
-569.646	-200.000	-0.027	0.297
-568.631	-77.623	-0.401	0.140
-567.617	-167.599	-0.171	0.007
-566.602	-200.000	0.002	-0.128
-565.588	101.625	0.103	-0.122
-564.573	-9.212	-0.303	0.205
-563.558	146.471	-0.194	0.263
-562.544	286.290	-0.068	-0.123
-561.529	-33.726	-0.354	-0.197
-560.515	-66.944	-0.233	-0.093
-559.500	-200.000	0.014	0.173
-558.485	19.157	-0.406	0.329
-557.471	270.568	0.123	0.219
-556.456	418.845	0.064	0.139
-555.442	160.159	-0.116	-0.163
-554.427	-19.464	-0.156	-0.097
-553.412	-62.939	0.211	0.088
-552.398	-46.540	0.010	0.005
-551.383	402.657	0.180	0.383
-550.369	-60.573	-0.143	-0.061
-549.354	14.478	-0.238	-0.187
-548.339	-200.000	-0.052	0.267
-547.325	298.181	-0.055	0.102
-546.310	-200.000	-0.012	0.129
-545.296	-138.399	-0.219	-0.024
-544.281	370.126	-0.074	-0.151
-543.266	-97.798	0.228	-0.059
-542.252	-200.000	-0.038	-0.248
-541.237	22.020	-0.299	0.246
-540.223	-121.952	0.310	-0.051
-539.208	86.192	-0.121	-0.134
-538.193	156.438	0.035	0.049
-537.179	-93.281	0.131	0.037
-536.164	-111.587	0.250	0.051
-535.150	-200.000	0.006	-0.229
-534.135	800.000	0.027	-0.090
-533.121	800.000	0.057	0.204
-532.106	57.115	-0.257	-0.253
-531.091	160.625	0.046	-0.064
-530.077	13.079	-0.097	-0.076
-529.062	-57.188	-0.338	0.150
-528.048	-102.177	0.210	-0.051
-527.033	-14.379	-0.136	0.088
-526.018	-131.235	0.311	-0.042
-525.004	-131.331	0.423	0.056
-523.989	98.528	-0.146	0.169
-522.975	-122.492	0.157	0.026
-521.960	-200.000	0.014	0.107
-520.945	328.762	0.121	-0.234
-519.931	800.000	0.080	-0.252
-518.916	234.487	-0.199	-0.331
-517.902	-8.034	0.146	-0.100
-516.887	-200.000	0.010	0.389
-515.872	-133.918	-0.198	0.025
-514.858	106.744	-0.224	-0.267
-513.843	51.427	0.318	-0.304
-512.829	-73.220	0.368	-0.136
-511.814	-152.893	-0.115	-0.008
-510.799	94.898	0.077	-0.089
-509.785	-67.516	-0.214	-0.084
-508.770	482.548	0.058	0.133
-507.756	-200.000	-0.003	0.126
-506.741	174.376	0.053	-0.077
-505.726	-90.054	0.110	-0.032
-504.712	271.147	-0.082	0.145
-503.697	800.000	-0.094	0.353
-502.683	-200.000	-0.029	0.140
-501.668	307.085	-0.183	-0.343
-500.653	2.804	0.201	-0.147
-499.639	38.009	0.207	0.186
-498.624	800.000	-0.053	0.156
-497.610	237.817	0.052	-0.087
-496.595	99.133	0.126	0.147
-495.581	-134.236	0.146	-0.018
-494.566	-91.311	-0.277	0.080
-493.551	601.930	0.071	-0.177
-492.537	40.592	0.239	-0.217
-491.522	-200.000	0.068	-0.354
-490.508	-128.822	0.569	-0.081
-489.493	-144.793	-0.283	-0.026
-488.478	-200.000	-0.018	0.242
-487.464	43.397	-0.308	-0.284
-486.449	-96.254	0.349	0.093
-485.435	-200.000	0.024	0.140
-484.420	79.222	-0.176	0.190
-483.405	493.962	0.154	-0.356
-482.391	-178.354	0.255	0.006
-481.376	-78.084	0.221	-0.076
-480.362	520.297	-0.053	-0.126
-479.347	227.101	-0.076	-0.125
-478.332	319.032	0.088	0.167
-477.318	66.836	-0.305	-0.313
-476.303	741.607	0.042	0.113
-475.289	-30.036	0.289	-0.166
-474.274	800.000	-0.048	-0.185
-473.259	-25.857	-0.122	0.072
-472.245	143.239	0.058	0.077
-471.230	-7.701	-0.231	0.157
-470.216	800.000	0.127	-0.479
-469.201	154.250	-0.347	-0.479
-468.186	-68.388	0.064	-0.025
-467.172	-75.225	0.152	-0.055
-466.157	138.618	0.263	0.347
-465.143	481.385	0.190	-0.433
-464.128	438.563	0.135	-0.297
-463.113	69.267	-0.157	-0.162
-462.099	-41.649	0.320	0.165
-461.084	-91.902	0.182	-0.052
-460.070	147.113	0.174	0.236
-459.055	-72.366	0.106	0.039
-458.040	-77.464	-0.135	-0.047
-457.026	-200.000	-0.015	-0.251
-456.011	155.375	-0.179	-0.248
-454.997	71.603	-0.128	0.134
-453.982	-41.894	-0.299	0.154
-452.968	-200.000	-0.019	0.167
-451.953	327.138	-0.091	-0.175
-450.938	-115.809	0.376	-0.071
-449.924	13.452	-0.169	0.132
-448.909	-200.000	-0.043	-0.378
-447.895	188.990	0.131	-0.198
-446.880	437.163	-0.187	0.410
-445.865	-200.000	-0.084	0.390
-444.851	-95.481	-0.228	0.062
-443.836	16.343	-0.244	-0.193
-442.822	600.664	-0.108	-0.270
-441.807	-103.428	-0.244	0.058
-440.792	-200.000	-0.009	0.222
-439.778	-200.000	0.062	-0.323
-438.763	94.111	-0.120	-0.137
-437.749	-200.000	-0.034	0.227
-436.734	800.000	0.013	-0.055
-435.719	-77.576	-0.185	0.064
-434.705	742.873	0.122	0.331
-433.690	18.961	-0.185	-0.149
-432.676	-153.910	0.305	0.021
-431.661	-200.000	0.009	-0.063
-430.646	-200.000	0.011	0.473
-429.632	-53.836	0.315	-0.144
-428.617	142.548	0.159	-0.212
-427.603	214.594	0.112	0.179
-426.588	73.199	0.119	0.125
-425.573	-200.000	-0.014	-0.067
-424.559	800.000	0.044	0.190
-423.544	-45.474	-0.285	-0.142
-422.530	-200.000	-0.042	0.224
-421.515	79.564	-0.096	0.104
-420.500	221.038	-0.038	-0.062
-419.486	58.940	-0.170	-0.168
-418.471	-28.139	0.269	-0.156
-417.457	-75.762	0.138	0.049
-416.442	14.232	-0.120	-0.094
-415.428	169.657	0.122	0.175
-414.413	-191.579	-0.075	-0.001
-413.398	-53.522	-0.113	-0.052
-412.384	-103.490	-0.209	-0.049
-411.369	-200.000	0.011	0.123
-410.355	800.000	-0.013	-0.039
-409.340	-200.000	-0.006	-0.188
-408.325	59.612	0.272	-0.269
-407.311	-11.435	0.128	-0.085
-406.296	13.879	-0.127	0.099
-405.282	-200.000	-0.073	-0.341
-404.267	-114.835	0.199	0.038
-403.252	-200.000	-0.002	-0.054
-402.238	-200.000	0.012	-0.306
-401.223	800.000	-0.141	-0.473
-400.209	-153.988	0.074	-0.005
-399.194	-22.429	-0.267	0.162
-398.179	-200.000	0.008	-0.140
-397.165	-200.000	0.008	0.293
-396.150	-31.124	0.180	0.102
-395.136	75.277	-0.157	-0.166
-394.121	800.000	-0.091	-0.282
-393.106	-38.529	0.211	-0.112
-392.092	800.000	0.082	-0.321
-391.077	165.037	0.104	0.147
-390.063	-26.071	0.038	-0.023
-389.048	-200.000	0.054	0.241
-388.033	-200.000	0.012	-0.094
-387.019	-62.253	-0.205	0.086
-386.004	69.047	0.424	0.437
-384.990	-200.000	-0.001	0.090
-383.975	165.361	0.177	0.250
-382.960	100.856	-0.051	-0.060
-381.946	105.843	-0.037	0.044
-380.931	-200.000	0.262	-0.001
-379.917	-58.878	-0.263	0.114
-378.902	-1.838	0.320	0.226
-377.888	300.669	-0.230	0.426
-376.873	343.669	0.116	0.227
-375.858	800.000	-0.073	0.304
-374.844	109.745	-0.269	0.324
-373.829	87.034	-0.092	0.102
-372.815	106.332	-0.072	0.086
-371.800	-16.806	-0.195	-0.124
-370.785	-105.022	-0.210	-0.048
-369.771	-200.000	-0.019	0.324
-368.756	224.121	0.144	-0.233
-367.742	-101.774	-0.037	-0.009
-366.727	43.666	0.199	0.182
-365.712	-82.339	-0.124	0.040
-364.698	-200.000	0.250	-0.001
-363.683	575.226	-0.064	-0.155
-362.669	-57.273	-0.190	0.084
-361.654	-4.179	0.231	0.160
-360.639	-18.046	0.367	-0.230
-359.625	-63.497	0.200	-0.082
-358.610	-130.456	-0.204	-0.028
-357.596	316.014	-0.122	0.231
-356.581	160.024	0.183	0.256
-355.566	30.346	-0.128	-0.109
-354.552	71.942	0.235	0.245
-353.537	-47.155	-0.288	-0.141
-352.523	-200.000	0.001	-0.109
-351.508	-200.000	-0.068	-0.316
-350.493	-148.983	0.211	-0.017
-349.479	564.582	0.064	-0.155
-348.464	67.305	0.114	0.117
-347.450	104.133	-0.238	0.281
-346.435	-116.580	0.313	-0.058
-345.420	171.613	-0.193	-0.277
-344.406	-22.082	0.131	-0.080
-343.391	-27.378	0.141	-0.082
-342.377	-85.807	-0.285	0.088
-341.362	317.409	-0.122	0.231
-340.348	800.000	0.125	-0.438
-339.333	-126.018	0.131	-0.020
-338.318	388.201	-0.103	0.214
-337.304	-110.851	-0.139	-0.029
-336.289	-8.326	-0.255	0.171
-335.275	800.000	-0.053	0.191
-334.260	-200.000	-0.006	-0.210
-333.245	94.182	0.154	-0.174
-332.231	22.045	0.064	0.052
-331.216	232.076	0.258	0.423
-330.202	-200.000	-0.018	-0.113
-329.187	-120.791	-0.369	0.062
-328.172	-200.000	0.007	-0.190
-327.158	-84.161	-0.250	0.079
-326.143	142.963	-0.072	-0.096
-325.129	-200.000	-0.020	-0.116
-324.114	-37.266	-0.094	0.050
-323.099	188.581	-0.192	-0.287
-322.085	-200.000	-0.035	-0.460
-321.070	177.239	-0.014	-0.021
-320.056	-200.000	-0.003	0.081
-319.041	800.000	0.075	0.209
-318.026	-64.974	-0.294	-0.119
-317.012	19.774	-0.197	-0.159
-315.997	800.000	-0.060	0.245
-314.983	-29.862	0.124	-0.070
-313.968	624.677	0.081	0.204
-312.953	127.168	-0.099	0.126
-311.939	-26.435	0.264	-0.155
-310.924	697.056	0.065	-0.170
-309.910	577.575	0.122	-0.298
-308.895	-75.221	-0.284	0.101
-307.880	124.335	-0.063	-0.079
-306.866	-112.449	0.256	-0.051
-305.851	-200.000	0.022	0.100
-304.837	424.371	-0.080	0.172
-303.822	9.712	0.289	-0.219
-302.807	-200.000	-0.006	-0.110
-301.793	800.000	-0.068	0.219
-300.778	800.000	-0.025	-0.090
-299.764	-118.649	0.144	0.025
-298.749	-200.000	0.057	0.429
-297.735	364.560	-0.073	0.147
-296.720	-8.689	0.390	0.261
-295.705	-101.607	-0.041	0.010
-294.691	-104.515	-0.329	0.076
-293.676	-200.000	0.005	-0.185
-292.662	-106.732	-0.100	0.022
-291.647	138.079	-0.146	-0.191
-290.632	-200.000	-0.004	-0.133
-289.618	800.000	-0.151	0.482
-288.603	-9.717	0.365	-0.243
-287.589	-108.514	0.456	-0.098
-286.574	-200.000	0.048	0.217
-285.559	-27.071	-0.233	0.136
-284.545	-200.000	-0.019	0.413
-283.530	-61.142	-0.259	0.109
-282.516	-41.443	0.188	-0.097
-281.501	447.630	-0.028	-0.062
-280.486	-200.000	0.000	-0.302
-279.472	-200.000	-0.016	-0.093
-278.457	-160.834	0.354	-0.019
-277.443	197.975	-0.057	0.086
-276.428	191.522	0.030	-0.046
-275.413	-85.174	0.285	0.089
-274.399	-200.000	0.007	-0.087
-273.384	-107.180	0.223	0.049
-272.370	-40.409	0.121	-0.063
-271.355	238.996	-0.145	-0.241
-270.340	-200.000	0.018	-0.094
-269.326	153.954	-0.150	0.206
-268.311	577.154	-0.148	-0.360
-267.297	148.512	-0.058	0.078
-266.282	407.686	0.062	-0.131
-265.267	-200.000	0.017	0.119
-264.253	578.892	-0.180	0.440
-263.238	230.602	-0.108	-0.176
-262.224	-92.397	-0.202	0.057
-261.209	358.120	-0.125	-0.249
-260.195	-25.309	-0.131	-0.077
-259.180	-200.000	0.013	-0.073
-258.165	303.276	0.049	0.091
-257.151	132.606	-0.184	0.237
-256.136	283.646	-0.136	0.243
-255.122	253.459	-0.226	0.385
-254.107	-200.000	-0.010	0.366
-253.092	-62.497	0.250	0.104
-252.078	264.290	0.020	-0.034
-251.063	-200.000	0.031	-0.351
-250.049	83.329	-0.224	0.243
-249.034	800.000	-0.067	-0.215
-248.019	-149.067	-0.130	-0.010
-247.005	-90.205	-0.266	-0.077
-245.990	-116.695	0.383	-0.070
-244.976	707.057	-0.030	0.079
-243.961	800.000	0.120	0.342
-242.946	195.363	0.093	0.142
-241.932	241.700	-0.115	-0.191
-240.917	-44.676	0.249	0.124
-239.903	66.141	0.141	0.142
-238.888	-100.937	-0.037	0.009
-237.873	800.000	0.063	0.182
-236.859	-81.932	0.113	0.037
-235.844	-200.000	0.044	-0.372
-234.830	-200.000	0.025	-0.291
-233.815	-106.504	-0.393	0.087
-232.800	-179.244	-0.171	0.004
-231.786	-23.204	0.136	0.082
-230.771	-122.275	-0.490	0.080
-229.757	-92.198	-0.380	0.107
-228.742	-29.686	0.129	0.073
-227.727	-31.887	-0.117	0.066
-226.713	24.707	0.275	0.227
-225.698	116.964	0.051	0.062
-224.684	82.637	-0.210	0.227
-223.669	61.528	-0.041	-0.041
-222.655	404.839	-0.094	-0.198
-221.640	-200.000	-0.008	0.066
-220.625	-200.000	-0.007	0.421
-219.611	536.942	0.090	0.213
-218.596	-67.705	0.096	0.038
-217.582	-138.639	0.057	-0.006
-216.567	61.426	-0.180	0.179
-215.552	98.768	0.097	-0.111
-214.538	-200.000	-0.033	-0.348
-213.523	-88.677	-0.370	0.110
-212.509	64.880	0.205	-0.206
-211.494	-20.205	-0.459	-0.282
-210.479	-200.000	0.018	0.218
-209.465	285.382	0.169	0.304
-208.450	-168.700	0.372	-0.014
-207.436	-97.635	0.512	0.132
-206.421	19.265	-0.275	0.220
-205.406	272.557	-0.127	0.224
-204.392	295.942	0.072	-0.132
-203.377	800.000	0.015	0.064
-202.363	-78.110	-0.014	-0.005
-201.348	-153.396	0.026	0.002
-200.333	-19.071	-0.121	-0.075
-199.319	-60.021	0.352	-0.150
-198.304	108.064	0.070	0.083
-197.290	-23.516	-0.277	-0.166
-196.275	-59.611	-0.251	0.107
-195.260	800.000	-0.067	-0.229
-194.246	-74.410	-0.341	-0.122
-193.231	-200.000	0.103	-0.478
-192.217	2.981	0.145	0.105
-191.202	119.811	-0.115	-0.142
-190.187	105.836	0.101	-0.119
-189.173	-136.754	0.327	0.038
-188.158	100.432	0.346	-0.399
-187.144	-144.856	0.285	0.026
-186.129	30.966	-0.270	0.230
-185.114	-200.000	0.039	0.332
-184.100	150.609	0.290	0.393
-183.085	800.000	0.051	-0.197
-182.071	-47.550	0.273	-0.132
-181.056	-200.000	0.067	0.335
-180.042	-200.000	0.008	0.148
-179.027	-200.000	0.006	0.055
-178.012	44.203	-0.106	0.097
-176.998	37.983	0.248	0.220
-175.983	481.951	-0.154	0.349
-174.969	361.661	0.128	-0.256
-173.954	-92.032	-0.091	-0.026
-172.939	785.559	-0.049	0.134
-171.925	-82.641	-0.191	-0.062
-170.910	70.272	-0.150	-0.154
-169.896	-36.708	0.234	-0.125
-168.881	134.857	-0.110	-0.142
-167.866	-32.201	-0.141	0.079
-166.852	-4.684	0.105	-0.072
-165.837	350.951	0.056	0.110
-164.823	-200.000	-0.016	0.321
-163.808	-23.116	0.144	0.086
-162.793	-200.000	0.027	0.433
-161.779	356.060	0.025	0.050
-160.764	-200.000	-0.017	0.184
-159.750	-142.537	0.088	-0.009
-158.735	401.377	0.135	0.281
-157.720	130.723	-0.122	0.155
-156.706	-200.000	0.027	0.256
-155.691	-81.200	0.228	-0.075
-154.677	113.546	0.348	-0.420
-153.662	-174.868	-0.077	0.002
-152.647	153.619	-0.137	0.186
-151.633	5.275	0.177	0.129
-150.618	-68.977	0.098	-0.038
-149.604	145.550	0.225	-0.300
-148.589	800.000	0.133	-0.398
-147.574	76.748	0.034	-0.036
-146.560	-18.705	-0.127	0.079
-145.545	-114.576	-0.359	0.068
-144.531	800.000	0.016	-0.046
-143.516	-200.000	-0.003	-0.127
-142.502	256.248	0.105	0.178
-141.487	-87.758	-0.185	0.055
-140.472	166.752	0.173	0.244
-139.458	692.267	0.054	-0.139
-138.443	-200.000	-0.009	0.184
-137.429	-59.173	0.089	-0.038
-136.414	-4.505	-0.091	0.062
-135.399	-54.652	0.080	0.036
-134.385	-97.872	-0.416	-0.107
-133.370	-200.000	-0.005	0.130
-132.356	-134.570	0.316	-0.038
-131.341	-200.000	-0.216	-0.001
-130.326	359.692	-0.074	0.147
-129.312	-121.683	-0.325	-0.053
-128.297	-0.364	0.345	-0.243
-127.283	800.000	0.058	-0.200
-126.268	-22.636	-0.180	0.108
-125.253	800.000	0.137	0.489
-124.239	85.308	0.026	0.028
-123.224	-48.766	-0.147	-0.070
-122.210	98.554	0.196	0.224
