DTS Sentinel unit serial number:	SN413079Multiplexer serial number:	ORYXHardware model number:	OX4-SRSoftware version number:	ORYX F/W v4.00 Oryx Data Collector v3.7.2.0data status	okinstallation	princeton_trtdifferential loss correction	single-endedforward channel	channel 3reverse channel	N/Adate	2019/09/15time	09:32:35forward acquisition time	60.00reverse acquisition time	0.00gamma	496.2192k internal	0.2309k external	0.2309temperature offset calibration	0.9967default loss term (dB/km)	0.3790temperature slope calibration	1.0000multiplexer offset coefficient	1.0000multiplexer slope coefficient	1.0000fibre end	0.00T internal ref (°C)	33.81T ext. ref 1 (°C)	4.92T ext. ref 2 (°C)	30.07length (m)	temperature (°C)	Stokes	anti-Stokes-747.200	35.097	0.217	0.193
-746.185	-41.840	-0.235	0.122
-745.171	454.903	-0.101	-0.228
-744.156	-200.000	0.025	0.135
-743.142	-200.000	0.022	-0.103
-742.127	-200.000	0.027	0.376
-741.112	-200.000	-0.055	-0.313
-740.098	-135.734	-0.172	0.021
-739.083	76.459	0.195	0.210
-738.069	171.365	-0.162	0.236
-737.054	-200.000	-0.006	-0.233
-736.039	47.999	0.161	-0.153
-735.025	-126.514	0.327	-0.049
-734.010	216.615	0.138	-0.224
-732.996	54.567	-0.203	0.199
-731.981	18.096	-0.297	-0.241
-730.966	-86.121	-0.173	0.054
-729.952	-96.296	-0.174	0.047
-728.937	-68.010	-0.190	-0.075
-727.923	-200.000	-0.051	-0.266
-726.908	-200.000	-0.010	-0.315
-725.894	85.896	0.152	-0.170
-724.879	0.472	-0.213	-0.155
-723.864	454.346	0.015	-0.033
-722.850	-200.000	-0.015	-0.133
-721.835	54.492	0.113	0.110
-720.821	800.000	0.023	0.075
-719.806	483.280	-0.065	-0.150
-718.791	90.919	-0.284	-0.323
-717.777	518.788	-0.146	-0.346
-716.762	-173.390	-0.160	-0.005
-715.748	-131.186	-0.394	0.053
-714.733	77.470	0.163	-0.176
-713.718	800.000	0.158	-0.468
-712.704	-108.783	-0.099	-0.022
-711.689	252.434	0.111	0.193
-710.675	177.310	-0.110	-0.163
-709.660	800.000	0.074	-0.252
-708.645	3.174	0.191	0.141
-707.631	-120.559	0.286	0.049
-706.616	-31.093	0.287	-0.165
-705.602	-57.299	0.339	-0.151
-704.587	-200.000	-0.034	0.173
-703.572	-0.851	-0.152	-0.109
-702.558	481.576	-0.128	-0.294
-701.543	-200.000	-0.014	-0.117
-700.529	-67.927	-0.158	-0.063
-699.514	112.922	0.095	0.117
-698.499	-200.000	0.042	-0.468
-697.485	-1.641	0.126	-0.090
-696.470	-25.750	-0.166	0.099
-695.456	113.117	0.226	-0.277
-694.441	-64.901	0.116	0.048
-693.426	81.542	0.138	-0.151
-692.412	3.573	0.135	-0.100
-691.397	39.521	0.224	-0.204
-690.383	277.819	0.080	0.144
-689.368	-200.000	0.001	-0.157
-688.354	800.000	-0.180	0.571
-687.339	94.255	-0.066	-0.077
-686.324	477.730	0.135	-0.309
-685.310	-63.118	0.211	-0.088
-684.295	120.218	0.156	0.196
-683.281	28.603	-0.172	-0.147
-682.266	800.000	-0.061	-0.177
-681.251	800.000	0.051	-0.172
-680.237	-106.842	0.186	0.042
-679.222	-74.773	-0.223	-0.081
-678.208	-105.711	-0.196	-0.045
-677.193	-40.903	-0.193	-0.101
-676.178	-200.000	-0.025	0.138
-675.164	-162.930	-0.118	-0.006
-674.149	-17.442	0.072	-0.046
-673.135	-54.633	-0.226	0.104
-672.120	497.778	-0.008	-0.019
-671.105	-200.000	-0.018	-0.090
-670.091	-90.676	0.163	-0.048
-669.076	202.787	-0.084	-0.131
-668.062	-200.000	0.076	0.000
-667.047	16.055	-0.225	0.180
-666.032	-181.028	0.095	-0.002
-665.018	137.329	0.011	0.015
-664.003	-73.048	0.198	0.074
-662.989	-13.859	0.179	0.117
-661.974	61.273	-0.241	-0.243
-660.959	95.593	0.228	-0.263
-659.945	575.054	0.074	-0.184
-658.930	-200.000	-0.028	0.192
-657.916	42.022	0.037	-0.034
-656.901	-27.949	-0.200	-0.117
-655.886	11.984	0.211	0.165
-654.872	-30.286	-0.201	-0.115
-653.857	-5.877	-0.099	0.068
-652.843	-142.728	0.092	-0.009
-651.828	-24.275	-0.217	0.131
-650.814	800.000	0.112	-0.485
-649.799	-200.000	0.004	-0.183
-648.784	59.963	0.043	-0.043
-647.770	37.645	0.104	-0.094
-646.755	-81.464	-0.242	-0.081
-645.741	24.200	0.436	-0.365
-644.726	83.698	-0.089	-0.099
-643.711	-61.589	0.040	0.017
-642.697	-22.228	-0.248	0.152
-641.682	2.523	-0.015	-0.011
-640.668	3.945	0.241	-0.178
-639.653	55.067	-0.151	0.148
-638.638	199.623	-0.132	0.204
-637.624	-75.528	-0.134	0.048
-636.609	-143.956	-0.187	0.018
-635.595	-138.184	-0.224	-0.025
-634.580	-30.479	0.165	0.094
-633.565	-81.457	-0.241	-0.080
-632.551	3.878	0.085	0.063
-631.536	-164.789	0.388	0.018
-630.522	550.785	-0.110	-0.267
-629.507	613.351	-0.023	0.059
-628.492	-64.451	0.317	-0.130
-627.478	800.000	0.044	0.194
-626.463	108.393	-0.084	-0.102
-625.449	-150.097	-0.278	-0.022
-624.434	225.036	-0.061	-0.099
-623.419	-200.000	-0.017	-0.265
-622.405	-108.368	-0.268	-0.059
-621.390	-3.389	-0.267	0.188
-620.376	34.046	-0.252	0.222
-619.361	-200.000	0.003	0.016
-618.346	-200.000	0.010	0.226
-617.332	-115.450	0.136	0.026
-616.317	-179.425	-0.042	-0.001
-615.303	-144.439	0.275	0.026
-614.288	-39.160	0.079	-0.042
-613.273	3.269	-0.301	-0.221
-612.259	-200.000	-0.008	-0.245
-611.244	800.000	-0.105	0.295
-610.230	-110.256	0.111	0.023
-609.215	-200.000	0.004	0.030
-608.201	800.000	0.053	0.227
-607.186	-37.617	0.161	0.087
-606.171	-200.000	0.082	-0.397
-605.157	762.828	-0.071	-0.195
-604.142	800.000	0.038	-0.130
-603.128	408.963	-0.116	-0.248
-602.113	-118.221	-0.335	-0.060
-601.098	-200.000	0.033	0.177
-600.084	-99.958	0.429	0.108
-599.069	-200.000	0.015	-0.326
-598.055	134.805	0.194	-0.255
-597.040	-178.945	0.065	-0.001
-596.025	-160.759	-0.177	0.009
-595.011	9.569	-0.325	-0.249
-593.996	22.986	-0.355	-0.294
-592.982	-169.652	0.434	0.016
-591.967	-200.000	0.094	-0.490
-590.952	-24.281	-0.127	-0.076
-589.938	-40.320	-0.129	-0.068
-588.923	-28.083	-0.332	-0.194
-587.909	32.205	-0.064	-0.056
-586.894	-62.845	-0.074	-0.031
-585.879	800.000	-0.113	-0.337
-584.865	169.872	0.220	0.318
-583.850	-200.000	-0.038	0.250
-582.836	4.131	0.067	0.049
-581.821	460.384	-0.095	-0.213
-580.806	-12.751	0.304	0.200
-579.792	116.943	-0.146	0.181
-578.777	65.901	0.313	0.320
-577.763	-19.552	0.141	0.088
-576.748	325.721	-0.217	0.420
-575.733	-5.644	0.161	-0.111
-574.719	800.000	0.021	0.077
-573.704	-200.000	0.075	-0.382
-572.690	-139.651	-0.388	-0.042
-571.675	140.897	-0.111	0.148
-570.661	143.641	-0.223	-0.300
-569.646	800.000	-0.030	-0.103
-568.631	19.526	0.316	-0.256
-567.617	-119.733	-0.225	-0.039
-566.602	268.139	-0.138	0.243
-565.588	-137.995	0.111	-0.013
-564.573	103.228	-0.077	-0.091
-563.558	175.650	0.162	-0.237
-562.544	84.910	0.071	-0.079
-561.529	-86.141	-0.411	0.128
-560.515	279.875	0.208	0.375
-559.500	-200.000	-0.054	0.251
-558.485	-117.756	-0.299	-0.054
-557.471	-29.438	0.188	-0.109
-556.456	-76.815	-0.251	-0.088
-555.442	-200.000	-0.031	-0.371
-554.427	5.663	-0.205	0.153
-553.412	800.000	0.072	-0.234
-552.398	800.000	0.032	-0.110
-551.383	172.017	0.037	0.054
-550.369	-200.000	0.007	0.124
-549.354	-100.842	-0.110	0.027
-548.339	-41.273	0.108	-0.056
-547.325	33.364	0.352	-0.308
-546.310	-141.869	0.324	0.033
-545.296	464.058	-0.093	-0.210
-544.281	800.000	-0.091	-0.336
-543.266	-200.000	0.029	-0.186
-542.252	-13.873	0.217	-0.141
-541.237	-200.000	0.001	-0.074
-540.223	86.515	0.233	-0.259
-539.208	250.472	0.087	-0.149
-538.193	-200.000	-0.017	0.382
-537.179	293.460	0.055	-0.101
-536.164	11.565	-0.174	-0.134
-535.150	368.776	-0.119	-0.243
-534.135	-32.300	0.220	-0.124
-533.121	-147.648	-0.266	0.023
-532.106	-161.178	-0.254	0.013
-531.091	-200.000	0.108	-0.480
-530.077	17.127	0.101	-0.080
-529.062	-45.402	-0.039	-0.019
-528.048	-80.082	0.232	-0.078
-527.033	78.106	-0.105	0.113
-526.018	-3.673	0.343	0.240
-525.004	800.000	-0.047	-0.207
-523.989	788.845	-0.036	-0.101
-522.975	97.066	-0.198	-0.229
-521.960	-155.157	0.519	-0.034
-520.945	407.038	-0.073	-0.155
-519.931	800.000	0.136	-0.487
-518.916	70.007	-0.278	-0.289
-517.902	-160.105	0.380	-0.021
-516.887	-122.957	0.259	-0.042
-515.872	-200.000	-0.038	0.252
-514.858	627.418	0.043	-0.110
-513.843	-181.645	0.282	0.005
-512.829	800.000	0.037	-0.128
-511.814	-200.000	0.263	-0.001
-510.799	114.673	0.192	0.236
-509.785	-154.781	0.058	0.004
-508.770	-26.069	0.110	-0.065
-507.756	-17.684	0.135	0.085
-506.741	135.946	-0.144	0.188
-505.726	-148.907	0.106	-0.009
-504.712	383.027	-0.220	0.455
-503.697	-200.000	-0.007	0.279
-502.683	-3.905	-0.177	-0.124
-501.668	-200.000	0.000	0.052
-500.653	207.351	0.063	-0.099
-499.639	-200.000	0.026	0.347
-498.624	-157.524	-0.201	0.012
-497.610	476.812	-0.140	-0.317
-496.595	-91.516	0.311	0.089
-495.581	17.198	-0.134	0.107
-494.566	-200.000	-0.094	-0.427
-493.551	-136.116	-0.161	-0.019
-492.537	271.567	-0.157	0.278
-491.522	-62.986	0.187	0.078
-490.508	-44.227	0.203	-0.102
-489.493	-200.000	0.082	-0.546
-488.478	29.134	0.266	-0.227
-487.464	-69.146	-0.280	0.108
-486.449	205.548	-0.144	0.225
-485.435	-68.018	-0.222	0.087
-484.420	800.000	0.051	-0.176
-483.405	-200.000	0.005	-0.154
-482.391	-200.000	0.036	-0.176
-481.376	108.405	0.096	-0.116
-480.362	224.425	-0.278	0.453
-479.347	-31.706	0.040	-0.023
-478.332	-200.000	0.022	0.152
-477.318	96.262	-0.114	0.131
-476.303	148.928	-0.164	-0.223
-475.289	500.230	0.041	0.095
-474.274	425.209	0.191	0.412
-473.259	-200.000	-0.019	-0.269
-472.245	-13.968	0.088	-0.057
-471.230	701.093	0.112	0.296
-470.216	-200.000	-0.020	-0.242
-469.201	-52.461	-0.376	0.175
-468.186	-35.304	-0.184	-0.101
-467.172	-76.197	-0.361	-0.128
-466.157	-166.000	-0.362	0.016
-465.143	-93.612	0.187	-0.052
-464.128	-158.037	0.251	0.015
-463.113	-200.000	-0.030	-0.205
-462.099	1.069	-0.130	0.094
-461.084	313.471	0.106	0.200
-460.070	-88.073	0.260	0.078
-459.055	800.000	0.069	0.275
-458.040	-51.812	0.198	-0.092
-457.026	23.089	-0.189	-0.156
-456.011	-1.563	-0.068	0.048
-454.997	38.356	-0.069	0.062
-453.982	-25.981	0.415	0.245
-452.968	-50.508	0.171	0.081
-451.953	-136.258	0.381	-0.045
-450.938	-200.000	0.004	0.065
-449.924	340.298	-0.110	0.216
-448.909	237.207	0.045	-0.075
-447.895	0.440	-0.096	0.069
-446.880	312.295	0.040	0.075
-445.865	790.772	0.129	0.355
-444.851	-52.329	-0.138	0.064
-443.836	800.000	0.112	-0.343
-442.822	-92.454	-0.213	0.060
-441.807	31.631	0.223	-0.193
-440.792	-200.000	0.047	-0.211
-439.778	-103.832	-0.323	-0.076
-438.763	-75.525	-0.175	0.062
-437.749	800.000	-0.044	-0.162
-436.734	241.416	0.105	0.175
-435.719	-200.000	0.016	-0.231
-434.705	800.000	0.041	-0.141
-433.690	-200.000	-0.019	-0.321
-432.676	-200.000	0.055	0.349
-431.661	-95.091	-0.071	-0.019
-430.646	-162.832	-0.358	0.018
-429.632	-200.000	0.041	-0.292
-428.617	-200.000	0.030	-0.349
-427.603	639.440	-0.060	0.154
-426.588	-200.000	0.069	0.396
-425.573	-130.866	0.219	0.030
-424.559	308.965	-0.209	0.392
-423.544	-200.000	0.037	0.258
-422.530	59.500	-0.106	0.105
-421.515	-125.844	0.163	-0.025
-420.500	800.000	0.053	0.189
-419.486	88.715	-0.068	-0.075
-418.471	122.689	0.185	-0.232
-417.457	371.208	0.086	0.175
-416.442	135.442	-0.117	0.152
-415.428	-200.000	-0.038	-0.218
-414.413	-198.694	0.184	0.001
-413.398	-85.242	0.351	-0.110
-412.384	144.470	-0.215	0.287
-411.369	-46.875	-0.033	0.016
-410.355	-132.091	-0.326	0.042
-409.340	-120.623	0.318	-0.054
-408.325	-29.430	-0.202	0.116
-407.311	-200.000	0.007	0.046
-406.296	-108.354	-0.185	-0.040
-405.282	-128.664	0.162	0.023
-404.267	-200.000	-0.005	-0.024
-403.252	-165.478	-0.072	-0.003
-402.238	54.604	-0.225	0.218
-401.223	98.911	0.138	-0.159
-400.209	12.773	-0.353	0.274
-399.194	-200.000	-0.056	0.273
-398.179	-72.032	0.255	-0.095
-397.165	800.000	-0.027	0.086
-396.150	800.000	-0.121	-0.405
-395.136	-58.074	-0.262	0.115
-394.121	-200.000	0.061	0.318
-393.106	216.670	0.169	0.269
-392.092	-117.632	-0.186	0.034
-391.077	35.424	0.060	0.053
-390.063	-76.105	-0.078	-0.028
-389.048	-2.154	0.214	-0.150
-388.033	-200.000	-0.012	-0.131
-387.019	-58.908	-0.108	0.047
-386.004	-90.800	-0.267	0.077
-384.990	-200.000	0.007	0.493
-383.975	18.054	-0.108	-0.086
-382.960	-15.452	-0.110	0.070
-381.946	800.000	0.072	-0.261
-380.931	-49.270	0.250	0.120
-379.917	451.334	-0.012	-0.026
-378.902	530.235	-0.026	0.061
-377.888	-200.000	0.033	0.175
-376.873	330.280	-0.102	-0.196
-375.858	-137.554	0.294	-0.033
-374.844	416.225	0.068	0.145
-373.829	-99.753	-0.414	-0.104
-372.815	-156.505	0.192	0.012
-371.800	147.118	0.185	0.249
-370.785	800.000	0.049	0.181
-369.771	-126.932	0.206	0.030
-368.756	800.000	0.055	-0.163
-367.742	191.224	0.034	0.052
-366.727	-200.000	-0.042	0.409
-365.712	40.908	-0.118	-0.107
-364.698	376.598	0.079	0.161
-363.683	800.000	-0.039	-0.171
-362.669	-200.000	0.365	0.001
-361.654	-200.000	-0.012	0.059
-360.639	-89.773	0.273	-0.080
-359.625	380.054	0.160	-0.328
-358.610	320.715	-0.047	-0.089
-357.596	-120.091	-0.207	-0.035
-356.581	258.790	-0.114	-0.196
-355.566	-142.439	0.199	-0.020
-354.552	-188.333	-0.297	-0.004
-353.537	108.323	0.275	-0.328
-352.523	800.000	0.085	0.278
-351.508	-60.458	0.251	-0.107
-350.493	-88.387	0.136	0.041
-349.479	416.620	-0.168	0.358
-348.464	180.340	-0.130	0.191
-347.450	1.392	-0.076	-0.055
-346.435	89.489	0.150	0.167
-345.420	-50.323	0.384	-0.182
-344.406	-92.247	-0.212	-0.060
-343.391	236.452	-0.095	0.156
-342.377	-154.420	0.041	0.003
-341.362	-200.000	-0.023	-0.268
-340.348	-44.756	-0.241	-0.120
-339.333	-130.386	0.165	-0.022
-338.318	800.000	0.056	0.170
-337.304	29.039	-0.183	-0.155
-336.289	-106.856	-0.347	0.077
-335.275	-136.952	0.053	0.006
-334.260	800.000	0.061	0.195
-333.245	-166.157	-0.161	0.007
-332.231	-119.185	0.265	0.046
-331.216	800.000	-0.034	-0.117
-330.202	104.040	-0.380	0.447
-329.187	124.694	-0.106	0.134
-328.172	-125.554	-0.284	-0.043
-327.158	-65.593	-0.108	-0.044
-326.143	800.000	-0.161	0.447
-325.129	-180.065	0.140	0.003
-324.114	372.981	-0.076	0.155
-323.099	315.407	-0.087	0.164
-322.085	-200.000	0.088	-0.555
-321.070	75.153	-0.284	-0.299
-320.056	-108.093	0.129	0.028
-319.041	-200.000	0.044	0.417
-318.026	516.181	0.039	0.090
-317.012	-108.548	0.115	0.025
-315.997	323.610	-0.045	0.087
-314.983	-102.635	-0.122	0.029
-313.968	368.580	-0.072	-0.145
-312.953	425.212	0.045	0.096
-311.939	800.000	0.081	-0.281
-310.924	109.332	0.252	0.301
-309.910	250.392	0.068	0.115
-308.895	-103.451	0.130	-0.030
-307.880	-97.917	-0.557	0.144
-306.866	175.240	0.127	-0.184
-305.851	71.062	-0.190	0.197
-304.837	-29.818	-0.247	0.141
-303.822	42.675	-0.241	-0.219
-302.807	394.818	-0.154	-0.320
-301.793	359.989	-0.146	0.291
-300.778	-63.883	-0.495	-0.202
-299.764	104.353	0.056	0.066
-298.749	-200.000	0.026	-0.285
-297.735	17.941	0.199	0.159
-296.720	-172.425	0.168	0.005
-295.705	-80.869	-0.093	-0.031
-294.691	-200.000	-0.006	-0.271
-293.676	-200.000	-0.001	-0.091
-292.662	-200.000	-0.006	-0.269
-291.647	75.914	-0.267	0.282
-290.632	228.935	-0.089	0.145
-289.618	-200.000	-0.052	0.246
-288.603	-200.000	0.073	-0.432
-287.589	-64.339	0.231	0.094
-286.574	69.264	0.183	0.188
-285.559	192.025	0.134	0.202
-284.545	327.143	-0.073	0.139
-283.530	-200.000	0.031	-0.170
-282.516	-152.403	-0.174	0.012
-281.501	800.000	0.051	0.185
-280.486	796.596	-0.122	0.336
-279.472	-200.000	0.024	-0.231
-278.457	155.544	-0.047	-0.064
-277.443	-177.100	0.109	-0.003
-276.428	43.699	-0.070	0.064
-275.413	-10.841	-0.299	0.197
-274.399	-200.000	-0.034	0.161
-273.384	77.454	0.138	-0.146
-272.370	-200.000	0.021	0.095
-271.355	-79.779	0.019	0.006
-270.340	800.000	-0.061	-0.192
-269.326	-26.946	0.095	-0.055
-268.311	250.741	-0.069	0.117
-267.297	254.239	-0.106	-0.181
-266.282	0.211	0.085	-0.060
-265.267	22.609	0.135	-0.110
-264.253	-24.322	0.222	-0.132
-263.238	-200.000	0.030	0.183
-262.224	-70.648	-0.389	0.147
-261.209	-122.172	-0.236	0.039
-260.195	-87.465	-0.150	-0.045
-259.180	184.013	0.203	0.300
-258.165	408.698	0.024	0.050
-257.151	111.179	0.081	-0.097
-256.136	159.209	-0.213	0.296
-255.122	-119.186	-0.527	-0.092
-254.107	-200.000	0.010	-0.120
-253.092	800.000	-0.047	-0.199
-252.078	-100.261	-0.152	0.038
-251.063	201.440	0.093	-0.143
-250.049	-10.946	-0.199	0.131
-249.034	-200.000	0.033	0.259
-248.019	39.674	0.165	-0.148
-247.005	-200.000	-0.001	-0.053
-245.990	14.889	-0.126	0.098
-244.976	-30.758	-0.119	0.067
-243.961	-200.000	0.013	-0.103
-242.946	318.886	0.123	0.232
-241.932	79.489	0.105	0.112
-240.917	-200.000	-0.052	-0.366
-239.903	-44.442	-0.186	-0.093
-238.888	97.878	0.355	0.406
-237.873	-4.755	0.125	-0.086
-236.859	-200.000	0.033	0.234
-235.844	800.000	0.107	-0.330
-234.830	-36.329	0.047	0.025
-233.815	236.770	-0.148	-0.245
-232.800	-200.000	0.015	0.346
-231.786	-81.140	0.457	-0.150
-230.771	-55.201	0.356	-0.159
-229.757	-200.000	-0.032	-0.362
-228.742	-101.099	0.172	-0.042
-227.727	-79.864	0.396	-0.133
-226.713	-60.269	-0.164	0.070
-225.698	215.057	0.157	0.247
-224.684	-43.052	-0.321	-0.162
-223.669	73.945	-0.118	0.123
-222.655	383.546	-0.053	0.108
-221.640	-102.101	-0.223	-0.053
-220.625	-187.426	0.419	0.006
-219.611	-8.403	-0.250	0.167
-218.596	-61.247	0.189	0.079
-217.582	-48.095	0.436	0.210
-216.567	437.056	0.043	-0.093
-215.552	-58.905	0.202	-0.087
-214.538	-9.585	-0.148	0.098
-213.523	366.424	-0.092	0.185
-212.509	136.848	0.079	-0.102
-211.494	327.909	0.111	0.212
-210.479	391.282	0.214	0.442
-209.465	800.000	0.046	0.177
-208.450	132.384	-0.182	0.234
-207.436	-200.000	0.019	0.142
-206.421	163.852	-0.252	0.353
-205.406	40.937	-0.075	-0.068
-204.392	516.899	-0.073	0.169
-203.377	-200.000	0.013	0.325
-202.363	140.306	0.160	-0.210
-201.348	-165.053	0.171	-0.008
-200.333	180.170	0.131	-0.191
-199.319	70.441	0.131	-0.134
-198.304	-200.000	0.019	-0.123
-197.290	-43.432	-0.243	0.122
-196.275	-105.911	-0.434	-0.097
-195.260	-158.805	-0.196	-0.011
-194.246	-20.497	0.038	-0.023
-193.231	88.677	0.107	-0.118
-192.217	-123.394	0.270	0.043
-191.202	-128.251	-0.094	-0.013
-190.187	-62.614	0.058	-0.024
-189.173	126.368	-0.057	-0.072
-188.158	-13.933	-0.273	-0.176
-187.144	-200.000	0.041	-0.280
-186.129	-56.584	0.237	0.104
-185.114	-200.000	-0.064	-0.354
-184.100	24.270	0.083	0.069
-183.085	431.840	0.077	0.167
-182.071	-147.875	-0.307	0.025
-181.056	800.000	-0.027	0.104
-180.042	-38.246	-0.105	-0.055
-179.027	-69.521	-0.285	-0.109
-178.012	800.000	0.085	0.348
-176.998	333.514	0.067	-0.129
-175.983	-18.182	-0.248	-0.154
-174.969	800.000	0.061	0.256
-173.954	-10.111	0.174	0.115
-172.939	92.779	0.130	0.146
-171.925	-23.739	0.290	-0.173
-170.910	117.580	0.106	0.129
-169.896	34.142	0.128	-0.111
-168.881	-55.717	0.485	-0.215
-167.866	800.000	0.114	0.317
-166.852	-84.246	0.126	0.040
-165.837	335.768	-0.133	0.256
-164.823	109.631	0.120	0.143
-163.808	-200.000	0.317	-0.000
-162.793	-200.000	0.006	-0.241
-161.779	-73.961	0.148	0.053
-160.764	-200.000	0.018	0.122
-159.750	-126.895	-0.331	-0.048
-158.735	-177.719	0.211	-0.005
-157.720	495.445	-0.091	-0.207
-156.706	-119.467	0.308	-0.053
-155.691	84.042	0.250	-0.271
-154.677	-101.842	0.027	-0.006
-153.662	26.054	-0.167	0.138
-152.647	547.517	-0.047	0.111
-151.633	199.282	-0.094	0.142
-150.618	300.031	-0.243	0.444
-149.604	-200.000	-0.014	0.140
-148.589	-162.185	0.030	0.001
-147.574	439.338	0.097	0.210
-146.560	127.552	-0.091	0.115
-145.545	-86.156	-0.207	-0.063
-144.531	-92.802	0.288	-0.080
-143.516	-40.147	-0.288	0.149
-142.502	-86.654	0.147	-0.045
-141.487	58.395	0.165	0.161
-140.472	-163.345	-0.176	-0.008
-139.458	800.000	0.088	-0.379
-138.443	-20.786	0.070	0.042
-137.429	-169.538	0.180	0.006
-136.414	-200.000	-0.038	0.240
-135.399	26.527	-0.311	-0.258
-134.385	243.999	0.269	-0.449
-133.370	65.228	0.200	-0.200
-132.356	101.927	0.143	0.165
-131.341	125.934	0.240	-0.300
-130.326	246.642	0.069	-0.116
-129.312	40.055	-0.229	-0.204
-128.297	-91.527	-0.472	-0.133
-127.283	-86.384	0.294	0.090
-126.268	669.893	-0.159	0.409
-125.253	-50.882	-0.101	-0.047
-124.239	421.779	-0.040	0.085
-123.224	35.502	0.145	0.126
-122.210	198.593	0.161	0.245
-121.195	95.345	0.113	0.128
