DTS Sentinel unit serial number:	SN413079Multiplexer serial number:	ORYXHardware model number:	OX4-SRSoftware version number:	ORYX F/W v4.00 Oryx Data Collector v3.7.2.0data status	okinstallation	princeton_trtdifferential loss correction	single-endedforward channel	channel 3reverse channel	N/Adate	2019/09/14time	12:28:35forward acquisition time	60.00reverse acquisition time	0.00gamma	496.2192k internal	0.2295k external	0.2295temperature offset calibration	1.0063default loss term (dB/km)	0.3790temperature slope calibration	1.0000multiplexer offset coefficient	1.0000multiplexer slope coefficient	1.0000fibre end	0.00T internal ref (°C)	37.92T ext. ref 1 (°C)	4.76T ext. ref 2 (°C)	34.83length (m)	temperature (°C)	Stokes	anti-Stokes-747.200	-1.129	-0.367	-0.265
-746.185	-200.000	0.012	0.149
-745.171	800.000	-0.013	0.041
-744.156	192.614	-0.176	0.272
-743.142	-153.028	0.288	0.021
-742.127	36.693	-0.191	0.172
-741.112	800.000	0.024	0.094
-740.098	-137.924	-0.087	0.010
-739.083	27.677	-0.028	0.024
-738.069	-200.000	0.004	0.482
-737.054	-200.000	-0.012	0.391
-736.039	-200.000	-0.023	-0.214
-735.025	800.000	0.047	-0.152
-734.010	42.929	-0.225	-0.210
-732.996	374.407	0.164	-0.341
-731.981	800.000	-0.059	-0.187
-730.966	514.180	-0.100	-0.239
-729.952	76.314	0.066	-0.071
-728.937	55.304	-0.049	-0.049
-727.923	35.325	-0.065	-0.059
-726.908	-86.004	0.203	0.064
-725.894	800.000	0.106	-0.330
-724.879	441.163	-0.064	-0.144
-723.864	-101.304	-0.051	0.013
-722.850	800.000	-0.070	0.198
-721.835	459.015	0.027	-0.060
-720.821	-128.074	-0.342	0.050
-719.806	800.000	-0.081	-0.292
-718.791	-143.330	0.169	-0.017
-717.777	90.851	-0.039	-0.045
-716.762	-22.606	-0.026	0.016
-715.748	106.530	-0.150	0.182
-714.733	800.000	0.049	0.205
-713.718	-200.000	0.016	-0.221
-712.704	-162.366	-0.309	0.016
-711.689	-43.062	-0.250	-0.130
-710.675	-15.004	-0.033	0.022
-709.660	134.717	0.116	-0.154
-708.645	128.897	-0.179	0.232
-707.631	-200.000	0.058	-0.478
-706.616	-165.120	0.185	-0.008
-705.602	22.391	0.186	-0.155
-704.587	-106.624	0.228	-0.052
-703.572	800.000	0.028	-0.109
-702.558	800.000	-0.027	0.104
-701.543	800.000	-0.048	0.209
-700.529	120.176	-0.219	0.277
-699.514	-91.868	-0.093	-0.027
-698.499	-124.465	0.279	-0.044
-697.485	413.764	0.120	0.261
-696.470	-103.306	-0.066	-0.016
-695.456	-6.924	0.204	-0.141
-694.441	477.531	0.095	0.219
-693.426	-34.468	0.236	-0.132
-692.412	303.889	0.111	0.210
-691.397	217.290	-0.029	0.047
-690.383	-115.544	0.142	0.027
-689.368	313.040	0.194	-0.372
-688.354	206.253	0.061	0.097
-687.339	-103.291	-0.270	-0.065
-686.324	-200.000	-0.044	0.449
-685.310	-176.733	-0.088	-0.002
-684.295	32.586	0.079	0.070
-683.281	107.657	-0.101	-0.122
-682.266	-200.000	0.021	-0.377
-681.251	87.370	-0.194	0.219
-680.237	-200.000	-0.019	0.285
-679.222	38.722	-0.246	-0.224
-678.208	-129.667	-0.103	0.014
-677.193	-200.000	0.026	-0.291
-676.178	-200.000	-0.003	0.031
-675.164	392.619	0.088	0.186
-674.149	-200.000	0.037	-0.178
-673.135	-122.969	-0.199	0.033
-672.120	27.124	-0.082	0.070
-671.105	334.201	0.062	-0.123
-670.091	177.159	0.087	-0.130
-669.076	-200.000	-0.008	-0.139
-668.062	800.000	-0.076	-0.259
-667.047	108.999	0.171	-0.208
-666.032	370.089	-0.176	-0.363
-665.018	62.258	0.144	-0.146
-664.003	-147.459	-0.778	0.067
-662.989	16.433	0.072	0.058
-661.974	-165.854	-0.073	-0.003
-660.959	-32.560	-0.099	-0.056
-659.945	503.645	-0.054	0.127
-658.930	103.575	0.061	0.073
-657.916	-200.000	0.025	0.146
-656.901	-200.000	-0.001	-0.201
-655.886	172.371	-0.128	-0.187
-654.872	24.766	-0.279	0.236
-653.857	278.393	-0.116	0.211
-652.843	475.786	0.170	-0.391
-651.828	465.279	-0.069	0.157
-650.814	-143.794	0.194	0.019
-649.799	186.909	-0.054	0.082
-648.784	-67.668	0.234	0.093
-647.770	800.000	-0.023	0.074
-646.755	-7.300	-0.128	-0.089
-645.741	-98.993	0.242	-0.063
-644.726	263.100	0.098	-0.174
-643.711	-34.871	0.324	0.180
-642.697	448.898	0.145	-0.326
-641.682	156.732	0.161	-0.226
-640.668	104.340	0.346	-0.415
-639.653	22.009	0.194	-0.161
-638.638	-53.399	0.010	0.005
-637.624	-200.000	0.030	0.265
-636.609	105.591	-0.403	-0.485
-635.595	800.000	-0.064	-0.233
-634.580	-33.594	-0.359	0.202
-633.565	192.657	-0.082	-0.125
-632.551	-93.184	0.069	0.020
-631.536	-31.500	0.197	-0.113
-630.522	-34.989	0.195	-0.108
-629.507	-129.506	-0.294	0.041
-628.492	170.689	0.102	-0.148
-627.478	-104.818	0.234	0.055
-626.463	5.176	-0.348	-0.261
-625.449	-200.000	0.001	0.030
-624.434	-85.617	0.100	-0.032
-623.419	-55.517	-0.132	-0.060
-622.405	-40.612	0.179	-0.095
-621.390	-200.000	0.048	-0.325
-620.376	-30.091	0.141	0.081
-619.361	-118.256	-0.293	-0.053
-618.346	-58.694	0.397	-0.175
-617.332	-90.871	0.302	-0.088
-616.317	-104.363	0.143	-0.034
-615.303	-200.000	-0.032	0.198
-614.288	165.680	0.088	-0.126
-613.273	800.000	0.026	0.093
-612.259	-20.859	0.092	0.057
-611.244	-200.000	-0.019	0.120
-610.230	723.387	-0.065	-0.177
-609.215	-200.000	0.014	-0.142
-608.201	-200.000	0.008	-0.184
-607.186	598.006	-0.026	0.065
-606.171	116.001	-0.155	0.193
-605.157	260.945	0.029	-0.052
-604.142	-5.343	0.222	-0.155
-603.128	11.202	-0.178	0.138
-602.113	123.469	-0.140	-0.179
-601.098	2.761	-0.121	0.090
-600.084	226.966	-0.069	0.114
-599.069	554.560	0.101	0.248
-598.055	57.463	-0.118	0.117
-597.040	17.236	-0.078	0.063
-596.025	-45.048	0.107	0.054
-595.011	-200.000	0.005	-0.213
-593.996	-182.092	-0.259	-0.005
-592.982	-90.751	0.201	-0.059
-591.967	61.757	0.059	0.059
-590.952	-38.502	-0.202	-0.109
-589.938	-200.000	-0.010	-0.177
-588.923	-124.950	0.242	-0.038
-587.909	-128.370	0.138	0.020
-586.894	-8.133	-0.196	0.134
-585.879	-147.088	0.180	0.016
-584.865	-200.000	-0.047	0.241
-583.850	800.000	0.144	0.469
-582.836	174.116	0.081	-0.118
-581.821	274.778	0.102	-0.184
-580.806	800.000	-0.069	0.290
-579.792	19.910	0.144	0.118
-578.777	-200.000	0.027	-0.251
-577.763	-59.117	-0.314	0.138
-576.748	415.993	-0.124	0.269
-575.733	800.000	0.079	-0.225
-574.719	-41.934	-0.239	-0.124
-573.704	-200.000	-0.020	0.097
-572.690	541.123	-0.110	0.266
-571.675	18.447	0.282	-0.229
-570.661	-88.251	-0.205	0.062
-569.646	-200.000	0.008	0.369
-568.631	-77.040	-0.225	0.080
-567.617	-62.349	0.204	-0.086
-566.602	475.246	0.101	-0.232
-565.588	-139.141	-0.068	0.008
-564.573	-60.577	-0.047	-0.020
-563.558	-71.685	0.351	0.133
-562.544	-4.700	-0.218	0.153
-561.529	-200.000	-0.002	-0.184
-560.515	29.116	-0.242	0.208
-559.500	800.000	-0.051	-0.156
-558.485	-111.605	-0.195	-0.040
-557.471	230.791	0.068	0.113
-556.456	-121.649	-0.357	0.060
-555.442	-131.745	0.287	-0.038
-554.427	-49.955	-0.193	-0.093
-553.412	-39.456	-0.344	0.183
-552.398	136.283	-0.255	-0.337
-551.383	-95.682	0.105	0.028
-550.369	8.742	-0.111	-0.085
-549.354	-150.299	0.355	-0.028
-548.339	524.922	0.097	0.231
-547.325	-44.917	-0.201	-0.101
-546.310	-8.272	0.191	-0.130
-545.296	582.038	-0.141	0.351
-544.281	-200.000	-0.032	-0.162
-543.266	800.000	0.111	0.406
-542.252	-24.967	-0.364	0.219
-541.237	361.105	0.040	-0.081
-540.223	155.589	0.218	0.305
-539.208	-200.000	-0.064	0.311
-538.193	800.000	0.032	-0.135
-537.179	109.735	0.060	0.073
-536.164	382.842	0.053	0.110
-535.150	159.986	0.174	0.245
-534.135	83.594	0.101	-0.112
-533.121	-147.947	-0.171	-0.014
-532.106	98.503	0.108	0.126
-531.091	-150.114	-0.340	-0.027
-530.077	216.987	-0.197	-0.318
-529.062	142.073	-0.109	-0.146
-528.048	-200.000	0.043	0.224
-527.033	209.594	0.094	-0.149
-526.018	119.766	-0.359	-0.451
-525.004	-106.657	-0.260	-0.059
-523.989	197.954	0.021	-0.033
-522.975	-81.659	-0.311	-0.104
-521.960	-130.291	-0.274	0.038
-520.945	800.000	-0.067	-0.225
-519.931	-21.795	-0.149	0.092
-518.916	800.000	-0.023	0.070
-517.902	108.186	-0.165	0.199
-516.887	-102.656	0.408	0.099
-515.872	-65.760	-0.397	-0.161
-514.858	-1.914	0.197	0.141
-513.843	-131.805	-0.123	-0.016
-512.829	-28.132	0.140	0.082
-511.814	12.153	-0.035	0.027
-510.799	-53.705	-0.163	0.075
-509.785	-200.000	-0.006	0.151
-508.770	87.179	-0.242	-0.271
-507.756	-89.837	0.291	-0.086
-506.741	-15.297	0.183	0.119
-505.726	-200.000	-0.009	-0.093
-504.712	-80.635	-0.113	0.038
-503.697	68.936	0.117	0.122
-502.683	-56.244	0.224	0.101
-501.668	47.068	-0.159	0.150
-500.653	-200.000	0.034	-0.552
-499.639	800.000	0.107	-0.343
-498.624	-75.158	-0.074	0.027
-497.610	13.001	0.107	-0.084
-496.595	-200.000	-0.020	-0.126
-495.581	75.989	0.021	0.022
-494.566	-5.649	-0.192	0.134
-493.551	-52.976	0.253	0.118
-492.537	-200.000	0.002	-0.122
-491.522	296.178	-0.049	0.092
-490.508	-200.000	-0.006	-0.078
-489.493	-200.000	-0.002	-0.116
-488.478	-178.771	0.068	0.002
-487.464	326.654	0.194	-0.377
-486.449	800.000	0.058	-0.215
-485.435	715.977	0.085	0.227
-484.420	115.423	0.301	0.372
-483.405	161.472	0.216	0.306
-482.391	-200.000	0.004	0.086
-481.376	446.317	-0.037	0.082
-480.362	-5.768	-0.137	-0.095
-479.347	23.185	0.324	0.269
-478.332	55.742	-0.150	0.147
-477.318	79.871	-0.128	0.139
-476.303	-200.000	0.002	-0.092
-475.289	-117.632	0.480	0.088
-474.274	800.000	-0.025	0.105
-473.259	-37.022	-0.233	-0.126
-472.245	-200.000	0.014	-0.337
-471.230	-104.811	-0.236	0.055
-470.216	-48.510	0.295	-0.144
-469.201	800.000	0.051	-0.186
-468.186	392.586	0.008	-0.017
-467.172	137.349	0.047	0.063
-466.157	-200.000	-0.011	0.092
-465.143	-200.000	0.033	0.320
-464.128	800.000	-0.036	0.109
-463.113	136.163	-0.052	0.068
-462.099	306.612	0.086	-0.162
-461.084	800.000	-0.099	0.295
-460.070	-44.324	-0.110	-0.056
-459.055	214.799	0.164	0.263
-458.040	-200.000	-0.019	0.556
-457.026	100.992	0.185	0.217
-456.011	227.910	0.150	-0.247
-454.997	-3.958	0.157	-0.110
-453.982	800.000	0.012	-0.049
-452.968	49.137	-0.056	-0.053
-451.953	34.332	0.269	0.237
-450.938	304.840	0.084	0.158
-449.924	93.171	-0.050	0.058
-448.909	71.019	-0.051	-0.053
-447.895	800.000	-0.139	0.582
-446.880	-188.272	-0.192	0.002
-445.865	119.969	-0.247	0.309
-444.851	-102.093	-0.351	-0.085
-443.836	252.857	-0.093	-0.161
-442.822	702.777	-0.068	-0.180
-441.807	-41.807	0.187	-0.097
-440.792	-166.164	-0.175	-0.007
-439.778	-138.718	0.180	0.020
-438.763	-29.442	0.107	0.062
-437.749	-8.226	0.243	0.165
-436.734	-18.967	-0.304	0.191
-435.719	-23.214	-0.344	0.209
-434.705	156.090	0.113	-0.157
-433.690	38.649	0.035	-0.032
-432.676	-112.383	-0.221	0.045
-431.661	117.944	-0.148	-0.185
-430.646	124.738	0.192	-0.244
-429.632	-200.000	-0.032	-0.408
-428.617	119.287	-0.073	-0.092
-427.603	800.000	0.011	0.040
-426.588	454.466	0.079	-0.177
-425.573	651.883	-0.024	0.062
-424.559	800.000	0.051	0.175
-423.544	-103.873	-0.127	-0.030
-422.530	-200.000	-0.024	-0.431
-421.515	-152.656	0.366	0.026
-420.500	-139.962	0.158	-0.017
-419.486	-57.800	-0.089	0.039
-418.471	-150.969	0.381	-0.029
-417.457	629.405	-0.121	0.310
-416.442	226.000	-0.103	-0.168
-415.428	-116.722	-0.322	-0.060
-414.413	-51.200	0.463	-0.219
-413.398	-20.000	-0.186	-0.116
-412.384	-22.809	0.208	-0.127
-411.369	-65.051	-0.426	-0.173
-410.355	-200.000	-0.024	0.135
-409.340	287.692	-0.225	0.410
-408.325	134.995	-0.098	0.129
-407.311	304.810	0.060	0.112
-406.296	800.000	-0.095	-0.365
-405.282	-140.263	0.285	0.030
-404.267	-108.659	0.047	0.010
-403.252	-105.688	-0.127	0.029
-402.238	-200.000	-0.021	-0.198
-401.223	-200.000	-0.026	0.144
-400.209	12.416	-0.225	0.175
-399.194	800.000	0.017	-0.070
-398.179	52.381	-0.154	-0.148
-397.165	525.913	-0.103	0.245
-396.150	514.581	0.117	0.276
-395.136	-2.608	0.124	-0.088
-394.121	48.021	-0.025	0.024
-393.106	-200.000	-0.022	-0.124
-392.092	-108.661	-0.204	0.044
-391.077	34.218	-0.081	0.071
-390.063	134.709	-0.050	0.066
-389.048	-46.422	-0.187	-0.093
-388.033	97.729	0.125	0.145
-387.019	317.455	0.126	0.240
-386.004	-200.000	0.026	-0.193
-384.990	-168.637	0.409	0.016
-383.975	800.000	-0.176	-0.516
-382.960	-200.000	-0.008	-0.123
-381.946	-101.773	-0.199	-0.048
-380.931	-4.412	-0.075	-0.052
-379.917	-124.497	-0.221	0.035
-378.902	800.000	0.097	-0.341
-377.888	-125.970	0.403	-0.061
-376.873	-167.501	-0.231	0.009
-375.858	15.768	-0.104	0.083
-374.844	-83.493	-0.403	0.130
-373.829	-31.872	0.091	-0.051
-372.815	-31.127	-0.280	0.159
-371.800	-78.847	0.166	-0.057
-370.785	800.000	-0.070	-0.208
-369.771	-187.048	0.423	0.006
-368.756	800.000	-0.062	-0.211
-367.742	-90.263	-0.439	-0.128
-366.727	-156.629	-0.158	-0.010
-365.712	-65.172	0.061	0.025
-364.698	-39.493	0.233	0.123
-363.683	-70.493	0.412	-0.157
-362.669	-200.000	0.077	-0.432
-361.654	384.330	-0.142	-0.296
-360.639	317.874	-0.080	0.153
-359.625	636.950	-0.046	0.118
-358.610	800.000	0.079	-0.225
-357.596	537.001	-0.167	0.399
-356.581	800.000	-0.070	-0.204
-355.566	50.557	-0.203	-0.194
-354.552	-93.582	-0.209	-0.058
-353.537	-62.752	0.301	-0.126
-352.523	-177.737	-0.083	0.002
-351.508	-51.642	-0.008	-0.004
-350.493	-4.450	-0.080	0.056
-349.479	267.727	0.092	0.163
-348.464	-200.000	0.006	-0.093
-347.450	246.444	0.061	0.103
-346.435	140.480	0.166	-0.221
-345.420	20.903	0.186	0.152
-344.406	-200.000	0.057	-0.305
-343.391	-200.000	-0.008	-0.197
-342.377	70.127	-0.066	0.069
-341.362	-70.776	-0.195	0.074
-340.348	-146.213	-0.256	0.023
-339.333	-70.565	0.143	-0.054
-338.318	223.062	-0.212	0.343
-337.304	800.000	0.028	-0.098
-336.289	-58.329	-0.235	-0.103
-335.275	1.442	-0.146	0.106
-334.260	-200.000	0.048	0.298
-333.245	800.000	-0.088	-0.285
-332.231	92.043	-0.118	0.134
-331.216	-4.665	-0.197	0.137
-330.202	-12.848	-0.171	-0.112
-329.187	-0.653	-0.062	-0.044
-328.172	-75.305	0.217	0.078
-327.158	-200.000	-0.083	0.406
-326.143	26.634	-0.155	0.130
-325.129	783.056	-0.062	0.171
-324.114	-200.000	0.030	0.342
-323.099	-108.907	0.296	0.063
-322.085	-6.723	0.179	-0.123
-321.070	-200.000	0.010	0.558
-320.056	457.442	-0.120	0.268
-319.041	-172.157	-0.053	-0.002
-318.026	-146.189	0.204	0.018
-317.012	-142.535	0.305	-0.030
-315.997	260.694	-0.040	0.069
-314.983	-143.154	-0.292	-0.028
-313.968	21.865	0.050	-0.041
-312.953	-200.000	-0.003	0.237
-311.939	19.656	0.310	-0.250
-310.924	-0.521	0.328	-0.234
-309.910	-124.241	0.290	-0.046
-308.895	-113.406	-0.291	-0.057
-307.880	-9.632	-0.258	-0.173
-306.866	800.000	0.056	-0.183
-305.851	800.000	0.046	-0.185
-304.837	-123.660	-0.106	-0.017
-303.822	461.971	-0.067	-0.150
-302.807	40.063	-0.110	-0.099
-301.793	89.180	0.134	-0.150
-300.778	800.000	0.028	0.080
-299.764	68.844	-0.053	0.055
-298.749	93.623	0.225	-0.256
-297.735	800.000	-0.144	-0.444
-296.720	-32.242	0.021	-0.012
-295.705	-200.000	-0.029	-0.361
-294.691	773.875	-0.088	-0.241
-293.676	800.000	-0.086	-0.281
-292.662	15.233	0.258	-0.203
-291.647	-108.543	0.176	-0.038
-290.632	-25.195	-0.199	0.118
-289.618	35.003	0.245	0.216
-288.603	-200.000	-0.050	0.397
-287.589	-136.525	-0.401	-0.047
-286.574	361.765	-0.104	-0.209
-285.559	800.000	-0.030	0.087
-284.545	53.418	0.124	-0.120
-283.530	64.694	-0.028	0.028
-282.516	112.875	0.164	-0.200
-281.501	-76.830	-0.448	0.157
-280.486	-34.869	0.262	-0.144
-279.472	7.699	0.131	0.099
-278.457	446.596	-0.065	0.143
-277.443	-200.000	-0.020	0.195
-276.428	264.957	-0.188	-0.328
-275.413	-32.240	0.307	-0.172
-274.399	-60.147	0.216	0.093
-273.384	181.392	-0.126	-0.187
-272.370	800.000	-0.017	-0.071
-271.355	485.253	0.087	-0.199
-270.340	-66.655	0.424	-0.169
-269.326	800.000	-0.007	0.021
-268.311	-200.000	0.006	-0.083
-267.297	476.389	0.073	-0.166
-266.282	-128.695	0.194	0.028
-265.267	-119.745	0.445	0.077
-264.253	8.509	-0.102	-0.077
-263.238	285.342	-0.061	0.110
-262.224	-51.544	0.110	-0.051
-261.209	-59.349	-0.314	-0.135
-260.195	155.638	0.198	-0.274
-259.180	800.000	0.015	0.046
-258.165	-77.934	-0.071	-0.024
-257.151	77.016	-0.080	0.086
-256.136	-200.000	-0.008	-0.425
-255.122	-200.000	-0.014	0.195
-254.107	167.268	0.054	-0.077
-253.092	81.118	-0.090	0.098
-252.078	800.000	0.044	-0.129
-251.063	314.528	-0.117	0.221
-250.049	800.000	0.074	0.239
-249.034	-117.782	0.100	-0.018
-248.019	-5.725	0.247	0.169
-247.005	800.000	-0.096	0.340
-245.990	-141.103	-0.118	0.012
-244.976	191.185	-0.157	0.237
-243.961	259.940	0.151	0.261
-242.946	-39.694	0.038	0.020
-241.932	13.383	0.056	0.044
-240.917	578.760	-0.049	0.119
-239.903	-123.550	0.075	0.012
-238.888	191.665	0.041	0.062
-237.873	138.639	-0.152	0.200
-236.859	613.252	-0.110	0.277
-235.844	-10.932	-0.167	-0.111
-234.830	-200.000	0.047	0.244
-233.815	12.581	0.168	0.130
-232.800	-200.000	0.045	-0.206
-231.786	330.875	0.064	-0.123
-230.771	800.000	-0.046	-0.196
-229.757	-143.118	0.201	0.019
-228.742	800.000	0.062	-0.259
-227.727	-131.646	0.365	-0.048
-226.713	-130.760	-0.305	0.041
-225.698	-200.000	-0.013	-0.113
-224.684	119.620	-0.250	0.311
-223.669	-200.000	0.001	-0.112
-222.655	800.000	-0.045	0.175
-221.640	800.000	-0.033	0.095
-220.625	-8.054	0.388	-0.262
-219.611	-67.047	0.254	-0.100
-218.596	194.010	-0.120	0.183
-217.582	-200.000	-0.039	0.341
-216.567	111.304	-0.089	-0.108
-215.552	16.247	-0.195	-0.154
-214.538	423.389	0.031	0.067
-213.523	-73.068	-0.296	-0.109
-212.509	228.405	0.158	-0.258
-211.494	15.085	-0.108	0.085
-210.479	491.857	0.060	-0.138
-209.465	124.065	0.308	-0.387
-208.450	126.240	0.252	0.320
-207.436	-120.005	-0.245	-0.042
-206.421	-200.000	0.108	0.584
-205.406	54.726	-0.099	-0.096
-204.392	-45.925	0.073	-0.036
-203.377	800.000	0.098	0.307
-202.363	-200.000	0.031	0.264
-201.348	-200.000	0.006	0.050
-200.333	-172.424	0.306	0.010
-199.319	800.000	-0.073	0.206
-198.304	800.000	-0.076	0.271
-197.290	165.918	0.006	0.009
-196.275	21.373	-0.109	-0.088
-195.260	800.000	-0.064	0.198
-194.246	161.009	-0.258	-0.361
-193.231	7.802	-0.183	0.137
-192.217	36.820	-0.178	0.157
-191.202	-200.000	-0.018	0.225
-190.187	78.504	0.047	0.050
-189.173	-163.576	0.231	-0.011
-188.158	-200.000	-0.018	-0.339
-187.144	122.681	-0.090	-0.113
-186.129	-153.776	-0.159	0.011
-185.114	-132.220	-0.007	0.001
-184.100	238.447	0.089	0.149
-183.085	-200.000	0.004	-0.170
-182.071	-58.099	0.224	-0.098
-181.056	323.044	0.046	0.087
-180.042	-21.213	-0.327	-0.200
-179.027	94.842	-0.109	-0.124
-178.012	800.000	0.024	0.094
-176.998	-169.149	-0.106	-0.004
-175.983	49.867	0.201	0.189
-174.969	800.000	-0.086	0.252
-173.954	-147.940	-0.195	0.016
-172.939	100.042	0.178	-0.207
-171.925	-186.563	0.278	0.004
-170.910	-77.874	0.110	0.038
-169.896	120.377	0.203	0.252
-168.881	421.095	-0.163	0.349
-167.866	-200.000	0.019	-0.141
-166.852	237.608	0.173	0.287
-165.837	25.592	0.243	0.202
-164.823	29.903	-0.202	-0.172
-163.808	555.490	0.045	-0.107
-162.793	-200.000	-0.015	0.244
-161.779	-200.000	0.007	0.135
-160.764	-15.944	0.006	-0.004
-159.750	90.787	-0.187	-0.210
-158.735	81.082	-0.068	-0.073
-157.720	800.000	0.039	0.113
-156.706	112.064	0.187	0.226
-155.691	365.271	0.118	-0.238
-154.677	349.925	0.124	-0.245
-153.662	78.552	0.059	0.063
-152.647	69.797	-0.239	0.246
-151.633	227.498	0.090	-0.147
-150.618	-140.178	-0.158	-0.017
-149.604	-92.700	0.207	0.058
-148.589	469.212	0.087	0.195
-147.574	-68.466	-0.107	-0.041
-146.560	604.697	0.044	0.110
-145.545	136.530	0.149	0.194
-144.531	540.364	-0.036	0.085
-143.516	78.367	-0.177	0.189
-142.502	-148.770	-0.146	-0.012
-141.487	-12.377	0.082	-0.053
-140.472	135.693	0.161	-0.209
-139.458	-78.098	0.319	-0.110
-138.443	67.198	-0.100	0.102
-137.429	-200.000	-0.025	-0.117
-136.414	-101.220	-0.438	0.107
-135.399	382.194	-0.073	0.150
-134.385	800.000	-0.094	0.410
-133.370	-200.000	-0.011	-0.079
-132.356	-1.454	-0.248	-0.175
-131.341	297.499	-0.020	-0.037
-130.326	90.326	-0.206	0.230
-129.312	-200.000	-0.003	-0.141
-128.297	-93.223	0.149	0.041
-127.283	9.893	-0.229	-0.174
-126.268	-134.114	0.293	-0.036
-125.253	166.514	-0.149	-0.210
-124.239	153.701	0.200	-0.274
-123.224	269.475	0.090	-0.158
-122.210	-200.000	-0.025	0.189
-121.195	-119.871	0.107	0.018
