DTS Sentinel unit serial number:	SN413079Multiplexer serial number:	ORYXHardware model number:	OX4-SRSoftware version number:	ORYX F/W v4.00 Oryx Data Collector v3.7.2.0data status	okinstallation	princeton_trtdifferential loss correction	single-endedforward channel	channel 3reverse channel	N/Adate	2019/09/11time	09:34:11forward acquisition time	60.00reverse acquisition time	0.00gamma	496.2192k internal	0.2304k external	0.2304temperature offset calibration	0.9943default loss term (dB/km)	0.3790temperature slope calibration	1.0000multiplexer offset coefficient	1.0000multiplexer slope coefficient	1.0000fibre end	0.00T internal ref (°C)	34.75T ext. ref 1 (°C)	0.13T ext. ref 2 (°C)	30.70length (m)	temperature (°C)	Stokes	anti-Stokes-747.200	-32.916	0.134	-0.076
-746.185	8.411	-0.320	0.245
-745.171	-200.000	-0.016	0.074
-744.156	609.361	0.049	-0.126
-743.142	-44.356	0.086	0.044
-742.127	3.831	0.094	-0.070
-741.112	7.719	0.240	0.183
-740.098	-83.554	-0.179	-0.058
-739.083	-147.611	-0.203	0.017
-738.069	800.000	-0.140	0.463
-737.054	-6.398	-0.157	0.109
-736.039	156.248	0.068	-0.096
-735.025	321.689	0.108	0.209
-734.010	-42.697	0.179	-0.093
-732.996	455.660	-0.167	0.377
-731.981	-109.788	-0.307	-0.066
-730.966	-200.000	0.027	-0.161
-729.952	-179.960	-0.112	-0.002
-728.937	-146.980	-0.098	-0.009
-727.923	800.000	0.085	-0.268
-726.908	800.000	-0.083	0.294
-725.894	-200.000	0.004	0.503
-724.879	92.134	-0.135	0.155
-723.864	800.000	-0.092	-0.313
-722.850	-157.736	0.164	0.010
-721.835	-124.597	-0.118	-0.019
-720.821	196.696	-0.098	-0.152
-719.806	-79.234	0.168	-0.058
-718.791	-52.012	0.264	0.125
-717.777	123.595	-0.150	0.191
-716.762	202.956	-0.195	0.306
-715.748	270.629	0.093	-0.167
-714.733	-199.645	-0.173	0.001
-713.718	162.113	0.141	-0.201
-712.704	-61.742	-0.181	-0.077
-711.689	65.085	-0.186	-0.191
-710.675	18.570	0.151	0.123
-709.660	135.164	-0.150	-0.198
-708.645	-154.633	-0.112	-0.008
-707.631	-200.000	0.056	0.268
-706.616	-200.000	-0.018	-0.205
-705.602	-64.025	0.311	-0.129
-704.587	609.147	-0.140	-0.356
-703.572	-97.618	0.206	-0.054
-702.558	800.000	0.086	-0.251
-701.543	-139.453	0.120	-0.013
-700.529	-200.000	-0.003	0.019
-699.514	-148.406	-0.129	0.011
-698.499	-106.794	-0.039	-0.009
-697.485	-107.441	0.451	-0.100
-696.470	-18.999	-0.283	0.179
-695.456	5.825	-0.110	-0.083
-694.441	43.687	-0.216	-0.201
-693.426	-14.205	-0.474	-0.311
-692.412	-200.000	0.025	-0.492
-691.397	-104.822	0.474	0.111
-690.383	197.803	-0.158	-0.246
-689.368	-54.841	-0.263	-0.121
-688.354	-200.000	-0.028	0.239
-687.339	39.814	0.181	-0.165
-686.324	-200.000	0.041	0.349
-685.310	-200.000	0.000	-0.090
-684.295	800.000	0.044	-0.167
-683.281	49.071	-0.199	-0.190
-682.266	-200.000	0.016	0.127
-681.251	-91.034	0.311	0.091
-680.237	-57.813	0.248	0.110
-679.222	-32.256	0.065	-0.037
-678.208	377.123	0.172	-0.357
-677.193	-200.000	-0.003	0.347
-676.178	-34.750	0.119	0.066
-675.164	-199.598	-0.245	0.001
-674.149	-104.790	-0.224	0.052
-673.135	-30.768	0.164	0.094
-672.120	285.319	-0.086	0.158
-671.105	-2.014	-0.193	0.138
-670.091	-146.727	-0.209	-0.018
-669.076	800.000	-0.071	-0.242
-668.062	-17.893	0.102	0.065
-667.047	-200.000	-0.018	0.160
-666.032	-200.000	-0.036	0.209
-665.018	-38.352	-0.345	-0.185
-664.003	-131.491	-0.359	-0.048
-662.989	-200.000	-0.007	0.069
-661.974	48.362	-0.105	-0.100
-660.959	-200.000	0.008	-0.059
-659.945	-200.000	0.022	-0.272
-658.930	-200.000	-0.045	0.346
-657.916	78.522	0.289	0.314
-656.901	172.145	0.111	-0.162
-655.886	434.998	-0.096	-0.212
-654.872	800.000	-0.048	-0.160
-653.857	-71.157	-0.253	-0.097
-652.843	404.517	-0.152	-0.324
-651.828	-144.294	0.136	-0.013
-650.814	-107.605	0.220	0.049
-649.799	295.165	-0.149	0.276
-648.784	650.421	0.027	0.071
-647.770	156.210	0.229	0.320
-646.755	-55.465	-0.186	-0.084
-645.741	800.000	0.057	0.171
-644.726	-200.000	-0.063	-0.398
-643.711	9.764	-0.097	-0.075
-642.697	800.000	-0.073	0.260
-641.682	410.767	-0.014	0.031
-640.668	-130.135	-0.266	-0.037
-639.653	-102.982	-0.302	0.073
-638.638	-61.677	-0.376	-0.160
-637.624	49.988	-0.202	0.193
-636.609	-200.000	-0.004	0.303
-635.595	-100.804	0.114	0.028
-634.580	58.927	-0.169	-0.168
-633.565	502.833	0.167	-0.391
-632.551	-84.309	0.304	-0.098
-631.536	-54.359	0.296	-0.136
-630.522	800.000	0.078	-0.221
-629.507	-200.000	0.010	-0.162
-628.492	60.132	-0.101	-0.101
-627.478	-200.000	-0.006	-0.339
-626.463	-64.265	-0.088	0.036
-625.449	-85.876	-0.082	-0.026
-624.434	25.363	0.114	0.096
-623.419	-178.302	-0.063	0.001
-622.405	-89.709	0.114	-0.034
-621.390	-40.217	0.119	-0.063
-620.376	-21.548	0.207	0.128
-619.361	97.957	-0.200	0.233
-618.346	-40.317	-0.221	0.117
-617.332	398.255	-0.032	0.067
-616.317	-200.000	-0.022	0.176
-615.303	-46.988	-0.294	0.146
-614.288	-36.650	0.061	-0.033
-613.273	-141.353	0.159	0.016
-612.259	800.000	-0.053	0.172
-611.244	125.340	0.086	-0.110
-610.230	-200.000	-0.048	0.280
-609.215	-200.000	0.024	0.173
-608.201	800.000	0.122	-0.393
-607.186	-33.789	0.369	0.206
-606.171	37.366	0.060	0.054
-605.157	-200.000	-0.042	-0.277
-604.142	-200.000	-0.067	0.411
-603.128	-200.000	-0.001	0.168
-602.113	-122.208	-0.221	-0.037
-601.098	-57.781	0.189	0.084
-600.084	73.792	0.013	-0.014
-599.069	-200.000	0.031	0.153
-598.055	-64.237	0.138	-0.057
-597.040	0.496	0.122	-0.088
-596.025	-115.405	-0.272	0.052
-595.011	-159.216	-0.174	-0.010
-593.996	800.000	0.084	-0.317
-592.982	12.027	0.150	-0.117
-591.967	59.248	0.066	-0.066
-590.952	800.000	0.076	0.313
-589.938	17.961	0.255	-0.205
-588.923	800.000	-0.051	-0.186
-587.909	-18.659	0.156	-0.098
-586.894	-156.215	0.217	-0.014
-585.879	-200.000	-0.032	-0.441
-584.865	-200.000	-0.002	-0.243
-583.850	240.299	-0.159	0.268
-582.836	-42.695	-0.283	0.146
-581.821	32.078	0.121	-0.106
-580.806	438.963	-0.111	0.245
-579.792	-29.602	0.247	-0.143
-578.777	-200.000	0.012	-0.217
-577.763	-200.000	0.013	-0.166
-576.748	800.000	0.097	0.415
-575.733	-132.518	0.125	0.016
-574.719	-160.953	-0.262	0.014
-573.704	-133.342	0.352	-0.045
-572.690	118.261	0.071	0.089
-571.675	-179.388	-0.029	-0.001
-570.661	73.381	-0.132	-0.139
-569.646	-200.000	-0.012	0.158
-568.631	-141.587	-0.083	-0.008
-567.617	-129.473	-0.158	-0.022
-566.602	-100.971	-0.235	-0.058
-565.588	-95.502	-0.099	0.027
-564.573	-140.093	0.052	0.006
-563.558	-200.000	0.005	0.117
-562.544	-44.341	-0.100	-0.051
-561.529	-169.882	-0.383	0.014
-560.515	-200.000	-0.018	-0.242
-559.500	-116.253	-0.099	-0.019
-558.485	-200.000	0.027	-0.266
-557.471	76.981	-0.149	0.160
-556.456	753.454	-0.039	0.106
-555.442	26.321	-0.175	-0.148
-554.427	-59.282	0.158	0.069
-553.412	-83.239	0.120	0.039
-552.398	523.463	-0.041	0.098
-551.383	-200.000	-0.010	-0.096
-550.369	371.928	0.178	0.365
-549.354	436.202	0.046	0.101
-548.339	725.217	-0.077	-0.208
-547.325	-200.000	-0.020	-0.276
-546.310	-90.695	-0.167	-0.049
-545.296	-200.000	-0.038	0.206
-544.281	-74.422	-0.072	0.026
-543.266	-81.510	0.047	0.016
-542.252	282.155	-0.040	-0.072
-541.237	-13.590	0.083	0.054
-540.223	405.333	-0.101	-0.216
-539.208	-22.332	-0.124	0.076
-538.193	-73.369	-0.098	0.036
-537.179	-200.000	-0.046	-0.422
-536.164	-39.440	-0.381	0.202
-535.150	103.092	0.123	0.145
-534.135	-81.626	-0.056	0.019
-533.121	3.238	-0.174	0.128
-532.106	-95.524	-0.201	-0.054
-531.091	148.860	-0.284	-0.388
-530.077	-73.032	-0.301	0.112
-529.062	262.641	0.205	-0.359
-528.048	800.000	-0.061	0.181
-527.033	800.000	0.033	0.117
-526.018	800.000	0.053	-0.197
-525.004	118.440	0.092	-0.115
-523.989	-22.958	-0.339	0.206
-522.975	-200.000	-0.024	0.205
-521.960	800.000	0.078	0.219
-520.945	-138.850	-0.118	-0.013
-519.931	800.000	0.067	-0.193
-518.916	-122.420	-0.208	0.034
-517.902	800.000	-0.033	0.099
-516.887	529.193	0.188	0.448
-515.872	93.687	0.266	-0.304
-514.858	-200.000	-0.046	-0.296
-513.843	47.032	-0.116	-0.109
-512.829	-124.568	-0.360	0.056
-511.814	61.631	-0.099	-0.100
-510.799	-200.000	0.001	-0.029
-509.785	-106.987	0.253	0.056
-508.770	-76.605	-0.259	-0.092
-507.756	-158.732	-0.465	0.027
-506.741	800.000	0.134	-0.416
-505.726	-38.942	-0.169	0.090
-504.712	26.140	-0.198	-0.166
-503.697	315.571	-0.064	0.122
-502.683	2.243	-0.170	-0.124
-501.668	295.417	-0.035	0.065
-500.653	-200.000	-0.001	0.076
-499.639	51.775	-0.257	-0.247
-498.624	-99.309	0.323	0.082
-497.610	-20.954	0.243	0.150
-496.595	800.000	0.038	-0.158
-495.581	211.090	0.138	-0.218
-494.566	-50.854	-0.109	-0.052
-493.551	-50.849	-0.458	0.217
-492.537	616.142	0.128	0.324
-491.522	26.134	0.084	0.071
-490.508	-55.788	-0.116	0.052
-489.493	-56.544	-0.116	0.052
-488.478	800.000	0.042	0.128
-487.464	297.726	0.026	-0.047
-486.449	-200.000	-0.032	-0.189
-485.435	178.920	-0.101	0.150
-484.420	69.767	0.083	0.086
-483.405	177.432	0.116	0.170
-482.391	67.387	0.035	0.036
-481.376	53.395	-0.176	-0.170
-480.362	-200.000	0.031	0.403
-479.347	-161.930	-0.297	0.015
-478.332	412.410	-0.080	-0.172
-477.318	800.000	-0.024	-0.099
-476.303	224.034	-0.199	-0.323
-475.289	800.000	-0.074	0.274
-474.274	800.000	0.064	-0.190
-473.259	206.004	0.201	0.314
-472.245	-120.207	-0.200	0.034
-471.230	-109.870	0.351	-0.074
-470.216	-200.000	0.048	0.357
-469.201	546.661	-0.188	-0.453
-468.186	-18.328	-0.257	-0.162
-467.172	293.491	0.087	0.161
-466.157	-20.376	-0.173	-0.107
-465.143	-53.008	-0.124	-0.057
-464.128	-9.755	-0.248	0.167
-463.113	-84.886	0.362	0.114
-462.099	-200.000	0.006	0.400
-461.084	-200.000	0.085	-0.489
-460.070	-200.000	-0.019	-0.238
-459.055	800.000	-0.089	-0.384
-458.040	-189.928	-0.201	-0.002
-457.026	-200.000	0.051	-0.345
-456.011	157.074	0.103	0.144
-454.997	-38.494	-0.175	0.093
-453.982	30.141	-0.074	0.064
-452.968	800.000	-0.055	-0.153
-451.953	491.312	0.057	-0.131
-450.938	-20.871	-0.366	0.225
-449.924	23.193	0.144	-0.119
-448.909	-83.495	-0.317	-0.102
-447.895	-200.000	0.065	0.433
-446.880	-200.000	0.038	-0.261
-445.865	-64.036	-0.355	0.146
-444.851	39.136	0.054	0.049
-443.836	139.743	-0.028	0.037
-442.822	800.000	0.016	0.047
-441.807	236.285	-0.069	-0.115
-440.792	800.000	0.027	0.100
-439.778	-96.106	0.295	0.079
-438.763	800.000	0.040	0.158
-437.749	-68.228	-0.164	0.064
-436.734	-41.683	0.364	0.188
-435.719	197.730	-0.026	-0.039
-434.705	181.052	0.062	-0.092
-433.690	244.435	-0.179	-0.303
-432.676	-44.381	0.330	-0.166
-431.661	111.880	0.124	0.151
-430.646	169.238	0.265	0.380
-429.632	-200.000	-0.028	-0.175
-428.617	800.000	0.045	0.186
-427.603	17.142	0.279	-0.222
-426.588	-46.644	0.148	0.073
-425.573	-159.065	-0.301	-0.017
-424.559	-200.000	0.005	-0.110
-423.544	-200.000	0.020	0.229
-422.530	-132.233	0.180	-0.023
-421.515	-117.464	0.045	0.008
-420.500	-137.111	-0.310	0.036
-419.486	-36.726	-0.127	0.068
-418.471	800.000	0.095	-0.401
-417.457	197.957	-0.079	-0.122
-416.442	254.014	0.136	-0.233
-415.428	412.780	-0.049	-0.105
-414.413	-25.740	0.040	0.023
-413.398	-200.000	-0.028	-0.230
-412.384	14.334	0.239	-0.187
-411.369	-200.000	-0.010	-0.115
-410.355	233.385	0.033	-0.055
-409.340	-19.121	-0.133	0.083
-408.325	0.524	0.241	-0.173
-407.311	-20.642	-0.106	-0.066
-406.296	22.648	0.196	-0.161
-405.282	-80.615	0.360	-0.121
-404.267	394.460	-0.107	-0.225
-403.252	178.735	0.273	-0.401
-402.238	-55.476	0.025	-0.011
-401.223	122.153	-0.130	0.163
-400.209	5.304	-0.081	0.060
-399.194	-167.356	0.270	0.011
-398.179	-108.492	0.338	0.073
-397.165	7.105	-0.155	0.116
-396.150	-172.946	0.220	0.007
-395.136	-107.534	-0.139	0.031
-394.121	-127.928	-0.020	0.003
-393.106	-57.678	-0.177	0.078
-392.092	-92.235	-0.228	-0.065
-391.077	-200.000	-0.022	0.099
-390.063	596.161	0.121	-0.302
-389.048	-200.000	-0.024	-0.425
-388.033	-200.000	0.014	-0.155
-387.019	78.885	-0.049	0.053
-386.004	800.000	-0.037	0.146
-384.990	-200.000	-0.229	0.000
-383.975	-200.000	-0.003	0.061
-382.960	-200.000	0.019	0.102
-381.946	-96.161	0.211	-0.056
-380.931	71.131	-0.152	0.158
-379.917	-200.000	-0.010	0.063
-378.902	-81.057	-0.338	0.112
-377.888	-161.340	-0.254	0.013
-376.873	28.232	0.018	0.015
-375.858	-159.982	0.048	-0.003
-374.844	6.524	-0.049	0.037
-373.829	182.822	0.087	-0.128
-372.815	-26.415	0.303	0.178
-371.800	-21.616	0.217	0.132
-370.785	-74.235	-0.117	0.043
-369.771	-200.000	-0.023	0.260
-368.756	211.117	-0.122	-0.192
-367.742	200.869	0.079	0.122
-366.727	-70.549	0.147	-0.056
-365.712	-84.117	-0.448	-0.143
-364.698	36.600	0.152	0.135
-363.683	-158.948	-0.247	0.014
-362.669	208.550	0.175	-0.274
-361.654	-200.000	0.017	-0.437
-360.639	-105.727	0.253	0.057
-359.625	-200.000	0.018	-0.123
-358.610	75.081	0.079	-0.084
-357.596	64.135	0.071	0.072
-356.581	-56.884	0.327	0.145
-355.566	14.872	-0.087	0.068
-354.552	751.999	0.066	0.179
-353.537	303.685	0.128	-0.237
-352.523	-28.781	-0.165	0.095
-351.508	-105.561	-0.233	0.053
-350.493	800.000	0.094	0.276
-349.479	800.000	-0.119	0.335
-348.464	177.096	-0.385	0.561
-347.450	-160.720	-0.117	0.006
-346.435	-31.262	-0.113	-0.064
-345.420	-98.906	0.315	-0.080
-344.406	-88.068	0.133	-0.040
-343.391	281.936	0.097	-0.175
-342.377	-40.296	-0.236	-0.123
-341.362	-200.000	-0.008	0.189
-340.348	800.000	-0.069	0.217
-339.333	-47.845	-0.101	0.049
-338.318	-90.099	0.267	-0.078
-337.304	-200.000	0.008	0.269
-336.289	-115.532	-0.154	0.029
-335.275	12.452	0.285	0.220
-334.260	325.653	-0.229	0.438
-333.245	-54.081	-0.137	0.063
-332.231	27.861	0.074	-0.062
-331.216	800.000	0.069	-0.191
-330.202	314.149	0.143	-0.270
-329.187	253.195	0.110	-0.188
-328.172	37.509	0.103	0.091
-327.158	218.036	0.041	0.065
-326.143	-164.989	-0.145	0.006
-325.129	-200.000	0.001	-0.079
-324.114	-92.136	0.194	-0.055
-323.099	146.388	0.016	-0.021
-322.085	227.456	-0.145	-0.236
-321.070	127.769	-0.109	0.138
-320.056	171.819	-0.094	-0.136
-319.041	475.149	0.145	-0.328
-318.026	10.482	-0.045	0.034
-317.012	627.207	-0.040	0.101
-315.997	-61.348	-0.167	0.070
-314.983	-146.568	0.346	-0.030
-313.968	-200.000	-0.009	-0.149
-312.953	-8.939	0.092	-0.062
-311.939	-160.011	-0.059	0.003
-310.924	-183.326	0.245	-0.004
-309.910	-200.000	-0.060	0.371
-308.895	-200.000	-0.053	0.343
-307.880	-200.000	-0.022	-0.118
-306.866	-153.986	-0.076	-0.005
-305.851	-200.000	0.034	0.543
-304.837	-200.000	-0.008	0.090
-303.822	800.000	-0.076	-0.274
-302.807	-200.000	-0.020	0.218
-301.793	684.491	0.103	0.269
-300.778	-117.754	-0.180	-0.032
-299.764	-125.737	-0.029	-0.004
-298.749	-141.996	-0.411	0.041
-297.735	-200.000	-0.148	-0.001
-296.720	-200.000	0.023	-0.219
-295.705	-200.000	-0.034	-0.181
-294.691	329.088	0.045	0.087
-293.676	244.871	-0.059	-0.099
-292.662	-12.155	0.187	0.122
-291.647	-1.397	0.206	0.145
-290.632	257.310	0.107	-0.184
-289.618	-42.286	0.088	-0.045
-288.603	-138.985	-0.443	0.048
-287.589	566.667	-0.020	-0.048
-286.574	800.000	0.028	-0.121
-285.559	-58.866	0.109	-0.047
-284.545	-35.241	-0.348	-0.190
-283.530	70.685	0.063	0.065
-282.516	-46.676	-0.109	0.053
-281.501	467.060	-0.065	0.146
-280.486	89.686	-0.172	0.191
-279.472	800.000	-0.097	-0.329
-278.457	259.914	0.064	0.110
-277.443	168.798	-0.129	-0.184
-276.428	424.898	0.136	0.292
-275.413	-33.417	0.176	-0.097
-274.399	-90.455	-0.320	-0.093
-273.384	685.438	0.071	0.185
-272.370	-200.000	-0.020	0.288
-271.355	188.834	-0.178	0.267
-270.340	297.268	0.057	0.104
-269.326	12.396	0.113	0.087
-268.311	-57.065	0.279	-0.123
-267.297	-200.000	-0.005	0.338
-266.282	627.214	0.067	-0.170
-265.267	-52.083	0.461	-0.214
-264.253	-94.358	0.328	-0.089
-263.238	300.025	-0.151	0.279
-262.224	365.857	-0.062	0.124
-261.209	800.000	-0.027	-0.109
-260.195	76.963	0.210	0.223
-259.180	8.633	-0.233	-0.176
-258.165	-200.000	0.002	0.152
-257.151	186.642	0.068	0.101
-256.136	304.542	-0.080	-0.148
-255.122	-59.984	-0.190	0.081
-254.107	-200.000	0.035	-0.000
-253.092	5.921	0.255	-0.188
-252.078	115.323	-0.018	0.022
-251.063	-168.194	0.225	0.009
-250.049	800.000	0.071	-0.207
-249.034	676.808	0.072	-0.187
-248.019	169.792	-0.180	-0.257
-247.005	105.429	0.189	0.223
-245.990	-29.273	0.181	0.104
-244.976	68.375	-0.150	-0.153
-243.961	-200.000	-0.031	0.236
-242.946	-200.000	-0.010	0.135
-241.932	131.954	0.353	0.453
-240.917	14.232	-0.362	0.282
-239.903	-147.675	-0.249	-0.021
-238.888	-18.080	0.105	0.065
-237.873	-128.450	-0.205	-0.029
-236.859	-135.333	-0.086	0.010
-235.844	96.614	-0.029	0.033
-234.830	248.499	0.282	0.476
-233.815	-8.180	0.126	0.084
-232.800	-11.062	0.147	-0.097
-231.786	-126.221	-0.302	0.045
-230.771	-27.997	0.075	-0.044
-229.757	-51.136	0.084	0.039
-228.742	-30.906	0.252	0.142
-227.727	44.151	0.188	-0.172
-226.713	143.309	0.077	-0.102
-225.698	-200.000	0.036	-0.194
-224.684	71.659	-0.160	-0.165
-223.669	-54.018	0.080	0.036
-222.655	12.071	0.291	0.223
-221.640	-83.571	0.047	0.015
-220.625	-58.010	0.147	-0.064
-219.611	7.686	-0.148	0.110
-218.596	373.220	0.013	-0.027
-217.582	-200.000	0.031	0.205
-216.567	-109.102	0.066	0.014
-215.552	-200.000	-0.030	-0.300
-214.538	-132.629	0.278	0.036
-213.523	121.589	0.075	-0.093
-212.509	-200.000	-0.038	-0.264
-211.494	-35.902	0.335	0.181
-210.479	46.530	0.148	-0.137
-209.465	211.251	0.197	-0.309
-208.450	232.789	0.094	-0.155
-207.436	78.328	0.396	0.422
-206.421	800.000	-0.034	0.104
-205.406	-97.896	0.105	-0.027
-204.392	-57.509	-0.047	-0.020
-203.377	-132.634	-0.460	0.059
-202.363	-73.352	0.094	-0.034
-201.348	-200.000	0.030	0.266
-200.333	78.060	-0.065	0.069
-199.319	-122.668	0.423	-0.068
-198.304	-200.000	0.017	0.225
-197.290	-200.000	-0.002	0.165
-196.275	-200.000	-0.024	-0.214
-195.260	163.771	-0.026	-0.036
-194.246	800.000	-0.005	-0.016
-193.231	212.106	0.084	-0.132
-192.217	30.972	0.243	0.207
-191.202	1.457	-0.258	-0.185
-190.187	-78.844	0.398	0.135
-189.173	-116.815	0.060	-0.011
-188.158	-116.679	-0.285	-0.052
-187.144	-44.964	0.429	-0.213
-186.129	0.741	-0.148	0.106
-185.114	682.343	-0.035	-0.091
-184.100	-94.075	0.217	-0.059
-183.085	168.512	-0.104	-0.148
-182.071	-200.000	-0.057	-0.281
-181.056	800.000	-0.072	-0.303
-180.042	-200.000	0.038	-0.426
-179.027	-0.136	-0.247	0.175
-178.012	-121.807	0.341	-0.056
-176.998	37.894	-0.088	0.078
-175.983	-137.586	0.245	-0.027
-174.969	-121.092	0.275	-0.046
-173.954	-171.964	0.277	-0.009
-172.939	32.101	0.111	-0.095
-171.925	48.654	0.065	0.061
-170.910	394.663	-0.146	-0.303
-169.896	-15.935	0.143	0.091
-168.881	52.922	-0.221	0.210
-167.866	-37.923	0.180	0.095
-166.852	-38.027	0.117	-0.062
-165.837	23.810	0.236	-0.194
-164.823	-31.639	-0.280	0.157
-163.808	96.715	-0.270	0.308
-162.793	142.441	0.030	-0.040
-161.779	292.756	-0.090	-0.163
-160.764	-200.000	0.006	-0.175
-159.750	41.747	-0.042	-0.038
-158.735	-200.000	0.017	0.291
-157.720	-200.000	0.036	-0.281
-156.706	-200.000	0.021	-0.110
-155.691	-200.000	0.041	0.624
-154.677	152.530	-0.075	0.102
-153.662	800.000	-0.137	-0.419
-152.647	-190.147	0.066	-0.001
-151.633	-107.502	0.348	0.076
-150.618	-66.152	0.143	-0.057
-149.604	800.000	-0.058	0.192
-148.589	-26.976	-0.249	0.145
-147.574	-134.376	-0.124	0.015
-146.560	-200.000	-0.017	-0.104
-145.545	-147.415	0.022	-0.002
-144.531	-200.000	0.004	-0.261
-143.516	345.771	-0.076	0.149
-142.502	689.209	0.171	0.445
-141.487	24.430	0.164	0.135
-140.472	-128.750	-0.015	-0.002
-139.458	-200.000	0.048	0.268
-138.443	316.916	-0.118	0.222
-137.429	598.528	0.118	0.291
-136.414	174.010	0.244	0.351
-135.399	-86.062	0.162	0.050
-134.385	-200.000	0.010	-0.312
-133.370	-108.403	0.506	-0.108
-132.356	-200.000	-0.047	-0.343
-131.341	800.000	0.085	0.368
-130.326	800.000	-0.091	0.321
-129.312	-116.221	0.159	0.029
-128.297	96.085	0.214	-0.243
-127.283	-135.315	0.175	-0.021
-126.268	800.000	0.089	-0.248
-125.253	-9.069	-0.329	-0.219
-124.239	271.481	-0.118	0.206
-123.224	-90.945	-0.263	0.075
-122.210	88.224	0.228	-0.252
