DTS Sentinel unit serial number:	SN413079Multiplexer serial number:	ORYXHardware model number:	OX4-SRSoftware version number:	ORYX F/W v4.00 Oryx Data Collector v3.7.2.0data status	okinstallation	princeton_trtdifferential loss correction	single-endedforward channel	channel 3reverse channel	N/Adate	2019/09/16time	05:28:35forward acquisition time	60.00reverse acquisition time	0.00gamma	496.2192k internal	0.2335k external	0.2335temperature offset calibration	0.9959default loss term (dB/km)	0.3790temperature slope calibration	1.0000multiplexer offset coefficient	1.0000multiplexer slope coefficient	1.0000fibre end	0.00T internal ref (°C)	27.27T ext. ref 1 (°C)	11.11T ext. ref 2 (°C)	22.09length (m)	temperature (°C)	Stokes	anti-Stokes-747.200	37.340	-0.034	0.030
-746.185	-121.468	-0.088	0.015
-745.171	55.683	-0.111	-0.108
-744.156	-60.384	0.062	0.026
-743.142	-105.209	-0.143	-0.033
-742.127	-200.000	-0.050	0.285
-741.112	-175.318	-0.153	-0.004
-740.098	-200.000	0.062	-0.343
-739.083	86.174	0.164	0.182
-738.069	-125.515	-0.114	0.017
-737.054	625.384	0.050	0.126
-736.039	-148.401	-0.226	0.019
-735.025	-35.436	-0.056	0.031
-734.010	-135.141	-0.112	-0.014
-732.996	-200.000	0.041	-0.197
-731.981	800.000	-0.025	0.101
-730.966	-147.539	0.117	0.010
-729.952	-200.000	-0.074	0.344
-728.937	15.981	0.138	-0.109
-727.923	-28.208	-0.277	-0.161
-726.908	90.427	-0.346	-0.389
-725.894	800.000	-0.058	0.181
-724.879	106.423	-0.318	0.379
-723.864	305.831	-0.109	0.204
-722.850	-112.603	-0.058	-0.012
-721.835	272.178	-0.066	-0.117
-720.821	190.682	-0.100	0.151
-719.806	441.385	-0.169	-0.371
-718.791	-18.869	-0.206	-0.129
-717.777	-118.113	0.107	0.019
-716.762	-200.000	-0.014	-0.121
-715.748	-200.000	0.010	0.105
-714.733	123.539	0.125	0.158
-713.718	-200.000	-0.022	-0.183
-712.704	800.000	0.030	0.113
-711.689	800.000	-0.096	-0.349
-710.675	-200.000	0.022	-0.180
-709.660	127.169	-0.085	-0.109
-708.645	214.023	0.107	0.171
-707.631	-44.196	-0.021	0.011
-706.616	267.957	-0.072	-0.126
-705.602	255.710	-0.182	0.314
-704.587	37.841	-0.064	-0.057
-703.572	-54.965	-0.191	0.086
-702.558	63.113	0.175	-0.176
-701.543	-0.941	0.074	0.052
-700.529	-34.136	-0.052	0.029
-699.514	27.866	0.103	-0.087
-698.499	464.368	-0.057	0.127
-697.485	225.542	0.157	-0.255
-696.470	237.103	0.189	-0.315
-695.456	-82.960	-0.241	0.078
-694.441	-177.762	0.518	-0.013
-693.426	518.629	0.097	0.228
-692.412	430.127	0.112	-0.243
-691.397	-200.000	0.021	-0.209
-690.383	800.000	-0.087	-0.263
-689.368	800.000	0.004	0.017
-688.354	-31.695	0.469	-0.264
-687.339	4.521	-0.307	-0.226
-686.324	-63.751	0.085	-0.035
-685.310	-200.000	0.006	0.107
-684.295	160.326	-0.198	-0.277
-683.281	-138.920	-0.186	0.020
-682.266	-200.000	0.011	-0.111
-681.251	103.098	-0.090	-0.106
-680.237	-200.000	0.018	0.178
-679.222	92.364	-0.139	0.157
-678.208	-200.000	0.050	-0.341
-677.193	706.562	0.079	-0.210
-676.178	20.032	-0.231	0.187
-675.164	-38.193	0.052	-0.028
-674.149	11.933	0.296	0.228
-673.135	-200.000	-0.100	-0.000
-672.120	-200.000	-0.004	0.053
-671.105	-8.859	0.170	0.114
-670.091	398.322	-0.067	-0.141
-669.076	800.000	-0.132	-0.366
-668.062	800.000	0.125	0.497
-667.047	371.642	-0.089	0.181
-666.032	800.000	-0.069	0.211
-665.018	-200.000	-0.003	-0.038
-664.003	93.914	0.133	-0.151
-662.989	-200.000	-0.048	-0.389
-661.974	631.645	0.115	0.291
-660.959	-65.041	-0.126	0.051
-659.945	13.045	0.243	-0.189
-658.930	95.286	0.181	0.206
-657.916	-200.000	-0.038	-0.306
-656.901	-93.294	0.375	-0.104
-655.886	63.696	-0.110	-0.110
-654.872	-173.418	-0.300	-0.009
-653.857	-20.332	0.110	-0.068
-652.843	800.000	-0.095	-0.317
-651.828	-200.000	-0.060	-0.391
-650.814	-200.000	-0.009	-0.180
-649.799	614.189	0.113	-0.284
-648.784	-16.552	-0.079	-0.050
-647.770	456.139	0.104	0.231
-646.755	372.660	-0.174	0.354
-645.741	280.808	0.054	-0.096
-644.726	212.175	0.074	-0.117
-643.711	-67.116	0.230	0.091
-642.697	56.909	-0.357	-0.349
-641.682	800.000	0.081	0.299
-640.668	58.835	-0.045	-0.044
-639.653	-67.341	0.072	-0.028
-638.638	-90.017	-0.362	-0.106
-637.624	-200.000	-0.030	0.204
-636.609	-82.721	-0.085	0.027
-635.595	-200.000	-0.002	0.025
-634.580	-200.000	0.010	-0.121
-633.565	51.217	-0.292	-0.278
-632.551	794.766	0.167	-0.460
-631.536	800.000	0.027	-0.118
-630.522	-200.000	0.025	-0.175
-629.507	296.756	0.142	-0.260
-628.492	70.283	-0.222	-0.230
-627.478	800.000	0.043	0.166
-626.463	-200.000	0.028	-0.139
-625.449	492.225	-0.058	0.134
-624.434	-165.518	0.404	0.018
-623.419	-124.938	-0.263	-0.041
-622.405	800.000	-0.056	0.202
-621.390	800.000	-0.100	-0.340
-620.376	136.702	0.252	0.329
-619.361	-75.834	-0.057	-0.020
-618.346	-200.000	0.013	-0.322
-617.332	-200.000	-0.044	-0.262
-616.317	81.881	-0.220	-0.239
-615.303	39.249	-0.079	-0.070
-614.288	800.000	-0.098	0.391
-613.273	800.000	0.045	0.178
-612.259	-41.253	0.135	-0.070
-611.244	800.000	-0.009	-0.030
-610.230	202.405	0.106	-0.163
-609.215	-58.523	-0.158	-0.069
-608.201	50.496	0.101	-0.095
-607.186	-30.443	0.118	-0.067
-606.171	97.403	-0.218	0.251
-605.157	-75.563	-0.266	0.094
-604.142	-113.430	-0.352	-0.069
-603.128	-48.940	-0.214	0.102
-602.113	800.000	0.088	0.251
-601.098	-76.376	0.086	0.030
-600.084	-148.222	-0.262	0.022
-599.069	409.007	-0.185	-0.392
-598.055	125.044	-0.049	0.061
-597.040	-45.236	-0.163	-0.081
-596.025	2.722	-0.291	-0.211
-595.011	-97.601	0.123	0.032
-593.996	-125.637	-0.475	0.072
-592.982	-200.000	-0.029	-0.381
-591.967	14.826	0.142	-0.111
-590.952	-147.160	-0.359	-0.031
-589.938	-30.079	0.223	-0.127
-588.923	-105.058	0.181	-0.041
-587.909	800.000	0.068	-0.228
-586.894	265.887	0.149	-0.259
-585.879	800.000	-0.052	0.181
-584.865	336.909	-0.050	-0.096
-583.850	-71.847	0.222	-0.083
-582.836	124.065	0.088	-0.110
-581.821	122.385	-0.069	-0.087
-580.806	-134.449	-0.145	-0.018
-579.792	-78.308	0.114	-0.039
-578.777	-40.247	-0.261	-0.135
-577.763	-62.316	0.478	0.199
-576.748	25.132	-0.231	-0.191
-575.733	55.388	0.134	0.130
-574.719	-104.378	0.027	0.006
-573.704	-114.916	0.003	-0.000
-572.690	218.700	0.119	0.190
-571.675	-23.026	-0.316	0.190
-570.661	13.887	0.166	0.129
-569.646	-2.957	0.047	-0.033
-568.631	142.234	0.183	0.242
-567.617	800.000	-0.044	0.168
-566.602	45.371	0.021	-0.019
-565.588	800.000	-0.061	-0.169
-564.573	50.481	0.471	0.444
-563.558	800.000	-0.024	-0.075
-562.544	-200.000	0.004	0.163
-561.529	65.634	-0.061	0.062
-560.515	-102.743	-0.265	-0.063
-559.500	-200.000	-0.001	-0.038
-558.485	-200.000	-0.010	-0.091
-557.471	2.755	-0.178	0.129
-556.456	91.734	-0.138	-0.155
-555.442	800.000	-0.167	0.475
-554.427	16.416	-0.115	0.091
-553.412	-99.408	0.203	-0.051
-552.398	-3.070	0.041	0.029
-551.383	-150.529	-0.119	-0.009
-550.369	-98.391	-0.284	-0.073
-549.354	12.407	0.151	0.116
-548.339	665.003	0.052	0.135
-547.325	459.461	0.077	0.172
-546.310	-200.000	-0.007	-0.108
-545.296	-200.000	0.045	0.407
-544.281	-35.125	-0.221	0.120
-543.266	-200.000	-0.015	-0.189
-542.252	694.015	-0.188	-0.492
-541.237	66.292	-0.206	0.208
-540.223	-159.779	0.150	-0.008
-539.208	-136.040	0.141	0.017
-538.193	-200.000	-0.033	-0.250
-537.179	800.000	0.099	0.293
-536.164	-69.328	0.110	-0.042
-535.150	478.515	0.241	0.544
-534.135	-175.288	-0.213	-0.006
-533.121	1.217	0.120	0.086
-532.106	239.430	0.113	-0.188
-531.091	73.922	0.272	-0.284
-530.077	28.731	0.297	0.251
-529.062	208.600	0.017	-0.027
-528.048	113.888	-0.137	0.166
-527.033	32.662	0.188	0.162
-526.018	117.674	-0.060	-0.074
-525.004	520.618	0.098	0.229
-523.989	-200.000	0.015	0.134
-522.975	-15.796	0.085	-0.054
-521.960	800.000	-0.034	-0.127
-520.945	-200.000	0.053	0.317
-519.931	-13.214	-0.123	-0.080
-518.916	122.847	-0.085	0.106
-517.902	23.292	-0.046	0.038
-516.887	-166.804	-0.222	-0.009
-515.872	-88.318	0.191	0.057
-514.858	303.397	-0.097	-0.179
-513.843	166.246	0.281	-0.397
-512.829	-200.000	0.078	-0.413
-511.814	-49.815	0.531	0.251
-510.799	800.000	-0.067	0.200
-509.785	795.281	-0.087	-0.238
-508.770	188.824	0.102	0.152
-507.756	111.265	-0.337	0.405
-506.741	-29.568	-0.279	-0.158
-505.726	-147.314	-0.166	0.014
-504.712	-54.661	-0.425	0.191
-503.697	-101.399	0.154	-0.037
-502.683	200.938	0.210	0.321
-501.668	-200.000	0.050	0.308
-500.653	-123.245	-0.270	0.043
-499.639	462.352	-0.131	-0.292
-498.624	384.484	-0.070	-0.143
-497.610	800.000	0.097	0.306
-496.595	89.718	-0.280	0.311
-495.581	-113.805	-0.192	-0.037
-494.566	123.595	0.078	-0.097
-493.551	-46.988	0.394	-0.191
-492.537	800.000	0.021	0.063
-491.522	-146.776	0.118	0.010
-490.508	3.011	0.068	-0.049
-489.493	-144.581	-0.569	-0.052
-488.478	-99.665	-0.238	-0.059
-487.464	-127.519	0.366	-0.053
-486.449	-75.974	-0.146	-0.051
-485.435	4.097	-0.384	-0.279
-484.420	-200.000	0.036	-0.326
-483.405	-29.533	0.134	0.076
-482.391	800.000	-0.095	-0.396
-481.376	256.900	0.074	0.127
-480.362	-68.177	-0.263	0.102
-479.347	66.744	0.418	-0.423
-478.332	8.000	-0.105	-0.078
-477.318	800.000	-0.058	-0.245
-476.303	9.333	0.080	-0.060
-475.289	-40.173	0.189	0.098
-474.274	30.671	-0.098	0.083
-473.259	227.263	-0.049	0.079
-472.245	193.457	0.063	0.095
-471.230	715.588	0.037	0.096
-470.216	-200.000	0.013	-0.062
-469.201	-79.594	-0.217	0.073
-468.186	-35.389	0.182	-0.099
-467.172	-16.924	-0.221	-0.139
-466.157	-154.505	-0.180	0.012
-465.143	800.000	-0.080	-0.284
-464.128	-200.000	0.008	-0.244
-463.113	-9.565	0.010	0.006
-462.099	-122.506	0.221	-0.036
-461.084	159.071	0.199	-0.275
-460.070	25.819	-0.054	-0.045
-459.055	-171.983	0.127	0.004
-458.040	226.234	-0.179	-0.288
-457.026	-39.480	0.198	-0.103
-456.011	7.003	0.108	-0.080
-454.997	61.815	-0.252	-0.250
-453.982	-91.348	0.302	-0.086
-452.968	344.901	0.116	0.225
-451.953	-108.458	-0.027	0.006
-450.938	-152.999	0.194	0.014
-449.924	-27.143	-0.092	-0.053
-448.909	35.919	0.112	-0.098
-447.895	-126.786	-0.369	-0.054
-446.880	-0.485	-0.298	-0.210
-445.865	-119.387	-0.236	-0.041
-444.851	-50.569	0.139	0.065
-443.836	-200.000	0.010	0.057
-442.822	-200.000	0.002	0.277
-441.807	-41.720	0.248	0.126
-440.792	-200.000	0.009	-0.308
-439.778	495.617	0.093	0.212
-438.763	-81.065	0.362	0.119
-437.749	158.597	-0.067	-0.092
-436.734	-71.561	0.211	0.078
-435.719	-53.167	0.548	0.250
-434.705	800.000	-0.040	0.125
-433.690	-133.813	0.389	-0.048
-432.676	-97.210	-0.124	-0.032
-431.661	351.223	0.053	0.104
-430.646	-157.154	-0.173	0.010
-429.632	-56.122	0.389	0.172
-428.617	-159.189	-0.174	-0.010
-427.603	612.639	-0.107	-0.266
-426.588	10.449	-0.104	0.078
-425.573	-200.000	0.003	-0.195
-424.559	800.000	-0.106	-0.335
-423.544	487.685	-0.052	0.117
-422.530	800.000	0.016	0.043
-421.515	-65.700	0.127	-0.051
-420.500	-99.815	0.232	-0.058
-419.486	306.812	-0.120	0.221
-418.471	153.816	-0.138	0.187
-417.457	-26.586	-0.181	-0.105
-416.442	-59.712	-0.016	-0.007
-415.428	-196.826	-0.378	0.002
-414.413	267.794	-0.194	0.337
-413.398	-200.000	0.001	-0.320
-412.384	94.427	-0.022	-0.025
-411.369	-20.657	0.203	-0.124
-410.355	-34.443	-0.126	0.068
-409.340	-85.870	0.337	-0.103
-408.325	800.000	-0.034	0.122
-407.311	-158.745	0.140	0.008
-406.296	-91.443	-0.389	0.110
-405.282	162.970	0.197	-0.275
-404.267	-200.000	-0.003	0.037
-403.252	412.911	-0.101	-0.214
-402.238	-136.266	0.356	0.041
-401.223	-200.000	0.018	0.262
-400.209	323.486	0.128	-0.241
-399.194	-200.000	-0.007	-0.056
-398.179	-119.326	-0.234	-0.040
-397.165	-200.000	-0.027	-0.194
-396.150	6.172	-0.066	0.048
-395.136	-186.915	0.068	-0.001
-394.121	626.570	-0.114	0.285
-393.106	-200.000	0.033	-0.318
-392.092	99.871	-0.226	0.260
-391.077	800.000	-0.026	0.076
-390.063	10.007	0.306	0.230
-389.048	-200.000	-0.026	-0.158
-388.033	81.183	-0.252	0.270
-387.019	-88.516	-0.251	-0.074
-386.004	-30.655	0.093	0.052
-384.990	800.000	0.079	-0.257
-383.975	-200.000	0.009	0.062
-382.960	-200.000	0.048	-0.220
-381.946	-200.000	0.009	0.338
-380.931	-86.031	-0.296	0.091
-379.917	-200.000	-0.054	0.377
-378.902	310.729	0.134	-0.249
-377.888	-149.922	0.281	0.022
-376.873	-104.122	0.451	-0.104
-375.858	-185.023	-0.424	0.007
-374.844	-47.527	0.078	-0.038
-373.829	334.476	0.092	-0.176
-372.815	297.746	-0.060	0.109
-371.800	-164.935	-0.219	-0.010
-370.785	186.624	0.143	-0.211
-369.771	158.302	-0.126	-0.172
-368.756	800.000	0.034	-0.097
-367.742	612.410	-0.044	-0.109
-366.727	-42.103	-0.320	0.162
-365.712	31.421	0.325	-0.276
-364.698	-58.102	0.134	-0.058
-363.683	-95.663	0.275	-0.073
-362.669	60.680	0.018	-0.018
-361.654	-200.000	-0.017	0.102
-360.639	-20.294	-0.266	0.162
-359.625	-74.307	0.313	-0.112
-358.610	759.543	0.057	0.153
-357.596	-176.332	-0.100	-0.003
-356.581	7.151	0.087	0.064
-355.566	6.125	0.134	-0.098
-354.552	-200.000	0.001	0.055
-353.537	134.575	-0.089	0.115
-352.523	-102.501	-0.284	0.067
-351.508	-108.584	-0.390	0.083
-350.493	-39.197	-0.136	-0.071
-349.479	-117.681	-0.379	-0.068
-348.464	-114.300	0.100	0.019
-347.450	136.086	-0.224	0.289
-346.435	106.457	-0.111	-0.130
-345.420	-6.896	-0.195	0.131
-344.406	-61.131	-0.321	0.134
-343.391	52.602	0.218	0.206
-342.377	-33.242	-0.123	0.067
-341.362	800.000	0.052	0.187
-340.348	-96.317	0.143	0.037
-339.333	227.194	0.164	-0.264
-338.318	-118.585	0.281	-0.049
-337.304	147.586	-0.251	0.334
-336.289	800.000	-0.049	0.140
-335.275	-115.646	0.218	0.040
-334.260	-155.747	0.207	-0.013
-333.245	71.376	-0.075	-0.077
-332.231	174.695	-0.204	-0.292
-331.216	77.260	0.246	0.258
-330.202	-33.206	-0.187	-0.103
-329.187	-118.725	0.054	0.009
-328.172	116.327	0.241	0.292
-327.158	-200.000	-0.004	0.107
-326.143	-131.289	-0.204	0.027
-325.129	-179.286	0.572	-0.013
-324.114	-74.969	-0.339	0.120
-323.099	-127.316	-0.212	-0.031
-322.085	13.302	0.150	0.115
-321.070	-169.536	0.126	0.005
-320.056	1.094	-0.183	-0.130
-319.041	-176.153	-0.140	-0.004
-318.026	134.896	-0.102	-0.131
-317.012	286.232	0.129	-0.229
-315.997	284.366	-0.142	0.252
-314.983	120.873	0.139	0.170
-313.968	-185.283	-0.239	0.004
-312.953	-200.000	-0.004	-0.207
-311.939	-200.000	0.003	-0.108
-310.924	64.386	0.187	0.186
-309.910	-200.000	0.011	0.135
-308.895	365.572	0.060	-0.119
-307.880	800.000	-0.104	0.293
-306.866	-200.000	0.009	0.053
-305.851	-44.915	-0.178	0.088
-304.837	-200.000	0.064	-0.463
-303.822	-108.036	0.061	0.013
-302.807	-117.036	-0.247	-0.045
-301.793	-170.219	0.067	0.002
-300.778	366.059	0.063	-0.126
-299.764	189.569	0.048	0.071
-298.749	46.755	0.104	0.096
-297.735	-102.988	-0.242	0.057
-296.720	-123.117	0.130	0.021
-295.705	-200.000	-0.046	0.257
-294.691	174.686	-0.154	0.220
-293.676	199.503	-0.174	-0.263
-292.662	-42.062	-0.168	0.085
-291.647	800.000	0.091	-0.256
-290.632	-157.526	0.274	-0.016
-289.618	-85.183	-0.249	0.077
-288.603	-18.416	0.123	0.076
-287.589	-200.000	-0.003	0.071
-286.574	-75.493	0.090	-0.032
-285.559	-200.000	-0.020	-0.103
-284.545	-9.453	0.216	-0.142
-283.530	800.000	-0.019	0.065
-282.516	800.000	0.059	0.218
-281.501	-81.587	0.345	-0.112
-280.486	800.000	0.065	0.230
-279.472	249.402	-0.052	-0.087
-278.457	-20.586	-0.163	-0.099
-277.443	60.556	-0.187	0.182
-276.428	49.769	-0.264	-0.245
-275.413	800.000	0.027	-0.105
-274.399	-124.561	-0.296	-0.045
-273.384	267.609	0.157	-0.271
-272.370	800.000	-0.040	0.134
-271.355	75.017	0.037	-0.038
-270.340	-120.379	0.113	0.019
-269.326	164.750	0.208	0.290
-268.311	337.088	0.198	0.380
-267.297	244.840	-0.105	-0.175
-266.282	199.448	-0.147	-0.223
-265.267	-110.921	0.064	-0.013
-264.253	-149.003	0.272	0.022
-263.238	235.500	0.196	-0.319
-262.224	800.000	-0.028	-0.104
-261.209	-77.107	0.115	0.040
-260.195	587.286	0.013	0.030
-259.180	800.000	0.106	0.380
-258.165	39.390	-0.026	0.023
-257.151	138.663	-0.085	0.110
-256.136	24.643	-0.082	0.067
-255.122	119.893	0.237	0.290
-254.107	22.548	-0.175	-0.141
-253.092	-179.089	-0.264	-0.006
-252.078	83.587	-0.118	0.127
-251.063	3.558	0.162	0.117
-250.049	615.529	-0.158	0.389
-249.034	-200.000	0.028	0.128
-248.019	-110.350	0.076	-0.016
-247.005	364.655	-0.107	0.211
-245.990	302.415	-0.128	0.234
-244.976	800.000	0.083	0.336
-243.961	-69.184	0.244	-0.093
-242.946	-158.263	0.094	-0.005
-241.932	-200.000	0.093	-0.442
-240.917	-7.868	0.179	-0.119
-239.903	-0.767	0.060	0.042
-238.888	90.834	0.111	0.123
-237.873	-52.896	-0.205	0.093
-236.859	-3.854	-0.196	0.134
-235.844	-200.000	0.026	0.235
-234.830	-59.687	0.130	-0.055
-233.815	-200.000	-0.012	0.104
-232.800	-67.503	0.070	0.027
-231.786	298.139	-0.057	0.103
-230.771	-115.041	-0.111	-0.021
-229.757	545.373	0.095	-0.224
-228.742	-99.471	-0.168	-0.042
-227.727	175.743	-0.204	-0.291
-226.713	-80.210	0.139	-0.046
-225.698	-200.000	0.074	-0.500
-224.684	194.761	0.135	-0.202
-223.669	-113.769	-0.196	0.038
-222.655	-200.000	0.044	0.202
-221.640	-30.957	0.073	-0.041
-220.625	800.000	-0.075	0.310
-219.611	-200.000	0.054	-0.260
-218.596	221.942	0.083	-0.131
-217.582	-200.000	0.000	-0.244
-216.567	-2.643	0.152	-0.104
-215.552	-87.027	0.378	0.113
-214.538	-200.000	0.008	-0.105
-213.523	-31.715	0.168	-0.093
-212.509	-200.000	-0.067	0.380
-211.494	800.000	-0.092	-0.275
-210.479	332.713	-0.053	-0.100
-209.465	-73.090	0.143	-0.052
-208.450	-200.000	-0.086	-0.452
-207.436	-92.098	-0.234	-0.065
-206.421	-50.430	0.337	0.156
-205.406	-55.023	0.309	0.137
-204.392	-200.000	-0.048	-0.292
-203.377	-200.000	0.045	0.252
-202.363	81.633	-0.131	-0.140
-201.348	-179.039	0.332	0.007
-200.333	-110.977	0.232	0.047
-199.319	-200.000	0.109	0.000
-198.304	-118.597	0.307	-0.053
-197.290	800.000	0.008	0.034
-196.275	167.018	-0.067	-0.094
-195.260	-200.000	-0.052	-0.241
-194.246	73.802	0.293	0.302
-193.231	22.723	-0.145	-0.117
-192.217	800.000	0.111	-0.407
-191.202	35.676	0.211	0.182
-190.187	-200.000	-0.044	0.198
-189.173	-98.821	0.220	0.055
-188.158	-200.000	0.003	0.334
-187.144	-42.342	0.057	0.028
-186.129	149.804	0.043	0.057
-185.114	-99.180	0.325	0.081
-184.100	-116.070	-0.261	-0.048
-183.085	-84.559	-0.038	0.012
-182.071	-119.863	0.082	0.014
-181.056	-16.569	-0.077	-0.048
-180.042	114.502	-0.118	0.142
-179.027	-48.141	0.186	0.088
-178.012	405.570	-0.081	0.169
-176.998	156.397	0.228	0.309
-175.983	-160.443	-0.215	-0.011
-174.969	11.319	-0.249	0.187
-173.954	-56.846	0.355	-0.154
-172.939	-128.566	-0.206	-0.029
-171.925	-57.903	0.242	-0.104
-170.910	29.418	0.286	0.239
-169.896	757.585	0.133	0.354
-168.881	-200.000	0.052	-0.238
-167.866	122.037	-0.163	0.200
-166.852	-16.827	-0.293	0.182
-165.837	68.505	0.139	-0.140
-164.823	53.968	-0.076	0.072
-163.808	-57.756	-0.270	-0.116
-162.793	91.901	-0.207	0.229
-161.779	-5.571	0.176	-0.119
-160.764	158.068	-0.163	-0.222
-159.750	-200.000	0.057	-0.296
-158.735	-158.999	0.172	0.010
-157.720	-75.420	0.064	0.022
-156.706	260.345	-0.227	0.386
-155.691	-1.584	0.194	0.134
-154.677	22.373	-0.254	0.204
-153.662	-200.000	-0.040	-0.342
-152.647	552.327	-0.104	-0.245
-151.633	-12.529	0.077	0.049
-150.618	800.000	-0.133	0.473
-149.604	124.791	0.148	0.183
-148.589	-15.042	0.192	-0.120
-147.574	165.159	0.158	0.219
-146.560	-38.392	-0.094	-0.049
-145.545	-70.183	0.105	-0.039
-144.531	-90.087	0.252	-0.072
-143.516	800.000	-0.048	0.137
-142.502	94.520	-0.097	0.108
-141.487	-107.992	0.126	0.027
-140.472	-17.704	0.079	-0.048
-139.458	-200.000	-0.042	0.238
-138.443	466.818	-0.108	0.238
-137.429	-200.000	-0.034	0.192
-136.414	-3.252	-0.185	0.127
-135.399	-200.000	-0.087	-0.413
-134.385	-98.941	0.073	-0.018
-133.370	381.594	-0.149	-0.301
-132.356	-26.554	-0.325	-0.186
-131.341	-0.148	0.138	-0.096
-130.326	5.098	-0.310	0.224
-129.312	800.000	-0.084	-0.309
-128.297	-111.365	-0.166	0.033
-127.283	-1.258	-0.288	-0.200
-126.268	-128.967	-0.257	-0.035
-125.253	650.232	0.160	0.400
-124.239	800.000	0.089	-0.382
-123.224	23.509	0.251	0.202
-122.210	342.415	0.144	-0.277
-121.195	230.887	-0.282	0.452
