DTS Sentinel unit serial number:	SN413079Multiplexer serial number:	ORYXHardware model number:	OX4-SRSoftware version number:	ORYX F/W v4.00 Oryx Data Collector v3.7.2.0data status	okinstallation	princeton_trtdifferential loss correction	single-endedforward channel	channel 3reverse channel	N/Adate	2019/09/12time	18:13:04forward acquisition time	15.00reverse acquisition time	0.00gamma	496.2192k internal	0.2317k external	0.2317temperature offset calibration	1.0091default loss term (dB/km)	0.3790temperature slope calibration	1.0000multiplexer offset coefficient	1.0000multiplexer slope coefficient	1.0000fibre end	0.00T internal ref (°C)	33.56T ext. ref 1 (°C)	3.02T ext. ref 2 (°C)	28.16length (m)	temperature (°C)	Stokes	anti-Stokes-747.200	-200.000	0.007	-0.036
-746.185	-105.712	-0.814	0.187
-745.171	131.518	-0.063	-0.082
-744.156	-200.000	-0.002	-0.152
-743.142	-29.699	0.900	-0.520
-742.127	466.898	-0.258	0.586
-741.112	-23.475	0.421	-0.256
-740.098	93.874	-0.317	-0.364
-739.083	21.992	0.556	-0.459
-738.069	-200.000	1.053	0.005
-737.054	453.460	0.122	-0.273
-736.039	-116.516	-0.339	-0.063
-735.025	140.558	-0.374	-0.500
-734.010	-200.000	0.100	-1.127
-732.996	800.000	0.228	-0.657
-731.981	-24.160	-0.341	0.206
-730.966	204.708	0.186	0.292
-729.952	-62.648	0.466	-0.196
-728.937	-48.912	-0.359	-0.174
-727.923	229.397	-0.189	-0.312
-726.908	-50.301	-0.428	-0.205
-725.894	-200.000	0.028	-0.631
-724.879	351.979	-0.169	0.338
-723.864	98.868	0.277	0.324
-722.850	-52.034	-0.423	-0.199
-721.835	-60.638	-0.587	-0.252
-720.821	-17.928	0.272	0.172
-719.806	223.569	-0.156	-0.255
-718.791	304.500	-0.057	-0.107
-717.777	-200.000	-0.033	0.309
-716.762	-132.451	-0.712	0.093
-715.748	554.644	0.185	-0.451
-714.733	-137.819	-0.180	0.020
-713.718	-200.000	-0.030	0.232
-712.704	-131.719	0.779	0.103
-711.689	-131.258	-0.382	-0.051
-710.675	-70.270	-0.349	0.134
-709.660	12.404	-0.648	-0.505
-708.645	-127.183	-0.016	0.002
-707.631	663.118	-0.312	-0.814
-706.616	-200.000	-0.067	-0.383
-705.602	253.134	0.311	0.536
-704.587	-135.315	0.566	-0.068
-703.572	-200.000	0.112	0.685
-702.558	28.080	-0.186	-0.159
-701.543	-200.000	0.006	0.270
-700.529	-31.921	-0.072	0.041
-699.514	-42.164	-0.568	-0.294
-698.499	-25.096	-0.287	-0.172
-697.485	-21.293	0.412	-0.255
-696.470	-71.139	-0.204	-0.077
-695.456	-101.887	0.202	-0.049
-694.441	-200.000	0.006	0.132
-693.426	-200.000	-0.142	-0.787
-692.412	76.509	0.133	-0.143
-691.397	-26.601	0.277	-0.164
-690.383	-15.783	0.592	-0.381
-689.368	-126.819	0.566	0.084
-688.354	-200.000	-0.076	-0.967
-687.339	105.880	0.391	0.467
-686.324	139.780	0.675	0.898
-685.310	119.126	-0.326	0.408
-684.295	800.000	-0.020	-0.082
-683.281	-117.289	-0.807	-0.148
-682.266	301.033	0.444	0.828
-681.251	-130.249	-0.462	0.063
-680.237	800.000	-0.207	-0.653
-679.222	-200.000	-0.270	-1.311
-678.208	-200.000	0.090	-0.628
-677.193	-83.875	0.328	0.106
-676.178	205.351	0.117	-0.184
-675.164	-125.538	-0.568	-0.087
-674.149	43.103	0.177	-0.163
-673.135	-69.954	-0.058	0.022
-672.120	-85.287	0.663	-0.209
-671.105	202.149	0.042	0.066
-670.091	391.181	0.106	-0.222
-669.076	616.995	-0.052	0.132
-668.062	-16.891	0.931	-0.594
-667.047	-67.708	0.130	-0.051
-666.032	-159.012	-0.860	0.049
-665.018	360.624	-0.487	-0.984
-664.003	427.009	0.302	-0.658
-662.989	-65.093	0.588	0.239
-661.974	-173.598	-0.869	-0.026
-660.959	-200.000	0.004	1.200
-659.945	-6.631	0.460	-0.316
-658.930	-68.154	-0.648	0.255
-657.916	-44.855	-0.409	-0.206
-656.901	-135.284	0.654	0.079
-655.886	-142.917	-0.469	0.046
-654.872	614.437	0.030	-0.075
-653.857	-33.190	-0.488	0.273
-652.843	255.166	0.448	0.773
-651.828	-200.000	0.043	-0.843
-650.814	35.828	-0.241	0.214
-649.799	168.038	0.534	0.766
-648.784	-34.649	0.195	0.108
-647.770	-13.026	0.382	-0.251
-646.755	-152.804	-0.367	-0.026
-645.741	-140.198	-0.210	-0.022
-644.726	45.544	-0.428	-0.399
-643.711	800.000	0.137	0.575
-642.697	-200.000	0.024	0.672
-641.682	-21.508	-0.488	0.300
-640.668	160.828	0.337	0.475
-639.653	-67.949	0.400	0.157
-638.638	134.714	0.143	-0.188
-637.624	-110.965	0.669	0.139
-636.609	-68.274	0.427	-0.168
-635.595	800.000	-0.112	-0.348
-634.580	-200.000	-0.078	0.543
-633.565	18.250	-0.716	-0.576
-632.551	-122.945	-0.417	-0.068
-631.536	-86.916	-0.521	-0.160
-630.522	-71.009	-0.242	0.092
-629.507	-200.000	-0.041	-0.354
-628.492	-53.673	1.135	0.523
-627.478	-93.040	0.615	-0.173
-626.463	-162.135	-0.542	0.027
-625.449	-32.920	-0.237	0.133
-624.434	-156.148	-0.259	-0.016
-623.419	55.799	-0.239	-0.234
-622.405	-165.010	0.113	0.005
-621.390	-23.715	0.372	0.225
-620.376	266.203	-0.388	-0.683
-619.361	-181.743	0.770	-0.015
-618.346	570.208	0.162	0.397
-617.332	-50.850	-0.560	-0.265
-616.317	38.685	-0.647	-0.581
-615.303	139.460	0.560	0.742
-614.288	-30.896	-0.037	-0.021
-613.273	217.595	0.505	-0.810
-612.259	-44.337	0.634	-0.320
-611.244	-100.346	-0.389	-0.097
-610.230	171.080	-0.262	0.379
-609.215	-104.542	0.483	-0.112
-608.201	-182.775	0.659	0.012
-607.186	476.505	0.270	0.615
-606.171	-94.717	-1.090	-0.298
-605.157	361.274	-0.392	0.792
-604.142	627.346	-0.281	-0.714
-603.128	-105.771	-0.468	0.107
-602.113	-91.574	0.400	-0.115
-601.098	-45.510	-0.122	-0.061
-600.084	-139.341	-0.594	0.064
-599.069	672.054	0.125	0.326
-598.055	87.069	0.335	0.373
-597.040	-165.759	0.015	-0.001
-596.025	800.000	-0.181	-0.584
-595.011	-124.652	-1.284	0.200
-593.996	-44.776	0.667	0.335
-592.982	-147.503	0.076	0.006
-591.967	5.551	0.136	0.101
-590.952	15.834	-0.467	-0.370
-589.938	-190.289	-0.460	0.005
-588.923	-101.274	-0.584	-0.143
-587.909	-124.189	0.683	-0.108
-586.894	160.852	0.190	-0.267
-585.879	46.594	-0.109	0.101
-584.865	-12.583	0.916	0.602
-583.850	-13.623	-0.244	-0.159
-582.836	58.686	0.475	-0.469
-581.821	800.000	-0.111	-0.445
-580.806	-70.157	-0.438	-0.167
-579.792	154.881	-0.322	0.446
-578.777	-97.239	-0.485	-0.127
-577.763	286.129	0.296	-0.537
-576.748	-38.138	-0.649	0.346
-575.733	-133.711	0.473	-0.059
-574.719	612.046	0.145	0.364
-573.704	-112.269	-0.354	-0.071
-572.690	-200.000	0.016	0.086
-571.675	-69.016	-0.451	-0.175
-570.661	-13.031	-0.239	-0.156
-569.646	-36.333	0.349	-0.189
-568.631	800.000	-0.132	-0.424
-567.617	-164.140	-1.029	0.048
-566.602	28.241	-0.584	-0.496
-565.588	-71.583	0.057	0.022
-564.573	-147.029	0.249	0.021
-563.558	25.392	0.581	0.486
-562.544	-113.184	-0.174	-0.034
-561.529	-161.893	-0.623	0.032
-560.515	2.185	0.299	-0.217
-559.500	-35.258	-0.268	-0.147
-558.485	602.124	0.155	-0.387
-557.471	-185.714	0.580	0.009
-556.456	-200.000	0.052	0.936
-555.442	-122.784	0.344	-0.056
-554.427	481.200	-0.226	-0.515
-553.412	91.965	0.272	-0.308
-552.398	210.801	-0.093	0.147
-551.383	155.977	-0.321	0.444
-550.369	337.911	0.132	-0.258
-549.354	731.293	-0.278	0.746
-548.339	249.251	-0.674	-1.147
-547.325	-50.220	-0.466	-0.221
-546.310	-127.133	-0.511	0.075
-545.296	-4.540	-0.107	-0.074
-544.281	800.000	0.012	0.044
-543.266	800.000	-0.316	1.072
-542.252	425.074	-0.198	-0.428
-541.237	296.793	0.177	-0.326
-540.223	-105.046	-0.488	-0.112
-539.208	-200.000	-0.108	-0.570
-538.193	-132.877	-0.604	-0.077
-537.179	-76.334	0.226	0.080
-536.164	76.552	0.792	0.844
-535.150	-101.963	-0.310	-0.075
-534.135	-94.530	-0.220	-0.060
-533.121	-49.754	-0.154	0.073
-532.106	-200.000	-0.009	-0.108
-531.091	800.000	-0.042	-0.169
-530.077	-105.799	0.878	0.199
-529.062	364.223	-0.209	-0.422
-528.048	216.713	-0.272	0.434
-527.033	-200.000	-0.121	0.598
-526.018	285.881	-0.474	0.859
-525.004	-107.281	0.104	-0.023
-523.989	-122.388	0.195	-0.032
-522.975	-67.327	0.677	-0.267
-521.960	148.538	0.022	0.030
-520.945	605.963	0.277	0.693
-519.931	-32.083	-0.327	0.184
-518.916	238.015	-0.363	0.604
-517.902	222.686	0.335	0.542
-516.887	110.758	0.528	0.637
-515.872	601.574	-0.093	0.231
-514.858	-200.000	0.043	0.523
-513.843	-34.022	-0.394	0.217
-512.829	75.907	0.300	0.319
-511.814	-56.277	0.450	-0.201
-510.799	-92.343	-0.874	0.247
-509.785	113.138	0.544	-0.662
-508.770	800.000	0.130	-0.373
-507.756	8.424	-0.606	-0.457
-506.741	-11.107	0.458	-0.303
-505.726	-111.564	0.158	0.032
-504.712	-13.119	0.157	-0.102
-503.697	362.557	-0.257	-0.518
-502.683	-120.736	0.606	-0.103
-501.668	-99.834	-0.510	0.128
-500.653	24.389	-0.166	0.138
-499.639	800.000	-0.155	-0.433
-498.624	260.574	0.330	-0.572
-497.610	-55.783	-0.210	0.094
-496.595	-26.932	0.267	0.156
-495.581	-200.000	-0.025	0.182
-494.566	-45.151	0.937	-0.467
-493.551	800.000	-0.069	-0.279
-492.537	800.000	0.193	-0.644
-491.522	-46.868	0.298	0.146
-490.508	-200.000	0.113	0.673
-489.493	-200.000	-0.031	0.545
-488.478	-93.328	1.030	0.287
-487.464	256.156	-0.390	0.671
-486.449	-65.155	-0.746	-0.302
-485.435	-197.235	0.575	-0.004
-484.420	-200.000	0.013	0.073
-483.405	-200.000	-0.005	0.138
-482.391	62.793	0.669	0.671
-481.376	-193.474	0.672	0.006
-480.362	800.000	0.192	0.560
-479.347	76.576	-0.492	0.523
-478.332	-200.000	0.156	0.736
-477.318	-49.985	0.771	0.366
-476.303	-48.013	-0.214	0.104
-475.289	-4.316	0.328	0.227
-474.274	72.042	0.382	-0.398
-473.259	91.590	0.656	0.739
-472.245	81.294	-0.607	0.657
-471.230	106.044	-0.411	0.487
-470.216	59.822	-0.275	0.272
-469.201	-74.049	0.604	0.219
-468.186	-143.805	-1.017	-0.096
-467.172	-68.805	-0.305	-0.118
-466.157	46.007	-0.245	-0.227
-465.143	-200.000	0.036	0.243
-464.128	-32.637	0.214	0.119
-463.113	800.000	-0.080	0.297
-462.099	661.632	-0.323	-0.834
-461.084	49.425	-0.222	0.209
-460.070	-76.350	-0.461	0.163
-459.055	53.866	0.003	-0.003
-458.040	-200.000	-0.053	0.311
-457.026	-183.216	-0.153	0.003
-456.011	-61.787	0.568	0.238
-454.997	11.287	-0.102	0.078
-453.982	-200.000	0.259	1.138
-452.968	800.000	0.172	-0.602
-451.953	-166.776	0.571	0.024
-450.938	-35.455	-0.166	0.090
-449.924	69.747	-0.290	-0.300
-448.909	117.670	-0.374	0.461
-447.895	800.000	0.271	-0.887
-446.880	-57.113	-0.850	-0.375
-445.865	-20.794	-0.250	0.153
-444.851	-200.000	-0.016	-0.371
-443.836	320.952	-0.344	-0.654
-442.822	800.000	-0.097	-0.405
-441.807	282.608	0.272	0.489
-440.792	-107.877	-0.687	0.150
-439.778	373.684	-0.159	0.324
-438.763	-200.000	0.064	0.296
-437.749	-162.618	-0.266	-0.013
-436.734	-200.000	-0.095	-0.426
-435.719	83.900	0.335	-0.365
-434.705	349.182	0.015	0.029
-433.690	800.000	-0.070	0.247
-432.676	-200.000	-0.004	0.315
-431.661	800.000	0.102	-0.399
-430.646	526.029	0.358	0.842
-429.632	-200.000	0.032	-0.871
-428.617	81.567	-0.176	0.190
-427.603	-84.362	-0.558	0.176
-426.588	-7.568	0.195	0.132
-425.573	380.209	0.060	0.124
-424.559	-148.098	0.635	-0.053
-423.544	-200.000	0.043	0.214
-422.530	89.665	0.198	-0.221
-421.515	168.425	-0.127	0.181
-420.500	-122.349	-0.581	0.095
-419.486	204.766	0.092	-0.143
-418.471	-74.976	0.680	-0.243
-417.457	13.931	-0.089	0.070
-416.442	-6.155	-0.574	-0.392
-415.428	173.013	0.373	0.537
-414.413	140.312	-0.203	-0.268
-413.398	-200.000	-0.124	0.757
-412.384	-200.000	-0.063	-0.735
-411.369	-99.104	0.670	0.170
-410.355	163.014	0.177	0.249
-409.340	-77.321	-0.897	-0.312
-408.325	-118.344	0.812	0.144
-407.311	-200.000	0.036	0.237
-406.296	-69.797	0.462	0.176
-405.282	268.531	0.377	-0.660
-404.267	-200.000	-0.105	-0.945
-403.252	-3.122	0.359	0.250
-402.238	-9.153	0.237	-0.158
-401.223	-40.502	-0.708	0.367
-400.209	-147.129	-1.012	0.086
-399.194	800.000	-0.276	-1.020
-398.179	-41.915	0.430	-0.220
-397.165	-200.000	0.102	0.489
-396.150	39.118	0.470	-0.420
-395.136	-32.571	-0.600	0.334
-394.121	800.000	0.118	0.451
-393.106	117.443	-0.446	-0.548
-392.092	-36.180	0.355	-0.191
-391.077	-200.000	-0.033	-0.408
-390.063	-113.794	0.440	-0.086
-389.048	41.507	0.669	0.605
-388.033	482.301	-0.168	-0.380
-387.019	-200.000	-0.143	-1.046
-386.004	-88.776	0.701	-0.208
-384.990	267.003	0.451	0.788
-383.975	800.000	-0.098	-0.360
-382.960	-200.000	-0.035	0.335
-381.946	-200.000	0.129	-0.597
-380.931	-161.496	0.682	-0.035
-379.917	-92.975	-0.631	0.176
-378.902	-110.770	-0.838	0.173
-377.888	-10.459	-0.464	-0.307
-376.873	800.000	-0.059	0.180
-375.858	70.824	0.180	-0.186
-374.844	800.000	0.134	-0.497
-373.829	127.665	0.452	-0.573
-372.815	48.391	-0.378	-0.353
-371.800	-200.000	-1.133	-0.002
-370.785	642.497	0.105	0.267
-369.771	-172.670	0.273	-0.009
-368.756	800.000	-0.111	0.481
-367.742	-83.311	0.514	0.164
-366.727	151.123	0.292	0.397
-365.712	473.484	0.162	0.364
-364.698	-42.903	0.431	-0.218
-363.683	82.361	-0.512	-0.554
-362.669	-200.000	0.055	-0.777
-361.654	-18.177	-0.572	-0.357
-360.639	-200.000	-0.071	0.461
-359.625	-200.000	0.176	0.840
-358.610	22.990	0.210	0.172
-357.596	-120.869	-0.348	0.058
-356.581	27.924	0.414	-0.348
-355.566	-18.601	-0.112	0.070
-354.552	10.478	-0.369	0.281
-353.537	-52.597	0.534	0.246
-352.523	236.715	0.206	0.340
-351.508	-0.316	-0.176	0.125
-350.493	-200.000	0.033	-0.451
-349.479	21.972	-0.311	-0.253
-348.464	26.927	-0.811	-0.678
-347.450	800.000	-0.109	-0.367
-346.435	-200.000	-0.063	0.384
-345.420	201.371	0.164	-0.252
-344.406	-94.578	0.516	0.140
-343.391	-37.187	0.300	-0.160
-342.377	317.877	-0.045	-0.085
-341.362	800.000	0.236	0.850
-340.348	-170.635	-0.302	-0.010
-339.333	272.398	0.133	0.233
-338.318	800.000	0.047	0.169
-337.304	-69.879	0.656	-0.250
-336.289	160.491	-0.414	-0.576
-335.275	-34.671	0.461	0.251
-334.260	-124.779	0.323	0.050
-333.245	358.387	0.217	-0.432
-332.231	2.873	0.509	-0.368
-331.216	-137.610	0.493	0.055
-330.202	431.054	-0.074	-0.160
-329.187	-200.000	0.145	1.053
-328.172	800.000	0.088	0.362
-327.158	345.325	-0.194	0.379
-326.143	-200.000	0.048	0.265
-325.129	18.391	-0.665	-0.529
-324.114	-200.000	0.052	0.296
-323.099	-11.113	0.584	-0.384
-322.085	58.809	-0.495	0.485
-321.070	-200.000	0.074	0.473
-320.056	7.550	-0.628	-0.468
-319.041	-162.392	-0.690	-0.034
-318.026	-137.242	0.783	0.089
-317.012	800.000	-0.002	-0.008
-315.997	51.541	0.400	0.379
-314.983	185.261	-0.119	-0.176
-313.968	8.644	-0.332	-0.249
-312.953	161.831	0.276	-0.384
-311.939	-11.116	-0.411	0.270
-310.924	-2.473	-0.592	0.413
-309.910	86.503	0.279	0.306
-308.895	-200.000	0.036	-0.756
-307.880	-70.398	-0.661	-0.249
-306.866	-200.000	0.017	0.419
-305.851	-3.467	-0.773	-0.535
-304.837	23.236	-0.163	-0.134
-303.822	60.043	-0.374	0.367
-302.807	509.701	0.108	0.250
-301.793	-108.615	-0.473	0.101
-300.778	141.553	-0.528	0.696
-299.764	324.701	0.273	0.519
-298.749	673.979	-0.127	-0.329
-297.735	174.174	0.490	-0.705
-296.720	800.000	-0.215	-0.713
-295.705	-35.714	1.133	0.611
-294.691	-181.357	0.683	-0.013
-293.676	-170.137	-0.960	0.034
-292.662	44.131	0.390	0.356
-291.647	22.784	0.111	-0.090
-290.632	-73.715	0.256	-0.093
-289.618	-169.141	0.817	0.030
-288.603	-200.000	-0.260	1.354
-287.589	-26.773	0.291	0.169
-286.574	-140.915	0.452	-0.046
-285.559	-50.121	0.339	-0.160
-284.545	800.000	-0.028	0.078
-283.530	-92.303	0.926	-0.260
-282.516	800.000	-0.131	0.518
-281.501	-200.000	0.091	0.432
-280.486	-117.415	0.238	-0.043
-279.472	27.816	0.685	0.574
-278.457	-25.272	0.682	-0.402
-277.443	-200.000	0.078	-0.422
-276.428	-181.354	-0.223	0.004
-275.413	-135.292	-0.076	-0.009
-274.399	-26.294	-0.435	0.254
-273.384	-200.000	-0.057	-0.933
-272.370	18.435	0.201	-0.160
-271.355	-45.475	-0.275	0.135
-270.340	-96.498	-0.986	0.259
-269.326	-200.000	-0.120	0.584
-268.311	17.995	-0.946	0.749
-267.297	670.910	-0.063	0.162
-266.282	17.137	0.231	-0.182
-265.267	800.000	-0.086	0.291
-264.253	37.727	-0.309	0.273
-263.238	800.000	-0.163	-0.486
-262.224	37.934	0.374	-0.330
-261.209	216.015	-0.294	-0.464
-260.195	235.016	0.473	0.775
-259.180	-117.844	-0.298	-0.053
-258.165	-200.000	0.052	-0.691
-257.151	-79.477	-0.601	-0.202
-256.136	-81.588	0.458	-0.150
-255.122	717.113	-0.296	-0.781
-254.107	-32.973	0.958	-0.528
-253.092	-176.566	0.928	0.024
-252.078	19.208	0.832	0.663
-251.063	273.713	0.298	-0.524
-250.049	514.495	-0.420	0.973
-249.034	213.242	0.250	-0.392
-248.019	-84.954	0.744	0.232
-247.005	-134.742	0.250	-0.030
-245.990	-96.067	0.754	0.199
-244.976	11.442	-0.367	-0.279
-243.961	159.481	0.187	0.258
-242.946	-89.543	-0.150	0.044
-241.932	9.816	-0.402	-0.303
-240.917	616.559	0.229	-0.570
-239.903	88.681	-0.578	0.638
-238.888	412.777	-0.100	0.212
-237.873	-8.394	-0.771	-0.515
-236.859	52.341	0.479	-0.454
-235.844	-161.945	0.297	-0.015
-234.830	-200.000	-0.044	0.601
-233.815	34.132	0.315	0.273
-232.800	1.525	-0.830	0.593
-231.786	800.000	0.152	-0.620
-230.771	66.510	0.441	-0.445
-229.757	-200.000	-0.109	0.801
-228.742	464.841	0.089	0.199
-227.727	-118.218	-0.989	-0.175
-226.713	243.379	-0.499	-0.830
-225.698	-189.270	-0.797	-0.009
-224.684	296.963	-0.532	-0.969
-223.669	-200.000	-0.023	-0.974
-222.655	459.452	0.090	0.198
-221.640	-106.173	-0.809	0.180
-220.625	184.206	0.515	0.757
-219.611	-62.258	0.143	-0.059
-218.596	800.000	0.159	-0.636
-217.582	37.164	0.299	-0.263
-216.567	456.569	0.284	0.625
-215.552	-200.000	0.000	-0.724
-214.538	793.519	-0.138	0.376
-213.523	-7.181	0.530	-0.357
-212.509	-153.066	-0.743	0.052
-211.494	241.677	-0.165	0.274
-210.479	-61.257	0.396	0.165
-209.465	-54.200	-0.775	0.349
-208.450	-200.000	0.066	0.455
-207.436	770.879	-0.028	-0.074
-206.421	195.847	-0.471	0.710
-205.406	-7.410	0.343	-0.230
-204.392	61.247	-0.173	-0.171
-203.377	-126.555	0.939	0.138
-202.363	-113.366	-0.452	-0.088
-201.348	103.642	0.437	-0.509
-200.333	-200.000	0.002	-0.619
-199.319	236.866	0.308	-0.505
-198.304	-19.808	0.510	-0.312
-197.290	406.605	0.302	-0.632
-196.275	221.761	-0.224	-0.357
-195.260	-57.526	-0.549	-0.238
-194.246	-200.000	0.062	-0.322
-193.231	-124.294	-1.265	0.196
-192.217	800.000	-0.090	-0.293
-191.202	-200.000	-0.074	-0.336
-190.187	38.263	0.348	0.307
-189.173	54.883	-0.170	-0.163
-188.158	-200.000	-0.036	-0.370
-187.144	-102.434	0.201	0.048
-186.129	175.416	-0.221	-0.317
-185.114	-141.564	-0.554	0.055
-184.100	-111.947	0.552	-0.110
-183.085	14.347	-0.266	-0.206
-182.071	-52.117	0.717	0.330
-181.056	481.479	-0.020	-0.045
-180.042	-40.236	-0.447	-0.230
-179.027	800.000	0.087	-0.345
-178.012	-170.314	0.521	0.018
-176.998	-200.000	0.088	0.630
-175.983	800.000	0.060	-0.212
-174.969	41.002	-0.110	-0.098
-173.954	359.914	0.369	-0.731
-172.939	-200.000	0.143	-0.810
-171.925	2.156	-0.449	-0.321
-170.910	-200.000	-0.021	0.655
-169.896	402.467	-0.104	-0.217
-168.881	16.396	0.102	0.080
-167.866	52.970	0.236	0.223
-166.852	-136.742	0.440	0.050
-165.837	-65.846	-0.441	0.175
-164.823	800.000	0.216	-0.853
-163.808	482.447	0.211	-0.476
-162.793	6.471	0.799	0.588
-161.779	-99.802	0.238	-0.059
-160.764	84.699	0.298	-0.323
-159.750	-200.000	-0.167	1.141
-158.735	114.870	-0.429	-0.518
-157.720	229.649	-0.314	-0.507
-156.706	-58.512	-0.335	-0.144
-155.691	-127.917	-0.620	-0.088
-154.677	-55.332	1.479	0.657
-153.662	221.975	-0.235	0.375
-152.647	-26.566	-0.552	-0.320
-151.633	76.813	-0.178	0.187
-150.618	233.473	-0.964	-1.570
-149.604	-30.981	-0.458	0.256
-148.589	399.553	0.410	0.849
-147.574	-143.270	-0.575	-0.055
-146.560	221.421	0.223	-0.354
-145.545	800.000	-0.460	-1.397
-144.531	-181.504	0.718	0.014
-143.516	287.044	0.208	-0.372
-142.502	-9.909	-0.336	-0.221
-141.487	800.000	0.211	-0.710
-140.472	-124.475	-0.723	0.111
-139.458	17.787	0.591	0.465
-138.443	-200.000	-0.235	-1.160
-137.429	-20.391	0.216	-0.131
-136.414	2.186	-0.328	0.234
-135.399	302.081	0.343	-0.627
-134.385	-200.000	0.037	-0.671
-133.370	-70.158	-0.133	0.050
-132.356	222.735	0.183	-0.291
-131.341	229.847	0.020	-0.032
-130.326	-133.570	-0.525	-0.065
-129.312	800.000	0.073	0.314
-128.297	-89.723	-0.047	-0.013
-127.283	-59.509	-0.436	0.185
-126.268	211.824	0.303	0.472
-125.253	-91.817	-0.058	0.016
-124.239	-125.645	-0.545	-0.082
-123.224	-200.000	-0.004	0.452
-122.210	-200.000	0.169	-0.872
