DTS Sentinel unit serial number:	SN413079Multiplexer serial number:	ORYXHardware model number:	OX4-SRSoftware version number:	ORYX F/W v4.00 Oryx Data Collector v3.7.2.0data status	okinstallation	princeton_trtdifferential loss correction	single-endedforward channel	channel 3reverse channel	N/Adate	2019/09/17time	10:12:34forward acquisition time	60.00reverse acquisition time	0.00gamma	496.2192k internal	0.2323k external	0.2323temperature offset calibration	0.9944default loss term (dB/km)	0.3790temperature slope calibration	1.0000multiplexer offset coefficient	1.0000multiplexer slope coefficient	1.0000fibre end	0.00T internal ref (°C)	29.77T ext. ref 1 (°C)	0.16T ext. ref 2 (°C)	25.31length (m)	temperature (°C)	Stokes	anti-Stokes-747.200	-200.000	0.003	-0.017
-746.185	-60.406	-0.119	0.051
-745.171	-180.905	0.053	-0.001
-744.156	-56.856	0.235	0.105
-743.142	800.000	0.121	-0.476
-742.127	-200.000	0.002	0.379
-741.112	0.504	-0.182	-0.131
-740.098	57.413	0.043	0.043
-739.083	-75.089	0.195	-0.070
-738.069	-161.425	-0.279	-0.015
-737.054	-42.151	-0.159	-0.082
-736.039	-200.000	-0.039	-0.184
-735.025	-64.444	0.157	0.065
-734.010	41.281	-0.257	0.235
-732.996	342.971	-0.172	-0.341
-731.981	800.000	-0.089	0.274
-730.966	-158.086	-0.549	-0.033
-729.952	-93.994	-0.166	0.046
-728.937	-52.294	-0.583	0.273
-727.923	134.882	-0.091	0.119
-726.908	-123.450	-0.276	0.044
-725.894	-84.482	-0.105	-0.033
-724.879	-107.905	0.440	-0.097
-723.864	36.003	-0.340	-0.302
-722.850	-200.000	0.020	0.241
-721.835	-200.000	-0.024	-0.224
-720.821	800.000	0.085	0.275
-719.806	-132.261	-0.252	-0.033
-718.791	153.104	0.191	-0.264
-717.777	47.624	0.151	-0.143
-716.762	580.324	0.040	-0.100
-715.748	-113.549	-0.413	-0.081
-714.733	62.133	-0.124	0.125
-713.718	500.519	0.150	0.349
-712.704	-200.000	0.196	-0.000
-711.689	-49.643	0.074	-0.035
-710.675	-64.825	-0.250	0.102
-709.660	463.616	-0.040	-0.090
-708.645	-64.419	-0.166	0.068
-707.631	185.829	-0.084	-0.126
-706.616	-19.410	-0.081	-0.051
-705.602	-150.954	-0.292	0.022
-704.587	-200.000	0.021	-0.535
-703.572	-123.963	0.131	-0.021
-702.558	159.732	-0.060	0.084
-701.543	-73.458	0.149	-0.055
-700.529	74.941	-0.210	-0.223
-699.514	90.781	0.072	-0.081
-698.499	800.000	-0.059	-0.225
-697.485	431.049	0.112	0.245
-696.470	-136.265	-0.310	0.036
-695.456	-130.511	-0.049	0.007
-694.441	-133.063	-0.269	-0.034
-693.426	-121.883	-0.290	0.048
-692.412	800.000	-0.060	0.191
-691.397	-14.543	0.105	-0.068
-690.383	-105.665	-0.133	-0.030
-689.368	196.058	-0.195	-0.300
-688.354	-38.592	0.130	0.069
-687.339	452.178	0.145	0.323
-686.324	-161.122	0.123	0.006
-685.310	-40.617	0.112	-0.058
-684.295	-135.809	-0.409	0.049
-683.281	-97.654	-0.378	-0.099
-682.266	-98.881	-0.168	0.043
-681.251	-100.102	0.281	-0.071
-680.237	-200.000	-0.046	-0.312
-679.222	84.379	-0.044	0.048
-678.208	20.994	-0.170	-0.139
-677.193	-0.873	-0.186	0.133
-676.178	95.312	0.063	-0.072
-675.164	-200.000	0.052	-0.288
-674.149	-95.148	-0.324	-0.088
-673.135	-31.657	0.187	-0.106
-672.120	-200.000	0.006	-0.168
-671.105	-64.118	-0.315	-0.129
-670.091	-89.865	0.424	-0.125
-669.076	-150.936	-0.076	0.006
-668.062	-200.000	-0.004	0.323
-667.047	-55.573	-0.389	0.176
-666.032	102.950	-0.161	0.190
-665.018	-164.004	-0.276	-0.013
-664.003	133.649	-0.205	0.267
-662.989	-185.443	-0.347	-0.005
-661.974	-86.604	-0.060	0.019
-660.959	800.000	0.043	0.182
-659.945	-68.820	-0.189	-0.073
-658.930	207.581	-0.069	0.108
-657.916	35.701	0.182	0.161
-656.901	-75.320	0.202	-0.073
-655.886	-200.000	-0.042	0.199
-654.872	-200.000	0.032	-0.377
-653.857	-111.385	-0.245	0.050
-652.843	521.773	-0.049	0.116
-651.828	140.776	-0.162	0.216
-650.814	-8.432	-0.314	0.212
-649.799	-200.000	0.062	-0.642
-648.784	-185.889	0.288	-0.004
-647.770	-105.013	-0.107	-0.025
-646.755	-82.905	0.145	0.047
-645.741	91.327	-0.178	-0.201
-644.726	-30.094	-0.247	0.141
-643.711	800.000	0.145	-0.529
-642.697	-99.704	-0.052	-0.013
-641.682	-200.000	-0.021	-0.113
-640.668	-59.248	-0.139	0.060
-639.653	-26.227	0.184	0.109
-638.638	126.377	0.123	0.156
-637.624	83.359	0.175	-0.191
-636.609	80.841	0.126	0.136
-635.595	-200.000	0.024	-0.167
-634.580	355.113	0.023	-0.045
-633.565	-93.680	0.345	0.096
-632.551	800.000	0.048	-0.203
-631.536	800.000	0.017	0.070
-630.522	65.653	0.104	-0.106
-629.507	-200.000	-0.016	-0.160
-628.492	0.717	-0.166	-0.120
-627.478	699.456	-0.118	-0.313
-626.463	-51.978	-0.021	0.010
-625.449	-51.915	-0.181	-0.084
-624.434	87.681	0.037	-0.041
-623.419	-8.318	-0.213	-0.144
-622.405	263.961	-0.106	-0.186
-621.390	-200.000	-0.021	0.132
-620.376	-176.292	-0.322	0.008
-619.361	-56.580	-0.459	-0.205
-618.346	646.869	0.074	-0.190
-617.332	-200.000	-0.001	-0.168
-616.317	21.604	-0.120	-0.098
-615.303	759.736	0.057	-0.154
-614.288	-15.695	0.111	-0.071
-613.273	-200.000	-0.001	-0.045
-612.259	-145.374	0.473	-0.043
-611.244	164.726	-0.158	-0.224
-610.230	-27.340	0.344	0.201
-609.215	264.433	0.046	0.080
-608.201	800.000	0.103	0.333
-607.186	-191.922	0.338	-0.003
-606.171	-200.000	0.008	0.183
-605.157	-79.425	0.227	0.077
-604.142	-8.280	-0.216	-0.146
-603.128	67.376	-0.120	0.123
-602.113	800.000	0.039	-0.127
-601.098	97.332	-0.141	-0.163
-600.084	-80.584	-0.296	-0.099
-599.069	757.643	-0.024	-0.065
-598.055	6.156	0.344	-0.256
-597.040	-141.654	0.141	-0.014
-596.025	177.784	0.182	0.266
-595.011	-62.360	-0.114	0.048
-593.996	800.000	-0.010	0.036
-592.982	-200.000	0.033	0.304
-591.967	-122.454	-0.281	-0.046
-590.952	659.126	-0.089	0.230
-589.938	219.671	-0.019	0.031
-588.923	-200.000	0.013	-0.190
-587.909	76.595	0.244	0.259
-586.894	-102.386	-0.080	-0.019
-585.879	4.075	-0.223	-0.164
-584.865	-46.577	0.228	-0.112
-583.850	601.813	0.131	-0.327
-582.836	-51.187	-0.170	0.080
-581.821	183.751	0.124	0.184
-580.806	101.687	-0.052	-0.061
-579.792	800.000	-0.054	0.189
-578.777	-142.799	0.154	-0.015
-577.763	156.829	0.082	0.114
-576.748	800.000	-0.098	-0.276
-575.733	542.114	-0.149	0.357
-574.719	800.000	0.041	0.151
-573.704	723.866	0.016	0.044
-572.690	-139.462	0.384	-0.041
-571.675	-52.872	-0.131	-0.061
-570.661	-200.000	0.063	-0.510
-569.646	17.889	-0.148	-0.118
-568.631	394.931	0.053	0.111
-567.617	125.614	0.249	0.315
-566.602	110.270	0.063	0.076
-565.588	-27.746	-0.153	-0.089
-564.573	61.428	-0.150	0.149
-563.558	-172.332	-0.102	0.003
-562.544	-47.425	-0.054	0.027
-561.529	40.974	0.287	-0.260
-560.515	201.017	-0.109	-0.168
-559.500	-126.770	0.208	0.031
-558.485	-103.621	0.251	-0.059
-557.471	800.000	-0.124	0.391
-556.456	800.000	-0.030	-0.129
-555.442	34.243	-0.182	-0.159
-554.427	-88.533	0.110	0.033
-553.412	75.776	-0.075	-0.079
-552.398	-200.000	0.017	0.161
-551.383	800.000	0.111	0.428
-550.369	189.153	0.083	0.124
-549.354	800.000	0.104	0.357
-548.339	405.289	0.105	0.222
-547.325	-137.268	0.371	0.042
-546.310	-200.000	-0.047	-0.375
-545.296	378.094	-0.238	-0.489
-544.281	151.530	-0.120	-0.164
-543.266	-39.296	-0.205	-0.108
-542.252	-19.495	-0.046	0.029
-541.237	20.254	0.135	0.109
-540.223	-200.000	-0.081	-0.373
-539.208	20.851	0.113	-0.092
-538.193	-59.956	-0.131	0.056
-537.179	-136.149	0.154	-0.018
-536.164	-45.899	-0.133	-0.066
-535.150	800.000	0.086	-0.303
-534.135	-10.433	-0.146	-0.097
-533.121	-12.593	0.113	-0.074
-532.106	-93.151	0.118	0.033
-531.091	-200.000	-0.000	-0.100
-530.077	251.286	-0.138	0.236
-529.062	-158.678	-0.077	0.004
-528.048	-98.331	-0.313	0.080
-527.033	36.779	0.057	0.050
-526.018	123.072	0.383	0.481
-525.004	-62.573	0.147	-0.061
-523.989	276.461	-0.127	0.226
-522.975	-46.700	0.054	-0.026
-521.960	-112.005	0.313	-0.063
-520.945	-52.210	-0.282	-0.131
-519.931	59.980	0.264	-0.261
-518.916	288.396	-0.095	0.173
-517.902	185.271	0.209	0.311
-516.887	-85.045	0.045	-0.014
-515.872	-200.000	-0.006	-0.145
-514.858	-43.914	-0.362	-0.182
-513.843	85.518	0.291	0.320
-512.829	800.000	0.021	-0.072
-511.814	-79.364	-0.187	0.063
-510.799	734.632	0.138	-0.370
-509.785	660.789	-0.034	0.087
-508.770	-8.967	0.273	0.183
-507.756	-110.432	-0.114	-0.024
-506.741	324.018	-0.170	-0.325
-505.726	-200.000	-0.011	0.172
-504.712	471.341	0.051	0.114
-503.697	-158.054	-0.246	0.014
-502.683	207.497	-0.191	-0.298
-501.668	-139.540	-0.199	-0.021
-500.653	-107.515	0.171	-0.037
-499.639	35.397	-0.165	0.145
-498.624	-70.302	-0.418	0.159
-497.610	25.311	-0.223	-0.186
-496.595	27.928	-0.235	-0.198
-495.581	800.000	0.084	0.286
-494.566	128.301	-0.142	-0.180
-493.551	-200.000	-0.007	0.049
-492.537	67.820	0.165	-0.168
-491.522	800.000	-0.027	0.087
-490.508	103.686	-0.376	-0.441
-489.493	10.319	-0.120	-0.091
-488.478	800.000	0.075	0.321
-487.464	273.205	-0.088	0.155
-486.449	-119.864	-0.077	0.013
-485.435	117.805	0.111	0.137
-484.420	-93.167	0.141	-0.039
-483.405	-200.000	0.003	-0.188
-482.391	45.951	-0.260	0.240
-481.376	270.907	-0.065	0.114
-480.362	255.763	0.029	0.050
-479.347	-27.262	0.350	-0.204
-478.332	141.850	-0.094	-0.124
-477.318	-42.432	0.250	-0.127
-476.303	-162.731	0.054	0.003
-475.289	265.358	-0.036	-0.062
-474.274	68.772	0.234	0.240
-473.259	-200.000	-0.002	0.187
-472.245	-32.789	-0.280	-0.156
-471.230	800.000	-0.047	-0.139
-470.216	72.836	-0.177	0.185
-469.201	-200.000	0.019	-0.150
-468.186	800.000	0.193	0.582
-467.172	-200.000	0.037	0.401
-466.157	62.645	-0.134	0.133
-465.143	556.741	-0.087	-0.210
-464.128	800.000	-0.048	-0.137
-463.113	376.957	-0.075	-0.153
-462.099	-72.996	0.257	-0.094
-461.084	-110.343	0.329	-0.068
-460.070	-71.105	-0.277	0.104
-459.055	-42.664	0.159	0.081
-458.040	-144.571	0.431	0.040
-457.026	169.449	0.072	-0.102
-456.011	-38.619	-0.248	-0.131
-454.997	-41.859	-0.412	-0.211
-453.982	-200.000	-0.026	-0.154
-452.968	800.000	0.042	0.149
-451.953	-200.000	-0.029	0.144
-450.938	-200.000	0.016	0.213
-449.924	58.358	0.129	0.126
-448.909	66.449	-0.153	0.155
-447.895	469.079	0.081	-0.182
-446.880	107.037	0.136	-0.161
-445.865	30.377	0.117	0.100
-444.851	-78.910	0.184	0.062
-443.836	-71.770	-0.179	0.067
-442.822	-22.450	0.247	0.149
-441.807	-2.310	-0.214	0.150
-440.792	800.000	0.024	-0.072
-439.778	-131.976	-0.357	-0.046
-438.763	-200.000	-0.057	0.336
-437.749	183.538	0.153	-0.226
-436.734	-12.703	0.170	-0.111
-435.719	47.515	0.200	-0.186
-434.705	-37.303	-0.207	-0.111
-433.690	169.581	0.130	0.186
-432.676	800.000	0.127	-0.426
-431.661	800.000	0.039	-0.161
-430.646	800.000	-0.021	-0.070
-429.632	64.360	-0.061	-0.061
-428.617	-166.350	-0.047	-0.002
-427.603	-102.550	-0.054	-0.013
-426.588	67.161	-0.277	-0.282
-425.573	-63.435	0.343	0.141
-424.559	-22.138	0.247	-0.150
-423.544	331.740	-0.104	0.200
-422.530	800.000	-0.109	0.306
-421.515	204.957	0.042	0.065
-420.500	-68.045	0.241	0.094
-419.486	170.792	0.132	0.188
-418.471	-165.199	0.085	-0.004
-417.457	519.679	-0.011	0.027
-416.442	104.508	0.130	0.153
-415.428	85.698	-0.063	0.069
-414.413	800.000	-0.027	-0.099
-413.398	-84.293	0.019	-0.006
-412.384	91.523	0.104	0.116
-411.369	-110.655	-0.290	0.060
-410.355	-149.888	-0.196	-0.015
-409.340	-200.000	0.018	0.265
-408.325	-200.000	0.009	0.102
-407.311	21.259	-0.124	-0.100
-406.296	-106.367	-0.159	-0.035
-405.282	139.986	0.223	0.293
-404.267	-200.000	0.004	-0.374
-403.252	80.764	0.318	-0.342
-402.238	515.899	0.068	0.159
-401.223	-95.839	0.338	-0.090
-400.209	-200.000	0.002	-0.315
-399.194	-200.000	-0.001	-0.035
-398.179	202.442	0.091	0.140
-397.165	-42.624	-0.316	-0.160
-396.150	-46.546	0.251	0.122
-395.136	-87.618	0.072	0.022
-394.121	65.628	-0.177	-0.179
-393.106	142.407	-0.074	-0.097
-392.092	800.000	-0.090	-0.270
-391.077	-63.333	-0.180	-0.074
-390.063	72.343	-0.171	-0.177
-389.048	146.837	0.050	0.067
-388.033	-200.000	0.014	0.122
-387.019	-200.000	0.022	-0.158
-386.004	208.218	0.064	-0.099
-384.990	-71.147	-0.191	-0.072
-383.975	-35.279	0.453	-0.246
-382.960	769.650	0.074	0.201
-381.946	270.077	-0.193	0.338
-380.931	800.000	0.087	0.301
-379.917	-68.480	-0.094	-0.036
-378.902	-21.616	-0.244	0.148
-377.888	135.191	-0.055	0.071
-376.873	283.742	-0.126	-0.226
-375.858	-50.014	0.082	-0.039
-374.844	436.564	0.025	-0.054
-373.829	355.193	-0.102	-0.202
-372.815	52.960	0.265	-0.252
-371.800	-151.646	0.148	-0.011
-370.785	119.280	0.174	-0.214
-369.771	97.107	-0.289	0.330
-368.756	-200.000	-0.034	-0.219
-367.742	-200.000	0.032	-0.217
-366.727	-200.000	0.034	-0.502
-365.712	-155.539	-0.163	0.010
-364.698	800.000	0.104	-0.287
-363.683	-102.450	-0.087	0.021
-362.669	-61.675	-0.300	0.125
-361.654	-200.000	0.034	0.265
-360.639	-200.000	-0.006	-0.027
-359.625	800.000	-0.105	0.398
-358.610	-200.000	-0.046	0.262
-357.596	162.017	0.256	-0.357
-356.581	-62.681	0.086	-0.035
-355.566	44.774	0.139	-0.127
-354.552	-200.000	0.014	-0.205
-353.537	-116.718	0.166	0.030
-352.523	779.701	-0.024	-0.065
-351.508	-166.560	-0.199	0.008
-350.493	-200.000	0.009	-0.222
-349.479	-127.655	-0.113	0.016
-348.464	-200.000	-0.009	-0.221
-347.450	-78.596	-0.062	-0.021
-346.435	800.000	-0.058	0.204
-345.420	-200.000	0.002	0.316
-344.406	-45.130	-0.172	-0.085
-343.391	77.090	0.157	-0.166
-342.377	-56.744	0.037	0.016
-341.362	800.000	0.055	-0.203
-340.348	-200.000	-0.010	0.177
-339.333	559.849	0.044	-0.107
-338.318	15.759	-0.413	-0.323
-337.304	-148.546	0.251	-0.020
-336.289	-126.490	-0.108	-0.016
-335.275	-75.500	-0.129	-0.046
-334.260	-160.605	0.059	-0.003
-333.245	-73.068	0.149	0.054
-332.231	147.820	0.188	0.252
-331.216	-58.069	-0.573	0.249
-330.202	800.000	0.092	0.332
-329.187	-2.040	-0.138	0.096
-328.172	132.607	0.204	0.262
-327.158	-88.715	-0.334	0.099
-326.143	-200.000	0.013	-0.132
-325.129	106.152	0.125	0.147
-324.114	-94.753	0.166	-0.045
-323.099	-51.983	-0.223	0.103
-322.085	55.726	0.327	0.315
-321.070	333.488	-0.167	-0.320
-320.056	-61.517	0.140	0.058
-319.041	398.279	-0.165	0.344
-318.026	-200.000	0.013	0.080
-317.012	-200.000	0.028	-0.248
-315.997	450.963	-0.129	-0.283
-314.983	-197.818	0.056	-0.000
-313.968	209.421	0.115	-0.178
-312.953	342.447	-0.137	0.266
-311.939	-40.702	-0.172	-0.089
-310.924	-71.425	-0.146	-0.054
-309.910	44.776	0.082	0.075
-308.895	747.847	0.074	-0.198
-307.880	-40.848	0.299	-0.154
-306.866	87.945	-0.056	0.062
-305.851	-69.358	-0.087	0.033
-304.837	-115.136	-0.343	-0.065
-303.822	-12.866	0.137	-0.088
-302.807	-20.483	-0.233	-0.142
-301.793	800.000	0.106	-0.330
-300.778	-33.379	0.257	-0.141
-299.764	9.086	-0.021	0.016
-298.749	800.000	-0.015	0.047
-297.735	-169.451	0.217	-0.008
-296.720	334.463	-0.094	-0.181
-295.705	-43.372	0.252	0.126
-294.691	-166.378	0.022	-0.001
-293.676	-137.217	0.104	0.012
-292.662	-83.172	0.380	0.121
-291.647	-128.523	-0.197	0.028
-290.632	551.816	-0.098	0.234
-289.618	40.613	-0.198	0.177
-288.603	800.000	0.106	0.295
-287.589	-72.684	0.326	0.119
-286.574	-61.432	0.068	0.028
-285.559	-110.613	0.100	0.021
-284.545	297.765	-0.043	0.078
-283.530	-200.000	0.012	0.120
-282.516	-122.545	-0.250	-0.040
-281.501	95.370	-0.070	0.079
-280.486	-40.897	0.186	0.095
-279.472	-89.596	0.180	0.052
-278.457	75.275	-0.312	-0.326
-277.443	214.492	-0.049	0.077
-276.428	164.483	0.006	0.008
-275.413	-142.840	-0.172	0.017
-274.399	-200.000	0.044	-0.228
-273.384	92.459	-0.046	-0.052
-272.370	152.706	-0.055	-0.075
-271.355	206.621	-0.092	-0.142
-270.340	241.018	0.081	-0.134
-269.326	-128.614	-0.083	0.012
-268.311	-174.148	0.248	-0.007
-267.297	-19.110	-0.102	0.063
-266.282	-14.665	0.042	0.027
-265.267	-63.025	-0.144	-0.059
-264.253	800.000	0.085	0.235
-263.238	-137.054	0.072	0.008
-262.224	529.674	-0.212	0.496
-261.209	-200.000	0.006	0.055
-260.195	-10.657	0.309	0.203
-259.180	-53.290	-0.295	0.134
-258.165	-200.000	0.030	-0.144
-257.151	104.104	-0.122	0.142
-256.136	96.198	-0.216	0.244
-255.122	60.707	-0.066	-0.065
-254.107	800.000	-0.034	-0.118
-253.092	20.673	0.091	-0.073
-252.078	-117.140	0.165	0.030
-251.063	-100.585	0.171	0.042
-250.049	-200.000	0.038	0.283
-249.034	56.354	-0.096	0.092
-248.019	800.000	-0.108	0.394
-247.005	399.226	-0.079	-0.164
-245.990	-28.162	0.067	0.039
-244.976	-115.519	0.266	0.050
-243.961	-200.000	0.019	-0.139
-242.946	-152.602	0.134	0.009
-241.932	-55.019	0.260	-0.116
-240.917	12.296	-0.129	0.098
-239.903	-146.248	-0.090	0.008
-238.888	-102.380	-0.220	-0.052
-237.873	-45.656	-0.037	0.018
-236.859	-200.000	-0.256	0.001
-235.844	-84.312	0.235	-0.074
-234.830	44.264	-0.144	-0.131
-233.815	22.698	0.153	0.124
-232.800	-133.398	-0.129	0.016
-231.786	-67.682	0.225	-0.087
-230.771	32.085	-0.242	-0.207
-229.757	194.434	0.060	0.090
-228.742	78.889	0.110	0.116
-227.727	-83.184	-0.186	-0.059
-226.713	-200.000	-0.056	0.260
-225.698	164.369	0.052	-0.073
-224.684	-112.276	-0.022	0.004
-223.669	28.456	0.103	0.087
-222.655	-29.982	-0.273	0.154
-221.640	800.000	0.008	-0.032
-220.625	-200.000	0.070	-0.366
-219.611	-1.972	0.197	-0.137
-218.596	-162.248	0.117	-0.006
-217.582	406.189	-0.233	0.486
-216.567	35.262	-0.169	0.147
-215.552	35.893	-0.128	0.111
-214.538	27.567	0.159	-0.133
-213.523	-200.000	0.013	-0.127
-212.509	-75.745	0.179	0.063
-211.494	-200.000	0.004	0.081
-210.479	800.000	-0.031	-0.088
-209.465	-52.398	0.125	0.057
-208.450	522.611	-0.035	0.081
-207.436	212.911	0.215	0.335
-206.421	-19.765	-0.013	-0.008
-205.406	-30.145	-0.200	0.112
-204.392	-120.074	0.109	-0.019
-203.377	104.525	0.240	0.279
-202.363	-135.177	0.303	0.036
-201.348	145.546	-0.295	0.391
-200.333	-89.874	-0.095	0.027
-199.319	800.000	-0.068	-0.190
-198.304	-121.657	-0.188	0.031
-197.290	-87.150	-0.192	-0.058
-196.275	-3.488	0.236	-0.162
-195.260	544.947	0.042	0.099
-194.246	224.312	0.143	0.228
-193.231	78.772	0.204	0.216
-192.217	657.994	0.051	-0.131
-191.202	-65.880	-0.178	-0.070
-190.187	108.550	-0.163	0.192
-189.173	561.113	0.146	-0.349
-188.158	-200.000	-0.016	0.146
-187.144	-64.843	0.270	-0.108
-186.129	-70.529	0.187	-0.070
-185.114	-200.000	0.012	0.118
-184.100	-83.042	-0.274	0.087
-183.085	40.998	-0.085	0.076
-182.071	131.589	0.155	0.197
-181.056	28.931	0.026	0.022
-180.042	46.117	0.010	-0.009
-179.027	-69.589	-0.342	-0.129
-178.012	-44.595	-0.083	0.041
-176.998	-104.103	0.289	-0.066
-175.983	252.935	0.127	-0.214
-174.969	64.241	-0.058	-0.057
-173.954	2.957	-0.135	-0.097
-172.939	180.075	-0.085	-0.124
-171.925	46.363	0.143	0.131
-170.910	188.989	-0.200	0.295
-169.896	800.000	-0.049	-0.153
-168.881	285.809	0.068	-0.122
-167.866	335.410	0.049	0.093
-166.852	-143.940	-0.036	0.003
-165.837	800.000	0.012	0.048
-164.823	43.996	0.185	0.168
-163.808	-94.253	-0.140	0.038
-162.793	311.949	-0.040	0.075
-161.779	103.425	-0.106	-0.123
-160.764	800.000	0.040	0.160
-159.750	620.912	-0.094	0.232
-158.735	800.000	-0.008	-0.034
-157.720	380.737	-0.076	0.155
-156.706	545.162	-0.114	0.268
-155.691	25.798	-0.317	0.260
-154.677	337.619	-0.064	-0.122
-153.662	800.000	0.063	-0.247
-152.647	68.090	-0.172	-0.174
-151.633	197.015	0.160	0.240
-150.618	77.757	0.099	0.104
-149.604	103.105	0.293	0.339
-148.589	2.086	0.062	0.044
-147.574	-50.275	-0.282	0.132
-146.560	3.420	-0.097	-0.069
-145.545	-135.008	0.268	-0.032
-144.531	-200.000	-0.037	-0.350
-143.516	-73.352	0.174	-0.063
-142.502	34.334	0.021	-0.018
-141.487	-200.000	0.007	0.076
-140.472	-200.000	-0.009	0.083
-139.458	284.848	0.164	0.291
-138.443	-46.864	0.046	-0.022
-137.429	316.268	-0.157	0.293
-136.414	-169.812	-0.103	0.004
-135.399	-94.791	0.188	0.050
-134.385	-200.000	-0.077	-0.355
-133.370	800.000	0.113	-0.334
-132.356	247.833	0.134	-0.224
-131.341	-153.918	-0.251	-0.017
-130.326	272.338	-0.040	-0.069
-129.312	800.000	0.104	-0.387
-128.297	-11.950	-0.264	0.171
-127.283	-200.000	0.058	0.355
-126.268	-180.109	-0.425	0.009
-125.253	800.000	0.056	-0.188
-124.239	800.000	0.078	-0.215
-123.224	-86.697	0.072	-0.022
-122.210	-115.803	0.103	-0.019
-121.195	-85.749	-0.221	-0.067
