DTS Sentinel unit serial number:	SN413079Multiplexer serial number:	ORYXHardware model number:	OX4-SRSoftware version number:	ORYX F/W v4.00 Oryx Data Collector v3.7.2.0data status	okinstallation	princeton_trtdifferential loss correction	single-endedforward channel	channel 3reverse channel	N/Adate	2019/09/18time	17:08:34forward acquisition time	60.00reverse acquisition time	0.00gamma	496.2192k internal	0.2294k external	0.2294temperature offset calibration	0.9985default loss term (dB/km)	0.3790temperature slope calibration	1.0000multiplexer offset coefficient	1.0000multiplexer slope coefficient	1.0000fibre end	0.00T internal ref (°C)	39.87T ext. ref 1 (°C)	0.87T ext. ref 2 (°C)	33.72length (m)	temperature (°C)	Stokes	anti-Stokes-747.200	125.913	-0.150	-0.194
-746.185	-74.448	-0.177	0.065
-745.171	63.408	-0.267	-0.274
-744.156	-11.343	0.310	0.209
-743.142	800.000	0.067	0.205
-742.127	-144.904	0.146	0.014
-741.112	800.000	0.037	-0.164
-740.098	23.371	-0.356	-0.299
-739.083	311.568	0.063	-0.120
-738.069	-33.304	-0.247	0.140
-737.054	498.195	0.055	-0.129
-736.039	206.097	0.091	-0.144
-735.025	-42.203	0.138	-0.072
-734.010	88.214	-0.234	-0.266
-732.996	112.901	-0.093	-0.115
-731.981	272.499	0.132	0.238
-730.966	-200.000	0.052	-0.264
-729.952	-118.217	0.215	0.039
-728.937	-85.368	0.155	-0.049
-727.923	-70.296	-0.055	-0.021
-726.908	738.035	-0.123	-0.338
-725.894	-166.679	0.028	-0.001
-724.879	-66.381	-0.188	-0.076
-723.864	190.275	-0.019	0.030
-722.850	37.942	-0.232	0.211
-721.835	565.981	0.070	-0.174
-720.821	348.909	0.093	-0.187
-719.806	-60.641	-0.292	0.127
-718.791	235.237	0.097	0.164
-717.777	-97.769	0.077	0.020
-716.762	-200.000	0.019	-0.149
-715.748	-45.668	0.105	0.053
-714.733	-200.000	-0.020	0.171
-713.718	-149.919	-0.110	0.009
-712.704	-200.000	0.062	-0.406
-711.689	-200.000	-0.005	0.318
-710.675	-200.000	-0.023	0.250
-709.660	-88.412	-0.262	0.080
-708.645	800.000	-0.024	-0.079
-707.631	193.000	-0.035	-0.055
-706.616	-157.529	0.311	-0.019
-705.602	79.304	0.317	-0.347
-704.587	10.573	-0.166	-0.129
-703.572	223.119	0.137	0.225
-702.558	-200.000	-0.027	-0.290
-701.543	4.834	0.102	-0.076
-700.529	395.684	-0.138	-0.293
-699.514	-200.000	0.000	-0.005
-698.499	169.976	-0.136	-0.198
-697.485	395.987	-0.041	-0.087
-696.470	254.022	0.119	0.208
-695.456	-200.000	0.070	-0.443
-694.441	-125.756	0.241	-0.037
-693.426	356.082	-0.074	0.151
-692.412	-200.000	-0.006	0.125
-691.397	-200.000	-0.047	0.361
-690.383	-154.258	0.124	0.009
-689.368	800.000	0.019	-0.084
-688.354	329.625	-0.093	0.183
-687.339	21.286	-0.041	0.034
-686.324	242.940	-0.081	0.139
-685.310	74.569	-0.113	0.121
-684.295	71.889	-0.096	-0.102
-683.281	-104.111	0.174	-0.041
-682.266	800.000	0.097	0.285
-681.251	71.953	-0.106	0.112
-680.237	-36.428	0.217	-0.119
-679.222	-200.000	-0.048	-0.332
-678.208	-200.000	0.007	0.226
-677.193	-200.000	-0.038	-0.563
-676.178	184.888	-0.108	0.163
-675.164	-91.671	0.181	0.052
-674.149	-114.553	-0.110	-0.022
-673.135	133.384	-0.255	0.336
-672.120	-12.346	-0.151	0.101
-671.105	-200.000	-0.033	-0.263
-670.091	-123.380	0.124	-0.020
-669.076	277.924	0.081	-0.147
-668.062	154.176	-0.180	0.251
-667.047	101.633	0.266	-0.316
-666.032	15.464	-0.115	0.092
-665.018	-200.000	-0.017	0.401
-664.003	-70.532	-0.212	0.082
-662.989	-200.000	0.031	0.396
-661.974	20.936	-0.216	-0.178
-660.959	800.000	-0.043	0.158
-659.945	-17.331	0.222	-0.143
-658.930	685.876	-0.030	0.081
-657.916	-106.367	0.157	-0.036
-656.901	-17.640	-0.153	-0.098
-655.886	-139.815	0.160	0.017
-654.872	720.883	0.072	0.196
-653.857	730.454	-0.021	-0.059
-652.843	-124.496	0.210	-0.033
-651.828	-128.677	0.244	-0.035
-650.814	-1.713	0.164	0.118
-649.799	325.589	0.116	0.227
-648.784	46.711	-0.092	-0.088
-647.770	-87.706	-0.277	-0.085
-646.755	-81.077	0.206	0.069
-645.741	83.901	-0.112	0.125
-644.726	151.598	-0.179	0.248
-643.711	72.358	0.078	0.083
-642.697	-200.000	-0.005	0.084
-641.682	-158.495	-0.341	-0.020
-640.668	-0.194	-0.179	-0.130
-639.653	-7.887	0.144	0.099
-638.638	-59.507	0.198	0.087
-637.624	168.635	0.089	-0.129
-636.609	64.268	0.032	0.033
-635.595	-200.000	-0.020	0.170
-634.580	41.490	0.049	-0.045
-633.565	-163.217	-0.378	-0.018
-632.551	100.015	-0.125	-0.147
-631.536	-50.293	-0.258	-0.124
-630.522	-18.672	-0.098	0.062
-629.507	-36.695	0.296	-0.162
-628.492	-200.000	-0.044	0.196
-627.478	-98.133	-0.016	-0.004
-626.463	331.445	0.158	-0.311
-625.449	182.381	-0.152	-0.229
-624.434	-47.442	-0.356	0.176
-623.419	800.000	0.091	0.348
-622.405	204.197	0.143	-0.226
-621.390	-46.931	-0.137	0.068
-620.376	83.879	0.006	-0.006
-619.361	800.000	-0.173	-0.508
-618.346	-200.000	0.006	0.080
-617.332	219.887	-0.076	0.124
-616.317	-85.179	0.078	-0.025
-615.303	-61.029	0.209	0.090
-614.288	-122.896	0.141	0.023
-613.273	197.933	0.197	-0.306
-612.259	-12.031	-0.235	0.156
-611.244	-200.000	0.012	-0.302
-610.230	57.953	-0.195	0.195
-609.215	-200.000	-0.010	0.082
-608.201	-61.477	0.466	-0.199
-607.186	93.327	-0.208	0.240
-606.171	-28.536	0.201	0.118
-605.157	570.729	-0.080	0.197
-604.142	298.834	-0.037	-0.069
-603.128	-200.000	-0.024	-0.444
-602.113	-87.387	-0.120	0.037
-601.098	115.805	-0.098	-0.122
-600.084	24.341	0.136	-0.114
-599.069	-103.196	-0.100	-0.024
-598.055	-110.107	0.337	-0.072
-597.040	-200.000	0.021	0.287
-596.025	-57.995	0.124	-0.055
-595.011	36.516	0.238	-0.213
-593.996	-200.000	0.002	0.152
-592.982	189.255	-0.113	-0.172
-591.967	122.718	0.130	0.165
-590.952	265.160	-0.046	-0.081
-589.938	-79.383	-0.115	0.040
-588.923	-116.417	0.072	-0.014
-587.909	189.910	-0.153	0.233
-586.894	800.000	-0.073	-0.225
-585.879	-79.324	-0.417	0.143
-584.865	1.364	0.071	-0.052
-583.850	213.045	0.102	-0.163
-582.836	-69.467	-0.046	0.018
-581.821	-26.415	0.347	-0.207
-580.806	31.789	0.093	-0.082
-579.792	81.538	0.061	0.067
-578.777	-11.120	0.103	0.069
-577.763	186.898	-0.194	-0.294
-576.748	157.042	-0.116	-0.163
-575.733	-119.370	-0.191	-0.034
-574.719	-200.000	-0.001	-0.344
-573.704	-62.096	-0.143	0.061
-572.690	49.075	0.061	0.058
-571.675	73.053	0.056	-0.059
-570.661	156.452	0.167	0.234
-569.646	-200.000	-0.020	-0.145
-568.631	35.887	0.110	-0.098
-567.617	142.702	-0.109	0.148
-566.602	-157.303	-0.359	-0.022
-565.588	-106.706	0.237	0.054
-564.573	-155.873	0.118	0.008
-563.558	625.839	0.119	-0.305
-562.544	800.000	0.110	-0.382
-561.529	-159.353	-0.113	0.006
-560.515	800.000	-0.053	-0.183
-559.500	-162.064	-0.122	-0.006
-558.485	188.445	-0.143	-0.218
-557.471	-200.000	0.033	-0.377
-556.456	63.574	-0.067	-0.069
-555.442	-200.000	0.028	-0.134
-554.427	-10.501	0.147	0.099
-553.412	-200.000	-0.033	0.171
-552.398	-47.681	-0.223	-0.110
-551.383	169.160	0.141	-0.204
-550.369	179.024	0.059	-0.087
-549.354	-63.647	0.229	-0.096
-548.339	-175.923	0.135	-0.004
-547.325	90.939	-0.067	0.077
-546.310	800.000	0.086	0.373
-545.296	239.170	0.013	-0.022
-544.281	649.133	0.097	0.253
-543.266	-110.888	0.401	0.084
-542.252	800.000	0.068	0.213
-541.237	-174.333	0.248	0.007
-540.223	63.839	0.245	0.250
-539.208	-130.021	0.144	0.020
-538.193	800.000	0.022	0.077
-537.179	-166.284	-0.107	-0.005
-536.164	-200.000	0.008	0.080
-535.150	-200.000	0.024	0.120
-534.135	222.749	-0.171	-0.279
-533.121	102.617	-0.203	-0.241
-532.106	-80.814	-0.254	0.086
-531.091	-200.000	0.012	-0.138
-530.077	-200.000	0.033	0.193
-529.062	-13.657	0.081	-0.053
-528.048	-19.013	0.041	-0.026
-527.033	-36.607	-0.216	0.118
-526.018	800.000	-0.020	0.087
-525.004	162.655	-0.114	-0.162
-523.989	230.368	0.084	0.140
-522.975	61.850	0.347	0.350
-521.960	800.000	0.040	0.118
-520.945	9.276	0.138	0.106
-519.931	800.000	-0.043	0.182
-518.916	63.790	-0.332	-0.339
-517.902	589.686	0.152	0.379
-516.887	-200.000	0.000	0.138
-515.872	15.768	-0.076	0.060
-514.858	-200.000	0.015	0.093
-513.843	45.271	0.052	0.048
-512.829	-170.940	-0.378	0.013
-511.814	176.087	0.061	-0.090
-510.799	-200.000	0.003	0.074
-509.785	-200.000	0.009	-0.084
-508.770	-57.113	0.137	0.061
-507.756	-182.899	-0.094	-0.002
-506.741	-126.306	0.365	0.055
-505.726	-19.446	-0.055	0.035
-504.712	-147.885	-0.256	-0.022
-503.697	105.562	-0.101	0.121
-502.683	171.382	-0.127	0.184
-501.668	-86.585	-0.461	-0.143
-500.653	-78.195	0.135	0.047
-499.639	-124.135	0.080	0.013
-498.624	-78.007	-0.190	-0.066
-497.610	66.546	-0.216	0.223
-496.595	-68.979	0.373	0.146
-495.581	378.417	0.138	-0.286
-494.566	15.387	-0.155	0.123
-493.551	10.924	0.112	-0.087
-492.537	-64.148	0.123	0.051
-491.522	-200.000	-0.034	0.298
-490.508	-181.456	-0.210	0.004
-489.493	131.129	0.073	0.095
-488.478	22.900	-0.299	0.248
-487.464	123.908	0.047	0.060
-486.449	-44.897	0.382	-0.193
-485.435	-200.000	-0.023	-0.129
-484.420	-128.333	0.239	-0.034
-483.405	-200.000	0.035	0.181
-482.391	-128.814	-0.064	-0.009
-481.376	95.312	-0.102	-0.118
-480.362	133.235	0.142	-0.186
-479.347	22.627	-0.185	0.154
-478.332	-154.255	0.041	0.003
-477.318	138.867	-0.214	0.284
-476.303	-46.245	0.234	-0.116
-475.289	40.175	0.199	-0.181
-474.274	-106.492	-0.219	-0.049
-473.259	-133.561	-0.278	-0.035
-472.245	-200.000	-0.050	0.274
-471.230	12.817	0.094	-0.073
-470.216	-34.275	-0.344	0.191
-469.201	112.058	0.180	0.220
-468.186	-200.000	-0.016	0.387
-467.172	-152.095	-0.062	-0.005
-466.157	-200.000	-0.028	-0.172
-465.143	329.132	-0.046	0.090
-464.128	-157.158	0.309	0.019
-463.113	-162.667	0.333	-0.017
-462.099	129.465	-0.218	-0.281
-461.084	-54.247	-0.213	-0.098
-460.070	337.473	0.120	-0.236
-459.055	-53.260	0.171	0.079
-458.040	-157.284	0.211	0.013
-457.026	-200.000	-0.001	0.078
-456.011	-39.269	-0.107	0.057
-454.997	513.650	-0.128	-0.303
-453.982	-74.855	0.106	-0.038
-452.968	18.560	-0.182	0.147
-451.953	-49.535	0.143	0.069
-450.938	-58.727	-0.211	0.093
-449.924	-63.203	-0.385	-0.160
-448.909	56.024	-0.058	-0.056
-447.895	-176.161	-0.369	0.010
-446.880	800.000	-0.047	0.159
-445.865	800.000	-0.025	0.099
-444.851	601.810	-0.116	0.293
-443.836	800.000	0.039	0.131
-442.822	-61.254	0.147	0.063
-441.807	-7.810	0.135	0.092
-440.792	499.539	0.008	0.019
-439.778	-81.314	-0.166	0.055
-438.763	-160.316	-0.037	-0.002
-437.749	-200.000	-0.024	-0.134
-436.734	-92.784	-0.383	0.108
-435.719	-143.993	-0.447	0.042
-434.705	94.494	-0.154	-0.177
-433.690	61.857	0.237	0.239
-432.676	800.000	0.054	-0.239
-431.661	36.742	0.116	-0.103
-430.646	-49.689	-0.030	-0.014
-429.632	-108.398	0.035	0.008
-428.617	39.135	0.381	-0.344
-427.603	28.562	0.241	-0.206
-426.588	107.103	0.078	0.094
-425.573	-56.773	-0.127	0.057
-424.559	800.000	-0.108	0.321
-423.544	347.869	0.082	-0.163
-422.530	79.562	0.197	0.214
-421.515	-200.000	0.002	-0.041
-420.500	-200.000	-0.016	-0.137
-419.486	800.000	0.048	-0.208
-418.471	-200.000	-0.005	0.074
-417.457	-200.000	0.020	0.099
-416.442	85.237	-0.119	0.132
-415.428	-34.066	-0.133	0.074
-414.413	14.298	0.292	-0.230
-413.398	-12.998	0.159	0.105
-412.384	-74.704	-0.073	0.026
-411.369	-200.000	-0.072	0.445
-410.355	-200.000	0.027	0.207
-409.340	-200.000	-0.010	0.182
-408.325	-101.364	0.155	-0.038
-407.311	-153.816	-0.195	0.014
-406.296	55.576	0.136	-0.133
-405.282	164.574	0.160	0.228
-404.267	-116.451	-0.255	-0.048
-403.252	362.336	0.251	0.509
-402.238	-79.148	-0.287	-0.098
-401.223	172.546	-0.183	0.266
-400.209	-104.982	-0.217	-0.050
-399.194	606.149	-0.010	-0.025
-398.179	121.652	0.262	0.330
-397.165	800.000	0.094	-0.304
-396.150	412.849	-0.097	-0.209
-395.136	4.797	0.107	0.079
-394.121	-111.443	0.181	-0.037
-393.106	-109.501	0.208	0.044
-392.092	72.658	0.207	-0.218
-391.077	175.672	0.094	-0.138
-390.063	17.411	-0.295	0.236
-389.048	-7.114	-0.124	0.085
-388.033	-200.000	0.065	-0.407
-387.019	-200.000	-0.020	-0.253
-386.004	800.000	0.037	0.140
-384.990	800.000	-0.033	0.103
-383.975	-200.000	0.004	0.139
-382.960	-102.991	-0.052	0.012
-381.946	800.000	-0.064	-0.202
-380.931	-52.889	0.201	-0.093
-379.917	-62.811	0.168	0.070
-378.902	33.932	0.219	0.192
-377.888	-39.381	0.247	0.130
-376.873	372.306	0.126	-0.259
-375.858	70.983	0.081	-0.085
-374.844	-56.098	-0.292	-0.131
-373.829	510.941	-0.115	-0.270
-372.815	-200.000	-0.038	-0.267
-371.800	17.915	0.121	0.097
-370.785	800.000	0.077	0.333
-369.771	-200.000	0.040	0.260
-368.756	392.483	0.154	-0.322
-367.742	-200.000	0.010	-0.323
-366.727	-139.219	0.164	0.018
-365.712	-161.021	-0.389	-0.021
-364.698	29.997	0.085	0.073
-363.683	-200.000	0.018	0.305
-362.669	-36.271	0.085	0.046
-361.654	-162.797	0.264	0.013
-360.639	-15.221	-0.235	0.152
-359.625	-140.470	-0.025	0.003
-358.610	81.207	0.090	0.098
-357.596	676.293	0.087	0.227
-356.581	286.376	0.109	0.198
-355.566	800.000	0.014	0.052
-354.552	34.684	0.348	0.307
-353.537	28.775	0.305	-0.260
-352.523	-33.841	-0.227	0.126
-351.508	-120.923	0.247	0.042
-350.493	-200.000	-0.014	0.254
-349.479	-187.837	-0.062	-0.001
-348.464	-151.225	-0.191	0.014
-347.450	379.869	-0.109	0.225
-346.435	-40.188	-0.145	-0.076
-345.420	-200.000	0.005	0.110
-344.406	465.549	0.123	0.277
-343.391	-108.815	-0.159	-0.034
-342.377	144.100	0.149	-0.201
-341.362	-47.349	-0.205	-0.101
-340.348	-87.334	-0.103	0.031
-339.333	0.972	-0.233	-0.168
-338.318	800.000	-0.069	0.203
-337.304	64.305	0.058	0.059
-336.289	108.144	0.320	0.385
-335.275	-200.000	-0.001	-0.049
-334.260	8.382	0.202	-0.153
-333.245	437.302	-0.087	-0.190
-332.231	-200.000	-0.046	-0.249
-331.216	-50.998	0.277	0.131
-330.202	-111.867	-0.171	0.035
-329.187	57.861	-0.139	0.137
-328.172	205.440	0.035	-0.055
-327.158	-200.000	0.014	-0.155
-326.143	-200.000	0.001	0.269
-325.129	-106.576	-0.067	-0.015
-324.114	-108.630	-0.462	-0.100
-323.099	-84.641	0.090	-0.028
-322.085	223.183	-0.064	-0.104
-321.070	-200.000	0.020	0.151
-320.056	-8.584	0.190	0.129
-319.041	-83.227	-0.216	-0.070
-318.026	-59.676	-0.119	0.051
-317.012	79.560	0.233	0.251
-315.997	-162.746	0.205	-0.010
-314.983	800.000	0.053	0.189
-313.968	-69.895	-0.199	0.076
-312.953	-112.785	0.051	-0.010
-311.939	-150.454	0.310	0.024
-310.924	-109.957	-0.463	0.098
-309.910	-95.537	0.102	0.027
-308.895	-72.969	0.419	0.155
-307.880	-75.668	0.187	0.067
-306.866	800.000	0.070	-0.240
-305.851	80.721	-0.107	0.116
-304.837	-132.712	0.340	0.044
-303.822	107.861	-0.180	-0.215
-302.807	-195.984	0.157	-0.001
-301.793	126.993	0.066	-0.084
-300.778	148.500	0.153	-0.207
-299.764	800.000	-0.064	-0.196
-298.749	-166.568	-0.126	0.005
-297.735	177.720	0.142	-0.208
-296.720	-200.000	0.019	0.164
-295.705	81.817	-0.094	-0.102
-294.691	-6.798	0.285	-0.195
-293.676	8.552	-0.165	0.124
-292.662	241.914	-0.130	-0.219
-291.647	-200.000	-0.010	0.049
-290.632	-78.718	-0.095	-0.033
-289.618	402.809	0.178	-0.377
-288.603	133.190	-0.077	-0.100
-287.589	-200.000	-0.028	-0.203
-286.574	16.641	0.083	0.066
-285.559	-200.000	0.005	-0.156
-284.545	800.000	0.057	-0.248
-283.530	-83.252	0.127	0.041
-282.516	59.625	0.218	-0.216
-281.501	-200.000	0.062	-0.348
-280.486	-200.000	-0.012	0.315
-279.472	-113.424	-0.374	-0.074
-278.457	144.854	-0.140	0.188
-277.443	-19.525	0.339	0.211
-276.428	-55.095	-0.131	-0.059
-275.413	28.974	0.131	-0.111
-274.399	65.749	0.198	0.202
-273.384	-36.943	0.090	0.049
-272.370	-200.000	-0.032	-0.257
-271.355	-162.709	-0.136	0.007
-270.340	-158.667	-0.086	0.005
-269.326	-200.000	0.006	-0.081
-268.311	177.621	0.175	-0.256
-267.297	41.817	-0.248	-0.226
-266.282	-112.578	-0.289	0.058
-265.267	-145.357	-0.542	0.049
-264.253	800.000	-0.071	-0.273
-263.238	-57.683	-0.341	-0.150
-262.224	367.950	0.043	0.088
-261.209	-71.906	0.147	-0.055
-260.195	32.890	0.218	-0.190
-259.180	-82.001	-0.561	-0.184
-258.165	-161.883	0.416	0.021
-257.151	-200.000	0.045	-0.220
-256.136	-91.371	-0.447	0.128
-255.122	20.753	0.194	0.158
-254.107	220.837	-0.097	0.157
-253.092	470.949	-0.098	-0.222
-252.078	-122.575	0.261	0.043
-251.063	-60.243	0.306	0.131
-250.049	-0.947	-0.285	0.202
-249.034	-200.000	0.231	0.000
-248.019	-95.016	-0.279	0.076
-247.005	-200.000	-0.005	0.377
-245.990	30.449	0.152	-0.131
-244.976	-112.124	0.141	0.029
-243.961	-200.000	-0.006	-0.199
-242.946	334.621	0.244	0.474
-241.932	-97.872	0.328	-0.085
-240.917	643.585	0.098	-0.251
-239.903	-37.777	0.381	-0.203
-238.888	330.724	-0.058	0.112
-237.873	69.121	0.170	-0.176
-236.859	278.811	-0.245	-0.438
-235.844	171.068	-0.061	0.088
-234.830	-200.000	-0.028	-0.167
-233.815	-169.181	-0.334	-0.012
-232.800	-200.000	-0.037	-0.172
-231.786	113.751	-0.124	-0.151
-230.771	185.692	-0.156	-0.232
-229.757	-86.627	0.233	0.072
-228.742	84.657	0.190	0.208
-227.727	-112.574	0.084	-0.017
-226.713	-122.218	-0.091	-0.015
-225.698	-61.220	-0.336	-0.142
-224.684	-200.000	-0.007	0.425
-223.669	116.977	-0.193	-0.237
-222.655	224.594	0.042	-0.068
-221.640	-110.308	0.113	0.024
-220.625	-195.888	-0.231	0.002
-219.611	-103.332	-0.194	-0.046
-218.596	-200.000	0.000	-0.251
-217.582	-103.276	-0.255	-0.060
-216.567	118.122	-0.137	0.169
-215.552	800.000	0.216	0.641
-214.538	-37.059	-0.274	0.147
-213.523	183.038	0.214	0.316
-212.509	-145.676	-0.242	-0.022
-211.494	16.752	0.032	0.025
-210.479	98.848	-0.125	-0.144
-209.465	-185.783	-0.163	0.002
-208.450	-200.000	0.002	0.386
-207.436	-90.556	-0.135	-0.039
-206.421	130.745	0.099	-0.127
-205.406	-47.631	0.011	0.006
-204.392	800.000	0.049	0.159
-203.377	-156.945	-0.173	-0.011
-202.363	-200.000	0.001	-0.351
-201.348	354.466	-0.104	0.208
-200.333	800.000	0.049	-0.147
-199.319	0.260	0.172	0.123
-198.304	47.410	0.050	-0.047
-197.290	188.660	-0.119	-0.178
-196.275	800.000	-0.061	-0.231
-195.260	-68.617	0.316	0.123
-194.246	-73.947	0.160	0.058
-193.231	-200.000	0.013	0.139
-192.217	-52.803	-0.102	0.047
-191.202	800.000	-0.061	-0.168
-190.187	-79.953	-0.210	0.071
-189.173	313.452	-0.152	-0.286
-188.158	56.068	-0.163	-0.158
-187.144	169.911	0.102	0.146
-186.129	0.206	0.333	0.238
-185.114	-103.806	0.247	0.058
-184.100	800.000	0.082	-0.307
-183.085	-9.805	0.150	-0.100
-182.071	800.000	0.005	-0.017
-181.056	178.097	0.209	0.305
-180.042	800.000	0.029	0.088
-179.027	-200.000	-0.001	0.345
-178.012	18.775	0.210	-0.168
-176.998	-87.403	-0.311	-0.094
-175.983	637.789	0.106	-0.268
-174.969	12.918	-0.140	0.109
-173.954	-61.641	-0.110	-0.046
-172.939	25.395	0.049	-0.041
-171.925	187.298	-0.114	0.170
-170.910	535.035	0.112	0.266
-169.896	800.000	-0.028	0.089
-168.881	26.821	0.050	-0.042
-167.866	571.448	0.082	-0.200
-166.852	546.488	0.112	-0.268
-165.837	-200.000	-0.044	0.201
-164.823	-200.000	0.005	-0.147
-163.808	93.880	-0.037	-0.042
-162.793	-93.273	-0.165	-0.046
-161.779	267.687	-0.045	-0.079
-160.764	5.373	-0.070	0.051
-159.750	-20.628	-0.260	-0.160
-158.735	179.831	0.254	-0.372
-157.720	-21.673	-0.244	0.149
-156.706	-57.179	0.149	-0.066
-155.691	-104.989	-0.229	-0.053
-154.677	22.768	0.082	0.067
-153.662	-89.218	0.178	-0.052
-152.647	-200.000	0.001	-0.290
-151.633	-200.000	-0.028	0.224
-150.618	64.486	0.134	-0.135
-149.604	-200.000	0.016	-0.220
-148.589	-83.316	-0.204	-0.066
-147.574	-200.000	-0.007	-0.050
-146.560	315.750	0.121	-0.228
-145.545	-200.000	0.003	-0.199
-144.531	-153.175	0.213	0.015
-143.516	66.780	-0.139	0.141
-142.502	800.000	0.027	0.077
-141.487	-200.000	-0.018	-0.101
-140.472	-200.000	-0.032	0.237
-139.458	800.000	0.128	-0.408
-138.443	-200.000	-0.018	0.214
-137.429	800.000	-0.052	0.156
-136.414	-200.000	-0.003	0.269
-135.399	202.611	-0.052	-0.081
-134.385	332.499	0.101	0.195
-133.370	-69.702	-0.293	-0.112
-132.356	-200.000	0.018	0.368
-131.341	800.000	0.031	0.129
-130.326	23.818	-0.190	0.157
-129.312	-150.267	0.121	-0.009
-128.297	-150.260	-0.297	-0.023
-127.283	591.601	-0.041	0.101
-126.268	-200.000	0.002	0.116
-125.253	392.494	-0.108	-0.225
-124.239	800.000	-0.129	-0.430
-123.224	-151.485	0.202	-0.015
-122.210	-43.689	0.141	-0.071
-121.195	-200.000	0.003	-0.131
