DTS Sentinel unit serial number:	SN413079Multiplexer serial number:	ORYXHardware model number:	OX4-SRSoftware version number:	ORYX F/W v4.00 Oryx Data Collector v3.7.2.0data status	okinstallation	princeton_trtdifferential loss correction	single-endedforward channel	channel 3reverse channel	N/Adate	2019/09/14time	10:12:35forward acquisition time	60.00reverse acquisition time	0.00gamma	496.2192k internal	0.2310k external	0.2310temperature offset calibration	1.0051default loss term (dB/km)	0.3790temperature slope calibration	1.0000multiplexer offset coefficient	1.0000multiplexer slope coefficient	1.0000fibre end	0.00T internal ref (°C)	33.78T ext. ref 1 (°C)	4.07T ext. ref 2 (°C)	32.16length (m)	temperature (°C)	Stokes	anti-Stokes-747.200	800.000	-0.055	-0.230
-746.185	69.888	0.022	0.023
-745.171	25.481	0.197	0.166
-744.156	800.000	-0.046	0.131
-743.142	-61.150	-0.203	0.087
-742.127	800.000	-0.070	0.302
-741.112	-100.372	-0.047	0.012
-740.098	359.434	-0.093	0.189
-739.083	-118.293	0.092	0.017
-738.069	124.015	0.061	-0.078
-737.054	800.000	-0.124	0.387
-736.039	12.984	-0.159	0.125
-735.025	-9.805	-0.096	0.065
-734.010	59.159	-0.102	0.102
-732.996	-68.450	-0.276	-0.109
-731.981	52.819	-0.164	0.159
-730.966	72.094	-0.065	-0.069
-729.952	800.000	-0.082	0.263
-728.937	2.219	-0.304	-0.223
-727.923	254.094	-0.122	-0.211
-726.908	-99.908	-0.373	0.095
-725.894	-145.710	-0.093	0.008
-724.879	-68.394	-0.367	-0.145
-723.864	433.631	-0.074	0.164
-722.850	-200.000	-0.013	0.058
-721.835	641.355	-0.029	0.076
-720.821	-87.758	0.140	-0.043
-719.806	178.185	-0.178	0.264
-718.791	-200.000	0.014	-0.417
-717.777	186.499	-0.153	-0.231
-716.762	-200.000	-0.032	0.213
-715.748	1.208	-0.087	0.063
-714.733	-86.970	-0.318	0.098
-713.718	51.542	-0.224	-0.216
-712.704	18.453	-0.172	-0.139
-711.689	-10.466	0.191	-0.128
-710.675	-130.721	0.090	-0.012
-709.660	275.736	0.223	0.401
-708.645	374.316	0.102	0.210
-707.631	-2.297	-0.197	0.140
-706.616	-128.182	-0.220	-0.032
-705.602	-9.986	0.201	-0.136
-704.587	29.215	-0.227	-0.196
-703.572	-80.976	0.145	0.049
-702.558	208.832	0.056	0.089
-701.543	31.652	0.248	-0.216
-700.529	154.659	-0.091	-0.127
-699.514	-123.141	0.149	0.024
-698.499	4.143	-0.113	-0.084
-697.485	63.964	0.057	-0.058
-696.470	-178.150	-0.231	-0.006
-695.456	-186.613	-0.442	0.006
-694.441	-104.963	0.180	-0.042
-693.426	167.581	0.184	-0.264
-692.412	-200.000	0.048	-0.487
-691.397	-118.028	0.520	-0.094
-690.383	-90.715	-0.284	0.083
-689.368	-200.000	-0.067	0.407
-688.354	34.068	0.039	0.035
-687.339	211.497	0.137	-0.219
-686.324	-166.433	-0.226	0.010
-685.310	-35.690	0.216	0.119
-684.295	-200.000	0.002	0.080
-683.281	413.529	-0.102	-0.219
-682.266	-21.215	0.063	-0.039
-681.251	46.632	-0.148	0.140
-680.237	-200.000	0.045	0.224
-679.222	30.661	-0.202	-0.175
-678.208	-35.581	-0.228	-0.126
-677.193	-183.387	0.057	0.001
-676.178	-30.894	-0.293	0.168
-675.164	252.398	-0.037	-0.063
-674.149	14.269	0.119	-0.094
-673.135	-200.000	0.015	0.137
-672.120	-200.000	-0.085	0.395
-671.105	339.110	0.059	0.116
-670.091	-200.000	0.014	-0.242
-669.076	-117.227	0.320	0.059
-668.062	-200.000	0.027	0.205
-667.047	59.985	-0.190	0.190
-666.032	140.543	-0.202	0.270
-665.018	-200.000	0.006	-0.045
-664.003	-200.000	0.001	-0.098
-662.989	-120.252	-0.059	0.010
-661.974	-174.565	0.130	-0.004
-660.959	-55.530	-0.213	-0.096
-659.945	-40.467	0.046	-0.024
-658.930	-87.012	-0.170	-0.053
-657.916	-20.037	-0.106	-0.066
-656.901	39.474	0.183	0.166
-655.886	195.767	-0.059	-0.091
-654.872	-200.000	-0.010	0.214
-653.857	138.714	0.087	-0.116
-652.843	-99.689	-0.186	0.047
-651.828	95.301	-0.250	-0.289
-650.814	-140.152	-0.244	-0.026
-649.799	-200.000	0.025	-0.134
-648.784	27.885	-0.084	0.072
-647.770	-140.950	-0.154	0.016
-646.755	800.000	-0.061	0.216
-645.741	797.833	0.153	0.426
-644.726	156.937	0.095	0.132
-643.711	623.566	-0.049	-0.124
-642.697	179.591	-0.264	0.391
-641.682	108.198	0.101	0.122
-640.668	-200.000	-0.005	0.040
-639.653	-200.000	0.017	0.116
-638.638	-21.354	0.260	-0.161
-637.624	-1.374	-0.292	-0.208
-636.609	-108.721	-0.270	-0.059
-635.595	467.181	-0.052	-0.117
-634.580	-105.640	-0.324	-0.074
-633.565	-200.000	-0.058	-0.278
-632.551	373.405	0.064	0.131
-631.536	-55.974	0.289	0.130
-630.522	-114.132	0.159	-0.031
-629.507	-36.104	-0.107	0.059
-628.492	-108.028	0.426	0.094
-627.478	-200.000	0.094	0.431
-626.463	800.000	0.068	0.207
-625.449	-24.971	-0.175	-0.105
-624.434	-200.000	0.013	-0.085
-623.419	607.462	-0.108	-0.274
-622.405	-200.000	-0.065	-0.413
-621.390	76.416	0.160	-0.172
-620.376	694.320	0.075	0.198
-619.361	33.848	0.228	0.200
-618.346	-27.749	0.363	0.213
-617.332	-143.593	-0.147	-0.014
-616.317	-172.422	0.249	0.008
-615.303	800.000	0.032	0.104
-614.288	-200.000	-0.038	-0.190
-613.273	376.731	-0.043	-0.089
-612.259	170.540	0.145	0.209
-611.244	40.111	0.245	0.223
-610.230	-46.809	-0.220	-0.109
-609.215	-90.722	0.112	-0.033
-608.201	-200.000	0.088	-0.411
-607.186	-69.352	-0.330	-0.128
-606.171	265.150	-0.058	-0.102
-605.157	245.238	-0.148	-0.252
-604.142	558.912	-0.084	0.206
-603.128	103.077	0.113	-0.134
-602.113	-36.313	0.191	-0.104
-601.098	-79.522	-0.204	-0.070
-600.084	-8.136	0.306	-0.208
-599.069	-37.987	-0.291	-0.156
-598.055	-200.000	-0.019	-0.246
-597.040	-77.493	0.220	0.077
-596.025	-200.000	-0.051	0.249
-595.011	285.678	0.122	0.222
-593.996	-200.000	-0.015	-0.199
-592.982	-200.000	0.063	-0.431
-591.967	-107.161	-0.307	0.068
-590.952	-44.969	0.024	0.012
-589.938	-49.059	-0.171	-0.083
-588.923	102.742	0.192	0.227
-587.909	-17.817	-0.083	-0.053
-586.894	-175.824	0.216	-0.006
-585.879	136.062	0.023	-0.031
-584.865	800.000	0.060	0.188
-583.850	52.705	-0.161	0.155
-582.836	-169.880	-0.478	0.017
-581.821	-200.000	0.016	0.110
-580.806	-200.000	-0.015	0.086
-579.792	-82.483	-0.179	0.059
-578.777	-113.747	0.326	0.064
-577.763	-200.000	0.018	0.234
-576.748	-167.457	0.138	0.006
-575.733	-200.000	0.002	0.173
-574.719	800.000	-0.138	-0.412
-573.704	-107.060	-0.292	0.065
-572.690	348.816	-0.052	0.104
-571.675	-8.967	0.220	0.149
-570.661	3.844	0.336	-0.248
-569.646	72.616	-0.201	-0.211
-568.631	-95.352	-0.170	0.046
-567.617	405.029	0.071	0.151
-566.602	332.636	-0.047	0.091
-565.588	-157.342	-0.283	-0.017
-564.573	399.682	-0.125	0.264
-563.558	-200.000	0.014	0.155
-562.544	-62.154	0.127	-0.053
-561.529	671.190	-0.113	-0.296
-560.515	-71.855	0.260	-0.098
-559.500	-55.638	-0.265	-0.120
-558.485	800.000	-0.020	-0.073
-557.471	-200.000	-0.012	-0.294
-556.456	-73.291	-0.250	0.092
-555.442	14.182	-0.211	0.166
-554.427	-200.000	0.005	0.125
-553.412	-187.476	-0.189	-0.003
-552.398	-90.111	-0.175	-0.051
-551.383	-140.357	-0.219	-0.023
-550.369	-200.000	0.011	0.065
-549.354	200.167	-0.248	0.384
-548.339	139.830	-0.151	0.201
-547.325	526.222	-0.058	0.138
-546.310	-102.681	0.172	0.041
-545.296	-37.346	0.154	-0.083
-544.281	-182.570	-0.212	-0.004
-543.266	-37.126	0.050	-0.027
-542.252	-42.229	0.100	-0.052
-541.237	450.684	0.093	0.208
-540.223	25.599	-0.157	0.132
-539.208	-94.905	0.110	-0.030
-538.193	-14.886	0.224	-0.145
-537.179	-73.962	0.204	0.074
-536.164	63.794	-0.197	0.199
-535.150	-32.256	0.258	-0.145
-534.135	315.225	0.153	0.291
-533.121	58.292	-0.073	-0.072
-532.106	50.565	-0.146	-0.139
-531.091	64.239	-0.292	0.296
-530.077	-200.000	-0.017	-0.092
-529.062	-105.323	-0.402	0.092
-528.048	800.000	0.035	0.141
-527.033	144.934	0.125	0.168
-526.018	-155.068	-0.165	-0.011
-525.004	800.000	0.056	-0.158
-523.989	-170.913	-0.111	0.004
-522.975	115.543	-0.062	0.076
-521.960	-33.336	0.109	0.061
-520.945	60.411	-0.283	0.282
-519.931	101.275	0.085	-0.100
-518.916	-138.043	-0.074	-0.008
-517.902	-80.905	0.147	0.049
-516.887	254.893	0.133	0.229
-515.872	-200.000	-0.016	0.318
-514.858	20.855	0.046	0.037
-513.843	-200.000	0.002	0.041
-512.829	-142.813	-0.076	-0.007
-511.814	37.813	-0.189	-0.169
-510.799	-53.528	-0.280	0.129
-509.785	800.000	-0.096	0.300
-508.770	704.402	0.105	-0.279
-507.756	-93.175	0.298	0.083
-506.741	-137.434	-0.282	-0.032
-505.726	78.075	0.118	0.126
-504.712	122.827	0.160	0.201
-503.697	-200.000	-0.050	0.241
-502.683	147.982	-0.089	-0.121
-501.668	-186.723	0.143	0.002
-500.653	800.000	0.024	-0.084
-499.639	-200.000	-0.028	0.432
-498.624	800.000	0.038	0.129
-497.610	-24.778	0.120	-0.072
-496.595	-55.380	-0.352	0.159
-495.581	800.000	-0.039	-0.114
-494.566	800.000	-0.039	-0.113
-493.551	-200.000	0.009	0.540
-492.537	158.173	-0.144	0.202
-491.522	800.000	0.023	0.082
-490.508	-200.000	0.048	-0.479
-489.493	59.731	-0.081	-0.081
-488.478	-200.000	0.030	0.402
-487.464	201.486	-0.049	-0.076
-486.449	-61.138	0.214	0.091
-485.435	-200.000	0.241	-0.001
-484.420	-200.000	-0.002	0.172
-483.405	334.563	0.091	-0.178
-482.391	83.342	-0.201	-0.220
-481.376	232.493	0.033	-0.055
-480.362	-200.000	0.007	0.096
-479.347	779.566	0.115	0.315
-478.332	-125.008	-0.229	-0.035
-477.318	699.556	0.076	-0.200
-476.303	-200.000	-0.024	-0.248
-475.289	474.132	-0.035	-0.078
-474.274	462.952	0.160	0.359
-473.259	-96.468	-0.149	0.040
-472.245	192.262	-0.165	0.250
-471.230	-200.000	-0.000	0.172
-470.216	64.371	0.099	0.100
-469.201	800.000	-0.017	0.066
-468.186	269.977	-0.128	0.227
-467.172	-200.000	-0.028	0.146
-466.157	-29.163	0.276	-0.159
-465.143	284.802	0.056	-0.102
-464.128	-112.156	0.337	-0.068
-463.113	800.000	0.073	0.288
-462.099	347.108	0.155	-0.306
-461.084	22.891	0.187	-0.154
-460.070	635.463	-0.076	-0.193
-459.055	-181.873	-0.289	-0.006
-458.040	-105.539	-0.369	0.084
-457.026	257.420	-0.125	0.215
-456.011	218.830	0.119	-0.192
-454.997	-71.513	0.253	0.095
-453.982	74.219	0.269	0.284
-452.968	-200.000	0.046	0.221
-451.953	-168.521	0.202	-0.008
-450.938	800.000	-0.074	0.228
-449.924	800.000	0.059	0.222
-448.909	-86.769	0.098	0.030
-447.895	-79.261	0.282	-0.096
-446.880	87.543	0.149	-0.165
-445.865	75.082	-0.089	-0.094
-444.851	-20.886	-0.263	0.162
-443.836	-45.939	-0.030	-0.015
-442.822	-200.000	0.026	0.132
-441.807	-200.000	-0.034	-0.203
-440.792	145.025	0.281	-0.378
-439.778	-131.407	0.411	-0.055
-438.763	-72.909	0.037	0.014
-437.749	800.000	0.053	-0.205
-436.734	-20.404	-0.287	0.177
-435.719	-200.000	-0.010	0.182
-434.705	22.510	-0.220	-0.181
-433.690	-97.476	0.096	-0.025
-432.676	100.168	0.172	-0.200
-431.661	328.300	0.023	-0.044
-430.646	-200.000	-0.007	-0.123
-429.632	-6.707	0.031	0.021
-428.617	-124.532	-0.207	-0.032
-427.603	15.594	-0.265	-0.209
-426.588	-200.000	-0.035	-0.227
-425.573	100.015	-0.086	-0.101
-424.559	800.000	-0.034	0.150
-423.544	800.000	0.103	-0.433
-422.530	800.000	0.049	-0.159
-421.515	-136.217	-0.165	-0.019
-420.500	-24.795	0.152	0.091
-419.486	-33.942	-0.242	-0.134
-418.471	76.421	0.165	-0.176
-417.457	-200.000	-0.035	-0.188
-416.442	37.043	0.225	-0.200
-415.428	-200.000	-0.034	-0.323
-414.413	-47.958	0.324	0.157
-413.398	-59.340	0.046	-0.020
-412.384	222.638	0.209	-0.337
-411.369	-20.783	-0.178	0.109
-410.355	61.270	-0.198	-0.197
-409.340	-84.466	0.131	0.041
-408.325	38.263	-0.216	-0.193
-407.311	800.000	-0.057	-0.197
-406.296	-88.834	-0.096	-0.029
-405.282	-200.000	-0.001	-0.074
-404.267	-28.132	0.033	0.019
-403.252	-107.119	-0.271	0.060
-402.238	800.000	0.127	0.368
-401.223	-200.000	0.008	0.102
-400.209	59.408	0.022	0.021
-399.194	738.784	0.035	-0.094
-398.179	-43.821	0.538	-0.271
-397.165	-57.287	0.351	-0.155
-396.150	-79.458	-0.287	-0.097
-395.136	-160.933	-0.175	-0.009
-394.121	800.000	-0.004	-0.015
-393.106	-200.000	-0.020	-0.096
-392.092	498.790	-0.013	-0.029
-391.077	-106.851	0.358	0.079
-390.063	31.987	0.156	0.135
-389.048	-44.646	0.143	-0.072
-388.033	-200.000	0.019	-0.132
-387.019	-82.573	-0.217	0.071
-386.004	-56.217	-0.222	-0.099
-384.990	22.146	0.300	0.245
-383.975	767.806	-0.087	-0.236
-382.960	5.278	-0.019	-0.014
-381.946	-101.387	-0.168	0.041
-380.931	800.000	0.110	0.307
-379.917	119.190	0.131	-0.162
-378.902	8.181	-0.280	0.211
-377.888	-37.097	-0.154	-0.083
-376.873	161.846	0.120	0.168
-375.858	-81.537	-0.066	-0.022
-374.844	-65.555	-0.124	0.050
-373.829	-9.633	0.086	0.057
-372.815	-8.524	0.152	0.102
-371.800	-200.000	-0.020	0.157
-370.785	26.037	-0.148	-0.124
-369.771	161.347	0.131	0.183
-368.756	-144.468	0.141	-0.013
-367.742	-55.497	0.416	0.187
-366.727	-200.000	-0.016	0.343
-365.712	245.997	0.103	-0.174
-364.698	150.253	-0.114	0.155
-363.683	-51.934	0.302	0.140
-362.669	-200.000	-0.009	0.196
-361.654	70.804	-0.156	-0.162
-360.639	-196.471	-0.127	0.001
-359.625	-96.313	-0.264	-0.070
-358.610	324.977	-0.078	-0.150
-357.596	36.810	-0.235	0.208
-356.581	58.212	-0.095	0.093
-355.566	199.593	-0.190	0.291
-354.552	-110.193	0.281	0.059
-353.537	236.628	0.126	-0.209
-352.523	593.438	0.165	-0.409
-351.508	-132.047	0.212	-0.028
-350.493	-200.000	0.006	0.125
-349.479	-17.401	0.207	0.130
-348.464	96.739	-0.137	-0.157
-347.450	-200.000	0.007	-0.337
-346.435	-200.000	-0.034	-0.251
-345.420	-50.370	0.121	0.057
-344.406	-24.609	-0.111	0.066
-343.391	93.711	0.159	0.180
-342.377	-97.665	0.124	0.032
-341.362	800.000	-0.036	0.108
-340.348	12.878	-0.078	-0.060
-339.333	52.299	-0.313	-0.299
-338.318	89.147	0.035	0.039
-337.304	2.463	-0.225	0.163
-336.289	71.441	-0.163	0.170
-335.275	108.755	0.328	0.392
-334.260	800.000	-0.090	-0.249
-333.245	800.000	-0.057	-0.168
-332.231	-56.258	-0.424	0.188
-331.216	-200.000	-0.009	0.187
-330.202	17.163	-0.272	-0.216
-329.187	-200.000	0.032	-0.188
-328.172	800.000	0.031	-0.117
-327.158	68.741	0.236	-0.242
-326.143	800.000	0.053	-0.203
-325.129	-61.257	-0.132	0.056
-324.114	-108.942	0.260	-0.055
-323.099	461.663	0.108	-0.241
-322.085	-50.618	-0.195	-0.092
-321.070	132.927	0.118	-0.152
-320.056	-200.000	0.019	-0.232
-319.041	-200.000	0.033	0.180
-318.026	-83.828	-0.062	0.020
-317.012	7.511	-0.161	-0.120
-315.997	-36.678	-0.206	-0.111
-314.983	-200.000	0.029	-0.214
-313.968	-103.215	0.344	-0.081
-312.953	-122.142	-0.055	-0.009
-311.939	-148.432	0.334	-0.027
-310.924	-200.000	0.005	0.267
-309.910	-50.860	0.087	0.041
-308.895	800.000	-0.119	-0.389
-307.880	-200.000	0.047	-0.264
-306.866	800.000	0.100	0.288
-305.851	57.638	-0.133	0.129
-304.837	-200.000	0.080	-0.446
-303.822	-7.144	-0.131	-0.088
-302.807	10.980	-0.121	-0.092
-301.793	-25.688	0.230	-0.135
-300.778	453.960	-0.137	-0.303
-299.764	-200.000	0.003	0.220
-298.749	160.354	0.202	0.282
-297.735	140.969	0.234	0.309
-296.720	4.660	0.075	-0.055
-295.705	800.000	0.008	-0.035
-294.691	220.078	-0.124	0.199
-293.676	-79.461	0.131	0.044
-292.662	-46.058	0.217	0.107
-291.647	67.665	-0.073	0.074
-290.632	-72.206	-0.119	-0.044
-289.618	-61.285	0.433	0.182
-288.603	218.558	-0.029	-0.047
-287.589	-200.000	-0.071	0.378
-286.574	371.510	-0.026	-0.053
-285.559	800.000	-0.123	-0.422
-284.545	440.418	-0.070	-0.153
-283.530	-41.598	0.231	-0.119
-282.516	-72.683	-0.094	0.035
-281.501	-104.599	0.204	0.047
-280.486	-32.451	-0.233	-0.129
-279.472	-26.893	0.125	0.073
-278.457	-200.000	-0.008	0.299
-277.443	-47.684	-0.277	0.134
-276.428	-148.982	-0.122	-0.010
-275.413	180.331	-0.082	0.120
-274.399	-111.556	-0.545	-0.110
-273.384	-108.428	0.374	-0.080
-272.370	-200.000	-0.007	0.330
-271.355	-160.114	-0.414	-0.022
-270.340	78.244	-0.247	0.263
-269.326	-30.385	0.315	-0.178
-268.311	-94.248	-0.094	-0.026
-267.297	622.290	0.036	-0.090
-266.282	17.494	0.153	-0.121
-265.267	236.849	0.066	-0.109
-264.253	205.265	0.216	-0.335
-263.238	-115.854	-0.053	-0.010
-262.224	-128.829	0.186	0.026
-261.209	-7.510	0.186	-0.125
-260.195	-62.492	0.041	0.017
-259.180	382.351	-0.197	0.404
-258.165	1.972	0.168	-0.120
-257.151	-200.000	0.024	0.225
-256.136	-38.864	0.160	-0.084
-255.122	-14.958	0.112	0.072
-254.107	800.000	0.094	-0.327
-253.092	800.000	0.054	-0.204
-252.078	-200.000	-0.048	0.377
-251.063	-136.412	-0.361	-0.042
-250.049	-84.756	-0.430	0.135
-249.034	-85.843	0.131	0.040
-248.019	-200.000	-0.024	-0.156
-247.005	165.231	0.164	-0.230
-245.990	15.798	-0.039	0.031
-244.976	194.318	-0.037	0.056
-243.961	64.500	0.148	-0.149
-242.946	76.261	-0.178	0.188
-241.932	-200.000	0.010	-0.443
-240.917	-67.386	0.350	-0.137
-239.903	32.846	-0.184	0.158
-238.888	-200.000	-0.008	0.139
-237.873	-108.129	0.075	0.016
-236.859	-182.030	0.140	0.003
-235.844	-200.000	-0.003	0.068
-234.830	-107.301	0.251	-0.055
-233.815	-200.000	0.066	-0.354
-232.800	-200.000	-0.010	-0.203
-231.786	-169.494	0.075	-0.003
-230.771	-200.000	-0.044	-0.327
-229.757	-88.179	-0.098	0.029
-228.742	-200.000	-0.030	0.247
-227.727	-65.540	0.102	-0.041
-226.713	5.330	-0.085	0.062
-225.698	-23.512	-0.128	-0.076
-224.684	-200.000	-0.192	-0.001
-223.669	-32.673	0.177	0.098
-222.655	-111.878	0.351	-0.071
-221.640	0.576	0.193	0.137
-220.625	-34.046	-0.226	-0.124
-219.611	-200.000	-0.017	0.240
-218.596	256.062	-0.121	0.207
-217.582	-200.000	0.040	-0.194
-216.567	-107.921	0.176	-0.038
-215.552	-200.000	-0.013	0.106
-214.538	800.000	0.073	0.225
-213.523	-171.959	-0.242	0.008
-212.509	-86.855	0.230	-0.070
-211.494	-14.536	-0.394	-0.252
-210.479	-82.118	0.175	-0.057
-209.465	800.000	-0.029	0.104
-208.450	-200.000	0.000	0.341
-207.436	737.158	-0.109	-0.291
-206.421	-200.000	0.072	-0.376
-205.406	216.850	-0.113	-0.179
-204.392	-200.000	0.037	-0.175
-203.377	-200.000	-0.089	-0.390
-202.363	254.455	-0.104	0.176
-201.348	23.437	-0.189	0.155
-200.333	-78.348	0.145	0.049
-199.319	-113.278	-0.178	-0.035
-198.304	-200.000	-0.025	0.148
-197.290	-149.015	0.217	-0.017
-196.275	326.315	0.088	-0.168
-195.260	-200.000	-0.039	0.461
-194.246	-200.000	-0.022	0.151
-193.231	-25.119	0.084	-0.050
-192.217	-101.812	0.210	0.051
-191.202	-200.000	-0.022	-0.145
-190.187	318.415	-0.070	0.132
-189.173	22.537	-0.183	-0.148
-188.158	-121.733	0.156	0.026
-187.144	720.852	0.057	0.150
-186.129	-87.531	-0.247	-0.074
-185.114	485.436	-0.050	0.113
-184.100	124.372	-0.052	-0.065
-183.085	-127.806	-0.139	-0.020
-182.071	-163.972	-0.395	-0.018
-181.056	103.655	0.088	0.103
-180.042	2.297	0.161	0.116
-179.027	204.200	-0.161	-0.247
-178.012	269.582	0.051	-0.089
-176.998	528.904	0.041	-0.096
-175.983	-76.145	-0.141	-0.049
-174.969	-101.571	0.350	-0.084
-173.954	-43.482	0.441	-0.221
-172.939	800.000	0.082	0.326
-171.925	-79.321	-0.166	-0.056
-170.910	-200.000	0.029	0.230
-169.896	800.000	0.129	0.498
-168.881	-200.000	0.006	0.223
-167.866	16.189	-0.228	-0.178
-166.852	-200.000	0.000	-0.366
-165.837	-200.000	-0.017	-0.110
-164.823	-113.008	0.135	-0.026
-163.808	332.361	-0.036	-0.070
-162.793	800.000	0.102	0.387
-161.779	800.000	-0.077	-0.267
-160.764	221.822	-0.137	-0.218
-159.750	-45.033	-0.107	0.053
-158.735	-161.976	-0.170	-0.008
-157.720	377.763	-0.054	-0.109
-156.706	-200.000	0.005	0.116
-155.691	-61.418	-0.107	0.044
-154.677	58.689	-0.149	-0.145
-153.662	-84.829	0.229	-0.071
-152.647	343.070	-0.093	0.181
-151.633	-200.000	-0.017	-0.238
-150.618	800.000	-0.115	0.344
-149.604	-179.401	-0.209	0.005
-148.589	-200.000	-0.022	-0.434
-147.574	-79.475	0.210	0.071
-146.560	520.943	0.078	0.182
-145.545	50.508	0.415	-0.390
-144.531	80.995	-0.169	-0.181
-143.516	72.603	0.119	0.124
-142.502	83.958	0.155	-0.168
-141.487	-106.356	-0.139	-0.031
-140.472	-115.734	-0.220	-0.041
-139.458	0.985	-0.313	0.223
-138.443	177.676	0.067	-0.097
-137.429	-200.000	0.241	-0.000
-136.414	-60.565	-0.052	-0.022
-135.399	433.267	0.033	-0.070
-134.385	-3.501	-0.168	-0.116
-133.370	230.259	0.252	-0.409
-132.356	-14.200	0.227	0.145
-131.341	-9.569	-0.101	0.067
-130.326	3.259	-0.092	-0.066
-129.312	-96.637	0.233	0.061
-128.297	-151.067	0.272	0.020
-127.283	-200.000	0.001	0.142
-126.268	110.900	0.136	-0.162
-125.253	800.000	0.023	0.067
-124.239	800.000	0.108	-0.379
-123.224	-146.437	0.303	0.026
-122.210	-36.580	0.234	0.125
