DTS Sentinel unit serial number:	SN413079Multiplexer serial number:	ORYXHardware model number:	OX4-SRSoftware version number:	ORYX F/W v4.00 Oryx Data Collector v3.7.2.0data status	okinstallation	princeton_trtdifferential loss correction	single-endedforward channel	channel 3reverse channel	N/Adate	2019/09/16time	15:16:35forward acquisition time	60.00reverse acquisition time	0.00gamma	496.2192k internal	0.2292k external	0.2292temperature offset calibration	0.9941default loss term (dB/km)	0.3790temperature slope calibration	1.0000multiplexer offset coefficient	1.0000multiplexer slope coefficient	1.0000fibre end	0.00T internal ref (°C)	41.06T ext. ref 1 (°C)	14.58T ext. ref 2 (°C)	36.58length (m)	temperature (°C)	Stokes	anti-Stokes-747.200	-200.000	-0.001	-0.039
-746.185	265.629	0.308	0.549
-745.171	-200.000	-0.035	0.176
-744.156	524.086	-0.187	0.449
-743.142	170.677	-0.086	-0.127
-742.127	32.254	0.131	-0.116
-741.112	-13.937	-0.141	0.093
-740.098	800.000	-0.029	0.085
-739.083	-128.243	0.048	-0.007
-738.069	338.138	0.145	0.288
-737.054	64.343	0.112	-0.115
-736.039	800.000	-0.065	0.189
-735.025	-38.406	0.245	0.132
-734.010	0.260	-0.236	-0.172
-732.996	-200.000	0.022	-0.316
-731.981	623.613	0.120	-0.309
-730.966	800.000	0.024	0.101
-729.952	105.454	0.261	-0.315
-728.937	145.424	-0.102	-0.140
-727.923	163.030	-0.069	0.099
-726.908	800.000	0.039	0.165
-725.894	800.000	-0.057	0.219
-724.879	275.291	-0.129	-0.233
-723.864	-5.679	-0.199	0.140
-722.850	-110.333	0.285	0.061
-721.835	800.000	0.056	0.180
-720.821	800.000	-0.107	-0.367
-719.806	-200.000	0.022	0.133
-718.791	66.087	-0.303	-0.314
-717.777	164.621	-0.080	-0.115
-716.762	-32.763	0.068	0.038
-715.748	-200.000	-0.018	0.123
-714.733	4.821	-0.260	0.196
-713.718	800.000	0.093	0.332
-712.704	88.489	0.153	0.173
-711.689	508.338	-0.115	-0.273
-710.675	-200.000	0.012	-0.133
-709.660	437.827	0.061	0.136
-708.645	800.000	0.061	-0.256
-707.631	-89.873	-0.021	-0.006
-706.616	-200.000	-0.009	0.121
-705.602	-65.498	-0.058	0.024
-704.587	-16.664	0.216	-0.140
-703.572	-51.475	0.293	-0.140
-702.558	357.398	0.026	-0.053
-701.543	511.450	-0.043	0.102
-700.529	-118.170	0.356	0.065
-699.514	-200.000	0.008	0.074
-698.499	120.477	0.165	0.210
-697.485	-174.744	-0.279	0.008
-696.470	-181.968	0.083	0.002
-695.456	-200.000	-0.044	0.357
-694.441	-200.000	0.026	-0.142
-693.426	-200.000	-0.059	-0.320
-692.412	-194.560	-0.187	-0.002
-691.397	-200.000	-0.000	-0.043
-690.383	124.520	-0.183	0.235
-689.368	769.708	-0.083	0.230
-688.354	-200.000	-0.000	0.073
-687.339	-48.848	-0.360	-0.176
-686.324	800.000	-0.038	0.134
-685.310	-200.000	-0.005	0.146
-684.295	280.613	-0.024	0.045
-683.281	-200.000	-0.074	-0.399
-682.266	264.912	-0.037	-0.066
-681.251	800.000	-0.020	-0.082
-680.237	800.000	-0.082	-0.267
-679.222	472.170	0.164	-0.377
-678.208	-74.257	-0.123	0.045
-677.193	81.706	-0.246	-0.272
-676.178	-161.979	-0.162	-0.008
-675.164	800.000	-0.037	0.151
-674.149	-119.012	-0.264	-0.047
-673.135	133.420	-0.083	-0.110
-672.120	800.000	0.054	0.164
-671.105	203.154	-0.098	-0.155
-670.091	-54.722	0.305	-0.141
-669.076	183.294	-0.103	-0.155
-668.062	23.337	0.372	-0.312
-667.047	-14.191	-0.194	0.128
-666.032	-18.725	0.047	0.030
-665.018	-91.516	-0.223	0.065
-664.003	-47.036	0.290	-0.144
-662.989	-200.000	-0.013	0.087
-661.974	98.108	-0.128	0.150
-660.959	-139.109	-0.176	-0.019
-659.945	36.422	0.113	-0.101
-658.930	-3.469	-0.073	0.052
-657.916	-200.000	-0.055	-0.302
-656.901	315.197	0.120	-0.232
-655.886	139.185	0.102	0.137
-654.872	-200.000	-0.005	0.032
-653.857	-112.549	0.236	0.048
-652.843	-39.253	-0.049	0.026
-651.828	291.781	0.111	-0.206
-650.814	-58.911	-0.056	0.025
-649.799	-94.041	0.326	0.091
-648.784	108.091	0.206	-0.250
-647.770	24.543	0.150	-0.126
-646.755	-108.253	0.114	-0.025
-645.741	40.919	-0.286	0.263
-644.726	800.000	-0.126	0.533
-643.711	-82.464	-0.255	-0.084
-642.697	167.195	-0.189	0.273
-641.682	-34.903	0.236	0.131
-640.668	-200.000	-0.006	-0.090
-639.653	-200.000	-0.007	-0.215
-638.638	800.000	-0.013	-0.056
-637.624	-200.000	0.070	-0.482
-636.609	-70.071	0.038	0.015
-635.595	-55.754	-0.180	0.082
-634.580	121.429	-0.086	-0.109
-633.565	20.314	-0.163	0.135
-632.551	171.088	-0.202	0.295
-631.536	-98.711	0.210	-0.055
-630.522	-5.165	-0.158	0.110
-629.507	163.894	0.115	-0.166
-628.492	-86.026	0.077	-0.024
-627.478	586.604	-0.032	-0.081
-626.463	-59.400	-0.065	0.029
-625.449	-85.483	-0.019	-0.006
-624.434	8.574	0.182	0.140
-623.419	88.037	-0.142	0.160
-622.405	45.475	-0.201	0.189
-621.390	110.462	0.189	-0.232
-620.376	-39.457	0.214	-0.114
-619.361	-200.000	0.000	-0.079
-618.346	-14.270	-0.189	-0.124
-617.332	800.000	-0.117	-0.368
-616.317	46.190	-0.261	0.247
-615.303	379.376	-0.155	0.323
-614.288	-200.000	-0.012	0.081
-613.273	293.320	-0.157	0.292
-612.259	9.123	0.215	-0.165
-611.244	-112.851	0.367	-0.074
-610.230	418.136	-0.069	-0.151
-609.215	0.804	-0.274	0.200
-608.201	201.554	0.068	-0.106
-607.186	268.901	-0.065	0.116
-606.171	-60.442	0.047	-0.020
-605.157	-94.767	0.227	0.063
-604.142	67.578	-0.196	0.204
-603.128	390.812	-0.033	-0.069
-602.113	-9.798	0.354	0.240
-601.098	41.672	0.055	-0.051
-600.084	-161.482	0.208	0.011
-599.069	3.392	-0.061	-0.045
-598.055	110.678	-0.189	-0.231
-597.040	-94.086	-0.209	0.058
-596.025	-73.916	0.297	0.110
-595.011	800.000	-0.045	0.149
-593.996	148.867	0.207	0.285
-592.982	249.796	0.118	-0.204
-591.967	34.283	0.088	-0.078
-590.952	-188.137	-0.288	-0.004
-589.938	-16.459	0.125	0.081
-588.923	-200.000	0.034	0.192
-587.909	139.283	-0.256	-0.343
-586.894	-32.095	0.370	0.211
-585.879	-123.914	0.063	0.010
-584.865	-70.305	-0.346	0.133
-583.850	235.689	-0.100	0.168
-582.836	441.512	-0.088	-0.196
-581.821	50.779	-0.247	-0.238
-580.806	-35.446	-0.097	0.054
-579.792	-88.446	0.475	-0.144
-578.777	555.056	0.072	0.177
-577.763	35.661	-0.034	-0.031
-576.748	-3.812	-0.061	-0.043
-575.733	157.932	0.067	-0.094
-574.719	-200.000	-0.017	0.225
-573.704	-63.498	0.142	-0.059
-572.690	-131.409	0.184	0.025
-571.675	9.454	-0.324	0.250
-570.661	54.941	0.088	-0.087
-569.646	-56.551	-0.139	0.063
-568.631	-73.373	-0.163	0.061
-567.617	-163.581	0.233	0.011
-566.602	800.000	0.013	-0.055
-565.588	-82.621	-0.358	-0.118
-564.573	-5.522	0.282	0.196
-563.558	246.745	-0.180	-0.309
-562.544	214.237	-0.162	-0.260
-561.529	-70.547	-0.053	-0.020
-560.515	-89.048	-0.147	-0.044
-559.500	-95.142	0.334	-0.091
-558.485	-14.039	0.415	-0.272
-557.471	319.601	-0.047	0.091
-556.456	65.928	-0.163	0.168
-555.442	93.108	-0.200	0.230
-554.427	-145.519	0.240	-0.022
-553.412	103.112	0.117	0.140
-552.398	-59.800	-0.276	-0.120
-551.383	-125.159	-0.064	-0.010
-550.369	-12.801	-0.207	0.137
-549.354	-200.000	-0.010	-0.233
-548.339	14.621	-0.093	0.074
-547.325	-131.244	0.139	0.019
-546.310	83.624	-0.205	-0.227
-545.296	-200.000	0.010	-0.076
-544.281	255.235	-0.081	0.140
-543.266	-37.936	0.310	-0.167
-542.252	343.878	-0.098	-0.196
-541.237	119.551	0.106	-0.133
-540.223	-85.027	-0.161	0.051
-539.208	155.161	-0.067	-0.094
-538.193	589.196	-0.078	0.194
-537.179	-38.788	-0.124	-0.066
-536.164	-200.000	0.021	-0.191
-535.150	-92.923	0.478	0.135
-534.135	-129.271	-0.298	-0.042
-533.121	-34.247	-0.132	0.073
-532.106	800.000	-0.010	0.036
-531.091	800.000	0.021	-0.061
-530.077	-200.000	-0.015	0.287
-529.062	255.633	-0.098	0.171
-528.048	-69.436	-0.305	-0.119
-527.033	-82.293	-0.289	0.095
-526.018	-121.680	-0.174	0.029
-525.004	-121.544	0.124	-0.021
-523.989	800.000	-0.008	0.033
-522.975	-75.087	0.340	0.123
-521.960	-145.097	0.056	0.005
-520.945	-127.760	-0.157	0.023
-519.931	85.244	0.223	-0.248
-518.916	80.102	0.055	0.060
-517.902	2.623	0.106	0.078
-516.887	215.320	0.191	-0.307
-515.872	800.000	0.059	-0.254
-514.858	800.000	0.071	-0.306
-513.843	-200.000	-0.003	-0.117
-512.829	-200.000	0.050	-0.291
-511.814	800.000	-0.037	0.113
-510.799	254.178	0.204	0.353
-509.785	-90.306	0.319	-0.094
-508.770	-200.000	0.001	0.098
-507.756	143.699	0.147	-0.199
-506.741	459.391	0.102	-0.231
-505.726	-14.215	-0.117	-0.077
-504.712	-35.543	0.097	0.054
-503.697	18.288	0.181	-0.147
-502.683	3.464	-0.186	-0.137
-501.668	-200.000	0.002	-0.134
-500.653	-200.000	-0.080	-0.383
-499.639	-200.000	-0.028	-0.203
-498.624	-34.913	-0.149	-0.082
-497.610	-136.924	-0.511	-0.059
-496.595	86.871	-0.065	-0.073
-495.581	-200.000	0.002	-0.160
-494.566	19.361	0.257	-0.209
-493.551	-38.672	0.171	0.091
-492.537	800.000	-0.072	0.286
-491.522	23.925	0.193	-0.161
-490.508	-124.111	0.123	-0.020
-489.493	-48.689	-0.135	-0.066
-488.478	12.466	0.050	0.039
-487.464	-45.038	-0.087	0.044
-486.449	800.000	-0.075	-0.245
-485.435	-141.204	0.189	0.020
-484.420	32.417	0.315	0.275
-483.405	-200.000	-0.045	0.315
-482.391	455.211	0.135	-0.304
-481.376	-26.202	0.124	-0.073
-480.362	37.674	0.115	0.104
-479.347	108.303	-0.044	-0.054
-478.332	-200.000	-0.055	-0.430
-477.318	-77.525	-0.249	0.087
-476.303	264.285	-0.046	0.082
-475.289	766.211	0.061	0.168
-474.274	-200.000	-0.013	-0.117
-473.259	443.532	0.015	0.033
-472.245	-93.671	-0.131	0.037
-471.230	800.000	0.060	0.174
-470.216	-200.000	0.001	0.173
-469.201	-200.000	0.074	0.364
-468.186	562.129	0.119	0.291
-467.172	-200.000	0.087	-0.487
-466.157	-200.000	-0.012	-0.069
-465.143	-86.664	0.243	0.075
-464.128	-200.000	0.013	-0.135
-463.113	-200.000	-0.008	0.058
-462.099	-120.203	-0.484	-0.084
-461.084	-182.604	-0.360	0.007
-460.070	278.842	0.122	-0.221
-459.055	-149.370	0.305	-0.025
-458.040	22.482	0.183	0.151
-457.026	-70.409	0.125	-0.048
-456.011	14.433	-0.089	0.070
-454.997	-60.870	-0.084	-0.036
-453.982	-185.618	-0.392	0.006
-452.968	220.306	-0.029	-0.047
-451.953	343.309	-0.124	-0.245
-450.938	32.589	-0.167	-0.146
-449.924	-200.000	0.087	-0.569
-448.909	42.285	0.146	0.134
-447.895	-54.126	0.413	0.190
-446.880	-44.752	0.363	-0.183
-445.865	-159.273	-0.213	-0.012
-444.851	74.874	0.161	0.172
-443.836	379.335	-0.116	0.240
-442.822	-200.000	0.004	-0.140
-441.807	-200.000	0.014	-0.351
-440.792	87.493	-0.151	0.169
-439.778	248.994	0.095	0.162
-438.763	800.000	-0.078	0.344
-437.749	-72.771	0.316	0.118
-436.734	-52.450	-0.008	-0.004
-435.719	-200.000	0.030	-0.231
-434.705	-143.180	-0.116	0.011
-433.690	253.708	0.264	0.457
-432.676	-200.000	-0.065	0.438
-431.661	-141.929	-0.090	0.009
-430.646	800.000	0.084	-0.269
-429.632	-15.589	-0.360	0.232
-428.617	-200.000	-0.060	0.326
-427.603	-200.000	-0.017	-0.155
-426.588	212.837	-0.137	0.218
-425.573	368.014	-0.182	-0.372
-424.559	51.004	-0.046	0.044
-423.544	-75.182	-0.418	-0.151
-422.530	178.685	-0.125	0.185
-421.515	-8.425	-0.349	0.237
-420.500	150.426	0.073	0.100
-419.486	706.706	-0.131	0.349
-418.471	649.806	0.062	0.161
-417.457	800.000	0.022	0.081
-416.442	-28.782	0.184	0.107
-415.428	121.057	0.104	0.130
-414.413	588.105	0.055	-0.136
-413.398	-86.285	0.354	-0.110
-412.384	-76.165	0.315	-0.112
-411.369	310.960	-0.051	-0.097
-410.355	-40.314	-0.181	0.095
-409.340	-42.068	0.112	-0.058
-408.325	800.000	0.057	-0.184
-407.311	-200.000	0.256	-0.001
-406.296	-200.000	-0.036	-0.191
-405.282	-62.636	0.325	-0.136
-404.267	89.276	-0.121	-0.137
-403.252	-100.601	0.259	0.065
-402.238	-200.000	0.001	0.007
-401.223	-112.822	0.324	0.065
-400.209	49.097	-0.158	0.150
-399.194	-80.518	-0.039	-0.013
-398.179	-171.735	-0.178	0.006
-397.165	-200.000	0.000	0.255
-396.150	380.524	-0.100	0.206
-395.136	-200.000	0.026	-0.184
-394.121	-200.000	0.029	-0.183
-393.106	97.245	-0.164	0.190
-392.092	-96.699	-0.059	-0.016
-391.077	-130.028	0.536	-0.074
-390.063	122.210	-0.233	-0.293
-389.048	-96.122	-0.062	-0.017
-388.033	-200.000	-0.042	0.401
-387.019	-38.761	-0.118	0.063
-386.004	-147.028	0.186	-0.016
-384.990	-58.978	0.250	0.109
-383.975	-32.286	0.107	0.060
-382.960	590.302	-0.027	-0.068
-381.946	-98.348	0.215	0.056
-380.931	-200.000	-0.016	0.207
-379.917	-123.115	-0.090	-0.015
-378.902	-39.390	-0.198	0.105
-377.888	-112.870	0.114	0.023
-376.873	-36.718	-0.070	0.038
-375.858	-159.227	-0.105	-0.006
-374.844	52.995	0.073	-0.070
-373.829	22.702	-0.320	0.265
-372.815	23.262	0.227	0.188
-371.800	305.104	-0.106	0.199
-370.785	-64.707	0.356	-0.145
-369.771	800.000	0.036	-0.123
-368.756	269.540	0.128	0.226
-367.742	-105.073	0.527	0.122
-366.727	-11.670	-0.077	-0.051
-365.712	-200.000	-0.022	-0.267
-364.698	-54.386	0.253	0.116
-363.683	-200.000	0.036	0.211
-362.669	-200.000	-0.089	0.475
-361.654	273.577	0.120	0.214
-360.639	-132.931	-0.404	0.052
-359.625	52.750	-0.177	-0.171
-358.610	117.354	-0.293	-0.364
-357.596	800.000	-0.111	-0.329
-356.581	549.574	0.076	0.183
-355.566	-200.000	0.000	-0.112
-354.552	-200.000	0.028	-0.190
-353.537	800.000	-0.039	-0.151
-352.523	-43.583	0.167	0.085
-351.508	-88.095	0.272	-0.082
-350.493	51.597	0.287	-0.274
-349.479	13.321	0.257	-0.201
-348.464	77.307	0.068	-0.073
-347.450	39.498	0.225	0.203
-346.435	-200.000	-0.039	0.375
-345.420	-84.115	0.496	0.159
-344.406	-141.893	-0.378	-0.038
-343.391	-120.840	-0.064	0.011
-342.377	-49.331	0.193	0.093
-341.362	800.000	-0.044	-0.152
-340.348	1.383	0.120	-0.087
-339.333	-56.389	-0.048	0.021
-338.318	117.002	0.133	-0.164
-337.304	24.843	0.137	-0.115
-336.289	480.868	0.125	-0.287
-335.275	113.903	-0.254	-0.310
-334.260	-200.000	-0.037	0.347
-333.245	-69.959	0.213	-0.082
-332.231	-81.063	-0.235	-0.078
-331.216	214.028	-0.088	0.140
-330.202	-3.678	0.181	0.127
-329.187	-88.849	-0.262	-0.078
-328.172	-200.000	0.029	0.167
-327.158	36.475	0.090	-0.080
-326.143	-200.000	-0.005	0.132
-325.129	105.360	0.210	-0.249
-324.114	-112.166	-0.182	0.037
-323.099	636.903	-0.016	0.040
-322.085	662.490	-0.102	-0.265
-321.070	117.406	0.098	0.122
-320.056	-69.140	-0.337	0.130
-319.041	-121.149	0.093	-0.016
-318.026	73.733	-0.101	-0.107
-317.012	77.619	-0.051	-0.054
-315.997	-146.432	0.107	0.009
-314.983	238.111	-0.138	0.230
-313.968	-200.000	0.020	-0.114
-312.953	491.921	0.112	0.258
-311.939	32.657	-0.235	-0.205
-310.924	149.981	-0.115	0.157
-309.910	-200.000	0.005	-0.090
-308.895	99.733	-0.211	0.246
-307.880	800.000	0.071	-0.225
-306.866	-96.842	0.255	-0.067
-305.851	-19.380	0.245	-0.153
-304.837	-172.582	0.182	0.006
-303.822	191.940	-0.153	0.233
-302.807	226.397	-0.018	0.029
-301.793	345.660	-0.101	-0.199
-300.778	323.573	0.102	0.195
-299.764	185.716	0.092	-0.137
-298.749	-39.974	-0.391	0.205
-297.735	32.173	0.122	0.106
-296.720	-200.000	0.007	0.061
-295.705	-200.000	-0.008	-0.048
-294.691	-200.000	0.010	0.044
-293.676	-49.505	0.393	0.188
-292.662	800.000	0.011	0.031
-291.647	-51.958	0.274	-0.128
-290.632	-83.576	0.187	0.060
-289.618	-120.471	-0.194	-0.033
-288.603	70.634	0.233	-0.243
-287.589	-89.185	0.542	0.161
-286.574	-31.572	0.207	-0.117
-285.559	-54.085	-0.207	0.095
-284.545	-71.592	-0.110	0.041
-283.530	-38.291	0.071	0.038
-282.516	7.318	-0.056	0.042
-281.501	77.136	0.183	-0.196
-280.486	160.113	0.153	0.214
-279.472	492.252	-0.043	0.099
-278.457	479.144	-0.129	-0.293
-277.443	-200.000	0.055	0.374
-276.428	-200.000	-0.042	0.224
-275.413	86.629	0.304	-0.337
-274.399	65.660	0.181	0.184
-273.384	-49.183	0.122	-0.059
-272.370	39.638	0.079	-0.072
-271.355	53.462	-0.194	0.187
-270.340	301.547	-0.132	0.245
-269.326	-124.379	0.120	0.019
-268.311	102.390	-0.248	-0.292
-267.297	-126.732	0.030	0.005
-266.282	274.141	-0.100	0.178
-265.267	3.868	-0.060	0.044
-264.253	66.456	0.068	0.070
-263.238	94.695	-0.024	-0.028
-262.224	800.000	0.020	-0.069
-261.209	-157.404	0.281	0.017
-260.195	337.695	0.076	-0.149
-259.180	800.000	0.047	-0.197
-258.165	84.059	0.208	0.228
-257.151	-124.170	0.194	-0.031
-256.136	-82.926	0.378	0.123
-255.122	-20.578	-0.163	-0.101
-254.107	-64.437	-0.188	0.077
-253.092	-11.133	0.023	0.015
-252.078	-27.620	0.095	-0.055
-251.063	-75.346	-0.230	-0.082
-250.049	800.000	-0.023	0.098
-249.034	-189.368	-0.370	0.004
-248.019	99.108	-0.039	-0.045
-247.005	-69.487	-0.252	0.097
-245.990	-164.381	0.240	-0.011
-244.976	-117.944	-0.195	-0.035
-243.961	-117.702	-0.141	-0.025
-242.946	193.751	-0.019	0.029
-241.932	-47.348	-0.255	0.125
-240.917	745.929	0.042	0.113
-239.903	458.993	0.093	-0.208
-238.888	-160.161	0.157	0.009
-237.873	39.118	-0.183	0.165
-236.859	-200.000	0.045	0.336
-235.844	-69.414	-0.323	0.124
-234.830	336.837	0.121	-0.235
-233.815	-200.000	0.026	0.153
-232.800	800.000	0.021	0.084
-231.786	86.311	-0.146	-0.161
-230.771	566.868	-0.095	0.230
-229.757	128.255	-0.065	0.083
-228.742	19.446	-0.107	-0.086
-227.727	15.336	-0.252	-0.198
-226.713	679.839	-0.136	0.355
-225.698	-129.489	0.290	-0.040
-224.684	-104.487	-0.338	0.078
-223.669	-5.563	-0.068	-0.047
-222.655	800.000	0.082	0.264
-221.640	45.591	0.223	-0.207
-220.625	96.782	0.071	-0.081
-219.611	-103.842	0.174	-0.041
-218.596	-200.000	0.009	0.058
-217.582	-38.502	0.087	-0.046
-216.567	-31.249	0.186	0.105
-215.552	726.728	0.043	0.116
-214.538	800.000	0.093	-0.285
-213.523	130.304	-0.044	0.057
-212.509	260.525	-0.053	0.093
-211.494	285.829	-0.081	0.146
-210.479	-74.809	-0.189	0.068
-209.465	362.649	-0.046	-0.093
-208.450	-200.000	0.027	-0.259
-207.436	93.958	-0.173	0.197
-206.421	-125.475	0.260	0.040
-205.406	46.616	0.089	-0.083
-204.392	-57.155	0.086	0.038
-203.377	154.221	0.017	-0.024
-202.363	-163.908	-0.322	0.015
-201.348	-61.714	-0.173	0.073
-200.333	-67.634	-0.223	0.088
-199.319	216.258	-0.051	-0.081
-198.304	-3.728	-0.263	-0.183
-197.290	-169.054	0.635	0.024
-196.275	94.160	0.053	-0.060
-195.260	28.607	-0.192	-0.163
-194.246	-1.753	-0.171	-0.121
-193.231	-192.961	-0.063	0.001
-192.217	-132.741	-0.302	0.039
-191.202	-139.505	-0.164	-0.018
-190.187	800.000	-0.042	-0.131
-189.173	-44.111	0.091	0.046
-188.158	0.403	0.197	0.141
-187.144	148.814	0.263	-0.356
-186.129	-135.268	-0.147	-0.018
-185.114	209.337	0.085	-0.133
-184.100	8.190	-0.173	0.130
-183.085	-200.000	-0.038	0.172
-182.071	-54.375	0.048	-0.022
-181.056	215.846	-0.115	-0.183
-180.042	-200.000	-0.036	-0.182
-179.027	-4.887	-0.073	-0.050
-178.012	-94.421	-0.266	-0.073
-176.998	-85.446	-0.272	0.085
-175.983	-200.000	-0.040	0.178
-174.969	175.953	0.054	-0.078
-173.954	-91.949	-0.152	-0.043
-172.939	115.316	-0.090	-0.110
-171.925	84.395	-0.172	-0.188
-170.910	-74.011	-0.238	-0.086
-169.896	-92.351	-0.280	0.079
-168.881	98.858	0.056	-0.065
-167.866	-26.323	-0.222	0.130
-166.852	-49.155	0.249	0.119
-165.837	-101.857	-0.184	-0.044
-164.823	-4.003	-0.209	-0.145
-163.808	95.656	-0.100	0.114
-162.793	800.000	0.048	-0.190
-161.779	100.825	-0.111	-0.130
-160.764	149.250	-0.139	0.188
-159.750	-83.102	-0.348	0.112
-158.735	-200.000	-0.025	-0.249
-157.720	-129.757	0.100	-0.014
-156.706	-200.000	-0.025	-0.162
-155.691	128.512	-0.137	-0.174
-154.677	-23.393	-0.129	0.077
-153.662	98.883	-0.138	0.160
-152.647	116.919	0.221	-0.272
-151.633	-66.668	0.174	-0.069
-150.618	231.079	0.018	-0.030
-149.604	-200.000	-0.003	-0.092
-148.589	206.848	-0.053	0.082
-147.574	339.128	-0.065	-0.127
-146.560	-80.012	-0.335	0.112
-145.545	679.769	0.134	-0.349
-144.531	-47.943	-0.173	0.084
-143.516	148.087	0.145	0.195
-142.502	216.355	0.174	0.276
-141.487	-126.206	-0.237	-0.035
-140.472	-85.614	0.257	0.080
-139.458	92.645	0.058	0.065
-138.443	-200.000	-0.000	0.040
-137.429	-200.000	0.031	-0.400
-136.414	297.228	0.097	-0.178
-135.399	-88.862	-0.145	0.043
-134.385	-69.573	0.100	0.038
-133.370	-99.241	0.029	0.007
-132.356	-200.000	0.003	0.243
-131.341	-76.447	0.121	-0.043
-130.326	-78.420	0.264	-0.090
-129.312	-200.000	0.006	0.189
-128.297	282.580	-0.252	-0.452
-127.283	484.259	-0.036	-0.083
-126.268	-124.288	0.256	-0.040
-125.253	-148.555	-0.206	0.017
-124.239	96.309	0.119	0.136
-123.224	-154.404	-0.101	0.007
-122.210	-159.434	-0.343	0.019
-121.195	-200.000	0.046	-0.261
