DTS Sentinel unit serial number:	SN413079Multiplexer serial number:	ORYXHardware model number:	OX4-SRSoftware version number:	ORYX F/W v4.00 Oryx Data Collector v3.7.2.0data status	okinstallation	princeton_trtdifferential loss correction	single-endedforward channel	channel 3reverse channel	N/Adate	2019/09/12time	18:55:04forward acquisition time	15.00reverse acquisition time	0.00gamma	496.2192k internal	0.2318k external	0.2318temperature offset calibration	1.0096default loss term (dB/km)	0.3790temperature slope calibration	1.0000multiplexer offset coefficient	1.0000multiplexer slope coefficient	1.0000fibre end	0.00T internal ref (°C)	32.81T ext. ref 1 (°C)	3.00T ext. ref 2 (°C)	27.33length (m)	temperature (°C)	Stokes	anti-Stokes-747.200	147.864	0.703	-0.960
-746.185	11.545	-0.071	-0.055
-745.171	-145.888	-0.726	0.065
-744.156	-200.000	0.043	0.371
-743.142	-101.380	-0.297	0.073
-742.127	40.503	0.270	0.246
-741.112	-200.000	-0.020	-0.372
-740.098	72.338	0.231	-0.244
-739.083	800.000	0.339	-0.958
-738.069	-200.000	-0.033	0.986
-737.054	35.679	-0.401	-0.357
-736.039	800.000	-0.213	-0.802
-735.025	800.000	-0.083	-0.348
-734.010	-73.503	0.516	-0.191
-732.996	-91.006	-0.533	-0.155
-731.981	-74.740	0.542	-0.197
-730.966	-75.869	0.552	-0.198
-729.952	-76.122	-0.484	-0.173
-728.937	42.294	-0.706	-0.649
-727.923	209.037	0.108	-0.171
-726.908	-200.000	-0.001	-0.887
-725.894	-35.347	-0.470	0.259
-724.879	120.215	0.447	-0.561
-723.864	-200.000	-0.787	0.001
-722.850	1.550	0.345	0.251
-721.835	510.563	-0.212	0.498
-720.821	574.115	-0.208	0.512
-719.806	153.348	-0.532	0.736
-718.791	-200.000	-0.108	-0.561
-717.777	102.654	-0.156	0.185
-716.762	-82.700	0.335	0.110
-715.748	-7.557	-0.111	0.076
-714.733	129.446	-0.149	0.192
-713.718	283.838	-0.499	-0.907
-712.704	800.000	-0.139	-0.519
-711.689	-73.225	-0.288	0.106
-710.675	52.852	0.504	0.487
-709.660	-167.504	-0.764	0.031
-708.645	-80.929	0.285	-0.095
-707.631	-50.501	-0.285	-0.136
-706.616	-147.843	0.134	-0.011
-705.602	-27.816	0.461	-0.270
-704.587	-67.859	-0.590	0.233
-703.572	158.893	0.314	0.441
-702.558	-200.000	0.033	0.185
-701.543	-28.248	-0.752	-0.439
-700.529	-130.066	-0.460	0.064
-699.514	-54.983	0.485	-0.221
-698.499	800.000	-0.164	-0.644
-697.485	-65.295	0.592	-0.241
-696.470	367.339	-0.198	-0.404
-695.456	-50.287	-0.515	0.246
-694.441	-79.525	-0.507	0.173
-693.426	2.365	-0.564	0.412
-692.412	-150.474	-1.161	0.090
-691.397	-85.217	0.872	0.275
-690.383	165.954	0.187	-0.267
-689.368	277.458	-0.234	-0.420
-688.354	-200.000	0.057	-0.645
-687.339	-75.214	-0.310	0.112
-686.324	-108.335	0.452	-0.098
-685.310	-88.681	-0.906	0.272
-684.295	240.569	-0.080	-0.134
-683.281	-71.203	-0.172	-0.065
-682.266	-200.000	-0.032	0.384
-681.251	-23.170	0.789	-0.479
-680.237	-125.463	-0.984	-0.151
-679.222	55.663	0.841	-0.822
-678.208	40.770	0.112	0.102
-677.193	331.361	0.297	-0.578
-676.178	800.000	0.135	0.449
-675.164	-0.145	0.050	-0.036
-674.149	-200.000	-0.047	0.857
-673.135	-135.355	-0.480	-0.058
-672.120	309.834	-0.204	0.384
-671.105	-37.840	-0.305	0.163
-670.091	800.000	0.032	0.124
-669.076	128.186	-0.276	-0.355
-668.062	-176.476	-0.905	-0.024
-667.047	44.117	0.150	-0.139
-666.032	699.718	-0.152	-0.402
-665.018	-200.000	-0.078	0.691
-664.003	-64.653	-0.597	0.244
-662.989	29.139	-0.542	0.464
-661.974	74.812	-0.385	-0.409
-660.959	-83.513	-0.670	0.216
-659.945	105.348	-0.112	0.133
-658.930	-149.489	-0.566	0.045
-657.916	-160.455	-0.747	0.040
-656.901	-200.000	-0.022	0.266
-655.886	-73.574	0.316	0.116
-654.872	800.000	0.066	0.276
-653.857	-5.278	-0.394	0.273
-652.843	-67.343	0.359	0.142
-651.828	-44.879	-0.166	-0.083
-650.814	12.431	0.093	-0.072
-649.799	351.869	-0.020	0.040
-648.784	419.038	0.028	-0.061
-647.770	286.662	-0.133	0.242
-646.755	332.184	-0.310	-0.604
-645.741	-134.808	-0.313	-0.038
-644.726	427.400	0.310	0.673
-643.711	252.652	-0.237	0.408
-642.697	182.205	-0.587	-0.872
-641.682	487.770	0.268	-0.617
-640.668	-85.882	0.481	-0.150
-639.653	-200.000	0.026	-0.891
-638.638	521.079	0.296	0.699
-637.624	106.363	0.264	-0.315
-636.609	-200.000	-0.063	0.514
-635.595	800.000	0.029	-0.085
-634.580	96.671	-0.390	0.450
-633.565	-148.311	0.281	-0.023
-632.551	-200.000	-0.028	-0.289
-631.536	800.000	0.144	0.613
-630.522	-77.414	-0.366	-0.128
-629.507	-200.000	-0.024	0.163
-628.492	-74.919	-0.592	0.214
-627.478	-154.280	0.424	-0.029
-626.463	-64.372	-0.567	0.232
-625.449	14.266	-0.795	0.624
-624.434	-113.249	0.463	-0.092
-623.419	-164.769	0.273	0.012
-622.405	-14.091	0.237	0.154
-621.390	402.087	-0.352	-0.745
-620.376	223.083	0.369	0.600
-619.361	38.802	0.359	0.323
-618.346	-89.451	-0.273	-0.081
-617.332	18.232	0.136	-0.109
-616.317	-200.000	0.020	-0.214
-615.303	-42.799	0.949	-0.486
-614.288	213.031	-0.110	-0.175
-613.273	800.000	-0.136	-0.395
-612.259	-200.000	0.003	-0.393
-611.244	-108.595	0.776	-0.168
-610.230	-148.147	0.686	-0.057
-609.215	-20.405	0.319	-0.198
-608.201	-63.271	-0.460	-0.191
-607.186	662.764	0.163	-0.423
-606.171	-200.000	0.001	-0.100
-605.157	-80.702	0.329	-0.110
-604.142	-74.680	-0.373	-0.135
-603.128	-55.015	-0.182	-0.083
-602.113	-22.909	-0.197	0.119
-601.098	-130.441	-0.219	0.030
-600.084	-90.385	0.324	-0.095
-599.069	126.987	-0.661	0.843
-598.055	52.539	-0.443	0.425
-597.040	143.396	-0.514	-0.688
-596.025	-122.291	-0.410	-0.067
-595.011	50.534	0.626	-0.596
-593.996	-24.818	0.424	-0.254
-592.982	-200.000	0.008	0.060
-591.967	-120.299	-0.948	-0.163
-590.952	-95.379	-0.588	0.159
-589.938	-71.596	-0.349	-0.131
-588.923	-75.161	0.770	0.277
-587.909	454.950	0.187	-0.417
-586.894	-76.447	0.489	-0.173
-585.879	-100.677	0.293	0.073
-584.865	-55.939	0.055	-0.025
-583.850	-95.125	0.535	0.145
-582.836	-124.301	-0.567	-0.089
-581.821	-75.793	0.528	-0.188
-580.806	-53.543	0.636	0.292
-579.792	-38.394	-0.665	-0.354
-578.777	-200.000	0.015	0.787
-577.763	68.837	-0.692	0.714
-576.748	255.805	-0.019	-0.033
-575.733	19.040	0.553	0.446
-574.719	10.179	-0.166	0.127
-573.704	-200.000	0.060	-0.273
-572.690	307.816	0.219	0.411
-571.675	-200.000	0.006	-0.878
-570.661	800.000	0.072	0.214
-569.646	-81.238	-0.376	-0.125
-568.631	110.477	-0.305	0.369
-567.617	-200.000	0.047	0.554
-566.602	-200.000	-0.143	-0.750
-565.588	46.286	-0.188	0.175
-564.573	-74.454	0.250	0.091
-563.558	-140.328	-0.370	0.039
-562.544	800.000	-0.158	0.568
-561.529	-61.107	-0.373	0.158
-560.515	-115.161	0.391	-0.074
-559.500	800.000	-0.175	-0.638
-558.485	800.000	-0.120	0.364
-557.471	-131.793	-0.339	-0.045
-556.456	-115.005	0.081	0.015
-555.442	-200.000	-0.187	-0.847
-554.427	-72.067	-0.308	0.115
-553.412	-107.055	-0.229	0.051
-552.398	-116.418	-0.315	-0.058
-551.383	8.635	0.222	0.168
-550.369	395.482	-0.190	-0.399
-549.354	-200.000	0.088	-0.713
-548.339	-105.212	0.131	-0.030
-547.325	-7.643	0.249	0.169
-546.310	-120.138	-0.719	-0.123
-545.296	-200.000	-0.293	-0.001
-544.281	451.378	0.286	-0.634
-543.266	85.531	-0.515	0.568
-542.252	-200.000	-0.115	-0.657
-541.237	110.512	-0.201	0.243
-540.223	-200.000	-0.038	0.317
-539.208	800.000	-0.091	-0.359
-538.193	-25.941	-0.270	0.159
-537.179	47.488	-0.493	0.461
-536.164	111.766	-0.371	0.450
-535.150	800.000	-0.184	-0.762
-534.135	-48.905	-0.197	-0.095
-533.121	-65.641	-0.352	0.142
-532.106	-200.000	-0.047	0.419
-531.091	77.458	0.865	0.924
-530.077	-78.606	-0.777	0.266
-529.062	120.207	-0.485	0.604
-528.048	206.714	0.334	0.523
-527.033	800.000	-0.150	0.654
-526.018	264.396	-0.578	1.010
-525.004	1.357	-0.535	-0.386
-523.989	-43.080	0.664	0.338
-522.975	800.000	-0.035	-0.141
-521.960	-200.000	0.012	0.772
-520.945	-150.626	-0.544	0.042
-519.931	800.000	0.248	0.975
-518.916	-25.588	-0.602	-0.356
-517.902	800.000	0.226	-0.934
-516.887	-116.188	-0.333	-0.062
-515.872	420.052	0.102	0.219
-514.858	5.794	-0.659	-0.489
-513.843	165.055	0.338	0.478
-512.829	-200.000	-0.060	-0.885
-511.814	361.643	-0.516	-1.038
-510.799	61.361	0.154	-0.153
-509.785	-10.243	-0.184	-0.123
-508.770	-120.820	0.559	-0.095
-507.756	-200.000	0.045	-0.382
-506.741	103.146	-0.190	-0.223
-505.726	-64.423	-0.213	0.087
-504.712	-53.694	-0.503	0.230
-503.697	-49.965	-0.308	-0.146
-502.683	-200.000	-0.093	-1.049
-501.668	36.558	-0.241	-0.213
-500.653	411.083	-0.022	0.047
-499.639	-55.407	-0.286	0.129
-498.624	130.689	-0.510	0.655
-497.610	185.079	-0.273	-0.406
-496.595	-63.743	0.940	-0.386
-495.581	-159.706	-0.833	-0.046
-494.566	-200.000	-0.032	0.185
-493.551	11.379	0.514	-0.395
-492.537	-98.795	0.193	0.049
-491.522	-69.260	0.507	0.195
-490.508	-156.206	1.342	-0.085
-489.493	793.181	-0.181	-0.499
-488.478	183.411	-0.364	-0.539
-487.464	4.780	0.584	-0.430
-486.449	-48.385	0.672	0.324
-485.435	99.088	-0.483	0.559
-484.420	-78.290	1.001	-0.344
-483.405	-146.449	1.035	0.090
-482.391	-122.002	-0.609	0.100
-481.376	-148.552	-0.828	0.068
-480.362	-164.779	0.606	0.027
-479.347	-45.660	-1.011	0.501
-478.332	44.267	0.176	-0.162
-477.318	-127.244	-0.139	-0.020
-476.303	-131.231	0.584	0.078
-475.289	800.000	-0.160	-0.603
-474.274	-71.085	0.398	0.150
-473.259	-200.000	0.029	0.471
-472.245	-114.719	0.619	0.119
-471.230	-133.149	-0.520	0.066
-470.216	123.817	-0.689	-0.866
-469.201	264.803	0.064	0.112
-468.186	-156.493	0.508	-0.032
-467.172	-200.000	0.046	-0.922
-466.157	6.705	0.500	-0.372
-465.143	128.932	0.180	-0.230
-464.128	-95.577	0.430	-0.115
-463.113	-64.964	-0.509	0.206
-462.099	-127.498	-0.360	-0.052
-461.084	-163.857	-0.213	-0.010
-460.070	-58.059	0.265	-0.115
-459.055	-25.672	0.615	0.363
-458.040	-200.000	-0.013	0.119
-457.026	283.046	-0.348	-0.624
-456.011	800.000	0.368	1.387
-454.997	800.000	0.081	0.227
-453.982	422.814	0.231	-0.496
-452.968	-62.739	0.093	0.039
-451.953	-200.000	0.006	-0.511
-450.938	800.000	0.194	0.733
-449.924	-37.664	-0.449	-0.239
-448.909	328.081	-0.410	-0.787
-447.895	-200.000	-0.084	0.382
-446.880	367.170	0.220	-0.444
-445.865	90.164	0.251	0.281
-444.851	-200.000	-0.093	-0.567
-443.836	800.000	-0.251	1.091
-442.822	-14.950	0.125	-0.080
-441.807	-103.723	-0.322	-0.075
-440.792	390.101	-0.091	0.188
-439.778	412.321	-0.211	0.448
-438.763	103.928	0.512	-0.602
-437.749	641.352	0.343	-0.874
-436.734	107.457	-0.429	-0.510
-435.719	632.277	0.185	-0.468
-434.705	-200.000	0.028	0.670
-433.690	29.780	0.337	0.287
-432.676	-200.000	-0.114	0.566
-431.661	-68.102	1.405	0.547
-430.646	-39.513	-0.175	0.092
-429.632	800.000	0.178	-0.505
-428.617	-44.704	0.503	-0.251
-427.603	-88.452	-0.907	-0.271
-426.588	18.348	0.543	-0.433
-425.573	-141.993	-0.470	0.047
-424.559	-200.000	0.042	-0.292
-423.544	-81.825	0.152	0.050
-422.530	185.717	-0.411	-0.610
-421.515	341.325	0.491	-0.960
-420.500	73.624	-0.160	-0.167
-419.486	-198.487	0.688	-0.004
-418.471	-200.000	0.227	-1.015
-417.457	113.823	0.640	0.777
-416.442	522.394	-0.060	0.140
-415.428	-152.497	-0.647	-0.046
-414.413	-200.000	-0.242	0.001
-413.398	375.260	-0.146	-0.297
-412.384	800.000	-0.119	0.381
-411.369	-200.000	0.012	0.714
-410.355	-59.346	-0.206	-0.088
-409.340	151.040	0.390	-0.530
-408.325	-97.627	0.786	0.204
-407.311	-94.231	0.818	0.223
-406.296	15.701	0.514	-0.404
-405.282	323.205	-0.188	-0.359
-404.267	-200.000	-0.006	-0.298
-403.252	38.694	0.264	-0.235
-402.238	79.949	0.312	0.335
-401.223	122.801	-0.572	-0.715
-400.209	800.000	-0.071	-0.226
-399.194	-74.571	-0.283	0.102
-398.179	-67.571	-0.119	0.047
-397.165	-200.000	0.065	0.326
-396.150	29.145	-0.924	-0.783
-395.136	-200.000	0.071	-0.345
-394.121	-139.577	-0.237	-0.025
-393.106	-2.896	-0.561	0.391
-392.092	784.589	0.199	0.544
-391.077	41.268	-0.204	-0.184
-390.063	-126.519	0.241	-0.036
-389.048	7.755	0.209	-0.156
-388.033	-173.263	-0.938	0.029
-387.019	55.503	-0.447	-0.432
-386.004	-87.760	-0.263	0.079
-384.990	147.315	-0.203	-0.272
-383.975	-140.456	-0.837	-0.087
-382.960	-55.627	0.425	0.190
-381.946	-115.902	-0.557	-0.104
-380.931	113.311	-0.518	-0.627
-379.917	100.142	-0.611	0.707
-378.902	800.000	0.177	0.602
-377.888	-8.996	0.304	0.203
-376.873	800.000	-0.074	0.314
-375.858	49.972	0.459	0.432
-374.844	24.250	0.420	0.346
-373.829	-200.000	0.052	-0.769
-372.815	800.000	0.195	0.801
-371.800	-200.000	0.079	-0.586
-370.785	100.503	0.484	-0.561
-369.771	102.813	0.196	0.229
-368.756	66.764	-0.055	0.056
-367.742	258.670	0.389	-0.669
-366.727	-79.357	-0.806	-0.272
-365.712	10.661	0.865	0.658
-364.698	30.934	0.716	-0.612
-363.683	192.565	-0.181	-0.273
-362.669	-200.000	0.061	0.485
-361.654	800.000	0.336	-1.281
-360.639	354.861	0.217	0.430
-359.625	448.093	-0.088	-0.193
-358.610	118.841	-0.170	0.210
-357.596	-88.588	0.551	0.163
-356.581	25.772	0.201	-0.167
-355.566	190.162	-0.424	-0.634
-354.552	3.667	0.668	0.486
-353.537	-163.122	0.547	-0.026
-352.523	-200.000	-0.057	-0.445
-351.508	152.543	0.284	-0.387
-350.493	-117.305	0.698	0.126
-349.479	242.387	-0.509	0.849
-348.464	-200.000	0.043	0.209
-347.450	-120.793	0.950	-0.160
-346.435	-40.232	1.139	0.591
-345.420	100.603	-0.208	0.241
-344.406	-18.451	-0.346	-0.215
-343.391	355.107	0.083	0.164
-342.377	643.726	0.210	0.534
-341.362	607.610	-0.430	1.068
-340.348	11.997	-0.444	0.340
-339.333	-36.483	0.768	-0.412
-338.318	-24.177	0.422	-0.251
-337.304	81.547	-0.059	-0.064
-336.289	800.000	-0.224	-0.804
-335.275	69.410	0.299	-0.306
-334.260	-36.227	-0.723	0.389
-333.245	-116.711	-0.181	0.033
-332.231	0.524	-0.919	-0.654
-331.216	-200.000	-0.123	0.585
-330.202	-178.512	-0.386	-0.009
-329.187	-200.000	0.029	0.690
-328.172	7.844	-0.311	-0.232
-327.158	800.000	0.050	-0.186
-326.143	126.294	0.272	-0.343
-325.129	-45.803	0.223	-0.110
-324.114	56.874	0.299	-0.290
-323.099	-199.805	0.356	-0.002
-322.085	-157.320	1.067	0.064
-321.070	-200.000	-0.027	0.557
-320.056	-123.792	0.202	0.032
-319.041	-115.532	0.037	0.007
-318.026	-87.706	-0.895	0.269
-317.012	503.474	-0.306	-0.705
-315.997	728.116	-0.215	0.572
-314.983	29.084	0.477	0.403
-313.968	-200.000	-0.006	0.756
-312.953	-200.000	0.015	0.401
-311.939	-4.651	0.350	-0.241
-310.924	-155.292	-0.862	0.056
-309.910	668.901	-0.160	-0.412
-308.895	61.007	0.178	-0.175
-307.880	177.907	0.622	-0.902
-306.866	96.135	-0.334	0.380
-305.851	-200.000	-0.108	0.569
-304.837	-200.000	-0.058	0.534
-303.822	-81.578	0.640	-0.209
-302.807	800.000	-0.064	0.190
-301.793	295.913	-0.306	-0.557
-300.778	-1.782	0.441	0.308
-299.764	-91.372	0.271	0.077
-298.749	-38.194	-0.893	0.471
-297.735	-57.875	0.799	0.347
-296.720	-2.611	0.446	0.310
-295.705	-110.170	-0.144	-0.030
-294.691	800.000	0.141	0.394
-293.676	-79.995	0.599	-0.200
-292.662	-155.837	-0.265	0.017
-291.647	195.058	-0.182	0.275
-290.632	-200.000	-0.111	0.544
-289.618	-200.000	0.015	-0.214
-288.603	-77.141	0.939	0.325
-287.589	-29.506	-0.440	-0.250
-286.574	-185.817	0.267	0.004
-285.559	570.590	-0.080	-0.194
-284.545	-10.255	-0.719	0.474
-283.530	-138.701	-0.662	0.072
-282.516	800.000	0.023	0.097
-281.501	185.126	-0.546	0.806
-280.486	6.865	0.772	0.572
-279.472	-91.915	-0.318	-0.090
-278.457	-129.631	-0.616	0.085
-277.443	99.090	0.354	0.407
-276.428	-51.916	1.000	-0.462
-275.413	-160.720	-0.589	-0.031
-274.399	800.000	-0.207	-0.839
-273.384	-95.621	0.567	0.151
-272.370	-57.642	0.520	-0.226
-271.355	37.521	0.216	0.191
-270.340	113.891	1.000	1.208
-269.326	-34.874	0.135	0.073
-268.311	-72.989	0.467	0.170
-267.297	-45.368	-0.462	-0.228
-266.282	-15.072	-0.989	-0.629
-265.267	-129.434	0.569	0.078
-264.253	-84.264	0.364	-0.114
-263.238	-152.667	0.584	-0.041
-262.224	80.809	-0.175	0.187
-261.209	14.846	-0.387	-0.301
-260.195	-200.000	-0.002	-0.397
-259.180	-191.056	0.422	-0.004
-258.165	-63.672	-0.527	0.214
-257.151	-200.000	-0.140	0.720
-256.136	-117.948	-0.654	-0.116
-255.122	254.011	0.396	-0.671
-254.107	152.796	0.343	-0.465
-253.092	53.175	-1.040	0.989
-252.078	-110.173	-0.939	0.194
-251.063	266.299	0.256	0.444
-250.049	-104.576	0.577	0.132
-249.034	238.180	0.418	0.689
-248.019	-106.465	-0.484	0.107
-247.005	25.849	0.500	0.413
-245.990	-200.000	0.166	-0.853
-244.976	-91.858	-0.293	-0.082
-243.961	677.581	0.071	-0.183
-242.946	44.540	-0.408	0.372
-241.932	-170.428	0.229	0.008
-240.917	-84.459	-0.613	-0.192
-239.903	-200.000	-0.058	-0.360
-238.888	8.577	0.241	0.180
-237.873	-1.737	-0.451	0.315
-236.859	-47.258	-0.466	0.225
-235.844	800.000	0.075	0.260
-234.830	800.000	0.162	-0.601
-233.815	306.814	0.054	0.100
-232.800	-64.360	0.611	0.247
-231.786	-200.000	-0.013	-0.267
-230.771	-57.322	0.414	0.181
-229.757	-90.472	0.464	-0.133
-228.742	800.000	0.052	-0.220
-227.727	-117.860	-0.126	-0.022
-226.713	44.302	-0.801	-0.729
-225.698	-88.774	-1.143	-0.337
-224.684	-200.000	-0.040	-0.432
-223.669	526.613	-0.174	-0.408
-222.655	-128.776	-0.484	-0.068
-221.640	-104.484	0.487	-0.112
-220.625	800.000	0.171	0.537
-219.611	1.557	-0.117	0.083
-218.596	612.751	0.140	-0.348
-217.582	800.000	0.080	-0.314
-216.567	-10.162	-0.249	0.164
-215.552	-51.404	-0.126	-0.058
-214.538	-84.998	-0.506	-0.157
-213.523	246.622	0.607	1.014
-212.509	-200.000	0.005	-0.271
-211.494	-68.987	-0.125	-0.048
-210.479	588.138	-0.130	-0.317
-209.465	141.873	-0.135	-0.178
-208.450	800.000	-0.058	0.237
-207.436	152.848	0.267	-0.362
-206.421	105.606	-0.250	0.293
-205.406	-175.191	-0.445	-0.012
-204.392	-200.000	0.076	-0.578
-203.377	15.246	-0.189	0.147
-202.363	-35.814	-0.241	-0.130
-201.348	302.186	0.216	-0.396
-200.333	-134.029	0.130	0.016
-199.319	128.552	-0.060	-0.076
-198.304	740.042	0.279	0.741
-197.290	-200.000	0.010	-0.142
-196.275	-20.090	-0.830	-0.507
-195.260	668.422	0.304	-0.779
-194.246	-200.000	0.008	-0.222
-193.231	11.248	0.146	-0.111
-192.217	-126.230	0.698	-0.103
-191.202	28.455	0.154	0.129
-190.187	-47.645	-0.746	0.359
-189.173	800.000	-0.098	0.356
-188.158	736.458	-0.156	0.415
-187.144	-44.980	-0.602	0.297
-186.129	204.631	0.067	-0.104
-185.114	174.084	0.314	0.450
-184.100	140.917	0.076	0.100
-183.085	447.338	-0.461	1.004
-182.071	-149.205	-0.481	-0.038
-181.056	-83.444	0.408	0.129
-180.042	-200.000	0.071	0.355
-179.027	800.000	0.045	0.176
-178.012	-104.315	0.921	0.211
-176.998	-200.000	0.065	0.402
-175.983	49.030	0.519	-0.483
-174.969	336.145	0.100	-0.192
-173.954	142.128	-0.399	0.523
-172.939	-200.000	0.019	0.093
-171.925	-46.823	-0.402	-0.195
-170.910	222.622	0.382	0.609
-169.896	473.288	0.305	0.681
-168.881	636.370	-0.037	0.093
-167.866	-200.000	0.077	-0.541
-166.852	81.880	0.422	0.452
-165.837	77.000	-0.227	0.239
-164.823	-200.000	-0.054	0.392
-163.808	307.197	0.298	0.550
-162.793	-200.000	-0.015	0.277
-161.779	-69.495	0.387	0.147
-160.764	299.241	0.470	-0.856
-159.750	-3.950	0.304	-0.208
-158.735	411.159	0.147	-0.310
-157.720	396.645	-0.195	0.403
-156.706	800.000	-0.101	0.351
-155.691	-165.173	-0.712	-0.031
-154.677	16.345	-0.191	-0.149
-153.662	-98.865	0.094	-0.024
-152.647	442.171	-0.405	-0.876
-151.633	402.132	0.265	0.550
-150.618	144.627	0.472	0.623
-149.604	41.205	0.299	-0.267
-148.589	-200.000	-0.054	0.442
-147.574	-4.900	0.548	0.373
-146.560	43.365	-0.598	-0.540
-145.545	302.467	-0.482	-0.881
-144.531	130.946	-0.184	0.234
-143.516	117.278	0.278	0.338
-142.502	332.296	-0.166	-0.316
-141.487	-111.717	-1.284	0.257
-140.472	229.364	-0.142	-0.230
-139.458	-34.802	-0.312	0.168
-138.443	47.274	-0.064	0.059
-137.429	800.000	0.234	-0.678
-136.414	-64.545	0.197	-0.079
-135.399	-86.340	-0.267	-0.081
-134.385	283.347	0.350	-0.621
-133.370	8.099	0.141	0.105
-132.356	-160.662	0.720	0.038
-131.341	-89.409	1.048	0.305
-130.326	321.530	-0.570	1.072
-129.312	-36.874	-1.016	0.539
-128.297	-67.828	-0.463	-0.179
-127.283	196.619	0.420	-0.632
-126.268	307.996	-0.109	-0.201
-125.253	23.865	-0.547	0.446
-124.239	-41.796	0.806	0.409
-123.224	-200.000	0.023	-0.184
-122.210	-200.000	0.053	-0.849
-121.195	800.000	-0.201	-0.575
