DTS Sentinel unit serial number:	SN413079Multiplexer serial number:	ORYXHardware model number:	OX4-SRSoftware version number:	ORYX F/W v4.00 Oryx Data Collector v3.7.2.0data status	okinstallation	princeton_trtdifferential loss correction	single-endedforward channel	channel 3reverse channel	N/Adate	2019/09/17time	11:56:35forward acquisition time	60.00reverse acquisition time	0.00gamma	496.2192k internal	0.2321k external	0.2321temperature offset calibration	0.9958default loss term (dB/km)	0.3790temperature slope calibration	1.0000multiplexer offset coefficient	1.0000multiplexer slope coefficient	1.0000fibre end	0.00T internal ref (°C)	31.03T ext. ref 1 (°C)	0.42T ext. ref 2 (°C)	27.11length (m)	temperature (°C)	Stokes	anti-Stokes-747.200	-56.402	-0.147	-0.066
-746.185	-16.102	-0.269	0.173
-745.171	-73.521	0.276	0.102
-744.156	-38.025	0.145	-0.078
-743.142	-200.000	-0.011	0.172
-742.127	-4.856	-0.122	0.085
-741.112	-200.000	-0.006	-0.229
-740.098	-198.812	-0.149	-0.001
-739.083	-10.639	0.145	-0.097
-738.069	-185.391	0.080	0.001
-737.054	202.581	-0.139	-0.217
-736.039	-17.459	0.136	0.087
-735.025	137.048	0.141	0.186
-734.010	7.304	-0.450	-0.339
-732.996	-141.297	0.171	0.018
-731.981	-97.416	0.069	-0.018
-730.966	-182.461	-0.230	-0.004
-729.952	-170.727	-0.160	-0.006
-728.937	458.128	-0.098	-0.220
-727.923	-14.925	-0.270	0.175
-726.908	-69.097	-0.241	0.094
-725.894	-175.778	-0.244	-0.007
-724.879	657.442	-0.077	-0.200
-723.864	-23.633	-0.117	-0.071
-722.850	-8.600	-0.072	-0.049
-721.835	-100.918	0.118	0.029
-720.821	127.397	-0.123	0.158
-719.806	-200.000	0.030	0.198
-718.791	73.864	0.279	-0.295
-717.777	800.000	-0.053	-0.201
-716.762	238.465	-0.089	0.149
-715.748	-29.587	-0.309	-0.178
-714.733	800.000	-0.158	-0.507
-713.718	20.479	-0.273	-0.223
-712.704	24.979	-0.078	-0.066
-711.689	434.497	-0.138	0.303
-710.675	15.880	0.248	-0.197
-709.660	703.944	-0.171	-0.456
-708.645	251.157	-0.258	0.443
-707.631	-90.274	0.380	0.112
-706.616	-44.015	-0.443	-0.224
-705.602	-200.000	-0.006	-0.038
-704.587	14.944	0.060	-0.048
-703.572	-23.031	-0.482	0.293
-702.558	-57.549	0.459	0.203
-701.543	9.037	-0.075	0.057
-700.529	-123.616	0.204	-0.033
-699.514	-81.118	-0.397	0.132
-698.499	-200.000	0.007	-0.120
-697.485	146.528	-0.126	-0.171
-696.470	3.305	-0.256	-0.188
-695.456	258.611	0.152	-0.264
-694.441	455.369	0.134	-0.299
-693.426	-80.753	0.163	-0.055
-692.412	145.749	0.180	-0.243
-691.397	800.000	0.027	0.079
-690.383	205.065	0.079	0.123
-689.368	-200.000	0.024	0.130
-688.354	68.339	-0.622	0.643
-687.339	57.928	-0.196	-0.194
-686.324	-200.000	0.008	-0.294
-685.310	800.000	-0.104	0.340
-684.295	-82.227	0.089	0.029
-683.281	800.000	-0.051	-0.176
-682.266	-200.000	-0.048	-0.425
-681.251	505.694	-0.170	-0.396
-680.237	-200.000	0.052	-0.230
-679.222	106.315	0.064	0.076
-678.208	-39.261	-0.417	0.221
-677.193	-200.000	-0.022	-0.149
-676.178	118.768	-0.220	0.273
-675.164	800.000	-0.030	0.114
-674.149	-9.955	0.203	-0.136
-673.135	-9.524	0.113	0.076
-672.120	341.757	-0.160	0.315
-671.105	-99.538	-0.133	0.034
-670.091	800.000	-0.009	-0.037
-669.076	-103.706	-0.196	-0.046
-668.062	-200.000	0.048	0.252
-667.047	-200.000	0.012	-0.146
-666.032	-102.744	-0.367	-0.088
-665.018	-148.857	0.036	-0.003
-664.003	25.661	0.115	-0.097
-662.989	355.732	0.087	0.175
-661.974	-113.960	0.095	0.019
-660.959	-200.000	-0.023	0.158
-659.945	-25.790	0.064	-0.038
-658.930	-200.000	0.010	-0.077
-657.916	151.677	-0.060	-0.083
-656.901	181.774	-0.115	0.171
-655.886	451.653	-0.109	-0.243
-654.872	-200.000	-0.026	-0.141
-653.857	-21.340	-0.203	0.125
-652.843	-51.966	0.040	-0.019
-651.828	-200.000	-0.008	-0.230
-650.814	-41.987	0.044	0.022
-649.799	149.267	0.152	0.208
-648.784	-23.863	0.140	-0.084
-647.770	-58.622	-0.090	-0.039
-646.755	40.843	-0.160	-0.146
-645.741	-31.244	-0.302	-0.171
-644.726	-72.494	0.094	-0.035
-643.711	302.559	0.055	0.103
-642.697	4.773	-0.298	-0.220
-641.682	13.141	-0.120	-0.094
-640.668	226.513	-0.109	0.178
-639.653	564.931	0.089	-0.218
-638.638	-124.175	-0.196	-0.031
-637.624	413.930	0.037	0.080
-636.609	-169.964	-0.035	0.001
-635.595	251.511	-0.119	0.204
-634.580	800.000	-0.013	0.058
-633.565	800.000	0.076	-0.244
-632.551	800.000	0.055	-0.241
-631.536	800.000	-0.067	-0.293
-630.522	-200.000	-0.087	-0.387
-629.507	-108.806	-0.148	-0.032
-628.492	85.381	-0.099	0.109
-627.478	-24.686	-0.116	-0.069
-626.463	71.398	-0.224	0.234
-625.449	-123.283	0.237	-0.038
-624.434	105.332	0.274	-0.326
-623.419	-102.381	-0.102	0.024
-622.405	-200.000	-0.011	-0.141
-621.390	-129.129	0.483	-0.068
-620.376	52.098	-0.096	-0.092
-619.361	800.000	0.002	0.006
-618.346	-94.585	-0.044	-0.012
-617.332	800.000	-0.030	0.115
-616.317	-152.954	-0.049	-0.004
-615.303	-200.000	0.004	0.185
-614.288	348.223	-0.203	0.403
-613.273	359.563	-0.085	0.170
-612.259	-81.821	0.004	0.001
-611.244	307.139	-0.213	-0.400
-610.230	-38.610	0.104	-0.055
-609.215	92.893	0.081	0.092
-608.201	-200.000	-0.051	-0.244
-607.186	209.253	-0.138	-0.217
-606.171	-38.456	0.212	-0.112
-605.157	-200.000	-0.043	0.369
-604.142	-48.350	0.252	0.122
-603.128	97.924	0.088	-0.102
-602.113	269.490	-0.079	-0.140
-601.098	327.692	0.134	-0.258
-600.084	-88.014	0.129	0.039
-599.069	-98.647	0.334	0.086
-598.055	159.251	0.157	-0.219
-597.040	-36.458	-0.216	-0.117
-596.025	157.458	0.217	0.302
-595.011	90.736	-0.175	0.197
-593.996	-103.136	0.252	-0.060
-592.982	61.706	-0.117	0.117
-591.967	800.000	-0.017	-0.060
-590.952	47.175	-0.226	0.211
-589.938	58.359	-0.031	0.031
-588.923	11.974	0.127	-0.098
-587.909	800.000	0.042	-0.158
-586.894	-182.049	-0.108	-0.002
-585.879	34.373	-0.225	-0.197
-584.865	306.104	-0.078	-0.145
-583.850	-171.776	-0.043	-0.001
-582.836	-8.757	-0.118	0.079
-581.821	-39.818	0.245	-0.128
-580.806	420.391	0.143	-0.308
-579.792	282.104	-0.044	0.078
-578.777	-173.365	0.497	0.015
-577.763	108.078	0.144	-0.172
-576.748	-200.000	0.051	0.295
-575.733	800.000	-0.087	0.253
-574.719	5.459	0.403	0.299
-573.704	408.802	0.061	-0.130
-572.690	-90.260	0.459	-0.134
-571.675	800.000	-0.048	-0.171
-570.661	34.433	0.028	0.024
-569.646	-200.000	0.005	0.187
-568.631	-39.567	0.119	0.062
-567.617	55.372	0.099	0.096
-566.602	16.151	-0.112	0.089
-565.588	480.550	0.059	-0.134
-564.573	-100.863	0.112	0.028
-563.558	800.000	0.059	-0.245
-562.544	-200.000	-0.002	-0.442
-561.529	-80.306	-0.244	0.082
-560.515	-200.000	-0.050	-0.368
-559.500	-30.132	0.488	0.279
-558.485	86.538	-0.230	0.254
-557.471	800.000	-0.090	0.282
-556.456	-111.347	-0.059	-0.012
-555.442	625.964	-0.086	-0.218
-554.427	-84.092	0.180	0.057
-553.412	800.000	-0.017	-0.071
-552.398	-168.017	0.302	-0.012
-551.383	42.236	-0.194	-0.177
-550.369	389.689	0.014	-0.029
-549.354	-111.073	0.461	0.095
-548.339	581.518	-0.049	0.121
-547.325	-73.710	0.344	-0.126
-546.310	-200.000	0.005	-0.450
-545.296	97.466	-0.200	-0.231
-544.281	-168.708	-0.187	-0.007
-543.266	-28.686	0.166	0.096
-542.252	-17.596	-0.136	-0.086
-541.237	-121.300	-0.386	0.065
-540.223	-97.651	0.143	0.037
-539.208	-129.351	-0.336	-0.047
-538.193	-40.737	-0.190	-0.099
-537.179	-0.902	-0.118	-0.083
-536.164	38.298	-0.125	-0.111
-535.150	-86.721	0.163	-0.050
-534.135	-130.272	0.149	-0.020
-533.121	27.646	-0.132	-0.111
-532.106	-103.059	0.168	0.040
-531.091	-200.000	0.013	-0.201
-530.077	80.889	-0.196	0.211
-529.062	-115.224	0.433	0.082
-528.048	314.244	0.026	-0.048
-527.033	800.000	0.092	0.345
-526.018	49.392	-0.189	0.178
-525.004	-138.689	0.164	0.018
-523.989	78.277	0.168	0.179
-522.975	800.000	-0.079	0.271
-521.960	-60.004	0.171	0.073
-520.945	-0.854	-0.132	0.094
-519.931	372.337	-0.115	0.234
-518.916	39.989	-0.169	-0.152
-517.902	-101.789	-0.376	0.091
-516.887	156.656	0.185	0.257
-515.872	-200.000	-0.019	-0.082
-514.858	-83.732	-0.120	0.038
-513.843	-200.000	-0.007	0.253
-512.829	800.000	-0.063	0.186
-511.814	88.791	0.204	0.227
-510.799	-20.507	-0.287	-0.177
-509.785	527.461	0.121	-0.285
-508.770	-83.133	0.153	0.049
-507.756	800.000	-0.057	-0.163
-506.741	144.021	0.057	-0.076
-505.726	34.436	0.045	0.039
-504.712	-84.179	-0.262	-0.083
-503.697	-96.993	0.113	0.030
-502.683	603.107	0.104	-0.259
-501.668	800.000	0.030	-0.116
-500.653	564.326	-0.013	-0.032
-499.639	110.900	-0.199	-0.240
-498.624	-85.061	-0.336	0.105
-497.610	102.356	0.107	0.125
-496.595	28.768	0.114	-0.097
-495.581	-147.499	0.249	-0.021
-494.566	-45.569	-0.139	-0.069
-493.551	800.000	-0.080	0.262
-492.537	78.735	-0.019	-0.021
-491.522	-64.807	-0.215	-0.087
-490.508	-0.535	-0.150	0.106
-489.493	-200.000	-0.067	-0.355
-488.478	-154.337	0.204	-0.014
-487.464	-200.000	-0.010	0.138
-486.449	120.088	0.147	-0.183
-485.435	436.139	0.082	-0.179
-484.420	800.000	0.009	0.038
-483.405	-46.944	-0.214	-0.105
-482.391	175.556	-0.067	-0.096
-481.376	-84.327	-0.338	-0.107
-480.362	-58.812	-0.296	0.128
-479.347	800.000	-0.031	0.118
-478.332	-54.257	-0.168	0.076
-477.318	-200.000	-0.060	-0.399
-476.303	33.676	-0.099	0.086
-475.289	-96.346	-0.175	-0.046
-474.274	29.686	-0.232	-0.198
-473.259	60.937	-0.071	0.071
-472.245	-103.220	0.330	0.078
-471.230	-53.199	-0.325	0.149
-470.216	270.784	0.071	0.126
-469.201	28.031	0.182	-0.154
-468.186	800.000	-0.097	-0.297
-467.172	-65.855	0.044	-0.018
-466.157	70.035	-0.204	0.211
-465.143	-200.000	-0.044	0.312
-464.128	-32.319	-0.324	-0.181
-463.113	219.297	0.058	0.093
-462.099	286.614	0.035	-0.064
-461.084	226.642	0.021	-0.033
-460.070	800.000	0.092	-0.256
-459.055	800.000	0.007	0.027
-458.040	-52.555	0.224	-0.104
-457.026	-56.222	0.160	0.071
-456.011	622.485	0.059	0.148
-454.997	-107.601	-0.210	0.046
-453.982	800.000	-0.062	0.247
-452.968	-67.594	-0.143	0.056
-451.953	-200.000	-0.008	0.101
-450.938	-62.908	0.280	-0.116
-449.924	245.516	0.217	-0.365
-448.909	68.130	0.250	-0.256
-447.895	86.096	0.209	-0.230
-446.880	-154.941	-0.036	-0.002
-445.865	206.205	-0.089	-0.138
-444.851	566.609	-0.148	0.359
-443.836	41.246	-0.245	0.221
-442.822	72.098	-0.172	0.179
-441.807	58.533	0.168	0.165
-440.792	800.000	0.070	0.196
-439.778	671.649	0.028	-0.073
-438.763	-200.000	-0.006	-0.403
-437.749	54.669	0.113	0.109
-436.734	-34.329	0.163	0.089
-435.719	-80.661	-0.106	0.035
-434.705	24.505	-0.083	0.069
-433.690	62.633	0.011	0.011
-432.676	800.000	-0.098	0.321
-431.661	59.078	0.094	0.093
-430.646	126.433	0.309	-0.391
-429.632	800.000	0.050	-0.153
-428.617	240.119	-0.113	-0.188
-427.603	183.276	-0.188	0.278
-426.588	78.885	-0.074	-0.079
-425.573	-200.000	0.018	-0.195
-424.559	800.000	-0.027	0.090
-423.544	-200.000	0.046	-0.261
-422.530	-50.319	0.172	-0.081
-421.515	-115.058	-0.219	0.042
-420.500	-148.978	0.111	0.009
-419.486	165.484	-0.166	-0.234
-418.471	-33.548	-0.076	0.042
-417.457	-200.000	0.014	0.371
-416.442	-143.079	-0.320	-0.031
-415.428	140.056	-0.117	0.154
-414.413	16.671	0.129	-0.102
-413.398	240.071	0.144	-0.239
-412.384	-141.648	0.253	0.025
-411.369	-45.453	0.200	0.099
-410.355	-40.699	0.137	-0.071
-409.340	800.000	-0.018	-0.062
-408.325	57.630	0.307	-0.299
-407.311	263.981	0.147	0.254
-406.296	-25.655	-0.279	-0.164
-405.282	114.095	0.092	-0.111
-404.267	-41.718	0.175	-0.090
-403.252	648.468	0.059	-0.151
-402.238	-200.000	-0.022	-0.313
-401.223	-22.286	0.094	0.057
-400.209	361.444	-0.111	0.221
-399.194	175.232	0.149	0.215
-398.179	-200.000	-0.030	-0.413
-397.165	35.557	-0.131	-0.115
-396.150	12.222	0.175	-0.134
-395.136	238.363	-0.001	0.001
-394.121	-200.000	-0.028	-0.191
-393.106	87.489	0.026	-0.029
-392.092	475.793	-0.213	0.480
-391.077	800.000	-0.042	-0.129
-390.063	-119.288	0.144	0.025
-389.048	103.457	0.222	0.260
-388.033	77.751	-0.050	-0.053
-387.019	-200.000	0.001	-0.191
-386.004	-57.361	0.153	0.067
-384.990	-200.000	-0.027	0.170
-383.975	-200.000	-0.060	0.338
-382.960	-22.787	-0.370	0.223
-381.946	332.356	-0.152	0.292
-380.931	-187.166	-0.233	0.003
-379.917	800.000	-0.036	0.129
-378.902	196.222	-0.142	0.215
-377.888	107.302	0.101	-0.120
-376.873	196.068	-0.065	0.099
-375.858	475.113	-0.212	0.477
-374.844	44.465	-0.303	0.277
-373.829	-200.000	0.067	0.349
-372.815	169.602	0.150	-0.213
-371.800	-50.639	-0.173	0.081
-370.785	-142.860	0.137	-0.013
-369.771	-58.282	0.041	-0.018
-368.756	-91.921	0.081	-0.023
-367.742	116.074	0.041	0.049
-366.727	278.844	0.104	-0.185
-365.712	-132.737	0.063	0.008
-364.698	81.153	0.118	-0.127
-363.683	115.724	-0.027	-0.032
-362.669	337.284	0.148	-0.287
-361.654	800.000	0.031	0.112
-360.639	-20.682	-0.287	0.175
-359.625	132.351	0.188	-0.241
-358.610	-183.664	0.136	-0.002
-357.596	-132.702	-0.117	0.015
-356.581	-77.008	0.304	-0.106
-355.566	800.000	0.051	0.166
-354.552	299.431	0.041	0.075
-353.537	256.305	-0.067	0.115
-352.523	182.017	-0.113	0.166
-351.508	-121.858	0.276	0.045
-350.493	-200.000	0.013	-0.135
-349.479	800.000	-0.014	0.055
-348.464	138.727	-0.047	0.061
-347.450	386.831	-0.181	0.372
-346.435	74.178	0.195	-0.204
-345.420	13.760	0.312	0.241
-344.406	-49.183	0.144	-0.069
-343.391	-43.699	-0.188	-0.094
-342.377	-67.262	0.056	-0.022
-341.362	-119.334	-0.386	0.067
-340.348	362.620	-0.138	-0.275
-339.333	-70.457	0.433	-0.163
-338.318	-200.000	-0.010	0.111
-337.304	360.649	-0.069	0.138
-336.289	-55.602	-0.180	0.080
-335.275	-200.000	0.019	0.112
-334.260	800.000	-0.127	0.521
-333.245	-182.644	-0.334	-0.006
-332.231	196.201	-0.044	0.067
-331.216	224.976	-0.093	-0.150
-330.202	800.000	-0.071	-0.221
-329.187	-114.361	0.126	0.024
-328.172	177.593	0.240	-0.348
-327.158	-49.414	0.145	-0.069
-326.143	-139.140	-0.303	0.033
-325.129	-114.042	0.267	0.051
-324.114	-113.136	-0.131	-0.026
-323.099	133.469	-0.161	0.207
-322.085	-66.761	0.238	-0.094
-321.070	345.883	0.117	0.229
-320.056	-200.000	-0.057	0.252
-319.041	-38.016	-0.382	-0.202
-318.026	-43.883	0.133	0.066
-317.012	294.742	0.166	0.302
-315.997	418.481	-0.080	-0.170
-314.983	105.603	-0.274	-0.322
-313.968	-105.967	-0.118	0.026
-312.953	-41.936	-0.384	-0.195
-311.939	605.924	0.097	0.240
-310.924	-200.000	0.024	0.170
-309.910	-200.000	0.047	0.209
-308.895	299.240	0.168	-0.307
-307.880	-200.000	-0.068	-0.329
-306.866	371.548	-0.055	-0.111
-305.851	-38.534	0.111	-0.058
-304.837	299.787	-0.070	0.128
-303.822	800.000	0.046	0.153
-302.807	-131.759	0.225	0.029
-301.793	1.771	-0.171	-0.123
-300.778	-79.055	-0.180	-0.061
-299.764	20.885	-0.188	-0.151
-298.749	-128.716	0.214	0.030
-297.735	-13.178	0.085	0.055
-296.720	-159.785	-0.200	-0.011
-295.705	-48.985	0.080	-0.038
-294.691	-46.063	0.192	-0.094
-293.676	27.379	0.166	0.139
-292.662	499.407	-0.027	0.063
-291.647	25.171	0.145	0.119
-290.632	800.000	-0.111	-0.341
-289.618	-200.000	-0.002	-0.037
-288.603	369.547	0.137	-0.276
-287.589	800.000	0.084	-0.353
-286.574	-200.000	-0.017	-0.099
-285.559	800.000	0.107	0.447
-284.545	800.000	-0.060	-0.185
-283.530	-160.305	-0.076	-0.004
-282.516	133.822	0.050	-0.065
-281.501	448.840	-0.122	0.267
-280.486	77.736	-0.181	0.192
-279.472	-90.225	-0.167	0.048
-278.457	236.747	0.228	0.375
-277.443	653.054	0.059	0.151
-276.428	-6.084	0.094	0.064
-275.413	-136.157	-0.168	-0.020
-274.399	306.676	-0.218	-0.403
-273.384	34.793	0.412	-0.358
-272.370	-85.995	0.094	0.029
-271.355	-120.563	0.142	-0.024
-270.340	-74.572	-0.117	-0.042
-269.326	228.665	0.075	-0.121
-268.311	-200.000	0.002	0.180
-267.297	661.425	-0.039	0.099
-266.282	800.000	-0.073	-0.254
-265.267	-200.000	0.052	0.336
-264.253	-88.774	0.239	0.070
-263.238	-93.046	-0.034	-0.009
-262.224	-157.721	-0.346	-0.020
-261.209	782.528	-0.069	-0.187
-260.195	-132.703	0.091	-0.012
-259.180	227.717	-0.181	0.292
-258.165	-103.926	0.286	-0.066
-257.151	800.000	0.049	0.164
-256.136	35.681	0.076	0.066
-255.122	315.618	0.064	-0.119
-254.107	347.277	-0.090	-0.177
-253.092	-139.510	0.169	-0.018
-252.078	-86.979	0.237	0.072
-251.063	369.585	-0.069	0.139
-250.049	-200.000	0.031	0.175
-249.034	-111.903	-0.263	0.053
-248.019	193.037	0.124	-0.185
-247.005	-98.963	-0.310	0.078
-245.990	-113.021	0.007	-0.001
-244.976	-77.419	-0.106	-0.037
-243.961	-141.937	-0.371	-0.037
-242.946	800.000	-0.113	0.315
-241.932	-160.021	0.164	-0.009
-240.917	800.000	0.096	0.284
-239.903	-179.978	0.141	0.003
-238.888	-200.000	0.044	0.379
-237.873	-200.000	0.053	0.480
-236.859	303.629	-0.104	-0.191
-235.844	177.152	-0.150	-0.217
-234.830	800.000	0.038	-0.115
-233.815	190.964	-0.079	0.118
-232.800	-200.000	0.026	0.276
-231.786	-22.446	0.035	-0.021
-230.771	-65.670	-0.020	0.008
-229.757	-67.397	-0.273	-0.106
-228.742	-200.000	0.024	-0.168
-227.727	18.026	-0.129	-0.102
-226.713	61.195	-0.194	0.191
-225.698	-200.000	-0.016	0.279
-224.684	74.151	-0.204	0.213
-223.669	-200.000	0.055	-0.340
-222.655	-73.741	0.187	-0.067
-221.640	-200.000	-0.031	0.146
-220.625	49.846	0.150	-0.140
-219.611	-200.000	0.008	0.123
-218.596	800.000	0.027	-0.094
-217.582	-171.732	0.078	0.003
-216.567	-100.788	0.185	0.045
-215.552	68.818	0.107	0.109
-214.538	-200.000	-0.076	0.419
-213.523	-52.910	-0.238	0.108
-212.509	369.574	0.154	-0.308
-211.494	32.518	0.039	-0.034
-210.479	-77.788	-0.202	0.069
-209.465	304.631	0.114	-0.209
-208.450	800.000	0.158	0.456
-207.436	-200.000	-0.035	0.265
-206.421	276.323	-0.040	0.069
-205.406	-69.757	0.127	-0.048
-204.392	109.284	0.049	-0.058
-203.377	-168.468	0.357	0.014
-202.363	800.000	-0.150	-0.449
-201.348	576.908	-0.084	0.203
-200.333	-200.000	0.063	0.324
-199.319	-63.412	0.085	-0.035
-198.304	-89.175	0.308	-0.090
-197.290	368.003	-0.131	0.262
-196.275	800.000	-0.076	-0.320
-195.260	-200.000	-0.007	-0.059
-194.246	199.510	0.102	-0.155
-193.231	240.384	0.129	-0.212
-192.217	493.062	-0.047	-0.107
-191.202	67.383	0.079	0.080
-190.187	7.087	-0.090	0.066
-189.173	27.824	0.105	-0.088
-188.158	-146.256	0.184	-0.016
-187.144	800.000	-0.079	-0.301
-186.129	120.263	-0.026	0.032
-185.114	-94.581	0.237	-0.064
-184.100	174.241	0.190	-0.272
-183.085	-67.587	0.058	-0.022
-182.071	-77.833	0.155	0.053
-181.056	22.460	-0.155	-0.125
-180.042	-142.737	0.368	-0.036
-179.027	127.702	-0.113	-0.142
-178.012	-200.000	-0.008	0.239
-176.998	289.793	-0.037	-0.067
-175.983	682.565	-0.149	0.384
-174.969	369.847	0.131	0.263
-173.954	176.151	-0.045	-0.065
-172.939	-200.000	0.058	0.254
-171.925	-16.663	-0.144	-0.090
-170.910	-142.300	-0.159	-0.016
-169.896	-62.100	0.052	-0.021
-168.881	31.606	-0.221	0.188
-167.866	-200.000	-0.025	0.158
-166.852	18.180	0.072	0.056
-165.837	-69.780	0.189	0.071
-164.823	90.050	-0.190	-0.210
-163.808	-73.178	-0.106	0.038
-162.793	9.374	-0.291	-0.218
-161.779	28.121	-0.096	0.080
-160.764	-200.000	-0.008	-0.096
-159.750	322.656	-0.016	0.030
-158.735	-200.000	0.069	0.345
-157.720	188.394	-0.051	0.075
-156.706	57.784	-0.043	0.041
-155.691	800.000	-0.036	-0.099
-154.677	74.740	-0.023	-0.023
-153.662	107.226	-0.206	-0.242
-152.647	-53.237	0.147	-0.066
-151.633	-200.000	0.009	-0.129
-150.618	775.859	0.090	-0.243
-149.604	713.838	-0.164	0.429
-148.589	-106.582	0.285	-0.063
-147.574	391.853	0.116	-0.239
-146.560	-125.627	-0.407	0.061
-145.545	200.599	0.100	0.152
-144.531	-132.357	-0.510	0.065
-143.516	-200.000	-0.049	0.248
-142.502	-5.810	0.112	-0.076
-141.487	127.815	-0.038	-0.048
-140.472	-63.942	-0.490	-0.198
-139.458	-200.000	0.011	0.053
-138.443	-200.000	-0.005	0.152
-137.429	-121.226	0.300	0.049
-136.414	343.889	0.026	0.049
-135.399	-75.096	-0.210	0.074
-134.385	-141.201	0.340	-0.034
-133.370	188.885	-0.068	0.100
-132.356	488.383	0.069	0.156
-131.341	-200.000	-0.027	0.474
-130.326	-200.000	-0.016	-0.093
-129.312	800.000	0.073	-0.239
-128.297	800.000	0.095	0.287
-127.283	-39.073	0.208	0.108
-126.268	477.633	-0.017	-0.039
-125.253	191.404	0.092	0.136
-124.239	99.868	-0.207	0.236
-123.224	128.979	0.153	0.192
-122.210	-73.696	0.154	-0.055
-121.195	-186.304	0.141	-0.002
