DTS Sentinel unit serial number:	SN413079Multiplexer serial number:	ORYXHardware model number:	OX4-SRSoftware version number:	ORYX F/W v4.00 Oryx Data Collector v3.7.2.0data status	okinstallation	princeton_trtdifferential loss correction	single-endedforward channel	channel 3reverse channel	N/Adate	2019/09/12time	23:24:34forward acquisition time	60.00reverse acquisition time	0.00gamma	496.2192k internal	0.2328k external	0.2328temperature offset calibration	1.0132default loss term (dB/km)	0.3790temperature slope calibration	1.0000multiplexer offset coefficient	1.0000multiplexer slope coefficient	1.0000fibre end	0.00T internal ref (°C)	29.05T ext. ref 1 (°C)	3.75T ext. ref 2 (°C)	23.70length (m)	temperature (°C)	Stokes	anti-Stokes-747.200	-200.000	-0.006	-0.233
-746.185	-90.707	-0.327	0.095
-745.171	144.389	-0.181	0.244
-744.156	800.000	0.073	0.214
-743.142	103.937	-0.100	-0.118
-742.127	184.288	-0.161	0.240
-741.112	-99.792	-0.329	-0.083
-740.098	-28.603	0.073	-0.042
-739.083	18.918	-0.205	-0.165
-738.069	-200.000	-0.055	0.458
-737.054	-102.653	-0.270	0.065
-736.039	-137.055	-0.405	0.047
-735.025	208.588	-0.028	0.044
-734.010	-102.707	-0.363	-0.087
-732.996	-23.038	-0.207	-0.126
-731.981	-152.468	-0.182	0.013
-730.966	-79.063	-0.247	-0.085
-729.952	-103.775	-0.179	0.042
-728.937	-80.914	-0.151	-0.051
-727.923	-20.608	-0.129	0.080
-726.908	149.626	-0.134	0.183
-725.894	468.290	-0.086	0.194
-724.879	139.026	0.153	-0.203
-723.864	397.755	-0.016	-0.035
-722.850	476.896	-0.190	-0.433
-721.835	-153.901	-0.169	-0.012
-720.821	119.218	-0.104	0.130
-719.806	-170.730	-0.236	-0.008
-718.791	652.539	-0.185	0.477
-717.777	800.000	-0.072	-0.207
-716.762	145.115	-0.087	-0.117
-715.748	800.000	0.039	-0.152
-714.733	-15.466	0.095	0.061
-713.718	128.777	-0.271	-0.348
-712.704	19.180	-0.102	0.082
-711.689	461.362	0.014	0.030
-710.675	-149.799	-0.141	-0.011
-709.660	116.671	-0.082	0.101
-708.645	-200.000	0.018	-0.336
-707.631	-28.960	-0.307	-0.178
-706.616	15.122	-0.219	-0.173
-705.602	-200.000	-0.014	-0.308
-704.587	-139.608	0.147	0.016
-703.572	-30.865	0.134	0.076
-702.558	-148.937	-0.234	0.019
-701.543	-8.866	0.284	0.192
-700.529	-80.999	0.336	-0.112
-699.514	554.623	-0.121	0.294
-698.499	-186.655	-0.334	-0.005
-697.485	172.724	0.272	-0.393
-696.470	-69.542	-0.312	-0.120
-695.456	-40.898	-0.375	-0.195
-694.441	390.055	-0.083	-0.173
-693.426	-200.000	0.012	-0.231
-692.412	467.662	-0.146	-0.330
-691.397	800.000	0.004	0.018
-690.383	-168.207	-0.350	-0.014
-689.368	800.000	-0.076	-0.220
-688.354	-200.000	-0.032	-0.158
-687.339	800.000	0.091	0.262
-686.324	-200.000	-0.021	0.436
-685.310	97.053	0.082	-0.095
-684.295	180.555	-0.150	-0.222
-683.281	611.155	-0.115	-0.288
-682.266	79.321	-0.047	-0.051
-681.251	407.940	-0.075	-0.160
-680.237	-38.730	-0.144	-0.076
-679.222	25.333	0.088	0.073
-678.208	800.000	-0.074	-0.266
-677.193	-51.055	-0.287	0.136
-676.178	-174.583	-0.517	-0.015
-675.164	602.805	-0.028	-0.070
-674.149	-79.758	0.128	-0.043
-673.135	52.669	-0.287	0.275
-672.120	156.535	-0.390	-0.542
-671.105	150.913	-0.151	-0.206
-670.091	-200.000	0.035	0.359
-669.076	-30.690	0.025	-0.014
-668.062	224.546	0.236	-0.383
-667.047	-200.000	0.000	-0.333
-666.032	507.874	0.047	-0.110
-665.018	144.912	-0.160	0.215
-664.003	-200.000	-0.033	0.151
-662.989	332.924	0.053	-0.104
-661.974	-100.414	0.128	-0.032
-660.959	32.417	-0.126	-0.109
-659.945	-161.671	-0.393	0.020
-658.930	-200.000	0.056	-0.322
-657.916	-136.376	0.119	0.014
-656.901	-22.325	-0.121	-0.073
-655.886	-69.062	0.049	-0.019
-654.872	800.000	-0.086	0.241
-653.857	-9.167	-0.129	-0.086
-652.843	-46.632	0.176	-0.087
-651.828	7.059	0.169	0.127
-650.814	41.210	0.325	0.295
-649.799	800.000	0.023	0.096
-648.784	-163.620	-0.317	-0.015
-647.770	-40.026	-0.293	-0.153
-646.755	341.017	-0.088	-0.173
-645.741	113.664	-0.032	0.039
-644.726	-132.516	-0.453	0.059
-643.711	-200.000	0.016	0.296
-642.697	157.792	0.298	0.415
-641.682	-200.000	-0.070	-0.385
-640.668	-148.594	-0.241	0.020
-639.653	-200.000	-0.019	-0.442
-638.638	94.544	-0.121	-0.138
-637.624	369.643	0.145	0.294
-636.609	514.607	0.162	0.379
-635.595	-132.760	-0.141	0.018
-634.580	-136.555	-0.248	-0.029
-633.565	-39.124	-0.274	-0.145
-632.551	-200.000	-0.019	-0.216
-631.536	800.000	0.059	-0.174
-630.522	-141.254	0.190	0.019
-629.507	85.834	0.058	0.063
-628.492	74.181	-0.145	0.152
-627.478	363.078	-0.126	-0.254
-626.463	159.390	0.053	0.075
-625.449	213.079	0.054	0.086
-624.434	0.530	0.105	-0.076
-623.419	72.337	0.152	-0.158
-622.405	800.000	0.048	0.179
-621.390	-154.128	-0.257	0.017
-620.376	148.051	-0.142	0.193
-619.361	610.906	-0.082	-0.207
-618.346	-21.777	0.114	-0.069
-617.332	-96.730	0.188	-0.050
-616.317	160.143	0.026	0.037
-615.303	-200.000	0.292	-0.000
-614.288	-200.000	0.048	0.308
-613.273	134.808	-0.082	0.107
-612.259	-135.527	0.014	-0.002
-611.244	38.660	-0.287	-0.257
-610.230	-113.746	-0.105	-0.021
-609.215	282.486	0.117	-0.211
-608.201	3.921	-0.150	-0.110
-607.186	11.381	0.219	0.168
-606.171	800.000	-0.077	-0.323
-605.157	46.024	0.150	-0.139
-604.142	328.650	-0.195	-0.376
-603.128	138.874	0.032	0.042
-602.113	800.000	0.075	0.249
-601.098	-28.033	-0.216	-0.125
-600.084	343.103	-0.116	-0.228
-599.069	163.069	0.115	-0.162
-598.055	188.402	-0.251	-0.377
-597.040	310.304	-0.177	-0.331
-596.025	-82.862	0.119	-0.038
-595.011	-200.000	-0.029	-0.132
-593.996	-172.685	-0.388	-0.012
-592.982	29.703	0.060	0.051
-591.967	-70.602	-0.202	-0.077
-590.952	-93.499	0.169	0.047
-589.938	-68.185	-0.385	-0.150
-588.923	201.755	-0.155	0.240
-587.909	163.087	0.109	0.153
-586.894	-200.000	-0.090	0.497
-585.879	-28.904	-0.241	0.138
-584.865	244.703	0.211	-0.355
-583.850	-200.000	0.012	-0.059
-582.836	-137.552	-0.176	0.020
-581.821	800.000	-0.067	-0.231
-580.806	-112.474	-0.185	0.037
-579.792	85.014	0.226	-0.248
-578.777	-21.872	-0.009	0.005
-577.763	800.000	0.013	0.051
-576.748	150.883	0.196	0.267
-575.733	-200.000	0.074	0.338
-574.719	-125.836	-0.505	-0.076
-573.704	800.000	-0.020	0.066
-572.690	-132.831	0.171	0.022
-571.675	-73.316	-0.044	0.016
-570.661	-51.713	-0.314	0.147
-569.646	-93.930	0.359	0.099
-568.631	53.257	0.079	0.076
-567.617	232.234	0.005	-0.008
-566.602	800.000	0.170	-0.624
-565.588	-200.000	0.004	-0.128
-564.573	115.837	-0.141	0.173
-563.558	82.784	0.069	-0.076
-562.544	-20.696	0.332	0.204
-561.529	-200.000	0.033	-0.146
-560.515	-124.051	-0.246	0.039
-559.500	198.788	0.095	0.145
-558.485	418.678	0.107	0.230
-557.471	160.985	-0.144	-0.201
-556.456	-93.449	0.298	-0.082
-555.442	361.189	0.055	-0.111
-554.427	94.360	-0.163	0.186
-553.412	-49.877	0.347	0.165
-552.398	-161.236	0.114	0.006
-551.383	-129.321	-0.150	0.021
-550.369	37.326	0.149	0.132
-549.354	-16.207	0.258	-0.164
-548.339	-200.000	-0.018	0.284
-547.325	-153.424	-0.028	-0.002
-546.310	597.732	0.043	0.106
-545.296	-127.137	0.227	-0.033
-544.281	800.000	-0.056	0.216
-543.266	-50.628	0.151	0.071
-542.252	800.000	0.026	-0.087
-541.237	215.700	0.139	-0.220
-540.223	-22.275	0.192	0.117
-539.208	117.162	-0.060	-0.074
-538.193	-8.568	0.106	0.071
-537.179	-90.296	0.274	0.079
-536.164	12.224	-0.166	-0.127
-535.150	-200.000	0.034	-0.159
-534.135	-85.820	-0.306	0.095
-533.121	130.201	-0.206	-0.264
-532.106	397.932	0.051	-0.107
-531.091	34.284	0.072	0.063
-530.077	-200.000	-0.008	0.046
-529.062	46.135	0.061	0.056
-528.048	254.729	-0.061	0.104
-527.033	-85.875	-0.132	-0.041
-526.018	126.529	-0.142	-0.180
-525.004	-117.378	0.189	-0.034
-523.989	-125.698	-0.164	-0.025
-522.975	328.628	-0.139	0.267
-521.960	-18.826	-0.143	-0.089
-520.945	-11.503	-0.152	-0.100
-519.931	-41.774	-0.229	0.117
-518.916	26.997	0.226	-0.189
-517.902	-142.553	0.223	-0.022
-516.887	-80.293	0.197	-0.066
-515.872	-9.557	-0.284	-0.189
-514.858	571.084	-0.062	-0.150
-513.843	-35.757	-0.018	0.010
-512.829	-86.990	0.104	0.032
-511.814	429.456	0.090	-0.193
-510.799	-25.474	-0.118	0.070
-509.785	800.000	-0.079	-0.220
-508.770	-200.000	-0.020	0.450
-507.756	-3.644	-0.027	0.019
-506.741	616.620	-0.043	-0.107
-505.726	-87.874	-0.051	0.015
-504.712	-67.995	-0.301	0.117
-503.697	43.601	0.365	-0.334
-502.683	14.457	0.064	0.050
-501.668	110.216	0.079	-0.095
-500.653	-200.000	-0.047	-0.228
-499.639	-200.000	-0.017	-0.133
-498.624	93.974	-0.282	0.319
-497.610	-200.000	0.016	0.128
-496.595	-144.619	-0.290	-0.027
-495.581	-102.546	-0.088	-0.021
-494.566	-6.305	0.191	-0.130
-493.551	-8.368	-0.064	-0.043
-492.537	-63.208	0.117	-0.048
-491.522	144.155	-0.036	0.048
-490.508	586.539	-0.053	0.130
-489.493	340.778	0.100	0.194
-488.478	800.000	-0.029	0.087
-487.464	-51.360	-0.216	0.101
-486.449	24.915	-0.306	0.253
-485.435	19.556	0.134	-0.108
-484.420	-70.402	0.072	-0.027
-483.405	72.314	0.181	-0.189
-482.391	-105.875	0.190	0.043
-481.376	60.602	0.349	-0.345
-480.362	-118.179	0.156	-0.028
-479.347	-1.575	-0.224	-0.158
-478.332	-200.000	0.038	-0.346
-477.318	-160.825	0.304	0.016
-476.303	528.389	0.018	-0.042
-475.289	438.363	-0.182	0.397
-474.274	98.378	0.152	-0.175
-473.259	-200.000	-0.051	-0.617
-472.245	-65.772	0.339	-0.135
-471.230	696.896	0.042	0.110
-470.216	800.000	0.056	0.176
-469.201	-35.749	0.327	0.176
-468.186	51.148	0.066	-0.062
-467.172	-47.424	-0.103	0.050
-466.157	800.000	0.069	0.301
-465.143	-147.400	0.237	0.020
-464.128	21.055	0.229	-0.185
-463.113	148.646	-0.160	-0.216
-462.099	-97.046	-0.038	-0.010
-461.084	-77.849	-0.402	0.138
-460.070	-200.000	-0.022	0.207
-459.055	-28.794	-0.058	0.033
-458.040	-87.114	-0.205	-0.062
-457.026	800.000	-0.087	-0.269
-456.011	800.000	0.046	-0.194
-454.997	-118.401	-0.258	0.046
-453.982	800.000	-0.083	0.241
-452.968	-49.051	0.387	0.185
-451.953	-200.000	-0.016	0.134
-450.938	-200.000	0.010	0.364
-449.924	-92.868	-0.290	-0.081
-448.909	800.000	0.024	0.079
-447.895	-200.000	-0.049	-0.218
-446.880	800.000	0.046	0.134
-445.865	-140.757	0.033	0.003
-444.851	51.001	0.191	-0.180
-443.836	322.543	-0.080	-0.151
-442.822	-200.000	0.021	-0.186
-441.807	-200.000	0.014	-0.212
-440.792	-158.359	0.282	-0.016
-439.778	-67.004	-0.148	0.058
-438.763	-173.551	-0.238	-0.007
-437.749	-102.701	0.089	-0.021
-436.734	-100.431	-0.200	0.049
-435.719	91.719	0.110	0.123
-434.705	-125.710	0.274	-0.041
-433.690	106.186	0.165	-0.194
-432.676	-85.642	-0.210	-0.065
-431.661	-154.745	0.324	-0.021
-430.646	800.000	0.145	-0.429
-429.632	800.000	0.035	-0.110
-428.617	800.000	-0.121	0.400
-427.603	54.144	0.204	0.196
-426.588	409.790	-0.116	-0.244
-425.573	-200.000	-0.048	-0.398
-424.559	-81.551	-0.073	0.024
-423.544	-39.180	-0.261	0.136
-422.530	-200.000	0.001	0.158
-421.515	67.129	0.078	0.079
-420.500	212.727	0.101	0.158
-419.486	-33.864	0.272	-0.149
-418.471	-9.297	0.100	-0.066
-417.457	17.870	-0.405	0.321
-416.442	220.773	0.169	0.270
-415.428	70.740	0.050	-0.051
-414.413	-66.377	-0.378	0.150
-413.398	51.277	-0.249	-0.235
-412.384	-63.627	0.234	0.096
-411.369	384.459	-0.064	0.131
-410.355	-200.000	0.036	-0.400
-409.340	67.710	0.181	-0.184
-408.325	-200.000	0.042	-0.185
-407.311	-200.000	-0.021	0.292
-406.296	-132.707	0.065	0.008
-405.282	-200.000	0.025	0.447
-404.267	-42.371	-0.158	-0.080
-403.252	-139.022	-0.210	-0.023
-402.238	67.093	-0.120	-0.122
-401.223	-72.279	-0.175	-0.064
-400.209	7.532	-0.013	-0.010
-399.194	139.962	0.127	-0.166
-398.179	-200.000	-0.022	0.120
-397.165	-200.000	0.048	0.533
-396.150	81.221	-0.084	0.090
-395.136	-83.871	0.400	-0.127
-394.121	495.403	0.129	-0.294
-393.106	-200.000	0.000	0.236
-392.092	556.167	-0.077	-0.185
-391.077	542.054	-0.163	0.386
-390.063	-92.091	0.202	0.057
-389.048	800.000	0.119	-0.402
-388.033	268.039	0.145	0.253
-387.019	-175.720	-0.393	0.010
-386.004	92.718	0.141	0.159
-384.990	84.003	0.203	0.220
-383.975	-38.259	-0.195	0.103
-382.960	481.779	0.064	-0.145
-381.946	90.947	-0.200	-0.223
-380.931	-153.974	0.155	0.010
-379.917	-123.732	-0.479	0.075
-378.902	-105.421	-0.175	0.040
-377.888	-117.176	0.202	0.036
-376.873	-85.473	-0.189	0.058
-375.858	-52.369	-0.087	0.040
-374.844	800.000	-0.066	0.230
-373.829	-157.332	0.136	0.008
-372.815	204.208	-0.092	-0.141
-371.800	800.000	-0.023	-0.074
-370.785	-92.962	-0.102	0.028
-369.771	82.761	0.212	0.228
-368.756	18.320	0.226	-0.179
-367.742	-38.028	-0.204	0.107
-366.727	416.118	-0.076	-0.162
-365.712	91.912	0.202	0.226
-364.698	-88.977	-0.196	-0.058
-363.683	326.807	0.048	-0.092
-362.669	213.387	0.125	0.196
-361.654	-158.056	0.107	-0.006
-360.639	21.695	0.119	-0.096
-359.625	800.000	0.087	0.264
-358.610	-200.000	-0.026	0.239
-357.596	20.304	-0.077	-0.062
-356.581	-99.678	0.079	-0.020
-355.566	-60.687	-0.181	0.076
-354.552	183.663	0.083	0.122
-353.537	-164.181	-0.201	0.009
-352.523	800.000	-0.040	-0.123
-351.508	-80.401	-0.199	-0.066
-350.493	56.744	0.033	0.032
-349.479	-200.000	-0.011	-0.136
-348.464	800.000	0.016	0.049
-347.450	-144.890	0.109	0.010
-346.435	-98.450	0.454	0.115
-345.420	-200.000	-0.050	-0.292
-344.406	-46.351	-0.376	-0.183
-343.391	125.801	-0.147	-0.184
-342.377	57.485	-0.019	0.019
-341.362	-200.000	0.011	-0.258
-340.348	572.263	0.069	0.167
-339.333	137.272	-0.247	0.321
-338.318	5.596	-0.011	-0.008
-337.304	138.560	-0.054	-0.071
-336.289	-4.294	0.360	0.247
-335.275	-109.245	-0.118	0.025
-334.260	38.658	-0.090	-0.079
-333.245	-55.384	-0.215	-0.096
-332.231	431.371	0.068	0.147
-331.216	153.270	0.003	0.004
-330.202	10.483	0.085	-0.064
-329.187	-200.000	0.069	0.361
-328.172	36.002	-0.105	0.091
-327.158	794.516	0.034	0.092
-326.143	-64.997	-0.142	0.057
-325.129	99.500	-0.088	-0.101
-324.114	-44.730	0.095	-0.047
-323.099	-166.011	0.245	-0.010
-322.085	-51.462	0.341	-0.158
-321.070	800.000	-0.064	0.218
-320.056	-162.584	-0.321	0.016
-319.041	159.168	-0.047	-0.065
-318.026	142.182	-0.130	0.172
-317.012	-151.630	0.428	-0.031
-315.997	38.447	0.180	0.159
-314.983	-89.863	-0.255	0.074
-313.968	88.561	-0.108	0.119
-312.953	43.747	-0.346	0.314
-311.939	800.000	0.071	-0.206
-310.924	-127.331	0.398	0.058
-309.910	-166.911	-0.176	-0.007
-308.895	-200.000	-0.055	-0.321
-307.880	123.902	-0.060	-0.075
-306.866	111.259	-0.027	0.033
-305.851	-157.460	0.123	-0.007
-304.837	-200.000	-0.058	-0.274
-303.822	-74.717	0.300	-0.107
-302.807	234.144	-0.072	0.117
-301.793	-24.095	-0.140	0.083
-300.778	517.362	-0.085	-0.196
-299.764	-26.652	0.144	-0.083
-298.749	800.000	-0.151	-0.435
-297.735	363.681	0.219	0.435
-296.720	607.158	0.081	0.200
-295.705	800.000	0.072	0.255
-294.691	-200.000	-0.068	-0.316
-293.676	-67.926	0.236	0.091
-292.662	168.866	-0.220	-0.310
-291.647	-200.000	0.069	-0.390
-290.632	-55.079	0.201	0.089
-289.618	-200.000	0.047	0.239
-288.603	106.522	0.067	-0.079
-287.589	-42.081	-0.441	-0.224
-286.574	380.831	-0.071	0.144
-285.559	-200.000	-0.008	-0.190
-284.545	-43.479	-0.054	-0.027
-283.530	-110.639	-0.333	-0.068
-282.516	-200.000	-0.016	-0.119
-281.501	195.427	0.148	-0.223
-280.486	-153.108	-0.344	0.024
-279.472	29.562	0.154	-0.129
-278.457	-132.761	0.077	-0.010
-277.443	-200.000	-0.050	0.372
-276.428	-112.148	0.384	0.076
-275.413	-200.000	-0.042	-0.264
-274.399	71.557	-0.171	0.176
-273.384	130.021	-0.106	0.135
-272.370	-10.788	0.147	0.096
-271.355	-94.313	0.249	-0.067
-270.340	49.923	0.170	-0.159
-269.326	-200.000	0.032	-0.190
-268.311	-94.145	0.282	0.077
-267.297	-93.849	0.283	-0.077
-266.282	-33.762	-0.141	-0.077
-265.267	700.759	0.104	0.271
-264.253	-27.206	0.262	0.151
-263.238	32.600	-0.078	-0.067
-262.224	-109.923	0.180	-0.037
-261.209	64.826	-0.115	-0.114
-260.195	79.570	-0.182	0.193
-259.180	168.974	0.066	0.094
-258.165	201.312	-0.214	-0.326
-257.151	124.650	-0.165	-0.206
-256.136	114.243	-0.055	0.067
-255.122	800.000	-0.040	-0.117
-254.107	-200.000	0.004	0.090
-253.092	25.982	-0.209	0.172
-252.078	800.000	-0.023	-0.077
-251.063	-68.560	0.014	-0.006
-250.049	-200.000	-0.032	0.274
-249.034	800.000	-0.022	0.081
-248.019	-200.000	0.021	-0.114
-247.005	35.783	-0.186	-0.162
-245.990	-112.012	0.233	-0.046
-244.976	404.667	-0.163	-0.340
-243.961	274.125	0.177	0.310
-242.946	396.031	-0.102	0.211
-241.932	-191.910	0.077	-0.001
-240.917	-200.000	-0.012	-0.092
-239.903	-1.306	0.131	0.091
-238.888	800.000	0.163	-0.458
-237.873	17.171	-0.176	0.138
-236.859	800.000	-0.028	-0.099
-235.844	17.811	-0.040	-0.032
-234.830	148.356	-0.158	0.211
-233.815	-48.788	0.231	0.109
-232.800	438.961	-0.090	-0.194
-231.786	104.968	0.324	0.378
-230.771	-57.370	-0.272	-0.118
-229.757	461.171	0.119	0.262
-228.742	42.926	0.257	-0.232
-227.727	206.894	-0.047	-0.072
-226.713	14.156	-0.143	0.110
-225.698	-146.165	0.381	-0.033
-224.684	51.172	-0.110	0.103
-223.669	-91.010	-0.078	-0.022
-222.655	800.000	0.083	0.240
-221.640	2.125	-0.114	0.082
-220.625	232.878	0.103	-0.167
-219.611	138.123	0.231	-0.299
-218.596	-117.673	-0.068	0.012
-217.582	-45.445	0.466	0.228
-216.567	97.738	-0.107	0.121
-215.552	257.200	0.164	-0.279
-214.538	91.195	-0.182	-0.202
-213.523	109.659	-0.133	0.157
-212.509	-200.000	0.072	0.379
-211.494	-58.385	-0.119	0.051
-210.479	240.189	-0.027	-0.045
-209.465	85.688	0.259	0.281
-208.450	-39.034	0.151	-0.078
-207.436	51.896	-0.030	0.028
-206.421	-71.166	0.100	-0.037
-205.406	-5.402	0.096	0.065
-204.392	800.000	-0.041	-0.163
-203.377	436.308	-0.222	0.477
-202.363	-200.000	0.022	0.108
-201.348	-38.155	0.099	0.052
-200.333	-40.453	-0.076	0.039
-199.319	-172.301	-0.268	0.008
-198.304	321.377	0.100	0.188
-197.290	-144.095	0.327	0.030
-196.275	-186.839	-0.213	0.003
-195.260	8.548	-0.099	-0.074
-194.246	382.065	0.108	0.219
-193.231	800.000	-0.071	-0.206
-192.217	105.796	-0.235	0.274
-191.202	-3.472	0.286	0.196
-190.187	32.091	0.291	0.247
-189.173	348.834	-0.151	-0.293
-188.158	-20.028	0.293	-0.178
-187.144	350.265	-0.114	0.223
-186.129	349.348	0.086	0.167
-185.114	41.367	-0.111	0.099
-184.100	-200.000	-0.015	-0.105
-183.085	800.000	0.074	-0.253
-182.071	-122.925	0.254	-0.040
-181.056	203.322	0.149	-0.228
-180.042	-123.005	-0.216	-0.034
-179.027	248.181	-0.034	0.056
-178.012	-65.386	-0.326	0.129
-176.998	-15.409	0.129	0.081
-175.983	-200.000	-0.040	-0.244
-174.969	11.324	0.224	0.169
-173.954	800.000	-0.038	0.107
-172.939	-51.557	0.157	-0.072
-171.925	-200.000	0.004	0.088
-170.910	-101.937	-0.176	0.042
-169.896	9.883	0.237	0.177
-168.881	-9.512	0.094	0.062
-167.866	362.360	0.146	-0.288
-166.852	178.138	0.028	0.040
-165.837	-131.897	0.246	-0.032
-164.823	59.556	-0.302	0.293
-163.808	175.865	-0.120	-0.171
-162.793	68.053	0.130	-0.131
-161.779	-42.361	0.171	0.086
-160.764	-99.974	-0.349	0.086
-159.750	112.320	0.171	0.204
-158.735	577.695	-0.086	-0.206
-157.720	45.624	-0.201	0.183
-156.706	123.302	-0.178	-0.220
-155.691	502.531	0.020	-0.045
-154.677	-77.586	-0.093	0.032
-153.662	39.146	0.122	-0.107
-152.647	-200.000	0.056	0.252
-151.633	715.568	-0.028	-0.074
-150.618	-18.612	-0.178	-0.109
-149.604	-23.326	-0.440	-0.261
-148.589	457.418	0.039	0.085
-147.574	32.082	0.082	0.070
-146.560	-118.106	0.273	0.048
-145.545	88.275	-0.200	-0.219
-144.531	-90.531	0.152	-0.043
-143.516	-200.000	-0.060	-0.320
-142.502	-200.000	0.001	-0.414
-141.487	74.890	-0.063	-0.065
-140.472	291.502	-0.133	-0.239
-139.458	0.304	-0.403	0.283
-138.443	531.919	-0.084	-0.194
-137.429	-200.000	0.002	0.323
-136.414	-175.288	0.214	-0.006
-135.399	-83.872	0.124	0.039
-134.385	800.000	-0.108	-0.339
-133.370	-50.463	0.181	-0.084
-132.356	-96.221	0.224	-0.058
-131.341	40.522	-0.168	0.149
-130.326	-101.948	-0.245	-0.058
-129.312	-200.000	0.019	-0.172
-128.297	-159.692	0.196	0.011
-127.283	-44.514	0.201	0.099
-126.268	-139.336	-0.216	0.023
-125.253	-120.445	-0.268	-0.045
-124.239	6.887	0.288	0.211
-123.224	33.861	0.176	0.150
-122.210	800.000	0.134	0.407
-121.195	418.810	0.121	-0.255
