DTS Sentinel unit serial number:	SN413079Multiplexer serial number:	ORYXHardware model number:	OX4-SRSoftware version number:	ORYX F/W v4.00 Oryx Data Collector v3.7.2.0data status	okinstallation	princeton_trtdifferential loss correction	single-endedforward channel	channel 3reverse channel	N/Adate	2019/09/14time	05:52:35forward acquisition time	60.00reverse acquisition time	0.00gamma	496.2192k internal	0.2338k external	0.2338temperature offset calibration	1.0054default loss term (dB/km)	0.3790temperature slope calibration	1.0000multiplexer offset coefficient	1.0000multiplexer slope coefficient	1.0000fibre end	0.00T internal ref (°C)	26.87T ext. ref 1 (°C)	3.40T ext. ref 2 (°C)	21.29length (m)	temperature (°C)	Stokes	anti-Stokes-747.200	-186.547	0.459	-0.007
-746.185	-7.608	-0.246	0.167
-745.171	297.064	-0.047	0.087
-744.156	11.510	-0.345	0.265
-743.142	-119.617	0.228	0.040
-742.127	151.295	0.131	0.179
-741.112	-37.010	0.124	-0.067
-740.098	-74.275	0.350	-0.127
-739.083	-200.000	-0.023	0.172
-738.069	599.721	-0.037	0.091
-737.054	-45.458	-0.225	-0.112
-736.039	-138.011	-0.067	0.007
-735.025	94.153	-0.238	-0.271
-734.010	800.000	0.037	-0.118
-732.996	-26.370	-0.204	-0.120
-731.981	-200.000	0.030	-0.239
-730.966	6.125	-0.179	-0.133
-729.952	-3.930	0.134	-0.093
-728.937	378.780	0.010	-0.020
-727.923	0.261	-0.131	-0.094
-726.908	41.100	-0.115	0.104
-725.894	-81.525	0.133	-0.044
-724.879	-124.153	-0.196	-0.031
-723.864	-200.000	-0.014	-0.291
-722.850	-200.000	0.026	0.212
-721.835	32.496	0.172	0.149
-720.821	294.153	0.004	-0.007
-719.806	-47.440	-0.135	0.066
-718.791	-75.082	-0.248	-0.089
-717.777	368.888	-0.191	0.388
-716.762	-4.626	0.169	-0.117
-715.748	-126.771	-0.414	-0.061
-714.733	-127.256	-0.122	-0.018
-713.718	-3.934	-0.153	0.106
-712.704	-161.800	0.215	0.011
-711.689	-200.000	-0.083	0.448
-710.675	800.000	-0.013	0.039
-709.660	-200.000	0.041	-0.356
-708.645	-200.000	-0.017	0.290
-707.631	-30.822	0.226	-0.128
-706.616	800.000	-0.095	0.333
-705.602	198.528	0.212	-0.324
-704.587	207.869	0.059	-0.092
-703.572	-200.000	-0.084	-0.590
-702.558	-158.404	-0.141	-0.008
-701.543	-6.254	-0.173	-0.118
-700.529	246.810	-0.057	-0.097
-699.514	133.411	-0.211	0.274
-698.499	54.577	-0.094	0.091
-697.485	800.000	0.061	-0.216
-696.470	352.753	0.093	-0.185
-695.456	26.176	0.441	-0.369
-694.441	-200.000	0.421	-0.001
-693.426	215.473	0.103	-0.163
-692.412	-109.153	-0.232	-0.049
-691.397	800.000	0.145	-0.428
-690.383	277.974	-0.012	-0.022
-689.368	-167.869	-0.316	-0.012
-688.354	143.670	0.069	0.092
-687.339	-196.536	-0.150	-0.001
-686.324	192.095	0.153	0.231
-685.310	800.000	0.096	-0.293
-684.295	-89.625	-0.300	0.088
-683.281	800.000	-0.068	-0.262
-682.266	87.292	-0.057	0.063
-681.251	-54.546	-0.045	-0.020
-680.237	2.692	-0.492	0.357
-679.222	-58.074	0.076	-0.033
-678.208	800.000	-0.068	-0.201
-677.193	142.549	-0.084	-0.112
-676.178	476.934	-0.073	-0.166
-675.164	235.430	-0.155	-0.256
-674.149	116.758	-0.057	0.071
-673.135	619.924	0.123	-0.310
-672.120	212.551	-0.075	-0.119
-671.105	-200.000	0.024	0.174
-670.091	-200.000	0.024	0.252
-669.076	800.000	-0.071	0.267
-668.062	96.061	-0.335	0.383
-667.047	-200.000	0.051	-0.425
-666.032	-187.368	0.398	-0.005
-665.018	800.000	0.096	-0.308
-664.003	18.991	0.050	-0.040
-662.989	-167.334	0.209	-0.008
-661.974	135.115	0.034	0.044
-660.959	-200.000	0.070	-0.444
-659.945	224.806	0.117	-0.190
-658.930	444.579	0.135	0.296
-657.916	-200.000	0.004	-0.235
-656.901	278.188	0.046	-0.081
-655.886	343.257	-0.022	-0.044
-654.872	128.064	-0.112	-0.143
-653.857	84.858	-0.173	-0.190
-652.843	627.056	0.105	-0.265
-651.828	-115.452	-0.359	0.068
-650.814	-200.000	0.021	0.212
-649.799	-200.000	0.011	-0.329
-648.784	-200.000	-0.048	-0.297
-647.770	-123.444	-0.092	-0.015
-646.755	-200.000	0.006	0.126
-645.741	94.233	-0.141	0.160
-644.726	-175.455	-0.233	-0.006
-643.711	243.104	0.110	-0.184
-642.697	122.143	0.137	0.171
-641.682	-30.598	-0.231	0.131
-640.668	-200.000	0.052	0.431
-639.653	800.000	-0.072	-0.276
-638.638	-108.080	-0.413	0.089
-637.624	445.953	0.136	-0.298
-636.609	-129.338	0.121	-0.017
-635.595	62.335	0.093	0.093
-634.580	171.407	-0.090	-0.128
-633.565	800.000	0.073	-0.207
-632.551	-24.579	0.195	0.116
-631.536	-78.952	-0.080	-0.027
-630.522	800.000	-0.025	-0.080
-629.507	437.834	-0.010	-0.022
-628.492	-68.762	-0.160	0.062
-627.478	-94.609	-0.019	-0.005
-626.463	-200.000	-0.054	-0.272
-625.449	800.000	-0.070	-0.257
-624.434	800.000	-0.137	-0.432
-623.419	162.683	0.083	0.117
-622.405	518.443	0.127	0.297
-621.390	800.000	0.110	0.316
-620.376	-35.495	-0.192	0.104
-619.361	-107.858	0.190	-0.041
-618.346	-200.000	0.014	-0.332
-617.332	-18.156	-0.085	-0.053
-616.317	85.680	-0.222	-0.244
-615.303	298.333	-0.082	-0.150
-614.288	-200.000	0.042	0.226
-613.273	-200.000	0.019	-0.137
-612.259	102.247	-0.039	0.046
-611.244	-14.950	-0.302	0.193
-610.230	800.000	-0.061	0.252
-609.215	-128.525	-0.088	0.012
-608.201	58.897	-0.238	0.234
-607.186	-180.057	-0.132	0.003
-606.171	4.322	0.225	-0.164
-605.157	-200.000	0.013	0.059
-604.142	198.049	0.130	-0.199
-603.128	-115.313	-0.382	0.072
-602.113	-13.054	-0.359	-0.233
-601.098	-135.214	-0.119	-0.014
-600.084	0.006	0.069	0.049
-599.069	-22.586	0.100	-0.061
-598.055	11.822	-0.303	-0.233
-597.040	-200.000	-0.021	0.311
-596.025	-96.354	0.079	0.021
-595.011	-99.588	-0.238	0.060
-593.996	-72.722	0.521	0.191
-592.982	-49.806	-0.233	0.110
-591.967	800.000	-0.089	0.294
-590.952	-69.044	0.192	0.074
-589.938	-64.263	0.241	0.098
-588.923	-200.000	0.049	0.246
-587.909	-200.000	-0.023	-0.180
-586.894	-119.224	-0.245	-0.043
-585.879	299.660	0.093	0.171
-584.865	-45.911	-0.075	0.037
-583.850	-200.000	0.013	-0.150
-582.836	74.657	-0.049	0.052
-581.821	62.475	-0.225	0.224
-580.806	28.201	-0.257	0.217
-579.792	118.163	-0.183	-0.225
-578.777	1.313	0.379	-0.271
-577.763	-198.253	0.236	0.001
-576.748	-200.000	-0.008	-0.083
-575.733	394.231	-0.245	-0.509
-574.719	-99.619	0.440	-0.110
-573.704	406.642	0.126	0.266
-572.690	28.414	-0.223	-0.188
-571.675	-52.680	-0.215	0.099
-570.661	800.000	-0.088	0.277
-569.646	-200.000	0.034	-0.207
-568.631	-200.000	0.040	-0.415
-567.617	122.686	0.081	-0.101
-566.602	-200.000	0.018	0.084
-565.588	10.912	0.065	-0.049
-564.573	503.396	-0.067	-0.155
-563.558	-156.071	0.276	0.017
-562.544	-200.000	-0.062	-0.350
-561.529	-131.147	-0.288	-0.038
-560.515	30.430	0.068	-0.058
-559.500	219.312	-0.056	0.089
-558.485	171.230	0.095	-0.136
-557.471	-136.254	-0.010	-0.001
-556.456	500.101	0.068	0.156
-555.442	-161.536	0.057	-0.003
-554.427	-200.000	-0.044	0.313
-553.412	34.427	0.314	0.273
-552.398	-18.123	-0.220	-0.137
-551.383	-34.631	0.075	-0.041
-550.369	-55.728	-0.420	-0.187
-549.354	800.000	0.013	-0.051
-548.339	418.420	-0.075	0.161
-547.325	202.228	0.118	-0.182
-546.310	800.000	0.023	0.094
-545.296	-131.378	0.222	-0.029
-544.281	259.602	0.080	-0.138
-543.266	144.622	-0.263	0.349
-542.252	77.197	-0.208	-0.220
-541.237	236.872	0.150	0.247
-540.223	800.000	-0.016	0.055
-539.208	-149.383	0.505	0.040
-538.193	-150.842	-0.030	-0.002
-537.179	-55.682	0.180	-0.080
-536.164	800.000	-0.021	-0.068
-535.150	800.000	0.061	0.185
-534.135	266.824	-0.134	0.234
-533.121	-11.968	-0.137	0.089
-532.106	4.874	-0.175	-0.128
-531.091	-200.000	0.043	0.484
-530.077	-198.182	0.208	-0.001
-529.062	-91.000	0.107	0.031
-528.048	-5.771	0.092	-0.063
-527.033	-129.984	-0.168	0.023
-526.018	-200.000	-0.027	0.129
-525.004	-64.138	0.487	0.198
-523.989	42.566	0.055	-0.050
-522.975	-107.417	0.083	-0.018
-521.960	-24.145	0.122	0.072
-520.945	87.461	-0.159	0.175
-519.931	53.874	-0.015	-0.014
-518.916	37.655	-0.181	-0.159
-517.902	172.566	-0.054	-0.077
-516.887	-163.118	-0.044	0.002
-515.872	8.560	-0.294	0.220
-514.858	52.523	0.049	0.047
-513.843	221.639	-0.072	0.116
-512.829	21.605	-0.098	0.079
-511.814	508.503	0.058	0.134
-510.799	184.695	0.058	-0.085
-509.785	620.505	0.120	0.299
-508.770	417.648	-0.068	0.145
-507.756	-106.895	0.201	0.044
-506.741	-200.000	-0.009	0.172
-505.726	216.987	-0.201	-0.318
-504.712	318.404	-0.187	0.353
-503.697	134.995	-0.135	-0.174
-502.683	-72.289	0.254	-0.094
-501.668	25.182	-0.154	-0.127
-500.653	-56.467	-0.082	-0.036
-499.639	800.000	0.034	0.122
-498.624	-7.420	0.295	-0.198
-497.610	-44.724	-0.158	-0.078
-496.595	23.617	0.155	-0.127
-495.581	-200.000	-0.376	0.002
-494.566	-24.856	0.154	0.091
-493.551	-146.509	0.132	-0.011
-492.537	22.505	-0.118	-0.096
-491.522	-173.999	0.219	-0.006
-490.508	84.429	-0.188	-0.204
-489.493	-10.708	0.074	0.049
-488.478	-12.979	-0.180	0.116
-487.464	98.125	0.155	0.178
-486.449	800.000	-0.061	0.252
-485.435	323.384	-0.058	0.110
-484.420	-4.225	0.227	-0.156
-483.405	52.052	0.087	0.083
-482.391	800.000	-0.077	-0.287
-481.376	-75.944	-0.169	0.059
-480.362	-143.603	0.424	-0.040
-479.347	-200.000	0.012	0.156
-478.332	-200.000	0.019	0.099
-477.318	800.000	-0.126	0.458
-476.303	-106.938	0.384	0.084
-475.289	-50.358	0.165	0.078
-474.274	-88.866	0.343	-0.101
-473.259	552.656	-0.140	-0.334
-472.245	387.464	-0.056	0.116
-471.230	-67.675	-0.076	-0.029
-470.216	9.376	0.065	0.049
-469.201	-142.248	0.167	-0.016
-468.186	36.218	0.142	-0.125
-467.172	116.782	0.152	0.185
-466.157	0.025	-0.233	-0.165
-465.143	-110.135	-0.258	0.053
-464.128	75.054	-0.288	0.301
-463.113	800.000	0.025	0.100
-462.099	-77.087	-0.222	-0.077
-461.084	100.180	0.160	-0.184
-460.070	-101.539	0.188	0.045
-459.055	33.052	-0.192	0.165
-458.040	356.340	-0.098	-0.194
-457.026	-60.090	0.274	0.116
-456.011	14.598	0.304	-0.236
-454.997	695.995	-0.090	-0.233
-453.982	-144.585	-0.317	-0.029
-452.968	102.197	-0.028	-0.032
-451.953	15.986	-0.120	0.094
-450.938	-200.000	-0.002	-0.012
-449.924	55.380	-0.397	-0.381
-448.909	800.000	0.099	0.328
-447.895	800.000	-0.009	-0.036
-446.880	340.011	-0.012	-0.023
-445.865	363.871	0.174	0.347
-444.851	77.342	-0.199	-0.210
-443.836	-118.883	-0.233	0.041
-442.822	245.741	0.140	-0.234
-441.807	85.378	0.146	0.159
-440.792	-200.000	-0.092	-0.428
-439.778	-95.834	-0.210	0.056
-438.763	4.524	-0.116	-0.085
-437.749	-29.579	0.146	-0.083
-436.734	471.066	-0.091	-0.203
-435.719	76.930	0.125	0.131
-434.705	-200.000	-0.021	0.155
-433.690	-115.477	0.098	0.018
-432.676	356.129	0.149	0.295
-431.661	37.944	0.192	-0.169
-430.646	-102.128	-0.167	-0.040
-429.632	432.443	-0.022	0.047
-428.617	-4.160	-0.076	0.052
-427.603	-66.724	0.173	0.068
-426.588	-121.946	-0.027	-0.004
-425.573	-35.193	-0.125	-0.067
-424.559	-54.076	-0.265	-0.119
-423.544	589.867	0.126	0.309
-422.530	45.867	0.111	0.102
-421.515	439.524	-0.089	0.192
-420.500	16.341	0.197	0.154
-419.486	800.000	-0.044	0.156
-418.471	-52.623	0.194	-0.089
-417.457	800.000	0.014	-0.041
-416.442	-200.000	0.078	0.390
-415.428	206.248	0.235	0.363
-414.413	800.000	-0.100	0.356
-413.398	-23.185	0.406	0.242
-412.384	148.748	0.143	-0.192
-411.369	-14.875	0.035	0.022
-410.355	36.039	0.235	-0.205
-409.340	-106.522	0.007	-0.002
-408.325	-46.207	0.292	0.142
-407.311	-174.160	-0.102	-0.003
-406.296	141.842	-0.181	0.238
-405.282	-60.614	0.024	0.010
-404.267	800.000	-0.064	-0.190
-403.252	17.366	0.108	0.085
-402.238	-129.368	-0.135	0.019
-401.223	-31.219	0.211	0.118
-400.209	-41.944	0.259	0.132
-399.194	53.688	0.101	0.096
-398.179	-91.101	-0.271	-0.077
-397.165	-87.000	0.151	-0.046
-396.150	-128.711	-0.315	0.044
-395.136	500.520	0.124	0.284
-394.121	393.759	-0.167	0.344
-393.106	800.000	0.076	-0.312
-392.092	-159.357	0.134	-0.007
-391.077	-104.627	-0.210	0.048
-390.063	175.969	-0.069	-0.098
-389.048	-176.897	-0.029	-0.001
-388.033	-61.058	0.287	0.120
-387.019	-95.085	0.268	-0.072
-386.004	-31.553	-0.096	0.053
-384.990	150.382	-0.040	0.054
-383.975	-76.631	-0.158	0.055
-382.960	-200.000	0.012	-0.077
-381.946	177.971	-0.099	-0.142
-380.931	-82.802	-0.163	-0.052
-379.917	-102.540	0.332	-0.079
-378.902	787.029	-0.088	0.239
-377.888	16.542	0.111	0.086
-376.873	-200.000	0.001	-0.111
-375.858	0.413	-0.170	-0.120
-374.844	-200.000	0.059	0.308
-373.829	3.463	-0.285	0.205
-372.815	-79.863	-0.177	-0.059
-371.800	391.365	-0.052	-0.107
-370.785	1.793	0.167	0.119
-369.771	202.140	-0.128	0.195
-368.756	-200.000	0.026	0.167
-367.742	-179.940	-0.105	0.002
-366.727	-139.623	-0.454	0.048
-365.712	16.399	0.122	0.095
-364.698	-200.000	0.003	-0.075
-363.683	-136.651	-0.231	0.026
-362.669	215.576	0.213	-0.334
-361.654	139.749	-0.059	0.077
-360.639	414.341	-0.065	-0.136
-359.625	54.853	0.111	-0.106
-358.610	-127.935	0.098	0.014
-357.596	-132.135	0.332	-0.043
-356.581	-127.180	-0.293	0.042
-355.566	164.667	0.159	-0.222
-354.552	-157.066	-0.183	0.011
-353.537	86.161	0.109	-0.119
-352.523	-123.766	-0.279	-0.044
-351.508	70.861	-0.124	-0.127
-350.493	-200.000	0.003	-0.116
-349.479	-114.334	0.125	-0.024
-348.464	-102.047	-0.103	-0.025
-347.450	147.532	0.104	-0.138
-346.435	-200.000	-0.005	-0.240
-345.420	-124.038	0.445	-0.069
-344.406	-150.772	-0.126	-0.009
-343.391	-200.000	0.007	0.157
-342.377	-5.150	-0.071	0.048
-341.362	193.478	0.119	-0.177
-340.348	57.469	0.206	0.199
-339.333	28.085	-0.208	0.174
-338.318	-200.000	-0.017	-0.129
-337.304	166.001	0.105	-0.146
-336.289	800.000	0.092	-0.290
-335.275	-8.011	-0.175	0.117
-334.260	4.837	-0.182	0.132
-333.245	-2.598	0.170	-0.118
-332.231	-200.000	0.032	0.233
-331.216	-200.000	-0.004	-0.029
-330.202	-200.000	0.011	-0.140
-329.187	-200.000	-0.008	0.037
-328.172	196.031	0.146	0.219
-327.158	319.037	0.054	-0.101
-326.143	-200.000	0.059	-0.425
-325.129	107.835	-0.193	-0.227
-324.114	329.621	0.169	-0.321
-323.099	270.571	-0.046	0.081
-322.085	76.788	-0.115	-0.120
-321.070	157.543	-0.028	0.039
-320.056	-53.906	0.255	-0.115
-319.041	129.123	0.038	-0.047
-318.026	800.000	-0.066	-0.187
-317.012	137.039	-0.033	0.042
-315.997	69.586	0.107	-0.109
-314.983	-30.151	0.263	0.148
-313.968	800.000	-0.105	-0.288
-312.953	98.247	0.111	-0.126
-311.939	-88.649	-0.082	-0.024
-310.924	-62.334	-0.396	0.163
-309.910	-200.000	0.048	-0.232
-308.895	-10.707	0.106	0.069
-307.880	-200.000	0.021	-0.201
-306.866	-47.308	-0.303	-0.145
-305.851	116.181	-0.194	0.234
-304.837	800.000	0.130	0.471
-303.822	-69.277	0.087	0.033
-302.807	-146.305	0.136	0.012
-301.793	-200.000	-0.054	-0.458
-300.778	-113.060	0.208	-0.040
-299.764	-42.332	0.161	0.081
-298.749	800.000	0.062	-0.243
-297.735	112.234	-0.222	0.264
-296.720	15.753	0.275	0.213
-295.705	-160.179	0.377	-0.020
-294.691	-61.854	-0.281	0.116
-293.676	-200.000	-0.035	0.180
-292.662	800.000	0.010	0.041
-291.647	149.661	-0.062	0.083
-290.632	-114.260	0.059	-0.011
-289.618	33.000	0.099	0.085
-288.603	250.834	-0.092	0.154
-287.589	396.924	-0.090	0.185
-286.574	800.000	0.062	-0.205
-285.559	-107.746	-0.109	0.023
-284.545	-64.449	-0.420	0.168
-283.530	-7.799	-0.078	-0.052
-282.516	-159.244	0.279	0.015
-281.501	-21.285	-0.167	-0.101
-280.486	-124.559	0.312	0.048
-279.472	-45.649	-0.034	0.017
-278.457	369.988	0.145	0.290
-277.443	-140.763	0.235	-0.024
-276.428	-5.048	-0.275	0.186
-275.413	110.502	-0.193	0.228
-274.399	-17.632	-0.276	0.171
-273.384	111.717	-0.154	0.183
-272.370	41.121	-0.271	-0.241
-271.355	452.889	0.057	0.125
-270.340	62.711	0.124	0.123
-269.326	79.106	-0.061	-0.065
-268.311	800.000	-0.057	-0.239
-267.297	-55.022	-0.255	0.113
-266.282	158.092	-0.084	-0.115
-265.267	-31.387	-0.204	-0.113
-264.253	800.000	-0.063	0.223
-263.238	-13.095	-0.358	-0.229
-262.224	374.223	-0.027	-0.054
-261.209	140.588	-0.174	-0.227
-260.195	-21.009	-0.111	-0.067
-259.180	65.725	0.236	0.235
-258.165	800.000	0.029	-0.103
-257.151	199.655	-0.108	0.164
-256.136	83.349	0.110	-0.118
-255.122	20.565	-0.126	-0.101
-254.107	-95.163	0.298	-0.079
-253.092	-126.320	0.232	0.034
-252.078	-16.280	-0.078	0.049
-251.063	-107.081	0.192	0.042
-250.049	293.281	-0.149	-0.267
-249.034	30.379	0.224	0.188
-248.019	-56.299	0.093	-0.041
-247.005	244.544	0.011	0.019
-245.990	-166.196	0.214	-0.009
-244.976	16.380	-0.200	0.155
-243.961	257.210	0.057	0.096
-242.946	-108.159	0.155	0.033
-241.932	-200.000	0.008	0.249
-240.917	278.643	0.088	-0.155
-239.903	-200.000	-0.005	0.201
-238.888	-72.173	-0.263	-0.096
-237.873	-131.047	0.178	0.023
-236.859	-53.051	-0.147	-0.067
-235.844	-200.000	-0.003	0.264
-234.830	-35.493	-0.194	-0.104
-233.815	-76.403	0.724	0.251
-232.800	-108.933	-0.310	-0.065
-231.786	-170.894	-0.323	-0.011
-230.771	-46.270	0.247	-0.120
-229.757	621.744	0.057	0.142
-228.742	-132.996	0.169	0.021
-227.727	47.887	-0.174	-0.160
-226.713	-200.000	0.005	-0.074
-225.698	-200.000	0.007	0.286
-224.684	121.396	0.184	0.225
-223.669	236.054	-0.094	0.153
-222.655	-71.389	-0.304	-0.112
-221.640	-193.164	-0.207	-0.002
-220.625	800.000	0.096	-0.264
-219.611	-32.977	0.386	-0.211
-218.596	156.512	-0.315	-0.427
-217.582	-184.244	0.175	-0.003
-216.567	-96.870	-0.442	0.114
-215.552	800.000	0.080	0.250
-214.538	-110.891	-0.333	0.067
-213.523	23.520	-0.159	-0.129
-212.509	118.515	-0.273	-0.331
-211.494	-152.483	0.028	-0.002
-210.479	16.058	0.297	0.230
-209.465	800.000	0.064	-0.228
-208.450	-150.267	0.468	0.036
-207.436	-200.000	-0.033	0.241
-206.421	324.398	-0.082	-0.154
-205.406	-146.780	0.410	-0.035
-204.392	-200.000	-0.003	0.239
-203.377	208.724	0.112	-0.172
-202.363	334.888	0.076	0.145
-201.348	-200.000	-0.021	0.197
-200.333	-80.062	-0.111	-0.037
-199.319	-200.000	-0.047	-0.235
-198.304	182.214	0.020	0.029
-197.290	339.325	-0.104	-0.199
-196.275	198.110	0.121	0.182
-195.260	139.762	-0.142	-0.184
-194.246	422.145	-0.145	-0.306
-193.231	206.400	0.095	-0.145
-192.217	-108.217	0.462	0.098
-191.202	-200.000	0.013	0.075
-190.187	106.276	0.013	-0.015
-189.173	-52.791	-0.090	-0.041
-188.158	-105.671	0.273	-0.061
-187.144	-32.660	0.081	-0.044
-186.129	-74.425	0.224	-0.079
-185.114	800.000	0.044	-0.182
-184.100	-28.364	-0.314	-0.178
-183.085	359.187	0.121	-0.238
-182.071	800.000	0.081	0.298
-181.056	800.000	0.079	-0.237
-180.042	-200.000	-0.045	-0.281
-179.027	-41.186	0.334	-0.169
-178.012	-186.735	-0.375	-0.005
-176.998	-14.736	0.144	-0.090
-175.983	182.916	0.073	0.106
-174.969	-32.126	-0.290	-0.159
-173.954	48.162	-0.207	-0.190
-172.939	98.353	0.112	-0.127
-171.925	-38.541	0.254	-0.132
-170.910	230.865	-0.031	-0.050
-169.896	86.682	0.100	-0.109
-168.881	-76.379	-0.074	0.026
-167.866	82.419	-0.035	0.037
-166.852	-128.704	0.152	-0.021
-165.837	100.356	-0.169	0.193
-164.823	110.146	0.190	0.224
-163.808	141.102	-0.201	0.261
-162.793	-24.558	-0.157	0.091
-161.779	404.565	-0.085	0.175
-160.764	-89.898	0.177	-0.051
-159.750	800.000	-0.110	-0.413
-158.735	-11.433	0.226	0.146
-157.720	-200.000	-0.021	-0.589
-156.706	800.000	-0.047	-0.145
-155.691	274.048	0.067	0.115
-154.677	95.702	0.118	-0.132
-153.662	-7.538	0.279	-0.185
-152.647	471.974	0.030	-0.067
-151.633	-200.000	0.017	0.201
-150.618	318.738	-0.138	-0.256
-149.604	-200.000	0.051	-0.275
-148.589	-71.624	-0.304	-0.111
-147.574	-145.530	0.156	0.014
-146.560	-106.890	0.092	0.020
-145.545	-49.869	0.089	0.041
-144.531	-200.000	0.076	0.390
-143.516	-168.354	-0.224	-0.008
-142.502	-200.000	-0.016	-0.129
-141.487	737.580	-0.138	0.362
-140.472	41.873	-0.306	0.272
-139.458	-200.000	-0.029	-0.158
-138.443	224.509	-0.139	-0.220
-137.429	-190.217	0.299	-0.003
-136.414	351.347	0.103	0.200
-135.399	188.015	-0.125	0.183
-134.385	-200.000	0.001	-0.010
-133.370	-17.928	-0.294	0.180
-132.356	-5.249	-0.326	-0.220
-131.341	430.488	0.164	0.348
-130.326	-13.668	0.075	0.048
-129.312	-200.000	0.058	0.260
-128.297	-200.000	0.019	0.406
-127.283	-60.653	0.248	0.103
-126.268	-200.000	-0.006	-0.079
-125.253	286.681	0.121	0.213
-124.239	285.792	0.152	-0.269
-123.224	274.190	-0.099	-0.171
-122.210	278.684	0.116	0.202
-121.195	22.380	-0.215	0.172
