DTS Sentinel unit serial number:	SN413079Multiplexer serial number:	ORYXHardware model number:	OX4-SRSoftware version number:	ORYX F/W v4.00 Oryx Data Collector v3.7.2.0data status	okinstallation	princeton_trtdifferential loss correction	single-endedforward channel	channel 3reverse channel	N/Adate	2019/09/16time	18:20:35forward acquisition time	60.00reverse acquisition time	0.00gamma	496.2192k internal	0.2304k external	0.2304temperature offset calibration	0.9947default loss term (dB/km)	0.3790temperature slope calibration	1.0000multiplexer offset coefficient	1.0000multiplexer slope coefficient	1.0000fibre end	0.00T internal ref (°C)	36.95T ext. ref 1 (°C)	15.77T ext. ref 2 (°C)	30.45length (m)	temperature (°C)	Stokes	anti-Stokes-747.200	-200.000	0.053	-0.324
-746.185	23.015	-0.261	-0.218
-745.171	-14.962	-0.162	0.106
-744.156	-60.205	0.204	-0.089
-743.142	99.826	-0.212	-0.250
-742.127	541.497	0.124	0.302
-741.112	-108.105	0.205	-0.045
-740.098	800.000	0.105	0.430
-739.083	-25.466	0.145	0.087
-738.069	-200.000	-0.076	0.631
-737.054	-180.810	0.211	0.004
-736.039	-28.958	-0.274	-0.160
-735.025	663.092	-0.138	0.363
-734.010	-83.397	-0.289	-0.094
-732.996	-196.444	-0.442	-0.003
-731.981	-119.864	-0.108	0.019
-730.966	-174.850	-0.303	0.009
-729.952	497.838	-0.034	-0.079
-728.937	286.736	-0.152	-0.279
-727.923	131.008	0.096	-0.125
-726.908	-116.509	0.181	0.034
-725.894	-200.000	0.020	0.201
-724.879	-200.000	0.044	0.262
-723.864	-136.841	0.076	-0.009
-722.850	-47.619	0.199	0.098
-721.835	-63.959	-0.327	0.136
-720.821	127.104	0.259	-0.334
-719.806	-200.000	-0.232	-0.001
-718.791	-200.000	0.055	-0.251
-717.777	147.829	-0.085	0.117
-716.762	-35.456	-0.052	0.029
-715.748	36.339	0.182	0.164
-714.733	181.749	0.135	0.203
-713.718	-200.000	-0.012	-0.120
-712.704	-84.558	0.170	0.055
-711.689	800.000	-0.036	-0.106
-710.675	-118.913	-0.310	0.055
-709.660	-22.725	-0.488	0.300
-708.645	-26.872	-0.115	-0.069
-707.631	-63.983	-0.187	0.078
-706.616	800.000	-0.145	-0.456
-705.602	-200.000	0.037	0.289
-704.587	-200.000	0.046	0.234
-703.572	-31.000	-0.296	-0.170
-702.558	-200.000	-0.067	-0.349
-701.543	-200.000	-0.026	0.146
-700.529	37.074	0.186	0.168
-699.514	-40.403	-0.228	0.121
-698.499	-33.412	0.200	-0.113
-697.485	235.499	-0.156	0.261
-696.470	63.628	0.074	-0.076
-695.456	66.685	0.105	-0.109
-694.441	492.251	-0.092	-0.215
-693.426	-200.000	-0.017	0.095
-692.412	-200.000	-0.007	0.093
-691.397	-76.469	0.114	-0.041
-690.383	-117.858	0.316	0.058
-689.368	-150.651	-0.216	-0.017
-688.354	-200.000	0.017	-0.167
-687.339	-1.450	0.124	0.089
-686.324	800.000	0.144	0.453
-685.310	-60.960	-0.346	-0.148
-684.295	-200.000	0.028	0.160
-683.281	-200.000	0.046	-0.273
-682.266	144.341	0.116	-0.158
-681.251	-105.203	0.125	0.029
-680.237	-200.000	-0.024	0.438
-679.222	-36.803	-0.279	0.152
-678.208	-75.468	-0.159	-0.058
-677.193	80.530	-0.132	0.145
-676.178	800.000	0.067	-0.233
-675.164	22.244	-0.180	0.149
-674.149	415.261	-0.093	-0.202
-673.135	800.000	0.026	-0.099
-672.120	225.700	0.021	-0.034
-671.105	663.593	0.104	-0.272
-670.091	20.824	0.108	-0.089
-669.076	-179.763	-0.088	0.002
-668.062	-72.068	-0.164	-0.062
-667.047	36.886	0.139	-0.125
-666.032	86.521	0.142	-0.159
-665.018	137.907	-0.066	0.088
-664.003	-5.910	-0.134	-0.093
-662.989	-200.000	-0.042	0.284
-661.974	-121.494	-0.242	-0.041
-660.959	800.000	0.186	-0.623
-659.945	188.099	-0.140	-0.212
-658.930	581.569	0.253	0.630
-657.916	-101.873	0.365	0.090
-656.901	-33.619	-0.106	-0.059
-655.886	-65.651	-0.229	0.093
-654.872	160.283	-0.245	0.346
-653.857	159.053	0.055	-0.078
-652.843	180.010	-0.211	0.314
-651.828	800.000	0.022	-0.068
-650.814	274.419	-0.239	0.429
-649.799	-127.289	0.402	-0.060
-648.784	165.867	-0.147	0.212
-647.770	-71.280	-0.462	0.176
-646.755	89.435	0.069	0.078
-645.741	80.343	-0.200	0.218
-644.726	-178.535	0.354	0.008
-643.711	-200.000	0.025	-0.165
-642.697	-111.068	-0.556	-0.116
-641.682	-78.334	0.268	-0.093
-640.668	-129.102	-0.161	-0.023
-639.653	-200.000	0.054	0.287
-638.638	-11.751	0.198	0.132
-637.624	800.000	-0.067	-0.240
-636.609	-99.216	-0.219	0.056
-635.595	-64.456	-0.088	0.036
-634.580	-191.476	-0.029	0.000
-633.565	-157.045	-0.256	-0.016
-632.551	800.000	-0.076	-0.248
-631.536	78.536	-0.359	-0.389
-630.522	-61.361	-0.197	0.084
-629.507	185.173	-0.055	-0.083
-628.492	86.800	0.146	-0.163
-627.478	-189.925	0.304	0.003
-626.463	-200.000	-0.037	-0.198
-625.449	202.715	0.035	0.055
-624.434	-39.008	0.331	-0.177
-623.419	-47.118	0.059	0.029
-622.405	74.003	-0.180	0.192
-621.390	-124.765	-0.097	-0.015
-620.376	-24.796	0.102	0.061
-619.361	-200.000	-0.027	-0.140
-618.346	-200.000	-0.026	-0.196
-617.332	-200.000	0.030	-0.251
-616.317	56.055	-0.152	-0.150
-615.303	-200.000	-0.055	-0.271
-614.288	-156.433	0.117	-0.007
-613.273	-65.372	0.311	0.127
-612.259	406.550	-0.136	-0.292
-611.244	728.532	-0.025	0.067
-610.230	-23.240	-0.062	0.038
-609.215	617.510	-0.070	-0.177
-608.201	-5.953	0.240	-0.166
-607.186	-14.467	-0.332	0.216
-606.171	412.950	0.069	-0.148
-605.157	-119.686	-0.341	-0.060
-604.142	40.259	0.135	-0.123
-603.128	412.881	-0.102	0.220
-602.113	406.591	0.159	0.340
-601.098	-190.543	0.266	-0.003
-600.084	82.186	0.236	-0.260
-599.069	509.807	-0.063	-0.148
-598.055	-59.219	-0.019	0.008
-597.040	-54.608	-0.148	-0.068
-596.025	-135.623	0.268	0.032
-595.011	-121.812	-0.222	-0.037
-593.996	-0.333	-0.178	-0.128
-592.982	222.703	0.029	0.048
-591.967	106.237	-0.087	-0.104
-590.952	26.898	-0.253	-0.214
-589.938	-129.650	-0.279	-0.039
-588.923	-58.049	-0.028	0.012
-587.909	-200.000	0.029	-0.166
-586.894	37.170	0.208	-0.187
-585.879	-21.419	-0.272	0.168
-584.865	170.647	0.066	0.096
-583.850	26.613	0.267	0.226
-582.836	800.000	0.029	-0.110
-581.821	-200.000	-0.001	-0.027
-580.806	-110.851	-0.255	-0.053
-579.792	5.789	0.223	-0.167
-578.777	-1.605	0.155	-0.110
-577.763	410.945	0.137	0.294
-576.748	800.000	-0.031	-0.089
-575.733	12.323	-0.098	0.077
-574.719	23.342	0.003	0.003
-573.704	-200.000	0.000	-0.331
-572.690	52.589	0.087	0.084
-571.675	-200.000	-0.049	0.220
-570.661	-18.617	-0.433	-0.273
-569.646	-200.000	-0.029	-0.234
-568.631	-200.000	-0.003	-0.118
-567.617	103.950	-0.084	-0.100
-566.602	800.000	-0.066	0.194
-565.588	219.076	-0.151	-0.244
-564.573	-200.000	0.004	-0.121
-563.558	-19.334	0.330	0.207
-562.544	530.468	0.036	0.086
-561.529	7.322	0.153	0.115
-560.515	-200.000	-0.055	-0.347
-559.500	-19.361	0.380	-0.239
-558.485	91.721	0.227	0.258
-557.471	36.718	0.075	-0.067
-556.456	800.000	-0.045	0.191
-555.442	800.000	-0.073	-0.221
-554.427	130.779	0.136	0.176
-553.412	800.000	0.045	-0.143
-552.398	-52.220	-0.088	-0.041
-551.383	38.635	0.078	0.071
-550.369	-59.039	-0.059	-0.026
-549.354	141.428	-0.198	-0.266
-548.339	61.768	-0.183	0.185
-547.325	-61.104	0.106	-0.045
-546.310	-21.392	0.136	-0.084
-545.296	86.552	-0.084	-0.094
-544.281	-200.000	-0.024	0.257
-543.266	749.367	-0.082	-0.224
-542.252	-157.136	0.528	-0.032
-541.237	132.656	0.150	-0.196
-540.223	45.551	0.203	0.190
-539.208	18.570	0.166	-0.134
-538.193	152.616	0.229	0.316
-537.179	2.787	0.133	-0.098
-536.164	-179.235	-0.281	-0.006
-535.150	-188.242	0.497	0.006
-534.135	155.829	0.114	-0.158
-533.121	276.381	-0.027	-0.048
-532.106	800.000	0.019	-0.061
-531.091	-67.111	0.241	-0.096
-530.077	-104.991	-0.217	0.050
-529.062	-200.000	-0.000	0.185
-528.048	-200.000	-0.038	-0.184
-527.033	-62.195	-0.068	0.028
-526.018	351.708	0.078	0.156
-525.004	-12.057	0.063	0.042
-523.989	-70.901	0.240	-0.091
-522.975	-122.606	-0.401	-0.066
-521.960	-59.954	-0.067	0.029
-520.945	-115.290	-0.180	-0.034
-519.931	-60.486	-0.081	-0.035
-518.916	-105.361	-0.312	0.072
-517.902	125.632	0.192	-0.245
-516.887	800.000	-0.125	0.369
-515.872	148.672	0.144	-0.196
-514.858	-148.421	-0.301	-0.025
-513.843	131.112	-0.147	-0.190
-512.829	-3.383	0.315	0.221
-511.814	-101.285	-0.319	0.079
-510.799	-83.792	-0.213	0.069
-509.785	136.233	-0.127	-0.168
-508.770	364.909	0.020	0.040
-507.756	-18.854	0.261	0.164
-506.741	-1.521	-0.191	0.136
-505.726	-17.267	-0.082	-0.052
-504.712	330.816	-0.153	0.298
-503.697	96.302	-0.113	-0.130
-502.683	-91.186	-0.186	0.054
-501.668	421.394	0.065	0.141
-500.653	168.157	0.162	0.233
-499.639	-7.762	-0.437	0.298
-498.624	-78.203	-0.312	-0.108
-497.610	102.074	-0.123	-0.145
-496.595	-85.021	-0.152	0.048
-495.581	800.000	-0.114	0.325
-494.566	-96.080	-0.329	0.088
-493.551	66.594	0.199	-0.204
-492.537	-23.390	-0.216	-0.131
-491.522	-200.000	-0.020	-0.300
-490.508	-55.622	0.120	0.054
-489.493	4.899	-0.088	0.066
-488.478	18.739	0.185	-0.149
-487.464	-200.000	0.340	-0.001
-486.449	-133.631	0.251	0.032
-485.435	-102.712	0.057	-0.014
-484.420	-21.928	-0.277	0.170
-483.405	54.056	-0.015	-0.014
-482.391	104.458	0.066	0.078
-481.376	128.604	-0.176	-0.226
-480.362	-6.579	-0.290	0.199
-479.347	740.625	0.093	0.253
-478.332	-200.000	-0.016	-0.328
-477.318	-39.187	-0.122	-0.065
-476.303	267.976	-0.046	0.081
-475.289	-133.600	-0.372	0.047
-474.274	488.642	0.036	-0.084
-473.259	343.716	0.054	-0.106
-472.245	-131.675	-0.342	0.045
-471.230	-90.484	0.120	-0.035
-470.216	44.002	-0.049	0.045
-469.201	10.547	0.294	0.226
-468.186	5.237	0.202	0.150
-467.172	-102.493	-0.309	0.074
-466.157	531.927	0.164	-0.392
-465.143	-200.000	0.007	-0.043
-464.128	800.000	0.033	0.120
-463.113	800.000	0.059	0.224
-462.099	16.410	-0.358	-0.284
-461.084	-200.000	0.029	-0.316
-460.070	80.590	0.263	0.286
-459.055	-200.000	0.040	0.250
-458.040	-149.202	0.171	-0.014
-457.026	36.500	-0.039	-0.034
-456.011	-51.718	0.224	-0.105
-454.997	-200.000	-0.003	-0.268
-453.982	751.783	-0.091	-0.248
-452.968	224.071	0.142	-0.232
-451.953	-38.958	0.074	0.039
-450.938	-14.248	-0.186	0.121
-449.924	-108.334	-0.143	-0.031
-448.909	-200.000	0.028	0.188
-447.895	-68.181	-0.196	0.077
-446.880	-68.926	-0.316	0.123
-445.865	-78.982	0.186	-0.064
-444.851	175.171	-0.078	0.113
-443.836	-200.000	-0.185	-0.000
-442.822	164.204	0.062	-0.088
-441.807	-174.617	0.466	-0.013
-440.792	-48.457	0.244	-0.118
-439.778	-63.351	-0.090	0.037
-438.763	208.428	-0.203	-0.319
-437.749	468.302	0.141	-0.317
-436.734	800.000	0.020	-0.075
-435.719	87.397	-0.329	0.366
-434.705	-200.000	0.005	0.025
-433.690	-18.099	0.300	0.189
-432.676	800.000	-0.057	0.238
-431.661	-145.536	0.120	-0.011
-430.646	35.661	0.125	0.110
-429.632	18.343	0.094	0.076
-428.617	532.892	-0.113	0.268
-427.603	34.210	0.176	0.154
-426.588	65.512	0.165	0.168
-425.573	21.587	0.072	0.059
-424.559	-191.248	0.020	0.000
-423.544	-60.319	0.314	0.135
-422.530	-52.069	-0.062	0.029
-421.515	-93.287	0.132	0.037
-420.500	-50.767	-0.179	0.084
-419.486	-139.537	-0.576	-0.062
-418.471	-82.288	0.163	0.053
-417.457	-136.314	-0.444	0.052
-416.442	-79.939	0.270	0.091
-415.428	714.544	0.012	-0.032
-414.413	-200.000	-0.006	-0.028
-413.398	800.000	0.023	-0.091
-412.384	-38.100	-0.288	-0.154
-411.369	156.249	0.125	-0.174
-410.355	-61.000	-0.026	-0.011
-409.340	-123.231	0.207	-0.033
-408.325	-200.000	-0.040	0.185
-407.311	314.861	-0.073	0.138
-406.296	531.585	0.033	-0.079
-405.282	800.000	-0.061	-0.240
-404.267	-125.791	0.229	-0.035
-403.252	-89.298	0.266	-0.079
-402.238	360.540	-0.051	0.103
-401.223	-200.000	-0.003	0.308
-400.209	447.349	0.083	0.183
-399.194	-200.000	0.040	0.333
-398.179	800.000	-0.143	-0.426
-397.165	239.845	-0.035	0.059
-396.150	800.000	0.080	-0.232
-395.136	-200.000	0.016	-0.220
-394.121	-13.326	0.285	0.185
-393.106	-200.000	-0.041	0.304
-392.092	-83.063	0.253	-0.082
-391.077	-90.186	-0.105	-0.031
-390.063	508.749	-0.107	0.251
-389.048	-144.738	-0.270	-0.025
-388.033	504.335	0.123	-0.285
-387.019	216.925	-0.105	-0.168
-386.004	-200.000	-0.014	0.235
-384.990	-200.000	0.039	-0.181
-383.975	-200.000	-0.022	0.384
-382.960	-101.375	0.234	-0.057
-381.946	304.443	0.069	0.128
-380.931	-10.620	-0.115	0.076
-379.917	-200.000	0.009	0.094
-378.902	-200.000	0.014	0.174
-377.888	170.752	-0.183	-0.263
-376.873	-38.444	-0.165	-0.088
-375.858	-160.830	0.415	0.022
-374.844	205.782	0.211	0.330
-373.829	575.378	-0.071	0.174
-372.815	13.142	0.121	-0.094
-371.800	491.313	0.018	0.042
-370.785	143.813	0.098	-0.131
-369.771	-24.027	-0.277	0.166
-368.756	165.214	0.191	0.271
-367.742	-200.000	0.071	0.354
-366.727	-40.321	-0.258	0.135
-365.712	87.800	0.189	-0.210
-364.698	-200.000	-0.031	-0.257
-363.683	-200.000	0.009	-0.318
-362.669	106.632	-0.214	0.254
-361.654	248.345	0.081	0.138
-360.639	-127.540	0.104	-0.015
-359.625	800.000	-0.073	0.212
-358.610	151.482	-0.172	0.235
-357.596	7.370	-0.212	-0.159
-356.581	-104.948	0.272	0.063
-355.566	-62.687	0.300	0.125
-354.552	685.538	0.063	0.166
-353.537	-200.000	-0.065	0.311
-352.523	-129.666	-0.188	0.026
-351.508	127.873	-0.206	0.262
-350.493	-12.333	0.132	0.086
-349.479	234.721	0.096	-0.158
-348.464	708.512	-0.103	-0.272
-347.450	-200.000	0.004	0.042
-346.435	800.000	-0.015	-0.041
-345.420	644.997	-0.096	0.245
-344.406	14.415	-0.137	0.107
-343.391	-200.000	0.000	-0.151
-342.377	-200.000	0.005	-0.248
-341.362	223.618	0.071	-0.115
-340.348	-55.005	-0.230	0.104
-339.333	-200.000	-0.023	0.137
-338.318	116.728	-0.152	-0.186
-337.304	-109.710	-0.145	-0.031
-336.289	-110.240	0.189	0.039
-335.275	213.130	0.013	0.021
-334.260	-75.216	-0.189	0.068
-333.245	-200.000	-0.002	-0.164
-332.231	-200.000	-0.002	0.082
-331.216	-74.961	0.087	-0.031
-330.202	-129.608	0.066	0.009
-329.187	-94.635	-0.243	-0.066
-328.172	-131.852	-0.334	-0.044
-327.158	6.640	-0.221	-0.165
-326.143	-200.000	-0.007	-0.074
-325.129	-77.940	-0.361	0.125
-324.114	-6.346	-0.216	0.148
-323.099	-200.000	0.013	0.330
-322.085	-200.000	0.042	0.261
-321.070	-79.452	-0.038	-0.013
-320.056	800.000	0.147	-0.433
-319.041	65.833	0.149	-0.151
-318.026	79.875	0.207	0.223
-317.012	-68.609	-0.381	0.148
-315.997	396.669	0.049	0.102
-314.983	800.000	0.063	-0.202
-313.968	-33.498	0.157	0.087
-312.953	800.000	0.141	-0.560
-311.939	-141.475	-0.151	-0.015
-310.924	227.295	0.083	-0.136
-309.910	-107.073	0.223	-0.049
-308.895	-9.989	0.133	-0.089
-307.880	-124.849	0.319	-0.049
-306.866	-131.416	0.091	0.012
-305.851	-167.112	-0.251	-0.010
-304.837	131.451	-0.058	0.075
-303.822	800.000	0.071	0.252
-302.807	800.000	0.056	-0.233
-301.793	511.412	-0.117	0.272
-300.778	37.276	0.220	0.195
-299.764	800.000	-0.133	0.370
-298.749	-200.000	0.021	0.201
-297.735	-200.000	-0.011	-0.108
-296.720	-42.694	0.307	0.156
-295.705	-106.258	-0.158	0.035
-294.691	800.000	-0.042	0.161
-293.676	124.977	0.255	0.322
-292.662	-149.926	0.142	-0.011
-291.647	-15.609	-0.307	0.196
-290.632	125.083	-0.317	-0.399
-289.618	-158.710	0.047	-0.003
-288.603	166.076	0.098	0.139
-287.589	800.000	0.091	0.297
-286.574	-200.000	-0.000	-0.349
-285.559	345.267	-0.142	-0.279
-284.545	-0.565	0.226	-0.161
-283.530	-200.000	0.006	-0.108
-282.516	-200.000	-0.035	0.333
-281.501	455.074	0.138	-0.307
-280.486	-120.414	0.247	0.042
-279.472	143.766	-0.090	0.121
-278.457	195.254	0.165	0.250
-277.443	88.076	-0.213	0.237
-276.428	150.008	0.048	0.064
-275.413	10.413	0.063	-0.048
-274.399	-36.184	0.408	-0.220
-273.384	-101.502	0.158	-0.038
-272.370	-150.980	-0.320	-0.024
-271.355	-200.000	-0.016	-0.258
-270.340	-149.468	0.186	0.015
-269.326	-95.514	-0.067	0.018
-268.311	442.597	-0.059	0.129
-267.297	-168.981	0.111	0.004
-266.282	-148.829	0.159	-0.013
-265.267	-200.000	-0.007	0.149
-264.253	-22.924	0.176	0.106
-263.238	75.478	0.260	-0.274
-262.224	-50.288	0.383	0.181
-261.209	-124.838	0.313	-0.048
-260.195	15.308	0.269	-0.211
-259.180	-113.173	0.197	-0.039
-258.165	-14.787	-0.145	0.093
-257.151	-119.564	-0.093	-0.016
-256.136	-34.677	0.259	-0.141
-255.122	-87.740	0.063	0.019
-254.107	-200.000	0.059	0.376
-253.092	33.718	-0.087	-0.076
-252.078	-179.123	0.248	0.006
-251.063	-58.777	0.309	0.134
-250.049	-47.685	-0.095	0.046
-249.034	436.002	0.109	-0.238
-248.019	-77.874	0.234	0.081
-247.005	32.585	0.060	0.051
-245.990	96.537	0.253	-0.289
-244.976	-49.084	-0.080	0.038
-243.961	-33.668	-0.290	-0.160
-242.946	-113.492	-0.278	-0.054
-241.932	-123.531	0.192	-0.030
-240.917	-200.000	0.078	0.358
-239.903	-77.712	-0.212	0.073
-238.888	8.954	0.103	-0.077
-237.873	800.000	-0.051	-0.217
-236.859	19.755	0.247	-0.199
-235.844	91.654	0.340	0.381
-234.830	800.000	-0.058	-0.204
-233.815	-200.000	0.004	0.152
-232.800	-84.738	-0.116	0.036
-231.786	25.884	-0.254	0.212
-230.771	-43.849	0.199	-0.100
-229.757	-200.000	0.014	-0.163
-228.742	541.588	0.086	0.203
-227.727	-31.043	-0.236	0.133
-226.713	-200.000	0.011	-0.213
-225.698	-49.864	-0.329	-0.156
-224.684	-97.868	-0.134	0.034
-223.669	64.158	0.039	0.039
-222.655	180.315	-0.106	0.155
-221.640	-109.172	-0.388	-0.082
-220.625	172.862	-0.115	-0.166
-219.611	800.000	0.059	-0.243
-218.596	-156.499	0.284	0.018
-217.582	-46.776	0.304	0.148
-216.567	27.978	0.172	0.144
-215.552	272.605	0.099	0.175
-214.538	-100.977	0.156	-0.038
-213.523	788.990	0.068	0.186
-212.509	10.957	0.286	0.218
-211.494	432.375	-0.118	0.255
-210.479	-102.172	-0.246	0.059
-209.465	207.826	-0.202	0.315
-208.450	-128.504	-0.148	-0.021
-207.436	383.696	0.127	-0.260
-206.421	128.820	-0.076	0.097
-205.406	800.000	-0.117	-0.429
-204.392	-148.129	-0.232	0.019
-203.377	800.000	0.034	0.100
-202.363	-200.000	0.041	-0.272
-201.348	1.325	0.209	-0.150
-200.333	-60.065	0.309	-0.131
-199.319	12.680	-0.091	-0.070
-198.304	-46.707	-0.369	0.180
-197.290	63.124	0.174	-0.174
-196.275	708.592	0.059	-0.155
-195.260	-200.000	-0.034	0.178
-194.246	85.821	0.238	-0.261
-193.231	-151.468	-0.027	-0.002
-192.217	-134.183	-0.628	-0.077
-191.202	800.000	-0.086	0.311
-190.187	-154.970	-0.161	0.011
-189.173	-11.798	-0.205	0.134
-188.158	800.000	-0.039	0.144
-187.144	307.505	-0.071	-0.133
-186.129	-70.596	-0.143	0.054
-185.114	-1.188	0.336	-0.237
-184.100	-96.180	-0.430	0.114
-183.085	-122.108	-0.331	-0.054
-182.071	800.000	0.031	0.124
-181.056	-28.292	0.263	-0.151
-180.042	41.261	-0.152	0.137
-179.027	-200.000	0.009	0.063
-178.012	-144.606	-0.202	-0.019
-176.998	-95.585	-0.231	-0.062
-175.983	-84.513	0.143	-0.045
-174.969	65.379	-0.197	-0.199
-173.954	174.022	0.071	-0.102
-172.939	-129.862	-0.429	-0.059
-171.925	-60.887	0.135	-0.057
-170.910	-200.000	-0.033	-0.276
-169.896	34.431	-0.357	0.310
-168.881	-25.430	0.103	0.061
-167.866	278.335	0.097	-0.172
-166.852	16.681	-0.195	-0.154
-165.837	-132.520	0.154	0.020
-164.823	-92.315	0.129	0.036
-163.808	-11.238	0.096	0.063
-162.793	-117.209	0.149	0.027
-161.779	8.993	0.273	-0.205
-160.764	800.000	0.014	-0.047
-159.750	-200.000	-0.044	-0.197
-158.735	800.000	0.080	0.283
-157.720	-67.534	0.230	0.090
-156.706	-200.000	0.006	-0.283
-155.691	-200.000	0.017	-0.153
-154.677	-200.000	-0.042	0.184
-153.662	-54.330	0.095	0.043
-152.647	34.426	-0.078	0.068
-151.633	-67.986	0.223	-0.086
-150.618	-168.346	-0.098	0.004
-149.604	-20.846	-0.215	0.131
-148.589	-200.000	-0.051	0.386
-147.574	163.635	-0.148	-0.207
-146.560	-172.274	0.132	0.004
-145.545	-43.317	-0.213	-0.107
-144.531	4.431	0.334	-0.243
-143.516	800.000	0.079	0.287
-142.502	-174.237	-0.234	-0.007
-141.487	-200.000	0.009	0.168
-140.472	723.793	-0.064	0.170
-139.458	-200.000	-0.008	0.058
-138.443	-85.128	0.167	-0.052
-137.429	648.891	-0.040	0.102
-136.414	-23.969	-0.185	0.110
-135.399	200.609	0.136	-0.208
-134.385	800.000	0.071	0.256
-133.370	-68.601	-0.110	0.042
-132.356	27.527	-0.052	0.043
-131.341	-0.234	0.148	0.105
-130.326	800.000	-0.091	0.355
-129.312	707.588	0.059	0.155
-128.297	-73.254	0.116	-0.042
-127.283	-200.000	0.051	0.228
-126.268	-129.523	0.166	-0.023
-125.253	151.551	-0.115	-0.156
-124.239	-200.000	-0.028	0.330
-123.224	800.000	0.019	0.068
-122.210	-84.161	-0.164	-0.052
-121.195	48.125	0.061	0.056
