DTS Sentinel unit serial number:	SN413079Multiplexer serial number:	ORYXHardware model number:	OX4-SRSoftware version number:	ORYX F/W v4.00 Oryx Data Collector v3.7.2.0data status	okinstallation	princeton_trtdifferential loss correction	single-endedforward channel	channel 3reverse channel	N/Adate	2019/09/18time	16:12:35forward acquisition time	60.00reverse acquisition time	0.00gamma	496.2192k internal	0.2292k external	0.2292temperature offset calibration	0.9980default loss term (dB/km)	0.3790temperature slope calibration	1.0000multiplexer offset coefficient	1.0000multiplexer slope coefficient	1.0000fibre end	0.00T internal ref (°C)	38.20T ext. ref 1 (°C)	0.82T ext. ref 2 (°C)	36.83length (m)	temperature (°C)	Stokes	anti-Stokes-747.200	156.154	0.089	0.125
-746.185	349.737	-0.191	0.386
-745.171	-200.000	0.012	-0.198
-744.156	123.376	0.188	0.241
-743.142	141.332	0.197	0.267
-742.127	18.726	0.149	0.122
-741.112	20.736	-0.118	-0.098
-740.098	-153.080	-0.401	-0.029
-739.083	673.933	0.072	0.191
-738.069	62.788	0.105	-0.108
-737.054	100.454	-0.083	0.099
-736.039	-185.088	-0.216	-0.003
-735.025	-41.045	0.194	0.103
-734.010	21.169	0.248	-0.206
-732.996	-46.606	-0.240	-0.120
-731.981	-200.000	0.006	0.174
-730.966	337.170	-0.126	0.250
-729.952	-58.299	-0.364	0.162
-728.937	800.000	0.079	0.230
-727.923	19.502	-0.204	-0.168
-726.908	-200.000	0.016	-0.152
-725.894	351.715	-0.073	0.148
-724.879	-200.000	0.017	0.600
-723.864	-114.840	-0.084	0.016
-722.850	72.076	-0.195	-0.207
-721.835	255.583	-0.030	-0.053
-720.821	800.000	-0.071	-0.283
-719.806	-103.635	0.152	-0.036
-718.791	281.416	-0.098	-0.180
-717.777	108.031	-0.126	0.154
-716.762	-200.000	-0.037	0.226
-715.748	800.000	0.042	0.151
-714.733	-43.587	-0.197	0.102
-713.718	47.642	0.058	-0.056
-712.704	54.576	-0.078	0.077
-711.689	-122.335	0.202	-0.034
-710.675	98.148	0.179	-0.211
-709.660	-200.000	-0.018	-0.175
-708.645	118.084	-0.259	0.326
-707.631	72.603	-0.116	-0.124
-706.616	85.144	-0.084	0.094
-705.602	-200.000	-0.015	-0.070
-704.587	-28.679	-0.246	0.145
-703.572	-83.553	-0.028	-0.009
-702.558	14.552	0.318	-0.254
-701.543	-111.367	0.225	-0.047
-700.529	-200.000	0.011	-0.070
-699.514	-90.274	0.093	0.028
-698.499	51.920	-0.252	-0.246
-697.485	-77.461	-0.213	-0.075
-696.470	47.763	0.131	0.125
-695.456	-105.589	-0.110	-0.025
-694.441	800.000	0.020	-0.081
-693.426	800.000	-0.033	0.098
-692.412	150.368	0.064	0.088
-691.397	-152.158	-0.111	-0.008
-690.383	269.504	-0.083	0.148
-689.368	-200.000	-0.016	0.234
-688.354	-143.693	0.323	-0.031
-687.339	8.741	0.033	0.025
-686.324	-180.705	0.183	0.004
-685.310	489.094	0.096	0.224
-684.295	-200.000	0.022	-0.138
-683.281	602.260	-0.071	0.180
-682.266	50.810	0.049	0.047
-681.251	-170.274	-0.063	-0.002
-680.237	-200.000	0.043	-0.231
-679.222	142.216	0.171	-0.232
-678.208	-7.410	0.065	-0.045
-677.193	800.000	-0.111	-0.364
-676.178	800.000	-0.046	0.199
-675.164	-69.622	0.163	0.064
-674.149	-164.130	0.163	0.008
-673.135	7.214	-0.275	0.209
-672.120	-30.581	0.221	-0.128
-671.105	279.168	-0.045	-0.081
-670.091	478.294	0.058	0.134
-669.076	-43.785	-0.457	-0.235
-668.062	-200.000	-0.041	-0.198
-667.047	-200.000	-0.012	-0.065
-666.032	92.545	-0.077	0.088
-665.018	44.238	0.026	-0.024
-664.003	-56.936	-0.186	-0.084
-662.989	-140.354	0.547	0.058
-661.974	63.460	-0.030	-0.031
-660.959	-75.812	0.133	-0.048
-659.945	-200.000	0.007	0.102
-658.930	116.465	-0.272	0.340
-657.916	-121.487	0.358	0.061
-656.901	30.019	-0.253	-0.220
-655.886	286.397	0.024	-0.045
-654.872	312.557	0.141	0.270
-653.857	220.601	-0.043	-0.070
-652.843	19.311	-0.179	-0.147
-651.828	-46.873	0.222	0.111
-650.814	490.905	0.103	0.241
-649.799	43.975	-0.186	-0.174
-648.784	-31.815	-0.149	-0.085
-647.770	-200.000	-0.065	0.459
-646.755	19.481	-0.301	0.247
-645.741	35.892	-0.193	-0.173
-644.726	160.790	0.235	-0.335
-643.711	3.593	-0.134	0.100
-642.697	21.388	-0.193	0.160
-641.682	-41.366	-0.113	0.059
-640.668	31.957	0.099	-0.087
-639.653	285.880	-0.108	0.198
-638.638	800.000	0.054	0.159
-637.624	631.231	-0.059	-0.153
-636.609	-48.671	0.238	0.117
-635.595	-154.825	-0.074	0.005
-634.580	-172.198	0.205	-0.007
-633.565	-200.000	0.081	-0.365
-632.551	800.000	0.063	0.208
-631.536	-132.574	-0.369	0.048
-630.522	87.960	-0.153	0.173
-629.507	-17.841	0.094	0.060
-628.492	49.659	0.134	-0.128
-627.478	-82.291	-0.226	-0.075
-626.463	-64.014	-0.145	0.060
-625.449	-9.002	-0.021	0.014
-624.434	180.543	0.251	-0.376
-623.419	-112.317	-0.142	0.029
-622.405	42.501	0.152	-0.141
-621.390	-153.688	-0.122	0.009
-620.376	-62.041	0.221	0.094
-619.361	6.807	-0.062	0.047
-618.346	11.779	-0.117	-0.092
-617.332	-44.387	-0.215	-0.110
-616.317	257.164	-0.102	0.178
-615.303	46.773	0.289	0.273
-614.288	-200.000	-0.003	-0.087
-613.273	58.726	-0.260	-0.260
-612.259	-200.000	0.025	0.140
-611.244	69.018	0.247	0.258
-610.230	341.983	0.149	-0.297
-609.215	-65.427	0.086	-0.035
-608.201	-32.137	0.037	-0.021
-607.186	-24.130	0.236	0.144
-606.171	-32.001	0.091	-0.052
-605.157	-149.089	0.054	0.004
-604.142	-112.770	-0.165	0.033
-603.128	-138.266	0.417	0.047
-602.113	-200.000	-0.008	-0.185
-601.098	-108.271	-0.358	0.079
-600.084	-113.141	0.176	0.035
-599.069	-200.000	0.056	-0.315
-598.055	36.977	-0.195	0.175
-597.040	-126.956	-0.593	0.089
-596.025	615.157	-0.013	0.033
-595.011	-62.796	-0.187	-0.079
-593.996	451.198	-0.044	0.099
-592.982	-200.000	0.012	0.498
-591.967	-101.287	-0.258	0.064
-590.952	-23.465	-0.282	-0.172
-589.938	800.000	-0.028	0.094
-588.923	-59.788	-0.158	0.069
-587.909	-154.069	-0.544	-0.038
-586.894	-63.264	-0.154	0.064
-585.879	-200.000	-0.008	0.196
-584.865	61.459	0.054	0.054
-583.850	-35.537	-0.291	0.161
-582.836	-130.314	0.228	0.032
-581.821	9.367	0.262	-0.202
-580.806	-52.100	-0.264	-0.124
-579.792	357.921	0.091	-0.184
-578.777	-26.236	-0.187	-0.112
-577.763	-95.507	-0.209	-0.057
-576.748	54.593	0.059	0.058
-575.733	-16.161	-0.092	-0.059
-574.719	-65.241	-0.102	0.042
-573.704	278.525	-0.019	-0.034
-572.690	-4.256	0.099	-0.070
-571.675	94.435	-0.185	0.213
-570.661	-158.285	0.061	-0.004
-569.646	-200.000	0.250	-0.000
-568.631	-60.339	-0.303	-0.131
-567.617	800.000	-0.117	-0.505
-566.602	-4.661	0.201	0.141
-565.588	5.288	0.086	-0.064
-564.573	-3.450	-0.100	-0.071
-563.558	130.395	-0.211	-0.275
-562.544	-200.000	0.021	-0.143
-561.529	-50.801	-0.102	0.049
-560.515	229.388	0.040	-0.066
-559.500	-20.258	-0.192	-0.120
-558.485	-117.251	-0.209	-0.039
-557.471	-200.000	-0.009	0.149
-556.456	-123.876	0.183	-0.029
-555.442	-91.112	-0.131	-0.038
-554.427	-56.255	0.252	0.114
-553.412	-54.997	0.155	0.071
-552.398	-120.304	-0.109	-0.019
-551.383	76.459	-0.232	0.250
-550.369	-200.000	0.019	-0.213
-549.354	-74.698	-0.157	-0.057
-548.339	800.000	0.034	0.109
-547.325	-105.802	-0.159	-0.037
-546.310	-200.000	0.005	0.054
-545.296	178.215	0.143	0.212
-544.281	103.134	-0.206	-0.246
-543.266	15.834	-0.194	-0.155
-542.252	-58.364	-0.233	-0.103
-541.237	-28.347	0.261	-0.153
-540.223	629.391	-0.039	0.100
-539.208	-110.540	0.089	0.019
-538.193	-146.398	0.197	0.017
-537.179	800.000	-0.037	0.138
-536.164	440.476	-0.086	0.190
-535.150	-76.845	0.250	-0.089
-534.135	-87.124	-0.264	0.082
-533.121	-200.000	0.091	-0.482
-532.106	177.343	-0.068	-0.101
-531.091	85.538	0.098	-0.109
-530.077	96.971	0.309	-0.360
-529.062	-107.193	0.294	0.066
-528.048	147.080	-0.272	0.371
-527.033	-157.487	-0.299	0.018
-526.018	13.104	-0.065	0.051
-525.004	89.108	-0.099	0.112
-523.989	216.061	0.076	0.123
-522.975	-164.818	0.328	0.015
-521.960	-37.601	-0.189	-0.102
-520.945	355.410	0.081	-0.164
-519.931	-21.783	0.087	-0.054
-518.916	225.694	0.115	0.189
-517.902	-99.688	-0.272	-0.069
-516.887	-200.000	-0.010	0.140
-515.872	738.718	0.216	0.588
-514.858	711.426	-0.138	0.369
-513.843	-200.000	-0.043	-0.392
-512.829	800.000	0.046	0.136
-511.814	-34.337	-0.051	-0.029
-510.799	245.672	0.025	-0.042
-509.785	-79.888	0.012	0.004
-508.770	-200.000	0.019	-0.189
-507.756	-117.489	0.097	-0.018
-506.741	-200.000	-0.004	-0.270
-505.726	204.867	0.149	0.234
-504.712	-5.694	-0.175	0.122
-503.697	-76.335	-0.325	0.116
-502.683	15.020	-0.410	0.325
-501.668	800.000	0.083	0.271
-500.653	152.997	-0.135	0.187
-499.639	-56.827	0.219	0.098
-498.624	-82.493	-0.213	0.070
-497.610	-200.000	0.004	-0.325
-496.595	83.982	0.157	0.174
-495.581	-200.000	0.019	-0.178
-494.566	-200.000	-0.026	-0.477
-493.551	-39.088	-0.097	0.052
-492.537	154.861	0.228	0.318
-491.522	62.784	-0.148	-0.150
-490.508	43.030	0.096	0.088
-489.493	800.000	0.120	0.390
-488.478	89.307	0.176	-0.199
-487.464	28.570	-0.100	-0.086
-486.449	198.670	-0.154	-0.239
-485.435	-1.360	-0.377	-0.270
-484.420	531.207	-0.047	-0.112
-483.405	-200.000	-0.082	0.473
-482.391	-7.720	0.213	-0.146
-481.376	-200.000	0.017	0.183
-480.362	800.000	0.111	-0.341
-479.347	-121.329	0.206	0.035
-478.332	11.547	-0.268	0.208
-477.318	-34.681	-0.291	0.161
-476.303	-75.740	0.198	-0.071
-475.289	-118.683	0.325	-0.058
-474.274	-119.323	0.353	-0.062
-473.259	-73.182	0.144	0.053
-472.245	17.269	0.284	0.228
-471.230	201.445	0.125	-0.195
-470.216	-169.505	-0.106	-0.004
-469.201	-82.225	0.075	0.025
-468.186	-163.850	-0.134	0.006
-467.172	-200.000	0.089	-0.404
-466.157	194.976	0.110	-0.170
-465.143	-200.000	0.001	-0.081
-464.128	-109.321	-0.332	0.071
-463.113	774.079	-0.038	-0.105
-462.099	98.566	-0.039	-0.045
-461.084	248.482	0.072	0.123
-460.070	-188.461	0.273	-0.003
-459.055	-200.000	-0.044	0.306
-458.040	-200.000	0.035	0.332
-457.026	320.435	0.100	0.192
-456.011	171.816	-0.089	0.129
-454.997	382.984	0.045	0.093
-453.982	74.860	0.066	0.070
-452.968	-200.000	0.006	0.100
-451.953	766.752	0.038	0.105
-450.938	52.179	-0.345	-0.333
-449.924	-2.661	-0.124	0.088
-448.909	-200.000	0.007	0.267
-447.895	204.310	0.073	0.114
-446.880	-151.028	0.085	0.006
-445.865	-85.059	0.089	-0.028
-444.851	-163.227	-0.334	-0.016
-443.836	-59.453	0.284	0.123
-442.822	-128.238	0.221	-0.032
-441.807	-200.000	-0.050	0.286
-440.792	137.803	0.065	0.086
-439.778	200.432	-0.218	0.339
-438.763	-9.816	-0.183	0.123
-437.749	15.436	0.159	-0.126
-436.734	237.950	0.218	-0.365
-435.719	-132.608	0.339	-0.044
-434.705	-200.000	-0.011	0.173
-433.690	800.000	-0.038	0.131
-432.676	567.937	0.092	0.226
-431.661	703.304	0.028	0.074
-430.646	-2.003	0.078	0.055
-429.632	176.061	-0.141	-0.206
-428.617	89.751	-0.189	0.214
-427.603	-200.000	-0.021	0.095
-426.588	800.000	-0.006	0.026
-425.573	-71.614	-0.213	0.080
-424.559	-200.000	-0.082	-0.379
-423.544	-200.000	-0.016	-0.176
-422.530	-52.903	0.135	0.063
-421.515	82.013	-0.327	-0.358
-420.500	-200.000	-0.034	-0.225
-419.486	-95.654	0.215	-0.058
-418.471	142.025	-0.056	0.074
-417.457	-200.000	0.005	0.106
-416.442	-35.233	-0.314	0.173
-415.428	-72.537	0.226	0.084
-414.413	-170.626	-0.054	0.002
-413.398	114.226	-0.330	0.406
-412.384	-58.255	-0.177	0.078
-411.369	537.448	0.094	-0.226
-410.355	264.501	-0.058	0.103
-409.340	32.302	-0.058	0.050
-408.325	800.000	0.049	0.200
-407.311	207.659	-0.157	-0.248
-406.296	-200.000	0.015	-0.301
-405.282	-130.673	0.174	0.024
-404.267	-200.000	0.023	0.103
-403.252	11.860	-0.040	0.031
-402.238	176.099	-0.054	0.080
-401.223	800.000	-0.062	-0.178
-400.209	461.014	-0.106	-0.238
-399.194	800.000	0.040	0.174
-398.179	298.782	0.101	0.187
-397.165	106.950	-0.337	-0.404
-396.150	800.000	0.023	0.094
-395.136	-82.488	-0.306	-0.100
-394.121	116.937	-0.191	-0.237
-393.106	-183.431	0.175	0.003
-392.092	106.981	-0.087	0.104
-391.077	-39.254	0.141	-0.074
-390.063	698.084	-0.134	0.356
-389.048	77.328	-0.077	0.083
-388.033	-200.000	0.281	0.001
-387.019	-200.000	0.044	-0.255
-386.004	327.356	-0.105	-0.203
-384.990	-39.722	0.050	0.027
-383.975	490.319	-0.182	-0.420
-382.960	-101.989	-0.174	-0.042
-381.946	498.200	-0.108	0.252
-380.931	-200.000	-0.004	0.114
-379.917	-76.179	-0.116	-0.041
-378.902	68.199	0.146	-0.151
-377.888	88.148	-0.232	-0.259
-376.873	16.400	0.100	-0.080
-375.858	-182.463	0.026	-0.000
-374.844	-124.019	-0.121	0.019
-373.829	277.881	0.042	0.076
-372.815	28.690	-0.181	0.154
-371.800	-112.149	-0.300	0.061
-370.785	272.365	-0.180	-0.320
-369.771	174.798	0.067	0.098
-368.756	-200.000	-0.029	0.130
-367.742	-34.555	0.194	0.107
-366.727	784.408	0.134	0.370
-365.712	-200.000	-0.043	0.489
-364.698	112.951	0.009	0.011
-363.683	60.426	-0.142	0.141
-362.669	-72.532	-0.248	0.092
-361.654	-110.331	0.123	-0.026
-360.639	-30.062	-0.107	0.062
-359.625	166.987	0.143	-0.205
-358.610	385.782	0.138	0.286
-357.596	177.370	0.073	0.107
-356.581	-15.384	-0.284	-0.183
-355.566	-84.359	-0.209	0.067
-354.552	-200.000	0.068	0.455
-353.537	-116.745	0.404	0.075
-352.523	-200.000	0.009	0.113
-351.508	308.278	0.170	0.320
-350.493	50.841	0.161	-0.154
-349.479	800.000	0.251	-0.766
-348.464	-168.171	0.164	-0.006
-347.450	-149.175	0.335	-0.027
-346.435	119.639	0.131	0.163
-345.420	101.562	0.106	0.124
-344.406	215.582	0.116	-0.186
-343.391	-46.885	0.223	-0.110
-342.377	-73.490	-0.011	-0.004
-341.362	-116.959	0.342	-0.063
-340.348	9.282	0.034	-0.026
-339.333	-151.595	0.172	-0.013
-338.318	800.000	-0.084	0.265
-337.304	-200.000	-0.016	-0.383
-336.289	33.242	-0.298	-0.260
-335.275	800.000	0.022	-0.083
-334.260	800.000	-0.107	-0.457
-333.245	306.038	0.093	0.175
-332.231	800.000	-0.017	0.063
-331.216	371.582	0.111	-0.227
-330.202	-92.321	0.132	0.037
-329.187	209.795	0.080	-0.126
-328.172	383.172	0.069	-0.143
-327.158	-32.367	0.322	0.181
-326.143	-88.168	-0.206	-0.062
-325.129	-119.328	0.094	-0.016
-324.114	-190.329	-0.327	-0.004
-323.099	-128.222	-0.144	0.021
-322.085	-7.641	0.174	0.118
-321.070	-17.585	-0.177	-0.112
-320.056	-95.425	0.185	-0.050
-319.041	554.081	-0.180	0.436
-318.026	800.000	-0.088	0.340
-317.012	-1.241	0.131	-0.093
-315.997	232.763	0.134	-0.222
-314.983	-53.644	-0.228	-0.105
-313.968	-57.797	0.104	-0.046
-312.953	-200.000	0.022	0.114
-311.939	-200.000	0.038	0.248
-310.924	-32.893	-0.132	-0.074
-309.910	-87.406	-0.189	-0.058
-308.895	-19.303	0.183	0.114
-307.880	-71.430	0.194	-0.073
-306.866	-12.301	-0.233	-0.153
-305.851	168.617	-0.043	0.061
-304.837	-149.707	0.148	-0.012
-303.822	-200.000	-0.011	-0.234
-302.807	-200.000	0.005	0.163
-301.793	238.158	-0.090	0.150
-300.778	-200.000	-0.010	0.059
-299.764	-11.478	0.149	-0.099
-298.749	11.849	-0.088	0.068
-297.735	-176.257	-0.038	0.001
-296.720	-134.022	0.309	0.039
-295.705	327.493	-0.145	0.280
-294.691	-52.910	0.367	0.170
-293.676	-81.471	-0.072	0.024
-292.662	800.000	0.070	-0.260
-291.647	69.059	-0.198	-0.205
-290.632	681.759	-0.021	-0.055
-289.618	800.000	-0.051	0.146
-288.603	-110.031	-0.214	-0.045
-287.589	30.984	0.313	-0.269
-286.574	-134.659	0.312	0.038
-285.559	-104.064	0.043	-0.010
-284.545	-59.591	0.134	-0.058
-283.530	631.726	-0.083	-0.211
-282.516	-55.994	-0.113	-0.051
-281.501	-160.667	-0.342	-0.018
-280.486	-135.417	0.174	-0.021
-279.472	800.000	-0.018	-0.057
-278.457	-183.424	0.075	0.001
-277.443	800.000	0.061	-0.196
-276.428	84.375	0.285	0.313
-275.413	-115.410	0.031	0.006
-274.399	-87.725	-0.320	0.097
-273.384	-51.774	0.267	-0.125
-272.370	-200.000	0.026	-0.210
-271.355	-200.000	0.071	-0.316
-270.340	7.108	0.213	-0.159
-269.326	800.000	0.036	0.142
-268.311	-39.030	-0.135	0.071
-267.297	170.159	-0.079	0.114
-266.282	800.000	0.085	-0.316
-265.267	246.181	-0.243	0.411
-264.253	-200.000	-0.006	0.122
-263.238	-141.379	-0.200	-0.020
-262.224	-200.000	0.021	-0.166
-261.209	468.491	-0.196	0.443
-260.195	42.759	0.174	0.159
-259.180	24.644	0.150	0.125
-258.165	-72.515	-0.189	-0.070
-257.151	-147.296	0.291	-0.025
-256.136	-34.492	0.067	0.037
-255.122	144.249	0.226	0.303
-254.107	234.057	-0.033	-0.055
-253.092	-36.036	0.037	-0.020
-252.078	-200.000	-0.057	-0.359
-251.063	20.956	0.058	-0.047
-250.049	-47.800	-0.070	0.034
-249.034	-200.000	-0.007	0.081
-248.019	-122.593	-0.090	0.015
-247.005	192.499	0.112	-0.170
-245.990	34.926	-0.030	-0.026
-244.976	-74.374	0.163	-0.059
-243.961	67.104	-0.179	-0.183
-242.946	800.000	0.061	0.208
-241.932	279.075	0.089	0.159
-240.917	-200.000	0.025	-0.509
-239.903	-72.793	-0.258	0.095
-238.888	-200.000	0.068	0.322
-237.873	-154.229	0.273	0.019
-236.859	78.746	0.075	0.081
-235.844	-22.702	-0.112	0.068
-234.830	172.364	-0.138	0.199
-233.815	-127.985	-0.231	0.033
-232.800	800.000	0.056	-0.213
-231.786	130.879	0.166	0.214
-230.771	38.540	0.122	0.109
-229.757	121.113	0.153	0.191
-228.742	800.000	0.086	0.241
-227.727	247.453	-0.210	-0.357
-226.713	-23.983	0.268	0.161
-225.698	-200.000	-0.004	0.098
-224.684	118.763	0.130	0.161
-223.669	169.584	0.217	0.311
-222.655	-200.000	0.006	-0.042
-221.640	800.000	0.091	-0.310
-220.625	106.852	-0.090	-0.107
-219.611	-81.491	0.221	0.073
-218.596	4.248	0.366	0.269
-217.582	-94.387	0.351	-0.096
-216.567	-172.693	-0.100	-0.003
-215.552	-51.612	0.345	-0.162
-214.538	-153.758	-0.105	0.007
-213.523	-145.305	0.266	-0.024
-212.509	800.000	-0.104	-0.314
-211.494	223.139	-0.232	-0.376
-210.479	452.694	0.066	0.146
-209.465	98.016	0.161	-0.186
-208.450	-155.049	-0.129	-0.008
-207.436	800.000	0.104	-0.429
-206.421	-45.574	0.100	0.049
-205.406	225.371	0.159	-0.258
-204.392	-115.771	-0.213	0.040
-203.377	-29.829	0.201	0.115
-202.363	453.998	0.053	-0.118
-201.348	-200.000	0.001	-0.296
-200.333	339.242	-0.215	-0.420
-199.319	-153.076	0.164	0.012
-198.304	-48.352	0.156	0.075
-197.290	119.348	-0.066	0.082
-196.275	218.042	0.108	0.172
-195.260	164.237	0.043	0.061
-194.246	464.672	0.012	-0.027
-193.231	40.723	-0.143	-0.129
-192.217	38.404	0.214	-0.191
-191.202	-16.707	0.105	0.067
-190.187	11.580	-0.093	-0.071
-189.173	-39.036	-0.121	0.064
-188.158	-11.732	-0.147	0.096
-187.144	349.806	0.083	-0.164
-186.129	800.000	0.044	-0.138
-185.114	-137.523	-0.259	0.029
-184.100	800.000	0.082	-0.241
-183.085	234.765	-0.085	0.141
-182.071	800.000	0.098	-0.425
-181.056	91.952	0.221	-0.249
-180.042	416.118	-0.123	0.263
-179.027	245.520	0.185	-0.312
-178.012	-74.800	0.319	-0.115
-176.998	-140.191	0.205	-0.022
-175.983	176.949	0.034	0.050
-174.969	-200.000	-0.038	0.308
-173.954	22.427	-0.158	0.130
-172.939	800.000	-0.077	-0.279
-171.925	800.000	0.051	-0.145
-170.910	637.914	0.079	0.201
-169.896	37.603	-0.244	0.217
-168.881	-26.884	0.330	-0.193
-167.866	-63.743	-0.066	0.027
-166.852	23.550	0.285	0.234
-165.837	120.106	-0.098	-0.121
-164.823	-53.231	0.069	0.032
-163.808	43.709	-0.029	-0.026
-162.793	11.872	-0.327	-0.252
-161.779	-145.168	0.196	0.018
-160.764	-200.000	-0.012	0.105
-159.750	-81.722	-0.072	-0.024
-158.735	122.509	-0.112	0.140
-157.720	-22.405	-0.086	0.052
-156.706	-78.509	-0.190	0.065
-155.691	160.143	0.106	-0.148
-154.677	7.622	-0.103	0.077
-153.662	96.682	0.189	-0.217
-152.647	-200.000	-0.025	0.305
-151.633	-200.000	0.010	0.049
-150.618	376.626	-0.085	0.173
-149.604	447.369	0.091	-0.201
-148.589	95.817	-0.265	0.303
-147.574	-200.000	-0.061	0.380
-146.560	561.868	-0.045	0.109
-145.545	-200.000	0.013	-0.093
-144.531	159.102	-0.234	0.326
-143.516	722.879	0.020	-0.053
-142.502	75.974	-0.085	-0.089
-141.487	282.900	-0.155	0.278
-140.472	202.766	0.178	0.274
-139.458	-200.000	0.016	-0.143
-138.443	139.483	0.047	-0.062
-137.429	-200.000	-0.018	-0.138
-136.414	-78.808	-0.250	0.085
-135.399	-73.141	0.043	0.016
-134.385	293.038	0.202	0.369
-133.370	-200.000	0.031	0.180
-132.356	203.480	0.040	0.062
-131.341	800.000	-0.044	0.180
-130.326	87.350	-0.123	-0.136
-129.312	800.000	-0.186	-0.575
-128.297	800.000	-0.046	-0.132
-127.283	-40.279	-0.190	0.099
-126.268	-166.042	0.171	-0.007
-125.253	-200.000	0.008	-0.217
-124.239	800.000	-0.136	-0.423
-123.224	281.014	0.048	0.087
-122.210	-125.114	0.244	-0.037
-121.195	-150.291	0.219	0.017
-120.180	177.060	-0.109	-0.158
