DTS Sentinel unit serial number:	SN413079Multiplexer serial number:	ORYXHardware model number:	OX4-SRSoftware version number:	ORYX F/W v4.00 Oryx Data Collector v3.7.2.0data status	okinstallation	princeton_trtdifferential loss correction	single-endedforward channel	channel 3reverse channel	N/Adate	2019/09/14time	18:56:35forward acquisition time	60.00reverse acquisition time	0.00gamma	496.2192k internal	0.2307k external	0.2307temperature offset calibration	1.0017default loss term (dB/km)	0.3790temperature slope calibration	1.0000multiplexer offset coefficient	1.0000multiplexer slope coefficient	1.0000fibre end	0.00T internal ref (°C)	35.75T ext. ref 1 (°C)	4.87T ext. ref 2 (°C)	29.56length (m)	temperature (°C)	Stokes	anti-Stokes-747.200	-94.207	0.185	-0.051
-746.185	240.954	-0.147	0.250
-745.171	-119.535	0.051	-0.009
-744.156	83.427	-0.090	0.100
-743.142	-78.500	-0.248	-0.086
-742.127	-139.192	-0.213	0.023
-741.112	362.998	-0.084	-0.172
-740.098	-200.000	-0.001	0.165
-739.083	-5.868	-0.138	0.096
-738.069	69.155	-0.148	-0.154
-737.054	-24.962	0.178	0.107
-736.039	-168.414	-0.334	0.013
-735.025	-178.103	0.383	-0.009
-734.010	239.843	0.085	-0.144
-732.996	8.011	-0.013	0.010
-731.981	330.873	-0.056	0.109
-730.966	140.986	0.098	-0.131
-729.952	-200.000	-0.002	-0.154
-728.937	-200.000	-0.008	-0.150
-727.923	-188.920	-0.286	0.004
-726.908	-42.612	-0.226	-0.117
-725.894	596.045	-0.116	-0.292
-724.879	389.828	0.094	-0.197
-723.864	-200.000	0.026	-0.210
-722.850	-77.508	-0.260	-0.092
-721.835	-74.761	-0.116	0.042
-720.821	705.809	-0.125	-0.336
-719.806	800.000	-0.102	-0.324
-718.791	800.000	-0.109	-0.396
-717.777	171.764	-0.073	0.106
-716.762	-155.764	0.185	0.012
-715.748	14.740	0.064	0.051
-714.733	-14.272	0.194	-0.127
-713.718	2.276	-0.335	-0.246
-712.704	-153.521	0.177	0.012
-711.689	-200.000	0.033	0.256
-710.675	-71.447	-0.494	0.188
-709.660	800.000	-0.028	-0.085
-708.645	78.797	0.120	0.130
-707.631	800.000	0.012	0.048
-706.616	-26.269	-0.120	-0.072
-705.602	7.969	0.439	-0.335
-704.587	-170.251	0.310	0.011
-703.572	-89.160	-0.231	-0.069
-702.558	-200.000	0.003	0.198
-701.543	417.784	-0.114	-0.247
-700.529	39.179	0.092	-0.083
-699.514	-127.673	-0.505	-0.074
-698.499	-83.567	-0.186	-0.060
-697.485	-11.881	-0.185	-0.123
-696.470	800.000	-0.064	0.247
-695.456	10.527	-0.183	0.141
-694.441	-5.060	-0.019	0.013
-693.426	-200.000	-0.016	-0.093
-692.412	800.000	-0.038	0.148
-691.397	-33.728	-0.255	-0.143
-690.383	-65.518	-0.390	0.159
-689.368	11.800	0.165	-0.129
-688.354	-116.100	0.242	-0.046
-687.339	130.343	0.118	0.154
-686.324	800.000	0.033	0.101
-685.310	800.000	0.035	-0.129
-684.295	316.932	0.163	-0.312
-683.281	374.686	-0.105	-0.216
-682.266	-200.000	0.056	-0.282
-681.251	249.275	0.099	-0.170
-680.237	-21.210	0.321	0.199
-679.222	53.447	-0.092	-0.089
-678.208	-200.000	0.028	-0.132
-677.193	-200.000	0.049	-0.242
-676.178	-26.972	-0.129	-0.076
-675.164	800.000	-0.079	0.273
-674.149	-25.103	0.271	-0.163
-673.135	-116.039	-0.188	-0.035
-672.120	-20.555	-0.098	-0.061
-671.105	150.401	0.077	-0.105
-670.091	-0.564	-0.191	-0.137
-669.076	-149.942	-0.155	0.012
-668.062	-43.537	0.449	-0.230
-667.047	-41.144	-0.355	-0.186
-666.032	-93.683	0.128	0.036
-665.018	369.828	-0.071	0.146
-664.003	84.389	0.160	-0.177
-662.989	800.000	-0.019	0.080
-661.974	-43.153	-0.108	0.055
-660.959	352.536	0.063	0.126
-659.945	-200.000	0.010	-0.190
-658.930	-200.000	0.021	-0.160
-657.916	9.268	0.138	-0.106
-656.901	727.384	-0.106	-0.286
-655.886	199.843	-0.099	-0.155
-654.872	-125.544	-0.108	-0.017
-653.857	340.291	-0.107	0.211
-652.843	623.520	0.070	0.179
-651.828	800.000	0.071	0.233
-650.814	-200.000	0.013	0.095
-649.799	453.896	-0.114	0.255
-648.784	-200.000	-0.001	0.353
-647.770	266.821	0.133	-0.236
-646.755	-10.342	0.096	-0.065
-645.741	-200.000	-0.044	-0.219
-644.726	189.024	0.096	0.146
-643.711	-113.610	-0.555	-0.110
-642.697	691.817	0.116	-0.308
-641.682	-73.326	-0.139	0.052
-640.668	-35.934	0.171	0.094
-639.653	-21.319	-0.136	-0.084
-638.638	48.050	0.118	-0.112
-637.624	-138.369	-0.110	-0.012
-636.609	-12.393	0.084	0.056
-635.595	-200.000	-0.007	0.159
-634.580	227.271	-0.106	0.175
-633.565	-49.451	0.297	0.143
-632.551	672.474	-0.067	-0.176
-631.536	137.005	0.102	0.135
-630.522	800.000	0.037	0.146
-629.507	84.021	0.198	0.219
-628.492	-46.275	-0.158	-0.078
-627.478	209.616	-0.074	-0.118
-626.463	-200.000	-0.013	0.078
-625.449	-18.828	0.151	0.095
-624.434	-136.302	0.457	0.054
-623.419	40.619	0.192	-0.175
-622.405	-15.202	-0.101	-0.065
-621.390	-152.201	0.194	0.014
-620.376	-124.414	-0.118	-0.019
-619.361	412.621	0.030	-0.064
-618.346	-121.460	-0.459	-0.077
-617.332	-154.273	0.102	-0.007
-616.317	800.000	-0.038	0.164
-615.303	-143.987	-0.367	-0.035
-614.288	-85.463	0.170	0.054
-613.273	-200.000	0.027	-0.304
-612.259	800.000	0.046	0.181
-611.244	-70.312	-0.264	-0.101
-610.230	47.451	-0.062	-0.058
-609.215	-86.274	-0.275	-0.086
-608.201	-8.710	0.128	-0.087
-607.186	-200.000	-0.031	0.182
-606.171	-37.796	-0.253	0.136
-605.157	78.667	0.093	0.100
-604.142	-102.136	-0.379	-0.092
-603.128	-7.389	0.124	0.085
-602.113	330.547	-0.034	-0.066
-601.098	800.000	0.002	-0.005
-600.084	-41.841	-0.121	-0.063
-599.069	-200.000	0.006	-0.167
-598.055	-119.015	-0.253	0.045
-597.040	81.442	0.171	-0.187
-596.025	653.834	0.105	-0.271
-595.011	-125.706	-0.027	0.004
-593.996	64.100	0.103	0.105
-592.982	-10.491	-0.216	-0.145
-591.967	-1.712	0.089	0.063
-590.952	424.039	-0.118	-0.256
-589.938	-200.000	0.068	-0.435
-588.923	231.517	-0.070	-0.115
-587.909	348.370	0.053	-0.106
-586.894	-200.000	-0.038	0.258
-585.879	47.726	-0.060	-0.056
-584.865	7.012	0.415	-0.313
-583.850	339.586	0.077	-0.151
-582.836	289.733	0.122	0.224
-581.821	800.000	0.050	-0.160
-580.806	800.000	0.023	0.071
-579.792	-137.298	0.373	0.043
-578.777	-147.137	-0.316	-0.027
-577.763	-41.660	-0.095	0.049
-576.748	57.448	-0.103	0.102
-575.733	206.661	0.106	-0.166
-574.719	1.674	0.406	0.296
-573.704	-48.126	0.161	-0.079
-572.690	-10.152	0.068	0.046
-571.675	-16.638	0.029	-0.019
-570.661	-123.042	-0.228	-0.037
-569.646	-105.981	0.161	-0.037
-568.631	-81.825	0.065	0.022
-567.617	145.539	-0.034	-0.046
-566.602	90.032	-0.121	0.136
-565.588	-144.399	0.218	0.020
-564.573	-125.183	-0.283	-0.044
-563.558	-33.940	-0.259	-0.144
-562.544	-102.531	-0.370	0.089
-561.529	797.070	0.083	-0.232
-560.515	-200.000	0.011	-0.088
-559.500	-135.258	0.182	-0.022
-558.485	386.338	-0.084	0.175
-557.471	244.900	-0.072	0.122
-556.456	60.530	-0.124	0.124
-555.442	-186.013	0.107	0.002
-554.427	-200.000	-0.004	0.327
-553.412	800.000	-0.063	-0.271
-552.398	-105.397	0.414	0.095
-551.383	303.644	0.031	0.058
-550.369	38.081	-0.181	-0.163
-549.354	123.072	0.055	0.070
-548.339	23.381	0.058	-0.048
-547.325	38.629	-0.183	-0.165
-546.310	-200.000	0.022	-0.098
-545.296	-200.000	-0.046	-0.212
-544.281	-134.359	0.124	-0.015
-543.266	405.854	0.173	-0.369
-542.252	-101.469	0.071	-0.017
-541.237	170.337	-0.200	0.288
-540.223	-31.102	-0.248	0.141
-539.208	-200.000	0.036	-0.205
-538.193	9.908	-0.276	0.211
-537.179	-8.250	-0.180	0.122
-536.164	716.352	-0.019	-0.052
-535.150	-200.000	-0.003	0.029
-534.135	8.852	0.229	0.174
-533.121	-24.919	-0.127	0.076
-532.106	-72.531	-0.416	-0.155
-531.091	138.471	0.425	-0.563
-530.077	800.000	0.021	-0.074
-529.062	800.000	0.089	0.262
-528.048	800.000	-0.065	-0.201
-527.033	-146.910	0.296	-0.026
-526.018	485.233	-0.016	0.036
-525.004	-200.000	-0.061	-0.360
-523.989	-68.413	-0.325	-0.127
-522.975	-2.521	-0.116	-0.082
-521.960	-170.714	-0.136	0.005
-520.945	12.207	0.145	-0.113
-519.931	278.456	0.172	0.309
-518.916	58.143	-0.035	-0.034
-517.902	770.639	0.048	-0.131
-516.887	-200.000	-0.080	0.410
-515.872	800.000	0.057	0.209
-514.858	-135.581	0.099	-0.012
-513.843	-200.000	0.044	-0.232
-512.829	377.626	-0.173	-0.357
-511.814	26.935	0.078	0.066
-510.799	-72.651	-0.245	0.091
-509.785	-133.346	-0.137	-0.017
-508.770	34.010	-0.181	0.159
-507.756	210.273	0.094	0.149
-506.741	-200.000	-0.015	-0.201
-505.726	118.476	0.202	0.251
-504.712	-200.000	-0.036	-0.168
-503.697	94.033	-0.067	-0.076
-502.683	48.400	0.186	0.175
-501.668	-33.584	0.312	-0.173
-500.653	-67.280	0.072	0.028
-499.639	-182.939	-0.042	-0.001
-498.624	530.701	-0.129	0.308
-497.610	131.274	-0.142	-0.184
-496.595	45.628	-0.045	-0.041
-495.581	-200.000	0.017	0.245
-494.566	77.171	0.055	0.058
-493.551	800.000	-0.028	-0.096
-492.537	-194.449	-0.124	0.001
-491.522	800.000	-0.066	-0.261
-490.508	-62.613	0.058	0.024
-489.493	368.030	-0.089	0.180
-488.478	-85.906	0.307	0.096
-487.464	-19.742	0.257	-0.160
-486.449	-122.626	-0.069	-0.011
-485.435	130.318	0.157	0.202
-484.420	-91.678	-0.089	0.026
-483.405	300.840	0.069	0.128
-482.391	23.339	-0.211	0.175
-481.376	498.661	0.105	0.243
-480.362	269.142	-0.053	-0.093
-479.347	-191.991	0.363	0.004
-478.332	144.712	-0.138	-0.186
-477.318	247.848	0.279	0.475
-476.303	800.000	-0.041	-0.125
-475.289	-184.626	0.212	-0.003
-474.274	81.509	-0.118	-0.128
-473.259	-64.956	-0.150	-0.061
-472.245	800.000	0.083	0.232
-471.230	250.139	-0.142	0.242
-470.216	-118.068	0.239	-0.043
-469.201	61.686	0.120	-0.120
-468.186	-8.574	-0.168	-0.114
-467.172	306.670	0.144	0.269
-466.157	-200.000	0.047	0.262
-465.143	-53.870	-0.332	-0.152
-464.128	194.866	-0.070	-0.107
-463.113	-22.361	-0.240	-0.146
-462.099	800.000	-0.049	-0.161
-461.084	44.780	0.208	-0.193
-460.070	-39.011	-0.044	0.023
-459.055	-155.712	-0.274	0.018
-458.040	-200.000	-0.052	0.238
-457.026	41.547	-0.089	-0.081
-456.011	-200.000	0.009	-0.140
-454.997	279.435	-0.127	0.229
-453.982	-0.368	0.197	-0.140
-452.968	800.000	-0.035	0.117
-451.953	-81.805	0.196	0.064
-450.938	-143.119	0.402	0.039
-449.924	-24.305	0.167	0.100
-448.909	-72.788	0.014	-0.005
-447.895	161.297	-0.162	-0.227
-446.880	68.882	-0.091	0.094
-445.865	800.000	-0.059	0.170
-444.851	-200.000	-0.004	-0.110
-443.836	-47.620	-0.217	-0.106
-442.822	616.614	0.027	-0.067
-441.807	-115.381	0.385	0.073
-440.792	230.963	-0.125	-0.206
-439.778	-98.826	0.340	-0.087
-438.763	800.000	0.060	0.223
-437.749	-119.636	0.093	-0.016
-436.734	89.809	0.094	0.105
-435.719	585.660	-0.041	0.100
-434.705	-84.538	-0.165	0.052
-433.690	-138.845	-0.227	0.025
-432.676	182.142	0.114	-0.169
-431.661	723.929	-0.078	-0.208
-430.646	-141.318	-0.331	-0.034
-429.632	-129.187	-0.238	-0.033
-428.617	-200.000	-0.040	-0.193
-427.603	122.468	-0.143	0.180
-426.588	317.888	0.076	-0.144
-425.573	-200.000	-0.038	0.223
-424.559	-10.916	0.063	0.042
-423.544	-200.000	-0.009	0.086
-422.530	246.924	-0.055	-0.093
-421.515	-143.860	-0.158	0.015
-420.500	-200.000	-0.021	-0.317
-419.486	80.995	0.112	-0.122
-418.471	-63.890	0.192	0.079
-417.457	-200.000	-0.043	0.281
-416.442	-97.841	-0.103	0.027
-415.428	-119.818	-0.128	0.022
-414.413	187.914	0.067	-0.101
-413.398	-95.539	0.043	0.012
-412.384	-92.285	-0.226	-0.064
-411.369	800.000	0.061	0.222
-410.355	800.000	-0.059	-0.183
-409.340	-75.908	0.063	-0.022
-408.325	397.765	-0.117	-0.245
-407.311	-125.130	-0.179	-0.028
-406.296	800.000	0.057	-0.217
-405.282	-72.900	0.199	0.073
-404.267	800.000	-0.054	-0.232
-403.252	44.522	-0.307	0.283
-402.238	75.032	0.086	-0.091
-401.223	-16.978	-0.065	-0.041
-400.209	237.475	-0.110	-0.183
-399.194	-200.000	0.024	0.110
-398.179	196.552	-0.077	0.118
-397.165	-16.156	0.406	-0.259
-396.150	-56.348	-0.136	-0.061
-395.136	281.961	-0.080	0.145
-394.121	-47.306	-0.232	0.113
-393.106	558.988	0.055	-0.134
-392.092	187.175	-0.180	-0.269
-391.077	-62.486	-0.253	0.105
-390.063	-79.844	0.203	-0.069
-389.048	-112.813	0.104	-0.021
-388.033	65.270	0.034	-0.034
-387.019	22.945	0.334	-0.274
-386.004	-101.674	0.134	-0.033
-384.990	-131.534	0.408	-0.054
-383.975	-97.203	0.112	0.029
-382.960	-200.000	0.002	-0.054
-381.946	800.000	0.030	0.092
-380.931	-77.994	0.151	0.052
-379.917	69.507	-0.175	-0.180
-378.902	181.667	0.027	-0.040
-377.888	-89.846	0.347	0.102
-376.873	-173.444	-0.178	-0.005
-375.858	647.653	0.081	0.207
-374.844	-76.677	-0.098	-0.034
-373.829	-200.000	-0.010	0.090
-372.815	-154.771	-0.193	-0.013
-371.800	722.854	0.094	0.250
-370.785	-121.961	-0.147	-0.024
-369.771	79.096	-0.198	-0.213
-368.756	136.130	0.085	-0.111
-367.742	800.000	-0.015	-0.064
-366.727	-129.269	-0.383	0.053
-365.712	-200.000	0.086	-0.457
-364.698	-126.184	0.185	0.028
-363.683	-200.000	-0.026	0.151
-362.669	-77.056	0.253	-0.089
-361.654	-200.000	0.003	-0.174
-360.639	800.000	0.016	-0.050
-359.625	44.837	-0.047	-0.044
-358.610	-200.000	-0.014	-0.187
-357.596	-129.103	-0.205	-0.029
-356.581	-200.000	-0.020	0.323
-355.566	-200.000	0.018	0.201
-354.552	-200.000	-0.031	-0.364
-353.537	420.374	-0.070	0.150
-352.523	-70.608	-0.285	0.108
-351.508	-200.000	0.006	-0.265
-350.493	109.455	0.079	0.095
-349.479	-200.000	-0.032	0.430
-348.464	-200.000	0.020	0.184
-347.450	800.000	0.087	-0.276
-346.435	25.406	-0.307	0.255
-345.420	-200.000	0.021	-0.270
-344.406	620.296	0.099	0.250
-343.391	44.185	0.220	0.202
-342.377	-179.093	0.154	-0.003
-341.362	-115.272	0.081	-0.015
-340.348	195.897	-0.095	-0.145
-339.333	-122.052	0.190	0.031
-338.318	-200.000	-0.020	0.247
-337.304	12.142	-0.063	0.048
-336.289	116.234	-0.133	-0.163
-335.275	52.312	0.023	0.022
-334.260	-139.777	0.291	-0.031
-333.245	187.301	0.173	-0.259
-332.231	263.053	-0.183	-0.319
-331.216	-66.493	0.072	0.028
-330.202	-94.703	0.307	0.083
-329.187	114.888	0.078	0.095
-328.172	139.524	0.183	-0.240
-327.158	29.572	0.172	0.147
-326.143	245.946	0.135	0.228
-325.129	-97.044	-0.139	0.036
-324.114	-113.380	0.114	0.022
-323.099	-41.942	-0.126	-0.065
-322.085	394.708	0.084	0.175
-321.070	112.759	0.187	-0.226
-320.056	-42.980	-0.043	-0.022
-319.041	-5.067	-0.488	-0.336
-318.026	-27.470	0.283	0.164
-317.012	119.271	0.044	-0.055
-315.997	176.917	0.140	0.203
-314.983	-36.268	0.275	0.148
-313.968	408.922	0.062	-0.131
-312.953	-47.884	0.248	0.120
-311.939	-200.000	0.014	0.297
-310.924	-200.000	0.033	0.233
-309.910	-200.000	0.116	-0.000
-308.895	188.638	0.062	-0.092
-307.880	91.560	0.063	-0.071
-306.866	79.279	-0.089	-0.096
-305.851	-110.389	0.246	0.051
-304.837	-112.120	0.191	0.038
-303.822	-200.000	-0.002	-0.089
-302.807	19.170	0.057	-0.046
-301.793	-76.211	0.204	-0.072
-300.778	-47.008	-0.249	0.122
-299.764	-26.395	-0.219	-0.128
-298.749	-200.000	0.028	0.226
-297.735	-32.462	0.155	-0.086
-296.720	325.839	-0.061	-0.116
-295.705	84.477	0.173	0.189
-294.691	342.847	0.142	-0.277
-293.676	-45.727	0.274	-0.135
-292.662	800.000	-0.094	0.309
-291.647	205.117	-0.073	-0.113
-290.632	356.112	0.043	0.085
-289.618	256.039	-0.226	-0.388
-288.603	-70.233	0.139	-0.053
-287.589	-161.318	-0.084	-0.004
-286.574	214.204	-0.071	0.112
-285.559	-16.364	-0.162	0.103
-284.545	-20.576	-0.049	-0.030
-283.530	-108.283	0.237	0.051
-282.516	12.100	0.201	-0.154
-281.501	-5.028	0.224	0.154
-280.486	360.642	0.093	0.185
-279.472	800.000	-0.116	0.348
-278.457	363.150	0.130	-0.261
-277.443	-153.342	-0.065	-0.004
-276.428	167.663	0.172	-0.244
-275.413	-139.874	-0.241	0.025
-274.399	-170.188	-0.068	-0.002
-273.384	800.000	-0.041	-0.162
-272.370	-200.000	-0.022	0.134
-271.355	-200.000	0.027	0.403
-270.340	-43.808	-0.035	-0.018
-269.326	800.000	-0.025	-0.098
-268.311	255.894	0.085	-0.145
-267.297	-200.000	-0.001	0.386
-266.282	-54.577	-0.174	0.079
-265.267	649.346	-0.054	-0.137
-264.253	-41.210	0.069	0.036
-263.238	-76.050	0.118	0.042
-262.224	-137.091	-0.251	0.029
-261.209	-162.888	-0.364	-0.018
-260.195	-200.000	-0.055	-0.281
-259.180	800.000	-0.140	-0.410
-258.165	44.456	-0.189	0.173
-257.151	23.412	-0.277	-0.227
-256.136	-32.648	-0.293	0.163
-255.122	-115.556	-0.209	0.039
-254.107	-51.861	-0.067	0.031
-253.092	310.976	0.194	0.362
-252.078	228.228	-0.040	0.064
-251.063	800.000	0.130	0.401
-250.049	800.000	-0.009	0.037
-249.034	140.130	-0.260	0.342
-248.019	55.551	0.159	-0.154
-247.005	-200.000	-0.021	0.094
-245.990	-200.000	0.005	-0.064
-244.976	-200.000	-0.042	0.226
-243.961	-24.236	0.155	-0.092
-242.946	800.000	-0.042	-0.143
-241.932	-200.000	-0.014	0.310
-240.917	-200.000	0.016	-0.123
-239.903	322.987	0.091	0.173
-238.888	800.000	-0.058	0.179
-237.873	361.223	-0.097	0.194
-236.859	-84.534	-0.091	-0.029
-235.844	452.398	0.104	0.229
-234.830	617.996	-0.072	-0.181
-233.815	-28.450	-0.239	-0.137
-232.800	-140.406	0.051	0.005
-231.786	-30.564	-0.242	-0.137
-230.771	619.625	0.047	-0.118
-229.757	-121.844	0.153	-0.025
-228.742	-167.419	0.172	-0.007
-227.727	-50.422	-0.117	0.055
-226.713	-44.888	-0.036	0.018
-225.698	800.000	-0.059	-0.233
-224.684	-122.215	-0.039	0.006
-223.669	-166.851	0.141	0.006
-222.655	-70.778	-0.160	0.060
-221.640	-200.000	0.003	0.205
-220.625	-84.657	0.307	-0.096
-219.611	-78.414	0.124	-0.042
-218.596	29.596	0.065	-0.055
-217.582	-200.000	-0.035	-0.295
-216.567	-35.061	-0.116	-0.063
-215.552	-4.224	0.060	0.041
-214.538	133.988	0.250	0.323
-213.523	20.233	0.212	-0.170
-212.509	-200.000	0.012	-0.161
-211.494	-38.329	0.052	-0.028
-210.479	-103.976	-0.055	0.013
-209.465	-51.544	-0.223	0.103
-208.450	64.261	0.023	-0.023
-207.436	-105.274	-0.093	-0.021
-206.421	-156.551	-0.104	-0.006
-205.406	705.044	-0.070	0.183
-204.392	87.369	-0.077	0.085
-203.377	8.117	0.190	0.142
-202.363	-37.334	-0.205	-0.109
-201.348	87.134	0.188	-0.207
-200.333	-200.000	-0.021	-0.198
-199.319	-200.000	0.015	0.351
-198.304	800.000	0.042	0.126
-197.290	113.354	-0.269	-0.325
-196.275	-200.000	0.023	0.170
-195.260	64.899	0.403	-0.405
-194.246	-66.020	0.271	-0.108
-193.231	-54.022	-0.417	0.189
-192.217	35.462	0.084	-0.073
-191.202	22.467	0.077	-0.063
-190.187	226.576	-0.113	0.183
-189.173	428.248	0.102	0.220
-188.158	-1.805	0.138	-0.097
-187.144	-136.547	0.394	-0.045
-186.129	-131.095	0.086	-0.011
-185.114	-3.372	-0.171	-0.118
-184.100	-34.093	-0.149	0.082
-183.085	560.779	0.043	0.102
-182.071	800.000	-0.077	0.332
-181.056	800.000	0.108	0.431
-180.042	52.466	-0.223	-0.212
-179.027	-61.295	-0.219	-0.092
-178.012	-125.176	-0.295	-0.045
-176.998	-26.782	0.274	0.159
-175.983	-200.000	-0.011	0.218
-174.969	-0.884	-0.269	0.189
-173.954	90.870	0.141	0.157
-172.939	-9.225	-0.250	0.167
-171.925	-2.801	0.109	0.075
-170.910	-200.000	0.063	0.347
-169.896	800.000	0.055	0.159
-168.881	178.577	-0.184	0.268
-167.866	800.000	-0.053	0.203
-166.852	-141.179	0.194	0.020
-165.837	138.651	-0.312	-0.408
-164.823	800.000	-0.049	-0.140
-163.808	-28.594	-0.238	-0.136
-162.793	-200.000	0.021	-0.334
-161.779	449.484	0.036	0.078
-160.764	-56.353	0.151	-0.066
-159.750	-85.858	0.326	-0.100
-158.735	-47.690	0.117	0.056
-157.720	152.168	0.067	0.091
-156.706	800.000	0.084	-0.338
-155.691	109.577	-0.160	-0.191
-154.677	-200.000	-0.023	0.264
-153.662	-55.028	-0.297	-0.133
-152.647	-40.841	0.232	0.120
-151.633	-52.104	-0.235	0.108
-150.618	145.185	-0.202	0.269
-149.604	-16.380	-0.166	-0.105
-148.589	12.163	-0.137	-0.105
-147.574	154.622	-0.179	-0.244
-146.560	-24.932	0.358	0.211
-145.545	-126.920	-0.187	-0.027
-144.531	800.000	0.098	0.304
-143.516	-200.000	0.013	0.278
-142.502	-6.657	0.082	0.055
-141.487	-71.662	0.139	0.052
-140.472	-19.177	0.275	0.169
-139.458	800.000	0.045	0.136
-138.443	-200.000	0.043	0.317
-137.429	113.192	-0.151	0.181
-136.414	-200.000	0.004	-0.203
-135.399	-174.735	-0.094	0.003
-134.385	-200.000	-0.005	-0.236
-133.370	-4.228	-0.087	-0.060
-132.356	-51.982	-0.234	-0.108
-131.341	-46.673	-0.226	0.110
-130.326	-200.000	-0.025	0.299
-129.312	-200.000	-0.031	-0.191
-128.297	236.810	0.057	0.093
-127.283	-45.277	-0.214	-0.105
-126.268	222.098	-0.040	0.064
-125.253	-200.000	-0.039	0.425
-124.239	-27.171	0.241	-0.140
-123.224	187.533	0.090	-0.134
-122.210	-14.206	-0.084	0.054
