DTS Sentinel unit serial number:	SN413079Multiplexer serial number:	ORYXHardware model number:	OX4-SRSoftware version number:	ORYX F/W v4.00 Oryx Data Collector v3.7.2.0data status	okinstallation	princeton_trtdifferential loss correction	single-endedforward channel	channel 3reverse channel	N/Adate	2019/09/18time	02:12:35forward acquisition time	60.00reverse acquisition time	0.00gamma	496.2192k internal	0.2344k external	0.2344temperature offset calibration	0.9948default loss term (dB/km)	0.3790temperature slope calibration	1.0000multiplexer offset coefficient	1.0000multiplexer slope coefficient	1.0000fibre end	0.00T internal ref (°C)	22.87T ext. ref 1 (°C)	0.16T ext. ref 2 (°C)	16.76length (m)	temperature (°C)	Stokes	anti-Stokes-747.200	-83.382	0.267	0.086
-746.185	-5.949	-0.062	-0.042
-745.171	188.077	0.058	0.087
-744.156	800.000	-0.097	0.325
-743.142	224.123	0.119	-0.193
-742.127	-46.468	-0.303	-0.149
-741.112	-60.036	-0.111	0.047
-740.098	-71.749	-0.235	-0.088
-739.083	-92.417	0.184	0.052
-738.069	-59.086	0.091	0.039
-737.054	-188.010	-0.225	-0.003
-736.039	126.677	-0.307	0.389
-735.025	-200.000	-0.067	0.336
-734.010	15.025	-0.177	-0.139
-732.996	-200.000	0.019	0.093
-731.981	356.058	0.133	-0.264
-730.966	-33.861	0.238	0.131
-729.952	-60.340	-0.152	0.065
-728.937	-71.783	-0.291	0.108
-727.923	-133.904	-0.244	0.030
-726.908	-130.517	-0.085	0.012
-725.894	124.016	-0.156	-0.196
-724.879	10.636	0.159	-0.121
-723.864	-94.153	-0.155	0.043
-722.850	19.854	-0.433	0.349
-721.835	54.995	-0.188	-0.181
-720.821	211.184	-0.052	-0.082
-719.806	-200.000	0.049	-0.236
-718.791	58.944	-0.087	0.086
-717.777	-162.971	0.243	-0.012
-716.762	3.488	-0.530	0.386
-715.748	10.184	-0.133	-0.101
-714.733	-73.305	-0.090	0.033
-713.718	-11.328	0.299	0.197
-712.704	-20.551	-0.294	0.181
-711.689	-53.042	-0.224	-0.103
-710.675	-200.000	-0.017	0.317
-709.660	-53.014	0.163	0.075
-708.645	-109.606	-0.178	0.037
-707.631	0.775	-0.100	0.072
-706.616	-200.000	-0.043	0.318
-705.602	-200.000	-0.015	0.071
-704.587	-132.413	-0.157	0.020
-703.572	245.456	-0.142	0.239
-702.558	1.600	-0.232	0.167
-701.543	570.976	0.030	-0.074
-700.529	161.834	0.218	-0.305
-699.514	168.674	0.032	-0.045
-698.499	-200.000	0.044	0.285
-697.485	-82.538	0.226	-0.073
-696.470	161.681	0.161	0.226
-695.456	303.712	-0.228	-0.422
-694.441	-77.672	0.112	-0.039
-693.426	-150.131	-0.276	-0.021
-692.412	-200.000	0.022	-0.108
-691.397	344.994	0.013	-0.025
-690.383	69.811	-0.321	-0.331
-689.368	-178.656	0.277	0.006
-688.354	800.000	-0.010	0.040
-687.339	800.000	0.086	0.361
-686.324	381.101	-0.126	0.257
-685.310	-132.578	-0.232	0.030
-684.295	35.385	-0.203	0.178
-683.281	80.200	-0.083	-0.090
-682.266	800.000	-0.027	-0.099
-681.251	211.890	-0.073	0.115
-680.237	-171.806	-0.175	0.006
-679.222	-70.874	0.186	-0.070
-678.208	-200.000	-0.010	0.232
-677.193	-129.321	-0.293	-0.041
-676.178	631.864	0.144	0.364
-675.164	-19.554	0.259	0.160
-674.149	435.524	-0.149	0.323
-673.135	-200.000	-0.010	0.173
-672.120	-58.860	-0.206	0.089
-671.105	13.595	-0.115	0.089
-670.091	-200.000	0.013	-0.075
-669.076	-105.954	0.349	-0.078
-668.062	-200.000	0.054	-0.262
-667.047	31.242	0.105	-0.090
-666.032	800.000	-0.159	-0.507
-665.018	-103.007	0.158	-0.037
-664.003	-200.000	-0.016	-0.159
-662.989	95.321	-0.122	-0.139
-661.974	95.987	0.064	-0.073
-660.959	584.395	0.085	0.209
-659.945	71.237	-0.112	-0.116
-658.930	-167.918	0.249	0.010
-657.916	-55.779	-0.085	0.038
-656.901	69.145	-0.152	0.156
-655.886	80.627	-0.020	0.021
-654.872	-39.134	-0.076	0.040
-653.857	25.143	0.125	-0.104
-652.843	13.805	-0.373	-0.289
-651.828	287.047	0.149	-0.268
-650.814	800.000	0.053	0.183
-649.799	800.000	0.059	-0.203
-648.784	116.077	0.129	-0.158
-647.770	-200.000	0.009	-0.393
-646.755	-200.000	-0.009	-0.120
-645.741	-112.117	0.189	0.038
-644.726	300.423	0.091	-0.168
-643.711	-200.000	0.002	-0.035
-642.697	-117.760	-0.240	0.043
-641.682	297.347	0.202	-0.370
-640.668	800.000	0.078	-0.230
-639.653	-71.929	0.499	0.185
-638.638	-71.035	-0.147	-0.055
-637.624	-200.000	-0.035	-0.194
-636.609	800.000	-0.043	-0.120
-635.595	-60.999	-0.145	-0.061
-634.580	8.312	-0.335	-0.251
-633.565	-86.857	0.227	0.069
-632.551	-98.603	-0.362	0.092
-631.536	-100.157	-0.060	-0.015
-630.522	187.368	-0.100	0.148
-629.507	46.864	0.136	-0.126
-628.492	-62.549	-0.201	-0.083
-627.478	60.937	-0.178	0.176
-626.463	88.790	0.124	0.138
-625.449	800.000	-0.011	0.030
-624.434	-89.912	-0.193	0.056
-623.419	209.759	-0.191	-0.298
-622.405	12.508	-0.123	-0.094
-621.390	-8.113	-0.074	0.050
-620.376	530.140	-0.028	-0.066
-619.361	-109.199	0.365	0.077
-618.346	-119.579	-0.091	-0.016
-617.332	33.520	-0.082	-0.071
-616.317	800.000	0.034	-0.148
-615.303	-200.000	0.000	-0.284
-614.288	-200.000	-0.037	0.222
-613.273	-200.000	-0.015	-0.157
-612.259	800.000	0.044	-0.164
-611.244	-200.000	0.027	0.271
-610.230	-176.241	-0.332	-0.009
-609.215	229.749	0.120	0.195
-608.201	62.088	0.142	-0.141
-607.186	507.241	0.159	0.367
-606.171	64.003	-0.162	0.162
-605.157	-159.559	0.077	0.004
-604.142	409.371	-0.219	-0.461
-603.128	20.777	0.188	-0.152
-602.113	-117.425	-0.247	0.044
-601.098	-147.576	-0.213	0.018
-600.084	-200.000	-0.007	-0.070
-599.069	-200.000	0.004	-0.045
-598.055	-105.356	0.314	0.071
-597.040	-200.000	-0.050	-0.272
-596.025	-138.325	-0.126	-0.014
-595.011	93.094	0.050	0.056
-593.996	96.060	0.182	0.206
-592.982	-121.964	-0.020	-0.003
-591.967	142.350	-0.086	0.114
-590.952	65.077	0.086	0.087
-589.938	800.000	0.041	-0.178
-588.923	54.501	-0.318	0.305
-587.909	-200.000	-0.018	0.100
-586.894	-200.000	0.010	-0.375
-585.879	193.516	0.135	-0.203
-584.865	-124.378	-0.292	-0.045
-583.850	356.478	0.114	-0.226
-582.836	236.415	-0.167	-0.275
-581.821	249.990	0.117	-0.197
-580.806	800.000	0.077	0.227
-579.792	800.000	0.083	0.285
-578.777	-186.566	0.037	-0.001
-577.763	-52.076	-0.345	0.159
-576.748	-200.000	0.023	-0.178
-575.733	0.563	-0.186	-0.132
-574.719	33.219	0.099	0.086
-573.704	27.542	-0.226	0.189
-572.690	-140.922	-0.081	-0.008
-571.675	55.038	0.103	0.099
-570.661	-200.000	0.002	-0.213
-569.646	-200.000	-0.032	-0.157
-568.631	105.461	0.261	0.306
-567.617	-22.377	0.112	-0.067
-566.602	530.545	0.129	0.303
-565.588	-141.138	-0.005	0.001
-564.573	-200.000	-0.019	0.136
-563.558	232.568	0.172	0.281
-562.544	-131.706	-0.243	-0.032
-561.529	-200.000	-0.014	-0.288
-560.515	398.184	-0.075	0.155
-559.500	35.683	0.169	0.148
-558.485	-71.368	-0.275	0.102
-557.471	800.000	-0.038	0.118
-556.456	-157.010	-0.285	-0.017
-555.442	202.942	0.205	-0.315
-554.427	-11.157	-0.266	0.174
-553.412	24.006	-0.271	-0.222
-552.398	41.615	0.313	0.282
-551.383	-200.000	-0.032	0.255
-550.369	199.460	-0.132	-0.201
-549.354	-140.184	0.176	0.018
-548.339	144.586	-0.155	-0.206
-547.325	412.385	0.056	-0.119
-546.310	800.000	-0.074	0.298
-545.296	397.475	-0.108	0.225
-544.281	-52.673	0.360	-0.165
-543.266	-200.000	0.026	-0.116
-542.252	68.653	-0.160	0.163
-541.237	-72.382	-0.370	0.136
-540.223	84.748	0.087	0.094
-539.208	401.357	0.119	-0.248
-538.193	364.707	-0.101	-0.201
-537.179	800.000	-0.029	-0.121
-536.164	-9.259	0.160	-0.106
-535.150	775.819	-0.020	-0.054
-534.135	-200.000	0.037	0.264
-533.121	-36.654	0.111	-0.059
-532.106	-169.121	0.324	0.012
-531.091	165.871	-0.194	0.272
-530.077	519.345	-0.056	0.129
-529.062	47.744	-0.247	0.229
-528.048	-79.057	-0.127	0.043
-527.033	-95.818	0.174	-0.046
-526.018	-97.005	-0.085	-0.022
-525.004	-30.685	-0.260	-0.146
-523.989	229.392	-0.134	0.217
-522.975	-126.504	0.193	0.028
-521.960	396.329	0.026	-0.053
-520.945	32.793	-0.058	-0.050
-519.931	57.951	-0.205	-0.199
-518.916	-200.000	0.004	0.042
-517.902	-175.842	-0.042	0.001
-516.887	-200.000	0.051	0.227
-515.872	-200.000	0.029	-0.158
-514.858	-96.443	0.170	0.045
-513.843	-5.451	-0.097	0.066
-512.829	503.774	0.045	-0.103
-511.814	2.054	-0.127	-0.091
-510.799	14.715	-0.210	-0.163
-509.785	393.347	-0.095	0.196
-508.770	-108.024	-0.171	-0.037
-507.756	800.000	-0.061	0.195
-506.741	-69.159	0.153	-0.058
-505.726	-105.074	0.309	0.070
-504.712	269.663	0.222	0.386
-503.697	114.516	0.163	-0.197
-502.683	49.025	-0.203	-0.189
-501.668	-64.049	-0.042	-0.017
-500.653	-109.937	0.162	-0.034
-499.639	57.532	-0.301	-0.292
-498.624	239.235	-0.143	-0.236
-497.610	-61.404	0.379	-0.158
-496.595	-124.310	0.198	-0.031
-495.581	-200.000	-0.023	-0.100
-494.566	-19.957	-0.302	-0.185
-493.551	223.512	0.021	-0.034
-492.537	-80.746	0.055	-0.018
-491.522	800.000	-0.123	0.373
-490.508	-151.323	0.469	-0.035
-489.493	183.612	0.194	-0.284
-488.478	-22.110	0.122	0.073
-487.464	229.545	-0.042	-0.068
-486.449	-117.096	0.124	-0.022
-485.435	-15.728	-0.124	0.079
-484.420	-98.983	-0.120	0.030
-483.405	800.000	0.035	-0.119
-482.391	647.958	0.055	0.138
-481.376	253.406	-0.123	0.208
-480.362	-146.449	0.130	0.011
-479.347	800.000	0.063	0.249
-478.332	-138.711	0.126	0.014
-477.318	-79.386	-0.196	-0.066
-476.303	800.000	-0.127	0.497
-475.289	218.798	0.084	-0.133
-474.274	326.487	-0.073	0.138
-473.259	-101.947	0.159	0.038
-472.245	-38.521	-0.047	-0.025
-471.230	-84.571	-0.120	-0.037
-470.216	132.537	0.084	0.107
-469.201	-200.000	0.178	-0.001
-468.186	-59.756	0.153	-0.065
-467.172	40.100	0.074	0.066
-466.157	333.290	0.221	-0.422
-465.143	142.773	-0.247	-0.324
-464.128	-54.671	0.260	-0.116
-463.113	800.000	-0.038	-0.150
-462.099	77.832	0.172	0.181
-461.084	150.576	0.126	0.169
-460.070	-41.708	-0.162	0.082
-459.055	304.765	-0.135	-0.249
-458.040	-200.000	-0.005	0.087
-457.026	-73.277	-0.048	0.017
-456.011	-200.000	0.028	-0.419
-454.997	150.534	-0.166	0.223
-453.982	96.193	-0.219	-0.248
-452.968	163.084	0.104	0.145
-451.953	-200.000	-0.018	-0.365
-450.938	-26.215	-0.353	-0.205
-449.924	800.000	-0.051	0.209
-448.909	476.407	0.063	0.140
-447.895	-46.795	-0.261	0.126
-446.880	-58.528	-0.258	0.111
-445.865	800.000	0.068	-0.284
-444.851	82.444	0.230	-0.247
-443.836	800.000	-0.057	0.212
-442.822	-200.000	-0.017	0.125
-441.807	-64.506	-0.276	-0.111
-440.792	-200.000	-0.038	-0.256
-439.778	-114.586	0.209	0.040
-438.763	-40.899	-0.332	-0.170
-437.749	-200.000	-0.048	-0.449
-436.734	-200.000	-0.003	-0.229
-435.719	96.068	0.177	-0.200
-434.705	-200.000	-0.003	-0.172
-433.690	-200.000	-0.026	0.156
-432.676	77.805	-0.197	-0.208
-431.661	-135.997	0.313	0.036
-430.646	-135.711	0.046	0.005
-429.632	84.876	0.043	-0.046
-428.617	53.137	-0.111	0.105
-427.603	397.361	0.133	0.274
-426.588	247.454	-0.056	0.093
-425.573	-28.962	-0.310	-0.176
-424.559	-72.167	0.286	0.105
-423.544	-40.697	-0.084	0.043
-422.530	-153.001	0.306	0.021
-421.515	-84.852	0.288	0.089
-420.500	153.341	-0.118	-0.159
-419.486	-137.376	-0.277	0.031
-418.471	-124.066	0.137	0.021
-417.457	-54.560	-0.028	0.013
-416.442	800.000	0.083	-0.320
-415.428	-200.000	0.011	0.112
-414.413	-200.000	-0.010	0.130
-413.398	-57.756	-0.226	0.098
-412.384	226.685	0.047	-0.076
-411.369	357.813	0.030	0.060
-410.355	-78.260	-0.085	-0.029
-409.340	41.169	-0.135	0.121
-408.325	-25.203	0.049	-0.029
-407.311	800.000	0.087	-0.311
-406.296	268.434	0.076	0.131
-405.282	-3.012	0.162	-0.112
-404.267	-40.656	-0.307	0.157
-403.252	-19.869	0.296	-0.181
-402.238	20.321	0.198	0.158
-401.223	133.894	-0.053	0.067
-400.209	98.220	-0.218	-0.248
-399.194	45.215	-0.184	-0.168
-398.179	-200.000	0.008	-0.039
-397.165	-24.104	0.156	-0.092
-396.150	219.339	-0.210	0.332
-395.136	257.699	0.063	-0.106
-394.121	-14.050	-0.361	-0.230
-393.106	-200.000	0.019	-0.153
-392.092	547.496	-0.077	-0.183
-391.077	138.651	0.191	0.248
-390.063	505.822	-0.182	-0.417
-389.048	-27.078	0.126	0.072
-388.033	18.009	-0.175	0.138
-387.019	545.759	0.058	0.137
-386.004	123.151	-0.158	-0.196
-384.990	-118.031	0.294	0.052
-383.975	-200.000	-0.029	-0.151
-382.960	-200.000	-0.035	-0.344
-381.946	800.000	0.045	-0.171
-380.931	342.459	-0.088	-0.170
-379.917	-200.000	-0.026	-0.478
-378.902	48.257	0.247	-0.228
-377.888	800.000	0.101	-0.354
-376.873	-87.785	-0.332	0.099
-375.858	800.000	0.052	0.183
-374.844	-35.023	-0.311	0.167
-373.829	-47.152	0.539	0.259
-372.815	-200.000	0.013	-0.302
-371.800	-200.000	0.044	0.000
-370.785	112.681	-0.139	0.166
-369.771	51.479	-0.106	0.099
-368.756	-200.000	0.013	0.124
-367.742	-33.144	0.343	0.188
-366.727	-49.477	-0.383	0.180
-365.712	-200.000	-0.011	0.175
-364.698	-51.080	-0.319	0.147
-363.683	726.519	-0.035	-0.092
-362.669	-90.002	0.162	0.047
-361.654	385.159	0.056	-0.114
-360.639	-200.000	0.004	-0.218
-359.625	-200.000	0.001	0.084
-358.610	44.966	0.188	-0.171
-357.596	-200.000	-0.005	0.099
-356.581	-60.136	0.153	0.064
-355.566	189.243	0.199	0.294
-354.552	10.348	0.036	-0.027
-353.537	-200.000	0.010	0.309
-352.523	-83.943	0.159	-0.050
-351.508	178.659	-0.044	0.063
-350.493	42.453	0.321	0.288
-349.479	-200.000	0.052	-0.331
-348.464	576.771	-0.086	0.208
-347.450	718.318	-0.077	-0.202
-346.435	330.837	0.190	0.360
-345.420	72.510	0.130	0.134
-344.406	45.235	-0.096	-0.087
-343.391	800.000	-0.076	-0.289
-342.377	800.000	0.024	-0.082
-341.362	-175.533	0.291	-0.008
-340.348	-200.000	0.162	-0.000
-339.333	-200.000	-0.000	0.345
-338.318	-174.371	0.401	0.011
-337.304	800.000	-0.119	0.448
-336.289	139.994	0.170	0.221
-335.275	-16.738	0.181	0.113
-334.260	800.000	0.004	-0.014
-333.245	-200.000	-0.056	0.267
-332.231	-117.390	-0.198	-0.035
-331.216	16.406	-0.123	-0.095
-330.202	-131.803	0.171	-0.022
-329.187	-200.000	-0.031	0.252
-328.172	-124.474	-0.393	-0.060
-327.158	-200.000	0.020	0.191
-326.143	-15.381	-0.177	0.112
-325.129	528.417	-0.136	-0.316
-324.114	516.867	-0.019	-0.043
-323.099	37.210	0.046	0.040
-322.085	-23.192	0.095	0.056
-321.070	675.274	0.048	-0.123
-320.056	-200.000	-0.024	0.108
-319.041	-200.000	0.009	0.104
-318.026	-137.470	-0.190	-0.021
-317.012	-74.775	0.187	0.066
-315.997	41.031	0.156	-0.139
-314.983	-200.000	-0.036	0.260
-313.968	126.751	-0.149	0.186
-312.953	34.648	-0.082	0.070
-311.939	-8.821	0.060	0.039
-310.924	-49.988	-0.196	-0.092
-309.910	-200.000	-0.059	-0.344
-308.895	-143.430	-0.377	0.035
-307.880	-92.289	-0.297	-0.082
-306.866	-200.000	-0.015	-0.274
-305.851	302.103	-0.224	0.407
-304.837	-123.838	-0.130	0.020
-303.822	-200.000	0.001	0.017
-302.807	81.301	-0.116	-0.123
-301.793	-200.000	0.003	0.091
-300.778	62.906	0.143	0.140
-299.764	132.675	-0.160	-0.203
-298.749	-78.969	0.073	0.024
-297.735	124.504	-0.160	0.198
-296.720	-53.368	-0.246	-0.111
-295.705	15.789	-0.122	-0.094
-294.691	-50.546	0.140	0.065
-293.676	800.000	0.051	0.208
-292.662	191.675	0.102	0.151
-291.647	699.879	-0.049	-0.126
-290.632	-200.000	-0.086	-0.452
-289.618	-108.345	0.358	-0.076
-288.603	-39.131	-0.223	0.115
-287.589	-200.000	-0.084	-0.408
-286.574	419.219	0.006	-0.013
-285.559	-68.618	-0.180	0.069
-284.545	38.700	0.197	0.173
-283.530	413.445	0.099	0.206
-282.516	800.000	0.053	0.172
-281.501	79.109	0.297	0.313
-280.486	800.000	0.025	-0.106
-279.472	13.619	0.242	0.184
-278.457	-200.000	-0.002	0.137
-277.443	32.135	0.279	0.236
-276.428	800.000	0.187	0.537
-275.413	800.000	0.030	0.096
-274.399	-200.000	0.059	-0.416
-273.384	-31.684	0.198	0.109
-272.370	-200.000	0.054	0.325
-271.355	-115.237	0.275	0.051
-270.340	124.317	0.084	-0.104
-269.326	-32.210	0.344	-0.189
-268.311	312.689	-0.030	-0.055
-267.297	800.000	-0.129	-0.487
-266.282	32.397	0.133	0.113
-265.267	-25.356	0.281	-0.163
-264.253	11.331	0.115	-0.086
-263.238	-200.000	-0.009	-0.361
-262.224	6.084	0.258	-0.188
-261.209	-146.217	-0.338	-0.029
-260.195	-200.000	0.020	0.167
-259.180	127.229	0.201	0.250
-258.165	-60.888	-0.150	-0.062
-257.151	-49.453	-0.089	-0.041
-256.136	-95.266	-0.040	0.011
-255.122	-121.269	0.237	0.039
-254.107	513.114	-0.098	0.223
-253.092	-162.565	-0.195	0.009
-252.078	753.619	-0.064	-0.170
-251.063	800.000	0.134	-0.486
-250.049	800.000	-0.148	-0.444
-249.034	-47.756	0.309	0.147
-248.019	800.000	0.019	0.056
-247.005	183.422	0.098	0.142
-245.990	-48.987	-0.088	-0.041
-244.976	104.926	-0.165	-0.191
-243.961	-200.000	-0.020	0.415
-242.946	-187.459	-0.161	-0.002
-241.932	64.618	0.057	-0.056
-240.917	66.069	0.054	0.054
-239.903	-71.738	-0.328	-0.120
-238.888	192.130	0.108	-0.159
-237.873	764.354	0.118	0.314
-236.859	165.962	0.257	0.357
-235.844	-98.377	0.150	0.038
-234.830	-14.648	-0.310	0.195
-233.815	16.252	0.233	0.180
-232.800	-91.419	-0.303	0.085
-231.786	266.516	-0.084	-0.143
-230.771	800.000	-0.032	0.106
-229.757	-23.793	0.064	-0.038
-228.742	10.666	0.055	0.041
-227.727	-106.328	-0.061	-0.013
-226.713	261.335	-0.053	-0.089
-225.698	116.071	0.168	-0.202
-224.684	586.700	-0.074	0.178
-223.669	16.224	-0.337	-0.260
-222.655	-136.948	0.356	-0.040
-221.640	-200.000	-0.009	-0.113
-220.625	-21.605	0.345	0.206
-219.611	86.784	-0.166	-0.180
-218.596	800.000	-0.120	-0.350
-217.582	84.614	0.134	-0.144
-216.567	458.685	-0.151	-0.328
-215.552	100.695	0.103	-0.117
-214.538	-200.000	0.018	-0.110
-213.523	-36.937	0.161	0.085
-212.509	56.330	-0.346	0.330
-211.494	800.000	-0.049	0.139
-210.479	320.860	0.144	0.269
-209.465	-120.464	-0.058	-0.010
-208.450	-6.124	0.181	0.121
-207.436	-111.897	-0.348	0.069
-206.421	-111.823	0.255	-0.051
-205.406	-102.043	0.260	-0.061
-204.392	-70.520	-0.125	-0.047
-203.377	3.440	0.258	0.184
-202.363	-57.458	-0.163	0.070
-201.348	101.271	-0.193	0.220
-200.333	16.851	0.281	-0.218
-199.319	-200.000	-0.013	-0.075
-198.304	-200.000	-0.009	0.233
-197.290	267.041	-0.097	-0.166
-196.275	202.024	0.053	0.081
-195.260	-7.365	0.284	-0.188
-194.246	63.027	-0.065	-0.064
-193.231	-114.545	0.343	0.064
-192.217	229.738	-0.079	0.127
-191.202	800.000	0.081	0.335
-190.187	-200.000	-0.033	0.430
-189.173	800.000	-0.027	-0.083
-188.158	2.599	-0.082	-0.059
-187.144	-110.472	0.256	0.052
-186.129	-57.649	-0.359	0.154
-185.114	-200.000	-0.071	0.328
-184.100	-200.000	-0.029	-0.270
-183.085	271.168	-0.054	-0.093
-182.071	-200.000	0.022	0.122
-181.056	-144.016	0.388	0.036
-180.042	-128.727	-0.133	-0.018
-179.027	436.165	-0.089	0.190
-178.012	-52.375	-0.283	-0.128
-176.998	-50.376	0.271	-0.125
-175.983	615.566	0.063	0.153
-174.969	255.838	0.177	0.296
-173.954	35.998	0.127	-0.110
-172.939	44.112	-0.328	0.295
-171.925	320.830	0.142	0.263
-170.910	-96.567	-0.049	-0.013
-169.896	237.417	-0.165	0.267
-168.881	192.305	0.112	-0.165
-167.866	654.202	-0.057	0.142
-166.852	156.926	0.208	-0.281
-165.837	10.999	0.234	-0.175
-164.823	-200.000	-0.004	0.174
-163.808	-200.000	-0.027	0.260
-162.793	72.187	-0.152	0.154
-161.779	-8.421	-0.072	0.048
-160.764	-122.916	-0.351	0.055
-159.750	-112.817	-0.235	0.046
-158.735	800.000	0.085	0.260
-157.720	-200.000	-0.002	-0.020
-156.706	-97.280	-0.233	-0.059
-155.691	69.294	-0.039	-0.039
-154.677	-78.195	0.175	0.059
-153.662	-125.833	0.272	-0.040
-152.647	-200.000	-0.034	-0.205
-151.633	-200.000	-0.038	0.295
-150.618	71.432	-0.110	0.111
-149.604	-148.319	-0.224	-0.018
-148.589	257.951	-0.047	0.078
-147.574	434.784	-0.236	0.502
-146.560	-82.365	0.425	0.135
-145.545	-35.876	-0.153	0.081
-144.531	69.245	0.162	0.163
-143.516	152.185	-0.137	-0.183
-142.502	-200.000	-0.007	0.125
-141.487	-35.811	-0.187	-0.099
-140.472	-19.425	0.250	0.151
-139.458	61.604	-0.140	0.136
-138.443	-140.603	0.370	0.037
-137.429	-37.920	-0.229	0.119
-136.414	697.490	0.095	-0.245
-135.399	-59.937	0.179	-0.075
-134.385	37.303	-0.051	0.044
-133.370	-200.000	-0.053	0.299
-132.356	-166.624	-0.123	-0.005
-131.341	127.282	0.282	-0.349
-130.326	264.027	0.109	-0.186
-129.312	124.769	-0.133	0.164
-128.297	-114.031	-0.294	0.056
-127.283	-147.995	-0.107	-0.009
-126.268	-65.171	-0.136	0.054
-125.253	-200.000	-0.062	-0.361
-124.239	-90.413	0.149	0.042
-123.224	800.000	0.083	0.240
-122.210	-116.328	0.243	-0.044
-121.195	800.000	0.035	-0.105
