DTS Sentinel unit serial number:	SN413079Multiplexer serial number:	ORYXHardware model number:	OX4-SRSoftware version number:	ORYX F/W v4.00 Oryx Data Collector v3.7.2.0data status	okinstallation	princeton_trtdifferential loss correction	single-endedforward channel	channel 3reverse channel	N/Adate	2019/09/17time	01:32:34forward acquisition time	60.00reverse acquisition time	0.00gamma	496.2192k internal	0.2324k external	0.2324temperature offset calibration	0.9941default loss term (dB/km)	0.3790temperature slope calibration	1.0000multiplexer offset coefficient	1.0000multiplexer slope coefficient	1.0000fibre end	0.00T internal ref (°C)	29.53T ext. ref 1 (°C)	0.12T ext. ref 2 (°C)	24.42length (m)	temperature (°C)	Stokes	anti-Stokes-747.200	50.567	0.223	0.213
-746.185	35.877	-0.219	0.195
-745.171	-116.666	0.179	-0.033
-744.156	2.065	-0.169	-0.124
-743.142	800.000	0.030	0.121
-742.127	69.567	-0.054	-0.056
-741.112	-62.315	0.220	-0.092
-740.098	800.000	-0.130	0.468
-739.083	24.085	0.181	0.151
-738.069	-25.373	-0.125	0.075
-737.054	-72.574	0.147	0.055
-736.039	-80.306	-0.234	-0.079
-735.025	698.843	-0.046	0.122
-734.010	-169.553	-0.225	-0.008
-732.996	352.398	0.101	-0.201
-731.981	744.353	-0.168	-0.457
-730.966	38.382	0.210	-0.189
-729.952	14.080	-0.260	-0.204
-728.937	-200.000	0.006	0.271
-727.923	225.746	0.122	0.199
-726.908	-200.000	-0.015	-0.103
-725.894	-200.000	-0.060	-0.420
-724.879	302.656	-0.121	-0.227
-723.864	177.660	-0.231	-0.340
-722.850	-100.621	-0.107	0.027
-721.835	-200.000	0.007	0.201
-720.821	326.660	-0.076	-0.148
-719.806	-176.670	-0.126	-0.003
-718.791	-42.987	-0.048	0.024
-717.777	68.085	0.058	0.060
-716.762	115.509	-0.102	-0.125
-715.748	174.006	-0.170	0.247
-714.733	-11.728	-0.197	0.131
-713.718	45.595	-0.252	-0.235
-712.704	-3.421	-0.225	-0.158
-711.689	800.000	-0.108	-0.317
-710.675	54.577	-0.173	0.169
-709.660	10.168	-0.054	-0.041
-708.645	-68.192	-0.266	-0.104
-707.631	142.857	0.063	0.084
-706.616	251.715	0.067	0.116
-705.602	2.204	-0.259	-0.189
-704.587	-130.219	-0.152	0.021
-703.572	800.000	0.062	0.271
-702.558	-82.746	0.186	0.061
-701.543	800.000	0.058	-0.171
-700.529	118.289	-0.216	-0.269
-699.514	-7.400	-0.155	-0.106
-698.499	-129.489	-0.110	-0.015
-697.485	-3.401	0.122	0.086
-696.470	591.951	-0.034	0.084
-695.456	155.056	-0.278	0.385
-694.441	394.728	0.120	0.252
-693.426	369.490	0.056	-0.114
-692.412	-116.882	-0.219	-0.040
-691.397	190.189	-0.109	0.164
-690.383	272.325	0.060	0.107
-689.368	-5.075	0.118	-0.082
-688.354	-200.000	0.046	-0.319
-687.339	12.605	0.221	0.172
-686.324	800.000	0.111	-0.455
-685.310	-200.000	0.043	0.213
-684.295	-111.478	-0.058	-0.012
-683.281	-117.025	-0.544	-0.100
-682.266	-133.449	0.175	-0.022
-681.251	92.233	-0.281	-0.319
-680.237	-39.102	-0.217	0.115
-679.222	13.150	-0.027	0.021
-678.208	42.111	0.080	0.073
-677.193	-83.744	0.091	0.029
-676.178	26.631	-0.119	-0.100
-675.164	800.000	0.073	0.281
-674.149	8.097	0.054	0.041
-673.135	-200.000	0.056	-0.273
-672.120	-93.790	0.221	-0.061
-671.105	-133.499	0.385	-0.049
-670.091	-21.582	-0.106	-0.065
-669.076	-77.124	-0.285	0.100
-668.062	800.000	-0.179	-0.561
-667.047	384.072	0.176	0.364
-666.032	-200.000	-0.004	-0.113
-665.018	14.740	-0.026	-0.021
-664.003	28.828	-0.083	0.071
-662.989	534.292	-0.126	-0.301
-661.974	-42.035	0.051	-0.026
-660.959	73.886	0.222	0.234
-659.945	-29.783	0.202	-0.116
-658.930	138.861	-0.173	-0.229
-657.916	98.571	-0.109	0.127
-656.901	394.557	0.052	-0.109
-655.886	-77.949	-0.174	0.060
-654.872	17.118	-0.071	0.056
-653.857	800.000	-0.064	-0.205
-652.843	255.388	0.155	0.267
-651.828	576.461	0.079	0.194
-650.814	-200.000	-0.025	-0.209
-649.799	-45.148	-0.241	-0.121
-648.784	-84.137	-0.337	-0.108
-647.770	187.068	0.185	-0.277
-646.755	-200.000	0.043	0.212
-645.741	-200.000	0.051	0.359
-644.726	800.000	-0.040	0.155
-643.711	-24.708	-0.320	-0.191
-642.697	776.651	0.078	0.214
-641.682	601.565	0.044	0.110
-640.668	510.158	-0.030	-0.070
-639.653	250.482	-0.155	-0.264
-638.638	-12.678	0.181	0.118
-637.624	10.687	0.263	0.202
-636.609	-59.142	-0.168	-0.073
-635.595	-133.871	-0.268	0.033
-634.580	21.561	-0.210	0.172
-633.565	179.632	0.212	-0.313
-632.551	-162.424	-0.351	-0.017
-631.536	-146.329	-0.272	-0.024
-630.522	68.438	0.233	-0.240
-629.507	119.089	0.191	-0.238
-628.492	172.183	-0.028	0.040
-627.478	671.912	-0.056	0.145
-626.463	101.537	0.141	0.165
-625.449	-4.034	-0.163	0.114
-624.434	-62.176	0.266	0.111
-623.419	-133.082	-0.123	0.016
-622.405	-200.000	-0.006	0.216
-621.390	102.636	-0.155	-0.182
-620.376	60.177	-0.307	-0.305
-619.361	-200.000	-0.008	0.197
-618.346	-46.667	0.139	-0.068
-617.332	135.115	0.094	-0.123
-616.317	800.000	-0.097	-0.306
-615.303	42.838	0.181	-0.165
-614.288	69.531	0.214	0.222
-613.273	57.974	-0.068	-0.067
-612.259	45.535	-0.061	-0.056
-611.244	-55.002	0.263	-0.119
-610.230	-18.945	0.122	0.076
-609.215	-74.292	-0.191	0.069
-608.201	-99.005	0.144	-0.037
-607.186	2.181	-0.303	0.220
-606.171	-57.640	-0.252	-0.111
-605.157	228.630	0.118	-0.193
-604.142	800.000	-0.041	0.112
-603.128	232.891	-0.022	-0.036
-602.113	405.128	-0.079	-0.167
-601.098	-200.000	0.027	0.168
-600.084	-77.507	-0.059	0.021
-599.069	-32.630	-0.181	-0.101
-598.055	-122.035	-0.318	0.052
-597.040	-130.260	-0.271	0.037
-596.025	-73.098	-0.179	-0.066
-595.011	586.380	0.026	0.065
-593.996	-61.906	0.302	-0.127
-592.982	-1.400	-0.267	0.189
-591.967	660.685	-0.076	-0.197
-590.952	641.112	0.049	-0.125
-589.938	-200.000	0.017	-0.196
-588.923	-200.000	-0.028	-0.152
-587.909	549.601	0.017	0.040
-586.894	138.343	0.027	-0.035
-585.879	-28.524	0.225	-0.130
-584.865	344.647	0.214	-0.422
-583.850	800.000	-0.068	0.221
-582.836	53.205	0.286	0.275
-581.821	567.458	0.004	-0.010
-580.806	-54.351	0.029	-0.013
-579.792	126.553	-0.185	0.235
-578.777	91.071	0.214	0.241
-577.763	60.303	0.185	-0.183
-576.748	800.000	-0.027	-0.075
-575.733	-200.000	0.001	-0.003
-574.719	52.976	0.188	0.181
-573.704	508.501	0.164	-0.382
-572.690	259.311	0.236	-0.409
-571.675	128.920	0.219	0.281
-570.661	39.742	-0.159	-0.143
-569.646	-200.000	0.322	-0.001
-568.631	674.772	0.025	-0.065
-567.617	50.182	0.268	0.254
-566.602	-200.000	-0.003	0.265
-565.588	-200.000	0.018	0.244
-564.573	-200.000	-0.023	-0.313
-563.558	-103.620	-0.138	-0.032
-562.544	75.798	-0.270	-0.286
-561.529	-200.000	-0.025	-0.144
-560.515	-84.455	-0.598	0.189
-559.500	800.000	0.098	0.343
-558.485	-124.795	0.407	-0.063
-557.471	57.278	-0.086	-0.084
-556.456	425.167	-0.046	0.099
-555.442	800.000	-0.081	0.255
-554.427	537.354	-0.005	0.011
-553.412	225.674	0.057	0.093
-552.398	-200.000	0.008	0.102
-551.383	-25.974	0.152	0.090
-550.369	-80.721	0.119	0.040
-549.354	728.389	0.133	0.355
-548.339	150.470	0.076	-0.103
-547.325	-140.366	-0.423	0.044
-546.310	-60.591	0.228	-0.097
-545.296	-28.114	0.156	0.090
-544.281	-200.000	-0.035	-0.204
-543.266	-200.000	0.025	-0.155
-542.252	-200.000	0.018	0.107
-541.237	479.949	-0.129	-0.292
-540.223	-4.122	0.063	-0.043
-539.208	391.809	0.015	0.031
-538.193	185.101	0.221	-0.328
-537.179	-50.830	-0.238	0.112
-536.164	-58.308	-0.080	-0.035
-535.150	800.000	0.115	-0.493
-534.135	-142.322	0.115	0.011
-533.121	-200.000	-0.016	0.100
-532.106	-50.376	-0.189	-0.089
-531.091	396.201	0.194	-0.406
-530.077	39.398	0.105	0.094
-529.062	-200.000	0.002	0.028
-528.048	-132.957	0.106	-0.013
-527.033	-45.653	0.088	-0.043
-526.018	152.785	0.097	-0.132
-525.004	-84.621	0.114	0.036
-523.989	16.849	0.216	-0.171
-522.975	-200.000	0.001	-0.222
-521.960	800.000	0.090	-0.387
-520.945	-200.000	-0.014	-0.077
-519.931	-200.000	-0.027	0.462
-518.916	576.202	-0.150	-0.366
-517.902	371.827	-0.109	-0.222
-516.887	76.471	0.168	-0.178
-515.872	727.278	0.083	0.220
-514.858	-78.255	-0.149	-0.051
-513.843	-200.000	0.298	-0.001
-512.829	241.815	-0.083	0.139
-511.814	-68.642	-0.029	-0.011
-510.799	355.226	-0.103	0.204
-509.785	359.156	0.052	0.103
-508.770	377.538	0.061	0.124
-507.756	136.955	0.239	0.313
-506.741	-35.287	-0.146	0.079
-505.726	800.000	-0.033	-0.125
-504.712	-165.973	-0.301	-0.013
-503.697	49.865	-0.176	-0.166
-502.683	-137.419	0.356	-0.040
-501.668	201.647	-0.087	0.134
-500.653	29.661	0.270	0.230
-499.639	-200.000	0.263	-0.001
-498.624	103.212	-0.129	-0.151
-497.610	-5.014	-0.203	-0.140
-496.595	166.679	-0.117	-0.166
-495.581	-116.516	0.358	0.066
-494.566	311.835	-0.212	-0.398
-493.551	-134.469	-0.071	0.009
-492.537	74.727	-0.159	0.167
-491.522	161.168	-0.149	0.209
-490.508	800.000	-0.172	-0.503
-489.493	132.886	-0.174	0.225
-488.478	-81.284	-0.059	0.019
-487.464	266.283	-0.090	0.158
-486.449	106.397	0.020	0.023
-485.435	-32.423	0.043	0.024
-484.420	669.741	0.035	-0.091
-483.405	-153.783	-0.222	-0.015
-482.391	83.045	-0.098	0.106
-481.376	13.344	0.254	0.196
-480.362	787.256	0.062	-0.169
-479.347	80.456	0.093	0.100
-478.332	800.000	0.027	-0.077
-477.318	92.794	-0.090	0.102
-476.303	149.382	0.202	-0.273
-475.289	-200.000	0.044	-0.272
-474.274	55.796	-0.083	-0.080
-473.259	127.025	-0.045	-0.057
-472.245	800.000	-0.061	-0.178
-471.230	125.401	0.058	0.073
-470.216	9.384	0.189	0.143
-469.201	-112.050	0.251	0.050
-468.186	219.530	-0.084	-0.134
-467.172	-200.000	0.030	0.134
-466.157	205.919	-0.184	0.285
-465.143	800.000	0.031	0.085
-464.128	797.165	-0.067	-0.184
-463.113	800.000	0.041	-0.132
-462.099	-52.518	0.290	-0.134
-461.084	-200.000	0.022	-0.099
-460.070	-94.802	-0.046	-0.013
-459.055	-82.068	0.310	0.101
-458.040	-10.959	-0.182	0.120
-457.026	50.667	-0.153	0.144
-456.011	800.000	-0.085	0.279
-454.997	97.555	-0.203	-0.233
-453.982	-106.239	0.343	0.077
-452.968	-200.000	0.088	0.470
-451.953	800.000	-0.016	-0.061
-450.938	766.397	-0.037	0.101
-449.924	-37.480	-0.249	-0.133
-448.909	-158.996	0.245	-0.014
-447.895	800.000	0.081	0.233
-446.880	-38.452	-0.196	0.103
-445.865	-150.313	0.256	0.020
-444.851	-200.000	-0.002	0.194
-443.836	-36.641	0.097	0.052
-442.822	367.270	0.115	-0.231
-441.807	-20.093	0.268	0.165
-440.792	-144.156	0.303	-0.028
-439.778	-45.940	-0.328	-0.162
-438.763	6.748	-0.108	0.080
-437.749	-140.862	-0.151	-0.016
-436.734	-197.819	-0.335	-0.002
-435.719	247.090	-0.138	0.232
-434.705	-200.000	-0.044	-0.347
-433.690	-51.312	-0.244	-0.114
-432.676	-106.400	-0.422	0.094
-431.661	65.253	0.149	-0.151
-430.646	-96.571	0.085	0.022
-429.632	-200.000	-0.020	-0.110
-428.617	-1.368	-0.027	0.019
-427.603	-200.000	-0.005	0.174
-426.588	-200.000	-0.063	-0.317
-425.573	22.377	0.226	-0.184
-424.559	113.260	-0.082	0.099
-423.544	-63.037	0.160	-0.066
-422.530	184.401	-0.045	0.066
-421.515	62.092	-0.087	0.086
-420.500	109.384	0.191	-0.227
-419.486	-200.000	-0.048	0.269
-418.471	195.528	-0.057	-0.086
-417.457	311.406	-0.209	-0.391
-416.442	193.442	0.038	-0.058
-415.428	-200.000	0.024	0.140
-414.413	-32.859	-0.216	0.120
-413.398	12.290	0.200	0.154
-412.384	756.864	0.016	-0.043
-411.369	-200.000	-0.024	-0.295
-410.355	-84.331	-0.196	-0.062
-409.340	36.517	0.189	-0.166
-408.325	-70.435	0.306	0.115
-407.311	29.064	0.090	0.076
-406.296	-107.439	-0.121	0.026
-405.282	-193.260	-0.371	-0.003
-404.267	-200.000	-0.036	-0.200
-403.252	39.353	0.071	0.063
-402.238	49.374	0.255	0.239
-401.223	-118.594	0.496	-0.087
-400.209	6.992	0.116	0.086
-399.194	-21.960	-0.252	-0.152
-398.179	77.725	-0.137	0.145
-397.165	134.342	-0.075	-0.096
-396.150	421.945	0.031	0.067
-395.136	189.759	-0.290	0.434
-394.121	585.585	0.056	0.137
-393.106	-142.082	0.314	-0.031
-392.092	454.392	0.024	0.052
-391.077	135.837	0.121	0.157
-390.063	-65.865	-0.337	0.134
-389.048	-200.000	-0.027	-0.207
-388.033	800.000	-0.054	0.185
-387.019	-145.782	0.241	0.021
-386.004	-200.000	0.016	0.146
-384.990	800.000	0.042	-0.136
-383.975	-143.549	-0.411	-0.039
-382.960	-76.672	-0.069	0.024
-381.946	-8.640	0.145	-0.097
-380.931	-200.000	0.263	0.001
-379.917	25.171	0.156	-0.129
-378.902	-88.135	-0.314	0.094
-377.888	-177.169	0.105	-0.003
-376.873	800.000	-0.057	0.176
-375.858	-111.334	0.222	0.045
-374.844	-101.517	-0.270	0.065
-373.829	-200.000	-0.020	0.201
-372.815	572.895	-0.161	0.390
-371.800	800.000	-0.079	-0.296
-370.785	-46.351	0.098	-0.048
-369.771	-142.300	-0.078	-0.008
-368.756	118.209	-0.078	0.096
-367.742	179.679	-0.159	-0.232
-366.727	-175.488	0.186	-0.005
-365.712	800.000	-0.103	0.350
-364.698	109.360	-0.111	-0.133
-363.683	-13.622	-0.134	0.086
-362.669	-85.797	0.153	0.047
-361.654	106.906	0.069	0.082
-360.639	248.511	0.112	-0.188
-359.625	99.546	0.105	-0.121
-358.610	-61.551	-0.336	-0.140
-357.596	15.057	-0.213	0.166
-356.581	-5.836	0.307	0.209
-355.566	9.134	0.203	0.153
-354.552	353.453	-0.057	-0.112
-353.537	800.000	-0.076	-0.264
-352.523	800.000	0.084	-0.309
-351.508	-200.000	0.350	-0.001
-350.493	-200.000	0.038	-0.355
-349.479	-200.000	-0.011	-0.179
-348.464	-49.029	-0.184	-0.087
-347.450	-200.000	0.048	0.232
-346.435	-92.164	-0.063	-0.018
-345.420	-200.000	-0.013	0.108
-344.406	-64.478	-0.281	0.113
-343.391	-200.000	0.012	0.263
-342.377	187.607	-0.114	-0.169
-341.362	-129.695	-0.162	-0.022
-340.348	18.343	0.135	-0.107
-339.333	-200.000	0.005	-0.338
-338.318	506.699	-0.091	0.209
-337.304	182.581	-0.171	-0.250
-336.289	-111.561	0.125	0.025
-335.275	-128.629	-0.339	-0.048
-334.260	-122.595	0.239	0.039
-333.245	37.739	0.140	0.124
-332.231	47.385	0.031	0.028
-331.216	-88.432	-0.641	0.190
-330.202	-200.000	-0.057	0.268
-329.187	-79.459	-0.058	0.019
-328.172	-40.551	-0.176	0.091
-327.158	386.364	0.126	-0.258
-326.143	66.965	-0.081	-0.082
-325.129	65.295	0.132	-0.132
-324.114	119.364	-0.063	0.077
-323.099	-37.267	0.124	-0.066
-322.085	-21.348	0.033	-0.020
-321.070	301.782	-0.071	-0.130
-320.056	-86.031	-0.086	0.026
-319.041	-42.939	-0.289	0.146
-318.026	151.112	0.192	0.259
-317.012	156.060	0.171	0.234
-315.997	125.633	-0.096	0.121
-314.983	117.755	0.090	-0.110
-313.968	800.000	-0.023	-0.068
-312.953	-52.453	0.064	-0.030
-311.939	-96.733	-0.106	0.028
-310.924	467.790	-0.100	-0.224
-309.910	-200.000	0.003	0.028
-308.895	249.233	-0.060	-0.101
-307.880	-124.613	0.193	0.030
-306.866	-58.142	0.321	-0.139
-305.851	1.680	0.298	-0.213
-304.837	-200.000	-0.010	-0.050
-303.822	-200.000	0.040	0.348
-302.807	85.474	-0.045	0.049
-301.793	84.365	0.052	0.056
-300.778	-75.583	-0.275	0.097
-299.764	172.664	0.097	-0.138
-298.749	421.596	0.025	0.054
-297.735	-16.485	-0.223	0.140
-296.720	266.409	-0.113	-0.195
-295.705	-191.308	-0.324	0.003
-294.691	17.343	0.354	-0.279
-293.676	717.277	-0.061	0.160
-292.662	79.749	0.245	0.261
-291.647	-200.000	-0.018	-0.107
-290.632	-98.273	-0.297	-0.076
-289.618	-162.264	-0.564	0.028
-288.603	17.006	0.250	-0.196
-287.589	115.801	-0.104	0.126
-286.574	-121.861	0.277	0.045
-285.559	-200.000	-0.038	0.169
-284.545	-176.811	-0.386	-0.010
-283.530	-200.000	0.053	0.366
-282.516	-200.000	0.023	0.453
-281.501	48.216	0.015	0.014
-280.486	142.096	0.054	-0.071
-279.472	51.792	-0.161	0.152
-278.457	6.485	-0.146	0.108
-277.443	280.492	0.200	0.354
-276.428	-133.764	0.259	-0.032
-275.413	-172.529	0.279	-0.009
-274.399	-86.509	-0.334	0.102
-273.384	259.325	0.117	0.200
-272.370	153.414	-0.038	-0.051
-271.355	30.473	0.216	0.183
-270.340	400.943	-0.058	-0.120
-269.326	7.121	-0.097	0.072
-268.311	-200.000	0.002	0.683
-267.297	491.525	0.170	0.387
-266.282	-65.072	0.116	-0.046
-265.267	-200.000	0.064	0.369
-264.253	-200.000	-0.115	-0.631
-263.238	157.652	0.165	-0.226
-262.224	316.672	-0.217	0.406
-261.209	-93.525	-0.230	-0.063
-260.195	-200.000	0.066	-0.295
-259.180	134.288	0.109	0.140
-258.165	16.529	-0.237	-0.186
-257.151	800.000	-0.115	0.321
-256.136	-30.445	0.044	0.025
-255.122	-200.000	-0.003	0.154
-254.107	-47.012	0.221	0.107
-253.092	-126.592	-0.248	0.036
-252.078	-72.142	0.159	-0.059
-251.063	-200.000	-0.048	-0.362
-250.049	-200.000	-0.001	-0.039
-249.034	-136.677	-0.074	-0.008
-248.019	-176.145	-0.213	0.006
-247.005	800.000	0.041	-0.172
-245.990	-117.444	-0.184	0.033
-244.976	631.795	0.027	-0.067
-243.961	391.742	0.084	0.172
-242.946	-200.000	0.042	-0.238
-241.932	-30.366	0.184	-0.103
-240.917	-64.057	0.311	-0.126
-239.903	-69.265	-0.443	-0.169
-238.888	214.660	0.061	0.095
-237.873	397.317	0.002	0.004
-236.859	-70.265	0.201	0.076
-235.844	-142.181	0.137	-0.013
-234.830	-61.830	0.120	0.050
-233.815	300.712	-0.019	0.034
-232.800	-200.000	-0.061	0.311
-231.786	800.000	-0.013	-0.047
-230.771	-138.268	0.145	-0.016
-229.757	-81.995	0.280	0.090
-228.742	-101.731	0.058	0.014
-227.727	-10.280	0.220	-0.144
-226.713	-23.946	-0.403	-0.239
-225.698	-57.143	0.229	-0.100
-224.684	-101.975	-0.337	0.080
-223.669	-65.593	0.316	0.125
-222.655	-63.847	-0.132	0.053
-221.640	38.842	0.175	0.154
-220.625	-81.521	-0.081	0.026
-219.611	-66.590	0.182	0.071
-218.596	-150.971	0.264	-0.020
-217.582	135.508	0.133	0.171
-216.567	-19.908	0.098	0.060
-215.552	-67.145	0.205	0.080
-214.538	155.660	0.112	-0.152
-213.523	-102.653	0.203	0.048
-212.509	421.946	0.124	0.264
-211.494	37.595	0.021	-0.018
-210.479	-61.400	-0.309	-0.129
-209.465	-100.784	-0.298	0.073
-208.450	-200.000	-0.011	0.164
-207.436	-80.125	0.069	-0.023
-206.421	108.234	0.141	-0.166
-205.406	-96.594	0.296	0.077
-204.392	303.050	-0.137	-0.250
-203.377	53.601	-0.069	0.065
-202.363	70.405	0.217	0.222
-201.348	-43.894	-0.408	0.203
-200.333	22.707	0.311	-0.252
-199.319	214.617	-0.167	0.262
-198.304	-24.273	-0.160	0.094
-197.290	-143.415	0.294	-0.028
-196.275	147.171	0.230	-0.305
-195.260	-130.842	-0.250	-0.033
-194.246	181.758	0.220	-0.321
-193.231	-31.470	0.155	0.086
-192.217	-200.000	0.015	-0.080
-191.202	-200.000	-0.029	0.191
-190.187	-200.000	0.001	-0.016
-189.173	-33.478	-0.180	0.098
-188.158	243.636	-0.015	-0.025
-187.144	581.228	0.044	0.107
-186.129	-160.441	-0.118	0.006
-185.114	-56.822	0.164	-0.072
-184.100	44.568	-0.142	-0.129
-183.085	-200.000	-0.004	-0.074
-182.071	-200.000	-0.050	-0.252
-181.056	199.872	-0.163	-0.248
-180.042	-103.166	0.198	-0.046
-179.027	430.776	0.022	-0.046
-178.012	30.931	-0.075	-0.063
-176.998	-163.648	0.193	-0.009
-175.983	56.368	0.023	0.022
-174.969	800.000	-0.073	-0.228
-173.954	228.989	-0.139	-0.224
-172.939	-69.918	0.286	0.108
-171.925	-30.300	-0.270	0.151
-170.910	-66.132	-0.205	-0.081
-169.896	191.344	0.076	0.112
-168.881	99.786	-0.145	-0.166
-167.866	69.467	-0.242	-0.246
-166.852	-43.961	-0.224	0.111
-165.837	800.000	0.037	-0.111
-164.823	-67.790	-0.058	0.022
-163.808	735.144	0.122	0.322
-162.793	686.338	0.142	-0.367
-161.779	-138.839	0.447	0.048
-160.764	-200.000	0.078	0.373
-159.750	-92.793	-0.088	0.024
-158.735	-107.208	0.175	-0.038
-157.720	628.064	0.011	0.028
-156.706	800.000	-0.058	0.194
-155.691	111.630	-0.045	-0.054
-154.677	-138.065	-0.398	0.044
-153.662	769.248	0.138	-0.371
-152.647	102.570	-0.150	-0.173
-151.633	112.636	-0.121	0.145
-150.618	800.000	0.029	0.126
-149.604	27.320	-0.071	0.058
-148.589	-200.000	-0.006	-0.058
-147.574	-54.660	0.375	0.167
-146.560	15.329	0.068	0.052
-145.545	-83.200	-0.206	0.065
-144.531	244.102	-0.192	-0.318
-143.516	-50.614	0.246	0.114
-142.502	-200.000	-0.026	-0.237
-141.487	-139.723	0.100	-0.011
-140.472	-44.097	0.344	0.170
-139.458	-104.471	0.052	-0.012
-138.443	-200.000	0.044	0.199
-137.429	-200.000	0.007	0.132
-136.414	-45.034	-0.272	0.133
-135.399	-200.000	0.011	-0.155
-134.385	-116.474	0.500	-0.091
-133.370	-14.420	-0.238	0.151
-132.356	110.922	-0.113	0.134
-131.341	800.000	-0.086	0.354
-130.326	-56.111	-0.079	-0.035
-129.312	32.694	-0.161	0.137
-128.297	104.230	0.174	0.201
-127.283	67.750	0.178	0.180
-126.268	-141.777	-0.164	-0.016
-125.253	-200.000	0.033	-0.265
-124.239	-14.030	0.174	0.111
-123.224	-103.975	0.118	0.027
-122.210	-46.234	-0.259	0.126
-121.195	-200.000	0.001	0.136
-120.180	-97.090	-0.093	0.024
