DTS Sentinel unit serial number:	SN413079Multiplexer serial number:	ORYXHardware model number:	OX4-SRSoftware version number:	ORYX F/W v4.00 Oryx Data Collector v3.7.2.0data status	okinstallation	princeton_trtdifferential loss correction	single-endedforward channel	channel 3reverse channel	N/Adate	2019/09/12time	07:10:10forward acquisition time	60.00reverse acquisition time	0.00gamma	496.2192k internal	0.2320k external	0.2320temperature offset calibration	1.0034default loss term (dB/km)	0.3790temperature slope calibration	1.0000multiplexer offset coefficient	1.0000multiplexer slope coefficient	1.0000fibre end	0.00T internal ref (°C)	32.19T ext. ref 1 (°C)	1.62T ext. ref 2 (°C)	27.88length (m)	temperature (°C)	Stokes	anti-Stokes-747.200	-0.333	-0.087	-0.063
-746.185	20.246	-0.174	-0.142
-745.171	-200.000	-0.047	0.208
-744.156	800.000	0.055	0.234
-743.142	627.283	-0.044	0.113
-742.127	-63.329	-0.391	0.163
-741.112	-200.000	-0.081	0.428
-740.098	-119.260	-0.470	0.083
-739.083	-200.000	0.083	-0.372
-738.069	12.342	-0.086	0.067
-737.054	-141.555	0.461	0.047
-736.039	123.490	0.137	-0.174
-735.025	12.071	0.323	-0.251
-734.010	800.000	-0.083	-0.256
-732.996	-200.000	0.020	-0.161
-731.981	593.208	0.061	-0.152
-730.966	-200.000	0.067	0.000
-729.952	-200.000	-0.043	0.194
-728.937	800.000	-0.080	0.270
-727.923	150.218	-0.111	-0.152
-726.908	239.693	-0.036	-0.061
-725.894	97.084	0.276	-0.320
-724.879	0.453	0.203	-0.147
-723.864	-100.779	-0.297	0.074
-722.850	-25.321	0.061	0.036
-721.835	364.655	-0.092	0.187
-720.821	-54.894	-0.025	-0.012
-719.806	-158.526	-0.126	-0.007
-718.791	-89.520	-0.165	-0.049
-717.777	-155.053	0.205	0.014
-716.762	608.270	-0.145	-0.366
-715.748	-5.601	0.146	0.101
-714.733	210.376	-0.054	0.085
-713.718	59.340	0.008	-0.008
-712.704	-30.692	-0.038	0.022
-711.689	27.035	0.172	-0.146
-710.675	115.094	-0.267	-0.329
-709.660	-65.533	-0.279	-0.113
-708.645	384.068	0.107	-0.223
-707.631	158.251	-0.165	0.231
-706.616	-200.000	0.021	0.141
-705.602	488.057	-0.125	-0.287
-704.587	-103.823	-0.257	-0.061
-703.572	-200.000	-0.009	0.191
-702.558	-192.874	-0.121	0.001
-701.543	288.405	-0.248	-0.454
-700.529	-200.000	-0.053	0.356
-699.514	-135.455	-0.169	-0.020
-698.499	15.705	0.142	-0.113
-697.485	-162.162	0.177	-0.009
-696.470	211.811	-0.154	-0.245
-695.456	-200.000	0.003	0.275
-694.441	-153.361	-0.324	0.023
-693.426	-200.000	0.061	0.419
-692.412	-74.989	0.311	0.112
-691.397	-16.861	-0.235	-0.150
-690.383	511.315	0.095	-0.224
-689.368	-200.000	0.010	-0.062
-688.354	-69.372	-0.209	-0.081
-687.339	-34.013	-0.101	0.056
-686.324	389.613	-0.096	-0.201
-685.310	-200.000	-0.042	-0.562
-684.295	-200.000	-0.068	-0.476
-683.281	-131.290	0.293	-0.039
-682.266	800.000	0.081	-0.231
-681.251	-16.500	-0.222	-0.142
-680.237	55.402	-0.085	0.083
-679.222	800.000	0.076	-0.278
-678.208	-169.134	-0.204	-0.008
-677.193	749.291	0.061	0.165
-676.178	-70.423	-0.217	-0.083
-675.164	509.399	-0.033	-0.077
-674.149	198.057	-0.042	-0.065
-673.135	90.092	-0.139	0.157
-672.120	56.255	0.157	0.153
-671.105	-159.738	0.199	-0.011
-670.091	480.590	-0.053	0.120
-669.076	-200.000	0.020	0.135
-668.062	-57.460	-0.158	-0.070
-667.047	-104.060	0.302	0.071
-666.032	465.133	0.076	0.171
-665.018	-94.080	-0.294	-0.081
-664.003	800.000	0.059	-0.208
-662.989	393.789	0.058	-0.123
-661.974	115.533	0.183	0.225
-660.959	532.389	0.098	-0.233
-659.945	288.890	-0.130	-0.237
-658.930	-149.162	0.054	-0.004
-657.916	800.000	-0.062	-0.176
-656.901	-138.800	-0.210	-0.023
-655.886	47.708	-0.241	-0.227
-654.872	1.283	0.231	0.167
-653.857	-117.601	-0.105	-0.019
-652.843	634.172	-0.094	0.241
-651.828	135.908	-0.320	-0.420
-650.814	-200.000	0.016	-0.205
-649.799	-101.620	-0.197	0.048
-648.784	-200.000	0.044	-0.264
-647.770	-105.506	0.111	-0.025
-646.755	102.103	0.192	-0.226
-645.741	-84.749	-0.129	0.041
-644.726	114.282	0.084	-0.103
-643.711	45.132	-0.107	-0.099
-642.697	-200.000	0.002	0.196
-641.682	-94.246	-0.211	0.058
-640.668	-151.238	-0.174	0.013
-639.653	-94.781	0.214	-0.059
-638.638	-186.280	0.309	-0.005
-637.624	-106.676	-0.100	0.022
-636.609	-200.000	-0.011	0.055
-635.595	-113.504	-0.030	0.006
-634.580	-92.960	0.209	0.059
-633.565	-49.466	0.078	0.037
-632.551	800.000	0.092	-0.283
-631.536	-80.941	-0.480	0.160
-630.522	-107.522	-0.290	0.064
-629.507	-200.000	-0.042	-0.220
-628.492	179.929	0.161	-0.238
-627.478	-43.865	-0.076	0.038
-626.463	336.099	-0.189	0.369
-625.449	661.550	0.081	-0.210
-624.434	-91.781	-0.211	-0.060
-623.419	-156.029	0.217	0.014
-622.405	-27.525	0.134	-0.078
-621.390	-200.000	-0.003	-0.110
-620.376	-159.747	0.186	-0.010
-619.361	-200.000	0.002	0.012
-618.346	-98.260	-0.335	-0.087
-617.332	571.092	0.068	-0.167
-616.317	-148.959	-0.326	0.026
-615.303	6.714	-0.108	0.081
-614.288	-57.575	-0.109	0.048
-613.273	800.000	0.091	0.360
-612.259	-200.000	-0.015	-0.108
-611.244	-0.227	-0.113	-0.081
-610.230	-24.279	-0.247	-0.148
-609.215	-200.000	0.042	-0.304
-608.201	-200.000	0.005	0.111
-607.186	-141.445	-0.283	0.029
-606.171	-80.468	0.215	-0.072
-605.157	-8.510	-0.188	0.127
-604.142	-200.000	0.009	0.106
-603.128	-200.000	-0.018	0.397
-602.113	-8.048	-0.074	0.051
-601.098	-70.174	0.135	0.052
-600.084	-12.913	-0.038	-0.025
-599.069	-93.510	-0.194	-0.054
-598.055	-200.000	-0.017	-0.398
-597.040	3.474	-0.046	-0.034
-596.025	228.840	0.153	0.251
-595.011	552.670	0.047	0.114
-593.996	-24.302	0.258	-0.155
-592.982	223.122	0.074	-0.120
-591.967	800.000	-0.051	-0.149
-590.952	140.541	-0.067	-0.089
-589.938	-58.085	0.314	-0.138
-588.923	260.582	0.194	-0.337
-587.909	-200.000	0.025	-0.275
-586.894	-18.446	-0.153	-0.096
-585.879	-117.552	0.187	-0.034
-584.865	225.352	-0.147	-0.239
-583.850	42.322	0.174	-0.159
-582.836	-125.267	0.090	-0.014
-581.821	438.856	0.035	0.078
-580.806	-200.000	-0.021	-0.288
-579.792	-159.040	-0.418	0.024
-578.777	-142.637	-0.119	-0.012
-577.763	800.000	0.066	-0.244
-576.748	-42.613	-0.461	-0.236
-575.733	-3.670	-0.129	0.090
-574.719	-167.720	0.106	-0.004
-573.704	-200.000	-0.024	-0.217
-572.690	-26.812	-0.088	-0.051
-571.675	554.434	0.051	-0.124
-570.661	60.847	-0.068	0.067
-569.646	-200.000	0.006	-0.068
-568.631	800.000	-0.031	0.086
-567.617	111.667	-0.111	-0.135
-566.602	143.685	0.134	-0.179
-565.588	302.823	-0.135	-0.251
-564.573	-60.710	0.180	-0.077
-563.558	55.073	0.211	-0.205
-562.544	-200.000	0.021	-0.111
-561.529	-15.426	0.155	0.100
-560.515	-200.000	-0.025	0.231
-559.500	18.377	-0.204	-0.164
-558.485	-89.909	-0.153	0.045
-557.471	309.462	-0.193	0.363
-556.456	621.739	0.238	0.602
-555.442	-41.638	-0.289	-0.149
-554.427	124.855	0.230	-0.291
-553.412	234.432	0.120	0.198
-552.398	452.328	-0.071	0.158
-551.383	1.221	-0.235	0.169
-550.369	800.000	-0.079	0.222
-549.354	800.000	-0.050	-0.151
-548.339	-21.841	0.323	0.197
-547.325	-52.428	-0.063	0.029
-546.310	800.000	-0.022	0.082
-545.296	-200.000	0.033	0.150
-544.281	120.862	0.100	0.125
-543.266	537.263	-0.071	-0.169
-542.252	-113.248	0.047	-0.009
-541.237	270.162	0.162	0.286
-540.223	239.083	0.108	-0.181
-539.208	209.127	-0.117	0.184
-538.193	800.000	-0.065	-0.248
-537.179	296.724	0.099	0.182
-536.164	800.000	-0.044	-0.156
-535.150	-91.525	-0.269	-0.077
-534.135	800.000	-0.043	0.145
-533.121	25.984	-0.031	-0.026
-532.106	15.017	0.295	0.232
-531.091	617.736	-0.056	0.142
-530.077	101.117	-0.126	-0.147
-529.062	-26.049	-0.024	0.014
-528.048	66.485	-0.133	-0.135
-527.033	1.063	0.313	0.225
-526.018	153.128	0.093	-0.127
-525.004	-53.135	0.103	-0.048
-523.989	-82.757	-0.195	0.063
-522.975	228.137	0.071	-0.117
-521.960	-151.875	-0.385	0.028
-520.945	-200.000	-0.066	0.491
-519.931	37.321	0.099	0.088
-518.916	-158.268	0.460	-0.027
-517.902	471.769	-0.072	0.163
-516.887	511.157	-0.075	0.176
-515.872	-72.096	0.320	0.119
-514.858	-41.141	-0.049	-0.026
-513.843	-200.000	0.028	0.220
-512.829	-128.594	0.055	-0.008
-511.814	-80.337	-0.101	0.034
-510.799	-97.992	0.284	-0.073
-509.785	-200.000	-0.042	0.407
-508.770	-16.324	0.165	0.105
-507.756	-11.308	0.162	-0.107
-506.741	-113.962	-0.173	0.034
-505.726	-150.732	0.131	0.010
-504.712	434.980	0.047	0.102
-503.697	-43.459	0.222	-0.112
-502.683	-52.414	0.221	0.103
-501.668	91.651	0.211	-0.238
-500.653	-174.753	-0.280	-0.008
-499.639	592.066	-0.165	0.408
-498.624	184.374	-0.131	0.195
-497.610	-61.876	-0.160	-0.067
-496.595	-125.838	-0.213	0.032
-495.581	800.000	-0.119	-0.416
-494.566	-200.000	0.012	-0.086
-493.551	247.540	0.110	-0.186
-492.537	-66.090	0.147	0.059
-491.522	-134.527	0.249	-0.030
-490.508	5.436	-0.173	-0.128
-489.493	313.622	-0.038	0.072
-488.478	564.036	0.155	-0.375
-487.464	-94.543	-0.269	0.073
-486.449	-68.448	-0.244	-0.095
-485.435	-103.885	-0.086	0.020
-484.420	77.205	-0.095	0.101
-483.405	613.790	0.039	0.097
-482.391	-200.000	0.021	0.158
-481.376	295.786	0.032	0.059
-480.362	28.469	-0.365	0.309
-479.347	79.566	0.235	0.253
-478.332	115.803	-0.075	-0.092
-477.318	102.150	-0.154	-0.180
-476.303	800.000	-0.028	-0.098
-475.289	220.115	-0.021	-0.034
-474.274	800.000	-0.014	-0.041
-473.259	-200.000	0.014	-0.121
-472.245	195.420	0.086	-0.130
-471.230	-35.666	0.197	-0.107
-470.216	-6.593	-0.285	0.194
-469.201	-139.703	0.353	-0.038
-468.186	-1.439	-0.117	-0.083
-467.172	-200.000	-0.006	0.046
-466.157	-48.483	0.171	0.082
-465.143	-149.231	0.504	0.040
-464.128	-20.563	0.093	0.057
-463.113	53.930	0.197	-0.189
-462.099	-63.093	-0.254	0.105
-461.084	-60.607	0.152	-0.064
-460.070	-33.163	-0.034	-0.019
-459.055	-44.986	0.035	0.017
-458.040	693.543	0.093	-0.243
-457.026	800.000	-0.030	0.089
-456.011	330.721	-0.128	-0.246
-454.997	800.000	-0.047	0.192
-453.982	5.123	-0.243	-0.179
-452.968	-4.458	0.493	-0.341
-451.953	87.579	-0.147	-0.163
-450.938	-82.305	-0.096	-0.031
-449.924	1.855	0.034	-0.024
-448.909	-5.404	0.049	0.034
-447.895	-15.101	0.193	0.123
-446.880	-17.195	0.330	-0.208
-445.865	-200.000	-0.419	-0.001
-444.851	800.000	-0.135	0.412
-443.836	-200.000	-0.026	0.499
-442.822	-200.000	0.036	0.273
-441.807	-47.208	0.187	0.091
-440.792	-48.343	0.275	0.133
-439.778	-200.000	-0.033	0.241
-438.763	130.634	0.046	0.058
-437.749	28.793	-0.238	0.202
-436.734	-200.000	-0.012	-0.297
-435.719	54.361	-0.144	0.139
-434.705	319.515	0.027	-0.051
-433.690	-106.923	0.222	-0.049
-432.676	-200.000	0.000	0.128
-431.661	47.348	0.093	-0.086
-430.646	80.063	0.085	0.091
-429.632	419.849	-0.049	0.105
-428.617	256.867	0.155	-0.266
-427.603	-45.151	-0.095	-0.047
-426.588	-200.000	0.032	0.413
-425.573	-107.835	0.114	-0.025
-424.559	-83.796	-0.085	-0.027
-423.544	-111.326	0.187	-0.038
-422.530	-128.579	-0.073	0.010
-421.515	-200.000	-0.082	-0.365
-420.500	-36.568	0.407	-0.219
-419.486	-69.739	-0.224	-0.086
-418.471	256.303	-0.107	-0.183
-417.457	82.261	-0.204	-0.221
-416.442	241.916	-0.133	0.222
-415.428	-200.000	0.003	0.221
-414.413	-156.798	0.192	-0.012
-413.398	126.037	0.175	0.221
-412.384	-200.000	-0.019	0.089
-411.369	-132.348	-0.119	-0.015
-410.355	-200.000	-0.004	0.328
-409.340	-200.000	0.035	0.181
-408.325	-23.905	0.209	-0.125
-407.311	-167.846	0.224	-0.009
-406.296	114.473	-0.019	0.024
-405.282	129.134	-0.085	-0.108
-404.267	223.322	-0.309	-0.497
-403.252	-171.512	-0.136	-0.005
-402.238	-65.664	0.058	-0.023
-401.223	8.256	-0.165	-0.123
-400.209	-200.000	-0.053	0.303
-399.194	-49.138	0.151	0.072
-398.179	800.000	-0.037	-0.103
-397.165	800.000	-0.068	-0.286
-396.150	-44.323	-0.147	0.073
-395.136	-200.000	-0.008	-0.191
-394.121	-65.182	-0.090	-0.036
-393.106	-149.657	-0.380	-0.030
-392.092	-126.677	-0.097	0.014
-391.077	800.000	0.088	0.263
-390.063	800.000	-0.058	0.203
-389.048	-170.117	0.296	0.010
-388.033	-23.517	0.237	0.142
-387.019	-200.000	-0.012	-0.076
-386.004	228.457	-0.123	0.199
-384.990	800.000	-0.048	0.144
-383.975	-20.963	-0.192	0.117
-382.960	800.000	0.080	-0.251
-381.946	133.653	0.087	-0.112
-380.931	-4.973	0.008	0.006
-379.917	167.342	0.083	0.117
-378.902	17.816	-0.226	0.179
-377.888	-200.000	0.021	0.162
-376.873	800.000	0.015	-0.054
-375.858	9.936	-0.112	-0.085
-374.844	800.000	0.067	0.218
-373.829	-69.644	0.425	0.162
-372.815	-86.528	0.297	0.091
-371.800	111.845	0.172	-0.208
-370.785	-200.000	-0.076	-0.358
-369.771	800.000	0.031	0.128
-368.756	-98.247	-0.135	-0.035
-367.742	800.000	-0.012	-0.043
-366.727	356.716	0.115	0.229
-365.712	246.409	0.026	0.044
-364.698	-200.000	0.011	0.063
-363.683	-14.917	0.124	0.079
-362.669	800.000	0.044	0.165
-361.654	-20.327	-0.165	0.101
-360.639	-58.374	0.079	-0.034
-359.625	-200.000	0.012	-0.061
-358.610	-120.398	0.023	0.004
-357.596	-137.272	0.196	0.022
-356.581	28.235	0.103	0.087
-355.566	261.403	-0.205	0.354
-354.552	-200.000	-0.015	0.074
-353.537	-181.135	0.153	0.003
-352.523	-78.964	-0.374	0.127
-351.508	-92.279	-0.110	-0.031
-350.493	800.000	0.096	0.309
-349.479	664.937	0.075	0.192
-348.464	69.265	0.090	0.093
-347.450	232.962	-0.123	-0.201
-346.435	800.000	-0.049	-0.176
-345.420	-3.911	0.178	-0.123
-344.406	410.605	-0.151	-0.320
-343.391	-30.095	0.177	0.100
-342.377	-200.000	-0.005	-0.065
-341.362	-200.000	0.008	-0.131
-340.348	-155.748	0.236	-0.015
-339.333	-200.000	-0.030	0.234
-338.318	70.342	-0.110	0.113
-337.304	90.750	-0.117	0.131
-336.289	-61.823	0.263	0.110
-335.275	-49.546	-0.366	0.174
-334.260	-138.125	0.168	-0.019
-333.245	-200.000	0.026	-0.256
-332.231	-200.000	0.038	0.245
-331.216	800.000	-0.056	-0.232
-330.202	41.342	0.033	-0.030
-329.187	-97.553	0.086	-0.022
-328.172	182.069	0.067	0.098
-327.158	-200.000	-0.083	-0.615
-326.143	-73.524	0.529	-0.192
-325.129	-200.000	-0.074	0.378
-324.114	426.729	-0.123	-0.264
-323.099	-32.135	-0.181	-0.100
-322.085	30.695	-0.264	0.225
-321.070	256.449	-0.042	0.071
-320.056	-43.112	0.310	-0.156
-319.041	127.874	-0.149	-0.188
-318.026	3.004	0.262	-0.189
-317.012	362.712	0.012	0.025
-315.997	-137.412	-0.323	-0.036
-314.983	372.566	0.078	-0.157
-313.968	-200.000	0.034	0.186
-312.953	-200.000	0.000	0.045
-311.939	-109.451	-0.328	0.069
-310.924	43.196	-0.065	0.059
-309.910	4.071	-0.059	0.043
-308.895	40.868	-0.083	0.075
-307.880	-150.268	-0.287	0.022
-306.866	784.274	0.071	-0.192
-305.851	144.569	-0.088	0.117
-304.837	-19.009	-0.313	0.193
-303.822	131.768	-0.184	0.235
-302.807	-71.549	-0.136	0.050
-301.793	-133.501	-0.110	0.014
-300.778	800.000	-0.068	-0.282
-299.764	81.780	0.154	-0.165
-298.749	-50.850	-0.130	0.061
-297.735	-200.000	0.091	0.424
-296.720	-200.000	0.072	0.342
-295.705	249.798	-0.112	-0.190
-294.691	-200.000	0.040	-0.199
-293.676	-90.023	-0.121	0.035
-292.662	-200.000	0.249	-0.001
-291.647	120.575	-0.070	0.087
-290.632	316.031	-0.183	-0.343
-289.618	123.079	0.021	0.026
-288.603	68.773	-0.107	0.109
-287.589	-0.064	0.124	-0.088
-286.574	39.413	-0.086	0.076
-285.559	52.933	0.185	0.176
-284.545	45.476	0.043	-0.040
-283.530	-200.000	-0.008	-0.034
-282.516	-200.000	0.018	-0.300
-281.501	-200.000	0.026	-0.118
-280.486	173.269	0.159	-0.227
-279.472	-31.483	-0.120	-0.067
-278.457	-77.585	0.269	0.092
-277.443	291.963	-0.084	-0.151
-276.428	800.000	0.046	0.184
-275.413	800.000	0.092	0.286
-274.399	37.987	0.024	-0.022
-273.384	745.122	-0.007	-0.020
-272.370	-154.637	-0.100	-0.007
-271.355	-93.654	0.325	0.089
-270.340	-16.392	-0.151	-0.095
-269.326	-112.324	-0.130	-0.026
-268.311	-80.044	-0.128	0.043
-267.297	69.378	-0.111	-0.113
-266.282	-200.000	0.022	0.407
-265.267	-95.951	0.101	-0.027
-264.253	-4.409	0.272	0.186
-263.238	-117.032	0.063	0.011
-262.224	-148.001	-0.172	0.014
-261.209	262.969	-0.019	0.033
-260.195	89.855	-0.068	-0.075
-259.180	800.000	-0.067	-0.225
-258.165	27.123	-0.178	0.148
-257.151	136.276	-0.062	0.080
-256.136	-200.000	-0.022	-0.258
-255.122	-118.451	-0.164	0.029
-254.107	152.166	-0.079	0.107
-253.092	-200.000	0.030	-0.178
-252.078	-200.000	-0.069	-0.400
-251.063	481.841	-0.084	0.190
-250.049	19.921	-0.142	0.113
-249.034	189.076	-0.009	0.014
-248.019	-55.246	0.130	-0.058
-247.005	-119.057	-0.196	0.034
-245.990	491.783	-0.066	0.149
-244.976	468.790	-0.066	-0.147
-243.961	-200.000	0.073	-0.337
-242.946	-129.715	0.469	0.064
-241.932	-157.603	0.467	-0.028
-240.917	-56.451	0.345	0.152
-239.903	45.805	0.172	-0.158
-238.888	-38.213	0.230	0.121
-237.873	4.129	0.074	0.054
-236.859	-200.000	-0.009	0.147
-235.844	252.138	-0.123	0.207
-234.830	407.136	-0.044	0.092
-233.815	207.733	-0.152	0.236
-232.800	83.840	0.085	-0.092
-231.786	-138.871	-0.108	-0.012
-230.771	-200.000	-0.007	-0.283
-229.757	36.021	0.249	-0.217
-228.742	-200.000	0.010	0.244
-227.727	-117.209	0.200	-0.036
-226.713	800.000	-0.012	0.038
-225.698	501.700	0.125	0.286
-224.684	305.065	-0.161	0.297
-223.669	-200.000	-0.007	-0.256
-222.655	-101.727	0.224	0.054
-221.640	448.519	0.040	0.088
-220.625	-24.980	-0.085	-0.050
-219.611	-19.131	-0.412	0.254
-218.596	51.015	0.083	0.078
-217.582	-141.173	-0.359	0.036
-216.567	-103.318	0.275	-0.064
-215.552	800.000	0.043	-0.184
-214.538	-200.000	-0.024	-0.227
-213.523	-24.581	0.103	0.061
-212.509	138.467	-0.119	-0.154
-211.494	274.256	-0.179	-0.314
-210.479	-80.204	0.234	-0.077
-209.465	800.000	0.001	-0.005
-208.450	800.000	0.064	0.178
-207.436	52.797	0.068	-0.064
-206.421	255.822	-0.100	0.170
-205.406	-185.723	-0.094	0.001
-204.392	-38.889	0.130	-0.068
-203.377	103.983	-0.121	0.141
-202.363	-34.383	0.298	0.162
-201.348	-200.000	0.014	0.148
-200.333	-124.434	-0.535	0.083
-199.319	800.000	-0.061	0.168
-198.304	-200.000	0.006	-0.031
-197.290	-97.771	0.042	0.011
-196.275	-73.904	0.208	0.075
-195.260	-200.000	0.035	-0.182
-194.246	33.971	0.243	-0.210
-193.231	800.000	0.067	-0.193
-192.217	511.081	0.097	-0.223
-191.202	-200.000	-0.257	0.001
-190.187	27.070	-0.188	-0.156
-189.173	6.611	0.068	0.050
-188.158	400.282	-0.205	0.425
-187.144	210.020	-0.208	0.323
-186.129	800.000	0.091	-0.289
-185.114	340.447	0.134	-0.259
-184.100	-74.144	-0.237	-0.085
-183.085	227.955	-0.112	-0.180
-182.071	-6.920	0.274	-0.184
-181.056	-171.808	0.350	0.011
-180.042	-31.367	0.272	-0.151
-179.027	479.555	-0.096	0.215
-178.012	-50.463	-0.068	0.032
-176.998	-164.974	-0.183	-0.008
-175.983	-120.150	0.215	-0.036
-174.969	780.085	-0.086	-0.232
-173.954	322.109	0.035	-0.067
-172.939	-110.264	0.166	0.034
-171.925	-33.856	-0.034	0.019
-170.910	1.598	-0.350	-0.249
-169.896	-18.299	-0.198	-0.123
-168.881	11.895	0.149	-0.113
-167.866	-149.478	0.133	-0.010
-166.852	-88.087	-0.044	0.013
-165.837	136.152	0.187	-0.241
-164.823	-146.617	0.047	0.004
-163.808	34.503	0.071	-0.061
-162.793	800.000	-0.024	0.095
-161.779	-136.778	-0.136	0.016
-160.764	800.000	0.019	-0.070
-159.750	480.770	0.092	0.206
-158.735	-93.910	0.143	0.039
-157.720	17.368	-0.093	0.073
-156.706	7.210	-0.162	0.120
-155.691	19.372	0.084	0.067
-154.677	-93.780	-0.078	-0.021
-153.662	159.291	0.141	-0.194
-152.647	-48.356	-0.175	-0.083
-151.633	-59.746	-0.140	0.059
-150.618	-134.115	-0.510	-0.062
-149.604	-90.167	-0.361	0.104
-148.589	-200.000	-0.008	0.213
-147.574	800.000	-0.023	0.069
-146.560	-81.367	-0.223	0.073
-145.545	800.000	0.045	0.138
-144.531	716.241	-0.004	-0.010
-143.516	-200.000	0.038	-0.258
-142.502	-122.526	0.295	0.047
-141.487	0.328	-0.222	0.157
-140.472	800.000	0.079	0.269
-139.458	397.760	-0.041	0.084
-138.443	261.031	0.073	0.125
-137.429	-48.942	0.026	0.013
-136.414	525.906	-0.081	0.188
-135.399	800.000	-0.029	0.082
-134.385	-100.318	-0.240	-0.059
-133.370	52.695	-0.091	0.086
-132.356	-43.714	-0.162	0.081
-131.341	169.832	0.029	-0.042
-130.326	86.141	0.253	0.275
-129.312	41.611	0.082	-0.073
-128.297	263.046	0.057	0.097
-127.283	385.826	0.076	-0.155
-126.268	-188.308	0.114	-0.001
-125.253	138.636	-0.085	0.110
-124.239	-200.000	-0.032	0.285
-123.224	62.144	-0.046	0.045
-122.210	142.644	-0.126	0.165
