DTS Sentinel unit serial number:	SN413079Multiplexer serial number:	ORYXHardware model number:	OX4-SRSoftware version number:	ORYX F/W v4.00 Oryx Data Collector v3.7.2.0data status	okinstallation	princeton_trtdifferential loss correction	single-endedforward channel	channel 3reverse channel	N/Adate	2019/09/18time	12:20:35forward acquisition time	60.00reverse acquisition time	0.00gamma	496.2192k internal	0.2322k external	0.2322temperature offset calibration	0.9962default loss term (dB/km)	0.3790temperature slope calibration	1.0000multiplexer offset coefficient	1.0000multiplexer slope coefficient	1.0000fibre end	0.00T internal ref (°C)	31.89T ext. ref 1 (°C)	0.52T ext. ref 2 (°C)	29.22length (m)	temperature (°C)	Stokes	anti-Stokes-747.200	-200.000	-0.026	0.320
-746.185	800.000	0.044	0.170
-745.171	-2.641	-0.202	-0.143
-744.156	-171.866	0.216	-0.007
-743.142	184.916	0.031	0.046
-742.127	-84.760	-0.187	0.059
-741.112	-84.401	-0.050	-0.016
-740.098	380.849	-0.167	0.346
-739.083	-56.423	-0.406	0.182
-738.069	-200.000	0.019	0.296
-737.054	246.411	0.022	0.037
-736.039	305.040	-0.032	0.061
-735.025	80.865	0.240	0.261
-734.010	-45.669	0.119	0.059
-732.996	-97.462	-0.227	0.060
-731.981	538.928	0.123	0.295
-730.966	32.545	-0.092	0.080
-729.952	-12.221	0.185	-0.122
-728.937	-200.000	-0.024	-0.272
-727.923	223.855	0.151	0.247
-726.908	-129.324	0.208	-0.029
-725.894	-117.484	-0.265	0.048
-724.879	-68.496	-0.317	-0.124
-723.864	-101.012	-0.377	0.093
-722.850	-200.000	0.006	0.037
-721.835	-200.000	-0.006	-0.120
-720.821	-102.954	-0.210	0.050
-719.806	-200.000	0.001	0.022
-718.791	64.940	0.105	-0.107
-717.777	177.484	-0.089	-0.131
-716.762	-123.379	-0.102	0.016
-715.748	-200.000	0.038	0.198
-714.733	800.000	-0.023	-0.079
-713.718	-49.664	-0.103	0.049
-712.704	85.893	-0.210	-0.233
-711.689	-200.000	0.032	-0.295
-710.675	-115.499	0.164	-0.031
-709.660	120.692	0.146	0.183
-708.645	-161.944	-0.139	-0.007
-707.631	488.974	0.080	0.186
-706.616	-8.355	0.137	-0.093
-705.602	-43.738	-0.085	-0.043
-704.587	-200.000	0.015	0.073
-703.572	29.063	0.209	0.178
-702.558	412.571	0.045	-0.096
-701.543	4.976	-0.075	-0.055
-700.529	-200.000	0.012	-0.244
-699.514	-200.000	0.007	0.274
-698.499	-0.531	-0.094	-0.068
-697.485	44.073	0.258	-0.238
-696.470	37.797	-0.118	-0.106
-695.456	-200.000	0.063	-0.313
-694.441	104.756	-0.113	-0.135
-693.426	-26.500	0.267	-0.158
-692.412	-200.000	-0.022	0.315
-691.397	78.662	-0.230	0.248
-690.383	45.787	-0.296	0.276
-689.368	217.563	-0.043	-0.069
-688.354	-22.554	0.337	0.205
-687.339	-200.000	0.028	0.200
-686.324	-200.000	0.049	-0.259
-685.310	-189.196	0.297	0.004
-684.295	109.066	-0.141	0.170
-683.281	-25.463	0.167	0.099
-682.266	208.611	-0.123	-0.194
-681.251	-35.523	0.165	-0.091
-680.237	-200.000	-0.026	-0.364
-679.222	-126.293	0.225	-0.034
-678.208	-51.756	0.198	-0.093
-677.193	-53.861	-0.333	0.153
-676.178	195.395	-0.025	-0.038
-675.164	-200.000	-0.080	0.388
-674.149	-48.719	-0.465	0.225
-673.135	-200.000	0.056	0.403
-672.120	-121.787	0.088	0.015
-671.105	-200.000	-0.030	0.410
-670.091	50.060	-0.032	0.031
-669.076	175.304	0.137	-0.200
-668.062	285.013	-0.040	-0.072
-667.047	-33.444	-0.251	-0.140
-666.032	-200.000	0.019	0.212
-665.018	24.842	0.079	-0.066
-664.003	93.664	-0.193	0.220
-662.989	-20.660	-0.125	-0.077
-661.974	-37.890	-0.086	-0.046
-660.959	408.779	0.155	0.331
-659.945	-200.000	-0.056	0.257
-658.930	-3.762	0.139	-0.097
-657.916	725.802	-0.016	0.042
-656.901	-146.697	0.354	0.031
-655.886	32.735	-0.105	-0.091
-654.872	-151.504	-0.189	0.014
-653.857	-103.974	-0.404	-0.095
-652.843	-56.313	-0.180	0.081
-651.828	-22.494	0.226	-0.138
-650.814	47.140	-0.199	0.186
-649.799	-200.000	0.018	0.172
-648.784	240.487	-0.251	0.422
-647.770	59.827	0.153	-0.152
-646.755	-164.244	0.263	0.012
-645.741	-77.800	0.229	0.080
-644.726	-81.048	0.185	-0.062
-643.711	75.568	-0.290	-0.309
-642.697	562.264	0.080	0.194
-641.682	-82.271	-0.425	0.139
-640.668	-42.526	-0.124	-0.064
-639.653	800.000	-0.145	-0.421
-638.638	234.990	-0.093	-0.155
-637.624	-29.526	0.258	-0.149
-636.609	-117.113	0.247	-0.045
-635.595	18.432	-0.167	-0.134
-634.580	-116.079	-0.101	0.019
-633.565	-70.687	-0.117	0.044
-632.551	-50.807	0.098	0.047
-631.536	-200.000	-0.034	-0.225
-630.522	-147.087	-0.048	0.004
-629.507	-130.664	0.254	0.034
-628.492	443.586	0.102	0.226
-627.478	-200.000	0.028	-0.171
-626.463	316.311	-0.160	-0.305
-625.449	800.000	0.051	-0.162
-624.434	89.670	-0.118	0.133
-623.419	502.047	-0.147	0.343
-622.405	800.000	-0.025	0.080
-621.390	55.343	-0.120	-0.116
-620.376	-107.777	-0.488	0.107
-619.361	299.189	-0.151	-0.279
-618.346	-103.668	-0.129	-0.030
-617.332	-200.000	-0.008	-0.258
-616.317	96.446	-0.208	0.240
-615.303	-200.000	0.003	-0.037
-614.288	-78.037	-0.242	-0.084
-613.273	-102.377	-0.287	0.069
-612.259	-145.132	0.148	0.014
-611.244	800.000	0.081	-0.297
-610.230	-106.816	-0.150	-0.034
-609.215	-200.000	-0.022	0.141
-608.201	64.871	-0.268	-0.272
-607.186	800.000	-0.044	0.141
-606.171	-62.470	0.290	-0.121
-605.157	-74.919	0.396	0.143
-604.142	-102.377	0.113	-0.027
-603.128	-52.091	-0.066	0.031
-602.113	-200.000	-0.006	-0.205
-601.098	-200.000	-0.026	0.247
-600.084	587.809	-0.081	0.201
-599.069	70.603	-0.110	0.114
-598.055	98.442	0.142	-0.165
-597.040	-200.000	0.014	0.085
-596.025	25.683	0.386	0.323
-595.011	99.925	0.061	0.071
-593.996	-200.000	0.003	0.242
-592.982	-200.000	-0.019	-0.134
-591.967	-195.546	-0.363	-0.003
-590.952	-131.784	0.283	0.037
-589.938	288.019	-0.097	-0.176
-588.923	622.751	0.085	-0.216
-587.909	588.966	-0.021	-0.053
-586.894	59.996	0.160	-0.158
-585.879	-29.459	0.107	-0.062
-584.865	800.000	0.022	0.087
-583.850	-89.645	0.164	0.048
-582.836	-100.962	0.332	0.082
-581.821	-200.000	0.007	-0.122
-580.806	-127.861	-0.194	-0.028
-579.792	-98.215	-0.284	-0.073
-578.777	43.677	0.179	-0.165
-577.763	-200.000	-0.039	0.258
-576.748	224.283	-0.085	0.139
-575.733	-46.563	-0.216	0.107
-574.719	-16.656	-0.049	-0.031
-573.704	-178.890	0.352	0.008
-572.690	800.000	-0.027	-0.078
-571.675	800.000	0.096	-0.289
-570.661	-164.130	-0.243	-0.011
-569.646	34.584	0.080	0.070
-568.631	-200.000	-0.237	0.000
-567.617	350.721	-0.078	-0.155
-566.602	-152.163	0.455	0.033
-565.588	-110.604	0.025	0.005
-564.573	112.433	0.310	0.377
-563.558	800.000	0.040	0.140
-562.544	22.826	-0.268	-0.220
-561.529	161.390	-0.179	0.251
-560.515	-179.767	-0.383	-0.008
-559.500	-192.989	0.049	-0.000
-558.485	-20.395	-0.298	-0.184
-557.471	-124.735	-0.141	0.022
-556.456	-153.704	0.041	0.003
-555.442	-51.497	0.112	-0.053
-554.427	525.600	-0.096	-0.226
-553.412	800.000	0.101	0.332
-552.398	-65.206	-0.339	0.137
-551.383	-138.803	0.174	0.019
-550.369	451.978	0.018	0.039
-549.354	-91.064	-0.217	0.063
-548.339	232.611	-0.083	0.138
-547.325	206.440	0.145	-0.227
-546.310	800.000	0.057	0.182
-545.296	378.660	-0.094	0.194
-544.281	-38.768	-0.378	-0.200
-543.266	121.931	0.263	-0.328
-542.252	800.000	0.035	-0.123
-541.237	-57.168	-0.145	0.064
-540.223	85.081	-0.024	0.027
-539.208	-200.000	0.011	-0.313
-538.193	542.909	-0.194	-0.465
-537.179	-200.000	-0.060	-0.482
-536.164	-174.448	0.072	0.002
-535.150	-200.000	-0.061	-0.348
-534.135	-19.630	-0.268	0.166
-533.121	1.943	0.168	-0.122
-532.106	-86.690	0.157	-0.048
-531.091	-50.073	-0.369	-0.175
-530.077	-200.000	-0.025	-0.146
-529.062	119.845	-0.280	-0.347
-528.048	-94.113	0.136	-0.037
-527.033	147.547	0.093	-0.125
-526.018	301.619	-0.140	0.260
-525.004	83.910	-0.099	0.108
-523.989	-128.898	0.087	-0.012
-522.975	-62.298	-0.217	-0.091
-521.960	61.726	-0.100	0.099
-520.945	323.904	-0.190	0.363
-519.931	126.435	0.093	-0.118
-518.916	-180.657	0.311	0.006
-517.902	-200.000	-0.036	-0.172
-516.887	800.000	-0.109	-0.363
-515.872	-92.861	-0.055	0.015
-514.858	800.000	0.016	0.057
-513.843	800.000	-0.036	-0.111
-512.829	252.227	-0.062	0.106
-511.814	800.000	-0.036	0.148
-510.799	-109.025	0.234	-0.050
-509.785	57.401	-0.106	-0.104
-508.770	-200.000	0.064	0.310
-507.756	-124.376	-0.335	-0.052
-506.741	529.198	-0.051	0.120
-505.726	518.344	0.091	0.212
-504.712	-74.076	0.302	0.109
-503.697	-200.000	-0.011	-0.057
-502.683	-200.000	0.068	0.399
-501.668	153.906	0.081	-0.111
-500.653	62.245	0.075	0.075
-499.639	-86.997	-0.142	-0.043
-498.624	68.631	-0.119	-0.123
-497.610	253.340	0.078	0.133
-496.595	116.875	0.083	-0.102
-495.581	800.000	0.028	0.119
-494.566	-34.314	-0.265	0.146
-493.551	531.706	0.056	-0.134
-492.537	-162.077	-0.156	0.008
-491.522	-80.012	-0.208	0.070
-490.508	-116.870	0.107	0.020
-489.493	297.187	-0.051	0.094
-488.478	-140.815	0.187	-0.019
-487.464	-200.000	-0.010	0.051
-486.449	-135.620	0.089	-0.011
-485.435	103.675	0.177	-0.208
-484.420	-200.000	-0.022	-0.117
-483.405	-37.045	-0.354	-0.190
-482.391	-200.000	-0.065	-0.349
-481.376	800.000	-0.093	-0.344
-480.362	-200.000	-0.047	0.245
-479.347	-200.000	0.052	0.327
-478.332	-155.631	-0.104	0.007
-477.318	4.959	-0.242	-0.178
-476.303	-181.054	0.282	0.006
-475.289	422.999	0.041	0.087
-474.274	-76.681	-0.140	-0.049
-473.259	215.593	-0.166	0.263
-472.245	-67.652	-0.163	0.064
-471.230	128.678	-0.248	-0.316
-470.216	22.887	0.217	-0.178
-469.201	35.618	-0.147	0.129
-468.186	-72.672	-0.227	0.084
-467.172	-73.645	0.175	0.064
-466.157	-77.711	-0.245	-0.085
-465.143	26.376	0.137	0.115
-464.128	-90.643	0.211	0.061
-463.113	-45.750	0.051	0.025
-462.099	5.087	0.205	0.151
-461.084	-145.560	0.195	-0.017
-460.070	-122.159	-0.163	-0.027
-459.055	15.528	-0.210	0.165
-458.040	-110.687	0.264	0.054
-457.026	-91.402	-0.196	0.056
-456.011	-1.550	-0.258	0.182
-454.997	800.000	-0.044	-0.148
-453.982	267.920	0.262	0.458
-452.968	-181.699	-0.023	-0.000
-451.953	-177.521	-0.103	0.003
-450.938	-200.000	0.009	0.119
-449.924	94.417	-0.111	0.126
-448.909	11.553	-0.308	0.236
-447.895	-91.886	0.036	0.010
-446.880	-97.675	-0.193	-0.050
-445.865	131.946	0.096	0.123
-444.851	-5.256	-0.248	0.170
-443.836	192.539	-0.083	0.126
-442.822	800.000	-0.094	0.259
-441.807	-200.000	-0.013	0.170
-440.792	155.832	-0.045	0.062
-439.778	-28.067	-0.440	-0.254
-438.763	800.000	0.095	0.343
-437.749	67.897	-0.046	0.047
-436.734	-73.218	-0.157	0.057
-435.719	-97.538	0.373	0.097
-434.705	167.665	0.081	0.115
-433.690	-200.000	-0.014	0.071
-432.676	-15.902	0.067	0.043
-431.661	-44.692	0.165	0.082
-430.646	693.333	-0.049	0.129
-429.632	-200.000	0.041	0.558
-428.617	-85.758	0.122	-0.038
-427.603	128.440	-0.144	-0.183
-426.588	42.844	0.199	-0.181
-425.573	68.646	0.071	-0.073
-424.559	360.637	0.164	-0.328
-423.544	-41.180	0.341	-0.175
-422.530	103.840	-0.137	0.161
-421.515	70.289	-0.075	-0.077
-420.500	-200.000	0.040	-0.211
-419.486	749.992	-0.148	-0.400
-418.471	25.385	0.130	-0.108
-417.457	-200.000	0.009	-0.082
-416.442	-200.000	0.010	-0.197
-415.428	-22.340	0.108	-0.065
-414.413	389.498	0.143	0.295
-413.398	-90.727	-0.118	-0.034
-412.384	36.798	-0.020	0.017
-411.369	39.227	0.198	0.177
-410.355	41.713	-0.072	0.065
-409.340	-13.901	0.190	-0.123
-408.325	-69.366	0.100	-0.038
-407.311	-50.628	-0.245	0.115
-406.296	-200.000	0.038	0.267
-405.282	657.647	-0.104	0.267
-404.267	16.168	0.162	-0.127
-403.252	12.214	-0.163	-0.125
-402.238	-93.893	0.155	-0.043
-401.223	10.388	0.066	-0.050
-400.209	349.772	-0.076	-0.150
-399.194	-53.815	0.250	0.114
-398.179	86.117	0.285	-0.313
-397.165	-111.300	-0.293	0.060
-396.150	431.658	0.071	-0.153
-395.136	634.818	0.034	-0.086
-394.121	-66.120	-0.257	-0.102
-393.106	-149.777	-0.108	-0.008
-392.092	59.188	-0.369	0.362
-391.077	-200.000	-0.040	0.198
-390.063	-181.246	0.218	0.004
-389.048	-42.487	0.310	0.157
-388.033	20.023	-0.094	-0.076
-387.019	800.000	0.092	-0.260
-386.004	800.000	0.122	0.374
-384.990	-58.220	0.215	0.093
-383.975	8.782	0.054	0.040
-382.960	-200.000	-0.007	0.243
-381.946	800.000	0.130	0.437
-380.931	271.910	0.052	0.091
-379.917	-31.619	-0.274	0.153
-378.902	40.560	0.160	0.144
-377.888	1.727	0.169	-0.121
-376.873	-1.632	-0.215	-0.151
-375.858	184.205	0.144	-0.212
-374.844	-200.000	-0.065	0.401
-373.829	-200.000	0.059	0.324
-372.815	45.821	0.179	0.165
-371.800	166.711	-0.184	-0.260
-370.785	-121.049	0.248	-0.041
-369.771	104.216	0.080	0.094
-368.756	800.000	0.014	-0.044
-367.742	800.000	-0.063	-0.207
-366.727	71.097	-0.390	-0.402
-365.712	-60.333	-0.287	0.122
-364.698	-112.446	-0.209	0.042
-363.683	-104.392	0.419	0.097
-362.669	-54.713	0.108	-0.048
-361.654	-66.958	-0.017	-0.007
-360.639	-18.085	-0.154	-0.096
-359.625	-36.116	-0.320	-0.172
-358.610	616.181	0.017	0.042
-357.596	800.000	0.095	0.299
-356.581	704.477	-0.139	0.365
-355.566	83.133	-0.097	-0.105
-354.552	144.754	-0.104	-0.138
-353.537	-12.008	-0.035	0.023
-352.523	228.319	0.188	0.305
-351.508	-200.000	0.008	0.103
-350.493	76.847	0.460	-0.486
-349.479	142.772	0.361	-0.477
-348.464	-58.294	0.059	-0.026
-347.450	-58.663	0.271	-0.117
-346.435	57.145	-0.193	0.187
-345.420	-200.000	0.034	-0.256
-344.406	-112.590	0.127	0.025
-343.391	-83.833	0.121	0.038
-342.377	103.754	-0.271	-0.317
-341.362	17.591	-0.084	0.067
-340.348	-152.661	0.178	-0.013
-339.333	7.837	0.326	-0.243
-338.318	-200.000	-0.053	0.359
-337.304	-25.161	0.177	0.104
-336.289	-3.584	0.222	-0.154
-335.275	800.000	-0.121	-0.429
-334.260	-152.973	-0.044	0.003
-333.245	-200.000	0.028	0.158
-332.231	-200.000	-0.007	-0.334
-331.216	-200.000	-0.028	-0.410
-330.202	-160.907	0.326	0.017
-329.187	-190.032	0.294	0.003
-328.172	-200.000	0.016	-0.177
-327.158	-7.523	0.358	-0.241
-326.143	-54.519	-0.041	-0.018
-325.129	-115.881	0.279	-0.052
-324.114	-67.429	-0.429	0.167
-323.099	10.767	0.115	0.087
-322.085	38.186	0.074	-0.066
-321.070	-13.889	-0.292	-0.188
-320.056	-200.000	-0.068	0.349
-319.041	-28.451	0.156	-0.089
-318.026	207.729	-0.248	-0.385
-317.012	-200.000	-0.025	0.179
-315.997	21.932	-0.068	-0.055
-314.983	-56.134	-0.022	-0.010
-313.968	-110.077	-0.324	0.067
-312.953	71.515	0.214	0.220
-311.939	800.000	-0.182	0.515
-310.924	24.191	0.156	-0.128
-309.910	78.233	0.239	-0.253
-308.895	-200.000	-0.010	-0.252
-307.880	217.478	0.075	-0.119
-306.866	-121.610	0.169	-0.028
-305.851	15.574	-0.086	-0.067
-304.837	-173.419	0.203	0.006
-303.822	-122.941	-0.127	-0.020
-302.807	269.915	0.175	0.305
-301.793	475.692	-0.099	0.223
-300.778	-103.841	0.184	-0.043
-299.764	-200.000	0.048	-0.247
-298.749	-23.698	-0.154	-0.092
-297.735	-200.000	-0.031	-0.233
-296.720	-101.990	0.196	0.047
-295.705	-200.000	-0.010	-0.147
-294.691	-101.227	-0.262	0.064
-293.676	198.795	-0.091	-0.138
-292.662	12.488	0.179	0.137
-291.647	-200.000	0.024	-0.107
-290.632	-200.000	-0.033	0.163
-289.618	219.485	0.228	-0.362
-288.603	-117.323	0.240	0.043
-287.589	10.772	-0.367	0.278
-286.574	-159.556	-0.221	-0.012
-285.559	-200.000	0.021	-0.198
-284.545	294.060	0.154	0.278
-283.530	150.439	0.332	0.448
-282.516	131.562	-0.183	0.233
-281.501	-157.880	0.202	0.012
-280.486	-200.000	0.001	-0.055
-279.472	-190.133	-0.188	-0.002
-278.457	60.160	-0.084	0.083
-277.443	-42.775	-0.060	0.030
-276.428	-200.000	0.019	-0.096
-275.413	-200.000	-0.356	0.002
-274.399	800.000	-0.049	-0.164
-273.384	98.614	-0.194	-0.222
-272.370	-81.510	-0.286	0.093
-271.355	-49.067	0.354	0.168
-270.340	-39.650	-0.234	-0.122
-269.326	125.401	-0.127	0.158
-268.311	-64.504	-0.260	0.105
-267.297	-200.000	0.019	0.273
-266.282	-28.222	0.214	0.123
-265.267	-123.549	0.244	0.038
-264.253	-56.096	-0.248	-0.110
-263.238	248.399	0.087	-0.146
-262.224	133.282	-0.049	-0.063
-261.209	19.445	0.141	0.112
-260.195	691.744	0.192	0.500
-259.180	-65.721	0.044	0.017
-258.165	-159.706	0.374	0.020
-257.151	-132.981	0.279	-0.035
-256.136	-117.844	0.268	-0.048
-255.122	428.905	-0.032	-0.069
-254.107	219.957	-0.227	-0.361
-253.092	275.421	-0.098	-0.172
-252.078	343.066	0.216	-0.420
-251.063	16.870	0.182	0.143
-250.049	800.000	0.003	0.012
-249.034	-11.361	0.171	0.112
-248.019	-160.209	-0.525	-0.028
-247.005	800.000	-0.081	0.243
-245.990	-51.894	0.242	-0.112
-244.976	-200.000	0.031	-0.583
-243.961	-9.930	0.233	-0.154
-242.946	-200.000	0.018	0.086
-241.932	-72.184	-0.057	0.021
-240.917	-95.515	0.300	-0.080
-239.903	-4.108	-0.138	-0.095
-238.888	325.866	0.040	-0.076
-237.873	-86.917	-0.269	0.081
-236.859	-200.000	0.066	-0.364
-235.844	800.000	0.106	-0.390
-234.830	-106.191	0.186	0.041
-233.815	-118.823	-0.137	-0.024
-232.800	-141.097	0.190	0.019
-231.786	125.492	0.193	-0.242
-230.771	20.358	0.087	0.070
-229.757	-200.000	0.008	-0.036
-228.742	465.200	-0.105	-0.232
-227.727	159.677	0.068	0.093
-226.713	-200.000	-0.008	0.041
-225.698	215.099	-0.020	-0.031
-224.684	-103.831	-0.131	-0.030
-223.669	-105.591	-0.312	0.070
-222.655	235.321	0.191	-0.313
-221.640	-184.646	0.168	0.003
-220.625	65.811	-0.279	-0.280
-219.611	101.208	-0.080	0.092
-218.596	-200.000	-0.042	-0.246
-217.582	178.427	0.026	-0.037
-216.567	46.002	0.212	0.194
-215.552	49.912	0.215	0.200
-214.538	-185.606	0.129	-0.002
-213.523	-200.000	-0.054	-0.511
-212.509	48.316	0.116	0.107
-211.494	-139.704	0.176	0.019
-210.479	190.351	-0.084	-0.125
-209.465	800.000	-0.066	0.211
-208.450	-71.327	0.131	0.049
-207.436	-200.000	0.049	0.546
-206.421	315.586	-0.049	-0.091
-205.406	-6.671	0.187	0.126
-204.392	-148.518	-0.255	0.021
-203.377	79.101	-0.129	-0.137
-202.363	408.376	-0.177	-0.371
-201.348	680.933	0.134	0.346
-200.333	620.917	-0.097	0.241
-199.319	321.295	0.041	-0.076
-198.304	-14.970	-0.068	-0.043
-197.290	-108.505	0.257	0.055
-196.275	130.039	0.298	0.377
-195.260	12.936	0.186	0.142
-194.246	425.406	0.094	0.199
-193.231	22.765	-0.237	0.192
-192.217	-67.995	-0.267	-0.103
-191.202	-169.859	-0.196	-0.007
-190.187	-43.603	0.288	0.144
-189.173	-132.250	0.161	0.021
-188.158	-78.864	-0.132	-0.044
-187.144	-180.414	-0.210	0.004
-186.129	-3.321	-0.162	-0.111
-185.114	140.857	-0.213	0.278
-184.100	-200.000	0.062	-0.391
-183.085	64.004	-0.149	-0.148
-182.071	-101.593	-0.190	0.046
-181.056	-88.323	0.054	0.016
-180.042	25.056	0.118	0.097
-179.027	-20.098	0.205	0.125
-178.012	-26.646	0.136	-0.079
-176.998	158.884	-0.158	0.216
-175.983	152.548	0.160	-0.217
-174.969	-83.811	-0.038	-0.012
-173.954	-200.000	0.028	0.248
-172.939	190.699	-0.186	0.276
-171.925	-156.512	-0.179	0.011
-170.910	-115.442	-0.074	0.014
-169.896	48.260	-0.083	0.077
-168.881	-87.150	0.385	0.116
-167.866	13.568	-0.187	0.144
-166.852	800.000	0.037	-0.149
-165.837	-200.000	-0.033	0.219
-164.823	359.841	0.135	0.267
-163.808	-60.732	-0.313	0.131
-162.793	216.901	0.158	0.249
-161.779	-200.000	0.033	0.167
-160.764	-36.618	-0.134	0.071
-159.750	-200.000	-0.015	0.083
-158.735	232.262	0.140	0.228
-157.720	-131.401	0.224	-0.029
-156.706	-90.905	0.201	-0.057
-155.691	376.209	-0.079	-0.160
-154.677	-156.209	0.029	-0.002
-153.662	-98.318	0.086	0.022
-152.647	800.000	-0.062	-0.200
-151.633	-41.686	0.225	-0.114
-150.618	-126.450	-0.281	-0.041
-149.604	414.805	-0.005	0.009
-148.589	-68.948	0.136	0.052
-147.574	-65.828	0.315	-0.124
-146.560	-9.401	-0.205	0.135
-145.545	-118.103	0.317	0.056
-144.531	26.820	0.126	-0.104
-143.516	626.645	-0.090	0.224
-142.502	800.000	-0.157	0.567
-141.487	800.000	0.121	0.355
-140.472	138.365	-0.084	0.108
-139.458	-88.427	0.226	0.066
-138.443	-135.248	0.269	-0.032
-137.429	119.832	0.214	-0.262
-136.414	-63.726	-0.254	0.103
-135.399	792.935	0.168	0.455
-134.385	-200.000	-0.021	0.106
-133.370	111.683	-0.268	-0.319
-132.356	-58.913	-0.331	0.141
-131.341	-161.970	0.238	-0.012
-130.326	422.603	-0.118	0.251
-129.312	-132.258	0.141	-0.018
-128.297	164.503	0.121	-0.168
-127.283	279.720	0.048	0.085
-126.268	347.017	0.085	-0.166
-125.253	54.466	0.070	-0.067
-124.239	-89.627	0.193	0.056
-123.224	-32.926	0.172	-0.094
-122.210	-59.673	-0.355	0.150
-121.195	-32.439	0.176	-0.097
