DTS Sentinel unit serial number:	SN413079Multiplexer serial number:	ORYXHardware model number:	OX4-SRSoftware version number:	ORYX F/W v4.00 Oryx Data Collector v3.7.2.0data status	okinstallation	princeton_trtdifferential loss correction	single-endedforward channel	channel 3reverse channel	N/Adate	2019/09/18time	09:36:34forward acquisition time	60.00reverse acquisition time	0.00gamma	496.2192k internal	0.2337k external	0.2337temperature offset calibration	0.9949default loss term (dB/km)	0.3790temperature slope calibration	1.0000multiplexer offset coefficient	1.0000multiplexer slope coefficient	1.0000fibre end	0.00T internal ref (°C)	26.59T ext. ref 1 (°C)	0.26T ext. ref 2 (°C)	23.39length (m)	temperature (°C)	Stokes	anti-Stokes-747.200	-200.000	0.000	0.057
-746.185	133.209	-0.136	0.177
-745.171	289.191	-0.207	0.376
-744.156	192.097	0.134	0.203
-743.142	-63.861	0.171	-0.070
-742.127	-139.189	-0.314	-0.034
-741.112	-200.000	-0.054	-0.290
-740.098	-200.000	-0.084	0.416
-739.083	-126.941	0.137	-0.020
-738.069	-197.682	0.268	-0.002
-737.054	-21.334	-0.239	-0.147
-736.039	349.916	-0.228	-0.452
-735.025	172.094	0.179	0.259
-734.010	-135.497	-0.141	0.017
-732.996	-10.833	-0.255	-0.169
-731.981	-200.000	0.015	-0.101
-730.966	-18.977	0.139	-0.087
-729.952	-166.773	-0.362	-0.015
-728.937	133.804	0.043	0.056
-727.923	336.543	-0.158	-0.308
-726.908	-200.000	0.010	0.070
-725.894	54.527	-0.262	0.254
-724.879	116.891	-0.068	-0.083
-723.864	-95.190	-0.373	0.101
-722.850	-36.114	-0.338	0.183
-721.835	-136.669	0.027	-0.003
-720.821	-23.054	-0.130	-0.079
-719.806	-5.447	0.176	-0.121
-718.791	-77.268	0.295	-0.103
-717.777	-200.000	-0.048	-0.358
-716.762	-135.545	-0.412	0.049
-715.748	-200.000	0.029	0.131
-714.733	-200.000	0.021	-0.262
-713.718	-41.271	0.202	0.104
-712.704	10.229	-0.173	0.132
-711.689	259.034	-0.262	0.454
-710.675	-79.177	-0.039	0.013
-709.660	81.663	-0.274	-0.297
-708.645	-183.825	-0.267	-0.005
-707.631	-63.580	0.281	-0.116
-706.616	-200.000	-0.017	0.166
-705.602	-3.118	0.115	-0.080
-704.587	-54.489	-0.043	-0.020
-703.572	227.016	0.157	-0.256
-702.558	-200.000	0.013	-0.182
-701.543	102.062	0.071	0.083
-700.529	117.707	0.099	-0.123
-699.514	-200.000	-0.001	-0.104
-698.499	-116.124	0.175	-0.033
-697.485	-200.000	-0.025	0.356
-696.470	304.993	0.062	-0.116
-695.456	15.570	-0.212	-0.167
-694.441	58.094	-0.329	0.323
-693.426	-69.074	-0.241	-0.093
-692.412	44.980	-0.353	0.325
-691.397	624.310	-0.081	0.204
-690.383	-49.305	-0.292	0.140
-689.368	-26.870	0.333	-0.195
-688.354	365.500	0.095	-0.192
-687.339	425.101	-0.070	-0.150
-686.324	44.266	0.288	-0.265
-685.310	-91.018	-0.258	-0.074
-684.295	800.000	-0.060	-0.173
-683.281	-16.480	-0.302	0.192
-682.266	800.000	-0.021	0.066
-681.251	800.000	0.078	-0.256
-680.237	16.714	0.208	-0.165
-679.222	501.353	-0.093	0.215
-678.208	25.622	0.326	-0.272
-677.193	66.116	0.307	-0.311
-676.178	-61.941	-0.149	-0.062
-675.164	-139.379	-0.224	-0.024
-674.149	-130.725	-0.273	-0.037
-673.135	-200.000	-0.014	-0.137
-672.120	-130.934	0.269	-0.036
-671.105	484.126	-0.176	-0.401
-670.091	-60.368	-0.246	-0.105
-669.076	-152.778	0.035	0.003
-668.062	800.000	-0.055	0.212
-667.047	800.000	-0.020	0.059
-666.032	-60.850	-0.068	-0.029
-665.018	48.769	-0.140	-0.131
-664.003	15.650	-0.314	-0.247
-662.989	800.000	0.088	-0.263
-661.974	143.977	0.200	-0.267
-660.959	-148.504	0.393	-0.032
-659.945	-137.560	-0.090	-0.010
-658.930	-53.547	0.258	-0.118
-657.916	14.537	-0.414	-0.323
-656.901	-54.612	-0.258	0.117
-655.886	35.456	0.174	-0.153
-654.872	-26.277	-0.362	-0.213
-653.857	800.000	0.019	-0.070
-652.843	-89.573	-0.109	-0.032
-651.828	-103.422	-0.068	-0.016
-650.814	621.948	-0.071	-0.178
-649.799	-200.000	0.007	-0.129
-648.784	-200.000	-0.011	0.055
-647.770	-118.939	0.122	-0.021
-646.755	-106.140	-0.245	-0.055
-645.741	54.424	-0.238	-0.230
-644.726	-200.000	-0.043	0.255
-643.711	-22.581	-0.247	-0.149
-642.697	14.439	-0.256	0.199
-641.682	8.599	0.124	-0.093
-640.668	800.000	-0.040	0.163
-639.653	-5.530	0.227	0.156
-638.638	-96.545	0.285	0.075
-637.624	800.000	0.040	-0.141
-636.609	24.871	-0.017	-0.014
-635.595	800.000	0.132	0.444
-634.580	35.809	0.040	0.036
-633.565	67.803	0.194	0.198
-632.551	-47.815	-0.181	-0.088
-631.536	-79.114	0.116	0.039
-630.522	-21.424	0.182	-0.111
-629.507	35.197	0.239	-0.210
-628.492	-94.848	-0.347	-0.094
-627.478	0.380	0.366	0.261
-626.463	-113.699	0.153	-0.030
-625.449	-44.205	-0.064	0.032
-624.434	-94.154	0.098	-0.027
-623.419	294.782	-0.101	0.185
-622.405	378.336	-0.027	0.055
-621.390	27.456	-0.184	-0.154
-620.376	-1.650	-0.302	-0.213
-619.361	-104.740	-0.215	-0.049
-618.346	-19.605	-0.183	-0.113
-617.332	51.291	-0.189	-0.180
-616.317	800.000	-0.027	0.109
-615.303	98.203	-0.020	0.023
-614.288	-5.332	0.153	-0.105
-613.273	237.667	-0.112	-0.186
-612.259	800.000	-0.041	0.146
-611.244	-200.000	0.004	-0.154
-610.230	-164.112	0.157	0.007
-609.215	74.156	0.155	-0.163
-608.201	-200.000	-0.058	0.266
-607.186	-119.414	0.067	-0.012
-606.171	-1.052	-0.099	-0.070
-605.157	120.529	-0.115	0.143
-604.142	800.000	-0.011	0.036
-603.128	-123.243	-0.298	0.048
-602.113	800.000	0.036	-0.111
-601.098	29.222	0.084	-0.071
-600.084	-200.000	-0.012	0.190
-599.069	-200.000	0.001	-0.044
-598.055	-56.325	-0.464	-0.206
-597.040	-200.000	0.014	0.221
-596.025	19.768	-0.206	-0.166
-595.011	292.899	-0.056	0.102
-593.996	58.875	0.234	0.229
-592.982	800.000	-0.030	0.101
-591.967	2.953	-0.251	-0.182
-590.952	215.268	0.088	-0.139
-589.938	-70.357	0.308	0.117
-588.923	-200.000	0.034	0.181
-587.909	280.959	0.065	0.116
-586.894	-200.000	0.034	-0.168
-585.879	41.578	0.213	0.193
-584.865	-73.533	-0.122	0.044
-583.850	800.000	0.058	0.235
-582.836	56.896	0.234	-0.227
-581.821	-200.000	0.011	-0.152
-580.806	-118.671	0.176	0.031
-579.792	70.125	-0.166	-0.171
-578.777	-70.100	-0.085	-0.032
-577.763	360.370	-0.158	-0.315
-576.748	-200.000	0.025	0.325
-575.733	168.799	-0.187	0.266
-574.719	191.565	-0.089	0.134
-573.704	156.274	0.135	-0.185
-572.690	102.355	-0.011	-0.012
-571.675	126.007	0.149	0.187
-570.661	-200.000	-0.013	-0.330
-569.646	13.042	-0.178	-0.137
-568.631	116.608	-0.227	0.277
-567.617	483.800	0.165	0.373
-566.602	-103.499	0.121	-0.028
-565.588	156.945	0.140	0.193
-564.573	-113.549	0.265	-0.052
-563.558	-187.677	-0.272	-0.004
-562.544	-153.992	-0.215	-0.015
-561.529	-58.524	-0.323	-0.140
-560.515	-75.265	0.064	0.023
-559.500	-101.323	0.523	0.127
-558.485	473.894	-0.044	-0.098
-557.471	-200.000	0.016	-0.248
-556.456	69.812	-0.318	0.327
-555.442	191.986	0.107	-0.160
-554.427	-200.000	-0.035	-0.178
-553.412	10.950	0.072	0.055
-552.398	132.687	-0.118	0.152
-551.383	-200.000	-0.001	0.071
-550.369	-200.000	0.003	-0.431
-549.354	88.854	0.040	0.044
-548.339	30.271	-0.045	-0.038
-547.325	-115.386	-0.082	-0.015
-546.310	-80.367	-0.158	-0.052
-545.296	24.681	-0.183	-0.151
-544.281	62.172	0.130	0.129
-543.266	148.749	-0.158	-0.213
-542.252	-12.395	-0.011	0.007
-541.237	-200.000	-0.013	0.059
-540.223	144.428	-0.068	0.090
-539.208	-6.997	-0.262	-0.177
-538.193	-140.654	-0.168	-0.017
-537.179	-200.000	0.039	0.197
-536.164	-91.585	0.247	-0.070
-535.150	-73.781	-0.175	0.063
-534.135	28.800	0.094	0.080
-533.121	-200.000	0.027	0.200
-532.106	-200.000	-0.033	0.203
-531.091	-200.000	-0.099	-0.439
-530.077	98.655	-0.150	-0.172
-529.062	-145.847	0.292	-0.026
-528.048	-153.537	0.266	-0.018
-527.033	76.757	0.080	-0.084
-526.018	36.446	0.286	-0.251
-525.004	-168.866	0.039	0.001
-523.989	-96.150	-0.352	0.093
-522.975	-138.002	-0.238	-0.026
-521.960	-3.875	0.154	0.106
-520.945	800.000	0.062	-0.255
-519.931	216.452	0.168	-0.267
-518.916	-61.677	0.254	-0.106
-517.902	-84.334	-0.302	-0.095
-516.887	170.368	0.093	-0.133
-515.872	64.550	-0.082	0.083
-514.858	34.269	-0.121	-0.105
-513.843	213.260	0.073	-0.114
-512.829	1.998	-0.067	0.048
-511.814	257.847	-0.229	-0.391
-510.799	146.929	-0.102	-0.136
-509.785	2.784	-0.163	-0.118
-508.770	-200.000	0.001	-0.024
-507.756	-200.000	-0.017	-0.313
-506.741	-41.807	0.111	-0.057
-505.726	800.000	0.109	0.325
-504.712	-200.000	0.025	-0.134
-503.697	-91.215	0.053	-0.015
-502.683	-128.474	-0.456	0.064
-501.668	-44.841	-0.172	0.085
-500.653	-184.898	0.123	-0.002
-499.639	-26.550	-0.113	0.066
-498.624	86.141	0.127	0.139
-497.610	-75.138	0.186	0.066
-496.595	-114.285	0.236	0.045
-495.581	496.094	0.078	0.179
-494.566	-200.000	-0.019	0.188
-493.551	71.680	-0.323	0.334
-492.537	422.465	0.072	-0.154
-491.522	285.099	-0.169	0.303
-490.508	-141.673	0.061	-0.006
-489.493	-137.521	0.124	-0.014
-488.478	-200.000	0.074	0.443
-487.464	77.851	0.031	-0.033
-486.449	800.000	-0.081	0.233
-485.435	95.447	0.155	-0.175
-484.420	-33.302	0.126	0.069
-483.405	101.065	0.191	0.221
-482.391	-200.000	-0.034	-0.282
-481.376	-75.918	-0.404	-0.142
-480.362	-200.000	-0.006	0.058
-479.347	-200.000	-0.007	0.068
-478.332	-75.242	0.093	-0.033
-477.318	149.786	-0.212	0.285
-476.303	800.000	0.095	0.299
-475.289	-176.273	-0.295	-0.008
-474.274	609.478	0.039	0.096
-473.259	156.870	0.115	0.158
-472.245	265.831	-0.063	0.110
-471.230	-168.970	-0.293	0.011
-470.216	-200.000	-0.005	-0.102
-469.201	-150.157	0.094	-0.007
-468.186	-34.379	-0.152	-0.083
-467.172	-200.000	-0.009	-0.093
-466.157	-90.475	0.096	-0.028
-465.143	1.607	-0.175	-0.125
-464.128	-81.794	-0.174	0.056
-463.113	-21.661	-0.090	-0.055
-462.099	390.699	0.109	-0.225
-461.084	288.242	0.070	0.126
-460.070	-50.184	0.143	0.067
-459.055	-20.889	-0.270	-0.164
-458.040	800.000	0.078	0.264
-457.026	91.907	-0.081	-0.090
-456.011	638.221	-0.071	0.180
-454.997	-200.000	0.007	-0.063
-453.982	-106.394	-0.146	0.032
-452.968	-153.958	0.284	0.019
-451.953	-200.000	0.003	-0.078
-450.938	-57.184	-0.163	0.071
-449.924	-119.417	-0.198	0.034
-448.909	-90.409	0.009	-0.003
-447.895	-200.000	0.012	0.118
-446.880	-131.982	0.278	-0.036
-445.865	-200.000	-0.010	-0.223
-444.851	-103.105	-0.231	0.054
-443.836	19.823	0.106	0.084
-442.822	135.748	-0.086	-0.111
-441.807	-200.000	-0.032	-0.192
-440.792	-119.138	0.169	-0.029
-439.778	-71.989	-0.392	0.144
-438.763	172.809	0.148	-0.211
-437.749	-133.554	-0.395	-0.049
-436.734	6.052	0.161	-0.118
-435.719	157.682	0.148	0.203
-434.705	2.687	-0.207	0.149
-433.690	800.000	-0.060	-0.216
-432.676	50.437	-0.124	0.117
-431.661	800.000	-0.031	-0.131
-430.646	214.678	0.011	-0.018
-429.632	113.393	0.128	-0.155
-428.617	147.629	-0.171	-0.228
-427.603	-200.000	-0.079	-0.403
-426.588	-182.759	0.294	-0.005
-425.573	-98.596	-0.101	-0.026
-424.559	-200.000	-0.025	-0.124
-423.544	477.810	-0.139	-0.311
-422.530	-89.070	0.085	-0.025
-421.515	119.498	-0.138	0.170
-420.500	-95.354	0.260	0.069
-419.486	800.000	-0.062	-0.201
-418.471	-21.155	0.239	0.145
-417.457	800.000	0.115	-0.415
-416.442	-146.044	-0.374	-0.033
-415.428	47.607	-0.278	-0.257
-414.413	144.306	-0.207	0.273
-413.398	-69.940	0.099	0.037
-412.384	800.000	0.069	-0.229
-411.369	-50.194	0.102	-0.048
-410.355	-200.000	0.009	0.041
-409.340	52.601	0.047	0.045
-408.325	-200.000	-0.031	0.228
-407.311	47.448	0.182	0.168
-406.296	-86.106	-0.353	-0.108
-405.282	-58.786	0.254	-0.109
-404.267	-49.723	0.176	0.083
-403.252	415.119	-0.109	-0.230
-402.238	517.662	-0.084	0.195
-401.223	-30.973	0.094	-0.053
-400.209	124.358	-0.099	0.123
-399.194	558.068	0.045	0.108
-398.179	800.000	-0.061	-0.175
-397.165	-200.000	0.026	0.241
-396.150	305.365	0.067	0.124
-395.136	800.000	0.094	-0.287
-394.121	-44.958	-0.242	-0.119
-393.106	321.290	-0.126	-0.237
-392.092	638.911	-0.003	-0.009
-391.077	800.000	-0.028	0.087
-390.063	800.000	-0.148	0.409
-389.048	800.000	-0.067	0.244
-388.033	447.439	0.102	-0.222
-387.019	-41.517	0.148	-0.075
-386.004	-200.000	-0.038	0.201
-384.990	800.000	0.085	0.350
-383.975	-65.494	-0.186	-0.074
-382.960	-135.442	-0.255	-0.030
-381.946	800.000	0.206	-0.667
-380.931	-193.744	0.246	0.002
-379.917	172.962	0.238	0.340
-378.902	-58.955	-0.242	0.104
-377.888	338.300	0.119	0.230
-376.873	387.532	-0.016	0.033
-375.858	192.059	-0.132	-0.197
-374.844	-75.358	0.281	-0.099
-373.829	161.045	-0.200	-0.277
-372.815	-193.648	0.174	0.001
-371.800	70.939	0.458	0.469
-370.785	-85.718	0.225	-0.069
-369.771	-38.906	0.203	0.106
-368.756	800.000	0.066	-0.199
-367.742	-9.228	0.322	0.213
-366.727	479.325	0.080	0.179
-365.712	-30.778	0.200	-0.112
-364.698	-95.235	-0.459	0.122
-363.683	-104.021	0.139	0.032
-362.669	326.988	0.104	0.196
-361.654	159.481	-0.185	0.255
-360.639	55.965	0.436	-0.418
-359.625	202.358	-0.134	-0.204
-358.610	-49.499	0.177	-0.083
-357.596	-90.981	0.331	-0.094
-356.581	-88.037	-0.064	0.019
-355.566	800.000	-0.024	-0.091
-354.552	-168.605	0.292	-0.011
-353.537	190.677	-0.065	-0.097
-352.523	24.874	-0.142	0.116
-351.508	-108.147	0.223	-0.048
-350.493	301.042	0.157	0.286
-349.479	79.584	-0.168	-0.178
-348.464	-126.760	0.291	0.043
-347.450	-200.000	0.033	0.187
-346.435	800.000	-0.026	-0.084
-345.420	-9.046	-0.103	-0.068
-344.406	-200.000	0.003	0.143
-343.391	789.739	-0.061	0.167
-342.377	800.000	-0.073	-0.216
-341.362	-24.934	-0.365	-0.214
-340.348	-200.000	-0.012	0.210
-339.333	117.939	-0.062	-0.075
-338.318	-147.953	0.324	0.027
-337.304	800.000	0.042	-0.183
-336.289	191.058	0.085	-0.127
-335.275	-172.165	0.091	-0.003
-334.260	-54.721	0.254	0.114
-333.245	-75.043	0.327	-0.116
-332.231	81.651	0.138	-0.148
-331.216	15.509	-0.128	-0.100
-330.202	-146.151	-0.362	-0.031
-329.187	-127.670	0.266	0.038
-328.172	-114.249	0.421	-0.080
-327.158	161.555	0.137	-0.190
-326.143	43.365	-0.232	-0.209
-325.129	-96.714	0.217	0.056
-324.114	60.502	0.034	0.033
-323.099	-200.000	-0.013	0.069
-322.085	-200.000	0.019	0.118
-321.070	-143.860	-0.249	-0.023
-320.056	-112.536	-0.282	0.056
-319.041	-173.403	-0.240	0.007
-318.026	-106.893	-0.279	-0.061
-317.012	-56.731	0.267	-0.117
-315.997	640.517	-0.097	-0.244
-314.983	-90.833	-0.170	-0.048
-313.968	-84.781	-0.197	-0.061
-312.953	411.960	-0.040	0.083
-311.939	-140.851	0.035	-0.004
-310.924	800.000	-0.069	0.220
-309.910	136.504	-0.208	-0.268
-308.895	41.806	0.288	0.258
-307.880	800.000	-0.110	0.442
-306.866	800.000	-0.031	-0.108
-305.851	330.078	0.025	-0.047
-304.837	-40.836	-0.125	0.064
-303.822	-200.000	0.003	-0.042
-302.807	-190.597	0.400	-0.004
-301.793	-200.000	-0.055	-0.252
-300.778	-200.000	0.093	-0.429
-299.764	224.822	-0.042	0.067
-298.749	-148.163	-0.159	0.013
-297.735	60.335	-0.079	-0.078
-296.720	-200.000	-0.005	0.150
-295.705	-200.000	0.002	0.249
-294.691	-119.466	-0.285	0.049
-293.676	-200.000	0.021	-0.491
-292.662	0.580	0.122	0.086
-291.647	-90.198	-0.242	-0.069
-290.632	59.179	-0.158	-0.153
-289.618	416.760	-0.124	-0.260
-288.603	293.432	0.166	-0.299
-287.589	-63.067	-0.162	0.066
-286.574	-101.790	0.307	0.073
-285.559	30.554	-0.304	0.257
-284.545	-117.506	0.173	-0.031
-283.530	71.862	0.106	0.108
-282.516	800.000	-0.035	0.114
-281.501	123.151	0.148	-0.183
-280.486	-30.795	0.260	-0.145
-279.472	-76.410	0.162	0.056
-278.457	-86.349	-0.133	-0.040
-277.443	482.962	0.196	-0.440
-276.428	800.000	0.066	-0.204
-275.413	-85.296	0.436	0.134
-274.399	-200.000	0.039	0.175
-273.384	800.000	-0.051	-0.169
-272.370	139.961	0.159	0.207
-271.355	-55.899	-0.343	-0.151
-270.340	-95.648	0.347	-0.092
-269.326	-56.623	-0.021	-0.009
-268.311	392.998	0.034	-0.070
-267.297	121.256	0.065	-0.079
-266.282	-117.919	0.081	-0.014
-265.267	4.035	-0.265	0.191
-264.253	-83.660	-0.161	-0.051
-263.238	479.706	0.063	0.141
-262.224	42.240	-0.236	-0.211
-261.209	-200.000	-0.154	-0.000
-260.195	115.628	0.164	-0.197
-259.180	-176.196	0.459	0.012
-258.165	563.098	-0.149	-0.356
-257.151	-141.468	0.318	0.032
-256.136	33.467	0.164	-0.141
-255.122	-28.564	0.153	0.087
-254.107	-17.583	-0.298	0.184
-253.092	-127.589	0.076	0.011
-252.078	-140.312	-0.394	-0.041
-251.063	41.495	0.151	-0.135
-250.049	-53.180	-0.111	-0.050
-249.034	57.640	0.102	-0.098
-248.019	445.389	-0.098	0.211
-247.005	651.699	-0.117	0.295
-245.990	800.000	0.069	0.267
-244.976	472.053	-0.067	0.148
-243.961	298.913	0.080	-0.145
-242.946	104.467	-0.124	0.144
-241.932	80.562	0.308	-0.327
-240.917	156.025	0.199	0.269
-239.903	-80.579	-0.241	-0.079
-238.888	-169.602	0.174	0.006
-237.873	-120.546	0.253	0.042
-236.859	-76.746	0.283	0.098
-235.844	126.462	-0.119	0.148
-234.830	-75.024	-0.197	-0.069
-233.815	-121.270	-0.234	0.038
-232.800	-200.000	0.074	0.416
-231.786	1.638	0.100	0.071
-230.771	-88.009	0.184	-0.054
-229.757	-75.466	0.147	0.051
-228.742	-200.000	-0.020	0.118
-227.727	-107.589	-0.328	-0.071
-226.713	-200.000	0.021	0.107
-225.698	-200.000	-0.029	0.126
-224.684	23.994	0.212	0.172
-223.669	-88.734	-0.168	0.049
-222.655	266.189	-0.095	0.163
-221.640	-200.000	0.004	-0.213
-220.625	800.000	-0.040	0.172
-219.611	12.029	-0.203	0.154
-218.596	610.615	-0.033	0.081
-217.582	-80.825	0.092	0.030
-216.567	195.210	0.047	0.070
-215.552	-51.370	0.324	-0.149
-214.538	-29.686	0.108	-0.061
-213.523	-29.929	0.289	-0.162
-212.509	120.205	-0.151	-0.184
-211.494	-33.731	-0.275	0.149
-210.479	-81.278	-0.045	0.015
-209.465	-57.017	0.041	-0.018
-208.450	-55.517	0.101	-0.044
-207.436	-13.197	-0.094	-0.060
-206.421	-200.000	-0.010	0.103
-205.406	-50.577	0.412	0.191
-204.392	800.000	-0.085	0.249
-203.377	184.994	-0.153	-0.223
-202.363	1.688	-0.158	-0.112
-201.348	-200.000	0.025	0.109
-200.333	-20.880	0.073	-0.044
-199.319	-10.402	0.267	0.174
-198.304	800.000	0.093	0.260
-197.290	-178.332	-0.132	0.003
-196.275	-200.000	0.115	-0.530
-195.260	126.246	0.195	0.243
-194.246	166.241	0.078	-0.108
-193.231	73.561	-0.080	0.083
-192.217	-148.991	-0.347	0.027
-191.202	-200.000	-0.018	-0.100
-190.187	-200.000	-0.031	0.252
-189.173	-200.000	-0.019	-0.259
-188.158	193.392	-0.067	0.099
-187.144	-122.376	-0.107	-0.017
-186.129	234.220	0.056	0.091
-185.114	-26.649	-0.066	0.038
-184.100	288.529	0.046	0.082
-183.085	603.987	-0.026	0.063
-182.071	-200.000	0.003	-0.148
-181.056	-200.000	-0.033	0.186
-180.042	8.374	0.137	-0.101
-179.027	-200.000	0.016	0.193
-178.012	-200.000	0.021	-0.131
-176.998	18.178	0.216	0.169
-175.983	-129.111	-0.204	-0.028
-174.969	800.000	0.074	0.296
-173.954	-200.000	0.100	0.454
-172.939	-53.912	0.415	-0.185
-171.925	-200.000	0.039	0.333
-170.910	-68.074	-0.215	-0.082
-169.896	-200.000	0.005	0.307
-168.881	11.041	0.070	0.052
-167.866	-81.771	0.132	0.043
-166.852	49.680	-0.142	0.131
-165.837	-162.098	-0.109	-0.005
-164.823	717.888	-0.013	-0.034
-163.808	315.491	0.235	-0.435
-162.793	516.935	-0.079	0.181
-161.779	528.969	-0.123	0.285
-160.764	-77.957	0.172	0.058
-159.750	-64.509	-0.088	-0.035
-158.735	321.412	-0.089	0.165
-157.720	-200.000	-0.053	-0.347
-156.706	83.826	-0.151	0.161
-155.691	-79.803	0.271	-0.089
-154.677	-152.006	0.102	0.007
-153.662	-200.000	-0.506	0.000
-152.647	69.219	-0.115	-0.116
-151.633	-190.669	-0.030	-0.000
-150.618	58.476	0.203	0.196
-149.604	45.392	-0.038	0.034
-148.589	75.460	0.065	0.067
-147.574	14.340	-0.123	0.094
-146.560	-200.000	-0.006	0.057
-145.545	77.770	-0.240	-0.250
-144.531	-200.000	0.015	-0.221
-143.516	-69.498	-0.146	0.055
-142.502	-90.971	-0.315	0.089
-141.487	-200.000	0.018	0.097
-140.472	-59.736	0.278	-0.117
-139.458	-200.000	-0.004	0.083
-138.443	-146.590	-0.083	0.007
-137.429	39.019	-0.024	0.021
-136.414	-80.391	-0.286	-0.094
-135.399	259.541	-0.125	-0.211
-134.385	-200.000	-0.001	-0.220
-133.370	800.000	-0.109	0.296
-132.356	569.816	0.140	0.333
-131.341	800.000	0.048	-0.154
-130.326	317.305	0.027	-0.050
-129.312	-7.319	-0.316	-0.210
-128.297	5.152	0.100	0.072
-127.283	-29.328	-0.148	-0.083
-126.268	204.428	0.069	0.105
-125.253	800.000	-0.082	0.227
-124.239	98.324	0.069	-0.077
-123.224	-200.000	0.032	-0.172
-122.210	794.870	0.106	0.286
