DTS Sentinel unit serial number:	SN413079Multiplexer serial number:	ORYXHardware model number:	OX4-SRSoftware version number:	ORYX F/W v4.00 Oryx Data Collector v3.7.2.0data status	okinstallation	princeton_trtdifferential loss correction	single-endedforward channel	channel 3reverse channel	N/Adate	2019/09/17time	09:12:35forward acquisition time	60.00reverse acquisition time	0.00gamma	496.2192k internal	0.2328k external	0.2328temperature offset calibration	0.9939default loss term (dB/km)	0.3790temperature slope calibration	1.0000multiplexer offset coefficient	1.0000multiplexer slope coefficient	1.0000fibre end	0.00T internal ref (°C)	28.37T ext. ref 1 (°C)	0.14T ext. ref 2 (°C)	25.35length (m)	temperature (°C)	Stokes	anti-Stokes-747.200	86.976	0.051	-0.056
-746.185	-90.145	0.074	0.022
-745.171	155.219	0.202	0.280
-744.156	-200.000	-0.029	0.139
-743.142	-200.000	0.070	0.344
-742.127	-53.761	-0.392	0.180
-741.112	-147.535	-0.156	-0.013
-740.098	-165.430	-0.195	0.009
-739.083	-200.000	0.007	0.385
-738.069	-132.622	-0.362	0.047
-737.054	-13.717	-0.317	-0.207
-736.039	-115.669	-0.287	-0.054
-735.025	-1.549	0.369	0.262
-734.010	181.900	-0.216	-0.320
-732.996	-47.470	0.047	0.023
-731.981	800.000	0.053	0.175
-730.966	-19.490	-0.212	0.133
-729.952	-200.000	0.000	-0.127
-728.937	-149.799	-0.165	0.013
-727.923	30.763	-0.110	-0.095
-726.908	-71.530	-0.230	-0.087
-725.894	112.864	-0.366	0.447
-724.879	-142.271	-0.066	-0.007
-723.864	116.861	-0.278	-0.344
-722.850	-200.000	-0.008	-0.191
-721.835	659.490	0.028	-0.071
-720.821	-137.024	-0.333	0.038
-719.806	-139.510	0.055	-0.006
-718.791	-126.622	-0.419	0.062
-717.777	-48.232	0.201	-0.098
-716.762	-108.979	-0.276	-0.059
-715.748	409.932	-0.093	-0.198
-714.733	37.999	-0.161	-0.144
-713.718	203.013	-0.066	0.103
-712.704	-32.609	0.240	0.134
-711.689	800.000	0.009	0.039
-710.675	-90.193	-0.145	-0.043
-709.660	-63.988	0.174	0.071
-708.645	-200.000	0.003	0.097
-707.631	502.579	0.068	0.158
-706.616	-122.317	-0.207	0.034
-705.602	333.095	-0.102	0.198
-704.587	-101.454	0.249	0.061
-703.572	101.076	0.072	0.084
-702.558	313.386	-0.103	-0.195
-701.543	37.610	0.152	0.136
-700.529	800.000	0.033	-0.113
-699.514	12.016	-0.223	0.172
-698.499	121.924	-0.221	0.277
-697.485	153.217	-0.144	-0.198
-696.470	800.000	0.071	0.227
-695.456	93.660	-0.111	-0.127
-694.441	29.616	0.131	0.112
-693.426	-170.821	-0.086	-0.003
-692.412	-40.834	-0.241	0.125
-691.397	47.137	0.080	0.075
-690.383	489.448	-0.126	-0.290
-689.368	-130.221	-0.143	0.020
-688.354	-134.501	-0.089	0.011
-687.339	219.297	-0.072	0.116
-686.324	223.806	-0.122	0.198
-685.310	-147.683	-0.215	-0.018
-684.295	114.395	-0.096	0.118
-683.281	-94.841	-0.377	-0.103
-682.266	51.039	0.068	-0.064
-681.251	-65.696	0.248	0.100
-680.237	-91.109	0.429	-0.124
-679.222	245.320	-0.128	-0.216
-678.208	-20.819	0.142	-0.087
-677.193	-48.357	-0.159	-0.077
-676.178	64.735	0.104	0.106
-675.164	800.000	0.080	0.258
-674.149	57.148	-0.142	-0.140
-673.135	-200.000	-0.005	-0.090
-672.120	-200.000	0.006	-0.285
-671.105	453.385	0.150	-0.333
-670.091	107.201	-0.270	-0.323
-669.076	-83.286	-0.228	0.074
-668.062	134.942	0.098	0.128
-667.047	200.729	-0.026	0.040
-666.032	-91.048	-0.277	0.080
-665.018	-82.075	0.282	0.092
-664.003	800.000	-0.073	-0.305
-662.989	-200.000	0.021	-0.136
-661.974	-121.772	-0.269	-0.045
-660.959	-33.922	0.356	0.197
-659.945	326.769	-0.140	-0.270
-658.930	800.000	-0.069	0.260
-657.916	-200.000	-0.032	-0.153
-656.901	800.000	0.135	-0.494
-655.886	79.845	-0.102	-0.110
-654.872	-88.762	0.171	0.051
-653.857	119.281	0.041	0.051
-652.843	-200.000	-0.010	0.160
-651.828	-161.505	0.257	0.013
-650.814	-132.550	0.237	-0.031
-649.799	800.000	-0.078	-0.286
-648.784	-7.861	0.102	-0.069
-647.770	-141.468	-0.273	-0.028
-646.755	-122.102	-0.191	-0.031
-645.741	800.000	-0.043	-0.167
-644.726	77.012	-0.091	-0.097
-643.711	712.756	0.066	-0.176
-642.697	-50.408	-0.301	0.143
-641.682	79.995	0.131	-0.141
-640.668	121.618	-0.204	-0.256
-639.653	220.325	-0.198	0.318
-638.638	-55.967	-0.233	-0.104
-637.624	800.000	0.067	-0.232
-636.609	-200.000	0.032	0.151
-635.595	-71.752	-0.057	0.021
-634.580	21.790	0.028	0.023
-633.565	-34.196	0.245	0.135
-632.551	-72.116	-0.098	-0.037
-631.536	-75.067	0.131	0.047
-630.522	800.000	-0.179	-0.594
-629.507	-57.032	-0.197	-0.087
-628.492	290.575	0.051	0.094
-627.478	-70.230	-0.136	0.052
-626.463	-99.340	-0.168	-0.043
-625.449	800.000	0.049	-0.190
-624.434	34.033	0.210	0.184
-623.419	-79.598	0.058	0.020
-622.405	661.267	0.035	0.091
-621.390	-155.270	-0.390	0.025
-620.376	-200.000	-0.011	0.104
-619.361	30.655	-0.046	0.039
-618.346	91.662	-0.096	0.108
-617.332	-140.146	0.325	-0.034
-616.317	407.791	-0.037	0.079
-615.303	99.403	-0.031	-0.036
-614.288	-200.000	-0.003	-0.445
-613.273	-142.939	0.178	-0.017
-612.259	-41.861	0.171	0.088
-611.244	-61.758	-0.107	0.045
-610.230	24.541	0.213	-0.177
-609.215	800.000	0.054	-0.203
-608.201	0.479	-0.360	0.258
-607.186	-68.288	-0.128	-0.050
-606.171	-114.536	0.253	0.049
-605.157	75.806	-0.235	0.249
-604.142	77.304	0.220	0.234
-603.128	87.049	0.130	0.144
-602.113	292.943	-0.130	0.238
-601.098	104.346	0.192	0.226
-600.084	-58.368	0.485	0.211
-599.069	56.331	-0.181	-0.176
-598.055	304.099	0.128	-0.239
-597.040	-42.860	-0.054	-0.028
-596.025	-121.291	0.270	-0.045
-595.011	133.365	-0.190	-0.246
-593.996	8.333	-0.033	0.025
-592.982	469.702	0.094	0.211
-591.967	-90.339	-0.268	-0.078
-590.952	-87.073	0.332	-0.101
-589.938	-200.000	-0.002	-0.295
-588.923	212.919	0.182	-0.287
-587.909	-111.557	-0.047	-0.010
-586.894	536.408	0.081	-0.193
-585.879	-200.000	-0.020	0.256
-584.865	-122.674	-0.222	-0.036
-583.850	-5.145	-0.094	0.065
-582.836	800.000	0.043	0.122
-581.821	94.018	-0.179	-0.203
-580.806	-153.546	0.344	0.024
-579.792	45.049	0.233	-0.215
-578.777	-63.911	0.187	-0.077
-577.763	30.272	-0.206	-0.176
-576.748	-137.448	0.041	0.005
-575.733	-200.000	0.014	-0.360
-574.719	-165.055	-0.486	0.022
-573.704	-200.000	-0.005	0.225
-572.690	-33.523	-0.195	-0.108
-571.675	-66.195	0.281	0.112
-570.661	196.980	0.028	-0.042
-569.646	-156.564	0.213	-0.013
-568.631	-200.000	-0.014	-0.187
-567.617	73.600	-0.238	-0.250
-566.602	800.000	-0.119	0.493
-565.588	-69.632	-0.265	-0.102
-564.573	-63.839	0.434	0.178
-563.558	-141.672	0.189	0.019
-562.544	249.356	0.025	-0.042
-561.529	800.000	-0.076	-0.305
-560.515	-67.056	0.480	-0.189
-559.500	228.521	-0.051	0.082
-558.485	-106.987	-0.164	0.036
-557.471	-125.030	-0.153	0.023
-556.456	-200.000	-0.025	0.170
-555.442	-140.125	-0.305	-0.032
-554.427	66.548	-0.070	-0.071
-553.412	122.797	0.021	0.027
-552.398	800.000	-0.055	-0.225
-551.383	-26.431	0.239	-0.140
-550.369	-83.822	-0.097	0.031
-549.354	79.477	-0.064	0.069
-548.339	-115.856	-0.153	0.029
-547.325	131.523	-0.260	-0.335
-546.310	81.188	-0.230	0.249
-545.296	192.522	0.056	0.084
-544.281	175.686	0.132	0.191
-543.266	-80.698	-0.327	-0.109
-542.252	-112.706	-0.160	0.032
-541.237	13.176	0.252	-0.195
-540.223	-101.385	-0.169	-0.041
-539.208	-200.000	-0.023	0.114
-538.193	-88.481	0.189	-0.056
-537.179	437.227	0.123	0.268
-536.164	-200.000	-0.023	0.173
-535.150	175.960	0.013	0.019
-534.135	-115.202	-0.170	0.032
-533.121	52.955	-0.202	-0.193
-532.106	94.981	-0.104	-0.118
-531.091	-83.709	0.168	0.054
-530.077	124.709	-0.189	-0.238
-529.062	-68.476	-0.192	0.074
-528.048	59.746	0.141	0.140
-527.033	349.314	-0.185	-0.366
-526.018	800.000	-0.050	0.144
-525.004	-147.615	0.246	-0.021
-523.989	800.000	-0.057	-0.198
-522.975	10.423	-0.195	-0.148
-521.960	460.924	-0.094	-0.210
-520.945	-200.000	0.341	0.001
-519.931	453.666	-0.050	0.110
-518.916	800.000	0.075	0.267
-517.902	135.219	0.193	0.251
-516.887	-23.277	-0.112	-0.067
-515.872	800.000	-0.093	-0.385
-514.858	49.483	0.021	0.020
-513.843	-200.000	0.010	-0.139
-512.829	-109.515	0.153	0.032
-511.814	155.015	0.158	-0.217
-510.799	334.363	-0.093	0.180
-509.785	448.839	-0.132	-0.291
-508.770	-19.848	0.053	0.033
-507.756	-141.513	-0.067	-0.007
-506.741	88.907	-0.094	0.105
-505.726	198.314	0.099	0.151
-504.712	-81.650	-0.137	-0.045
-503.697	522.604	0.075	-0.177
-502.683	-200.000	-0.004	-0.098
-501.668	800.000	0.007	0.028
-500.653	800.000	0.061	0.178
-499.639	800.000	0.046	-0.161
-498.624	800.000	-0.012	0.042
-497.610	592.369	-0.159	-0.392
-496.595	35.800	0.261	0.229
-495.581	139.770	-0.099	-0.130
-494.566	96.695	0.107	-0.123
-493.551	-0.457	-0.131	-0.093
-492.537	-140.140	0.222	-0.023
-491.522	-133.714	0.267	0.033
-490.508	96.848	0.159	0.181
-489.493	-127.954	-0.235	0.034
-488.478	-76.260	-0.139	0.049
-487.464	-85.414	-0.205	0.064
-486.449	243.563	-0.195	0.326
-485.435	95.344	0.219	0.249
-484.420	-200.000	-0.023	0.131
-483.405	391.552	-0.173	0.359
-482.391	-132.496	-0.125	0.016
-481.376	-200.000	-0.060	0.277
-480.362	-200.000	0.019	-0.343
-479.347	800.000	0.129	-0.459
-478.332	-200.000	-0.011	-0.203
-477.318	-44.333	-0.091	-0.046
-476.303	-84.578	0.272	-0.086
-475.289	166.867	0.061	-0.086
-474.274	-48.617	-0.192	-0.092
-473.259	413.748	-0.171	0.362
-472.245	800.000	-0.066	0.279
-471.230	-72.555	-0.431	-0.159
-470.216	-123.728	0.152	0.024
-469.201	107.916	0.133	-0.158
-468.186	-143.916	0.280	-0.026
-467.172	456.417	-0.044	-0.097
-466.157	14.038	0.136	-0.105
-465.143	-200.000	0.052	0.294
-464.128	-133.874	0.156	-0.019
-463.113	-200.000	-0.005	0.139
-462.099	-200.000	0.026	0.347
-461.084	59.517	0.105	-0.103
-460.070	-200.000	-0.048	-0.253
-459.055	631.768	0.053	0.133
-458.040	-200.000	0.002	0.493
-457.026	-200.000	-0.074	0.521
-456.011	-77.485	0.241	0.083
-454.997	-200.000	0.022	-0.128
-453.982	220.398	-0.073	-0.117
-452.968	248.984	0.043	0.072
-451.953	-146.819	0.064	-0.005
-450.938	414.528	0.049	0.104
-449.924	-69.519	0.117	0.045
-448.909	54.098	-0.081	0.077
-447.895	-11.713	0.325	0.212
-446.880	-200.000	-0.036	-0.252
-445.865	0.475	0.068	-0.048
-444.851	-145.656	0.286	0.025
-443.836	-105.154	-0.090	0.020
-442.822	-200.000	0.040	-0.181
-441.807	12.005	0.104	-0.079
-440.792	36.222	0.194	-0.171
-439.778	409.052	0.177	-0.372
-438.763	-200.000	0.009	-0.096
-437.749	-200.000	0.010	-0.109
-436.734	-72.933	0.375	0.137
-435.719	-200.000	0.039	-0.239
-434.705	-157.212	-0.208	0.013
-433.690	303.985	0.103	0.190
-432.676	-113.933	0.406	0.078
-431.661	183.294	-0.074	-0.109
-430.646	-109.884	-0.253	-0.053
-429.632	20.905	-0.240	-0.194
-428.617	-121.509	0.465	-0.077
-427.603	-57.799	0.131	-0.057
-426.588	105.938	-0.169	-0.200
-425.573	-200.000	-0.004	-0.222
-424.559	-57.327	0.148	0.065
-423.544	360.281	-0.073	0.145
-422.530	-200.000	-0.007	0.077
-421.515	99.611	-0.311	0.358
-420.500	15.986	0.346	-0.271
-419.486	-44.493	-0.278	0.138
-418.471	-200.000	0.031	-0.136
-417.457	-11.819	-0.282	0.184
-416.442	-200.000	-0.073	-0.335
-415.428	199.986	-0.151	-0.231
-414.413	134.340	-0.164	0.211
-413.398	-150.370	-0.425	-0.033
-412.384	-12.572	0.242	0.157
-411.369	-200.000	0.025	0.176
-410.355	800.000	0.091	-0.350
-409.340	-40.715	-0.340	-0.175
-408.325	-141.528	0.095	0.010
-407.311	82.375	0.402	0.433
-406.296	212.298	-0.132	0.208
-405.282	-16.162	-0.158	-0.100
-404.267	641.467	-0.030	-0.076
-403.252	119.967	-0.183	0.226
-402.238	181.076	-0.085	-0.124
-401.223	74.329	-0.045	-0.047
-400.209	-73.627	-0.217	-0.079
-399.194	94.327	0.187	-0.211
-398.179	-200.000	0.017	-0.196
-397.165	-200.000	-0.036	-0.178
-396.150	236.481	0.023	0.037
-395.136	66.099	-0.043	0.044
-394.121	26.015	0.201	-0.167
-393.106	585.512	0.112	-0.275
-392.092	-200.000	0.073	-0.327
-391.077	589.812	0.126	-0.310
-390.063	100.853	0.061	0.070
-389.048	800.000	0.072	-0.250
-388.033	-200.000	-0.015	-0.297
-387.019	149.860	-0.075	-0.102
-386.004	800.000	-0.103	-0.332
-384.990	689.803	0.077	-0.201
-383.975	-46.551	-0.085	-0.041
-382.960	124.633	-0.131	-0.163
-381.946	-73.550	-0.264	-0.096
-380.931	77.336	0.116	-0.123
-379.917	165.739	-0.159	-0.224
-378.902	-11.626	0.136	0.089
-377.888	-51.505	0.170	0.079
-376.873	-144.127	-0.281	0.026
-375.858	386.249	-0.169	0.347
-374.844	-65.858	0.277	0.110
-373.829	76.230	0.200	-0.211
-372.815	-77.958	0.094	0.032
-371.800	48.902	0.145	0.135
-370.785	-53.191	-0.029	-0.013
-369.771	95.569	-0.148	0.167
-368.756	-200.000	-0.019	-0.168
-367.742	-2.567	0.109	-0.076
-366.727	67.055	-0.157	0.159
-365.712	-182.456	-0.223	-0.004
-364.698	255.177	0.032	-0.054
-363.683	800.000	-0.092	0.362
-362.669	-42.068	-0.217	0.110
-361.654	-200.000	0.007	0.107
-360.639	-200.000	-0.016	0.140
-359.625	800.000	0.030	0.083
-358.610	-200.000	0.010	0.168
-357.596	-49.920	-0.298	0.140
-356.581	13.991	0.101	-0.078
-355.566	-200.000	0.037	-0.228
-354.552	-200.000	-0.045	-0.389
-353.537	-59.042	-0.233	-0.100
-352.523	714.773	-0.078	-0.205
-351.508	-74.694	0.173	0.062
-350.493	231.350	-0.143	0.232
-349.479	-91.455	-0.477	0.135
-348.464	170.042	-0.110	-0.157
-347.450	581.700	-0.127	-0.310
-346.435	52.481	0.145	0.138
-345.420	-116.346	0.476	0.087
-344.406	800.000	0.096	0.274
-343.391	136.548	0.288	0.372
-342.377	400.267	0.057	-0.118
-341.362	374.412	-0.087	-0.176
-340.348	-200.000	-0.018	-0.301
-339.333	122.671	0.277	0.344
-338.318	-200.000	0.014	0.369
-337.304	-99.628	0.395	-0.098
-336.289	-92.330	0.230	0.064
-335.275	-200.000	-0.019	0.376
-334.260	800.000	0.036	0.151
-333.245	-67.019	-0.215	0.084
-332.231	-200.000	-0.002	-0.172
-331.216	-100.966	0.238	-0.058
-330.202	-200.000	-0.004	-0.045
-329.187	16.458	-0.141	-0.110
-328.172	-200.000	0.007	0.261
-327.158	-108.369	0.192	-0.041
-326.143	-125.840	0.187	-0.028
-325.129	129.800	-0.095	0.120
-324.114	-155.711	-0.281	0.018
-323.099	192.380	0.264	-0.395
-322.085	-147.196	-0.028	-0.002
-321.070	-118.690	0.221	-0.039
-320.056	-17.235	-0.379	0.237
-319.041	307.124	0.161	-0.297
-318.026	101.773	0.234	0.270
-317.012	-74.759	-0.121	0.043
-315.997	-118.021	-0.273	0.048
-314.983	800.000	0.034	0.137
-313.968	-58.831	0.175	0.075
-312.953	-44.190	0.168	0.084
-311.939	-104.187	-0.273	0.063
-310.924	800.000	-0.031	0.126
-309.910	-106.927	0.358	-0.079
-308.895	-200.000	0.044	-0.250
-307.880	800.000	-0.033	0.105
-306.866	-200.000	-0.033	0.232
-305.851	800.000	0.057	0.247
-304.837	-12.441	0.106	-0.069
-303.822	-200.000	-0.079	-0.455
-302.807	704.738	-0.076	-0.198
-301.793	17.971	0.132	0.104
-300.778	29.820	-0.244	0.206
-299.764	222.285	0.073	-0.116
-298.749	-66.526	0.058	0.023
-297.735	-140.049	-0.202	-0.021
-296.720	-140.247	0.102	-0.011
-295.705	-33.532	-0.099	-0.054
-294.691	743.955	0.167	0.444
-293.676	-200.000	-0.021	0.353
-292.662	0.393	-0.171	0.121
-291.647	354.975	0.178	0.350
-290.632	-200.000	0.032	-0.240
-289.618	-200.000	-0.002	0.075
-288.603	129.333	0.224	0.283
-287.589	-106.070	-0.161	0.036
-286.574	-107.728	0.189	0.041
-285.559	-108.084	0.399	-0.086
-284.545	105.571	0.029	-0.033
-283.530	53.229	0.039	0.037
-282.516	-200.000	-0.006	0.209
-281.501	75.685	-0.129	0.135
-280.486	32.996	0.136	-0.116
-279.472	-160.247	0.075	0.004
-278.457	215.348	0.226	0.354
-277.443	18.705	-0.341	0.270
-276.428	89.156	-0.150	-0.165
-275.413	-200.000	0.002	-0.107
-274.399	498.846	0.099	0.225
-273.384	7.134	-0.051	0.037
-272.370	-62.713	-0.253	0.104
-271.355	-200.000	-0.042	-0.324
-270.340	800.000	0.061	-0.204
-269.326	50.252	-0.132	-0.124
-268.311	-43.832	-0.159	-0.079
-267.297	142.854	0.108	0.142
-266.282	184.425	-0.310	0.454
-265.267	-144.942	-0.450	-0.041
-264.253	684.999	0.044	-0.113
-263.238	800.000	-0.084	-0.317
-262.224	-28.096	-0.245	0.140
-261.209	-21.391	-0.079	-0.048
-260.195	-200.000	-0.006	-0.069
-259.180	27.690	0.164	-0.136
-258.165	-133.364	-0.203	0.025
-257.151	-33.221	-0.107	-0.059
-256.136	296.246	0.110	0.199
-255.122	85.098	-0.112	0.121
-254.107	-200.000	0.007	-0.153
-253.092	90.778	-0.206	-0.228
-252.078	520.318	-0.100	0.231
-251.063	169.061	0.159	-0.224
-250.049	191.394	0.174	-0.258
-249.034	130.208	-0.145	-0.183
-248.019	-53.413	-0.099	0.045
-247.005	-98.019	0.454	-0.116
-245.990	-127.049	-0.143	-0.021
-244.976	-165.981	0.049	-0.002
-243.961	800.000	0.088	0.265
-242.946	295.994	-0.148	0.268
-241.932	-200.000	-0.010	-0.093
-240.917	-200.000	0.023	0.199
-239.903	-16.808	-0.107	-0.067
-238.888	-6.729	0.281	0.189
-237.873	-142.299	-0.078	0.008
-236.859	94.026	0.121	0.136
-235.844	-200.000	-0.062	-0.301
-234.830	-67.790	-0.086	0.033
-233.815	-109.422	-0.353	-0.074
-232.800	-200.000	0.014	-0.220
-231.786	-65.219	-0.096	-0.038
-230.771	800.000	0.017	-0.049
-229.757	-29.298	-0.147	-0.083
-228.742	-30.372	-0.026	0.015
-227.727	391.296	0.121	0.247
-226.713	204.021	-0.100	0.153
-225.698	-49.137	-0.110	0.052
-224.684	800.000	-0.110	0.410
-223.669	-82.925	0.243	-0.078
-222.655	236.279	-0.170	-0.278
-221.640	112.281	-0.104	0.125
-220.625	-200.000	0.036	0.341
-219.611	106.737	0.126	0.148
-218.596	-200.000	0.059	-0.289
-217.582	-172.495	-0.216	-0.007
-216.567	11.616	0.052	0.039
-215.552	85.487	-0.164	-0.178
-214.538	800.000	-0.043	-0.145
-213.523	-157.592	-0.180	0.011
-212.509	-97.540	0.419	-0.107
-211.494	619.919	-0.070	-0.173
-210.479	6.265	0.117	-0.086
-209.465	800.000	0.062	0.222
-208.450	-200.000	0.020	-0.233
-207.436	264.917	0.053	0.091
-206.421	-28.302	-0.279	-0.159
-205.406	-92.013	-0.065	-0.018
-204.392	-180.608	-0.124	-0.003
-203.377	-200.000	0.007	0.054
-202.363	253.315	0.086	-0.145
-201.348	150.210	-0.128	0.171
-200.333	-106.922	0.284	-0.062
-199.319	-87.414	0.416	-0.124
-198.304	45.371	-0.211	0.192
-197.290	-84.203	0.520	-0.163
-196.275	-200.000	-0.078	-0.370
-195.260	7.096	-0.134	0.099
-194.246	102.510	0.231	0.266
-193.231	177.609	0.041	0.059
-192.217	122.602	-0.091	-0.113
-191.202	800.000	-0.007	0.020
-190.187	-28.074	-0.198	0.113
-189.173	-200.000	0.030	-0.189
-188.158	800.000	-0.038	0.147
-187.144	-10.110	0.375	-0.245
-186.129	56.817	-0.211	-0.203
-185.114	800.000	-0.085	0.300
-184.100	-168.817	0.272	-0.010
-183.085	-88.565	0.089	0.026
-182.071	-39.443	-0.223	0.115
-181.056	-59.042	-0.354	0.151
-180.042	6.068	0.169	0.123
-179.027	-200.000	-0.021	0.178
-178.012	-107.751	0.252	0.054
-176.998	800.000	-0.073	0.205
-175.983	-163.191	0.326	-0.015
-174.969	-152.353	-0.212	0.015
-173.954	234.361	-0.035	-0.057
-172.939	-200.000	0.010	-0.099
-171.925	-147.174	-0.147	-0.012
-170.910	18.266	-0.183	0.144
-169.896	-104.476	0.411	0.094
-168.881	-51.095	0.196	-0.090
-167.866	6.981	-0.157	0.116
-166.852	86.571	-0.175	0.190
-165.837	83.722	0.140	0.150
-164.823	-42.581	0.355	0.178
-163.808	566.723	0.125	0.298
-162.793	-104.836	0.042	-0.010
-161.779	800.000	0.176	0.535
-160.764	261.325	-0.100	-0.171
-159.750	-51.887	-0.022	-0.010
-158.735	-58.015	0.097	-0.042
-157.720	-200.000	0.020	0.133
-156.706	-66.167	0.197	0.077
-155.691	-82.398	0.189	-0.060
-154.677	489.473	0.096	0.217
-153.662	-5.007	-0.365	0.248
-152.647	13.086	-0.336	0.256
-151.633	-173.043	0.294	0.009
-150.618	362.949	0.012	0.024
-149.604	575.559	-0.064	0.153
-148.589	77.753	0.063	0.066
-147.574	381.059	-0.052	-0.105
-146.560	-145.697	0.318	-0.028
-145.545	-200.000	-0.076	0.435
-144.531	-50.026	0.328	0.153
-143.516	-137.523	0.310	-0.034
-142.502	-157.219	-0.334	-0.020
-141.487	120.716	-0.058	0.070
-140.472	-8.470	0.145	-0.096
-139.458	44.864	0.190	0.172
-138.443	800.000	-0.018	0.060
-137.429	-200.000	0.016	-0.114
-136.414	-62.562	0.171	-0.070
-135.399	87.900	0.242	0.264
-134.385	46.383	-0.205	0.187
-133.370	800.000	-0.036	-0.142
-132.356	71.412	-0.182	-0.186
-131.341	800.000	-0.145	0.448
-130.326	-41.920	0.199	-0.100
-129.312	-200.000	-0.024	0.268
-128.297	-200.000	0.039	-0.344
-127.283	255.225	0.080	0.135
-126.268	222.056	-0.128	0.203
-125.253	800.000	-0.043	0.121
-124.239	91.957	-0.144	-0.160
-123.224	520.914	0.038	-0.088
-122.210	-125.974	-0.078	-0.011
