DTS Sentinel unit serial number:	SN413079Multiplexer serial number:	ORYXHardware model number:	OX4-SRSoftware version number:	ORYX F/W v4.00 Oryx Data Collector v3.7.2.0data status	okinstallation	princeton_trtdifferential loss correction	single-endedforward channel	channel 3reverse channel	N/Adate	2019/09/11time	16:18:11forward acquisition time	60.00reverse acquisition time	0.00gamma	496.2192k internal	0.2287k external	0.2287temperature offset calibration	0.9989default loss term (dB/km)	0.3790temperature slope calibration	1.0000multiplexer offset coefficient	1.0000multiplexer slope coefficient	1.0000fibre end	0.00T internal ref (°C)	43.44T ext. ref 1 (°C)	1.07T ext. ref 2 (°C)	38.94length (m)	temperature (°C)	Stokes	anti-Stokes-747.200	72.587	-0.171	0.182
-746.185	1.504	0.192	0.141
-745.171	-102.353	0.302	-0.074
-744.156	350.813	-0.191	0.388
-743.142	-154.534	-0.097	0.007
-742.127	-200.000	-0.006	0.394
-741.112	23.072	0.181	0.152
-740.098	137.575	-0.209	0.280
-739.083	800.000	-0.007	-0.028
-738.069	43.838	-0.178	0.167
-737.054	16.108	0.160	0.129
-736.039	-61.972	0.056	0.024
-735.025	-122.926	-0.081	-0.013
-734.010	-55.679	-0.270	-0.124
-732.996	-11.364	-0.048	-0.033
-731.981	35.657	-0.122	-0.110
-730.966	-200.000	0.041	-0.297
-729.952	800.000	-0.026	0.082
-728.937	-200.000	-0.016	-0.164
-727.923	-7.646	-0.365	0.253
-726.908	556.718	-0.123	0.304
-725.894	55.610	-0.233	-0.231
-724.879	-44.699	-0.154	0.079
-723.864	434.252	-0.110	-0.245
-722.850	800.000	0.012	-0.043
-721.835	10.694	0.123	0.096
-720.821	-54.596	-0.408	-0.189
-719.806	210.241	0.227	-0.365
-718.791	-200.000	-0.004	-0.041
-717.777	-200.000	0.031	-0.149
-716.762	-28.076	0.207	-0.123
-715.748	128.333	0.136	-0.177
-714.733	445.658	0.083	0.187
-713.718	-1.316	0.197	-0.143
-712.704	-137.779	0.108	-0.012
-711.689	65.128	-0.295	0.305
-710.675	800.000	-0.033	-0.142
-709.660	365.551	-0.053	-0.110
-708.645	-200.000	-0.040	0.194
-707.631	-200.000	0.060	0.414
-706.616	-200.000	0.019	-0.101
-705.602	-135.256	0.299	0.037
-704.587	-55.218	0.159	0.073
-703.572	-67.893	0.235	-0.094
-702.558	-55.661	-0.264	0.121
-701.543	-39.667	0.395	-0.212
-700.529	-25.797	0.112	-0.067
-699.514	-102.694	-0.151	0.037
-698.499	-87.649	0.386	-0.119
-697.485	-66.510	-0.172	0.070
-696.470	112.717	0.234	-0.290
-695.456	41.872	-0.056	0.052
-694.441	-39.223	0.289	-0.155
-693.426	-200.000	-0.152	0.000
-692.412	-200.000	0.047	0.226
-691.397	-34.957	-0.114	-0.064
-690.383	800.000	-0.042	-0.173
-689.368	71.395	0.164	-0.175
-688.354	34.356	0.509	0.455
-687.339	-84.132	-0.293	-0.095
-686.324	-60.022	-0.139	0.061
-685.310	100.062	-0.051	-0.061
-684.295	-15.589	0.270	-0.177
-683.281	150.396	0.266	-0.370
-682.266	-85.298	-0.164	0.052
-681.251	161.508	-0.104	0.148
-680.237	-30.775	0.166	0.096
-679.222	-161.410	-0.145	0.008
-678.208	364.688	-0.166	0.342
-677.193	-18.577	0.180	-0.115
-676.178	800.000	-0.051	0.221
-675.164	-90.041	-0.413	-0.123
-674.149	-70.488	-0.271	-0.105
-673.135	53.072	0.132	0.129
-672.120	34.739	0.093	-0.083
-671.105	-16.490	0.241	0.156
-670.091	-200.000	-0.012	0.065
-669.076	-85.475	0.138	-0.044
-668.062	132.187	-0.096	0.126
-667.047	48.860	0.198	-0.190
-666.032	-149.278	0.074	0.006
-665.018	800.000	-0.116	-0.402
-664.003	298.435	-0.032	0.060
-662.989	800.000	-0.066	0.198
-661.974	401.812	0.110	0.236
-660.959	-47.524	-0.433	0.215
-659.945	437.827	0.090	0.201
-658.930	186.277	0.104	0.158
-657.916	316.092	-0.129	-0.249
-656.901	1.212	0.268	-0.197
-655.886	-111.326	0.422	0.088
-654.872	-200.000	0.044	0.288
-653.857	240.719	-0.065	-0.110
-652.843	293.939	-0.080	0.149
-651.828	358.053	-0.109	-0.223
-650.814	21.365	0.134	0.111
-649.799	-128.499	-0.254	0.037
-648.784	73.837	-0.220	0.236
-647.770	106.101	0.089	-0.108
-646.755	-200.000	0.005	0.025
-645.741	487.283	-0.081	-0.190
-644.726	98.023	-0.196	-0.231
-643.711	-83.227	-0.343	0.113
-642.697	-82.523	-0.173	0.057
-641.682	-20.831	0.089	-0.056
-640.668	-200.000	-0.003	-0.056
-639.653	800.000	0.081	0.279
-638.638	-157.184	-0.154	-0.010
-637.624	207.926	-0.095	0.152
-636.609	116.898	0.097	-0.122
-635.595	-27.008	0.412	-0.245
-634.580	57.580	0.160	-0.160
-633.565	-63.507	-0.079	0.033
-632.551	-200.000	-0.002	0.077
-631.536	146.608	-0.238	0.327
-630.522	-59.296	-0.462	0.203
-629.507	518.187	-0.205	0.489
-628.492	29.273	0.072	0.063
-627.478	800.000	0.082	-0.259
-626.463	493.856	0.160	-0.374
-625.449	-1.954	0.366	-0.263
-624.434	90.883	-0.338	-0.387
-623.419	-200.000	-0.034	0.264
-622.405	-17.346	0.051	0.033
-621.390	-136.502	0.117	0.014
-620.376	192.218	0.118	0.182
-619.361	82.150	-0.253	0.279
-618.346	800.000	-0.051	0.204
-617.332	-200.000	0.035	0.160
-616.317	359.493	0.076	0.156
-615.303	-105.371	-0.221	-0.051
-614.288	189.034	-0.117	0.179
-613.273	-200.000	0.031	0.282
-612.259	800.000	0.078	0.262
-611.244	-17.574	0.076	-0.049
-610.230	-12.117	-0.128	-0.086
-609.215	-126.795	-0.285	-0.043
-608.201	133.274	-0.199	0.263
-607.186	800.000	0.135	-0.393
-606.171	78.003	0.138	-0.150
-605.157	800.000	-0.115	0.494
-604.142	-200.000	-0.006	-0.137
-603.128	638.984	-0.106	-0.274
-602.113	292.142	-0.125	-0.233
-601.098	-25.745	0.194	-0.117
-600.084	63.242	-0.310	-0.317
-599.069	-145.148	-0.250	-0.023
-598.055	-5.190	-0.315	0.221
-597.040	-200.000	-0.020	-0.174
-596.025	4.179	0.170	-0.127
-595.011	460.645	0.129	0.293
-593.996	-38.449	0.208	-0.112
-592.982	87.497	0.088	0.099
-591.967	61.910	0.028	-0.028
-590.952	8.510	-0.183	0.141
-589.938	-48.666	0.144	-0.070
-588.923	-200.000	-0.044	-0.405
-587.909	-200.000	0.046	-0.434
-586.894	163.869	-0.093	0.133
-585.879	-181.632	-0.122	-0.002
-584.865	59.232	-0.059	0.059
-583.850	-200.000	-0.000	-0.070
-582.836	-200.000	0.021	-0.185
-581.821	162.734	-0.101	0.144
-580.806	-103.547	-0.085	0.020
-579.792	-41.682	0.311	0.163
-578.777	-59.001	0.161	0.071
-577.763	-0.654	0.119	-0.086
-576.748	-48.206	0.263	0.129
-575.733	83.440	-0.172	0.191
-574.719	-138.074	-0.153	0.017
-573.704	44.195	-0.029	0.028
-572.690	1.823	-0.283	-0.208
-571.675	-19.356	-0.110	0.069
-570.661	170.169	-0.050	-0.072
-569.646	-106.496	-0.196	0.044
-568.631	800.000	-0.026	0.104
-567.617	-200.000	0.004	0.381
-566.602	182.039	-0.112	-0.168
-565.588	-101.932	-0.228	-0.056
-564.573	-26.387	-0.329	-0.197
-563.558	-200.000	0.030	0.325
-562.544	32.756	0.125	-0.111
-561.529	-200.000	0.028	-0.131
-560.515	-59.691	0.259	-0.113
-559.500	-14.364	-0.215	0.141
-558.485	-200.000	-0.011	0.381
-557.471	247.824	-0.046	-0.079
-556.456	-96.493	-0.310	-0.083
-555.442	-93.258	0.346	-0.098
-554.427	134.664	-0.125	-0.165
-553.412	-31.247	-0.330	-0.189
-552.398	79.969	-0.194	0.213
-551.383	-47.909	-0.268	0.132
-550.369	63.885	-0.243	-0.249
-549.354	-123.266	0.250	-0.041
-548.339	-82.863	0.111	0.036
-547.325	289.316	0.113	0.209
-546.310	-24.722	-0.110	0.067
-545.296	-50.719	0.124	0.059
-544.281	-112.203	-0.075	-0.015
-543.266	-200.000	-0.014	-0.123
-542.252	3.201	-0.164	0.121
-541.237	317.783	-0.065	0.125
-540.223	-168.052	-0.027	-0.001
-539.208	528.784	-0.101	-0.243
-538.193	800.000	0.020	0.082
-537.179	220.673	0.195	-0.319
-536.164	-70.322	0.109	0.042
-535.150	800.000	-0.165	-0.585
-534.135	-126.898	0.259	-0.039
-533.121	-120.526	0.129	0.022
-532.106	178.831	-0.204	0.304
-531.091	-19.910	-0.394	0.248
-530.077	162.449	-0.275	-0.392
-529.062	-51.855	-0.190	0.090
-528.048	-200.000	-0.004	-0.063
-527.033	-152.720	-0.255	-0.018
-526.018	47.697	-0.166	-0.158
-525.004	-200.000	-0.008	-0.196
-523.989	-20.116	0.131	0.082
-522.975	394.103	-0.148	0.313
-521.960	48.313	-0.203	-0.193
-520.945	-73.149	0.285	-0.106
-519.931	16.608	0.153	0.123
-518.916	-54.599	0.169	0.078
-517.902	26.182	0.127	-0.108
-516.887	170.370	0.077	-0.111
-515.872	-200.000	-0.013	-0.299
-514.858	-139.708	0.298	-0.032
-513.843	62.671	0.147	0.149
-512.829	258.785	-0.118	0.207
-511.814	-135.774	0.263	-0.032
-510.799	-178.314	-0.326	-0.008
-509.785	202.843	-0.127	0.199
-508.770	165.718	-0.020	-0.028
-507.756	278.857	-0.158	-0.286
-506.741	306.328	-0.074	-0.139
-505.726	-164.095	0.081	0.004
-504.712	800.000	0.048	-0.157
-503.697	-200.000	-0.040	0.299
-502.683	162.383	-0.110	-0.157
-501.668	-31.462	-0.098	-0.056
-500.653	-200.000	-0.024	-0.285
-499.639	-78.692	0.483	-0.168
-498.624	81.978	-0.175	-0.192
-497.610	616.111	0.067	-0.171
-496.595	205.469	-0.160	-0.252
-495.581	-25.053	0.210	-0.127
-494.566	-200.000	0.005	0.272
-493.551	382.056	-0.101	0.211
-492.537	25.851	-0.177	-0.150
-491.522	800.000	0.060	-0.262
-490.508	274.412	0.189	0.340
-489.493	800.000	0.161	0.499
-488.478	-12.216	-0.199	0.132
-487.464	458.191	0.089	0.201
-486.449	281.946	-0.036	-0.066
-485.435	466.576	0.174	-0.395
-484.420	-44.969	0.190	-0.096
-483.405	8.829	-0.148	-0.113
-482.391	-134.856	0.296	-0.036
-481.376	-200.000	0.009	-0.068
-480.362	-200.000	-0.000	-0.133
-479.347	23.255	0.047	-0.039
-478.332	800.000	-0.019	0.073
-477.318	-55.317	0.222	-0.101
-476.303	-128.947	-0.340	-0.048
-475.289	-5.585	-0.162	-0.112
-474.274	201.493	-0.131	-0.204
-473.259	290.921	0.074	0.137
-472.245	800.000	0.016	0.056
-471.230	87.041	-0.223	-0.250
-470.216	-91.270	-0.208	-0.060
-469.201	261.402	0.221	-0.389
-468.186	49.976	0.274	-0.262
-467.172	85.002	-0.382	-0.424
-466.157	-200.000	0.057	-0.396
-465.143	13.566	-0.163	0.128
-464.128	800.000	0.080	0.254
-463.113	-103.622	0.061	0.015
-462.099	167.324	0.107	0.154
-461.084	-7.241	0.228	0.157
-460.070	-108.443	-0.242	0.053
-459.055	-116.357	-0.450	0.085
-458.040	716.587	-0.115	0.310
-457.026	80.095	0.172	0.187
-456.011	-200.000	-0.015	-0.092
-454.997	-20.140	-0.078	0.049
-453.982	-34.221	0.298	0.166
-452.968	20.794	-0.128	0.105
-451.953	21.434	0.139	0.115
-450.938	71.237	0.184	0.193
-449.924	-200.000	-0.013	0.244
-448.909	-53.972	-0.128	-0.059
-447.895	-80.592	0.306	-0.103
-446.880	783.127	-0.063	0.174
-445.865	418.200	-0.126	-0.273
-444.851	-200.000	0.003	-0.238
-443.836	-117.416	-0.245	0.045
-442.822	364.322	-0.180	-0.367
-441.807	-200.000	-0.002	-0.044
-440.792	-7.630	0.203	-0.139
-439.778	-111.819	0.396	0.081
-438.763	-80.611	0.351	-0.118
-437.749	521.729	-0.095	0.227
-436.734	187.040	0.052	-0.079
-435.719	623.812	0.158	0.402
-434.705	800.000	0.098	0.340
-433.690	-64.605	0.457	0.188
-432.676	800.000	0.037	0.129
-431.661	-92.570	0.090	-0.026
-430.646	-157.646	0.336	0.020
-429.632	668.430	0.080	-0.211
-428.617	-33.178	-0.368	-0.206
-427.603	-170.861	-0.177	-0.006
-426.588	-100.066	0.173	0.044
-425.573	-200.000	0.061	0.334
-424.559	435.969	-0.149	-0.329
-423.544	-70.480	0.250	0.096
-422.530	800.000	0.016	0.068
-421.515	91.327	0.106	0.121
-420.500	800.000	0.052	-0.162
-419.486	800.000	-0.059	-0.206
-418.471	653.760	-0.096	-0.250
-417.457	333.568	-0.182	-0.357
-416.442	4.591	0.155	0.115
-415.428	159.776	-0.229	-0.323
-414.413	22.232	0.142	0.118
-413.398	-26.543	0.123	0.073
-412.384	217.740	-0.052	0.084
-411.369	251.981	-0.171	-0.295
-410.355	-88.104	-0.145	0.044
-409.340	-56.811	0.222	-0.099
-408.325	245.027	0.119	0.202
-407.311	492.185	-0.087	-0.203
-406.296	-200.000	-0.009	0.038
-405.282	607.491	0.090	0.228
-404.267	10.695	-0.296	-0.229
-403.252	141.330	-0.082	-0.110
-402.238	-140.687	0.316	0.033
-401.223	-81.845	0.213	-0.071
-400.209	27.403	-0.127	0.108
-399.194	-150.029	0.097	0.008
-398.179	47.381	-0.248	0.234
-397.165	-126.685	-0.066	-0.010
-396.150	410.105	0.043	-0.092
-395.136	-20.872	0.103	0.064
-394.121	-200.000	0.046	0.557
-393.106	-2.279	-0.113	0.081
-392.092	-140.752	-0.060	-0.006
-391.077	-137.367	0.273	-0.031
-390.063	-52.892	0.050	0.023
-389.048	800.000	0.052	0.209
-388.033	143.229	-0.086	0.116
-387.019	-134.634	-0.212	0.026
-386.004	68.670	-0.104	0.108
-384.990	-15.757	-0.250	-0.161
-383.975	-58.918	0.155	0.068
-382.960	1.403	-0.117	0.085
-381.946	-200.000	-0.010	-0.131
-380.931	-27.609	-0.171	0.100
-379.917	-118.889	0.316	0.056
-378.902	83.977	0.107	-0.118
-377.888	8.514	0.082	0.062
-376.873	32.055	0.291	0.253
-375.858	-69.906	0.132	-0.051
-374.844	800.000	-0.075	-0.330
-373.829	75.585	0.357	-0.381
-372.815	-71.170	0.381	-0.145
-371.800	102.262	0.149	-0.176
-370.785	-64.094	-0.003	0.001
-369.771	114.435	0.130	0.160
-368.756	133.410	-0.055	0.072
-367.742	771.223	0.077	0.211
-366.727	19.774	-0.145	-0.118
-365.712	-99.583	-0.218	-0.055
-364.698	91.557	0.113	0.128
-363.683	-147.988	0.388	0.033
-362.669	-200.000	0.001	0.032
-361.654	101.246	0.063	0.074
-360.639	-152.657	0.199	0.014
-359.625	-127.920	-0.186	-0.027
-358.610	-9.347	-0.191	-0.129
-357.596	-167.627	0.088	0.004
-356.581	-38.248	0.349	0.187
-355.566	-200.000	-0.002	-0.070
-354.552	79.888	-0.098	-0.107
-353.537	-103.250	0.209	0.050
-352.523	69.895	0.145	-0.152
-351.508	236.557	0.206	-0.345
-350.493	393.602	-0.068	0.144
-349.479	-149.767	-0.252	0.020
-348.464	191.063	-0.193	-0.293
-347.450	36.141	0.122	0.109
-346.435	-46.468	-0.176	0.087
-345.420	-200.000	0.040	0.423
-344.406	-200.000	0.034	0.287
-343.391	-140.456	0.184	-0.019
-342.377	-200.000	-0.004	-0.148
-341.362	800.000	0.007	0.023
-340.348	-140.009	-0.387	0.041
-339.333	-144.207	0.159	0.015
-338.318	-200.000	-0.078	0.356
-337.304	45.994	0.062	-0.058
-336.289	-0.544	-0.211	0.151
-335.275	82.366	-0.114	-0.124
-334.260	800.000	-0.049	-0.145
-333.245	-142.846	-0.267	0.026
-332.231	-86.291	0.110	0.034
-331.216	343.609	0.058	0.115
-330.202	-41.365	-0.280	-0.146
-329.187	-27.087	-0.355	0.209
-328.172	-200.000	0.005	0.147
-327.158	-115.886	-0.085	-0.016
-326.143	-61.846	0.242	0.102
-325.129	-111.650	0.177	0.036
-324.114	-200.000	0.019	-0.437
-323.099	-200.000	0.022	-0.175
-322.085	5.437	0.186	0.138
-321.070	-15.474	0.044	-0.028
-320.056	-200.000	0.028	-0.222
-319.041	-174.403	0.185	-0.005
-318.026	573.945	-0.086	0.212
-317.012	-120.478	0.148	0.025
-315.997	-103.581	0.127	-0.030
-314.983	-26.872	0.197	0.116
-313.968	170.019	0.029	0.042
-312.953	-13.559	0.088	-0.057
-311.939	283.327	0.110	0.200
-310.924	-88.698	0.277	0.083
-309.910	207.988	-0.107	-0.168
-308.895	-200.000	0.027	0.214
-307.880	14.270	0.176	0.138
-306.866	-151.414	-0.283	-0.021
-305.851	-29.622	0.144	0.083
-304.837	398.454	-0.181	0.381
-303.822	65.629	-0.096	-0.098
-302.807	159.405	0.171	0.240
-301.793	-27.290	0.299	0.175
-300.778	-200.000	0.056	0.308
-299.764	-200.000	0.002	0.161
-298.749	8.036	-0.226	0.171
-297.735	-14.205	-0.160	-0.104
-296.720	-200.000	0.022	-0.175
-295.705	92.121	0.133	-0.151
-294.691	56.349	-0.177	0.173
-293.676	50.841	0.134	-0.128
-292.662	241.069	0.045	-0.076
-291.647	-17.785	0.316	-0.200
-290.632	-200.000	0.027	-0.182
-289.618	43.192	0.179	0.164
-288.603	-200.000	0.091	-0.420
-287.589	-171.158	0.204	0.007
-286.574	-112.171	-0.136	-0.027
-285.559	-200.000	-0.005	-0.098
-284.545	545.697	-0.211	0.509
-283.530	147.084	0.185	0.251
-282.516	-200.000	0.029	-0.212
-281.501	32.453	-0.070	0.061
-280.486	121.846	0.195	-0.245
-279.472	-61.155	0.158	0.067
-278.457	-200.000	0.014	-0.268
-277.443	66.567	-0.228	0.233
-276.428	800.000	0.035	-0.114
-275.413	103.301	-0.160	-0.188
-274.399	800.000	-0.056	-0.246
-273.384	-97.233	-0.146	-0.038
-272.370	10.442	-0.093	0.071
-271.355	-103.430	-0.503	-0.119
-270.340	-92.081	-0.176	0.050
-269.326	249.101	0.177	0.303
-268.311	-46.654	-0.098	-0.048
-267.297	-77.247	-0.318	0.112
-266.282	110.360	0.197	-0.239
-265.267	800.000	-0.077	0.311
-264.253	-200.000	-0.046	0.320
-263.238	800.000	0.011	-0.032
-262.224	-166.878	-0.121	0.005
-261.209	-200.000	-0.019	-0.154
-260.195	800.000	0.074	0.302
-259.180	-65.873	-0.074	-0.030
-258.165	800.000	-0.113	-0.393
-257.151	56.287	-0.096	-0.094
-256.136	105.522	-0.038	-0.045
-255.122	240.733	0.158	0.266
-254.107	-104.578	0.164	0.038
-253.092	64.519	-0.105	0.107
-252.078	800.000	-0.087	0.247
-251.063	-78.579	-0.051	-0.018
-250.049	475.417	0.134	-0.305
-249.034	-123.876	0.378	0.060
-248.019	-13.344	0.013	-0.008
-247.005	84.417	0.191	0.211
-245.990	-84.905	0.252	0.079
-244.976	800.000	0.075	0.212
-243.961	-60.009	-0.091	0.039
-242.946	61.084	0.162	0.162
-241.932	800.000	0.135	-0.382
-240.917	-85.761	0.160	-0.050
-239.903	2.646	0.115	-0.084
-238.888	-42.607	0.119	-0.061
-237.873	481.923	0.098	-0.223
-236.859	22.966	-0.266	-0.219
-235.844	-31.661	0.209	-0.118
-234.830	51.887	0.179	0.171
-233.815	800.000	-0.074	-0.325
-232.800	-200.000	-0.019	0.168
-231.786	-200.000	-0.054	-0.423
-230.771	-200.000	-0.043	0.211
-229.757	-4.761	0.362	-0.251
-228.742	-30.464	-0.057	0.032
-227.727	151.853	-0.107	0.147
-226.713	800.000	-0.067	0.238
-225.698	-80.405	-0.120	-0.040
-224.684	330.512	0.061	-0.118
-223.669	-102.166	-0.051	0.012
-222.655	45.151	-0.281	-0.260
-221.640	-200.000	-0.020	-0.147
-220.625	122.341	0.117	-0.146
-219.611	301.099	0.134	0.249
-218.596	-8.897	0.391	-0.263
-217.582	-20.732	0.381	0.235
-216.567	-200.000	0.027	0.305
-215.552	81.858	-0.116	-0.126
-214.538	0.573	0.268	-0.193
-213.523	-65.934	0.139	-0.056
-212.509	-6.292	-0.292	-0.200
-211.494	-200.000	-0.104	0.480
-210.479	296.780	0.019	-0.035
-209.465	-200.000	0.014	0.118
-208.450	49.026	-0.162	0.153
-207.436	113.785	-0.331	0.404
-206.421	266.522	-0.064	0.113
-205.406	-94.477	-0.059	0.016
-204.392	45.005	-0.113	-0.105
-203.377	-98.053	-0.192	-0.050
-202.363	605.695	0.037	0.093
-201.348	433.791	0.104	0.226
-200.333	40.940	-0.037	-0.034
-199.319	439.177	0.144	-0.315
-198.304	-133.221	0.171	-0.022
-197.290	-112.772	-0.236	-0.047
-196.275	91.570	-0.089	-0.100
-195.260	80.183	-0.169	-0.182
-194.246	-51.843	0.092	-0.043
-193.231	-12.711	0.115	-0.075
-192.217	-120.557	0.216	0.037
-191.202	771.800	0.151	0.413
-190.187	169.113	0.017	0.024
-189.173	51.190	-0.210	0.200
-188.158	-200.000	-0.036	0.169
-187.144	117.832	-0.183	0.227
-186.129	64.794	-0.136	-0.138
-185.114	19.744	-0.204	0.165
-184.100	-200.000	-0.005	-0.142
-183.085	-9.968	-0.238	0.159
-182.071	116.941	-0.206	0.254
-181.056	-184.193	0.216	-0.004
-180.042	146.490	0.027	0.037
-179.027	492.722	-0.077	-0.177
-178.012	-200.000	-0.022	0.103
-176.998	-138.624	0.177	0.019
-175.983	-122.541	0.358	-0.058
-174.969	15.571	-0.207	-0.163
-173.954	-28.451	-0.282	0.163
-172.939	616.074	-0.053	-0.133
-171.925	494.682	-0.128	-0.294
-170.910	-200.000	0.032	0.181
-169.896	800.000	-0.046	-0.146
-168.881	294.768	-0.040	0.074
-167.866	48.023	-0.100	-0.094
-166.852	-147.351	-0.168	-0.014
-165.837	412.609	0.202	0.430
-164.823	583.993	-0.069	-0.171
-163.808	-200.000	0.019	0.183
-162.793	-8.012	-0.151	0.102
-161.779	-104.868	0.311	-0.072
-160.764	-200.000	-0.006	0.125
-159.750	-43.567	0.206	-0.104
-158.735	-200.000	0.040	-0.393
-157.720	-90.207	0.198	-0.058
-156.706	218.432	-0.068	0.109
-155.691	-169.006	-0.046	0.002
-154.677	-200.000	0.479	-0.002
-153.662	166.079	-0.134	-0.190
-152.647	-65.168	-0.104	0.042
-151.633	-6.714	0.237	-0.162
-150.618	-3.353	-0.216	0.151
-149.604	-200.000	-0.020	0.238
-148.589	-53.147	0.368	0.169
-147.574	-200.000	-0.016	0.095
-146.560	-107.717	0.240	0.052
-145.545	136.862	-0.172	0.226
-144.531	-85.752	-0.341	-0.106
-143.516	22.820	-0.103	-0.085
-142.502	-39.566	0.364	0.191
-141.487	711.596	-0.083	-0.219
-140.472	157.651	0.042	0.058
-139.458	-200.000	0.013	0.147
-138.443	-148.412	-0.171	0.014
-137.429	62.584	0.200	0.201
-136.414	-200.000	0.001	-0.049
-135.399	800.000	0.023	0.085
-134.385	-49.168	0.238	0.114
-133.370	194.947	-0.057	-0.087
-132.356	43.020	-0.330	0.301
-131.341	631.729	-0.140	0.354
-130.326	-200.000	0.027	-0.157
-129.312	320.940	-0.127	0.241
-128.297	-76.326	-0.122	-0.043
-127.283	-200.000	-0.047	0.288
-126.268	-117.518	0.364	-0.066
-125.253	800.000	0.016	-0.066
-124.239	34.159	0.133	0.116
-123.224	-200.000	-0.015	-0.190
-122.210	139.272	0.153	-0.202
-121.195	320.204	0.088	-0.168
-120.180	-6.742	0.183	0.125
