DTS Sentinel unit serial number:	SN413079Multiplexer serial number:	ORYXHardware model number:	OX4-SRSoftware version number:	ORYX F/W v4.00 Oryx Data Collector v3.7.2.0data status	okinstallation	princeton_trtdifferential loss correction	single-endedforward channel	channel 3reverse channel	N/Adate	2019/09/13time	05:28:35forward acquisition time	60.00reverse acquisition time	0.00gamma	496.2192k internal	0.2338k external	0.2338temperature offset calibration	1.0131default loss term (dB/km)	0.3790temperature slope calibration	1.0000multiplexer offset coefficient	1.0000multiplexer slope coefficient	1.0000fibre end	0.00T internal ref (°C)	26.28T ext. ref 1 (°C)	4.03T ext. ref 2 (°C)	20.87length (m)	temperature (°C)	Stokes	anti-Stokes-747.200	-200.000	0.032	-0.218
-746.185	-126.209	-0.533	0.080
-745.171	111.992	0.191	0.232
-744.156	8.528	0.107	-0.081
-743.142	-65.630	0.224	0.090
-742.127	-16.210	-0.415	0.264
-741.112	800.000	-0.123	0.418
-740.098	-200.000	-0.048	-0.554
-739.083	464.086	-0.136	0.305
-738.069	-152.542	-0.228	0.016
-737.054	800.000	0.089	-0.381
-736.039	-12.342	-0.048	-0.031
-735.025	800.000	0.036	-0.144
-734.010	-153.769	-0.247	-0.017
-732.996	-200.000	0.026	-0.208
-731.981	-200.000	-0.038	-0.320
-730.966	-200.000	0.003	-0.029
-729.952	84.123	0.135	-0.147
-728.937	800.000	-0.035	0.102
-727.923	800.000	-0.074	0.214
-726.908	183.988	-0.084	-0.125
-725.894	-200.000	0.004	-0.318
-724.879	-91.268	0.282	0.081
-723.864	-2.820	-0.269	-0.189
-722.850	-200.000	0.013	-0.061
-721.835	-123.556	0.169	-0.027
-720.821	-91.214	0.174	0.050
-719.806	800.000	-0.026	-0.089
-718.791	17.304	-0.150	0.119
-717.777	-93.651	0.196	-0.054
-716.762	800.000	-0.057	0.192
-715.748	203.063	-0.107	-0.166
-714.733	-135.054	0.108	0.013
-713.718	-116.452	-0.197	-0.036
-712.704	-102.558	0.153	0.037
-711.689	-200.000	-0.006	-0.305
-710.675	209.351	-0.238	-0.374
-709.660	-39.294	0.215	-0.113
-708.645	800.000	-0.097	0.325
-707.631	-6.861	0.076	-0.052
-706.616	280.702	0.235	-0.422
-705.602	-200.000	-0.024	-0.170
-704.587	243.075	0.264	-0.443
-703.572	64.228	-0.113	0.114
-702.558	-50.540	-0.440	-0.208
-701.543	270.399	-0.128	0.226
-700.529	-53.719	-0.219	-0.100
-699.514	133.264	0.065	0.084
-698.499	-119.668	-0.319	0.055
-697.485	-160.198	0.114	-0.006
-696.470	-84.450	-0.165	-0.052
-695.456	-200.000	-0.012	-0.160
-694.441	800.000	0.041	-0.137
-693.426	154.341	0.240	-0.330
-692.412	-200.000	-0.067	-0.308
-691.397	47.631	-0.073	0.069
-690.383	-200.000	0.005	0.061
-689.368	-200.000	0.031	-0.213
-688.354	58.501	0.173	-0.170
-687.339	284.813	0.023	0.042
-686.324	108.451	0.087	-0.104
-685.310	97.127	-0.232	-0.266
-684.295	204.500	-0.079	-0.123
-683.281	92.995	-0.037	0.041
-682.266	800.000	0.074	-0.214
-681.251	287.811	0.084	-0.152
-680.237	-116.304	0.287	0.053
-679.222	103.366	-0.113	-0.133
-678.208	744.224	-0.096	0.259
-677.193	674.928	0.018	0.048
-676.178	153.601	-0.277	0.380
-675.164	364.591	0.061	-0.123
-674.149	-170.186	-0.401	0.014
-673.135	-200.000	-0.024	-0.190
-672.120	290.130	0.091	-0.166
-671.105	-87.022	-0.072	-0.022
-670.091	87.898	0.243	-0.270
-669.076	-200.000	-0.001	-0.140
-668.062	-74.617	-0.247	0.089
-667.047	48.070	0.210	0.196
-666.032	181.459	-0.151	-0.222
-665.018	248.763	0.198	-0.336
-664.003	368.766	-0.137	0.276
-662.989	-95.023	-0.282	0.076
-661.974	-36.769	0.178	0.096
-660.959	-95.016	-0.333	0.090
-659.945	-200.000	0.010	0.080
-658.930	-1.365	-0.312	0.220
-657.916	788.020	0.118	-0.325
-656.901	359.408	0.093	-0.186
-655.886	-200.000	-0.003	0.053
-654.872	-67.935	-0.503	-0.196
-653.857	-200.000	-0.005	0.353
-652.843	-200.000	-0.029	0.227
-651.828	-55.644	0.303	-0.136
-650.814	800.000	-0.091	0.329
-649.799	-200.000	0.010	-0.194
-648.784	-71.387	-0.202	0.076
-647.770	310.637	0.085	-0.158
-646.755	-81.330	0.195	-0.064
-645.741	15.463	-0.128	-0.101
-644.726	-105.773	0.247	0.056
-643.711	585.913	-0.058	0.142
-642.697	-200.000	0.020	0.175
-641.682	268.833	-0.137	0.240
-640.668	-46.982	0.183	0.089
-639.653	-200.000	0.006	-0.162
-638.638	19.421	-0.168	0.135
-637.624	76.984	-0.073	-0.077
-636.609	156.374	0.052	0.071
-635.595	-86.059	0.056	-0.017
-634.580	-200.000	0.062	-0.526
-633.565	-82.871	-0.271	0.087
-632.551	491.813	0.095	0.218
-631.536	800.000	0.080	0.238
-630.522	800.000	-0.017	-0.053
-629.507	333.669	-0.026	0.050
-628.492	363.173	-0.088	-0.177
-627.478	-10.565	0.074	0.049
-626.463	-200.000	0.019	0.489
-625.449	-200.000	-0.015	-0.369
-624.434	207.307	-0.124	-0.193
-623.419	-200.000	-0.040	0.222
-622.405	-200.000	-0.002	0.111
-621.390	-82.921	-0.040	0.013
-620.376	-27.546	-0.357	-0.207
-619.361	-158.127	0.112	-0.007
-618.346	444.310	0.132	0.290
-617.332	-56.378	-0.051	0.023
-616.317	246.019	0.071	-0.120
-615.303	-180.697	-0.311	0.006
-614.288	-186.038	-0.326	0.005
-613.273	-83.054	-0.036	-0.012
-612.259	800.000	0.053	-0.159
-611.244	-121.037	-0.379	-0.064
-610.230	-183.951	0.590	-0.010
-609.215	-56.816	-0.057	-0.025
-608.201	-35.893	0.232	0.126
-607.186	0.822	0.241	0.172
-606.171	-101.261	-0.255	0.062
-605.157	-75.888	0.332	0.117
-604.142	-139.286	0.046	0.005
-603.128	-57.922	0.244	0.106
-602.113	22.238	0.128	-0.105
-601.098	84.803	-0.092	0.100
-600.084	-148.313	0.195	-0.016
-599.069	-69.063	0.423	-0.163
-598.055	655.310	-0.107	-0.275
-597.040	800.000	-0.093	0.387
-596.025	800.000	0.059	-0.182
-595.011	82.305	0.175	-0.189
-593.996	-141.920	0.200	0.020
-592.982	-109.055	-0.078	-0.017
-591.967	-116.705	-0.222	-0.041
-590.952	-54.812	-0.116	-0.052
-589.938	-31.173	-0.355	0.200
-588.923	800.000	-0.046	-0.167
-587.909	184.700	-0.089	0.132
-586.894	-7.811	-0.232	-0.156
-585.879	133.212	0.202	-0.261
-584.865	12.036	-0.110	-0.084
-583.850	800.000	0.016	-0.054
-582.836	800.000	0.036	-0.146
-581.821	28.875	-0.256	0.216
-580.806	-129.307	-0.239	0.033
-579.792	-172.603	-0.060	-0.002
-578.777	-200.000	-0.035	0.427
-577.763	-4.027	0.170	0.118
-576.748	-170.543	-0.202	-0.007
-575.733	65.487	-0.249	-0.251
-574.719	-97.090	-0.366	-0.095
-573.704	-32.778	0.206	0.114
-572.690	19.226	-0.111	-0.089
-571.675	104.701	-0.173	-0.204
-570.661	186.912	0.086	0.127
-569.646	471.766	-0.076	-0.170
-568.631	-12.453	-0.127	-0.083
-567.617	-49.830	0.101	0.048
-566.602	-39.209	-0.124	-0.065
-565.588	67.714	0.112	-0.114
-564.573	198.117	-0.204	0.311
-563.558	-70.159	0.107	-0.040
-562.544	7.127	0.325	0.241
-561.529	-61.291	-0.147	-0.062
-560.515	800.000	-0.051	-0.218
-559.500	413.720	-0.105	0.223
-558.485	-200.000	-0.042	-0.546
-557.471	323.504	0.060	-0.114
-556.456	-118.640	0.218	0.038
-555.442	744.104	0.073	0.194
-554.427	410.399	0.071	0.150
-553.412	48.506	-0.021	0.020
-552.398	-55.205	-0.044	0.020
-551.383	46.383	0.098	0.091
-550.369	-76.323	0.271	-0.095
-549.354	-162.565	0.332	-0.016
-548.339	800.000	0.092	-0.254
-547.325	800.000	-0.032	-0.093
-546.310	-80.167	-0.197	-0.066
-545.296	-200.000	0.010	-0.093
-544.281	-109.689	0.194	-0.041
-543.266	200.753	0.172	0.264
-542.252	89.282	-0.161	0.178
-541.237	572.391	0.106	0.257
-540.223	87.266	0.354	0.389
-539.208	141.671	-0.255	-0.336
-538.193	14.050	0.115	-0.089
-537.179	-109.909	0.300	0.063
-536.164	-200.000	-0.021	0.343
-535.150	-55.862	-0.191	0.085
-534.135	383.717	0.125	-0.257
-533.121	-115.975	0.194	0.036
-532.106	-200.000	0.020	-0.164
-531.091	107.820	-0.264	0.313
-530.077	14.228	-0.085	-0.066
-529.062	-200.000	-0.069	-0.453
-528.048	190.012	0.146	0.217
-527.033	6.201	0.140	-0.104
-526.018	109.534	-0.251	0.299
-525.004	-51.082	-0.107	0.050
-523.989	-183.012	-0.303	-0.005
-522.975	208.311	0.055	0.085
-521.960	-11.347	0.153	-0.100
-520.945	163.342	-0.146	0.204
-519.931	308.746	-0.102	0.189
-518.916	169.238	-0.139	0.197
-517.902	-20.921	0.115	0.070
-516.887	-200.000	0.003	-0.326
-515.872	-80.539	0.362	0.120
-514.858	237.685	0.037	-0.062
-513.843	-200.000	-0.010	0.202
-512.829	-200.000	-0.001	-0.034
-511.814	-200.000	0.017	0.214
-510.799	-117.786	0.115	0.021
-509.785	57.051	0.079	-0.077
-508.770	800.000	0.100	0.326
-507.756	228.555	-0.198	0.321
-506.741	800.000	0.057	-0.184
-505.726	186.644	-0.058	-0.086
-504.712	800.000	-0.124	-0.537
-503.697	-94.156	0.104	-0.028
-502.683	-107.021	-0.304	0.067
-501.668	-25.007	-0.327	-0.193
-500.653	663.277	-0.160	-0.411
-499.639	33.453	-0.326	-0.281
-498.624	-200.000	-0.010	-0.115
-497.610	81.508	0.161	0.173
-496.595	-50.164	-0.149	-0.070
-495.581	-95.084	-0.223	0.060
-494.566	-200.000	-0.102	-0.473
-493.551	-45.346	-0.335	-0.165
-492.537	-10.561	0.128	-0.084
-491.522	-102.660	-0.195	0.046
-490.508	-9.346	0.187	-0.124
-489.493	-5.290	-0.157	0.107
-488.478	234.481	0.173	-0.284
-487.464	-58.328	-0.443	0.191
-486.449	24.938	0.004	0.003
-485.435	-19.862	0.131	0.081
-484.420	-200.000	-0.029	-0.209
-483.405	291.882	-0.194	-0.351
-482.391	800.000	0.115	-0.377
-481.376	-200.000	-0.030	-0.156
-480.362	-85.093	0.126	0.039
-479.347	-120.686	0.337	0.057
-478.332	-61.228	-0.207	0.087
-477.318	42.851	-0.112	-0.102
-476.303	-99.612	0.251	0.063
-475.289	22.653	0.034	-0.027
-474.274	413.234	-0.182	0.385
-473.259	-150.884	0.023	0.002
-472.245	-200.000	-0.011	-0.051
-471.230	-38.491	-0.403	-0.212
-470.216	-56.052	0.146	-0.065
-469.201	33.675	0.236	0.204
-468.186	684.330	0.131	0.340
-467.172	502.140	-0.166	-0.380
-466.157	115.505	-0.105	0.127
-465.143	165.101	-0.174	0.244
-464.128	3.748	-0.146	0.106
-463.113	414.577	-0.096	-0.204
-462.099	800.000	-0.058	0.220
-461.084	-93.691	-0.304	-0.083
-460.070	-67.784	-0.435	0.169
-459.055	800.000	0.040	0.155
-458.040	-108.427	0.063	0.014
-457.026	338.079	0.051	-0.099
-456.011	162.398	0.271	-0.377
-454.997	-28.250	-0.083	-0.048
-453.982	161.172	-0.208	0.289
-452.968	15.101	0.093	0.072
-451.953	-62.981	-0.316	-0.129
-450.938	1.493	-0.172	0.122
-449.924	-191.695	0.065	0.001
-448.909	638.357	0.032	0.081
-447.895	-200.000	0.019	0.087
-446.880	7.694	0.240	0.178
-445.865	127.824	0.189	-0.239
-444.851	-200.000	-0.006	0.127
-443.836	359.062	-0.054	0.107
-442.822	73.935	-0.070	-0.073
-441.807	102.122	0.303	0.351
-440.792	117.907	0.044	0.054
-439.778	-200.000	-0.005	0.090
-438.763	198.472	0.117	-0.177
-437.749	-41.589	-0.306	-0.156
-436.734	46.782	0.168	-0.155
-435.719	-8.929	-0.095	0.063
-434.705	-14.404	0.104	0.066
-433.690	800.000	-0.018	0.067
-432.676	-90.830	-0.220	0.063
-431.661	-200.000	0.030	0.218
-430.646	-125.006	-0.149	0.023
-429.632	424.220	0.116	-0.247
-428.617	-113.096	-0.189	0.037
-427.603	305.175	-0.066	0.121
-426.588	-54.204	0.105	-0.047
-425.573	215.706	0.094	0.149
-424.559	76.355	-0.197	-0.207
-423.544	64.116	-0.058	-0.058
-422.530	-82.451	0.188	-0.060
-421.515	-122.148	-0.161	0.026
-420.500	800.000	-0.026	-0.075
-419.486	-124.723	-0.298	-0.046
-418.471	159.246	0.295	0.407
-417.457	-200.000	0.024	-0.237
-416.442	-52.997	0.264	0.120
-415.428	-200.000	0.020	-0.141
-414.413	800.000	-0.103	-0.423
-413.398	390.751	-0.052	0.107
-412.384	133.248	-0.063	0.080
-411.369	-25.173	0.117	0.069
-410.355	176.506	0.097	0.140
-409.340	36.215	0.295	-0.257
-408.325	-106.803	-0.102	-0.022
-407.311	32.052	0.161	-0.138
-406.296	-17.067	0.195	-0.122
-405.282	800.000	-0.054	0.185
-404.267	-200.000	-0.013	0.244
-403.252	-200.000	-0.045	-0.236
-402.238	34.058	0.199	0.172
-401.223	11.059	0.135	-0.102
-400.209	-139.676	0.088	-0.009
-399.194	-140.008	-0.285	0.030
-398.179	-139.543	0.339	0.036
-397.165	609.076	-0.139	0.343
-396.150	431.756	-0.164	0.351
-395.136	-61.367	0.213	0.089
-394.121	-55.298	0.080	-0.036
-393.106	469.037	-0.081	-0.181
-392.092	-200.000	0.004	0.104
-391.077	-200.000	0.004	0.305
-390.063	-1.566	-0.035	-0.025
-389.048	-200.000	-0.050	-0.410
-388.033	-14.700	0.211	-0.134
-387.019	438.181	0.054	0.116
-386.004	-200.000	-0.020	-0.207
-384.990	794.679	0.068	0.185
-383.975	-25.854	-0.339	-0.197
-382.960	-141.237	-0.177	0.018
-381.946	-122.264	0.145	-0.023
-380.931	-200.000	0.015	-0.148
-379.917	18.219	-0.459	0.362
-378.902	50.882	-0.127	0.119
-377.888	-95.218	0.113	0.030
-376.873	-50.090	-0.293	0.137
-375.858	-9.940	-0.207	0.136
-374.844	260.809	-0.026	0.044
-373.829	-30.670	-0.060	0.033
-372.815	-79.934	0.183	0.061
-371.800	800.000	0.060	0.245
-370.785	-3.972	-0.307	0.211
-369.771	-200.000	0.014	-0.073
-368.756	197.697	-0.102	0.153
-367.742	-113.429	0.729	0.141
-366.727	-65.421	0.212	0.084
-365.712	800.000	-0.027	0.090
-364.698	-128.443	0.207	0.029
-363.683	800.000	0.035	0.129
-362.669	-170.632	0.058	0.002
-361.654	-123.952	0.270	-0.042
-360.639	-70.449	0.375	-0.141
-359.625	161.934	0.065	-0.090
-358.610	-2.549	0.189	0.131
-357.596	-101.860	-0.428	0.102
-356.581	130.765	-0.154	0.195
-355.566	55.884	0.131	0.126
-354.552	-61.668	-0.203	0.084
-353.537	-200.000	-0.006	0.268
-352.523	219.077	-0.167	-0.264
-351.508	-200.000	0.013	0.222
-350.493	-200.000	0.001	0.042
-349.479	-178.981	0.095	-0.002
-348.464	43.428	0.077	-0.069
-347.450	-137.718	0.344	-0.038
-346.435	-101.957	-0.042	-0.010
-345.420	800.000	-0.073	0.215
-344.406	644.100	-0.030	0.075
-343.391	-200.000	-0.065	-0.309
-342.377	-200.000	-0.053	-0.337
-341.362	-84.555	0.303	0.094
-340.348	-37.565	-0.040	-0.021
-339.333	41.843	-0.301	0.270
-338.318	625.674	-0.120	-0.299
-337.304	276.406	0.183	-0.320
-336.289	21.696	-0.142	-0.114
-335.275	-200.000	0.014	-0.135
-334.260	-50.661	0.059	-0.027
-333.245	19.079	0.227	-0.180
-332.231	-200.000	-0.020	0.137
-331.216	451.215	-0.060	-0.130
-330.202	771.763	0.134	-0.360
-329.187	331.947	0.066	-0.125
-328.172	-200.000	-0.008	0.189
-327.158	-200.000	0.000	-0.145
-326.143	564.701	0.078	0.187
-325.129	-44.735	0.141	0.069
-324.114	-200.000	-0.060	-0.366
-323.099	-152.222	-0.133	-0.010
-322.085	-35.396	0.154	-0.082
-321.070	798.392	0.086	-0.233
-320.056	-71.573	-0.040	0.015
-319.041	-200.000	0.010	-0.489
-318.026	11.708	0.293	0.222
-317.012	-96.250	-0.185	0.048
-315.997	-87.808	-0.153	0.046
-314.983	-4.906	-0.323	0.219
-313.968	-30.385	-0.135	-0.075
-312.953	-200.000	0.040	-0.175
-311.939	-61.917	-0.167	0.069
-310.924	113.156	0.138	0.165
-309.910	800.000	0.042	-0.161
-308.895	572.033	-0.139	-0.333
-307.880	45.891	-0.126	0.115
-306.866	81.759	-0.116	-0.124
-305.851	162.232	-0.130	0.180
-304.837	-68.456	-0.222	0.085
-303.822	-174.997	0.465	0.013
-302.807	-114.201	0.446	0.085
-301.793	51.665	-0.142	0.133
-300.778	23.090	0.117	0.094
-299.764	-50.029	0.201	0.094
-298.749	-135.730	-0.171	0.020
-297.735	-81.761	-0.088	0.029
-296.720	800.000	0.118	0.452
-295.705	128.831	-0.181	-0.228
-294.691	15.950	0.157	0.122
-293.676	43.731	-0.373	0.336
-292.662	-4.629	-0.193	-0.131
-291.647	-130.074	-0.105	-0.014
-290.632	33.199	0.209	0.179
-289.618	-118.169	0.015	0.003
-288.603	-200.000	0.050	-0.572
-287.589	800.000	0.037	0.115
-286.574	58.182	0.192	-0.186
-285.559	-30.296	-0.186	-0.104
-284.545	-63.348	-0.065	0.026
-283.530	-21.981	0.227	0.136
-282.516	-97.396	0.070	-0.018
-281.501	-102.962	0.331	-0.077
-280.486	602.645	0.166	0.408
-279.472	800.000	0.044	-0.133
-278.457	-66.127	-0.113	-0.045
-277.443	800.000	-0.081	-0.288
-276.428	-64.318	0.074	0.029
-275.413	-3.101	-0.027	-0.019
-274.399	-200.000	0.063	-0.282
-273.384	320.981	-0.103	0.192
-272.370	441.819	0.074	0.159
-271.355	429.221	-0.201	-0.428
-270.340	587.349	-0.049	0.119
-269.326	341.689	-0.027	0.052
-268.311	164.655	-0.153	-0.212
-267.297	-180.271	0.250	-0.005
-266.282	-59.229	-0.526	-0.223
-265.267	-22.828	0.233	0.139
-264.253	1.902	0.218	-0.155
-263.238	-20.264	0.123	0.075
-262.224	800.000	-0.040	0.138
-261.209	-48.397	0.321	0.152
-260.195	21.905	0.144	0.116
-259.180	-130.443	0.250	0.033
-258.165	-200.000	-0.023	0.397
-257.151	122.829	0.245	0.302
-256.136	13.625	0.142	-0.108
-255.122	800.000	-0.046	0.146
-254.107	-158.290	0.329	-0.019
-253.092	8.517	-0.177	0.131
-252.078	-113.931	0.204	-0.039
-251.063	-42.183	0.082	-0.041
-250.049	-55.999	-0.184	-0.081
-249.034	800.000	0.172	0.485
-248.019	-122.294	-0.090	0.015
-247.005	-102.075	-0.319	-0.076
-245.990	800.000	-0.070	-0.246
-244.976	-65.059	-0.285	0.113
-243.961	-200.000	-0.029	0.382
-242.946	-80.757	-0.154	0.050
-241.932	-115.244	0.111	0.021
-240.917	532.177	-0.024	0.055
-239.903	-13.005	0.107	0.068
-238.888	-146.040	-0.303	0.026
-237.873	67.717	0.089	0.090
-236.859	86.145	-0.189	-0.205
-235.844	7.499	-0.150	-0.111
-234.830	-146.887	-0.325	0.027
-233.815	-200.000	0.070	-0.434
-232.800	520.972	-0.118	-0.272
-231.786	84.199	-0.188	0.202
-230.771	800.000	0.113	0.392
-229.757	427.950	0.123	-0.261
-228.742	208.703	-0.067	-0.103
-227.727	-116.922	-0.096	-0.017
-226.713	506.082	0.101	-0.230
-225.698	-71.324	-0.312	0.115
-224.684	-28.320	-0.108	-0.061
-223.669	245.554	-0.154	-0.255
-222.655	-152.853	0.153	-0.011
-221.640	-34.802	0.022	0.012
-220.625	-200.000	-0.020	0.110
-219.611	-158.775	0.150	0.008
-218.596	97.157	0.143	-0.161
-217.582	398.995	-0.146	0.300
-216.567	73.758	0.100	0.103
-215.552	800.000	0.039	0.105
-214.538	-42.459	0.106	0.053
-213.523	9.569	-0.145	-0.108
-212.509	-39.922	0.061	0.031
-211.494	52.359	0.350	-0.328
-210.479	416.393	-0.101	0.211
-209.465	217.879	-0.108	0.169
-208.450	99.675	0.037	0.042
-207.436	-200.000	0.077	-0.499
-206.421	53.192	-0.044	0.042
-205.406	-144.593	0.382	0.035
-204.392	85.554	-0.113	0.122
-203.377	-71.022	-0.185	-0.068
-202.363	2.855	0.271	-0.194
-201.348	52.335	-0.027	0.025
-200.333	-79.703	-0.142	-0.047
-199.319	-99.047	0.252	0.063
-198.304	-55.574	-0.177	-0.078
-197.290	-133.697	0.098	-0.012
-196.275	458.547	-0.055	-0.120
-195.260	-200.000	0.025	0.114
-194.246	325.731	-0.134	0.252
-193.231	-89.483	0.111	-0.032
-192.217	2.645	0.076	0.054
-191.202	800.000	-0.034	0.095
-190.187	133.936	0.074	0.095
-189.173	151.439	-0.114	0.153
-188.158	-168.087	0.090	0.003
-187.144	172.233	-0.079	-0.111
-186.129	54.797	0.174	0.164
-185.114	-40.245	0.157	0.080
-184.100	-4.148	-0.166	-0.113
-183.085	62.430	-0.204	-0.200
-182.071	245.174	0.104	-0.172
-181.056	364.439	0.089	-0.175
-180.042	-200.000	0.014	0.126
-179.027	153.098	0.230	-0.309
-178.012	-8.487	0.123	-0.081
-176.998	-5.511	-0.238	-0.161
-175.983	-76.652	0.302	0.104
-174.969	337.890	0.016	-0.031
-173.954	800.000	0.044	-0.142
-172.939	43.844	-0.164	-0.147
-171.925	16.484	-0.070	0.054
-170.910	13.198	-0.090	-0.069
-169.896	750.321	-0.016	-0.042
-168.881	-110.474	-0.362	0.074
-167.866	461.743	-0.088	-0.191
-166.852	215.103	0.120	-0.186
-165.837	53.343	0.202	0.190
-164.823	-88.326	0.674	0.198
-163.808	-68.074	0.216	-0.083
-162.793	800.000	0.033	-0.139
-161.779	-45.226	-0.453	-0.221
-160.764	-13.962	0.284	0.180
-159.750	221.509	-0.083	0.131
-158.735	-162.913	-0.231	-0.011
-157.720	-95.790	0.517	-0.135
-156.706	800.000	-0.053	0.148
-155.691	-46.072	-0.024	-0.012
-154.677	-193.568	0.225	0.002
-153.662	413.120	0.063	0.132
-152.647	215.535	-0.083	0.129
-151.633	800.000	0.050	-0.182
-150.618	44.293	0.213	0.191
-149.604	-91.268	0.332	0.093
-148.589	-49.346	-0.230	0.107
-147.574	7.997	0.205	0.151
-146.560	-143.554	-0.062	-0.006
-145.545	40.081	0.218	-0.192
-144.531	-123.342	-0.169	-0.026
-143.516	-95.011	-0.306	0.081
-142.502	269.018	0.022	0.039
-141.487	-180.595	0.098	0.002
-140.472	342.149	0.206	0.395
-139.458	54.012	-0.038	0.035
-138.443	-200.000	0.024	-0.113
-137.429	-130.203	-0.123	-0.016
-136.414	41.417	0.130	-0.115
-135.399	-200.000	-0.063	-0.357
-134.385	-200.000	-0.011	-0.196
-133.370	-200.000	0.011	0.392
-132.356	-164.138	0.060	-0.003
-131.341	132.174	-0.185	0.233
-130.326	-87.156	-0.059	-0.018
-129.312	37.468	0.097	-0.085
-128.297	87.369	0.216	-0.234
-127.283	-200.000	-0.029	-0.317
-126.268	-78.675	0.110	0.037
-125.253	102.524	-0.049	-0.056
-124.239	-18.501	-0.121	-0.074
-123.224	349.676	0.118	-0.228
-122.210	-10.261	-0.240	0.156
-121.195	-200.000	-0.033	-0.216
-120.180	-200.000	0.028	0.433
