DTS Sentinel unit serial number:	SN413079Multiplexer serial number:	ORYXHardware model number:	OX4-SRSoftware version number:	ORYX F/W v4.00 Oryx Data Collector v3.7.2.0data status	okinstallation	princeton_trtdifferential loss correction	single-endedforward channel	channel 3reverse channel	N/Adate	2019/09/18time	00:36:34forward acquisition time	60.00reverse acquisition time	0.00gamma	496.2192k internal	0.2344k external	0.2344temperature offset calibration	0.9949default loss term (dB/km)	0.3790temperature slope calibration	1.0000multiplexer offset coefficient	1.0000multiplexer slope coefficient	1.0000fibre end	0.00T internal ref (°C)	23.48T ext. ref 1 (°C)	0.17T ext. ref 2 (°C)	17.14length (m)	temperature (°C)	Stokes	anti-Stokes-747.200	130.864	-0.200	0.257
-746.185	419.269	-0.159	0.341
-745.171	-76.678	0.356	0.125
-744.156	-162.520	-0.243	0.012
-743.142	153.977	-0.189	0.260
-742.127	800.000	0.051	0.158
-741.112	-84.170	-0.229	0.073
-740.098	-200.000	-0.017	0.113
-739.083	285.035	-0.253	0.457
-738.069	800.000	0.010	0.036
-737.054	410.176	-0.059	0.125
-736.039	31.462	-0.159	0.136
-735.025	74.895	0.215	0.226
-734.010	-200.000	-0.008	0.291
-732.996	407.509	-0.052	0.109
-731.981	-125.279	-0.325	-0.050
-730.966	9.364	0.161	0.122
-729.952	-200.000	0.000	0.030
-728.937	-94.946	-0.367	-0.099
-727.923	-137.788	0.169	0.019
-726.908	-200.000	-0.006	0.301
-725.894	63.780	0.161	-0.162
-724.879	-91.075	0.161	-0.046
-723.864	-200.000	-0.022	-0.159
-722.850	24.807	-0.219	0.181
-721.835	-132.413	0.205	0.026
-720.821	800.000	0.052	-0.221
-719.806	800.000	-0.091	0.346
-718.791	-4.483	0.069	-0.047
-717.777	-115.096	0.142	-0.027
-716.762	-200.000	-0.015	0.155
-715.748	-7.626	-0.118	0.080
-714.733	-40.413	-0.336	-0.175
-713.718	-46.458	-0.460	0.226
-712.704	-200.000	-0.020	-0.207
-711.689	-144.530	0.185	-0.017
-710.675	306.123	-0.100	0.187
-709.660	176.099	-0.216	0.313
-708.645	-102.335	-0.207	0.050
-707.631	3.711	-0.148	-0.108
-706.616	800.000	-0.025	-0.072
-705.602	-165.279	-0.306	0.013
-704.587	800.000	-0.067	-0.197
-703.572	-200.000	-0.260	0.000
-702.558	-101.696	0.334	-0.081
-701.543	251.491	0.042	-0.071
-700.529	704.095	-0.093	0.244
-699.514	-146.461	0.068	0.006
-698.499	405.947	-0.037	0.078
-697.485	540.867	-0.025	0.060
-696.470	800.000	0.012	-0.042
-695.456	246.707	0.268	0.451
-694.441	-200.000	0.036	-0.192
-693.426	-43.451	-0.119	-0.060
-692.412	33.250	-0.134	-0.116
-691.397	5.431	-0.242	0.179
-690.383	118.645	0.257	-0.317
-689.368	800.000	-0.027	0.114
-688.354	35.645	-0.118	-0.103
-687.339	-89.953	-0.355	0.103
-686.324	31.152	-0.123	0.105
-685.310	-124.611	-0.100	-0.015
-684.295	216.408	0.137	-0.218
-683.281	106.195	-0.077	-0.090
-682.266	120.813	-0.258	-0.320
-681.251	349.411	0.154	-0.303
-680.237	-53.204	-0.127	0.058
-679.222	-114.828	0.104	-0.020
-678.208	137.999	-0.094	0.122
-677.193	30.130	-0.129	-0.110
-676.178	333.077	0.063	0.121
-675.164	-135.116	-0.099	-0.012
-674.149	-60.033	-0.137	0.059
-673.135	-12.225	0.198	0.129
-672.120	-200.000	0.004	-0.097
-671.105	-124.012	-0.265	-0.042
-670.091	103.904	-0.078	-0.091
-669.076	-31.668	-0.374	-0.210
-668.062	-200.000	-0.044	0.330
-667.047	-24.212	-0.529	0.315
-666.032	72.583	-0.111	0.115
-665.018	-71.070	0.194	0.073
-664.003	15.688	-0.219	-0.172
-662.989	-8.838	-0.158	-0.106
-661.974	-200.000	-0.060	0.270
-660.959	121.288	0.036	0.045
-659.945	18.344	-0.034	0.027
-658.930	800.000	0.011	0.046
-657.916	-132.383	-0.191	0.025
-656.901	341.328	0.018	0.035
-655.886	14.641	0.257	0.200
-654.872	-83.513	0.212	-0.068
-653.857	800.000	0.049	0.170
-652.843	89.821	0.176	0.196
-651.828	-134.018	-0.344	-0.042
-650.814	331.101	-0.117	0.226
-649.799	800.000	0.096	-0.389
-648.784	-139.287	-0.409	0.044
-647.770	800.000	0.067	0.191
-646.755	800.000	-0.067	-0.241
-645.741	-200.000	-0.070	-0.411
-644.726	83.908	0.062	0.067
-643.711	-200.000	0.015	-0.274
-642.697	47.780	0.150	0.139
-641.682	33.835	-0.165	-0.143
-640.668	-200.000	-0.018	-0.211
-639.653	414.757	-0.153	-0.324
-638.638	148.545	-0.299	-0.403
-637.624	-200.000	0.043	0.265
-636.609	-115.239	0.219	-0.041
-635.595	-22.811	-0.206	-0.124
-634.580	-200.000	-0.037	-0.369
-633.565	-103.902	-0.366	0.085
-632.551	-131.640	-0.172	0.023
-631.536	-200.000	0.011	0.091
-630.522	-200.000	-0.016	-0.244
-629.507	51.717	0.138	0.130
-628.492	66.589	-0.093	-0.094
-627.478	-19.370	-0.051	-0.031
-626.463	343.898	-0.034	-0.066
-625.449	-128.941	0.269	0.038
-624.434	218.991	-0.145	-0.231
-623.419	-68.494	0.056	-0.022
-622.405	40.219	-0.166	0.149
-621.390	-19.557	0.177	-0.109
-620.376	-200.000	-0.042	0.238
-619.361	-56.300	0.041	0.018
-618.346	112.549	0.104	0.125
-617.332	104.976	0.208	-0.244
-616.317	-200.000	0.026	-0.356
-615.303	254.533	0.189	-0.323
-614.288	-51.173	-0.069	0.032
-613.273	-94.717	0.282	0.076
-612.259	131.659	0.064	0.082
-611.244	92.556	-0.161	0.180
-610.230	-97.522	-0.163	0.042
-609.215	-200.000	-0.001	-0.021
-608.201	1.985	-0.057	-0.041
-607.186	-142.836	0.498	-0.048
-606.171	58.274	-0.146	-0.142
-605.157	217.098	0.088	0.139
-604.142	800.000	0.135	0.455
-603.128	-38.722	-0.082	-0.043
-602.113	-91.712	-0.521	-0.147
-601.098	504.508	-0.057	0.130
-600.084	160.701	0.082	0.114
-599.069	12.001	0.223	0.171
-598.055	387.372	0.154	-0.317
-597.040	-136.148	-0.326	-0.038
-596.025	-158.122	0.168	-0.010
-595.011	7.416	-0.085	-0.063
-593.996	-126.741	0.292	-0.043
-592.982	-171.081	0.102	-0.003
-591.967	198.682	-0.191	-0.291
-590.952	11.746	0.127	0.097
-589.938	-39.224	0.161	0.084
-588.923	285.640	-0.125	-0.225
-587.909	-138.475	-0.183	0.020
-586.894	-31.715	-0.167	-0.093
-585.879	253.645	0.155	-0.264
-584.865	643.740	-0.090	-0.227
-583.850	-89.539	0.171	0.050
-582.836	-24.200	-0.321	-0.190
-581.821	-53.240	-0.153	0.070
-580.806	-200.000	-0.056	-0.251
-579.792	181.286	-0.165	0.242
-578.777	74.449	0.120	0.125
-577.763	-36.727	-0.179	-0.096
-576.748	-97.053	-0.237	-0.062
-575.733	43.930	-0.156	0.142
-574.719	-112.373	0.174	0.035
-573.704	328.595	-0.052	0.100
-572.690	-200.000	0.060	0.274
-571.675	-17.273	0.315	0.197
-570.661	800.000	-0.044	0.178
-569.646	202.606	0.081	0.124
-568.631	652.478	0.118	-0.302
-567.617	-109.610	-0.133	0.028
-566.602	1.629	-0.302	-0.216
-565.588	578.597	0.076	-0.185
-564.573	-108.877	0.184	0.039
-563.558	306.611	0.153	0.284
-562.544	800.000	-0.035	0.143
-561.529	13.156	-0.300	-0.231
-560.515	800.000	0.078	0.287
-559.500	-59.490	-0.117	-0.050
-558.485	392.106	-0.111	-0.228
-557.471	-59.950	-0.096	-0.041
-556.456	11.934	-0.288	0.220
-555.442	-107.092	0.389	0.085
-554.427	-15.482	0.103	-0.065
-553.412	79.342	0.059	-0.063
-552.398	-15.933	0.140	0.088
-551.383	-200.000	0.001	-0.222
-550.369	800.000	-0.036	0.128
-549.354	173.960	-0.183	0.262
-548.339	23.441	0.179	0.146
-547.325	-28.844	0.063	0.036
-546.310	-50.151	-0.213	0.100
-545.296	-2.578	-0.273	-0.190
-544.281	270.930	-0.029	-0.051
-543.266	29.950	0.231	-0.196
-542.252	-79.367	-0.219	-0.074
-541.237	-200.000	-0.007	0.238
-540.223	79.491	0.345	0.368
-539.208	179.575	-0.136	0.197
-538.193	-170.252	0.098	-0.003
-537.179	800.000	-0.008	-0.029
-536.164	-72.220	0.204	-0.075
-535.150	-200.000	0.233	-0.001
-534.135	800.000	-0.057	0.196
-533.121	624.905	0.222	0.556
-532.106	-99.906	-0.469	-0.116
-531.091	-12.508	-0.163	0.106
-530.077	-24.079	-0.049	0.029
-529.062	-200.000	0.048	0.303
-528.048	220.457	0.197	0.313
-527.033	800.000	-0.112	0.334
-526.018	6.005	-0.318	0.233
-525.004	100.051	-0.171	0.196
-523.989	-8.846	0.253	0.168
-522.975	-200.000	-0.035	-0.223
-521.960	-45.707	0.204	-0.100
-520.945	-188.726	0.157	0.002
-519.931	-111.142	-0.247	0.050
-518.916	-70.247	0.241	0.091
-517.902	67.061	-0.299	-0.302
-516.887	-31.338	0.293	-0.163
-515.872	208.176	-0.132	0.205
-514.858	-200.000	0.031	0.397
-513.843	800.000	0.029	-0.106
-512.829	-200.000	-0.044	-0.229
-511.814	-200.000	-0.050	0.347
-510.799	294.233	0.069	-0.126
-509.785	-98.839	0.318	-0.080
-508.770	-186.452	-0.252	-0.004
-507.756	800.000	0.066	0.254
-506.741	257.536	-0.075	0.129
-505.726	36.330	0.191	-0.167
-504.712	-74.786	-0.213	0.076
-503.697	0.360	-0.099	-0.070
-502.683	-200.000	0.018	-0.083
-501.668	-64.218	0.143	0.058
-500.653	-200.000	-0.025	0.284
-499.639	-106.792	-0.469	-0.103
-498.624	43.072	0.076	-0.069
-497.610	129.323	-0.272	-0.344
-496.595	800.000	0.017	0.070
-495.581	-65.616	0.246	-0.098
-494.566	22.958	-0.298	0.242
-493.551	6.828	0.103	-0.076
-492.537	-146.123	-0.199	-0.017
-491.522	94.260	0.086	-0.097
-490.508	214.535	0.044	0.070
-489.493	-66.160	0.410	0.162
-488.478	178.172	0.154	-0.223
-487.464	-57.622	0.076	0.033
-486.449	-200.000	0.011	0.343
-485.435	-200.000	0.017	0.079
-484.420	-16.633	0.322	0.202
-483.405	-84.409	-0.401	0.126
-482.391	189.517	-0.118	0.175
-481.376	112.050	0.171	0.205
-480.362	286.385	-0.091	0.164
-479.347	800.000	-0.025	-0.086
-478.332	354.552	-0.032	-0.062
-477.318	264.516	0.114	0.196
-476.303	146.604	0.116	-0.154
-475.289	-60.247	0.097	0.041
-474.274	-136.347	-0.051	0.006
-473.259	-40.908	-0.292	-0.150
-472.245	-122.006	0.331	0.054
-471.230	-37.571	-0.058	-0.031
-470.216	202.790	-0.092	-0.141
-469.201	-45.032	0.241	0.119
-468.186	-97.871	-0.108	0.028
-467.172	-35.941	0.170	0.091
-466.157	138.040	0.135	-0.175
-465.143	193.536	-0.037	-0.056
-464.128	-200.000	0.011	0.238
-463.113	-200.000	0.047	-0.316
-462.099	800.000	-0.039	-0.155
-461.084	284.344	0.193	0.343
-460.070	-110.005	-0.463	0.096
-459.055	800.000	0.149	0.432
-458.040	38.963	0.137	0.121
-457.026	-200.000	0.032	0.155
-456.011	2.503	-0.270	0.194
-454.997	226.357	-0.099	0.158
-453.982	193.905	0.228	0.342
-452.968	300.740	-0.151	-0.275
-451.953	-137.004	0.090	-0.010
-450.938	-200.000	0.008	0.160
-449.924	-61.553	0.157	-0.065
-448.909	43.068	0.189	0.171
-447.895	800.000	0.135	0.463
-446.880	800.000	-0.090	-0.293
-445.865	-66.844	-0.214	-0.084
-444.851	-12.418	0.184	-0.119
-443.836	38.520	-0.345	0.304
-442.822	-45.180	0.250	0.123
-441.807	-200.000	0.020	0.200
-440.792	-200.000	0.022	-0.206
-439.778	113.140	0.206	-0.246
-438.763	-40.818	0.118	-0.060
-437.749	153.167	0.130	-0.176
-436.734	-200.000	-0.013	-0.240
-435.719	5.399	0.235	-0.171
-434.705	-200.000	0.075	-0.351
-433.690	-200.000	0.026	0.237
-432.676	-100.133	-0.224	-0.055
-431.661	191.452	0.208	-0.309
-430.646	-101.073	0.266	-0.064
-429.632	330.981	-0.031	0.059
-428.617	-197.088	-0.168	-0.001
-427.603	-80.560	-0.350	-0.115
-426.588	-137.086	-0.090	0.010
-425.573	144.421	-0.177	-0.234
-424.559	40.729	-0.064	-0.057
-423.544	-69.782	0.410	0.155
-422.530	-43.700	-0.257	0.128
-421.515	-176.267	0.012	-0.000
-420.500	457.203	-0.131	-0.288
-419.486	-200.000	-0.033	0.191
-418.471	800.000	0.051	0.213
-417.457	133.171	-0.018	-0.023
-416.442	-126.999	0.233	0.034
-415.428	21.911	0.247	0.199
-414.413	513.886	0.093	-0.214
-413.398	-103.568	-0.059	-0.014
-412.384	319.721	0.120	-0.225
-411.369	186.121	-0.234	-0.344
-410.355	-200.000	-0.002	0.185
-409.340	-200.000	-0.019	0.553
-408.325	617.767	-0.151	-0.375
-407.311	621.594	0.047	0.118
-406.296	-200.000	-0.216	-0.001
-405.282	136.660	0.128	0.165
-404.267	166.141	-0.129	-0.181
-403.252	-73.805	-0.242	0.087
-402.238	-28.901	-0.324	0.184
-401.223	800.000	0.050	0.186
-400.209	-43.102	0.420	0.210
-399.194	-5.522	-0.080	-0.054
-398.179	77.815	-0.304	-0.320
-397.165	355.328	-0.020	0.040
-396.150	-84.190	0.311	0.097
-395.136	246.497	-0.146	-0.243
-394.121	49.800	0.346	-0.322
-393.106	-44.276	-0.100	0.050
-392.092	-92.134	-0.113	0.031
-391.077	-173.653	-0.011	-0.000
-390.063	2.366	-0.285	-0.204
-389.048	-152.771	-0.172	-0.012
-388.033	606.120	0.056	0.137
-387.019	651.036	-0.069	-0.174
-386.004	-200.000	0.010	-0.101
-384.990	-200.000	-0.068	-0.559
-383.975	-94.154	0.174	-0.047
-382.960	162.557	-0.099	0.137
-381.946	-137.608	0.211	-0.023
-380.931	-126.524	0.219	0.032
-379.917	-60.371	-0.136	0.057
-378.902	-148.230	-0.280	0.023
-377.888	800.000	0.062	-0.210
-376.873	17.599	-0.057	0.045
-375.858	-119.096	-0.117	-0.020
-374.844	95.435	-0.028	-0.031
-373.829	127.771	0.014	-0.018
-372.815	-28.239	-0.242	-0.138
-371.800	-50.571	0.387	0.180
-370.785	636.676	-0.051	0.129
-369.771	-104.424	-0.178	-0.041
-368.756	-200.000	0.084	-0.476
-367.742	385.367	-0.062	-0.127
-366.727	-200.000	-0.005	-0.153
-365.712	-136.913	0.389	-0.044
-364.698	96.493	0.158	-0.179
-363.683	-198.947	-0.115	-0.001
-362.669	-82.306	0.224	-0.072
-361.654	-200.000	0.051	-0.268
-360.639	127.686	0.274	0.343
-359.625	15.906	-0.127	-0.099
-358.610	497.066	0.164	0.372
-357.596	168.877	-0.127	0.179
-356.581	-200.000	0.016	0.319
-355.566	37.680	-0.245	-0.214
-354.552	-27.503	-0.009	0.005
-353.537	800.000	0.031	-0.093
-352.523	53.600	-0.414	-0.392
-351.508	242.226	0.008	0.013
-350.493	-200.000	-0.027	0.266
-349.479	227.132	-0.142	0.228
-348.464	-23.414	0.186	-0.110
-347.450	-116.051	0.196	0.036
-346.435	389.076	0.127	0.260
-345.420	-200.000	-0.001	0.148
-344.406	-73.687	-0.176	-0.063
-343.391	291.700	-0.045	0.081
-342.377	-170.978	-0.212	-0.007
-341.362	800.000	0.053	0.151
-340.348	-34.842	0.291	0.156
-339.333	-64.085	0.207	0.083
-338.318	-4.245	-0.170	0.116
-337.304	800.000	0.085	0.299
-336.289	800.000	-0.024	-0.075
-335.275	-105.686	0.350	0.078
-334.260	32.713	-0.283	0.241
-333.245	-61.533	0.055	0.023
-332.231	-44.097	0.289	-0.143
-331.216	-170.930	-0.120	-0.004
-330.202	-200.000	0.521	-0.001
-329.187	29.672	-0.167	0.140
-328.172	518.290	-0.028	-0.064
-327.158	-135.800	0.307	0.036
-326.143	-30.142	0.112	-0.063
-325.129	77.927	0.074	-0.078
-324.114	107.985	0.258	0.303
-323.099	-88.463	0.131	-0.038
-322.085	30.346	0.253	-0.213
-321.070	-186.485	-0.223	-0.003
-320.056	98.122	-0.200	-0.226
-319.041	-200.000	-0.094	0.521
-318.026	-136.326	0.211	0.024
-317.012	232.919	0.085	-0.138
-315.997	67.794	-0.224	0.226
-314.983	-103.984	-0.192	0.044
-313.968	537.503	0.056	-0.130
-312.953	-56.265	-0.354	-0.155
-311.939	301.230	-0.126	0.230
-310.924	377.552	0.085	-0.171
-309.910	-25.036	0.110	-0.064
-308.895	186.110	-0.075	-0.109
-307.880	-200.000	-0.013	0.099
-306.866	269.454	-0.207	0.357
-305.851	134.720	0.121	-0.154
-304.837	-5.685	0.177	-0.119
-303.822	-57.210	-0.205	0.089
-302.807	-51.363	-0.159	0.073
-301.793	-104.885	-0.187	0.042
-300.778	-200.000	0.100	0.512
-299.764	-90.020	-0.209	-0.060
-298.749	323.386	-0.075	-0.140
-297.735	-200.000	0.050	0.220
-296.720	249.609	0.065	-0.108
-295.705	-123.232	-0.412	0.065
-294.691	800.000	-0.092	0.341
-293.676	0.773	-0.178	-0.125
-292.662	795.998	0.052	-0.141
-291.647	-34.790	-0.110	-0.059
-290.632	97.652	-0.014	-0.016
-289.618	34.273	0.168	-0.144
-288.603	-44.472	-0.171	0.084
-287.589	42.105	-0.252	-0.225
-286.574	23.110	0.119	0.096
-285.559	60.645	-0.198	-0.193
-284.545	-200.000	-0.050	-0.256
-283.530	-72.816	0.269	0.097
-282.516	-200.000	-0.021	0.175
-281.501	380.329	-0.128	0.259
-280.486	101.298	-0.236	0.270
-279.472	-161.033	0.210	-0.011
-278.457	-200.000	0.009	-0.160
-277.443	-40.425	-0.020	0.010
-276.428	-73.591	-0.291	0.104
-275.413	9.725	-0.150	-0.112
-274.399	-200.000	0.008	0.144
-273.384	57.151	0.153	-0.146
-272.370	-200.000	0.048	0.217
-271.355	507.581	0.050	-0.114
-270.340	800.000	-0.117	-0.397
-269.326	77.673	0.099	0.104
-268.311	-68.143	0.329	-0.126
-267.297	-166.117	0.184	0.008
-266.282	800.000	-0.113	-0.467
-265.267	-200.000	0.050	0.426
-264.253	-157.381	-0.363	0.021
-263.238	161.691	-0.044	0.061
-262.224	-121.215	0.093	-0.015
-261.209	-111.620	0.156	0.031
-260.195	-200.000	0.015	-0.113
-259.180	297.252	0.047	-0.084
-258.165	-139.433	0.310	0.033
-257.151	112.346	-0.076	-0.090
-256.136	-68.428	0.111	0.042
-255.122	-200.000	0.000	0.012
-254.107	119.640	-0.190	0.231
-253.092	-121.020	0.195	0.032
-252.078	-110.829	-0.099	0.020
-251.063	649.968	-0.096	0.241
-250.049	-200.000	0.001	0.087
-249.034	202.643	0.076	-0.116
-248.019	-65.461	0.109	0.043
-247.005	-200.000	0.067	-0.436
-245.990	-42.310	0.132	-0.066
-244.976	-200.000	0.028	-0.174
-243.961	-78.475	0.144	0.048
-242.946	-200.000	-0.063	-0.354
-241.932	-89.888	-0.133	-0.038
-240.917	119.403	0.172	-0.209
-239.903	130.073	0.102	0.128
-238.888	-98.943	-0.372	-0.093
-237.873	-166.980	-0.451	-0.018
-236.859	575.636	-0.113	-0.270
-235.844	264.010	-0.122	-0.208
-234.830	-70.657	0.187	-0.069
-233.815	-46.473	0.024	-0.012
-232.800	-76.715	0.242	0.083
-231.786	800.000	-0.089	-0.243
-230.771	-76.531	0.227	-0.078
-229.757	592.370	-0.040	0.097
-228.742	486.439	0.071	0.159
-227.727	-11.553	0.286	-0.185
-226.713	-200.000	-0.026	-0.326
-225.698	-4.716	0.083	-0.056
-224.684	239.644	-0.107	0.175
-223.669	-106.388	0.171	0.037
-222.655	-148.798	-0.203	0.016
-221.640	-113.384	-0.170	-0.033
-220.625	54.302	-0.338	-0.319
-219.611	93.895	0.240	0.267
-218.596	37.169	0.115	0.100
-217.582	-192.694	-0.201	-0.002
-216.567	54.696	0.112	0.106
-215.552	336.214	0.158	0.301
-214.538	800.000	-0.088	0.249
-213.523	-139.541	0.159	-0.017
-212.509	-109.614	-0.115	-0.024
-211.494	800.000	0.043	-0.184
-210.479	800.000	-0.096	-0.331
-209.465	54.746	-0.129	-0.121
-208.450	395.221	0.197	0.402
-207.436	-200.000	0.026	0.173
-206.421	-75.272	0.375	-0.131
-205.406	800.000	-0.129	-0.464
-204.392	800.000	-0.081	-0.253
-203.377	-17.571	-0.172	-0.106
-202.363	792.658	-0.032	0.086
-201.348	800.000	0.141	0.447
-200.333	-50.422	0.188	-0.087
-199.319	-46.297	-0.319	-0.154
-198.304	-57.373	0.176	-0.076
-197.290	-200.000	0.010	-0.172
-196.275	-14.700	0.316	-0.199
-195.260	-82.604	-0.267	0.085
-194.246	-104.499	-0.237	0.054
-193.231	-16.886	0.415	0.257
-192.217	-115.937	0.239	0.044
-191.202	-200.000	0.035	-0.460
-190.187	-200.000	0.016	0.160
-189.173	-5.316	0.198	0.133
-188.158	417.813	0.017	0.036
-187.144	78.090	-0.134	0.140
-186.129	-200.000	-0.000	-0.283
-185.114	-42.618	0.278	0.138
-184.100	-101.515	-0.304	0.072
-183.085	-200.000	0.035	0.175
-182.071	6.324	-0.029	0.021
-181.056	189.455	-0.079	0.116
-180.042	14.441	0.242	0.185
-179.027	15.933	0.072	0.055
-178.012	800.000	0.091	-0.256
-176.998	-40.918	0.110	0.055
-175.983	145.357	-0.097	-0.127
-174.969	-74.737	-0.216	-0.076
-173.954	-200.000	-0.088	-0.466
-172.939	-85.308	0.151	-0.046
-171.925	-68.678	0.297	-0.112
-170.910	-107.230	-0.437	0.094
-169.896	283.548	0.200	-0.351
-168.881	97.061	0.249	0.280
-167.866	21.810	0.242	0.193
-166.852	19.589	-0.050	-0.040
-165.837	800.000	-0.167	0.474
-164.823	-133.673	-0.322	-0.039
-163.808	-200.000	-0.003	0.223
-162.793	160.685	-0.044	0.059
-161.779	33.629	-0.146	0.124
-160.764	15.313	-0.211	-0.162
-159.750	288.263	-0.058	0.102
-158.735	800.000	0.118	0.446
-157.720	-8.873	0.122	-0.080
-156.706	18.739	0.232	-0.182
-155.691	-200.000	-0.026	-0.325
-154.677	-120.443	-0.408	-0.068
-153.662	295.041	0.054	-0.097
-152.647	55.578	0.068	-0.064
-151.633	-200.000	0.067	-0.345
-150.618	-43.106	-0.278	0.138
-149.604	722.028	0.094	0.245
-148.589	71.593	-0.194	0.197
-147.574	-200.000	-0.035	0.214
-146.560	-129.989	0.219	0.029
-145.545	130.447	-0.305	0.382
-144.531	-115.407	0.065	-0.012
-143.516	710.620	0.078	0.201
-142.502	192.763	-0.115	0.170
-141.487	-33.001	0.159	-0.086
-140.472	800.000	-0.050	-0.214
-139.458	-106.558	-0.249	-0.054
-138.443	-73.685	0.229	-0.081
-137.429	-200.000	0.010	-0.074
-136.414	800.000	0.096	-0.318
-135.399	-122.467	0.057	0.009
-134.385	-9.932	0.181	0.118
-133.370	402.081	-0.137	0.282
-132.356	426.962	0.225	0.475
-131.341	800.000	-0.164	0.548
-130.326	-200.000	0.022	0.114
-129.312	29.937	0.198	-0.165
-128.297	-200.000	0.032	0.347
-127.283	-200.000	0.028	-0.324
-126.268	548.294	0.035	-0.082
-125.253	-23.806	-0.164	-0.096
-124.239	-131.486	0.197	0.025
-123.224	-200.000	0.252	-0.001
-122.210	-77.432	0.139	-0.047
-121.195	-44.947	0.234	-0.114
