DTS Sentinel unit serial number:	SN413079Multiplexer serial number:	ORYXHardware model number:	OX4-SRSoftware version number:	ORYX F/W v4.00 Oryx Data Collector v3.7.2.0data status	okinstallation	princeton_trtdifferential loss correction	single-endedforward channel	channel 3reverse channel	N/Adate	2019/09/18time	05:48:35forward acquisition time	60.00reverse acquisition time	0.00gamma	496.2192k internal	0.2343k external	0.2343temperature offset calibration	0.9951default loss term (dB/km)	0.3790temperature slope calibration	1.0000multiplexer offset coefficient	1.0000multiplexer slope coefficient	1.0000fibre end	0.00T internal ref (°C)	23.27T ext. ref 1 (°C)	0.18T ext. ref 2 (°C)	16.94length (m)	temperature (°C)	Stokes	anti-Stokes-747.200	9.109	-0.142	0.107
-746.185	-200.000	-0.019	0.338
-745.171	243.686	0.076	-0.128
-744.156	-149.417	-0.312	0.025
-743.142	-200.000	0.029	-0.133
-742.127	-200.000	0.034	0.432
-741.112	61.743	-0.090	0.090
-740.098	-64.292	-0.297	-0.121
-739.083	-57.520	-0.085	-0.038
-738.069	632.499	-0.041	-0.105
-737.054	-33.716	0.083	0.046
-736.039	75.489	-0.247	0.261
-735.025	800.000	-0.014	-0.059
-734.010	282.758	0.007	-0.012
-732.996	-200.000	-0.011	-0.537
-731.981	-200.000	0.050	-0.287
-730.966	112.460	0.016	-0.020
-729.952	26.509	0.179	0.150
-728.937	513.129	-0.116	-0.269
-727.923	-30.973	-0.294	0.166
-726.908	-43.509	-0.289	0.146
-725.894	-140.212	-0.405	0.042
-724.879	-115.110	-0.359	0.068
-723.864	8.117	-0.294	-0.220
-722.850	-200.000	0.021	-0.155
-721.835	800.000	-0.045	0.187
-720.821	-200.000	-0.038	-0.230
-719.806	-177.260	0.280	-0.007
-718.791	-124.430	-0.330	0.051
-717.777	-156.234	0.281	0.018
-716.762	-133.040	-0.228	-0.029
-715.748	442.100	0.088	-0.193
-714.733	-9.731	-0.096	-0.064
-713.718	-62.749	-0.177	0.073
-712.704	544.924	-0.074	0.177
-711.689	800.000	-0.076	0.301
-710.675	-52.902	-0.329	0.152
-709.660	305.641	0.036	0.066
-708.645	-200.000	0.052	-0.253
-707.631	727.264	0.128	0.340
-706.616	800.000	0.115	0.353
-705.602	-200.000	0.020	0.131
-704.587	63.017	0.163	0.163
-703.572	-105.721	0.480	0.109
-702.558	-200.000	0.493	-0.000
-701.543	-72.700	-0.183	-0.067
-700.529	-200.000	-0.004	0.060
-699.514	-182.704	0.260	-0.005
-698.499	125.157	-0.072	0.091
-697.485	800.000	0.044	-0.157
-696.470	689.939	-0.114	0.299
-695.456	800.000	0.052	-0.209
-694.441	101.880	-0.061	0.071
-693.426	-63.036	-0.221	0.091
-692.412	-32.602	0.066	0.037
-691.397	-200.000	-0.443	-0.000
-690.383	107.523	-0.170	-0.203
-689.368	426.063	0.093	-0.200
-688.354	-11.159	-0.276	0.182
-687.339	-166.646	0.361	-0.015
-686.324	800.000	0.077	-0.302
-685.310	800.000	0.069	0.225
-684.295	-68.169	0.101	0.039
-683.281	454.783	-0.090	-0.198
-682.266	519.597	0.093	-0.218
-681.251	99.737	0.171	0.197
-680.237	-75.886	0.260	0.092
-679.222	-200.000	0.050	-0.249
-678.208	-80.972	0.062	-0.020
-677.193	-13.331	0.041	-0.027
-676.178	304.039	0.025	-0.046
-675.164	-29.304	0.062	0.036
-674.149	309.637	0.098	0.183
-673.135	65.177	0.067	0.067
-672.120	-48.434	0.319	0.153
-671.105	800.000	-0.044	-0.129
-670.091	-38.060	0.079	-0.042
-669.076	-70.319	-0.305	0.116
-668.062	472.123	0.147	-0.331
-667.047	246.396	-0.072	0.121
-666.032	197.862	-0.109	-0.167
-665.018	800.000	0.129	0.396
-664.003	-200.000	0.016	-0.168
-662.989	-145.631	-0.178	0.016
-661.974	32.758	-0.323	0.279
-660.959	-61.237	-0.255	-0.107
-659.945	379.559	0.077	0.158
-658.930	259.725	-0.035	0.060
-657.916	-200.000	-0.049	-0.260
-656.901	-61.742	0.182	-0.076
-655.886	-141.411	-0.311	0.031
-654.872	-178.723	-0.326	0.007
-653.857	40.635	0.124	-0.111
-652.843	-134.504	0.245	-0.030
-651.828	800.000	-0.053	-0.218
-650.814	168.875	0.135	0.191
-649.799	-200.000	-0.025	0.130
-648.784	-200.000	0.034	-0.153
-647.770	800.000	-0.059	-0.250
-646.755	281.264	0.048	0.086
-645.741	19.058	0.110	0.088
-644.726	43.523	-0.256	-0.233
-643.711	-110.216	-0.136	0.028
-642.697	36.893	-0.030	-0.027
-641.682	-83.224	-0.142	-0.046
-640.668	-200.000	0.028	-0.177
-639.653	-13.103	0.309	0.200
-638.638	-34.246	-0.193	0.106
-637.624	82.285	0.136	-0.148
-636.609	-200.000	0.004	0.120
-635.595	437.600	0.022	-0.048
-634.580	-7.768	0.145	-0.098
-633.565	800.000	-0.058	0.217
-632.551	-20.789	0.281	0.172
-631.536	110.875	-0.105	-0.126
-630.522	-123.231	0.169	0.027
-629.507	169.580	0.126	0.180
-628.492	19.078	-0.142	0.113
-627.478	479.016	-0.112	0.253
-626.463	90.090	-0.113	0.126
-625.449	75.413	0.104	0.109
-624.434	299.036	0.238	0.437
-623.419	414.629	0.106	0.224
-622.405	35.032	0.259	0.226
-621.390	367.352	-0.062	-0.125
-620.376	-127.139	-0.229	0.033
-619.361	102.183	-0.303	0.352
-618.346	-200.000	-0.005	-0.235
-617.332	-11.342	-0.184	-0.121
-616.317	210.339	-0.237	-0.371
-615.303	99.078	-0.201	0.231
-614.288	-164.414	-0.417	-0.019
-613.273	-80.221	-0.217	0.072
-612.259	8.009	-0.110	0.082
-611.244	-65.924	-0.337	-0.134
-610.230	158.714	-0.171	-0.237
-609.215	14.894	0.280	0.218
-608.201	128.441	-0.245	0.311
-607.186	-33.719	0.069	0.038
-606.171	-200.000	-0.028	-0.223
-605.157	-108.648	0.264	-0.056
-604.142	55.579	0.142	-0.137
-603.128	-6.533	0.118	-0.080
-602.113	-91.332	-0.065	-0.018
-601.098	-78.853	0.076	0.026
-600.084	-18.928	0.326	0.202
-599.069	5.805	0.225	-0.165
-598.055	-200.000	-0.060	-0.281
-597.040	94.365	0.195	-0.221
-596.025	-99.630	-0.098	0.024
-595.011	211.797	-0.204	-0.320
-593.996	800.000	0.087	-0.258
-592.982	-39.013	-0.119	0.062
-591.967	-27.950	-0.247	0.142
-590.952	-200.000	0.018	0.114
-589.938	220.774	0.048	0.077
-588.923	-200.000	-0.017	0.137
-587.909	-200.000	0.008	0.145
-586.894	800.000	0.124	-0.354
-585.879	-143.341	-0.071	-0.007
-584.865	504.540	0.087	-0.200
-583.850	-200.000	0.032	-0.335
-582.836	35.665	-0.047	-0.041
-581.821	-31.758	0.218	0.121
-580.806	-34.192	-0.090	0.049
-579.792	286.992	-0.067	0.121
-578.777	-117.479	0.204	-0.037
-577.763	800.000	-0.109	-0.373
-576.748	-200.000	0.032	0.171
-575.733	3.669	-0.152	0.110
-574.719	268.520	0.097	-0.169
-573.704	318.682	0.072	-0.136
-572.690	340.305	0.097	-0.189
-571.675	36.578	0.078	0.068
-570.661	12.842	-0.174	0.134
-569.646	34.989	0.184	0.160
-568.631	800.000	-0.024	-0.087
-567.617	-200.000	0.019	-0.114
-566.602	800.000	-0.030	-0.092
-565.588	420.106	-0.133	0.284
-564.573	694.569	-0.025	0.064
-563.558	-200.000	0.035	0.204
-562.544	-4.942	-0.084	-0.058
-561.529	-200.000	0.001	0.087
-560.515	479.766	0.129	0.292
-559.500	-51.912	-0.305	-0.141
-558.485	-61.140	0.196	0.082
-557.471	157.725	-0.058	-0.080
-556.456	800.000	0.085	-0.363
-555.442	-188.788	-0.133	-0.002
-554.427	800.000	0.104	0.296
-553.412	52.299	-0.139	0.132
-552.398	-44.287	0.153	-0.076
-551.383	800.000	-0.034	-0.130
-550.369	-200.000	-0.001	-0.208
-549.354	301.027	0.036	0.066
-548.339	247.425	0.056	0.094
-547.325	58.925	-0.296	-0.289
-546.310	411.624	0.064	-0.135
-545.296	-103.396	0.134	-0.031
-544.281	133.781	0.295	-0.380
-543.266	-116.373	0.152	-0.028
-542.252	4.048	0.202	0.147
-541.237	-14.193	0.054	0.035
-540.223	800.000	0.087	-0.297
-539.208	386.239	-0.142	0.291
-538.193	214.783	0.062	0.098
-537.179	-200.000	0.043	0.192
-536.164	-82.450	-0.197	-0.063
-535.150	-91.225	-0.083	-0.024
-534.135	800.000	0.049	-0.165
-533.121	-79.971	0.235	0.078
-532.106	-101.463	-0.322	0.078
-531.091	-54.905	0.121	-0.054
-530.077	129.660	0.199	-0.253
-529.062	-127.834	-0.114	-0.016
-528.048	800.000	0.014	-0.051
-527.033	-52.000	0.238	-0.110
-526.018	-200.000	-0.022	0.143
-525.004	-200.000	0.004	0.185
-523.989	-87.404	-0.393	-0.118
-522.975	431.868	-0.070	-0.152
-521.960	150.981	-0.048	0.065
-520.945	276.803	0.062	0.110
-519.931	-200.000	0.022	0.227
-518.916	-65.297	-0.245	0.098
-517.902	-33.395	0.369	-0.202
-516.887	49.232	-0.117	-0.109
-515.872	-77.650	0.233	-0.080
-514.858	-87.332	0.071	-0.021
-513.843	328.290	0.052	-0.098
-512.829	336.638	0.120	-0.231
-511.814	-11.344	-0.180	0.117
-510.799	357.893	-0.073	0.144
-509.785	502.270	-0.025	-0.058
-508.770	800.000	-0.092	-0.289
-507.756	-200.000	-0.048	-0.260
-506.741	68.347	0.164	0.167
-505.726	-200.000	-0.042	-0.280
-504.712	287.819	-0.122	0.218
-503.697	153.041	0.054	0.073
-502.683	-8.959	0.071	-0.047
-501.668	18.735	-0.291	0.231
-500.653	336.609	-0.060	-0.116
-499.639	96.379	-0.046	-0.052
-498.624	46.176	0.106	-0.097
-497.610	-61.242	-0.155	0.065
-496.595	800.000	0.104	-0.349
-495.581	-172.901	-0.333	0.010
-494.566	202.664	0.208	0.319
-493.551	-112.400	-0.432	-0.086
-492.537	-138.962	0.301	0.032
-491.522	800.000	0.054	-0.188
-490.508	351.131	-0.086	-0.168
-489.493	154.222	0.157	0.214
-488.478	-79.941	-0.210	0.070
-487.464	28.537	0.060	0.050
-486.449	49.876	0.075	-0.070
-485.435	-200.000	-0.035	0.195
-484.420	-195.344	0.144	0.001
-483.405	69.181	0.063	0.064
-482.391	-168.205	-0.131	-0.005
-481.376	501.969	-0.090	0.207
-480.362	-200.000	-0.001	-0.019
-479.347	-200.000	-0.059	0.300
-478.332	118.771	0.068	0.083
-477.318	-159.799	-0.160	-0.009
-476.303	417.055	0.077	-0.163
-475.289	-27.777	-0.098	0.056
-474.274	-200.000	-0.062	-0.451
-473.259	-200.000	0.068	-0.314
-472.245	-72.824	-0.364	-0.133
-471.230	-200.000	0.046	-0.306
-470.216	-200.000	-0.011	-0.152
-469.201	55.594	0.120	0.115
-468.186	51.775	-0.119	-0.112
-467.172	-121.390	0.099	0.016
-466.157	399.174	0.146	0.302
-465.143	-200.000	0.019	-0.169
-464.128	-22.880	-0.223	0.133
-463.113	103.350	-0.039	-0.045
-462.099	252.694	-0.058	0.097
-461.084	127.882	0.143	-0.180
-460.070	800.000	0.046	-0.155
-459.055	-154.077	-0.318	0.021
-458.040	-7.778	0.063	-0.042
-457.026	65.024	-0.296	0.296
-456.011	800.000	0.081	0.242
-454.997	-200.000	0.030	0.189
-453.982	800.000	0.031	0.089
-452.968	132.914	-0.159	0.203
-451.953	-22.170	0.300	-0.180
-450.938	522.703	-0.126	0.294
-449.924	-95.176	-0.175	0.047
-448.909	-84.763	0.097	-0.030
-447.895	155.222	0.122	-0.166
-446.880	-200.000	-0.015	-0.430
-445.865	-110.325	-0.115	0.024
-444.851	-200.000	-0.015	-0.393
-443.836	-37.593	0.126	-0.067
-442.822	194.124	-0.078	0.116
-441.807	-200.000	0.081	0.359
-440.792	-200.000	-0.003	0.195
-439.778	429.523	0.141	0.301
-438.763	-83.811	-0.330	-0.104
-437.749	-54.080	0.162	-0.073
-436.734	99.792	-0.039	0.044
-435.719	-200.000	0.008	0.121
-434.705	36.219	-0.222	-0.193
-433.690	55.874	-0.007	0.006
-432.676	111.173	0.180	-0.214
-431.661	800.000	-0.066	0.276
-430.646	599.719	-0.146	0.358
-429.632	-45.848	0.195	0.095
-428.617	-80.308	0.213	0.070
-427.603	51.178	0.235	0.220
-426.588	-200.000	-0.030	-0.155
-425.573	487.120	0.042	0.094
-424.559	-12.973	0.131	0.084
-423.544	-8.503	0.137	-0.091
-422.530	-200.000	-0.015	-0.278
-421.515	-200.000	-0.008	-0.210
-420.500	17.588	0.142	-0.112
-419.486	195.957	-0.277	-0.417
-418.471	-100.317	-0.078	0.019
-417.457	-111.771	0.271	0.054
-416.442	-40.328	-0.175	-0.090
-415.428	-91.574	-0.244	0.069
-414.413	-27.759	0.331	0.190
-413.398	-200.000	-0.258	0.000
-412.384	-73.611	-0.177	0.064
-411.369	-96.453	-0.305	0.080
-410.355	-78.346	-0.315	0.107
-409.340	112.596	-0.063	0.075
-408.325	636.630	-0.032	0.080
-407.311	385.557	-0.226	0.460
-406.296	290.414	0.124	0.222
-405.282	263.338	0.051	0.087
-404.267	-200.000	0.042	0.233
-403.252	-182.720	-0.225	0.004
-402.238	-147.989	0.179	-0.015
-401.223	800.000	0.057	-0.182
-400.209	-51.780	-0.178	-0.082
-399.194	800.000	0.112	-0.318
-398.179	15.140	0.337	-0.261
-397.165	2.632	0.067	-0.048
-396.150	615.766	-0.144	0.355
-395.136	7.455	0.150	0.111
-394.121	90.403	-0.051	-0.056
-393.106	254.333	-0.130	0.219
-392.092	15.417	0.198	-0.153
-391.077	-26.454	0.193	-0.112
-390.063	-65.182	0.106	-0.042
-389.048	-20.134	0.287	0.175
-388.033	-122.776	0.086	0.014
-387.019	-27.708	0.073	-0.042
-386.004	-88.644	-0.206	-0.061
-384.990	-90.855	-0.171	-0.049
-383.975	-34.638	-0.383	0.207
-382.960	-200.000	-0.064	-0.371
-381.946	-38.982	0.313	-0.163
-380.931	239.542	0.210	0.345
-379.917	67.736	-0.204	-0.206
-378.902	800.000	-0.135	-0.392
-377.888	79.877	0.152	0.162
-376.873	12.598	-0.289	-0.220
-375.858	-200.000	0.009	0.184
-374.844	-181.611	-0.472	-0.009
-373.829	20.643	0.207	0.165
-372.815	-57.966	0.350	0.151
-371.800	12.738	0.215	0.164
-370.785	-107.250	-0.250	0.054
-369.771	-105.140	0.298	-0.067
-368.756	259.696	-0.085	0.146
-367.742	0.106	-0.208	0.147
-366.727	-174.956	-0.264	0.007
-365.712	-200.000	0.001	-0.165
-364.698	-200.000	-0.276	-0.000
-363.683	-34.437	0.186	0.101
-362.669	-66.135	0.166	-0.065
-361.654	510.012	-0.124	-0.284
-360.639	-173.167	-0.217	0.007
-359.625	187.165	-0.135	0.199
-358.610	-73.497	-0.291	-0.105
-357.596	53.383	0.212	-0.200
-356.581	726.203	-0.057	0.149
-355.566	-200.000	0.010	0.102
-354.552	-200.000	0.030	-0.211
-353.537	146.091	-0.219	0.289
-352.523	494.119	-0.037	0.085
-351.508	275.475	-0.170	0.297
-350.493	-26.166	0.250	0.145
-349.479	-6.547	-0.041	0.028
-348.464	149.960	0.159	0.213
-347.450	-73.614	-0.225	0.081
-346.435	-200.000	-0.011	-0.072
-345.420	76.056	-0.104	0.108
-344.406	-64.001	0.147	-0.059
-343.391	-200.000	0.019	0.378
-342.377	-200.000	-0.004	-0.259
-341.362	672.353	0.081	-0.207
-340.348	-200.000	-0.041	-0.379
-339.333	-142.069	-0.153	0.015
-338.318	516.418	0.014	0.033
-337.304	800.000	0.106	-0.414
-336.289	-94.027	-0.253	-0.068
-335.275	-200.000	-0.062	0.000
-334.260	-102.960	-0.111	0.026
-333.245	800.000	0.081	-0.247
-332.231	15.313	0.336	-0.259
-331.216	165.160	-0.038	0.052
-330.202	230.344	-0.056	0.091
-329.187	74.296	0.039	0.040
-328.172	14.893	-0.273	0.210
-327.158	109.178	-0.247	0.292
-326.143	314.250	0.162	0.300
-325.129	-200.000	0.002	-0.106
-324.114	-195.688	0.205	-0.001
-323.099	-99.509	-0.034	-0.008
-322.085	64.033	-0.235	-0.233
-321.070	800.000	-0.066	-0.239
-320.056	312.860	-0.092	-0.170
-319.041	91.471	0.128	-0.142
-318.026	-200.000	-0.017	-0.406
-317.012	103.293	-0.058	-0.066
-315.997	136.182	0.182	-0.234
-314.983	128.392	0.267	-0.334
-313.968	800.000	-0.077	0.237
-312.953	-200.000	0.077	0.377
-311.939	418.167	-0.047	-0.099
-310.924	-58.582	0.257	-0.110
-309.910	48.355	0.058	0.054
-308.895	-200.000	0.017	-0.133
-307.880	4.630	0.086	0.062
-306.866	-136.436	-0.288	0.033
-305.851	646.263	0.012	0.030
-304.837	26.758	0.306	-0.252
-303.822	102.654	0.149	0.172
-302.807	-181.544	-0.232	-0.004
-301.793	-47.585	-0.148	-0.071
-300.778	800.000	-0.073	0.311
-299.764	-11.395	-0.149	0.096
-298.749	-200.000	0.029	0.173
-297.735	-36.469	-0.237	-0.125
-296.720	-200.000	0.029	0.214
-295.705	-75.327	-0.140	-0.049
-294.691	-200.000	-0.003	-0.019
-293.676	-35.080	-0.244	-0.131
-292.662	-200.000	-0.009	-0.164
-291.647	-6.048	-0.100	-0.067
-290.632	0.824	0.149	-0.105
-289.618	202.126	0.062	0.094
-288.603	-200.000	0.017	0.192
-287.589	-200.000	0.067	-0.342
-286.574	335.254	-0.057	-0.109
-285.559	79.886	0.087	0.092
-284.545	315.623	0.053	0.098
-283.530	-16.285	-0.112	0.070
-282.516	-44.780	0.046	0.023
-281.501	-43.471	0.115	-0.057
-280.486	-200.000	0.027	-0.385
-279.472	-73.671	0.071	0.025
-278.457	-94.382	-0.224	-0.060
-277.443	-200.000	0.011	-0.231
-276.428	196.829	0.095	0.142
-275.413	-77.798	0.215	0.073
-274.399	449.068	-0.053	-0.116
-273.384	-31.804	-0.030	-0.017
-272.370	-108.999	0.289	0.061
-271.355	-200.000	-0.001	-0.036
-270.340	-55.251	0.220	-0.097
-269.326	252.214	-0.130	0.218
-268.311	-200.000	0.018	0.119
-267.297	-143.200	-0.432	0.041
-266.282	-154.778	0.221	-0.014
-265.267	132.406	0.115	0.146
-264.253	158.542	0.235	0.320
-263.238	800.000	-0.074	0.251
-262.224	231.311	0.110	0.177
-261.209	-200.000	0.003	-0.406
-260.195	17.635	0.195	0.152
-259.180	-104.190	0.390	-0.089
-258.165	-128.483	-0.264	-0.037
-257.151	-25.736	-0.104	-0.060
-256.136	-57.162	-0.027	0.012
-255.122	15.172	0.251	-0.194
-254.107	-82.235	-0.368	0.118
-253.092	-200.000	0.040	-0.248
-252.078	167.826	0.257	-0.359
-251.063	280.935	-0.065	0.115
-250.049	67.459	0.126	0.126
-249.034	-200.000	0.040	-0.220
-248.019	141.017	-0.244	0.317
-247.005	-200.000	0.012	0.092
-245.990	16.922	0.187	-0.145
-244.976	-200.000	-0.027	0.180
-243.961	-68.249	-0.097	-0.037
-242.946	-93.066	0.205	0.056
-241.932	-95.958	-0.181	-0.047
-240.917	-200.000	-0.016	-0.364
-239.903	402.089	0.114	0.235
-238.888	-104.720	-0.155	0.035
-237.873	226.881	-0.190	0.304
-236.859	-200.000	-0.026	-0.295
-235.844	-81.386	-0.277	0.090
-234.830	-200.000	0.079	0.439
-233.815	-110.746	-0.201	0.041
-232.800	-82.827	0.314	-0.100
-231.786	216.902	0.134	0.209
-230.771	102.990	0.164	0.188
-229.757	444.549	-0.074	0.160
-228.742	800.000	0.012	-0.039
-227.727	-69.368	0.382	0.144
-226.713	-91.109	-0.162	0.046
-225.698	-51.635	0.197	0.090
-224.684	-200.000	-0.002	0.094
-223.669	-112.587	-0.126	-0.025
-222.655	-200.000	-0.004	-0.094
-221.640	194.022	-0.320	-0.475
-220.625	-200.000	0.085	-0.389
-219.611	-49.896	0.185	-0.086
-218.596	362.876	0.161	0.316
-217.582	800.000	-0.101	-0.294
-216.567	245.722	0.105	-0.174
-215.552	143.449	-0.176	0.229
-214.538	-200.000	0.003	-0.021
-213.523	70.728	-0.149	-0.151
-212.509	178.903	0.133	0.191
-211.494	-121.263	-0.224	-0.037
-210.479	-28.187	-0.098	-0.055
-209.465	263.800	-0.079	0.135
-208.450	-56.369	-0.250	0.109
-207.436	-95.292	-0.265	-0.070
-206.421	-116.525	0.296	0.054
-205.406	4.470	-0.091	0.065
-204.392	-39.631	0.261	-0.134
-203.377	363.889	-0.122	-0.241
-202.363	800.000	0.064	0.182
-201.348	-36.165	0.351	-0.186
-200.333	-44.738	-0.336	-0.164
-199.319	800.000	0.076	0.228
-198.304	-200.000	-0.092	-0.462
-197.290	216.089	0.158	0.246
-196.275	-200.000	-0.026	0.157
-195.260	303.743	0.137	-0.250
-194.246	47.319	0.292	0.267
-193.231	-104.478	0.238	0.054
-192.217	369.378	-0.051	0.102
-191.202	86.075	-0.344	0.371
-190.187	703.060	-0.138	0.355
-189.173	-17.561	-0.031	-0.019
-188.158	-68.783	0.118	0.045
-187.144	-84.410	0.382	-0.118
-186.129	-200.000	0.075	0.340
-185.114	-173.536	0.171	-0.005
-184.100	-3.515	-0.395	0.269
-183.085	-11.409	0.172	0.111
-182.071	156.832	-0.115	0.156
-181.056	-129.920	0.345	0.046
-180.042	171.121	0.211	-0.297
-179.027	800.000	0.039	0.135
-178.012	519.847	0.087	-0.199
-176.998	-200.000	0.020	0.236
-175.983	-75.972	0.188	-0.065
-174.969	157.474	-0.234	-0.317
-173.954	-139.323	0.166	-0.017
-172.939	-39.649	0.326	-0.167
-171.925	-7.334	0.184	0.122
-170.910	-200.000	-0.034	-0.198
-169.896	-23.555	0.139	-0.082
-168.881	800.000	0.097	-0.314
-167.866	-27.416	-0.272	0.155
-166.852	-166.219	0.018	-0.001
-165.837	-31.747	0.149	0.082
-164.823	800.000	0.036	0.119
-163.808	800.000	-0.095	0.323
-162.793	-200.000	-0.015	-0.136
-161.779	42.553	-0.097	0.087
-160.764	13.931	-0.214	0.163
-159.750	-135.333	0.349	-0.041
-158.735	800.000	-0.029	0.084
-157.720	-60.859	0.378	0.156
-156.706	-200.000	0.049	-0.384
-155.691	800.000	0.067	0.215
-154.677	78.724	-0.099	-0.104
-153.662	-109.630	0.285	-0.059
-152.647	-14.460	-0.264	-0.166
-151.633	-200.000	-0.016	0.082
-150.618	800.000	0.062	-0.174
-149.604	-122.046	0.069	-0.011
-148.589	299.339	0.140	0.253
-147.574	-98.937	-0.405	-0.101
-146.560	196.854	-0.057	0.085
-145.545	770.022	0.243	-0.647
-144.531	800.000	0.067	0.282
-143.516	65.328	-0.161	0.160
-142.502	-118.038	-0.124	-0.022
-141.487	-58.825	-0.130	-0.055
-140.472	-83.267	-0.113	-0.035
-139.458	78.560	0.234	0.245
-138.443	669.156	-0.071	-0.180
-137.429	97.756	-0.104	-0.117
-136.414	207.048	0.165	-0.252
-135.399	-199.595	-0.379	-0.002
-134.385	137.874	-0.155	-0.199
-133.370	-34.278	0.247	-0.133
-132.356	-49.726	-0.160	-0.074
-131.341	-200.000	0.027	0.137
-130.326	247.504	-0.106	-0.175
-129.312	34.369	-0.055	-0.047
-128.297	-99.930	0.196	-0.048
-127.283	284.219	-0.087	0.153
-126.268	93.536	-0.100	-0.111
-125.253	-0.977	-0.430	0.297
-124.239	-3.312	0.166	0.113
-123.224	-200.000	-0.011	0.173
-122.210	14.156	-0.140	0.106
-121.195	-200.000	0.010	-0.103
