DTS Sentinel unit serial number:	SN413079Multiplexer serial number:	ORYXHardware model number:	OX4-SRSoftware version number:	ORYX F/W v4.00 Oryx Data Collector v3.7.2.0data status	okinstallation	princeton_trtdifferential loss correction	single-endedforward channel	channel 3reverse channel	N/Adate	2019/09/13time	06:28:35forward acquisition time	60.00reverse acquisition time	0.00gamma	496.2192k internal	0.2339k external	0.2339temperature offset calibration	1.0131default loss term (dB/km)	0.3790temperature slope calibration	1.0000multiplexer offset coefficient	1.0000multiplexer slope coefficient	1.0000fibre end	0.00T internal ref (°C)	26.06T ext. ref 1 (°C)	4.09T ext. ref 2 (°C)	20.66length (m)	temperature (°C)	Stokes	anti-Stokes-747.200	38.937	-0.123	0.110
-746.185	-102.695	-0.050	0.012
-745.171	-23.520	0.284	-0.171
-744.156	-49.249	-0.094	0.045
-743.142	779.372	-0.147	-0.404
-742.127	796.711	-0.086	-0.238
-741.112	32.655	-0.160	0.139
-740.098	-200.000	-0.056	0.261
-739.083	136.714	-0.308	0.403
-738.069	27.249	-0.199	0.168
-737.054	16.483	0.177	0.141
-736.039	-120.717	-0.147	0.025
-735.025	-200.000	-0.035	0.176
-734.010	190.854	-0.210	-0.316
-732.996	608.285	-0.107	0.268
-731.981	-200.000	0.017	-0.214
-730.966	220.188	0.119	0.191
-729.952	5.963	-0.151	-0.112
-728.937	800.000	-0.128	-0.363
-727.923	-200.000	0.026	-0.153
-726.908	-76.421	-0.266	-0.094
-725.894	99.917	-0.110	0.127
-724.879	800.000	0.053	-0.163
-723.864	-105.489	0.155	-0.035
-722.850	-200.000	0.048	-0.244
-721.835	800.000	0.048	-0.156
-720.821	146.381	0.069	-0.093
-719.806	-200.000	-0.012	-0.125
-718.791	99.510	0.047	-0.054
-717.777	-6.435	-0.161	-0.110
-716.762	-146.719	0.102	0.009
-715.748	-143.562	-0.120	0.011
-714.733	-114.031	0.224	0.044
-713.718	324.671	0.082	-0.158
-712.704	800.000	-0.075	0.309
-711.689	-166.256	-0.519	0.022
-710.675	800.000	-0.096	0.345
-709.660	-200.000	-0.019	-0.102
-708.645	195.733	-0.193	0.294
-707.631	-200.000	0.035	0.229
-706.616	-200.000	-0.007	0.098
-705.602	-200.000	0.033	-0.253
-704.587	-11.460	-0.328	-0.216
-703.572	255.747	0.060	0.103
-702.558	299.130	0.082	0.150
-701.543	398.097	0.135	-0.282
-700.529	-97.217	-0.143	-0.037
-699.514	-19.473	0.234	-0.145
-698.499	332.017	0.055	-0.107
-697.485	-58.403	0.133	0.058
-696.470	71.228	-0.130	-0.135
-695.456	130.709	0.089	0.114
-694.441	-109.803	-0.313	-0.066
-693.426	-200.000	-0.010	0.135
-692.412	-102.946	-0.471	-0.112
-691.397	750.175	0.094	0.253
-690.383	800.000	0.027	-0.080
-689.368	-101.303	-0.240	-0.059
-688.354	800.000	0.042	-0.120
-687.339	58.795	0.173	0.171
-686.324	800.000	-0.010	0.039
-685.310	7.330	0.058	0.043
-684.295	800.000	0.075	-0.252
-683.281	298.077	0.010	0.018
-682.266	304.508	0.024	0.044
-681.251	-200.000	0.011	0.169
-680.237	9.501	-0.302	-0.229
-679.222	222.676	-0.116	-0.187
-678.208	55.815	0.211	0.204
-677.193	800.000	0.078	-0.336
-676.178	575.003	-0.161	0.393
-675.164	515.656	-0.082	-0.191
-674.149	109.445	0.075	-0.090
-673.135	87.881	-0.082	-0.091
-672.120	-88.727	0.039	0.012
-671.105	172.546	-0.168	0.241
-670.091	128.138	0.051	-0.065
-669.076	565.995	0.025	-0.060
-668.062	-67.888	0.191	-0.075
-667.047	-200.000	0.000	0.120
-666.032	52.230	-0.183	-0.174
-665.018	800.000	-0.025	0.094
-664.003	-200.000	0.025	-0.328
-662.989	-113.311	-0.428	-0.084
-661.974	71.640	-0.152	-0.158
-660.959	800.000	0.108	-0.315
-659.945	800.000	0.103	0.404
-658.930	-114.294	0.132	-0.026
-657.916	7.322	0.092	-0.069
-656.901	128.956	-0.090	-0.114
-655.886	-51.988	-0.180	-0.083
-654.872	8.670	0.265	-0.199
-653.857	-200.000	0.049	0.264
-652.843	-121.064	-0.341	0.057
-651.828	800.000	-0.020	0.076
-650.814	11.207	0.078	0.060
-649.799	184.760	0.192	0.285
-648.784	685.767	0.100	0.260
-647.770	-200.000	-0.028	0.123
-646.755	573.258	0.033	-0.081
-645.741	107.183	0.236	-0.280
-644.726	142.915	0.101	0.135
-643.711	-142.253	0.254	-0.025
-642.697	-116.504	0.224	-0.041
-641.682	-35.212	0.199	0.108
-640.668	-82.782	-0.232	-0.075
-639.653	289.517	0.114	-0.206
-638.638	-200.000	-0.043	0.205
-637.624	57.091	-0.264	-0.257
-636.609	-119.597	-0.138	0.024
-635.595	-85.190	-0.225	0.070
-634.580	131.291	-0.247	-0.317
-633.565	119.138	0.105	0.130
-632.551	345.243	-0.047	0.092
-631.536	-31.275	-0.054	-0.030
-630.522	-60.950	0.216	0.091
-629.507	298.814	-0.101	-0.186
-628.492	-154.115	0.212	-0.014
-627.478	3.655	0.133	-0.097
-626.463	-92.122	0.086	0.024
-625.449	101.707	0.118	-0.138
-624.434	800.000	0.047	0.155
-623.419	-91.115	0.329	-0.094
-622.405	525.576	0.085	0.199
-621.390	126.057	0.263	0.332
-620.376	277.247	-0.132	-0.234
-619.361	800.000	-0.083	0.234
-618.346	20.746	0.192	-0.155
-617.332	147.224	0.087	0.117
-616.317	-19.340	0.166	0.102
-615.303	229.727	0.117	-0.190
-614.288	257.489	-0.149	-0.255
-613.273	-112.177	-0.236	-0.047
-612.259	-148.959	-0.227	0.018
-611.244	261.515	-0.211	-0.364
-610.230	15.088	-0.145	-0.113
-609.215	50.474	-0.345	-0.325
-608.201	340.190	-0.204	-0.397
-607.186	242.407	-0.097	-0.163
-606.171	-113.041	-0.231	-0.046
-605.157	661.619	-0.034	0.088
-604.142	288.799	-0.103	-0.186
-603.128	-200.000	0.004	-0.204
-602.113	-68.096	-0.224	-0.087
-601.098	188.667	0.098	-0.147
-600.084	-200.000	-0.033	-0.409
-599.069	119.803	-0.050	-0.062
-598.055	-200.000	0.004	0.109
-597.040	44.270	0.192	0.176
-596.025	-71.271	-0.229	0.086
-595.011	-79.655	-0.162	-0.054
-593.996	-200.000	0.037	-0.201
-592.982	-82.031	-0.345	-0.112
-591.967	62.019	0.084	-0.083
-590.952	-76.979	0.351	0.122
-589.938	-181.043	-0.222	-0.004
-588.923	303.479	0.059	0.110
-587.909	-19.871	0.186	0.115
-586.894	784.767	0.036	-0.098
-585.879	-115.456	-0.276	-0.052
-584.865	94.303	-0.167	-0.189
-583.850	-92.699	-0.159	-0.044
-582.836	-73.732	-0.234	0.085
-581.821	-109.394	0.256	-0.054
-580.806	152.105	-0.230	0.312
-579.792	-200.000	-0.002	-0.256
-578.777	88.109	-0.216	-0.239
-577.763	-200.000	0.028	0.159
-576.748	-198.757	-0.145	-0.001
-575.733	-200.000	0.018	0.543
-574.719	-101.951	0.298	-0.072
-573.704	275.888	-0.121	0.214
-572.690	800.000	0.086	-0.292
-571.675	-105.921	-0.148	0.033
-570.661	27.079	-0.075	0.063
-569.646	800.000	-0.034	0.111
-568.631	-135.862	-0.329	0.039
-567.617	-160.875	-0.257	0.014
-566.602	-74.529	0.268	0.096
-565.588	-103.929	0.414	-0.096
-564.573	-8.389	0.073	-0.049
-563.558	-5.873	-0.130	-0.089
-562.544	18.699	0.102	0.081
-561.529	-148.272	-0.311	-0.026
-560.515	-200.000	0.014	0.160
-559.500	-15.608	-0.165	-0.105
-558.485	800.000	-0.038	-0.163
-557.471	323.918	0.116	-0.220
-556.456	-40.206	-0.127	0.066
-555.442	-59.851	0.122	0.052
-554.427	-43.904	-0.228	0.114
-553.412	-82.432	0.260	0.084
-552.398	800.000	-0.042	0.168
-551.383	-200.000	-0.021	-0.150
-550.369	22.127	-0.226	-0.184
-549.354	-200.000	0.026	-0.145
-548.339	-89.086	-0.211	-0.062
-547.325	-94.867	0.244	-0.066
-546.310	800.000	0.067	-0.216
-545.296	2.514	-0.130	0.094
-544.281	57.660	-0.413	-0.402
-543.266	34.598	0.097	-0.084
-542.252	780.761	0.090	-0.246
-541.237	122.262	-0.173	-0.215
-540.223	245.202	0.090	0.150
-539.208	-144.502	-0.235	-0.022
-538.193	800.000	-0.130	0.364
-537.179	800.000	0.066	0.199
-536.164	-200.000	-0.023	0.208
-535.150	-133.244	0.390	0.049
-534.135	510.106	0.064	-0.149
-533.121	-101.628	0.062	0.015
-532.106	-200.000	-0.054	-0.273
-531.091	-200.000	0.063	-0.376
-530.077	-22.285	-0.254	-0.153
-529.062	-172.039	0.133	-0.004
-528.048	-128.658	-0.300	-0.042
-527.033	50.236	-0.168	0.158
-526.018	12.841	0.143	-0.110
-525.004	146.102	0.090	-0.121
-523.989	-159.712	-0.198	-0.011
-522.975	800.000	-0.041	-0.150
-521.960	89.510	0.138	-0.153
-520.945	800.000	-0.029	-0.125
-519.931	-100.541	0.290	-0.071
-518.916	23.265	0.129	0.105
-517.902	-105.089	-0.222	0.051
-516.887	-1.970	0.119	0.083
-515.872	-67.192	-0.218	0.085
-514.858	800.000	0.053	0.193
-513.843	-200.000	-0.028	-0.151
-512.829	800.000	-0.030	-0.128
-511.814	-49.844	-0.176	0.083
-510.799	-122.236	-0.215	-0.035
-509.785	105.361	0.131	-0.154
-508.770	-142.139	0.325	0.032
-507.756	56.820	0.137	0.133
-506.741	73.018	-0.071	-0.073
-505.726	14.697	0.079	-0.061
-504.712	-2.085	0.324	-0.226
-503.697	-66.565	-0.140	0.055
-502.683	48.458	0.157	0.146
-501.668	-76.220	-0.267	0.094
-500.653	69.159	0.074	0.075
-499.639	-200.000	0.004	-0.176
-498.624	-171.590	0.185	0.006
-497.610	-147.642	0.122	0.010
-496.595	262.974	-0.104	0.180
-495.581	-141.785	0.150	-0.015
-494.566	-110.493	0.282	0.058
-493.551	260.241	-0.073	0.125
-492.537	-110.457	-0.139	0.029
-491.522	-124.404	0.407	0.063
-490.508	362.368	0.081	-0.161
-489.493	-133.620	-0.255	0.032
-488.478	-183.120	-0.185	-0.003
-487.464	-33.422	-0.266	-0.146
-486.449	-6.367	0.206	0.140
-485.435	113.816	0.070	-0.085
-484.420	30.775	0.353	-0.300
-483.405	89.944	0.131	-0.145
-482.391	-200.000	-0.017	-0.359
-481.376	76.227	-0.035	0.036
-480.362	83.394	-0.206	0.223
-479.347	271.219	-0.068	0.119
-478.332	-200.000	-0.081	0.357
-477.318	800.000	0.061	0.185
-476.303	177.750	-0.172	-0.249
-475.289	-106.019	0.427	0.095
-474.274	800.000	0.026	-0.105
-473.259	20.065	-0.404	0.323
-472.245	149.105	0.211	0.283
-471.230	265.705	-0.092	-0.159
-470.216	-200.000	0.026	0.393
-469.201	20.769	0.143	0.115
-468.186	7.701	-0.224	0.166
-467.172	-137.566	-0.160	0.018
-466.157	-125.335	0.197	0.030
-465.143	-200.000	0.008	-0.107
-464.128	102.545	-0.135	-0.157
-463.113	7.316	-0.077	0.057
-462.099	-58.722	-0.208	-0.090
-461.084	110.168	-0.014	0.017
-460.070	-127.048	0.159	-0.023
-459.055	-141.455	-0.207	-0.021
-458.040	-122.657	-0.370	-0.059
-457.026	-63.566	0.117	-0.048
-456.011	-200.000	0.005	-0.059
-454.997	144.586	0.084	0.111
-453.982	257.726	-0.129	-0.220
-452.968	20.254	0.226	-0.181
-451.953	-200.000	0.007	-0.136
-450.938	800.000	0.077	0.234
-449.924	800.000	-0.085	-0.358
-448.909	-188.277	0.314	0.004
-447.895	-72.611	-0.270	-0.099
-446.880	-183.398	-0.306	0.005
-445.865	-200.000	-0.002	-0.540
-444.851	800.000	-0.151	-0.420
-443.836	-65.263	-0.018	-0.007
-442.822	-66.506	-0.326	0.128
-441.807	27.550	-0.184	-0.153
-440.792	-93.617	0.021	-0.006
-439.778	-200.000	-0.018	0.152
-438.763	-200.000	0.056	0.549
-437.749	-25.713	0.148	-0.086
-436.734	-14.896	0.095	-0.060
-435.719	354.829	0.118	0.233
-434.705	-95.413	0.158	0.042
-433.690	23.894	0.050	0.041
-432.676	-108.140	0.062	-0.013
-431.661	-143.478	-0.199	-0.019
-430.646	-3.485	0.259	0.179
-429.632	-148.065	-0.258	0.021
-428.617	113.813	0.159	-0.192
-427.603	35.462	0.203	0.176
-426.588	-200.000	0.016	0.082
-425.573	-12.606	0.092	-0.059
-424.559	-134.202	-0.270	0.033
-423.544	-160.656	-0.076	-0.004
-422.530	800.000	-0.046	-0.136
-421.515	77.274	0.150	0.158
-420.500	-200.000	-0.041	0.181
-419.486	-118.531	0.224	0.039
-418.471	-91.347	0.372	-0.105
-417.457	-200.000	0.049	0.234
-416.442	-70.680	-0.113	0.042
-415.428	24.660	0.278	0.228
-414.413	100.932	-0.153	-0.177
-413.398	-173.209	-0.059	0.002
-412.384	58.394	0.395	0.384
-411.369	-200.000	-0.035	0.324
-410.355	51.352	0.106	0.099
-409.340	-113.502	0.164	0.032
-408.325	59.565	-0.083	-0.081
-407.311	-160.356	0.178	-0.009
-406.296	-154.181	0.171	-0.011
-405.282	142.204	-0.196	-0.258
-404.267	-40.508	-0.113	-0.058
-403.252	-64.749	-0.112	-0.045
-402.238	-200.000	0.063	-0.288
-401.223	800.000	0.105	-0.318
-400.209	-200.000	0.046	0.279
-399.194	-161.860	-0.024	-0.001
-398.179	52.624	-0.079	0.075
-397.165	157.401	-0.077	-0.106
-396.150	460.333	-0.179	-0.394
-395.136	266.470	-0.106	-0.183
-394.121	110.049	-0.147	0.175
-393.106	-58.496	-0.071	0.031
-392.092	800.000	0.080	-0.283
-391.077	-10.713	-0.061	0.040
-390.063	329.303	0.064	0.121
-389.048	800.000	-0.029	0.107
-388.033	56.711	-0.164	0.158
-387.019	-98.502	-0.041	-0.010
-386.004	178.023	-0.107	0.155
-384.990	-109.081	0.120	0.025
-383.975	9.283	0.056	-0.042
-382.960	-200.000	0.027	-0.157
-381.946	348.356	-0.109	0.213
-380.931	267.002	-0.153	-0.265
-379.917	-126.735	0.151	-0.022
-378.902	800.000	0.057	-0.178
-377.888	-123.125	0.079	-0.013
-376.873	-50.148	0.091	0.043
-375.858	355.577	0.115	0.225
-374.844	165.239	0.130	-0.182
-373.829	0.095	-0.346	-0.244
-372.815	420.001	-0.072	0.152
-371.800	-4.892	0.228	0.155
-370.785	313.316	0.103	-0.192
-369.771	-151.102	-0.354	-0.026
-368.756	-200.000	-0.018	-0.104
-367.742	800.000	0.018	-0.050
-366.727	-191.498	0.224	0.002
-365.712	-3.575	0.205	0.141
-364.698	24.423	-0.160	0.131
-363.683	-143.198	-0.219	-0.021
-362.669	-5.447	0.111	-0.075
-361.654	557.955	0.058	-0.137
-360.639	-200.000	0.089	0.396
-359.625	-124.848	-0.159	0.024
-358.610	-98.322	0.392	-0.099
-357.596	-162.733	-0.280	-0.014
-356.581	288.620	0.071	0.127
-355.566	-200.000	0.033	-0.402
-354.552	-53.441	-0.335	0.152
-353.537	800.000	0.057	-0.197
-352.523	636.471	0.119	0.299
-351.508	-44.591	-0.099	0.049
-350.493	-21.873	0.217	-0.130
-349.479	-200.000	0.005	-0.104
-348.464	515.667	-0.113	-0.262
-347.450	-14.354	0.373	0.237
-346.435	-165.915	-0.175	-0.007
-345.420	375.482	0.143	0.289
-344.406	536.691	0.060	-0.140
-343.391	-129.546	-0.148	-0.020
-342.377	34.900	-0.235	-0.203
-341.362	-53.991	0.221	-0.099
-340.348	85.353	-0.248	-0.269
-339.333	-103.576	0.332	-0.077
-338.318	256.442	-0.186	0.315
-337.304	-133.174	0.276	-0.034
-336.289	-200.000	0.067	0.412
-335.275	-51.857	-0.087	-0.040
-334.260	183.660	0.128	0.187
-333.245	77.224	-0.062	-0.065
-332.231	-158.057	0.169	0.010
-331.216	16.375	0.294	-0.229
-330.202	-200.000	0.056	0.253
-329.187	-45.295	0.187	-0.092
-328.172	-10.184	-0.204	-0.134
-327.158	137.746	-0.130	-0.168
-326.143	-200.000	-0.065	0.340
-325.129	-200.000	-0.063	0.441
-324.114	19.411	0.044	-0.035
-323.099	160.168	-0.156	0.215
-322.085	47.101	0.069	0.064
-321.070	-48.038	-0.186	-0.089
-320.056	-192.676	-0.212	-0.002
-319.041	189.949	-0.083	0.122
-318.026	-113.700	0.419	-0.081
-317.012	219.112	-0.096	-0.151
-315.997	-140.676	-0.055	0.006
-314.983	-105.838	-0.210	-0.047
-313.968	204.063	0.096	0.147
-312.953	-200.000	0.001	0.206
-311.939	-33.562	-0.175	-0.095
-310.924	421.801	0.065	-0.138
-309.910	-200.000	-0.013	0.200
-308.895	405.431	0.108	0.225
-307.880	100.174	0.197	-0.225
-306.866	194.357	0.211	-0.316
-305.851	119.764	-0.177	0.216
-304.837	432.355	-0.089	0.191
-303.822	-94.193	0.186	0.050
-302.807	3.335	-0.167	0.120
-301.793	71.240	0.268	0.274
-300.778	56.535	0.154	0.148
-299.764	92.234	0.126	0.139
-298.749	-32.873	-0.196	-0.108
-297.735	177.592	-0.028	-0.040
-296.720	-104.893	0.101	0.023
-295.705	-16.574	0.255	0.159
-294.691	-200.000	-0.041	-0.287
-293.676	800.000	-0.067	-0.199
-292.662	362.631	0.124	0.245
-291.647	-47.993	0.042	0.020
-290.632	337.596	-0.065	-0.125
-289.618	252.111	-0.127	-0.213
-288.603	50.790	-0.167	-0.156
-287.589	416.316	0.008	0.016
-286.574	26.968	-0.268	0.221
-285.559	-82.287	-0.158	0.051
-284.545	82.470	0.129	0.138
-283.530	100.652	0.158	-0.180
-282.516	-112.567	-0.054	-0.011
-281.501	800.000	0.033	-0.116
-280.486	-101.584	0.236	0.056
-279.472	583.085	-0.025	-0.062
-278.457	118.658	-0.205	-0.249
-277.443	800.000	-0.031	-0.122
-276.428	800.000	-0.100	-0.398
-275.413	-13.791	0.330	-0.210
-274.399	51.827	0.092	-0.086
-273.384	-183.353	-0.371	-0.006
-272.370	-61.966	0.160	-0.066
-271.355	-73.986	-0.142	0.051
-270.340	187.969	-0.049	-0.072
-269.326	-200.000	0.005	0.121
-268.311	-99.165	0.137	-0.034
-267.297	-200.000	-0.051	0.232
-266.282	-200.000	-0.226	-0.001
-265.267	545.691	-0.139	0.328
-264.253	165.501	0.085	-0.118
-263.238	800.000	-0.035	-0.151
-262.224	166.864	0.066	-0.092
-261.209	-137.673	-0.261	-0.029
-260.195	470.934	0.042	0.094
-259.180	-30.832	-0.185	0.103
-258.165	157.356	0.059	-0.080
-257.151	-7.511	0.165	0.110
-256.136	-145.909	-0.388	-0.034
-255.122	800.000	0.011	-0.034
-254.107	242.310	0.159	-0.263
-253.092	-14.790	-0.098	0.062
-252.078	8.479	-0.340	-0.252
-251.063	455.825	0.047	-0.103
-250.049	-200.000	-0.027	0.315
-249.034	800.000	0.156	0.440
-248.019	-124.944	-0.106	0.016
-247.005	800.000	0.048	-0.197
-245.990	10.120	0.407	0.304
-244.976	800.000	-0.043	-0.139
-243.961	-50.723	0.171	0.079
-242.946	43.377	0.085	0.077
-241.932	-65.403	0.107	-0.042
-240.917	-2.256	-0.302	-0.208
-239.903	-98.010	0.165	-0.042
-238.888	-200.000	0.033	0.351
-237.873	7.456	0.365	0.268
-236.859	-17.650	0.097	0.060
-235.844	85.915	-0.390	0.422
-234.830	-200.000	0.024	0.121
-233.815	-200.000	0.032	0.145
-232.800	137.315	-0.113	0.146
-231.786	-200.000	-0.002	0.032
-230.771	-113.092	0.169	0.033
-229.757	800.000	-0.025	0.096
-228.742	113.977	-0.217	0.260
-227.727	-48.920	0.170	0.080
-226.713	-101.684	-0.216	0.051
-225.698	352.869	-0.128	0.250
-224.684	-119.820	0.268	-0.045
-223.669	-89.935	0.407	0.117
-222.655	-55.484	0.075	-0.033
-221.640	-46.796	0.132	0.064
-220.625	-126.172	0.181	0.027
-219.611	-200.000	-0.050	0.289
-218.596	-200.000	-0.049	0.332
-217.582	141.487	0.111	-0.145
-216.567	-200.000	0.009	-0.187
-215.552	-110.381	0.396	0.081
-214.538	409.092	0.125	-0.259
-213.523	-60.224	-0.156	-0.065
-212.509	140.453	-0.167	0.217
-211.494	-55.486	0.275	0.121
-210.479	171.080	-0.121	0.170
-209.465	264.543	-0.133	0.227
-208.450	258.360	-0.156	0.264
-207.436	-71.630	0.184	0.067
-206.421	376.535	-0.020	-0.040
-205.406	132.933	-0.257	-0.325
-204.392	800.000	0.121	-0.395
-203.377	-152.601	0.054	-0.004
-202.363	297.096	0.086	-0.155
-201.348	-2.746	-0.092	0.063
-200.333	-30.298	0.150	0.084
-199.319	246.576	0.045	0.075
-198.304	-200.000	-0.013	-0.074
-197.290	710.353	-0.125	0.324
-196.275	800.000	0.069	0.249
-195.260	284.267	-0.073	0.129
-194.246	222.346	0.217	0.342
-193.231	-75.288	0.299	0.105
-192.217	-75.334	-0.432	-0.151
-191.202	503.122	0.155	0.351
-190.187	349.913	0.058	-0.113
-189.173	-115.905	0.009	-0.002
-188.158	-156.041	0.244	0.015
-187.144	800.000	-0.090	-0.328
-186.129	-200.000	0.008	0.077
-185.114	-38.479	0.127	-0.066
-184.100	-84.019	-0.057	-0.018
-183.085	800.000	-0.098	0.304
-182.071	655.372	0.073	-0.184
-181.056	-200.000	0.028	0.184
-180.042	76.475	-0.035	-0.036
-179.027	466.660	0.100	-0.220
-178.012	-137.385	0.279	0.031
-176.998	-128.666	0.081	0.011
-175.983	42.436	0.141	0.125
-174.969	90.364	0.084	0.092
-173.954	2.613	-0.237	-0.168
-172.939	517.164	0.133	0.306
-171.925	-57.982	-0.216	0.093
-170.910	-200.000	0.038	-0.203
-169.896	-110.038	-0.514	0.105
-168.881	69.248	0.291	-0.293
-167.866	-144.838	0.051	0.005
-166.852	53.284	-0.418	-0.393
-165.837	-38.441	0.208	-0.108
-164.823	800.000	-0.095	-0.364
-163.808	321.980	0.055	0.103
-162.793	-59.021	0.169	-0.071
-161.779	-57.684	-0.159	0.068
-160.764	-200.000	-0.001	-0.023
-159.750	142.980	0.107	0.139
-158.735	-49.143	-0.419	0.196
-157.720	-21.166	-0.095	0.057
-156.706	-50.431	-0.172	0.080
-155.691	-66.854	0.175	0.068
-154.677	-15.648	0.185	0.115
-153.662	-49.717	-0.244	-0.114
-152.647	206.217	-0.041	0.063
-151.633	800.000	0.097	-0.294
-150.618	-116.886	-0.081	-0.015
-149.604	800.000	0.043	0.147
-148.589	-147.833	-0.310	-0.025
-147.574	-200.000	-0.015	-0.107
-146.560	-120.664	0.245	0.041
-145.545	9.589	0.107	-0.079
-144.531	-9.629	0.338	0.221
-143.516	96.387	0.139	0.156
-142.502	-24.635	-0.247	-0.144
-141.487	241.673	-0.108	-0.177
-140.472	-200.000	0.045	0.244
-139.458	61.268	-0.103	0.101
-138.443	-200.000	0.050	0.660
-137.429	-129.525	0.211	-0.029
-136.414	-8.248	-0.129	-0.085
-135.399	36.966	-0.328	0.284
-134.385	90.758	0.078	-0.085
-133.370	-91.999	0.202	0.056
-132.356	800.000	-0.038	0.160
-131.341	-135.492	-0.281	-0.033
-130.326	14.022	0.130	-0.099
-129.312	156.750	0.068	-0.091
-128.297	-98.937	-0.313	-0.078
-127.283	-200.000	0.011	0.101
-126.268	555.184	-0.121	0.285
-125.253	-200.000	0.009	0.096
-124.239	324.912	0.075	0.140
-123.224	-127.507	-0.234	-0.033
-122.210	213.465	0.107	0.166
-121.195	5.732	0.276	-0.200
