DTS Sentinel unit serial number:	SN413079Multiplexer serial number:	ORYXHardware model number:	OX4-SRSoftware version number:	ORYX F/W v4.00 Oryx Data Collector v3.7.2.0data status	okinstallation	princeton_trtdifferential loss correction	single-endedforward channel	channel 3reverse channel	N/Adate	2019/09/12time	11:34:11forward acquisition time	60.00reverse acquisition time	0.00gamma	496.2192k internal	0.2294k external	0.2294temperature offset calibration	1.0041default loss term (dB/km)	0.3790temperature slope calibration	1.0000multiplexer offset coefficient	1.0000multiplexer slope coefficient	1.0000fibre end	0.00T internal ref (°C)	39.44T ext. ref 1 (°C)	1.98T ext. ref 2 (°C)	36.49length (m)	temperature (°C)	Stokes	anti-Stokes-747.200	-200.000	-0.015	0.119
-746.185	-200.000	-0.051	0.236
-745.171	-92.151	0.286	0.083
-744.156	800.000	-0.052	0.168
-743.142	-128.045	0.147	0.021
-742.127	600.333	-0.046	0.117
-741.112	-157.705	-0.310	-0.019
-740.098	15.687	0.246	0.198
-739.083	31.659	-0.201	-0.177
-738.069	218.728	0.346	0.565
-737.054	-84.988	0.143	-0.046
-736.039	300.964	-0.257	0.486
-735.025	800.000	0.017	-0.054
-734.010	-141.263	-0.337	-0.035
-732.996	-200.000	0.005	-0.199
-731.981	69.944	0.150	-0.158
-730.966	-4.923	0.034	-0.024
-729.952	65.015	-0.074	0.076
-728.937	209.866	0.066	0.106
-727.923	683.374	-0.104	-0.278
-726.908	-166.252	-0.171	0.007
-725.894	-29.100	-0.192	0.113
-724.879	800.000	0.074	-0.303
-723.864	735.979	0.102	0.279
-722.850	-32.797	-0.098	0.056
-721.835	-117.452	0.279	-0.052
-720.821	-92.131	0.219	0.063
-719.806	-40.619	-0.107	0.057
-718.791	234.881	-0.192	-0.323
-717.777	-47.780	-0.413	-0.204
-716.762	364.264	-0.175	-0.359
-715.748	-33.847	0.076	-0.043
-714.733	-85.015	-0.241	-0.077
-713.718	-200.000	-0.004	0.316
-712.704	-17.785	0.224	-0.144
-711.689	800.000	-0.077	0.249
-710.675	-200.000	0.019	0.110
-709.660	58.046	-0.132	0.132
-708.645	-83.629	0.222	0.073
-707.631	-163.452	-0.104	-0.005
-706.616	-169.487	-0.365	0.014
-705.602	186.744	0.104	0.157
-704.587	800.000	-0.025	-0.089
-703.572	-200.000	-0.028	0.265
-702.558	99.501	0.252	-0.298
-701.543	44.359	0.149	-0.140
-700.529	-76.805	0.122	-0.044
-699.514	-37.957	-0.179	-0.097
-698.499	-61.432	-0.330	0.142
-697.485	-24.820	0.116	-0.071
-696.470	154.583	-0.251	-0.353
-695.456	58.811	-0.055	0.055
-694.441	307.601	-0.077	-0.146
-693.426	276.520	0.201	0.365
-692.412	-24.204	0.205	0.125
-691.397	800.000	-0.024	-0.082
-690.383	-200.000	-0.071	0.327
-689.368	7.072	0.321	-0.245
-688.354	328.196	-0.193	0.379
-687.339	-82.137	0.225	0.075
-686.324	179.152	0.073	-0.109
-685.310	392.676	-0.109	0.231
-684.295	243.051	0.056	-0.095
-683.281	800.000	-0.053	0.186
-682.266	249.047	-0.078	0.134
-681.251	-25.235	-0.144	0.087
-680.237	11.746	-0.359	0.281
-679.222	72.481	-0.136	-0.145
-678.208	-120.245	0.201	-0.035
-677.193	-93.128	0.287	0.082
-676.178	-152.191	0.119	-0.009
-675.164	163.961	0.149	0.214
-674.149	-122.079	0.343	-0.057
-673.135	-160.211	-0.161	0.009
-672.120	-200.000	-0.004	-0.296
-671.105	299.866	0.162	0.304
-670.091	-66.154	0.468	-0.190
-669.076	800.000	-0.080	0.265
-668.062	309.886	0.189	-0.361
-667.047	23.700	0.078	-0.065
-666.032	205.072	-0.113	-0.179
-665.018	-35.138	0.078	-0.043
-664.003	388.892	0.093	0.196
-662.989	-25.154	-0.183	0.111
-661.974	96.451	-0.163	-0.191
-660.959	-16.976	-0.190	-0.122
-659.945	-200.000	-0.029	-0.198
-658.930	-200.000	0.030	0.168
-657.916	800.000	-0.083	0.313
-656.901	-110.176	0.131	-0.028
-655.886	-82.255	-0.332	0.110
-654.872	98.445	0.052	0.062
-653.857	55.642	-0.194	0.191
-652.843	800.000	0.074	0.328
-651.828	-42.789	-0.062	0.032
-650.814	-199.070	0.374	0.002
-649.799	-109.083	-0.393	0.085
-648.784	79.398	0.088	-0.096
-647.770	-110.309	0.050	-0.011
-646.755	574.051	0.163	0.406
-645.741	-113.030	-0.156	0.031
-644.726	-126.275	-0.014	-0.002
-643.711	-28.640	-0.245	0.144
-642.697	148.918	-0.194	-0.267
-641.682	8.661	0.097	-0.074
-640.668	45.106	-0.260	0.244
-639.653	-22.771	-0.304	0.187
-638.638	-199.387	0.059	-0.000
-637.624	582.899	-0.121	-0.303
-636.609	209.823	-0.240	-0.383
-635.595	105.860	-0.082	-0.099
-634.580	-111.467	-0.231	-0.048
-633.565	216.800	-0.217	-0.351
-632.551	87.017	-0.103	-0.115
-631.536	9.239	0.187	0.144
-630.522	-119.373	-0.142	0.025
-629.507	-168.225	0.052	0.002
-628.492	-200.000	-0.011	-0.093
-627.478	-200.000	0.059	0.304
-626.463	-170.226	-0.207	-0.007
-625.449	47.516	0.370	0.351
-624.434	-134.669	-0.352	-0.044
-623.419	-67.934	-0.278	0.110
-622.405	-77.778	0.291	0.102
-621.390	64.821	-0.172	-0.176
-620.376	99.366	0.206	0.242
-619.361	-200.000	-0.035	-0.241
-618.346	-14.014	-0.072	-0.048
-617.332	326.915	0.066	-0.129
-616.317	500.922	-0.067	0.157
-615.303	-83.487	-0.276	-0.090
-614.288	-172.429	0.106	-0.003
-613.273	-162.210	0.254	-0.013
-612.259	-200.000	0.013	-0.113
-611.244	-25.252	0.201	-0.121
-610.230	-50.968	-0.116	0.055
-609.215	-71.341	-0.199	0.076
-608.201	752.200	0.037	-0.101
-607.186	-44.986	-0.331	-0.167
-606.171	-76.760	-0.424	-0.151
-605.157	800.000	-0.055	0.192
-604.142	-117.990	0.235	-0.043
-603.128	-71.551	-0.208	0.079
-602.113	658.695	-0.092	-0.240
-601.098	-168.428	-0.400	-0.016
-600.084	-112.244	0.593	0.121
-599.069	-114.241	-0.494	-0.097
-598.055	359.531	-0.113	0.229
-597.040	383.546	0.095	0.199
-596.025	406.586	-0.048	0.103
-595.011	134.351	0.134	0.177
-593.996	246.120	0.093	0.160
-592.982	-200.000	-0.015	-0.166
-591.967	303.499	0.022	0.042
-590.952	-98.830	-0.413	-0.107
-589.938	563.652	0.118	0.290
-588.923	651.991	0.027	0.071
-587.909	210.721	-0.152	-0.243
-586.894	412.517	-0.097	-0.210
-585.879	-90.541	0.080	0.024
-584.865	-200.000	0.021	-0.131
-583.850	-200.000	0.041	-0.374
-582.836	8.784	0.216	-0.165
-581.821	67.533	0.130	-0.135
-580.806	308.236	-0.071	-0.134
-579.792	742.364	0.186	-0.507
-578.777	309.709	0.087	-0.165
-577.763	-39.360	-0.220	0.117
-576.748	99.234	0.098	-0.115
-575.733	-123.175	0.142	-0.023
-574.719	111.695	-0.082	0.101
-573.704	432.745	0.105	0.232
-572.690	800.000	-0.027	0.096
-571.675	-136.668	0.339	0.040
-570.661	-142.608	-0.197	-0.020
-569.646	427.005	-0.107	-0.234
-568.631	436.032	-0.066	0.145
-567.617	800.000	0.062	-0.179
-566.602	208.734	0.086	-0.137
-565.588	800.000	0.111	-0.331
-564.573	-51.986	-0.203	0.096
-563.558	116.668	-0.116	-0.145
-562.544	-200.000	-0.032	0.197
-561.529	800.000	0.034	0.109
-560.515	800.000	-0.034	0.131
-559.500	-200.000	0.026	-0.310
-558.485	-200.000	-0.030	0.245
-557.471	318.760	-0.150	-0.288
-556.456	-69.530	-0.237	0.092
-555.442	561.661	0.060	-0.148
-554.427	702.426	0.083	0.221
-553.412	-41.009	0.263	-0.138
-552.398	7.580	-0.256	0.195
-551.383	141.764	-0.326	0.439
-550.369	35.797	-0.283	0.253
-549.354	-55.998	0.234	-0.106
-548.339	115.102	0.126	0.156
-547.325	-200.000	-0.020	-0.212
-546.310	800.000	0.060	-0.182
-545.296	-200.000	0.036	0.217
-544.281	-99.664	-0.367	0.093
-543.266	159.922	-0.169	0.239
-542.252	-200.000	-0.002	0.191
-541.237	5.045	0.037	0.028
-540.223	-111.420	-0.357	-0.074
-539.208	-79.498	0.168	-0.058
-538.193	-82.607	-0.216	0.071
-537.179	27.493	0.121	0.104
-536.164	120.962	0.102	0.128
-535.150	-113.867	0.059	-0.012
-534.135	-67.633	0.190	0.076
-533.121	-200.000	0.013	0.143
-532.106	-64.148	0.043	0.018
-531.091	-147.429	0.106	-0.009
-530.077	-91.777	-0.122	0.035
-529.062	-81.896	-0.239	-0.079
-528.048	32.610	0.070	-0.061
-527.033	148.280	0.224	0.307
-526.018	74.128	0.287	0.306
-525.004	258.803	0.085	-0.149
-523.989	228.615	0.220	-0.363
-522.975	-184.325	0.043	0.001
-521.960	-200.000	0.029	-0.463
-520.945	2.901	0.027	-0.020
-519.931	180.535	-0.172	0.255
-518.916	-26.895	-0.119	0.071
-517.902	619.655	-0.105	0.267
-516.887	56.530	-0.195	-0.192
-515.872	-82.754	0.156	0.051
-514.858	42.922	-0.266	-0.246
-513.843	545.397	0.081	0.196
-512.829	-130.127	0.216	0.030
-511.814	-137.323	-0.317	0.036
-510.799	622.118	-0.109	-0.278
-509.785	-176.050	-0.055	0.001
-508.770	578.004	0.051	-0.126
-507.756	191.145	0.097	0.147
-506.741	12.996	-0.107	0.084
-505.726	7.958	-0.314	-0.238
-504.712	207.271	-0.130	-0.206
-503.697	-200.000	-0.041	0.337
-502.683	800.000	-0.014	0.052
-501.668	-200.000	-0.030	0.284
-500.653	339.683	-0.140	0.276
-499.639	-25.965	0.064	0.038
-498.624	-200.000	-0.012	-0.111
-497.610	-190.499	0.174	0.002
-496.595	-40.409	-0.324	-0.170
-495.581	800.000	0.076	-0.328
-494.566	180.933	-0.216	-0.321
-493.551	-74.591	-0.278	-0.101
-492.537	-43.695	-0.251	0.128
-491.522	760.986	-0.067	0.183
-490.508	-18.203	-0.254	0.161
-489.493	-159.083	0.034	-0.002
-488.478	-105.969	0.153	-0.035
-487.464	157.799	0.023	-0.032
-486.449	-125.181	0.121	0.019
-485.435	32.031	0.260	-0.226
-484.420	-3.526	0.165	-0.116
-483.405	800.000	0.048	0.148
-482.391	800.000	-0.087	-0.269
-481.376	-200.000	0.015	-0.084
-480.362	-200.000	-0.074	0.353
-479.347	-46.058	0.115	-0.057
-478.332	2.432	-0.182	0.133
-477.318	-10.199	-0.281	0.189
-476.303	-200.000	-0.053	0.322
-475.289	21.594	0.082	0.067
-474.274	34.810	-0.116	-0.102
-473.259	800.000	0.070	0.250
-472.245	406.501	-0.073	0.157
-471.230	1.371	0.153	-0.112
-470.216	-164.864	0.173	0.008
-469.201	-138.313	-0.199	0.022
-468.186	-144.631	-0.383	-0.036
-467.172	-145.864	-0.193	0.017
-466.157	-55.524	-0.054	0.024
-465.143	-200.000	-0.053	0.389
-464.128	-200.000	-0.020	0.141
-463.113	68.906	0.229	-0.238
-462.099	800.000	-0.051	-0.159
-461.084	800.000	-0.047	-0.170
-460.070	-152.313	-0.346	-0.025
-459.055	-59.773	0.244	-0.105
-458.040	-32.591	-0.163	0.092
-457.026	800.000	0.021	0.063
-456.011	-160.908	-0.481	0.026
-454.997	403.758	0.148	0.316
-453.982	-138.004	0.241	0.027
-452.968	-169.199	0.257	0.010
-451.953	48.341	-0.221	0.209
-450.938	-154.865	0.115	0.008
-449.924	-2.962	0.251	0.177
-448.909	-17.832	-0.057	-0.036
-447.895	-138.454	0.089	-0.010
-446.880	-200.000	-0.021	-0.096
-445.865	-37.513	-0.292	0.157
-444.851	-137.328	0.366	0.042
-443.836	327.414	-0.059	-0.113
-442.822	-84.860	0.183	-0.058
-441.807	-79.689	-0.276	-0.094
-440.792	556.804	-0.049	-0.118
-439.778	-96.663	0.111	-0.030
-438.763	606.686	0.042	0.105
-437.749	-137.970	0.080	0.009
-436.734	-8.276	-0.186	0.127
-435.719	-200.000	0.038	0.196
-434.705	800.000	-0.008	0.028
-433.690	234.191	-0.146	-0.244
-432.676	-200.000	-0.011	0.146
-431.661	349.004	0.077	-0.154
-430.646	-200.000	0.009	-0.284
-429.632	186.241	0.029	0.044
-428.617	499.760	-0.110	-0.256
-427.603	-43.008	-0.237	-0.122
-426.588	173.079	-0.071	0.103
-425.573	769.025	0.029	0.081
-424.559	-122.870	0.552	-0.090
-423.544	-133.771	0.342	0.043
-422.530	-200.000	0.001	0.015
-421.515	-153.588	-0.195	0.014
-420.500	-200.000	0.030	0.193
-419.486	98.790	-0.119	0.139
-418.471	591.029	0.110	-0.273
-417.457	-114.029	-0.062	-0.012
-416.442	-200.000	0.029	-0.232
-415.428	149.073	0.130	0.177
-414.413	-67.442	0.327	0.130
-413.398	-200.000	-0.003	-0.181
-412.384	800.000	0.096	-0.293
-411.369	-4.389	0.213	-0.149
-410.355	-143.665	-0.090	-0.009
-409.340	110.263	-0.093	-0.112
-408.325	-200.000	-0.070	-0.326
-407.311	533.249	0.036	0.086
-406.296	89.544	-0.230	0.259
-405.282	-61.647	0.325	-0.137
-404.267	234.796	-0.261	-0.434
-403.252	-40.626	-0.038	0.020
-402.238	-84.270	0.581	-0.186
-401.223	119.490	0.127	-0.158
-400.209	-200.000	-0.004	0.132
-399.194	85.967	-0.128	0.142
-398.179	-53.556	-0.086	0.040
-397.165	196.976	0.065	-0.100
-396.150	-200.000	-0.007	-0.174
-395.136	-84.267	-0.300	0.096
-394.121	129.379	-0.226	-0.291
-393.106	800.000	-0.087	-0.320
-392.092	800.000	-0.039	0.116
-391.077	353.483	-0.029	0.058
-390.063	-85.959	0.198	-0.062
-389.048	63.666	-0.203	-0.206
-388.033	176.998	0.057	0.083
-387.019	-58.744	0.095	-0.041
-386.004	-76.997	0.149	0.052
-384.990	800.000	-0.110	0.322
-383.975	109.186	-0.049	0.059
-382.960	-106.031	0.167	-0.038
-381.946	-76.927	0.074	0.026
-380.931	-113.172	0.232	-0.046
-379.917	800.000	0.087	0.252
-378.902	800.000	0.023	0.093
-377.888	-200.000	0.037	0.340
-376.873	-6.073	0.266	-0.183
-375.858	-95.213	0.121	0.033
-374.844	-66.121	0.297	0.120
-373.829	597.711	0.050	0.126
-372.815	39.704	0.430	0.389
-371.800	316.777	0.109	0.208
-370.785	-167.771	0.161	-0.006
-369.771	123.270	-0.109	-0.138
-368.756	-53.662	-0.463	-0.213
-367.742	-200.000	-0.045	0.287
-366.727	-200.000	-0.003	0.096
-365.712	579.142	-0.024	0.060
-364.698	-4.990	-0.242	-0.168
-363.683	-200.000	-0.068	-0.423
-362.669	-200.000	-0.031	0.360
-361.654	-200.000	-0.005	0.067
-360.639	52.636	0.142	-0.137
-359.625	-200.000	-0.019	0.108
-358.610	-88.641	-0.221	0.066
-357.596	105.470	-0.096	0.114
-356.581	128.583	0.042	0.054
-355.566	-151.058	0.329	-0.025
-354.552	-94.349	0.136	-0.038
-353.537	-200.000	0.072	0.414
-352.523	235.644	0.084	-0.140
-351.508	-83.186	0.189	0.061
-350.493	-200.000	0.031	0.257
-349.479	-92.582	0.362	-0.102
-348.464	251.338	0.131	-0.224
-347.450	419.323	-0.134	-0.288
-346.435	-70.995	-0.364	-0.138
-345.420	6.245	-0.173	-0.129
-344.406	659.832	-0.054	0.141
-343.391	28.447	0.340	0.289
-342.377	-200.000	-0.087	0.514
-341.362	252.092	0.120	0.206
-340.348	89.284	0.317	-0.355
-339.333	800.000	-0.089	-0.332
-338.318	13.860	0.238	-0.186
-337.304	-30.159	0.348	0.199
-336.289	163.312	0.087	0.123
-335.275	-150.641	0.220	-0.017
-334.260	64.795	0.188	0.191
-333.245	99.750	-0.170	-0.198
-332.231	-112.030	0.260	-0.053
-331.216	-149.453	0.309	-0.025
-330.202	122.187	0.070	-0.088
-329.187	-139.634	-0.201	-0.022
-328.172	-179.575	0.116	-0.003
-327.158	-10.267	-0.165	-0.110
-326.143	106.343	0.163	0.195
-325.129	444.693	0.082	-0.181
-324.114	54.430	-0.047	0.046
-323.099	216.786	0.063	0.101
-322.085	-200.000	0.000	-0.089
-321.070	-105.938	-0.364	0.082
-320.056	49.726	0.137	0.130
-319.041	-24.690	-0.437	-0.261
-318.026	-200.000	0.028	-0.174
-317.012	-200.000	-0.033	0.211
-315.997	-200.000	-0.051	0.339
-314.983	128.451	-0.162	-0.207
-313.968	18.988	-0.135	0.109
-312.953	104.193	0.151	-0.178
-311.939	50.961	0.246	-0.235
-310.924	241.192	0.055	0.093
-309.910	-200.000	0.009	0.087
-308.895	-195.247	0.219	-0.002
-307.880	683.886	-0.078	0.204
-306.866	371.910	-0.100	-0.205
-305.851	-200.000	-0.002	0.145
-304.837	800.000	-0.069	0.299
-303.822	800.000	0.070	-0.207
-302.807	516.173	0.122	-0.287
-301.793	-182.187	-0.180	0.003
-300.778	376.468	0.131	0.269
-299.764	442.173	0.146	-0.320
-298.749	189.245	-0.113	0.171
-297.735	-86.290	-0.079	-0.024
-296.720	-200.000	0.014	0.206
-295.705	119.606	-0.219	0.273
-294.691	-97.931	0.153	-0.040
-293.676	80.975	0.191	0.207
-292.662	-200.000	0.043	-0.274
-291.647	-83.118	-0.169	-0.055
-290.632	163.081	-0.140	0.198
-289.618	312.219	-0.031	0.058
-288.603	-200.000	-0.036	0.205
-287.589	214.532	0.179	-0.285
-286.574	158.083	-0.135	0.188
-285.559	-96.657	-0.104	-0.027
-284.545	107.705	-0.177	-0.212
-283.530	-65.887	-0.305	0.122
-282.516	109.481	0.109	0.131
-281.501	-19.312	-0.146	-0.091
-280.486	54.566	-0.272	0.264
-279.472	26.680	-0.171	0.144
-278.457	65.484	0.188	0.191
-277.443	800.000	0.094	0.270
-276.428	-80.184	-0.137	0.046
-275.413	-200.000	0.042	0.251
-274.399	-200.000	-0.016	-0.252
-273.384	-18.002	0.086	-0.054
-272.370	209.391	-0.140	0.220
-271.355	760.411	-0.043	-0.116
-270.340	-200.000	-0.010	0.131
-269.326	11.615	0.219	-0.168
-268.311	800.000	0.090	-0.321
-267.297	800.000	-0.052	-0.198
-266.282	-53.989	0.062	-0.028
-265.267	-148.671	0.071	0.006
-264.253	201.538	0.081	0.125
-263.238	-36.896	-0.413	0.222
-262.224	-200.000	0.015	-0.563
-261.209	-200.000	-0.030	0.264
-260.195	-31.203	-0.095	0.054
-259.180	-100.240	0.200	0.050
-258.165	293.124	0.031	-0.057
-257.151	433.411	0.098	-0.214
-256.136	-35.278	0.314	-0.171
-255.122	104.506	-0.105	-0.124
-254.107	-133.482	0.058	0.007
-253.092	58.725	0.207	0.204
-252.078	42.107	0.150	-0.136
-251.063	49.701	-0.201	-0.190
-250.049	-174.253	0.057	-0.002
-249.034	-158.352	0.120	-0.007
-248.019	-200.000	0.000	-0.017
-247.005	-108.209	-0.170	-0.037
-245.990	85.870	-0.118	0.130
-244.976	15.984	-0.034	0.027
-243.961	-119.955	0.232	0.040
-242.946	75.378	0.240	-0.254
-241.932	-52.597	0.299	-0.139
-240.917	-25.674	0.231	-0.137
-239.903	-200.000	0.007	-0.157
-238.888	-16.446	-0.157	-0.100
-237.873	-156.218	-0.386	-0.024
-236.859	-30.842	-0.219	-0.124
-235.844	-32.616	-0.021	-0.012
-234.830	-200.000	0.050	-0.430
-233.815	-85.723	0.188	0.058
-232.800	-132.233	-0.063	0.008
-231.786	-200.000	-0.002	-0.427
-230.771	-28.228	0.187	0.108
-229.757	329.096	0.025	0.049
-228.742	800.000	-0.079	0.312
-227.727	-14.717	0.212	0.137
-226.713	-200.000	0.014	0.272
-225.698	306.056	0.121	0.225
-224.684	248.977	0.086	-0.146
-223.669	-9.401	0.328	0.219
-222.655	-63.415	0.042	0.017
-221.640	101.621	0.217	-0.254
-220.625	212.172	0.177	-0.279
-219.611	-122.249	-0.189	-0.031
-218.596	249.349	0.128	0.218
-217.582	800.000	-0.019	0.077
-216.567	-49.914	0.072	-0.034
-215.552	800.000	0.051	-0.174
-214.538	-95.575	-0.141	0.038
-213.523	800.000	-0.039	0.170
-212.509	-10.281	0.108	0.072
-211.494	-126.132	0.046	-0.007
-210.479	608.520	0.161	0.403
-209.465	146.823	0.218	0.294
-208.450	8.374	-0.221	-0.166
-207.436	-76.140	0.077	0.027
-206.421	-21.258	0.175	-0.107
-205.406	203.410	-0.062	0.095
-204.392	13.465	-0.084	0.065
-203.377	4.544	0.271	-0.199
-202.363	-97.327	-0.262	-0.068
-201.348	-148.786	0.444	-0.036
-200.333	-7.672	0.179	-0.121
-199.319	53.718	-0.124	-0.120
-198.304	-101.390	0.412	-0.100
-197.290	41.364	0.091	-0.082
-196.275	-200.000	0.050	0.250
-195.260	-67.891	0.066	0.026
-194.246	211.632	-0.147	0.231
-193.231	-125.251	-0.173	-0.026
-192.217	-200.000	0.002	0.042
-191.202	578.703	-0.017	-0.041
-190.187	800.000	0.052	-0.166
-189.173	161.942	0.196	0.274
-188.158	-200.000	-0.015	-0.236
-187.144	-162.346	-0.137	-0.007
-186.129	444.593	0.156	0.342
-185.114	-54.462	-0.274	-0.124
-184.100	-200.000	-0.020	0.094
-183.085	422.984	0.141	-0.303
-182.071	-46.040	-0.133	-0.066
-181.056	-200.000	-0.010	-0.073
-180.042	48.175	0.078	-0.073
-179.027	28.943	0.130	-0.110
-178.012	-32.825	0.147	-0.082
-176.998	-200.000	-0.016	-0.271
-175.983	-200.000	0.022	-0.439
-174.969	-116.037	-0.347	-0.065
-173.954	-72.495	-0.089	0.033
-172.939	-51.229	0.202	0.095
-171.925	-43.464	0.169	0.085
-170.910	-200.000	0.030	-0.180
-169.896	-10.275	0.042	0.028
-168.881	800.000	-0.041	0.131
-167.866	-200.000	-0.008	0.299
-166.852	-20.387	-0.194	-0.119
-165.837	800.000	0.089	0.267
-164.823	-200.000	0.039	-0.283
-163.808	115.540	-0.070	0.086
-162.793	-101.199	-0.175	-0.043
-161.779	-200.000	-0.007	0.171
-160.764	520.443	-0.060	0.141
-159.750	-27.339	0.173	-0.101
-158.735	443.430	0.151	-0.331
-157.720	-200.000	0.030	0.363
-156.706	10.968	-0.173	0.132
-155.691	-81.718	0.218	0.072
-154.677	-42.540	0.179	-0.091
-153.662	604.856	-0.044	0.108
-152.647	-158.203	-0.309	0.018
-151.633	2.356	-0.136	-0.098
-150.618	161.246	-0.359	-0.502
-149.604	-58.648	-0.117	0.051
-148.589	89.112	0.040	0.045
-147.574	105.469	-0.042	-0.050
-146.560	53.160	-0.164	0.157
-145.545	105.014	0.140	-0.164
-144.531	-42.401	0.322	0.164
-143.516	355.209	-0.041	0.082
-142.502	-18.636	0.190	-0.118
-141.487	-81.002	0.383	-0.127
-140.472	-76.198	-0.355	0.125
-139.458	6.515	-0.102	0.076
-138.443	-200.000	0.076	-0.346
-137.429	-47.570	0.182	-0.088
-136.414	-200.000	-0.006	-0.227
-135.399	246.792	-0.032	-0.053
-134.385	323.118	0.156	0.297
-133.370	-200.000	-0.017	-0.260
-132.356	-123.168	0.476	0.076
-131.341	21.217	0.068	0.055
-130.326	-93.754	-0.079	0.022
-129.312	-45.556	-0.293	-0.145
-128.297	-67.324	0.206	0.081
-127.283	-84.042	-0.252	-0.080
-126.268	800.000	-0.048	-0.204
-125.253	-200.000	-0.059	0.330
-124.239	45.882	-0.125	0.116
-123.224	-200.000	-0.022	-0.236
-122.210	69.773	0.065	0.067
-121.195	-103.462	-0.203	0.048
