DTS Sentinel unit serial number:	SN413079Multiplexer serial number:	ORYXHardware model number:	OX4-SRSoftware version number:	ORYX F/W v4.00 Oryx Data Collector v3.7.2.0data status	okinstallation	princeton_trtdifferential loss correction	single-endedforward channel	channel 3reverse channel	N/Adate	2019/09/12time	11:38:11forward acquisition time	60.00reverse acquisition time	0.00gamma	496.2192k internal	0.2294k external	0.2294temperature offset calibration	1.0041default loss term (dB/km)	0.3790temperature slope calibration	1.0000multiplexer offset coefficient	1.0000multiplexer slope coefficient	1.0000fibre end	0.00T internal ref (°C)	39.56T ext. ref 1 (°C)	1.98T ext. ref 2 (°C)	37.13length (m)	temperature (°C)	Stokes	anti-Stokes-747.200	-200.000	0.015	-0.155
-746.185	-8.730	0.090	0.062
-745.171	235.296	-0.039	0.067
-744.156	49.869	0.155	0.149
-743.142	668.454	0.118	-0.313
-742.127	-96.483	-0.125	0.034
-741.112	-152.433	-0.400	0.029
-740.098	-200.000	0.003	0.265
-739.083	128.538	0.209	-0.273
-738.069	-200.000	0.112	0.000
-737.054	-99.364	0.280	-0.072
-736.039	75.496	0.112	0.121
-735.025	303.915	-0.054	-0.102
-734.010	-47.518	-0.265	-0.132
-732.996	-43.649	0.119	-0.061
-731.981	-117.856	0.357	0.066
-730.966	-200.000	-0.078	-0.384
-729.952	-200.000	0.032	-0.289
-728.937	104.553	-0.028	-0.033
-727.923	200.495	0.107	-0.168
-726.908	309.550	-0.065	0.124
-725.894	166.252	-0.094	0.136
-724.879	676.103	-0.021	0.056
-723.864	-200.000	-0.013	0.079
-722.850	104.629	-0.141	0.170
-721.835	501.188	0.157	-0.369
-720.821	79.627	-0.172	0.188
-719.806	50.538	0.126	-0.122
-718.791	-150.479	-0.327	-0.026
-717.777	237.397	-0.134	-0.228
-716.762	-135.519	-0.193	0.023
-715.748	-40.538	-0.162	0.086
-714.733	-95.328	0.103	0.028
-713.718	36.720	-0.298	0.269
-712.704	165.037	-0.149	-0.215
-711.689	118.537	-0.104	0.132
-710.675	89.734	-0.211	-0.240
-709.660	491.089	0.120	-0.280
-708.645	-200.000	0.103	-0.474
-707.631	-200.000	-0.013	0.098
-706.616	477.120	-0.029	0.068
-705.602	-132.807	-0.325	0.042
-704.587	-200.000	-0.049	0.298
-703.572	86.068	0.158	0.177
-702.558	-186.373	-0.081	-0.001
-701.543	-29.507	0.142	-0.083
-700.529	-154.714	-0.039	0.003
-699.514	-52.677	-0.378	-0.178
-698.499	58.373	-0.223	-0.224
-697.485	-162.451	0.136	-0.007
-696.470	-200.000	-0.047	-0.218
-695.456	-115.487	-0.151	0.029
-694.441	411.545	0.045	0.098
-693.426	800.000	-0.109	0.487
-692.412	-85.585	0.140	0.044
-691.397	-56.897	-0.259	-0.117
-690.383	152.652	-0.012	-0.016
-689.368	-200.000	0.021	-0.233
-688.354	-200.000	-0.001	-0.417
-687.339	393.095	0.094	-0.199
-686.324	229.225	0.025	-0.041
-685.310	-127.968	-0.462	-0.068
-684.295	-90.681	0.087	0.026
-683.281	-143.104	-0.290	-0.029
-682.266	-63.745	0.098	-0.041
-681.251	237.433	-0.057	-0.097
-680.237	358.354	0.058	0.119
-679.222	-27.827	0.433	-0.256
-678.208	148.108	-0.058	-0.080
-677.193	-15.736	0.071	0.046
-676.178	-37.654	0.297	-0.161
-675.164	258.464	0.129	-0.226
-674.149	800.000	0.063	-0.264
-673.135	-200.000	-0.008	-0.504
-672.120	104.667	-0.046	-0.055
-671.105	-200.000	-0.027	0.135
-670.091	-200.000	-0.010	-0.208
-669.076	301.793	-0.041	0.077
-668.062	52.353	0.105	0.102
-667.047	-200.000	-0.007	0.066
-666.032	445.947	0.098	-0.221
-665.018	-94.942	0.207	-0.057
-664.003	-125.739	0.382	-0.059
-662.989	0.069	0.150	0.109
-661.974	-132.590	0.149	0.019
-660.959	8.588	0.228	-0.175
-659.945	-200.000	0.022	0.115
-658.930	277.843	-0.075	-0.136
-657.916	120.442	-0.027	-0.034
-656.901	339.445	0.021	0.042
-655.886	9.259	0.177	-0.137
-654.872	-200.000	0.002	-0.222
-653.857	-72.680	-0.030	-0.011
-652.843	-200.000	0.012	0.577
-651.828	800.000	0.051	-0.152
-650.814	-28.671	-0.226	-0.133
-649.799	-101.536	-0.518	-0.128
-648.784	-33.992	0.198	0.111
-647.770	-55.932	-0.114	0.052
-646.755	12.434	-0.237	-0.186
-645.741	-20.194	0.323	0.203
-644.726	-200.000	0.021	0.262
-643.711	-173.752	-0.240	-0.007
-642.697	-61.020	0.260	0.112
-641.682	800.000	-0.038	0.157
-640.668	44.071	0.155	0.145
-639.653	114.807	0.040	0.050
-638.638	-200.000	0.011	-0.189
-637.624	-119.460	-0.138	0.024
-636.609	318.344	0.147	0.284
-635.595	-200.000	0.050	0.230
-634.580	-69.595	0.364	-0.142
-633.565	-43.991	-0.126	0.065
-632.551	-88.808	0.088	-0.026
-631.536	197.179	0.288	0.447
-630.522	39.314	-0.190	-0.173
-629.507	284.964	0.078	-0.143
-628.492	-74.331	-0.156	-0.057
-627.478	-40.990	-0.139	0.073
-626.463	-111.720	-0.431	0.089
-625.449	-92.696	-0.292	-0.083
-624.434	800.000	0.035	-0.141
-623.419	-23.194	0.238	-0.146
-622.405	406.991	0.035	-0.076
-621.390	112.172	0.113	-0.139
-620.376	-117.285	0.190	-0.035
-619.361	22.447	0.127	0.106
-618.346	-18.458	0.300	-0.191
-617.332	159.064	-0.133	-0.188
-616.317	42.263	-0.204	0.189
-615.303	-85.373	-0.306	0.097
-614.288	-196.640	-0.277	0.002
-613.273	3.161	0.057	0.042
-612.259	-1.930	-0.379	0.272
-611.244	-132.471	-0.112	0.015
-610.230	-200.000	0.015	-0.184
-609.215	-118.620	0.201	-0.036
-608.201	32.861	-0.051	-0.045
-607.186	382.429	0.118	-0.248
-606.171	-69.506	0.236	0.092
-605.157	245.460	-0.188	-0.322
-604.142	-200.000	0.020	-0.116
-603.128	-143.117	-0.594	0.058
-602.113	-200.000	0.073	-0.335
-601.098	-63.830	0.225	-0.093
-600.084	564.803	0.058	-0.142
-599.069	800.000	-0.138	-0.393
-598.055	-79.012	0.111	-0.038
-597.040	-192.028	0.317	-0.003
-596.025	-48.689	-0.057	0.028
-595.011	-27.276	0.088	-0.052
-593.996	-12.619	-0.066	-0.044
-592.982	-54.402	0.154	0.071
-591.967	-86.819	0.235	0.073
-590.952	11.468	0.161	-0.125
-589.938	102.518	-0.208	-0.248
-588.923	-200.000	0.019	-0.087
-587.909	25.207	0.225	0.190
-586.894	-188.826	-0.324	0.004
-585.879	-0.613	-0.255	-0.184
-584.865	-75.275	0.097	0.035
-583.850	-129.926	-0.026	0.004
-582.836	222.662	0.146	-0.239
-581.821	-161.498	-0.316	-0.017
-580.806	700.349	-0.105	0.280
-579.792	-200.000	0.017	0.177
-578.777	-200.000	0.000	0.028
-577.763	-179.064	0.243	-0.006
-576.748	-200.000	0.000	0.074
-575.733	407.799	-0.199	-0.428
-574.719	-15.308	-0.169	-0.110
-573.704	22.386	0.295	-0.245
-572.690	427.949	-0.199	-0.436
-571.675	301.478	-0.039	-0.073
-570.661	557.656	0.033	0.081
-569.646	4.919	-0.073	-0.054
-568.631	-147.621	-0.175	-0.015
-567.617	7.088	0.156	-0.118
-566.602	-200.000	0.050	-0.268
-565.588	-99.366	-0.252	-0.064
-564.573	264.902	-0.141	0.249
-563.558	13.188	-0.310	-0.244
-562.544	-200.000	-0.016	-0.291
-561.529	-46.640	0.107	0.053
-560.515	149.477	-0.151	-0.208
-559.500	-140.167	0.201	-0.021
-558.485	-200.000	0.045	-0.396
-557.471	-121.306	0.117	-0.020
-556.456	38.872	0.220	-0.200
-555.442	610.780	-0.042	0.107
-554.427	-138.257	0.088	-0.010
-553.412	20.206	-0.074	-0.061
-552.398	3.235	-0.303	-0.224
-551.383	112.164	-0.160	0.197
-550.369	-43.541	0.233	-0.120
-549.354	189.080	0.148	-0.225
-548.339	-200.000	0.030	0.174
-547.325	-85.026	0.284	0.090
-546.310	-43.047	-0.224	0.115
-545.296	-143.497	-0.141	0.014
-544.281	-169.265	-0.202	-0.008
-543.266	-190.779	0.147	0.002
-542.252	78.758	-0.137	-0.149
-541.237	-200.000	0.030	-0.293
-540.223	186.678	0.024	0.037
-539.208	-38.582	-0.183	0.098
-538.193	-38.849	-0.075	-0.040
-537.179	-200.000	0.026	0.216
-536.164	-173.257	0.192	-0.006
-535.150	-140.661	0.145	0.015
-534.135	-36.536	0.325	0.177
-533.121	-3.084	-0.156	0.111
-532.106	-12.003	0.205	-0.136
-531.091	36.263	0.103	-0.092
-530.077	-84.842	-0.205	0.065
-529.062	800.000	-0.011	-0.046
-528.048	-34.856	-0.291	0.161
-527.033	-200.000	0.018	0.222
-526.018	278.609	0.098	-0.178
-525.004	-87.363	0.313	0.096
-523.989	355.605	0.096	-0.194
-522.975	279.450	0.081	0.147
-521.960	164.927	0.170	-0.243
-520.945	-200.000	0.042	0.292
-519.931	-108.116	0.312	0.069
-518.916	-66.605	0.281	0.113
-517.902	-37.787	-0.248	-0.134
-516.887	-200.000	-0.038	-0.253
-515.872	-41.168	-0.344	0.180
-514.858	53.060	0.177	-0.172
-513.843	800.000	-0.045	0.128
-512.829	-200.000	-0.000	-0.184
-511.814	-200.000	-0.009	0.118
-510.799	-200.000	-0.040	-0.329
-509.785	-200.000	-0.019	0.174
-508.770	51.649	0.151	0.146
-507.756	800.000	0.080	-0.261
-506.741	344.303	-0.021	0.042
-505.726	84.561	-0.158	0.175
-504.712	18.569	0.042	0.034
-503.697	-200.000	0.041	0.442
-502.683	-200.000	-0.007	0.248
-501.668	-139.600	-0.092	-0.010
-500.653	159.720	-0.083	-0.117
-499.639	-169.936	0.172	0.006
-498.624	-96.752	-0.333	0.089
-497.610	573.583	-0.100	-0.248
-496.595	-70.692	-0.058	-0.022
-495.581	363.289	-0.047	-0.097
-494.566	183.532	0.100	-0.150
-493.551	376.175	0.160	-0.330
-492.537	553.769	-0.080	0.194
-491.522	618.377	-0.118	0.299
-490.508	-120.420	0.272	-0.047
-489.493	-25.571	0.148	0.088
-488.478	-193.383	-0.308	-0.003
-487.464	-122.338	-0.172	-0.028
-486.449	-105.330	0.105	0.024
-485.435	-200.000	0.011	-0.058
-484.420	92.078	0.066	0.075
-483.405	-88.848	0.278	-0.084
-482.391	800.000	-0.060	-0.199
-481.376	77.036	0.071	0.076
-480.362	198.334	0.099	-0.153
-479.347	52.707	-0.317	0.307
-478.332	481.995	0.071	0.163
-477.318	-200.000	0.001	-0.306
-476.303	50.745	-0.171	-0.164
-475.289	35.273	0.121	0.108
-474.274	242.864	-0.137	0.232
-473.259	2.634	0.325	-0.238
-472.245	78.794	-0.098	0.106
-471.230	-35.905	-0.161	0.088
-470.216	456.442	-0.071	-0.158
-469.201	64.675	-0.051	-0.052
-468.186	-41.581	-0.447	0.232
-467.172	800.000	0.036	-0.155
-466.157	-71.692	-0.231	-0.087
-465.143	-113.613	0.141	-0.028
-464.128	91.552	-0.161	-0.184
-463.113	188.809	-0.092	0.139
-462.099	-58.200	0.055	0.024
-461.084	800.000	0.080	-0.241
-460.070	211.162	0.061	-0.096
-459.055	31.877	-0.201	-0.175
-458.040	-200.000	0.005	0.120
-457.026	198.890	-0.099	-0.154
-456.011	301.062	-0.036	-0.067
-454.997	-200.000	0.038	-0.207
-453.982	-139.531	0.140	-0.015
-452.968	472.603	-0.063	0.144
-451.953	800.000	-0.033	-0.130
-450.938	-200.000	0.021	-0.127
-449.924	-200.000	-0.045	0.331
-448.909	800.000	0.068	0.217
-447.895	-200.000	-0.043	-0.241
-446.880	-200.000	0.004	-0.143
-445.865	-200.000	-0.000	-0.012
-444.851	800.000	0.080	-0.267
-443.836	-125.892	0.273	-0.042
-442.822	-200.000	0.092	-0.407
-441.807	-158.161	-0.285	0.017
-440.792	-137.327	-0.384	-0.044
-439.778	757.063	-0.073	-0.200
-438.763	146.862	0.106	-0.144
-437.749	285.505	-0.035	-0.064
-436.734	800.000	-0.008	0.032
-435.719	-26.968	-0.062	-0.037
-434.705	440.067	-0.149	-0.328
-433.690	-92.943	-0.156	-0.044
-432.676	-40.342	0.187	0.098
-431.661	-82.473	0.240	0.079
-430.646	-94.953	0.136	-0.037
-429.632	121.457	0.058	0.074
-428.617	412.005	-0.054	-0.116
-427.603	-200.000	0.009	-0.249
-426.588	-107.401	-0.066	-0.015
-425.573	-67.195	0.094	-0.037
-424.559	-16.181	0.155	-0.100
-423.544	-146.314	0.653	0.058
-422.530	-130.978	-0.276	-0.037
-421.515	375.633	-0.175	0.360
-420.500	151.090	0.109	-0.150
-419.486	-200.000	-0.010	-0.109
-418.471	538.177	-0.126	-0.303
-417.457	51.062	0.257	-0.246
-416.442	125.118	-0.011	0.014
-415.428	-58.756	-0.705	0.308
-414.413	251.286	-0.064	0.110
-413.398	281.465	-0.020	-0.037
-412.384	-96.989	0.109	-0.029
-411.369	255.695	0.126	0.217
-410.355	-200.000	-0.004	0.096
-409.340	-101.629	-0.192	0.047
-408.325	-155.368	-0.236	0.015
-407.311	391.293	0.091	-0.191
-406.296	-200.000	0.009	-0.110
-405.282	44.113	0.168	-0.156
-404.267	195.316	0.117	-0.180
-403.252	-23.656	-0.212	0.128
-402.238	15.680	0.061	-0.049
-401.223	-200.000	0.123	-0.589
-400.209	151.906	0.094	-0.129
-399.194	181.288	-0.097	0.144
-398.179	395.717	-0.061	-0.128
-397.165	-121.993	0.116	0.019
-396.150	800.000	0.076	0.228
-395.136	-200.000	-0.004	0.069
-394.121	-200.000	-0.075	0.383
-393.106	-200.000	-0.000	0.045
-392.092	-37.219	0.221	-0.119
-391.077	-200.000	0.018	0.172
-390.063	-200.000	0.029	-0.162
-389.048	-200.000	-0.010	-0.137
-388.033	-146.489	0.154	-0.014
-387.019	-136.646	-0.165	-0.019
-386.004	-47.205	0.142	-0.070
-384.990	90.874	-0.041	0.047
-383.975	-200.000	-0.015	0.684
-382.960	-75.769	-0.217	0.078
-381.946	-10.610	0.167	-0.111
-380.931	704.953	0.018	-0.048
-379.917	-24.831	0.260	0.156
-378.902	332.103	0.066	0.128
-377.888	-135.168	0.383	-0.046
-376.873	-200.000	-0.064	-0.349
-375.858	111.659	-0.165	0.200
-374.844	-23.445	-0.269	0.163
-373.829	23.540	-0.066	-0.055
-372.815	-119.832	-0.210	-0.036
-371.800	-200.000	0.035	0.167
-370.785	610.454	0.097	0.244
-369.771	-200.000	0.012	0.446
-368.756	-26.842	0.116	0.068
-367.742	-2.237	-0.151	-0.107
-366.727	-145.882	0.321	0.029
-365.712	800.000	0.115	0.334
-364.698	-200.000	0.016	-0.099
-363.683	219.276	0.055	-0.088
-362.669	792.096	0.089	0.245
-361.654	41.384	0.154	0.141
-360.639	157.633	0.125	0.174
-359.625	126.583	0.129	-0.164
-358.610	-200.000	-0.016	0.161
-357.596	-200.000	0.006	0.117
-356.581	-48.562	0.192	-0.093
-355.566	221.947	0.113	-0.184
-354.552	-167.627	-0.273	0.011
-353.537	-80.549	0.125	-0.042
-352.523	-200.000	0.020	0.087
-351.508	-200.000	0.039	-0.177
-350.493	-179.357	0.071	0.002
-349.479	-31.013	0.253	0.144
-348.464	377.737	-0.080	-0.166
-347.450	100.892	-0.388	0.455
-346.435	-116.965	0.288	0.053
-345.420	163.918	0.079	-0.112
-344.406	-81.758	-0.142	-0.047
-343.391	-66.625	0.180	0.072
-342.377	18.533	0.134	0.108
-341.362	-200.000	0.051	0.244
-340.348	-147.821	0.150	-0.013
-339.333	65.561	0.337	-0.344
-338.318	-25.581	0.046	-0.027
-337.304	-160.575	0.110	-0.006
-336.289	-164.715	-0.264	0.012
-335.275	-186.131	0.211	-0.003
-334.260	-70.045	-0.256	-0.098
-333.245	187.493	-0.056	-0.084
-332.231	-200.000	-0.046	-0.210
-331.216	98.305	-0.143	0.166
-330.202	16.776	0.311	0.248
-329.187	26.968	0.104	0.088
-328.172	83.860	-0.292	0.321
-327.158	-153.136	0.011	0.001
-326.143	-145.789	0.126	-0.011
-325.129	68.090	-0.175	0.180
-324.114	-122.931	0.165	0.027
-323.099	-19.830	0.224	0.139
-322.085	-90.754	-0.215	-0.062
-321.070	-57.212	-0.239	0.106
-320.056	698.717	-0.106	0.280
-319.041	-91.247	-0.128	-0.037
-318.026	-94.941	-0.085	-0.023
-317.012	800.000	-0.056	0.181
-315.997	800.000	-0.020	-0.085
-314.983	47.185	-0.084	-0.078
-313.968	-200.000	-0.012	0.106
-312.953	237.984	0.090	0.151
-311.939	800.000	0.062	0.252
-310.924	-29.017	0.456	-0.263
-309.910	800.000	0.014	-0.061
-308.895	212.315	0.117	0.186
-307.880	155.202	0.163	-0.226
-306.866	30.141	-0.128	-0.110
-305.851	-75.737	-0.137	0.049
-304.837	776.044	-0.156	0.428
-303.822	800.000	-0.028	0.108
-302.807	-15.934	0.159	0.102
-301.793	210.553	-0.111	0.175
-300.778	-60.899	-0.134	0.057
-299.764	44.450	0.208	-0.192
-298.749	-200.000	0.041	0.321
-297.735	194.719	-0.211	0.322
-296.720	3.349	0.187	0.137
-295.705	63.977	0.209	0.212
-294.691	-140.015	-0.329	-0.035
-293.676	-61.215	0.189	0.080
-292.662	-8.893	-0.068	-0.046
-291.647	-73.845	0.148	0.054
-290.632	245.486	-0.145	0.244
-289.618	-22.090	-0.175	-0.107
-288.603	-53.220	-0.240	0.111
-287.589	-80.488	0.091	-0.030
-286.574	58.144	-0.131	0.129
-285.559	-171.838	0.259	-0.009
-284.545	-200.000	0.066	-0.319
-283.530	-200.000	-0.053	-0.347
-282.516	-200.000	-0.016	-0.211
-281.501	36.964	0.237	0.211
-280.486	-179.575	-0.454	-0.010
-279.472	8.677	0.126	0.096
-278.457	213.614	-0.233	-0.370
-277.443	24.249	-0.206	-0.171
-276.428	-17.228	-0.166	-0.105
-275.413	-44.425	-0.145	0.073
-274.399	800.000	0.038	0.153
-273.384	82.791	-0.137	-0.149
-272.370	26.554	0.161	-0.135
-271.355	790.127	-0.018	0.051
-270.340	-200.000	0.004	0.384
-269.326	-43.948	-0.157	0.079
-268.311	-200.000	-0.001	0.073
-267.297	416.722	0.124	-0.265
-266.282	363.833	-0.124	-0.249
-265.267	86.197	0.242	0.267
-264.253	-200.000	-0.052	0.338
-263.238	-38.775	-0.309	0.163
-262.224	-200.000	-0.012	-0.328
-261.209	-88.180	0.268	-0.081
-260.195	800.000	0.028	0.084
-259.180	-138.206	-0.381	-0.042
-258.165	367.187	-0.036	-0.072
-257.151	185.319	-0.087	-0.129
-256.136	800.000	0.105	0.390
-255.122	800.000	0.030	-0.129
-254.107	-46.409	-0.070	0.035
-253.092	236.219	0.154	-0.255
-252.078	4.838	0.286	0.211
-251.063	234.695	0.040	0.067
-250.049	103.197	-0.198	-0.233
-249.034	-32.591	-0.109	-0.061
-248.019	418.561	-0.027	-0.058
-247.005	721.582	0.063	0.167
-245.990	217.302	-0.099	0.158
-244.976	-48.247	-0.215	0.104
-243.961	180.656	0.136	0.200
-242.946	-79.553	0.133	0.045
-241.932	-175.550	0.224	0.006
-240.917	21.068	-0.128	-0.104
-239.903	332.427	-0.072	0.139
-238.888	26.000	0.081	0.068
-237.873	-58.356	-0.238	0.104
-236.859	-20.028	0.140	0.087
-235.844	-200.000	0.010	0.402
-234.830	-59.644	0.333	0.143
-233.815	-0.634	0.417	-0.296
-232.800	-52.675	-0.318	0.147
-231.786	-137.269	-0.292	0.033
-230.771	-59.974	0.218	0.093
-229.757	-31.653	-0.107	-0.060
-228.742	71.542	-0.029	-0.030
-227.727	-132.774	0.041	-0.005
-226.713	-200.000	0.014	-0.104
-225.698	-200.000	0.028	-0.262
-224.684	-77.623	0.167	0.058
-223.669	40.173	0.215	0.194
-222.655	404.633	-0.071	0.150
-221.640	-200.000	0.067	0.400
-220.625	147.760	-0.167	0.225
-219.611	89.385	-0.086	-0.096
-218.596	19.314	0.236	0.190
-217.582	-24.602	0.328	-0.195
-216.567	60.766	0.112	0.112
-215.552	73.819	-0.154	-0.161
-214.538	800.000	-0.006	-0.017
-213.523	417.871	-0.124	0.265
-212.509	800.000	-0.127	-0.504
-211.494	-152.023	-0.122	-0.009
-210.479	-18.567	0.194	0.121
-209.465	-144.375	0.166	-0.015
-208.450	-66.450	-0.151	-0.060
-207.436	184.984	-0.116	0.173
-206.421	-88.353	-0.359	0.108
-205.406	417.072	0.146	-0.312
-204.392	51.893	-0.111	-0.106
-203.377	800.000	0.041	-0.122
-202.363	45.575	-0.260	0.240
-201.348	-113.226	0.155	-0.031
-200.333	800.000	0.025	0.097
-199.319	-200.000	0.038	0.274
-198.304	-160.166	0.283	0.015
-197.290	-200.000	-0.021	-0.159
-196.275	-47.959	0.095	-0.046
-195.260	-53.847	0.176	-0.080
-194.246	-80.261	0.137	-0.046
-193.231	-155.385	0.252	-0.016
-192.217	244.405	0.044	-0.074
-191.202	-82.554	0.160	-0.052
-190.187	-200.000	-0.018	-0.115
-189.173	800.000	-0.086	0.291
-188.158	771.109	0.156	0.426
-187.144	-65.785	0.191	0.077
-186.129	-200.000	-0.014	-0.358
-185.114	-200.000	-0.017	-0.086
-184.100	-200.000	0.025	0.271
-183.085	411.212	-0.089	0.190
-182.071	610.081	-0.101	-0.252
-181.056	800.000	0.056	0.228
-180.042	-98.174	-0.155	-0.040
-179.027	-200.000	-0.032	0.154
-178.012	-56.039	-0.050	0.023
-176.998	-200.000	0.015	-0.086
-175.983	-85.170	-0.182	0.057
-174.969	62.325	0.117	-0.117
-173.954	-123.837	0.192	-0.030
-172.939	-38.051	0.057	0.030
-171.925	-102.098	-0.142	-0.034
-170.910	485.518	-0.067	-0.152
-169.896	-21.759	0.052	-0.032
-168.881	97.935	0.209	-0.240
-167.866	-68.134	-0.172	-0.067
-166.852	14.591	-0.082	0.064
-165.837	152.723	-0.045	-0.061
-164.823	59.235	-0.296	-0.291
-163.808	-167.301	-0.201	0.008
-162.793	494.169	-0.138	0.316
-161.779	80.735	0.307	0.331
-160.764	418.385	-0.131	0.280
-159.750	-50.943	0.135	0.063
-158.735	169.592	0.080	0.114
-157.720	58.513	0.074	-0.073
-156.706	248.585	0.052	0.087
-155.691	34.343	-0.097	-0.085
-154.677	-192.483	-0.175	-0.002
-153.662	-200.000	-0.046	-0.223
-152.647	-110.302	-0.332	0.069
-151.633	-200.000	0.004	-0.212
-150.618	670.645	0.047	-0.123
-149.604	800.000	0.069	0.210
-148.589	800.000	-0.093	0.272
-147.574	18.436	0.157	-0.125
-146.560	5.184	-0.209	0.154
-145.545	179.623	0.086	0.127
-144.531	182.996	-0.174	0.256
-143.516	153.724	0.217	-0.297
-142.502	-200.000	-0.027	-0.137
-141.487	-113.383	0.249	0.049
-140.472	800.000	0.077	0.310
-139.458	800.000	-0.042	-0.132
-138.443	-194.076	0.343	0.003
-137.429	-200.000	-0.004	0.059
-136.414	745.946	-0.042	0.112
-135.399	421.865	-0.149	0.319
-134.385	-200.000	0.059	0.371
-133.370	-92.567	-0.206	-0.058
-132.356	6.448	0.070	-0.052
-131.341	800.000	-0.097	0.383
-130.326	-200.000	0.007	-0.099
-129.312	-161.996	0.600	0.030
-128.297	48.679	0.133	0.124
-127.283	-22.253	-0.193	0.117
-126.268	-79.456	-0.155	0.052
-125.253	-127.570	-0.112	-0.016
-124.239	-30.366	-0.058	0.033
-123.224	-155.594	0.147	0.009
-122.210	-13.196	-0.116	0.075
