DTS Sentinel unit serial number:	SN413079Multiplexer serial number:	ORYXHardware model number:	OX4-SRSoftware version number:	ORYX F/W v4.00 Oryx Data Collector v3.7.2.0data status	okinstallation	princeton_trtdifferential loss correction	single-endedforward channel	channel 3reverse channel	N/Adate	2019/09/13time	18:56:34forward acquisition time	60.00reverse acquisition time	0.00gamma	496.2192k internal	0.2321k external	0.2321temperature offset calibration	1.0101default loss term (dB/km)	0.3790temperature slope calibration	1.0000multiplexer offset coefficient	1.0000multiplexer slope coefficient	1.0000fibre end	0.00T internal ref (°C)	32.12T ext. ref 1 (°C)	3.98T ext. ref 2 (°C)	25.36length (m)	temperature (°C)	Stokes	anti-Stokes-747.200	-200.000	0.016	0.167
-746.185	-26.790	-0.256	-0.151
-745.171	-24.388	-0.214	-0.129
-744.156	-114.509	0.221	-0.043
-743.142	-45.682	0.209	0.105
-742.127	-141.176	-0.163	-0.017
-741.112	-75.144	-0.049	-0.018
-740.098	-52.136	-0.262	-0.123
-739.083	113.011	-0.171	0.209
-738.069	-108.197	-0.127	0.028
-737.054	-200.000	-0.035	-0.265
-736.039	31.233	-0.276	-0.239
-735.025	-62.559	0.247	0.104
-734.010	-27.725	-0.066	0.038
-732.996	693.205	-0.093	-0.247
-731.981	297.444	-0.130	0.241
-730.966	-72.955	-0.212	0.079
-729.952	-34.426	0.203	-0.112
-728.937	325.985	-0.110	-0.212
-727.923	-128.773	0.303	0.043
-726.908	116.001	0.305	0.378
-725.894	800.000	0.086	-0.269
-724.879	-200.000	0.002	0.119
-723.864	-48.687	0.219	-0.106
-722.850	176.258	-0.078	-0.114
-721.835	-200.000	-0.018	0.216
-720.821	-102.277	0.226	0.055
-719.806	800.000	-0.071	-0.239
-718.791	359.687	-0.110	-0.223
-717.777	-8.592	-0.158	-0.107
-716.762	-125.315	0.304	0.047
-715.748	139.145	-0.066	-0.087
-714.733	800.000	-0.034	-0.105
-713.718	742.701	0.041	-0.111
-712.704	562.979	0.009	-0.023
-711.689	-200.000	0.018	-0.185
-710.675	-2.339	0.092	0.065
-709.660	-200.000	0.014	-0.298
-708.645	-125.902	0.284	-0.043
-707.631	-200.000	-0.011	-0.176
-706.616	-80.720	-0.158	-0.053
-705.602	180.239	0.061	-0.091
-704.587	275.054	0.164	-0.293
-703.572	-18.608	0.077	-0.048
-702.558	39.249	-0.080	0.072
-701.543	144.236	-0.058	0.078
-700.529	-99.193	0.263	-0.067
-699.514	-178.946	-0.185	-0.004
-698.499	-163.794	0.046	0.002
-697.485	800.000	-0.009	0.030
-696.470	73.489	-0.066	0.070
-695.456	124.056	0.143	0.181
-694.441	-200.000	-0.014	-0.217
-693.426	-150.396	-0.188	0.015
-692.412	194.261	0.052	-0.080
-691.397	0.364	0.235	0.169
-690.383	-184.341	0.356	0.006
-689.368	-69.354	-0.416	0.161
-688.354	-102.274	-0.226	0.055
-687.339	-113.242	-0.191	0.038
-686.324	-184.039	-0.160	-0.003
-685.310	-200.000	0.003	-0.241
-684.295	85.953	-0.230	-0.255
-683.281	118.935	-0.273	-0.340
-682.266	611.846	-0.118	-0.298
-681.251	427.942	0.104	-0.227
-680.237	20.245	-0.144	-0.117
-679.222	800.000	-0.092	0.310
-678.208	639.872	-0.176	0.453
-677.193	-29.912	0.029	0.017
-676.178	-74.074	-0.209	-0.076
-675.164	102.193	-0.103	0.122
-674.149	187.719	-0.177	0.267
-673.135	-28.556	-0.138	-0.080
-672.120	-93.572	-0.116	-0.032
-671.105	238.196	-0.065	-0.109
-670.091	46.061	-0.079	-0.073
-669.076	-162.010	-0.092	-0.005
-668.062	104.231	-0.103	-0.123
-667.047	-54.109	0.284	0.130
-666.032	-31.642	0.250	0.141
-665.018	800.000	-0.094	-0.310
-664.003	-200.000	0.032	-0.215
-662.989	527.793	0.074	-0.176
-661.974	96.137	-0.113	-0.130
-660.959	-51.605	-0.402	-0.189
-659.945	-94.517	-0.114	-0.031
-658.930	800.000	-0.020	-0.075
-657.916	800.000	0.022	0.092
-656.901	-200.000	0.030	-0.228
-655.886	132.691	0.048	-0.062
-654.872	499.067	0.050	-0.117
-653.857	207.647	-0.182	0.286
-652.843	-125.649	0.252	-0.038
-651.828	22.420	0.169	-0.139
-650.814	-25.775	-0.289	0.171
-649.799	-200.000	-0.004	-0.421
-648.784	-31.916	-0.197	0.111
-647.770	-200.000	0.037	-0.226
-646.755	-55.590	0.059	0.027
-645.741	-28.098	0.066	0.039
-644.726	19.476	0.186	-0.150
-643.711	458.253	0.078	0.174
-642.697	464.244	-0.118	0.267
-641.682	-44.267	0.250	0.126
-640.668	-111.129	0.307	0.063
-639.653	-49.073	-0.296	0.142
-638.638	-200.000	0.045	0.205
-637.624	-137.848	0.389	0.044
-636.609	-111.310	0.121	0.025
-635.595	-174.232	0.146	0.004
-634.580	-200.000	-0.085	-0.403
-633.565	-84.080	0.052	-0.016
-632.551	-81.108	0.229	0.076
-631.536	-14.540	-0.114	-0.074
-630.522	-112.964	-0.134	-0.027
-629.507	800.000	-0.056	-0.241
-628.492	340.110	0.023	0.046
-627.478	530.641	0.101	-0.239
-626.463	409.732	0.055	-0.118
-625.449	242.846	-0.179	-0.301
-624.434	18.668	0.259	0.208
-623.419	344.733	-0.017	0.034
-622.405	-106.366	0.356	0.080
-621.390	-130.196	-0.192	0.026
-620.376	697.350	-0.111	0.294
-619.361	268.476	-0.159	-0.280
-618.346	-200.000	-0.019	-0.297
-617.332	92.722	-0.274	-0.311
-616.317	-36.275	0.170	0.092
-615.303	-111.550	0.034	-0.007
-614.288	283.676	0.184	0.332
-613.273	193.128	0.247	-0.375
-612.259	-200.000	0.044	-0.352
-611.244	-131.314	0.225	-0.030
-610.230	227.405	-0.276	-0.452
-609.215	-200.000	0.007	-0.148
-608.201	219.552	-0.182	0.293
-607.186	-1.089	-0.249	-0.177
-606.171	-200.000	0.006	-0.155
-605.157	106.297	-0.378	-0.450
-604.142	-184.822	0.357	-0.006
-603.128	326.975	-0.026	0.050
-602.113	-6.748	-0.075	-0.051
-601.098	-8.510	-0.310	0.209
-600.084	273.638	-0.053	0.095
-599.069	19.703	0.055	0.044
-598.055	479.794	-0.100	-0.227
-597.040	-200.000	0.004	-0.059
-596.025	-75.389	-0.357	0.128
-595.011	682.681	-0.077	0.202
-593.996	-200.000	-0.007	0.095
-592.982	93.968	-0.148	-0.169
-591.967	-112.218	0.152	-0.031
-590.952	800.000	0.032	0.134
-589.938	-31.329	-0.262	0.148
-588.923	80.249	-0.131	-0.142
-587.909	-10.065	-0.254	0.170
-586.894	-113.412	0.318	0.063
-585.879	-200.000	-0.086	-0.467
-584.865	800.000	-0.044	0.159
-583.850	-200.000	0.009	0.200
-582.836	-48.505	0.166	0.080
-581.821	23.095	-0.123	0.102
-580.806	-30.477	0.176	0.100
-579.792	-182.772	-0.274	-0.005
-578.777	-76.590	0.323	-0.114
-577.763	800.000	-0.047	-0.168
-576.748	158.807	-0.106	0.148
-575.733	152.808	0.120	-0.165
-574.719	-200.000	0.010	-0.282
-573.704	-80.790	0.157	-0.052
-572.690	781.866	-0.011	-0.030
-571.675	28.104	0.333	0.282
-570.661	203.331	0.081	0.126
-569.646	-200.000	-0.056	0.297
-568.631	346.211	-0.090	0.178
-567.617	-26.060	0.201	-0.119
-566.602	27.665	-0.039	-0.033
-565.588	800.000	0.088	-0.257
-564.573	147.451	0.113	-0.152
-563.558	2.702	0.160	0.116
-562.544	29.095	-0.124	0.105
-561.529	-29.958	0.318	0.181
-560.515	800.000	0.068	0.201
-559.500	800.000	0.102	-0.291
-558.485	162.404	-0.061	-0.085
-557.471	-83.231	0.215	-0.069
-556.456	-105.478	0.336	0.076
-555.442	-122.129	-0.275	0.045
-554.427	800.000	0.097	-0.285
-553.412	-200.000	-0.049	-0.383
-552.398	-200.000	0.009	0.124
-551.383	154.650	0.200	0.275
-550.369	-20.285	-0.090	0.056
-549.354	26.982	-0.089	0.075
-548.339	800.000	0.080	0.235
-547.325	518.415	0.028	-0.066
-546.310	-171.567	0.057	0.002
-545.296	-115.489	0.205	-0.039
-544.281	-28.914	-0.190	-0.109
-543.266	800.000	0.031	0.129
-542.252	9.950	-0.189	-0.144
-541.237	-109.107	-0.202	0.043
-540.223	177.520	-0.189	-0.276
-539.208	230.447	-0.117	-0.192
-538.193	39.068	-0.264	-0.237
-537.179	-154.313	0.054	0.004
-536.164	-105.324	0.302	-0.069
-535.150	-200.000	0.016	-0.135
-534.135	800.000	0.089	0.273
-533.121	-193.962	0.418	0.003
-532.106	-54.664	0.139	0.063
-531.091	-96.621	-0.182	-0.048
-530.077	104.760	-0.139	-0.164
-529.062	37.812	-0.192	0.171
-528.048	800.000	-0.057	0.241
-527.033	800.000	0.068	-0.253
-526.018	117.811	-0.227	-0.280
-525.004	540.887	0.124	0.296
-523.989	170.714	-0.134	0.193
-522.975	83.947	0.171	0.187
-521.960	-58.385	-0.171	0.074
-520.945	-199.931	-0.341	-0.002
-519.931	387.366	-0.086	0.178
-518.916	-5.614	0.132	-0.091
-517.902	429.295	0.073	-0.159
-516.887	267.099	-0.100	0.175
-515.872	800.000	-0.044	-0.142
-514.858	-40.476	-0.244	-0.127
-513.843	800.000	-0.083	0.287
-512.829	800.000	0.092	0.267
-511.814	-95.205	0.098	-0.027
-510.799	26.056	0.209	-0.175
-509.785	-47.916	0.066	0.032
-508.770	227.463	0.042	-0.068
-507.756	-162.444	-0.164	0.008
-506.741	526.116	0.054	-0.128
-505.726	-137.393	0.311	0.035
-504.712	375.473	-0.097	0.198
-503.697	586.255	0.113	0.278
-502.683	-161.031	0.355	-0.019
-501.668	158.034	-0.176	0.245
-500.653	800.000	-0.066	-0.263
-499.639	112.504	0.158	0.191
-498.624	-167.831	-0.235	-0.009
-497.610	-103.570	-0.255	0.060
-496.595	-41.879	-0.030	0.015
-495.581	-136.195	-0.250	-0.029
-494.566	800.000	0.068	-0.211
-493.551	133.957	0.133	-0.173
-492.537	126.237	0.205	-0.259
-491.522	304.792	0.025	-0.047
-490.508	-133.808	0.205	0.026
-489.493	-172.171	-0.160	0.005
-488.478	-56.572	-0.302	-0.134
-487.464	-183.939	0.108	-0.002
-486.449	248.497	0.197	-0.333
-485.435	800.000	0.094	0.323
-484.420	-21.345	-0.197	0.120
-483.405	-28.810	-0.317	0.183
-482.391	-7.106	-0.081	0.055
-481.376	-105.604	-0.118	0.027
-480.362	328.922	-0.046	-0.088
-479.347	-64.228	-0.173	0.070
-478.332	800.000	0.039	-0.133
-477.318	-200.000	-0.116	-0.000
-476.303	46.920	-0.081	0.075
-475.289	765.537	-0.053	0.144
-474.274	19.805	-0.217	-0.174
-473.259	-166.795	0.281	-0.012
-472.245	65.763	0.115	-0.117
-471.230	-94.579	-0.173	-0.047
-470.216	-87.448	-0.063	0.019
-469.201	189.835	-0.063	0.094
-468.186	-66.745	-0.350	0.138
-467.172	590.515	0.046	0.113
-466.157	228.784	-0.115	0.187
-465.143	-200.000	-0.028	0.295
-464.128	9.387	-0.280	0.212
-463.113	35.124	-0.053	0.046
-462.099	-94.842	0.397	0.108
-461.084	-118.152	0.071	0.013
-460.070	-20.202	-0.226	0.139
-459.055	247.543	-0.089	0.149
-458.040	-100.950	-0.111	-0.027
-457.026	28.501	0.264	-0.223
-456.011	800.000	-0.053	-0.211
-454.997	-200.000	0.037	0.302
-453.982	290.397	-0.066	-0.119
-452.968	145.630	-0.120	0.161
-451.953	613.009	0.006	0.014
-450.938	-48.924	-0.169	-0.081
-449.924	-4.778	-0.343	0.237
-448.909	414.522	0.092	0.195
-447.895	-200.000	-0.066	0.311
-446.880	575.436	-0.081	0.198
-445.865	67.935	-0.121	0.124
-444.851	573.258	0.118	0.287
-443.836	-72.970	-0.253	-0.093
-442.822	0.148	0.052	0.037
-441.807	29.369	0.361	-0.306
-440.792	-82.282	-0.237	0.077
-439.778	-200.000	0.009	0.164
-438.763	-119.105	-0.161	-0.028
-437.749	-72.097	0.226	0.084
-436.734	-102.028	-0.349	-0.084
-435.719	-37.857	0.059	-0.032
-434.705	462.401	-0.064	0.143
-433.690	-69.036	0.048	-0.019
-432.676	249.268	-0.150	0.254
-431.661	800.000	-0.068	0.205
-430.646	-28.297	0.432	0.249
-429.632	-200.000	0.011	0.167
-428.617	196.739	-0.055	-0.084
-427.603	34.289	-0.114	0.099
-426.588	800.000	-0.086	0.257
-425.573	6.670	-0.285	-0.212
-424.559	800.000	-0.035	0.128
-423.544	104.389	0.167	0.197
-422.530	-200.000	-0.076	0.360
-421.515	308.408	-0.091	0.169
-420.500	-26.534	0.205	-0.120
-419.486	8.482	0.220	-0.165
-418.471	233.380	0.069	0.114
-417.457	523.080	-0.072	-0.169
-416.442	-200.000	0.061	-0.290
-415.428	99.918	-0.087	0.101
-414.413	154.492	0.145	0.198
-413.398	173.924	-0.103	0.148
-412.384	-84.772	0.316	-0.099
-411.369	-200.000	0.009	-0.062
-410.355	-200.000	0.014	0.163
-409.340	-85.221	0.130	0.040
-408.325	156.078	-0.124	0.171
-407.311	110.639	0.036	-0.043
-406.296	-82.993	-0.364	-0.117
-405.282	21.498	0.171	-0.139
-404.267	586.033	-0.070	-0.172
-403.252	800.000	0.014	0.043
-402.238	203.437	-0.108	-0.167
-401.223	473.590	-0.059	-0.133
-400.209	280.117	0.120	-0.214
-399.194	126.901	-0.257	0.325
-398.179	-200.000	0.027	-0.217
-397.165	-200.000	0.022	0.288
-396.150	-200.000	-0.016	-0.117
-395.136	-200.000	-0.016	0.202
-394.121	35.408	0.312	-0.273
-393.106	-200.000	-0.024	0.225
-392.092	-5.286	0.372	0.255
-391.077	800.000	-0.061	0.169
-390.063	219.729	-0.184	-0.294
-389.048	605.421	-0.114	-0.284
-388.033	-85.166	0.198	-0.062
-387.019	44.492	-0.044	-0.041
-386.004	23.385	0.210	-0.172
-384.990	-7.217	-0.290	-0.196
-383.975	-200.000	-0.005	0.229
-382.960	-54.030	-0.170	0.077
-381.946	42.847	0.237	0.216
-380.931	800.000	0.054	0.164
-379.917	-144.576	0.124	0.011
-378.902	559.479	-0.082	-0.198
-377.888	-81.645	-0.123	0.040
-376.873	-13.501	-0.228	-0.147
-375.858	-200.000	-0.014	0.073
-374.844	465.249	0.164	0.366
-373.829	115.811	0.047	-0.057
-372.815	148.512	0.049	0.065
-371.800	-36.508	-0.028	-0.015
-370.785	800.000	-0.051	-0.147
-369.771	76.806	-0.117	0.124
-368.756	56.128	0.280	-0.271
-367.742	-200.000	-0.176	0.000
-366.727	-134.951	0.132	-0.016
-365.712	269.623	0.089	-0.156
-364.698	689.913	0.034	0.089
-363.683	-200.000	0.022	0.257
-362.669	-103.865	0.285	-0.066
-361.654	-117.798	0.207	-0.037
-360.639	800.000	-0.055	-0.186
-359.625	-57.393	-0.015	-0.006
-358.610	-99.547	0.160	0.040
-357.596	-46.128	-0.449	0.220
-356.581	-200.000	0.051	-0.281
-355.566	-106.952	-0.181	-0.040
-354.552	-181.287	0.155	0.003
-353.537	-108.326	-0.213	-0.046
-352.523	9.236	0.281	0.212
-351.508	69.647	-0.166	-0.170
-350.493	-200.000	0.036	0.187
-349.479	-18.395	-0.208	0.129
-348.464	-7.343	-0.166	0.112
-347.450	-147.262	0.158	-0.013
-346.435	-200.000	-0.018	0.155
-345.420	-52.125	-0.204	0.094
-344.406	13.513	0.213	-0.164
-343.391	128.659	-0.216	-0.273
-342.377	541.409	-0.073	-0.174
-341.362	800.000	0.076	-0.227
-340.348	56.834	-0.168	0.163
-339.333	-79.560	-0.107	0.036
-338.318	149.743	-0.129	0.173
-337.304	-42.334	-0.227	0.115
-336.289	-82.873	-0.232	0.075
-335.275	33.809	0.392	-0.339
-334.260	800.000	-0.111	-0.337
-333.245	-97.714	-0.208	0.053
-332.231	-200.000	0.034	-0.223
-331.216	181.612	0.169	-0.247
-330.202	28.046	0.207	-0.173
-329.187	240.842	0.088	0.145
-328.172	645.133	-0.037	-0.094
-327.158	-200.000	0.013	0.335
-326.143	-27.258	0.158	-0.092
-325.129	316.433	0.190	-0.357
-324.114	-136.952	0.210	0.024
-323.099	287.594	-0.119	0.214
-322.085	-97.093	-0.190	-0.049
-321.070	140.412	-0.127	-0.166
-320.056	-200.000	0.005	0.099
-319.041	4.260	0.250	-0.182
-318.026	-200.000	0.004	-0.116
-317.012	41.219	-0.178	0.160
-315.997	748.558	0.094	-0.253
-314.983	-0.702	-0.226	-0.159
-313.968	72.703	-0.267	-0.277
-312.953	-93.797	0.298	0.082
-311.939	610.709	-0.054	-0.133
-310.924	219.284	0.131	0.209
-309.910	-200.000	-0.030	-0.194
-308.895	-200.000	0.022	0.262
-307.880	800.000	0.081	0.303
-306.866	-41.203	0.127	0.065
-305.851	-47.096	0.131	-0.064
-304.837	277.603	0.091	-0.162
-303.822	529.410	0.157	-0.369
-302.807	258.015	0.058	-0.100
-301.793	-4.759	0.314	-0.215
-300.778	169.996	0.030	-0.042
-299.764	119.280	0.145	0.179
-298.749	-200.000	0.006	0.133
-297.735	12.310	-0.102	-0.078
-296.720	559.513	-0.040	-0.097
-295.705	-200.000	-0.011	-0.281
-294.691	524.918	0.072	0.167
-293.676	-115.286	-0.225	-0.042
-292.662	421.455	-0.034	-0.072
-291.647	94.220	-0.121	-0.137
-290.632	290.934	0.034	0.061
-289.618	21.437	-0.064	0.052
-288.603	-100.507	-0.033	-0.008
-287.589	-134.224	0.150	-0.018
-286.574	-200.000	-0.010	0.071
-285.559	800.000	-0.022	-0.091
-284.545	33.911	0.274	-0.237
-283.530	-40.136	0.217	-0.112
-282.516	800.000	0.090	-0.328
-281.501	-51.239	0.173	0.080
-280.486	673.286	0.055	0.141
-279.472	190.077	0.083	0.123
-278.457	209.084	0.124	0.193
-277.443	-7.072	0.210	-0.142
-276.428	-200.000	0.051	0.291
-275.413	29.722	-0.082	-0.070
-274.399	59.086	0.024	-0.024
-273.384	92.861	-0.211	-0.237
-272.370	33.387	-0.211	-0.182
-271.355	22.935	0.171	-0.139
-270.340	26.385	0.177	-0.147
-269.326	341.437	0.125	-0.243
-268.311	-200.000	0.009	-0.177
-267.297	800.000	0.107	0.342
-266.282	-200.000	-0.019	-0.282
-265.267	-61.266	0.089	0.037
-264.253	800.000	0.019	-0.073
-263.238	-200.000	0.048	-0.373
-262.224	-178.095	0.210	-0.005
-261.209	800.000	0.019	0.070
-260.195	-0.948	-0.269	-0.189
-259.180	-200.000	-0.023	0.192
-258.165	-135.233	0.280	-0.033
-257.151	800.000	-0.044	-0.124
-256.136	-179.257	0.352	-0.008
-255.122	455.489	0.112	0.247
-254.107	-200.000	-0.026	0.223
-253.092	-95.742	0.114	0.030
-252.078	800.000	-0.068	0.274
-251.063	304.003	-0.108	-0.199
-250.049	206.466	0.195	-0.301
-249.034	-96.921	-0.205	-0.053
-248.019	184.652	0.194	-0.285
-247.005	45.234	0.044	0.040
-245.990	-14.366	0.373	-0.238
-244.976	-173.293	0.214	0.006
-243.961	800.000	0.009	0.032
-242.946	31.563	-0.089	-0.075
-241.932	102.591	-0.060	0.070
-240.917	69.324	0.154	0.157
-239.903	204.550	-0.034	-0.053
-238.888	-54.806	-0.346	0.155
-237.873	-85.731	-0.112	0.034
-236.859	-30.510	0.056	0.032
-235.844	-200.000	0.013	0.094
-234.830	-180.942	0.160	0.003
-233.815	-200.000	0.014	0.063
-232.800	-168.109	-0.217	-0.008
-231.786	-147.990	0.138	0.011
-230.771	-18.383	0.283	0.175
-229.757	-200.000	0.010	-0.077
-228.742	196.688	0.076	0.114
-227.727	-65.871	0.146	0.058
-226.713	351.591	-0.050	-0.098
-225.698	110.039	-0.144	-0.171
-224.684	-64.375	-0.333	0.134
-223.669	54.157	-0.315	-0.300
-222.655	140.861	-0.283	0.371
-221.640	-55.428	0.088	0.039
-220.625	-34.961	-0.318	0.172
-219.611	9.995	0.011	-0.008
-218.596	91.235	0.180	0.200
-217.582	-200.000	0.044	0.403
-216.567	800.000	-0.066	0.200
-215.552	246.989	-0.201	-0.335
-214.538	749.490	-0.048	-0.129
-213.523	181.926	-0.114	0.166
-212.509	115.307	-0.199	0.240
-211.494	23.965	0.048	0.039
-210.479	6.372	-0.133	-0.098
-209.465	523.671	-0.055	0.127
-208.450	-81.227	-0.145	-0.048
-207.436	-137.812	-0.172	-0.019
-206.421	94.079	-0.156	0.175
-205.406	-200.000	0.018	0.154
-204.392	246.699	0.093	0.155
-203.377	51.171	0.022	-0.020
-202.363	800.000	0.087	0.293
-201.348	24.815	0.026	0.021
-200.333	-95.916	0.266	0.070
-199.319	652.302	-0.229	-0.582
-198.304	-88.344	0.139	0.041
-197.290	800.000	0.091	0.309
-196.275	571.134	-0.112	0.270
-195.260	112.815	0.229	0.274
-194.246	-65.730	0.146	0.058
-193.231	-99.934	0.224	0.055
-192.217	419.906	-0.058	0.122
-191.202	-112.647	-0.241	-0.047
-190.187	-200.000	-0.007	0.055
-189.173	142.911	-0.186	0.244
-188.158	-200.000	0.015	0.214
-187.144	-82.994	0.179	0.057
-186.129	-33.156	0.109	0.060
-185.114	-115.620	0.381	0.071
-184.100	84.321	-0.369	-0.399
-183.085	-126.960	-0.342	-0.050
-182.071	211.829	-0.230	0.358
-181.056	21.723	0.135	-0.108
-180.042	310.105	-0.066	0.123
-179.027	-200.000	-0.046	-0.226
-178.012	-200.000	0.010	0.075
-176.998	59.145	0.122	0.119
-175.983	355.693	-0.141	-0.277
-174.969	-37.050	0.243	-0.129
-173.954	134.467	-0.302	-0.387
-172.939	66.112	0.132	0.132
-171.925	-87.909	0.208	-0.062
-170.910	-33.294	-0.194	0.106
-169.896	-87.860	-0.193	-0.057
-168.881	-8.834	0.351	-0.232
-167.866	235.810	-0.181	-0.296
-166.852	-126.077	-0.323	-0.048
-165.837	-200.000	-0.014	0.076
-164.823	-185.917	0.139	0.002
-163.808	203.881	-0.107	-0.163
-162.793	-41.432	-0.284	-0.145
-161.779	1.586	0.396	0.281
-160.764	754.150	0.033	0.087
-159.750	800.000	0.047	-0.167
-158.735	-127.653	-0.152	0.022
-157.720	-110.737	0.110	0.022
-156.706	-25.632	0.072	0.042
-155.691	-200.000	0.041	0.240
-154.677	49.013	-0.185	-0.172
-153.662	94.812	0.051	0.057
-152.647	-200.000	0.000	0.073
-151.633	-200.000	0.027	-0.210
-150.618	9.192	0.402	-0.300
-149.604	-124.391	-0.171	-0.026
-148.589	188.074	0.179	0.264
-147.574	-111.120	0.118	-0.024
-146.560	-104.040	-0.181	-0.042
-145.545	800.000	0.030	-0.118
-144.531	-64.603	0.215	-0.086
-143.516	-43.970	0.298	-0.148
-142.502	373.038	-0.100	-0.201
-141.487	18.802	0.234	0.185
-140.472	33.178	-0.165	-0.142
-139.458	13.680	0.210	-0.161
-138.443	-78.016	-0.235	-0.080
-137.429	-200.000	-0.024	0.209
-136.414	-32.257	-0.105	-0.058
-135.399	5.236	0.228	0.166
-134.385	-115.849	-0.361	-0.067
-133.370	-176.037	0.548	0.014
-132.356	800.000	0.070	0.240
-131.341	231.910	0.087	-0.140
-130.326	-200.000	-0.007	0.133
-129.312	-134.521	-0.362	0.044
-128.297	-72.102	0.269	-0.099
-127.283	26.119	0.107	-0.088
-126.268	-200.000	-0.009	0.185
-125.253	-104.074	0.286	0.066
-124.239	-200.000	0.010	-0.189
-123.224	800.000	0.050	-0.184
-122.210	217.709	0.081	-0.127
-121.195	800.000	0.060	0.258
