DTS Sentinel unit serial number:	SN413079Multiplexer serial number:	ORYXHardware model number:	OX4-SRSoftware version number:	ORYX F/W v4.00 Oryx Data Collector v3.7.2.0data status	okinstallation	princeton_trtdifferential loss correction	single-endedforward channel	channel 3reverse channel	N/Adate	2019/09/17time	00:52:35forward acquisition time	60.00reverse acquisition time	0.00gamma	496.2192k internal	0.2325k external	0.2325temperature offset calibration	0.9945default loss term (dB/km)	0.3790temperature slope calibration	1.0000multiplexer offset coefficient	1.0000multiplexer slope coefficient	1.0000fibre end	0.00T internal ref (°C)	29.44T ext. ref 1 (°C)	0.11T ext. ref 2 (°C)	24.07length (m)	temperature (°C)	Stokes	anti-Stokes-747.200	-134.633	-0.121	-0.015
-746.185	-17.717	0.130	0.083
-745.171	325.744	0.028	-0.055
-744.156	492.273	0.095	0.220
-743.142	-34.986	0.162	-0.089
-742.127	-116.561	-0.371	-0.069
-741.112	161.694	-0.139	0.197
-740.098	217.971	-0.104	0.167
-739.083	56.615	0.174	0.171
-738.069	108.292	-0.187	0.225
-737.054	-6.493	-0.159	-0.109
-736.039	353.086	-0.068	-0.135
-735.025	-116.024	0.406	-0.076
-734.010	-56.470	-0.244	-0.109
-732.996	141.686	0.130	0.174
-731.981	90.803	0.274	-0.310
-730.966	472.463	-0.085	-0.193
-729.952	-135.465	0.086	-0.010
-728.937	448.089	-0.148	0.328
-727.923	-48.511	-0.276	0.134
-726.908	147.874	-0.138	-0.188
-725.894	-51.649	0.157	0.074
-724.879	-58.183	0.035	0.016
-723.864	461.365	-0.128	0.289
-722.850	-159.914	0.243	-0.013
-721.835	-200.000	-0.010	0.281
-720.821	160.463	0.063	0.089
-719.806	800.000	0.007	-0.028
-718.791	800.000	-0.062	-0.212
-717.777	-11.846	-0.205	0.136
-716.762	800.000	-0.116	0.392
-715.748	-147.710	-0.103	0.009
-714.733	-96.771	0.344	-0.091
-713.718	795.259	-0.171	-0.475
-712.704	-200.000	-0.015	0.245
-711.689	177.175	-0.123	0.181
-710.675	363.999	-0.123	0.249
-709.660	800.000	-0.081	-0.337
-708.645	-22.575	0.156	0.095
-707.631	-29.915	0.239	-0.137
-706.616	-199.656	-0.360	-0.002
-705.602	17.626	0.208	-0.167
-704.587	-57.420	-0.292	0.129
-703.572	55.071	-0.114	0.111
-702.558	-31.480	0.171	-0.097
-701.543	800.000	-0.098	0.275
-700.529	-151.858	0.236	0.017
-699.514	-68.086	-0.303	-0.119
-698.499	5.446	0.337	0.250
-697.485	90.978	-0.212	-0.240
-696.470	30.834	0.077	0.067
-695.456	110.013	-0.209	-0.252
-694.441	800.000	-0.108	-0.454
-693.426	89.738	0.268	0.301
-692.412	-42.290	0.151	0.078
-691.397	-105.925	-0.202	0.046
-690.383	-200.000	0.026	-0.156
-689.368	139.168	-0.059	0.079
-688.354	435.876	-0.038	-0.084
-687.339	800.000	-0.051	-0.213
-686.324	38.077	0.330	-0.295
-685.310	185.226	0.101	-0.150
-684.295	295.596	-0.111	-0.204
-683.281	-134.119	0.121	0.015
-682.266	16.317	0.107	0.085
-681.251	800.000	0.070	0.242
-680.237	-200.000	-0.016	0.132
-679.222	-93.678	0.221	-0.061
-678.208	53.236	-0.173	0.167
-677.193	-150.668	-0.334	-0.026
-676.178	-11.057	-0.282	0.187
-675.164	51.245	-0.323	-0.309
-674.149	-23.518	0.136	-0.082
-673.135	242.783	0.131	-0.220
-672.120	513.772	-0.056	0.131
-671.105	251.945	0.172	-0.294
-670.091	341.017	-0.085	0.167
-669.076	346.077	0.142	0.282
-668.062	-99.434	-0.229	-0.058
-667.047	26.200	0.175	0.147
-666.032	113.097	-0.117	0.143
-665.018	-69.132	0.296	-0.115
-664.003	-200.000	-0.006	-0.075
-662.989	800.000	0.085	-0.269
-661.974	-40.965	0.111	0.058
-660.959	586.594	-0.131	-0.325
-659.945	-34.201	0.276	-0.153
-658.930	13.756	-0.331	-0.259
-657.916	-116.018	0.229	-0.043
-656.901	192.324	-0.154	0.234
-655.886	-200.000	0.001	-0.203
-654.872	8.478	-0.140	-0.106
-653.857	-120.328	0.043	0.007
-652.843	-160.706	-0.051	-0.003
-651.828	800.000	-0.104	-0.371
-650.814	800.000	-0.014	-0.047
-649.799	-31.027	0.349	0.198
-648.784	-88.080	-0.067	-0.020
-647.770	45.538	-0.068	-0.063
-646.755	68.215	0.213	0.219
-645.741	-200.000	-0.035	0.225
-644.726	-113.477	0.040	0.008
-643.711	-130.222	0.036	-0.005
-642.697	69.683	0.233	-0.241
-641.682	71.782	-0.196	-0.205
-640.668	499.099	-0.128	-0.295
-639.653	-87.183	-0.412	0.126
-638.638	-88.934	0.031	0.009
-637.624	132.934	0.019	-0.025
-636.609	182.786	-0.151	-0.225
-635.595	66.135	0.138	0.141
-634.580	261.285	-0.076	0.132
-633.565	-116.876	0.093	-0.017
-632.551	-11.983	-0.170	0.112
-631.536	-152.507	0.203	-0.015
-630.522	800.000	-0.037	-0.150
-629.507	-134.307	-0.194	-0.024
-628.492	800.000	-0.122	0.531
-627.478	-103.269	0.367	0.087
-626.463	800.000	-0.121	-0.430
-625.449	135.919	-0.152	0.199
-624.434	33.400	-0.031	-0.027
-623.419	152.257	-0.065	0.089
-622.405	800.000	-0.108	0.320
-621.390	94.161	0.113	0.129
-620.376	-166.950	-0.139	0.006
-619.361	471.570	0.108	0.244
-618.346	-157.322	-0.319	-0.019
-617.332	242.162	-0.139	0.233
-616.317	28.271	0.203	-0.172
-615.303	238.373	-0.129	-0.215
-614.288	-77.159	0.150	-0.053
-613.273	74.044	-0.153	0.161
-612.259	4.064	0.411	-0.302
-611.244	89.882	0.095	0.107
-610.230	225.130	0.041	0.067
-609.215	245.376	-0.148	-0.250
-608.201	-200.000	-0.007	0.111
-607.186	767.435	0.022	0.059
-606.171	92.007	-0.104	-0.118
-605.157	-200.000	-0.016	-0.609
-604.142	3.356	0.031	0.023
-603.128	154.593	-0.194	0.267
-602.113	-141.339	-0.366	-0.037
-601.098	-142.487	0.517	-0.051
-600.084	-49.273	-0.149	0.071
-599.069	-45.672	-0.105	0.052
-598.055	-16.367	-0.278	-0.177
-597.040	-200.000	-0.002	-0.153
-596.025	-28.966	-0.100	-0.058
-595.011	-27.197	-0.038	0.022
-593.996	475.490	-0.195	0.442
-592.982	-155.686	0.031	0.002
-591.967	-105.203	0.091	-0.021
-590.952	-161.455	0.148	0.008
-589.938	-200.000	-0.015	-0.272
-588.923	417.164	-0.079	0.169
-587.909	800.000	0.080	-0.229
-586.894	425.605	-0.074	-0.160
-585.879	800.000	0.063	-0.262
-584.865	158.932	-0.091	0.127
-583.850	176.734	-0.076	-0.111
-582.836	156.573	0.069	-0.096
-581.821	-111.053	0.262	-0.054
-580.806	336.344	-0.138	-0.269
-579.792	-200.000	0.017	0.271
-578.777	165.365	-0.218	-0.308
-577.763	357.047	-0.183	0.365
-576.748	-200.000	0.007	0.261
-575.733	800.000	-0.047	-0.157
-574.719	-63.382	0.142	0.059
-573.704	-154.121	-0.211	-0.014
-572.690	-70.186	0.107	-0.041
-571.675	-167.109	0.369	-0.015
-570.661	377.596	-0.226	0.462
-569.646	800.000	-0.075	-0.295
-568.631	100.916	0.088	-0.102
-567.617	166.482	0.074	-0.105
-566.602	-174.744	0.243	0.007
-565.588	60.971	0.181	-0.180
-564.573	800.000	-0.064	-0.217
-563.558	-58.911	0.118	-0.051
-562.544	-1.950	-0.407	0.287
-561.529	267.640	-0.031	0.054
-560.515	800.000	0.067	0.257
-559.500	607.955	-0.047	0.119
-558.485	256.861	0.097	-0.167
-557.471	-200.000	-0.061	-0.283
-556.456	55.104	0.253	0.245
-555.442	-103.305	-0.184	0.043
-554.427	-80.436	0.136	0.045
-553.412	-81.030	0.069	0.023
-552.398	445.351	0.084	0.186
-551.383	349.064	0.069	0.136
-550.369	-149.319	-0.263	0.021
-549.354	-77.135	0.172	0.060
-548.339	209.653	0.160	-0.252
-547.325	-200.000	0.016	-0.086
-546.310	-200.000	0.025	0.328
-545.296	-200.000	0.008	-0.169
-544.281	65.889	0.239	0.243
-543.266	298.031	0.239	0.439
-542.252	-109.290	-0.230	-0.049
-541.237	-42.587	0.233	0.119
-540.223	41.499	-0.099	0.090
-539.208	-3.155	0.063	-0.044
-538.193	70.354	0.157	-0.163
-537.179	-92.999	-0.180	0.050
-536.164	138.995	-0.232	-0.305
-535.150	-44.572	0.230	0.115
-534.135	-38.839	-0.182	-0.096
-533.121	91.660	0.263	0.296
-532.106	-64.954	-0.173	0.070
-531.091	17.591	0.066	-0.052
-530.077	-67.990	-0.356	-0.139
-529.062	120.348	-0.063	-0.078
-528.048	-200.000	0.066	-0.329
-527.033	-28.840	-0.043	0.025
-526.018	800.000	-0.078	0.252
-525.004	12.672	0.104	-0.081
-523.989	116.282	-0.170	0.208
-522.975	294.053	0.057	0.105
-521.960	800.000	0.120	0.381
-520.945	-149.753	-0.209	-0.016
-519.931	-200.000	0.015	-0.188
-518.916	-135.181	-0.506	-0.061
-517.902	-169.532	-0.279	0.010
-516.887	800.000	0.059	-0.212
-515.872	-200.000	-0.019	-0.252
-514.858	-200.000	-0.158	0.000
-513.843	-165.421	-0.158	-0.007
-512.829	-200.000	-0.007	-0.092
-511.814	800.000	0.057	-0.205
-510.799	40.373	-0.057	-0.051
-509.785	800.000	0.035	0.129
-508.770	205.392	0.119	0.185
-507.756	248.601	-0.053	-0.090
-506.741	-98.504	-0.235	-0.060
-505.726	388.324	-0.067	-0.139
-504.712	39.749	-0.079	-0.070
-503.697	-166.042	-0.301	0.013
-502.683	-50.203	-0.346	0.164
-501.668	74.677	-0.076	0.079
-500.653	-200.000	-0.002	-0.205
-499.639	487.136	-0.083	0.189
-498.624	45.887	0.013	-0.012
-497.610	312.544	0.171	0.320
-496.595	-65.945	-0.076	-0.030
-495.581	-0.062	0.134	0.095
-494.566	760.312	-0.045	-0.121
-493.551	-99.028	0.213	0.054
-492.537	30.753	0.048	0.041
-491.522	-61.933	-0.285	0.119
-490.508	611.972	-0.061	-0.152
-489.493	-71.998	0.108	-0.040
-488.478	800.000	0.028	-0.083
-487.464	800.000	0.169	0.470
-486.449	-17.101	-0.289	0.182
-485.435	165.587	0.210	-0.297
-484.420	-200.000	-0.034	-0.449
-483.405	25.542	-0.306	0.254
-482.391	-200.000	-0.033	0.234
-481.376	-2.455	0.153	0.107
-480.362	400.360	-0.134	-0.281
-479.347	800.000	0.045	-0.128
-478.332	-100.906	-0.142	0.035
-477.318	-34.063	0.113	-0.062
-476.303	800.000	-0.058	-0.197
-475.289	311.637	0.118	0.222
-474.274	21.770	0.180	0.147
-473.259	-38.143	0.060	0.032
-472.245	-111.818	0.242	0.049
-471.230	-70.347	0.081	0.031
-470.216	10.230	-0.275	0.209
-469.201	-18.867	0.257	-0.160
-468.186	-200.000	0.046	-0.234
-467.172	-153.628	-0.238	0.016
-466.157	-200.000	0.038	-0.222
-465.143	184.120	0.129	-0.190
-464.128	-89.310	0.322	-0.095
-463.113	151.783	0.126	0.171
-462.099	59.011	-0.198	0.195
-461.084	16.178	-0.315	-0.248
-460.070	-200.000	0.038	0.205
-459.055	89.704	-0.141	0.157
-458.040	-200.000	-0.127	0.001
-457.026	-170.206	-0.377	-0.013
-456.011	-92.531	-0.123	0.035
-454.997	-8.791	-0.065	0.043
-453.982	-200.000	0.010	0.062
-452.968	800.000	0.107	0.374
-451.953	800.000	-0.064	-0.254
-450.938	260.764	-0.011	-0.018
-449.924	-200.000	-0.026	0.184
-448.909	-39.012	-0.266	-0.140
-447.895	217.138	0.087	-0.138
-446.880	19.351	-0.067	-0.054
-445.865	71.690	-0.160	-0.166
-444.851	800.000	0.086	0.251
-443.836	28.469	0.177	-0.149
-442.822	156.268	-0.128	0.177
-441.807	362.213	0.018	-0.035
-440.792	218.361	0.024	0.039
-439.778	-200.000	0.022	0.325
-438.763	185.280	0.085	-0.126
-437.749	-200.000	-0.021	0.139
-436.734	103.083	0.042	-0.049
-435.719	158.860	-0.053	0.073
-434.705	47.677	-0.127	0.118
-433.690	376.458	-0.037	0.076
-432.676	-80.274	-0.192	-0.064
-431.661	151.990	0.168	0.229
-430.646	800.000	0.035	0.109
-429.632	-156.578	-0.155	-0.010
-428.617	-25.398	0.387	0.228
-427.603	-30.126	-0.048	0.027
-426.588	20.400	0.247	0.199
-425.573	-200.000	0.037	0.240
-424.559	369.424	-0.104	-0.209
-423.544	420.739	0.037	-0.080
-422.530	170.845	-0.097	-0.138
-421.515	224.738	-0.147	-0.237
-420.500	-85.372	-0.166	0.052
-419.486	800.000	0.127	0.349
-418.471	191.377	0.128	0.193
-417.457	708.069	-0.046	0.120
-416.442	-200.000	-0.016	-0.278
-415.428	-200.000	0.016	-0.171
-414.413	-90.982	-0.335	-0.096
-413.398	-165.603	0.111	-0.005
-412.384	165.659	-0.297	-0.418
-411.369	-200.000	-0.034	0.202
-410.355	533.913	0.068	0.159
-409.340	-200.000	0.015	-0.189
-408.325	1.887	0.166	-0.119
-407.311	189.430	-0.133	-0.198
-406.296	-200.000	0.031	-0.266
-405.282	-8.940	-0.224	0.149
-404.267	29.980	0.116	0.099
-403.252	-199.741	-0.100	-0.001
-402.238	-200.000	0.016	-0.119
-401.223	124.361	0.271	0.339
-400.209	800.000	0.064	-0.181
-399.194	-57.562	0.303	0.133
-398.179	-129.609	-0.241	-0.033
-397.165	800.000	-0.048	-0.154
-396.150	-25.224	0.034	-0.020
-395.136	-9.075	-0.053	-0.035
-394.121	-2.769	0.064	0.044
-393.106	-78.903	-0.099	-0.034
-392.092	-32.662	0.169	-0.094
-391.077	800.000	-0.066	-0.276
-390.063	577.755	0.053	-0.130
-389.048	-200.000	-0.023	-0.297
-388.033	-113.074	-0.216	-0.042
-387.019	-200.000	-0.011	0.222
-386.004	-125.649	0.236	-0.036
-384.990	800.000	-0.097	0.282
-383.975	-87.786	0.148	0.044
-382.960	48.724	-0.256	-0.239
-381.946	52.272	0.106	-0.100
-380.931	-71.918	0.169	-0.063
-379.917	37.551	0.183	0.161
-378.902	800.000	-0.102	0.325
-377.888	-200.000	0.013	-0.089
-376.873	800.000	0.100	-0.416
-375.858	-59.094	-0.155	-0.067
-374.844	-81.498	0.072	-0.024
-373.829	-44.122	-0.231	0.115
-372.815	-12.482	0.135	-0.088
-371.800	394.635	0.110	-0.227
-370.785	140.070	0.065	0.085
-369.771	-114.628	-0.363	-0.069
-368.756	-200.000	0.035	0.330
-367.742	229.599	-0.153	-0.249
-366.727	-117.988	0.062	0.011
-365.712	-27.492	0.074	-0.043
-364.698	-200.000	0.002	0.050
-363.683	792.677	-0.088	-0.240
-362.669	80.146	0.155	-0.165
-361.654	12.182	0.205	0.157
-360.639	-7.870	0.176	0.118
-359.625	583.529	0.132	-0.322
-358.610	-30.786	0.208	0.117
-357.596	800.000	-0.093	0.271
-356.581	-200.000	-0.004	0.032
-355.566	-114.460	0.294	0.056
-354.552	-43.926	-0.019	-0.010
-353.537	265.394	-0.197	0.342
-352.523	108.218	-0.045	0.054
-351.508	-200.000	0.009	-0.112
-350.493	-200.000	-0.008	-0.123
-349.479	-200.000	0.054	-0.351
-348.464	581.746	0.020	-0.048
-347.450	-200.000	-0.022	0.124
-346.435	478.909	-0.050	-0.113
-345.420	90.966	-0.384	0.428
-344.406	56.295	-0.348	0.336
-343.391	739.101	0.055	-0.147
-342.377	-67.396	0.056	-0.022
-341.362	-34.557	-0.162	0.088
-340.348	76.058	0.094	-0.099
-339.333	643.066	-0.028	0.071
-338.318	622.516	-0.037	-0.093
-337.304	-8.023	-0.250	0.168
-336.289	8.122	0.099	-0.074
-335.275	-75.103	0.169	-0.060
-334.260	800.000	-0.049	-0.148
-333.245	-200.000	-0.016	-0.253
-332.231	29.347	-0.170	-0.143
-331.216	-29.466	0.285	-0.162
-330.202	190.296	-0.247	-0.368
-329.187	120.280	0.158	-0.195
-328.172	-200.000	-0.003	0.031
-327.158	9.726	-0.021	-0.016
-326.143	309.542	0.075	0.139
-325.129	-56.601	0.306	-0.135
-324.114	259.347	0.182	0.313
-323.099	-27.658	0.273	-0.157
-322.085	51.617	0.073	0.069
-321.070	-93.978	-0.234	-0.064
-320.056	-100.290	0.175	0.043
-319.041	304.629	-0.074	-0.137
-318.026	62.178	0.056	-0.056
-317.012	-93.837	-0.219	0.060
-315.997	127.341	-0.148	-0.186
-314.983	800.000	-0.137	-0.468
-313.968	39.511	0.148	-0.132
-312.953	-171.998	0.178	0.006
-311.939	142.718	0.174	-0.229
-310.924	55.564	-0.219	0.210
-309.910	-137.497	0.110	-0.012
-308.895	1.357	-0.239	-0.170
-307.880	-44.535	-0.448	0.222
-306.866	-200.000	0.019	-0.302
-305.851	-31.115	-0.096	0.054
-304.837	615.986	-0.106	0.263
-303.822	-124.086	0.452	-0.070
-302.807	480.992	0.051	-0.116
-301.793	-54.048	0.165	-0.075
-300.778	-130.459	-0.318	-0.043
-299.764	800.000	-0.049	0.142
-298.749	800.000	0.020	0.058
-297.735	8.827	0.200	0.150
-296.720	260.386	0.066	-0.112
-295.705	63.251	-0.056	0.056
-294.691	165.055	0.070	-0.098
-293.676	-200.000	-0.067	-0.395
-292.662	-128.244	0.161	0.023
-291.647	85.411	-0.217	-0.236
-290.632	-47.952	0.219	-0.105
-289.618	800.000	0.066	0.282
-288.603	-119.717	0.151	-0.026
-287.589	72.370	0.280	0.289
-286.574	68.203	0.114	-0.116
-285.559	-200.000	-0.039	0.185
-284.545	72.468	-0.175	0.181
-283.530	-58.848	0.211	-0.090
-282.516	-28.369	0.041	0.024
-281.501	181.622	0.172	-0.251
-280.486	-96.350	-0.186	0.049
-279.472	-55.824	-0.223	-0.099
-278.457	-200.000	-0.017	0.112
-277.443	-112.610	-0.077	-0.015
-276.428	-177.353	-0.404	0.010
-275.413	-200.000	-0.080	0.357
-274.399	800.000	-0.038	-0.128
-273.384	-40.920	-0.103	0.053
-272.370	-200.000	0.003	-0.020
-271.355	-160.842	-0.248	0.013
-270.340	-60.356	-0.238	-0.100
-269.326	26.777	0.095	0.079
-268.311	800.000	-0.076	0.227
-267.297	-200.000	-0.071	0.341
-266.282	526.530	0.138	0.322
-265.267	-104.126	0.154	-0.036
-264.253	368.199	0.060	0.121
-263.238	-108.721	0.172	0.036
-262.224	800.000	-0.005	0.014
-261.209	-15.291	-0.106	-0.067
-260.195	17.621	0.410	0.323
-259.180	43.507	-0.022	0.020
-258.165	279.503	0.063	-0.111
-257.151	-53.756	0.243	-0.110
-256.136	5.979	0.143	-0.105
-255.122	-2.627	-0.183	0.127
-254.107	285.979	0.079	-0.140
-253.092	-109.724	0.298	-0.062
-252.078	99.811	0.148	-0.170
-251.063	166.395	0.067	0.094
-250.049	180.735	-0.232	0.338
-249.034	-5.644	-0.125	0.085
-248.019	211.124	-0.228	0.354
-247.005	-121.744	-0.383	-0.063
-245.990	35.191	0.407	-0.353
-244.976	118.372	-0.215	0.262
-243.961	696.775	-0.150	0.389
-242.946	-158.751	0.360	-0.020
-241.932	462.218	0.084	-0.185
-240.917	270.308	-0.016	-0.028
-239.903	800.000	-0.151	-0.464
-238.888	800.000	0.057	0.172
-237.873	-101.154	0.160	0.039
-236.859	138.139	0.165	-0.214
-235.844	-200.000	-0.042	-0.418
-234.830	288.573	-0.076	0.137
-233.815	276.548	-0.049	0.087
-232.800	7.446	-0.099	0.073
-231.786	7.181	-0.215	0.158
-230.771	-200.000	-0.036	-0.266
-229.757	254.279	-0.111	0.188
-228.742	23.091	-0.065	-0.053
-227.727	-200.000	-0.053	0.467
-226.713	-200.000	-0.016	-0.188
-225.698	98.615	0.153	-0.174
-224.684	260.040	0.024	0.041
-223.669	800.000	-0.041	0.143
-222.655	-120.071	-0.204	-0.035
-221.640	-200.000	0.055	-0.312
-220.625	-64.193	0.064	0.026
-219.611	-119.913	0.144	0.024
-218.596	-90.787	-0.060	-0.017
-217.582	-98.753	0.088	-0.022
-216.567	39.101	-0.142	0.126
-215.552	79.502	-0.131	0.139
-214.538	30.954	0.116	0.098
-213.523	-200.000	-0.063	-0.305
-212.509	-80.490	0.258	0.085
-211.494	-200.000	0.019	0.131
-210.479	25.783	-0.107	-0.088
-209.465	-155.579	0.251	0.016
-208.450	800.000	-0.048	0.144
-207.436	-116.441	-0.159	0.029
-206.421	-107.041	0.040	-0.009
-205.406	63.649	0.045	0.045
-204.392	-103.525	-0.154	0.036
-203.377	260.061	-0.039	0.066
-202.363	-94.011	-0.343	-0.093
-201.348	-21.066	0.319	0.193
-200.333	800.000	-0.063	0.205
-199.319	246.836	0.038	-0.063
-198.304	23.389	0.301	-0.244
-197.290	-187.360	0.139	-0.002
-196.275	-200.000	0.006	0.162
-195.260	26.228	0.134	0.111
-194.246	-153.789	-0.152	-0.010
-193.231	-51.391	0.274	0.126
-192.217	-72.048	-0.049	-0.018
-191.202	800.000	0.052	0.183
-190.187	800.000	-0.022	0.062
-189.173	800.000	-0.098	-0.340
-188.158	179.843	-0.111	-0.161
-187.144	-108.431	0.099	0.021
-186.129	-95.991	0.285	-0.075
-185.114	-200.000	-0.006	-0.355
-184.100	800.000	-0.026	-0.072
-183.085	800.000	0.110	-0.376
-182.071	-13.290	0.074	0.047
-181.056	83.762	-0.199	-0.214
-180.042	21.265	-0.108	0.087
-179.027	-36.235	0.319	-0.170
-178.012	-47.188	0.161	0.078
-176.998	-5.910	0.123	0.083
-175.983	-10.664	-0.320	0.209
-174.969	-136.045	0.026	0.003
-173.954	-95.242	-0.055	0.015
-172.939	-3.679	0.067	0.046
-171.925	-152.472	0.257	0.018
-170.910	74.758	0.295	0.306
-169.896	30.339	0.098	-0.083
-168.881	-151.975	-0.180	-0.013
-167.866	-63.458	0.237	0.096
-166.852	628.286	0.046	0.115
-165.837	-113.176	0.271	0.053
-164.823	12.045	0.238	0.180
-163.808	-159.132	0.511	0.028
-162.793	-32.605	0.360	0.198
-161.779	455.903	-0.160	-0.350
-160.764	42.263	-0.085	-0.077
-159.750	707.332	0.082	0.214
-158.735	54.599	0.071	-0.067
-157.720	-54.935	-0.208	-0.093
-156.706	-87.961	-0.331	-0.098
-155.691	-77.173	0.318	0.109
-154.677	193.485	0.154	-0.230
-153.662	2.056	0.102	-0.073
-152.647	52.886	-0.072	-0.068
-151.633	335.333	0.125	0.240
-150.618	800.000	-0.005	-0.016
-149.604	-200.000	-0.097	0.558
-148.589	-200.000	0.036	0.182
-147.574	523.311	0.118	0.273
-146.560	-3.285	0.163	-0.112
-145.545	-73.009	0.106	0.039
-144.531	-100.615	-0.328	0.080
-143.516	35.900	-0.347	-0.301
-142.502	-39.806	0.208	0.107
-141.487	-26.907	0.206	0.119
-140.472	-11.226	0.107	-0.070
-139.458	-182.220	0.390	-0.007
-138.443	-181.014	-0.154	0.003
-137.429	-65.715	0.311	-0.123
-136.414	241.617	0.057	-0.094
-135.399	-200.000	0.006	-0.294
-134.385	168.357	-0.050	0.070
-133.370	-118.777	0.176	-0.030
-132.356	18.861	0.226	0.179
-131.341	800.000	0.083	-0.265
-130.326	75.058	-0.017	0.018
-129.312	-145.256	-0.111	0.010
-128.297	-168.368	-0.308	-0.012
-127.283	145.292	-0.142	-0.187
-126.268	800.000	0.086	-0.262
-125.253	-200.000	0.018	-0.240
-124.239	-33.441	-0.081	-0.044
-123.224	-12.791	-0.089	0.057
-122.210	116.941	-0.140	0.169
-121.195	-200.000	0.029	-0.352
-120.180	332.262	-0.131	-0.248
