DTS Sentinel unit serial number:	SN413079Multiplexer serial number:	ORYXHardware model number:	OX4-SRSoftware version number:	ORYX F/W v4.00 Oryx Data Collector v3.7.2.0data status	okinstallation	princeton_trtdifferential loss correction	single-endedforward channel	channel 3reverse channel	N/Adate	2019/09/12time	20:06:04forward acquisition time	15.00reverse acquisition time	0.00gamma	496.2192k internal	0.2324k external	0.2324temperature offset calibration	1.0115default loss term (dB/km)	0.3790temperature slope calibration	1.0000multiplexer offset coefficient	1.0000multiplexer slope coefficient	1.0000fibre end	0.00T internal ref (°C)	31.69T ext. ref 1 (°C)	3.43T ext. ref 2 (°C)	26.20length (m)	temperature (°C)	Stokes	anti-Stokes-747.200	-200.000	-0.151	-0.888
-746.185	-122.711	-0.713	0.116
-745.171	-145.514	0.243	0.022
-744.156	353.384	-0.098	0.197
-743.142	356.688	0.290	0.584
-742.127	800.000	0.110	-0.413
-741.112	188.473	0.332	-0.501
-740.098	330.344	0.224	0.435
-739.083	491.324	0.204	-0.471
-738.069	-62.467	0.369	-0.155
-737.054	-200.000	0.017	0.530
-736.039	800.000	-0.136	0.503
-735.025	380.516	0.481	0.995
-734.010	73.453	0.096	-0.102
-732.996	-28.765	-0.759	-0.440
-731.981	245.141	0.213	0.362
-730.966	-5.530	-0.370	-0.256
-729.952	174.302	-0.128	-0.187
-728.937	3.898	0.371	-0.273
-727.923	8.329	0.395	0.299
-726.908	-146.772	-0.309	-0.027
-725.894	93.654	-0.284	-0.324
-724.879	-129.538	-0.922	0.129
-723.864	-97.421	-0.229	-0.060
-722.850	-200.000	0.068	0.639
-721.835	363.082	0.260	0.528
-720.821	369.664	0.356	-0.727
-719.806	247.442	0.102	-0.174
-718.791	19.566	0.680	-0.552
-717.777	578.580	-0.509	-1.257
-716.762	254.065	0.494	0.851
-715.748	87.546	-0.534	-0.596
-714.733	48.263	0.573	0.541
-713.718	307.093	0.474	0.891
-712.704	-70.170	0.265	-0.102
-711.689	15.230	0.517	-0.409
-710.675	800.000	0.157	-0.512
-709.660	608.802	0.242	0.608
-708.645	255.375	0.287	-0.495
-707.631	-116.552	-0.158	0.029
-706.616	800.000	0.246	-0.798
-705.602	-37.661	-0.264	-0.142
-704.587	-97.426	-1.106	0.290
-703.572	116.518	0.256	-0.316
-702.558	0.819	-0.919	-0.663
-701.543	-149.960	-0.581	-0.046
-700.529	-200.000	-0.039	0.322
-699.514	-200.000	0.055	-0.356
-698.499	-142.562	-0.925	0.091
-697.485	-115.368	0.831	0.158
-696.470	-2.216	-0.206	-0.146
-695.456	158.137	0.399	-0.558
-694.441	-83.234	0.317	-0.103
-693.426	-97.166	0.055	0.015
-692.412	162.575	-0.483	0.683
-691.397	64.563	-0.341	-0.346
-690.383	-127.159	0.698	-0.103
-689.368	21.646	-0.613	-0.503
-688.354	-135.996	0.664	-0.079
-687.339	643.260	-0.354	0.910
-686.324	3.272	-0.455	-0.333
-685.310	-200.000	-0.325	0.001
-684.295	-102.628	-0.382	-0.092
-683.281	12.809	0.330	-0.257
-682.266	617.502	0.081	-0.206
-681.251	-197.808	-0.309	-0.002
-680.237	-72.045	1.276	0.477
-679.222	55.161	0.353	0.343
-678.208	25.895	-0.660	0.554
-677.193	-157.153	-0.653	-0.040
-676.178	220.354	-0.075	0.121
-675.164	82.173	0.757	-0.827
-674.149	-108.464	-0.139	0.030
-673.135	-116.743	1.150	-0.212
-672.120	-136.678	-0.290	0.034
-671.105	-33.297	-0.107	-0.059
-670.091	-37.725	0.505	-0.271
-669.076	48.857	-0.680	0.643
-668.062	-75.647	-0.560	-0.200
-667.047	-81.793	-0.144	0.047
-666.032	-121.317	0.418	-0.070
-665.018	122.154	0.526	0.661
-664.003	800.000	0.232	0.663
-662.989	697.120	0.322	-0.851
-661.974	-200.000	-0.003	-0.591
-660.959	13.496	0.245	-0.191
-659.945	63.291	-0.127	0.128
-658.930	34.578	-0.102	-0.090
-657.916	185.342	-0.475	0.709
-656.901	-6.629	-0.338	0.231
-655.886	204.235	-0.430	0.671
-654.872	100.607	-0.174	0.203
-653.857	-7.724	-0.404	-0.275
-652.843	-7.305	0.462	-0.315
-651.828	-86.690	-0.590	-0.182
-650.814	320.630	0.370	0.706
-649.799	116.194	-0.293	-0.360
-648.784	800.000	-0.214	-0.616
-647.770	15.830	-0.159	0.125
-646.755	-91.581	0.507	-0.145
-645.741	-37.785	-0.097	0.052
-644.726	-200.000	0.069	-0.390
-643.711	126.473	-0.222	0.283
-642.697	-128.256	0.415	-0.059
-641.682	-23.891	0.465	0.280
-640.668	27.299	0.594	0.502
-639.653	-36.931	-0.797	-0.430
-638.638	84.006	0.078	-0.086
-637.624	-33.644	0.328	-0.182
-636.609	-97.441	0.775	0.203
-635.595	-43.283	0.694	0.353
-634.580	164.361	0.243	0.345
-633.565	-99.825	-0.911	0.229
-632.551	68.419	-0.771	-0.795
-631.536	293.216	-0.091	0.167
-630.522	-200.000	0.061	0.607
-629.507	-200.000	-0.124	-0.666
-628.492	101.219	-0.542	0.635
-627.478	69.243	0.398	0.411
-626.463	-200.000	-0.162	0.950
-625.449	-77.353	-0.272	0.095
-624.434	-131.450	0.385	-0.051
-623.419	-96.063	0.573	0.153
-622.405	207.453	-0.183	-0.286
-621.390	20.126	0.526	-0.427
-620.376	39.886	0.373	-0.336
-619.361	-200.000	0.012	0.547
-618.346	-99.719	-0.386	-0.097
-617.332	-200.000	0.020	0.148
-616.317	30.542	-0.617	-0.530
-615.303	-114.344	0.364	0.070
-614.288	-58.120	-0.790	0.346
-613.273	-200.000	0.174	-0.812
-612.259	182.195	-0.263	-0.389
-611.244	800.000	0.335	-1.055
-610.230	735.829	0.366	-0.985
-609.215	158.240	-0.178	0.248
-608.201	-110.338	-0.550	-0.115
-607.186	800.000	-0.126	-0.358
-606.171	-28.603	-0.289	-0.167
-605.157	-200.000	-0.200	-1.451
-604.142	26.771	0.154	-0.130
-603.128	-49.484	-0.427	-0.204
-602.113	-200.000	0.065	0.521
-601.098	2.170	0.251	0.182
-600.084	-5.532	-0.182	0.125
-599.069	-81.385	0.529	0.175
-598.055	78.943	0.380	-0.408
-597.040	165.850	0.311	-0.441
-596.025	-127.907	1.064	-0.154
-595.011	21.272	0.522	0.426
-593.996	-32.802	0.114	0.064
-592.982	-200.000	0.032	0.251
-591.967	31.900	-0.374	0.323
-590.952	597.224	-0.096	0.238
-589.938	185.694	0.519	0.774
-588.923	-140.571	0.909	-0.095
-587.909	-108.303	0.287	0.062
-586.894	-200.000	-0.096	0.593
-585.879	-200.000	-0.114	0.504
-584.865	-80.014	0.747	-0.252
-583.850	-124.291	0.140	0.022
-582.836	591.166	-0.172	0.425
-581.821	-49.218	0.719	0.344
-580.806	-52.528	-0.262	-0.121
-579.792	305.453	-0.115	-0.215
-578.777	297.133	0.149	-0.273
-577.763	99.343	-0.398	-0.462
-576.748	-200.000	-0.061	0.567
-575.733	6.167	0.656	-0.488
-574.719	542.205	-0.248	-0.593
-573.704	13.470	-0.269	-0.209
-572.690	50.700	0.559	0.531
-571.675	-106.571	0.563	-0.126
-570.661	-141.271	-0.747	0.076
-569.646	295.160	0.085	0.155
-568.631	800.000	0.041	0.157
-567.617	75.435	-0.593	0.627
-566.602	15.797	0.130	-0.102
-565.588	800.000	0.078	0.316
-564.573	-116.591	0.907	-0.167
-563.558	10.586	0.717	0.548
-562.544	800.000	0.169	0.706
-561.529	-200.000	0.048	-0.299
-560.515	-200.000	-0.067	1.247
-559.500	35.872	-0.659	0.581
-558.485	-54.929	-1.380	-0.623
-557.471	-69.872	-0.520	-0.199
-556.456	-64.883	-0.615	-0.249
-555.442	-24.372	0.135	0.080
-554.427	-86.800	-0.472	0.145
-553.412	-143.853	0.124	-0.012
-552.398	-84.988	-0.793	0.249
-551.383	425.046	-0.142	0.305
-550.369	-136.658	-0.291	-0.034
-549.354	244.253	0.129	-0.217
-548.339	-200.000	-0.099	-0.674
-547.325	-33.282	0.314	-0.174
-546.310	499.941	0.192	0.444
-545.296	685.811	0.081	-0.213
-544.281	-200.000	0.005	0.358
-543.266	-200.000	-0.004	0.315
-542.252	338.429	-0.047	0.091
-541.237	565.441	-0.118	-0.286
-540.223	30.320	0.346	0.296
-539.208	66.121	-0.142	-0.144
-538.193	265.451	-0.404	-0.706
-537.179	-86.831	0.596	0.182
-536.164	153.025	0.115	-0.158
-535.150	52.219	0.232	0.222
-534.135	67.437	-0.116	0.119
-533.121	800.000	0.171	-0.541
-532.106	-2.385	-0.775	0.544
-531.091	462.304	-0.302	-0.676
-530.077	-86.499	0.409	0.126
-529.062	590.220	-0.189	-0.466
-528.048	23.944	-0.249	0.205
-527.033	227.119	-0.134	-0.218
-526.018	-200.000	-0.005	-0.044
-525.004	-200.000	0.015	0.197
-523.989	-75.083	0.233	0.084
-522.975	-200.000	-0.027	-0.528
-521.960	52.331	0.589	0.562
-520.945	-23.332	-0.592	-0.356
-519.931	-105.217	1.318	-0.301
-518.916	-200.000	-0.008	-0.127
-517.902	-50.028	0.654	-0.310
-516.887	57.705	0.412	-0.403
-515.872	4.453	0.667	-0.490
-514.858	195.591	0.407	0.619
-513.843	-4.143	-0.073	0.051
-512.829	-200.000	0.044	-0.473
-511.814	-200.000	0.014	-0.438
-510.799	-200.000	-0.005	0.287
-509.785	-73.526	-0.528	0.193
-508.770	-200.000	0.047	0.719
-507.756	100.822	-0.263	0.305
-506.741	413.781	-0.177	-0.376
-505.726	-57.569	-0.340	0.149
-504.712	65.772	0.387	0.392
-503.697	800.000	0.039	0.157
-502.683	748.059	-0.048	0.130
-501.668	-87.508	-0.242	-0.073
-500.653	173.843	-0.288	-0.416
-499.639	250.370	0.500	0.849
-498.624	-165.833	-0.361	-0.016
-497.610	-149.490	0.392	-0.031
-496.595	-40.223	-0.827	-0.430
-495.581	-167.083	-0.175	0.007
-494.566	-111.161	1.257	-0.257
-493.551	155.039	0.111	0.152
-492.537	-200.000	-0.236	1.290
-491.522	-100.019	0.230	0.057
-490.508	-200.000	0.039	0.230
-489.493	-200.000	-0.104	0.556
-488.478	307.241	0.088	0.164
-487.464	-191.817	0.631	-0.006
-486.449	-147.944	-0.439	0.037
-485.435	377.257	-0.347	0.709
-484.420	-200.000	-0.064	0.825
-483.405	137.719	0.452	0.592
-482.391	6.367	0.855	0.634
-481.376	36.457	-0.251	-0.222
-480.362	-200.000	-0.005	-0.234
-479.347	-58.795	0.183	0.079
-478.332	59.115	0.521	0.512
-477.318	50.705	0.568	0.537
-476.303	800.000	0.075	0.260
-475.289	-200.000	0.048	0.452
-474.274	424.915	0.138	-0.297
-473.259	-24.934	-0.757	-0.449
-472.245	-22.644	0.086	0.052
-471.230	-52.927	0.992	0.456
-470.216	129.475	-0.445	0.568
-469.201	34.918	-0.558	-0.488
-468.186	183.418	-0.053	0.077
-467.172	26.055	0.143	0.119
-466.157	-63.335	-0.096	-0.039
-465.143	-200.000	0.018	-0.634
-464.128	372.118	-0.064	0.131
-463.113	-171.499	0.401	-0.013
-462.099	-200.000	0.141	1.010
-461.084	-173.142	-0.262	0.008
-460.070	-119.260	0.761	0.132
-459.055	194.102	0.242	-0.366
-458.040	-59.061	-0.582	0.251
-457.026	-24.906	-0.436	-0.258
-456.011	-111.252	-0.546	-0.111
-454.997	124.809	-0.468	0.589
-453.982	16.378	-0.389	0.306
-452.968	137.602	0.362	-0.473
-451.953	-4.851	-0.673	-0.463
-450.938	213.126	-0.348	0.549
-449.924	345.299	0.100	-0.197
-448.909	800.000	-0.246	0.706
-447.895	-143.725	0.656	-0.062
-446.880	278.204	0.211	0.375
-445.865	279.011	-0.335	-0.597
-444.851	-83.801	0.280	-0.089
-443.836	-88.214	-0.591	0.177
-442.822	-27.370	-0.171	-0.099
-441.807	-200.000	-0.007	-0.386
-440.792	-200.000	0.056	1.039
-439.778	-200.000	-0.032	-0.160
-438.763	800.000	0.116	0.507
-437.749	-200.000	-0.053	-0.470
-436.734	-189.220	-0.997	0.012
-435.719	-200.000	-0.011	0.236
-434.705	17.716	0.207	0.164
-433.690	-149.471	0.855	0.068
-432.676	-200.000	-0.059	0.544
-431.661	5.243	0.233	-0.171
-430.646	-200.000	-0.034	-0.526
-429.632	-80.265	-0.622	0.208
-428.617	800.000	0.007	0.023
-427.603	260.576	0.336	-0.580
-426.588	-66.671	-0.096	0.038
-425.573	-200.000	0.081	0.614
-424.559	-198.198	-0.377	-0.002
-423.544	558.412	0.101	0.243
-422.530	181.560	-0.327	0.480
-421.515	173.563	0.230	0.331
-420.500	-200.000	-0.568	0.002
-419.486	-65.798	0.934	0.373
-418.471	-200.000	-0.136	0.000
-417.457	137.913	-0.282	-0.368
-416.442	502.778	-0.059	0.135
-415.428	148.992	0.354	0.477
-414.413	494.282	0.090	0.206
-413.398	-200.000	-0.129	-0.916
-412.384	413.167	0.116	0.247
-411.369	225.524	-0.309	-0.499
-410.355	-65.932	-0.248	0.099
-409.340	683.374	-0.399	-1.036
-408.325	-200.000	0.017	0.295
-407.311	800.000	0.317	-0.998
-406.296	-200.000	-0.065	0.491
-405.282	-91.618	-0.623	-0.177
-404.267	-16.499	0.584	-0.369
-403.252	-45.988	0.618	0.303
-402.238	36.350	0.350	-0.308
-401.223	-4.604	-0.964	0.663
-400.209	381.583	-0.055	-0.112
-399.194	-52.687	0.276	-0.127
-398.179	-200.000	-0.055	-0.368
-397.165	-200.000	0.073	0.949
-396.150	800.000	0.113	0.429
-395.136	800.000	-0.157	0.608
-394.121	-200.000	-0.097	0.590
-393.106	-17.691	-0.666	0.417
-392.092	-85.786	0.142	-0.044
-391.077	41.133	-0.395	-0.355
-390.063	216.093	0.552	0.873
-389.048	-200.000	0.145	0.653
-388.033	-39.910	-0.424	-0.220
-387.019	800.000	-0.154	-0.629
-386.004	126.578	0.584	0.736
-384.990	-106.957	0.785	0.173
-383.975	-200.000	-0.050	-0.925
-382.960	145.386	-0.167	-0.222
-381.946	-151.870	0.527	0.038
-380.931	-200.000	-0.068	-0.594
-379.917	800.000	-0.159	0.680
-378.902	-98.196	-0.115	-0.029
-377.888	-200.000	0.141	-0.699
-376.873	-43.476	-0.436	0.219
-375.858	18.445	0.205	0.163
-374.844	8.763	-0.873	0.655
-373.829	8.804	-0.631	-0.474
-372.815	422.881	-0.002	-0.003
-371.800	272.819	-0.196	0.344
-370.785	-124.376	-0.375	-0.058
-369.771	445.558	0.253	-0.554
-368.756	654.890	0.221	0.564
-367.742	-159.571	-0.472	-0.026
-366.727	-200.000	0.013	-1.014
-365.712	379.747	0.463	-0.944
-364.698	-159.267	-0.873	-0.049
-363.683	724.317	-0.232	0.615
-362.669	-200.000	0.004	-0.472
-361.654	683.270	0.219	-0.568
-360.639	474.066	0.147	-0.329
-359.625	-36.397	-0.646	0.346
-358.610	155.252	-0.117	0.160
-357.596	38.696	-0.984	-0.873
-356.581	-33.806	0.697	0.382
-355.566	231.114	0.424	0.691
-354.552	213.220	-0.379	0.595
-353.537	-23.591	-0.315	0.188
-352.523	572.435	-0.044	0.107
-351.508	370.354	-0.181	0.365
-350.493	-153.065	0.719	-0.050
-349.479	307.328	0.373	-0.690
-348.464	22.450	0.249	0.202
-347.450	689.170	0.165	-0.430
-346.435	350.588	-0.325	0.639
-345.420	-118.631	-0.209	0.037
-344.406	-84.882	-0.858	0.268
-343.391	-96.266	-0.283	0.075
-342.377	-146.289	0.478	-0.042
-341.362	-146.081	-0.572	0.050
-340.348	-85.070	0.862	-0.268
-339.333	-55.665	0.632	-0.281
-338.318	5.164	-0.160	-0.117
-337.304	207.426	0.176	-0.273
-336.289	-200.000	-0.074	-0.652
-335.275	-141.193	-0.539	-0.055
-334.260	-108.309	-0.840	-0.180
-333.245	-200.000	-0.129	-0.780
-332.231	113.527	0.325	-0.392
-331.216	-124.031	-0.203	-0.032
-330.202	800.000	-0.034	-0.135
-329.187	187.883	-0.612	-0.907
-328.172	25.826	-0.542	-0.448
-327.158	-127.335	-0.793	-0.115
-326.143	-28.254	0.650	-0.373
-325.129	-41.854	-0.135	-0.069
-324.114	-68.740	0.248	0.095
-323.099	-57.319	-0.455	-0.199
-322.085	-3.591	0.496	0.343
-321.070	-135.532	-0.519	0.061
-320.056	35.769	-0.566	-0.494
-319.041	645.449	-0.214	-0.542
-318.026	-90.725	-0.866	0.248
-317.012	-200.000	-0.053	-1.043
-315.997	-200.000	-0.069	0.757
-314.983	16.800	-0.382	-0.300
-313.968	800.000	0.278	0.779
-312.953	244.879	0.514	0.857
-311.939	211.320	-0.052	0.082
-310.924	-200.000	-0.006	-0.213
-309.910	125.387	0.265	-0.332
-308.895	-115.776	0.340	0.063
-307.880	-169.571	0.790	-0.029
-306.866	53.754	-0.576	0.549
-305.851	245.388	0.185	0.309
-304.837	485.266	-0.368	-0.833
-303.822	-200.000	0.003	0.350
-302.807	-88.775	1.101	-0.325
-301.793	402.574	0.553	1.153
-300.778	-1.463	1.071	-0.749
-299.764	221.487	-0.070	0.111
-298.749	34.634	-0.128	-0.111
-297.735	46.078	0.127	-0.116
-296.720	85.278	0.170	0.185
-295.705	53.719	-0.896	-0.853
-294.691	-71.509	1.459	-0.541
-293.676	-43.460	-0.725	0.363
-292.662	-200.000	0.012	0.260
-291.647	233.256	-0.146	0.238
-290.632	55.314	0.645	0.618
-289.618	-200.000	0.005	0.541
-288.603	-57.269	-0.627	0.273
-287.589	-85.609	0.443	-0.136
-286.574	-200.000	-0.022	-0.419
-285.559	800.000	-0.101	-0.387
-284.545	-0.266	0.384	0.271
-283.530	-103.227	0.128	0.030
-282.516	-200.000	-0.969	0.002
-281.501	284.660	-0.276	0.493
-280.486	-151.655	-0.470	-0.034
-279.472	800.000	-0.100	0.405
-278.457	294.930	0.154	0.279
-277.443	-200.000	-0.028	-0.378
-276.428	800.000	-0.080	0.235
-275.413	-33.921	-0.759	0.414
-274.399	586.173	-0.102	-0.249
-273.384	-119.506	-0.320	-0.055
-272.370	-100.957	-0.068	0.017
-271.355	-36.582	0.328	0.175
-270.340	-50.559	-1.144	-0.535
-269.326	375.121	0.318	-0.643
-268.311	-200.000	0.090	0.412
-267.297	246.291	0.298	0.497
-266.282	-200.000	0.059	-0.270
-265.267	45.194	-0.104	-0.095
-264.253	-98.847	-0.293	-0.074
-263.238	-58.514	-0.315	-0.136
-262.224	-200.000	0.095	-0.423
-261.209	44.588	0.969	-0.882
-260.195	-200.000	-0.059	-0.609
-259.180	116.495	-0.618	0.750
-258.165	25.437	-0.628	0.517
-257.151	799.109	0.303	-0.829
-256.136	-200.000	-0.056	0.301
-255.122	-200.000	-0.812	-0.001
-254.107	-87.581	0.839	-0.251
-253.092	257.944	0.156	0.266
-252.078	-19.476	-0.689	-0.423
-251.063	740.053	-0.168	-0.447
-250.049	3.610	0.061	-0.044
-249.034	14.916	-0.505	-0.392
-248.019	-23.859	0.592	-0.351
-247.005	771.344	-0.146	0.395
-245.990	141.967	0.537	-0.705
-244.976	189.213	0.266	-0.395
-243.961	-137.748	0.326	-0.036
-242.946	-160.676	-1.023	-0.054
-241.932	165.336	-0.257	-0.359
-240.917	0.105	0.093	0.066
-239.903	-19.683	-0.522	0.319
-238.888	-200.000	0.019	-0.177
-237.873	-200.000	0.034	-0.628
-236.859	4.491	-0.435	-0.316
-235.844	281.329	-0.222	-0.394
-234.830	-157.379	0.398	0.024
-233.815	800.000	-0.168	0.475
-232.800	-92.664	-0.107	-0.030
-231.786	150.122	-0.247	0.331
-230.771	344.214	0.391	0.758
-229.757	569.736	-0.123	0.297
-228.742	800.000	-0.147	-0.435
-227.727	-200.000	0.308	-0.001
-226.713	26.284	0.269	-0.223
-225.698	241.907	0.216	0.357
-224.684	205.477	-0.344	0.529
-223.669	-200.000	-0.052	-0.849
-222.655	-200.000	-0.004	-0.856
-221.640	224.866	0.263	-0.420
-220.625	-125.745	0.825	0.123
-219.611	313.970	0.308	-0.574
-218.596	453.667	0.194	-0.425
-217.582	-126.529	0.912	-0.134
-216.567	-48.090	-0.419	0.200
-215.552	-119.166	-0.631	0.109
-214.538	535.642	-0.219	-0.514
-213.523	-200.000	0.067	0.385
-212.509	-170.221	0.486	-0.017
-211.494	-2.942	-0.501	0.346
-210.479	338.139	0.481	0.926
-209.465	-115.682	0.576	0.107
-208.450	544.304	-0.124	0.293
-207.436	178.632	-0.373	-0.538
-206.421	-200.000	-0.008	-0.699
-205.406	-107.589	-0.641	-0.139
-204.392	-58.146	-0.648	0.279
-203.377	-84.843	0.684	-0.212
-202.363	-38.228	0.783	0.410
-201.348	-72.679	-0.231	0.084
-200.333	-132.606	0.766	0.097
-199.319	800.000	0.223	-0.670
-198.304	-97.777	-0.215	-0.055
-197.290	136.981	0.890	-1.150
-196.275	390.230	-0.063	-0.129
-195.260	307.873	-0.324	-0.597
-194.246	-200.000	-0.117	-0.778
-193.231	601.199	0.291	0.715
-192.217	-125.572	0.923	0.138
-191.202	-200.000	-0.019	0.242
-190.187	74.433	0.777	0.807
-189.173	58.269	0.157	0.152
-188.158	95.952	-0.737	-0.832
-187.144	-200.000	0.022	0.170
-186.129	3.347	-0.311	-0.224
-185.114	-16.723	0.488	-0.305
-184.100	74.539	-0.239	-0.248
-183.085	-139.857	-0.598	-0.063
-182.071	48.873	-0.606	-0.562
-181.056	-200.000	-0.058	0.272
-180.042	298.448	0.260	0.472
-179.027	389.045	0.154	0.316
-178.012	-152.525	-0.626	0.044
-176.998	150.917	0.800	1.074
-175.983	402.156	-0.059	-0.123
-174.969	-113.026	-0.821	0.160
-173.954	-120.348	0.655	-0.110
-172.939	-77.328	0.791	-0.272
-171.925	-56.082	0.094	-0.041
-170.910	255.056	-0.047	0.080
-169.896	-200.000	0.024	0.133
-168.881	613.336	0.158	0.389
-167.866	-200.000	-0.033	-0.678
-166.852	286.480	-0.348	0.620
-165.837	-101.281	-0.704	-0.170
-164.823	-147.877	-0.101	-0.008
-163.808	-165.488	1.031	-0.044
-162.793	-171.201	0.737	-0.025
-161.779	91.723	0.430	0.477
-160.764	-54.941	0.115	0.051
-159.750	-107.016	0.704	-0.154
-158.735	-108.636	0.672	-0.142
-157.720	-200.000	0.219	-1.156
-156.706	-111.634	-0.607	0.121
-155.691	32.805	-0.276	0.235
-154.677	-29.620	-0.444	0.250
-153.662	67.418	-0.198	0.200
-152.647	-91.765	-0.676	0.190
-151.633	-76.228	-0.692	0.241
-150.618	-200.000	0.025	-0.279
-149.604	800.000	-0.411	1.184
-148.589	-20.292	-0.912	0.554
-147.574	472.342	0.183	-0.407
-146.560	761.802	0.057	-0.152
-145.545	-162.964	0.485	0.023
-144.531	-113.315	-0.381	0.074
-143.516	272.364	0.242	-0.421
-142.502	320.867	-0.740	-1.386
-141.487	51.456	-0.516	0.483
-140.472	109.507	0.657	0.776
-139.458	-136.482	-0.553	0.063
-138.443	487.579	0.297	0.669
-137.429	-79.774	-0.186	-0.062
-136.414	-86.876	-0.675	0.203
-135.399	-200.000	-0.039	1.071
-134.385	287.867	0.179	-0.320
-133.370	188.730	0.180	-0.265
-132.356	298.247	-0.196	0.355
-131.341	-103.240	0.681	-0.159
-130.326	800.000	-0.115	-0.430
-129.312	265.656	0.150	0.258
-128.297	19.279	0.659	0.522
-127.283	-175.093	-0.117	-0.003
-126.268	-200.000	0.026	1.266
-125.253	-100.047	0.359	0.088
-124.239	165.217	-0.370	0.515
-123.224	396.174	-0.088	0.181
-122.210	-200.000	-0.031	-0.571
-121.195	-91.956	1.098	-0.307
