DTS Sentinel unit serial number:	SN413079Multiplexer serial number:	ORYXHardware model number:	OX4-SRSoftware version number:	ORYX F/W v4.00 Oryx Data Collector v3.7.2.0data status	okinstallation	princeton_trtdifferential loss correction	single-endedforward channel	channel 3reverse channel	N/Adate	2019/09/18time	10:52:34forward acquisition time	60.00reverse acquisition time	0.00gamma	496.2192k internal	0.2327k external	0.2327temperature offset calibration	0.9953default loss term (dB/km)	0.3790temperature slope calibration	1.0000multiplexer offset coefficient	1.0000multiplexer slope coefficient	1.0000fibre end	0.00T internal ref (°C)	29.06T ext. ref 1 (°C)	0.38T ext. ref 2 (°C)	25.34length (m)	temperature (°C)	Stokes	anti-Stokes-747.200	-131.466	0.145	0.019
-746.185	-147.999	0.185	0.016
-745.171	-66.462	-0.302	-0.121
-744.156	-126.780	-0.033	0.005
-743.142	154.788	-0.142	-0.197
-742.127	109.002	-0.138	-0.167
-741.112	800.000	0.090	-0.319
-740.098	800.000	-0.061	0.223
-739.083	800.000	-0.126	0.413
-738.069	124.385	-0.237	0.300
-737.054	-200.000	0.020	-0.101
-736.039	-200.000	-0.045	0.304
-735.025	366.885	-0.047	-0.095
-734.010	29.449	-0.148	-0.127
-732.996	-117.198	-0.121	-0.022
-731.981	-146.683	-0.225	-0.020
-730.966	288.815	-0.115	-0.210
-729.952	-103.231	-0.257	0.061
-728.937	-146.317	-0.437	-0.039
-727.923	800.000	-0.039	0.159
-726.908	800.000	-0.086	0.267
-725.894	-51.869	0.097	0.046
-724.879	800.000	0.119	-0.361
-723.864	30.989	-0.202	0.175
-722.850	412.731	-0.153	0.327
-721.835	-142.035	0.145	0.014
-720.821	-73.657	0.158	0.058
-719.806	55.280	-0.140	-0.136
-718.791	345.303	0.063	-0.126
-717.777	800.000	-0.050	-0.190
-716.762	-6.243	-0.268	-0.184
-715.748	-134.173	-0.052	-0.006
-714.733	-120.951	0.164	-0.028
-713.718	-24.010	-0.300	0.181
-712.704	-47.053	0.220	-0.108
-711.689	183.742	-0.120	-0.179
-710.675	-36.486	-0.237	-0.128
-709.660	29.939	0.180	-0.154
-708.645	-200.000	-0.031	0.189
-707.631	26.296	0.202	0.170
-706.616	-34.676	-0.115	-0.063
-705.602	337.360	0.086	0.168
-704.587	221.770	0.163	-0.264
-703.572	737.740	-0.104	-0.281
-702.558	7.648	-0.134	0.101
-701.543	445.892	-0.093	-0.206
-700.529	-200.000	-0.006	0.027
-699.514	94.938	0.107	0.123
-698.499	-200.000	0.000	-0.133
-697.485	-114.902	-0.643	0.123
-696.470	16.165	0.094	-0.074
-695.456	-54.824	-0.272	-0.124
-694.441	-149.769	0.082	0.006
-693.426	-49.300	0.076	0.036
-692.412	-200.000	0.051	0.312
-691.397	-200.000	0.027	-0.263
-690.383	32.952	0.207	0.180
-689.368	-66.629	0.180	0.072
-688.354	-48.234	-0.075	-0.036
-687.339	-200.000	-0.024	0.217
-686.324	-200.000	-0.021	0.413
-685.310	-200.000	0.005	-0.144
-684.295	474.533	-0.134	-0.303
-683.281	218.283	-0.149	-0.240
-682.266	-100.777	0.222	-0.055
-681.251	22.397	0.230	-0.189
-680.237	21.110	-0.219	-0.179
-679.222	800.000	-0.023	0.084
-678.208	136.321	0.092	0.121
-677.193	-200.000	0.212	0.000
-676.178	-69.919	-0.113	-0.043
-675.164	4.935	-0.291	-0.216
-674.149	-200.000	-0.008	0.083
-673.135	50.421	0.113	0.107
-672.120	60.747	-0.313	-0.312
-671.105	-200.000	0.017	0.322
-670.091	-77.526	0.164	0.057
-669.076	800.000	-0.083	0.258
-668.062	-68.456	-0.071	0.028
-667.047	494.249	-0.088	-0.203
-666.032	536.791	-0.195	0.465
-665.018	-106.498	-0.335	0.075
-664.003	-12.118	-0.168	0.110
-662.989	-200.000	-0.058	0.351
-661.974	39.355	0.030	0.027
-660.959	-200.000	0.000	-0.144
-659.945	25.147	0.098	0.081
-658.930	39.066	0.110	-0.099
-657.916	-7.409	-0.195	-0.133
-656.901	256.584	-0.126	-0.217
-655.886	92.266	0.105	0.119
-654.872	800.000	-0.058	0.227
-653.857	40.230	0.118	-0.106
-652.843	9.570	-0.287	-0.218
-651.828	22.395	0.172	0.141
-650.814	-200.000	0.010	-0.245
-649.799	73.662	-0.116	-0.122
-648.784	-200.000	-0.043	-0.232
-647.770	474.011	0.153	-0.347
-646.755	-122.777	-0.165	-0.027
-645.741	38.545	0.191	-0.171
-644.726	-168.460	0.176	0.007
-643.711	-109.601	0.299	-0.063
-642.697	-52.809	-0.214	0.099
-641.682	95.840	-0.246	-0.282
-640.668	175.123	0.196	-0.285
-639.653	-200.000	0.039	-0.258
-638.638	-153.160	-0.168	0.012
-637.624	154.705	-0.226	-0.312
-636.609	-39.895	-0.061	-0.032
-635.595	47.798	-0.101	0.094
-634.580	-33.132	-0.400	0.223
-633.565	-200.000	0.037	-0.242
-632.551	106.889	0.105	-0.125
-631.536	-18.745	-0.111	-0.070
-630.522	800.000	0.059	0.213
-629.507	-106.876	-0.396	-0.088
-628.492	180.784	0.096	0.141
-627.478	800.000	-0.057	0.178
-626.463	191.400	0.109	0.165
-625.449	36.744	0.200	-0.177
-624.434	800.000	0.057	-0.161
-623.419	-200.000	-0.037	-0.228
-622.405	616.003	0.062	0.156
-621.390	56.823	-0.088	0.086
-620.376	-54.300	0.031	0.014
-619.361	-12.015	0.321	0.211
-618.346	152.470	0.165	0.226
-617.332	-165.917	-0.363	-0.016
-616.317	173.180	-0.073	-0.106
-615.303	667.442	0.117	-0.304
-614.288	381.420	0.147	0.303
-613.273	51.514	0.273	0.260
-612.259	-36.930	-0.178	-0.096
-611.244	-114.426	-0.203	-0.039
-610.230	800.000	0.065	0.216
-609.215	800.000	0.048	-0.158
-608.201	153.323	0.028	-0.039
-607.186	-19.532	-0.020	-0.013
-606.171	-134.773	0.120	-0.015
-605.157	-149.071	0.158	0.013
-604.142	-31.179	-0.430	-0.243
-603.128	-51.480	-0.208	0.098
-602.113	-24.812	0.182	-0.108
-601.098	25.865	-0.054	-0.045
-600.084	104.952	0.118	-0.139
-599.069	-27.645	-0.382	-0.222
-598.055	800.000	0.097	0.302
-597.040	510.883	0.062	0.144
-596.025	-128.489	0.109	-0.015
-595.011	-99.644	0.151	0.038
-593.996	771.324	-0.119	-0.325
-592.982	-147.080	0.012	0.001
-591.967	-56.578	0.179	0.080
-590.952	-101.483	0.205	0.050
-589.938	368.575	-0.056	-0.113
-588.923	800.000	0.051	0.145
-587.909	59.195	-0.297	0.293
-586.894	800.000	0.043	-0.144
-585.879	476.610	0.071	-0.162
-584.865	779.030	-0.113	0.309
-583.850	-22.638	0.454	0.275
-582.836	800.000	0.044	-0.173
-581.821	595.263	0.157	0.389
-580.806	-117.195	-0.333	0.061
-579.792	-200.000	-0.010	-0.278
-578.777	-200.000	0.027	-0.138
-577.763	385.906	-0.044	-0.091
-576.748	-101.107	-0.279	0.068
-575.733	4.486	-0.224	0.164
-574.719	272.409	-0.103	-0.183
-573.704	277.539	0.192	-0.342
-572.690	-200.000	-0.047	-0.221
-571.675	-110.950	-0.256	0.053
-570.661	147.980	0.113	0.152
-569.646	-162.567	-0.275	0.014
-568.631	-23.304	-0.416	-0.251
-567.617	456.591	0.108	0.240
-566.602	-141.609	0.145	0.015
-565.588	51.181	0.151	-0.144
-564.573	-125.554	0.178	0.027
-563.558	1.447	-0.178	-0.128
-562.544	35.325	-0.222	-0.195
-561.529	-149.615	-0.140	0.011
-560.515	-116.299	0.147	-0.027
-559.500	105.450	0.078	-0.092
-558.485	-26.918	-0.042	0.025
-557.471	-106.157	-0.097	-0.022
-556.456	42.371	0.268	-0.243
-555.442	-5.870	0.135	-0.093
-554.427	800.000	0.070	0.217
-553.412	-144.422	-0.159	0.015
-552.398	800.000	0.015	-0.063
-551.383	194.072	0.090	0.137
-550.369	553.530	-0.139	-0.334
-549.354	70.775	-0.046	0.047
-548.339	123.826	-0.115	-0.144
-547.325	800.000	-0.014	-0.041
-546.310	800.000	0.051	-0.144
-545.296	-135.367	0.158	-0.019
-544.281	-42.150	-0.092	0.047
-543.266	800.000	0.016	0.065
-542.252	-200.000	-0.017	0.193
-541.237	-77.637	-0.183	-0.064
-540.223	-14.128	0.202	0.130
-539.208	-5.965	-0.282	-0.193
-538.193	366.198	-0.024	-0.049
-537.179	-176.035	-0.189	0.005
-536.164	800.000	0.082	0.321
-535.150	-64.867	-0.197	-0.080
-534.135	41.023	0.053	0.048
-533.121	244.964	-0.073	-0.122
-532.106	-137.073	0.217	-0.025
-531.091	800.000	-0.106	-0.383
-530.077	-156.506	0.266	0.017
-529.062	-69.696	-0.115	0.044
-528.048	1.570	0.072	-0.052
-527.033	-200.000	-0.032	0.363
-526.018	-49.295	0.167	0.080
-525.004	-200.000	-0.032	-0.199
-523.989	-107.113	0.240	-0.053
-522.975	-200.000	0.025	-0.216
-521.960	60.917	-0.097	0.096
-520.945	18.194	-0.283	0.225
-519.931	800.000	-0.028	-0.121
-518.916	79.014	0.106	-0.113
-517.902	-161.562	-0.530	-0.027
-516.887	-136.655	-0.086	0.010
-515.872	-200.000	-0.005	-0.046
-514.858	320.213	0.089	-0.168
-513.843	167.444	-0.041	0.058
-512.829	800.000	0.089	0.250
-511.814	-157.852	-0.112	0.007
-510.799	55.562	-0.228	0.220
-509.785	20.684	-0.062	-0.050
-508.770	16.262	-0.135	-0.106
-507.756	-200.000	-0.012	0.105
-506.741	296.707	-0.186	0.341
-505.726	786.690	0.043	0.118
-504.712	-62.671	-0.319	-0.132
-503.697	-200.000	-0.005	-0.148
-502.683	-97.150	-0.100	-0.026
-501.668	-38.570	-0.600	-0.317
-500.653	-200.000	0.033	-0.160
-499.639	-69.929	0.389	0.148
-498.624	-129.360	-0.215	-0.030
-497.610	800.000	0.062	0.269
-496.595	-6.023	-0.103	-0.071
-495.581	161.365	-0.178	-0.248
-494.566	48.895	-0.101	0.095
-493.551	-200.000	0.033	0.202
-492.537	-200.000	0.006	0.192
-491.522	-80.245	-0.036	-0.012
-490.508	-78.244	-0.286	0.098
-489.493	39.722	-0.019	0.017
-488.478	800.000	-0.033	0.142
-487.464	800.000	0.105	-0.313
-486.449	534.434	0.121	-0.286
-485.435	-78.267	-0.275	-0.094
-484.420	-93.221	-0.255	0.071
-483.405	142.303	0.110	0.146
-482.391	229.616	0.085	-0.139
-481.376	-200.000	-0.040	-0.348
-480.362	-200.000	-0.004	-0.088
-479.347	-87.932	0.106	0.032
-478.332	800.000	-0.046	-0.166
-477.318	348.872	-0.170	0.335
-476.303	-33.592	0.043	-0.023
-475.289	341.739	0.124	-0.241
-474.274	-114.099	-0.218	-0.042
-473.259	-200.000	0.004	0.271
-472.245	27.137	0.119	0.100
-471.230	34.742	-0.125	-0.109
-470.216	-200.000	-0.015	-0.171
-469.201	-60.331	-0.144	0.061
-468.186	-200.000	-0.022	0.462
-467.172	118.626	0.063	0.078
-466.157	-61.034	0.127	0.053
-465.143	15.203	0.156	-0.122
-464.128	185.671	-0.155	-0.230
-463.113	184.226	0.258	-0.382
-462.099	277.355	0.082	-0.145
-461.084	127.806	0.205	0.260
-460.070	211.761	-0.140	0.220
-459.055	-83.475	0.406	0.130
-458.040	-200.000	0.022	0.146
-457.026	-200.000	-0.000	-0.140
-456.011	-76.821	-0.419	0.146
-454.997	736.871	0.100	-0.266
-453.982	-24.552	0.193	-0.115
-452.968	81.452	-0.239	0.258
-451.953	-76.117	0.036	-0.013
-450.938	-200.000	0.045	0.384
-449.924	152.109	-0.102	0.139
-448.909	59.037	0.224	-0.220
-447.895	-70.716	-0.266	-0.100
-446.880	206.734	-0.152	0.236
-445.865	264.333	0.202	-0.350
-444.851	115.606	-0.261	-0.319
-443.836	-128.878	0.177	-0.025
-442.822	-84.707	-0.483	0.151
-441.807	-92.401	0.346	0.097
-440.792	-200.000	-0.020	-0.150
-439.778	55.345	-0.202	-0.195
-438.763	800.000	-0.071	0.228
-437.749	-200.000	0.016	-0.094
-436.734	-33.029	0.266	0.147
-435.719	603.230	0.075	0.185
-434.705	-94.105	-0.130	0.035
-433.690	136.252	0.116	0.151
-432.676	-97.790	0.249	-0.064
-431.661	-123.739	0.145	0.023
-430.646	-200.000	-0.019	-0.091
-429.632	-200.000	0.030	-0.326
-428.617	-102.944	0.338	0.080
-427.603	-41.437	-0.271	-0.139
-426.588	-200.000	0.004	-0.023
-425.573	-104.154	0.123	0.029
-424.559	168.408	0.062	-0.088
-423.544	159.907	0.094	0.131
-422.530	619.730	-0.095	-0.238
-421.515	152.059	-0.111	-0.151
-420.500	62.014	-0.167	0.166
-419.486	-25.454	0.172	-0.101
-418.471	-108.219	0.129	-0.028
-417.457	45.104	-0.090	-0.083
-416.442	247.271	-0.191	0.322
-415.428	-43.897	-0.204	-0.102
-414.413	112.610	-0.074	0.089
-413.398	35.859	0.106	-0.093
-412.384	172.352	0.131	0.187
-411.369	-200.000	0.026	0.467
-410.355	-98.885	-0.230	-0.058
-409.340	-113.985	0.583	-0.113
-408.325	-68.371	-0.089	0.035
-407.311	-120.235	0.114	0.019
-406.296	800.000	0.132	-0.416
-405.282	541.376	0.069	-0.165
-404.267	-3.942	0.289	0.199
-403.252	-166.272	0.070	0.003
-402.238	410.925	0.053	0.111
-401.223	-86.153	-0.087	0.027
-400.209	158.414	-0.163	-0.224
-399.194	800.000	0.023	0.079
-398.179	-200.000	0.045	-0.230
-397.165	-151.748	0.116	-0.008
-396.150	-186.458	-0.169	-0.002
-395.136	81.330	-0.117	0.126
-394.121	-149.216	0.199	0.016
-393.106	-40.363	0.171	-0.089
-392.092	-122.816	0.180	0.029
-391.077	-141.668	-0.134	-0.013
-390.063	64.881	0.234	0.235
-389.048	299.301	0.139	0.254
-388.033	-84.834	-0.049	-0.015
-387.019	-182.267	0.154	-0.003
-386.004	477.410	0.063	-0.142
-384.990	-92.887	0.378	0.105
-383.975	794.138	-0.121	-0.332
-382.960	-200.000	0.002	-0.316
-381.946	-200.000	-0.089	-0.436
-380.931	-37.685	-0.297	0.157
-379.917	299.336	0.076	-0.140
-378.902	-200.000	0.008	0.112
-377.888	224.808	-0.024	-0.038
-376.873	-67.469	0.187	-0.073
-375.858	445.427	-0.026	0.057
-374.844	-16.017	0.323	-0.204
-373.829	-178.952	0.213	-0.005
-372.815	-76.126	0.157	-0.055
-371.800	-200.000	-0.054	-0.390
-370.785	681.750	0.100	-0.258
-369.771	-200.000	-0.005	0.121
-368.756	63.073	-0.089	0.088
-367.742	-164.179	-0.308	-0.014
-366.727	31.370	0.304	0.259
-365.712	-135.226	-0.311	0.037
-364.698	86.079	-0.099	-0.109
-363.683	800.000	0.046	-0.169
-362.669	-200.000	-0.389	0.000
-361.654	-153.579	0.377	-0.026
-360.639	800.000	0.036	-0.156
-359.625	800.000	0.040	0.165
-358.610	6.239	0.232	0.171
-357.596	-12.826	-0.224	-0.145
-356.581	-87.647	0.090	0.027
-355.566	468.549	0.074	0.165
-354.552	4.173	-0.132	0.096
-353.537	-123.027	-0.325	-0.052
-352.523	-109.754	0.414	0.086
-351.508	800.000	0.091	-0.263
-350.493	629.098	0.102	0.256
-349.479	-51.750	-0.132	0.061
-348.464	-45.133	0.043	-0.021
-347.450	-200.000	-0.039	-0.497
-346.435	-146.118	-0.564	0.049
-345.420	-68.741	-0.051	0.020
-344.406	-59.972	0.305	-0.129
-343.391	164.872	-0.137	0.192
-342.377	-39.453	0.139	0.072
-341.362	-99.915	0.085	0.021
-340.348	59.523	-0.089	0.087
-339.333	-122.598	0.150	0.024
-338.318	-112.178	-0.263	0.052
-337.304	-24.306	0.206	-0.122
-336.289	106.335	0.161	-0.189
-335.275	235.340	0.057	0.093
-334.260	-109.471	-0.021	0.004
-333.245	-7.025	-0.030	-0.020
-332.231	800.000	0.083	-0.245
-331.216	-91.241	-0.276	-0.078
-330.202	91.107	0.180	0.200
-329.187	800.000	-0.093	-0.298
-328.172	19.549	-0.040	0.032
-327.158	28.328	0.150	-0.126
-326.143	-110.399	0.398	-0.082
-325.129	-102.878	0.163	-0.038
-324.114	45.381	0.111	0.102
-323.099	698.463	0.098	0.255
-322.085	-133.196	-0.298	0.037
-321.070	93.069	0.110	0.124
-320.056	279.235	0.142	-0.251
-319.041	800.000	-0.009	0.029
-318.026	461.042	-0.109	-0.240
-317.012	-179.004	0.287	-0.006
-315.997	-53.375	0.256	-0.116
-314.983	-59.311	-0.243	0.103
-313.968	25.137	0.189	-0.156
-312.953	38.335	-0.122	-0.108
-311.939	15.845	0.042	0.032
-310.924	111.719	-0.211	-0.253
-309.910	183.031	-0.078	0.115
-308.895	115.495	-0.144	-0.175
-307.880	487.747	-0.102	0.231
-306.866	742.857	0.058	-0.153
-305.851	-69.241	0.303	-0.115
-304.837	15.999	0.111	-0.087
-303.822	-200.000	0.006	-0.106
-302.807	800.000	0.103	0.389
-301.793	-9.375	0.388	-0.257
-300.778	-200.000	0.001	0.288
-299.764	18.226	-0.096	0.076
-298.749	64.215	0.139	-0.139
-297.735	-125.523	-0.174	-0.026
-296.720	309.209	-0.050	0.092
-295.705	-46.182	0.245	0.120
-294.691	-79.840	0.233	0.078
-293.676	211.313	-0.191	0.297
-292.662	166.175	-0.106	0.149
-291.647	-109.027	0.199	0.042
-290.632	-152.252	-0.311	-0.022
-289.618	-167.197	-0.079	-0.003
-288.603	-200.000	-0.011	0.275
-287.589	800.000	0.080	0.288
-286.574	50.411	-0.108	0.101
-285.559	-44.111	-0.210	-0.105
-284.545	-123.431	0.225	0.036
-283.530	136.195	-0.251	0.324
-282.516	800.000	0.106	0.439
-281.501	-119.319	0.424	-0.073
-280.486	36.984	0.038	-0.033
-279.472	-25.916	-0.231	-0.134
-278.457	-174.916	0.207	0.006
-277.443	-58.020	0.262	0.113
-276.428	46.729	-0.115	0.106
-275.413	187.164	-0.155	-0.229
-274.399	-80.727	-0.127	0.042
-273.384	-200.000	-0.040	0.214
-272.370	-49.634	0.111	-0.052
-271.355	-200.000	0.031	-0.349
-270.340	135.644	-0.180	0.232
-269.326	-64.140	0.095	-0.038
-268.311	605.545	0.133	0.327
-267.297	-13.300	-0.277	0.178
-266.282	348.251	-0.166	0.324
-265.267	-78.060	-0.170	0.058
-264.253	-135.001	-0.340	0.041
-263.238	-87.000	0.300	0.091
-262.224	-200.000	0.003	0.216
-261.209	22.576	-0.099	0.080
-260.195	72.586	0.186	0.192
-259.180	307.300	-0.114	-0.210
-258.165	-83.270	-0.071	-0.023
-257.151	-200.000	0.014	0.126
-256.136	47.719	0.118	0.109
-255.122	-165.014	0.413	0.018
-254.107	-178.683	0.126	-0.003
-253.092	-200.000	0.005	-0.119
-252.078	-72.838	0.087	-0.032
-251.063	187.932	0.096	-0.141
-250.049	628.350	0.084	-0.209
-249.034	-50.599	-0.147	0.068
-248.019	-14.090	0.116	0.074
-247.005	-50.557	-0.068	-0.032
-245.990	-200.000	0.019	-0.089
-244.976	800.000	-0.026	-0.106
-243.961	-200.000	-0.061	0.374
-242.946	434.014	0.048	0.104
-241.932	-87.847	0.192	-0.057
-240.917	344.673	-0.130	0.253
-239.903	-156.460	-0.141	0.009
-238.888	-15.329	-0.062	0.039
-237.873	337.508	0.125	0.239
-236.859	800.000	-0.053	0.171
-235.844	-57.346	0.378	0.164
-234.830	-10.605	-0.148	0.097
-233.815	800.000	0.041	-0.155
-232.800	-79.994	-0.241	-0.080
-231.786	-34.936	0.166	-0.089
-230.771	-117.452	0.424	0.076
-229.757	35.261	-0.150	-0.130
-228.742	126.484	-0.045	-0.056
-227.727	-45.380	0.181	-0.089
-226.713	-34.955	-0.155	0.084
-225.698	512.320	-0.090	-0.208
-224.684	323.079	-0.075	-0.141
-223.669	222.637	0.122	-0.193
-222.655	92.705	0.260	-0.290
-221.640	-200.000	-0.017	-0.323
-220.625	800.000	0.038	-0.108
-219.611	376.736	0.077	-0.155
-218.596	-151.796	0.154	-0.011
-217.582	-200.000	-0.021	0.151
-216.567	-3.301	-0.332	-0.228
-215.552	-45.299	0.063	0.031
-214.538	479.492	0.113	0.252
-213.523	204.609	-0.183	0.281
-212.509	-7.272	-0.255	-0.171
-211.494	-127.585	0.083	-0.012
-210.479	-125.969	-0.310	-0.046
-209.465	-200.000	0.045	0.202
-208.450	800.000	0.088	0.304
-207.436	7.371	-0.143	0.106
-206.421	392.707	0.092	0.189
-205.406	800.000	0.012	-0.038
-204.392	-82.050	-0.133	0.043
-203.377	800.000	0.024	0.070
-202.363	15.373	0.176	0.136
-201.348	-124.223	0.163	0.025
-200.333	521.018	-0.045	0.104
-199.319	-167.177	-0.208	-0.008
-198.304	800.000	-0.059	0.163
-197.290	800.000	0.033	0.126
-196.275	693.443	0.056	0.146
-195.260	709.029	0.054	0.140
-194.246	800.000	-0.061	-0.217
-193.231	39.847	-0.133	0.118
-192.217	-56.143	-0.178	-0.078
-191.202	-68.450	-0.074	0.028
-190.187	117.477	-0.171	0.207
-189.173	470.933	-0.127	0.281
-188.158	-22.755	0.236	-0.141
-187.144	119.325	0.177	0.216
-186.129	-200.000	0.003	0.097
-185.114	35.296	-0.027	-0.024
-184.100	-6.404	0.217	-0.146
-183.085	69.214	0.180	-0.183
-182.071	-54.627	-0.040	-0.018
-181.056	31.730	0.311	0.264
-180.042	-67.677	-0.238	-0.092
-179.027	-135.259	-0.453	0.054
-178.012	-79.539	0.208	0.069
-176.998	24.951	0.247	0.202
-175.983	98.410	-0.139	-0.158
-174.969	800.000	-0.062	0.227
-173.954	-180.333	0.218	-0.004
-172.939	800.000	-0.050	0.164
-171.925	34.749	0.132	0.114
-170.910	-100.770	-0.270	0.066
-169.896	-103.929	0.175	-0.040
-168.881	34.027	0.211	0.181
-167.866	-78.065	-0.304	0.103
-166.852	-27.809	-0.311	-0.178
-165.837	22.694	-0.217	0.175
-164.823	0.242	-0.040	0.028
-163.808	-200.000	0.004	0.101
-162.793	-200.000	0.000	0.096
-161.779	-140.858	0.231	0.023
-160.764	-27.119	-0.045	-0.026
-159.750	55.208	-0.139	-0.132
-158.735	800.000	-0.076	0.258
-157.720	-200.000	0.013	0.137
-156.706	62.334	0.068	-0.067
-155.691	135.068	-0.076	-0.097
-154.677	-200.000	-0.009	0.049
-153.662	800.000	0.082	-0.274
-152.647	-157.896	-0.016	-0.001
-151.633	119.979	0.124	-0.151
-150.618	-22.728	-0.138	0.082
-149.604	84.416	0.107	-0.115
-148.589	800.000	-0.015	-0.059
-147.574	-113.129	0.293	-0.057
-146.560	118.388	-0.122	0.148
-145.545	-200.000	-0.025	-0.417
-144.531	284.849	-0.196	0.347
-143.516	-108.290	0.094	-0.020
-142.502	-142.752	-0.144	-0.014
-141.487	-75.130	0.186	0.066
-140.472	-115.321	-0.325	0.060
-139.458	800.000	0.042	-0.125
-138.443	800.000	-0.077	0.270
-137.429	800.000	0.095	0.307
-136.414	-81.432	0.122	0.039
-135.399	-200.000	-0.048	0.648
-134.385	-81.685	0.382	0.124
-133.370	120.950	-0.053	-0.064
-132.356	58.825	-0.153	0.148
-131.341	-21.984	0.148	0.089
-130.326	800.000	-0.122	0.336
-129.312	158.497	0.087	-0.118
-128.297	-107.071	-0.291	-0.063
-127.283	120.259	0.032	-0.039
-126.268	-200.000	0.009	-0.245
-125.253	-61.769	-0.131	0.054
-124.239	-74.935	0.130	-0.046
-123.224	-93.373	-0.333	0.091
-122.210	-105.899	0.253	-0.056
-121.195	157.349	-0.133	0.180
