DTS Sentinel unit serial number:	SN413079Multiplexer serial number:	ORYXHardware model number:	OX4-SRSoftware version number:	ORYX F/W v4.00 Oryx Data Collector v3.7.2.0data status	okinstallation	princeton_trtdifferential loss correction	single-endedforward channel	channel 3reverse channel	N/Adate	2019/09/13time	15:40:35forward acquisition time	60.00reverse acquisition time	0.00gamma	496.2192k internal	0.2307k external	0.2307temperature offset calibration	1.0145default loss term (dB/km)	0.3790temperature slope calibration	1.0000multiplexer offset coefficient	1.0000multiplexer slope coefficient	1.0000fibre end	0.00T internal ref (°C)	34.87T ext. ref 1 (°C)	4.76T ext. ref 2 (°C)	29.11length (m)	temperature (°C)	Stokes	anti-Stokes-747.200	20.655	0.355	0.292
-746.185	-56.529	-0.131	0.059
-745.171	62.783	0.165	0.168
-744.156	387.758	0.070	-0.147
-743.142	103.666	0.077	-0.092
-742.127	-101.932	-0.285	0.070
-741.112	-96.299	0.221	0.060
-740.098	-83.956	-0.228	-0.074
-739.083	132.872	-0.159	0.209
-738.069	-200.000	-0.051	0.499
-737.054	-154.212	-0.125	-0.009
-736.039	-110.021	-0.397	0.085
-735.025	-89.968	0.201	0.060
-734.010	123.063	-0.064	-0.082
-732.996	281.685	-0.215	-0.391
-731.981	-200.000	0.010	-0.685
-730.966	81.215	-0.072	-0.079
-729.952	20.295	-0.210	-0.172
-728.937	-200.000	-0.013	-0.326
-727.923	-94.405	-0.112	-0.031
-726.908	-107.056	-0.157	0.035
-725.894	-46.033	-0.332	-0.167
-724.879	98.174	0.283	-0.331
-723.864	432.969	0.004	-0.009
-722.850	234.394	-0.094	0.158
-721.835	121.909	-0.130	-0.165
-720.821	91.852	0.129	-0.148
-719.806	98.702	0.182	0.213
-718.791	-112.366	-0.181	0.037
-717.777	-200.000	0.034	0.168
-716.762	800.000	-0.018	-0.064
-715.748	174.285	0.170	0.249
-714.733	20.899	0.229	0.189
-713.718	-93.623	0.215	0.060
-712.704	474.627	-0.025	0.057
-711.689	-136.258	-0.092	0.011
-710.675	-59.117	-0.032	-0.014
-709.660	170.535	0.076	-0.111
-708.645	-123.135	0.241	0.039
-707.631	-29.948	-0.276	-0.159
-706.616	-46.373	-0.288	0.144
-705.602	483.297	-0.167	0.385
-704.587	392.953	0.102	-0.216
-703.572	-100.271	-0.077	0.019
-702.558	-63.135	0.450	0.188
-701.543	-36.819	0.189	0.103
-700.529	800.000	-0.077	-0.265
-699.514	510.947	0.031	0.074
-698.499	81.105	-0.285	0.312
-697.485	183.719	0.050	0.075
-696.470	60.796	-0.170	-0.171
-695.456	-17.518	-0.178	-0.114
-694.441	-121.755	0.114	0.019
-693.426	42.654	0.089	-0.082
-692.412	41.394	0.100	-0.092
-691.397	262.302	-0.217	0.381
-690.383	289.831	-0.093	0.172
-689.368	3.276	-0.170	0.126
-688.354	1.178	0.180	0.131
-687.339	29.143	0.084	-0.072
-686.324	-137.880	0.115	0.013
-685.310	800.000	-0.067	-0.218
-684.295	304.563	0.053	0.099
-683.281	800.000	0.106	-0.350
-682.266	800.000	-0.027	-0.115
-681.251	-137.254	0.392	0.045
-680.237	520.258	0.149	0.355
-679.222	-46.931	0.287	0.142
-678.208	-78.209	0.118	0.041
-677.193	31.137	-0.085	0.074
-676.178	-65.411	-0.341	-0.139
-675.164	109.061	-0.160	0.194
-674.149	89.422	-0.093	0.105
-673.135	6.614	-0.288	-0.217
-672.120	266.462	-0.081	-0.144
-671.105	16.015	-0.146	0.116
-670.091	-200.000	0.027	-0.121
-669.076	-46.246	0.140	-0.070
-668.062	-127.413	-0.080	0.012
-667.047	65.800	-0.179	0.184
-666.032	800.000	-0.036	-0.104
-665.018	-200.000	-0.020	-0.325
-664.003	-63.288	-0.361	-0.151
-662.989	-83.110	-0.114	0.037
-661.974	285.159	0.115	-0.210
-660.959	-159.635	-0.181	-0.010
-659.945	-77.276	0.066	0.023
-658.930	8.565	0.305	-0.233
-657.916	16.538	-0.160	-0.128
-656.901	-89.045	0.208	0.062
-655.886	800.000	-0.090	-0.270
-654.872	800.000	-0.044	-0.141
-653.857	-43.955	-0.120	-0.061
-652.843	-200.000	-0.076	0.349
-651.828	99.018	0.090	-0.105
-650.814	331.393	-0.100	-0.196
-649.799	800.000	-0.094	0.272
-648.784	134.655	-0.132	0.173
-647.770	389.599	0.131	-0.276
-646.755	800.000	-0.072	-0.242
-645.741	-85.848	0.183	-0.058
-644.726	76.847	0.071	0.076
-643.711	5.547	-0.111	0.083
-642.697	140.892	-0.098	0.131
-641.682	-114.458	-0.127	-0.025
-640.668	-19.778	0.353	-0.221
-639.653	800.000	-0.114	0.378
-638.638	-200.000	-0.030	-0.163
-637.624	-0.108	0.172	-0.124
-636.609	168.991	0.178	-0.257
-635.595	-188.038	-0.081	0.001
-634.580	590.444	-0.099	0.248
-633.565	800.000	-0.113	-0.391
-632.551	-149.916	-0.128	-0.010
-631.536	800.000	0.048	-0.178
-630.522	-31.287	0.060	0.034
-629.507	-68.340	0.161	0.063
-628.492	-200.000	0.052	0.304
-627.478	-200.000	0.013	-0.090
-626.463	-86.665	0.288	0.089
-625.449	686.774	-0.055	0.146
-624.434	98.628	-0.012	-0.014
-623.419	-200.000	-0.046	0.245
-622.405	800.000	0.028	-0.122
-621.390	-7.490	-0.264	-0.181
-620.376	460.763	-0.185	0.417
-619.361	-135.901	0.103	0.012
-618.346	-200.000	0.015	-0.115
-617.332	-116.616	-0.179	-0.033
-616.317	-200.000	-0.068	0.351
-615.303	233.698	0.123	-0.205
-614.288	-200.000	0.052	0.232
-613.273	399.594	-0.252	-0.533
-612.259	-25.956	-0.251	0.149
-611.244	-200.000	-0.030	-0.269
-610.230	-8.418	-0.340	-0.231
-609.215	-77.187	-0.050	0.018
-608.201	-113.644	0.220	0.043
-607.186	303.577	-0.053	0.099
-606.171	429.919	0.086	0.188
-605.157	-100.923	0.232	-0.058
-604.142	-40.785	-0.169	0.088
-603.128	-57.052	0.135	-0.060
-602.113	128.762	-0.134	-0.173
-601.098	-1.659	-0.242	-0.172
-600.084	-60.680	0.150	-0.064
-599.069	-16.846	-0.140	0.089
-598.055	120.256	-0.108	-0.135
-597.040	800.000	0.067	0.209
-596.025	-194.344	-0.176	0.001
-595.011	-174.839	-0.083	-0.002
-593.996	80.686	-0.041	-0.045
-592.982	-5.491	0.131	0.091
-591.967	-42.563	-0.198	0.102
-590.952	-200.000	0.007	0.108
-589.938	-200.000	-0.062	0.315
-588.923	-123.846	0.159	-0.025
-587.909	522.025	0.101	-0.239
-586.894	540.451	0.055	0.133
-585.879	800.000	-0.022	0.080
-584.865	-3.638	0.032	-0.022
-583.850	800.000	-0.089	0.362
-582.836	176.907	-0.091	0.134
-581.821	-119.790	-0.193	-0.034
-580.806	133.036	-0.063	0.082
-579.792	330.997	-0.264	-0.514
-578.777	-104.639	-0.346	0.081
-577.763	800.000	-0.027	0.100
-576.748	-200.000	-0.080	-0.406
-575.733	133.905	0.096	-0.125
-574.719	800.000	0.076	-0.322
-573.704	150.090	0.057	0.078
-572.690	-200.000	-0.042	-0.348
-571.675	221.660	0.192	-0.311
-570.661	-71.063	-0.289	0.110
-569.646	446.024	0.030	0.067
-568.631	-51.173	-0.111	0.053
-567.617	-87.599	-0.310	0.094
-566.602	-200.000	-0.011	-0.073
-565.588	134.876	0.272	-0.356
-564.573	-112.570	-0.158	-0.032
-563.558	-200.000	-0.073	0.368
-562.544	-200.000	-0.030	0.167
-561.529	-200.000	-0.051	0.323
-560.515	-37.065	-0.251	0.136
-559.500	28.536	0.113	0.097
-558.485	314.739	-0.101	-0.193
-557.471	115.943	-0.148	0.182
-556.456	-178.076	0.235	-0.006
-555.442	28.058	0.252	-0.214
-554.427	7.329	0.057	0.043
-553.412	147.090	0.282	-0.383
-552.398	-90.084	0.278	0.082
-551.383	-124.046	-0.133	0.021
-550.369	800.000	-0.068	-0.240
-549.354	-71.685	0.088	0.033
-548.339	-171.530	0.190	-0.006
-547.325	72.266	0.082	-0.087
-546.310	643.383	0.167	-0.429
-545.296	-110.109	-0.160	0.034
-544.281	-136.374	0.066	0.008
-543.266	-1.414	-0.174	0.124
-542.252	-84.294	0.169	-0.054
-541.237	255.529	-0.106	0.184
-540.223	-71.528	-0.154	-0.058
-539.208	800.000	-0.040	0.172
-538.193	-17.632	-0.123	0.078
-537.179	285.250	-0.063	-0.114
-536.164	-56.787	-0.107	-0.048
-535.150	-70.023	-0.178	0.068
-534.135	-150.869	0.367	0.028
-533.121	-73.700	-0.405	-0.149
-532.106	-89.974	0.067	-0.020
-531.091	-13.514	-0.492	0.322
-530.077	-153.627	-0.438	0.030
-529.062	-108.701	-0.083	0.018
-528.048	35.148	0.150	-0.133
-527.033	263.670	0.057	0.100
-526.018	-111.230	-0.291	-0.060
-525.004	39.619	0.219	-0.198
-523.989	-52.151	0.212	-0.099
-522.975	-137.464	-0.128	-0.015
-521.960	255.779	-0.043	-0.074
-520.945	-179.690	0.181	0.004
-519.931	800.000	-0.017	-0.067
-518.916	-68.244	0.136	-0.053
-517.902	-200.000	0.012	0.149
-516.887	12.483	-0.056	0.043
-515.872	-56.709	-0.165	-0.073
-514.858	-37.090	0.183	-0.099
-513.843	564.178	0.028	-0.068
-512.829	-200.000	-0.034	-0.217
-511.814	800.000	0.030	0.104
-510.799	-60.213	-0.050	0.022
-509.785	29.836	0.117	-0.101
-508.770	179.394	0.020	-0.030
-507.756	419.211	-0.131	0.284
-506.741	-95.107	-0.354	-0.096
-505.726	258.045	-0.094	0.162
-504.712	800.000	0.104	0.321
-503.697	-200.000	-0.011	-0.067
-502.683	158.797	0.075	0.105
-501.668	464.363	-0.117	0.264
-500.653	145.341	0.219	0.295
-499.639	82.389	-0.054	0.059
-498.624	-79.289	-0.191	0.065
-497.610	82.826	0.268	0.293
-496.595	-168.494	-0.090	-0.003
-495.581	-3.735	-0.106	0.074
-494.566	800.000	0.053	-0.150
-493.551	143.286	-0.192	-0.257
-492.537	209.408	0.153	-0.242
-491.522	-18.267	0.059	-0.037
-490.508	-73.786	-0.228	-0.084
-489.493	521.145	0.155	0.366
-488.478	111.790	-0.146	0.178
-487.464	186.772	-0.084	-0.126
-486.449	-76.353	0.227	-0.081
-485.435	336.215	-0.089	0.173
-484.420	800.000	0.110	-0.325
-483.405	170.990	0.097	-0.141
-482.391	800.000	-0.065	0.204
-481.376	-186.409	-0.091	-0.001
-480.362	162.051	-0.089	0.125
-479.347	-200.000	0.027	-0.127
-478.332	-68.640	0.162	0.063
-477.318	-200.000	0.005	-0.024
-476.303	282.328	0.049	-0.088
-475.289	-102.319	0.110	0.027
-474.274	800.000	-0.033	0.127
-473.259	800.000	-0.076	-0.233
-472.245	-200.000	0.005	-0.068
-471.230	-27.131	0.323	-0.189
-470.216	-8.002	-0.027	-0.018
-469.201	-105.353	0.316	0.072
-468.186	-26.084	0.366	0.216
-467.172	-144.755	0.351	-0.032
-466.157	-81.828	-0.209	0.069
-465.143	-50.185	0.057	0.027
-464.128	-43.642	0.291	0.147
-463.113	598.248	0.119	0.297
-462.099	319.141	0.162	-0.308
-461.084	-98.102	0.275	-0.071
-460.070	-72.425	-0.130	0.048
-459.055	-92.433	-0.140	-0.040
-458.040	-200.000	0.042	-0.193
-457.026	87.002	0.265	0.294
-456.011	800.000	0.127	-0.470
-454.997	167.674	-0.206	0.295
-453.982	800.000	0.045	-0.184
-452.968	337.089	0.050	-0.098
-451.953	-84.129	-0.355	-0.113
-450.938	-52.019	-0.184	-0.086
-449.924	-116.604	-0.310	0.057
-448.909	-200.000	0.043	-0.263
-447.895	-48.292	0.197	0.096
-446.880	800.000	-0.103	0.305
-445.865	800.000	-0.054	-0.165
-444.851	-83.661	-0.079	-0.026
-443.836	-200.000	0.001	-0.051
-442.822	-38.474	0.085	-0.045
-441.807	-88.960	0.121	-0.036
-440.792	-52.019	0.255	0.119
-439.778	-90.566	0.313	-0.091
-438.763	227.807	-0.261	-0.426
-437.749	-56.978	-0.035	-0.015
-436.734	-1.607	-0.012	0.008
-435.719	119.872	-0.090	0.112
-434.705	800.000	0.040	-0.116
-433.690	149.082	0.172	-0.234
-432.676	195.557	-0.181	0.276
-431.661	800.000	0.074	0.233
-430.646	-122.603	-0.145	0.024
-429.632	-200.000	0.008	-0.065
-428.617	-200.000	-0.030	-0.226
-427.603	503.963	-0.074	0.171
-426.588	-134.872	-0.046	-0.006
-425.573	-200.000	0.015	0.101
-424.559	126.643	-0.232	-0.295
-423.544	-142.971	-0.264	-0.026
-422.530	403.837	0.072	-0.152
-421.515	-200.000	-0.015	-0.098
-420.500	-154.192	-0.230	0.016
-419.486	800.000	0.060	-0.202
-418.471	257.629	0.091	0.157
-417.457	800.000	-0.052	0.196
-416.442	381.170	0.094	0.194
-415.428	-200.000	-0.054	0.263
-414.413	-200.000	-0.021	0.233
-413.398	-101.031	0.192	-0.047
-412.384	489.136	0.023	0.052
-411.369	122.155	-0.194	-0.243
-410.355	265.120	0.080	0.139
-409.340	722.635	-0.081	-0.216
-408.325	238.010	-0.079	0.131
-407.311	-13.369	0.107	0.070
-406.296	-200.000	-0.025	-0.241
-405.282	800.000	0.092	0.264
-404.267	-117.732	0.096	0.017
-403.252	800.000	-0.041	-0.176
-402.238	-200.000	0.024	0.178
-401.223	399.516	-0.067	0.140
-400.209	22.333	-0.096	0.079
-399.194	800.000	0.024	-0.074
-398.179	213.270	0.177	0.280
-397.165	-200.000	-0.043	0.195
-396.150	-69.273	-0.074	-0.029
-395.136	-151.060	0.126	-0.010
-394.121	800.000	0.013	-0.039
-393.106	-200.000	-0.003	0.091
-392.092	112.484	0.250	0.303
-391.077	102.103	0.403	0.472
-390.063	-131.128	-0.123	-0.016
-389.048	-92.897	-0.071	0.020
-388.033	147.976	0.009	-0.013
-387.019	-90.814	0.096	0.028
-386.004	336.138	-0.041	-0.079
-384.990	-57.042	-0.205	-0.091
-383.975	-22.588	0.125	-0.076
-382.960	135.135	-0.174	-0.227
-381.946	-1.383	0.329	-0.233
-380.931	100.936	-0.104	0.121
-379.917	-55.260	-0.379	-0.171
-378.902	-62.129	-0.097	0.041
-377.888	-12.747	-0.123	-0.080
-376.873	37.516	0.223	-0.199
-375.858	246.246	-0.037	0.062
-374.844	-200.000	-0.017	-0.374
-373.829	-200.000	-0.001	-0.294
-372.815	-79.005	0.288	0.098
-371.800	-86.049	-0.209	0.065
-370.785	-200.000	0.051	-0.368
-369.771	599.578	-0.027	-0.066
-368.756	103.464	-0.060	0.071
-367.742	90.852	0.106	-0.119
-366.727	382.111	-0.153	-0.314
-365.712	200.675	0.085	-0.130
-364.698	706.495	0.063	0.166
-363.683	130.162	-0.087	0.112
-362.669	800.000	-0.020	-0.080
-361.654	38.488	-0.281	-0.251
-360.639	5.994	0.111	0.082
-359.625	46.372	0.269	-0.250
-358.610	-200.000	0.011	0.209
-357.596	-68.108	-0.183	0.072
-356.581	-95.310	-0.140	0.038
-355.566	90.649	0.043	-0.048
-354.552	-200.000	0.009	-0.122
-353.537	800.000	-0.085	-0.307
-352.523	-74.510	0.084	-0.030
-351.508	-10.721	0.220	-0.146
-350.493	-200.000	-0.000	-0.061
-349.479	63.648	0.135	-0.136
-348.464	-81.891	-0.098	0.032
-347.450	279.969	0.061	-0.109
-346.435	-18.303	-0.287	-0.180
-345.420	188.028	-0.057	-0.085
-344.406	-138.766	-0.329	-0.036
-343.391	-200.000	0.031	-0.192
-342.377	-134.153	-0.084	-0.010
-341.362	-54.932	0.213	0.096
-340.348	14.425	-0.067	0.052
-339.333	-200.000	0.070	0.338
-338.318	131.148	0.037	0.048
-337.304	-142.995	0.035	0.003
-336.289	14.852	0.138	-0.108
-335.275	-158.289	-0.087	0.005
-334.260	-200.000	0.039	0.212
-333.245	243.385	0.125	0.209
-332.231	25.401	0.142	-0.118
-331.216	-52.327	0.120	-0.056
-330.202	-66.704	0.074	-0.029
-329.187	-94.291	-0.252	-0.069
-328.172	-116.518	-0.089	-0.017
-327.158	-176.741	-0.180	-0.005
-326.143	187.073	-0.140	-0.209
-325.129	-200.000	-0.120	-0.000
-324.114	-155.116	0.309	-0.020
-323.099	227.691	-0.143	-0.233
-322.085	-115.665	0.285	-0.053
-321.070	57.003	0.236	0.231
-320.056	-133.193	0.235	-0.030
-319.041	590.873	-0.092	-0.227
-318.026	-75.331	-0.071	-0.025
-317.012	-2.862	-0.310	0.216
-315.997	533.587	-0.074	0.175
-314.983	317.218	-0.094	0.179
-313.968	-58.249	0.254	-0.111
-312.953	130.573	0.209	0.267
-311.939	533.832	-0.049	0.116
-310.924	-116.804	-0.328	-0.060
-309.910	-200.000	-0.007	0.142
-308.895	-83.932	-0.160	0.051
-307.880	-82.328	0.378	0.123
-306.866	-8.033	0.213	0.144
-305.851	70.555	0.187	0.193
-304.837	-200.000	-0.026	-0.336
-303.822	-74.636	-0.202	0.073
-302.807	-200.000	-0.012	0.255
-301.793	-80.291	0.123	0.041
-300.778	-200.000	0.028	0.241
-299.764	-28.748	-0.148	0.085
-298.749	-10.916	0.249	-0.164
-297.735	-11.833	0.270	-0.177
-296.720	170.441	0.072	0.103
-295.705	-77.076	-0.363	-0.126
-294.691	-200.000	-0.007	-0.120
-293.676	-200.000	0.079	-0.497
-292.662	800.000	-0.034	-0.127
-291.647	800.000	-0.089	0.287
-290.632	88.063	-0.065	-0.072
-289.618	-200.000	0.031	-0.192
-288.603	-37.679	0.307	-0.163
-287.589	-28.633	-0.243	-0.140
-286.574	-139.167	-0.076	0.008
-285.559	11.846	-0.184	-0.141
-284.545	-98.555	0.170	0.043
-283.530	-200.000	0.166	0.000
-282.516	-84.155	0.166	-0.053
-281.501	800.000	0.012	0.040
-280.486	-200.000	0.016	-0.080
-279.472	21.227	0.211	-0.171
-278.457	-130.268	0.253	-0.034
-277.443	29.558	-0.144	-0.122
-276.428	13.749	-0.136	-0.106
-275.413	-161.770	0.133	0.007
-274.399	490.833	-0.114	0.260
-273.384	-200.000	0.012	0.322
-272.370	-20.036	0.092	0.057
-271.355	128.901	0.217	0.276
-270.340	-24.371	0.206	-0.122
-269.326	-200.000	0.082	-0.550
-268.311	-148.118	0.154	-0.013
-267.297	-200.000	-0.000	0.390
-266.282	537.334	-0.056	-0.132
-265.267	326.367	0.078	-0.149
-264.253	140.131	-0.107	-0.140
-263.238	4.706	0.098	-0.072
-262.224	-163.465	-0.166	0.008
-261.209	-174.083	-0.120	0.004
-260.195	278.998	-0.040	0.071
-259.180	-187.164	-0.167	-0.002
-258.165	800.000	-0.060	0.204
-257.151	800.000	0.100	0.407
-256.136	-200.000	-0.016	-0.082
-255.122	-137.870	0.115	0.013
-254.107	225.580	-0.190	0.307
-253.092	-200.000	-0.025	-0.156
-252.078	800.000	-0.119	-0.429
-251.063	257.018	0.146	-0.250
-250.049	800.000	0.104	0.291
-249.034	-200.000	-0.016	0.089
-248.019	-129.465	-0.404	0.056
-247.005	800.000	-0.040	0.171
-245.990	158.510	-0.192	0.265
-244.976	800.000	0.097	0.311
-243.961	-200.000	0.070	-0.308
-242.946	150.358	-0.232	0.315
-241.932	223.966	-0.084	0.135
-240.917	14.495	-0.290	-0.226
-239.903	8.473	-0.108	0.081
-238.888	75.641	0.160	-0.169
-237.873	-173.135	-0.295	-0.009
-236.859	173.798	-0.095	0.136
-235.844	-3.874	-0.250	0.173
-234.830	53.139	-0.216	-0.206
-233.815	-200.000	0.035	-0.238
-232.800	-60.950	-0.172	0.072
-231.786	-200.000	-0.005	-0.194
-230.771	-4.421	0.198	-0.137
-229.757	12.261	-0.190	-0.146
-228.742	68.910	0.140	-0.144
-227.727	-200.000	-0.025	-0.192
-226.713	25.045	0.306	-0.253
-225.698	-104.125	-0.116	0.027
-224.684	-146.012	-0.256	-0.023
-223.669	32.943	-0.183	0.158
-222.655	-157.420	0.407	0.024
-221.640	384.014	0.170	0.349
-220.625	345.473	0.010	0.020
-219.611	-138.123	0.251	0.028
-218.596	63.583	-0.084	-0.084
-217.582	24.493	-0.131	0.108
-216.567	-99.131	0.173	0.044
-215.552	24.064	-0.058	0.048
-214.538	-200.000	0.023	0.112
-213.523	13.327	0.375	0.289
-212.509	132.690	0.079	-0.102
-211.494	733.751	0.053	-0.140
-210.479	800.000	-0.015	0.060
-209.465	72.178	0.321	0.333
-208.450	-200.000	-0.006	-0.072
-207.436	68.329	-0.179	-0.182
-206.421	454.113	-0.075	-0.165
-205.406	-13.085	-0.080	0.052
-204.392	498.509	-0.057	0.130
-203.377	248.481	0.151	0.254
-202.363	-87.440	-0.273	-0.082
-201.348	179.115	0.078	0.114
-200.333	-113.404	0.078	0.015
-199.319	-35.097	-0.179	-0.097
-198.304	362.927	0.090	-0.179
-197.290	242.950	-0.055	-0.092
-196.275	-200.000	0.008	0.171
-195.260	-18.432	0.147	-0.092
-194.246	-200.000	-0.004	-0.126
-193.231	-200.000	0.015	0.078
-192.217	-90.178	-0.030	0.009
-191.202	-50.025	0.503	-0.237
-190.187	2.306	-0.245	-0.176
-189.173	366.747	-0.157	0.315
-188.158	800.000	-0.107	0.346
-187.144	-200.000	0.009	-0.105
-186.129	60.715	-0.042	-0.042
-185.114	800.000	-0.076	0.249
-184.100	191.180	0.119	0.179
-183.085	-156.790	0.276	-0.017
-182.071	102.485	-0.186	0.216
-181.056	130.797	-0.057	-0.072
-180.042	18.140	0.169	-0.134
-179.027	800.000	-0.089	0.272
-178.012	62.395	0.228	0.226
-176.998	-139.745	0.269	-0.028
-175.983	-131.781	0.202	-0.026
-174.969	-200.000	0.059	0.433
-173.954	-33.717	0.042	0.023
-172.939	-200.000	0.012	-0.079
-171.925	-108.120	-0.326	0.070
-170.910	58.224	0.192	0.187
-169.896	41.171	0.163	-0.147
-168.881	-53.873	-0.178	0.081
-167.866	-97.174	0.175	0.045
-166.852	152.241	0.197	0.268
-165.837	141.286	0.060	-0.079
-164.823	-71.036	-0.036	-0.013
-163.808	-64.215	-0.120	0.048
-162.793	128.680	0.134	0.170
-161.779	-61.508	0.129	-0.054
-160.764	137.960	0.069	-0.089
-159.750	-30.673	-0.160	-0.090
-158.735	255.408	-0.018	-0.030
-157.720	-20.455	-0.081	0.050
-156.706	-200.000	0.040	0.206
-155.691	-200.000	0.007	0.212
-154.677	53.578	0.259	-0.247
-153.662	106.992	-0.053	-0.062
-152.647	-200.000	0.039	0.183
-151.633	158.324	0.119	0.164
-150.618	25.839	-0.131	-0.108
-149.604	-93.908	0.206	0.056
-148.589	182.035	-0.101	0.148
-147.574	-200.000	0.008	-0.135
-146.560	-32.903	0.114	0.063
-145.545	438.836	-0.132	0.287
-144.531	264.856	0.048	-0.083
-143.516	211.579	-0.133	0.208
-142.502	800.000	0.036	0.157
-141.487	800.000	-0.029	0.090
-140.472	-66.735	0.357	0.140
-139.458	51.641	0.097	0.091
-138.443	246.108	0.026	0.044
-137.429	-200.000	-0.005	0.649
-136.414	280.871	0.099	0.177
-135.399	-61.586	0.356	-0.149
-134.385	512.788	-0.131	-0.304
-133.370	-108.314	0.201	0.043
-132.356	42.655	-0.248	-0.224
-131.341	95.092	0.195	-0.220
-130.326	-94.643	0.336	0.091
-129.312	-21.340	-0.102	0.062
-128.297	-57.441	-0.166	-0.073
-127.283	277.109	0.075	-0.133
-126.268	3.241	-0.088	-0.063
-125.253	123.973	0.121	0.151
-124.239	-8.593	0.078	0.052
-123.224	-2.681	-0.184	-0.128
-122.210	-81.153	-0.480	0.157
-121.195	74.455	-0.138	0.144
