DTS Sentinel unit serial number:	SN413079Multiplexer serial number:	ORYXHardware model number:	OX4-SRSoftware version number:	ORYX F/W v4.00 Oryx Data Collector v3.7.2.0data status	okinstallation	princeton_trtdifferential loss correction	single-endedforward channel	channel 3reverse channel	N/Adate	2019/09/18time	20:12:35forward acquisition time	60.00reverse acquisition time	0.00gamma	496.2192k internal	0.2332k external	0.2332temperature offset calibration	1.0003default loss term (dB/km)	0.3790temperature slope calibration	1.0000multiplexer offset coefficient	1.0000multiplexer slope coefficient	1.0000fibre end	0.00T internal ref (°C)	29.48T ext. ref 1 (°C)	0.96T ext. ref 2 (°C)	20.00length (m)	temperature (°C)	Stokes	anti-Stokes-747.200	800.000	-0.124	0.350
-746.185	-200.000	0.059	0.305
-745.171	-133.196	-0.015	0.002
-744.156	319.893	0.048	-0.092
-743.142	308.768	-0.192	-0.360
-742.127	130.449	0.285	0.368
-741.112	-85.626	0.290	0.091
-740.098	8.280	-0.269	0.203
-739.083	174.507	-0.138	0.200
-738.069	280.976	0.118	0.213
-737.054	201.268	-0.336	0.520
-736.039	142.822	-0.094	0.126
-735.025	48.182	-0.110	-0.104
-734.010	453.692	0.065	-0.144
-732.996	-87.516	-0.451	-0.137
-731.981	14.391	-0.088	-0.069
-730.966	-200.000	0.038	0.372
-729.952	121.109	0.117	0.147
-728.937	-76.775	-0.320	-0.113
-727.923	-44.880	0.207	-0.104
-726.908	-89.014	0.368	-0.110
-725.894	48.119	0.085	-0.079
-724.879	-0.498	0.100	-0.072
-723.864	-33.365	-0.148	-0.082
-722.850	-19.223	-0.289	-0.180
-721.835	108.396	0.261	0.313
-720.821	49.366	-0.191	0.181
-719.806	-200.000	0.002	-0.131
-718.791	284.080	-0.143	0.259
-717.777	795.030	-0.074	-0.206
-716.762	-135.377	-0.232	-0.028
-715.748	-82.953	0.297	0.096
-714.733	-19.117	-0.285	0.178
-713.718	-125.516	0.348	-0.053
-712.704	-57.613	-0.167	0.073
-711.689	264.957	0.071	-0.124
-710.675	-23.066	-0.153	0.093
-709.660	-113.353	-0.347	-0.068
-708.645	-73.395	-0.102	-0.038
-707.631	-200.000	0.013	-0.157
-706.616	-74.370	-0.089	-0.032
-705.602	-200.000	-0.028	0.159
-704.587	15.637	-0.235	-0.186
-703.572	-159.883	0.100	-0.005
-702.558	-132.887	0.259	-0.033
-701.543	-200.000	-0.026	-0.172
-700.529	102.230	-0.277	-0.325
-699.514	-86.074	0.122	0.038
-698.499	583.981	0.009	0.023
-697.485	-75.026	0.092	0.033
-696.470	-49.599	0.233	0.111
-695.456	-200.000	-0.002	-0.318
-694.441	-147.449	-0.149	-0.013
-693.426	-154.815	0.393	0.026
-692.412	-36.811	-0.180	0.097
-691.397	-200.000	0.008	-0.134
-690.383	114.365	0.270	-0.330
-689.368	-31.900	0.170	0.095
-688.354	386.578	-0.077	-0.160
-687.339	-200.000	0.044	-0.201
-686.324	-200.000	0.047	0.307
-685.310	-53.690	-0.379	-0.174
-684.295	1.686	0.153	0.111
-683.281	3.921	-0.078	-0.057
-682.266	127.846	-0.118	-0.150
-681.251	-123.219	-0.160	0.026
-680.237	201.424	0.164	0.254
-679.222	160.180	0.071	0.100
-678.208	54.705	-0.148	-0.143
-677.193	-133.967	-0.446	0.055
-676.178	209.904	0.157	0.247
-675.164	-21.449	-0.116	-0.071
-674.149	-94.214	-0.231	0.063
-673.135	20.897	0.115	0.093
-672.120	41.440	-0.415	0.377
-671.105	437.405	-0.127	0.278
-670.091	20.319	0.072	-0.059
-669.076	-200.000	0.043	-0.212
-668.062	15.990	-0.082	0.065
-667.047	-123.605	-0.214	0.034
-666.032	800.000	-0.089	0.260
-665.018	-70.515	0.086	0.033
-664.003	203.272	-0.102	-0.159
-662.989	-200.000	0.008	0.078
-661.974	115.438	0.107	0.131
-660.959	-37.928	-0.154	0.082
-659.945	26.823	0.053	0.044
-658.930	-123.207	-0.201	-0.032
-657.916	-200.000	0.030	-0.135
-656.901	-42.244	-0.271	-0.139
-655.886	800.000	0.047	-0.182
-654.872	306.836	-0.080	-0.150
-653.857	-33.340	-0.087	-0.048
-652.843	-117.847	-0.022	0.004
-651.828	170.591	0.204	-0.293
-650.814	1.793	-0.159	0.115
-649.799	697.318	0.111	0.292
-648.784	-200.000	-0.007	0.095
-647.770	-48.748	0.075	-0.036
-646.755	-200.000	0.045	0.280
-645.741	-137.879	0.015	-0.002
-644.726	-63.943	0.151	0.062
-643.711	-126.763	0.159	-0.024
-642.697	-178.109	0.131	0.003
-641.682	-200.000	0.043	0.225
-640.668	70.376	-0.119	-0.123
-639.653	163.429	0.111	-0.156
-638.638	-200.000	-0.064	0.426
-637.624	29.039	-0.257	-0.218
-636.609	-200.000	0.004	-0.176
-635.595	-155.247	-0.079	-0.005
-634.580	-200.000	-0.078	-0.349
-633.565	509.028	-0.205	0.477
-632.551	-25.061	0.094	-0.056
-631.536	800.000	0.067	-0.253
-630.522	384.669	0.066	-0.136
-629.507	122.434	0.198	0.247
-628.492	505.994	-0.025	-0.059
-627.478	215.418	0.089	-0.141
-626.463	217.987	-0.090	-0.144
-625.449	27.396	0.295	-0.248
-624.434	126.045	0.120	-0.152
-623.419	-200.000	-0.000	0.276
-622.405	800.000	0.077	0.212
-621.390	-132.861	-0.364	0.046
-620.376	85.080	-0.210	-0.230
-619.361	1.487	-0.252	0.182
-618.346	-70.435	0.106	-0.040
-617.332	-200.000	-0.008	-0.365
-616.317	371.738	-0.116	-0.236
-615.303	800.000	0.142	0.483
-614.288	800.000	0.067	0.201
-613.273	198.509	-0.110	0.169
-612.259	134.034	-0.137	0.178
-611.244	142.495	0.039	0.052
-610.230	-200.000	0.027	0.165
-609.215	23.948	0.189	0.156
-608.201	160.500	-0.116	0.162
-607.186	118.352	0.364	0.449
-606.171	132.134	-0.210	0.270
-605.157	800.000	0.030	0.099
-604.142	-200.000	0.038	-0.347
-603.128	-200.000	0.022	0.165
-602.113	-200.000	-0.048	0.254
-601.098	76.719	-0.082	-0.087
-600.084	239.077	0.086	-0.143
-599.069	800.000	-0.068	-0.248
-598.055	-89.244	-0.125	0.037
-597.040	-200.000	-0.006	-0.439
-596.025	190.330	-0.145	-0.217
-595.011	800.000	-0.047	-0.196
-593.996	-200.000	-0.033	0.282
-592.982	800.000	0.050	0.178
-591.967	-200.000	-0.045	-0.492
-590.952	-7.838	0.303	-0.204
-589.938	-53.346	0.337	0.154
-588.923	800.000	-0.057	0.189
-587.909	800.000	-0.078	-0.223
-586.894	-33.778	0.403	-0.222
-585.879	573.577	-0.132	0.321
-584.865	-200.000	0.045	0.360
-583.850	-80.786	0.059	0.020
-582.836	800.000	-0.035	-0.131
-581.821	159.899	-0.127	-0.178
-580.806	-150.938	0.064	-0.005
-579.792	-81.558	0.088	0.029
-578.777	-147.106	0.268	-0.023
-577.763	246.367	-0.158	-0.266
-576.748	3.320	-0.169	0.123
-575.733	-151.420	0.423	-0.031
-574.719	109.436	-0.139	-0.167
-573.704	28.589	0.126	0.107
-572.690	260.180	0.112	-0.193
-571.675	-149.728	-0.079	0.006
-570.661	35.159	0.144	0.126
-569.646	-126.804	-0.147	-0.022
-568.631	-200.000	-0.099	-0.439
-567.617	-200.000	0.018	-0.245
-566.602	800.000	0.059	-0.168
-565.588	246.179	-0.218	-0.367
-564.573	-63.900	-0.158	0.065
-563.558	38.314	0.122	0.108
-562.544	15.188	-0.153	-0.120
-561.529	126.536	-0.146	-0.185
-560.515	-80.030	-0.127	0.043
-559.500	-141.477	0.065	-0.007
-558.485	-163.133	-0.378	-0.018
-557.471	-129.269	0.312	0.043
-556.456	-77.071	0.172	0.060
-555.442	42.227	-0.314	-0.285
-554.427	-22.935	0.285	0.172
-553.412	-200.000	0.045	-0.239
-552.398	-145.084	-0.146	0.013
-551.383	-200.000	0.000	-0.084
-550.369	325.366	-0.188	-0.358
-549.354	-7.651	-0.224	-0.151
-548.339	18.018	-0.205	0.163
-547.325	123.433	0.039	-0.049
-546.310	-105.045	-0.230	-0.053
-545.296	130.157	-0.165	-0.211
-544.281	-66.478	-0.144	-0.057
-543.266	800.000	-0.093	0.307
-542.252	110.012	0.069	-0.083
-541.237	92.051	0.181	0.203
-540.223	-141.040	0.084	-0.009
-539.208	50.757	-0.115	0.109
-538.193	-200.000	0.017	-0.205
-537.179	60.179	-0.308	0.304
-536.164	14.298	0.261	-0.203
-535.150	-200.000	-0.012	-0.238
-534.135	-3.614	0.193	-0.134
-533.121	-200.000	-0.023	-0.215
-532.106	-200.000	-0.047	-0.302
-531.091	800.000	0.101	-0.289
-530.077	-107.898	0.084	0.018
-529.062	34.358	0.049	0.042
-528.048	-200.000	-0.007	-0.096
-527.033	684.389	0.086	0.224
-526.018	534.940	-0.213	0.504
-525.004	161.200	0.055	0.076
-523.989	-41.979	-0.262	0.134
-522.975	158.454	0.144	0.199
-521.960	-200.000	0.006	-0.119
-520.945	-68.395	0.086	-0.033
-519.931	-200.000	-0.048	0.368
-518.916	17.659	-0.107	0.085
-517.902	-145.976	0.165	0.015
-516.887	-200.000	0.012	-0.054
-515.872	800.000	-0.020	0.059
-514.858	800.000	0.131	0.510
-513.843	-200.000	-0.031	-0.258
-512.829	-130.823	-0.426	0.057
-511.814	-200.000	0.048	0.247
-510.799	398.512	-0.151	-0.315
-509.785	800.000	0.027	0.117
-508.770	-200.000	0.011	-0.198
-507.756	-162.038	-0.187	0.009
-506.741	90.656	-0.164	-0.183
-505.726	-200.000	0.008	-0.087
-504.712	140.578	-0.133	0.176
-503.697	-58.572	0.110	0.048
-502.683	-200.000	0.001	0.197
-501.668	83.089	0.125	0.136
-500.653	800.000	0.029	-0.104
-499.639	109.442	0.038	-0.045
-498.624	13.073	0.251	0.194
-497.610	649.893	0.163	0.415
-496.595	-108.927	-0.370	0.079
-495.581	800.000	0.064	-0.217
-494.566	325.004	-0.085	-0.163
-493.551	-200.000	0.054	-0.388
-492.537	665.932	0.088	-0.226
-491.522	-4.708	-0.163	0.112
-490.508	222.247	-0.099	0.159
-489.493	21.046	-0.147	0.119
-488.478	-162.003	-0.156	0.008
-487.464	-16.350	-0.284	-0.180
-486.449	210.481	0.086	0.134
-485.435	-200.000	-0.053	0.258
-484.420	-15.112	-0.244	-0.156
-483.405	470.919	0.167	-0.375
-482.391	-82.574	0.111	0.036
-481.376	-13.513	0.094	-0.061
-480.362	-16.650	0.136	-0.086
-479.347	260.569	0.036	0.062
-478.332	-96.245	-0.489	-0.129
-477.318	231.081	0.114	0.186
-476.303	-200.000	0.004	-0.090
-475.289	116.769	-0.041	-0.051
-474.274	-200.000	0.042	0.284
-473.259	800.000	-0.075	-0.258
-472.245	-200.000	-0.053	0.282
-471.230	65.754	0.231	0.233
-470.216	26.963	-0.124	0.104
-469.201	5.262	0.239	-0.175
-468.186	800.000	0.007	-0.023
-467.172	-133.555	-0.230	0.029
-466.157	-70.838	0.127	0.048
-465.143	53.990	0.068	0.065
-464.128	323.185	0.142	0.270
-463.113	73.653	-0.223	-0.233
-462.099	104.783	0.152	0.179
-461.084	781.967	-0.010	0.026
-460.070	80.800	0.109	-0.117
-459.055	-183.471	0.219	0.004
-458.040	73.806	-0.088	-0.092
-457.026	-18.998	0.226	0.140
-456.011	-12.958	-0.059	-0.038
-454.997	388.235	0.064	-0.132
-453.982	-200.000	-0.001	-0.224
-452.968	-75.189	-0.284	0.101
-451.953	112.494	0.057	0.069
-450.938	800.000	-0.064	-0.270
-449.924	-200.000	-0.005	0.215
-448.909	-130.938	0.393	0.052
-447.895	-109.986	-0.378	0.079
-446.880	-100.427	0.070	-0.017
-445.865	-36.888	-0.086	-0.046
-444.851	-200.000	-0.041	-0.393
-443.836	-162.646	-0.473	0.023
-442.822	-96.208	-0.173	0.046
-441.807	293.468	-0.177	0.321
-440.792	754.962	-0.064	-0.171
-439.778	-88.487	-0.075	0.022
-438.763	-78.409	0.336	0.114
-437.749	93.663	0.029	0.033
-436.734	-200.000	-0.090	0.421
-435.719	-82.646	-0.339	-0.109
-434.705	54.987	-0.082	-0.079
-433.690	260.922	-0.107	-0.185
-432.676	34.094	0.141	0.122
-431.661	16.313	0.246	0.193
-430.646	-200.000	0.024	-0.183
-429.632	-200.000	0.006	0.121
-428.617	-200.000	0.017	-0.099
-427.603	-200.000	-0.045	-0.211
-426.588	-200.000	0.058	-0.284
-425.573	83.904	0.093	-0.100
-424.559	-200.000	-0.039	-0.212
-423.544	-142.750	-0.211	-0.020
-422.530	586.058	-0.047	0.114
-421.515	75.893	-0.385	-0.404
-420.500	203.266	-0.119	-0.184
-419.486	-55.955	0.317	-0.140
-418.471	-69.478	0.538	0.205
-417.457	60.050	-0.166	0.163
-416.442	-200.000	-0.011	0.316
-415.428	517.725	0.095	-0.221
-414.413	-200.000	0.020	0.277
-413.398	-200.000	-0.017	-0.099
-412.384	-73.295	-0.168	0.061
-411.369	91.725	-0.203	-0.226
-410.355	-200.000	0.043	-0.401
-409.340	-200.000	0.048	0.626
-408.325	167.588	-0.072	0.102
-407.311	-125.111	0.370	-0.056
-406.296	-124.859	-0.271	0.042
-405.282	-200.000	0.022	0.133
-404.267	-200.000	0.047	-0.211
-403.252	-137.315	0.317	-0.036
-402.238	-55.525	-0.308	-0.137
-401.223	30.764	-0.175	0.149
-400.209	35.254	-0.250	0.218
-399.194	-50.394	0.041	0.019
-398.179	38.689	-0.353	0.313
-397.165	-114.417	-0.236	0.045
-396.150	694.303	0.083	0.216
-395.136	108.398	-0.157	0.186
-394.121	-25.885	0.275	-0.161
-393.106	227.884	-0.073	0.118
-392.092	-117.969	-0.336	0.060
-391.077	-200.000	0.008	0.202
-390.063	-91.435	0.361	0.102
-389.048	268.218	0.127	0.221
-388.033	179.533	0.102	-0.148
-387.019	84.087	-0.192	-0.208
-386.004	-76.881	0.101	-0.035
-384.990	-37.129	-0.078	-0.041
-383.975	800.000	0.087	-0.259
-382.960	35.252	0.145	-0.126
-381.946	536.869	0.041	-0.098
-380.931	-138.068	0.264	-0.029
-379.917	800.000	0.056	0.175
-378.902	15.589	0.454	0.353
-377.888	31.765	-0.248	-0.212
-376.873	131.435	0.156	-0.199
-375.858	128.767	0.065	0.083
-374.844	322.866	-0.164	0.310
-373.829	-139.413	-0.150	0.016
-372.815	102.595	-0.025	-0.030
-371.800	-70.547	-0.154	0.058
-370.785	-103.501	0.122	0.028
-369.771	260.403	0.164	-0.280
-368.756	105.854	0.041	-0.048
-367.742	-69.460	0.292	-0.111
-366.727	-10.082	-0.128	-0.085
-365.712	365.135	0.031	-0.063
-364.698	438.071	-0.241	0.521
-363.683	-180.898	-0.249	-0.005
-362.669	-30.628	-0.098	-0.055
-361.654	-105.978	-0.294	0.066
-360.639	139.274	-0.093	0.121
-359.625	132.984	0.095	0.122
-358.610	-46.305	0.222	0.108
-357.596	-200.000	0.034	0.149
-356.581	203.944	0.128	-0.196
-355.566	-138.765	-0.131	-0.014
-354.552	712.409	-0.079	0.207
-353.537	-100.757	0.015	0.004
-352.523	-8.557	0.055	-0.037
-351.508	-200.000	0.016	-0.291
-350.493	84.809	-0.136	0.148
-349.479	-200.000	0.030	0.291
-348.464	-200.000	0.030	-0.132
-347.450	155.943	0.221	-0.302
-346.435	8.115	0.207	-0.154
-345.420	191.019	-0.091	0.136
-344.406	-105.518	-0.174	-0.039
-343.391	-70.686	-0.363	-0.136
-342.377	-200.000	-0.026	-0.436
-341.362	22.791	-0.053	0.043
-340.348	-75.010	-0.120	-0.043
-339.333	-99.729	-0.119	0.029
-338.318	-54.808	-0.309	0.138
-337.304	-76.480	0.278	0.097
-336.289	-132.363	0.291	0.037
-335.275	800.000	-0.047	-0.194
-334.260	-46.488	0.029	0.014
-333.245	272.065	0.167	0.292
-332.231	-119.290	0.160	-0.028
-331.216	88.866	-0.284	-0.313
-330.202	606.367	0.180	-0.444
-329.187	409.611	0.017	-0.036
-328.172	395.922	0.014	0.029
-327.158	-200.000	-0.021	0.161
-326.143	50.030	0.162	0.152
-325.129	92.928	0.214	-0.240
-324.114	-4.814	0.270	0.184
-323.099	40.312	-0.218	-0.194
-322.085	99.075	-0.138	0.158
-321.070	-178.909	-0.288	-0.006
-320.056	800.000	0.086	-0.308
-319.041	247.781	-0.115	-0.192
-318.026	-64.919	0.234	-0.093
-317.012	156.665	-0.081	0.111
-315.997	-4.002	0.263	0.180
-314.983	-200.000	-0.052	0.278
-313.968	-95.136	-0.062	0.016
-312.953	-200.000	0.015	-0.096
-311.939	-156.903	-0.215	-0.013
-310.924	351.151	-0.091	0.177
-309.910	84.957	0.252	-0.273
-308.895	133.619	0.067	-0.086
-307.880	-66.505	-0.366	0.144
-306.866	14.915	-0.153	0.118
-305.851	800.000	-0.054	0.161
-304.837	-45.822	0.090	-0.044
-303.822	22.756	0.075	-0.061
-302.807	202.507	-0.199	0.304
-301.793	-89.177	0.057	-0.017
-300.778	-200.000	0.015	0.066
-299.764	324.519	0.205	0.388
-298.749	800.000	-0.064	0.258
-297.735	515.016	-0.039	-0.091
-296.720	800.000	0.065	0.232
-295.705	-200.000	0.030	-0.202
-294.691	245.154	-0.175	0.290
-293.676	101.574	0.097	0.112
-292.662	-45.251	-0.102	-0.050
-291.647	457.430	-0.026	-0.056
-290.632	-8.170	-0.222	-0.148
-289.618	175.709	0.147	-0.210
-288.603	800.000	0.011	0.041
-287.589	24.567	0.341	0.279
-286.574	591.283	0.127	0.309
-285.559	-200.000	-0.016	0.308
-284.545	-151.204	0.206	-0.015
-283.530	7.501	-0.034	0.025
-282.516	-63.390	-0.172	-0.070
-281.501	-200.000	-0.020	-0.270
-280.486	-23.103	-0.147	0.087
-279.472	108.317	0.231	0.272
-278.457	800.000	0.039	-0.156
-277.443	-104.674	0.068	-0.015
-276.428	368.963	-0.241	-0.482
-275.413	-200.000	-0.011	0.247
-274.399	168.272	-0.135	0.190
-273.384	613.060	-0.041	0.101
-272.370	458.435	-0.017	0.038
-271.355	-200.000	-0.012	-0.091
-270.340	-200.000	0.069	-0.344
-269.326	-200.000	-0.002	-0.195
-268.311	800.000	-0.115	0.361
-267.297	-200.000	-0.017	0.313
-266.282	800.000	-0.049	0.198
-265.267	-128.644	0.127	0.018
-264.253	28.155	-0.243	0.203
-263.238	203.238	-0.082	-0.125
-262.224	-86.122	0.232	-0.071
-261.209	-200.000	-0.034	0.173
-260.195	110.693	0.138	-0.164
-259.180	-118.545	-0.146	0.025
-258.165	232.150	0.097	0.157
-257.151	-193.960	0.089	0.001
-256.136	458.316	-0.059	0.129
-255.122	98.638	-0.146	-0.167
-254.107	65.912	-0.152	0.152
-253.092	-47.479	0.175	-0.084
-252.078	-132.758	-0.176	0.022
-251.063	7.037	0.015	-0.011
-250.049	-89.283	-0.358	-0.104
-249.034	131.968	-0.164	-0.209
-248.019	69.813	0.088	0.090
-247.005	800.000	0.024	0.098
-245.990	-97.893	0.400	-0.102
-244.976	340.545	-0.034	-0.066
-243.961	800.000	0.040	0.111
-242.946	184.359	0.266	-0.388
-241.932	-75.416	0.348	0.122
-240.917	-26.628	-0.138	-0.080
-239.903	-200.000	-0.006	-0.084
-238.888	59.072	0.052	0.051
-237.873	800.000	-0.154	-0.464
-236.859	800.000	0.049	0.210
-235.844	-10.596	0.128	0.084
-234.830	-23.820	0.198	-0.117
-233.815	279.163	-0.211	-0.371
-232.800	-143.217	-0.119	0.011
-231.786	800.000	0.087	-0.269
-230.771	121.658	0.185	0.228
-229.757	-15.355	0.101	0.063
-228.742	-28.218	-0.212	0.121
-227.727	160.136	-0.185	-0.254
-226.713	-108.954	0.199	0.042
-225.698	-107.795	-0.229	0.049
-224.684	-200.000	0.012	0.297
-223.669	-200.000	0.026	0.580
-222.655	27.890	0.183	-0.152
-221.640	-200.000	-0.002	-0.059
-220.625	-200.000	-0.001	-0.099
-219.611	-16.963	-0.046	0.029
-218.596	200.776	-0.124	0.188
-217.582	800.000	0.070	-0.263
-216.567	-116.537	0.111	0.020
-215.552	800.000	-0.066	0.224
-214.538	-200.000	-0.012	-0.091
-213.523	-60.129	0.093	0.039
-212.509	64.490	0.151	-0.150
-211.494	-119.668	0.140	-0.024
-210.479	3.838	0.258	0.186
-209.465	247.104	0.218	-0.363
-208.450	-168.069	0.027	-0.001
-207.436	-28.795	-0.127	0.072
-206.421	72.524	0.042	-0.043
-205.406	-200.000	0.015	0.304
-204.392	84.868	-0.295	0.318
-203.377	-154.687	0.151	0.010
-202.363	317.581	-0.163	0.303
-201.348	44.502	-0.024	-0.021
-200.333	-200.000	0.038	-0.319
-199.319	-37.565	0.267	-0.140
-198.304	25.975	0.401	-0.329
-197.290	-78.928	0.292	0.098
-196.275	121.491	-0.217	-0.266
-195.260	-82.050	0.212	0.068
-194.246	-159.429	0.197	-0.011
-193.231	-200.000	-0.020	-0.218
-192.217	800.000	0.084	0.335
-191.202	583.492	0.141	0.341
-190.187	246.720	0.213	-0.354
-189.173	74.688	0.039	-0.040
-188.158	-200.000	0.002	-0.410
-187.144	-89.204	0.294	0.085
-186.129	51.556	0.024	0.022
-185.114	371.752	0.121	-0.241
-184.100	-191.350	-0.031	-0.000
-183.085	34.452	0.039	-0.033
-182.071	800.000	-0.020	0.074
-181.056	-177.120	-0.106	-0.003
-180.042	-200.000	0.076	0.552
-179.027	-162.424	-0.165	0.008
-178.012	108.101	0.182	-0.214
-176.998	457.846	-0.188	0.410
-175.983	-20.448	-0.165	0.100
-174.969	101.489	0.119	-0.136
-173.954	-42.685	-0.170	0.085
-172.939	164.044	-0.132	0.183
-171.925	466.355	-0.049	0.109
-170.910	-54.358	-0.095	0.042
-169.896	187.867	-0.219	-0.321
-168.881	-200.000	0.008	-0.301
-167.866	655.962	0.115	-0.290
-166.852	277.738	-0.109	-0.190
-165.837	2.228	0.194	0.138
-164.823	-35.751	-0.109	-0.058
-163.808	-200.000	0.009	-0.275
-162.793	-155.239	0.052	-0.003
-161.779	259.556	0.158	-0.267
-160.764	-110.531	-0.175	-0.036
-159.750	14.637	0.271	-0.208
-158.735	36.730	0.363	0.315
-157.720	-93.321	0.222	0.060
-156.706	-94.757	0.203	-0.054
-155.691	-143.576	-0.282	-0.026
-154.677	35.029	-0.124	-0.107
-153.662	-51.522	-0.191	0.088
-152.647	-139.105	0.137	0.015
-151.633	207.520	-0.030	0.047
-150.618	-56.869	0.249	-0.108
-149.604	-93.315	0.172	0.047
-148.589	-200.000	-0.012	0.092
-147.574	-78.653	-0.407	0.137
-146.560	8.645	-0.255	-0.188
-145.545	-45.325	0.375	0.183
-144.531	317.955	-0.067	-0.124
-143.516	-104.262	0.191	-0.043
-142.502	-62.500	-0.109	-0.044
-141.487	-82.296	-0.051	0.016
-140.472	-128.229	-0.388	-0.054
-139.458	800.000	0.063	0.208
-138.443	139.256	0.198	-0.255
-137.429	214.532	0.133	-0.207
-136.414	-25.746	0.137	0.080
-135.399	-61.924	0.236	-0.097
-134.385	-101.239	-0.335	0.080
-133.370	-200.000	0.021	0.206
-132.356	-62.755	-0.157	0.064
-131.341	586.410	-0.123	-0.296
-130.326	66.556	0.068	-0.068
-129.312	19.230	0.250	-0.197
-128.297	-53.048	-0.226	-0.102
-127.283	-200.000	-0.042	0.323
-126.268	800.000	-0.058	0.238
-125.253	-61.364	-0.111	-0.046
-124.239	384.233	-0.112	0.227
-123.224	-97.986	0.296	-0.075
-122.210	-127.449	-0.475	0.068
-121.195	-200.000	-0.018	0.294
