DTS Sentinel unit serial number:	SN413079Multiplexer serial number:	ORYXHardware model number:	OX4-SRSoftware version number:	ORYX F/W v4.00 Oryx Data Collector v3.7.2.0data status	okinstallation	princeton_trtdifferential loss correction	single-endedforward channel	channel 3reverse channel	N/Adate	2019/09/13time	05:08:35forward acquisition time	60.00reverse acquisition time	0.00gamma	496.2192k internal	0.2338k external	0.2338temperature offset calibration	1.0142default loss term (dB/km)	0.3790temperature slope calibration	1.0000multiplexer offset coefficient	1.0000multiplexer slope coefficient	1.0000fibre end	0.00T internal ref (°C)	26.39T ext. ref 1 (°C)	4.05T ext. ref 2 (°C)	20.87length (m)	temperature (°C)	Stokes	anti-Stokes-747.200	253.458	0.183	0.314
-746.185	61.578	-0.020	-0.020
-745.171	-200.000	0.026	0.347
-744.156	-200.000	-0.045	0.206
-743.142	800.000	-0.115	-0.393
-742.127	-98.285	0.231	0.059
-741.112	-200.000	0.002	-0.166
-740.098	-200.000	0.005	0.130
-739.083	-200.000	-0.008	0.125
-738.069	105.077	-0.080	0.095
-737.054	221.409	0.057	0.092
-736.039	-98.254	-0.507	-0.131
-735.025	-106.982	-0.189	-0.042
-734.010	370.084	-0.100	-0.203
-732.996	-100.669	-0.404	-0.100
-731.981	279.050	0.180	0.322
-730.966	-79.466	-0.064	0.022
-729.952	238.048	0.121	-0.202
-728.937	-36.235	-0.236	-0.128
-727.923	111.921	-0.172	-0.209
-726.908	800.000	0.045	0.181
-725.894	800.000	-0.068	-0.191
-724.879	290.919	0.101	-0.184
-723.864	-165.947	-0.222	0.010
-722.850	79.521	-0.150	0.162
-721.835	-163.040	-0.303	0.015
-720.821	-45.656	-0.239	-0.119
-719.806	800.000	0.031	-0.109
-718.791	-82.172	-0.325	0.106
-717.777	54.238	0.109	0.105
-716.762	174.400	0.086	-0.124
-715.748	-199.659	0.178	0.001
-714.733	800.000	0.037	-0.115
-713.718	-47.886	-0.390	-0.189
-712.704	223.012	-0.265	-0.429
-711.689	108.906	-0.239	0.286
-710.675	-200.000	-0.033	0.505
-709.660	-1.847	0.236	0.166
-708.645	147.186	0.141	-0.190
-707.631	401.419	-0.138	0.291
-706.616	-96.388	0.224	0.060
-705.602	-176.177	-0.384	0.010
-704.587	-51.386	-0.285	-0.133
-703.572	-200.000	0.026	-0.243
-702.558	91.180	-0.087	0.098
-701.543	800.000	-0.115	-0.352
-700.529	387.675	-0.144	0.298
-699.514	800.000	0.103	-0.380
-698.499	-77.180	-0.356	0.124
-697.485	-200.000	-0.057	0.452
-696.470	66.245	-0.012	-0.012
-695.456	-200.000	0.005	0.027
-694.441	-200.000	-0.012	0.312
-693.426	34.534	0.169	0.148
-692.412	236.360	-0.018	-0.029
-691.397	125.749	0.166	-0.210
-690.383	-64.581	-0.335	-0.136
-689.368	-72.749	0.087	0.032
-688.354	180.444	-0.076	0.112
-687.339	-106.161	-0.127	-0.029
-686.324	-170.015	-0.188	0.007
-685.310	221.799	0.113	-0.181
-684.295	29.446	-0.214	-0.182
-683.281	-80.724	-0.352	0.117
-682.266	186.416	0.116	0.173
-681.251	52.418	0.233	-0.223
-680.237	-90.479	-0.651	0.189
-679.222	189.389	0.192	-0.289
-678.208	-121.234	0.070	0.012
-677.193	-200.000	-0.009	-0.111
-676.178	-73.328	-0.208	0.076
-675.164	-200.000	0.001	-0.023
-674.149	255.217	0.074	0.127
-673.135	-104.165	0.371	-0.086
-672.120	100.727	-0.326	-0.379
-671.105	229.847	0.178	-0.292
-670.091	759.967	-0.040	0.109
-669.076	-22.886	-0.073	-0.044
-668.062	-124.294	0.183	-0.029
-667.047	71.532	-0.217	0.225
-666.032	-152.832	0.188	-0.013
-665.018	-140.101	-0.206	-0.022
-664.003	-13.832	0.081	0.053
-662.989	-200.000	-0.012	0.089
-661.974	-9.218	-0.178	-0.119
-660.959	800.000	-0.066	-0.207
-659.945	-69.299	0.275	0.106
-658.930	38.504	-0.194	0.173
-657.916	95.921	-0.281	0.321
-656.901	121.534	0.151	0.188
-655.886	-78.198	0.207	-0.071
-654.872	-147.003	-0.193	-0.017
-653.857	168.322	-0.075	-0.106
-652.843	132.501	-0.130	-0.168
-651.828	-115.069	-0.254	0.048
-650.814	555.582	-0.043	-0.103
-649.799	-139.496	0.352	-0.038
-648.784	-76.335	-0.054	0.019
-647.770	-152.104	-0.227	0.016
-646.755	84.491	-0.220	0.240
-645.741	493.348	0.072	0.165
-644.726	-26.159	0.153	-0.090
-643.711	-200.000	0.007	0.116
-642.697	-132.499	0.235	-0.030
-641.682	-78.190	0.315	-0.108
-640.668	-200.000	-0.026	-0.218
-639.653	75.214	-0.059	-0.062
-638.638	-121.806	-0.147	-0.024
-637.624	800.000	0.051	-0.140
-636.609	-15.348	0.220	-0.140
-635.595	118.031	-0.222	0.274
-634.580	6.248	-0.126	0.093
-633.565	-54.782	0.230	-0.104
-632.551	-50.068	-0.199	-0.094
-631.536	537.097	0.064	0.151
-630.522	-14.109	-0.035	0.023
-629.507	-91.473	-0.160	-0.046
-628.492	58.916	0.292	0.287
-627.478	-77.607	-0.019	-0.007
-626.463	800.000	-0.093	-0.341
-625.449	-31.565	-0.255	0.143
-624.434	-57.107	-0.255	-0.112
-623.419	768.556	-0.038	-0.103
-622.405	59.397	0.217	-0.214
-621.390	21.316	-0.251	0.204
-620.376	-156.353	-0.359	0.022
-619.361	-142.594	-0.081	0.008
-618.346	-11.246	0.071	-0.047
-617.332	213.234	0.126	-0.199
-616.317	-71.485	0.108	-0.040
-615.303	-62.417	-0.007	0.003
-614.288	-17.501	-0.220	-0.138
-613.273	48.102	0.144	0.134
-612.259	305.282	0.160	-0.297
-611.244	-90.352	-0.416	0.120
-610.230	800.000	0.028	-0.077
-609.215	-148.681	-0.146	-0.012
-608.201	164.542	0.142	0.200
-607.186	541.680	-0.068	-0.162
-606.171	674.161	0.086	0.222
-605.157	-99.787	0.235	0.059
-604.142	-72.552	-0.220	-0.081
-603.128	-123.450	0.365	0.058
-602.113	-59.932	-0.251	0.107
-601.098	169.839	-0.080	0.115
-600.084	35.767	0.249	0.218
-599.069	685.145	0.060	0.156
-598.055	800.000	0.038	0.118
-597.040	-84.434	0.170	0.054
-596.025	41.141	-0.146	0.132
-595.011	-200.000	0.222	0.000
-593.996	201.382	0.052	0.080
-592.982	-88.291	-0.061	-0.018
-591.967	10.653	-0.184	0.140
-590.952	748.400	0.075	0.202
-589.938	-95.144	-0.310	0.083
-588.923	21.219	-0.214	0.173
-587.909	-1.155	-0.241	0.170
-586.894	-161.029	-0.108	0.006
-585.879	-111.345	0.363	-0.074
-584.865	-145.709	0.085	0.008
-583.850	44.125	-0.153	0.140
-582.836	360.144	-0.071	-0.142
-581.821	-200.000	-0.006	-0.346
-580.806	-200.000	0.036	-0.216
-579.792	15.574	0.151	0.118
-578.777	-37.267	0.107	-0.057
-577.763	51.284	-0.382	0.362
-576.748	-122.219	0.154	-0.025
-575.733	800.000	-0.035	-0.152
-574.719	111.580	0.106	-0.128
-573.704	148.439	-0.277	-0.373
-572.690	-200.000	-0.005	-0.175
-571.675	-200.000	-0.013	0.182
-570.661	63.916	-0.174	-0.175
-569.646	-200.000	-0.021	-0.100
-568.631	103.379	-0.092	-0.107
-567.617	65.196	0.273	-0.275
-566.602	-175.031	0.065	0.002
-565.588	-125.759	-0.101	0.015
-564.573	51.769	-0.384	0.364
-563.558	93.642	0.030	-0.034
-562.544	-157.827	0.086	0.005
-561.529	-200.000	0.009	0.232
-560.515	234.151	0.209	-0.343
-559.500	-35.556	-0.465	-0.251
-558.485	-69.866	-0.260	0.099
-557.471	703.754	0.045	-0.118
-556.456	-41.567	-0.104	-0.053
-555.442	-88.714	0.063	0.019
-554.427	-200.000	0.112	0.488
-553.412	800.000	-0.044	0.129
-552.398	800.000	-0.042	0.134
-551.383	198.756	0.171	0.260
-550.369	800.000	0.068	-0.270
-549.354	-96.221	0.174	-0.046
-548.339	800.000	0.046	0.154
-547.325	289.399	-0.048	-0.086
-546.310	-36.210	0.321	-0.172
-545.296	-25.737	0.263	-0.155
-544.281	242.838	-0.112	-0.187
-543.266	-33.637	-0.145	-0.079
-542.252	-44.451	0.262	-0.131
-541.237	7.009	0.083	-0.062
-540.223	118.794	-0.094	-0.115
-539.208	-13.433	-0.156	0.101
-538.193	77.503	0.085	-0.090
-537.179	26.115	-0.227	-0.189
-536.164	303.237	0.134	0.247
-535.150	-200.000	0.009	0.170
-534.135	318.139	0.153	0.288
-533.121	241.506	0.058	0.096
-532.106	-17.620	-0.232	0.145
-531.091	-195.194	0.181	0.001
-530.077	-200.000	-0.003	-0.030
-529.062	389.092	-0.061	0.125
-528.048	-22.304	0.097	0.058
-527.033	447.958	0.048	-0.105
-526.018	-93.597	-0.268	-0.074
-525.004	-200.000	0.004	0.417
-523.989	-70.025	-0.225	-0.085
-522.975	26.704	-0.188	0.157
-521.960	89.753	-0.193	0.214
-520.945	-200.000	0.002	-0.075
-519.931	20.140	-0.111	-0.089
-518.916	-35.634	0.293	0.158
-517.902	-103.652	-0.112	-0.026
-516.887	73.282	-0.164	-0.171
-515.872	116.666	0.170	-0.208
-514.858	-42.270	-0.292	-0.148
-513.843	-91.609	0.239	0.068
-512.829	-150.469	-0.169	0.013
-511.814	800.000	0.013	0.037
-510.799	-63.797	0.266	0.108
-509.785	-121.525	0.200	0.033
-508.770	800.000	-0.005	0.018
-507.756	-102.361	-0.321	-0.077
-506.741	-200.000	0.031	0.185
-505.726	-200.000	-0.033	-0.167
-504.712	-115.439	-0.364	0.068
-503.697	20.512	0.090	-0.072
-502.683	-200.000	-0.001	0.196
-501.668	268.010	-0.069	0.120
-500.653	64.899	-0.404	-0.405
-499.639	11.634	0.300	0.228
-498.624	-87.930	-0.328	0.098
-497.610	-200.000	-0.056	0.425
-496.595	76.423	-0.131	-0.137
-495.581	296.805	0.101	0.184
-494.566	-108.702	-0.384	0.082
-493.551	-134.094	-0.079	0.010
-492.537	-200.000	0.028	-0.349
-491.522	-31.342	-0.241	0.135
-490.508	800.000	0.015	0.055
-489.493	98.618	0.161	-0.184
-488.478	-100.049	0.292	0.072
-487.464	55.352	-0.084	0.081
-486.449	35.215	0.115	0.100
-485.435	-58.074	0.079	0.034
-484.420	17.042	-0.085	0.067
-483.405	-121.334	-0.194	-0.032
-482.391	-168.118	0.273	0.011
-481.376	-200.000	0.018	0.111
-480.362	-92.141	0.529	-0.149
-479.347	-58.183	0.316	0.137
-478.332	55.989	-0.122	0.117
-477.318	561.665	-0.101	-0.243
-476.303	106.536	-0.133	-0.157
-475.289	13.823	0.094	0.073
-474.274	396.825	0.082	0.170
-473.259	-79.115	0.039	0.013
-472.245	-87.977	0.353	-0.105
-471.230	337.725	0.109	-0.210
-470.216	-200.000	-0.025	0.112
-469.201	597.485	0.119	-0.294
-468.186	-200.000	0.089	-0.389
-467.172	-48.451	0.203	-0.097
-466.157	-14.648	0.201	0.128
-465.143	-200.000	-0.002	0.064
-464.128	800.000	0.081	0.276
-463.113	28.886	0.151	0.127
-462.099	-62.785	-0.134	-0.055
-461.084	275.380	0.087	-0.153
-460.070	-200.000	-0.011	0.202
-459.055	-80.464	-0.057	0.019
-458.040	-96.747	0.080	0.021
-457.026	-188.192	-0.202	0.003
-456.011	-72.401	0.034	0.013
-454.997	-200.000	-0.074	0.351
-453.982	-200.000	0.015	0.117
-452.968	30.910	-0.075	-0.064
-451.953	193.093	0.168	0.252
-450.938	-7.949	0.360	-0.241
-449.924	-108.745	-0.232	0.049
-448.909	-200.000	-0.010	0.214
-447.895	-59.415	0.292	-0.124
-446.880	5.621	0.268	0.196
-445.865	-200.000	0.002	-0.165
-444.851	-130.506	-0.198	-0.027
-443.836	105.332	0.132	-0.155
-442.822	800.000	-0.058	0.197
-441.807	120.633	0.115	0.142
-440.792	800.000	-0.062	0.212
-439.778	-200.000	0.036	-0.220
-438.763	-71.614	-0.117	-0.043
-437.749	193.351	0.204	0.305
-436.734	-114.766	0.332	-0.063
-435.719	33.555	-0.037	-0.032
-434.705	-51.905	-0.401	-0.185
-433.690	-200.000	0.015	0.294
-432.676	50.287	0.200	0.187
-431.661	44.766	-0.118	-0.108
-430.646	-200.000	-0.001	-0.023
-429.632	135.784	-0.158	0.203
-428.617	-200.000	-0.058	-0.294
-427.603	800.000	0.076	-0.215
-426.588	370.983	-0.118	-0.237
-425.573	-82.561	0.064	0.021
-424.559	-86.841	0.085	-0.026
-423.544	-157.611	0.338	0.020
-422.530	-200.000	-0.007	-0.038
-421.515	0.614	-0.205	0.145
-420.500	800.000	-0.116	0.416
-419.486	197.691	0.063	0.095
-418.471	-98.994	-0.383	-0.096
-417.457	109.128	0.088	0.104
-416.442	-200.000	0.003	-0.238
-415.428	-128.355	-0.128	-0.018
-414.413	2.058	0.176	-0.126
-413.398	-200.000	0.011	0.479
-412.384	-200.000	-0.025	0.220
-411.369	-103.249	0.108	-0.025
-410.355	-200.000	0.034	-0.217
-409.340	-200.000	-0.056	0.390
-408.325	-106.122	-0.217	-0.048
-407.311	190.571	-0.112	-0.167
-406.296	146.090	0.052	0.069
-405.282	230.892	-0.090	-0.146
-404.267	359.302	-0.096	-0.190
-403.252	-83.949	-0.023	-0.007
-402.238	-200.000	0.002	0.253
-401.223	2.341	-0.041	0.030
-400.209	-200.000	-0.024	-0.149
-399.194	800.000	-0.110	-0.330
-398.179	-200.000	-0.020	-0.256
-397.165	-14.643	0.168	0.107
-396.150	-200.000	-0.015	0.069
-395.136	11.952	-0.255	0.194
-394.121	-8.202	-0.266	-0.177
-393.106	-116.335	0.172	0.031
-392.092	-88.468	-0.338	-0.100
-391.077	800.000	-0.066	-0.191
-390.063	800.000	0.075	0.252
-389.048	622.670	-0.158	-0.393
-388.033	-146.841	0.460	-0.039
-387.019	800.000	0.092	-0.252
-386.004	-156.698	-0.266	-0.016
-384.990	44.815	-0.084	0.077
-383.975	-60.549	0.165	-0.070
-382.960	214.806	0.211	-0.330
-381.946	-200.000	0.002	0.016
-380.931	589.957	-0.077	0.189
-379.917	46.253	0.045	0.042
-378.902	104.885	-0.091	0.106
-377.888	-200.000	0.051	0.245
-376.873	-85.793	0.103	-0.032
-375.858	-61.389	0.204	0.085
-374.844	-127.493	-0.230	-0.033
-373.829	88.943	0.324	0.357
-372.815	540.831	-0.078	-0.183
-371.800	-200.000	-0.003	0.039
-370.785	-56.195	-0.191	0.084
-369.771	-146.299	0.237	-0.021
-368.756	35.627	0.062	-0.054
-367.742	-200.000	-0.046	-0.283
-366.727	-138.049	0.307	0.034
-365.712	-91.150	0.095	0.027
-364.698	-12.722	0.155	0.100
-363.683	-56.544	-0.249	0.109
-362.669	-91.291	-0.070	-0.020
-361.654	-200.000	-0.007	-0.044
-360.639	206.125	-0.086	0.132
-359.625	-27.814	-0.385	-0.221
-358.610	-103.003	-0.300	-0.070
-357.596	-73.768	0.080	-0.029
-356.581	-200.000	-0.068	-0.298
-355.566	84.254	0.211	0.228
-354.552	-68.152	0.092	-0.035
-353.537	8.876	0.098	0.073
-352.523	162.612	0.208	0.288
-351.508	-135.243	-0.044	0.005
-350.493	-168.375	0.074	-0.003
-349.479	5.807	0.115	0.084
-348.464	513.539	0.011	-0.025
-347.450	39.140	-0.222	-0.196
-346.435	-83.527	0.298	-0.094
-345.420	62.166	-0.089	-0.087
-344.406	-39.919	-0.164	-0.084
-343.391	-200.000	-0.019	-0.094
-342.377	5.278	-0.327	-0.238
-341.362	-200.000	0.021	-0.195
-340.348	471.615	0.158	-0.351
-339.333	-88.452	-0.209	-0.062
-338.318	800.000	-0.067	-0.183
-337.304	262.725	0.094	0.160
-336.289	288.947	0.091	-0.163
-335.275	421.916	0.099	-0.209
-334.260	-70.857	-0.148	-0.055
-333.245	8.620	-0.029	-0.022
-332.231	-103.406	-0.161	-0.037
-331.216	-200.000	0.012	0.175
-330.202	231.803	0.074	-0.119
-329.187	80.515	-0.190	-0.202
-328.172	155.585	0.057	-0.078
-327.158	-92.335	-0.275	-0.076
-326.143	-200.000	-0.011	0.245
-325.129	-158.101	-0.171	-0.010
-324.114	11.720	0.230	-0.175
-323.099	-122.165	-0.382	-0.062
-322.085	-200.000	0.024	-0.344
-321.070	800.000	-0.028	-0.100
-320.056	94.927	0.082	0.092
-319.041	432.575	0.080	0.171
-318.026	800.000	0.098	0.291
-317.012	54.849	0.222	-0.211
-315.997	-85.457	0.169	-0.052
-314.983	-200.000	0.080	0.357
-313.968	365.729	-0.090	0.180
-312.953	-32.746	0.109	-0.060
-311.939	800.000	-0.029	0.105
-310.924	201.998	0.109	0.165
-309.910	443.044	-0.019	0.042
-308.895	364.788	0.096	0.191
-307.880	35.294	0.146	0.126
-306.866	172.149	-0.100	-0.142
-305.851	-55.563	0.042	0.018
-304.837	-130.740	0.439	0.058
-303.822	-200.000	0.005	0.157
-302.807	-27.760	-0.216	-0.124
-301.793	56.491	0.186	-0.178
-300.778	800.000	0.161	0.582
-299.764	-200.000	-0.036	-0.300
-298.749	-95.606	0.145	-0.038
-297.735	-200.000	0.052	-0.318
-296.720	-43.837	-0.180	-0.090
-295.705	165.841	0.067	-0.093
-294.691	-112.686	0.053	-0.010
-293.676	32.692	0.210	0.179
-292.662	484.127	0.046	0.104
-291.647	-200.000	0.019	0.228
-290.632	167.992	0.202	0.284
-289.618	53.779	-0.307	0.290
-288.603	-36.987	-0.134	-0.071
-287.589	-200.000	-0.006	0.131
-286.574	-122.381	0.304	0.049
-285.559	331.216	-0.043	-0.083
-284.545	200.027	0.186	0.281
-283.530	-80.159	0.271	0.090
-282.516	11.129	-0.058	-0.044
-281.501	-94.922	-0.272	-0.073
-280.486	-116.909	0.460	0.083
-279.472	63.641	0.110	0.109
-278.457	481.349	0.037	0.082
-277.443	448.913	0.065	0.141
-276.428	124.565	0.089	0.111
-275.413	-97.683	0.325	-0.083
-274.399	-43.957	-0.222	-0.110
-273.384	45.207	0.226	0.206
-272.370	-86.636	0.102	0.031
-271.355	73.826	0.058	-0.060
-270.340	-8.315	0.143	-0.095
-269.326	89.825	-0.041	-0.045
-268.311	-200.000	0.027	-0.381
-267.297	3.009	-0.283	-0.202
-266.282	-200.000	-0.029	-0.236
-265.267	118.530	-0.117	-0.142
-264.253	183.176	0.135	-0.196
-263.238	-116.257	0.121	0.022
-262.224	295.498	0.116	0.209
-261.209	56.178	-0.079	-0.075
-260.195	197.359	0.239	-0.359
-259.180	75.264	-0.084	-0.087
-258.165	-200.000	0.006	-0.037
-257.151	398.232	0.125	-0.258
-256.136	288.976	-0.073	0.129
-255.122	303.278	-0.027	-0.050
-254.107	325.204	-0.035	-0.066
-253.092	294.396	-0.129	0.233
-252.078	89.019	-0.070	-0.077
-251.063	43.475	0.142	0.128
-250.049	234.805	0.073	0.119
-249.034	-75.026	0.250	0.088
-248.019	201.483	0.053	-0.081
-247.005	800.000	-0.113	-0.325
-245.990	-142.946	-0.255	-0.024
-244.976	-89.042	0.155	0.045
-243.961	754.271	-0.160	-0.427
-242.946	583.104	0.093	0.224
-241.932	540.782	-0.086	-0.201
-240.917	-57.668	-0.450	-0.194
-239.903	-52.275	0.170	-0.078
-238.888	-78.023	-0.258	0.087
-237.873	293.318	0.174	-0.313
-236.859	-67.966	0.153	-0.059
-235.844	130.050	-0.294	0.370
-234.830	-200.000	-0.004	-0.046
-233.815	59.694	-0.107	0.103
-232.800	205.056	0.158	-0.242
-231.786	-34.376	-0.217	-0.117
-230.771	-39.349	-0.181	0.093
-229.757	78.563	-0.259	-0.272
-228.742	-91.489	0.267	-0.075
-227.727	-13.094	-0.022	-0.014
-226.713	-138.950	0.128	-0.014
-225.698	106.798	0.032	0.037
-224.684	-99.522	0.443	-0.110
-223.669	-7.711	-0.121	-0.080
-222.655	-92.918	-0.171	-0.047
-221.640	-200.000	0.013	-0.127
-220.625	-28.083	-0.248	-0.141
-219.611	-96.586	0.109	0.028
-218.596	14.957	-0.370	-0.284
-217.582	-73.037	-0.194	-0.070
-216.567	-123.262	0.279	0.044
-215.552	-95.519	-0.347	0.092
-214.538	-200.000	0.005	-0.076
-213.523	-200.000	-0.018	-0.444
-212.509	-200.000	-0.011	0.113
-211.494	800.000	0.064	0.195
-210.479	-20.033	-0.159	-0.097
-209.465	109.669	-0.239	0.282
-208.450	6.934	-0.217	-0.159
-207.436	800.000	-0.017	0.057
-206.421	0.877	-0.293	0.206
-205.406	-13.224	-0.089	-0.057
-204.392	-21.486	-0.205	0.123
-203.377	107.687	-0.133	-0.156
-202.363	800.000	0.055	-0.205
-201.348	-109.909	-0.342	0.070
-200.333	316.263	0.110	0.204
-199.319	-200.000	0.010	0.172
-198.304	691.896	0.094	-0.242
-197.290	185.723	-0.150	0.219
-196.275	-47.619	-0.270	-0.129
-195.260	368.027	-0.093	0.185
-194.246	90.162	0.134	-0.147
-193.231	223.773	-0.044	0.069
-192.217	-165.846	0.115	-0.005
-191.202	-200.000	0.043	0.304
-190.187	-112.313	0.156	0.031
-189.173	-5.377	-0.207	-0.139
-188.158	452.269	0.148	0.322
-187.144	465.909	0.051	-0.112
-186.129	-39.392	-0.254	0.131
-185.114	-10.915	0.226	-0.146
-184.100	-185.036	-0.175	0.003
-183.085	-200.000	0.015	0.263
-182.071	-61.468	0.206	0.085
-181.056	-165.001	-0.192	-0.008
-180.042	-97.901	-0.208	-0.053
-179.027	800.000	-0.083	-0.324
-178.012	-21.724	0.316	0.189
-176.998	-200.000	-0.075	0.376
-175.983	30.143	0.403	0.338
-174.969	55.089	0.106	-0.101
-173.954	8.741	0.387	0.286
-172.939	35.328	0.189	-0.163
-171.925	800.000	-0.089	0.331
-170.910	225.964	0.066	0.106
-169.896	-17.389	0.106	-0.065
-168.881	-107.233	-0.088	-0.019
-167.866	-42.398	0.091	-0.045
-166.852	-200.000	0.014	0.213
-165.837	-42.040	0.091	-0.046
-164.823	465.039	-0.098	-0.216
-163.808	-130.776	-0.261	-0.034
-162.793	-52.985	0.157	0.071
-161.779	102.200	-0.178	-0.204
-160.764	365.839	0.088	-0.173
-159.750	-200.000	-0.029	0.172
-158.735	270.737	0.136	0.235
-157.720	800.000	-0.087	-0.241
-156.706	633.341	-0.122	-0.302
-155.691	-200.000	0.074	0.341
-154.677	-23.131	0.247	-0.146
-153.662	737.173	-0.066	0.174
-152.647	-91.394	0.161	-0.045
-151.633	800.000	-0.034	-0.113
-150.618	-200.000	0.029	0.153
-149.604	76.627	-0.144	-0.150
-148.589	194.374	-0.079	0.117
-147.574	-20.849	0.226	0.136
-146.560	387.502	0.113	-0.228
-145.545	254.682	-0.095	0.159
-144.531	-20.585	-0.367	0.221
-143.516	356.127	0.044	-0.085
-142.502	-200.000	-0.014	-0.068
-141.487	76.981	0.169	-0.176
-140.472	-58.567	-0.253	-0.107
-139.458	-40.503	0.023	-0.012
-138.443	636.541	-0.141	0.352
-137.429	-200.000	-0.015	-0.074
-136.414	-200.000	-0.006	0.224
-135.399	465.661	0.090	-0.198
-134.385	-20.200	-0.191	0.115
-133.370	182.054	-0.047	0.068
-132.356	-200.000	-0.064	0.326
-131.341	39.391	0.085	0.074
-130.326	800.000	0.042	-0.153
-129.312	-141.432	-0.300	-0.030
-128.297	484.344	-0.089	-0.199
-127.283	-200.000	-0.054	-0.256
-126.268	-200.000	-0.012	-0.236
-125.253	-83.146	-0.278	-0.088
-124.239	-105.765	0.391	-0.087
-123.224	-200.000	-0.003	0.032
-122.210	800.000	-0.019	0.069
-121.195	-65.654	0.261	-0.103
