DTS Sentinel unit serial number:	SN413079Multiplexer serial number:	ORYXHardware model number:	OX4-SRSoftware version number:	ORYX F/W v4.00 Oryx Data Collector v3.7.2.0data status	okinstallation	princeton_trtdifferential loss correction	single-endedforward channel	channel 3reverse channel	N/Adate	2019/09/18time	10:00:34forward acquisition time	60.00reverse acquisition time	0.00gamma	496.2192k internal	0.2333k external	0.2333temperature offset calibration	0.9950default loss term (dB/km)	0.3790temperature slope calibration	1.0000multiplexer offset coefficient	1.0000multiplexer slope coefficient	1.0000fibre end	0.00T internal ref (°C)	27.44T ext. ref 1 (°C)	0.31T ext. ref 2 (°C)	23.98length (m)	temperature (°C)	Stokes	anti-Stokes-747.200	-11.378	-0.164	0.109
-746.185	800.000	0.053	0.226
-745.171	-90.971	-0.191	-0.055
-744.156	-101.354	-0.201	-0.049
-743.142	-200.000	-0.012	0.412
-742.127	128.265	-0.169	-0.216
-741.112	343.997	-0.193	0.380
-740.098	-117.775	0.216	-0.039
-739.083	-144.124	-0.492	0.046
-738.069	-200.000	0.021	0.335
-737.054	156.190	0.209	-0.290
-736.039	46.601	-0.109	0.101
-735.025	153.385	0.092	0.127
-734.010	140.481	-0.198	-0.262
-732.996	190.798	-0.134	-0.202
-731.981	800.000	0.029	-0.123
-730.966	-200.000	0.019	-0.185
-729.952	-200.000	-0.261	0.001
-728.937	501.249	0.074	0.171
-727.923	108.361	0.095	-0.114
-726.908	800.000	-0.076	0.298
-725.894	-83.005	-0.348	-0.113
-724.879	152.883	0.186	-0.255
-723.864	32.203	-0.088	-0.076
-722.850	-200.000	-0.027	0.311
-721.835	-200.000	0.019	0.185
-720.821	-3.640	-0.141	0.099
-719.806	594.989	0.023	0.056
-718.791	39.902	0.025	-0.022
-717.777	-100.282	-0.116	-0.029
-716.762	-200.000	-0.009	-0.150
-715.748	6.508	-0.164	0.122
-714.733	-200.000	0.012	0.324
-713.718	-122.068	-0.200	-0.033
-712.704	198.540	-0.081	-0.124
-711.689	800.000	-0.081	-0.247
-710.675	-135.200	-0.567	0.068
-709.660	-122.930	0.076	0.012
-708.645	-200.000	0.045	-0.242
-707.631	-65.332	0.320	0.129
-706.616	-158.675	0.151	-0.009
-705.602	471.664	-0.152	-0.343
-704.587	38.599	-0.233	0.209
-703.572	-88.460	-0.309	0.093
-702.558	-200.000	-0.022	-0.168
-701.543	800.000	0.096	-0.302
-700.529	-200.000	-0.015	0.206
-699.514	-200.000	0.044	-0.316
-698.499	800.000	-0.129	-0.360
-697.485	-197.878	0.296	-0.002
-696.470	148.497	-0.263	0.357
-695.456	-200.000	0.040	0.242
-694.441	-15.134	0.221	-0.142
-693.426	331.114	-0.090	-0.175
-692.412	29.607	-0.127	-0.108
-691.397	-58.991	-0.157	-0.068
-690.383	-129.941	0.230	0.032
-689.368	0.984	-0.018	0.013
-688.354	-200.000	0.015	-0.284
-687.339	614.988	0.062	-0.155
-686.324	112.547	-0.155	-0.188
-685.310	-100.770	0.228	0.056
-684.295	800.000	0.040	0.116
-683.281	69.631	-0.138	-0.142
-682.266	-10.961	0.111	-0.073
-681.251	61.346	-0.197	0.196
-680.237	800.000	0.048	0.191
-679.222	-103.581	-0.387	0.091
-678.208	-200.000	0.010	0.292
-677.193	-25.953	0.068	-0.040
-676.178	-33.725	-0.093	-0.052
-675.164	-86.998	0.172	-0.053
-674.149	-14.873	-0.177	0.114
-673.135	49.490	-0.343	0.323
-672.120	47.370	0.455	-0.425
-671.105	-63.902	0.274	0.113
-670.091	-38.722	-0.296	-0.157
-669.076	126.752	-0.069	0.088
-668.062	-27.461	-0.120	0.070
-667.047	-61.650	-0.182	0.077
-666.032	-68.925	-0.178	0.069
-665.018	-200.000	0.106	-0.515
-664.003	536.836	-0.171	0.407
-662.989	292.237	0.028	-0.051
-661.974	285.329	-0.111	-0.200
-660.959	-55.989	-0.123	0.055
-659.945	89.174	0.113	-0.126
-658.930	-84.082	-0.160	-0.051
-657.916	537.690	-0.196	0.468
-656.901	-200.000	0.001	0.017
-655.886	-200.000	0.020	0.156
-654.872	182.783	0.253	0.374
-653.857	46.173	-0.126	-0.117
-652.843	-200.000	-0.012	-0.089
-651.828	-64.798	0.082	-0.033
-650.814	-200.000	-0.025	-0.222
-649.799	800.000	0.089	-0.309
-648.784	-110.739	-0.212	-0.044
-647.770	-175.526	-0.176	0.005
-646.755	800.000	-0.023	0.084
-645.741	-3.840	0.091	0.063
-644.726	-81.412	-0.227	-0.075
-643.711	-142.275	0.364	0.036
-642.697	-116.911	0.144	-0.026
-641.682	800.000	-0.065	-0.199
-640.668	-58.047	0.226	-0.099
-639.653	-85.900	-0.223	-0.069
-638.638	-109.799	0.304	0.064
-637.624	114.320	-0.203	-0.248
-636.609	-57.170	-0.112	-0.049
-635.595	-62.470	-0.028	-0.012
-634.580	-124.755	0.122	0.019
-633.565	800.000	-0.077	0.295
-632.551	-37.194	-0.163	0.087
-631.536	-83.895	-0.048	0.015
-630.522	653.758	-0.060	-0.153
-629.507	84.035	0.200	-0.219
-628.492	-54.163	-0.271	-0.123
-627.478	5.555	0.122	0.090
-626.463	399.759	-0.083	-0.175
-625.449	-200.000	0.002	-0.170
-624.434	-117.355	-0.261	0.047
-623.419	45.706	-0.264	0.244
-622.405	565.797	-0.131	0.319
-621.390	313.795	-0.140	-0.263
-620.376	0.865	-0.102	0.073
-619.361	18.597	0.275	0.220
-618.346	565.240	0.189	-0.459
-617.332	-49.085	-0.203	0.097
-616.317	175.273	0.195	-0.282
-615.303	81.829	0.142	-0.154
-614.288	12.471	-0.121	-0.094
-613.273	800.000	0.018	0.068
-612.259	800.000	0.015	-0.049
-611.244	5.893	-0.442	0.327
-610.230	99.147	0.024	0.028
-609.215	170.418	0.221	0.317
-608.201	217.273	-0.137	0.219
-607.186	-200.000	0.011	-0.184
-606.171	-200.000	-0.002	0.178
-605.157	-86.874	0.416	-0.127
-604.142	-200.000	0.025	0.150
-603.128	597.842	-0.078	0.193
-602.113	-200.000	0.021	-0.141
-601.098	-156.857	-0.033	-0.002
-600.084	-200.000	0.042	-0.254
-599.069	-200.000	-0.021	0.148
-598.055	-61.256	0.401	-0.169
-597.040	800.000	0.052	-0.209
-596.025	2.702	-0.171	0.124
-595.011	-200.000	-0.033	-0.216
-593.996	-18.069	-0.406	-0.254
-592.982	-200.000	-0.036	-0.287
-591.967	-50.309	-0.704	0.333
-590.952	10.527	0.156	0.119
-589.938	-15.680	-0.170	-0.108
-588.923	224.411	0.073	-0.119
-587.909	148.214	0.173	0.233
-586.894	-78.122	-0.240	0.083
-585.879	188.768	-0.038	0.057
-584.865	-40.664	-0.147	-0.076
-583.850	-7.717	0.141	0.095
-582.836	14.332	0.100	0.078
-581.821	-125.364	-0.163	-0.025
-580.806	-200.000	0.008	-0.107
-579.792	478.189	-0.072	0.163
-578.777	-103.148	0.103	-0.024
-577.763	-100.518	-0.049	-0.012
-576.748	97.052	0.112	-0.128
-575.733	226.010	-0.056	0.091
-574.719	-200.000	0.106	-0.517
-573.704	138.871	-0.044	0.057
-572.690	-200.000	-0.021	0.186
-571.675	144.057	-0.046	-0.062
-570.661	-23.972	-0.187	0.112
-569.646	14.873	0.020	0.016
-568.631	31.805	0.147	-0.127
-567.617	431.212	0.111	-0.241
-566.602	-5.042	0.140	0.096
-565.588	-43.395	-0.449	-0.227
-564.573	130.442	-0.173	0.222
-563.558	141.552	0.021	0.027
-562.544	-71.276	-0.081	-0.030
-561.529	-120.563	0.218	0.037
-560.515	-200.000	0.054	-0.297
-559.500	284.120	-0.060	-0.108
-558.485	78.688	0.119	0.127
-557.471	-200.000	-0.064	0.299
-556.456	-200.000	-0.033	0.202
-555.442	-98.668	0.317	-0.081
-554.427	42.043	0.146	0.132
-553.412	-200.000	-0.046	-0.253
-552.398	-186.997	-0.148	-0.002
-551.383	-26.133	-0.202	-0.119
-550.369	800.000	-0.067	-0.242
-549.354	-200.000	0.005	-0.031
-548.339	99.026	0.155	-0.179
-547.325	462.221	-0.166	0.369
-546.310	800.000	0.009	0.029
-545.296	800.000	-0.018	0.073
-544.281	124.704	0.053	0.066
-543.266	-115.159	-0.367	-0.069
-542.252	54.178	-0.054	0.052
-541.237	-31.320	-0.259	0.145
-540.223	102.466	-0.232	0.271
-539.208	-101.606	-0.125	0.030
-538.193	218.382	-0.116	-0.185
-537.179	-82.092	0.314	0.102
-536.164	15.440	-0.252	-0.197
-535.150	800.000	0.065	0.219
-534.135	40.805	0.248	0.223
-533.121	144.681	0.288	0.384
-532.106	-200.000	-0.015	0.258
-531.091	162.607	-0.252	0.352
-530.077	184.849	0.131	0.193
-529.062	82.746	-0.044	-0.048
-528.048	137.323	-0.094	0.122
-527.033	-9.402	-0.197	0.131
-526.018	201.411	0.131	0.201
-525.004	-137.777	-0.235	-0.026
-523.989	-91.016	0.416	-0.119
-522.975	-200.000	-0.019	0.198
-521.960	254.570	-0.154	0.262
-520.945	-92.825	0.449	0.125
-519.931	-200.000	-0.024	-0.194
-518.916	-128.547	0.169	0.024
-517.902	-94.398	-0.068	0.018
-516.887	231.601	-0.116	-0.189
-515.872	20.657	0.046	-0.037
-514.858	50.109	0.197	-0.185
-513.843	244.737	0.067	0.113
-512.829	99.214	-0.176	-0.203
-511.814	82.564	-0.233	-0.253
-510.799	439.902	-0.026	0.056
-509.785	201.677	0.106	-0.162
-508.770	215.247	-0.066	0.105
-507.756	-85.998	-0.086	0.026
-506.741	-3.949	-0.148	0.102
-505.726	261.378	0.149	-0.257
-504.712	50.574	0.280	0.264
-503.697	-82.232	-0.172	0.056
-502.683	-200.000	-0.021	-0.213
-501.668	-200.000	-0.022	-0.106
-500.653	-200.000	0.014	-0.104
-499.639	-200.000	-0.018	0.186
-498.624	-144.032	0.040	0.004
-497.610	-200.000	0.034	0.186
-496.595	800.000	0.012	0.043
-495.581	754.627	0.040	0.108
-494.566	800.000	0.010	-0.037
-493.551	568.579	-0.185	-0.448
-492.537	-200.000	0.030	0.190
-491.522	-200.000	0.015	0.209
-490.508	305.741	-0.081	0.150
-489.493	-157.314	0.099	0.006
-488.478	800.000	-0.061	0.178
-487.464	800.000	0.034	-0.146
-486.449	-13.029	-0.172	0.111
-485.435	800.000	0.085	-0.239
-484.420	800.000	-0.055	-0.186
-483.405	-200.000	0.030	0.191
-482.391	-51.338	0.058	-0.027
-481.376	-52.496	0.194	0.089
-480.362	9.274	0.391	0.294
-479.347	800.000	-0.041	-0.161
-478.332	127.618	0.264	0.334
-477.318	325.822	-0.093	-0.176
-476.303	-65.899	-0.032	0.013
-475.289	-200.000	0.006	0.186
-474.274	9.846	0.011	-0.009
-473.259	-50.623	-0.214	0.100
-472.245	-135.696	0.116	0.014
-471.230	-200.000	0.020	0.223
-470.216	-49.492	0.578	-0.274
-469.201	-14.703	-0.060	-0.038
-468.186	-194.693	-0.303	0.002
-467.172	83.756	0.222	0.240
-466.157	292.487	0.083	0.150
-465.143	-56.688	-0.189	-0.083
-464.128	-131.015	0.051	-0.007
-463.113	-200.000	0.021	0.126
-462.099	-83.068	-0.170	0.055
-461.084	116.886	0.182	-0.223
-460.070	-200.000	-0.347	0.002
-459.055	28.600	0.260	-0.219
-458.040	-131.729	0.242	-0.032
-457.026	-97.702	-0.307	0.079
-456.011	45.883	-0.104	0.095
-454.997	-29.498	0.244	0.138
-453.982	180.998	0.171	0.249
-452.968	-200.000	0.024	-0.109
-451.953	-60.180	-0.197	-0.084
-450.938	-131.622	0.149	0.019
-449.924	-124.504	-0.374	-0.058
-448.909	-51.953	-0.261	-0.120
-447.895	-188.730	-0.232	-0.003
-446.880	800.000	0.077	0.285
-445.865	69.022	-0.091	-0.093
-444.851	495.491	0.081	-0.186
-443.836	117.435	0.092	-0.113
-442.822	-200.000	0.028	-0.236
-441.807	-200.000	0.013	-0.375
-440.792	389.886	0.111	-0.228
-439.778	693.207	-0.162	-0.423
-438.763	140.604	-0.105	-0.137
-437.749	-7.049	0.086	-0.058
-436.734	-127.105	-0.154	0.022
-435.719	-200.000	0.015	-0.323
-434.705	800.000	-0.073	-0.245
-433.690	-34.878	-0.056	-0.030
-432.676	-100.122	-0.066	0.016
-431.661	-162.850	-0.116	0.006
-430.646	-0.370	0.233	-0.164
-429.632	-13.211	-0.179	0.115
-428.617	-190.378	0.072	0.001
-427.603	-200.000	-0.001	0.046
-426.588	288.256	0.142	0.256
-425.573	-50.833	0.212	-0.099
-424.559	1.218	0.213	0.152
-423.544	-183.594	-0.530	-0.009
-422.530	38.400	0.312	-0.276
-421.515	-37.264	0.239	-0.127
-420.500	357.769	-0.082	0.162
-419.486	-63.047	0.301	0.123
-418.471	800.000	0.081	0.246
-417.457	-126.937	0.230	0.034
-416.442	-200.000	-0.003	-0.015
-415.428	-200.000	0.020	-0.164
-414.413	46.376	-0.050	-0.046
-413.398	800.000	-0.028	-0.103
-412.384	-200.000	0.021	0.146
-411.369	208.897	-0.226	0.351
-410.355	-27.743	0.154	-0.089
-409.340	46.046	-0.230	0.211
-408.325	-200.000	0.034	0.165
-407.311	-96.209	0.087	0.023
-406.296	-49.803	-0.402	-0.189
-405.282	-194.315	0.128	0.001
-404.267	-98.639	0.154	0.039
-403.252	-76.693	0.118	-0.041
-402.238	-21.582	-0.307	-0.185
-401.223	366.269	0.059	0.118
-400.209	-128.363	-0.269	-0.038
-399.194	-27.569	-0.094	0.054
-398.179	324.397	-0.134	0.254
-397.165	-145.377	-0.396	0.035
-396.150	157.067	0.119	-0.164
-395.136	-200.000	0.021	-0.144
-394.121	83.194	0.020	-0.021
-393.106	800.000	0.069	0.229
-392.092	-30.618	0.189	0.106
-391.077	80.693	0.155	0.166
-390.063	106.318	-0.301	-0.353
-389.048	-48.942	0.371	-0.176
-388.033	123.326	0.101	-0.125
-387.019	-36.467	0.117	-0.062
-386.004	-101.374	-0.049	0.012
-384.990	-164.923	0.137	0.006
-383.975	22.768	0.217	-0.176
-382.960	800.000	0.114	0.411
-381.946	108.667	-0.127	0.150
-380.931	-60.344	-0.207	-0.087
-379.917	-153.214	0.160	-0.011
-378.902	-4.943	-0.039	0.027
-377.888	-200.000	-0.003	0.122
-376.873	250.244	-0.060	0.101
-375.858	562.476	-0.054	0.128
-374.844	-120.417	-0.219	0.037
-373.829	-72.765	0.161	-0.059
-372.815	188.009	-0.163	-0.241
-371.800	-200.000	-0.008	0.430
-370.785	-124.097	0.223	-0.035
-369.771	-98.340	-0.104	-0.026
-368.756	701.092	0.061	-0.160
-367.742	364.055	0.060	0.119
-366.727	54.429	-0.091	0.087
-365.712	247.725	-0.207	0.346
-364.698	-82.838	-0.064	0.020
-363.683	435.282	-0.027	-0.058
-362.669	-200.000	-0.011	-0.183
-361.654	141.192	0.134	-0.175
-360.639	-153.510	-0.195	-0.013
-359.625	704.450	-0.070	-0.184
-358.610	53.931	-0.099	-0.094
-357.596	21.069	-0.207	0.166
-356.581	165.686	0.258	-0.362
-355.566	20.633	0.158	-0.126
-354.552	67.197	-0.184	-0.186
-353.537	-109.637	0.260	-0.054
-352.523	-200.000	-0.030	0.255
-351.508	-77.973	-0.164	-0.056
-350.493	-200.000	-0.017	-0.076
-349.479	-6.129	0.323	0.218
-348.464	-200.000	0.006	0.175
-347.450	-39.639	-0.295	0.153
-346.435	-200.000	0.046	0.237
-345.420	-45.649	0.235	0.115
-344.406	-94.738	-0.087	0.023
-343.391	128.088	0.070	-0.088
-342.377	-18.891	-0.189	-0.117
-341.362	116.916	-0.236	-0.286
-340.348	-140.352	-0.037	0.004
-339.333	-93.277	-0.341	0.094
-338.318	583.619	0.105	0.255
-337.304	-53.954	0.174	-0.078
-336.289	-96.030	-0.281	-0.074
-335.275	-79.282	0.116	0.039
-334.260	-200.000	-0.037	-0.284
-333.245	66.017	-0.157	-0.158
-332.231	-200.000	-0.019	-0.303
-331.216	-200.000	-0.076	-0.338
-330.202	-44.686	-0.110	-0.054
-329.187	5.250	0.264	0.193
-328.172	-46.981	-0.185	0.090
-327.158	-99.459	0.114	0.028
-326.143	247.130	0.216	-0.361
-325.129	176.732	-0.046	-0.066
-324.114	215.604	-0.042	-0.066
-323.099	118.018	-0.149	0.182
-322.085	-147.630	0.105	0.009
-321.070	-200.000	0.039	-0.467
-320.056	150.739	0.146	0.196
-319.041	800.000	0.106	-0.301
-318.026	-147.729	0.229	-0.019
-317.012	356.054	-0.090	-0.177
-315.997	-177.933	0.288	0.007
-314.983	190.515	0.041	0.061
-313.968	-35.429	0.148	-0.079
-312.953	-101.597	-0.469	0.113
-311.939	92.915	0.043	0.048
-310.924	800.000	0.030	0.090
-309.910	-109.766	-0.268	-0.056
-308.895	-200.000	0.008	-0.288
-307.880	563.304	0.077	-0.184
-306.866	800.000	0.085	0.270
-305.851	-184.257	-0.054	0.001
-304.837	800.000	0.048	0.178
-303.822	209.246	0.175	0.271
-302.807	-101.846	-0.273	0.065
-301.793	200.379	0.236	0.358
-300.778	-105.251	0.246	0.055
-299.764	-200.000	0.026	-0.264
-298.749	-110.478	-0.183	0.037
-297.735	-174.331	-0.255	-0.007
-296.720	-200.000	0.038	0.340
-295.705	145.601	0.138	-0.182
-294.691	82.209	-0.131	-0.140
-293.676	81.781	0.216	0.231
-292.662	545.316	-0.050	-0.118
-291.647	507.258	0.025	-0.057
-290.632	335.914	0.168	0.322
-289.618	-72.820	-0.091	0.033
-288.603	177.618	-0.122	-0.176
-287.589	800.000	0.177	0.496
-286.574	141.502	-0.304	-0.397
-285.559	-140.648	0.226	0.023
-284.545	-30.899	0.185	0.103
-283.530	-200.000	-0.006	-0.068
-282.516	-187.965	0.073	0.001
-281.501	-61.648	-0.069	-0.029
-280.486	-29.214	-0.199	-0.113
-279.472	-122.453	0.162	0.026
-278.457	800.000	-0.167	-0.533
-277.443	-33.386	0.164	0.090
-276.428	-43.105	-0.163	-0.082
-275.413	-123.742	0.194	0.030
-274.399	178.687	-0.066	0.095
-273.384	-44.938	0.185	-0.091
-272.370	-3.032	0.171	-0.118
-271.355	727.527	0.050	0.132
-270.340	190.279	0.179	0.265
-269.326	55.415	0.191	0.182
-268.311	-132.200	-0.382	0.049
-267.297	-200.000	-0.004	0.052
-266.282	800.000	-0.117	0.405
-265.267	800.000	0.057	-0.176
-264.253	-200.000	-0.079	-0.360
-263.238	323.654	0.131	-0.246
-262.224	800.000	0.100	0.276
-261.209	-101.457	0.109	-0.026
-260.195	-57.856	0.240	-0.104
-259.180	137.775	-0.155	0.201
-258.165	258.811	-0.079	-0.134
-257.151	-103.919	-0.348	0.080
-256.136	-200.000	0.015	0.278
-255.122	-21.000	0.196	0.118
-254.107	89.445	0.213	0.234
-253.092	56.573	0.095	-0.091
-252.078	-183.158	0.126	-0.002
-251.063	141.430	0.123	-0.161
-250.049	-64.766	0.150	0.060
-249.034	-200.000	0.018	-0.190
-248.019	481.488	0.115	-0.257
-247.005	71.760	-0.130	0.133
-245.990	-77.068	-0.130	0.045
-244.976	800.000	0.111	-0.446
-243.961	-200.000	-0.004	0.040
-242.946	-200.000	0.055	-0.350
-241.932	-76.253	0.318	-0.111
-240.917	-106.306	0.099	0.022
-239.903	125.386	-0.030	0.037
-238.888	-200.000	0.004	0.167
-237.873	200.776	-0.155	0.234
-236.859	800.000	-0.051	-0.206
-235.844	-69.375	-0.020	0.007
-234.830	227.826	-0.133	0.213
-233.815	265.636	-0.139	-0.240
-232.800	800.000	-0.019	-0.070
-231.786	143.423	0.062	0.082
-230.771	92.628	-0.151	0.168
-229.757	786.818	0.066	-0.178
-228.742	77.979	-0.143	0.150
-227.727	141.161	0.344	0.448
-226.713	-12.063	-0.417	0.269
-225.698	-125.037	0.129	-0.020
-224.684	394.019	-0.091	0.187
-223.669	800.000	0.089	0.358
-222.655	-106.335	0.229	0.051
-221.640	-200.000	-0.003	0.044
-220.625	-4.931	0.398	0.270
-219.611	800.000	-0.058	-0.181
-218.596	84.330	-0.075	-0.081
-217.582	438.341	-0.085	-0.183
-216.567	-172.138	0.196	0.006
-215.552	800.000	-0.112	0.338
-214.538	800.000	0.022	-0.069
-213.523	-19.031	-0.061	-0.037
-212.509	736.224	0.116	-0.306
-211.494	365.998	0.030	0.060
-210.479	-200.000	-0.064	-0.377
-209.465	159.056	0.034	0.046
-208.450	-200.000	-0.011	-0.075
-207.436	-200.000	-0.005	0.064
-206.421	800.000	0.079	-0.243
-205.406	800.000	-0.028	0.084
-204.392	296.276	-0.012	0.022
-203.377	134.333	-0.155	0.198
-202.363	-50.479	0.305	0.141
-201.348	-7.368	-0.265	0.177
-200.333	-144.395	0.180	-0.016
-199.319	-200.000	-0.009	0.148
-198.304	207.473	-0.155	-0.238
-197.290	31.379	0.127	0.108
-196.275	-68.994	0.203	0.077
-195.260	-81.123	0.210	-0.068
-194.246	140.187	-0.270	0.351
-193.231	-200.000	0.010	0.104
-192.217	-62.693	0.089	0.036
-191.202	21.133	0.174	-0.139
-190.187	-7.650	-0.258	0.171
-189.173	623.775	0.004	-0.011
-188.158	800.000	-0.050	0.140
-187.144	2.620	-0.101	0.072
-186.129	-75.327	-0.118	0.041
-185.114	119.378	0.093	-0.113
-184.100	-95.860	0.202	-0.053
-183.085	800.000	0.015	-0.062
-182.071	-116.293	0.316	-0.058
-181.056	-139.097	0.064	-0.007
-180.042	800.000	0.141	0.412
-179.027	-62.445	0.276	-0.113
-178.012	-200.000	-0.039	-0.210
-176.998	800.000	-0.092	-0.290
-175.983	480.352	0.027	0.059
-174.969	-144.860	-0.252	0.023
-173.954	-200.000	0.024	0.165
-172.939	74.703	0.086	0.089
-171.925	-200.000	-0.001	-0.105
-170.910	393.122	-0.116	0.237
-169.896	93.744	0.241	-0.269
-168.881	-57.710	-0.215	-0.092
-167.866	800.000	0.101	0.276
-166.852	-63.510	0.132	0.053
-165.837	231.955	0.181	-0.292
-164.823	-131.287	-0.457	0.060
-163.808	7.699	0.213	-0.157
-162.793	-81.912	-0.084	0.027
-161.779	800.000	-0.091	-0.271
-160.764	-200.000	0.006	-0.127
-159.750	-86.467	-0.357	0.108
-158.735	627.932	0.110	0.274
-157.720	800.000	0.100	-0.330
-156.706	-20.525	-0.160	0.096
-155.691	-118.878	-0.105	-0.018
-154.677	208.133	0.137	-0.210
-153.662	-12.497	-0.351	-0.225
-152.647	-200.000	0.016	-0.077
-151.633	-79.286	0.218	0.073
-150.618	-81.409	-0.370	0.120
-149.604	750.445	-0.080	0.211
-148.589	21.991	-0.051	0.041
-147.574	-15.765	-0.287	-0.179
-146.560	-70.383	0.167	0.062
-145.545	800.000	0.060	0.237
-144.531	800.000	-0.032	0.110
-143.516	-155.486	0.150	-0.009
-142.502	-79.559	-0.114	0.038
-141.487	-200.000	-0.007	-0.041
-140.472	131.520	-0.228	0.288
-139.458	163.565	0.042	0.058
-138.443	-200.000	0.019	0.358
-137.429	38.781	-0.281	0.247
-136.414	-62.183	-0.318	0.130
-135.399	-92.028	0.221	0.061
-134.385	-132.366	-0.238	-0.030
-133.370	199.020	-0.154	-0.231
-132.356	-15.916	-0.196	0.123
-131.341	-200.000	-0.053	0.239
-130.326	-23.313	0.321	-0.189
-129.312	800.000	-0.171	-0.466
-128.297	2.121	-0.153	0.109
-127.283	-200.000	0.009	-0.143
-126.268	104.628	-0.168	-0.194
-125.253	-194.913	0.197	-0.001
-124.239	-64.629	-0.083	0.033
-123.224	2.171	-0.090	-0.064
-122.210	-31.420	0.342	-0.189
-121.195	737.906	0.068	0.180
