DTS Sentinel unit serial number:	SN413079Multiplexer serial number:	ORYXHardware model number:	OX4-SRSoftware version number:	ORYX F/W v4.00 Oryx Data Collector v3.7.2.0data status	okinstallation	princeton_trtdifferential loss correction	single-endedforward channel	channel 3reverse channel	N/Adate	2019/09/16time	23:24:35forward acquisition time	60.00reverse acquisition time	0.00gamma	496.2192k internal	0.2325k external	0.2325temperature offset calibration	0.9936default loss term (dB/km)	0.3790temperature slope calibration	1.0000multiplexer offset coefficient	1.0000multiplexer slope coefficient	1.0000fibre end	0.00T internal ref (°C)	29.97T ext. ref 1 (°C)	0.09T ext. ref 2 (°C)	23.60length (m)	temperature (°C)	Stokes	anti-Stokes-747.200	-174.518	-0.207	0.006
-746.185	-200.000	0.040	0.236
-745.171	479.948	-0.069	-0.158
-744.156	-94.713	-0.192	0.053
-743.142	800.000	0.073	0.310
-742.127	-155.870	-0.237	-0.015
-741.112	-200.000	0.191	-0.001
-740.098	447.220	-0.088	0.196
-739.083	-191.906	-0.169	0.002
-738.069	-124.397	0.203	-0.032
-737.054	639.905	0.045	-0.116
-736.039	-46.244	0.117	0.058
-735.025	149.590	0.208	0.285
-734.010	102.612	-0.198	-0.233
-732.996	-99.884	-0.094	0.024
-731.981	196.975	0.021	0.032
-730.966	-163.359	-0.468	-0.023
-729.952	-121.915	0.133	-0.022
-728.937	-200.000	-0.286	-0.001
-727.923	-81.947	-0.223	-0.073
-726.908	-58.858	-0.350	0.153
-725.894	135.157	-0.096	0.126
-724.879	476.055	0.219	0.499
-723.864	19.065	0.277	0.224
-722.850	14.975	0.094	0.074
-721.835	524.595	0.108	-0.255
-720.821	76.420	-0.290	-0.310
-719.806	226.544	0.112	-0.183
-718.791	-179.156	-0.157	-0.004
-717.777	145.822	0.108	-0.146
-716.762	67.980	0.195	0.201
-715.748	41.700	-0.316	0.289
-714.733	-200.000	-0.026	-0.245
-713.718	-65.560	0.203	0.082
-712.704	-10.910	-0.200	0.133
-711.689	-73.121	-0.099	-0.037
-710.675	-99.057	-0.303	0.077
-709.660	-59.547	0.275	0.119
-708.645	800.000	-0.051	0.217
-707.631	-80.979	0.262	-0.087
-706.616	-200.000	0.031	0.173
-705.602	469.422	0.037	-0.083
-704.587	-154.388	0.074	-0.005
-703.572	-200.000	0.107	0.000
-702.558	-57.963	0.311	0.137
-701.543	71.367	0.119	-0.124
-700.529	-189.977	0.167	-0.002
-699.514	-200.000	0.008	-0.074
-698.499	-30.660	0.201	0.115
-697.485	-77.219	-0.283	0.099
-696.470	197.598	-0.186	0.286
-695.456	5.094	0.094	-0.070
-694.441	119.089	-0.221	-0.276
-693.426	-26.339	0.224	-0.132
-692.412	-127.916	-0.414	0.060
-691.397	486.787	-0.109	-0.249
-690.383	68.811	0.240	-0.248
-689.368	-57.100	0.174	0.077
-688.354	-200.000	-0.036	0.312
-687.339	-117.063	-0.111	-0.020
-686.324	312.809	0.097	0.184
-685.310	800.000	0.019	0.071
-684.295	-200.000	0.034	0.226
-683.281	-58.445	-0.266	-0.116
-682.266	-109.852	0.149	-0.032
-681.251	-88.239	-0.432	-0.130
-680.237	-200.000	-0.031	0.274
-679.222	67.708	-0.051	0.052
-678.208	800.000	0.037	0.156
-677.193	800.000	-0.050	0.157
-676.178	197.857	0.161	-0.248
-675.164	99.152	-0.105	0.123
-674.149	800.000	0.062	0.181
-673.135	-25.959	-0.247	0.146
-672.120	-71.142	0.725	-0.274
-671.105	-102.533	-0.250	-0.060
-670.091	800.000	0.033	0.126
-669.076	182.591	0.262	-0.388
-668.062	-75.155	-0.224	-0.080
-667.047	556.836	0.037	0.089
-666.032	25.947	-0.244	-0.204
-665.018	353.181	-0.107	0.214
-664.003	800.000	0.093	0.302
-662.989	5.312	-0.331	-0.246
-661.974	-46.130	-0.079	-0.039
-660.959	-20.346	0.085	-0.052
-659.945	-8.901	0.228	0.154
-658.930	607.913	0.096	0.242
-657.916	800.000	0.048	0.186
-656.901	-200.000	0.008	-0.157
-655.886	521.486	-0.052	0.123
-654.872	-200.000	0.034	0.361
-653.857	693.406	-0.048	-0.127
-652.843	146.622	0.094	-0.126
-651.828	-19.450	0.245	-0.153
-650.814	80.265	-0.173	-0.188
-649.799	-138.902	0.203	-0.022
-648.784	113.219	0.192	-0.234
-647.770	32.395	-0.200	-0.173
-646.755	18.426	-0.080	0.064
-645.741	-200.000	-0.007	0.113
-644.726	18.346	0.091	0.073
-643.711	-200.000	-0.029	-0.187
-642.697	174.311	0.054	0.078
-641.682	-91.876	-0.245	-0.070
-640.668	-65.321	0.340	0.137
-639.653	-51.728	0.263	-0.123
-638.638	-33.681	-0.089	0.049
-637.624	-200.000	-0.022	-0.159
-636.609	-5.589	-0.188	-0.129
-635.595	36.002	0.110	-0.097
-634.580	800.000	0.048	0.147
-633.565	-145.139	-0.204	0.019
-632.551	795.778	0.053	-0.148
-631.536	800.000	0.055	-0.153
-630.522	722.785	-0.078	0.209
-629.507	-28.377	-0.161	-0.093
-628.492	-200.000	-0.003	-0.110
-627.478	31.467	-0.235	0.203
-626.463	-200.000	-0.001	-0.123
-625.449	123.169	-0.110	-0.139
-624.434	202.041	0.120	0.186
-623.419	722.483	-0.061	0.163
-622.405	293.587	0.121	0.223
-621.390	800.000	0.050	-0.178
-620.376	-79.690	-0.241	0.081
-619.361	-200.000	0.005	-0.027
-618.346	194.844	0.115	-0.175
-617.332	800.000	-0.054	-0.164
-616.317	252.047	-0.117	-0.200
-615.303	-49.967	-0.146	-0.070
-614.288	-12.678	0.194	0.127
-613.273	600.248	0.122	-0.304
-612.259	-134.130	0.241	-0.030
-611.244	690.242	0.177	0.465
-610.230	-200.000	-0.036	0.429
-609.215	32.202	-0.199	0.173
-608.201	539.754	0.097	-0.231
-607.186	-166.448	-0.290	0.012
-606.171	-200.000	-0.022	-0.177
-605.157	-200.000	0.027	0.251
-604.142	41.059	-0.133	-0.121
-603.128	113.487	-0.113	-0.138
-602.113	-200.000	-0.055	-0.441
-601.098	-27.729	0.259	0.151
-600.084	-159.405	-0.147	0.008
-599.069	800.000	0.088	-0.277
-598.055	-109.549	0.188	-0.040
-597.040	-90.082	0.357	0.104
-596.025	549.420	0.122	-0.294
-595.011	-18.577	-0.457	-0.286
-593.996	-46.749	-0.139	-0.068
-592.982	202.767	0.123	0.190
-591.967	-156.401	0.146	-0.009
-590.952	-76.728	0.093	-0.033
-589.938	-80.923	0.215	-0.072
-588.923	-9.338	0.155	0.104
-587.909	800.000	0.031	0.104
-586.894	-200.000	0.006	-0.145
-585.879	715.315	-0.083	0.221
-584.865	-72.015	0.231	-0.086
-583.850	-200.000	-0.020	-0.257
-582.836	-94.809	-0.192	-0.052
-581.821	-200.000	0.002	-0.020
-580.806	95.357	-0.142	-0.162
-579.792	676.787	-0.111	-0.290
-578.777	-54.277	-0.119	-0.054
-577.763	-42.129	-0.159	0.082
-576.748	-151.627	0.069	0.005
-575.733	86.444	0.088	-0.097
-574.719	-200.000	-0.002	0.166
-573.704	510.803	-0.079	0.185
-572.690	187.389	0.053	-0.079
-571.675	800.000	-0.046	-0.174
-570.661	74.022	-0.124	-0.131
-569.646	384.266	0.179	-0.369
-568.631	124.307	0.257	0.324
-567.617	-69.174	-0.265	0.102
-566.602	-132.613	0.052	-0.007
-565.588	-29.879	0.314	-0.180
-564.573	377.754	-0.089	0.183
-563.558	-200.000	-0.013	-0.157
-562.544	-103.965	0.196	-0.046
-561.529	800.000	-0.038	-0.143
-560.515	200.759	-0.295	-0.454
-559.500	145.134	0.073	0.097
-558.485	-200.000	-0.032	0.162
-557.471	800.000	0.081	-0.252
-556.456	-80.062	0.372	0.125
-555.442	774.683	-0.126	0.344
-554.427	-71.080	0.142	0.054
-553.412	-22.904	0.447	0.270
-552.398	-82.474	0.256	0.083
-551.383	-63.876	0.081	0.033
-550.369	-160.323	-0.242	0.013
-549.354	325.677	0.088	-0.168
-548.339	-72.565	-0.204	0.076
-547.325	-99.390	-0.212	-0.053
-546.310	24.825	-0.153	0.127
-545.296	800.000	0.093	-0.323
-544.281	37.380	0.109	-0.097
-543.266	800.000	0.035	-0.128
-542.252	-200.000	0.007	0.054
-541.237	-56.471	-0.168	0.075
-540.223	-200.000	0.002	-0.102
-539.208	-100.687	0.331	0.082
-538.193	800.000	0.047	-0.204
-537.179	800.000	-0.057	-0.182
-536.164	-200.000	-0.055	-0.274
-535.150	338.344	0.110	0.214
-534.135	-4.161	-0.115	0.080
-533.121	44.006	-0.247	-0.227
-532.106	-200.000	0.007	-0.133
-531.091	209.692	0.088	-0.138
-530.077	105.878	-0.118	0.140
-529.062	-166.706	-0.209	-0.009
-528.048	-188.641	0.237	-0.003
-527.033	-140.945	0.139	-0.014
-526.018	-32.814	0.142	-0.079
-525.004	-19.308	0.162	0.100
-523.989	-83.181	-0.157	-0.051
-522.975	-4.992	0.210	-0.145
-521.960	366.865	0.052	0.105
-520.945	-112.460	-0.202	-0.040
-519.931	62.413	0.072	-0.072
-518.916	344.813	-0.217	0.427
-517.902	-123.862	-0.282	0.045
-516.887	-105.153	-0.163	0.037
-515.872	643.601	0.029	-0.074
-514.858	-200.000	-0.058	-0.580
-513.843	-200.000	0.006	-0.109
-512.829	-200.000	0.016	0.235
-511.814	800.000	-0.034	0.117
-510.799	8.303	-0.260	-0.195
-509.785	-160.368	0.329	0.018
-508.770	-137.165	0.171	0.020
-507.756	-200.000	0.001	-0.123
-506.741	449.084	-0.246	0.543
-505.726	800.000	-0.085	0.264
-504.712	447.793	-0.156	-0.343
-503.697	472.316	0.128	0.288
-502.683	-108.828	-0.224	0.048
-501.668	230.146	-0.090	-0.146
-500.653	-37.354	-0.248	-0.132
-499.639	-48.317	-0.244	0.118
-498.624	-200.000	0.020	0.108
-497.610	554.850	0.048	-0.115
-496.595	56.271	0.089	-0.087
-495.581	800.000	0.046	-0.198
-494.566	435.425	-0.143	0.310
-493.551	620.118	0.105	-0.263
-492.537	-200.000	-0.020	-0.154
-491.522	-200.000	-0.027	-0.208
-490.508	127.233	0.030	-0.038
-489.493	-9.900	-0.130	0.086
-488.478	10.712	-0.041	-0.032
-487.464	-200.000	-0.009	-0.065
-486.449	657.272	0.069	0.176
-485.435	-200.000	0.060	0.297
-484.420	295.843	0.049	0.089
-483.405	-200.000	0.006	-0.547
-482.391	493.776	0.138	-0.315
-481.376	19.771	0.083	0.067
-480.362	41.627	0.169	-0.153
-479.347	-22.707	-0.085	0.051
-478.332	-200.000	-0.029	0.421
-477.318	25.457	0.162	0.134
-476.303	-64.137	-0.130	0.053
-475.289	-99.424	0.399	0.100
-474.274	800.000	0.060	0.226
-473.259	-200.000	0.008	0.177
-472.245	-72.040	-0.153	-0.057
-471.230	-123.013	0.131	-0.021
-470.216	254.341	0.058	-0.099
-469.201	64.279	-0.304	-0.305
-468.186	-93.207	0.123	-0.034
-467.172	-200.000	-0.025	0.221
-466.157	133.111	0.234	-0.302
-465.143	72.873	0.056	0.058
-464.128	58.497	-0.082	-0.080
-463.113	129.843	-0.113	0.144
-462.099	89.187	-0.079	0.088
-461.084	249.795	0.068	0.115
-460.070	-200.000	0.074	-0.366
-459.055	-54.743	-0.048	0.022
-458.040	-83.204	-0.185	0.059
-457.026	-49.250	-0.184	-0.087
-456.011	-16.105	-0.169	-0.107
-454.997	-118.689	-0.453	-0.080
-453.982	777.340	-0.049	-0.133
-452.968	-189.290	0.116	0.001
-451.953	-200.000	0.032	-0.242
-450.938	-200.000	-0.025	0.259
-449.924	-149.744	-0.109	0.009
-448.909	592.802	-0.081	0.200
-447.895	-109.415	-0.140	0.029
-446.880	10.893	0.133	0.101
-445.865	-200.000	-0.013	-0.260
-444.851	-42.307	-0.340	-0.173
-443.836	-124.185	0.350	0.055
-442.822	-100.012	-0.127	-0.032
-441.807	800.000	0.076	0.263
-440.792	-100.360	-0.155	-0.038
-439.778	20.313	-0.106	-0.085
-438.763	-89.926	0.155	-0.045
-437.749	105.933	0.155	-0.182
-436.734	-113.686	-0.142	0.028
-435.719	-38.593	-0.048	-0.025
-434.705	800.000	-0.046	-0.146
-433.690	-200.000	0.001	-0.355
-432.676	-200.000	-0.005	0.160
-431.661	47.969	-0.068	0.063
-430.646	58.766	0.065	0.064
-429.632	-48.112	0.124	-0.060
-428.617	69.364	-0.091	0.093
-427.603	-80.617	0.176	-0.059
-426.588	255.662	0.025	-0.043
-425.573	-100.631	-0.284	0.070
-424.559	-122.915	-0.130	0.021
-423.544	-73.475	0.123	-0.045
-422.530	66.114	-0.189	-0.191
-421.515	166.231	0.028	-0.039
-420.500	125.105	0.067	-0.084
-419.486	499.844	-0.063	0.145
-418.471	261.286	0.063	0.108
-417.457	800.000	-0.039	0.131
-416.442	390.878	-0.024	0.050
-415.428	312.658	-0.149	-0.280
-414.413	288.054	0.078	0.140
-413.398	160.123	0.042	-0.059
-412.384	-130.351	0.158	0.021
-411.369	-200.000	-0.014	-0.116
-410.355	-200.000	-0.023	-0.267
-409.340	800.000	0.072	-0.248
-408.325	-135.735	0.137	0.016
-407.311	-200.000	-0.002	0.301
-406.296	-67.250	-0.215	0.084
-405.282	-169.689	0.039	-0.001
-404.267	-130.491	0.174	0.023
-403.252	164.490	0.294	0.412
-402.238	-22.556	0.068	0.041
-401.223	-139.248	-0.225	0.024
-400.209	9.697	-0.155	-0.117
-399.194	2.136	-0.107	0.077
-398.179	-65.654	0.272	-0.109
-397.165	-200.000	-0.050	0.257
-396.150	283.128	-0.062	-0.110
-395.136	800.000	-0.139	-0.460
-394.121	112.219	-0.171	-0.206
-393.106	-200.000	0.004	-0.143
-392.092	280.092	0.116	-0.207
-391.077	87.045	-0.216	-0.237
-390.063	-108.066	0.336	0.072
-389.048	-154.799	-0.098	0.006
-388.033	-149.753	-0.115	-0.009
-387.019	443.536	-0.116	-0.253
-386.004	-46.197	-0.016	0.008
-384.990	142.184	-0.135	0.178
-383.975	-137.525	0.188	0.021
-382.960	389.268	0.030	0.061
-381.946	539.945	0.065	-0.153
-380.931	-110.140	-0.287	0.060
-379.917	-19.407	0.200	-0.123
-378.902	800.000	0.091	0.284
-377.888	-142.789	0.239	-0.023
-376.873	-48.142	-0.375	0.180
-375.858	-200.000	-0.043	0.205
-374.844	-64.027	-0.283	-0.115
-373.829	-42.896	0.182	-0.092
-372.815	-120.009	0.106	-0.018
-371.800	-200.000	-0.043	0.271
-370.785	6.857	-0.239	0.177
-369.771	102.713	0.229	0.267
-368.756	185.042	0.066	0.098
-367.742	800.000	-0.075	-0.271
-366.727	65.736	-0.155	-0.157
-365.712	-200.000	0.084	0.400
-364.698	-49.100	0.164	-0.078
-363.683	-144.355	-0.345	0.032
-362.669	-71.982	-0.269	0.100
-361.654	154.081	0.045	0.061
-360.639	-200.000	-0.049	0.577
-359.625	-109.230	0.225	-0.048
-358.610	800.000	0.014	0.047
-357.596	800.000	0.142	0.412
-356.581	250.867	-0.040	-0.068
-355.566	68.821	-0.210	0.214
-354.552	-18.008	0.256	-0.159
-353.537	-129.684	0.166	0.023
-352.523	195.738	0.113	-0.170
-351.508	800.000	-0.106	0.446
-350.493	29.568	-0.256	-0.216
-349.479	-149.514	-0.193	0.015
-348.464	-98.306	0.315	-0.080
-347.450	800.000	-0.026	0.098
-346.435	184.733	-0.123	-0.181
-345.420	61.123	-0.264	0.261
-344.406	-20.538	-0.194	-0.119
-343.391	800.000	0.083	-0.309
-342.377	-93.401	0.172	0.047
-341.362	-52.717	-0.066	-0.030
-340.348	-46.060	0.267	-0.130
-339.333	207.971	0.090	0.140
-338.318	44.378	-0.174	-0.158
-337.304	126.553	0.087	0.109
-336.289	50.596	0.310	0.292
-335.275	800.000	-0.051	0.175
-334.260	-200.000	-0.013	0.303
-333.245	115.000	-0.076	-0.092
-332.231	230.164	-0.129	0.209
-331.216	-84.619	-0.175	-0.055
-330.202	800.000	-0.060	0.181
-329.187	800.000	0.041	-0.161
-328.172	162.124	-0.291	-0.404
-327.158	-200.000	0.023	0.143
-326.143	78.235	-0.034	0.036
-325.129	312.555	-0.111	0.207
-324.114	-59.269	-0.050	0.021
-323.099	-53.250	-0.231	0.105
-322.085	-6.309	-0.211	0.143
-321.070	-138.991	0.158	-0.017
-320.056	800.000	-0.060	-0.256
-319.041	-200.000	-0.031	0.195
-318.026	-200.000	0.015	0.113
-317.012	-200.000	0.057	-0.260
-315.997	133.782	-0.045	-0.058
-314.983	164.910	-0.064	0.090
-313.968	36.773	0.135	0.119
-312.953	-82.512	0.376	-0.121
-311.939	-193.941	-0.189	0.002
-310.924	105.644	-0.195	0.229
-309.910	154.387	0.145	-0.197
-308.895	349.806	-0.071	-0.140
-307.880	-200.000	-0.030	0.173
-306.866	-92.676	-0.152	-0.042
-305.851	-109.135	0.052	-0.011
-304.837	499.110	-0.092	0.211
-303.822	-5.116	0.114	-0.078
-302.807	792.934	-0.113	0.307
-301.793	800.000	0.077	0.213
-300.778	294.688	-0.080	0.145
-299.764	-75.078	-0.182	0.064
-298.749	73.109	-0.298	-0.309
-297.735	582.634	0.099	0.240
-296.720	800.000	-0.097	0.268
-295.705	151.778	-0.261	0.352
-294.691	-5.487	-0.239	-0.163
-293.676	119.840	0.139	0.171
-292.662	800.000	-0.114	0.324
-291.647	800.000	-0.056	0.206
-290.632	-120.911	0.166	0.028
-289.618	454.206	0.056	0.124
-288.603	-145.886	0.096	-0.008
-287.589	-92.397	-0.066	0.018
-286.574	800.000	0.075	-0.219
-285.559	-45.286	0.269	-0.133
-284.545	-200.000	-0.008	-0.081
-283.530	162.827	0.239	-0.332
-282.516	800.000	-0.103	-0.302
-281.501	-6.109	0.282	0.191
-280.486	457.704	-0.039	-0.087
-279.472	-200.000	0.002	0.233
-278.457	800.000	0.038	0.125
-277.443	-158.284	-0.117	-0.007
-276.428	800.000	-0.040	-0.153
-275.413	-14.369	-0.275	-0.176
-274.399	-171.936	0.111	0.004
-273.384	-200.000	0.010	0.101
-272.370	382.908	-0.080	0.163
-271.355	152.073	0.050	-0.068
-270.340	-95.821	-0.257	-0.068
-269.326	-73.864	0.388	0.139
-268.311	54.447	0.212	-0.202
-267.297	-52.820	-0.207	0.094
-266.282	201.644	-0.247	0.376
-265.267	-148.024	-0.277	0.023
-264.253	-13.650	0.165	-0.106
-263.238	-40.472	-0.398	0.205
-262.224	150.847	0.089	-0.120
-261.209	-6.576	0.189	0.128
-260.195	-45.932	0.256	0.125
-259.180	732.216	-0.106	0.280
-258.165	-19.755	0.281	0.172
-257.151	-68.064	0.251	0.097
-256.136	-36.189	-0.355	-0.190
-255.122	-200.000	-0.021	0.472
-254.107	-200.000	0.002	-0.116
-253.092	-200.000	-0.128	0.557
-252.078	-200.000	-0.050	0.322
-251.063	82.947	-0.203	-0.219
-250.049	800.000	-0.160	-0.442
-249.034	-200.000	0.043	-0.243
-248.019	-87.994	0.170	-0.051
-247.005	-34.040	0.464	0.253
-245.990	-200.000	0.002	-0.277
-244.976	-46.495	0.364	0.177
-243.961	-65.799	0.617	-0.244
-242.946	-24.749	0.226	-0.133
-241.932	-8.540	0.174	-0.115
-240.917	667.334	-0.046	0.118
-239.903	471.137	-0.075	-0.168
-238.888	173.550	0.149	-0.213
-237.873	-58.385	0.338	-0.145
-236.859	155.975	0.090	0.123
-235.844	28.659	0.083	-0.069
-234.830	-113.156	0.063	-0.012
-233.815	72.040	0.022	-0.023
-232.800	-195.077	-0.148	0.001
-231.786	-124.744	0.128	-0.020
-230.771	-39.876	-0.214	-0.110
-229.757	-200.000	0.000	0.034
-228.742	44.871	-0.146	-0.133
-227.727	27.348	-0.201	0.167
-226.713	-200.000	0.002	-0.055
-225.698	-200.000	0.011	0.238
-224.684	-81.468	-0.083	-0.027
-223.669	-109.988	0.289	-0.060
-222.655	688.101	0.102	0.265
-221.640	51.583	-0.199	-0.187
-220.625	-107.396	-0.328	0.071
-219.611	-25.214	-0.040	0.023
-218.596	18.158	-0.133	-0.105
-217.582	-57.760	-0.149	0.064
-216.567	-37.585	0.337	-0.177
-215.552	44.943	-0.150	-0.136
-214.538	13.472	0.026	0.020
-213.523	-92.664	0.359	0.100
-212.509	611.422	-0.117	0.289
-211.494	598.307	0.032	0.078
-210.479	-15.032	0.230	-0.146
-209.465	-83.089	-0.029	0.009
-208.450	800.000	0.051	0.174
-207.436	-63.653	0.036	0.015
-206.421	136.468	0.098	-0.127
-205.406	339.708	0.019	0.037
-204.392	-101.354	0.287	0.069
-203.377	800.000	-0.030	0.125
-202.363	32.700	0.057	0.048
-201.348	-106.127	0.434	-0.096
-200.333	-200.000	0.032	0.271
-199.319	-57.764	0.236	-0.102
-198.304	-89.461	0.209	0.061
-197.290	342.267	-0.032	-0.061
-196.275	151.253	-0.080	0.107
-195.260	-97.604	-0.219	-0.056
-194.246	-151.758	0.120	0.009
-193.231	367.690	-0.190	0.379
-192.217	800.000	-0.036	0.117
-191.202	-200.000	0.028	-0.232
-190.187	782.169	0.048	0.130
-189.173	800.000	-0.028	0.079
-188.158	303.666	0.062	0.113
-187.144	-95.488	-0.056	0.015
-186.129	800.000	0.130	-0.501
-185.114	-200.000	0.008	-0.039
-184.100	116.941	-0.070	-0.084
-183.085	-3.410	0.086	-0.059
-182.071	-200.000	0.015	0.128
-181.056	-182.170	-0.290	0.005
-180.042	21.183	-0.132	0.106
-179.027	223.677	-0.221	0.353
-178.012	-200.000	0.017	0.127
-176.998	41.409	0.059	-0.053
-175.983	-70.541	0.144	0.054
-174.969	-200.000	-0.083	0.361
-173.954	-200.000	0.013	0.090
-172.939	-63.047	0.105	0.043
-171.925	-145.772	0.247	0.022
-170.910	229.136	-0.119	0.191
-169.896	306.185	-0.007	-0.012
-168.881	-200.000	0.001	-0.285
-167.866	-79.176	0.262	0.088
-166.852	-200.000	0.034	-0.275
-165.837	-12.394	0.151	0.097
-164.823	338.351	0.053	0.101
-163.808	2.438	-0.217	-0.155
-162.793	26.968	0.136	0.113
-161.779	141.983	-0.117	-0.153
-160.764	-36.243	-0.269	-0.143
-159.750	-200.000	0.011	-0.134
-158.735	-107.009	0.221	0.048
-157.720	371.520	-0.123	-0.246
-156.706	95.177	0.128	-0.144
-155.691	644.757	-0.045	-0.113
-154.677	-115.939	0.285	-0.052
-153.662	-6.752	-0.109	-0.073
-152.647	-60.658	-0.213	-0.089
-151.633	8.321	-0.027	0.020
-150.618	-139.696	0.075	-0.008
-149.604	694.434	0.066	-0.170
-148.589	800.000	0.102	0.279
-147.574	-115.594	0.407	-0.075
-146.560	-134.535	0.123	0.015
-145.545	102.848	-0.190	-0.219
-144.531	-115.034	-0.206	-0.039
-143.516	311.637	0.063	-0.117
-142.502	-200.000	-0.012	-0.252
-141.487	270.173	0.273	-0.474
-140.472	-193.096	-0.165	-0.001
-139.458	138.224	0.040	0.051
-138.443	443.041	0.068	0.148
-137.429	-96.827	-0.308	-0.080
-136.414	540.311	0.055	-0.130
-135.399	16.116	-0.157	0.122
-134.385	-30.085	-0.169	0.095
-133.370	-135.794	0.513	-0.060
-132.356	329.985	-0.059	-0.112
-131.341	-44.188	0.406	0.201
-130.326	-154.207	0.473	0.031
-129.312	-127.722	-0.195	0.028
-128.297	-117.380	-0.184	0.033
-127.283	-128.037	0.072	0.010
-126.268	-124.134	-0.049	0.008
-125.253	25.463	-0.149	0.122
-124.239	-200.000	-0.001	-0.204
-123.224	-46.316	0.196	0.095
-122.210	-69.728	0.476	-0.179
-121.195	-64.403	0.147	-0.059
