DTS Sentinel unit serial number:	SN413079Multiplexer serial number:	ORYXHardware model number:	OX4-SRSoftware version number:	ORYX F/W v4.00 Oryx Data Collector v3.7.2.0data status	okinstallation	princeton_trtdifferential loss correction	single-endedforward channel	channel 3reverse channel	N/Adate	2019/09/18time	22:28:34forward acquisition time	60.00reverse acquisition time	0.00gamma	496.2192k internal	0.2345k external	0.2345temperature offset calibration	0.9991default loss term (dB/km)	0.3790temperature slope calibration	1.0000multiplexer offset coefficient	1.0000multiplexer slope coefficient	1.0000fibre end	0.00T internal ref (°C)	24.25T ext. ref 1 (°C)	0.80T ext. ref 2 (°C)	17.91length (m)	temperature (°C)	Stokes	anti-Stokes-747.200	463.833	-0.064	0.143
-746.185	-200.000	-0.014	-0.313
-745.171	43.182	0.306	0.279
-744.156	-66.592	0.061	-0.024
-743.142	424.109	-0.142	0.305
-742.127	431.831	0.015	0.034
-741.112	106.939	-0.083	-0.099
-740.098	-138.278	-0.241	-0.027
-739.083	357.365	-0.129	0.257
-738.069	180.207	-0.304	0.446
-737.054	36.904	0.105	0.093
-736.039	-86.508	-0.263	-0.081
-735.025	-200.000	-0.032	0.262
-734.010	800.000	-0.036	-0.121
-732.996	-114.394	-0.256	-0.049
-731.981	1.790	-0.239	-0.172
-730.966	-176.100	0.257	-0.007
-729.952	-45.353	-0.034	-0.017
-728.937	-200.000	0.021	-0.096
-727.923	-18.354	0.278	0.173
-726.908	412.190	0.079	-0.167
-725.894	-139.213	-0.384	-0.041
-724.879	-2.145	0.048	-0.033
-723.864	-115.220	-0.460	-0.087
-722.850	-100.712	-0.063	0.016
-721.835	345.097	-0.140	0.275
-720.821	-164.261	-0.298	0.014
-719.806	195.791	-0.205	-0.311
-718.791	800.000	-0.069	-0.293
-717.777	77.591	0.292	0.311
-716.762	181.386	-0.080	0.117
-715.748	460.641	-0.139	-0.310
-714.733	250.315	-0.180	0.305
-713.718	386.434	-0.055	0.114
-712.704	5.248	-0.140	0.103
-711.689	-200.000	0.035	-0.164
-710.675	112.786	-0.120	-0.145
-709.660	131.262	-0.087	0.111
-708.645	-137.443	-0.161	-0.018
-707.631	461.687	0.101	-0.225
-706.616	-79.641	-0.260	-0.088
-705.602	-77.509	0.267	-0.093
-704.587	-118.743	0.020	-0.004
-703.572	125.661	-0.288	-0.363
-702.558	800.000	0.038	-0.110
-701.543	-110.471	-0.515	0.107
-700.529	-0.952	-0.265	-0.187
-699.514	412.173	0.113	0.240
-698.499	-200.000	0.014	0.177
-697.485	-109.818	-0.163	-0.034
-696.470	-73.194	-0.112	-0.041
-695.456	-155.126	-0.132	0.009
-694.441	183.584	0.168	-0.247
-693.426	-150.046	0.168	-0.013
-692.412	46.197	0.375	-0.346
-691.397	-200.000	-0.012	-0.199
-690.383	-120.743	-0.264	-0.045
-689.368	195.220	-0.123	-0.187
-688.354	800.000	0.048	-0.187
-687.339	800.000	-0.159	-0.601
-686.324	-200.000	0.015	0.223
-685.310	-167.198	-0.260	-0.011
-684.295	101.539	-0.096	0.112
-683.281	348.714	0.050	-0.099
-682.266	-60.932	-0.159	0.067
-681.251	130.128	-0.190	-0.243
-680.237	71.705	-0.177	-0.184
-679.222	-26.639	-0.235	-0.137
-678.208	-92.769	-0.119	0.033
-677.193	-111.535	0.265	-0.054
-676.178	175.106	-0.179	-0.259
-675.164	-168.074	-0.366	0.014
-674.149	-145.576	-0.374	-0.033
-673.135	6.052	-0.243	-0.179
-672.120	800.000	0.047	0.132
-671.105	116.591	0.020	0.024
-670.091	198.797	-0.066	-0.100
-669.076	-86.081	0.104	-0.032
-668.062	-200.000	-0.002	-0.284
-667.047	11.700	-0.107	-0.082
-666.032	50.280	-0.039	0.037
-665.018	-166.033	-0.132	-0.006
-664.003	800.000	-0.077	-0.328
-662.989	250.957	-0.055	0.093
-661.974	286.638	0.099	0.178
-660.959	27.653	-0.172	0.145
-659.945	630.779	0.106	0.267
-658.930	293.477	-0.045	0.081
-657.916	13.306	-0.132	0.102
-656.901	-142.508	-0.135	0.013
-655.886	44.811	-0.228	0.209
-654.872	74.834	0.071	-0.075
-653.857	-84.497	-0.232	0.073
-652.843	116.434	-0.138	-0.169
-651.828	177.682	-0.160	-0.232
-650.814	-127.246	0.065	-0.009
-649.799	-34.965	-0.424	-0.230
-648.784	118.494	-0.154	0.190
-647.770	-92.628	0.337	-0.094
-646.755	-62.067	0.100	-0.042
-645.741	296.693	0.128	-0.234
-644.726	-53.631	-0.227	0.103
-643.711	-132.254	-0.252	0.033
-642.697	213.655	-0.207	0.326
-641.682	-1.512	0.154	0.108
-640.668	94.129	-0.116	-0.131
-639.653	102.475	0.026	0.030
-638.638	-77.502	0.247	0.085
-637.624	-160.296	-0.261	-0.014
-636.609	-68.377	0.139	-0.054
-635.595	58.966	0.081	0.080
-634.580	81.438	0.138	-0.149
-633.565	152.613	-0.071	0.097
-632.551	-121.701	-0.334	0.055
-631.536	-200.000	-0.002	0.200
-630.522	800.000	-0.060	0.167
-629.507	236.858	0.095	-0.157
-628.492	269.345	0.115	-0.200
-627.478	-122.482	-0.123	-0.020
-626.463	-4.268	0.043	-0.029
-625.449	800.000	-0.055	-0.217
-624.434	-190.741	-0.393	0.004
-623.419	593.950	0.064	-0.158
-622.405	-122.141	0.134	0.022
-621.390	-118.915	0.194	0.034
-620.376	-14.163	-0.498	0.320
-619.361	-200.000	-0.013	0.068
-618.346	86.451	0.347	0.381
-617.332	-83.798	-0.217	0.069
-616.317	47.817	-0.199	0.185
-615.303	-89.668	-0.234	-0.068
-614.288	-58.834	-0.092	-0.039
-613.273	67.864	0.116	0.118
-612.259	-200.000	0.005	0.189
-611.244	142.515	0.229	-0.303
-610.230	50.970	-0.315	-0.297
-609.215	-107.567	-0.162	0.035
-608.201	-92.429	0.254	-0.071
-607.186	-200.000	-0.017	-0.371
-606.171	94.131	0.123	0.139
-605.157	-116.385	-0.131	0.024
-604.142	-16.190	-0.076	0.048
-603.128	-91.968	-0.082	-0.023
-602.113	-123.234	0.099	0.016
-601.098	-92.461	-0.204	-0.057
-600.084	800.000	-0.071	-0.256
-599.069	543.323	-0.075	0.179
-598.055	150.924	-0.264	-0.358
-597.040	800.000	-0.057	0.212
-596.025	-200.000	0.000	-0.043
-595.011	252.460	-0.128	0.217
-593.996	-47.224	-0.316	-0.153
-592.982	-101.221	0.674	-0.164
-591.967	141.411	-0.144	0.190
-590.952	709.651	-0.049	-0.128
-589.938	50.621	0.103	0.097
-588.923	800.000	0.068	-0.268
-587.909	-200.000	-0.015	-0.180
-586.894	800.000	-0.061	0.191
-585.879	-200.000	0.052	-0.384
-584.865	-0.133	-0.319	-0.226
-583.850	141.684	-0.150	-0.198
-582.836	-164.837	0.177	0.008
-581.821	-24.764	-0.093	0.055
-580.806	76.123	-0.163	-0.172
-579.792	167.711	0.216	-0.306
-578.777	289.306	-0.062	0.112
-577.763	-145.933	-0.082	-0.007
-576.748	30.637	0.040	0.034
-575.733	-8.496	0.027	0.018
-574.719	94.161	0.199	-0.224
-573.704	-48.521	-0.330	0.158
-572.690	-200.000	-0.002	0.193
-571.675	-200.000	-0.001	0.212
-570.661	800.000	-0.026	0.102
-569.646	-100.404	-0.457	-0.112
-568.631	48.983	0.016	0.015
-567.617	10.215	-0.067	0.051
-566.602	17.903	-0.303	-0.240
-565.588	-88.182	0.138	-0.041
-564.573	-90.692	-0.113	-0.032
-563.558	141.901	0.074	0.097
-562.544	-124.680	0.258	-0.040
-561.529	-29.649	0.186	-0.106
-560.515	-135.056	-0.164	-0.020
-559.500	170.703	0.294	0.418
-558.485	25.962	-0.126	0.104
-557.471	61.405	-0.289	-0.285
-556.456	-64.788	-0.251	-0.101
-555.442	43.834	0.059	-0.054
-554.427	-200.000	0.040	-0.311
-553.412	-19.873	0.393	-0.241
-552.398	-15.267	0.215	0.136
-551.383	800.000	-0.029	-0.119
-550.369	-72.580	-0.249	0.091
-549.354	-56.206	-0.150	-0.066
-548.339	72.537	-0.248	0.257
-547.325	-108.108	-0.234	-0.050
-546.310	-163.042	-0.007	0.000
-545.296	6.753	0.179	0.132
-544.281	93.796	0.143	-0.161
-543.266	-59.672	0.051	0.022
-542.252	-200.000	0.011	-0.084
-541.237	800.000	-0.083	-0.239
-540.223	-142.919	0.216	0.021
-539.208	92.981	0.107	0.120
-538.193	-29.654	-0.201	0.114
-537.179	29.004	-0.148	0.125
-536.164	-54.501	-0.208	0.093
-535.150	800.000	0.074	-0.260
-534.135	15.212	-0.135	-0.105
-533.121	-145.804	0.225	0.020
-532.106	170.637	-0.350	0.498
-531.091	-85.741	0.053	-0.016
-530.077	-28.146	-0.128	0.074
-529.062	101.756	0.198	0.229
-528.048	205.518	0.144	0.222
-527.033	-172.401	0.033	0.001
-526.018	177.238	-0.147	0.212
-525.004	800.000	0.045	0.157
-523.989	-177.002	0.325	-0.008
-522.975	-32.208	0.356	-0.197
-521.960	-145.139	0.301	-0.027
-520.945	-200.000	0.048	-0.373
-519.931	-45.875	0.091	0.045
-518.916	-134.498	-0.253	0.031
-517.902	470.317	-0.104	0.232
-516.887	-200.000	-0.028	0.130
-515.872	101.447	0.254	0.294
-514.858	-89.997	-0.273	-0.079
-513.843	32.339	-0.049	-0.042
-512.829	66.344	0.353	0.355
-511.814	618.376	-0.118	-0.293
-510.799	-85.868	0.376	-0.115
-509.785	-200.000	-0.089	0.555
-508.770	800.000	-0.028	0.083
-507.756	-55.561	-0.061	0.027
-506.741	166.128	0.194	0.272
-505.726	-60.171	0.439	0.186
-504.712	46.793	0.075	0.069
-503.697	-146.406	0.109	-0.009
-502.683	-102.233	0.273	-0.065
-501.668	-55.253	0.234	0.104
-500.653	2.919	0.106	0.077
-499.639	-154.197	-0.238	0.016
-498.624	-32.961	0.225	0.124
-497.610	324.522	-0.202	0.382
-496.595	51.028	0.372	-0.349
-495.581	-34.885	-0.126	0.068
-494.566	800.000	-0.061	0.192
-493.551	-109.821	-0.316	0.066
-492.537	-113.443	0.220	-0.043
-491.522	-3.568	-0.434	-0.299
-490.508	-186.541	0.504	-0.007
-489.493	251.545	0.080	0.134
-488.478	11.201	-0.076	0.058
-487.464	131.668	0.100	0.127
-486.449	-200.000	0.033	0.331
-485.435	630.918	0.096	0.241
-484.420	-200.000	0.051	0.399
-483.405	184.828	-0.233	-0.342
-482.391	104.083	0.204	-0.237
-481.376	-200.000	0.002	0.062
-480.362	171.469	0.195	-0.277
-479.347	-113.574	0.179	0.035
-478.332	800.000	0.024	0.088
-477.318	-53.630	0.209	-0.095
-476.303	84.108	-0.316	-0.341
-475.289	200.462	0.182	0.277
-474.274	-67.830	-0.030	0.012
-473.259	-18.884	-0.268	-0.165
-472.245	54.133	-0.064	0.061
-471.230	-38.868	0.093	0.049
-470.216	-176.325	0.535	0.014
-469.201	91.277	0.197	0.219
-468.186	800.000	-0.024	0.083
-467.172	76.363	0.209	-0.219
-466.157	-50.877	-0.241	-0.112
-465.143	-97.095	0.089	-0.023
-464.128	800.000	-0.060	-0.166
-463.113	-181.667	0.111	0.002
-462.099	127.969	-0.212	-0.266
-461.084	745.538	-0.050	-0.134
-460.070	-41.345	0.221	-0.112
-459.055	123.620	0.111	-0.138
-458.040	98.793	-0.270	0.308
-457.026	-79.941	0.396	0.132
-456.011	-58.727	0.158	0.067
-454.997	342.384	0.087	0.167
-453.982	-51.795	-0.247	0.114
-452.968	-170.208	-0.168	-0.006
-451.953	-200.000	-0.043	0.280
-450.938	-1.744	-0.276	-0.192
-449.924	678.012	0.091	0.234
-448.909	800.000	0.042	-0.154
-447.895	-48.178	0.095	0.046
-446.880	-118.244	-0.219	0.038
-445.865	73.952	0.283	0.293
-444.851	-200.000	-0.133	0.000
-443.836	-200.000	0.034	-0.151
-442.822	35.041	-0.188	-0.162
-441.807	-52.209	0.236	-0.108
-440.792	-157.291	0.192	0.011
-439.778	800.000	0.115	-0.323
-438.763	114.278	-0.018	0.022
-437.749	-82.184	-0.141	-0.045
-436.734	-11.365	-0.274	0.178
-435.719	144.574	-0.130	0.172
-434.705	-131.950	0.161	-0.021
-433.690	76.554	0.099	-0.103
-432.676	-24.626	0.119	-0.070
-431.661	273.893	-0.068	0.120
-430.646	-106.034	-0.344	0.076
-429.632	156.502	0.138	-0.188
-428.617	-81.075	0.042	-0.014
-427.603	129.007	-0.045	0.056
-426.588	-8.782	-0.261	0.173
-425.573	138.460	-0.107	0.139
-424.559	-147.650	0.260	0.022
-423.544	800.000	-0.021	-0.059
-422.530	800.000	0.144	-0.432
-421.515	-200.000	-0.009	0.301
-420.500	153.534	0.237	-0.321
-419.486	43.126	0.069	0.063
-418.471	-200.000	0.002	-0.091
-417.457	55.274	-0.177	0.169
-416.442	-148.637	0.121	-0.010
-415.428	-200.000	0.010	-0.115
-414.413	-23.726	0.047	0.028
-413.398	159.639	0.129	-0.177
-412.384	-102.963	0.071	-0.017
-411.369	-126.477	0.093	-0.014
-410.355	443.801	-0.136	0.294
-409.340	-151.355	-0.024	0.002
-408.325	283.649	-0.126	-0.224
-407.311	-48.254	-0.292	-0.139
-406.296	-200.000	-0.032	-0.311
-405.282	-200.000	-0.038	-0.259
-404.267	94.821	0.292	-0.328
-403.252	800.000	0.050	-0.213
-402.238	143.130	-0.092	0.121
-401.223	800.000	0.057	-0.172
-400.209	98.683	0.140	-0.160
-399.194	-91.958	0.204	-0.057
-398.179	255.929	0.073	0.123
-397.165	518.512	0.043	-0.099
-396.150	800.000	-0.091	0.268
-395.136	278.920	-0.192	0.338
-394.121	8.018	0.157	0.116
-393.106	-113.174	-0.394	0.077
-392.092	423.764	0.117	0.247
-391.077	-74.911	-0.149	0.053
-390.063	199.355	-0.188	0.284
-389.048	-200.000	0.018	0.159
-388.033	-151.447	-0.207	0.015
-387.019	524.834	0.058	0.135
-386.004	57.727	0.259	-0.250
-384.990	72.109	-0.262	-0.269
-383.975	24.571	-0.153	-0.125
-382.960	-103.046	-0.228	-0.053
-381.946	-43.413	0.087	0.043
-380.931	110.432	-0.240	0.284
-379.917	113.673	0.148	-0.177
-378.902	52.495	0.246	0.232
-377.888	800.000	0.041	-0.126
-376.873	22.168	-0.112	-0.090
-375.858	800.000	0.020	-0.058
-374.844	98.545	0.175	0.199
-373.829	-44.411	-0.311	-0.154
-372.815	220.943	-0.076	0.121
-371.800	414.693	-0.022	-0.046
-370.785	-200.000	0.006	-0.054
-369.771	-181.884	-0.147	-0.003
-368.756	81.352	-0.153	0.163
-367.742	-200.000	0.020	-0.231
-366.727	-34.857	-0.080	0.043
-365.712	517.627	0.089	0.206
-364.698	800.000	-0.077	-0.288
-363.683	-57.948	-0.183	0.079
-362.669	-127.498	0.280	-0.040
-361.654	-200.000	-0.023	-0.269
-360.639	-200.000	0.049	-0.281
-359.625	265.300	0.092	0.158
-358.610	-108.435	-0.316	0.067
-357.596	-34.421	0.302	0.163
-356.581	-16.861	-0.238	-0.148
-355.566	-200.000	0.145	-0.656
-354.552	-200.000	0.040	0.284
-353.537	-200.000	0.003	-0.353
-352.523	5.011	0.118	0.086
-351.508	129.199	-0.148	-0.186
-350.493	-200.000	0.026	-0.189
-349.479	800.000	-0.004	0.011
-348.464	800.000	-0.072	0.230
-347.450	-200.000	0.029	0.267
-346.435	-32.956	-0.199	-0.109
-345.420	-169.178	-0.165	-0.006
-344.406	-101.026	0.214	0.052
-343.391	-100.284	-0.089	0.022
-342.377	2.876	0.174	-0.124
-341.362	-200.000	-0.013	-0.124
-340.348	-200.000	-0.020	-0.173
-339.333	23.025	-0.019	0.015
-338.318	45.442	0.082	-0.074
-337.304	97.756	0.030	-0.035
-336.289	-120.752	-0.259	0.043
-335.275	49.798	-0.135	-0.126
-334.260	-62.737	0.406	0.166
-333.245	-50.095	-0.079	0.037
-332.231	-200.000	0.018	-0.177
-331.216	-55.871	0.475	-0.209
-330.202	-5.970	-0.208	-0.140
-329.187	238.367	0.078	0.128
-328.172	800.000	-0.129	-0.515
-327.158	-176.646	0.257	-0.006
-326.143	-25.622	0.114	-0.066
-325.129	681.160	0.072	-0.185
-324.114	755.449	0.059	-0.157
-323.099	20.965	-0.086	-0.068
-322.085	103.850	0.156	-0.180
-321.070	-200.000	-0.003	-0.166
-320.056	800.000	-0.047	-0.129
-319.041	-116.537	0.331	-0.060
-318.026	51.440	0.270	-0.253
-317.012	-75.043	-0.212	0.075
-315.997	-107.231	-0.222	-0.048
-314.983	7.530	-0.204	0.150
-313.968	800.000	0.138	0.448
-312.953	624.118	-0.042	-0.103
-311.939	243.430	0.159	-0.262
-310.924	-95.226	0.273	-0.072
-309.910	219.420	-0.043	0.068
-308.895	800.000	-0.083	0.324
-307.880	-70.940	0.351	-0.130
-306.866	26.438	0.069	0.056
-305.851	800.000	-0.022	0.072
-304.837	-200.000	-0.008	0.197
-303.822	-153.513	-0.244	-0.017
-302.807	-200.000	-0.028	0.286
-301.793	787.236	-0.076	-0.206
-300.778	216.604	-0.180	-0.281
-299.764	-138.722	0.276	0.030
-298.749	343.142	0.035	-0.067
-297.735	-200.000	0.020	0.125
-296.720	-167.199	-0.146	0.006
-295.705	-73.281	-0.155	0.056
-294.691	-200.000	0.002	0.135
-293.676	302.062	0.103	-0.187
-292.662	-156.562	-0.342	-0.021
-291.647	-79.509	0.090	-0.030
-290.632	-200.000	-0.005	-0.242
-289.618	142.783	0.243	0.318
-288.603	800.000	0.087	0.359
-287.589	442.069	-0.109	0.235
-286.574	-144.423	0.250	-0.023
-285.559	36.098	0.263	0.228
-284.545	101.263	0.176	-0.202
-283.530	800.000	-0.098	-0.369
-282.516	800.000	-0.061	-0.171
-281.501	44.770	0.159	0.144
-280.486	-4.404	0.236	0.161
-279.472	800.000	-0.036	-0.103
-278.457	175.108	0.136	0.194
-277.443	-14.462	-0.162	0.102
-276.428	339.940	0.138	0.265
-275.413	125.300	-0.080	0.099
-274.399	-158.820	0.414	-0.023
-273.384	622.163	0.089	-0.219
-272.370	156.743	0.131	0.178
-271.355	361.865	0.119	0.235
-270.340	-200.000	-0.016	0.181
-269.326	73.874	0.234	0.241
-268.311	347.285	0.169	0.326
-267.297	-200.000	-0.061	0.367
-266.282	99.553	-0.194	-0.221
-265.267	-102.289	0.283	0.067
-264.253	800.000	0.063	-0.206
-263.238	176.556	-0.123	0.175
-262.224	-80.213	0.150	-0.049
-261.209	102.323	-0.117	0.135
-260.195	-153.201	-0.062	-0.004
-259.180	313.862	-0.079	-0.146
-258.165	-103.470	0.433	-0.100
-257.151	113.141	-0.204	-0.242
-256.136	156.481	-0.111	0.151
-255.122	-200.000	-0.027	-0.221
-254.107	800.000	-0.044	0.184
-253.092	167.500	0.053	-0.073
-252.078	-78.181	0.116	0.039
-251.063	0.965	0.322	-0.227
-250.049	610.322	-0.163	-0.401
-249.034	800.000	-0.090	0.325
-248.019	245.673	0.182	0.301
-247.005	-200.000	0.049	-0.374
-245.990	-200.000	-0.027	0.155
-244.976	-36.805	-0.210	-0.110
-243.961	800.000	0.041	-0.119
-242.946	-162.552	0.331	-0.016
-241.932	619.911	0.102	-0.252
-240.917	-62.962	-0.270	-0.109
-239.903	-150.801	0.176	0.013
-238.888	-128.106	0.207	0.029
-237.873	34.331	0.246	-0.211
-236.859	431.000	-0.115	0.243
-235.844	-200.000	-0.011	0.327
-234.830	19.093	-0.060	-0.047
-233.815	172.788	-0.157	0.222
-232.800	7.145	0.408	0.299
-231.786	-119.840	-0.366	-0.062
-230.771	-191.209	-0.398	0.004
-229.757	33.820	0.182	0.155
-228.742	-79.456	-0.198	0.066
-227.727	257.593	-0.007	0.012
-226.713	202.858	-0.036	0.054
-225.698	-66.189	-0.233	0.091
-224.684	64.999	-0.145	-0.143
-223.669	216.872	0.086	-0.134
-222.655	-27.686	-0.243	-0.138
-221.640	-50.834	-0.263	-0.121
-220.625	310.767	0.145	-0.266
-219.611	-200.000	-0.030	-0.325
-218.596	-45.875	-0.368	0.178
-217.582	-80.257	-0.387	-0.127
-216.567	-200.000	-0.003	-0.164
-215.552	724.020	0.136	0.355
-214.538	25.654	-0.115	-0.094
-213.523	800.000	-0.097	0.358
-212.509	-200.000	-0.021	0.234
-211.494	-61.210	0.175	0.072
-210.479	-107.458	-0.427	-0.092
-209.465	-41.513	-0.425	0.214
-208.450	48.399	-0.209	0.192
-207.436	-34.702	0.081	-0.043
-206.421	-127.954	0.189	0.027
-205.406	-53.087	-0.032	0.015
-204.392	-200.000	-0.072	-0.368
-203.377	26.729	0.148	-0.122
-202.363	-200.000	0.015	-0.134
-201.348	-88.262	-0.340	-0.100
-200.333	-102.835	0.111	0.026
-199.319	-77.912	-0.050	-0.017
-198.304	-15.669	0.165	-0.103
-197.290	-40.350	-0.335	-0.171
-196.275	800.000	-0.072	0.280
-195.260	566.158	0.058	0.138
-194.246	-12.349	-0.078	0.050
-193.231	-104.408	-0.429	-0.097
-192.217	-91.365	-0.371	0.104
-191.202	-200.000	0.053	0.358
-190.187	-200.000	0.039	0.171
-189.173	-124.585	0.263	-0.040
-188.158	-200.000	-0.027	0.116
-187.144	-55.018	-0.277	-0.122
-186.129	268.579	-0.110	-0.188
-185.114	-200.000	0.003	-0.290
-184.100	404.296	-0.152	0.312
-183.085	345.326	-0.149	-0.286
-182.071	80.399	0.271	0.285
-181.056	84.594	-0.032	-0.034
-180.042	234.538	0.184	0.297
-179.027	37.163	-0.114	0.099
-178.012	-124.417	0.216	0.033
-176.998	77.658	0.163	-0.170
-175.983	-97.041	-0.086	-0.022
-174.969	210.608	0.208	0.319
-173.954	431.231	-0.089	0.189
-172.939	40.299	0.250	-0.220
-171.925	429.829	-0.101	-0.213
-170.910	800.000	0.078	0.240
-169.896	-147.394	0.226	0.019
-168.881	122.444	-0.174	-0.213
-167.866	-92.389	0.237	-0.065
-166.852	582.841	0.068	-0.162
-165.837	156.433	-0.105	-0.141
-164.823	800.000	-0.122	-0.433
-163.808	-200.000	-0.013	-0.181
-162.793	-150.164	0.420	-0.032
-161.779	29.700	-0.400	-0.333
-160.764	221.486	0.305	0.479
-159.750	19.220	0.268	0.210
-158.735	-200.000	0.025	0.540
-157.720	112.980	-0.088	-0.104
-156.706	6.634	-0.191	-0.139
-155.691	800.000	0.016	0.054
-154.677	742.885	0.029	-0.075
-153.662	7.693	-0.262	0.192
-152.647	-200.000	0.016	0.179
-151.633	29.221	0.102	-0.085
-150.618	232.754	0.183	-0.294
-149.604	211.298	0.222	-0.341
-148.589	140.443	0.172	-0.222
-147.574	-200.000	-0.059	0.277
-146.560	39.494	0.269	0.235
-145.545	-123.544	-0.119	-0.019
-144.531	-200.000	0.041	0.191
-143.516	-55.538	0.445	-0.195
-142.502	800.000	-0.090	-0.352
-141.487	27.568	0.049	-0.041
-140.472	466.214	-0.035	0.077
-139.458	-122.830	-0.343	0.054
-138.443	-200.000	0.010	0.264
-137.429	-69.273	-0.247	-0.093
-136.414	21.576	-0.306	0.243
-135.399	-74.780	0.381	-0.134
-134.385	-173.964	-0.187	0.005
-133.370	54.910	0.047	0.045
-132.356	800.000	0.069	0.203
-131.341	-200.000	0.046	0.257
-130.326	161.159	0.051	-0.070
-129.312	-114.151	0.116	0.022
-128.297	-121.479	0.037	-0.006
-127.283	-103.911	0.149	-0.034
-126.268	267.153	-0.056	-0.096
-125.253	150.885	0.103	-0.136
-124.239	178.735	-0.236	0.337
-123.224	459.420	0.027	0.059
-122.210	800.000	-0.032	-0.091
-121.195	-200.000	-0.005	-0.258
