DTS Sentinel unit serial number:	SN413079Multiplexer serial number:	ORYXHardware model number:	OX4-SRSoftware version number:	ORYX F/W v4.00 Oryx Data Collector v3.7.2.0data status	okinstallation	princeton_trtdifferential loss correction	single-endedforward channel	channel 3reverse channel	N/Adate	2019/09/17time	03:24:35forward acquisition time	60.00reverse acquisition time	0.00gamma	496.2192k internal	0.2323k external	0.2323temperature offset calibration	0.9946default loss term (dB/km)	0.3790temperature slope calibration	1.0000multiplexer offset coefficient	1.0000multiplexer slope coefficient	1.0000fibre end	0.00T internal ref (°C)	30.00T ext. ref 1 (°C)	0.14T ext. ref 2 (°C)	24.83length (m)	temperature (°C)	Stokes	anti-Stokes-747.200	317.115	0.094	-0.180
-746.185	-200.000	-0.073	0.329
-745.171	-107.465	0.160	0.035
-744.156	92.535	-0.202	0.230
-743.142	105.052	0.337	0.402
-742.127	-200.000	-0.016	0.206
-741.112	228.559	-0.119	0.196
-740.098	105.839	-0.056	-0.067
-739.083	766.192	-0.010	0.027
-738.069	-118.323	0.278	0.050
-737.054	-71.603	-0.035	-0.013
-736.039	40.056	-0.314	0.285
-735.025	-129.341	0.104	-0.015
-734.010	-80.381	-0.188	-0.063
-732.996	67.263	0.297	-0.305
-731.981	-47.922	0.101	0.049
-730.966	596.830	0.107	0.267
-729.952	-69.378	0.275	-0.106
-728.937	93.688	0.092	0.105
-727.923	-20.507	-0.190	0.118
-726.908	-13.910	-0.181	-0.118
-725.894	126.532	-0.193	-0.246
-724.879	800.000	0.111	0.320
-723.864	95.806	0.184	-0.212
-722.850	800.000	0.124	-0.365
-721.835	386.429	-0.061	-0.127
-720.821	222.595	0.066	-0.108
-719.806	-200.000	-0.059	-0.405
-718.791	-200.000	0.002	0.235
-717.777	-64.799	-0.090	0.037
-716.762	800.000	-0.050	0.172
-715.748	117.441	-0.229	0.284
-714.733	240.502	-0.167	0.281
-713.718	-13.682	-0.169	-0.110
-712.704	-52.484	0.053	0.025
-711.689	6.980	-0.111	0.084
-710.675	108.336	0.063	0.076
-709.660	112.241	0.095	-0.116
-708.645	365.171	0.031	-0.062
-707.631	-152.428	-0.168	0.012
-706.616	-56.403	0.305	-0.137
-705.602	-74.985	-0.234	0.085
-704.587	-200.000	0.021	0.106
-703.572	-200.000	0.175	0.001
-702.558	-200.000	-0.003	0.043
-701.543	-113.329	0.268	0.053
-700.529	-65.373	0.075	0.030
-699.514	-90.987	-0.035	0.010
-698.499	-200.000	0.006	-0.145
-697.485	-31.754	-0.092	0.052
-696.470	72.037	0.091	-0.096
-695.456	93.835	0.210	0.240
-694.441	301.847	0.156	0.291
-693.426	-24.223	-0.221	0.133
-692.412	80.206	0.139	-0.151
-691.397	31.526	0.331	0.287
-690.383	542.952	0.116	-0.278
-689.368	5.875	0.212	-0.158
-688.354	-107.430	0.214	0.047
-687.339	64.866	-0.101	0.103
-686.324	199.689	-0.072	-0.111
-685.310	535.016	-0.039	-0.092
-684.295	-21.397	-0.022	0.013
-683.281	-67.336	-0.345	-0.137
-682.266	-117.313	-0.238	-0.044
-681.251	-129.160	0.158	0.022
-680.237	5.870	-0.253	0.189
-679.222	157.240	0.150	-0.209
-678.208	-200.000	-0.024	-0.141
-677.193	-97.206	0.148	-0.039
-676.178	16.279	-0.216	-0.171
-675.164	-200.000	0.024	0.262
-674.149	-17.526	0.147	0.093
-673.135	549.599	-0.169	-0.408
-672.120	-90.454	-0.432	0.126
-671.105	246.319	-0.243	-0.413
-670.091	249.692	0.049	-0.084
-669.076	-142.611	0.325	0.032
-668.062	-200.000	-0.008	0.111
-667.047	-143.511	-0.367	0.035
-666.032	-200.000	0.048	0.238
-665.018	315.698	0.010	-0.018
-664.003	-80.202	0.265	0.089
-662.989	-200.000	0.023	0.463
-661.974	-58.985	-0.214	-0.093
-660.959	104.296	0.159	0.188
-659.945	-110.062	0.235	-0.049
-658.930	1.414	-0.011	-0.008
-657.916	171.470	-0.171	-0.247
-656.901	-200.000	0.007	-0.147
-655.886	102.269	0.081	0.095
-654.872	94.648	-0.158	0.181
-653.857	35.125	-0.124	-0.110
-652.843	11.198	-0.089	-0.068
-651.828	800.000	-0.013	-0.048
-650.814	-128.370	-0.216	-0.031
-649.799	800.000	0.033	-0.127
-648.784	-161.151	0.209	0.011
-647.770	60.011	0.096	-0.095
-646.755	800.000	-0.111	0.327
-645.741	19.031	-0.118	-0.095
-644.726	317.376	-0.060	0.115
-643.711	-88.818	0.181	-0.054
-642.697	65.937	0.082	-0.084
-641.682	-89.496	-0.258	0.076
-640.668	471.733	-0.143	-0.324
-639.653	794.942	0.018	-0.049
-638.638	87.200	-0.063	-0.070
-637.624	-106.428	0.156	-0.035
-636.609	106.826	-0.132	-0.158
-635.595	63.601	0.097	-0.098
-634.580	800.000	-0.060	-0.216
-633.565	308.343	0.018	0.033
-632.551	800.000	-0.099	0.363
-631.536	-200.000	0.026	-0.177
-630.522	-36.209	0.098	0.053
-629.507	53.363	0.097	-0.094
-628.492	467.837	-0.089	-0.201
-627.478	-200.000	-0.034	-0.227
-626.463	-23.783	0.114	-0.069
-625.449	167.396	0.136	0.194
-624.434	187.784	-0.093	0.140
-623.419	-50.087	-0.044	-0.021
-622.405	163.666	0.089	-0.125
-621.390	-0.515	0.272	-0.194
-620.376	-18.903	-0.258	0.161
-619.361	-39.607	-0.350	-0.184
-618.346	60.175	0.138	-0.137
-617.332	4.473	-0.081	-0.060
-616.317	39.359	-0.168	-0.151
-615.303	118.667	0.085	-0.106
-614.288	800.000	-0.055	0.176
-613.273	161.936	0.155	-0.218
-612.259	-0.229	0.049	0.035
-611.244	-141.508	0.118	0.012
-610.230	-200.000	0.022	-0.189
-609.215	-2.074	-0.223	-0.157
-608.201	-97.723	0.392	-0.102
-607.186	279.043	-0.162	-0.291
-606.171	-200.000	0.039	0.405
-605.157	-85.904	-0.128	-0.040
-604.142	-115.890	-0.328	0.061
-603.128	144.358	-0.124	0.167
-602.113	519.904	-0.112	-0.264
-601.098	137.158	-0.236	-0.310
-600.084	800.000	-0.065	-0.254
-599.069	-24.500	0.159	-0.095
-598.055	-136.514	-0.200	-0.023
-597.040	-41.214	0.270	-0.140
-596.025	-112.582	0.143	0.029
-595.011	-14.790	-0.212	0.137
-593.996	-99.450	0.248	0.063
-592.982	-200.000	0.042	0.286
-591.967	45.453	-0.286	0.265
-590.952	140.802	-0.081	0.108
-589.938	-200.000	0.020	0.182
-588.923	-122.222	0.126	0.021
-587.909	-12.418	0.176	-0.115
-586.894	640.449	-0.066	0.169
-585.879	104.736	-0.151	0.178
-584.865	-78.045	0.308	0.106
-583.850	36.422	0.112	-0.099
-582.836	504.484	-0.073	-0.170
-581.821	800.000	0.037	-0.152
-580.806	-115.473	0.268	-0.051
-579.792	-143.621	-0.262	0.025
-578.777	223.131	-0.094	-0.152
-577.763	-168.234	-0.191	-0.007
-576.748	107.245	-0.186	-0.221
-575.733	397.554	0.148	-0.310
-574.719	104.428	-0.184	-0.218
-573.704	18.816	0.171	-0.138
-572.690	-24.511	-0.282	-0.168
-571.675	49.180	0.090	-0.085
-570.661	-161.079	0.173	-0.009
-569.646	-200.000	0.034	-0.195
-568.631	-23.654	0.102	0.062
-567.617	122.000	-0.074	0.092
-566.602	-90.380	0.242	-0.071
-565.588	-200.000	0.008	-0.214
-564.573	-78.639	0.078	0.027
-563.558	-200.000	-0.018	-0.294
-562.544	116.777	-0.069	-0.085
-561.529	407.451	0.122	-0.260
-560.515	110.082	0.151	0.182
-559.500	-46.666	-0.247	0.121
-558.485	-140.105	0.221	-0.023
-557.471	-135.384	-0.142	-0.017
-556.456	-155.472	-0.025	-0.002
-555.442	95.871	-0.211	0.241
-554.427	-131.959	0.119	-0.016
-553.412	54.947	-0.061	0.059
-552.398	231.344	0.089	0.147
-551.383	800.000	-0.067	-0.236
-550.369	-175.670	-0.077	-0.002
-549.354	800.000	-0.081	-0.316
-548.339	-200.000	0.075	-0.401
-547.325	66.397	0.067	0.068
-546.310	-200.000	-0.000	0.274
-545.296	-52.126	0.191	0.089
-544.281	335.967	-0.055	0.106
-543.266	212.090	-0.209	0.331
-542.252	-200.000	0.011	-0.221
-541.237	-118.433	0.211	0.037
-540.223	-114.014	-0.337	-0.066
-539.208	237.266	0.166	0.276
-538.193	-7.357	-0.160	-0.109
-537.179	-1.541	-0.207	-0.147
-536.164	-129.401	0.310	-0.043
-535.150	-200.000	-0.015	0.105
-534.135	-3.708	-0.049	-0.034
-533.121	-200.000	-0.018	0.098
-532.106	283.499	0.110	-0.198
-531.091	63.284	-0.137	0.137
-530.077	-55.900	-0.212	0.095
-529.062	-1.195	0.029	-0.021
-528.048	-3.584	-0.127	0.089
-527.033	-63.037	-0.164	-0.068
-526.018	20.711	0.268	0.218
-525.004	-200.000	0.060	0.281
-523.989	-117.291	0.185	-0.034
-522.975	-72.422	0.173	0.064
-521.960	-49.585	-0.457	0.218
-520.945	-59.263	-0.147	-0.063
-519.931	-200.000	-0.007	-0.194
-518.916	-200.000	-0.031	0.194
-517.902	-200.000	0.028	-0.136
-516.887	-200.000	0.026	0.117
-515.872	-86.925	-0.104	0.032
-514.858	-200.000	0.009	-0.039
-513.843	-90.649	-0.299	-0.087
-512.829	800.000	0.029	-0.106
-511.814	-200.000	0.002	-0.207
-510.799	800.000	0.111	0.310
-509.785	-200.000	0.013	0.276
-508.770	-46.339	-0.074	0.036
-507.756	-200.000	0.039	-0.272
-506.741	262.680	-0.214	-0.371
-505.726	96.846	0.308	-0.353
-504.712	-3.872	0.175	0.121
-503.697	511.562	0.139	0.324
-502.683	800.000	0.082	0.326
-501.668	-82.165	-0.269	-0.088
-500.653	-200.000	-0.002	-0.162
-499.639	-37.070	-0.145	0.078
-498.624	-45.249	-0.126	-0.062
-497.610	295.120	-0.071	0.131
-496.595	800.000	-0.077	-0.296
-495.581	69.388	-0.292	-0.301
-494.566	-200.000	0.028	-0.280
-493.551	-200.000	0.022	0.231
-492.537	-165.668	0.168	-0.007
-491.522	-9.014	0.190	0.128
-490.508	541.871	-0.044	0.104
-489.493	-97.110	-0.272	-0.071
-488.478	-27.535	-0.060	0.035
-487.464	-11.715	0.110	-0.072
-486.449	-61.880	-0.084	0.035
-485.435	-48.446	-0.255	-0.123
-484.420	-29.600	0.148	0.084
-483.405	800.000	-0.029	0.113
-482.391	-12.596	-0.211	0.137
-481.376	-200.000	0.026	0.133
-480.362	-92.504	-0.105	-0.030
-479.347	-125.865	0.184	0.028
-478.332	-200.000	0.053	-0.418
-477.318	22.088	0.229	0.187
-476.303	-200.000	-0.036	0.191
-475.289	-98.407	0.243	0.062
-474.274	261.422	-0.264	0.457
-473.259	-200.000	-0.016	0.094
-472.245	-25.789	-0.082	0.049
-471.230	-176.177	-0.148	-0.004
-470.216	-55.061	0.489	0.220
-469.201	116.561	-0.142	-0.173
-468.186	800.000	-0.042	0.147
-467.172	83.562	-0.311	-0.339
-466.157	-200.000	-0.021	-0.270
-465.143	169.506	0.080	-0.115
-464.128	-103.005	-0.145	0.034
-463.113	-200.000	-0.027	0.290
-462.099	-200.000	-0.036	0.204
-461.084	800.000	-0.100	0.277
-460.070	-200.000	0.037	0.241
-459.055	800.000	-0.135	-0.410
-458.040	45.768	-0.064	0.059
-457.026	-178.262	0.101	0.002
-456.011	800.000	-0.128	-0.535
-454.997	-150.683	0.119	-0.009
-453.982	-180.460	-0.530	-0.011
-452.968	-122.306	-0.313	-0.051
-451.953	-135.076	0.115	0.014
-450.938	-200.000	0.052	0.284
-449.924	-130.281	-0.346	0.047
-448.909	-200.000	-0.009	0.150
-447.895	-200.000	0.040	-0.210
-446.880	-18.359	0.188	-0.117
-445.865	-125.990	0.125	0.019
-444.851	128.047	0.134	-0.170
-443.836	-49.671	0.155	0.074
-442.822	-58.030	0.131	-0.057
-441.807	-200.000	0.005	-0.164
-440.792	-200.000	0.007	0.093
-439.778	414.551	-0.045	-0.097
-438.763	164.327	-0.160	0.224
-437.749	46.709	-0.004	0.004
-436.734	-200.000	0.023	-0.310
-435.719	-95.764	0.204	-0.054
-434.705	-200.000	-0.004	-0.038
-433.690	-94.679	-0.106	-0.029
-432.676	140.133	0.058	0.077
-431.661	-155.478	-0.194	0.012
-430.646	-101.666	0.291	0.070
-429.632	140.424	-0.024	0.031
-428.617	-200.000	-0.051	0.275
-427.603	36.572	-0.032	-0.028
-426.588	-200.000	0.003	0.308
-425.573	80.036	-0.114	-0.122
-424.559	-60.956	0.229	0.097
-423.544	375.373	0.025	0.051
-422.530	238.524	0.040	-0.066
-421.515	-200.000	0.003	0.129
-420.500	-200.000	-0.014	-0.148
-419.486	-200.000	0.010	-0.151
-418.471	-138.281	-0.241	0.027
-417.457	-200.000	0.004	-0.424
-416.442	148.023	-0.085	0.114
-415.428	-131.297	-0.151	0.020
-414.413	336.503	0.034	-0.065
-413.398	158.762	-0.202	-0.279
-412.384	13.827	-0.115	-0.089
-411.369	192.452	-0.068	0.102
-410.355	91.960	0.082	-0.092
-409.340	249.099	0.054	-0.091
-408.325	-177.327	-0.192	0.005
-407.311	-165.192	-0.313	-0.014
-406.296	-113.503	0.246	0.048
-405.282	-112.785	0.251	-0.050
-404.267	228.580	-0.093	-0.151
-403.252	95.293	0.096	0.109
-402.238	140.628	-0.114	-0.150
-401.223	45.660	-0.098	0.090
-400.209	-141.193	-0.109	0.011
-399.194	-31.316	-0.252	0.141
-398.179	479.649	-0.097	0.219
-397.165	20.411	-0.158	0.127
-396.150	-200.000	-0.010	0.100
-395.136	800.000	0.012	0.034
-394.121	-147.609	0.377	0.032
-393.106	234.428	0.163	-0.268
-392.092	-112.273	-0.181	-0.036
-391.077	-157.490	-0.186	0.011
-390.063	12.519	-0.116	0.089
-389.048	77.330	0.068	0.072
-388.033	800.000	0.068	-0.292
-387.019	49.840	0.148	-0.139
-386.004	-200.000	0.035	0.179
-384.990	-1.695	-0.071	0.050
-383.975	86.149	-0.130	0.143
-382.960	6.722	-0.184	0.136
-381.946	-127.913	-0.265	-0.038
-380.931	-108.373	0.293	0.063
-379.917	250.222	0.107	0.181
-378.902	109.230	0.102	-0.122
-377.888	-121.166	0.332	-0.055
-376.873	-21.979	-0.087	0.053
-375.858	91.524	0.129	0.144
-374.844	401.784	-0.100	-0.209
-373.829	72.286	0.101	-0.105
-372.815	2.097	0.058	0.042
-371.800	-16.240	-0.293	0.185
-370.785	-15.932	0.076	-0.048
-369.771	80.086	0.281	0.301
-368.756	128.899	0.159	0.202
-367.742	-200.000	0.108	0.575
-366.727	416.656	-0.138	0.294
-365.712	73.539	-0.144	-0.150
-364.698	800.000	0.067	-0.254
-363.683	-141.170	-0.086	0.009
-362.669	345.468	0.169	0.330
-361.654	89.120	-0.152	0.169
-360.639	800.000	0.037	0.144
-359.625	-200.000	0.002	0.169
-358.610	121.560	0.037	-0.045
-357.596	-112.653	0.154	-0.030
-356.581	53.011	-0.177	0.169
-355.566	-200.000	-0.058	-0.435
-354.552	38.728	0.051	0.045
-353.537	-24.283	0.326	-0.194
-352.523	-86.784	-0.185	-0.056
-351.508	800.000	-0.109	0.398
-350.493	-29.746	-0.230	0.131
-349.479	-200.000	0.008	-0.047
-348.464	159.623	-0.205	0.284
-347.450	-55.513	-0.141	0.063
-346.435	-86.112	-0.221	0.068
-345.420	0.643	0.530	0.377
-344.406	74.218	0.243	0.254
-343.391	219.872	0.113	-0.180
-342.377	117.460	0.080	0.098
-341.362	-70.095	-0.154	-0.058
-340.348	-63.353	0.100	0.041
-339.333	43.789	-0.191	0.173
-338.318	800.000	-0.098	-0.292
-337.304	204.409	0.206	0.317
-336.289	-62.206	-0.134	0.055
-335.275	0.085	0.195	0.138
-334.260	181.423	0.039	0.057
-333.245	55.089	-0.196	0.188
-332.231	-200.000	0.027	0.211
-331.216	-67.912	0.083	-0.032
-330.202	-200.000	0.028	-0.125
-329.187	487.916	-0.118	-0.267
-328.172	181.722	0.126	-0.184
-327.158	-107.537	-0.382	-0.083
-326.143	-78.191	-0.238	-0.081
-325.129	774.474	0.105	0.285
-324.114	-22.028	0.133	-0.080
-323.099	-67.421	-0.166	-0.065
-322.085	-200.000	0.024	0.141
-321.070	-200.000	0.059	0.282
-320.056	-53.514	-0.086	-0.039
-319.041	147.208	0.028	-0.038
-318.026	-200.000	0.023	0.474
-317.012	-104.564	0.497	-0.114
-315.997	189.770	-0.181	0.270
-314.983	421.530	0.125	-0.266
-313.968	217.906	0.071	-0.113
-312.953	-200.000	0.058	-0.333
-311.939	-72.397	-0.184	-0.068
-310.924	132.844	-0.250	0.321
-309.910	-200.000	-0.005	0.542
-308.895	-121.913	-0.069	0.011
-307.880	-82.879	0.320	0.103
-306.866	41.792	-0.115	-0.103
-305.851	113.921	0.038	0.045
-304.837	-200.000	-0.011	-0.212
-303.822	-120.773	0.162	-0.027
-302.807	-102.006	-0.319	0.076
-301.793	-33.598	0.176	-0.097
-300.778	244.574	-0.175	-0.292
-299.764	673.626	0.126	-0.324
-298.749	385.452	-0.037	-0.075
-297.735	-200.000	0.053	-0.296
-296.720	-200.000	0.053	0.289
-295.705	491.410	-0.127	-0.288
-294.691	205.074	-0.044	0.068
-293.676	800.000	0.047	-0.134
-292.662	158.665	-0.024	-0.033
-291.647	225.885	0.079	0.127
-290.632	574.042	-0.050	-0.121
-289.618	-140.538	-0.092	-0.009
-288.603	129.578	0.120	-0.153
-287.589	-200.000	-0.011	-0.188
-286.574	800.000	0.075	-0.230
-285.559	47.892	0.246	0.228
-284.545	-65.865	-0.262	-0.104
-283.530	-158.497	0.205	0.012
-282.516	-159.823	0.199	-0.011
-281.501	-23.727	-0.295	0.175
-280.486	68.014	-0.067	0.068
-279.472	22.774	0.382	-0.311
-278.457	194.085	-0.139	-0.208
-277.443	-200.000	-0.017	-0.147
-276.428	42.756	-0.146	0.132
-275.413	-174.605	-0.121	0.003
-274.399	-71.447	-0.189	0.070
-273.384	-200.000	0.005	0.194
-272.370	293.528	-0.150	0.272
-271.355	800.000	-0.028	0.108
-270.340	120.708	-0.144	-0.178
-269.326	439.848	-0.171	0.369
-268.311	8.687	0.116	0.086
-267.297	-200.000	-0.011	0.150
-266.282	531.065	0.092	0.216
-265.267	76.498	-0.269	-0.282
-264.253	-104.398	0.094	0.022
-263.238	166.751	-0.259	-0.364
-262.224	51.847	-0.155	0.147
-261.209	330.180	-0.094	0.180
-260.195	-200.000	0.074	-0.426
-259.180	-46.842	0.203	-0.098
-258.165	-200.000	0.029	0.341
-257.151	88.893	-0.115	0.127
-256.136	123.348	-0.232	-0.288
-255.122	51.188	0.116	0.109
-254.107	-86.772	-0.271	0.082
-253.092	-124.342	0.301	-0.047
-252.078	242.427	-0.064	0.107
-251.063	-157.114	0.084	-0.005
-250.049	54.815	-0.240	-0.229
-249.034	13.218	0.124	0.095
-248.019	800.000	0.018	-0.070
-247.005	-164.519	0.053	-0.002
-245.990	21.457	-0.259	-0.208
-244.976	270.378	0.096	-0.167
-243.961	-81.979	0.500	0.162
-242.946	800.000	0.091	0.358
-241.932	-48.400	-0.127	0.061
-240.917	107.770	0.226	0.267
-239.903	191.446	0.154	-0.230
-238.888	99.625	0.119	-0.136
-237.873	508.564	-0.104	0.239
-236.859	385.167	-0.115	-0.236
-235.844	652.712	0.050	0.126
-234.830	-92.004	0.184	-0.052
-233.815	-200.000	-0.026	0.145
-232.800	81.733	-0.076	-0.082
-231.786	34.134	0.073	-0.063
-230.771	204.562	-0.161	-0.247
-229.757	-200.000	0.006	0.054
-228.742	800.000	-0.079	0.247
-227.727	-200.000	0.074	0.375
-226.713	800.000	-0.056	-0.216
-225.698	-42.657	0.120	0.061
-224.684	-200.000	0.006	0.322
-223.669	-40.991	0.026	0.013
-222.655	98.351	0.280	-0.319
-221.640	11.375	0.260	-0.197
-220.625	491.430	-0.077	0.175
-219.611	331.561	0.199	0.380
-218.596	-200.000	0.010	0.169
-217.582	-39.862	0.160	0.083
-216.567	-21.047	-0.115	0.069
-215.552	-89.133	0.266	0.078
-214.538	565.690	0.145	0.347
-213.523	-122.769	-0.237	-0.038
-212.509	-200.000	0.037	0.264
-211.494	-200.000	0.061	-0.297
-210.479	-129.042	0.308	-0.043
-209.465	800.000	0.137	-0.445
-208.450	-200.000	-0.005	-0.286
-207.436	29.804	0.070	0.059
-206.421	-35.789	0.348	-0.186
-205.406	-96.602	0.262	-0.068
-204.392	800.000	0.029	-0.082
-203.377	284.699	-0.177	0.314
-202.363	-28.975	-0.137	-0.078
-201.348	-29.827	0.124	0.070
-200.333	-78.586	0.418	0.141
-199.319	46.935	0.187	0.172
-198.304	-89.823	-0.098	-0.028
-197.290	321.695	-0.195	0.367
-196.275	24.368	-0.367	0.300
-195.260	225.330	0.042	0.068
-194.246	-79.749	0.061	0.020
-193.231	800.000	-0.126	-0.365
-192.217	-133.066	0.342	-0.043
-191.202	-40.064	0.146	0.075
-190.187	-200.000	0.014	-0.085
-189.173	-72.356	-0.002	-0.001
-188.158	-49.937	0.438	0.205
-187.144	757.797	-0.069	-0.186
-186.129	-47.085	0.223	0.108
-185.114	-39.608	-0.291	0.151
-184.100	498.783	-0.060	0.136
-183.085	-200.000	-0.002	0.010
-182.071	4.522	-0.184	-0.133
-181.056	254.495	-0.086	0.145
-180.042	755.652	0.052	-0.140
-179.027	-200.000	0.015	-0.296
-178.012	-200.000	0.044	-0.323
-176.998	-200.000	0.049	0.270
-175.983	411.659	-0.063	-0.133
-174.969	-109.957	0.266	0.055
-173.954	16.782	-0.167	-0.130
-172.939	613.929	-0.033	-0.081
-171.925	-14.718	-0.171	0.108
-170.910	125.472	0.103	0.128
-169.896	-175.678	0.239	-0.006
-168.881	-200.000	-0.001	0.087
-167.866	-200.000	-0.056	-0.291
-166.852	147.298	0.162	0.215
-165.837	-200.000	0.001	0.364
-164.823	800.000	-0.016	0.064
-163.808	-85.358	0.367	-0.113
-162.793	-60.520	-0.232	0.097
-161.779	105.808	0.222	-0.260
-160.764	800.000	-0.061	-0.170
-159.750	-106.428	0.095	0.021
-158.735	130.162	0.063	-0.079
-157.720	-161.675	0.118	-0.006
-156.706	800.000	0.072	-0.202
-155.691	45.215	-0.154	-0.140
-154.677	-29.352	-0.141	0.080
-153.662	202.227	-0.049	-0.075
-152.647	-149.472	0.272	-0.021
-151.633	190.791	0.272	-0.404
-150.618	-200.000	0.011	-0.067
-149.604	173.609	0.067	-0.095
-148.589	313.113	0.141	-0.262
-147.574	-200.000	-0.023	0.148
-146.560	800.000	-0.064	-0.187
-145.545	-200.000	0.007	0.114
-144.531	-73.851	0.045	0.016
-143.516	800.000	0.050	-0.193
-142.502	-168.180	-0.163	-0.006
-141.487	764.296	-0.070	-0.187
-140.472	230.567	-0.156	-0.252
-139.458	104.663	0.069	-0.080
-138.443	-69.258	-0.069	-0.026
-137.429	-46.801	0.139	0.067
-136.414	800.000	0.064	-0.229
-135.399	-200.000	-0.082	-0.462
-134.385	131.220	0.159	-0.201
-133.370	-200.000	0.001	-0.193
-132.356	-200.000	0.012	-0.174
-131.341	116.824	0.148	0.180
-130.326	-200.000	-0.047	-0.229
-129.312	-65.132	0.040	0.016
-128.297	12.422	0.399	0.303
-127.283	-2.219	-0.244	-0.169
-126.268	-17.529	0.352	0.218
-125.253	21.792	-0.149	-0.120
-124.239	-59.100	-0.490	0.208
-123.224	-69.032	0.196	0.075
-122.210	800.000	-0.174	0.524
-121.195	-200.000	-0.030	0.199
