DTS Sentinel unit serial number:	SN413079Multiplexer serial number:	ORYXHardware model number:	OX4-SRSoftware version number:	ORYX F/W v4.00 Oryx Data Collector v3.7.2.0data status	okinstallation	princeton_trtdifferential loss correction	single-endedforward channel	channel 3reverse channel	N/Adate	2019/09/18time	18:56:35forward acquisition time	60.00reverse acquisition time	0.00gamma	496.2192k internal	0.2308k external	0.2308temperature offset calibration	0.9998default loss term (dB/km)	0.3790temperature slope calibration	1.0000multiplexer offset coefficient	1.0000multiplexer slope coefficient	1.0000fibre end	0.00T internal ref (°C)	36.42T ext. ref 1 (°C)	0.93T ext. ref 2 (°C)	25.75length (m)	temperature (°C)	Stokes	anti-Stokes-747.200	-200.000	0.063	-0.356
-746.185	80.749	-0.154	0.169
-745.171	-150.698	0.501	-0.039
-744.156	-26.111	0.493	0.294
-743.142	-37.954	-0.291	0.157
-742.127	-101.618	-0.241	-0.059
-741.112	2.597	-0.163	-0.120
-740.098	-127.185	-0.319	-0.047
-739.083	-200.000	0.008	-0.307
-738.069	-78.217	0.065	-0.023
-737.054	271.069	-0.080	-0.143
-736.039	37.879	0.196	0.177
-735.025	519.741	0.001	-0.003
-734.010	-200.000	0.017	0.267
-732.996	27.660	-0.151	-0.129
-731.981	-48.198	-0.329	0.161
-730.966	-134.850	0.053	-0.007
-729.952	-200.000	0.013	-0.356
-728.937	-7.792	0.043	-0.030
-727.923	-169.143	-0.136	0.005
-726.908	-200.000	0.002	-0.356
-725.894	-40.032	-0.206	-0.109
-724.879	-93.786	-0.323	-0.090
-723.864	194.661	-0.034	-0.052
-722.850	-109.739	0.132	0.028
-721.835	-74.500	0.133	-0.049
-720.821	134.888	-0.166	0.219
-719.806	-200.000	-0.049	-0.397
-718.791	-19.309	-0.293	0.185
-717.777	-40.382	0.084	-0.044
-716.762	-78.302	-0.236	-0.082
-715.748	-96.104	0.300	-0.081
-714.733	71.766	0.378	0.399
-713.718	-175.324	-0.343	-0.010
-712.704	-102.541	0.164	0.040
-711.689	-13.173	-0.327	-0.216
-710.675	7.092	-0.037	-0.028
-709.660	-3.540	0.082	-0.058
-708.645	2.213	0.244	-0.179
-707.631	67.400	0.094	-0.098
-706.616	-200.000	-0.041	-0.356
-705.602	643.066	-0.147	-0.380
-704.587	556.388	-0.071	-0.175
-703.572	-3.761	-0.162	-0.114
-702.558	69.826	-0.100	-0.104
-701.543	248.145	0.110	0.188
-700.529	130.626	-0.237	-0.309
-699.514	-185.148	-0.455	-0.007
-698.499	11.082	0.310	-0.240
-697.485	133.473	-0.294	0.385
-696.470	-119.173	-0.428	0.076
-695.456	160.527	0.098	-0.138
-694.441	-131.440	-0.385	0.052
-693.426	-89.341	0.138	0.041
-692.412	5.341	0.167	-0.125
-691.397	-9.346	-0.273	-0.185
-690.383	510.315	0.036	-0.086
-689.368	-200.000	0.034	0.159
-688.354	673.480	0.033	0.087
-687.339	-177.385	-0.199	0.005
-686.324	-93.514	-0.325	-0.091
-685.310	-104.971	0.234	0.054
-684.295	123.621	0.127	-0.161
-683.281	-14.504	0.344	-0.224
-682.266	276.074	-0.090	-0.162
-681.251	115.656	0.172	-0.213
-680.237	800.000	0.131	-0.540
-679.222	-200.000	-0.068	0.351
-678.208	-200.000	-0.620	0.002
-677.193	-200.000	-0.037	-0.314
-676.178	-70.485	0.345	0.132
-675.164	-30.018	-0.312	-0.180
-674.149	-10.577	-0.336	0.226
-673.135	282.102	-0.108	-0.196
-672.120	800.000	-0.049	-0.207
-671.105	-34.696	-0.339	0.188
-670.091	92.301	-0.063	-0.072
-669.076	-66.690	-0.633	-0.254
-668.062	-32.760	0.098	0.055
-667.047	-20.751	-0.192	0.120
-666.032	-200.000	0.004	0.052
-665.018	252.348	-0.114	-0.198
-664.003	-39.014	-0.293	-0.156
-662.989	800.000	-0.010	0.038
-661.974	-100.665	-0.318	-0.080
-660.959	17.680	-0.227	-0.183
-659.945	-200.000	-0.000	-0.021
-658.930	-55.865	-0.250	0.113
-657.916	438.659	-0.038	0.083
-656.901	-5.621	-0.183	0.127
-655.886	-200.000	0.051	-0.242
-654.872	-103.605	0.230	-0.055
-653.857	-22.788	0.163	-0.099
-652.843	12.040	0.042	-0.033
-651.828	277.379	-0.028	0.051
-650.814	477.107	0.053	-0.121
-649.799	-77.036	-0.283	-0.100
-648.784	-95.831	0.273	-0.074
-647.770	-102.509	0.221	0.054
-646.755	-115.790	-0.094	-0.018
-645.741	364.987	0.167	0.340
-644.726	-124.060	-0.024	0.004
-643.711	-37.533	-0.247	-0.134
-642.697	278.633	-0.175	-0.317
-641.682	800.000	0.068	-0.250
-640.668	66.833	0.101	-0.104
-639.653	-200.000	-0.011	0.066
-638.638	-200.000	0.033	0.174
-637.624	77.956	0.080	0.086
-636.609	20.948	-0.266	-0.218
-635.595	-200.000	-0.059	-0.326
-634.580	5.364	-0.071	0.053
-633.565	219.185	-0.099	0.161
-632.551	56.077	-0.329	0.324
-631.536	800.000	-0.073	0.272
-630.522	-116.373	-0.319	0.060
-629.507	-200.000	0.049	-0.348
-628.492	-105.604	-0.287	0.066
-627.478	-122.350	-0.176	-0.029
-626.463	714.845	0.048	0.128
-625.449	232.028	-0.127	-0.210
-624.434	404.317	0.040	0.085
-623.419	-44.701	-0.077	0.039
-622.405	177.314	-0.202	-0.297
-621.390	-200.000	-0.001	0.125
-620.376	-200.000	-0.017	0.173
-619.361	-2.434	0.270	0.192
-618.346	800.000	-0.114	0.400
-617.332	-189.127	-0.385	-0.005
-616.317	624.713	-0.038	-0.097
-615.303	-87.838	-0.285	0.087
-614.288	237.409	0.110	-0.184
-613.273	758.697	0.081	-0.221
-612.259	-26.716	0.132	0.078
-611.244	-84.871	-0.227	0.072
-610.230	-99.698	0.233	-0.059
-609.215	-159.538	0.088	-0.005
-608.201	261.900	-0.109	0.192
-607.186	-200.000	0.008	0.174
-606.171	-200.000	0.023	0.184
-605.157	4.295	0.252	-0.186
-604.142	800.000	-0.101	0.396
-603.128	178.248	0.089	-0.131
-602.113	93.333	-0.131	-0.150
-601.098	364.690	0.100	-0.204
-600.084	-200.000	-0.010	-0.086
-599.069	-181.884	0.159	0.003
-598.055	-85.269	0.028	-0.009
-597.040	-200.000	0.013	0.158
-596.025	-93.032	0.326	0.092
-595.011	-98.013	0.180	0.047
-593.996	-37.127	0.104	0.056
-592.982	251.578	0.070	-0.120
-591.967	-88.389	0.343	-0.103
-590.952	-200.000	-0.054	0.278
-589.938	-70.967	-0.242	0.092
-588.923	-200.000	0.019	0.184
-587.909	-146.433	-0.302	0.027
-586.894	-122.754	0.128	-0.021
-585.879	392.793	-0.043	0.091
-584.865	-74.367	-0.202	0.074
-583.850	800.000	0.037	0.114
-582.836	-37.037	-0.138	-0.075
-581.821	123.945	-0.059	-0.075
-580.806	-55.173	-0.045	-0.020
-579.792	-154.684	0.180	0.012
-578.777	-139.332	-0.346	-0.038
-577.763	-120.588	0.218	0.037
-576.748	2.006	0.130	-0.095
-575.733	-200.000	-0.027	-0.226
-574.719	72.445	-0.362	0.381
-573.704	-179.929	0.340	0.007
-572.690	-200.000	-0.001	0.049
-571.675	-92.998	-0.152	-0.043
-570.661	-36.356	-0.233	-0.127
-569.646	-164.654	-0.099	-0.005
-568.631	800.000	-0.082	0.282
-567.617	285.544	0.121	-0.220
-566.602	-98.852	0.093	0.024
-565.588	87.608	0.278	0.311
-564.573	-1.635	-0.333	0.237
-563.558	-102.695	-0.046	-0.011
-562.544	145.313	-0.108	0.145
-561.529	7.313	-0.323	0.244
-560.515	43.813	-0.066	-0.061
-559.500	800.000	0.036	0.137
-558.485	441.736	-0.100	-0.220
-557.471	-48.477	0.092	-0.045
-556.456	125.795	0.169	0.216
-555.442	-200.000	0.040	-0.218
-554.427	-200.000	0.069	-0.329
-553.412	-60.809	0.141	0.060
-552.398	-103.195	-0.090	-0.021
-551.383	83.790	-0.149	0.164
-550.369	38.759	0.246	-0.222
-549.354	800.000	-0.081	0.318
-548.339	-107.436	0.249	0.055
-547.325	148.704	-0.103	-0.141
-546.310	-8.972	-0.083	0.056
-545.296	-200.000	-0.014	-0.066
-544.281	412.908	0.038	0.081
-543.266	2.886	0.076	0.056
-542.252	-49.173	-0.081	-0.039
-541.237	116.377	-0.127	0.157
-540.223	-75.161	-0.186	-0.067
-539.208	1.036	0.241	0.175
-538.193	-200.000	-0.054	0.260
-537.179	62.426	0.061	-0.061
-536.164	696.880	-0.049	0.129
-535.150	-200.000	-0.003	0.135
-534.135	-74.359	-0.314	0.114
-533.121	-200.000	-0.038	-0.205
-532.106	-129.303	0.254	-0.036
-531.091	-200.000	0.025	0.129
-530.077	-36.864	-0.120	0.065
-529.062	-115.177	0.200	0.038
-528.048	711.211	0.158	0.422
-527.033	-79.137	-0.295	0.101
-526.018	146.746	-0.178	0.241
-525.004	104.013	-0.122	0.145
-523.989	-26.770	-0.149	-0.088
-522.975	202.271	-0.095	-0.148
-521.960	20.230	-0.198	-0.161
-520.945	79.982	0.175	0.189
-519.931	-200.000	-0.025	0.204
-518.916	-112.009	0.137	0.028
-517.902	144.682	0.148	-0.199
-516.887	-46.367	0.099	-0.049
-515.872	25.104	0.287	0.240
-514.858	-105.135	0.112	0.026
-513.843	-131.137	0.189	0.025
-512.829	140.570	-0.172	-0.229
-511.814	-27.133	0.141	0.083
-510.799	-15.468	-0.243	0.157
-509.785	-200.000	0.055	0.265
-508.770	193.919	-0.116	0.177
-507.756	-66.918	0.136	0.054
-506.741	-200.000	-0.020	-0.110
-505.726	-200.000	-0.017	0.164
-504.712	124.084	-0.261	0.330
-503.697	294.617	-0.072	-0.132
-502.683	-96.669	0.216	-0.057
-501.668	189.320	0.213	-0.321
-500.653	333.113	0.004	0.009
-499.639	224.983	-0.153	0.249
-498.624	-200.000	0.026	0.187
-497.610	737.214	-0.098	-0.265
-496.595	68.126	0.169	-0.174
-495.581	-62.652	-0.292	-0.122
-494.566	251.699	-0.161	-0.276
-493.551	800.000	-0.101	-0.331
-492.537	-136.688	-0.170	-0.020
-491.522	672.643	0.133	0.348
-490.508	-200.000	-0.009	-0.218
-489.493	65.777	0.128	-0.131
-488.478	-40.552	0.337	0.176
-487.464	2.980	-0.162	0.118
-486.449	-122.011	0.282	0.047
-485.435	461.292	0.100	0.224
-484.420	800.000	-0.004	-0.015
-483.405	-163.139	-0.231	-0.011
-482.391	-37.676	-0.211	-0.113
-481.376	366.706	0.036	-0.074
-480.362	-56.363	0.290	0.130
-479.347	7.466	-0.257	-0.193
-478.332	-200.000	-0.002	-0.081
-477.318	1.745	-0.052	-0.037
-476.303	-200.000	-0.002	-0.039
-475.289	128.275	0.054	-0.069
-474.274	800.000	-0.102	0.373
-473.259	-200.000	-0.001	-0.106
-472.245	-169.261	-0.134	-0.005
-471.230	-129.134	-0.257	0.036
-470.216	-125.386	-0.071	0.011
-469.201	278.920	-0.137	-0.246
-468.186	-200.000	-0.018	0.273
-467.172	800.000	0.091	-0.280
-466.157	84.026	-0.174	-0.191
-465.143	50.774	-0.038	0.037
-464.128	-25.106	0.074	0.044
-463.113	65.956	-0.272	-0.277
-462.099	-78.876	0.203	-0.070
-461.084	-200.000	-0.057	-0.402
-460.070	-200.000	0.011	0.289
-459.055	800.000	0.186	0.583
-458.040	73.433	-0.293	0.308
-457.026	262.902	-0.146	-0.254
-456.011	118.545	0.105	-0.130
-454.997	-71.834	-0.296	0.111
-453.982	200.680	0.123	-0.190
-452.968	-151.725	0.182	0.013
-451.953	98.813	0.084	0.098
-450.938	-8.522	-0.126	-0.085
-449.924	232.920	0.121	-0.200
-448.909	-24.315	-0.028	-0.017
-447.895	-29.690	0.100	-0.057
-446.880	-119.656	0.385	0.067
-445.865	-22.341	-0.249	-0.152
-444.851	176.617	-0.133	-0.194
-443.836	177.945	-0.207	-0.303
-442.822	-100.709	-0.255	-0.063
-441.807	378.391	-0.146	-0.301
-440.792	-45.572	0.158	0.079
-439.778	135.232	-0.170	-0.222
-438.763	75.613	0.042	-0.045
-437.749	-14.212	-0.201	0.130
-436.734	-200.000	0.001	0.030
-435.719	800.000	-0.090	-0.263
-434.705	-71.291	-0.162	-0.061
-433.690	431.546	0.020	-0.043
-432.676	800.000	0.026	-0.087
-431.661	-200.000	-0.239	0.000
-430.646	184.723	-0.103	0.154
-429.632	337.568	-0.092	-0.179
-428.617	205.297	0.126	0.197
-427.603	-200.000	0.009	-0.057
-426.588	28.829	0.186	0.158
-425.573	17.602	-0.078	-0.062
-424.559	46.300	0.154	0.144
-423.544	-57.728	-0.155	-0.068
-422.530	-48.898	0.179	-0.086
-421.515	152.246	0.053	-0.072
-420.500	-23.304	0.163	-0.098
-419.486	-200.000	-0.002	0.256
-418.471	-154.040	0.306	0.021
-417.457	-200.000	-0.022	-0.250
-416.442	-125.094	-0.171	-0.026
-415.428	-110.544	0.228	-0.047
-414.413	104.056	-0.191	0.225
-413.398	38.210	-0.157	-0.140
-412.384	-200.000	0.036	-0.285
-411.369	63.891	0.223	0.225
-410.355	236.116	0.162	-0.269
-409.340	76.350	-0.087	0.093
-408.325	138.415	0.159	-0.210
-407.311	-57.465	-0.224	0.098
-406.296	-93.412	0.091	0.025
-405.282	130.697	-0.155	0.200
-404.267	-160.370	-0.139	0.008
-403.252	35.922	0.025	0.022
-402.238	-79.966	0.212	0.071
-401.223	-176.275	0.088	-0.002
-400.209	800.000	-0.081	0.300
-399.194	35.045	0.342	0.300
-398.179	180.093	-0.137	0.202
-397.165	-200.000	0.013	-0.074
-396.150	800.000	-0.073	-0.256
-395.136	-200.000	-0.073	0.419
-394.121	13.179	-0.133	-0.103
-393.106	8.179	0.138	-0.104
-392.092	199.897	-0.059	0.091
-391.077	-144.319	-0.277	-0.026
-390.063	-200.000	-0.007	-0.241
-389.048	351.217	-0.041	0.082
-388.033	-200.000	0.026	0.156
-387.019	-20.135	-0.098	0.060
-386.004	453.561	0.099	-0.219
-384.990	800.000	0.027	0.104
-383.975	-112.087	0.295	-0.059
-382.960	300.307	0.122	-0.226
-381.946	-65.795	-0.084	0.034
-380.931	-200.000	0.045	-0.598
-379.917	-165.233	0.197	0.009
-378.902	-43.651	0.285	-0.144
-377.888	106.195	-0.123	-0.146
-376.873	-200.000	-0.037	0.248
-375.858	285.915	-0.056	0.101
-374.844	157.895	-0.087	0.120
-373.829	432.890	-0.102	0.222
-372.815	-159.803	-0.254	-0.014
-371.800	-120.713	-0.184	-0.031
-370.785	800.000	-0.009	-0.038
-369.771	95.235	0.063	-0.072
-368.756	-5.880	0.376	-0.258
-367.742	-92.868	-0.213	0.060
-366.727	800.000	-0.023	0.077
-365.712	-125.435	-0.204	-0.031
-364.698	46.416	-0.148	-0.138
-363.683	800.000	0.130	-0.399
-362.669	-67.379	0.077	-0.030
-361.654	264.431	-0.089	0.155
-360.639	-200.000	-0.021	0.116
-359.625	-138.473	0.315	0.035
-358.610	514.905	-0.015	-0.036
-357.596	540.363	-0.097	0.232
-356.581	-200.000	-0.010	-0.324
-355.566	-73.601	0.069	0.025
-354.552	-148.918	0.269	-0.022
-353.537	259.520	0.206	-0.356
-352.523	372.586	0.045	-0.091
-351.508	-200.000	0.034	0.386
-350.493	68.736	0.189	0.194
-349.479	-173.219	0.246	0.008
-348.464	-200.000	0.008	-0.322
-347.450	-200.000	0.001	-0.307
-346.435	-200.000	-0.019	0.163
-345.420	682.286	0.034	-0.089
-344.406	232.238	0.032	-0.052
-343.391	800.000	-0.032	-0.096
-342.377	-81.333	0.294	0.097
-341.362	18.752	-0.034	0.027
-340.348	-36.334	0.131	0.071
-339.333	-200.000	-0.018	-0.172
-338.318	268.745	-0.125	0.220
-337.304	2.652	-0.337	-0.245
-336.289	-4.721	-0.196	-0.135
-335.275	420.762	0.119	-0.255
-334.260	-105.007	-0.250	-0.057
-333.245	800.000	-0.034	0.134
-332.231	-71.558	0.186	-0.070
-331.216	-67.666	-0.128	-0.050
-330.202	-158.617	0.357	-0.021
-329.187	-200.000	0.027	0.206
-328.172	39.025	-0.255	-0.228
-327.158	-134.930	0.418	-0.050
-326.143	-158.496	0.091	-0.005
-325.129	-136.476	-0.289	-0.034
-324.114	-95.617	0.249	-0.067
-323.099	-189.576	-0.060	0.001
-322.085	-101.370	-0.333	0.081
-321.070	-83.749	0.245	0.078
-320.056	-39.583	0.118	-0.062
-319.041	800.000	-0.117	-0.404
-318.026	174.954	-0.112	0.162
-317.012	276.147	0.085	0.150
-315.997	-51.597	-0.143	-0.067
-314.983	-200.000	0.034	0.165
-313.968	-63.933	-0.247	-0.101
-312.953	-128.037	-0.294	0.042
-311.939	396.853	0.066	-0.138
-310.924	-200.000	-0.034	-0.380
-309.910	-54.155	0.089	-0.040
-308.895	140.826	0.129	-0.171
-307.880	720.531	-0.111	-0.295
-306.866	-200.000	-0.034	0.156
-305.851	158.197	0.195	-0.270
-304.837	-86.032	-0.149	-0.046
-303.822	-200.000	-0.028	-0.268
-302.807	17.822	0.121	-0.096
-301.793	-117.282	0.162	-0.029
-300.778	524.587	-0.031	-0.073
-299.764	60.615	0.176	-0.175
-298.749	800.000	-0.100	-0.408
-297.735	30.195	0.178	0.152
-296.720	580.151	0.147	-0.360
-295.705	-100.165	0.218	-0.054
-294.691	669.826	0.089	0.229
-293.676	-59.567	0.189	0.081
-292.662	-56.866	-0.232	-0.102
-291.647	-200.000	-0.052	0.330
-290.632	-22.588	0.252	0.152
-289.618	-200.000	0.044	0.292
-288.603	439.248	-0.056	-0.122
-287.589	-42.506	-0.079	-0.040
-286.574	31.753	-0.161	0.138
-285.559	12.117	0.170	-0.131
-284.545	80.960	-0.110	0.119
-283.530	-29.431	-0.353	0.202
-282.516	-200.000	0.049	0.404
-281.501	-71.694	0.057	0.021
-280.486	800.000	-0.049	0.156
-279.472	-200.000	0.016	-0.135
-278.457	-56.385	-0.177	-0.079
-277.443	109.856	0.076	-0.091
-276.428	272.116	0.184	-0.323
-275.413	800.000	0.058	0.199
-274.399	207.424	-0.058	-0.090
-273.384	671.016	0.091	0.236
-272.370	-42.709	-0.237	-0.121
-271.355	-200.000	-0.012	0.180
-270.340	-200.000	-0.031	0.256
-269.326	-78.071	-0.043	-0.015
-268.311	800.000	-0.051	-0.146
-267.297	-175.401	0.150	0.004
-266.282	-200.000	-0.020	0.214
-265.267	-115.759	-0.174	-0.032
-264.253	730.430	0.069	0.183
-263.238	-70.355	-0.095	-0.036
-262.224	800.000	-0.075	-0.228
-261.209	800.000	-0.013	-0.048
-260.195	-73.329	-0.447	-0.163
-259.180	-112.314	0.158	0.032
-258.165	-149.284	0.147	0.012
-257.151	-157.449	-0.194	0.012
-256.136	-47.853	0.247	0.119
-255.122	-200.000	-0.026	0.127
-254.107	800.000	0.062	-0.226
-253.092	-109.252	-0.214	-0.045
-252.078	180.853	-0.136	0.200
-251.063	-135.378	0.410	-0.049
-250.049	-200.000	-0.053	0.339
-249.034	-58.198	0.257	-0.112
-248.019	-200.000	0.012	-0.088
-247.005	-200.000	0.002	-0.015
-245.990	-71.740	0.342	0.127
-244.976	-54.755	-0.226	0.102
-243.961	4.394	0.378	0.276
-242.946	308.151	0.099	-0.185
-241.932	-105.036	-0.225	0.051
-240.917	61.718	-0.078	-0.077
-239.903	-39.250	0.137	0.072
-238.888	-26.671	-0.172	0.100
-237.873	800.000	-0.109	-0.303
-236.859	-172.934	0.526	-0.016
-235.844	206.348	-0.109	0.169
-234.830	800.000	0.054	0.234
-233.815	-200.000	-0.037	0.444
-232.800	-200.000	0.012	-0.089
-231.786	35.005	0.133	0.116
-230.771	-191.977	-0.376	-0.004
-229.757	-69.877	0.302	0.115
-228.742	-140.101	0.115	-0.012
-227.727	-100.355	0.072	-0.018
-226.713	181.048	0.034	0.050
-225.698	-20.113	0.277	0.170
-224.684	154.044	-0.081	0.111
-223.669	-135.148	-0.314	-0.038
-222.655	800.000	-0.034	0.131
-221.640	184.745	0.046	0.068
-220.625	242.241	-0.091	0.152
-219.611	800.000	-0.022	-0.072
-218.596	-25.511	0.225	-0.132
-217.582	-104.548	-0.100	-0.023
-216.567	-93.805	0.027	0.007
-215.552	-122.423	0.122	-0.020
-214.538	-200.000	-0.005	-0.350
-213.523	-200.000	-0.008	0.124
-212.509	123.318	0.034	-0.043
-211.494	339.750	0.039	0.075
-210.479	-194.080	0.154	0.001
-209.465	-200.000	-0.031	-0.219
-208.450	424.344	0.079	-0.169
-207.436	-61.638	0.282	-0.118
-206.421	161.426	0.067	0.094
-205.406	78.294	-0.284	-0.302
-204.392	800.000	0.025	-0.081
-203.377	263.208	0.124	0.214
-202.363	-36.468	-0.239	0.128
-201.348	-71.620	0.081	-0.030
-200.333	59.306	-0.082	0.080
-199.319	131.317	0.114	-0.145
-198.304	672.697	0.049	0.127
-197.290	141.227	-0.051	-0.067
-196.275	-200.000	-0.020	0.344
-195.260	248.739	-0.065	0.110
-194.246	196.862	0.156	0.236
-193.231	153.892	-0.089	0.121
-192.217	263.524	-0.040	-0.069
-191.202	280.967	0.293	0.522
-190.187	-46.718	0.251	-0.122
-189.173	800.000	0.043	-0.167
-188.158	-200.000	-0.039	-0.331
-187.144	-200.000	-0.008	-0.121
-186.129	764.807	0.168	-0.454
-185.114	-33.823	0.345	-0.189
-184.100	800.000	-0.053	-0.166
-183.085	-99.380	0.100	0.025
-182.071	93.865	0.196	-0.221
-181.056	11.040	0.100	-0.076
-180.042	-185.895	0.106	0.002
-179.027	68.496	0.074	0.075
-178.012	-90.877	-0.098	0.028
-176.998	-68.475	0.202	0.078
-175.983	173.583	0.171	-0.245
-174.969	800.000	0.052	-0.156
-173.954	292.291	-0.186	-0.337
-172.939	155.710	0.160	0.219
-171.925	-57.139	-0.476	0.209
-170.910	-61.517	0.153	0.064
-169.896	-200.000	-0.077	0.464
-168.881	476.506	0.082	-0.184
-167.866	800.000	0.026	-0.099
-166.852	99.634	0.056	0.064
-165.837	-77.395	-0.400	-0.138
-164.823	800.000	0.040	0.121
-163.808	356.583	-0.018	0.035
-162.793	-47.194	-0.139	-0.068
-161.779	-200.000	-0.021	0.359
-160.764	-5.310	-0.101	-0.069
-159.750	-2.171	-0.142	-0.099
-158.735	-33.159	0.163	0.090
-157.720	-70.059	0.414	-0.157
-156.706	161.667	0.113	-0.158
-155.691	-200.000	-0.005	0.021
-154.677	198.823	-0.022	0.033
-153.662	14.552	-0.235	0.182
-152.647	692.005	0.042	0.108
-151.633	-96.846	0.063	0.017
-150.618	180.061	-0.202	-0.294
-149.604	305.517	-0.087	0.161
-148.589	-56.959	0.195	-0.086
-147.574	-150.221	0.049	-0.004
-146.560	33.704	-0.091	-0.079
-145.545	488.993	-0.084	0.190
-144.531	-200.000	-0.018	0.156
-143.516	-21.087	-0.238	-0.145
-142.502	3.296	0.202	0.146
-141.487	-200.000	-0.018	-0.092
-140.472	-35.112	0.146	-0.079
-139.458	246.235	-0.150	0.251
-138.443	800.000	-0.024	0.090
-137.429	261.054	0.069	-0.118
-136.414	233.948	0.143	0.233
-135.399	25.688	0.201	0.166
-134.385	99.144	0.044	-0.050
-133.370	-64.925	0.104	0.042
-132.356	-38.155	-0.397	0.209
-131.341	148.343	-0.057	-0.077
-130.326	-134.925	0.270	-0.032
-129.312	505.395	0.120	-0.276
-128.297	45.921	0.115	0.105
-127.283	23.464	0.146	0.119
-126.268	228.699	0.097	0.158
-125.253	-20.840	-0.076	0.046
-124.239	-55.468	-0.035	0.015
-123.224	55.374	-0.141	0.135
-122.210	163.582	0.213	0.297
