DTS Sentinel unit serial number:	SN413079Multiplexer serial number:	ORYXHardware model number:	OX4-SRSoftware version number:	ORYX F/W v4.00 Oryx Data Collector v3.7.2.0data status	okinstallation	princeton_trtdifferential loss correction	single-endedforward channel	channel 3reverse channel	N/Adate	2019/09/19time	15:28:34forward acquisition time	60.00reverse acquisition time	0.00gamma	496.2192k internal	0.2311k external	0.2311temperature offset calibration	1.0007default loss term (dB/km)	0.3790temperature slope calibration	1.0000multiplexer offset coefficient	1.0000multiplexer slope coefficient	1.0000fibre end	0.00T internal ref (°C)	34.00T ext. ref 1 (°C)	1.17T ext. ref 2 (°C)	31.19length (m)	temperature (°C)	Stokes	anti-Stokes-747.200	-200.000	-0.005	0.190
-746.185	444.886	0.129	-0.288
-745.171	-200.000	0.017	-0.266
-744.156	-40.253	-0.424	0.224
-743.142	515.908	-0.028	-0.066
-742.127	-200.000	-0.039	0.412
-741.112	-82.998	0.127	-0.042
-740.098	-5.755	-0.113	-0.079
-739.083	800.000	0.028	-0.113
-738.069	162.574	-0.074	0.105
-737.054	97.870	-0.099	0.115
-736.039	800.000	0.043	0.140
-735.025	-58.313	-0.242	0.107
-734.010	32.980	0.088	-0.078
-732.996	614.944	-0.067	-0.170
-731.981	389.944	0.073	-0.154
-730.966	163.329	0.080	-0.114
-729.952	201.192	-0.033	0.051
-728.937	370.894	-0.141	-0.290
-727.923	-81.323	-0.384	-0.129
-726.908	306.181	-0.120	0.227
-725.894	-169.972	-0.111	0.004
-724.879	-17.974	-0.114	0.072
-723.864	-200.000	-0.008	0.212
-722.850	800.000	-0.066	-0.245
-721.835	235.932	-0.077	-0.130
-720.821	284.025	0.178	0.324
-719.806	129.409	-0.082	-0.107
-718.791	-45.970	0.119	-0.060
-717.777	-45.623	0.161	-0.081
-716.762	-200.000	-0.025	-0.187
-715.748	800.000	-0.053	0.180
-714.733	-90.378	0.029	0.009
-713.718	-156.340	0.252	0.016
-712.704	242.243	-0.195	-0.331
-711.689	132.001	0.166	0.216
-710.675	-200.000	0.009	-0.167
-709.660	208.038	-0.249	-0.395
-708.645	45.352	-0.183	-0.171
-707.631	720.053	0.038	-0.103
-706.616	-50.871	0.046	-0.022
-705.602	-200.000	-0.019	0.248
-704.587	29.955	0.173	-0.150
-703.572	451.575	-0.041	-0.092
-702.558	63.065	-0.374	-0.380
-701.543	80.945	0.116	0.127
-700.529	-131.508	0.251	0.034
-699.514	700.009	0.045	0.121
-698.499	-200.000	-0.056	-0.330
-697.485	-88.810	0.146	0.044
-696.470	-127.413	0.322	-0.047
-695.456	-200.000	-0.011	0.093
-694.441	-52.373	0.145	-0.068
-693.426	800.000	0.100	0.406
-692.412	-38.372	-0.152	-0.081
-691.397	-99.985	-0.273	0.069
-690.383	-200.000	0.020	0.247
-689.368	-41.732	-0.169	0.088
-688.354	39.168	-0.186	-0.169
-687.339	406.450	-0.127	-0.271
-686.324	-200.000	0.194	-0.001
-685.310	-200.000	-0.010	-0.085
-684.295	77.251	0.092	0.099
-683.281	-8.642	0.154	0.105
-682.266	119.834	-0.073	-0.092
-681.251	221.066	-0.057	0.092
-680.237	-48.643	0.298	-0.145
-679.222	-24.721	-0.192	-0.115
-678.208	-44.053	-0.225	-0.114
-677.193	-141.745	-0.126	0.013
-676.178	-18.290	-0.214	0.135
-675.164	-200.000	0.023	-0.204
-674.149	-200.000	-0.048	-0.346
-673.135	-99.973	0.167	-0.042
-672.120	-36.441	0.027	-0.015
-671.105	-87.846	0.119	0.036
-670.091	-99.588	0.138	0.035
-669.076	-108.813	-0.118	-0.026
-668.062	800.000	0.062	0.223
-667.047	-62.036	0.119	0.050
-666.032	56.541	-0.149	0.147
-665.018	-187.355	0.087	0.001
-664.003	43.412	-0.124	-0.115
-662.989	-152.592	-0.316	-0.023
-661.974	290.091	-0.025	0.045
-660.959	55.688	-0.009	-0.009
-659.945	-41.087	-0.199	0.104
-658.930	-200.000	0.070	0.375
-657.916	-158.948	-0.299	0.017
-656.901	-97.291	0.290	-0.077
-655.886	-9.102	-0.267	-0.181
-654.872	800.000	-0.057	0.169
-653.857	-1.845	0.117	0.083
-652.843	800.000	-0.118	-0.394
-651.828	457.207	-0.080	-0.179
-650.814	-9.100	-0.086	0.058
-649.799	549.212	0.062	0.149
-648.784	-55.704	0.078	-0.035
-647.770	-27.887	-0.219	-0.128
-646.755	-131.398	-0.229	-0.031
-645.741	59.564	0.084	-0.084
-644.726	-200.000	-0.021	-0.299
-643.711	-111.750	-0.198	-0.041
-642.697	-40.205	0.138	0.073
-641.682	800.000	0.161	0.599
-640.668	800.000	0.027	-0.117
-639.653	30.063	0.132	-0.114
-638.638	73.867	-0.320	0.339
-637.624	16.817	0.241	-0.193
-636.609	-6.070	0.104	0.072
-635.595	800.000	-0.032	-0.098
-634.580	-99.705	0.142	-0.036
-633.565	-110.774	0.125	0.026
-632.551	-49.654	-0.191	0.092
-631.536	-54.264	0.135	-0.062
-630.522	-200.000	0.020	0.148
-629.507	46.555	-0.102	0.095
-628.492	-16.320	-0.370	-0.237
-627.478	-74.859	-0.384	-0.139
-626.463	-200.000	0.048	-0.335
-625.449	-21.145	-0.221	0.137
-624.434	167.585	-0.230	-0.330
-623.419	433.718	0.069	-0.151
-622.405	1.518	0.167	-0.122
-621.390	-7.597	-0.232	0.159
-620.376	-187.218	0.151	0.002
-619.361	7.689	0.055	-0.041
-618.346	-163.526	-0.053	0.003
-617.332	-0.218	0.129	-0.093
-616.317	-20.571	-0.238	-0.148
-615.303	-169.560	0.375	0.014
-614.288	-200.000	-0.022	0.268
-613.273	509.777	0.150	0.351
-612.259	-200.000	0.011	-0.105
-611.244	-58.848	-0.198	-0.087
-610.230	-200.000	-0.018	0.438
-609.215	-97.390	-0.106	0.028
-608.201	-103.505	-0.367	-0.087
-607.186	249.672	0.211	-0.361
-606.171	125.231	0.215	0.273
-605.157	-155.352	-0.172	-0.011
-604.142	515.158	-0.118	-0.277
-603.128	-58.248	0.064	0.028
-602.113	-87.517	-0.108	0.033
-601.098	-180.925	0.036	-0.001
-600.084	94.703	0.042	-0.049
-599.069	-200.000	-0.022	-0.236
-598.055	103.818	-0.078	0.093
-597.040	41.296	-0.171	-0.156
-596.025	800.000	-0.019	0.058
-595.011	-8.638	-0.227	0.154
-593.996	-200.000	0.024	-0.122
-592.982	77.702	-0.098	0.105
-591.967	113.968	-0.068	-0.084
-590.952	-144.602	0.105	0.010
-589.938	800.000	0.085	-0.326
-588.923	-200.000	0.003	-0.186
-587.909	-191.200	0.072	0.001
-586.894	-140.064	0.070	0.007
-585.879	-200.000	-0.020	0.224
-584.865	-181.325	-0.306	0.006
-583.850	83.219	-0.134	-0.147
-582.836	-14.935	-0.118	0.076
-581.821	-98.703	-0.385	0.099
-580.806	17.844	0.242	-0.195
-579.792	-178.671	0.077	0.002
-578.777	-60.358	-0.122	-0.053
-577.763	-28.289	0.308	0.179
-576.748	-144.201	0.268	-0.025
-575.733	-73.011	-0.061	0.023
-574.719	800.000	0.060	0.208
-573.704	15.734	-0.210	-0.167
-572.690	-200.000	-0.015	-0.199
-571.675	-16.111	-0.055	0.035
-570.661	-156.764	0.050	-0.003
-569.646	-42.822	-0.136	-0.070
-568.631	-200.000	0.010	0.102
-567.617	-10.088	0.234	0.157
-566.602	-34.596	-0.112	0.062
-565.588	360.859	0.198	-0.400
-564.573	-19.439	-0.262	0.164
-563.558	130.893	0.150	0.194
-562.544	124.812	-0.208	0.265
-561.529	-32.139	0.074	0.042
-560.515	-60.676	-0.094	0.040
-559.500	-200.000	0.008	0.088
-558.485	-200.000	-0.031	-0.287
-557.471	7.952	-0.176	0.133
-556.456	-49.582	-0.157	-0.076
-555.442	-200.000	0.026	0.226
-554.427	381.322	0.087	0.179
-553.412	-89.999	0.213	0.063
-552.398	247.471	-0.073	-0.125
-551.383	224.263	-0.173	-0.282
-550.369	-64.928	0.220	0.090
-549.354	-200.000	0.004	-0.046
-548.339	18.776	-0.073	-0.059
-547.325	-12.149	0.218	0.144
-546.310	322.737	0.068	0.130
-545.296	672.875	0.069	-0.181
-544.281	291.975	-0.187	0.344
-543.266	-200.000	0.011	-0.050
-542.252	-47.580	0.486	0.238
-541.237	4.724	-0.261	0.193
-540.223	-200.000	-0.024	0.253
-539.208	-60.724	-0.200	0.085
-538.193	-200.000	0.193	-0.000
-537.179	52.873	-0.303	-0.292
-536.164	-200.000	-0.019	0.150
-535.150	5.649	0.234	0.174
-534.135	181.371	-0.142	0.210
-533.121	-200.000	0.048	-0.248
-532.106	800.000	0.072	0.262
-531.091	-200.000	0.039	-0.181
-530.077	4.139	-0.187	-0.138
-529.062	124.103	0.101	-0.128
-528.048	-200.000	0.017	0.411
-527.033	-53.959	0.166	0.076
-526.018	183.474	0.113	-0.168
-525.004	-47.762	-0.247	-0.120
-523.989	-200.000	0.000	0.190
-522.975	-99.710	0.356	0.090
-521.960	-133.051	-0.046	-0.006
-520.945	-4.243	-0.273	-0.190
-519.931	-192.894	-0.148	0.001
-518.916	-200.000	0.048	0.231
-517.902	98.210	-0.143	0.166
-516.887	459.435	0.074	-0.167
-515.872	-49.243	0.278	0.134
-514.858	58.010	-0.052	0.051
-513.843	800.000	-0.029	-0.092
-512.829	-34.569	0.200	-0.110
-511.814	800.000	0.031	0.112
-510.799	519.054	0.020	0.046
-509.785	-153.731	0.187	-0.013
-508.770	-200.000	0.002	-0.133
-507.756	-51.765	0.129	-0.060
-506.741	90.950	-0.096	0.108
-505.726	-200.000	0.004	0.172
-504.712	309.423	-0.050	-0.094
-503.697	-114.120	0.005	-0.001
-502.683	445.495	0.051	0.112
-501.668	-97.833	0.505	-0.131
-500.653	-44.134	0.267	0.135
-499.639	-141.466	-0.239	0.024
-498.624	105.822	-0.145	0.173
-497.610	-77.614	-0.080	-0.028
-496.595	17.218	0.069	0.055
-495.581	81.146	-0.123	-0.134
-494.566	437.358	-0.046	0.101
-493.551	6.546	0.198	-0.148
-492.537	-170.862	-0.185	-0.006
-491.522	-40.931	-0.189	0.098
-490.508	800.000	0.068	-0.263
-489.493	360.348	0.108	-0.218
-488.478	434.955	-0.049	0.106
-487.464	457.696	-0.140	0.312
-486.449	-132.406	0.105	0.014
-485.435	800.000	0.042	0.145
-484.420	113.559	0.232	0.283
-483.405	-13.279	-0.166	0.108
-482.391	-200.000	-0.038	0.200
-481.376	-200.000	-0.036	0.260
-480.362	91.644	0.064	0.073
-479.347	-89.159	0.474	0.141
-478.332	-200.000	-0.057	0.353
-477.318	-6.373	0.349	0.239
-476.303	-86.818	0.488	0.150
-475.289	-25.683	0.157	0.093
-474.274	-200.000	0.002	0.038
-473.259	-200.000	-0.024	-0.144
-472.245	-157.214	-0.219	-0.013
-471.230	-92.574	0.244	-0.069
-470.216	-48.370	0.046	-0.022
-469.201	703.249	0.075	0.200
-468.186	232.634	-0.047	-0.077
-467.172	-22.652	-0.214	-0.130
-466.157	-200.000	0.052	-0.250
-465.143	-200.000	0.038	-0.170
-464.128	-200.000	-0.011	0.079
-463.113	-23.582	0.169	0.102
-462.099	-142.851	0.366	-0.036
-461.084	-137.947	0.169	-0.019
-460.070	-200.000	-0.034	-0.275
-459.055	284.271	-0.159	-0.287
-458.040	190.636	0.225	-0.340
-457.026	119.399	0.149	-0.186
-456.011	-200.000	-0.044	-0.299
-454.997	800.000	-0.107	0.439
-453.982	-200.000	-0.007	0.049
-452.968	-200.000	0.006	0.192
-451.953	-200.000	-0.006	-0.189
-450.938	800.000	0.043	0.148
-449.924	-137.379	0.013	-0.001
-448.909	535.904	0.081	-0.193
-447.895	-86.698	0.228	-0.070
-446.880	425.116	0.124	0.268
-445.865	-102.155	0.021	0.005
-444.851	103.842	-0.182	-0.214
-443.836	-200.000	0.007	0.044
-442.822	78.350	-0.136	0.146
-441.807	152.485	-0.145	0.199
-440.792	-177.317	0.101	-0.003
-439.778	-162.321	0.110	0.005
-438.763	-80.287	0.135	0.045
-437.749	-50.332	-0.115	0.054
-436.734	-200.000	0.033	-0.273
-435.719	800.000	0.124	0.447
-434.705	648.762	-0.022	0.056
-433.690	-99.017	0.131	0.033
-432.676	38.858	0.367	-0.329
-431.661	-142.497	-0.239	0.024
-430.646	210.185	-0.135	-0.213
-429.632	800.000	0.027	0.115
-428.617	-23.391	0.073	-0.044
-427.603	419.335	-0.095	-0.204
-426.588	-44.881	-0.218	-0.109
-425.573	-144.801	-0.245	-0.023
-424.559	-49.047	-0.139	-0.067
-423.544	-11.555	-0.081	-0.053
-422.530	17.655	0.189	0.151
-421.515	-200.000	-0.005	-0.026
-420.500	800.000	0.118	-0.398
-419.486	-17.637	0.199	0.125
-418.471	234.014	-0.097	0.161
-417.457	-111.895	-0.256	0.052
-416.442	-51.741	-0.107	-0.050
-415.428	262.583	0.114	0.199
-414.413	-7.629	0.320	-0.217
-413.398	800.000	0.068	-0.194
-412.384	584.956	0.199	-0.489
-411.369	800.000	-0.149	-0.474
-410.355	464.462	0.105	-0.235
-409.340	-57.770	-0.287	-0.126
-408.325	800.000	-0.084	-0.263
-407.311	175.122	-0.057	-0.083
-406.296	-200.000	-0.006	-0.210
-405.282	0.047	-0.100	0.072
-404.267	293.566	0.123	-0.225
-403.252	595.107	-0.076	0.189
-402.238	68.230	0.031	-0.032
-401.223	50.259	0.124	-0.117
-400.209	121.283	-0.191	-0.239
-399.194	267.794	0.060	0.105
-398.179	-5.732	-0.034	-0.024
-397.165	-194.411	-0.221	-0.002
-396.150	127.250	-0.186	-0.237
-395.136	-95.998	-0.369	-0.098
-394.121	279.743	-0.028	-0.049
-393.106	120.059	-0.109	-0.135
-392.092	-200.000	-0.007	-0.039
-391.077	24.994	0.230	0.191
-390.063	-200.000	0.004	0.018
-389.048	-200.000	0.011	-0.172
-388.033	800.000	-0.042	0.134
-387.019	-142.562	-0.098	-0.010
-386.004	220.353	-0.054	-0.086
-384.990	-113.665	-0.187	0.036
-383.975	-200.000	0.010	0.143
-382.960	281.963	0.070	-0.125
-381.946	-89.808	-0.052	0.015
-380.931	-143.345	0.238	0.023
-379.917	36.406	0.101	-0.089
-378.902	-124.335	0.302	-0.047
-377.888	-11.775	-0.037	-0.025
-376.873	-200.000	0.021	-0.285
-375.858	390.908	-0.139	0.288
-374.844	-92.799	0.050	0.014
-373.829	171.017	-0.118	0.169
-372.815	83.146	-0.098	-0.107
-371.800	403.854	-0.067	0.141
-370.785	-59.698	-0.224	0.096
-369.771	-200.000	-0.061	-0.299
-368.756	743.484	0.060	0.162
-367.742	-127.407	-0.215	-0.031
-366.727	-153.671	-0.159	-0.011
-365.712	135.657	0.033	-0.043
-364.698	-143.783	-0.276	-0.026
-363.683	116.408	-0.103	-0.127
-362.669	800.000	0.029	0.119
-361.654	-104.933	-0.233	0.053
-360.639	-32.970	-0.126	0.070
-359.625	199.245	-0.133	-0.205
-358.610	74.209	-0.106	0.111
-357.596	227.605	-0.064	-0.105
-356.581	800.000	0.052	0.192
-355.566	-129.443	0.178	-0.025
-354.552	496.327	0.079	0.182
-353.537	-200.000	0.002	-0.200
-352.523	800.000	-0.112	-0.367
-351.508	146.560	-0.178	0.238
-350.493	800.000	0.065	-0.278
-349.479	800.000	-0.051	-0.186
-348.464	-14.831	-0.129	-0.083
-347.450	-156.216	0.191	0.012
-346.435	-200.000	0.003	-0.099
-345.420	-200.000	-0.050	0.447
-344.406	-200.000	0.018	0.249
-343.391	-87.644	-0.194	-0.059
-342.377	-200.000	-0.049	0.330
-341.362	-21.525	-0.241	-0.147
-340.348	-35.594	-0.033	0.018
-339.333	-194.508	-0.054	-0.000
-338.318	-59.585	-0.149	0.064
-337.304	-56.061	-0.161	-0.072
-336.289	86.768	0.137	0.151
-335.275	66.241	-0.178	0.180
-334.260	568.992	-0.077	0.186
-333.245	-103.130	0.038	-0.009
-332.231	-200.000	0.009	-0.134
-331.216	-67.776	-0.207	0.081
-330.202	159.188	-0.188	-0.262
-329.187	-14.136	0.165	-0.106
-328.172	187.681	-0.130	0.193
-327.158	336.846	-0.060	-0.117
-326.143	63.424	0.166	-0.166
-325.129	-200.000	0.019	-0.345
-324.114	18.208	-0.396	0.316
-323.099	129.148	0.014	0.018
-322.085	-200.000	0.032	0.316
-321.070	50.603	0.300	-0.284
-320.056	30.806	-0.270	0.231
-319.041	-200.000	0.030	0.188
-318.026	361.308	0.145	-0.291
-317.012	-200.000	-0.004	0.120
-315.997	56.967	0.142	0.138
-314.983	-29.127	0.189	0.108
-313.968	194.651	0.198	0.300
-312.953	72.457	0.126	-0.131
-311.939	273.688	0.071	0.126
-310.924	37.202	0.159	0.141
-309.910	155.176	0.172	0.236
-308.895	460.488	0.095	-0.211
-307.880	104.480	-0.198	0.233
-306.866	-166.844	0.119	-0.005
-305.851	-200.000	0.075	0.339
-304.837	-66.676	-0.222	-0.088
-303.822	-180.553	0.317	-0.007
-302.807	-95.697	-0.193	0.051
-301.793	58.639	-0.260	-0.255
-300.778	36.477	-0.167	0.147
-299.764	-88.679	0.169	-0.050
-298.749	63.106	0.139	-0.139
-297.735	410.325	0.074	-0.156
-296.720	-144.929	0.084	-0.008
-295.705	-20.811	0.122	-0.075
-294.691	26.768	-0.185	-0.154
-293.676	-17.181	-0.088	-0.056
-292.662	270.061	-0.153	0.269
-291.647	-156.240	-0.194	0.012
-290.632	95.310	0.196	-0.223
-289.618	-164.336	-0.159	0.007
-288.603	-66.781	-0.086	-0.034
-287.589	2.132	0.109	-0.078
-286.574	-35.879	0.311	-0.168
-285.559	-123.470	0.165	0.026
-284.545	-119.887	-0.081	-0.014
-283.530	-115.983	0.367	0.068
-282.516	800.000	0.124	0.392
-281.501	73.320	0.114	0.119
-280.486	-200.000	-0.045	0.425
-279.472	800.000	0.103	0.325
-278.457	-162.330	-0.491	0.024
-277.443	62.212	0.080	-0.079
-276.428	284.660	0.175	0.313
-275.413	-46.834	-0.162	-0.079
-274.399	-200.000	0.038	0.338
-273.384	800.000	-0.128	-0.447
-272.370	163.772	0.059	0.083
-271.355	387.564	0.157	0.324
-270.340	64.126	-0.185	0.185
-269.326	-43.080	-0.069	-0.035
-268.311	-98.639	-0.404	-0.103
-267.297	-23.962	-0.124	0.074
-266.282	-200.000	-0.005	-0.083
-265.267	447.017	0.087	-0.190
-264.253	414.602	0.166	0.352
-263.238	-69.407	0.201	0.077
-262.224	60.679	0.157	0.155
-261.209	0.252	0.292	0.208
-260.195	117.448	-0.028	0.034
-259.180	380.395	0.081	-0.165
-258.165	800.000	-0.078	-0.216
-257.151	-31.625	0.433	-0.242
-256.136	19.778	0.107	0.086
-255.122	22.216	0.207	-0.169
-254.107	-102.125	-0.288	0.069
-253.092	-200.000	-0.036	0.239
-252.078	-39.494	0.325	0.170
-251.063	98.679	0.185	0.212
-250.049	-142.261	0.149	-0.015
-249.034	800.000	0.062	-0.175
-248.019	583.973	0.045	-0.111
-247.005	-121.931	-0.200	0.033
-245.990	114.682	0.087	0.105
-244.976	-63.540	-0.392	-0.160
-243.961	-200.000	-0.002	-0.122
-242.946	227.260	0.096	0.156
-241.932	49.391	0.118	-0.111
-240.917	-120.833	-0.275	-0.046
-239.903	304.286	-0.280	0.518
-238.888	150.611	-0.178	-0.240
-237.873	135.988	-0.215	-0.279
-236.859	-134.799	-0.246	0.030
-235.844	-22.888	-0.244	0.147
-234.830	67.887	0.010	-0.010
-233.815	-127.861	-0.367	-0.053
-232.800	-169.120	-0.622	-0.023
-231.786	169.855	-0.121	-0.171
-230.771	-23.286	0.257	-0.154
-229.757	208.068	0.165	0.257
-228.742	-200.000	-0.004	0.088
-227.727	-72.189	0.081	-0.030
-226.713	-200.000	-0.025	0.117
-225.698	-155.977	-0.085	0.005
-224.684	-200.000	-0.029	0.145
-223.669	31.824	0.146	-0.125
-222.655	400.757	0.069	-0.143
-221.640	-51.065	-0.084	-0.039
-220.625	103.559	0.005	0.006
-219.611	-9.026	0.068	-0.045
-218.596	-136.341	0.152	0.018
-217.582	289.328	-0.052	-0.094
-216.567	34.916	0.080	0.070
-215.552	800.000	0.055	0.181
-214.538	-200.000	-0.112	0.538
-213.523	-30.844	0.192	-0.108
-212.509	61.162	-0.193	-0.191
-211.494	-131.547	0.075	0.010
-210.479	800.000	-0.077	0.255
-209.465	-37.835	0.479	-0.254
-208.450	-13.776	0.213	-0.137
-207.436	-178.166	0.140	0.003
-206.421	-200.000	0.025	0.142
-205.406	477.719	-0.033	-0.073
-204.392	-200.000	0.016	-0.166
-203.377	36.708	-0.105	0.092
-202.363	106.170	-0.069	-0.082
-201.348	267.265	0.280	-0.488
-200.333	-68.206	0.174	0.067
-199.319	-106.603	-0.125	-0.028
-198.304	-144.651	0.104	0.009
-197.290	-9.195	-0.168	-0.112
-196.275	423.901	0.131	-0.279
-195.260	509.193	-0.071	0.164
-194.246	14.780	0.190	-0.148
-193.231	71.439	-0.082	0.085
-192.217	-10.570	-0.069	0.045
-191.202	128.073	0.057	0.072
-190.187	413.666	0.027	0.056
-189.173	21.494	0.174	0.141
-188.158	-70.835	0.319	-0.119
-187.144	-66.014	0.160	-0.063
-186.129	-155.659	0.091	0.006
-185.114	-79.551	-0.396	0.133
-184.100	25.943	0.237	-0.196
-183.085	800.000	0.049	-0.199
-182.071	-200.000	-0.021	-0.168
-181.056	800.000	-0.067	-0.196
-180.042	-115.079	-0.274	-0.052
-179.027	-6.069	0.040	-0.027
-178.012	-136.174	0.188	0.022
-176.998	-8.574	0.190	-0.127
-175.983	-126.889	-0.173	0.025
-174.969	-189.268	-0.254	0.003
-173.954	51.615	-0.194	0.183
-172.939	-200.000	-0.029	0.250
-171.925	-200.000	0.027	0.186
-170.910	670.921	-0.099	0.254
-169.896	-66.375	-0.203	-0.080
-168.881	-4.462	0.152	-0.105
-167.866	-140.566	-0.117	0.012
-166.852	170.012	-0.154	0.219
-165.837	-35.442	0.131	0.070
-164.823	-69.619	-0.234	-0.089
-163.808	-119.511	0.435	-0.075
-162.793	-200.000	-0.065	-0.504
-161.779	542.888	-0.159	-0.376
-160.764	-64.321	-0.108	-0.044
-159.750	-200.000	-0.007	0.231
-158.735	-200.000	-0.001	-0.058
-157.720	-61.915	0.119	0.050
-156.706	26.017	0.339	-0.281
-155.691	221.430	0.034	-0.053
-154.677	214.623	0.052	0.081
-153.662	131.165	0.228	-0.290
-152.647	-67.384	0.284	0.111
-151.633	-130.373	0.071	0.009
-150.618	29.935	0.080	-0.068
-149.604	23.356	-0.199	-0.162
-148.589	-93.844	0.201	0.055
-147.574	214.345	0.156	0.246
-146.560	800.000	-0.088	0.243
-145.545	-27.673	-0.113	0.065
-144.531	98.753	0.099	0.114
-143.516	-50.029	0.064	-0.030
-142.502	-110.177	0.364	-0.075
-141.487	800.000	0.014	0.051
-140.472	-121.876	-0.415	-0.068
-139.458	230.698	0.144	-0.234
-138.443	34.558	0.243	0.211
-137.429	276.340	-0.081	0.143
-136.414	336.083	0.111	0.213
-135.399	-200.000	-0.038	0.243
-134.385	-157.993	-0.130	0.008
-133.370	-107.989	0.057	-0.012
-132.356	-200.000	-0.026	0.123
-131.341	-144.363	-0.217	0.020
-130.326	-200.000	0.002	-0.084
-129.312	-200.000	-0.069	-0.394
-128.297	-200.000	-0.024	-0.367
-127.283	547.384	-0.086	0.203
-126.268	76.925	0.223	0.235
-125.253	558.214	-0.085	-0.202
-124.239	-41.388	0.142	0.072
-123.224	286.252	0.037	-0.066
-122.210	800.000	0.025	-0.081
-121.195	-64.065	0.081	-0.033
