DTS Sentinel unit serial number:	SN413079Multiplexer serial number:	ORYXHardware model number:	OX4-SRSoftware version number:	ORYX F/W v4.00 Oryx Data Collector v3.7.2.0data status	okinstallation	princeton_trtdifferential loss correction	single-endedforward channel	channel 3reverse channel	N/Adate	2019/09/12time	16:30:11forward acquisition time	60.00reverse acquisition time	0.00gamma	496.2192k internal	0.2305k external	0.2305temperature offset calibration	1.0068default loss term (dB/km)	0.3790temperature slope calibration	1.0000multiplexer offset coefficient	1.0000multiplexer slope coefficient	1.0000fibre end	0.00T internal ref (°C)	37.31T ext. ref 1 (°C)	2.52T ext. ref 2 (°C)	29.83length (m)	temperature (°C)	Stokes	anti-Stokes-747.200	-200.000	0.019	0.120
-746.185	-200.000	-0.019	0.256
-745.171	7.649	-0.029	-0.022
-744.156	218.865	-0.166	0.270
-743.142	633.581	-0.079	0.205
-742.127	-200.000	0.002	0.140
-741.112	157.935	-0.207	-0.292
-740.098	-115.478	0.215	-0.041
-739.083	800.000	0.016	-0.071
-738.069	800.000	0.163	0.463
-737.054	142.121	-0.223	-0.301
-736.039	138.985	-0.106	-0.141
-735.025	51.581	0.256	0.248
-734.010	-118.671	-0.358	-0.064
-732.996	800.000	-0.116	-0.369
-731.981	-200.000	-0.006	0.210
-730.966	800.000	0.079	0.251
-729.952	240.673	-0.083	-0.141
-728.937	-82.269	-0.272	0.090
-727.923	-130.190	-0.126	-0.017
-726.908	-51.100	0.037	0.018
-725.894	-44.962	-0.061	0.031
-724.879	-134.156	-0.166	0.021
-723.864	143.370	-0.117	-0.159
-722.850	800.000	0.032	0.098
-721.835	-172.381	0.315	0.010
-720.821	-172.117	0.140	-0.005
-719.806	197.261	-0.300	0.465
-718.791	-129.145	-0.273	-0.039
-717.777	800.000	-0.052	-0.191
-716.762	-200.000	-0.009	0.190
-715.748	490.834	0.073	-0.170
-714.733	800.000	-0.027	0.101
-713.718	-200.000	0.017	-0.428
-712.704	-127.249	-0.212	-0.031
-711.689	41.804	0.236	-0.218
-710.675	154.655	0.136	-0.191
-709.660	-200.000	-0.075	0.394
-708.645	603.830	0.012	-0.031
-707.631	39.667	0.072	0.066
-706.616	6.984	-0.431	-0.327
-705.602	201.745	-0.053	0.082
-704.587	379.609	-0.133	0.277
-703.572	-112.021	-0.135	0.028
-702.558	180.586	0.057	0.085
-701.543	-200.000	0.024	-0.185
-700.529	-200.000	0.064	0.349
-699.514	-15.717	-0.155	0.101
-698.499	-40.897	0.412	0.217
-697.485	204.587	-0.089	-0.141
-696.470	340.035	0.065	-0.128
-695.456	-113.161	0.171	-0.034
-694.441	-200.000	0.029	-0.142
-693.426	445.745	0.154	-0.343
-692.412	101.616	0.295	-0.350
-691.397	170.042	-0.250	-0.363
-690.383	-200.000	0.044	-0.276
-689.368	-95.552	0.419	0.114
-688.354	-200.000	0.007	-0.203
-687.339	800.000	0.064	-0.212
-686.324	-200.000	-0.052	0.310
-685.310	235.868	0.165	-0.277
-684.295	800.000	0.067	-0.228
-683.281	-200.000	0.008	0.055
-682.266	800.000	-0.051	0.153
-681.251	213.531	0.070	0.112
-680.237	256.410	0.054	0.095
-679.222	-76.867	0.252	-0.090
-678.208	-200.000	0.050	-0.223
-677.193	648.657	0.078	0.203
-676.178	423.531	-0.122	0.266
-675.164	-94.794	-0.270	0.074
-674.149	-200.000	0.007	0.042
-673.135	181.235	0.059	0.088
-672.120	800.000	0.036	-0.131
-671.105	-90.728	0.252	-0.074
-670.091	-88.151	0.135	0.041
-669.076	-200.000	-0.025	0.246
-668.062	800.000	-0.071	0.305
-667.047	122.827	0.188	-0.239
-666.032	-100.788	0.474	0.118
-665.018	-200.000	0.027	0.215
-664.003	50.585	-0.192	0.184
-662.989	-200.000	0.061	-0.318
-661.974	800.000	-0.192	-0.668
-660.959	-80.731	0.181	0.061
-659.945	10.077	0.114	0.088
-658.930	-80.273	-0.253	-0.086
-657.916	-84.751	-0.138	-0.044
-656.901	173.652	-0.113	0.166
-655.886	-88.182	0.071	-0.022
-654.872	197.980	-0.091	-0.142
-653.857	-198.984	0.162	-0.001
-652.843	-54.476	-0.271	-0.124
-651.828	-200.000	0.009	0.047
-650.814	-200.000	-0.010	0.086
-649.799	67.868	0.154	0.160
-648.784	-63.838	0.249	-0.103
-647.770	472.356	0.063	-0.144
-646.755	70.573	-0.234	-0.245
-645.741	-74.341	0.150	-0.055
-644.726	-92.850	-0.190	-0.054
-643.711	9.462	0.274	-0.210
-642.697	77.587	0.080	0.086
-641.682	120.679	-0.183	-0.231
-640.668	800.000	0.024	0.103
-639.653	-139.292	-0.102	0.011
-638.638	-104.342	-0.060	-0.014
-637.624	800.000	0.065	0.215
-636.609	800.000	-0.082	-0.237
-635.595	800.000	0.023	-0.091
-634.580	-160.087	-0.310	-0.017
-633.565	46.299	-0.050	-0.047
-632.551	-110.564	-0.101	0.021
-631.536	-200.000	0.027	0.355
-630.522	-20.304	-0.113	0.071
-629.507	532.898	0.071	-0.171
-628.492	680.106	0.045	0.118
-627.478	-94.068	-0.121	0.034
-626.463	40.322	-0.197	-0.179
-625.449	-60.686	-0.172	0.074
-624.434	-200.000	0.375	-0.002
-623.419	800.000	0.107	0.301
-622.405	175.127	0.114	-0.167
-621.390	-125.717	0.299	0.046
-620.376	306.026	0.071	-0.134
-619.361	83.521	-0.135	-0.149
-618.346	294.668	-0.098	0.181
-617.332	-152.920	0.240	0.017
-616.317	-66.711	-0.157	-0.063
-615.303	-76.099	0.190	-0.068
-614.288	27.739	-0.275	-0.235
-613.273	-129.176	0.219	0.031
-612.259	470.917	0.066	-0.150
-611.244	457.965	-0.124	-0.278
-610.230	85.912	0.069	0.077
-609.215	-156.201	-0.144	0.009
-608.201	-48.682	-0.249	-0.121
-607.186	11.068	-0.188	-0.146
-606.171	369.594	0.097	-0.198
-605.157	-200.000	0.008	-0.215
-604.142	800.000	0.028	0.096
-603.128	73.864	-0.011	0.011
-602.113	158.848	-0.181	0.254
-601.098	-21.371	0.386	0.239
-600.084	800.000	-0.083	0.251
-599.069	328.250	-0.116	0.225
-598.055	-150.323	0.278	-0.022
-597.040	-136.248	-0.325	0.038
-596.025	602.893	0.067	0.169
-595.011	-49.746	0.319	-0.153
-593.996	-200.000	-0.016	0.620
-592.982	249.099	0.081	-0.138
-591.967	44.150	0.149	0.138
-590.952	-44.201	0.153	0.077
-589.938	800.000	0.037	0.146
-588.923	23.159	0.093	-0.077
-587.909	122.537	0.329	-0.416
-586.894	38.696	0.062	0.056
-585.879	800.000	0.067	-0.225
-584.865	-153.142	0.483	-0.034
-583.850	328.320	0.088	0.170
-582.836	-119.008	0.132	0.023
-581.821	567.572	-0.050	0.122
-580.806	54.498	0.319	0.311
-579.792	-160.353	0.174	0.009
-578.777	3.608	-0.093	-0.068
-577.763	-32.902	0.140	0.079
-576.748	6.287	0.068	-0.051
-575.733	-106.378	-0.174	-0.039
-574.719	-102.762	0.179	-0.043
-573.704	225.693	0.033	-0.053
-572.690	-44.457	0.319	-0.161
-571.675	111.824	-0.312	0.381
-570.661	-38.162	-0.345	0.185
-569.646	77.237	0.054	-0.058
-568.631	-97.496	-0.150	0.039
-567.617	-200.000	-0.018	-0.109
-566.602	-200.000	-0.040	-0.263
-565.588	-149.877	0.058	0.005
-564.573	121.845	-0.101	-0.128
-563.558	-122.691	-0.080	-0.013
-562.544	-118.987	0.277	-0.049
-561.529	-109.932	0.149	-0.032
-560.515	-180.845	0.398	0.008
-559.500	-200.000	-0.001	0.360
-558.485	337.942	-0.105	-0.206
-557.471	-108.953	0.275	0.059
-556.456	-106.948	-0.094	-0.021
-555.442	-85.954	0.123	0.038
-554.427	-200.000	-0.006	-0.160
-553.412	-20.093	0.136	-0.085
-552.398	800.000	0.116	0.338
-551.383	800.000	-0.110	-0.402
-550.369	94.671	0.072	-0.083
-549.354	-200.000	0.005	0.077
-548.339	-0.358	-0.203	-0.146
-547.325	-24.632	0.158	0.095
-546.310	-38.808	-0.124	-0.066
-545.296	618.484	-0.068	-0.172
-544.281	-131.271	0.152	0.020
-543.266	-200.000	0.002	0.173
-542.252	-200.000	-0.023	0.147
-541.237	63.533	0.098	0.099
-540.223	71.006	0.079	-0.082
-539.208	8.727	-0.253	0.192
-538.193	-146.185	0.189	-0.017
-537.179	247.559	0.155	-0.265
-536.164	-25.711	0.193	-0.115
-535.150	18.479	0.174	-0.141
-534.135	-131.367	0.303	-0.041
-533.121	-136.063	0.154	0.018
-532.106	-51.645	-0.042	0.020
-531.091	116.778	-0.205	0.254
-530.077	602.964	0.134	0.336
-529.062	22.093	-0.199	0.164
-528.048	-138.675	-0.233	-0.026
-527.033	17.442	-0.355	-0.285
-526.018	-96.932	-0.239	-0.063
-525.004	215.784	0.163	-0.261
-523.989	129.820	0.230	-0.296
-522.975	158.583	-0.034	-0.048
-521.960	18.745	0.161	0.130
-520.945	-74.836	0.155	0.056
-519.931	130.826	-0.212	0.274
-518.916	-35.963	-0.044	-0.024
-517.902	17.400	0.207	0.165
-516.887	597.085	-0.039	0.097
-515.872	39.497	0.165	0.149
-514.858	523.916	0.109	0.259
-513.843	150.570	-0.126	-0.173
-512.829	-200.000	0.019	0.239
-511.814	1.873	-0.132	0.096
-510.799	342.047	0.101	-0.199
-509.785	-102.163	-0.160	-0.039
-508.770	-200.000	-0.001	-0.060
-507.756	-200.000	0.034	-0.202
-506.741	-43.130	0.058	0.030
-505.726	800.000	-0.017	-0.063
-504.712	-200.000	0.024	-0.365
-503.697	-136.626	-0.304	-0.035
-502.683	-200.000	-0.025	0.180
-501.668	-200.000	-0.003	0.401
-500.653	-124.212	-0.218	-0.034
-499.639	-89.478	0.147	0.043
-498.624	250.895	-0.091	-0.156
-497.610	-58.247	-0.317	-0.139
-496.595	508.342	0.031	-0.072
-495.581	-65.835	-0.294	0.118
-494.566	303.663	0.153	-0.286
-493.551	-130.463	-0.182	-0.025
-492.537	-130.320	-0.317	0.043
-491.522	78.082	-0.145	0.156
-490.508	95.487	-0.144	0.165
-489.493	800.000	-0.011	0.042
-488.478	-200.000	-0.024	0.408
-487.464	-117.742	-0.216	-0.039
-486.449	72.174	0.209	-0.219
-485.435	81.935	0.054	0.059
-484.420	94.132	0.096	0.110
-483.405	-89.622	-0.191	-0.056
-482.391	-148.787	0.236	0.019
-481.376	-106.316	0.481	0.108
-480.362	-62.652	-0.169	-0.071
-479.347	116.585	0.177	-0.218
-478.332	296.200	0.049	0.091
-477.318	-39.087	0.108	0.057
-476.303	-86.008	0.514	-0.160
-475.289	-71.163	-0.140	0.053
-474.274	800.000	-0.063	-0.204
-473.259	162.416	-0.218	0.308
-472.245	399.602	0.050	0.105
-471.230	-200.000	0.087	-0.481
-470.216	41.539	0.161	-0.147
-469.201	563.965	-0.085	0.208
-468.186	-35.192	0.076	0.042
-467.172	-83.936	0.232	0.074
-466.157	800.000	-0.102	0.370
-465.143	57.589	-0.080	0.079
-464.128	-105.540	0.157	-0.036
-463.113	-85.187	-0.033	-0.011
-462.099	-200.000	-0.024	0.262
-461.084	8.106	0.038	-0.029
-460.070	-79.167	-0.206	-0.070
-459.055	-200.000	-0.045	-0.268
-458.040	104.688	-0.157	0.186
-457.026	-24.837	-0.177	-0.106
-456.011	424.054	-0.112	-0.242
-454.997	800.000	-0.024	-0.071
-453.982	-52.086	0.155	-0.072
-452.968	354.572	0.058	0.115
-451.953	800.000	-0.028	-0.080
-450.938	-95.862	-0.146	-0.039
-449.924	-200.000	0.026	-0.230
-448.909	19.042	-0.080	0.065
-447.895	-76.501	-0.115	0.041
-446.880	800.000	0.038	-0.110
-445.865	671.781	-0.094	0.244
-444.851	76.154	0.129	-0.138
-443.836	211.386	0.106	-0.168
-442.822	-50.112	0.137	-0.065
-441.807	-91.168	0.008	-0.002
-440.792	-200.000	-0.011	0.122
-439.778	174.641	-0.202	-0.294
-438.763	176.798	0.269	0.393
-437.749	23.014	0.135	-0.111
-436.734	-127.225	-0.494	-0.073
-435.719	-200.000	0.020	0.111
-434.705	33.500	0.163	-0.142
-433.690	800.000	-0.028	0.082
-432.676	549.661	-0.063	0.152
-431.661	19.388	-0.383	-0.310
-430.646	388.128	0.067	0.139
-429.632	-152.757	-0.125	-0.009
-428.617	1.444	0.359	-0.259
-427.603	-37.268	0.061	0.033
-426.588	129.501	-0.260	-0.334
-425.573	800.000	0.043	0.161
-424.559	83.269	0.071	-0.078
-423.544	-20.795	0.064	-0.040
-422.530	-200.000	0.084	0.458
-421.515	-18.441	-0.263	0.165
-420.500	-200.000	-0.072	0.321
-419.486	146.403	-0.141	-0.190
-418.471	-6.742	-0.396	0.271
-417.457	528.208	-0.070	-0.165
-416.442	-139.659	-0.325	0.035
-415.428	-200.000	0.004	-0.317
-414.413	-20.301	0.003	-0.002
-413.398	-200.000	0.032	-0.172
-412.384	-78.082	-0.088	-0.031
-411.369	-140.673	-0.292	-0.030
-410.355	87.832	0.150	-0.167
-409.340	-177.958	0.156	-0.004
-408.325	106.407	0.093	-0.111
-407.311	800.000	0.116	0.384
-406.296	-28.846	-0.252	0.146
-405.282	186.662	0.130	0.195
-404.267	540.301	-0.024	-0.057
-403.252	44.756	-0.169	0.156
-402.238	321.619	0.165	-0.314
-401.223	-113.971	-0.028	-0.006
-400.209	-127.248	-0.106	0.016
-399.194	-200.000	-0.021	0.168
-398.179	97.297	-0.148	0.171
-397.165	14.241	0.123	0.096
-396.150	-127.125	0.027	0.004
-395.136	-83.444	-0.199	0.064
-394.121	246.694	0.129	-0.219
-393.106	255.371	-0.205	-0.353
-392.092	-200.000	-0.056	0.269
-391.077	415.852	0.091	0.194
-390.063	606.861	-0.076	0.190
-389.048	-140.699	-0.436	-0.045
-388.033	-200.000	-0.002	0.190
-387.019	-127.656	-0.138	-0.020
-386.004	-57.926	0.044	0.019
-384.990	-47.140	0.094	-0.046
-383.975	445.992	-0.155	0.342
-382.960	243.882	0.188	0.317
-381.946	-103.124	-0.356	0.085
-380.931	-109.731	0.322	-0.068
-379.917	-200.000	0.060	-0.324
-378.902	-200.000	0.001	0.382
-377.888	-112.702	-0.218	-0.043
-376.873	74.729	-0.142	0.150
-375.858	3.620	-0.106	-0.078
-374.844	236.577	0.189	-0.313
-373.829	558.679	0.062	-0.150
-372.815	-200.000	-0.002	0.031
-371.800	-69.025	0.714	0.276
-370.785	-200.000	0.006	-0.112
-369.771	330.387	0.030	-0.058
-368.756	-134.662	0.284	0.035
-367.742	800.000	0.030	-0.128
-366.727	7.957	-0.350	0.263
-365.712	27.673	0.254	0.215
-364.698	51.177	0.152	-0.145
-363.683	800.000	0.042	0.179
-362.669	-24.769	-0.180	-0.107
-361.654	777.451	0.102	0.280
-360.639	247.520	0.046	-0.078
-359.625	62.710	-0.187	-0.188
-358.610	115.852	-0.230	-0.282
-357.596	-100.826	-0.289	-0.071
-356.581	-200.000	0.020	0.089
-355.566	-165.957	-0.304	0.013
-354.552	53.267	-0.139	-0.133
-353.537	-179.875	0.297	-0.006
-352.523	-130.616	0.229	0.031
-351.508	800.000	-0.092	-0.332
-350.493	10.505	0.180	0.137
-349.479	42.230	-0.325	0.296
-348.464	-53.934	0.220	0.100
-347.450	164.164	-0.166	-0.234
-346.435	453.944	0.047	0.104
-345.420	350.577	0.073	0.144
-344.406	800.000	0.151	-0.466
-343.391	-12.975	0.148	-0.096
-342.377	-139.165	-0.024	0.003
-341.362	-200.000	-0.024	0.294
-340.348	539.977	-0.087	0.206
-339.333	-11.891	-0.326	0.214
-338.318	49.334	-0.222	0.210
-337.304	145.719	-0.173	0.233
-336.289	-108.343	-0.135	0.029
-335.275	194.033	0.147	-0.224
-334.260	138.347	0.129	-0.170
-333.245	297.101	0.016	-0.030
-332.231	291.826	0.101	-0.185
-331.216	85.821	-0.369	-0.406
-330.202	-200.000	-0.024	0.550
-329.187	434.288	-0.071	0.156
-328.172	-93.789	-0.081	-0.022
-327.158	-81.798	-0.168	0.055
-326.143	-31.100	0.131	-0.074
-325.129	310.864	-0.098	-0.184
-324.114	-60.110	0.146	0.062
-323.099	-200.000	-0.017	-0.082
-322.085	108.594	-0.221	0.264
-321.070	-32.802	0.107	0.060
-320.056	426.148	-0.133	0.287
-319.041	27.069	-0.265	-0.223
-318.026	392.286	-0.104	-0.217
-317.012	800.000	-0.033	-0.093
-315.997	567.016	-0.045	0.109
-314.983	35.094	0.131	-0.115
-313.968	-120.137	0.284	0.049
-312.953	-200.000	0.010	-0.213
-311.939	95.554	0.229	-0.261
-310.924	-200.000	-0.045	0.356
-309.910	-74.506	0.082	0.030
-308.895	-122.873	0.303	0.049
-307.880	-134.825	0.349	-0.042
-306.866	11.383	-0.236	-0.181
-305.851	-196.714	-0.531	0.004
-304.837	50.222	0.212	0.200
-303.822	-108.087	-0.165	-0.036
-302.807	33.894	-0.032	-0.028
-301.793	-68.382	-0.127	-0.049
-300.778	-33.090	-0.292	-0.162
-299.764	-20.301	0.231	-0.142
-298.749	-200.000	-0.037	0.188
-297.735	44.321	-0.338	-0.310
-296.720	-123.317	-0.363	-0.058
-295.705	-200.000	-0.319	-0.001
-294.691	800.000	0.060	-0.178
-293.676	-101.067	-0.153	0.038
-292.662	16.238	0.034	0.027
-291.647	-200.000	-0.019	-0.160
-290.632	-19.387	0.120	-0.074
-289.618	-92.749	-0.083	-0.023
-288.603	11.434	-0.124	-0.095
-287.589	-200.000	0.030	-0.179
-286.574	20.995	-0.221	-0.179
-285.559	-62.654	-0.222	0.092
-284.545	150.442	0.198	-0.268
-283.530	49.597	0.316	-0.298
-282.516	800.000	0.009	0.027
-281.501	-200.000	-0.003	0.264
-280.486	148.973	-0.297	0.401
-279.472	-128.959	0.443	0.062
-278.457	30.769	-0.134	0.115
-277.443	69.963	-0.124	-0.128
-276.428	54.720	-0.098	0.094
-275.413	-48.571	-0.182	0.088
-274.399	800.000	-0.133	0.408
-273.384	495.771	-0.035	0.080
-272.370	-78.276	0.154	-0.053
-271.355	-200.000	0.052	0.356
-270.340	178.826	0.115	0.168
-269.326	430.096	0.104	-0.225
-268.311	35.815	-0.245	-0.215
-267.297	-61.168	-0.196	-0.083
-266.282	175.251	0.146	-0.211
-265.267	-57.334	-0.223	0.098
-264.253	-28.083	0.286	0.165
-263.238	-28.039	-0.251	0.145
-262.224	-29.125	0.213	-0.122
-261.209	82.044	0.109	-0.118
-260.195	-35.220	0.161	-0.087
-259.180	498.522	0.130	0.299
-258.165	-29.806	-0.060	0.034
-257.151	545.620	0.015	0.036
-256.136	-190.124	0.187	-0.002
-255.122	-200.000	0.008	0.520
-254.107	-200.000	0.038	-0.229
-253.092	800.000	-0.102	-0.379
-252.078	553.194	0.060	-0.144
-251.063	800.000	0.121	-0.365
-250.049	-160.220	0.434	-0.023
-249.034	359.405	-0.086	-0.172
-248.019	-78.703	0.082	0.028
-247.005	-153.730	0.204	-0.014
-245.990	-71.829	0.079	-0.029
-244.976	-47.609	-0.167	-0.081
-243.961	-10.733	0.113	0.075
-242.946	-77.503	0.326	-0.113
-241.932	-60.110	0.150	-0.064
-240.917	-38.417	-0.196	-0.104
-239.903	392.660	0.099	-0.205
-238.888	800.000	0.020	0.069
-237.873	-80.607	-0.124	0.041
-236.859	42.543	-0.100	-0.091
-235.844	-176.889	-0.065	-0.002
-234.830	-200.000	-0.017	0.413
-233.815	-149.875	0.196	-0.015
-232.800	-118.120	0.331	-0.059
-231.786	160.512	0.157	0.219
-230.771	-120.503	0.152	0.026
-229.757	201.455	-0.189	-0.291
-228.742	111.853	-0.050	0.061
-227.727	-153.912	0.129	-0.009
-226.713	460.770	-0.091	-0.203
-225.698	-0.459	0.055	0.039
-224.684	55.216	0.369	-0.356
-223.669	346.763	0.087	-0.171
-222.655	-107.927	-0.280	-0.061
-221.640	120.410	-0.107	0.132
-220.625	34.747	0.138	0.120
-219.611	-200.000	-0.003	0.115
-218.596	333.513	0.051	-0.098
-217.582	189.321	-0.088	0.131
-216.567	173.398	-0.246	0.353
-215.552	-19.380	-0.195	0.121
-214.538	-62.310	-0.115	-0.048
-213.523	-79.509	0.192	-0.065
-212.509	-107.569	0.269	0.059
-211.494	-61.347	-0.193	0.081
-210.479	-166.554	-0.394	-0.016
-209.465	-148.445	0.245	0.020
-208.450	60.145	-0.086	0.085
-207.436	643.762	0.088	0.223
-206.421	-200.000	0.019	0.308
-205.406	-77.314	0.122	-0.042
-204.392	-124.643	0.270	-0.042
-203.377	800.000	-0.052	-0.201
-202.363	-200.000	0.055	0.343
-201.348	-97.839	-0.198	0.051
-200.333	429.816	0.148	-0.320
-199.319	-102.626	0.114	-0.027
-198.304	-200.000	0.046	-0.278
-197.290	-197.736	-0.294	0.002
-196.275	-61.285	0.157	0.066
-195.260	4.962	-0.258	0.189
-194.246	-60.860	-0.167	0.070
-193.231	94.365	-0.216	0.245
-192.217	800.000	0.077	-0.232
-191.202	165.303	-0.118	0.166
-190.187	-200.000	-0.011	0.142
-189.173	2.368	0.102	0.073
-188.158	-105.242	-0.181	-0.041
-187.144	220.801	0.212	-0.338
-186.129	-86.904	-0.132	-0.040
-185.114	242.373	0.148	0.246
-184.100	-129.920	-0.115	-0.016
-183.085	-104.685	0.285	-0.065
-182.071	800.000	-0.023	0.090
-181.056	-35.456	-0.262	0.142
-180.042	-82.653	-0.230	-0.074
-179.027	-30.308	-0.344	0.195
-178.012	-165.279	0.627	-0.027
-176.998	-32.681	-0.204	-0.113
-175.983	-74.510	0.367	-0.132
-174.969	-200.000	0.003	-0.028
-173.954	800.000	0.059	0.211
-172.939	-15.429	-0.110	-0.070
-171.925	-83.004	0.058	0.019
-170.910	800.000	-0.084	-0.278
-169.896	-200.000	-0.011	0.121
-168.881	71.499	-0.055	0.057
-167.866	-200.000	0.079	0.368
-166.852	204.280	0.094	-0.145
-165.837	187.145	-0.009	0.013
-164.823	-33.580	0.074	0.041
-163.808	117.564	0.252	-0.308
-162.793	20.799	-0.191	-0.154
-161.779	213.858	-0.067	0.106
-160.764	-84.538	0.106	0.033
-159.750	-200.000	0.012	-0.124
-158.735	-75.027	-0.085	-0.030
-157.720	270.258	-0.172	-0.300
-156.706	-8.998	0.258	0.172
-155.691	489.371	0.200	-0.456
-154.677	510.426	-0.152	-0.351
-153.662	-200.000	-0.015	0.431
-152.647	43.854	0.181	-0.165
-151.633	80.530	-0.147	0.157
-150.618	-64.633	-0.327	0.132
-149.604	-161.088	-0.151	0.008
-148.589	-70.760	-0.266	0.100
-147.574	216.204	0.117	0.185
-146.560	132.182	0.222	-0.284
-145.545	85.365	0.073	0.079
-144.531	72.544	-0.086	0.089
-143.516	89.034	-0.219	0.242
-142.502	361.198	0.157	0.313
-141.487	15.087	0.150	0.117
-140.472	-127.226	-0.280	0.041
-139.458	71.927	0.067	-0.069
-138.443	318.805	0.110	0.206
-137.429	-44.838	0.345	0.171
-136.414	2.401	-0.271	0.195
-135.399	112.445	-0.139	-0.167
-134.385	100.073	-0.073	-0.084
-133.370	81.392	-0.106	-0.114
-132.356	-39.704	0.085	-0.044
-131.341	-174.773	-0.194	0.005
-130.326	-74.788	-0.415	-0.148
-129.312	7.553	-0.086	0.064
-128.297	800.000	0.112	0.347
-127.283	-42.057	0.197	0.100
-126.268	95.882	-0.046	-0.052
-125.253	-200.000	0.043	0.484
-124.239	-114.089	-0.283	-0.054
-123.224	-92.304	-0.136	-0.038
-122.210	800.000	0.088	-0.328
-121.195	66.566	0.078	-0.079
