DTS Sentinel unit serial number:	SN413079Multiplexer serial number:	ORYXHardware model number:	OX4-SRSoftware version number:	ORYX F/W v4.00 Oryx Data Collector v3.7.2.0data status	okinstallation	princeton_trtdifferential loss correction	single-endedforward channel	channel 3reverse channel	N/Adate	2019/09/19time	14:36:34forward acquisition time	60.00reverse acquisition time	0.00gamma	496.2192k internal	0.2319k external	0.2319temperature offset calibration	1.0004default loss term (dB/km)	0.3790temperature slope calibration	1.0000multiplexer offset coefficient	1.0000multiplexer slope coefficient	1.0000fibre end	0.00T internal ref (°C)	32.39T ext. ref 1 (°C)	1.08T ext. ref 2 (°C)	29.34length (m)	temperature (°C)	Stokes	anti-Stokes-747.200	670.037	0.113	0.295
-746.185	66.217	-0.316	0.325
-745.171	-200.000	0.019	-0.238
-744.156	-200.000	0.028	0.255
-743.142	-200.000	-0.047	-0.360
-742.127	-29.999	-0.093	-0.054
-741.112	-28.772	-0.259	0.151
-740.098	31.636	-0.198	0.173
-739.083	19.243	0.217	-0.176
-738.069	154.733	-0.213	0.296
-737.054	800.000	0.042	-0.174
-736.039	62.414	-0.242	-0.244
-735.025	37.105	0.232	0.207
-734.010	-200.000	-0.074	-0.460
-732.996	-200.000	-0.013	-0.204
-731.981	800.000	-0.165	0.465
-730.966	139.491	0.072	-0.096
-729.952	-117.906	0.270	0.049
-728.937	-109.723	-0.335	0.071
-727.923	33.390	-0.168	0.148
-726.908	138.004	-0.066	0.088
-725.894	147.629	-0.083	0.114
-724.879	587.429	0.103	-0.256
-723.864	86.440	-0.275	0.307
-722.850	442.111	0.188	0.417
-721.835	-200.000	-0.005	0.187
-720.821	-124.019	-0.206	0.033
-719.806	-200.000	0.003	-0.092
-718.791	800.000	0.080	-0.346
-717.777	299.436	0.202	0.375
-716.762	207.423	-0.038	-0.060
-715.748	-34.101	-0.151	0.084
-714.733	102.594	-0.082	-0.097
-713.718	-82.949	0.144	0.047
-712.704	50.697	0.049	-0.047
-711.689	-200.000	0.057	-0.554
-710.675	-182.198	0.134	-0.003
-709.660	655.740	-0.162	0.420
-708.645	800.000	0.080	-0.273
-707.631	781.186	-0.036	0.101
-706.616	586.311	-0.044	-0.110
-705.602	800.000	0.029	-0.093
-704.587	128.372	-0.122	-0.157
-703.572	-60.153	-0.139	-0.060
-702.558	-151.716	0.076	0.006
-701.543	82.870	-0.123	-0.135
-700.529	-84.073	0.137	0.044
-699.514	40.273	0.119	-0.108
-698.499	-200.000	0.016	-0.156
-697.485	-157.744	-0.170	0.010
-696.470	-200.000	0.028	0.181
-695.456	-97.668	-0.078	-0.020
-694.441	-200.000	0.021	0.196
-693.426	58.222	-0.210	-0.208
-692.412	463.396	0.121	-0.273
-691.397	136.010	0.072	-0.094
-690.383	43.373	0.269	0.248
-689.368	-58.562	-0.320	0.140
-688.354	75.856	0.350	-0.373
-687.339	51.016	-0.168	-0.161
-686.324	393.279	0.083	0.174
-685.310	-136.774	0.231	0.027
-684.295	245.011	0.261	0.444
-683.281	-91.909	-0.093	-0.027
-682.266	-200.000	-0.051	-0.231
-681.251	97.595	0.122	-0.142
-680.237	-126.807	-0.242	0.036
-679.222	63.992	-0.224	0.227
-678.208	-200.000	0.015	-0.197
-677.193	31.392	-0.159	-0.138
-676.178	-20.068	-0.156	-0.097
-675.164	56.330	0.171	-0.168
-674.149	-200.000	0.036	-0.281
-673.135	800.000	-0.075	0.294
-672.120	180.605	0.158	0.234
-671.105	-98.186	-0.141	0.037
-670.091	78.004	0.179	-0.193
-669.076	371.435	0.152	0.311
-668.062	-163.486	0.567	-0.027
-667.047	22.283	-0.223	-0.184
-666.032	152.087	0.228	-0.314
-665.018	30.992	-0.169	0.146
-664.003	168.777	-0.093	-0.133
-662.989	800.000	0.062	-0.188
-661.974	-97.694	0.126	-0.033
-660.959	-200.000	-0.041	-0.321
-659.945	110.583	0.070	-0.084
-658.930	6.171	-0.029	0.021
-657.916	0.957	-0.170	-0.123
-656.901	-185.447	-0.423	0.007
-655.886	82.942	0.178	0.195
-654.872	800.000	-0.064	0.250
-653.857	-178.196	-0.201	-0.005
-652.843	208.453	-0.046	-0.072
-651.828	403.708	-0.005	-0.010
-650.814	-108.160	0.167	0.036
-649.799	-107.593	-0.242	-0.053
-648.784	-32.934	-0.239	-0.134
-647.770	800.000	-0.083	-0.331
-646.755	-200.000	-0.017	0.271
-645.741	22.090	-0.097	-0.079
-644.726	-52.583	-0.253	0.118
-643.711	645.401	0.097	-0.250
-642.697	-107.479	-0.236	-0.052
-641.682	-48.950	-0.239	-0.115
-640.668	800.000	-0.029	0.097
-639.653	-200.000	0.004	-0.099
-638.638	-200.000	-0.069	-0.484
-637.624	7.808	-0.111	-0.084
-636.609	103.079	0.320	-0.378
-635.595	3.080	0.337	0.247
-634.580	-66.090	-0.239	-0.096
-633.565	-78.516	-0.159	0.055
-632.551	94.237	0.141	0.161
-631.536	-59.739	-0.059	0.026
-630.522	22.837	-0.295	-0.243
-629.507	-113.011	0.194	0.039
-628.492	102.766	-0.081	0.095
-627.478	-7.771	0.108	-0.073
-626.463	43.977	0.157	-0.145
-625.449	516.823	-0.108	0.254
-624.434	423.082	-0.050	0.108
-623.419	17.272	-0.137	-0.110
-622.405	-77.956	-0.116	-0.040
-621.390	800.000	-0.093	-0.270
-620.376	-72.486	0.359	-0.134
-619.361	222.617	-0.154	-0.250
-618.346	-73.485	-0.283	-0.104
-617.332	800.000	0.080	0.226
-616.317	43.487	-0.156	-0.143
-615.303	55.789	0.064	0.063
-614.288	19.513	-0.161	-0.130
-613.273	800.000	-0.055	0.193
-612.259	-66.401	0.096	-0.038
-611.244	-87.523	-0.291	-0.089
-610.230	281.978	0.132	0.239
-609.215	134.726	0.156	0.203
-608.201	-174.318	-0.515	-0.015
-607.186	-200.000	0.013	0.216
-606.171	365.965	-0.155	-0.315
-605.157	136.318	0.122	0.161
-604.142	-52.214	0.092	-0.043
-603.128	480.825	0.086	-0.196
-602.113	-200.000	0.004	-0.027
-601.098	2.886	0.020	0.015
-600.084	-74.183	0.278	-0.101
-599.069	800.000	-0.067	-0.269
-598.055	800.000	0.018	-0.068
-597.040	61.607	0.247	-0.247
-596.025	3.046	0.106	-0.078
-595.011	800.000	0.045	-0.170
-593.996	138.423	-0.226	0.299
-592.982	-200.000	-0.001	-0.150
-591.967	-200.000	0.051	-0.231
-590.952	-123.346	-0.448	0.072
-589.938	287.511	0.033	0.061
-588.923	65.338	-0.028	0.028
-587.909	-43.562	0.244	0.124
-586.894	221.251	-0.074	0.120
-585.879	211.698	0.120	0.190
-584.865	-200.000	0.029	0.229
-583.850	-98.468	-0.152	-0.039
-582.836	-60.058	-0.135	-0.058
-581.821	-200.000	0.047	0.489
-580.806	196.592	0.020	0.031
-579.792	26.499	-0.213	0.179
-578.777	98.695	-0.050	0.058
-577.763	512.012	0.165	-0.386
-576.748	-17.765	0.084	-0.053
-575.733	-133.941	-0.215	0.027
-574.719	-95.291	-0.338	-0.091
-573.704	223.690	0.036	-0.058
-572.690	37.671	-0.223	0.199
-571.675	-148.746	-0.180	0.015
-570.661	-200.000	0.003	0.137
-569.646	600.282	0.031	-0.076
-568.631	-200.000	0.006	0.091
-567.617	-200.000	-0.001	-0.088
-566.602	800.000	0.116	-0.480
-565.588	-130.812	-0.185	-0.025
-564.573	-200.000	0.003	0.146
-563.558	9.116	-0.482	0.365
-562.544	415.833	-0.048	-0.103
-561.529	258.521	-0.142	-0.245
-560.515	-153.346	-0.422	-0.030
-559.500	-151.852	0.288	0.021
-558.485	-86.486	0.139	-0.043
-557.471	657.789	-0.068	-0.177
-556.456	-200.000	0.023	0.137
-555.442	-70.839	-0.223	-0.084
-554.427	117.636	-0.230	0.285
-553.412	154.053	-0.187	-0.257
-552.398	50.886	-0.188	-0.179
-551.383	800.000	0.177	0.575
-550.369	-200.000	0.000	-0.014
-549.354	-28.285	-0.236	-0.137
-548.339	800.000	0.078	0.265
-547.325	467.762	0.024	-0.053
-546.310	155.152	-0.231	0.320
-545.296	47.220	-0.372	0.347
-544.281	-129.848	-0.258	-0.036
-543.266	-200.000	0.072	0.326
-542.252	-105.211	0.135	-0.031
-541.237	-68.003	-0.281	-0.110
-540.223	800.000	0.101	0.295
-539.208	-63.744	-0.108	0.044
-538.193	35.064	-0.080	-0.071
-537.179	-108.771	0.260	0.056
-536.164	309.479	0.105	-0.197
-535.150	-200.000	0.019	-0.166
-534.135	-90.942	0.160	0.046
-533.121	-200.000	-0.006	0.158
-532.106	800.000	-0.037	-0.122
-531.091	-1.554	-0.124	-0.088
-530.077	77.926	0.083	-0.088
-529.062	800.000	-0.099	-0.371
-528.048	-12.468	0.445	-0.291
-527.033	65.019	-0.171	0.174
-526.018	-93.735	-0.203	-0.056
-525.004	-4.939	0.256	0.177
-523.989	-88.083	0.134	0.040
-522.975	54.204	0.019	0.018
-521.960	104.590	-0.122	-0.144
-520.945	-104.591	-0.253	-0.058
-519.931	-94.428	0.165	0.045
-518.916	-52.177	-0.042	0.019
-517.902	-30.307	-0.306	-0.174
-516.887	14.725	0.154	-0.121
-515.872	-80.172	0.298	-0.100
-514.858	-73.475	-0.279	-0.102
-513.843	64.763	0.111	-0.112
-512.829	563.811	-0.114	-0.276
-511.814	527.129	0.158	0.373
-510.799	-200.000	-0.023	0.177
-509.785	-89.981	-0.124	0.036
-508.770	-119.710	0.063	0.011
-507.756	800.000	0.026	0.084
-506.741	-63.075	-0.167	0.069
-505.726	-7.731	-0.260	0.176
-504.712	8.193	0.157	-0.118
-503.697	-28.779	-0.235	0.135
-502.683	301.344	-0.064	0.119
-501.668	-136.061	0.417	0.049
-500.653	20.970	0.262	-0.213
-499.639	669.509	0.098	-0.255
-498.624	794.147	-0.013	-0.037
-497.610	269.214	0.196	0.345
-496.595	413.388	0.097	0.208
-495.581	800.000	0.041	-0.169
-494.566	84.453	0.095	0.104
-493.551	241.634	-0.144	-0.241
-492.537	634.054	-0.113	-0.286
-491.522	-200.000	0.045	-0.407
-490.508	4.974	0.079	-0.058
-489.493	-17.297	0.146	-0.092
-488.478	-200.000	0.073	-0.410
-487.464	405.967	-0.132	-0.278
-486.449	-91.511	-0.239	0.068
-485.435	360.911	-0.014	0.028
-484.420	-102.072	-0.379	-0.091
-483.405	-200.000	0.295	0.000
-482.391	109.579	0.149	0.178
-481.376	800.000	-0.032	0.094
-480.362	128.594	0.030	-0.038
-479.347	-58.103	0.121	-0.053
-478.332	-108.060	0.238	-0.052
-477.318	-200.000	-0.027	0.131
-476.303	-86.570	0.067	0.020
-475.289	259.457	0.232	0.401
-474.274	-200.000	-0.005	-0.034
-473.259	20.461	-0.295	0.239
-472.245	62.120	-0.051	-0.051
-471.230	32.415	0.158	-0.137
-470.216	-200.000	-0.008	-0.078
-469.201	142.103	-0.157	-0.209
-468.186	641.007	0.052	-0.132
-467.172	302.955	0.158	0.292
-466.157	77.242	-0.182	0.193
-465.143	-200.000	-0.008	-0.085
-464.128	-104.120	-0.263	0.061
-463.113	-62.726	-0.121	0.050
-462.099	-200.000	0.007	-0.044
-461.084	333.008	0.125	0.242
-460.070	9.164	0.164	-0.124
-459.055	-200.000	-0.009	-0.082
-458.040	413.478	0.057	-0.121
-457.026	800.000	0.076	-0.259
-456.011	-17.258	0.187	-0.118
-454.997	-184.006	0.034	0.001
-453.982	-14.957	0.248	0.159
-452.968	-155.588	-0.161	0.010
-451.953	800.000	-0.054	0.172
-450.938	473.178	-0.034	0.077
-449.924	-103.775	0.174	0.041
-448.909	800.000	0.021	-0.068
-447.895	352.951	-0.111	0.220
-446.880	-200.000	0.053	-0.280
-445.865	88.736	0.205	0.227
-444.851	-23.267	-0.274	0.165
-443.836	-99.842	-0.168	-0.042
-442.822	9.390	-0.122	0.092
-441.807	-122.459	0.128	-0.021
-440.792	-124.845	0.229	0.035
-439.778	-148.533	0.058	0.005
-438.763	18.303	0.150	0.120
-437.749	800.000	0.078	-0.218
-436.734	-200.000	-0.003	-0.085
-435.719	19.478	0.133	0.107
-434.705	-13.614	-0.209	-0.135
-433.690	800.000	-0.073	-0.281
-432.676	-129.135	-0.078	-0.011
-431.661	-141.656	0.239	0.024
-430.646	800.000	-0.014	-0.055
-429.632	4.841	0.301	0.221
-428.617	-200.000	-0.001	-0.262
-427.603	59.230	0.096	-0.095
-426.588	800.000	0.031	-0.131
-425.573	414.759	0.137	0.291
-424.559	38.311	-0.013	0.012
-423.544	363.171	-0.059	0.118
-422.530	-109.397	-0.124	-0.026
-421.515	800.000	0.065	0.182
-420.500	-111.873	0.134	-0.027
-419.486	58.262	0.132	-0.130
-418.471	562.716	0.027	0.065
-417.457	1.732	-0.059	0.042
-416.442	-200.000	-0.019	0.137
-415.428	-67.338	-0.316	-0.124
-414.413	-129.394	0.048	-0.007
-413.398	18.515	0.180	-0.144
-412.384	-104.301	0.058	0.013
-411.369	-77.696	-0.123	0.043
-410.355	-200.000	0.050	-0.249
-409.340	-200.000	-0.005	-0.177
-408.325	-121.439	0.128	-0.021
-407.311	36.200	-0.113	0.099
-406.296	-135.324	-0.215	0.026
-405.282	55.234	-0.041	-0.039
-404.267	-101.357	-0.183	-0.045
-403.252	380.515	0.097	0.199
-402.238	-74.188	0.229	-0.083
-401.223	800.000	-0.007	-0.028
-400.209	-200.000	-0.043	0.417
-399.194	-200.000	0.146	0.000
-398.179	-200.000	-0.002	0.029
-397.165	800.000	0.077	0.244
-396.150	-88.453	-0.284	0.085
-395.136	-82.696	-0.377	-0.122
-394.121	152.675	0.064	-0.087
-393.106	800.000	-0.111	0.332
-392.092	-8.808	0.059	0.039
-391.077	-200.000	0.003	0.487
-390.063	-71.478	-0.066	-0.025
-389.048	-200.000	-0.020	-0.095
-388.033	800.000	0.093	-0.334
-387.019	583.839	0.128	0.314
-386.004	673.100	-0.047	-0.121
-384.990	475.164	0.065	-0.147
-383.975	-57.457	0.137	-0.060
-382.960	800.000	-0.073	0.317
-381.946	-200.000	-0.035	0.459
-380.931	-2.740	0.075	0.053
-379.917	800.000	0.026	-0.074
-378.902	-200.000	0.014	0.278
-377.888	-200.000	-0.052	0.296
-376.873	-31.723	0.226	-0.127
-375.858	-133.218	-0.339	0.043
-374.844	-112.999	0.193	0.038
-373.829	493.955	-0.094	0.215
-372.815	-200.000	0.012	-0.058
-371.800	29.801	0.248	0.210
-370.785	-200.000	0.015	0.210
-369.771	57.479	-0.168	-0.164
-368.756	655.547	0.061	0.157
-367.742	-200.000	-0.031	0.283
-366.727	-107.326	0.112	0.025
-365.712	208.463	0.107	-0.167
-364.698	-62.284	-0.154	0.064
-363.683	17.118	-0.047	0.037
-362.669	-58.171	0.279	0.121
-361.654	-84.011	-0.150	0.047
-360.639	222.500	-0.104	-0.166
-359.625	-35.315	0.132	-0.072
-358.610	-130.499	0.176	0.024
-357.596	-23.653	-0.129	0.077
-356.581	30.516	-0.139	0.118
-355.566	6.548	0.054	0.040
-354.552	550.424	-0.041	-0.098
-353.537	210.633	0.124	-0.194
-352.523	30.498	0.102	-0.087
-351.508	-79.600	-0.408	-0.137
-350.493	38.367	-0.101	0.090
-349.479	-89.630	0.060	0.017
-348.464	15.187	-0.201	0.157
-347.450	-200.000	-0.052	0.230
-346.435	78.659	0.092	0.098
-345.420	158.412	-0.264	-0.365
-344.406	-97.227	-0.028	-0.007
-343.391	-67.615	0.304	0.119
-342.377	-200.000	0.042	-0.293
-341.362	76.021	0.243	-0.256
-340.348	800.000	0.059	0.213
-339.333	-200.000	0.000	-0.123
-338.318	436.131	0.110	-0.238
-337.304	-25.377	-0.140	0.083
-336.289	394.211	0.222	0.460
-335.275	127.663	0.211	0.267
-334.260	-25.451	0.189	0.111
-333.245	-200.000	0.031	0.147
-332.231	800.000	-0.018	-0.065
-331.216	-47.650	0.082	0.039
-330.202	130.019	-0.249	0.318
-329.187	70.027	0.079	0.081
-328.172	-63.249	0.129	-0.053
-327.158	-200.000	0.008	-0.391
-326.143	-89.029	-0.098	0.029
-325.129	-102.549	0.229	0.055
-324.114	-187.691	0.091	-0.001
-323.099	-200.000	0.012	-0.113
-322.085	213.384	0.204	0.321
-321.070	270.234	0.097	-0.170
-320.056	-200.000	-0.001	-0.051
-319.041	145.677	-0.131	0.175
-318.026	25.073	0.114	-0.095
-317.012	800.000	0.107	0.389
-315.997	150.463	-0.085	0.115
-314.983	74.174	0.161	0.169
-313.968	-121.546	0.256	0.042
-312.953	-35.990	0.288	0.155
-311.939	-162.682	-0.118	0.006
-310.924	-34.746	-0.227	-0.123
-309.910	34.871	-0.207	-0.180
-308.895	-61.322	0.452	-0.189
-307.880	-200.000	-0.047	-0.255
-306.866	224.342	0.075	-0.121
-305.851	53.883	0.196	0.187
-304.837	45.066	-0.140	0.128
-303.822	-200.000	0.019	0.158
-302.807	-39.566	-0.183	0.095
-301.793	-200.000	0.004	0.232
-300.778	-89.227	0.122	0.036
-299.764	35.763	-0.141	0.123
-298.749	-87.950	0.031	0.009
-297.735	800.000	0.063	-0.240
-296.720	23.017	-0.120	0.098
-295.705	-96.448	0.159	-0.042
-294.691	389.530	-0.090	0.186
-293.676	-125.686	-0.095	0.014
-292.662	-200.000	0.000	-0.161
-291.647	4.016	-0.273	0.199
-290.632	156.439	0.187	0.256
-289.618	122.442	-0.101	0.125
-288.603	133.789	0.105	0.136
-287.589	-17.771	-0.181	0.113
-286.574	800.000	-0.074	0.284
-285.559	134.295	0.134	-0.172
-284.545	115.704	0.113	-0.137
-283.530	-75.676	0.214	-0.076
-282.516	154.243	0.150	0.204
-281.501	-118.163	0.188	-0.033
-280.486	64.864	-0.314	0.315
-279.472	-200.000	-0.021	-0.210
-278.457	-124.893	0.092	0.014
-277.443	-200.000	0.015	-0.098
-276.428	49.915	-0.268	0.251
-275.413	-7.882	0.172	0.115
-274.399	142.667	-0.069	-0.092
-273.384	135.348	-0.297	-0.384
-272.370	-22.051	-0.323	-0.195
-271.355	-115.856	-0.305	0.057
-270.340	-100.216	-0.049	-0.012
-269.326	-200.000	-0.009	-0.230
-268.311	44.064	0.225	0.204
-267.297	57.230	0.036	-0.034
-266.282	338.795	-0.136	0.262
-265.267	277.215	0.157	-0.277
-264.253	-128.553	-0.191	-0.027
-263.238	800.000	0.013	-0.045
-262.224	-54.077	-0.213	0.096
-261.209	-200.000	0.006	0.038
-260.195	-86.645	-0.381	0.116
-259.180	-91.777	0.455	0.128
-258.165	800.000	-0.060	0.227
-257.151	136.903	0.118	0.153
-256.136	800.000	0.008	-0.033
-255.122	539.180	-0.157	-0.370
-254.107	13.000	0.298	-0.229
-253.092	800.000	0.047	0.195
-252.078	-200.000	-0.028	-0.178
-251.063	-110.450	0.143	-0.029
-250.049	-200.000	-0.029	-0.175
-249.034	-9.861	0.188	0.124
-248.019	800.000	0.056	0.191
-247.005	-64.043	0.058	-0.024
-245.990	496.776	-0.060	0.136
-244.976	-155.640	-0.289	0.018
-243.961	120.484	-0.081	-0.100
-242.946	-200.000	-0.051	-0.264
-241.932	-120.376	0.278	0.047
-240.917	-71.816	-0.061	-0.022
-239.903	100.571	0.173	-0.200
-238.888	51.720	-0.141	0.133
-237.873	87.903	0.124	0.137
-236.859	-86.114	0.312	0.095
-235.844	-167.722	0.438	0.017
-234.830	31.126	0.125	-0.106
-233.815	-156.270	-0.105	-0.007
-232.800	17.196	0.098	0.077
-231.786	-61.542	0.021	0.009
-230.771	-104.291	0.084	0.019
-229.757	-45.104	0.358	-0.177
-228.742	365.034	0.082	0.163
-227.727	194.540	-0.138	0.207
-226.713	-200.000	0.003	-0.366
-225.698	-88.156	0.239	-0.071
-224.684	-200.000	-0.008	-0.043
-223.669	12.155	-0.042	-0.032
-222.655	81.354	-0.028	-0.030
-221.640	115.203	0.218	-0.264
-220.625	800.000	0.028	-0.110
-219.611	2.004	0.269	-0.193
-218.596	-200.000	0.021	-0.314
-217.582	-200.000	-0.040	0.247
-216.567	17.611	0.266	0.210
-215.552	-200.000	0.038	0.325
-214.538	212.723	-0.070	0.110
-213.523	36.405	-0.141	0.123
-212.509	230.116	0.074	-0.120
-211.494	559.702	0.107	-0.256
-210.479	182.614	0.263	-0.384
-209.465	305.011	0.149	0.275
-208.450	-103.481	-0.225	0.052
-207.436	-158.127	0.039	-0.002
-206.421	-118.574	-0.205	0.036
-205.406	-150.603	0.184	0.014
-204.392	-14.517	0.233	-0.149
-203.377	-132.051	-0.183	-0.024
-202.363	63.985	0.206	0.205
-201.348	-200.000	0.019	0.183
-200.333	-159.312	-0.417	-0.023
-199.319	-200.000	-0.028	0.345
-198.304	-131.373	-0.189	-0.025
-197.290	800.000	0.055	0.164
-196.275	-82.508	0.043	0.014
-195.260	152.315	0.191	-0.258
-194.246	-172.244	0.224	0.007
-193.231	178.455	-0.040	0.058
-192.217	162.002	-0.138	0.191
-191.202	-65.690	-0.420	-0.167
-190.187	-200.000	-0.022	-0.100
-189.173	-200.000	-0.045	-0.314
-188.158	59.913	0.116	-0.114
-187.144	800.000	0.094	0.362
-186.129	152.266	0.163	-0.220
-185.114	-200.000	0.001	-0.174
-184.100	-178.082	0.158	-0.004
-183.085	-200.000	0.001	-0.017
-182.071	-21.127	-0.204	-0.124
-181.056	-200.000	0.013	-0.207
-180.042	-53.385	0.292	-0.132
-179.027	-0.254	0.354	-0.249
-178.012	-39.881	0.149	0.077
-176.998	-60.163	-0.247	-0.104
-175.983	-74.356	0.167	-0.059
-174.969	220.484	-0.159	-0.252
-173.954	-195.430	-0.324	0.002
-172.939	-200.000	-0.031	-0.234
-171.925	92.448	-0.066	0.074
-170.910	116.521	-0.128	-0.155
-169.896	-80.508	0.162	0.053
-168.881	767.572	-0.105	-0.284
-167.866	234.467	-0.099	0.161
-166.852	-35.887	-0.105	0.056
-165.837	49.834	-0.153	-0.143
-164.823	-27.700	-0.112	-0.064
-163.808	13.616	-0.261	-0.200
-162.793	-116.726	0.221	-0.040
-161.779	-128.883	0.146	0.020
-160.764	-200.000	0.004	0.172
-159.750	98.376	0.075	0.085
-158.735	-27.432	-0.153	-0.088
-157.720	-34.488	0.177	0.096
-156.706	-27.287	0.120	-0.069
-155.691	-116.051	0.241	0.044
-154.677	273.657	0.145	-0.254
-153.662	-95.698	-0.334	-0.088
-152.647	-23.159	0.040	-0.024
-151.633	-192.160	-0.313	0.003
-150.618	-200.000	-0.021	-0.100
-149.604	800.000	-0.076	0.220
-148.589	-200.000	-0.011	0.084
-147.574	-167.260	-0.104	-0.004
-146.560	800.000	0.065	-0.215
-145.545	21.018	-0.199	0.159
-144.531	18.687	0.268	-0.212
-143.516	800.000	0.084	0.240
-142.502	800.000	0.062	-0.253
-141.487	-80.592	0.261	-0.086
-140.472	-18.078	-0.160	-0.099
-139.458	79.782	0.260	-0.276
-138.443	-200.000	0.020	-0.169
-137.429	235.690	0.059	0.096
-136.414	-61.487	-0.481	-0.200
-135.399	-90.258	0.080	-0.023
-134.385	123.511	0.186	-0.231
-133.370	800.000	0.046	-0.154
-132.356	-10.625	0.119	0.078
-131.341	68.577	0.096	0.098
-130.326	241.364	0.194	0.321
-129.312	37.810	-0.089	0.078
-128.297	-200.000	0.031	0.148
-127.283	800.000	0.018	-0.057
-126.268	17.153	0.147	0.115
-125.253	168.526	0.076	0.107
-124.239	-1.680	-0.069	0.048
-123.224	-114.717	0.192	0.036
-122.210	71.950	-0.132	0.136
-121.195	-200.000	0.001	0.354
-120.180	406.830	-0.017	0.035
