DTS Sentinel unit serial number:	SN413079Multiplexer serial number:	ORYXHardware model number:	OX4-SRSoftware version number:	ORYX F/W v4.00 Oryx Data Collector v3.7.2.0data status	okinstallation	princeton_trtdifferential loss correction	single-endedforward channel	channel 3reverse channel	N/Adate	2019/09/17time	00:44:35forward acquisition time	60.00reverse acquisition time	0.00gamma	496.2192k internal	0.2325k external	0.2325temperature offset calibration	0.9943default loss term (dB/km)	0.3790temperature slope calibration	1.0000multiplexer offset coefficient	1.0000multiplexer slope coefficient	1.0000fibre end	0.00T internal ref (°C)	29.44T ext. ref 1 (°C)	0.10T ext. ref 2 (°C)	24.05length (m)	temperature (°C)	Stokes	anti-Stokes-747.200	-126.002	-0.354	-0.054
-746.185	-86.339	-0.076	-0.024
-745.171	204.882	0.155	0.243
-744.156	-200.000	-0.001	0.087
-743.142	-115.059	0.082	-0.016
-742.127	-112.597	-0.140	-0.028
-741.112	25.417	-0.112	0.094
-740.098	-200.000	0.033	0.300
-739.083	335.135	0.074	-0.144
-738.069	399.330	0.022	-0.046
-737.054	-104.335	0.257	0.060
-736.039	72.706	-0.082	-0.087
-735.025	267.933	-0.134	0.237
-734.010	-19.850	-0.229	-0.143
-732.996	800.000	-0.095	-0.322
-731.981	13.353	-0.139	0.109
-730.966	17.354	-0.305	0.244
-729.952	165.391	-0.118	-0.168
-728.937	-200.000	-0.010	0.050
-727.923	259.970	0.026	-0.045
-726.908	800.000	-0.037	-0.113
-725.894	-115.671	-0.380	-0.072
-724.879	516.532	0.059	-0.139
-723.864	34.653	-0.111	0.098
-722.850	-200.000	0.021	-0.355
-721.835	23.948	-0.138	-0.115
-720.821	157.223	-0.038	-0.053
-719.806	515.740	-0.083	-0.195
-718.791	-74.765	0.052	0.019
-717.777	707.935	0.030	0.081
-716.762	161.733	0.071	0.100
-715.748	800.000	-0.094	-0.297
-714.733	-102.442	-0.344	-0.083
-713.718	660.405	0.081	0.211
-712.704	60.440	-0.274	0.274
-711.689	-153.661	-0.175	0.012
-710.675	-114.213	-0.097	0.019
-709.660	277.340	0.184	0.329
-708.645	258.997	0.020	-0.035
-707.631	-56.192	-0.084	0.037
-706.616	-92.055	0.187	0.053
-705.602	800.000	-0.063	0.201
-704.587	-190.962	-0.228	-0.002
-703.572	-152.795	0.213	0.015
-702.558	-132.208	0.323	0.042
-701.543	-3.635	-0.175	0.122
-700.529	-200.000	-0.039	0.222
-699.514	441.269	-0.105	0.231
-698.499	-69.519	0.264	0.102
-697.485	-59.583	-0.147	-0.064
-696.470	52.013	-0.121	0.116
-695.456	358.464	0.036	-0.072
-694.441	-73.427	-0.050	-0.018
-693.426	-128.976	0.175	0.025
-692.412	37.706	0.271	-0.242
-691.397	-200.000	0.004	-0.147
-690.383	33.780	0.071	-0.062
-689.368	-132.504	0.096	0.012
-688.354	510.133	-0.022	-0.052
-687.339	-165.794	-0.228	0.010
-686.324	-133.054	0.184	0.024
-685.310	-200.000	-0.087	-0.432
-684.295	800.000	-0.065	0.207
-683.281	-200.000	-0.006	-0.205
-682.266	89.718	-0.058	0.065
-681.251	-200.000	0.015	-0.287
-680.237	-83.556	0.164	-0.053
-679.222	-80.617	-0.268	-0.090
-678.208	-78.956	-0.228	0.078
-677.193	-21.778	-0.185	-0.113
-676.178	247.007	-0.099	0.168
-675.164	46.192	0.123	-0.114
-674.149	-45.705	0.237	0.118
-673.135	-57.526	0.204	-0.090
-672.120	-200.000	0.015	0.109
-671.105	-40.329	0.099	-0.052
-670.091	279.500	-0.029	-0.052
-669.076	-137.898	-0.389	0.044
-668.062	-86.889	-0.378	-0.116
-667.047	-130.339	-0.039	-0.005
-666.032	-158.364	-0.119	0.007
-665.018	-132.409	-0.374	-0.049
-664.003	-200.000	-0.004	0.159
-662.989	-107.098	0.246	-0.055
-661.974	456.537	0.097	-0.217
-660.959	-71.621	0.059	0.022
-659.945	76.568	-0.126	-0.134
-658.930	800.000	0.041	0.163
-657.916	-200.000	0.001	-0.294
-656.901	-39.831	0.021	-0.011
-655.886	-17.665	-0.210	0.133
-654.872	-200.000	0.020	-0.111
-653.857	-200.000	-0.036	0.251
-652.843	253.786	-0.027	-0.047
-651.828	231.931	0.215	-0.354
-650.814	-70.630	0.475	-0.180
-649.799	-200.000	0.028	-0.153
-648.784	-200.000	0.041	-0.260
-647.770	-200.000	-0.008	-0.129
-646.755	-71.792	0.049	0.019
-645.741	28.315	-0.059	-0.050
-644.726	-115.761	-0.348	-0.065
-643.711	152.343	0.142	0.195
-642.697	275.152	0.020	-0.036
-641.682	135.234	-0.094	0.123
-640.668	-118.531	-0.257	0.046
-639.653	800.000	0.015	0.049
-638.638	145.098	0.114	-0.154
-637.624	-36.296	-0.069	0.037
-636.609	41.097	0.057	0.052
-635.595	800.000	0.037	-0.146
-634.580	-40.815	0.160	0.083
-633.565	-38.116	-0.241	0.129
-632.551	-196.382	0.321	0.002
-631.536	-118.500	0.077	-0.014
-630.522	-53.023	0.347	-0.160
-629.507	358.251	0.045	-0.090
-628.492	-125.201	-0.304	-0.047
-627.478	-107.023	-0.190	0.042
-626.463	-165.519	0.095	-0.004
-625.449	-30.560	-0.159	-0.091
-624.434	-29.373	0.146	-0.084
-623.419	112.809	-0.076	-0.093
-622.405	78.343	-0.010	0.011
-621.390	-91.024	-0.064	-0.019
-620.376	646.857	-0.131	0.336
-619.361	-101.709	0.156	-0.038
-618.346	28.719	-0.087	0.074
-617.332	-191.811	-0.027	0.000
-616.317	-200.000	-0.001	-0.183
-615.303	-37.619	0.121	0.065
-614.288	-150.150	-0.113	-0.009
-613.273	800.000	0.067	0.250
-612.259	-200.000	-0.055	-0.267
-611.244	800.000	0.069	0.273
-610.230	61.149	0.114	0.114
-609.215	-125.562	0.268	0.041
-608.201	800.000	0.023	-0.084
-607.186	-64.079	-0.568	0.233
-606.171	-200.000	-0.011	-0.214
-605.157	-21.705	0.141	-0.086
-604.142	800.000	-0.079	-0.260
-603.128	-62.053	-0.089	0.037
-602.113	-21.678	0.249	-0.152
-601.098	-89.205	-0.174	0.051
-600.084	501.143	-0.127	0.295
-599.069	800.000	-0.040	-0.131
-598.055	-121.881	-0.131	0.022
-597.040	-200.000	0.090	-0.443
-596.025	-27.075	-0.216	-0.127
-595.011	-53.158	-0.093	0.043
-593.996	283.674	-0.106	-0.191
-592.982	195.535	0.143	-0.218
-591.967	-200.000	0.025	0.162
-590.952	51.775	0.208	-0.199
-589.938	-15.996	-0.073	-0.047
-588.923	-142.904	0.202	0.020
-587.909	133.722	0.125	-0.162
-586.894	47.566	-0.050	-0.046
-585.879	629.770	0.084	-0.214
-584.865	-73.048	0.257	-0.094
-583.850	800.000	0.066	0.198
-582.836	-81.796	-0.192	0.063
-581.821	68.807	-0.075	0.078
-580.806	-132.884	-0.138	-0.018
-579.792	-55.427	0.191	0.086
-578.777	-200.000	-0.101	-0.469
-577.763	-59.461	-0.117	0.050
-576.748	505.380	0.072	0.167
-575.733	321.375	0.077	0.147
-574.719	541.610	0.179	-0.429
-573.704	263.678	-0.118	0.205
-572.690	25.433	-0.110	-0.092
-571.675	524.813	0.044	-0.104
-570.661	224.585	-0.027	0.043
-569.646	75.042	-0.087	0.092
-568.631	28.596	-0.335	-0.284
-567.617	-200.000	-0.047	-0.224
-566.602	44.145	0.034	0.031
-565.588	-2.874	0.260	-0.182
-564.573	-68.667	0.123	0.048
-563.558	-142.916	0.334	-0.032
-562.544	789.777	0.117	-0.321
-561.529	800.000	0.076	0.280
-560.515	355.522	0.134	0.266
-559.500	328.260	-0.052	0.100
-558.485	507.559	-0.119	-0.277
-557.471	-113.846	-0.296	0.058
-556.456	-200.000	0.040	0.268
-555.442	800.000	-0.061	0.260
-554.427	800.000	-0.075	0.243
-553.412	187.374	0.207	-0.309
-552.398	-72.969	-0.289	-0.106
-551.383	309.747	0.064	0.119
-550.369	-80.376	0.312	-0.104
-549.354	585.101	0.058	0.143
-548.339	22.398	-0.070	0.057
-547.325	-102.076	-0.270	0.065
-546.310	394.403	0.193	0.402
-545.296	-200.000	-0.040	-0.227
-544.281	-32.426	-0.026	-0.015
-543.266	-71.462	0.172	0.065
-542.252	-96.737	-0.296	-0.078
-541.237	-46.134	-0.345	-0.170
-540.223	336.004	0.042	-0.081
-539.208	-200.000	-0.070	-0.361
-538.193	575.117	-0.081	-0.199
-537.179	252.102	-0.154	0.262
-536.164	-62.965	0.174	-0.072
-535.150	266.876	-0.108	0.190
-534.135	-89.116	-0.041	-0.012
-533.121	-39.076	0.144	0.076
-532.106	-200.000	0.041	-0.279
-531.091	-10.177	0.201	-0.134
-530.077	-200.000	-0.089	-0.429
-529.062	-12.214	0.289	-0.189
-528.048	-4.203	-0.273	0.189
-527.033	87.289	-0.189	-0.210
-526.018	352.386	-0.194	0.385
-525.004	-70.708	-0.288	-0.109
-523.989	263.938	0.181	-0.315
-522.975	-14.792	0.164	-0.105
-521.960	-200.000	0.047	-0.324
-520.945	-200.000	-0.026	0.128
-519.931	31.071	0.126	-0.108
-518.916	146.633	-0.061	0.082
-517.902	-53.988	0.386	-0.176
-516.887	-200.000	-0.025	0.291
-515.872	-131.206	-0.575	-0.076
-514.858	-35.365	0.153	-0.083
-513.843	-83.544	-0.046	0.015
-512.829	-113.015	0.328	0.065
-511.814	11.558	0.108	-0.083
-510.799	-64.135	0.291	0.119
-509.785	153.776	-0.191	-0.262
-508.770	249.463	-0.094	-0.159
-507.756	254.676	-0.070	0.120
-506.741	216.265	0.160	0.255
-505.726	-37.641	-0.199	0.106
-504.712	-60.929	0.008	-0.004
-503.697	-196.838	-0.140	-0.001
-502.683	-200.000	0.031	0.155
-501.668	-200.000	-0.012	-0.086
-500.653	-18.606	-0.365	0.228
-499.639	-45.379	-0.074	0.037
-498.624	98.888	0.097	-0.112
-497.610	10.540	-0.039	-0.030
-496.595	-55.146	-0.457	-0.206
-495.581	-139.311	0.386	0.041
-494.566	-146.560	-0.042	0.004
-493.551	278.147	-0.181	-0.322
-492.537	-200.000	-0.049	-0.301
-491.522	800.000	0.144	-0.471
-490.508	194.002	0.182	0.276
-489.493	350.868	0.105	0.208
-488.478	47.463	-0.090	-0.084
-487.464	800.000	0.122	0.439
-486.449	-200.000	0.107	0.000
-485.435	470.602	-0.017	-0.037
-484.420	-7.558	0.192	0.130
-483.405	-200.000	0.014	0.074
-482.391	-168.878	-0.317	-0.012
-481.376	129.108	-0.078	0.100
-480.362	198.902	-0.064	-0.099
-479.347	-132.218	-0.221	-0.029
-478.332	315.272	0.084	0.159
-477.318	-200.000	-0.038	-0.297
-476.303	800.000	-0.018	-0.051
-475.289	-31.844	-0.240	-0.135
-474.274	800.000	-0.020	-0.066
-473.259	90.433	-0.065	-0.072
-472.245	192.325	0.110	-0.166
-471.230	73.322	0.066	-0.069
-470.216	-2.016	-0.157	0.110
-469.201	216.476	0.246	-0.391
-468.186	-200.000	0.019	-0.438
-467.172	-200.000	0.009	-0.126
-466.157	-53.632	-0.381	0.174
-465.143	-200.000	0.009	0.136
-464.128	800.000	-0.080	-0.225
-463.113	-43.484	-0.192	-0.097
-462.099	-51.686	0.097	0.045
-461.084	-60.046	0.174	-0.074
-460.070	-0.496	0.084	-0.059
-459.055	-137.057	0.417	-0.048
-458.040	-200.000	-0.035	-0.339
-457.026	776.680	-0.107	-0.290
-456.011	45.728	0.153	0.141
-454.997	-134.123	0.202	0.025
-453.982	-22.854	-0.206	0.124
-452.968	800.000	-0.069	0.224
-451.953	-200.000	-0.030	0.200
-450.938	4.823	-0.014	0.010
-449.924	-200.000	0.002	-0.283
-448.909	787.631	0.036	0.099
-447.895	-116.797	-0.210	-0.038
-446.880	346.092	0.132	0.259
-445.865	170.825	-0.201	0.288
-444.851	800.000	-0.030	-0.118
-443.836	-88.129	-0.111	0.033
-442.822	1.438	0.219	-0.157
-441.807	-2.269	-0.070	0.049
-440.792	589.320	-0.155	-0.381
-439.778	61.260	0.097	-0.096
-438.763	-200.000	0.057	-0.267
-437.749	-104.300	0.179	-0.041
-436.734	-107.215	0.193	-0.042
-435.719	-30.809	0.328	0.185
-434.705	-32.777	0.106	0.059
-433.690	351.503	0.094	0.185
-432.676	102.843	-0.094	0.110
-431.661	-200.000	-0.039	-0.295
-430.646	55.157	-0.053	0.051
-429.632	180.821	0.086	0.126
-428.617	229.326	0.110	0.179
-427.603	-19.301	-0.170	0.105
-426.588	-137.711	0.432	0.048
-425.573	-148.400	0.105	0.009
-424.559	144.597	0.105	-0.139
-423.544	181.152	0.169	-0.248
-422.530	565.907	-0.128	0.310
-421.515	800.000	0.106	-0.408
-420.500	-39.954	-0.363	0.189
-419.486	-76.332	0.117	0.041
-418.471	-125.174	-0.289	0.044
-417.457	-200.000	0.018	-0.116
-416.442	-160.769	-0.146	0.008
-415.428	800.000	-0.083	-0.301
-414.413	-200.000	-0.064	-0.351
-413.398	-70.450	0.294	0.111
-412.384	373.230	-0.020	-0.041
-411.369	-84.457	-0.210	0.066
-410.355	-0.656	-0.161	-0.114
-409.340	17.005	-0.164	-0.129
-408.325	-107.870	-0.237	0.051
-407.311	-82.821	0.153	-0.049
-406.296	19.522	0.191	-0.153
-405.282	157.683	-0.257	-0.355
-404.267	496.620	-0.050	0.114
-403.252	-115.016	0.299	-0.057
-402.238	-11.447	0.081	0.053
-401.223	-54.365	-0.175	0.079
-400.209	-200.000	0.001	-0.108
-399.194	-155.557	0.030	0.002
-398.179	255.496	0.103	0.175
-397.165	-111.607	-0.193	-0.039
-396.150	-200.000	-0.032	-0.250
-395.136	40.387	0.125	0.112
-394.121	-126.164	0.214	-0.032
-393.106	253.971	-0.148	0.252
-392.092	-81.058	0.008	-0.003
-391.077	800.000	0.048	-0.197
-390.063	800.000	0.125	0.413
-389.048	-200.000	0.007	0.077
-388.033	-42.862	0.127	0.064
-387.019	-200.000	-0.040	0.188
-386.004	-30.478	-0.067	0.038
-384.990	-161.847	0.282	-0.014
-383.975	-166.196	-0.184	-0.008
-382.960	70.314	-0.211	0.217
-381.946	-5.999	-0.338	-0.230
-380.931	-75.990	0.353	-0.124
-379.917	597.172	0.148	0.366
-378.902	-66.984	0.319	0.125
-377.888	-59.339	-0.144	0.062
-376.873	641.740	-0.105	-0.266
-375.858	680.590	0.038	0.099
-374.844	-126.793	-0.118	-0.017
-373.829	360.946	-0.140	0.279
-372.815	-92.684	-0.150	0.042
-371.800	-139.745	-0.342	0.036
-370.785	-147.111	-0.061	0.005
-369.771	-13.376	0.087	0.056
-368.756	234.474	-0.087	-0.142
-367.742	-200.000	0.034	0.147
-366.727	-200.000	0.007	0.330
-365.712	800.000	-0.011	0.034
-364.698	-100.185	0.230	0.057
-363.683	-110.487	-0.230	-0.047
-362.669	-200.000	-0.048	0.334
-361.654	611.956	-0.103	0.257
-360.639	114.327	0.168	-0.204
-359.625	800.000	-0.033	0.129
-358.610	88.110	0.222	0.244
-357.596	-61.123	0.236	-0.099
-356.581	267.786	0.076	0.132
-355.566	-121.915	0.175	-0.029
-354.552	330.934	-0.195	-0.374
-353.537	699.815	0.140	0.365
-352.523	276.604	-0.163	0.287
-351.508	-7.557	0.169	0.114
-350.493	48.047	-0.181	0.169
-349.479	-66.427	-0.188	-0.074
-348.464	-200.000	0.020	-0.168
-347.450	20.385	0.093	-0.074
-346.435	113.684	-0.113	0.137
-345.420	580.755	0.118	-0.286
-344.406	-38.403	0.272	0.143
-343.391	800.000	-0.033	0.109
-342.377	-44.386	-0.178	0.089
-341.362	163.047	-0.232	0.323
-340.348	-34.679	-0.068	0.037
-339.333	-126.236	0.144	0.021
-338.318	36.248	-0.343	-0.301
-337.304	236.964	0.082	0.134
-336.289	-200.000	0.022	-0.109
-335.275	25.117	-0.053	0.044
-334.260	140.039	0.234	0.306
-333.245	-9.781	-0.065	-0.043
-332.231	-105.784	0.690	0.155
-331.216	88.636	0.024	0.026
-330.202	354.561	-0.010	0.020
-329.187	-81.026	-0.273	0.090
-328.172	-124.483	0.031	-0.005
-327.158	-200.000	-0.027	-0.330
-326.143	194.440	-0.016	0.024
-325.129	-128.312	0.202	0.029
-324.114	-200.000	0.007	0.118
-323.099	31.223	-0.193	0.165
-322.085	-200.000	0.000	0.087
-321.070	556.415	0.055	0.131
-320.056	800.000	0.115	0.327
-319.041	41.003	-0.149	0.133
-318.026	-99.034	0.130	-0.033
-317.012	-161.419	-0.315	0.016
-315.997	-52.787	-0.307	0.141
-314.983	-76.407	0.045	-0.016
-313.968	-1.247	0.257	0.180
-312.953	116.765	-0.268	0.327
-311.939	158.649	0.047	0.064
-310.924	-87.127	0.167	0.051
-309.910	-133.653	-0.148	0.018
-308.895	-56.622	0.469	0.206
-307.880	-200.000	-0.014	-0.122
-306.866	-81.895	-0.121	-0.039
-305.851	-116.414	0.080	0.015
-304.837	-41.479	-0.105	0.054
-303.822	542.158	-0.083	0.195
-302.807	-200.000	-0.042	0.361
-301.793	39.559	0.118	0.105
-300.778	-145.269	0.329	-0.030
-299.764	152.644	-0.133	0.180
-298.749	-200.000	-0.028	0.197
-297.735	94.786	0.150	0.169
-296.720	800.000	-0.211	0.583
-295.705	-88.796	0.157	-0.046
-294.691	-91.970	0.082	0.023
-293.676	-200.000	-0.012	0.163
-292.662	1.614	-0.263	0.188
-291.647	800.000	-0.062	-0.183
-290.632	-42.380	-0.199	0.101
-289.618	207.922	-0.414	0.642
-288.603	-200.000	0.018	-0.114
-287.589	800.000	-0.081	-0.308
-286.574	-197.134	0.579	0.004
-285.559	-200.000	-0.000	0.121
-284.545	-23.329	-0.184	-0.109
-283.530	-155.889	0.400	-0.025
-282.516	-158.503	-0.236	-0.014
-281.501	-60.534	-0.254	-0.107
-280.486	-145.681	0.284	0.025
-279.472	800.000	0.107	-0.437
-278.457	8.583	-0.077	0.058
-277.443	-11.213	-0.276	-0.180
-276.428	-99.875	0.266	-0.066
-275.413	-117.035	-0.193	0.035
-274.399	-41.886	0.155	0.079
-273.384	115.739	-0.022	-0.027
-272.370	528.780	-0.101	0.236
-271.355	94.612	-0.102	0.115
-270.340	800.000	0.070	0.262
-269.326	221.882	0.086	-0.137
-268.311	77.262	0.095	-0.100
-267.297	-95.155	-0.203	-0.054
-266.282	240.279	-0.144	-0.237
-265.267	-36.390	0.104	-0.055
-264.253	-200.000	0.009	-0.171
-263.238	-133.080	0.116	0.015
-262.224	200.365	-0.141	0.215
-261.209	109.801	0.115	-0.136
-260.195	-111.675	-0.041	-0.008
-259.180	114.395	-0.273	-0.329
-258.165	-200.000	-0.056	0.376
-257.151	800.000	0.064	0.220
-256.136	151.915	0.080	0.107
-255.122	-200.000	0.007	-0.221
-254.107	-61.702	0.260	0.108
-253.092	800.000	-0.151	-0.533
-252.078	-49.881	0.093	-0.044
-251.063	800.000	0.130	0.476
-250.049	-54.117	0.252	0.113
-249.034	-200.000	0.045	0.212
-248.019	154.709	-0.097	-0.132
-247.005	492.642	-0.084	-0.191
-245.990	-8.512	-0.235	-0.156
-244.976	800.000	0.042	0.122
-243.961	-76.291	-0.228	0.079
-242.946	-20.333	-0.168	-0.102
-241.932	65.130	0.078	-0.078
-240.917	45.860	0.165	0.151
-239.903	158.780	0.071	-0.097
-238.888	-200.000	-0.042	-0.251
-237.873	137.876	-0.149	0.193
-236.859	-2.334	-0.366	0.254
-235.844	340.689	-0.310	-0.600
-234.830	-110.999	0.121	0.025
-233.815	336.754	-0.045	0.086
-232.800	-66.571	-0.076	0.030
-231.786	-27.054	-0.076	-0.044
-230.771	301.962	0.140	0.256
-229.757	217.610	-0.066	-0.104
-228.742	178.332	0.178	0.257
-227.727	-85.755	-0.284	0.087
-226.713	67.350	0.181	-0.182
-225.698	-124.845	-0.116	-0.018
-224.684	-118.012	0.353	-0.062
-223.669	59.514	0.230	-0.224
-222.655	-200.000	-0.042	-0.401
-221.640	775.007	0.078	-0.210
-220.625	-34.804	-0.287	-0.155
-219.611	32.687	0.190	-0.163
-218.596	-70.908	-0.168	0.062
-217.582	-77.877	-0.373	0.127
-216.567	108.182	0.056	0.066
-215.552	-135.831	-0.153	0.018
-214.538	211.545	0.057	-0.088
-213.523	127.594	0.247	-0.310
-212.509	-79.044	0.174	-0.058
-211.494	-200.000	-0.055	0.260
-210.479	-42.857	-0.198	-0.099
-209.465	-75.593	0.292	0.103
-208.450	90.603	-0.091	-0.100
-207.436	67.413	-0.069	0.070
-206.421	-200.000	0.019	0.119
-205.406	-61.436	0.193	-0.080
-204.392	800.000	-0.055	0.234
-203.377	-32.986	-0.207	0.113
-202.363	-28.898	-0.136	-0.077
-201.348	196.791	0.252	0.379
-200.333	-17.336	-0.209	0.130
-199.319	232.533	0.197	0.320
-198.304	-58.537	0.376	-0.161
-197.290	98.659	0.119	-0.136
-196.275	-64.716	0.259	-0.104
-195.260	-47.555	0.200	0.096
-194.246	-70.192	-0.062	0.023
-193.231	800.000	-0.035	0.108
-192.217	15.905	0.030	0.023
-191.202	-130.087	0.305	0.041
-190.187	-70.338	-0.062	-0.023
-189.173	-150.631	0.138	-0.010
-188.158	-112.360	0.268	-0.053
-187.144	-136.646	0.301	0.034
-186.129	-67.463	0.199	0.077
-185.114	-183.562	0.307	-0.005
-184.100	-200.000	-0.002	0.088
-183.085	800.000	0.034	-0.114
-182.071	-61.947	-0.287	0.119
-181.056	106.968	-0.077	0.091
-180.042	27.186	0.203	-0.168
-179.027	-200.000	-0.002	-0.432
-178.012	7.207	0.151	0.111
-176.998	-56.795	-0.194	-0.085
-175.983	171.771	-0.032	-0.045
-174.969	13.078	-0.176	0.134
-173.954	297.588	0.084	0.151
-172.939	328.050	-0.118	-0.224
-171.925	-113.046	0.276	-0.054
-170.910	22.426	0.246	-0.198
-169.896	-152.218	-0.118	0.008
-168.881	59.026	0.138	0.134
-167.866	189.370	0.058	0.086
-166.852	183.805	0.053	0.077
-165.837	-91.429	-0.340	-0.096
-164.823	113.040	0.120	-0.143
-163.808	-59.384	-0.135	0.057
-162.793	-200.000	0.002	0.049
-161.779	59.604	-0.234	-0.227
-160.764	512.260	-0.134	-0.307
-159.750	4.825	-0.234	0.170
-158.735	287.895	0.230	0.411
-157.720	-200.000	0.011	-0.217
-156.706	-200.000	-0.052	0.353
-155.691	800.000	0.056	0.175
-154.677	800.000	-0.060	-0.236
-153.662	786.525	-0.065	-0.176
-152.647	800.000	-0.030	-0.094
-151.633	-200.000	-0.061	0.354
-150.618	0.688	-0.213	-0.151
-149.604	800.000	0.031	-0.106
-148.589	742.155	-0.071	-0.188
-147.574	-114.778	0.077	-0.014
-146.560	468.505	0.117	0.259
-145.545	-200.000	-0.027	0.185
-144.531	-56.780	-0.228	0.099
-143.516	-131.100	0.043	0.006
-142.502	-51.821	0.212	0.097
-141.487	109.721	0.174	0.206
-140.472	-138.219	-0.176	0.019
-139.458	-105.894	0.107	0.024
-138.443	54.317	-0.116	0.110
-137.429	-158.291	0.247	0.014
-136.414	-200.000	-0.003	0.178
-135.399	-141.370	-0.184	-0.018
-134.385	164.224	-0.017	0.024
-133.370	500.640	0.057	-0.129
-132.356	0.684	0.093	-0.066
-131.341	-81.710	0.277	-0.089
-130.326	59.871	0.231	0.225
-129.312	35.037	0.072	-0.062
-128.297	-200.000	0.049	-0.287
-127.283	-80.480	-0.231	-0.076
-126.268	-200.000	-0.001	0.291
-125.253	156.739	0.020	0.027
-124.239	-59.098	-0.162	-0.069
-123.224	-200.000	0.029	0.153
-122.210	378.417	-0.149	0.301
