DTS Sentinel unit serial number:	SN413079Multiplexer serial number:	ORYXHardware model number:	OX4-SRSoftware version number:	ORYX F/W v4.00 Oryx Data Collector v3.7.2.0data status	okinstallation	princeton_trtdifferential loss correction	single-endedforward channel	channel 3reverse channel	N/Adate	2019/09/15time	21:52:35forward acquisition time	60.00reverse acquisition time	0.00gamma	496.2192k internal	0.2329k external	0.2329temperature offset calibration	0.9939default loss term (dB/km)	0.3790temperature slope calibration	1.0000multiplexer offset coefficient	1.0000multiplexer slope coefficient	1.0000fibre end	0.00T internal ref (°C)	30.06T ext. ref 1 (°C)	8.46T ext. ref 2 (°C)	23.07length (m)	temperature (°C)	Stokes	anti-Stokes-747.200	-82.110	0.243	-0.080
-746.185	-171.538	0.036	-0.001
-745.171	-102.844	0.358	-0.086
-744.156	-200.000	0.013	-0.386
-743.142	373.538	-0.179	0.367
-742.127	-200.000	-0.008	-0.118
-741.112	-96.339	0.085	0.023
-740.098	-38.212	-0.142	0.076
-739.083	83.036	-0.084	-0.092
-738.069	341.039	-0.289	0.569
-737.054	451.334	-0.126	-0.281
-736.039	-44.413	-0.488	-0.246
-735.025	800.000	0.015	0.046
-734.010	-200.000	0.013	-0.530
-732.996	-82.498	0.187	-0.061
-731.981	-73.300	0.050	0.018
-730.966	366.502	-0.105	-0.214
-729.952	634.085	-0.176	-0.450
-728.937	670.483	-0.070	-0.183
-727.923	-78.136	-0.182	0.063
-726.908	-54.154	-0.145	-0.066
-725.894	-16.938	-0.163	0.103
-724.879	78.425	0.305	0.328
-723.864	-200.000	-0.037	-0.186
-722.850	317.393	-0.095	-0.181
-721.835	-132.864	0.157	0.020
-720.821	36.425	-0.112	-0.099
-719.806	-127.617	0.235	0.034
-718.791	-103.898	-0.240	-0.056
-717.777	26.896	0.142	-0.120
-716.762	-42.090	0.262	-0.135
-715.748	800.000	-0.143	-0.459
-714.733	205.654	0.161	-0.251
-713.718	-200.000	0.042	-0.357
-712.704	-172.090	-0.246	-0.008
-711.689	116.350	0.045	0.055
-710.675	-115.828	0.204	0.038
-709.660	407.171	0.087	0.184
-708.645	-200.000	0.018	-0.199
-707.631	-200.000	-0.034	-0.248
-706.616	84.369	0.177	-0.195
-705.602	800.000	0.102	-0.287
-704.587	8.195	0.090	0.068
-703.572	120.035	-0.050	-0.063
-702.558	-200.000	-0.041	-0.325
-701.543	51.355	0.194	-0.185
-700.529	-66.586	-0.462	0.184
-699.514	-113.697	-0.283	-0.055
-698.499	212.114	0.034	-0.053
-697.485	-200.000	0.039	0.230
-696.470	712.631	-0.038	0.100
-695.456	34.399	0.214	-0.188
-694.441	-141.782	-0.137	-0.014
-693.426	-200.000	-0.066	-0.428
-692.412	-102.706	-0.279	0.067
-691.397	75.717	-0.138	-0.147
-690.383	127.181	-0.138	0.176
-689.368	800.000	-0.080	-0.256
-688.354	109.605	0.122	0.147
-687.339	118.728	0.173	-0.215
-686.324	-200.000	0.021	0.253
-685.310	-57.432	-0.216	0.096
-684.295	-200.000	-0.008	0.112
-683.281	-114.637	-0.277	-0.053
-682.266	-153.304	-0.258	0.018
-681.251	489.321	0.050	0.115
-680.237	-200.000	-0.018	0.218
-679.222	0.951	-0.327	-0.235
-678.208	800.000	0.089	-0.336
-677.193	-107.540	-0.436	0.096
-676.178	-21.244	0.149	0.091
-675.164	-66.003	0.190	0.076
-674.149	-69.636	-0.198	0.076
-673.135	126.036	-0.171	-0.218
-672.120	290.450	-0.115	0.210
-671.105	740.417	0.061	0.165
-670.091	-83.480	-0.245	0.079
-669.076	-166.292	0.224	-0.009
-668.062	-200.000	-0.020	-0.162
-667.047	800.000	-0.052	-0.166
-666.032	-200.000	-0.025	0.144
-665.018	-103.705	-0.346	0.081
-664.003	-45.385	-0.049	0.024
-662.989	-109.466	0.090	-0.019
-661.974	94.224	0.179	-0.204
-660.959	-200.000	0.006	-0.226
-659.945	-132.735	-0.159	0.020
-658.930	313.638	0.162	0.305
-657.916	-112.376	-0.035	0.007
-656.901	51.686	0.131	-0.125
-655.886	-157.446	-0.282	-0.017
-654.872	-141.872	-0.230	-0.023
-653.857	-47.170	-0.332	-0.163
-652.843	15.046	-0.112	-0.088
-651.828	-11.121	0.079	0.052
-650.814	-200.000	0.034	-0.270
-649.799	800.000	-0.068	-0.289
-648.784	317.227	-0.045	-0.086
-647.770	800.000	0.031	0.134
-646.755	-200.000	-0.010	-0.392
-645.741	-104.305	-0.225	0.052
-644.726	-120.018	-0.067	0.012
-643.711	-200.000	-0.022	0.255
-642.697	155.792	-0.096	-0.133
-641.682	-13.985	0.080	-0.052
-640.668	-55.698	0.201	0.090
-639.653	-2.659	0.089	0.062
-638.638	126.471	-0.141	0.179
-637.624	59.198	-0.150	-0.148
-636.609	-200.000	0.054	-0.393
-635.595	-107.467	-0.499	0.110
-634.580	-9.805	0.154	-0.103
-633.565	-17.927	-0.162	-0.102
-632.551	-200.000	-0.005	-0.415
-631.536	-98.207	0.151	-0.039
-630.522	35.666	0.325	-0.287
-629.507	-55.629	-0.238	0.107
-628.492	-41.134	0.262	0.135
-627.478	-200.000	0.022	-0.105
-626.463	-197.242	-0.326	0.002
-625.449	485.945	0.088	0.201
-624.434	166.315	0.235	-0.334
-623.419	-44.387	-0.196	-0.098
-622.405	-90.608	0.464	0.134
-621.390	-171.655	-0.273	-0.009
-620.376	35.930	0.173	-0.153
-619.361	-114.693	0.122	0.023
-618.346	-122.933	-0.365	-0.059
-617.332	-102.085	-0.139	-0.033
-616.317	-143.124	0.249	0.024
-615.303	-89.718	0.128	0.038
-614.288	-31.537	-0.174	0.098
-613.273	-200.000	-0.306	-0.001
-612.259	-57.945	-0.223	-0.097
-611.244	-35.655	-0.404	-0.219
-610.230	-200.000	0.011	-0.264
-609.215	800.000	0.097	-0.310
-608.201	5.433	-0.276	0.204
-607.186	-119.100	-0.197	0.035
-606.171	-78.627	-0.184	0.063
-605.157	403.256	0.066	-0.139
-604.142	-115.103	-0.316	-0.060
-603.128	-200.000	0.008	-0.152
-602.113	800.000	-0.059	0.256
-601.098	-15.396	-0.102	0.065
-600.084	-46.170	0.181	0.089
-599.069	-146.674	0.342	-0.030
-598.055	89.780	-0.118	0.132
-597.040	-117.297	-0.070	-0.013
-596.025	-116.660	-0.328	0.060
-595.011	15.581	0.107	-0.084
-593.996	-4.754	0.157	-0.108
-592.982	-200.000	-0.005	-0.075
-591.967	535.136	-0.097	-0.231
-590.952	-50.564	-0.201	-0.095
-589.938	-35.411	0.254	-0.138
-588.923	-130.828	-0.356	-0.048
-587.909	-200.000	0.051	-0.459
-586.894	-125.449	-0.029	0.004
-585.879	233.244	0.174	0.287
-584.865	-3.626	0.055	0.038
-583.850	-79.831	0.393	-0.132
-582.836	537.932	0.122	-0.290
-581.821	192.267	0.062	-0.093
-580.806	-75.222	0.386	-0.138
-579.792	-35.348	0.178	0.097
-578.777	427.454	0.035	-0.076
-577.763	-172.865	-0.057	-0.002
-576.748	-51.418	-0.215	0.100
-575.733	-200.000	-0.006	0.057
-574.719	254.226	0.081	0.139
-573.704	207.037	-0.104	-0.161
-572.690	-36.230	-0.163	0.088
-571.675	800.000	0.028	0.115
-570.661	210.069	0.181	-0.284
-569.646	97.738	-0.228	-0.262
-568.631	5.086	0.125	0.092
-567.617	482.180	0.050	0.113
-566.602	-22.713	0.227	-0.137
-565.588	-45.510	0.115	0.057
-564.573	203.670	-0.086	0.133
-563.558	-200.000	-0.021	-0.222
-562.544	-200.000	-0.008	0.063
-561.529	-77.832	0.173	-0.060
-560.515	-100.234	0.073	-0.018
-559.500	11.330	-0.030	-0.023
-558.485	113.578	-0.212	0.257
-557.471	337.826	0.077	-0.151
-556.456	34.261	0.027	-0.024
-555.442	-187.606	-0.235	0.003
-554.427	-107.603	0.403	-0.088
-553.412	29.110	-0.228	-0.193
-552.398	185.240	0.068	-0.100
-551.383	-56.698	-0.324	0.143
-550.369	-130.998	-0.151	0.020
-549.354	800.000	0.004	0.016
-548.339	66.583	0.093	-0.095
-547.325	310.592	0.061	0.114
-546.310	-151.800	0.273	-0.020
-545.296	-121.203	0.153	0.026
-544.281	-200.000	0.005	-0.150
-543.266	-109.506	-0.128	0.027
-542.252	-28.140	-0.362	-0.209
-541.237	-38.421	-0.180	-0.095
-540.223	447.814	-0.196	-0.430
-539.208	-104.145	-0.318	0.074
-538.193	-120.177	0.043	0.007
-537.179	800.000	0.037	-0.131
-536.164	69.802	-0.283	-0.291
-535.150	212.740	0.265	-0.417
-534.135	800.000	-0.042	-0.160
-533.121	301.638	0.139	0.256
-532.106	-200.000	0.009	0.091
-531.091	-200.000	-0.004	-0.144
-530.077	-84.625	0.198	0.062
-529.062	-30.629	0.280	0.159
-528.048	60.891	-0.203	-0.201
-527.033	-90.425	-0.125	0.036
-526.018	-41.989	-0.079	-0.041
-525.004	-200.000	-0.030	-0.401
-523.989	32.046	-0.135	0.116
-522.975	26.681	-0.152	0.127
-521.960	800.000	-0.016	-0.055
-520.945	-62.010	0.090	-0.038
-519.931	-200.000	0.025	0.123
-518.916	-200.000	0.007	-0.121
-517.902	-91.803	0.128	0.036
-516.887	-200.000	-0.009	-0.234
-515.872	-200.000	-0.007	-0.280
-514.858	161.632	0.065	0.090
-513.843	732.324	0.038	-0.103
-512.829	-138.200	-0.283	-0.031
-511.814	-114.292	0.137	-0.026
-510.799	-200.000	0.044	0.436
-509.785	61.161	0.074	0.074
-508.770	800.000	0.056	0.204
-507.756	-168.266	-0.320	0.012
-506.741	8.610	0.236	0.177
-505.726	-182.781	0.281	0.005
-504.712	-103.176	0.126	-0.030
-503.697	-81.572	-0.149	0.049
-502.683	531.932	0.105	0.248
-501.668	-88.151	0.295	0.088
-500.653	-65.964	-0.107	-0.043
-499.639	322.579	-0.030	-0.057
-498.624	-105.234	0.101	0.023
-497.610	83.940	-0.057	-0.062
-496.595	384.217	-0.102	-0.210
-495.581	-115.265	-0.214	0.040
-494.566	-30.937	0.249	-0.140
-493.551	-135.197	-0.243	-0.029
-492.537	-65.690	-0.215	-0.086
-491.522	304.166	0.084	0.155
-490.508	-61.723	-0.312	0.130
-489.493	-140.988	0.210	0.022
-488.478	54.187	-0.034	0.032
-487.464	-12.829	0.205	-0.133
-486.449	-200.000	0.093	0.447
-485.435	-16.815	-0.015	-0.010
-484.420	-200.000	0.002	0.027
-483.405	618.501	-0.057	-0.142
-482.391	-42.382	-0.143	0.073
-481.376	-200.000	-0.002	0.328
-480.362	-123.639	-0.447	0.071
-479.347	-56.128	0.178	-0.079
-478.332	288.705	0.148	0.268
-477.318	-71.245	0.235	-0.088
-476.303	-200.000	0.086	0.476
-475.289	800.000	0.065	-0.216
-474.274	40.146	-0.167	0.150
-473.259	42.865	0.179	-0.163
-472.245	102.537	-0.154	-0.179
-471.230	222.225	-0.036	0.057
-470.216	-144.591	0.110	0.010
-469.201	75.908	0.214	-0.225
-468.186	-192.757	-0.081	0.001
-467.172	-35.315	-0.260	-0.141
-466.157	-179.237	0.275	-0.006
-465.143	-200.000	-0.004	0.162
-464.128	4.386	-0.095	0.070
-463.113	800.000	0.011	-0.033
-462.099	-200.000	-0.008	-0.167
-461.084	-200.000	-0.005	0.000
-460.070	-14.376	0.306	0.196
-459.055	-200.000	0.010	0.104
-458.040	561.834	-0.130	0.313
-457.026	-200.000	-0.003	0.160
-456.011	800.000	0.062	-0.199
-454.997	-200.000	0.006	0.078
-453.982	-60.404	0.121	0.051
-452.968	800.000	-0.068	-0.286
-451.953	13.850	-0.168	0.130
-450.938	728.303	-0.118	0.314
-449.924	-6.532	-0.171	0.116
-448.909	-200.000	0.006	-0.333
-447.895	-53.150	0.066	0.030
-446.880	59.211	-0.146	0.143
-445.865	190.897	-0.039	0.058
-444.851	-55.023	-0.147	0.066
-443.836	130.896	0.140	0.179
-442.822	297.992	0.137	0.250
-441.807	57.777	-0.080	0.078
-440.792	-131.342	-0.160	-0.021
-439.778	-37.585	-0.128	0.068
-438.763	-125.187	0.299	0.046
-437.749	-200.000	-0.026	-0.116
-436.734	800.000	0.040	-0.141
-435.719	-119.954	0.459	-0.078
-434.705	428.912	-0.150	-0.324
-433.690	44.198	0.180	-0.165
-432.676	-200.000	0.009	0.224
-431.661	43.117	-0.221	-0.201
-430.646	-145.038	0.264	0.024
-429.632	-29.463	-0.031	0.018
-428.617	-126.538	0.177	-0.026
-427.603	-200.000	-0.031	0.583
-426.588	-107.774	-0.174	-0.038
-425.573	66.711	-0.144	-0.146
-424.559	-200.000	-0.079	0.369
-423.544	-110.206	0.044	0.009
-422.530	-44.871	-0.216	0.107
-421.515	59.405	0.126	-0.123
-420.500	800.000	-0.048	-0.185
-419.486	208.225	0.128	-0.200
-418.471	91.197	-0.295	0.330
-417.457	233.898	-0.163	0.267
-416.442	-200.000	-0.005	0.217
-415.428	150.727	-0.173	0.234
-414.413	-43.823	-0.167	-0.083
-413.398	263.012	-0.028	-0.049
-412.384	-11.601	0.103	0.067
-411.369	-30.548	0.129	0.073
-410.355	47.488	-0.216	-0.200
-409.340	82.379	-0.039	-0.042
-408.325	24.416	0.161	-0.133
-407.311	32.444	0.077	-0.066
-406.296	-170.259	0.105	-0.004
-405.282	-140.580	0.204	-0.021
-404.267	255.871	-0.158	0.270
-403.252	34.661	0.069	0.060
-402.238	15.741	-0.300	-0.234
-401.223	-150.338	-0.256	0.020
-400.209	800.000	-0.020	0.069
-399.194	-200.000	-0.004	-0.275
-398.179	-135.139	-0.366	-0.044
-397.165	-55.635	-0.283	-0.126
-396.150	-200.000	-0.052	0.271
-395.136	-200.000	0.016	-0.072
-394.121	-10.120	0.172	-0.114
-393.106	-11.913	-0.202	-0.132
-392.092	-200.000	-0.009	0.203
-391.077	-101.415	0.542	0.131
-390.063	100.305	-0.151	-0.174
-389.048	-166.557	-0.290	0.012
-388.033	-70.589	-0.035	0.013
-387.019	-74.839	-0.485	0.173
-386.004	800.000	0.038	-0.144
-384.990	-7.649	0.355	0.238
-383.975	227.938	-0.065	-0.105
-382.960	-45.626	0.442	0.217
-381.946	-50.604	0.108	-0.051
-380.931	16.597	-0.135	0.106
-379.917	40.785	-0.071	-0.063
-378.902	800.000	0.092	0.287
-377.888	800.000	0.025	0.100
-376.873	-118.482	0.043	0.008
-375.858	-31.744	0.159	-0.089
-374.844	-116.174	-0.146	0.027
-373.829	-200.000	0.035	0.206
-372.815	-32.299	-0.223	-0.123
-371.800	144.591	0.169	0.224
-370.785	74.725	0.097	-0.101
-369.771	30.584	0.264	0.224
-368.756	-200.000	0.021	0.092
-367.742	79.338	0.283	0.302
-366.727	33.162	-0.260	0.224
-365.712	-83.170	-0.153	-0.049
-364.698	118.742	-0.122	-0.150
-363.683	-67.234	-0.220	0.086
-362.669	-130.529	0.096	0.013
-361.654	-98.583	0.176	-0.045
-360.639	94.041	-0.131	-0.147
-359.625	-200.000	-0.053	0.256
-358.610	-50.503	0.336	-0.157
-357.596	-100.940	-0.299	-0.073
-356.581	-34.214	0.113	-0.061
-355.566	800.000	0.135	-0.460
-354.552	-0.305	-0.282	-0.199
-353.537	-122.664	0.103	0.017
-352.523	-200.000	0.070	-0.434
-351.508	44.803	-0.045	0.041
-350.493	42.982	-0.191	-0.173
-349.479	64.092	-0.181	-0.180
-348.464	-200.000	0.029	-0.305
-347.450	-6.392	-0.139	0.094
-346.435	-200.000	-0.016	-0.136
-345.420	220.489	0.162	0.257
-344.406	-35.658	0.230	0.124
-343.391	-200.000	0.002	-0.347
-342.377	-200.000	0.008	0.137
-341.362	-172.120	0.064	-0.002
-340.348	581.668	-0.057	-0.138
-339.333	-71.612	0.270	0.100
-338.318	-119.036	0.246	0.043
-337.304	-200.000	0.028	0.383
-336.289	-55.280	0.184	0.082
-335.275	-141.674	-0.230	-0.023
-334.260	-32.276	0.198	-0.110
-333.245	-200.000	0.043	0.273
-332.231	3.280	-0.272	-0.196
-331.216	-181.174	-0.481	-0.009
-330.202	-80.749	0.235	-0.077
-329.187	19.235	0.090	-0.072
-328.172	17.542	-0.187	0.148
-327.158	-200.000	-0.027	-0.134
-326.143	-147.636	-0.183	0.015
-325.129	303.765	-0.073	0.134
-324.114	-200.000	0.019	-0.146
-323.099	606.790	-0.125	0.309
-322.085	263.683	-0.111	0.191
-321.070	800.000	0.046	-0.197
-320.056	800.000	0.016	0.054
-319.041	-8.136	-0.020	0.013
-318.026	210.318	0.125	-0.195
-317.012	-13.047	-0.096	0.062
-315.997	136.438	-0.074	-0.096
-314.983	-200.000	0.000	-0.223
-313.968	220.114	-0.215	0.342
-312.953	-12.609	-0.239	-0.155
-311.939	5.372	-0.300	0.219
-310.924	-101.890	-0.328	0.079
-309.910	-57.221	0.161	-0.070
-308.895	-119.444	0.089	-0.015
-307.880	-200.000	0.016	-0.134
-306.866	-24.459	0.076	0.045
-305.851	-42.782	-0.019	0.009
-304.837	225.534	0.216	-0.347
-303.822	-200.000	-0.006	0.128
-302.807	55.325	0.128	-0.123
-301.793	98.131	-0.174	-0.198
-300.778	800.000	-0.032	-0.129
-299.764	-137.337	-0.287	-0.032
-298.749	800.000	0.059	0.201
-297.735	455.897	0.085	0.187
-296.720	-200.000	0.018	-0.197
-295.705	-200.000	-0.008	0.081
-294.691	-97.020	-0.235	-0.061
-293.676	800.000	0.066	-0.191
-292.662	250.566	-0.159	0.267
-291.647	173.679	-0.138	-0.197
-290.632	56.628	0.246	0.237
-289.618	-129.354	-0.176	0.024
-288.603	-34.464	0.250	-0.136
-287.589	-52.885	0.214	-0.097
-286.574	-200.000	-0.006	-0.273
-285.559	600.425	0.064	0.157
-284.545	107.545	0.253	0.298
-283.530	-200.000	0.036	0.240
-282.516	95.448	-0.165	0.186
-281.501	-116.913	-0.268	-0.048
-280.486	-142.759	0.163	0.016
-279.472	148.289	0.254	-0.339
-278.457	190.625	0.057	0.085
-277.443	-200.000	-0.013	-0.121
-276.428	52.512	0.272	0.257
-275.413	138.030	0.102	-0.132
-274.399	122.493	0.124	-0.153
-273.384	-35.404	0.254	0.136
-272.370	-64.797	0.293	0.117
-271.355	-52.842	0.215	0.098
-270.340	-87.525	0.072	-0.021
-269.326	-4.303	0.106	-0.072
-268.311	-200.000	-0.056	0.518
-267.297	800.000	-0.013	-0.048
-266.282	-119.656	-0.105	-0.018
-265.267	-32.402	0.275	0.152
-264.253	800.000	0.054	-0.218
-263.238	-23.357	-0.194	0.116
-262.224	-99.031	-0.391	0.098
-261.209	22.500	-0.373	0.301
-260.195	-84.243	0.172	0.054
-259.180	800.000	0.103	0.297
-258.165	-151.794	0.196	-0.014
-257.151	20.910	-0.212	0.170
-256.136	623.522	-0.097	0.241
-255.122	-111.776	0.165	0.033
-254.107	109.288	0.246	-0.291
-253.092	-77.521	-0.318	-0.109
-252.078	-200.000	0.023	0.214
-251.063	-99.893	0.144	0.036
-250.049	107.805	0.012	-0.014
-249.034	92.210	-0.295	0.328
-248.019	433.483	0.097	-0.208
-247.005	129.931	-0.293	-0.370
-245.990	110.066	0.202	0.239
-244.976	9.925	-0.123	-0.093
-243.961	-200.000	-0.058	0.252
-242.946	46.470	-0.046	0.042
-241.932	-104.934	0.126	-0.029
-240.917	125.736	-0.174	0.218
-239.903	-200.000	-0.020	-0.316
-238.888	0.917	-0.122	0.087
-237.873	-48.563	0.079	-0.038
-236.859	-148.199	0.293	0.024
-235.844	79.381	-0.301	-0.318
-234.830	-107.716	0.048	-0.010
-233.815	-77.497	0.147	-0.050
-232.800	36.151	-0.136	0.118
-231.786	-200.000	0.023	0.210
-230.771	83.273	-0.172	0.184
-229.757	19.937	0.093	-0.074
-228.742	-52.104	0.239	-0.110
-227.727	313.386	-0.028	-0.052
-226.713	253.569	-0.131	0.222
-225.698	-63.944	0.248	-0.100
-224.684	-199.164	-0.392	0.002
-223.669	-117.043	0.326	-0.059
-222.655	578.712	0.153	-0.370
-221.640	202.899	-0.104	0.158
-220.625	-1.537	-0.181	-0.126
-219.611	465.942	-0.137	-0.302
-218.596	89.389	0.074	-0.082
-217.582	-200.000	0.089	0.406
-216.567	484.486	0.062	-0.139
-215.552	800.000	-0.011	0.031
-214.538	-200.000	-0.040	0.215
-213.523	800.000	0.098	-0.309
-212.509	218.956	0.092	0.145
-211.494	16.281	-0.105	-0.082
-210.479	20.928	-0.390	-0.312
-209.465	-114.234	0.361	-0.069
-208.450	-33.708	0.274	-0.149
-207.436	800.000	0.016	-0.049
-206.421	243.413	0.170	0.281
-205.406	-59.052	-0.162	-0.069
-204.392	191.648	0.260	-0.386
-203.377	-32.009	0.131	0.072
-202.363	330.270	0.066	0.124
-201.348	800.000	-0.054	-0.167
-200.333	-129.432	-0.147	0.020
-199.319	21.034	-0.077	0.062
-198.304	-21.002	0.129	0.078
-197.290	-200.000	0.042	0.334
-196.275	-200.000	0.000	-0.030
-195.260	701.963	0.076	0.196
-194.246	-145.710	-0.278	0.024
-193.231	-27.091	0.361	-0.207
-192.217	-124.223	0.289	-0.045
-191.202	800.000	0.170	0.482
-190.187	-5.431	-0.117	0.079
-189.173	-69.731	-0.182	0.069
-188.158	136.724	-0.087	-0.112
-187.144	-119.923	0.398	-0.067
-186.129	143.634	-0.069	0.091
-185.114	800.000	0.049	0.189
-184.100	233.714	0.187	-0.304
-183.085	-49.235	-0.216	0.102
-182.071	-200.000	-0.029	-0.268
-181.056	88.058	-0.073	0.080
-180.042	60.225	0.185	0.181
-179.027	9.758	-0.145	-0.109
-178.012	-144.197	0.564	-0.052
-176.998	19.954	-0.231	0.183
-175.983	327.210	0.156	0.294
-174.969	-12.659	0.406	-0.261
-173.954	315.157	-0.057	0.106
-172.939	-36.074	0.109	-0.058
-171.925	493.538	-0.083	0.187
-170.910	84.531	-0.079	0.085
-169.896	-200.000	-0.014	0.076
-168.881	-85.440	-0.243	0.075
-167.866	279.547	0.151	0.266
-166.852	-122.329	-0.208	0.033
-165.837	-200.000	-0.011	0.376
-164.823	800.000	-0.052	0.197
-163.808	316.351	0.064	-0.119
-162.793	-24.312	-0.131	-0.077
-161.779	-164.102	0.706	0.032
-160.764	-46.919	0.243	-0.117
-159.750	-59.631	0.159	-0.067
-158.735	6.704	-0.159	0.116
-157.720	252.764	-0.154	-0.258
-156.706	151.135	0.179	-0.240
-155.691	81.468	-0.205	0.218
-154.677	140.371	0.383	0.498
-153.662	-41.064	0.178	-0.090
-152.647	-184.080	-0.116	-0.002
-151.633	218.497	-0.036	0.056
-150.618	-12.889	0.258	-0.165
-149.604	94.181	0.098	-0.109
-148.589	17.604	0.072	0.056
-147.574	-35.454	-0.221	0.118
-146.560	314.393	-0.049	0.091
-145.545	357.114	0.085	-0.166
-144.531	-200.000	-0.020	0.121
-143.516	-130.307	-0.118	0.016
-142.502	-120.499	-0.008	0.001
-141.487	-92.272	-0.151	0.042
-140.472	800.000	-0.064	-0.176
-139.458	554.975	0.036	-0.085
-138.443	-94.548	0.038	-0.010
-137.429	241.022	-0.067	0.110
-136.414	-90.902	0.313	0.089
-135.399	-57.778	-0.057	-0.024
-134.385	-156.745	-0.081	0.005
-133.370	-108.076	0.128	-0.027
-132.356	729.343	0.102	-0.268
-131.341	-200.000	-0.130	0.001
-130.326	776.110	-0.063	-0.169
-129.312	271.760	0.168	-0.292
-128.297	-135.612	-0.349	-0.041
-127.283	-63.342	0.115	-0.047
-126.268	-0.889	-0.093	-0.065
-125.253	-200.000	-0.028	0.213
-124.239	49.919	0.160	-0.149
-123.224	26.923	0.159	0.131
-122.210	47.316	-0.075	-0.069
