DTS Sentinel unit serial number:	SN413079Multiplexer serial number:	ORYXHardware model number:	OX4-SRSoftware version number:	ORYX F/W v4.00 Oryx Data Collector v3.7.2.0data status	okinstallation	princeton_trtdifferential loss correction	single-endedforward channel	channel 3reverse channel	N/Adate	2019/09/16time	19:04:35forward acquisition time	60.00reverse acquisition time	0.00gamma	496.2192k internal	0.2311k external	0.2311temperature offset calibration	0.9940default loss term (dB/km)	0.3790temperature slope calibration	1.0000multiplexer offset coefficient	1.0000multiplexer slope coefficient	1.0000fibre end	0.00T internal ref (°C)	35.44T ext. ref 1 (°C)	0.07T ext. ref 2 (°C)	28.65length (m)	temperature (°C)	Stokes	anti-Stokes-747.200	471.149	0.074	-0.168
-746.185	392.130	-0.087	0.183
-745.171	64.446	0.056	-0.058
-744.156	244.832	-0.031	-0.052
-743.142	-14.996	0.098	0.064
-742.127	595.775	-0.114	0.285
-741.112	-200.000	-0.022	-0.215
-740.098	-177.865	-0.438	0.011
-739.083	-57.333	0.056	-0.025
-738.069	125.093	-0.220	0.281
-737.054	800.000	0.133	-0.456
-736.039	18.100	-0.136	0.110
-735.025	-137.796	0.324	0.037
-734.010	-200.000	0.039	-0.461
-732.996	-132.580	-0.181	-0.024
-731.981	-3.372	0.178	0.126
-730.966	800.000	-0.072	0.255
-729.952	-200.000	0.001	-0.199
-728.937	220.332	-0.148	0.240
-727.923	800.000	-0.079	0.314
-726.908	-113.389	-0.310	-0.062
-725.894	14.945	0.133	-0.106
-724.879	6.394	-0.248	0.187
-723.864	-80.128	-0.079	0.027
-722.850	-74.095	0.179	0.066
-721.835	800.000	-0.040	-0.144
-720.821	-200.000	0.040	-0.437
-719.806	-31.562	0.219	0.125
-718.791	-21.755	0.352	0.217
-717.777	-196.973	0.062	0.000
-716.762	355.175	-0.052	-0.104
-715.748	-200.000	0.017	-0.086
-714.733	35.944	-0.226	-0.202
-713.718	174.352	-0.268	0.392
-712.704	90.223	-0.034	0.038
-711.689	-81.314	0.116	-0.039
-710.675	-130.561	0.245	-0.034
-709.660	-42.532	-0.249	0.129
-708.645	-200.000	-0.003	-0.188
-707.631	-111.372	-0.353	-0.073
-706.616	800.000	-0.118	0.376
-705.602	-87.443	-0.207	0.064
-704.587	-163.557	0.408	-0.020
-703.572	-12.964	0.098	0.065
-702.558	-114.358	0.220	-0.043
-701.543	215.399	0.149	-0.239
-700.529	-93.418	0.407	0.114
-699.514	-54.273	0.144	0.066
-698.499	-167.894	-0.137	-0.005
-697.485	-200.000	-0.025	-0.141
-696.470	-190.803	0.362	0.004
-695.456	117.843	-0.201	-0.251
-694.441	188.881	0.111	0.168
-693.426	-200.000	-0.020	0.108
-692.412	-158.915	0.113	-0.007
-691.397	-66.387	-0.100	0.040
-690.383	-39.172	0.269	-0.143
-689.368	800.000	0.113	0.430
-688.354	45.097	-0.217	-0.202
-687.339	-200.000	0.021	0.127
-686.324	-200.000	-0.022	-0.288
-685.310	-19.118	-0.142	-0.089
-684.295	-133.289	-0.112	0.014
-683.281	-200.000	0.038	-0.305
-682.266	23.082	0.318	-0.265
-681.251	-200.000	0.034	-0.228
-680.237	135.396	0.192	-0.253
-679.222	33.765	-0.193	0.170
-678.208	800.000	-0.064	0.183
-677.193	318.467	-0.220	0.422
-676.178	217.765	-0.050	-0.081
-675.164	-15.654	-0.250	0.161
-674.149	-15.132	-0.168	0.109
-673.135	800.000	-0.060	0.174
-672.120	673.598	0.094	-0.246
-671.105	182.810	0.123	0.183
-670.091	-129.430	-0.115	-0.016
-669.076	347.657	0.057	-0.113
-668.062	-64.590	-0.235	-0.096
-667.047	141.452	0.044	-0.059
-666.032	111.532	0.007	-0.008
-665.018	12.329	0.410	0.319
-664.003	10.579	0.091	0.070
-662.989	-41.263	0.093	0.049
-661.974	800.000	0.038	0.145
-660.959	800.000	0.041	0.155
-659.945	-200.000	-0.025	-0.329
-658.930	-200.000	-0.010	-0.184
-657.916	-200.000	-0.026	-0.284
-656.901	286.823	-0.087	-0.159
-655.886	118.645	0.087	0.109
-654.872	761.271	-0.070	0.192
-653.857	-26.977	-0.072	0.042
-652.843	-148.972	-0.068	-0.006
-651.828	-164.836	0.333	-0.015
-650.814	140.641	0.127	-0.170
-649.799	-200.000	0.022	-0.400
-648.784	-108.328	0.466	0.102
-647.770	100.140	-0.285	-0.334
-646.755	-103.907	-0.190	-0.045
-645.741	-59.725	-0.274	-0.119
-644.726	-69.426	0.285	-0.110
-643.711	-85.946	0.122	0.038
-642.697	-66.468	-0.061	0.024
-641.682	76.769	0.187	-0.200
-640.668	-200.000	0.011	0.195
-639.653	800.000	0.041	-0.160
-638.638	-200.000	-0.004	0.206
-637.624	800.000	0.059	0.237
-636.609	-15.788	-0.304	-0.196
-635.595	-200.000	-0.004	-0.144
-634.580	-200.000	0.038	0.215
-633.565	28.351	0.220	-0.188
-632.551	-167.763	-0.302	-0.012
-631.536	279.168	0.175	-0.315
-630.522	-28.364	-0.127	0.074
-629.507	511.666	-0.145	0.341
-628.492	729.910	-0.111	0.299
-627.478	-168.127	0.080	0.003
-626.463	81.080	0.146	0.159
-625.449	-200.000	-0.007	-0.223
-624.434	-200.000	0.021	-0.120
-623.419	79.224	-0.104	-0.112
-622.405	800.000	-0.064	0.210
-621.390	-200.000	-0.010	-0.111
-620.376	453.024	-0.101	0.226
-619.361	478.530	0.127	-0.290
-618.346	-146.614	-0.244	-0.021
-617.332	-124.122	0.472	-0.075
-616.317	132.303	0.136	-0.177
-615.303	-168.129	-0.197	0.008
-614.288	54.189	-0.156	-0.152
-613.273	-75.065	-0.145	0.053
-612.259	-88.178	0.040	0.012
-611.244	199.072	-0.105	0.162
-610.230	145.729	-0.095	-0.128
-609.215	-107.451	0.322	0.071
-608.201	469.824	-0.074	-0.167
-607.186	-200.000	-0.009	-0.051
-606.171	-138.627	-0.364	-0.040
-605.157	230.468	0.396	-0.654
-604.142	-4.095	-0.084	-0.059
-603.128	19.747	-0.100	-0.081
-602.113	-154.272	-0.259	0.018
-601.098	186.890	0.076	-0.115
-600.084	137.556	-0.189	-0.249
-599.069	488.844	0.110	0.254
-598.055	143.330	-0.132	-0.178
-597.040	800.000	0.055	0.172
-596.025	800.000	0.036	-0.136
-595.011	800.000	0.019	0.058
-593.996	-200.000	0.051	-0.274
-592.982	800.000	0.040	0.140
-591.967	324.133	-0.099	0.190
-590.952	-178.813	-0.318	0.007
-589.938	800.000	0.057	-0.168
-588.923	184.781	-0.021	-0.031
-587.909	131.585	0.104	0.135
-586.894	-23.671	-0.165	-0.100
-585.879	-200.000	-0.039	0.257
-584.865	2.776	0.143	0.105
-583.850	31.323	0.435	0.377
-582.836	-77.102	-0.314	0.110
-581.821	60.383	0.091	-0.091
-580.806	800.000	-0.111	-0.324
-579.792	150.076	0.214	0.293
-578.777	-200.000	0.004	-0.017
-577.763	-3.215	0.105	-0.074
-576.748	-196.861	-0.355	-0.002
-575.733	373.045	-0.174	0.357
-574.719	169.673	-0.136	-0.196
-573.704	-200.000	-0.021	-0.187
-572.690	-108.011	-0.061	0.013
-571.675	-168.277	0.058	-0.002
-570.661	129.595	0.232	-0.299
-569.646	-118.104	-0.397	0.071
-568.631	-89.356	0.029	-0.009
-567.617	220.674	0.174	-0.281
-566.602	-200.000	-0.016	0.094
-565.588	-200.000	-0.010	0.083
-564.573	5.517	-0.279	0.207
-563.558	-129.903	0.396	0.055
-562.544	-170.129	0.142	0.005
-561.529	-55.763	-0.059	-0.027
-560.515	-200.000	-0.066	-0.371
-559.500	188.731	-0.073	0.110
-558.485	800.000	0.110	0.330
-557.471	111.284	-0.165	-0.200
-556.456	800.000	-0.034	0.102
-555.442	-62.345	0.154	-0.064
-554.427	-11.482	0.099	-0.066
-553.412	-3.376	-0.189	0.133
-552.398	-98.198	0.357	0.092
-551.383	780.438	-0.179	-0.495
-550.369	800.000	0.039	-0.170
-549.354	-104.977	0.113	-0.026
-548.339	-200.000	-0.069	-0.400
-547.325	800.000	-0.037	-0.134
-546.310	-32.190	-0.234	0.132
-545.296	201.445	-0.049	0.076
-544.281	-59.982	-0.171	0.074
-543.266	-200.000	-0.006	-0.076
-542.252	-71.910	0.102	-0.038
-541.237	304.472	-0.147	0.276
-540.223	-110.438	-0.226	0.047
-539.208	-175.232	-0.236	-0.007
-538.193	-200.000	0.037	-0.172
-537.179	-74.413	0.331	-0.120
-536.164	-200.000	-0.002	-0.033
-535.150	-128.218	-0.151	0.022
-534.135	-122.981	0.186	0.030
-533.121	-198.308	0.275	0.002
-532.106	-200.000	0.012	-0.060
-531.091	-51.116	0.241	-0.114
-530.077	800.000	-0.079	0.287
-529.062	429.562	0.140	-0.305
-528.048	587.916	-0.105	-0.261
-527.033	206.457	-0.100	-0.157
-526.018	766.153	0.133	-0.364
-525.004	184.183	0.222	-0.330
-523.989	367.843	-0.111	-0.225
-522.975	-19.026	0.197	0.123
-521.960	800.000	0.112	-0.312
-520.945	181.866	-0.220	-0.326
-519.931	-200.000	0.002	-0.147
-518.916	338.307	-0.069	-0.136
-517.902	170.096	0.076	0.109
-516.887	756.075	0.038	0.103
-515.872	40.399	0.097	-0.087
-514.858	-9.726	-0.275	0.184
-513.843	197.964	-0.191	0.293
-512.829	86.406	0.190	0.211
-511.814	-200.000	-0.042	-0.278
-510.799	-124.043	0.267	0.042
-509.785	-200.000	-0.002	-0.027
-508.770	-200.000	0.018	0.314
-507.756	211.288	0.094	-0.149
-506.741	800.000	0.042	0.119
-505.726	221.370	-0.087	-0.140
-504.712	153.731	0.224	0.308
-503.697	82.416	-0.137	0.149
-502.683	223.901	-0.131	-0.212
-501.668	-200.000	-0.005	0.381
-500.653	-200.000	0.029	-0.214
-499.639	-0.831	0.169	-0.121
-498.624	-173.524	-0.335	-0.010
-497.610	5.517	0.088	-0.066
-496.595	205.329	-0.107	-0.167
-495.581	78.292	0.091	0.098
-494.566	92.359	-0.069	0.078
-493.551	800.000	0.110	-0.316
-492.537	-200.000	-0.008	-0.149
-491.522	216.544	0.071	-0.113
-490.508	-77.661	-0.191	0.067
-489.493	-90.503	-0.153	0.044
-488.478	-112.385	0.073	0.015
-487.464	-134.973	-0.156	-0.019
-486.449	-28.126	0.189	0.110
-485.435	193.609	-0.177	-0.270
-484.420	14.295	-0.422	-0.331
-483.405	-109.277	0.298	0.063
-482.391	-19.924	0.156	-0.097
-481.376	-200.000	0.038	0.322
-480.362	81.740	0.151	-0.164
-479.347	693.166	0.177	0.465
-478.332	-96.233	0.379	-0.101
-477.318	800.000	0.079	-0.289
-476.303	311.906	0.035	-0.066
-475.289	-200.000	-0.029	-0.285
-474.274	196.173	0.087	0.132
-473.259	-133.690	-0.161	0.020
-472.245	-80.684	-0.227	0.076
-471.230	-200.000	-0.001	0.153
-470.216	-35.640	0.243	0.132
-469.201	242.819	0.218	-0.366
-468.186	47.439	-0.199	-0.186
-467.172	329.644	0.026	0.051
-466.157	-150.617	-0.234	0.018
-465.143	800.000	0.145	0.561
-464.128	-87.247	-0.233	0.071
-463.113	-63.175	0.198	0.082
-462.099	-16.022	0.361	0.231
-461.084	-107.310	-0.070	0.015
-460.070	-200.000	-0.008	-0.091
-459.055	800.000	-0.064	0.180
-458.040	-127.489	0.231	-0.034
-457.026	468.750	0.103	-0.232
-456.011	45.885	-0.238	-0.221
-454.997	10.501	-0.417	0.319
-453.982	-70.512	0.158	0.060
-452.968	-200.000	0.022	0.201
-451.953	785.638	-0.035	-0.096
-450.938	179.962	-0.179	-0.264
-449.924	226.950	0.061	0.099
-448.909	-200.000	0.016	0.136
-447.895	-200.000	0.019	-0.085
-446.880	67.196	-0.294	-0.301
-445.865	-50.884	-0.129	-0.061
-444.851	-1.962	0.261	0.184
-443.836	185.477	-0.141	0.210
-442.822	-172.887	0.323	-0.010
-441.807	-42.142	-0.390	-0.200
-440.792	555.248	-0.052	0.125
-439.778	-200.000	-0.016	0.378
-438.763	-8.190	-0.243	0.164
-437.749	-200.000	0.023	-0.106
-436.734	-34.935	-0.377	0.206
-435.719	268.386	0.128	-0.226
-434.705	342.777	0.099	-0.195
-433.690	-29.518	0.317	-0.182
-432.676	421.331	-0.048	-0.104
-431.661	227.815	0.047	0.076
-430.646	-44.130	-0.274	0.138
-429.632	19.312	-0.325	0.262
-428.617	29.630	-0.291	0.248
-427.603	800.000	-0.112	-0.477
-426.588	494.623	-0.131	-0.302
-425.573	-55.998	0.158	0.071
-424.559	-200.000	0.028	-0.224
-423.544	800.000	0.117	0.346
-422.530	343.063	-0.141	0.276
-421.515	137.249	-0.184	0.241
-420.500	146.094	-0.120	-0.161
-419.486	-101.263	-0.107	-0.026
-418.471	108.802	0.302	0.361
-417.457	-108.718	0.196	-0.042
-416.442	-92.242	-0.033	0.009
-415.428	-7.569	0.145	0.098
-414.413	-117.002	-0.377	0.069
-413.398	-165.271	-0.403	0.018
-412.384	-60.760	0.128	-0.054
-411.369	800.000	0.006	0.024
-410.355	800.000	-0.060	0.204
-409.340	-120.316	-0.460	-0.079
-408.325	99.498	-0.139	-0.161
-407.311	800.000	0.032	0.116
-406.296	40.700	-0.146	-0.132
-405.282	-4.984	-0.296	-0.204
-404.267	-23.255	-0.217	0.131
-403.252	38.607	0.144	0.129
-402.238	475.856	0.068	-0.153
-401.223	-200.000	-0.003	-0.280
-400.209	-1.916	0.206	0.145
-399.194	-157.764	-0.190	-0.011
-398.179	-170.451	0.139	-0.005
-397.165	39.151	0.240	-0.215
-396.150	3.441	0.069	0.050
-395.136	-140.692	-0.219	0.023
-394.121	-62.135	0.178	-0.075
-393.106	82.543	-0.151	0.164
-392.092	800.000	-0.094	0.345
-391.077	-98.343	0.360	-0.092
-390.063	-47.160	-0.135	0.066
-389.048	182.160	0.051	0.075
-388.033	147.946	0.062	-0.084
-387.019	-17.577	-0.135	-0.085
-386.004	800.000	-0.086	-0.255
-384.990	139.156	-0.186	-0.245
-383.975	800.000	0.008	0.026
-382.960	-45.794	0.267	0.132
-381.946	-73.947	-0.163	-0.059
-380.931	-162.922	0.146	0.007
-379.917	107.404	-0.105	0.125
-378.902	1.304	0.223	0.160
-377.888	-155.757	0.147	0.009
-376.873	15.319	0.110	-0.087
-375.858	15.341	0.256	-0.201
-374.844	-200.000	0.009	0.188
-373.829	-99.439	-0.282	0.071
-372.815	81.544	0.005	0.005
-371.800	-56.585	0.429	-0.190
-370.785	-154.785	-0.292	-0.019
-369.771	-66.963	-0.437	0.173
-368.756	-82.222	0.159	0.052
-367.742	252.890	0.093	0.159
-366.727	-126.990	-0.075	0.011
-365.712	33.946	-0.124	-0.108
-364.698	230.678	0.102	-0.167
-363.683	-24.751	-0.177	-0.105
-362.669	145.918	0.082	-0.110
-361.654	-167.327	0.251	0.010
-360.639	-74.834	-0.016	0.006
-359.625	-0.114	-0.054	0.039
-358.610	150.651	-0.201	0.273
-357.596	36.549	0.148	-0.131
-356.581	545.797	0.045	0.108
-355.566	-132.647	-0.285	-0.036
-354.552	2.976	0.169	-0.123
-353.537	-14.949	-0.119	-0.076
-352.523	-114.725	0.207	-0.040
-351.508	-200.000	0.031	-0.221
-350.493	800.000	0.027	-0.077
-349.479	-148.279	-0.173	0.014
-348.464	243.682	-0.047	-0.079
-347.450	66.795	-0.008	-0.008
-346.435	-200.000	0.018	-0.101
-345.420	-200.000	0.048	-0.227
-344.406	800.000	0.036	0.142
-343.391	-98.200	-0.300	0.077
-342.377	190.015	0.222	0.333
-341.362	341.866	-0.115	0.225
-340.348	-35.048	0.118	-0.064
-339.333	182.971	0.042	0.061
-338.318	-49.585	-0.047	-0.022
-337.304	-84.943	0.189	0.059
-336.289	-71.418	-0.323	-0.121
-335.275	-200.000	0.196	0.000
-334.260	-84.527	-0.287	0.090
-333.245	-15.859	-0.049	0.031
-332.231	-88.446	0.273	0.081
-331.216	-106.035	-0.191	0.043
-330.202	-200.000	-0.059	0.810
-329.187	-200.000	-0.030	0.390
-328.172	-160.008	-0.125	0.007
-327.158	39.485	-0.344	-0.307
-326.143	-94.277	0.444	0.121
-325.129	800.000	0.018	0.056
-324.114	39.501	0.089	-0.080
-323.099	-34.816	0.069	0.038
-322.085	-123.086	-0.091	-0.015
-321.070	800.000	0.041	0.135
-320.056	-120.183	0.292	-0.050
-319.041	21.030	0.201	-0.163
-318.026	89.607	-0.218	-0.243
-317.012	244.857	0.159	-0.268
-315.997	-60.408	0.127	-0.054
-314.983	-80.453	0.310	-0.103
-313.968	-98.709	-0.146	0.037
-312.953	722.310	-0.122	-0.323
-311.939	77.105	-0.042	0.044
-310.924	54.171	-0.130	0.125
-309.910	-23.747	-0.171	-0.102
-308.895	50.866	-0.169	-0.160
-307.880	556.737	0.032	0.078
-306.866	50.612	0.243	0.229
-305.851	-90.090	0.140	-0.041
-304.837	134.989	0.143	0.185
-303.822	-200.000	0.039	-0.552
-302.807	-128.722	0.080	0.011
-301.793	-200.000	0.010	0.306
-300.778	78.270	0.091	0.097
-299.764	73.514	-0.191	-0.199
-298.749	-165.287	-0.163	0.007
-297.735	-13.925	0.201	-0.130
-296.720	188.029	-0.258	0.385
-295.705	155.903	0.113	0.156
-294.691	141.327	-0.195	0.258
-293.676	-156.181	0.203	0.013
-292.662	-200.000	-0.014	0.173
-291.647	800.000	-0.097	-0.357
-290.632	60.817	0.107	0.106
-289.618	-48.597	0.172	0.083
-288.603	800.000	-0.006	0.023
-287.589	232.094	0.114	0.187
-286.574	-53.861	-0.059	-0.027
-285.559	-161.127	0.448	-0.023
-284.545	-97.600	0.203	0.053
-283.530	-2.074	-0.104	0.073
-282.516	-200.000	-0.036	0.347
-281.501	-126.405	0.459	-0.068
-280.486	-200.000	0.034	-0.191
-279.472	-67.787	0.065	-0.025
-278.457	295.022	-0.123	-0.224
-277.443	-159.668	-0.197	-0.011
-276.428	800.000	0.086	0.254
-275.413	743.663	-0.121	0.324
-274.399	-28.147	0.068	-0.039
-273.384	800.000	0.023	0.076
-272.370	98.510	0.136	0.156
-271.355	800.000	0.063	0.223
-270.340	800.000	0.059	-0.182
-269.326	-20.705	0.200	0.123
-268.311	-148.103	-0.207	-0.017
-267.297	265.604	-0.250	-0.434
-266.282	-84.264	-0.090	0.029
-265.267	-51.978	-0.220	-0.102
-264.253	3.782	0.220	-0.160
-263.238	412.255	0.134	-0.283
-262.224	-43.876	0.209	-0.105
-261.209	-200.000	0.019	0.100
-260.195	140.382	0.191	-0.252
-259.180	800.000	-0.130	0.401
-258.165	-89.046	-0.066	-0.019
-257.151	347.263	0.099	0.193
-256.136	120.619	-0.166	0.205
-255.122	341.966	0.153	0.297
-254.107	154.743	-0.158	0.216
-253.092	-128.109	-0.254	0.036
-252.078	214.406	-0.211	0.332
-251.063	318.966	-0.049	-0.093
-250.049	489.872	0.047	0.106
-249.034	-27.473	0.218	0.126
-248.019	-77.425	0.082	-0.028
-247.005	-0.437	-0.091	-0.064
-245.990	-112.824	-0.188	-0.037
-244.976	4.526	-0.064	-0.047
-243.961	-88.463	0.415	0.123
-242.946	155.803	0.077	-0.106
-241.932	271.405	0.127	0.222
-240.917	800.000	-0.036	0.151
-239.903	-131.504	-0.140	0.018
-238.888	151.660	0.177	0.239
-237.873	584.988	0.172	0.421
-236.859	152.502	-0.029	0.039
-235.844	-79.815	-0.116	0.039
-234.830	200.853	0.205	-0.314
-233.815	800.000	-0.073	-0.254
-232.800	800.000	0.136	-0.385
-231.786	303.748	-0.091	-0.168
-230.771	-45.151	-0.114	0.056
-229.757	121.295	-0.304	-0.377
-228.742	-4.149	-0.231	-0.159
-227.727	-52.172	-0.096	0.044
-226.713	605.166	-0.075	0.185
-225.698	142.262	0.131	-0.172
-224.684	-200.000	0.006	-0.204
-223.669	-134.467	0.220	0.027
-222.655	-200.000	0.044	0.208
-221.640	291.328	-0.078	0.140
-220.625	-93.454	0.059	-0.016
-219.611	431.284	0.110	0.238
-218.596	-96.996	0.288	0.075
-217.582	-200.000	0.022	0.108
-216.567	167.652	0.232	-0.328
-215.552	-58.716	-0.181	0.078
-214.538	393.375	0.046	0.094
-213.523	-42.045	0.176	0.090
-212.509	-200.000	0.027	0.527
-211.494	333.894	0.021	0.041
-210.479	-47.673	-0.270	0.130
-209.465	285.777	0.066	0.118
-208.450	-42.277	-0.055	0.028
-207.436	-178.046	-0.183	0.004
-206.421	56.911	0.052	-0.050
-205.406	202.983	0.144	0.221
-204.392	179.907	-0.101	-0.147
-203.377	-73.228	0.028	-0.010
-202.363	-118.046	-0.130	-0.023
-201.348	-50.956	-0.169	0.079
-200.333	343.891	0.171	-0.332
-199.319	54.714	0.062	-0.059
-198.304	14.536	-0.239	0.185
-197.290	264.326	-0.073	-0.126
-196.275	124.018	0.126	-0.157
-195.260	-19.468	0.263	-0.162
-194.246	-200.000	-0.022	0.185
-193.231	-200.000	0.013	-0.105
-192.217	332.131	0.062	-0.118
-191.202	800.000	0.020	0.083
-190.187	-100.525	-0.249	-0.061
-189.173	-108.868	0.326	-0.069
-188.158	235.067	-0.052	0.086
-187.144	-200.000	-0.016	0.235
-186.129	-21.294	0.421	-0.256
-185.114	800.000	-0.079	-0.308
-184.100	800.000	-0.043	-0.173
-183.085	-90.056	-0.185	-0.053
-182.071	152.966	0.102	-0.139
-181.056	138.170	0.334	0.435
-180.042	545.892	0.055	0.129
-179.027	-26.760	0.299	-0.173
-178.012	-19.564	-0.149	0.092
-176.998	-31.829	0.174	-0.097
-175.983	72.087	-0.161	-0.167
-174.969	253.793	-0.040	-0.067
-173.954	-200.000	0.009	-0.190
-172.939	-90.904	-0.206	0.059
-171.925	800.000	-0.102	0.342
-170.910	-14.551	0.220	0.140
-169.896	-88.803	-0.230	0.068
-168.881	800.000	-0.047	0.131
-167.866	-153.527	0.296	0.020
-166.852	418.445	0.092	0.196
-165.837	-115.159	-0.582	-0.109
-164.823	216.753	-0.022	0.035
-163.808	-200.000	-0.050	0.280
-162.793	345.331	0.102	0.200
-161.779	60.182	0.127	-0.124
-160.764	-47.347	-0.098	0.047
-159.750	53.915	0.024	0.023
-158.735	-200.000	0.042	0.314
-157.720	-146.218	-0.287	0.025
-156.706	-142.807	0.417	0.040
-155.691	60.233	-0.020	-0.020
-154.677	203.984	0.068	-0.104
-153.662	204.876	0.113	0.174
-152.647	800.000	-0.043	0.178
-151.633	-92.637	0.194	0.054
-150.618	-27.256	-0.109	-0.063
-149.604	110.358	0.151	0.181
-148.589	-52.417	0.400	-0.184
-147.574	800.000	0.035	-0.125
-146.560	336.413	-0.043	0.083
-145.545	416.204	-0.200	0.422
-144.531	-190.345	-0.285	-0.003
-143.516	800.000	0.106	-0.357
-142.502	253.346	-0.009	-0.016
-141.487	335.503	0.026	0.050
-140.472	17.159	0.162	0.127
-139.458	-30.456	0.316	0.178
-138.443	-2.544	0.271	0.188
-137.429	-200.000	-0.026	0.323
-136.414	-133.115	-0.339	-0.043
-135.399	800.000	0.037	-0.103
-134.385	-200.000	-0.000	-0.187
-133.370	9.126	-0.230	-0.172
-132.356	257.806	0.041	-0.069
-131.341	203.487	0.204	0.314
-130.326	-200.000	-0.071	0.312
-129.312	406.305	0.045	-0.094
-128.297	-116.987	0.257	-0.046
-127.283	250.117	-0.065	0.109
-126.268	249.249	-0.120	0.201
-125.253	-200.000	0.080	0.584
-124.239	262.066	-0.192	0.330
-123.224	-14.990	-0.122	-0.078
-122.210	-85.321	0.334	0.103
-121.195	-200.000	0.011	-0.285
