DTS Sentinel unit serial number:	SN413079Multiplexer serial number:	ORYXHardware model number:	OX4-SRSoftware version number:	ORYX F/W v4.00 Oryx Data Collector v3.7.2.0data status	okinstallation	princeton_trtdifferential loss correction	single-endedforward channel	channel 3reverse channel	N/Adate	2019/09/14time	14:04:35forward acquisition time	60.00reverse acquisition time	0.00gamma	496.2192k internal	0.2293k external	0.2293temperature offset calibration	1.0053default loss term (dB/km)	0.3790temperature slope calibration	1.0000multiplexer offset coefficient	1.0000multiplexer slope coefficient	1.0000fibre end	0.00T internal ref (°C)	38.16T ext. ref 1 (°C)	4.99T ext. ref 2 (°C)	36.87length (m)	temperature (°C)	Stokes	anti-Stokes-747.200	487.044	0.222	-0.518
-746.185	284.651	-0.103	-0.190
-745.171	800.000	0.060	0.194
-744.156	-140.170	0.210	0.023
-743.142	800.000	0.091	0.283
-742.127	-18.331	-0.136	-0.087
-741.112	11.509	-0.171	-0.134
-740.098	33.338	-0.096	0.085
-739.083	4.966	-0.090	0.068
-738.069	795.881	-0.058	0.163
-737.054	800.000	0.121	0.353
-736.039	-127.979	-0.184	-0.027
-735.025	800.000	0.024	0.080
-734.010	170.091	-0.237	-0.346
-732.996	473.915	-0.193	-0.445
-731.981	-73.626	-0.460	-0.171
-730.966	800.000	-0.025	-0.089
-729.952	800.000	0.074	0.208
-728.937	-120.705	-0.130	-0.022
-727.923	-111.288	0.200	0.042
-726.908	800.000	-0.035	-0.157
-725.894	-24.099	0.191	0.117
-724.879	257.506	-0.185	-0.325
-723.864	-200.000	-0.015	-0.106
-722.850	85.475	0.202	-0.227
-721.835	-161.191	-0.134	0.007
-720.821	-89.047	0.269	-0.081
-719.806	289.867	-0.100	-0.186
-718.791	477.446	-0.044	0.101
-717.777	-37.837	-0.251	0.136
-716.762	-200.000	0.004	0.250
-715.748	-113.968	0.217	-0.043
-714.733	-200.000	0.009	-0.105
-713.718	-90.727	-0.161	0.047
-712.704	107.024	-0.132	-0.161
-711.689	133.572	0.238	-0.314
-710.675	39.733	0.285	-0.261
-709.660	-132.711	-0.222	0.029
-708.645	-200.000	-0.032	0.487
-707.631	-115.894	-0.351	0.067
-706.616	111.397	0.069	-0.085
-705.602	122.486	-0.212	-0.271
-704.587	263.167	0.061	0.108
-703.572	-31.860	-0.235	0.134
-702.558	453.817	-0.061	0.139
-701.543	-170.563	-0.318	-0.011
-700.529	90.710	0.106	-0.121
-699.514	-11.285	-0.060	-0.040
-698.499	-152.890	-0.026	-0.002
-697.485	800.000	0.062	0.224
-696.470	184.815	-0.093	-0.141
-695.456	72.678	-0.191	0.204
-694.441	239.829	0.096	0.164
-693.426	54.773	-0.298	0.293
-692.412	-200.000	-0.012	0.272
-691.397	800.000	-0.050	-0.152
-690.383	-200.000	-0.013	-0.266
-689.368	-100.888	-0.129	0.032
-688.354	-200.000	-0.018	-0.168
-687.339	76.463	0.149	-0.161
-686.324	800.000	-0.036	0.161
-685.310	-19.291	0.029	-0.018
-684.295	-28.085	-0.136	-0.080
-683.281	404.309	-0.108	0.232
-682.266	-154.490	0.081	0.006
-681.251	800.000	-0.036	0.110
-680.237	167.488	-0.115	-0.167
-679.222	-80.446	0.119	-0.041
-678.208	-121.245	0.188	0.032
-677.193	-76.625	-0.211	0.076
-676.178	-14.577	0.134	0.088
-675.164	6.592	-0.052	-0.039
-674.149	-64.773	-0.226	0.093
-673.135	-168.686	0.107	0.004
-672.120	751.623	-0.088	-0.243
-671.105	189.961	-0.138	-0.211
-670.091	513.393	-0.135	0.322
-669.076	22.905	-0.040	0.034
-668.062	21.188	0.158	-0.131
-667.047	261.417	0.078	-0.139
-666.032	15.648	-0.089	0.072
-665.018	-11.059	0.061	-0.041
-664.003	-200.000	0.006	-0.198
-662.989	-48.391	0.272	-0.134
-661.974	-103.179	-0.099	-0.024
-660.959	283.198	0.048	-0.088
-659.945	753.485	-0.082	0.226
-658.930	-200.000	-0.017	0.272
-657.916	-200.000	-0.053	-0.381
-656.901	800.000	0.059	-0.182
-655.886	-200.000	-0.052	-0.378
-654.872	108.308	-0.157	-0.191
-653.857	-27.863	0.184	-0.108
-652.843	22.675	0.165	-0.138
-651.828	800.000	0.027	-0.090
-650.814	152.291	0.162	0.225
-649.799	-4.502	-0.253	-0.178
-648.784	-72.091	0.288	0.109
-647.770	-97.398	0.053	-0.014
-646.755	-200.000	0.050	-0.419
-645.741	173.962	0.109	-0.161
-644.726	-53.038	-0.273	-0.128
-643.711	161.482	-0.087	-0.124
-642.697	165.016	-0.082	0.118
-641.682	-0.052	0.058	-0.042
-640.668	152.064	-0.175	-0.243
-639.653	-25.203	-0.288	0.174
-638.638	-45.207	0.227	0.115
-637.624	800.000	0.023	-0.097
-636.609	26.635	0.094	0.080
-635.595	142.901	-0.027	0.037
-634.580	35.291	-0.133	0.119
-633.565	82.627	-0.085	0.094
-632.551	-37.591	0.276	-0.150
-631.536	-200.000	-0.069	-0.371
-630.522	52.084	0.343	0.333
-629.507	604.339	-0.066	-0.167
-628.492	-24.683	0.083	-0.050
-627.478	-72.210	-0.332	0.125
-626.463	27.918	-0.051	0.044
-625.449	-147.808	-0.382	0.033
-624.434	33.825	-0.147	-0.130
-623.419	800.000	0.050	0.196
-622.405	112.609	-0.007	-0.009
-621.390	800.000	0.027	-0.094
-620.376	-51.090	-0.090	-0.043
-619.361	175.063	-0.097	-0.142
-618.346	341.895	0.057	0.113
-617.332	160.279	0.121	0.171
-616.317	128.331	-0.122	-0.158
-615.303	159.764	0.181	0.256
-614.288	156.625	-0.202	-0.284
-613.273	6.034	0.107	-0.081
-612.259	-147.180	0.262	0.023
-611.244	168.614	0.380	0.552
-610.230	324.905	-0.053	-0.104
-609.215	-12.512	-0.154	-0.102
-608.201	-147.866	0.259	-0.022
-607.186	-69.073	0.329	0.129
-606.171	-123.774	0.251	-0.040
-605.157	37.890	-0.067	-0.061
-604.142	-36.869	-0.393	0.215
-603.128	57.132	0.336	0.333
-602.113	468.199	0.044	-0.100
-601.098	-73.819	-0.230	0.085
-600.084	47.638	0.350	-0.332
-599.069	-34.376	-0.099	-0.055
-598.055	708.959	-0.095	-0.256
-597.040	-157.681	-0.422	0.026
-596.025	359.806	-0.174	-0.354
-595.011	-200.000	0.025	-0.260
-593.996	20.682	0.096	-0.079
-592.982	197.634	0.108	-0.168
-591.967	-93.682	0.393	-0.110
-590.952	-28.238	0.300	-0.177
-589.938	5.828	0.128	0.096
-588.923	-200.000	0.017	-0.136
-587.909	130.203	0.170	0.221
-586.894	-43.345	-0.267	0.137
-585.879	-153.671	-0.543	0.038
-584.865	120.103	-0.193	0.244
-583.850	800.000	0.032	-0.093
-582.836	183.168	0.247	-0.371
-581.821	236.544	-0.245	-0.413
-580.806	67.321	0.435	0.451
-579.792	296.840	0.078	0.145
-578.777	-127.977	-0.048	-0.007
-577.763	-137.991	-0.105	-0.012
-576.748	35.966	0.051	0.045
-575.733	78.424	-0.126	-0.136
-574.719	-85.419	0.194	-0.061
-573.704	-128.682	-0.182	-0.026
-572.690	-200.000	0.017	-0.106
-571.675	-27.966	0.167	-0.098
-570.661	800.000	0.021	-0.085
-569.646	-166.963	-0.160	0.007
-568.631	-91.064	-0.415	-0.121
-567.617	62.696	-0.043	0.043
-566.602	-48.895	-0.131	0.064
-565.588	-26.302	-0.140	-0.083
-564.573	-34.396	-0.173	-0.097
-563.558	347.591	-0.124	-0.248
-562.544	-92.367	0.070	-0.020
-561.529	-52.747	-0.166	-0.078
-560.515	-132.886	-0.166	-0.021
-559.500	-87.813	-0.281	-0.086
-558.485	2.278	-0.200	0.147
-557.471	-200.000	0.013	0.236
-556.456	-56.011	-0.075	-0.034
-555.442	-51.722	-0.157	0.074
-554.427	-46.592	-0.094	-0.047
-553.412	54.473	-0.210	-0.206
-552.398	103.302	0.045	0.054
-551.383	136.080	0.053	-0.071
-550.369	-5.873	-0.197	-0.137
-549.354	800.000	0.068	0.206
-548.339	-11.742	0.036	-0.024
-547.325	-3.631	0.135	0.095
-546.310	192.236	-0.070	0.107
-545.296	-200.000	-0.033	-0.372
-544.281	26.216	0.175	0.148
-543.266	56.894	0.282	-0.279
-542.252	68.084	0.126	0.131
-541.237	-200.000	-0.028	0.129
-540.223	-29.006	0.138	-0.080
-539.208	-200.000	0.053	0.263
-538.193	3.560	-0.170	0.126
-537.179	-65.629	-0.333	0.136
-536.164	-200.000	-0.019	0.153
-535.150	-108.863	-0.091	-0.020
-534.135	37.298	-0.114	-0.102
-533.121	-168.184	0.196	-0.008
-532.106	694.570	0.127	-0.338
-531.091	-200.000	0.005	0.232
-530.077	114.929	-0.106	0.131
-529.062	-83.760	0.177	-0.057
-528.048	231.853	0.184	-0.307
-527.033	-200.000	-0.056	0.446
-526.018	59.146	0.082	-0.082
-525.004	-200.000	-0.044	0.221
-523.989	-200.000	0.292	-0.001
-522.975	-75.406	0.138	0.050
-521.960	47.580	-0.028	0.027
-520.945	-85.669	-0.436	-0.137
-519.931	-11.733	0.231	0.154
-518.916	211.043	-0.173	0.276
-517.902	55.087	-0.069	0.067
-516.887	202.659	-0.021	-0.034
-515.872	-38.759	-0.126	-0.067
-514.858	-0.026	0.029	-0.021
-513.843	-97.220	-0.298	0.079
-512.829	-163.845	0.066	0.003
-511.814	10.761	0.034	0.026
-510.799	63.226	0.231	0.235
-509.785	-61.498	0.124	0.053
-508.770	-200.000	-0.011	0.167
-507.756	-200.000	0.031	-0.414
-506.741	-34.497	-0.200	0.111
-505.726	800.000	-0.031	-0.104
-504.712	63.023	0.082	-0.084
-503.697	119.273	0.189	-0.237
-502.683	615.429	0.115	-0.293
-501.668	43.117	-0.103	0.096
-500.653	-42.296	0.157	0.081
-499.639	-200.000	-0.028	-0.191
-498.624	23.557	0.038	-0.032
-497.610	119.299	-0.242	0.304
-496.595	-200.000	0.021	-0.205
-495.581	48.164	0.011	-0.010
-494.566	-64.132	-0.208	-0.086
-493.551	164.859	-0.257	0.368
-492.537	-106.627	0.161	0.036
-491.522	-141.542	0.298	-0.031
-490.508	-200.000	-0.014	0.154
-489.493	-106.787	-0.054	0.012
-488.478	-92.659	-0.245	0.070
-487.464	59.995	-0.144	-0.144
-486.449	-53.093	-0.182	0.085
-485.435	68.180	-0.598	-0.620
-484.420	19.095	-0.155	-0.126
-483.405	-127.170	-0.168	0.025
-482.391	376.059	-0.028	-0.057
-481.376	-9.752	0.067	0.045
-480.362	79.259	0.136	-0.148
-479.347	-30.091	-0.241	-0.139
-478.332	245.073	-0.167	-0.285
-477.318	-27.560	0.143	-0.084
-476.303	26.696	0.077	0.065
-475.289	-200.000	-0.061	-0.302
-474.274	14.813	-0.323	-0.255
-473.259	-98.536	-0.234	0.061
-472.245	-158.560	0.280	-0.016
-471.230	124.903	-0.110	-0.140
-470.216	-200.000	-0.004	0.126
-469.201	800.000	-0.070	0.229
-468.186	-200.000	0.014	-0.078
-467.172	-48.556	-0.140	0.068
-466.157	-157.643	-0.265	-0.016
-465.143	288.241	0.136	-0.250
-464.128	118.458	0.193	-0.242
-463.113	332.667	0.125	-0.245
-462.099	800.000	-0.045	0.194
-461.084	-71.820	-0.185	0.070
-460.070	711.587	0.111	0.297
-459.055	38.372	-0.248	-0.223
-458.040	-90.309	-0.059	-0.017
-457.026	78.080	0.118	-0.128
-456.011	169.989	-0.029	0.043
-454.997	-47.432	0.308	-0.152
-453.982	11.231	0.133	0.103
-452.968	-200.000	-0.046	-0.246
-451.953	65.006	-0.032	-0.033
-450.938	-29.782	0.079	-0.046
-449.924	-88.750	-0.323	-0.097
-448.909	-18.442	0.141	0.089
-447.895	-115.804	0.060	0.011
-446.880	-91.667	0.116	0.033
-445.865	-75.518	-0.089	0.032
-444.851	-58.701	-0.279	0.122
-443.836	-200.000	-0.028	-0.168
-442.822	-49.236	0.103	0.050
-441.807	33.805	-0.070	0.061
-440.792	167.637	0.159	0.228
-439.778	200.869	-0.091	-0.142
-438.763	-200.000	-0.011	-0.165
-437.749	116.244	0.123	-0.152
-436.734	5.029	0.243	-0.181
-435.719	-68.550	-0.148	0.058
-434.705	-39.510	-0.259	-0.137
-433.690	-159.566	0.167	-0.009
-432.676	800.000	-0.063	0.252
-431.661	691.910	-0.103	-0.272
-430.646	-11.242	-0.052	-0.035
-429.632	-200.000	-0.000	0.200
-428.617	-38.331	-0.237	-0.127
-427.603	301.437	0.027	0.051
-426.588	-200.000	0.014	0.212
-425.573	800.000	-0.029	0.124
-424.559	-200.000	0.000	-0.064
-423.544	800.000	0.085	-0.285
-422.530	-140.417	0.329	0.035
-421.515	103.565	-0.294	-0.349
-420.500	-27.030	0.180	-0.106
-419.486	800.000	-0.073	-0.226
-418.471	506.387	0.078	0.182
-417.457	-73.052	0.072	0.027
-416.442	18.708	-0.054	0.044
-415.428	46.745	-0.078	0.073
-414.413	800.000	-0.111	0.310
-413.398	-52.036	0.436	0.205
-412.384	540.965	-0.111	0.267
-411.369	-200.000	-0.019	-0.155
-410.355	-49.374	0.066	-0.032
-409.340	-200.000	0.016	-0.106
-408.325	81.878	-0.204	0.223
-407.311	70.983	-0.092	0.096
-406.296	-84.662	0.239	-0.076
-405.282	-44.640	-0.030	-0.015
-404.267	-124.979	-0.257	-0.040
-403.252	-131.809	-0.288	-0.038
-402.238	-200.000	-0.002	-0.063
-401.223	-105.212	0.233	0.054
-400.209	10.621	0.208	0.160
-399.194	-26.738	0.350	0.206
-398.179	0.762	0.172	0.124
-397.165	4.926	-0.306	0.228
-396.150	423.080	-0.150	0.325
-395.136	142.219	-0.057	-0.076
-394.121	-200.000	-0.000	-0.041
-393.106	-200.000	-0.019	0.219
-392.092	800.000	0.068	0.229
-391.077	-32.144	-0.373	-0.210
-390.063	138.823	0.053	0.070
-389.048	41.929	0.170	0.155
-388.033	197.330	0.056	-0.086
-387.019	-61.279	0.104	0.044
-386.004	162.298	0.152	0.215
-384.990	14.368	0.080	0.063
-383.975	-23.746	0.171	0.104
-382.960	39.763	-0.063	0.057
-381.946	800.000	-0.102	0.366
-380.931	795.510	0.095	0.263
-379.917	483.783	-0.130	0.298
-378.902	364.521	-0.047	-0.095
-377.888	-200.000	-0.006	0.087
-376.873	-89.141	-0.227	-0.068
-375.858	561.843	0.148	-0.360
-374.844	-107.629	0.265	-0.058
-373.829	-47.767	-0.238	0.116
-372.815	91.191	0.202	0.228
-371.800	-200.000	-0.037	-0.167
-370.785	343.839	0.118	-0.233
-369.771	41.353	-0.073	-0.066
-368.756	141.203	0.088	0.118
-367.742	94.751	-0.259	-0.297
-366.727	-200.000	-0.003	0.059
-365.712	-200.000	-0.008	-0.392
-364.698	-200.000	-0.025	-0.453
-363.683	313.354	-0.203	-0.385
-362.669	-200.000	-0.005	0.108
-361.654	370.058	0.038	0.078
-360.639	-200.000	-0.114	0.000
-359.625	155.833	-0.162	0.225
-358.610	-22.547	0.091	0.055
-357.596	146.506	0.112	0.151
-356.581	74.751	0.074	0.079
-355.566	-46.134	0.288	0.143
-354.552	-200.000	0.050	0.263
-353.537	-159.478	0.139	-0.008
-352.523	-200.000	0.018	0.131
-351.508	-75.275	-0.225	0.081
-350.493	-200.000	0.002	-0.063
-349.479	-139.705	0.301	-0.032
-348.464	592.978	-0.074	-0.184
-347.450	212.815	0.151	0.241
-346.435	112.472	0.067	-0.082
-345.420	775.813	0.093	0.254
-344.406	747.380	-0.099	0.268
-343.391	174.285	-0.037	0.054
-342.377	-82.955	-0.364	-0.118
-341.362	60.778	-0.238	-0.238
-340.348	21.607	0.257	0.210
-339.333	64.872	0.258	0.263
-338.318	-155.100	-0.187	-0.012
-337.304	-46.279	0.147	0.073
-336.289	741.383	0.110	-0.297
-335.275	-15.782	-0.235	-0.151
-334.260	7.639	-0.141	0.106
-333.245	-200.000	0.001	0.278
-332.231	-45.468	-0.107	0.054
-331.216	118.754	-0.157	0.195
-330.202	533.363	0.033	0.079
-329.187	-6.137	0.227	-0.156
-328.172	-150.477	0.217	-0.017
-327.158	-79.168	-0.058	0.020
-326.143	349.951	-0.188	0.373
-325.129	800.000	0.096	0.301
-324.114	-62.487	-0.290	0.121
-323.099	38.511	0.199	-0.179
-322.085	-74.219	0.165	-0.060
-321.070	10.651	-0.291	-0.223
-320.056	-143.057	-0.096	0.009
-319.041	-200.000	-0.007	-0.069
-318.026	210.822	-0.079	0.125
-317.012	269.149	0.159	0.281
-315.997	-31.049	0.194	0.110
-314.983	25.348	0.266	0.222
-313.968	-200.000	-0.083	-0.506
-312.953	13.148	0.162	-0.127
-311.939	800.000	0.040	-0.119
-310.924	59.866	0.110	0.109
-309.910	-200.000	0.018	0.279
-308.895	208.109	0.131	-0.206
-307.880	211.837	0.149	-0.236
-306.866	800.000	0.051	-0.147
-305.851	-88.112	0.351	0.106
-304.837	-68.162	0.201	-0.079
-303.822	-200.000	-0.066	0.298
-302.807	187.351	0.043	-0.065
-301.793	-4.038	0.089	-0.062
-300.778	-65.110	0.177	-0.072
-299.764	-169.387	-0.133	-0.005
-298.749	53.067	-0.191	-0.184
-297.735	-90.060	0.328	-0.096
-296.720	-18.859	0.268	0.168
-295.705	-200.000	-0.042	0.221
-294.691	579.000	-0.120	-0.296
-293.676	37.101	0.144	0.128
-292.662	255.011	0.133	-0.230
-291.647	-167.225	-0.190	-0.008
-290.632	800.000	-0.010	0.042
-289.618	-200.000	-0.037	-0.185
-288.603	-48.313	-0.360	-0.174
-287.589	-2.136	0.030	-0.021
-286.574	54.315	-0.121	0.117
-285.559	-87.314	-0.155	-0.047
-284.545	-44.524	0.166	-0.083
-283.530	-30.570	-0.090	0.052
-282.516	800.000	-0.070	-0.278
-281.501	-19.716	0.094	0.058
-280.486	192.137	-0.071	0.107
-279.472	-200.000	-0.023	-0.207
-278.457	-29.015	0.249	-0.144
-277.443	-179.766	-0.233	0.005
-276.428	263.533	0.127	0.222
-275.413	-35.332	0.109	0.060
-274.399	11.337	-0.195	0.150
-273.384	-200.000	0.051	-0.318
-272.370	-37.193	-0.137	0.074
-271.355	-135.101	0.142	-0.017
-270.340	-78.454	-0.141	0.048
-269.326	-79.954	0.117	-0.039
-268.311	-169.514	-0.027	-0.001
-267.297	-200.000	-0.079	-0.465
-266.282	-86.099	0.233	0.072
-265.267	-38.345	-0.076	0.041
-264.253	-67.766	0.182	-0.071
-263.238	-130.946	0.294	0.039
-262.224	-104.376	0.090	-0.021
-261.209	-21.933	-0.309	0.189
-260.195	-30.564	-0.192	-0.109
-259.180	125.410	0.094	0.119
-258.165	627.363	-0.028	0.072
-257.151	748.551	0.039	0.106
-256.136	-200.000	0.055	0.263
-255.122	43.260	0.076	-0.070
-254.107	543.776	-0.056	-0.134
-253.092	-125.296	0.137	-0.021
-252.078	518.420	-0.104	0.245
-251.063	207.580	-0.115	0.180
-250.049	800.000	-0.065	-0.254
-249.034	-167.108	0.316	0.013
-248.019	-200.000	-0.004	-0.155
-247.005	-200.000	-0.062	0.370
-245.990	-25.023	-0.244	0.145
-244.976	-200.000	-0.043	0.371
-243.961	800.000	-0.066	0.205
-242.946	109.607	0.068	0.082
-241.932	-200.000	0.034	-0.212
-240.917	164.642	0.050	-0.071
-239.903	800.000	0.087	-0.319
-238.888	-200.000	0.032	-0.303
-237.873	-147.510	0.038	0.003
-236.859	-69.955	0.184	0.070
-235.844	-39.576	0.208	-0.109
-234.830	-33.604	-0.123	-0.068
-233.815	537.010	0.027	-0.064
-232.800	-3.533	-0.151	-0.105
-231.786	-91.143	-0.158	-0.046
-230.771	800.000	-0.077	-0.332
-229.757	132.239	-0.014	0.018
-228.742	293.253	0.035	-0.064
-227.727	-97.677	-0.123	-0.032
-226.713	27.808	-0.139	-0.117
-225.698	800.000	0.070	0.238
-224.684	-74.321	-0.138	0.050
-223.669	205.081	0.196	0.304
-222.655	-7.352	-0.097	-0.066
-221.640	-146.899	0.111	-0.010
-220.625	119.167	0.091	0.113
-219.611	418.835	0.029	-0.062
-218.596	-200.000	-0.018	0.272
-217.582	73.682	-0.126	-0.133
-216.567	-78.899	0.420	-0.144
-215.552	-200.000	-0.009	0.172
-214.538	-37.212	0.266	0.142
-213.523	-9.031	0.151	-0.101
-212.509	91.148	0.086	0.097
-211.494	-200.000	0.005	0.088
-210.479	27.538	0.117	-0.099
-209.465	4.363	0.216	0.158
-208.450	240.214	-0.109	-0.182
-207.436	-200.000	-0.009	0.094
-206.421	67.870	0.249	0.255
-205.406	-200.000	-0.060	-0.276
-204.392	-145.416	0.220	0.020
-203.377	-18.521	0.241	0.151
-202.363	800.000	0.071	0.226
-201.348	-200.000	0.040	-0.501
-200.333	72.374	-0.120	0.126
-199.319	-20.416	-0.103	-0.063
-198.304	285.803	0.055	0.099
-197.290	-180.122	-0.136	0.003
-196.275	-114.512	0.313	0.060
-195.260	-200.000	0.030	-0.264
-194.246	-200.000	0.004	0.100
-193.231	-105.305	0.192	0.044
-192.217	-133.470	0.282	0.035
-191.202	67.946	0.190	0.195
-190.187	200.066	-0.073	0.112
-189.173	-91.358	-0.098	-0.028
-188.158	-200.000	-0.015	0.113
-187.144	-51.350	0.362	0.169
-186.129	614.288	-0.059	0.148
-185.114	654.057	-0.130	0.335
-184.100	-11.744	-0.008	-0.005
-183.085	-200.000	0.007	0.214
-182.071	609.761	-0.060	0.151
-181.056	199.887	0.127	0.194
-180.042	-103.168	0.068	-0.016
-179.027	-200.000	0.043	0.260
-178.012	86.323	0.116	-0.128
-176.998	-96.921	-0.189	-0.050
-175.983	800.000	-0.055	0.234
-174.969	-200.000	0.003	-0.207
-173.954	-53.180	-0.206	0.095
-172.939	249.144	-0.173	-0.294
-171.925	-66.429	-0.383	-0.152
-170.910	126.600	-0.091	-0.115
-169.896	-62.720	-0.103	0.043
-168.881	-105.672	-0.411	0.093
-167.866	-0.006	0.340	0.242
-166.852	68.597	-0.096	-0.098
-165.837	-163.449	0.097	0.005
-164.823	-149.466	0.227	-0.018
-163.808	-101.324	-0.198	0.048
-162.793	141.650	-0.221	0.293
-161.779	104.134	0.239	-0.282
-160.764	183.692	0.219	-0.325
-159.750	51.516	-0.199	-0.189
-158.735	-27.566	0.215	0.125
-157.720	-103.248	-0.132	-0.031
-156.706	-36.879	0.162	0.087
-155.691	-94.480	-0.126	0.034
-154.677	-107.012	0.386	-0.085
-153.662	53.184	-0.078	-0.075
-152.647	5.567	-0.341	0.252
-151.633	37.616	0.084	0.075
-150.618	114.794	0.103	0.126
-149.604	317.007	0.077	0.146
-148.589	-182.017	0.098	0.002
-147.574	53.639	0.233	-0.224
-146.560	16.674	-0.133	0.105
-145.545	-7.208	-0.103	0.070
-144.531	135.416	-0.121	0.157
-143.516	-174.774	0.257	0.007
-142.502	10.851	0.189	0.144
-141.487	-26.950	0.235	0.137
-140.472	-122.105	-0.030	-0.005
-139.458	-116.206	-0.119	-0.022
-138.443	28.977	0.084	-0.071
-137.429	-200.000	-0.053	-0.277
-136.414	3.607	-0.093	-0.067
-135.399	43.134	-0.065	0.059
-134.385	-65.661	0.090	0.036
-133.370	-33.124	0.312	0.173
-132.356	63.577	0.267	0.268
-131.341	-200.000	-0.025	-0.238
-130.326	-149.587	-0.112	-0.009
-129.312	-164.033	0.128	0.006
-128.297	155.200	0.198	-0.272
-127.283	800.000	0.125	-0.461
-126.268	-200.000	-0.005	-0.272
-125.253	166.178	0.153	-0.217
-124.239	-2.484	-0.144	-0.101
-123.224	32.282	-0.112	0.097
-122.210	9.965	0.133	0.101
-121.195	-200.000	-0.018	-0.124
-120.180	-200.000	0.002	0.073
