DTS Sentinel unit serial number:	SN413079Multiplexer serial number:	ORYXHardware model number:	OX4-SRSoftware version number:	ORYX F/W v4.00 Oryx Data Collector v3.7.2.0data status	okinstallation	princeton_trtdifferential loss correction	single-endedforward channel	channel 3reverse channel	N/Adate	2019/09/12time	16:18:10forward acquisition time	60.00reverse acquisition time	0.00gamma	496.2192k internal	0.2301k external	0.2301temperature offset calibration	1.0065default loss term (dB/km)	0.3790temperature slope calibration	1.0000multiplexer offset coefficient	1.0000multiplexer slope coefficient	1.0000fibre end	0.00T internal ref (°C)	37.98T ext. ref 1 (°C)	2.50T ext. ref 2 (°C)	30.77length (m)	temperature (°C)	Stokes	anti-Stokes-747.200	800.000	0.019	-0.070
-746.185	800.000	-0.027	0.090
-745.171	313.977	0.058	0.112
-744.156	26.390	-0.122	-0.104
-743.142	-123.676	-0.148	-0.024
-742.127	514.937	0.040	0.096
-741.112	-44.271	-0.113	-0.058
-740.098	-88.806	-0.446	0.135
-739.083	-23.415	0.037	0.023
-738.069	86.544	-0.141	0.158
-737.054	-145.943	0.260	-0.023
-736.039	-159.356	-0.205	-0.012
-735.025	43.689	0.053	-0.049
-734.010	-70.854	-0.082	0.031
-732.996	-155.662	-0.194	0.013
-731.981	427.068	-0.168	0.369
-730.966	537.845	-0.070	-0.169
-729.952	-70.968	-0.166	0.064
-728.937	-31.637	-0.089	-0.051
-727.923	194.523	-0.118	0.183
-726.908	38.314	0.142	0.129
-725.894	303.697	-0.100	-0.189
-724.879	800.000	-0.145	-0.465
-723.864	467.792	0.113	-0.257
-722.850	-100.808	-0.076	0.019
-721.835	183.265	0.122	-0.183
-720.821	112.335	-0.279	-0.344
-719.806	800.000	-0.027	0.095
-718.791	800.000	-0.145	-0.462
-717.777	-71.386	0.172	-0.066
-716.762	-160.636	0.258	-0.014
-715.748	-29.036	0.151	-0.088
-714.733	-75.679	-0.195	0.071
-713.718	233.558	0.018	0.031
-712.704	-36.461	-0.218	0.120
-711.689	466.061	0.088	-0.202
-710.675	-17.836	0.257	-0.165
-709.660	60.364	-0.064	-0.065
-708.645	-41.496	-0.152	-0.080
-707.631	-200.000	-0.016	0.327
-706.616	-28.704	0.257	-0.151
-705.602	-200.000	-0.018	-0.288
-704.587	800.000	-0.061	-0.200
-703.572	-200.000	0.026	0.205
-702.558	-127.874	-0.028	-0.004
-701.543	-29.213	0.289	0.169
-700.529	-200.000	-0.002	0.090
-699.514	-90.778	-0.349	0.102
-698.499	90.770	0.116	-0.132
-697.485	1.188	-0.276	0.202
-696.470	360.320	-0.008	0.016
-695.456	-42.640	-0.366	0.189
-694.441	-16.610	0.233	-0.150
-693.426	284.002	-0.086	0.157
-692.412	650.595	0.065	0.169
-691.397	133.884	0.238	0.314
-690.383	430.915	0.099	-0.218
-689.368	41.409	0.101	-0.093
-688.354	-159.766	0.168	0.009
-687.339	113.622	-0.149	0.184
-686.324	-140.473	0.289	0.031
-685.310	-157.788	-0.332	0.020
-684.295	44.694	0.036	-0.034
-683.281	77.127	0.086	-0.093
-682.266	-180.648	-0.166	-0.003
-681.251	-147.689	0.206	-0.018
-680.237	154.688	0.191	-0.267
-679.222	479.225	0.123	-0.283
-678.208	12.085	0.123	-0.096
-677.193	-54.067	0.072	0.033
-676.178	-29.975	-0.141	-0.082
-675.164	-40.480	-0.296	-0.156
-674.149	-200.000	0.001	-0.048
-673.135	62.168	0.262	0.266
-672.120	13.386	0.309	-0.244
-671.105	-165.726	-0.224	0.010
-670.091	-68.949	0.404	0.159
-669.076	-16.698	0.286	-0.184
-668.062	-52.052	-0.192	-0.091
-667.047	274.610	-0.128	0.231
-666.032	-68.440	0.202	0.080
-665.018	101.493	-0.261	0.309
-664.003	-200.000	0.006	-0.042
-662.989	-193.932	0.145	0.001
-661.974	-200.000	0.006	-0.076
-660.959	-73.261	-0.221	-0.082
-659.945	64.656	-0.034	0.035
-658.930	-21.437	-0.220	-0.136
-657.916	256.741	0.144	0.252
-656.901	-200.000	0.020	0.203
-655.886	9.512	-0.216	-0.167
-654.872	-200.000	0.027	0.265
-653.857	-109.536	-0.103	0.022
-652.843	80.298	-0.085	-0.092
-651.828	800.000	0.070	-0.201
-650.814	-142.924	-0.134	-0.013
-649.799	106.945	0.238	-0.288
-648.784	-189.957	-0.360	-0.004
-647.770	85.031	-0.079	0.088
-646.755	-47.412	-0.426	-0.210
-645.741	-39.260	-0.353	-0.188
-644.726	-200.000	-0.020	-0.106
-643.711	236.944	-0.121	0.204
-642.697	179.023	-0.108	0.161
-641.682	-148.839	-0.274	0.022
-640.668	0.653	-0.094	-0.068
-639.653	381.482	0.137	-0.287
-638.638	104.682	0.144	-0.172
-637.624	-200.000	0.059	-0.415
-636.609	-200.000	-0.041	0.000
-635.595	-128.688	0.166	0.024
-634.580	-131.942	-0.168	-0.022
-633.565	214.758	-0.076	-0.123
-632.551	-106.910	0.082	0.018
-631.536	29.780	0.163	0.141
-630.522	140.192	0.027	0.036
-629.507	193.765	0.182	-0.279
-628.492	93.245	0.208	-0.239
-627.478	26.932	-0.114	-0.097
-626.463	-122.046	-0.183	0.031
-625.449	-200.000	0.009	0.119
-624.434	91.914	-0.149	0.170
-623.419	35.002	0.057	0.050
-622.405	96.577	-0.277	0.322
-621.390	-12.995	-0.126	-0.083
-620.376	-103.578	0.164	-0.039
-619.361	-80.401	-0.328	-0.111
-618.346	-84.954	-0.325	0.103
-617.332	-67.298	-0.091	-0.036
-616.317	-195.031	0.292	0.002
-615.303	-200.000	0.012	-0.145
-614.288	-32.558	-0.181	-0.102
-613.273	145.857	-0.199	-0.270
-612.259	-177.683	-0.288	-0.007
-611.244	-157.802	-0.157	0.009
-610.230	176.803	0.194	0.287
-609.215	-93.466	0.362	0.102
-608.201	-200.000	-0.022	0.193
-607.186	-66.879	0.287	0.115
-606.171	20.344	0.259	-0.213
-605.157	7.454	0.213	-0.162
-604.142	96.619	-0.124	-0.145
-603.128	120.829	0.029	-0.037
-602.113	800.000	0.098	-0.286
-601.098	113.175	0.180	0.221
-600.084	800.000	0.046	0.177
-599.069	125.127	0.168	0.215
-598.055	800.000	0.084	-0.274
-597.040	97.925	0.060	0.070
-596.025	800.000	0.035	0.119
-595.011	-50.681	0.128	0.061
-593.996	234.063	-0.143	-0.239
-592.982	39.663	-0.172	-0.157
-591.967	67.183	-0.305	0.315
-590.952	-200.000	-0.077	0.531
-589.938	-78.649	0.141	0.049
-588.923	84.697	0.107	0.119
-587.909	116.411	0.070	-0.087
-586.894	348.963	0.062	-0.125
-585.879	116.701	-0.171	-0.212
-584.865	174.954	-0.144	-0.212
-583.850	54.741	0.132	-0.129
-582.836	-200.000	-0.051	0.232
-581.821	-108.785	-0.241	-0.052
-580.806	800.000	-0.029	-0.110
-579.792	-200.000	0.006	0.116
-578.777	-200.000	-0.003	-0.403
-577.763	277.713	-0.109	-0.197
-576.748	-9.188	0.146	-0.099
-575.733	44.156	0.141	0.131
-574.719	163.416	-0.206	0.294
-573.704	-16.359	-0.245	0.158
-572.690	-65.277	-0.273	-0.111
-571.675	-149.962	-0.092	0.007
-570.661	246.803	0.109	0.186
-569.646	412.098	0.051	0.110
-568.631	4.333	-0.227	-0.169
-567.617	330.876	0.025	0.048
-566.602	-200.000	0.059	-0.364
-565.588	-69.046	0.309	-0.121
-564.573	-50.069	0.148	-0.071
-563.558	485.995	-0.043	-0.099
-562.544	17.043	0.148	-0.119
-561.529	-89.086	0.133	-0.040
-560.515	171.510	0.220	0.319
-559.500	-97.994	-0.144	-0.037
-558.485	-137.376	0.300	-0.034
-557.471	159.501	-0.246	-0.347
-556.456	-21.839	-0.302	-0.186
-555.442	-108.223	-0.265	0.058
-554.427	-200.000	0.017	0.276
-553.412	138.461	-0.082	-0.109
-552.398	-200.000	0.006	-0.196
-551.383	218.909	0.237	-0.384
-550.369	-200.000	-0.020	-0.096
-549.354	45.085	0.208	-0.194
-548.339	74.955	0.192	0.205
-547.325	-200.000	0.016	0.118
-546.310	-164.054	-0.233	0.011
-545.296	197.827	0.082	0.126
-544.281	385.834	0.120	-0.250
-543.266	734.749	-0.053	0.144
-542.252	-31.269	-0.346	0.197
-541.237	42.708	-0.029	-0.027
-540.223	-161.703	-0.197	0.010
-539.208	-179.648	-0.356	-0.008
-538.193	125.790	0.177	-0.227
-537.179	-35.188	-0.205	-0.113
-536.164	109.397	0.073	-0.089
-535.150	-59.944	0.109	-0.047
-534.135	-70.306	0.100	0.038
-533.121	-200.000	-0.018	-0.224
-532.106	76.729	0.166	0.178
-531.091	312.055	0.069	-0.131
-530.077	-115.128	-0.164	0.032
-529.062	18.733	-0.114	0.092
-528.048	-24.649	-0.204	-0.123
-527.033	101.984	0.219	0.258
-526.018	-200.000	0.004	0.198
-525.004	-90.052	-0.198	0.058
-523.989	-152.150	0.383	-0.028
-522.975	-79.687	0.230	-0.078
-521.960	416.796	0.114	-0.245
-520.945	-72.875	0.115	0.043
-519.931	31.368	-0.177	-0.154
-518.916	209.753	0.068	-0.109
-517.902	-52.329	0.099	-0.046
-516.887	-4.616	0.343	-0.239
-515.872	800.000	-0.099	-0.292
-514.858	9.641	-0.058	0.045
-513.843	-59.300	-0.118	0.051
-512.829	-0.827	-0.318	0.228
-511.814	-200.000	-0.014	-0.137
-510.799	-200.000	-0.014	-0.119
-509.785	-34.704	0.296	0.164
-508.770	-62.405	-0.232	-0.098
-507.756	331.933	0.114	0.222
-506.741	-200.000	0.047	0.217
-505.726	-200.000	-0.058	-0.256
-504.712	26.052	-0.051	0.043
-503.697	329.422	0.103	0.200
-502.683	-198.875	0.100	-0.001
-501.668	-74.768	0.225	-0.081
-500.653	-200.000	-0.023	-0.146
-499.639	49.929	0.065	-0.062
-498.624	-50.019	0.403	-0.193
-497.610	80.392	-0.288	0.313
-496.595	79.595	-0.058	0.063
-495.581	-200.000	-0.087	0.491
-494.566	37.524	0.157	0.141
-493.551	-59.069	-0.030	-0.013
-492.537	-37.645	-0.145	-0.078
-491.522	800.000	-0.037	0.112
-490.508	-112.151	-0.075	-0.015
-489.493	800.000	-0.077	0.243
-488.478	465.840	-0.082	-0.185
-487.464	-12.782	-0.109	-0.071
-486.449	54.680	-0.105	-0.102
-485.435	11.812	0.166	-0.128
-484.420	-200.000	0.007	-0.086
-483.405	-107.542	-0.096	0.021
-482.391	-71.070	-0.126	-0.048
-481.376	-4.424	0.474	0.331
-480.362	-184.083	-0.267	0.004
-479.347	177.028	0.176	0.258
-478.332	-200.000	-0.007	0.304
-477.318	-84.978	-0.361	0.114
-476.303	-18.029	0.259	0.164
-475.289	93.462	0.189	0.216
-474.274	201.257	-0.048	-0.074
-473.259	85.691	0.190	0.210
-472.245	-92.340	-0.203	-0.058
-471.230	-200.000	0.045	-0.488
-470.216	29.069	0.161	-0.138
-469.201	-122.948	-0.170	0.028
-468.186	46.716	-0.311	0.291
-467.172	-200.000	-0.040	-0.185
-466.157	196.411	-0.095	0.146
-465.143	-200.000	-0.019	-0.267
-464.128	-70.952	-0.273	-0.104
-463.113	460.357	0.080	-0.180
-462.099	-159.723	0.107	0.006
-461.084	346.691	-0.039	0.077
-460.070	64.184	0.154	0.157
-459.055	81.454	0.087	-0.095
-458.040	-56.327	0.072	0.032
-457.026	-1.903	-0.409	-0.290
-456.011	569.353	-0.074	-0.181
-454.997	152.456	-0.388	0.535
-453.982	324.018	0.165	0.318
-452.968	-65.216	0.104	0.042
-451.953	-200.000	-0.061	0.274
-450.938	-200.000	0.061	-0.318
-449.924	79.035	0.280	-0.302
-448.909	-36.894	0.101	-0.055
-447.895	-200.000	0.005	-0.123
-446.880	82.991	-0.041	0.045
-445.865	800.000	0.083	-0.266
-444.851	-200.000	0.022	-0.435
-443.836	-90.203	0.228	-0.067
-442.822	31.060	0.077	-0.067
-441.807	128.610	-0.077	-0.099
-440.792	-45.740	0.173	-0.086
-439.778	-0.418	0.236	-0.169
-438.763	-34.098	0.125	-0.069
-437.749	-92.809	-0.214	-0.060
-436.734	-56.547	-0.120	-0.053
-435.719	-64.137	0.193	-0.079
-434.705	491.868	0.052	-0.120
-433.690	800.000	-0.022	-0.064
-432.676	685.758	0.074	0.194
-431.661	65.836	0.120	-0.122
-430.646	1.345	0.122	-0.089
-429.632	29.976	0.111	-0.095
-428.617	-90.424	-0.118	-0.034
-427.603	6.358	-0.228	0.170
-426.588	527.513	0.126	-0.299
-425.573	51.791	-0.095	-0.091
-424.559	800.000	-0.087	-0.279
-423.544	607.909	0.008	0.019
-422.530	-200.000	0.022	-0.213
-421.515	71.753	0.307	0.321
-420.500	-54.896	0.172	-0.078
-419.486	-51.521	-0.129	-0.061
-418.471	79.791	-0.099	-0.107
-417.457	-75.830	-0.216	0.077
-416.442	-200.000	0.028	0.173
-415.428	-200.000	0.147	-0.000
-414.413	-69.360	-0.305	0.118
-413.398	-200.000	0.019	0.131
-412.384	-161.930	-0.255	0.013
-411.369	248.263	-0.150	-0.255
-410.355	-45.015	-0.221	-0.111
-409.340	-108.731	-0.294	0.063
-408.325	-200.000	-0.029	-0.399
-407.311	-200.000	0.038	0.212
-406.296	36.774	-0.113	-0.101
-405.282	118.463	-0.213	0.264
-404.267	-106.029	0.108	0.024
-403.252	536.014	-0.066	0.157
-402.238	800.000	-0.015	-0.067
-401.223	-200.000	0.014	-0.372
-400.209	13.995	-0.338	0.265
-399.194	66.178	0.115	0.118
-398.179	-85.461	-0.329	0.103
-397.165	-166.356	-0.111	-0.005
-396.150	800.000	-0.015	0.064
-395.136	-20.696	-0.243	-0.150
-394.121	-7.684	0.198	0.134
-393.106	19.027	-0.271	0.218
-392.092	173.791	-0.206	0.299
-391.077	-46.638	0.334	0.164
-390.063	-200.000	0.026	0.212
-389.048	295.076	-0.105	0.194
-388.033	250.311	0.069	0.118
-387.019	-200.000	0.025	0.199
-386.004	-200.000	-0.027	0.201
-384.990	226.945	0.087	0.142
-383.975	-150.465	0.274	0.021
-382.960	-8.923	-0.208	0.140
-381.946	-135.515	-0.485	0.058
-380.931	-104.912	-0.323	0.074
-379.917	-19.756	-0.419	0.261
-378.902	-77.352	0.267	-0.093
-377.888	-177.033	-0.090	-0.002
-376.873	-36.433	0.168	-0.091
-375.858	-26.239	0.050	0.030
-374.844	-200.000	0.024	0.207
-373.829	229.966	0.257	0.423
-372.815	22.684	0.253	0.208
-371.800	-92.290	0.216	-0.061
-370.785	-4.388	0.085	0.059
-369.771	-148.716	-0.279	-0.023
-368.756	-60.334	-0.314	0.134
-367.742	-115.102	-0.075	0.014
-366.727	-23.716	-0.184	-0.111
-365.712	-158.756	-0.210	-0.012
-364.698	291.895	0.190	-0.347
-363.683	-48.452	0.068	0.033
-362.669	138.499	0.151	0.199
-361.654	41.507	0.099	0.090
-360.639	56.719	0.275	-0.269
-359.625	-69.672	-0.027	0.010
-358.610	-200.000	0.018	-0.168
-357.596	-128.284	0.093	-0.013
-356.581	97.321	-0.123	0.142
-355.566	800.000	-0.048	-0.149
-354.552	40.622	0.237	-0.215
-353.537	-200.000	0.011	-0.090
-352.523	-87.428	-0.265	0.081
-351.508	12.601	-0.202	0.156
-350.493	-85.976	0.266	0.083
-349.479	-200.000	-0.011	-0.123
-348.464	-37.776	0.144	-0.077
-347.450	-99.877	0.313	-0.079
-346.435	-173.566	0.237	0.007
-345.420	-2.686	0.333	0.234
-344.406	-72.160	0.110	0.041
-343.391	189.463	-0.143	-0.215
-342.377	363.281	0.043	0.088
-341.362	-97.790	0.067	0.017
-340.348	41.457	-0.142	-0.129
-339.333	51.733	0.123	0.118
-338.318	278.121	-0.160	0.285
-337.304	-11.548	-0.315	-0.208
-336.289	-85.127	-0.155	0.049
-335.275	-116.079	0.147	0.028
-334.260	-157.568	-0.422	-0.025
-333.245	20.299	-0.197	0.159
-332.231	-12.087	0.213	-0.140
-331.216	656.608	0.116	-0.300
-330.202	-66.683	0.232	-0.092
-329.187	-200.000	-0.031	0.377
-328.172	-26.180	0.133	-0.079
-327.158	122.891	0.114	-0.144
-326.143	282.127	-0.058	0.104
-325.129	502.748	0.120	0.279
-324.114	-122.803	0.550	0.089
-323.099	-176.769	-0.165	-0.004
-322.085	217.013	-0.139	-0.222
-321.070	-200.000	0.022	-0.293
-320.056	259.677	-0.090	-0.156
-319.041	-61.505	0.442	0.186
-318.026	-31.253	0.262	-0.148
-317.012	-31.449	-0.357	-0.201
-315.997	225.023	-0.155	0.252
-314.983	-42.475	0.351	0.179
-313.968	-18.555	0.290	0.182
-312.953	469.849	-0.186	0.419
-311.939	70.455	-0.113	0.117
-310.924	-140.474	0.111	-0.012
-309.910	25.655	0.150	0.125
-308.895	614.490	0.111	0.279
-307.880	-60.875	0.506	0.215
-306.866	-200.000	-0.052	-0.309
-305.851	2.471	-0.070	0.051
-304.837	182.761	0.102	-0.150
-303.822	162.687	0.057	0.080
-302.807	-75.425	-0.050	0.018
-301.793	-147.663	-0.065	-0.005
-300.778	-69.036	-0.173	-0.067
-299.764	-85.813	-0.332	0.103
-298.749	-138.675	-0.184	-0.020
-297.735	-200.000	-0.005	-0.326
-296.720	-200.000	0.009	-0.239
-295.705	-18.056	0.104	0.066
-294.691	-62.504	0.295	-0.123
-293.676	-193.670	0.231	0.002
-292.662	-21.498	-0.304	0.186
-291.647	800.000	-0.054	-0.182
-290.632	300.193	-0.170	0.314
-289.618	-63.324	-0.319	0.132
-288.603	-66.561	-0.167	0.066
-287.589	597.653	-0.005	0.013
-286.574	-24.245	0.233	0.139
-285.559	47.381	0.291	-0.271
-284.545	-200.000	-0.017	0.150
-283.530	-156.935	0.315	0.019
-282.516	212.327	0.091	0.143
-281.501	-143.390	0.303	-0.029
-280.486	-65.809	-0.213	0.085
-279.472	27.154	0.200	0.169
-278.457	-89.502	-0.186	-0.055
-277.443	800.000	0.126	0.390
-276.428	-108.287	0.102	0.022
-275.413	44.141	0.308	-0.283
-274.399	-155.737	0.592	0.038
-273.384	50.894	0.229	0.217
-272.370	-200.000	0.003	0.100
-271.355	609.947	0.123	-0.307
-270.340	105.848	0.250	-0.296
-269.326	283.052	-0.084	0.150
-268.311	204.496	-0.240	-0.373
-267.297	-73.157	0.234	-0.086
-266.282	-39.135	0.136	0.072
-265.267	-200.000	-0.005	0.221
-264.253	-49.848	-0.177	-0.084
-263.238	141.524	-0.058	0.077
-262.224	-157.385	-0.121	-0.007
-261.209	95.947	-0.178	-0.203
-260.195	8.823	-0.150	-0.113
-259.180	165.592	-0.115	-0.162
-258.165	359.280	0.104	0.209
-257.151	71.610	-0.137	-0.142
-256.136	-200.000	0.021	-0.229
-255.122	-81.152	-0.132	-0.044
-254.107	-32.282	-0.115	-0.064
-253.092	-162.704	0.054	-0.003
-252.078	109.647	-0.137	0.164
-251.063	503.862	0.043	0.100
-250.049	111.341	-0.104	0.126
-249.034	800.000	0.042	-0.158
-248.019	-58.310	0.359	0.156
-247.005	-200.000	0.004	0.439
-245.990	-32.230	-0.081	0.045
-244.976	-131.860	0.259	-0.034
-243.961	117.303	-0.129	-0.159
-242.946	234.304	-0.170	-0.280
-241.932	-11.787	-0.059	-0.039
-240.917	-200.000	0.032	-0.208
-239.903	189.267	-0.103	-0.155
-238.888	644.842	0.075	0.192
-237.873	22.604	-0.135	0.110
-236.859	-96.773	-0.204	0.054
-235.844	657.493	-0.098	0.251
-234.830	-171.536	0.225	0.007
-233.815	-75.373	-0.315	-0.112
-232.800	278.672	0.105	0.187
-231.786	-90.025	0.209	0.061
-230.771	115.866	-0.259	0.317
-229.757	-60.845	0.444	0.188
-228.742	274.926	0.256	0.453
-227.727	-145.770	-0.344	0.031
-226.713	-52.140	-0.276	-0.128
-225.698	82.305	-0.046	0.049
-224.684	-46.922	-0.107	-0.052
-223.669	93.743	-0.198	-0.224
-222.655	318.768	0.163	-0.309
-221.640	3.138	-0.359	0.260
-220.625	-200.000	-0.029	-0.163
-219.611	-66.250	0.032	-0.013
-218.596	800.000	0.011	0.039
-217.582	288.878	-0.022	0.040
-216.567	-13.956	-0.247	0.159
-215.552	534.399	-0.110	-0.262
-214.538	-9.377	0.285	-0.190
-213.523	114.330	-0.167	0.203
-212.509	800.000	0.025	0.108
-211.494	294.008	0.099	0.181
-210.479	-200.000	0.087	0.409
-209.465	-200.000	0.055	0.296
-208.450	-200.000	-0.088	-0.541
-207.436	-200.000	0.010	-0.110
-206.421	-143.039	0.181	-0.017
-205.406	-41.633	-0.301	-0.155
-204.392	183.253	0.102	-0.151
-203.377	-200.000	0.006	-0.193
-202.363	-109.830	0.124	-0.026
-201.348	28.786	-0.126	0.107
-200.333	-200.000	0.006	-0.200
-199.319	357.555	0.034	-0.068
-198.304	267.353	0.098	0.172
-197.290	-64.090	-0.170	0.069
-196.275	-80.469	0.108	0.036
-195.260	340.308	0.016	0.032
-194.246	-189.487	-0.067	0.001
-193.231	368.401	0.111	0.224
-192.217	-0.886	-0.255	-0.180
-191.202	-59.928	0.099	0.042
-190.187	-166.857	0.209	-0.009
-189.173	279.280	0.172	-0.306
-188.158	12.772	-0.199	-0.153
-187.144	-13.412	0.173	0.112
-186.129	493.083	0.100	0.230
-185.114	22.373	0.078	0.063
-184.100	-176.145	-0.185	-0.005
-183.085	-33.083	0.394	-0.218
-182.071	189.422	0.238	0.356
-181.056	-158.985	0.271	-0.015
-180.042	88.633	-0.248	0.275
-179.027	-146.663	0.243	0.021
-178.012	-152.983	0.398	-0.028
-176.998	-86.919	0.180	-0.055
-175.983	-200.000	0.026	-0.348
-174.969	164.468	-0.211	0.297
-173.954	79.114	-0.072	0.076
-172.939	-81.236	0.040	0.013
-171.925	-6.217	-0.153	0.104
-170.910	800.000	0.035	0.142
-169.896	-200.000	0.022	-0.201
-168.881	-200.000	0.043	-0.425
-167.866	-39.756	-0.186	-0.097
-166.852	-150.587	-0.093	0.007
-165.837	-39.251	-0.186	0.098
-164.823	-200.000	-0.036	-0.210
-163.808	-111.452	-0.286	0.058
-162.793	532.558	0.095	0.223
-161.779	119.401	-0.217	0.268
-160.764	44.414	0.195	0.179
-159.750	-200.000	0.032	0.240
-158.735	-66.950	0.224	0.088
-157.720	800.000	-0.058	0.229
-156.706	64.513	0.141	-0.141
-155.691	109.934	-0.244	-0.292
-154.677	82.613	0.145	0.157
-153.662	264.388	0.056	0.098
-152.647	468.911	0.057	-0.127
-151.633	-200.000	0.018	-0.312
-150.618	63.685	-0.140	-0.140
-149.604	800.000	-0.083	-0.238
-148.589	-150.663	0.109	0.008
-147.574	324.106	0.083	0.158
-146.560	57.899	0.111	-0.109
-145.545	50.548	-0.136	0.129
-144.531	717.208	0.095	0.250
-143.516	12.988	-0.135	-0.104
-142.502	-74.093	0.322	-0.116
-141.487	332.476	0.141	0.272
-140.472	53.477	0.108	0.103
-139.458	-200.000	-0.012	0.390
-138.443	233.299	0.121	0.198
-137.429	-82.187	-0.257	0.083
-136.414	800.000	-0.052	-0.158
-135.399	205.612	0.068	0.105
-134.385	15.499	0.065	0.051
-133.370	115.324	0.175	0.212
-132.356	-200.000	0.005	-0.087
-131.341	-125.612	0.379	0.057
-130.326	-96.308	-0.062	-0.016
-129.312	10.707	-0.142	0.108
-128.297	33.435	-0.267	0.231
-127.283	142.621	-0.190	0.252
-126.268	-200.000	0.068	0.364
-125.253	48.777	-0.092	0.086
-124.239	154.198	0.110	-0.150
-123.224	-47.269	-0.344	0.167
-122.210	-74.701	-0.069	-0.025
-121.195	-9.834	-0.184	0.122
-120.180	6.313	-0.175	-0.129
