DTS Sentinel unit serial number:	SN413079Multiplexer serial number:	ORYXHardware model number:	OX4-SRSoftware version number:	ORYX F/W v4.00 Oryx Data Collector v3.7.2.0data status	okinstallation	princeton_trtdifferential loss correction	single-endedforward channel	channel 3reverse channel	N/Adate	2019/09/16time	09:32:34forward acquisition time	60.00reverse acquisition time	0.00gamma	496.2192k internal	0.2321k external	0.2321temperature offset calibration	0.9955default loss term (dB/km)	0.3790temperature slope calibration	1.0000multiplexer offset coefficient	1.0000multiplexer slope coefficient	1.0000fibre end	0.00T internal ref (°C)	31.94T ext. ref 1 (°C)	12.22T ext. ref 2 (°C)	29.71length (m)	temperature (°C)	Stokes	anti-Stokes-747.200	-121.998	0.297	-0.049
-746.185	9.806	-0.228	0.175
-745.171	-170.417	0.097	0.003
-744.156	-144.089	-0.094	-0.009
-743.142	-200.000	0.032	-0.251
-742.127	-200.000	0.014	0.116
-741.112	689.013	0.036	0.095
-740.098	-200.000	-0.023	0.147
-739.083	-159.013	0.210	0.012
-738.069	-200.000	0.019	0.374
-737.054	-114.235	0.439	-0.086
-736.039	-94.847	0.027	0.007
-735.025	123.241	0.049	-0.062
-734.010	-42.526	-0.225	-0.116
-732.996	800.000	0.093	0.404
-731.981	288.407	0.067	-0.123
-730.966	-83.263	-0.313	-0.101
-729.952	362.039	-0.099	-0.200
-728.937	103.803	-0.086	0.102
-727.923	434.072	-0.160	-0.351
-726.908	-40.346	0.155	0.081
-725.894	800.000	-0.054	0.219
-724.879	-200.000	-0.019	0.167
-723.864	-200.000	-0.033	-0.274
-722.850	106.105	-0.122	0.146
-721.835	800.000	-0.060	-0.249
-720.821	-168.887	0.078	-0.003
-719.806	-79.023	0.073	0.025
-718.791	182.708	0.057	0.086
-717.777	39.364	0.153	-0.138
-716.762	685.360	0.020	-0.054
-715.748	-63.378	-0.169	0.070
-714.733	-200.000	-0.047	-0.481
-713.718	212.948	0.135	-0.215
-712.704	9.086	0.116	0.089
-711.689	227.358	-0.110	0.180
-710.675	331.678	0.078	0.151
-709.660	662.813	0.127	0.330
-708.645	13.519	-0.094	0.074
-707.631	-13.537	-0.155	0.101
-706.616	800.000	-0.067	-0.223
-705.602	-73.887	0.117	0.043
-704.587	48.879	0.206	-0.195
-703.572	18.592	-0.144	0.116
-702.558	56.105	0.149	-0.146
-701.543	800.000	0.110	0.362
-700.529	-109.552	0.221	-0.047
-699.514	102.440	0.250	0.295
-698.499	-81.784	-0.128	-0.042
-697.485	-94.072	-0.211	0.058
-696.470	-114.356	0.220	-0.043
-695.456	122.989	0.197	-0.249
-694.441	791.304	-0.081	-0.226
-693.426	-79.175	0.186	0.064
-692.412	-200.000	0.010	-0.100
-691.397	800.000	-0.046	0.128
-690.383	31.351	-0.134	-0.116
-689.368	242.101	-0.311	-0.524
-688.354	-12.964	-0.198	0.130
-687.339	195.038	-0.094	0.144
-686.324	-43.835	-0.110	0.056
-685.310	800.000	0.043	0.130
-684.295	60.450	0.128	-0.128
-683.281	-144.725	0.344	-0.032
-682.266	-69.831	-0.299	0.115
-681.251	-37.664	-0.104	-0.056
-680.237	-29.935	-0.150	-0.086
-679.222	633.613	-0.102	0.260
-678.208	-185.240	-0.265	-0.004
-677.193	-173.269	-0.305	0.009
-676.178	-90.582	-0.395	0.115
-675.164	158.243	0.157	-0.219
-674.149	-200.000	0.002	0.015
-673.135	29.465	0.440	0.377
-672.120	-77.304	-0.288	-0.101
-671.105	-1.287	0.140	-0.100
-670.091	-46.170	-0.210	-0.104
-669.076	234.681	-0.169	-0.281
-668.062	-100.497	-0.393	0.098
-667.047	800.000	-0.040	0.117
-666.032	-200.000	0.040	-0.433
-665.018	24.137	0.228	-0.190
-664.003	494.291	0.073	0.168
-662.989	101.369	-0.143	0.168
-661.974	800.000	-0.099	-0.303
-660.959	-75.474	0.140	0.050
-659.945	185.693	0.071	0.106
-658.930	447.474	-0.110	0.244
-657.916	26.607	-0.206	0.174
-656.901	8.589	-0.067	0.050
-655.886	586.202	0.095	-0.236
-654.872	-108.980	-0.097	-0.021
-653.857	227.392	-0.051	-0.083
-652.843	520.679	0.048	0.112
-651.828	105.808	-0.135	-0.161
-650.814	-106.940	-0.081	-0.018
-649.799	35.296	-0.158	0.140
-648.784	-200.000	-0.024	0.123
-647.770	-200.000	-0.039	0.285
-646.755	361.589	0.078	0.158
-645.741	800.000	0.070	-0.203
-644.726	-170.344	-0.180	-0.006
-643.711	-6.442	-0.121	0.083
-642.697	-178.503	0.063	-0.001
-641.682	104.487	-0.114	0.135
-640.668	231.524	-0.106	-0.174
-639.653	-54.910	0.083	0.038
-638.638	62.790	0.118	0.119
-637.624	800.000	0.017	-0.063
-636.609	-200.000	-0.021	-0.228
-635.595	-200.000	0.031	-0.255
-634.580	43.177	-0.214	0.197
-633.565	-66.623	-0.282	0.113
-632.551	-200.000	0.032	0.333
-631.536	481.581	-0.042	0.096
-630.522	-200.000	-0.035	-0.236
-629.507	-135.360	0.179	0.022
-628.492	499.676	-0.056	-0.130
-627.478	157.257	-0.050	-0.069
-626.463	246.754	0.180	-0.306
-625.449	800.000	-0.122	-0.408
-624.434	-56.256	-0.230	-0.103
-623.419	-26.256	-0.032	0.019
-622.405	-200.000	0.074	0.376
-621.390	-16.376	-0.246	0.157
-620.376	800.000	-0.047	-0.177
-619.361	-120.070	0.312	0.054
-618.346	21.918	-0.184	-0.150
-617.332	27.966	-0.311	0.264
-616.317	494.414	-0.131	-0.304
-615.303	-62.105	-0.305	-0.128
-614.288	-136.933	0.007	-0.001
-613.273	-167.095	0.131	0.005
-612.259	-156.291	0.216	-0.014
-611.244	647.469	0.114	-0.294
-610.230	-200.000	-0.003	0.350
-609.215	353.073	0.015	0.031
-608.201	234.795	-0.018	0.029
-607.186	-132.653	0.206	0.027
-606.171	349.011	0.246	0.488
-605.157	-158.955	-0.273	0.016
-604.142	12.392	-0.482	-0.374
-603.128	17.547	-0.207	-0.165
-602.113	-123.107	0.201	0.032
-601.098	-41.032	-0.158	-0.082
-600.084	-200.000	0.037	0.252
-599.069	-124.916	-0.119	0.018
-598.055	84.267	0.038	0.042
-597.040	-45.409	0.427	0.213
-596.025	34.030	-0.251	-0.220
-595.011	800.000	-0.101	-0.291
-593.996	-69.870	0.297	0.114
-592.982	-154.730	0.338	-0.023
-591.967	163.723	-0.062	0.088
-590.952	-36.898	0.167	0.090
-589.938	800.000	0.029	-0.084
-588.923	98.095	0.049	0.057
-587.909	800.000	0.083	0.354
-586.894	360.934	0.144	0.290
-585.879	749.742	0.034	0.093
-584.865	390.681	0.097	0.203
-583.850	-200.000	-0.048	-0.399
-582.836	-117.894	-0.228	-0.041
-581.821	-55.393	-0.221	-0.100
-580.806	4.993	0.137	0.101
-579.792	800.000	0.039	0.158
-578.777	-200.000	0.009	-0.213
-577.763	800.000	0.022	-0.074
-576.748	-200.000	0.035	0.263
-575.733	800.000	-0.049	0.145
-574.719	-78.142	0.330	0.114
-573.704	-127.969	0.251	-0.036
-572.690	-97.338	0.268	0.070
-571.675	34.063	-0.088	-0.077
-570.661	-200.000	-0.042	-0.294
-569.646	74.508	-0.124	0.131
-568.631	-74.375	0.217	0.079
-567.617	-200.000	-0.030	-0.210
-566.602	70.400	0.192	-0.199
-565.588	159.479	0.156	0.217
-564.573	-29.765	-0.232	-0.133
-563.558	372.816	-0.108	0.220
-562.544	628.818	0.057	-0.145
-561.529	384.318	-0.062	0.128
-560.515	61.838	0.228	-0.228
-559.500	-173.886	-0.216	0.006
-558.485	-83.769	0.127	0.041
-557.471	-16.429	0.169	-0.108
-556.456	194.822	-0.214	0.326
-555.442	-84.690	-0.174	-0.055
-554.427	700.265	0.098	-0.259
-553.412	26.726	-0.146	-0.123
-552.398	29.801	-0.037	-0.032
-551.383	170.531	-0.124	0.178
-550.369	544.329	-0.047	-0.114
-549.354	-61.758	-0.205	-0.086
-548.339	-76.051	-0.287	-0.102
-547.325	23.174	-0.101	-0.083
-546.310	-200.000	0.113	-0.547
-545.296	-101.403	-0.489	-0.120
-544.281	-9.589	0.339	0.226
-543.266	-150.892	-0.086	-0.006
-542.252	-64.232	-0.112	0.046
-541.237	-165.825	0.128	0.006
-540.223	-110.588	0.326	-0.068
-539.208	234.721	-0.042	-0.070
-538.193	217.281	-0.152	-0.243
-537.179	-179.393	0.384	0.008
-536.164	95.354	0.252	-0.288
-535.150	159.118	-0.214	0.298
-534.135	193.914	0.138	-0.209
-533.121	226.014	0.150	0.243
-532.106	-103.360	0.309	0.073
-531.091	98.758	0.266	-0.308
-530.077	-138.394	-0.297	0.033
-529.062	-200.000	-0.001	-0.102
-528.048	33.518	-0.106	0.093
-527.033	92.829	-0.081	0.091
-526.018	-89.933	0.043	-0.013
-525.004	75.949	0.092	-0.098
-523.989	128.944	0.087	0.112
-522.975	638.212	0.051	0.130
-521.960	-40.764	-0.211	0.110
-520.945	-200.000	-0.025	-0.213
-519.931	-6.307	0.275	-0.188
-518.916	-66.959	-0.109	-0.043
-517.902	269.131	-0.199	-0.350
-516.887	-60.586	0.098	0.042
-515.872	46.775	-0.081	-0.075
-514.858	-53.422	0.157	0.072
-513.843	-200.000	0.011	0.125
-512.829	-200.000	0.001	0.165
-511.814	-138.946	0.097	-0.011
-510.799	-200.000	0.056	-0.305
-509.785	671.704	-0.112	-0.292
-508.770	800.000	0.060	-0.205
-507.756	-95.967	0.084	0.022
-506.741	-158.326	-0.165	-0.010
-505.726	-126.680	-0.124	0.018
-504.712	-200.000	0.063	-0.382
-503.697	-103.545	0.147	-0.035
-502.683	-3.272	0.056	-0.039
-501.668	-59.884	0.081	-0.035
-500.653	-200.000	-0.001	-0.015
-499.639	800.000	0.070	-0.292
-498.624	224.116	0.168	-0.271
-497.610	-200.000	0.039	0.320
-496.595	-200.000	0.008	0.182
-495.581	193.058	0.046	0.070
-494.566	-196.826	0.071	0.000
-493.551	-90.400	0.250	-0.073
-492.537	-76.551	0.283	-0.099
-491.522	152.631	-0.119	-0.162
-490.508	-150.259	-0.199	-0.015
-489.493	-200.000	0.020	-0.265
-488.478	-149.490	0.639	-0.051
-487.464	540.287	-0.022	-0.052
-486.449	284.638	0.070	-0.127
-485.435	380.071	-0.123	-0.252
-484.420	70.934	0.165	0.171
-483.405	-41.979	0.164	-0.084
-482.391	64.412	0.410	-0.413
-481.376	117.026	-0.404	-0.497
-480.362	800.000	0.100	0.332
-479.347	42.621	0.188	0.171
-478.332	-200.000	-0.015	0.148
-477.318	252.912	-0.047	-0.081
-476.303	-39.710	-0.202	-0.106
-475.289	-81.621	0.293	-0.096
-474.274	800.000	0.101	-0.330
-473.259	208.924	0.079	-0.124
-472.245	-32.825	0.084	-0.047
-471.230	100.844	0.150	0.175
-470.216	121.642	0.016	-0.020
-469.201	-168.375	-0.235	-0.009
-468.186	-69.925	-0.145	-0.055
-467.172	-153.461	-0.175	-0.012
-466.157	193.791	0.128	-0.194
-465.143	-157.508	-0.215	-0.013
-464.128	172.158	-0.098	-0.141
-463.113	-200.000	0.057	-0.396
-462.099	236.148	0.083	0.138
-461.084	288.274	-0.149	-0.269
-460.070	675.020	0.108	0.281
-459.055	-52.339	-0.268	-0.124
-458.040	114.524	0.209	-0.255
-457.026	-71.153	-0.194	0.073
-456.011	135.482	-0.136	0.176
-454.997	45.485	0.269	0.249
-453.982	437.231	-0.078	-0.170
-452.968	90.484	0.151	0.169
-451.953	286.887	-0.052	0.095
-450.938	157.378	-0.093	-0.128
-449.924	268.774	0.113	0.198
-448.909	-7.643	0.046	-0.031
-447.895	88.156	0.149	-0.165
-446.880	-39.830	0.289	-0.151
-445.865	43.860	-0.122	-0.111
-444.851	-45.508	0.298	0.148
-443.836	243.177	0.126	-0.211
-442.822	-200.000	-0.022	-0.103
-441.807	-60.606	0.275	0.117
-440.792	66.062	0.094	-0.096
-439.778	56.336	-0.135	-0.131
-438.763	-12.593	-0.292	0.191
-437.749	-200.000	-0.015	-0.385
-436.734	-56.461	-0.108	-0.048
-435.719	274.109	-0.079	-0.140
-434.705	-38.059	0.420	-0.222
-433.690	-92.420	-0.262	0.074
-432.676	800.000	0.049	0.184
-431.661	58.301	-0.496	-0.485
-430.646	-121.133	-0.169	-0.028
-429.632	-99.378	-0.159	0.040
-428.617	450.838	-0.157	0.346
-427.603	-158.381	-0.179	-0.010
-426.588	-145.795	-0.153	-0.014
-425.573	52.644	0.182	-0.174
-424.559	391.690	-0.007	0.015
-423.544	-16.914	-0.309	0.195
-422.530	628.090	-0.052	0.131
-421.515	-9.486	0.130	-0.087
-420.500	-132.333	-0.049	0.006
-419.486	-55.323	0.172	-0.077
-418.471	152.493	0.065	0.088
-417.457	-200.000	-0.032	-0.352
-416.442	74.681	-0.191	0.200
-415.428	-121.416	-0.118	-0.020
-414.413	-195.529	0.567	-0.004
-413.398	164.793	0.190	0.267
-412.384	33.206	0.061	-0.053
-411.369	79.894	0.061	0.065
-410.355	323.030	-0.020	0.039
-409.340	800.000	-0.085	-0.321
-408.325	-117.886	-0.311	-0.056
-407.311	215.668	0.108	-0.171
-406.296	506.748	0.043	-0.099
-405.282	-200.000	-0.013	-0.193
-404.267	72.765	0.150	-0.156
-403.252	-106.587	-0.246	-0.055
-402.238	-50.005	0.099	0.047
-401.223	187.891	0.079	-0.117
-400.209	175.843	-0.107	0.155
-399.194	800.000	0.048	-0.157
-398.179	170.851	0.272	0.389
-397.165	80.646	0.112	-0.120
-396.150	-200.000	0.021	0.211
-395.136	585.043	-0.096	0.236
-394.121	16.844	-0.092	-0.073
-393.106	320.413	0.029	0.055
-392.092	-200.000	0.031	-0.163
-391.077	412.369	-0.056	-0.119
-390.063	75.760	-0.034	0.036
-389.048	-18.816	0.049	-0.031
-388.033	-93.024	-0.141	0.039
-387.019	-125.766	-0.217	-0.033
-386.004	-149.700	0.144	0.011
-384.990	76.365	0.240	0.253
-383.975	13.074	-0.305	-0.236
-382.960	146.700	0.100	0.134
-381.946	356.684	-0.091	-0.182
-380.931	-78.840	-0.256	0.087
-379.917	-123.543	0.307	0.049
-378.902	705.863	-0.071	-0.187
-377.888	-157.562	-0.246	-0.015
-376.873	163.172	-0.111	-0.156
-375.858	41.174	0.185	-0.167
-374.844	121.047	0.059	0.073
-373.829	-37.127	-0.192	0.102
-372.815	59.491	-0.102	0.100
-371.800	150.122	0.107	-0.145
-370.785	-200.000	-0.023	0.276
-369.771	-200.000	-0.054	0.307
-368.756	-137.240	0.186	-0.021
-367.742	-158.846	-0.159	-0.009
-366.727	-78.771	0.144	-0.049
-365.712	22.664	0.193	-0.157
-364.698	-88.457	-0.387	0.115
-363.683	150.648	0.146	0.198
-362.669	-200.000	0.054	-0.301
-361.654	120.291	-0.121	-0.149
-360.639	-138.876	-0.263	0.028
-359.625	-171.198	0.221	0.007
-358.610	164.024	-0.134	0.189
-357.596	119.389	-0.160	0.197
-356.581	-114.539	-0.101	0.019
-355.566	-200.000	0.085	0.417
-354.552	-200.000	-0.025	0.152
-353.537	205.965	0.025	0.038
-352.523	234.286	-0.058	0.096
-351.508	272.676	-0.086	0.152
-350.493	800.000	-0.051	-0.177
-349.479	322.733	-0.170	0.322
-348.464	15.635	-0.204	-0.160
-347.450	800.000	0.100	0.293
-346.435	-139.423	-0.301	0.032
-345.420	-200.000	0.064	0.327
-344.406	115.290	-0.115	0.139
-343.391	-59.672	0.426	-0.182
-342.377	52.901	0.134	0.127
-341.362	151.064	-0.130	0.176
-340.348	-200.000	0.024	0.172
-339.333	19.834	-0.083	0.067
-338.318	169.962	-0.178	0.254
-337.304	454.857	-0.113	0.250
-336.289	-1.823	0.091	-0.064
-335.275	-32.430	-0.244	-0.135
-334.260	228.774	0.218	-0.353
-333.245	37.111	-0.021	0.018
-332.231	-117.483	0.160	0.029
-331.216	100.634	-0.173	0.200
-330.202	-200.000	-0.029	-0.231
-329.187	349.087	0.103	-0.202
-328.172	800.000	0.070	0.246
-327.158	24.253	0.179	0.147
-326.143	21.736	0.119	0.096
-325.129	-120.163	-0.088	-0.015
-324.114	-162.374	-0.139	0.007
-323.099	-105.782	-0.119	0.027
-322.085	-81.521	-0.219	-0.072
-321.070	-161.392	0.037	-0.002
-320.056	59.777	0.170	0.167
-319.041	-168.650	-0.413	0.016
-318.026	-25.358	0.287	0.169
-317.012	8.820	0.170	-0.127
-315.997	125.986	-0.128	0.161
-314.983	150.379	0.197	0.265
-313.968	-200.000	-0.032	-0.353
-312.953	153.224	-0.101	-0.138
-311.939	-33.739	-0.128	0.070
-310.924	97.199	0.072	0.082
-309.910	184.353	-0.185	-0.273
-308.895	43.459	0.211	0.192
-307.880	-0.183	-0.129	0.091
-306.866	800.000	-0.033	0.133
-305.851	239.145	-0.085	-0.141
-304.837	-200.000	-0.016	0.164
-303.822	49.931	0.102	0.096
-302.807	757.626	-0.116	0.313
-301.793	-200.000	0.012	-0.087
-300.778	800.000	0.167	-0.519
-299.764	-188.249	-0.375	-0.005
-298.749	-18.068	-0.504	-0.314
-297.735	29.297	-0.151	-0.127
-296.720	-106.004	-0.133	0.030
-295.705	-105.831	-0.499	0.112
-294.691	-15.689	-0.097	-0.062
-293.676	42.380	0.100	-0.091
-292.662	128.779	-0.129	0.164
-291.647	72.034	-0.193	0.199
-290.632	-85.414	0.518	0.160
-289.618	30.455	0.108	-0.091
-288.603	-155.181	0.199	-0.013
-287.589	-200.000	0.024	0.121
-286.574	-118.296	-0.202	-0.036
-285.559	85.575	-0.070	0.076
-284.545	-200.000	-0.040	0.279
-283.530	621.489	0.141	0.353
-282.516	800.000	0.111	0.466
-281.501	288.862	0.179	0.322
-280.486	-65.918	0.142	0.056
-279.472	483.922	-0.077	0.174
-278.457	-200.000	-0.013	-0.231
-277.443	-62.404	0.127	-0.052
-276.428	-200.000	0.001	-0.096
-275.413	-25.781	0.217	-0.127
-274.399	-200.000	-0.002	-0.146
-273.384	202.237	0.095	0.145
-272.370	37.606	-0.219	-0.192
-271.355	131.981	0.292	0.373
-270.340	-86.119	-0.105	0.032
-269.326	318.803	0.131	0.247
-268.311	800.000	-0.093	-0.263
-267.297	-200.000	-0.019	-0.221
-266.282	225.720	0.108	-0.174
-265.267	-200.000	0.009	0.287
-264.253	-178.897	0.053	-0.001
-263.238	-5.766	0.040	-0.027
-262.224	35.574	-0.081	0.071
-261.209	2.231	0.155	0.111
-260.195	-11.726	-0.114	-0.074
-259.180	387.951	0.132	0.271
-258.165	261.914	-0.097	0.167
-257.151	-41.155	-0.281	0.144
-256.136	-158.128	-0.319	0.019
-255.122	-87.755	0.214	0.064
-254.107	-96.064	0.300	-0.079
-253.092	417.591	0.111	-0.235
-252.078	0.422	0.086	0.061
-251.063	616.127	0.073	-0.181
-250.049	-114.770	0.333	-0.063
-249.034	-38.763	0.080	0.042
-248.019	85.743	-0.079	-0.087
-247.005	-151.813	0.065	-0.005
-245.990	-200.000	-0.007	0.200
-244.976	-50.730	-0.145	0.068
-243.961	67.698	-0.175	-0.177
-242.946	-140.144	0.312	-0.032
-241.932	-12.845	-0.174	0.112
-240.917	-23.926	0.191	0.113
-239.903	-31.043	0.061	0.034
-238.888	-200.000	-0.029	0.171
-237.873	800.000	-0.011	0.044
-236.859	800.000	0.054	-0.196
-235.844	115.856	-0.113	0.136
-234.830	-200.000	0.030	0.208
-233.815	-200.000	0.005	-0.108
-232.800	-107.541	-0.214	0.046
-231.786	-53.681	0.019	-0.009
-230.771	-3.549	-0.204	-0.141
-229.757	-200.000	0.042	-0.211
-228.742	-200.000	-0.011	-0.179
-227.727	-62.000	-0.046	0.019
-226.713	-132.002	0.170	-0.022
-225.698	-200.000	0.022	-0.126
-224.684	-200.000	0.068	0.495
-223.669	39.352	-0.136	-0.121
-222.655	391.217	0.119	0.244
-221.640	-200.000	-0.022	0.320
-220.625	165.567	0.097	0.136
-219.611	-82.451	0.170	0.055
-218.596	62.915	-0.112	-0.111
-217.582	-200.000	0.018	-0.118
-216.567	-9.279	-0.105	-0.069
-215.552	11.383	-0.099	-0.075
-214.538	467.576	0.027	-0.059
-213.523	-58.567	-0.012	-0.005
-212.509	-11.519	0.173	0.112
-211.494	-115.891	-0.364	0.067
-210.479	800.000	-0.068	0.192
-209.465	-124.860	0.220	0.034
-208.450	20.005	0.267	-0.213
-207.436	197.013	-0.169	0.255
-206.421	14.494	0.224	0.173
-205.406	23.452	0.067	-0.055
-204.392	-49.913	-0.154	0.073
-203.377	-20.895	-0.173	0.105
-202.363	57.810	-0.124	-0.121
-201.348	-112.538	-0.166	0.033
-200.333	-65.978	-0.420	0.166
-199.319	99.438	0.207	0.237
-198.304	122.599	0.251	0.310
-197.290	-148.756	-0.373	-0.030
-196.275	800.000	0.028	0.119
-195.260	80.600	0.040	-0.042
-194.246	243.522	0.233	-0.387
-193.231	800.000	0.025	0.077
-192.217	34.099	0.166	0.143
-191.202	524.099	-0.146	-0.340
-190.187	800.000	0.020	0.081
-189.173	174.739	-0.030	0.043
-188.158	622.181	-0.028	-0.068
-187.144	-43.020	0.335	-0.168
-186.129	-200.000	0.017	0.429
-185.114	-200.000	0.030	0.154
-184.100	-31.046	-0.222	-0.124
-183.085	-178.855	-0.204	-0.005
-182.071	-98.587	-0.048	0.012
-181.056	-200.000	-0.011	0.092
-180.042	159.680	0.185	-0.254
-179.027	230.605	-0.056	-0.091
-178.012	55.061	-0.171	-0.164
-176.998	120.161	0.090	0.110
-175.983	800.000	-0.065	0.195
-174.969	800.000	0.071	-0.299
-173.954	574.421	-0.067	-0.162
-172.939	800.000	-0.105	-0.292
-171.925	-15.589	-0.213	0.134
-170.910	123.417	0.144	-0.179
-169.896	-10.005	0.122	0.080
-168.881	800.000	0.104	0.427
-167.866	-200.000	-0.034	-0.463
-166.852	3.668	0.220	-0.159
-165.837	69.275	-0.104	0.106
-164.823	488.214	0.015	0.033
-163.808	800.000	0.082	0.343
-162.793	800.000	0.104	0.363
-161.779	-125.987	-0.091	0.014
-160.764	5.990	-0.094	-0.069
-159.750	-200.000	0.077	-0.359
-158.735	-47.083	-0.243	0.117
-157.720	-86.121	0.438	0.133
-156.706	126.962	0.209	0.262
-155.691	111.312	0.094	0.112
-154.677	-34.307	-0.420	0.228
-153.662	-200.000	-0.041	-0.234
-152.647	-87.265	0.061	0.018
-151.633	-200.000	-0.013	-0.118
-150.618	-141.741	0.292	-0.029
-149.604	800.000	0.062	0.209
-148.589	-25.121	-0.264	0.154
-147.574	106.048	0.206	-0.241
-146.560	681.388	0.060	0.153
-145.545	-200.000	0.073	0.461
-144.531	-200.000	-0.046	-0.257
-143.516	-98.034	0.429	-0.109
-142.502	-115.786	0.195	0.036
-141.487	50.203	0.137	0.128
-140.472	-64.495	-0.234	0.094
-139.458	245.257	-0.034	-0.056
-138.443	-200.000	0.049	0.223
-137.429	-200.000	0.009	-0.146
-136.414	213.389	-0.136	-0.212
-135.399	-153.310	0.110	0.008
-134.385	19.524	0.150	0.119
-133.370	188.474	-0.033	-0.049
-132.356	195.465	-0.129	0.193
-131.341	31.113	-0.059	0.050
-130.326	11.955	-0.235	-0.178
-129.312	-81.622	0.113	-0.037
-128.297	-200.000	-0.055	-0.291
-127.283	-200.000	-0.042	-0.606
-126.268	800.000	0.078	-0.285
-125.253	55.882	-0.284	-0.272
-124.239	206.360	-0.078	0.120
-123.224	800.000	-0.045	0.156
-122.210	-169.285	0.298	0.011
-121.195	-56.741	0.234	-0.102
