DTS Sentinel unit serial number:	SN413079Multiplexer serial number:	ORYXHardware model number:	OX4-SRSoftware version number:	ORYX F/W v4.00 Oryx Data Collector v3.7.2.0data status	okinstallation	princeton_trtdifferential loss correction	single-endedforward channel	channel 3reverse channel	N/Adate	2019/09/17time	05:28:34forward acquisition time	60.00reverse acquisition time	0.00gamma	496.2192k internal	0.2325k external	0.2325temperature offset calibration	0.9942default loss term (dB/km)	0.3790temperature slope calibration	1.0000multiplexer offset coefficient	1.0000multiplexer slope coefficient	1.0000fibre end	0.00T internal ref (°C)	29.25T ext. ref 1 (°C)	0.14T ext. ref 2 (°C)	23.28length (m)	temperature (°C)	Stokes	anti-Stokes-747.200	76.995	-0.255	0.273
-746.185	800.000	-0.073	0.278
-745.171	293.673	0.019	0.035
-744.156	52.491	-0.185	-0.178
-743.142	2.758	-0.193	0.141
-742.127	38.472	0.179	0.161
-741.112	20.897	-0.066	-0.054
-740.098	-200.000	-0.025	0.410
-739.083	94.899	-0.184	-0.211
-738.069	565.620	0.057	0.139
-737.054	-112.232	0.188	-0.038
-736.039	-92.666	-0.439	0.124
-735.025	-200.000	-0.036	0.475
-734.010	-112.076	-0.266	0.054
-732.996	82.507	0.183	-0.201
-731.981	85.864	0.230	0.255
-730.966	430.533	-0.037	0.081
-729.952	-94.592	-0.280	-0.077
-728.937	634.561	-0.070	-0.178
-727.923	-161.837	-0.283	-0.014
-726.908	-200.000	0.026	-0.233
-725.894	280.532	-0.084	-0.152
-724.879	-133.523	-0.340	0.043
-723.864	-200.000	0.013	-0.086
-722.850	-200.000	-0.021	-0.232
-721.835	-28.148	0.113	-0.066
-720.821	200.064	-0.161	-0.250
-719.806	14.250	-0.167	0.131
-718.791	800.000	-0.054	0.186
-717.777	-130.303	-0.437	0.060
-716.762	10.575	-0.134	-0.103
-715.748	48.348	-0.249	-0.235
-714.733	658.074	0.074	-0.191
-713.718	118.551	0.248	0.308
-712.704	-200.000	0.024	0.182
-711.689	-92.358	0.118	0.034
-710.675	116.404	-0.150	0.185
-709.660	4.989	0.154	-0.114
-708.645	800.000	-0.048	-0.168
-707.631	23.693	0.257	-0.213
-706.616	-86.061	0.068	0.021
-705.602	-118.442	0.105	-0.019
-704.587	-146.978	-0.470	0.041
-703.572	-115.376	0.194	0.037
-702.558	-44.034	-0.177	0.090
-701.543	28.852	0.223	-0.190
-700.529	337.215	0.095	-0.186
-699.514	-159.631	0.405	0.023
-698.499	-38.978	0.035	-0.019
-697.485	-200.000	0.051	0.318
-696.470	-61.822	0.147	-0.062
-695.456	-23.187	0.090	0.055
-694.441	-70.202	-0.244	-0.093
-693.426	324.726	0.160	-0.308
-692.412	116.533	-0.065	0.080
-691.397	-11.509	-0.058	0.039
-690.383	-55.052	-0.332	0.151
-689.368	465.735	-0.167	-0.376
-688.354	-110.132	-0.215	0.045
-687.339	186.930	-0.113	-0.170
-686.324	-118.465	-0.129	-0.023
-685.310	97.583	-0.078	-0.090
-684.295	-200.000	0.026	0.183
-683.281	-200.000	-0.049	-0.224
-682.266	-126.712	-0.218	-0.032
-681.251	-30.757	0.260	-0.148
-680.237	466.857	0.012	0.026
-679.222	-21.193	-0.319	0.196
-678.208	36.373	-0.140	0.125
-677.193	-200.000	0.104	-0.507
-676.178	247.196	0.148	0.252
-675.164	800.000	-0.078	-0.339
-674.149	314.684	0.119	0.226
-673.135	800.000	-0.062	-0.192
-672.120	-129.704	-0.339	-0.047
-671.105	-200.000	0.022	0.235
-670.091	-19.465	-0.120	0.075
-669.076	-90.389	0.285	0.083
-668.062	-33.576	-0.138	0.077
-667.047	800.000	-0.125	-0.471
-666.032	-187.433	0.188	0.003
-665.018	-114.221	0.453	0.088
-664.003	-200.000	-0.005	0.187
-662.989	800.000	0.131	0.462
-661.974	-200.000	0.042	0.225
-660.959	-200.000	-0.014	0.342
-659.945	-74.972	0.091	0.033
-658.930	29.698	0.108	-0.093
-657.916	26.920	0.169	-0.142
-656.901	-181.754	0.219	-0.004
-655.886	-30.088	-0.253	0.145
-654.872	97.484	-0.157	-0.182
-653.857	225.711	-0.193	-0.315
-652.843	-200.000	0.017	0.198
-651.828	-84.161	0.327	0.104
-650.814	-90.784	0.165	-0.048
-649.799	800.000	-0.094	-0.288
-648.784	-124.297	0.241	0.038
-647.770	-105.091	-0.255	0.059
-646.755	-154.190	0.267	0.018
-645.741	271.941	-0.196	0.347
-644.726	-88.504	-0.208	0.062
-643.711	-200.000	-0.043	0.194
-642.697	-17.503	0.068	0.043
-641.682	63.415	0.193	0.195
-640.668	800.000	0.063	-0.203
-639.653	-61.654	0.184	0.077
-638.638	-200.000	0.010	0.064
-637.624	221.825	0.186	0.300
-636.609	-20.542	-0.172	0.106
-635.595	173.051	0.043	0.063
-634.580	-130.876	-0.132	0.018
-633.565	-200.000	-0.033	0.326
-632.551	-75.269	0.050	0.018
-631.536	-3.565	0.066	-0.046
-630.522	59.456	0.048	-0.047
-629.507	-13.502	-0.418	0.272
-628.492	-58.224	-0.139	0.061
-627.478	-161.164	-0.427	-0.022
-626.463	-200.000	-0.015	-0.242
-625.449	-47.808	-0.109	-0.053
-624.434	125.909	-0.207	0.262
-623.419	800.000	0.004	-0.013
-622.405	800.000	-0.036	0.155
-621.390	769.576	0.065	0.179
-620.376	260.570	0.109	0.190
-619.361	342.865	-0.048	0.094
-618.346	72.879	-0.113	0.119
-617.332	-67.915	0.270	-0.106
-616.317	64.238	-0.058	0.058
-615.303	-30.324	0.201	-0.114
-614.288	39.723	0.273	-0.246
-613.273	-73.127	0.075	0.028
-612.259	-16.805	0.215	0.136
-611.244	-60.471	0.042	-0.018
-610.230	-200.000	0.036	0.232
-609.215	97.173	0.030	0.034
-608.201	800.000	0.050	0.160
-607.186	-105.903	0.180	-0.041
-606.171	20.300	0.122	0.099
-605.157	-83.551	0.618	-0.198
-604.142	85.448	0.132	-0.145
-603.128	-117.378	-0.183	-0.033
-602.113	-58.471	0.016	0.007
-601.098	800.000	-0.041	-0.169
-600.084	-67.574	-0.266	-0.105
-599.069	-120.168	0.446	-0.077
-598.055	-100.172	0.195	0.049
-597.040	78.233	-0.095	0.102
-596.025	-200.000	0.017	0.129
-595.011	-114.816	-0.265	-0.051
-593.996	-106.928	-0.219	0.049
-592.982	248.029	-0.051	0.087
-591.967	313.375	-0.151	0.285
-590.952	-61.400	-0.156	0.066
-589.938	127.923	-0.096	-0.122
-588.923	5.288	0.087	-0.065
-587.909	-200.000	-0.009	0.181
-586.894	292.861	-0.070	0.128
-585.879	-200.000	0.025	-0.211
-584.865	-200.000	0.004	0.071
-583.850	800.000	0.019	0.070
-582.836	-42.315	0.089	-0.046
-581.821	800.000	-0.136	0.455
-580.806	187.458	-0.189	0.283
-579.792	-112.100	-0.209	0.042
-578.777	-49.895	-0.136	0.065
-577.763	-200.000	0.001	0.129
-576.748	-39.057	-0.186	0.098
-575.733	74.279	0.047	-0.050
-574.719	-10.296	-0.112	0.075
-573.704	342.895	-0.107	-0.209
-572.690	800.000	0.039	-0.147
-571.675	497.436	0.073	-0.169
-570.661	800.000	-0.036	0.139
-569.646	-115.803	-0.124	-0.023
-568.631	-57.782	0.062	0.027
-567.617	800.000	0.047	0.157
-566.602	800.000	-0.071	-0.265
-565.588	-6.082	0.168	0.115
-564.573	-62.029	-0.091	-0.038
-563.558	-53.487	0.129	0.059
-562.544	158.346	0.102	0.142
-561.529	-77.189	0.098	-0.034
-560.515	800.000	0.069	-0.291
-559.500	415.477	-0.203	0.433
-558.485	-50.609	0.320	-0.151
-557.471	81.591	-0.272	0.294
-556.456	374.874	0.083	-0.170
-555.442	-120.604	0.055	0.009
-554.427	-45.677	0.283	-0.140
-553.412	356.383	-0.089	-0.178
-552.398	-200.000	0.011	0.140
-551.383	-42.998	0.215	-0.109
-550.369	126.120	0.010	-0.012
-549.354	-87.884	-0.138	-0.042
-548.339	70.041	0.060	0.062
-547.325	-110.857	-0.266	-0.055
-546.310	-50.832	-0.200	-0.094
-545.296	-200.000	0.048	-0.270
-544.281	-200.000	-0.007	0.211
-543.266	-167.921	-0.356	0.014
-542.252	-200.000	-0.054	0.290
-541.237	15.559	0.149	0.117
-540.223	17.381	-0.072	-0.057
-539.208	727.919	-0.071	0.190
-538.193	-132.893	0.413	0.053
-537.179	-65.993	0.462	0.185
-536.164	800.000	-0.098	0.325
-535.150	114.276	0.075	0.092
-534.135	800.000	-0.037	0.129
-533.121	-74.973	0.126	-0.045
-532.106	44.922	-0.084	-0.077
-531.091	108.765	-0.116	-0.139
-530.077	16.959	-0.075	0.060
-529.062	-11.645	-0.033	0.022
-528.048	114.106	0.160	0.195
-527.033	390.207	-0.045	0.094
-526.018	-142.086	-0.291	0.029
-525.004	60.032	0.158	-0.157
-523.989	-110.586	-0.277	-0.057
-522.975	663.947	0.104	-0.269
-521.960	-200.000	-0.068	-0.393
-520.945	-103.123	-0.181	-0.043
-519.931	-200.000	-0.051	0.468
-518.916	-127.701	-0.292	0.042
-517.902	-181.027	-0.355	0.007
-516.887	520.567	-0.065	0.152
-515.872	71.301	0.159	-0.165
-514.858	-99.925	-0.112	0.028
-513.843	656.224	-0.091	-0.233
-512.829	-200.000	0.008	0.198
-511.814	177.279	-0.205	-0.299
-510.799	575.275	-0.058	-0.141
-509.785	-39.384	-0.320	-0.168
-508.770	383.773	0.147	0.303
-507.756	-90.636	0.115	0.033
-506.741	-152.379	-0.181	-0.013
-505.726	-10.931	0.077	-0.051
-504.712	149.397	0.122	-0.165
-503.697	99.493	-0.091	0.105
-502.683	-200.000	-0.001	0.142
-501.668	-55.042	-0.013	-0.006
-500.653	-84.461	0.143	-0.045
-499.639	-156.731	0.156	-0.010
-498.624	800.000	0.045	-0.128
-497.610	-200.000	0.002	-0.038
-496.595	-79.820	-0.282	-0.095
-495.581	623.484	0.069	-0.174
-494.566	-28.269	-0.404	0.233
-493.551	268.246	-0.077	0.135
-492.537	102.329	0.048	0.056
-491.522	800.000	-0.045	0.129
-490.508	800.000	-0.037	0.146
-489.493	-200.000	-0.013	-0.117
-488.478	-200.000	0.087	-0.415
-487.464	343.193	-0.092	0.181
-486.449	383.006	-0.144	0.295
-485.435	77.114	0.206	-0.219
-484.420	183.060	-0.179	-0.264
-483.405	-200.000	0.052	-0.260
-482.391	170.514	0.144	-0.207
-481.376	800.000	-0.101	-0.316
-480.362	427.751	-0.092	0.199
-479.347	35.499	-0.177	-0.156
-478.332	41.333	0.098	-0.089
-477.318	156.559	-0.199	-0.274
-476.303	800.000	-0.056	-0.175
-475.289	-200.000	-0.010	0.249
-474.274	208.382	0.151	0.236
-473.259	-132.819	0.435	-0.055
-472.245	159.223	-0.226	0.314
-471.230	-23.936	0.199	0.119
-470.216	52.119	0.284	-0.270
-469.201	21.406	-0.258	-0.210
-468.186	0.051	0.232	-0.165
-467.172	-200.000	0.036	0.183
-466.157	4.161	0.149	0.109
-465.143	-11.352	-0.227	0.149
-464.128	-35.629	-0.177	-0.096
-463.113	33.309	0.060	-0.052
-462.099	-102.950	-0.135	0.032
-461.084	173.293	0.149	0.214
-460.070	-100.757	0.224	0.055
-459.055	-28.499	0.064	-0.037
-458.040	119.542	-0.089	0.111
-457.026	385.974	-0.080	-0.164
-456.011	-200.000	-0.006	-0.046
-454.997	-71.781	0.337	0.125
-453.982	426.767	0.063	0.135
-452.968	504.730	0.015	0.035
-451.953	-23.478	-0.172	-0.103
-450.938	534.396	0.070	0.165
-449.924	-42.862	-0.084	0.042
-448.909	-200.000	0.017	-0.114
-447.895	-108.094	0.200	0.043
-446.880	332.267	-0.074	-0.142
-445.865	-116.638	-0.131	-0.024
-444.851	-160.720	0.300	-0.016
-443.836	180.364	-0.152	-0.222
-442.822	-200.000	-0.013	0.119
-441.807	8.830	-0.442	-0.332
-440.792	-114.582	0.111	0.021
-439.778	299.045	-0.089	0.164
-438.763	-115.282	-0.268	0.051
-437.749	-159.797	-0.180	-0.010
-436.734	-159.957	-0.060	-0.003
-435.719	-200.000	-0.057	-0.298
-434.705	-39.298	-0.171	0.089
-433.690	-106.132	0.240	-0.054
-432.676	114.362	-0.133	-0.161
-431.661	0.883	-0.278	-0.199
-430.646	-80.494	0.138	-0.046
-429.632	-63.746	-0.147	0.060
-428.617	436.790	0.081	0.175
-427.603	-79.709	0.187	0.063
-426.588	132.998	0.089	-0.114
-425.573	-100.677	0.295	0.073
-424.559	680.509	-0.023	-0.059
-423.544	-200.000	-0.042	-0.348
-422.530	-110.874	0.093	-0.019
-421.515	495.254	-0.062	0.141
-420.500	-137.295	-0.127	-0.014
-419.486	-200.000	-0.001	0.030
-418.471	-56.492	0.238	0.105
-417.457	-200.000	-0.011	0.269
-416.442	331.231	0.168	0.322
-415.428	-114.379	-0.044	-0.008
-414.413	-56.816	-0.335	0.147
-413.398	-135.581	-0.186	0.022
-412.384	40.804	0.261	-0.234
-411.369	-200.000	0.068	-0.300
-410.355	109.560	-0.194	-0.232
-409.340	-200.000	0.034	-0.211
-408.325	-200.000	-0.013	0.192
-407.311	235.517	-0.224	0.368
-406.296	252.263	0.110	-0.187
-405.282	135.060	-0.113	-0.146
-404.267	144.080	0.176	-0.233
-403.252	-49.054	0.198	-0.094
-402.238	6.002	-0.051	0.038
-401.223	-200.000	0.025	-0.224
-400.209	-33.009	-0.144	0.079
-399.194	-60.111	0.282	-0.120
-398.179	-27.596	0.565	-0.327
-397.165	84.214	-0.189	-0.206
-396.150	-31.263	0.084	-0.047
-395.136	0.043	0.263	-0.186
-394.121	126.259	-0.126	0.158
-393.106	795.332	-0.082	-0.226
-392.092	-129.355	-0.135	-0.019
-391.077	800.000	0.046	-0.130
-390.063	121.859	-0.197	-0.244
-389.048	-12.095	0.081	-0.053
-388.033	-176.710	-0.146	0.004
-387.019	-71.937	0.140	0.052
-386.004	800.000	-0.064	-0.232
-384.990	76.823	-0.213	-0.225
-383.975	173.481	0.182	0.262
-382.960	75.281	-0.202	0.212
-381.946	-108.622	-0.035	-0.008
-380.931	-144.080	0.154	-0.014
-379.917	-22.346	-0.199	-0.120
-378.902	800.000	0.217	0.626
-377.888	14.731	-0.085	-0.066
-376.873	52.650	-0.226	-0.214
-375.858	62.193	0.067	0.066
-374.844	-12.342	-0.136	-0.089
-373.829	-115.529	-0.166	0.031
-372.815	-146.611	-0.332	0.029
-371.800	39.126	-0.162	-0.144
-370.785	800.000	0.029	-0.095
-369.771	-64.184	-0.270	0.109
-368.756	-75.783	0.087	-0.031
-367.742	191.014	-0.060	0.089
-366.727	236.469	0.091	-0.149
-365.712	-71.203	-0.179	0.067
-364.698	800.000	-0.090	0.283
-363.683	-200.000	-0.011	0.056
-362.669	211.836	0.263	0.412
-361.654	-11.884	0.335	0.218
-360.639	380.492	-0.069	0.140
-359.625	48.325	0.057	-0.053
-358.610	-200.000	-0.176	-0.000
-357.596	-200.000	0.001	0.260
-356.581	178.028	0.154	0.224
-355.566	-200.000	0.020	0.442
-354.552	13.556	0.234	0.181
-353.537	-101.968	0.076	-0.018
-352.523	66.968	-0.150	-0.152
-351.508	113.066	-0.048	-0.058
-350.493	-200.000	0.012	0.164
-349.479	-128.678	0.092	-0.013
-348.464	-69.412	0.367	-0.140
-347.450	-97.024	0.319	-0.083
-346.435	93.800	-0.043	0.048
-345.420	-200.000	0.006	-0.095
-344.406	396.738	0.093	-0.193
-343.391	-62.903	0.450	0.185
-342.377	-139.299	0.085	0.009
-341.362	50.713	-0.213	-0.200
-340.348	-148.233	-0.258	-0.021
-339.333	-126.755	-0.153	-0.022
-338.318	-79.689	0.120	0.040
-337.304	-200.000	0.032	-0.259
-336.289	251.319	-0.125	-0.212
-335.275	187.186	0.087	-0.129
-334.260	60.174	-0.162	0.159
-333.245	800.000	0.060	-0.196
-332.231	-35.070	0.032	0.018
-331.216	-94.792	0.533	0.144
-330.202	800.000	0.074	-0.280
-329.187	707.741	-0.009	-0.024
-328.172	420.727	-0.092	0.195
-327.158	13.509	0.100	0.077
-326.143	-200.000	0.050	0.386
-325.129	-194.698	0.113	-0.001
-324.114	507.736	-0.112	-0.258
-323.099	58.599	0.323	0.315
-322.085	-81.374	0.355	-0.116
-321.070	-151.409	-0.295	-0.022
-320.056	-38.715	-0.234	-0.123
-319.041	190.730	0.031	0.047
-318.026	672.031	0.035	-0.091
-317.012	-23.888	-0.155	-0.092
-315.997	53.821	0.070	-0.067
-314.983	-82.857	-0.136	0.043
-313.968	-16.930	0.393	-0.246
-312.953	634.604	0.082	-0.206
-311.939	553.702	0.070	0.167
-310.924	-122.856	0.303	-0.048
-309.910	-29.168	0.041	0.023
-308.895	-94.888	-0.177	-0.048
-307.880	39.236	-0.063	-0.056
-306.866	180.363	-0.148	0.215
-305.851	35.577	0.219	0.191
-304.837	-27.017	0.277	0.160
-303.822	-200.000	0.021	0.261
-302.807	-103.504	0.175	0.041
-301.793	337.563	0.037	0.072
-300.778	-167.151	0.044	-0.002
-299.764	-113.109	0.080	-0.016
-298.749	-200.000	0.048	-0.257
-297.735	-179.533	0.066	-0.001
-296.720	800.000	-0.068	-0.268
-295.705	-29.558	-0.122	0.069
-294.691	-200.000	0.013	-0.257
-293.676	-36.772	0.062	0.033
-292.662	63.256	0.081	0.081
-291.647	-200.000	0.008	0.136
-290.632	-96.496	0.131	0.034
-289.618	769.034	0.105	-0.283
-288.603	316.559	-0.130	0.243
-287.589	220.753	0.049	-0.078
-286.574	110.926	0.092	-0.109
-285.559	119.624	0.115	0.141
-284.545	-32.261	-0.121	-0.067
-283.530	-72.161	-0.187	0.069
-282.516	-59.780	-0.050	-0.021
-281.501	-50.902	0.211	0.098
-280.486	40.114	-0.193	0.172
-279.472	183.663	-0.206	-0.301
-278.457	-37.542	-0.074	-0.039
-277.443	-2.693	0.145	0.101
-276.428	-200.000	0.009	-0.062
-275.413	-14.231	0.090	-0.057
-274.399	279.152	-0.088	0.156
-273.384	216.989	0.120	0.189
-272.370	735.672	-0.066	0.176
-271.355	162.133	-0.206	-0.287
-270.340	98.481	-0.055	0.063
-269.326	273.394	0.128	-0.224
-268.311	-17.370	0.339	-0.211
-267.297	84.908	-0.049	-0.053
-266.282	362.648	-0.102	-0.203
-265.267	-109.831	-0.052	0.011
-264.253	131.230	0.100	-0.127
-263.238	-200.000	-0.017	-0.281
-262.224	-150.930	-0.248	-0.019
-261.209	-144.520	-0.099	0.009
-260.195	-60.700	0.088	-0.037
-259.180	45.508	0.061	-0.056
-258.165	202.709	-0.193	0.295
-257.151	45.777	-0.111	-0.102
-256.136	-178.393	0.161	0.004
-255.122	756.367	0.056	-0.150
-254.107	91.560	-0.116	-0.130
-253.092	-93.207	0.250	0.069
-252.078	9.433	-0.294	-0.220
-251.063	800.000	-0.033	-0.138
-250.049	441.341	-0.160	0.346
-249.034	4.845	-0.266	-0.194
-248.019	-10.276	-0.237	-0.156
-247.005	-46.094	-0.050	0.024
-245.990	265.044	-0.216	-0.373
-244.976	158.159	-0.049	0.067
-243.961	-200.000	0.003	0.020
-242.946	-200.000	0.056	-0.273
-241.932	-200.000	-0.014	-0.168
-240.917	800.000	0.061	0.215
-239.903	1.740	-0.196	-0.139
-238.888	-88.690	-0.145	0.043
-237.873	40.822	0.123	-0.110
-236.859	-200.000	-0.042	-0.236
-235.844	15.309	0.197	0.153
-234.830	-200.000	0.001	-0.022
-233.815	-128.016	-0.178	-0.025
-232.800	-90.670	0.251	-0.072
-231.786	-200.000	-0.024	-0.144
-230.771	44.858	0.242	0.220
-229.757	36.408	0.250	0.218
-228.742	328.561	0.080	0.152
-227.727	-200.000	-0.046	-0.227
-226.713	-103.565	0.122	0.028
-225.698	71.905	-0.164	0.169
-224.684	800.000	-0.090	-0.285
-223.669	329.277	-0.072	-0.137
-222.655	-200.000	0.023	-0.182
-221.640	-134.414	0.304	0.037
-220.625	166.960	0.165	0.232
-219.611	115.312	0.122	-0.147
-218.596	-200.000	-0.016	-0.265
-217.582	14.632	-0.173	0.133
-216.567	-32.687	-0.124	-0.068
-215.552	-117.513	0.108	-0.019
-214.538	-84.248	-0.270	-0.085
-213.523	-129.610	-0.097	-0.013
-212.509	-148.877	0.259	-0.021
-211.494	-171.183	0.147	0.005
-210.479	300.929	0.095	-0.174
-209.465	91.961	-0.200	0.223
-208.450	98.268	-0.063	-0.071
-207.436	-200.000	-0.029	0.504
-206.421	800.000	0.066	0.280
-205.406	102.014	0.154	-0.178
-204.392	181.882	0.021	-0.031
-203.377	-200.000	-0.008	-0.205
-202.363	93.532	0.065	0.072
-201.348	-74.544	-0.051	-0.018
-200.333	522.907	-0.085	-0.197
-199.319	-70.207	0.177	-0.066
-198.304	216.594	0.189	0.297
-197.290	-187.786	-0.401	-0.005
-196.275	207.963	0.049	0.076
-195.260	-105.951	-0.273	-0.061
-194.246	-200.000	0.008	-0.110
-193.231	81.144	-0.084	0.089
-192.217	-130.463	-0.269	0.036
-191.202	-139.898	0.504	0.053
-190.187	-200.000	0.044	0.330
-189.173	44.154	0.153	0.139
-188.158	57.535	0.148	-0.143
-187.144	-17.683	0.092	0.057
-186.129	-125.159	-0.120	-0.018
-185.114	224.366	0.057	0.091
-184.100	465.689	0.107	0.237
-183.085	54.202	0.082	-0.078
-182.071	36.709	0.050	0.044
-181.056	-74.696	-0.262	-0.093
-180.042	131.525	0.050	-0.064
-179.027	-200.000	-0.019	-0.232
-178.012	-51.698	0.124	0.057
-176.998	-11.790	0.244	0.158
-175.983	117.206	-0.020	-0.024
-174.969	-57.974	-0.083	-0.036
-173.954	-116.351	0.124	-0.023
-172.939	46.612	0.208	-0.190
-171.925	-92.631	-0.138	0.038
-170.910	326.511	0.100	0.188
-169.896	31.815	-0.260	-0.221
-168.881	145.421	0.343	-0.453
-167.866	428.380	0.130	-0.278
-166.852	-102.721	-0.319	0.075
-165.837	588.146	0.093	-0.227
-164.823	160.170	0.001	-0.001
-163.808	701.955	-0.139	0.360
-162.793	77.870	-0.172	0.181
-161.779	162.956	-0.167	0.232
-160.764	133.036	0.193	0.246
-159.750	330.314	0.009	-0.017
-158.735	800.000	0.092	-0.344
-157.720	-105.467	0.301	-0.067
-156.706	-83.190	-0.310	0.098
-155.691	-150.825	-0.291	-0.022
-154.677	-200.000	-0.052	0.235
-153.662	-200.000	-0.005	0.122
-152.647	-112.895	-0.122	0.024
-151.633	27.040	0.058	0.048
-150.618	800.000	0.073	0.253
-149.604	82.827	0.080	-0.086
-148.589	74.207	0.225	-0.233
-147.574	-6.330	-0.299	0.201
-146.560	-200.000	0.015	0.243
-145.545	-200.000	-0.064	-0.345
-144.531	-79.175	0.244	0.082
-143.516	-59.574	0.106	-0.045
-142.502	-27.026	-0.199	0.114
-141.487	-200.000	-0.034	-0.147
-140.472	-15.211	-0.313	-0.198
-139.458	800.000	0.081	-0.299
-138.443	121.686	0.129	0.159
-137.429	-200.000	-0.069	-0.326
-136.414	-49.801	-0.387	-0.181
-135.399	32.242	0.181	0.154
-134.385	-105.688	0.054	0.012
-133.370	0.760	-0.162	0.114
-132.356	448.817	-0.103	-0.224
-131.341	-135.806	0.445	-0.052
-130.326	30.774	-0.124	0.105
-129.312	237.785	0.124	-0.202
-128.297	-200.000	-0.006	-0.216
-127.283	-200.000	0.301	-0.001
-126.268	-10.261	0.041	0.027
-125.253	386.518	0.074	-0.151
-124.239	800.000	-0.059	0.218
-123.224	-136.688	-0.255	-0.029
-122.210	-113.901	0.045	0.009
-121.195	28.089	0.149	0.124
