DTS Sentinel unit serial number:	SN413079Multiplexer serial number:	ORYXHardware model number:	OX4-SRSoftware version number:	ORYX F/W v4.00 Oryx Data Collector v3.7.2.0data status	okinstallation	princeton_trtdifferential loss correction	single-endedforward channel	channel 3reverse channel	N/Adate	2019/09/13time	13:52:35forward acquisition time	60.00reverse acquisition time	0.00gamma	496.2192k internal	0.2302k external	0.2302temperature offset calibration	1.0148default loss term (dB/km)	0.3790temperature slope calibration	1.0000multiplexer offset coefficient	1.0000multiplexer slope coefficient	1.0000fibre end	0.00T internal ref (°C)	35.16T ext. ref 1 (°C)	4.57T ext. ref 2 (°C)	31.35length (m)	temperature (°C)	Stokes	anti-Stokes-747.200	800.000	-0.074	-0.287
-746.185	365.625	0.017	0.034
-745.171	-21.494	0.204	-0.127
-744.156	204.787	-0.172	0.272
-743.142	-139.998	-0.306	0.033
-742.127	-200.000	0.010	0.145
-741.112	-75.015	-0.094	-0.034
-740.098	1.945	-0.445	0.327
-739.083	800.000	-0.087	0.269
-738.069	82.066	-0.030	0.033
-737.054	-77.610	-0.276	-0.097
-736.039	-153.138	-0.276	-0.020
-735.025	-200.000	-0.021	0.160
-734.010	-20.067	-0.266	-0.167
-732.996	-200.000	-0.013	-0.175
-731.981	-90.057	-0.218	0.065
-730.966	-45.832	-0.213	0.107
-729.952	153.052	0.150	-0.209
-728.937	108.891	-0.135	-0.164
-727.923	-200.000	-0.031	-0.147
-726.908	-200.000	0.011	-0.278
-725.894	438.298	-0.070	-0.155
-724.879	-63.002	0.164	-0.069
-723.864	-200.000	0.009	-0.048
-722.850	-135.464	0.139	-0.017
-721.835	-132.177	-0.346	0.046
-720.821	476.736	-0.112	-0.259
-719.806	800.000	0.037	-0.152
-718.791	800.000	0.089	-0.302
-717.777	800.000	-0.016	-0.055
-716.762	-84.693	-0.182	-0.058
-715.748	-149.953	0.483	0.038
-714.733	-108.995	-0.511	-0.111
-713.718	-3.388	0.075	0.053
-712.704	-81.546	-0.396	0.133
-711.689	191.256	-0.251	-0.384
-710.675	788.845	0.105	-0.294
-709.660	-46.454	-0.279	0.139
-708.645	-200.000	0.008	0.285
-707.631	32.251	0.036	-0.032
-706.616	-200.000	0.014	-0.202
-705.602	-200.000	0.029	-0.206
-704.587	234.219	-0.097	-0.163
-703.572	-141.080	0.303	-0.032
-702.558	-200.000	0.021	0.101
-701.543	-200.000	0.061	0.327
-700.529	166.404	0.114	0.164
-699.514	-99.582	0.371	-0.095
-698.499	-129.926	0.447	-0.062
-697.485	79.498	0.135	0.147
-696.470	244.149	0.121	0.206
-695.456	49.907	-0.090	-0.086
-694.441	-103.095	-0.198	-0.048
-693.426	-200.000	0.039	0.220
-692.412	53.341	0.092	0.090
-691.397	-200.000	0.100	0.606
-690.383	192.599	0.234	0.360
-689.368	800.000	-0.086	0.263
-688.354	-110.027	-0.428	-0.091
-687.339	15.667	0.155	-0.123
-686.324	-155.501	-0.200	0.013
-685.310	23.398	-0.257	0.215
-684.295	-45.787	0.149	-0.075
-683.281	-131.905	0.098	-0.013
-682.266	429.152	-0.026	0.057
-681.251	-59.176	-0.054	0.024
-680.237	800.000	0.026	0.097
-679.222	-127.991	-0.345	-0.050
-678.208	-65.636	0.132	-0.054
-677.193	36.813	0.092	-0.083
-676.178	175.155	0.064	-0.094
-675.164	-46.564	-0.345	0.172
-674.149	-200.000	-0.021	0.201
-673.135	36.956	0.309	-0.278
-672.120	-93.253	-0.093	-0.026
-671.105	43.077	-0.205	0.190
-670.091	-138.909	0.157	0.017
-669.076	-60.786	0.062	-0.027
-668.062	-3.015	0.106	0.075
-667.047	-34.916	-0.199	0.111
-666.032	800.000	0.130	-0.394
-665.018	800.000	0.078	-0.333
-664.003	-160.332	-0.308	-0.017
-662.989	184.291	0.172	0.258
-661.974	61.787	-0.128	0.129
-660.959	23.194	-0.166	-0.138
-659.945	-80.927	0.029	-0.010
-658.930	800.000	-0.041	-0.126
-657.916	-114.891	0.205	-0.040
-656.901	-36.395	0.361	-0.197
-655.886	-67.051	0.081	-0.032
-654.872	615.813	-0.079	-0.200
-653.857	-145.820	-0.088	-0.008
-652.843	534.787	-0.105	-0.253
-651.828	800.000	-0.022	-0.089
-650.814	-75.433	-0.238	-0.086
-649.799	-14.961	0.227	-0.148
-648.784	-156.011	0.204	0.013
-647.770	-55.433	-0.157	0.071
-646.755	193.501	0.067	-0.103
-645.741	-60.739	0.139	0.060
-644.726	376.869	-0.171	-0.355
-643.711	-77.162	-0.290	-0.103
-642.697	-39.859	0.182	-0.097
-641.682	242.287	-0.102	0.173
-640.668	46.565	-0.153	0.144
-639.653	-55.564	-0.362	0.164
-638.638	800.000	0.093	0.301
-637.624	71.608	0.157	0.165
-636.609	82.206	-0.206	0.226
-635.595	-200.000	-0.061	-0.388
-634.580	32.018	-0.138	0.121
-633.565	-42.493	-0.192	-0.099
-632.551	49.170	0.084	0.080
-631.536	800.000	-0.118	0.400
-630.522	800.000	-0.074	0.313
-629.507	-156.369	-0.315	0.020
-628.492	-200.000	0.078	-0.447
-627.478	-49.131	-0.142	0.069
-626.463	800.000	-0.065	0.196
-625.449	-69.806	0.234	0.091
-624.434	800.000	0.061	0.184
-623.419	98.242	0.056	-0.065
-622.405	20.732	0.246	-0.202
-621.390	163.677	0.101	0.145
-620.376	800.000	-0.082	0.326
-619.361	47.139	0.139	-0.132
-618.346	-31.928	0.202	-0.115
-617.332	800.000	-0.034	0.114
-616.317	-79.389	0.256	-0.088
-615.303	-34.550	-0.084	0.047
-614.288	13.765	-0.221	0.174
-613.273	800.000	0.101	0.394
-612.259	-0.119	-0.174	0.126
-611.244	240.372	0.064	0.108
-610.230	-70.111	-0.274	0.106
-609.215	-28.551	0.252	0.147
-608.201	-147.731	0.236	0.020
-607.186	42.578	-0.050	-0.046
-606.171	-26.250	0.228	-0.136
-605.157	-200.000	0.008	-0.124
-604.142	-200.000	-0.064	0.332
-603.128	-126.079	-0.056	-0.009
-602.113	-93.412	-0.271	-0.076
-601.098	-60.112	0.331	-0.143
-600.084	-83.833	0.088	-0.028
-599.069	49.405	0.196	0.187
-598.055	181.075	0.137	-0.204
-597.040	-92.161	-0.286	-0.082
-596.025	-144.458	-0.230	0.022
-595.011	800.000	-0.064	-0.187
-593.996	121.159	0.087	-0.109
-592.982	-70.957	-0.141	-0.054
-591.967	183.377	-0.221	-0.330
-590.952	713.454	-0.124	-0.333
-589.938	254.259	0.025	0.044
-588.923	-2.098	0.120	-0.086
-587.909	40.711	-0.116	-0.106
-586.894	-200.000	0.007	0.168
-585.879	580.975	0.102	-0.253
-584.865	800.000	0.054	-0.161
-583.850	-71.145	0.109	-0.041
-582.836	-200.000	0.051	0.265
-581.821	-200.000	0.042	-0.287
-580.806	72.722	-0.070	-0.074
-579.792	536.297	-0.071	-0.172
-578.777	-200.000	-0.025	-0.136
-577.763	280.788	-0.039	0.070
-576.748	-193.748	-0.389	-0.003
-575.733	-200.000	0.036	-0.195
-574.719	599.024	0.056	-0.140
-573.704	-127.608	0.572	0.084
-572.690	18.454	-0.137	-0.111
-571.675	800.000	0.060	0.207
-570.661	209.759	0.062	0.098
-569.646	63.141	-0.111	-0.112
-568.631	-162.784	-0.140	0.007
-567.617	35.339	-0.114	0.101
-566.602	-69.237	0.164	0.064
-565.588	294.862	-0.108	0.200
-564.573	-125.402	-0.277	0.043
-563.558	-8.842	-0.105	-0.071
-562.544	67.321	-0.235	-0.242
-561.529	302.905	0.114	-0.214
-560.515	-140.675	-0.069	-0.007
-559.500	-88.770	-0.207	-0.062
-558.485	-200.000	0.020	0.345
-557.471	-182.144	-0.198	0.004
-556.456	-200.000	0.010	-0.054
-555.442	41.330	0.178	0.163
-554.427	-103.503	-0.439	-0.104
-553.412	-0.852	0.069	-0.049
-552.398	-200.000	0.035	-0.293
-551.383	-173.270	0.080	-0.002
-550.369	-82.431	0.185	-0.061
-549.354	-109.570	0.080	-0.017
-548.339	-89.236	-0.136	0.040
-547.325	361.920	0.155	-0.314
-546.310	-84.718	-0.236	0.075
-545.296	-200.000	0.043	-0.393
-544.281	275.822	0.174	-0.312
-543.266	344.687	0.075	0.148
-542.252	367.689	-0.142	-0.289
-541.237	6.668	-0.292	0.219
-540.223	-34.731	-0.171	-0.094
-539.208	-133.866	0.351	0.044
-538.193	61.499	0.089	0.090
-537.179	94.559	-0.151	0.173
-536.164	-73.117	0.150	-0.056
-535.150	-27.946	-0.219	0.128
-534.135	201.155	0.134	0.208
-533.121	-100.927	-0.088	0.022
-532.106	-70.596	-0.121	0.046
-531.091	-136.364	-0.397	-0.047
-530.077	-200.000	0.027	-0.223
-529.062	-119.313	-0.080	-0.014
-528.048	-45.835	0.177	-0.089
-527.033	181.580	0.058	-0.087
-526.018	-21.426	0.156	-0.096
-525.004	-121.614	0.253	0.042
-523.989	63.190	-0.083	0.084
-522.975	-200.000	0.006	0.189
-521.960	800.000	0.049	-0.181
-520.945	4.097	0.006	0.004
-519.931	-200.000	0.028	0.159
-518.916	-76.314	0.142	0.051
-517.902	-200.000	0.040	-0.213
-516.887	-26.958	-0.067	0.040
-515.872	-156.276	-0.275	-0.017
-514.858	202.970	0.062	0.097
-513.843	89.241	0.057	-0.064
-512.829	800.000	0.105	-0.316
-511.814	-69.644	-0.253	-0.098
-510.799	4.169	0.214	0.158
-509.785	-103.759	0.263	-0.062
-508.770	-200.000	-0.017	-0.089
-507.756	-108.246	0.148	-0.032
-506.741	-51.228	0.167	0.079
-505.726	-53.070	0.108	0.050
-504.712	-130.732	0.493	-0.067
-503.697	527.191	0.074	-0.177
-502.683	-200.000	0.003	-0.066
-501.668	-149.445	0.628	0.050
-500.653	24.582	-0.154	0.129
-499.639	-200.000	0.057	-0.266
-498.624	-200.000	-0.086	-0.504
-497.610	-200.000	0.015	0.169
-496.595	-94.568	-0.253	-0.070
-495.581	-200.000	-0.068	-0.315
-494.566	800.000	-0.067	0.224
-493.551	124.975	-0.054	0.069
-492.537	800.000	0.076	0.234
-491.522	-200.000	0.000	0.015
-490.508	-181.369	0.369	0.007
-489.493	105.762	0.183	-0.218
-488.478	167.497	-0.137	-0.196
-487.464	304.960	0.033	-0.062
-486.449	485.420	-0.136	0.312
-485.435	44.934	0.181	0.168
-484.420	66.437	0.201	-0.206
-483.405	-38.344	0.154	0.082
-482.391	-163.361	-0.459	-0.022
-481.376	-50.421	0.166	0.079
-480.362	61.360	0.161	0.161
-479.347	14.979	0.113	-0.090
-478.332	-200.000	0.047	0.243
-477.318	238.349	0.220	-0.368
-476.303	311.473	0.048	-0.091
-475.289	-165.730	-0.200	0.009
-474.274	32.058	-0.252	-0.219
-473.259	36.338	0.136	-0.121
-472.245	-13.365	-0.246	-0.161
-471.230	467.924	0.085	-0.191
-470.216	67.732	0.003	0.003
-469.201	172.528	-0.118	-0.171
-468.186	-2.581	-0.221	0.156
-467.172	-157.465	0.428	0.026
-466.157	-4.644	0.100	-0.070
-465.143	291.969	0.097	0.177
-464.128	141.311	-0.066	0.088
-463.113	30.833	-0.195	-0.169
-462.099	-60.037	-0.158	-0.068
-461.084	53.329	0.121	0.116
-460.070	-3.175	0.104	-0.073
-459.055	-200.000	0.054	0.240
-458.040	167.242	0.216	0.309
-457.026	-102.316	-0.074	0.018
-456.011	-52.267	0.155	-0.073
-454.997	-92.432	0.271	0.077
-453.982	-157.569	-0.305	-0.018
-452.968	-65.568	-0.261	0.105
-451.953	222.326	0.167	-0.271
-450.938	377.918	0.173	-0.357
-449.924	27.615	0.172	-0.145
-448.909	13.438	-0.172	0.135
-447.895	191.152	-0.030	-0.046
-446.880	-68.926	0.158	-0.061
-445.865	-92.873	-0.086	0.024
-444.851	-84.849	-0.121	-0.038
-443.836	800.000	-0.119	0.379
-442.822	800.000	0.014	0.046
-441.807	117.386	0.119	-0.147
-440.792	392.729	-0.156	-0.328
-439.778	-200.000	-0.001	-0.364
-438.763	560.899	0.123	0.300
-437.749	-200.000	-0.020	0.105
-436.734	-67.697	-0.099	0.039
-435.719	-82.117	-0.275	-0.090
-434.705	-4.076	0.285	0.199
-433.690	-200.000	0.020	0.256
-432.676	-200.000	-0.044	0.298
-431.661	-200.000	-0.034	0.373
-430.646	601.905	-0.098	0.245
-429.632	-112.711	0.292	0.058
-428.617	554.077	-0.095	0.231
-427.603	22.315	-0.197	0.162
-426.588	-160.743	0.230	0.012
-425.573	-107.414	0.228	-0.050
-424.559	-200.000	-0.061	-0.329
-423.544	75.645	-0.170	0.181
-422.530	-62.979	-0.282	0.117
-421.515	-200.000	-0.074	-0.411
-420.500	-200.000	-0.017	-0.210
-419.486	-19.522	0.355	-0.221
-418.471	-34.946	-0.269	-0.147
-417.457	-70.455	0.455	-0.174
-416.442	-139.636	0.106	0.011
-415.428	-151.242	-0.599	0.045
-414.413	28.045	-0.361	0.306
-413.398	800.000	-0.047	0.154
-412.384	37.626	0.097	0.086
-411.369	-200.000	0.061	-0.272
-410.355	158.060	-0.085	-0.119
-409.340	170.505	-0.027	-0.039
-408.325	33.163	-0.076	0.066
-407.311	-65.642	0.345	0.139
-406.296	-80.151	-0.282	0.095
-405.282	-200.000	-0.002	0.026
-404.267	226.809	-0.133	-0.218
-403.252	236.875	0.170	-0.282
-402.238	81.534	-0.087	0.094
-401.223	-35.450	-0.211	0.115
-400.209	188.207	-0.063	0.095
-399.194	-28.934	0.143	-0.082
-398.179	-146.343	0.283	0.025
-397.165	-30.790	0.039	0.022
-396.150	362.560	-0.119	0.240
-395.136	200.039	-0.130	0.200
-394.121	-31.522	0.141	0.079
-393.106	-161.170	-0.253	0.013
-392.092	-35.627	0.162	0.089
-391.077	-76.432	-0.038	0.014
-390.063	-200.000	0.054	-0.447
-389.048	59.132	-0.090	-0.089
-388.033	-200.000	0.012	-0.313
-387.019	-200.000	0.023	-0.159
-386.004	43.011	0.042	0.039
-384.990	-110.865	-0.255	0.053
-383.975	716.179	0.090	-0.239
-382.960	-200.000	-0.037	-0.248
-381.946	-55.988	0.259	-0.116
-380.931	-82.484	0.319	0.104
-379.917	107.535	0.123	0.147
-378.902	325.824	0.166	0.319
-377.888	-47.979	0.279	0.135
-376.873	424.354	-0.043	-0.092
-375.858	-112.595	-0.136	-0.027
-374.844	230.963	-0.095	0.157
-373.829	0.737	0.191	0.137
-372.815	-122.522	0.498	-0.081
-371.800	-36.608	-0.104	-0.056
-370.785	-200.000	-0.034	-0.213
-369.771	-137.211	0.441	0.050
-368.756	649.057	-0.163	-0.418
-367.742	423.313	0.138	-0.298
-366.727	-200.000	-0.011	0.251
-365.712	218.005	0.175	0.280
-364.698	-21.539	0.060	-0.037
-363.683	-126.326	0.145	0.022
-362.669	718.908	-0.022	-0.059
-361.654	25.748	-0.185	0.155
-360.639	-200.000	0.024	-0.145
-359.625	-118.744	0.181	-0.032
-358.610	-68.237	0.080	0.031
-357.596	-141.059	0.213	0.022
-356.581	411.657	-0.098	-0.208
-355.566	26.816	0.212	-0.178
-354.552	10.138	-0.187	-0.143
-353.537	49.574	0.080	0.076
-352.523	-76.147	-0.282	-0.100
-351.508	144.508	-0.225	-0.302
-350.493	800.000	-0.049	-0.188
-349.479	-78.463	-0.199	-0.069
-348.464	72.247	-0.281	-0.294
-347.450	-180.635	0.307	0.006
-346.435	-132.380	0.145	0.019
-345.420	32.213	0.086	-0.074
-344.406	-54.913	0.250	0.113
-343.391	-148.164	0.329	0.027
-342.377	-9.509	-0.241	0.161
-341.362	-20.041	-0.382	-0.236
-340.348	5.661	-0.018	-0.013
-339.333	-200.000	0.016	-0.264
-338.318	45.237	-0.224	-0.207
-337.304	-133.482	-0.213	0.027
-336.289	-200.000	0.029	-0.130
-335.275	-188.256	-0.355	-0.005
-334.260	327.160	-0.105	-0.202
-333.245	172.123	0.183	0.263
-332.231	-43.449	0.020	-0.010
-331.216	-56.494	0.335	-0.149
-330.202	149.655	0.123	-0.167
-329.187	-87.260	0.111	0.034
-328.172	-200.000	-0.007	-0.119
-327.158	64.939	-0.216	-0.218
-326.143	7.373	0.311	0.233
-325.129	129.353	-0.190	0.243
-324.114	-72.195	0.391	0.145
-323.099	-200.000	0.002	0.076
-322.085	153.847	-0.233	0.320
-321.070	-42.223	0.060	0.031
-320.056	507.291	0.009	-0.021
-319.041	60.945	-0.188	-0.187
-318.026	-79.100	0.100	0.034
-317.012	716.724	-0.130	0.346
-315.997	117.362	0.256	0.315
-314.983	800.000	-0.069	0.235
-313.968	-7.380	-0.263	-0.179
-312.953	36.128	0.108	0.096
-311.939	-83.054	-0.192	-0.062
-310.924	79.606	0.205	-0.221
-309.910	71.243	0.094	0.097
-308.895	114.540	-0.252	0.308
-307.880	40.469	-0.205	0.185
-306.866	-200.000	0.003	0.276
-305.851	800.000	-0.079	0.273
-304.837	27.263	-0.199	-0.168
-303.822	-152.983	-0.441	-0.031
-302.807	-121.613	-0.125	0.021
-301.793	7.248	0.201	0.151
-300.778	-56.407	-0.163	0.072
-299.764	-113.586	0.188	0.037
-298.749	800.000	-0.183	0.606
-297.735	-97.046	-0.221	0.058
-296.720	-136.286	0.241	-0.028
-295.705	-200.000	-0.027	0.328
-294.691	800.000	0.056	-0.171
-293.676	-200.000	0.022	0.356
-292.662	25.910	0.143	0.120
-291.647	-200.000	-0.042	-0.297
-290.632	800.000	-0.060	0.225
-289.618	-147.341	-0.370	-0.031
-288.603	-96.189	-0.233	-0.062
-287.589	135.665	-0.103	0.134
-286.574	-12.406	0.157	-0.102
-285.559	-181.971	0.217	-0.004
-284.545	800.000	-0.090	0.264
-283.530	316.107	-0.040	-0.076
-282.516	800.000	-0.017	-0.072
-281.501	-200.000	-0.020	0.255
-280.486	-82.725	-0.234	-0.076
-279.472	-5.524	-0.307	0.211
-278.457	38.129	0.173	-0.154
-277.443	-52.607	0.329	0.152
-276.428	106.427	0.085	-0.100
-275.413	-26.802	-0.099	-0.058
-274.399	-33.995	-0.055	0.030
-273.384	773.148	-0.052	-0.142
-272.370	15.451	0.207	-0.162
-271.355	-200.000	-0.017	-0.155
-270.340	249.374	-0.078	0.132
-269.326	71.069	0.031	0.032
-268.311	-56.130	-0.174	-0.077
-267.297	-88.296	-0.103	0.031
-266.282	-61.087	-0.154	-0.065
-265.267	479.663	-0.112	0.253
-264.253	-200.000	-0.002	0.090
-263.238	143.394	-0.101	-0.134
-262.224	800.000	0.045	0.159
-261.209	29.791	-0.049	0.042
-260.195	165.048	0.133	-0.188
-259.180	-100.138	0.014	0.003
-258.165	-63.767	-0.023	0.010
-257.151	155.003	0.170	0.233
-256.136	-49.212	0.191	-0.091
-255.122	-200.000	-0.021	-0.329
-254.107	14.084	-0.324	0.252
-253.092	800.000	0.024	0.080
-252.078	800.000	-0.072	-0.204
-251.063	106.602	-0.046	0.055
-250.049	-42.030	-0.278	0.142
-249.034	800.000	-0.034	-0.122
-248.019	250.237	-0.021	-0.036
-247.005	-94.565	0.101	-0.028
-245.990	-0.849	-0.030	-0.021
-244.976	-150.313	0.558	-0.043
-243.961	800.000	0.140	0.402
-242.946	-131.462	-0.245	0.032
-241.932	66.065	-0.042	0.043
-240.917	659.700	-0.048	-0.124
-239.903	250.082	0.111	0.188
-238.888	495.016	0.060	-0.138
-237.873	-43.287	-0.030	-0.015
-236.859	-130.951	0.186	-0.025
-235.844	56.105	-0.054	0.053
-234.830	-143.722	-0.369	0.035
-233.815	-200.000	-0.070	-0.372
-232.800	-123.056	0.301	0.048
-231.786	-93.459	-0.128	0.035
-230.771	320.229	-0.166	-0.315
-229.757	-46.217	0.165	0.081
-228.742	-200.000	-0.002	-0.102
-227.727	-9.986	0.108	0.071
-226.713	-59.794	0.197	-0.084
-225.698	390.308	0.115	-0.237
-224.684	800.000	0.050	0.179
-223.669	-92.510	0.223	0.062
-222.655	-17.753	0.137	0.086
-221.640	-15.337	0.119	0.076
-220.625	19.570	0.091	0.073
-219.611	460.194	0.059	-0.131
-218.596	752.655	0.103	0.278
-217.582	86.835	-0.195	0.215
-216.567	800.000	-0.022	0.065
-215.552	185.780	-0.141	0.210
-214.538	231.961	0.190	0.310
-213.523	71.012	0.083	0.086
-212.509	800.000	0.047	-0.137
-211.494	533.546	-0.057	0.135
-210.479	-126.507	0.157	-0.023
-209.465	544.184	-0.116	-0.278
-208.450	122.026	0.103	-0.128
-207.436	94.110	-0.327	0.370
-206.421	-6.883	0.177	-0.120
-205.406	-55.587	-0.129	-0.058
-204.392	-45.133	-0.237	0.117
-203.377	619.701	0.141	-0.354
-202.363	56.818	-0.144	-0.140
-201.348	800.000	0.042	-0.138
-200.333	55.869	0.188	0.181
-199.319	-173.679	0.192	-0.006
-198.304	74.293	-0.312	-0.327
-197.290	49.129	-0.045	0.042
-196.275	76.013	0.192	-0.202
-195.260	-164.558	-0.474	0.021
-194.246	703.124	-0.119	0.313
-193.231	3.983	0.088	-0.064
-192.217	-200.000	-0.021	0.168
-191.202	338.265	0.105	0.204
-190.187	220.020	-0.137	-0.219
-189.173	-115.803	0.296	-0.055
-188.158	199.774	0.220	0.337
-187.144	800.000	0.030	-0.106
-186.129	-170.250	-0.151	-0.005
-185.114	-18.376	0.223	0.139
-184.100	-200.000	-0.024	0.126
-183.085	-19.929	-0.227	-0.140
-182.071	-13.968	-0.097	-0.062
-181.056	-31.041	0.380	0.214
-180.042	127.048	-0.114	0.144
-179.027	13.485	-0.101	0.078
-178.012	74.172	0.188	0.196
-176.998	-200.000	-0.048	0.375
-175.983	23.845	-0.315	0.259
-174.969	800.000	0.029	0.098
-173.954	-137.378	0.299	0.034
-172.939	-200.000	0.006	0.028
-171.925	133.482	-0.160	0.206
-170.910	800.000	-0.067	0.252
-169.896	-200.000	-0.053	0.289
-168.881	1.699	0.146	-0.105
-167.866	-200.000	-0.001	0.034
-166.852	800.000	0.041	-0.169
-165.837	-142.594	-0.227	0.022
-164.823	-74.589	-0.225	-0.081
-163.808	-200.000	-0.036	-0.298
-162.793	-137.204	-0.295	-0.033
-161.779	-173.971	0.224	0.007
-160.764	7.898	0.226	0.169
-159.750	54.045	0.066	-0.064
-158.735	-4.403	0.105	-0.073
-157.720	-111.739	0.225	-0.045
-156.706	-104.165	-0.376	0.087
-155.691	-18.530	-0.194	-0.121
-154.677	-200.000	-0.012	-0.410
-153.662	-200.000	0.050	-0.325
-152.647	-168.598	-0.249	0.009
-151.633	377.751	0.086	-0.175
-150.618	-1.750	-0.163	-0.115
-149.604	-25.336	0.259	-0.152
-148.589	800.000	-0.034	0.141
-147.574	300.104	-0.284	0.522
-146.560	-200.000	-0.025	-0.196
-145.545	308.005	0.147	-0.273
-144.531	98.739	-0.094	0.108
-143.516	-105.117	-0.039	-0.009
-142.502	-200.000	-0.010	-0.084
-141.487	-200.000	0.082	-0.443
-140.472	-7.610	0.156	-0.105
-139.458	239.042	-0.154	-0.254
-138.443	-124.519	0.321	0.050
-137.429	-50.741	-0.030	-0.014
-136.414	800.000	0.123	-0.340
-135.399	-200.000	0.007	0.202
-134.385	682.232	0.050	-0.130
-133.370	167.671	-0.069	0.097
-132.356	-200.000	-0.003	0.239
-131.341	-54.295	0.186	-0.084
-130.326	800.000	0.036	0.129
-129.312	-169.299	0.240	0.009
-128.297	47.112	0.087	0.081
-127.283	-200.000	-0.008	0.042
-126.268	136.402	0.063	0.082
-125.253	43.128	-0.262	0.238
-124.239	110.361	-0.271	-0.324
-123.224	-200.000	-0.015	-0.231
-122.210	499.912	-0.100	-0.230
-121.195	-167.043	0.259	-0.010
