DTS Sentinel unit serial number:	SN413079Multiplexer serial number:	ORYXHardware model number:	OX4-SRSoftware version number:	ORYX F/W v4.00 Oryx Data Collector v3.7.2.0data status	okinstallation	princeton_trtdifferential loss correction	single-endedforward channel	channel 3reverse channel	N/Adate	2019/09/12time	14:18:10forward acquisition time	60.00reverse acquisition time	0.00gamma	496.2192k internal	0.2294k external	0.2294temperature offset calibration	1.0052default loss term (dB/km)	0.3790temperature slope calibration	1.0000multiplexer offset coefficient	1.0000multiplexer slope coefficient	1.0000fibre end	0.00T internal ref (°C)	40.23T ext. ref 1 (°C)	2.24T ext. ref 2 (°C)	35.00length (m)	temperature (°C)	Stokes	anti-Stokes-747.200	-88.398	-0.139	-0.042
-746.185	25.947	0.130	0.111
-745.171	18.467	0.177	-0.145
-744.156	-200.000	0.022	-0.314
-743.142	335.039	-0.087	-0.173
-742.127	-74.235	-0.261	0.096
-741.112	167.448	-0.081	-0.118
-740.098	800.000	-0.063	0.189
-739.083	-151.730	0.298	-0.022
-738.069	170.425	-0.141	0.206
-737.054	-200.000	-0.047	0.215
-736.039	-70.504	-0.450	-0.174
-735.025	379.049	-0.209	0.438
-734.010	49.244	0.110	-0.105
-732.996	1.755	-0.207	-0.152
-731.981	-200.000	-0.057	-0.400
-730.966	152.900	0.190	-0.265
-729.952	-126.529	0.363	0.055
-728.937	-87.793	0.233	-0.072
-727.923	12.576	-0.183	-0.144
-726.908	-57.721	0.295	0.132
-725.894	-200.000	0.001	-0.257
-724.879	171.950	-0.136	-0.199
-723.864	32.455	0.142	0.125
-722.850	-200.000	-0.002	0.079
-721.835	110.978	-0.142	0.175
-720.821	76.261	0.018	-0.020
-719.806	-135.611	0.264	-0.032
-718.791	714.306	-0.114	-0.310
-717.777	-110.031	-0.168	-0.036
-716.762	-200.000	-0.002	-0.226
-715.748	41.412	0.066	-0.061
-714.733	-200.000	-0.005	0.112
-713.718	-130.187	-0.068	-0.010
-712.704	800.000	0.104	-0.411
-711.689	-200.000	-0.024	-0.156
-710.675	222.206	0.105	0.173
-709.660	800.000	0.097	-0.285
-708.645	467.617	-0.042	0.096
-707.631	800.000	0.027	-0.084
-706.616	800.000	0.056	-0.178
-705.602	383.457	-0.033	0.069
-704.587	-118.893	0.371	0.067
-703.572	-200.000	0.044	0.438
-702.558	800.000	-0.040	-0.171
-701.543	2.801	-0.073	0.054
-700.529	374.370	-0.174	0.362
-699.514	303.452	-0.050	-0.094
-698.499	260.486	0.140	-0.246
-697.485	-57.277	0.233	0.105
-696.470	-119.138	-0.189	-0.034
-695.456	-105.421	0.176	0.041
-694.441	800.000	0.147	-0.422
-693.426	-200.000	0.163	-0.000
-692.412	-143.295	0.199	-0.019
-691.397	56.017	0.136	-0.134
-690.383	97.495	-0.223	0.261
-689.368	-100.074	-0.074	-0.019
-688.354	261.797	-0.230	-0.407
-687.339	-117.428	0.270	0.050
-686.324	-47.665	0.237	0.117
-685.310	430.663	0.052	-0.115
-684.295	-132.063	0.153	-0.020
-683.281	207.783	0.066	0.105
-682.266	46.603	0.225	0.213
-681.251	558.385	-0.025	0.061
-680.237	84.319	0.170	-0.189
-679.222	86.536	-0.053	-0.060
-678.208	-32.936	0.139	-0.079
-677.193	-41.685	-0.166	0.087
-676.178	589.183	0.112	-0.282
-675.164	-3.162	0.089	0.064
-674.149	-56.802	-0.150	-0.068
-673.135	-107.093	-0.086	0.019
-672.120	-16.992	0.169	-0.109
-671.105	-200.000	-0.003	-0.081
-670.091	800.000	0.010	-0.041
-669.076	426.912	-0.146	-0.322
-668.062	-83.288	0.203	-0.066
-667.047	-56.246	0.080	0.036
-666.032	-46.477	0.228	-0.114
-665.018	-29.209	-0.126	-0.074
-664.003	213.301	0.107	0.173
-662.989	286.354	0.072	0.133
-661.974	-117.770	-0.241	-0.044
-660.959	-100.345	-0.118	0.030
-659.945	269.894	-0.080	0.144
-658.930	-90.890	0.401	0.118
-657.916	-31.381	-0.230	0.132
-656.901	800.000	0.096	0.398
-655.886	-154.384	-0.041	0.003
-654.872	-94.368	-0.609	-0.169
-653.857	246.357	-0.141	0.242
-652.843	-99.048	0.276	0.071
-651.828	-200.000	0.000	0.297
-650.814	8.781	-0.184	-0.141
-649.799	-175.932	0.302	-0.008
-648.784	340.542	0.067	0.133
-647.770	315.965	0.069	-0.133
-646.755	107.658	-0.089	-0.108
-645.741	-31.928	0.151	-0.086
-644.726	-74.212	-0.228	0.084
-643.711	-200.000	-0.017	-0.477
-642.697	155.427	0.173	0.243
-641.682	-16.748	-0.133	0.086
-640.668	-68.846	0.264	0.104
-639.653	-113.113	-0.357	-0.072
-638.638	-120.645	-0.284	-0.049
-637.624	143.953	0.117	0.160
-636.609	-101.953	-0.425	0.105
-635.595	-71.097	0.061	0.023
-634.580	-60.129	0.189	0.082
-633.565	-200.000	-0.021	0.139
-632.551	-200.000	-0.032	-0.275
-631.536	-200.000	-0.022	-0.150
-630.522	-104.346	0.251	-0.059
-629.507	82.142	-0.088	0.097
-628.492	30.322	-0.249	0.217
-627.478	-200.000	0.021	0.224
-626.463	17.338	-0.185	0.150
-625.449	-200.000	-0.004	-0.286
-624.434	356.874	0.129	-0.261
-623.419	-163.185	-0.216	-0.011
-622.405	800.000	-0.080	0.224
-621.390	-84.289	-0.088	0.028
-620.376	13.681	0.192	0.152
-619.361	800.000	-0.095	-0.289
-618.346	800.000	-0.027	-0.101
-617.332	-200.000	0.028	-0.337
-616.317	800.000	-0.080	-0.274
-615.303	588.387	-0.075	0.188
-614.288	30.672	-0.067	0.058
-613.273	-92.883	-0.082	0.023
-612.259	-79.761	-0.183	-0.063
-611.244	-140.979	0.255	-0.027
-610.230	-200.000	0.008	-0.133
-609.215	94.154	-0.027	0.031
-608.201	-59.687	0.362	0.158
-607.186	-96.444	0.202	0.054
-606.171	1.462	-0.120	0.087
-605.157	-97.993	0.121	0.032
-604.142	-134.317	-0.248	0.031
-603.128	155.724	0.117	0.164
-602.113	-15.252	0.277	0.180
-601.098	69.224	0.210	-0.220
-600.084	240.020	-0.055	-0.093
-599.069	-28.596	-0.237	-0.139
-598.055	-47.172	-0.208	-0.103
-597.040	-200.000	0.024	0.188
-596.025	800.000	0.080	-0.243
-595.011	-83.174	-0.204	-0.067
-593.996	800.000	0.081	-0.333
-592.982	47.726	0.245	0.232
-591.967	-41.345	0.136	0.071
-590.952	-200.000	0.056	0.250
-589.938	80.326	0.096	-0.105
-588.923	-141.226	-0.164	0.017
-587.909	-127.439	-0.124	-0.018
-586.894	-41.835	-0.186	0.097
-585.879	-24.832	-0.184	-0.111
-584.865	32.603	-0.129	0.113
-583.850	-17.652	-0.193	0.124
-582.836	-186.720	-0.241	-0.003
-581.821	402.551	0.134	-0.286
-580.806	135.009	-0.239	-0.315
-579.792	-121.990	0.296	-0.049
-578.777	-126.694	-0.266	0.040
-577.763	-154.862	-0.395	0.027
-576.748	-70.922	0.081	-0.031
-575.733	800.000	-0.090	-0.361
-574.719	-129.581	0.161	-0.023
-573.704	-89.812	-0.310	0.092
-572.690	-200.000	-0.024	0.153
-571.675	-82.698	-0.445	0.146
-570.661	-95.095	-0.216	0.059
-569.646	-26.974	-0.154	0.091
-568.631	-200.000	0.049	0.357
-567.617	165.728	-0.086	0.124
-566.602	-32.120	0.009	-0.005
-565.588	106.280	0.142	-0.171
-564.573	156.379	-0.046	-0.065
-563.558	74.080	0.180	0.192
-562.544	-131.628	-0.272	0.036
-561.529	248.693	0.086	-0.149
-560.515	800.000	0.089	-0.299
-559.500	426.305	0.052	-0.114
-558.485	-126.239	-0.332	-0.050
-557.471	-77.627	0.088	-0.031
-556.456	271.560	-0.171	-0.305
-555.442	-200.000	-0.006	-0.072
-554.427	108.124	-0.152	0.184
-553.412	189.288	-0.126	-0.192
-552.398	-78.522	0.305	0.106
-551.383	800.000	-0.105	0.320
-550.369	-200.000	-0.019	-0.258
-549.354	-48.698	-0.347	0.169
-548.339	-117.556	-0.069	0.013
-547.325	-109.693	0.129	0.028
-546.310	800.000	0.046	0.132
-545.296	440.510	0.110	-0.244
-544.281	-108.313	0.332	-0.073
-543.266	208.095	-0.093	-0.148
-542.252	800.000	-0.078	-0.242
-541.237	-26.232	-0.235	0.140
-540.223	67.502	0.155	0.161
-539.208	-200.000	0.015	-0.118
-538.193	20.757	0.194	-0.160
-537.179	-40.743	0.309	0.163
-536.164	570.494	-0.081	-0.199
-535.150	-54.442	-0.185	0.085
-534.135	-78.765	0.285	-0.099
-533.121	-144.718	0.096	-0.009
-532.106	-200.000	-0.039	-0.228
-531.091	-16.879	-0.113	0.073
-530.077	-112.889	-0.041	-0.008
-529.062	598.076	0.186	-0.468
-528.048	380.778	-0.124	-0.258
-527.033	674.213	-0.019	0.050
-526.018	-36.613	-0.273	-0.149
-525.004	196.001	-0.233	0.360
-523.989	163.841	-0.082	-0.117
-522.975	-54.729	0.247	-0.113
-521.960	-200.000	0.097	-0.487
-520.945	263.787	-0.169	-0.298
-519.931	-178.114	0.227	0.005
-518.916	-54.162	-0.029	0.013
-517.902	-200.000	0.013	0.131
-516.887	-200.000	0.025	-0.266
-515.872	170.143	-0.097	0.141
-514.858	412.784	0.136	-0.292
-513.843	800.000	-0.051	-0.185
-512.829	-200.000	-0.015	-0.109
-511.814	-200.000	0.027	-0.208
-510.799	-39.935	-0.165	0.087
-509.785	-16.904	-0.094	-0.060
-508.770	-68.406	0.382	0.150
-507.756	-100.995	0.279	-0.069
-506.741	289.257	-0.064	-0.117
-505.726	-34.551	0.187	-0.104
-504.712	-200.000	0.036	-0.191
-503.697	185.775	-0.073	0.110
-502.683	-69.738	0.114	0.044
-501.668	-87.019	0.035	-0.011
-500.653	800.000	-0.019	0.069
-499.639	-11.381	0.041	0.027
-498.624	35.382	0.282	-0.251
-497.610	161.390	0.194	-0.275
-496.595	-77.498	0.251	-0.088
-495.581	1.763	-0.096	-0.070
-494.566	-138.690	-0.129	-0.014
-493.551	697.619	0.094	0.251
-492.537	28.650	0.158	0.135
-491.522	-200.000	0.007	0.174
-490.508	-200.000	-0.003	-0.216
-489.493	-62.658	0.025	0.010
-488.478	-173.028	0.191	-0.006
-487.464	-63.665	0.154	-0.064
-486.449	-144.468	0.237	0.022
-485.435	213.577	0.092	-0.147
-484.420	-179.374	-0.251	0.006
-483.405	-200.000	0.021	0.098
-482.391	800.000	-0.047	0.197
-481.376	-200.000	-0.005	-0.273
-480.362	-111.943	0.322	-0.066
-479.347	-73.937	-0.207	-0.076
-478.332	747.197	0.167	-0.456
-477.318	-93.453	-0.169	-0.047
-476.303	240.116	0.107	0.180
-475.289	178.526	-0.045	-0.067
-474.274	-200.000	-0.004	0.058
-473.259	800.000	-0.096	-0.356
-472.245	40.953	0.160	0.146
-471.230	494.085	-0.019	0.045
-470.216	-2.424	-0.036	0.026
-469.201	435.240	0.199	0.437
-468.186	-200.000	0.011	-0.366
-467.172	126.933	0.247	-0.316
-466.157	-167.708	0.411	-0.016
-465.143	-68.535	-0.370	-0.145
-464.128	80.021	0.097	-0.105
-463.113	120.493	-0.255	0.320
-462.099	-200.000	0.051	0.302
-461.084	0.902	-0.141	0.102
-460.070	383.081	0.070	0.146
-459.055	800.000	0.098	-0.356
-458.040	800.000	-0.017	-0.051
-457.026	132.110	0.122	0.159
-456.011	-200.000	-0.018	0.105
-454.997	308.786	-0.067	0.126
-453.982	294.235	-0.086	-0.159
-452.968	11.247	0.187	-0.145
-451.953	8.743	0.242	0.185
-450.938	563.228	-0.104	-0.255
-449.924	426.231	0.187	-0.407
-448.909	199.248	-0.134	0.208
-447.895	29.035	0.315	0.270
-446.880	-13.656	0.156	-0.102
-445.865	8.514	-0.294	-0.224
-444.851	800.000	-0.044	0.191
-443.836	-73.971	0.150	0.055
-442.822	264.846	0.185	0.326
-441.807	-3.459	0.176	-0.124
-440.792	-92.582	-0.290	-0.082
-439.778	45.961	-0.050	-0.047
-438.763	800.000	-0.036	0.108
-437.749	221.894	-0.180	-0.293
-436.734	293.989	0.193	-0.357
-435.719	36.563	0.029	0.026
-434.705	142.328	0.161	-0.216
-433.690	-63.952	-0.115	-0.047
-432.676	-154.356	-0.391	-0.027
-431.661	800.000	-0.109	-0.348
-430.646	-200.000	-0.063	0.295
-429.632	-16.441	-0.273	-0.175
-428.617	-141.548	-0.244	0.025
-427.603	-200.000	0.029	-0.285
-426.588	-38.507	-0.245	-0.131
-425.573	49.994	0.239	-0.228
-424.559	-91.894	-0.300	0.086
-423.544	-200.000	0.021	-0.233
-422.530	-200.000	-0.031	0.204
-421.515	-200.000	0.008	-0.049
-420.500	-66.369	0.136	-0.055
-419.486	130.275	-0.105	-0.136
-418.471	-41.936	-0.271	-0.140
-417.457	800.000	0.102	-0.355
-416.442	99.406	-0.254	0.297
-415.428	-200.000	0.056	0.265
-414.413	62.043	-0.095	-0.096
-413.398	-47.900	0.212	0.104
-412.384	20.939	0.281	-0.230
-411.369	-163.347	-0.041	-0.002
-410.355	-1.013	0.050	0.036
-409.340	583.126	-0.053	0.132
-408.325	-144.442	0.183	-0.017
-407.311	130.313	0.236	-0.305
-406.296	93.556	0.088	-0.101
-405.282	676.519	-0.090	-0.237
-404.267	-86.699	-0.154	-0.048
-403.252	297.011	-0.155	0.287
-402.238	-94.011	0.272	0.075
-401.223	-200.000	0.000	-0.058
-400.209	9.085	-0.105	-0.080
-399.194	-60.114	-0.115	0.049
-398.179	800.000	-0.070	-0.213
-397.165	-95.164	-0.309	0.084
-396.150	800.000	-0.024	-0.084
-395.136	-139.534	-0.272	0.029
-394.121	110.539	0.132	0.160
-393.106	330.441	-0.097	0.188
-392.092	-200.000	0.002	0.192
-391.077	615.745	-0.058	0.148
-390.063	800.000	0.028	-0.095
-389.048	800.000	-0.018	0.052
-388.033	689.143	-0.052	0.138
-387.019	-200.000	-0.033	0.301
-386.004	101.933	-0.097	-0.115
-384.990	96.765	0.064	-0.074
-383.975	39.344	-0.258	-0.233
-382.960	-22.957	0.131	0.080
-381.946	-74.593	0.054	-0.020
-380.931	800.000	0.024	-0.086
-379.917	-86.571	0.135	0.042
-378.902	-9.342	0.063	-0.043
-377.888	-99.306	0.301	0.077
-376.873	-62.390	0.123	0.051
-375.858	800.000	0.072	0.294
-374.844	-200.000	0.022	0.268
-373.829	800.000	-0.149	0.479
-372.815	25.765	-0.182	0.153
-371.800	47.279	-0.066	0.062
-370.785	-200.000	-0.000	0.193
-369.771	408.394	-0.040	0.086
-368.756	165.122	0.066	0.094
-367.742	106.481	0.235	0.281
-366.727	49.028	-0.313	-0.296
-365.712	800.000	0.115	-0.489
-364.698	-152.615	-0.264	-0.019
-363.683	497.855	-0.182	-0.423
-362.669	-47.864	-0.202	-0.098
-361.654	217.930	0.119	0.191
-360.639	-68.940	-0.077	-0.030
-359.625	-62.631	0.124	-0.052
-358.610	-141.683	-0.051	-0.005
-357.596	165.577	-0.270	0.385
-356.581	800.000	0.088	0.286
-355.566	557.059	0.124	-0.302
-354.552	137.812	0.129	0.170
-353.537	435.078	-0.109	0.239
-352.523	-187.621	-0.158	-0.002
-351.508	572.143	0.112	0.274
-350.493	41.169	0.026	-0.024
-349.479	-16.798	-0.121	0.077
-348.464	40.969	-0.100	-0.090
-347.450	-56.903	0.105	-0.047
-346.435	-71.049	-0.392	0.149
-345.420	800.000	-0.057	-0.253
-344.406	-114.620	0.154	-0.030
-343.391	-78.353	0.218	0.075
-342.377	800.000	-0.127	-0.402
-341.362	-200.000	-0.049	0.435
-340.348	800.000	0.055	0.237
-339.333	-200.000	-0.026	-0.168
-338.318	-65.820	-0.241	0.097
-337.304	-46.912	-0.152	-0.075
-336.289	-124.930	0.177	0.027
-335.275	-200.000	-0.059	0.340
-334.260	-78.068	0.193	0.067
-333.245	56.837	0.142	-0.139
-332.231	-24.345	-0.082	-0.049
-331.216	210.405	-0.156	-0.246
-330.202	800.000	-0.079	0.333
-329.187	234.884	-0.066	0.109
-328.172	-200.000	-0.059	0.420
-327.158	-25.135	-0.301	0.179
-326.143	800.000	-0.085	-0.347
-325.129	-66.647	0.297	0.118
-324.114	-59.497	-0.260	-0.112
-323.099	-200.000	0.018	0.284
-322.085	635.490	0.061	-0.156
-321.070	-200.000	-0.021	-0.126
-320.056	-103.964	-0.286	-0.067
-319.041	73.539	-0.159	-0.168
-318.026	76.867	0.152	-0.162
-317.012	-200.000	0.024	-0.224
-315.997	-200.000	-0.025	-0.215
-314.983	-200.000	0.449	-0.001
-313.968	577.612	0.077	-0.189
-312.953	-88.163	0.377	-0.113
-311.939	4.811	-0.109	-0.081
-310.924	-166.240	-0.165	-0.007
-309.910	582.172	-0.120	-0.297
-308.895	-200.000	0.014	-0.183
-307.880	682.001	-0.046	0.119
-306.866	0.773	-0.112	0.080
-305.851	-110.144	-0.205	0.043
-304.837	800.000	-0.074	0.262
-303.822	-200.000	-0.036	-0.261
-302.807	166.642	-0.073	0.104
-301.793	225.366	0.201	0.328
-300.778	-120.052	0.230	0.040
-299.764	-94.976	0.201	-0.055
-298.749	716.890	0.100	0.267
-297.735	191.403	0.072	0.109
-296.720	-34.554	-0.159	-0.087
-295.705	224.931	0.056	0.091
-294.691	49.144	-0.135	-0.128
-293.676	-168.669	0.611	-0.023
-292.662	-59.678	0.208	-0.090
-291.647	-16.540	0.276	-0.176
-290.632	-149.380	0.177	-0.014
-289.618	-123.555	-0.278	-0.044
-288.603	-200.000	-0.003	-0.100
-287.589	-132.080	0.074	-0.010
-286.574	-147.789	0.307	0.026
-285.559	275.944	0.098	-0.175
-284.545	90.723	-0.151	0.170
-283.530	-55.823	-0.081	-0.036
-282.516	103.679	-0.058	0.068
-281.501	-85.449	-0.176	-0.055
-280.486	242.358	0.128	-0.215
-279.472	800.000	0.076	0.297
-278.457	444.306	-0.076	0.168
-277.443	800.000	-0.066	0.253
-276.428	-43.343	0.231	0.118
-275.413	-27.367	-0.051	0.030
-274.399	-92.247	-0.152	0.043
-273.384	145.636	0.230	0.310
-272.370	382.749	0.055	-0.114
-271.355	-119.534	-0.236	0.041
-270.340	174.198	0.140	0.203
-269.326	-37.105	-0.163	-0.087
-268.311	-106.172	0.254	-0.057
-267.297	800.000	-0.070	0.272
-266.282	87.850	-0.125	0.139
-265.267	466.685	0.050	-0.113
-264.253	-72.011	0.210	-0.078
-263.238	-34.000	0.338	0.186
-262.224	-119.071	0.123	-0.022
-261.209	-151.599	-0.176	0.013
-260.195	-200.000	-0.032	-0.169
-259.180	128.923	0.133	0.171
-258.165	-89.420	-0.227	0.067
-257.151	626.141	0.115	0.292
-256.136	427.366	0.159	-0.344
-255.122	800.000	0.083	0.255
-254.107	-85.171	0.245	0.077
-253.092	-200.000	0.053	0.247
-252.078	-200.000	0.008	-0.056
-251.063	476.943	0.197	-0.448
-250.049	373.954	-0.127	0.260
-249.034	21.232	-0.122	-0.100
-248.019	-168.643	-0.180	-0.007
-247.005	800.000	0.113	-0.328
-245.990	-200.000	-0.045	-0.228
-244.976	63.798	-0.337	0.340
-243.961	-152.929	0.250	-0.018
-242.946	13.107	-0.087	0.068
-241.932	-178.360	0.588	0.014
-240.917	25.551	-0.249	0.208
-239.903	11.899	-0.177	0.136
-238.888	489.594	0.118	0.271
-237.873	186.705	0.042	0.062
-236.859	142.984	0.155	-0.206
-235.844	-22.618	-0.110	0.067
-234.830	-42.357	0.174	-0.089
-233.815	52.182	-0.183	-0.175
-232.800	70.744	0.232	0.241
-231.786	348.061	-0.125	0.247
-230.771	325.921	0.220	0.422
-229.757	-111.185	0.265	-0.054
-228.742	-27.258	0.244	0.142
-227.727	77.451	0.023	-0.024
-226.713	-153.169	-0.165	-0.012
-225.698	337.582	0.062	0.121
-224.684	64.334	0.116	-0.117
-223.669	-149.390	0.094	0.008
-222.655	244.890	-0.073	-0.123
-221.640	316.121	-0.104	-0.196
-220.625	800.000	0.064	-0.261
-219.611	265.264	-0.066	-0.115
-218.596	-55.086	0.296	-0.134
-217.582	61.584	-0.155	0.154
-216.567	-68.018	-0.080	0.031
-215.552	595.823	-0.012	-0.029
-214.538	71.486	0.067	-0.070
-213.523	-200.000	-0.046	0.469
-212.509	102.065	-0.244	0.285
-211.494	-195.606	0.147	-0.001
-210.479	-39.813	-0.118	-0.062
-209.465	-108.480	-0.224	0.048
-208.450	-80.117	-0.346	0.116
-207.436	-162.128	0.114	0.006
-206.421	129.837	-0.110	-0.141
-205.406	-69.537	0.146	-0.056
-204.392	800.000	0.016	-0.047
-203.377	-106.007	-0.075	-0.017
-202.363	-96.350	-0.127	-0.034
-201.348	-27.150	0.093	-0.054
-200.333	800.000	0.113	-0.396
-199.319	-200.000	-0.031	0.159
-198.304	800.000	-0.073	0.304
-197.290	-191.836	-0.253	0.002
-196.275	-64.719	-0.196	-0.080
-195.260	800.000	-0.046	-0.172
-194.246	163.386	-0.057	0.081
-193.231	-43.780	0.207	-0.104
-192.217	25.564	0.393	0.328
-191.202	-200.000	-0.023	0.313
-190.187	-9.216	0.196	0.131
-189.173	335.040	-0.088	0.171
-188.158	288.615	-0.082	-0.150
-187.144	85.846	0.125	0.137
-186.129	800.000	-0.026	0.089
-185.114	-36.351	-0.231	-0.125
-184.100	768.726	-0.018	0.049
-183.085	-116.643	0.406	0.075
-182.071	800.000	0.044	0.158
-181.056	-69.936	0.463	0.177
-180.042	-26.825	0.271	0.159
-179.027	-200.000	-0.030	0.210
-178.012	188.358	-0.082	0.122
-176.998	-101.930	0.049	0.012
-175.983	-52.915	0.204	-0.094
-174.969	-19.092	-0.439	0.273
-173.954	551.030	-0.071	0.171
-172.939	-170.946	-0.171	-0.006
-171.925	128.954	-0.251	-0.320
-170.910	800.000	-0.017	0.063
-169.896	-200.000	0.017	0.244
-168.881	2.705	-0.167	0.121
-167.866	800.000	-0.091	0.369
-166.852	-14.001	0.186	0.120
-165.837	-168.185	-0.467	-0.018
-164.823	161.720	-0.207	-0.290
-163.808	-22.529	-0.166	-0.101
-162.793	675.823	0.106	0.277
-161.779	163.075	0.179	0.252
-160.764	800.000	-0.034	0.120
-159.750	-200.000	0.009	0.141
-158.735	626.667	0.051	-0.129
-157.720	-64.766	0.202	-0.082
-156.706	-200.000	-0.011	0.060
-155.691	392.526	0.194	0.402
-154.677	689.312	-0.043	-0.112
-153.662	800.000	-0.043	-0.153
-152.647	-200.000	-0.023	0.134
-151.633	-139.423	0.203	0.022
-150.618	740.079	0.053	0.142
-149.604	-86.437	-0.206	0.063
-148.589	-22.446	-0.180	0.109
-147.574	-58.064	0.223	-0.097
-146.560	747.311	0.168	-0.451
-145.545	-94.927	0.246	-0.067
-144.531	60.617	0.253	0.250
-143.516	-41.224	-0.100	0.051
-142.502	-3.924	-0.140	-0.097
-141.487	502.689	0.105	-0.242
-140.472	-124.751	-0.381	-0.059
-139.458	165.756	-0.048	-0.067
-138.443	514.904	-0.025	-0.059
-137.429	-78.498	0.089	-0.031
-136.414	26.640	-0.133	0.111
-135.399	-45.886	-0.357	-0.176
-134.385	-51.032	0.042	-0.019
-133.370	-150.141	-0.036	0.003
-132.356	163.290	0.145	-0.204
-131.341	-61.599	0.433	-0.182
-130.326	-200.000	0.018	-0.406
-129.312	-112.044	0.092	0.019
-128.297	248.937	0.117	0.198
-127.283	-37.552	0.258	0.137
-126.268	-112.765	0.297	0.059
-125.253	-150.280	-0.119	0.009
-124.239	-66.759	0.276	0.109
-123.224	-46.846	-0.187	-0.091
-122.210	-119.846	0.423	0.073
