DTS Sentinel unit serial number:	SN413079Multiplexer serial number:	ORYXHardware model number:	OX4-SRSoftware version number:	ORYX F/W v4.00 Oryx Data Collector v3.7.2.0data status	okinstallation	princeton_trtdifferential loss correction	single-endedforward channel	channel 3reverse channel	N/Adate	2019/09/12time	23:00:34forward acquisition time	60.00reverse acquisition time	0.00gamma	496.2192k internal	0.2327k external	0.2327temperature offset calibration	1.0131default loss term (dB/km)	0.3790temperature slope calibration	1.0000multiplexer offset coefficient	1.0000multiplexer slope coefficient	1.0000fibre end	0.00T internal ref (°C)	29.31T ext. ref 1 (°C)	3.74T ext. ref 2 (°C)	23.95length (m)	temperature (°C)	Stokes	anti-Stokes-747.200	89.232	-0.303	0.340
-746.185	223.269	0.280	0.456
-745.171	17.678	-0.297	0.238
-744.156	660.903	-0.084	0.219
-743.142	-172.109	0.198	-0.006
-742.127	-200.000	0.087	0.391
-741.112	34.407	-0.078	0.068
-740.098	-200.000	-0.011	0.157
-739.083	183.956	-0.179	0.266
-738.069	77.339	0.260	0.278
-737.054	46.193	0.243	-0.227
-736.039	800.000	-0.126	-0.373
-735.025	-66.694	0.300	-0.120
-734.010	-37.865	-0.252	-0.135
-732.996	73.104	0.039	-0.041
-731.981	-103.555	-0.584	0.138
-730.966	747.863	0.080	0.218
-729.952	-200.000	-0.046	-0.373
-728.937	181.723	-0.207	0.306
-727.923	-36.065	-0.125	-0.068
-726.908	27.573	-0.049	0.041
-725.894	-160.483	-0.142	-0.008
-724.879	-17.106	-0.037	-0.023
-723.864	-169.504	-0.378	-0.014
-722.850	6.441	0.046	-0.035
-721.835	73.283	0.011	0.011
-720.821	-110.684	0.101	-0.021
-719.806	-108.649	0.343	-0.074
-718.791	-200.000	-0.007	0.037
-717.777	-200.000	0.006	-0.090
-716.762	-59.505	-0.140	-0.061
-715.748	-108.373	0.242	-0.053
-714.733	-200.000	-0.041	0.241
-713.718	-190.708	-0.101	0.001
-712.704	-141.581	0.306	-0.031
-711.689	-200.000	-0.060	-0.302
-710.675	67.089	-0.239	0.245
-709.660	800.000	0.049	0.178
-708.645	-82.805	-0.188	-0.061
-707.631	148.512	0.173	0.235
-706.616	-93.683	0.202	-0.056
-705.602	56.796	-0.047	0.046
-704.587	-88.813	-0.308	0.092
-703.572	-159.425	-0.439	0.025
-702.558	-139.089	0.300	0.033
-701.543	333.254	-0.015	-0.028
-700.529	-200.000	-0.041	0.240
-699.514	-47.529	-0.326	0.160
-698.499	-86.448	0.382	0.118
-697.485	-3.563	-0.291	0.204
-696.470	111.918	0.191	0.232
-695.456	-97.875	0.118	-0.031
-694.441	-200.000	-0.023	0.132
-693.426	-200.000	-0.045	-0.217
-692.412	-43.862	-0.196	0.099
-691.397	-131.651	0.257	0.034
-690.383	-100.603	-0.385	-0.096
-689.368	-124.513	0.330	0.052
-688.354	-142.650	-0.204	-0.020
-687.339	-200.000	0.036	0.181
-686.324	65.453	-0.107	0.109
-685.310	-19.986	0.073	0.045
-684.295	-170.177	-0.181	-0.006
-683.281	-130.465	0.166	-0.023
-682.266	8.103	-0.159	-0.120
-681.251	800.000	-0.101	-0.306
-680.237	55.844	-0.208	0.203
-679.222	97.360	0.240	-0.277
-678.208	352.180	-0.077	-0.154
-677.193	469.844	-0.062	0.140
-676.178	123.532	0.037	0.046
-675.164	5.606	0.134	0.100
-674.149	-200.000	-0.004	-0.024
-673.135	121.347	-0.020	-0.025
-672.120	-200.000	-0.012	0.281
-671.105	-200.000	-0.037	0.234
-670.091	140.892	-0.123	0.163
-669.076	-33.575	-0.133	-0.074
-668.062	-200.000	-0.024	0.188
-667.047	-123.840	-0.568	0.090
-666.032	-158.331	-0.085	0.005
-665.018	-200.000	-0.048	-0.261
-664.003	656.756	0.062	-0.161
-662.989	-20.829	-0.164	0.101
-661.974	197.151	-0.073	0.111
-660.959	-69.493	-0.219	-0.084
-659.945	-200.000	-0.010	0.056
-658.930	169.387	-0.099	-0.142
-657.916	-126.658	-0.238	0.035
-656.901	-200.000	-0.027	0.129
-655.886	-46.861	-0.286	-0.140
-654.872	150.342	-0.259	-0.353
-653.857	-6.154	0.056	0.038
-652.843	800.000	-0.115	0.332
-651.828	595.697	-0.046	-0.114
-650.814	228.860	0.046	-0.076
-649.799	108.442	0.307	-0.368
-648.784	84.823	-0.048	0.053
-647.770	-140.995	0.103	-0.011
-646.755	-38.395	0.146	-0.078
-645.741	13.699	0.177	0.138
-644.726	92.362	0.151	-0.171
-643.711	-138.460	0.156	-0.017
-642.697	79.876	-0.109	0.117
-641.682	800.000	0.009	-0.038
-640.668	86.755	0.049	0.054
-639.653	800.000	-0.052	0.205
-638.638	800.000	-0.096	0.354
-637.624	-200.000	-0.020	0.145
-636.609	119.322	0.188	-0.233
-635.595	-101.411	-0.199	-0.049
-634.580	27.945	-0.131	0.111
-633.565	-136.966	-0.088	-0.010
-632.551	-200.000	-0.017	-0.107
-631.536	110.862	-0.030	0.036
-630.522	800.000	-0.148	0.496
-629.507	114.549	-0.068	0.083
-628.492	-8.310	-0.162	-0.110
-627.478	-44.293	0.268	-0.135
-626.463	-200.000	-0.047	-0.293
-625.449	-200.000	-0.049	-0.324
-624.434	-101.540	0.537	-0.131
-623.419	-157.214	-0.174	0.011
-622.405	590.917	-0.103	0.255
-621.390	130.552	0.205	-0.264
-620.376	800.000	-0.053	0.226
-619.361	211.875	-0.041	0.065
-618.346	-143.180	-0.153	-0.015
-617.332	-200.000	0.034	-0.223
-616.317	-200.000	-0.030	-0.362
-615.303	540.546	0.141	-0.337
-614.288	800.000	0.048	0.155
-613.273	-50.705	-0.229	-0.108
-612.259	-200.000	-0.035	-0.170
-611.244	800.000	0.098	0.368
-610.230	-200.000	0.018	-0.228
-609.215	156.523	0.279	-0.386
-608.201	157.974	-0.059	0.082
-607.186	800.000	0.045	-0.153
-606.171	-22.961	0.120	-0.072
-605.157	227.088	-0.173	-0.281
-604.142	-200.000	0.010	0.055
-603.128	-200.000	0.019	-0.196
-602.113	66.785	-0.173	0.177
-601.098	800.000	0.153	0.453
-600.084	86.507	0.057	-0.063
-599.069	174.311	-0.213	0.309
-598.055	-148.112	0.420	0.035
-597.040	-161.754	0.082	-0.004
-596.025	-173.248	-0.239	0.007
-595.011	-0.599	-0.034	0.024
-593.996	331.485	-0.029	-0.057
-592.982	-95.870	-0.304	0.081
-591.967	176.675	-0.097	0.141
-590.952	134.194	0.262	-0.340
-589.938	644.400	-0.056	0.144
-588.923	-7.188	0.212	0.144
-587.909	-8.781	-0.067	-0.045
-586.894	-200.000	0.028	-0.127
-585.879	444.363	0.095	0.209
-584.865	-200.000	-0.028	-0.157
-583.850	-93.213	-0.178	-0.049
-582.836	-200.000	0.028	-0.203
-581.821	800.000	-0.134	-0.387
-580.806	-200.000	-0.026	0.155
-579.792	18.780	0.150	0.120
-578.777	-159.268	-0.271	0.015
-577.763	-129.792	0.068	0.009
-576.748	357.028	-0.086	-0.173
-575.733	-200.000	0.017	0.169
-574.719	126.546	0.232	0.294
-573.704	-112.033	0.498	-0.100
-572.690	68.045	-0.113	-0.115
-571.675	-70.057	-0.413	0.157
-570.661	-87.334	-0.085	0.026
-569.646	-119.263	0.408	-0.071
-568.631	142.211	0.113	0.150
-567.617	632.187	0.009	0.023
-566.602	7.708	-0.132	0.099
-565.588	-140.017	0.277	0.029
-564.573	162.230	-0.127	0.178
-563.558	-76.126	-0.363	0.128
-562.544	-134.507	-0.116	-0.014
-561.529	381.505	-0.159	0.327
-560.515	-146.680	-0.151	-0.013
-559.500	-52.869	-0.545	0.251
-558.485	17.868	0.091	0.073
-557.471	-186.271	-0.253	-0.004
-556.456	-200.000	0.029	0.235
-555.442	-153.103	0.123	0.009
-554.427	230.785	0.104	0.170
-553.412	-80.151	0.333	0.112
-552.398	529.127	-0.134	-0.318
-551.383	-133.804	-0.232	-0.029
-550.369	119.080	-0.166	-0.205
-549.354	-127.980	-0.281	-0.040
-548.339	112.104	0.014	-0.016
-547.325	800.000	0.042	0.121
-546.310	315.240	-0.112	-0.210
-545.296	-17.340	0.034	0.021
-544.281	-84.823	0.104	-0.033
-543.266	470.192	0.114	-0.255
-542.252	-200.000	-0.015	-0.105
-541.237	-170.582	-0.121	0.004
-540.223	448.388	-0.173	0.382
-539.208	-200.000	-0.012	0.165
-538.193	-22.413	-0.134	0.081
-537.179	-20.310	0.277	0.170
-536.164	800.000	0.004	0.012
-535.150	800.000	0.016	0.045
-534.135	-97.584	0.323	-0.084
-533.121	-135.585	-0.203	0.024
-532.106	110.322	-0.090	-0.108
-531.091	36.235	-0.076	0.067
-530.077	147.420	0.130	0.175
-529.062	282.524	-0.050	-0.089
-528.048	-120.704	0.055	-0.009
-527.033	44.241	-0.137	0.125
-526.018	800.000	0.122	0.426
-525.004	800.000	0.061	0.194
-523.989	744.934	0.104	-0.281
-522.975	-164.165	0.054	-0.002
-521.960	33.312	0.239	-0.207
-520.945	-9.475	-0.326	-0.217
-519.931	383.399	0.078	-0.161
-518.916	15.671	-0.181	-0.142
-517.902	-113.714	0.230	0.045
-516.887	122.011	0.183	-0.228
-515.872	-120.640	0.194	0.033
-514.858	-200.000	0.025	-0.389
-513.843	-72.098	-0.105	-0.039
-512.829	-200.000	-0.021	0.237
-511.814	-200.000	0.013	-0.057
-510.799	9.618	0.165	-0.125
-509.785	-130.586	0.241	-0.033
-508.770	800.000	0.068	0.268
-507.756	107.099	-0.175	0.207
-506.741	236.891	0.112	0.185
-505.726	630.287	-0.122	0.309
-504.712	-162.861	-0.258	-0.013
-503.697	-135.116	-0.036	-0.004
-502.683	24.550	0.330	0.273
-501.668	204.611	0.204	-0.317
-500.653	-200.000	0.001	-0.159
-499.639	26.585	-0.078	-0.065
-498.624	-104.829	-0.177	0.041
-497.610	800.000	0.031	-0.128
-496.595	800.000	-0.065	-0.252
-495.581	-118.236	-0.270	0.048
-494.566	800.000	-0.070	-0.252
-493.551	-121.694	-0.168	0.028
-492.537	19.576	0.267	-0.214
-491.522	-56.144	0.354	-0.157
-490.508	-200.000	-0.004	-0.025
-489.493	-200.000	-0.007	0.149
-488.478	800.000	0.032	0.129
-487.464	133.318	0.202	0.261
-486.449	800.000	-0.066	0.201
-485.435	-200.000	-0.081	-0.532
-484.420	-95.282	-0.336	-0.090
-483.405	-200.000	-0.019	0.089
-482.391	-181.457	-0.321	0.006
-481.376	1.671	-0.078	0.056
-480.362	-33.680	0.344	-0.189
-479.347	-200.000	-0.011	-0.261
-478.332	-113.730	-0.309	-0.060
-477.318	-134.024	-0.218	0.027
-476.303	-106.165	0.226	0.051
-475.289	-11.432	0.239	0.157
-474.274	-34.818	0.235	-0.128
-473.259	437.844	0.111	0.242
-472.245	370.841	0.078	-0.158
-471.230	66.770	0.050	-0.051
-470.216	164.840	0.057	0.080
-469.201	503.537	0.140	0.322
-468.186	77.518	0.118	0.125
-467.172	-104.920	-0.290	-0.066
-466.157	-67.089	0.092	-0.036
-465.143	-76.007	-0.183	0.064
-464.128	-84.555	-0.322	-0.101
-463.113	189.548	0.154	0.230
-462.099	-200.000	0.028	-0.337
-461.084	-140.114	-0.328	0.034
-460.070	-38.485	-0.327	-0.173
-459.055	410.545	-0.076	0.160
-458.040	-12.050	-0.176	-0.115
-457.026	36.687	-0.055	0.048
-456.011	680.459	0.131	0.339
-454.997	576.317	0.141	-0.344
-453.982	-62.096	0.110	0.046
-452.968	225.263	0.082	0.132
-451.953	800.000	-0.076	-0.220
-450.938	-4.469	-0.210	-0.145
-449.924	-200.000	-0.003	-0.036
-448.909	-17.002	0.416	-0.262
-447.895	-39.048	0.389	-0.204
-446.880	-20.687	0.335	0.205
-445.865	-63.364	-0.330	-0.136
-444.851	800.000	-0.070	-0.226
-443.836	-145.876	-0.356	0.031
-442.822	271.247	-0.055	0.097
-441.807	-87.729	0.333	0.100
-440.792	686.298	-0.147	-0.382
-439.778	-97.148	0.329	0.086
-438.763	-10.636	0.039	0.025
-437.749	-67.680	-0.281	-0.109
-436.734	323.152	-0.051	0.097
-435.719	-200.000	0.029	0.392
-434.705	28.439	-0.201	0.169
-433.690	492.508	0.145	-0.332
-432.676	-200.000	0.028	0.423
-431.661	302.985	-0.155	0.285
-430.646	18.367	0.185	0.147
-429.632	43.940	0.158	0.144
-428.617	-187.064	-0.297	-0.004
-427.603	50.572	0.085	0.080
-426.588	-122.400	-0.236	-0.038
-425.573	44.554	-0.267	0.244
-424.559	-135.710	-0.101	-0.012
-423.544	-200.000	0.046	-0.207
-422.530	-163.724	0.128	-0.006
-421.515	239.312	-0.273	0.452
-420.500	-200.000	0.022	0.163
-419.486	147.708	-0.142	-0.190
-418.471	11.577	0.088	0.067
-417.457	-142.493	0.247	-0.024
-416.442	-94.477	-0.217	0.059
-415.428	21.514	0.122	0.098
-414.413	-200.000	-0.025	0.138
-413.398	27.338	-0.409	-0.342
-412.384	54.257	0.111	0.107
-411.369	-33.846	0.260	0.143
-410.355	45.498	0.225	0.207
-409.340	-200.000	-0.011	-0.110
-408.325	152.405	-0.103	0.140
-407.311	89.210	0.130	-0.145
-406.296	630.133	-0.083	-0.208
-405.282	173.034	-0.169	-0.243
-404.267	390.456	-0.185	-0.381
-403.252	259.472	-0.080	-0.138
-402.238	22.775	-0.087	0.071
-401.223	218.808	0.090	-0.142
-400.209	336.057	-0.076	-0.147
-399.194	-200.000	-0.030	-0.285
-398.179	800.000	0.068	0.207
-397.165	-200.000	-0.026	-0.304
-396.150	150.872	-0.067	0.090
-395.136	-200.000	-0.012	-0.154
-394.121	-123.655	-0.134	0.021
-393.106	-131.809	-0.069	-0.009
-392.092	-200.000	0.066	-0.406
-391.077	8.291	0.058	-0.043
-390.063	800.000	-0.056	-0.180
-389.048	-200.000	0.039	-0.226
-388.033	545.430	0.052	-0.124
-387.019	-177.739	-0.236	0.006
-386.004	31.064	0.039	0.033
-384.990	-200.000	0.027	-0.193
-383.975	-49.357	0.098	0.047
-382.960	7.122	-0.318	0.236
-381.946	10.988	-0.245	-0.186
-380.931	-105.468	0.200	-0.045
-379.917	-19.799	-0.223	-0.137
-378.902	183.675	-0.095	0.140
-377.888	658.689	0.139	0.355
-376.873	-39.428	-0.187	-0.097
-375.858	-68.123	-0.220	-0.085
-374.844	-0.409	0.096	0.068
-373.829	-200.000	0.045	0.468
-372.815	24.988	0.181	0.149
-371.800	154.394	-0.137	-0.187
-370.785	10.966	0.207	-0.157
-369.771	-6.238	-0.149	-0.101
-368.756	-200.000	0.021	-0.103
-367.742	314.690	0.193	-0.360
-366.727	800.000	-0.065	-0.243
-365.712	-200.000	0.003	0.085
-364.698	800.000	-0.032	0.120
-363.683	-102.795	-0.156	0.037
-362.669	445.909	0.097	-0.211
-361.654	49.744	0.163	0.153
-360.639	-200.000	-0.030	0.212
-359.625	-200.000	-0.072	0.316
-358.610	800.000	-0.076	0.243
-357.596	800.000	-0.102	0.286
-356.581	-62.271	0.206	0.085
-355.566	396.255	-0.086	-0.177
-354.552	-47.475	0.225	0.109
-353.537	-71.094	0.242	-0.090
-352.523	-162.973	-0.278	0.013
-351.508	-95.506	-0.291	0.077
-350.493	-134.723	0.067	-0.008
-349.479	23.552	-0.265	0.216
-348.464	-200.000	-0.007	0.038
-347.450	45.541	-0.032	0.029
-346.435	6.462	0.258	-0.190
-345.420	-57.200	0.107	0.047
-344.406	155.098	-0.020	0.027
-343.391	-50.361	-0.525	-0.246
-342.377	307.228	-0.218	-0.402
-341.362	335.346	-0.072	-0.138
-340.348	-84.446	-0.417	-0.131
-339.333	-200.000	0.001	-0.156
-338.318	-164.631	0.239	0.011
-337.304	-168.865	-0.276	-0.010
-336.289	-200.000	0.017	0.133
-335.275	168.415	-0.108	-0.153
-334.260	93.904	-0.248	-0.278
-333.245	485.907	0.072	0.162
-332.231	-200.000	0.042	-0.200
-331.216	-67.494	0.060	0.023
-330.202	159.054	-0.031	0.043
-329.187	568.103	0.089	0.216
-328.172	-200.000	-0.004	-0.046
-327.158	30.145	-0.202	0.171
-326.143	-87.770	0.122	-0.037
-325.129	-94.737	0.263	0.071
-324.114	-69.609	-0.166	-0.063
-323.099	-200.000	0.034	-0.252
-322.085	25.398	-0.349	0.288
-321.070	-150.433	0.252	0.019
-320.056	167.529	0.247	0.348
-319.041	48.595	0.008	-0.008
-318.026	50.937	0.053	-0.050
-317.012	-200.000	0.017	0.211
-315.997	-25.391	0.268	-0.157
-314.983	162.020	0.074	-0.103
-313.968	-200.000	-0.067	-0.325
-312.953	197.563	0.150	0.227
-311.939	-0.583	-0.190	0.134
-310.924	-90.430	0.324	-0.093
-309.910	-87.190	-0.007	-0.002
-308.895	13.333	-0.267	0.205
-307.880	-55.410	0.284	-0.126
-306.866	-13.110	0.143	-0.092
-305.851	-138.677	0.336	0.036
-304.837	73.505	-0.315	-0.327
-303.822	-200.000	-0.015	-0.140
-302.807	-200.000	0.045	-0.281
-301.793	800.000	-0.031	0.112
-300.778	-41.211	-0.098	0.050
-299.764	798.043	-0.162	-0.442
-298.749	-145.068	-0.378	0.034
-297.735	-188.843	0.193	-0.002
-296.720	572.544	0.177	0.428
-295.705	-4.623	0.087	-0.060
-294.691	-92.719	0.167	0.046
-293.676	129.716	0.047	-0.059
-292.662	-98.898	0.048	0.012
-291.647	-54.804	0.022	-0.010
-290.632	77.594	0.140	0.147
-289.618	512.596	-0.158	0.365
-288.603	-76.985	0.109	0.038
-287.589	800.000	0.139	0.543
-286.574	800.000	0.023	-0.092
-285.559	31.955	-0.075	-0.064
-284.545	-130.227	0.342	0.046
-283.530	-130.792	0.222	-0.029
-282.516	-200.000	-0.041	0.254
-281.501	-15.058	0.225	-0.143
-280.486	-200.000	0.012	-0.132
-279.472	-75.974	-0.321	0.112
-278.457	44.566	0.240	-0.218
-277.443	-134.239	-0.339	-0.041
-276.428	-154.241	-0.307	-0.021
-275.413	231.532	0.126	-0.205
-274.399	-149.046	-0.189	-0.015
-273.384	77.978	0.138	-0.145
-272.370	-200.000	-0.014	0.422
-271.355	800.000	0.052	-0.219
-270.340	184.109	-0.109	0.160
-269.326	175.729	0.077	0.110
-268.311	-66.349	-0.184	0.072
-267.297	-200.000	0.047	-0.217
-266.282	800.000	0.040	0.165
-265.267	-63.905	-0.112	-0.045
-264.253	343.347	-0.086	0.166
-263.238	580.285	-0.034	-0.083
-262.224	459.371	0.047	-0.103
-261.209	800.000	-0.084	0.278
-260.195	329.386	-0.128	0.244
-259.180	800.000	0.049	0.173
-258.165	800.000	0.087	-0.308
-257.151	-200.000	-0.003	0.144
-256.136	-64.962	-0.115	0.046
-255.122	9.537	0.295	0.221
-254.107	21.032	0.094	0.076
-253.092	427.255	-0.118	0.252
-252.078	-181.010	0.332	-0.007
-251.063	63.282	0.121	0.120
-250.049	800.000	-0.104	0.317
-249.034	-9.067	-0.102	0.067
-248.019	27.761	-0.328	0.273
-247.005	200.086	0.231	-0.350
-245.990	-49.853	-0.218	-0.102
-244.976	-108.305	0.249	0.053
-243.961	-61.638	0.055	-0.023
-242.946	194.769	-0.036	0.054
-241.932	-183.869	0.103	0.002
-240.917	58.382	0.045	0.043
-239.903	-62.290	-0.353	-0.145
-238.888	-83.620	-0.174	-0.055
-237.873	-71.445	-0.234	0.087
-236.859	24.745	0.098	0.080
-235.844	-43.888	-0.049	-0.024
-234.830	-12.594	-0.183	0.118
-233.815	-3.253	-0.084	0.058
-232.800	-200.000	0.043	0.242
-231.786	800.000	-0.086	-0.300
-230.771	-161.918	0.183	-0.009
-229.757	-85.704	0.264	0.081
-228.742	252.625	0.030	-0.051
-227.727	800.000	-0.063	-0.230
-226.713	15.412	0.222	0.172
-225.698	-89.550	-0.278	-0.081
-224.684	-137.543	0.049	-0.005
-223.669	-180.518	0.310	0.006
-222.655	-105.905	-0.191	-0.043
-221.640	678.158	0.096	0.246
-220.625	-169.475	0.223	0.008
-219.611	32.426	-0.207	-0.177
-218.596	800.000	0.064	0.194
-217.582	330.781	-0.059	0.112
-216.567	524.853	0.129	0.300
-215.552	75.834	0.156	-0.163
-214.538	311.126	-0.250	-0.463
-213.523	-200.000	-0.016	-0.165
-212.509	232.500	0.137	0.222
-211.494	800.000	0.027	-0.105
-210.479	439.187	-0.025	0.054
-209.465	286.431	0.125	0.223
-208.450	-51.014	-0.259	-0.120
-207.436	-200.000	-0.085	-0.425
-206.421	38.362	0.047	0.041
-205.406	164.041	-0.080	-0.111
-204.392	-140.529	-0.091	-0.009
-203.377	-33.730	-0.189	-0.103
-202.363	-200.000	-0.002	-0.058
-201.348	-166.310	0.308	-0.013
-200.333	-31.062	0.233	0.130
-199.319	-106.106	0.164	0.036
-198.304	-9.302	0.232	-0.153
-197.290	11.906	-0.177	0.134
-196.275	-32.614	-0.150	-0.082
-195.260	-200.000	-0.054	0.264
-194.246	800.000	0.044	0.176
-193.231	8.099	0.095	-0.070
-192.217	800.000	0.012	-0.034
-191.202	-200.000	-0.021	-0.110
-190.187	-17.387	-0.203	0.126
-189.173	-131.667	0.296	-0.038
-188.158	111.927	-0.054	-0.064
-187.144	-73.704	0.213	-0.077
-186.129	-25.785	-0.318	-0.185
-185.114	-137.945	0.286	0.032
-184.100	662.182	-0.038	-0.097
-183.085	-200.000	0.023	-0.238
-182.071	-41.662	0.181	-0.092
-181.056	-200.000	-0.059	0.270
-180.042	-200.000	-0.003	0.263
-179.027	-83.113	0.063	0.020
-178.012	800.000	0.078	0.245
-176.998	17.297	-0.256	-0.200
-175.983	-200.000	0.067	0.495
-174.969	800.000	0.057	-0.214
-173.954	-200.000	-0.014	-0.092
-172.939	-8.767	0.343	-0.227
-171.925	439.503	0.013	-0.029
-170.910	-54.455	0.188	0.084
-169.896	-200.000	-0.046	0.357
-168.881	54.953	0.076	0.072
-167.866	-99.470	-0.159	0.039
-166.852	46.842	0.183	-0.168
-165.837	-73.108	0.245	0.089
-164.823	226.718	-0.157	0.251
-163.808	36.820	0.134	0.116
-162.793	-200.000	-0.011	0.186
-161.779	471.243	0.065	-0.144
-160.764	93.215	-0.036	-0.040
-159.750	99.821	-0.111	0.127
-158.735	-12.705	0.258	-0.166
-157.720	-47.103	-0.279	-0.134
-156.706	-121.102	0.203	0.033
-155.691	-63.759	0.164	-0.066
-154.677	32.222	0.182	0.154
-153.662	-64.187	0.257	-0.103
-152.647	800.000	-0.065	-0.256
-151.633	312.065	-0.046	-0.086
-150.618	-200.000	0.006	-0.041
-149.604	-200.000	0.033	0.368
-148.589	381.992	-0.083	-0.168
-147.574	-200.000	-0.031	0.285
-146.560	47.908	0.068	0.063
-145.545	193.152	0.188	0.280
-144.531	-19.218	0.289	-0.177
-143.516	11.295	-0.130	0.098
-142.502	-200.000	-0.025	0.286
-141.487	61.375	-0.187	-0.183
-140.472	131.283	0.196	0.247
-139.458	-167.235	-0.221	0.009
-138.443	68.525	-0.030	0.030
-137.429	-172.917	0.280	-0.009
-136.414	-58.057	0.072	-0.031
-135.399	17.179	0.220	-0.172
-134.385	576.068	0.077	0.185
-133.370	-158.996	0.313	-0.017
-132.356	1.084	0.123	0.087
-131.341	-78.711	-0.153	0.051
-130.326	-200.000	-0.006	0.144
-129.312	800.000	0.070	-0.239
-128.297	-200.000	0.057	0.486
-127.283	6.128	0.091	0.066
-126.268	164.636	-0.068	0.094
-125.253	665.549	-0.084	0.215
-124.239	409.216	0.094	0.196
-123.224	79.904	-0.112	-0.118
-122.210	38.676	0.141	-0.124
-121.195	-200.000	-0.031	-0.141
