DTS Sentinel unit serial number:	SN413079Multiplexer serial number:	ORYXHardware model number:	OX4-SRSoftware version number:	ORYX F/W v4.00 Oryx Data Collector v3.7.2.0data status	okinstallation	princeton_trtdifferential loss correction	single-endedforward channel	channel 3reverse channel	N/Adate	2019/09/13time	12:32:34forward acquisition time	60.00reverse acquisition time	0.00gamma	496.2192k internal	0.2304k external	0.2304temperature offset calibration	1.0155default loss term (dB/km)	0.3790temperature slope calibration	1.0000multiplexer offset coefficient	1.0000multiplexer slope coefficient	1.0000fibre end	0.00T internal ref (°C)	34.44T ext. ref 1 (°C)	4.61T ext. ref 2 (°C)	31.73length (m)	temperature (°C)	Stokes	anti-Stokes-747.200	-86.995	0.265	-0.082
-746.185	54.458	-0.195	-0.192
-745.171	-80.371	0.128	0.044
-744.156	-200.000	-0.027	0.157
-743.142	294.273	-0.067	0.125
-742.127	254.424	-0.172	0.299
-741.112	-165.095	0.329	-0.015
-740.098	-200.000	-0.033	0.228
-739.083	-109.345	-0.256	0.055
-738.069	73.827	-0.333	0.356
-737.054	-200.000	-0.056	0.253
-736.039	800.000	-0.079	0.317
-735.025	-134.421	0.352	-0.044
-734.010	-113.531	-0.166	-0.033
-732.996	-25.971	-0.173	-0.103
-731.981	800.000	-0.099	-0.293
-730.966	-77.553	-0.193	-0.068
-729.952	-200.000	-0.031	0.170
-728.937	-113.336	0.225	0.045
-727.923	-200.000	-0.033	-0.353
-726.908	-200.000	0.052	0.273
-725.894	-79.435	-0.471	-0.162
-724.879	-109.510	0.070	-0.015
-723.864	100.511	-0.091	0.108
-722.850	111.620	-0.179	-0.219
-721.835	17.672	-0.208	-0.169
-720.821	-200.000	-0.033	0.331
-719.806	800.000	-0.018	-0.064
-718.791	-137.100	-0.232	0.027
-717.777	118.081	-0.034	0.043
-716.762	57.723	-0.244	-0.243
-715.748	-200.000	0.000	0.164
-714.733	-47.815	0.141	-0.069
-713.718	800.000	0.067	-0.254
-712.704	-37.001	0.207	-0.113
-711.689	-200.000	0.044	-0.254
-710.675	-12.005	0.236	-0.157
-709.660	-74.586	-0.296	0.108
-708.645	-9.086	-0.292	0.198
-707.631	350.630	-0.115	-0.231
-706.616	-41.408	-0.165	0.086
-705.602	537.148	0.090	-0.218
-704.587	203.318	-0.294	0.462
-703.572	98.283	-0.180	0.211
-702.558	-106.149	0.163	0.037
-701.543	-114.871	0.075	0.015
-700.529	800.000	-0.007	-0.023
-699.514	-136.639	0.418	0.049
-698.499	143.649	0.047	-0.063
-697.485	626.513	-0.052	-0.133
-696.470	-127.111	0.112	0.017
-695.456	-200.000	0.026	-0.176
-694.441	800.000	0.047	-0.142
-693.426	52.488	-0.130	0.126
-692.412	125.628	-0.089	-0.114
-691.397	556.476	-0.121	-0.296
-690.383	127.363	-0.220	-0.284
-689.368	-200.000	0.049	0.290
-688.354	-151.266	-0.064	0.005
-687.339	-113.851	-0.202	-0.040
-686.324	370.075	0.060	0.124
-685.310	-200.000	0.020	0.180
-684.295	196.285	-0.174	-0.269
-683.281	-169.919	0.226	-0.008
-682.266	313.173	-0.020	0.037
-681.251	534.503	-0.059	-0.141
-680.237	277.651	0.107	0.193
-679.222	-200.000	0.003	0.472
-678.208	800.000	0.052	-0.170
-677.193	34.247	0.241	-0.213
-676.178	220.441	-0.126	-0.205
-675.164	82.136	-0.079	-0.087
-674.149	155.774	-0.135	0.189
-673.135	-187.993	0.231	0.003
-672.120	-123.277	0.156	-0.025
-671.105	69.842	0.153	-0.160
-670.091	591.591	0.119	0.299
-669.076	-14.765	-0.032	-0.021
-668.062	465.061	-0.038	-0.085
-667.047	40.769	-0.230	0.210
-666.032	-53.085	-0.068	-0.032
-665.018	80.755	-0.058	0.063
-664.003	759.731	0.131	-0.360
-662.989	49.374	0.097	-0.093
-661.974	-90.820	-0.028	0.008
-660.959	603.394	0.082	-0.206
-659.945	20.792	-0.300	-0.246
-658.930	2.562	0.185	-0.136
-657.916	800.000	0.084	0.246
-656.901	-200.000	-0.025	0.128
-655.886	-85.854	-0.208	-0.065
-654.872	-88.845	-0.179	-0.054
-653.857	-31.668	0.256	-0.146
-652.843	158.116	-0.019	0.027
-651.828	249.353	-0.074	-0.128
-650.814	101.989	0.333	-0.394
-649.799	-32.740	-0.085	-0.048
-648.784	373.413	-0.106	-0.220
-647.770	528.246	-0.153	-0.365
-646.755	21.657	-0.298	0.246
-645.741	-130.290	0.259	0.036
-644.726	-76.432	0.156	-0.056
-643.711	-103.572	-0.390	0.093
-642.697	800.000	0.116	-0.344
-641.682	-50.717	0.187	0.089
-640.668	-136.388	0.253	0.030
-639.653	-16.589	-0.151	0.097
-638.638	-164.603	-0.360	0.017
-637.624	101.207	-0.120	0.142
-636.609	65.078	0.203	0.208
-635.595	2.557	-0.125	-0.092
-634.580	-65.856	0.189	0.077
-633.565	-30.088	0.078	0.045
-632.551	-200.000	-0.040	-0.291
-631.536	-96.972	0.382	0.102
-630.522	-144.992	-0.213	-0.020
-629.507	-44.918	-0.060	0.030
-628.492	-59.859	0.409	0.177
-627.478	-95.983	-0.164	0.044
-626.463	800.000	0.077	-0.311
-625.449	83.587	0.176	0.194
-624.434	168.865	0.019	0.027
-623.419	-100.988	-0.193	-0.048
-622.405	800.000	-0.087	0.327
-621.390	-24.637	-0.103	-0.062
-620.376	800.000	0.029	0.106
-619.361	-79.962	-0.249	-0.085
-618.346	201.198	-0.200	-0.312
-617.332	529.975	0.117	0.279
-616.317	-200.000	-0.002	0.138
-615.303	69.395	0.051	-0.053
-614.288	7.851	0.106	0.081
-613.273	9.208	0.291	0.223
-612.259	82.979	0.022	-0.025
-611.244	-55.586	0.222	0.101
-610.230	800.000	-0.053	-0.232
-609.215	-117.774	-0.313	0.057
-608.201	54.765	0.282	-0.275
-607.186	277.468	-0.164	-0.296
-606.171	-200.000	0.008	-0.144
-605.157	-103.521	0.086	0.021
-604.142	-200.000	-0.005	-0.157
-603.128	-128.010	-0.192	-0.028
-602.113	-77.123	-0.255	-0.090
-601.098	-95.717	-0.089	0.024
-600.084	-185.261	-0.081	-0.001
-599.069	-93.703	0.239	-0.067
-598.055	37.237	0.057	-0.051
-597.040	278.375	0.097	-0.174
-596.025	-170.718	0.057	0.002
-595.011	-62.509	-0.123	-0.052
-593.996	-16.283	-0.180	0.116
-592.982	-161.697	-0.276	-0.014
-591.967	-127.893	-0.188	0.027
-590.952	-27.185	-0.100	0.059
-589.938	-152.944	0.022	0.002
-588.923	28.784	-0.214	-0.183
-587.909	-196.424	-0.399	-0.003
-586.894	-200.000	0.038	-0.374
-585.879	-34.959	0.272	-0.150
-584.865	-200.000	-0.338	-0.000
-583.850	505.511	-0.141	-0.330
-582.836	-92.001	0.122	-0.035
-581.821	313.584	-0.062	0.119
-580.806	800.000	-0.021	0.064
-579.792	22.504	0.350	0.290
-578.777	-84.154	0.296	-0.095
-577.763	363.986	0.048	0.097
-576.748	800.000	0.021	0.075
-575.733	-19.859	0.374	0.234
-574.719	-200.000	-0.010	-0.178
-573.704	800.000	-0.048	-0.209
-572.690	-31.899	0.147	-0.083
-571.675	-200.000	-0.026	0.200
-570.661	-75.103	0.158	0.057
-569.646	-65.884	0.202	-0.082
-568.631	-15.042	-0.204	0.132
-567.617	70.482	0.089	0.093
-566.602	27.098	0.201	-0.170
-565.588	-112.539	0.325	0.065
-564.573	-200.000	-0.031	-0.210
-563.558	3.694	-0.287	-0.212
-562.544	-37.552	-0.087	0.047
-561.529	112.446	-0.231	-0.282
-560.515	-147.090	-0.090	-0.008
-559.500	253.397	0.136	0.235
-558.485	192.241	0.101	-0.155
-557.471	84.634	0.148	-0.164
-556.456	-93.050	-0.165	0.046
-555.442	-38.160	-0.189	-0.101
-554.427	-84.190	-0.361	-0.116
-553.412	233.682	0.054	-0.090
-552.398	-141.838	0.446	-0.045
-551.383	-117.988	-0.099	-0.018
-550.369	84.788	0.114	-0.126
-549.354	151.113	-0.150	0.206
-548.339	-120.622	-0.031	-0.005
-547.325	-147.525	0.224	-0.019
-546.310	-3.661	0.050	-0.035
-545.296	73.833	-0.173	-0.183
-544.281	145.623	-0.078	0.106
-543.266	-36.369	-0.144	0.079
-542.252	795.545	-0.033	-0.092
-541.237	-200.000	-0.051	-0.252
-540.223	-200.000	0.005	-0.307
-539.208	-33.359	-0.288	-0.161
-538.193	-200.000	0.028	-0.176
-537.179	202.188	-0.103	-0.160
-536.164	4.521	0.328	-0.243
-535.150	45.343	-0.226	-0.210
-534.135	203.387	-0.072	0.113
-533.121	-200.000	0.033	-0.242
-532.106	-141.948	0.270	-0.027
-531.091	800.000	-0.064	0.189
-530.077	-49.234	-0.288	-0.139
-529.062	461.124	0.142	0.318
-528.048	246.994	-0.180	0.307
-527.033	-127.795	0.261	-0.038
-526.018	-119.643	-0.185	0.032
-525.004	-90.955	-0.085	-0.025
-523.989	26.132	-0.205	0.173
-522.975	800.000	-0.132	-0.379
-521.960	329.696	0.034	0.067
-520.945	-62.319	0.229	0.096
-519.931	13.031	-0.165	-0.129
-518.916	-170.142	0.251	0.009
-517.902	-60.759	-0.166	-0.071
-516.887	185.850	0.239	-0.358
-515.872	-200.000	0.016	-0.280
-514.858	-200.000	-0.318	-0.001
-513.843	800.000	-0.023	-0.075
-512.829	800.000	-0.067	-0.201
-511.814	-2.990	-0.251	-0.177
-510.799	18.140	0.148	0.119
-509.785	307.434	0.144	-0.270
-508.770	58.070	-0.139	0.138
-507.756	800.000	-0.049	-0.193
-506.741	-200.000	0.006	-0.246
-505.726	296.780	-0.081	-0.149
-504.712	-18.068	-0.095	0.060
-503.697	6.507	-0.144	0.108
-502.683	-100.133	0.178	-0.045
-501.668	31.213	0.018	0.015
-500.653	-177.837	-0.156	-0.004
-499.639	-92.108	0.141	0.040
-498.624	-200.000	0.069	-0.316
-497.610	-110.618	0.196	0.041
-496.595	-56.196	-0.178	-0.080
-495.581	253.248	-0.074	0.127
-494.566	319.206	-0.112	-0.214
-493.551	436.697	0.043	-0.093
-492.537	-85.976	0.184	-0.057
-491.522	-126.068	0.233	0.035
-490.508	-21.096	0.255	-0.157
-489.493	230.180	-0.267	0.440
-488.478	-37.135	-0.254	-0.137
-487.464	47.184	0.168	0.157
-486.449	141.423	-0.220	0.294
-485.435	253.858	-0.025	0.043
-484.420	-200.000	0.023	-0.201
-483.405	-200.000	-0.039	-0.288
-482.391	-200.000	0.008	-0.186
-481.376	107.371	0.208	0.249
-480.362	11.111	-0.384	0.296
-479.347	153.322	0.205	-0.283
-478.332	800.000	-0.043	-0.164
-477.318	-96.159	-0.270	0.072
-476.303	86.996	0.322	0.358
-475.289	436.149	0.221	0.485
-474.274	-77.233	0.206	0.072
-473.259	-89.575	0.178	-0.053
-472.245	-151.371	-0.268	0.020
-471.230	800.000	0.088	-0.361
-470.216	-50.159	-0.308	-0.147
-469.201	-200.000	0.002	0.068
-468.186	-187.922	0.085	0.001
-467.172	-200.000	0.018	0.190
-466.157	-176.028	0.114	0.003
-465.143	11.485	-0.060	-0.046
-464.128	-5.584	-0.116	0.080
-463.113	202.710	0.161	0.250
-462.099	452.809	-0.116	0.259
-461.084	37.363	-0.170	-0.151
-460.070	338.593	0.123	-0.241
-459.055	179.720	-0.201	0.296
-458.040	-27.508	0.273	-0.159
-457.026	-40.934	0.161	0.084
-456.011	401.916	0.044	0.093
-454.997	-153.118	0.192	0.014
-453.982	800.000	0.060	0.237
-452.968	670.516	-0.022	-0.058
-451.953	-108.155	-0.232	-0.051
-450.938	-140.290	-0.357	0.038
-449.924	113.314	0.242	0.296
-448.909	-200.000	-0.131	-0.684
-447.895	151.508	0.217	-0.298
-446.880	-200.000	-0.049	-0.237
-445.865	47.996	0.161	0.151
-444.851	155.108	-0.120	0.166
-443.836	179.623	0.095	0.139
-442.822	18.815	-0.062	0.050
-441.807	-5.124	-0.111	-0.077
-440.792	195.396	-0.074	-0.113
-439.778	-200.000	0.008	-0.134
-438.763	311.071	0.138	-0.260
-437.749	-200.000	0.000	0.142
-436.734	-60.624	-0.124	-0.053
-435.719	-178.390	0.307	-0.007
-434.705	112.181	-0.044	0.053
-433.690	-200.000	0.000	-0.234
-432.676	85.973	0.239	-0.264
-431.661	-19.751	-0.133	-0.083
-430.646	-15.098	0.169	0.109
-429.632	-153.333	-0.435	0.030
-428.617	478.663	-0.124	-0.283
-427.603	129.304	0.111	0.142
-426.588	228.647	0.050	-0.082
-425.573	213.608	-0.208	-0.331
-424.559	347.851	0.229	-0.453
-423.544	800.000	-0.074	0.240
-422.530	-38.857	-0.266	0.141
-421.515	-152.729	0.436	0.031
-420.500	-148.573	0.348	0.029
-419.486	-135.300	-0.150	-0.018
-418.471	184.885	-0.148	0.220
-417.457	228.804	0.023	-0.037
-416.442	-109.690	-0.286	-0.060
-415.428	302.747	0.158	-0.294
-414.413	91.222	0.189	0.213
-413.398	-111.601	-0.109	-0.022
-412.384	-105.683	0.201	0.046
-411.369	497.494	-0.066	0.153
-410.355	-74.416	0.241	-0.087
-409.340	-200.000	0.012	0.076
-408.325	58.598	0.361	0.356
-407.311	-131.993	0.079	-0.010
-406.296	-95.065	0.237	-0.064
-405.282	-159.862	-0.300	0.017
-404.267	-200.000	0.012	-0.156
-403.252	27.708	-0.149	-0.126
-402.238	18.604	0.236	-0.190
-401.223	-92.685	-0.117	-0.033
-400.209	800.000	0.085	-0.352
-399.194	80.064	0.275	-0.297
-398.179	180.606	-0.145	-0.214
-397.165	-170.159	-0.360	0.013
-396.150	514.540	0.055	-0.130
-395.136	7.860	0.014	0.010
-394.121	800.000	-0.035	0.106
-393.106	-163.767	-0.373	-0.018
-392.092	-161.998	-0.174	-0.009
-391.077	655.089	0.044	0.114
-390.063	97.038	0.125	0.144
-389.048	800.000	0.041	-0.162
-388.033	-124.685	0.341	-0.053
-387.019	-96.322	-0.254	-0.068
-386.004	411.859	0.105	0.224
-384.990	-200.000	-0.006	-0.038
-383.975	-200.000	-0.043	-0.201
-382.960	-151.845	-0.319	0.023
-381.946	-185.382	-0.090	-0.001
-380.931	800.000	-0.040	0.164
-379.917	40.680	0.151	0.137
-378.902	374.900	0.086	0.175
-377.888	-114.508	0.354	-0.068
-376.873	-200.000	0.018	-0.220
-375.858	-56.887	0.089	0.040
-374.844	233.094	0.041	0.068
-373.829	-106.253	0.175	0.039
-372.815	103.436	0.120	0.141
-371.800	97.489	-0.368	0.424
-370.785	193.208	0.128	0.194
-369.771	800.000	-0.004	0.018
-368.756	0.650	0.167	0.120
-367.742	-200.000	0.033	0.148
-366.727	126.776	0.148	-0.189
-365.712	800.000	0.108	-0.412
-364.698	-200.000	-0.001	0.033
-363.683	177.720	0.075	-0.109
-362.669	-44.948	0.335	-0.167
-361.654	5.241	0.219	-0.162
-360.639	15.674	-0.095	-0.075
-359.625	339.084	0.067	-0.131
-358.610	-117.837	-0.487	-0.088
-357.596	-28.861	0.121	-0.069
-356.581	-50.059	-0.098	0.046
-355.566	-114.665	0.047	-0.009
-354.552	-200.000	0.031	0.170
-353.537	213.915	0.093	0.147
-352.523	-200.000	0.005	-0.310
-351.508	133.023	-0.108	0.140
-350.493	264.009	-0.080	0.139
-349.479	484.941	0.043	0.099
-348.464	800.000	0.120	-0.366
-347.450	-200.000	-0.022	-0.203
-346.435	-200.000	0.008	-0.367
-345.420	-154.667	0.242	0.016
-344.406	-169.179	-0.110	-0.004
-343.391	219.629	0.244	-0.391
-342.377	278.682	-0.105	0.188
-341.362	-200.000	0.010	0.394
-340.348	-180.281	-0.131	-0.003
-339.333	-125.025	0.179	-0.028
-338.318	22.621	0.323	0.265
-337.304	-200.000	-0.022	-0.174
-336.289	-56.697	0.150	0.067
-335.275	-200.000	0.001	0.306
-334.260	800.000	0.071	0.248
-333.245	800.000	0.116	0.355
-332.231	71.886	0.104	-0.108
-331.216	-103.648	0.176	-0.041
-330.202	-45.828	0.201	0.100
-329.187	-96.827	-0.076	-0.020
-328.172	-103.334	0.457	-0.108
-327.158	-161.575	0.181	0.009
-326.143	-35.389	0.270	-0.147
-325.129	-99.426	0.051	0.013
-324.114	-75.634	-0.194	-0.069
-323.099	-26.451	0.273	-0.161
-322.085	-9.429	0.079	0.053
-321.070	-45.438	-0.307	0.153
-320.056	58.088	0.098	-0.096
-319.041	-200.000	-0.019	0.321
-318.026	-51.243	-0.194	-0.091
-317.012	87.935	-0.096	-0.106
-315.997	97.567	-0.095	0.110
-314.983	7.335	-0.129	-0.097
-313.968	-200.000	0.009	0.077
-312.953	308.975	-0.023	0.043
-311.939	-57.816	-0.039	0.017
-310.924	0.228	-0.045	-0.032
-309.910	-42.599	0.045	-0.023
-308.895	-125.119	0.323	-0.050
-307.880	-30.946	0.093	-0.053
-306.866	-111.473	0.237	0.048
-305.851	-133.103	0.247	-0.031
-304.837	-72.427	-0.337	0.125
-303.822	-39.030	0.206	-0.109
-302.807	-54.795	-0.236	-0.107
-301.793	2.088	0.206	0.149
-300.778	-38.999	0.153	-0.081
-299.764	-16.661	-0.196	0.124
-298.749	-42.883	0.184	-0.093
-297.735	106.591	0.032	0.038
-296.720	370.755	-0.045	-0.092
-295.705	45.887	0.079	0.073
-294.691	-97.053	-0.369	0.096
-293.676	66.865	0.299	0.305
-292.662	535.376	0.039	-0.092
-291.647	-200.000	0.018	-0.453
-290.632	-200.000	0.012	0.317
-289.618	528.695	-0.066	0.155
-288.603	-154.070	0.163	0.011
-287.589	-21.043	-0.253	0.155
-286.574	-87.839	-0.379	0.114
-285.559	-200.000	0.032	0.418
-284.545	176.774	-0.305	0.444
-283.530	437.172	-0.110	-0.239
-282.516	-97.946	-0.261	-0.067
-281.501	800.000	-0.040	0.116
-280.486	-81.856	0.120	0.039
-279.472	662.307	-0.045	-0.115
-278.457	-100.522	-0.237	0.059
-277.443	-200.000	-0.027	0.267
-276.428	-103.592	-0.153	-0.036
-275.413	-87.433	0.140	0.042
-274.399	-98.152	0.099	-0.025
-273.384	264.835	0.100	0.175
-272.370	28.064	-0.166	0.140
-271.355	597.833	-0.109	0.270
-270.340	402.553	0.021	0.044
-269.326	-51.306	0.255	0.119
-268.311	800.000	0.005	-0.016
-267.297	31.797	-0.101	-0.087
-266.282	49.888	-0.190	-0.179
-265.267	-64.986	-0.035	-0.014
-264.253	-9.238	0.160	0.107
-263.238	-118.364	0.297	-0.053
-262.224	-58.584	-0.372	0.161
-261.209	-39.515	-0.128	0.067
-260.195	-182.653	0.095	0.002
-259.180	40.038	-0.168	0.151
-258.165	800.000	0.055	-0.194
-257.151	188.104	0.167	0.249
-256.136	47.733	0.068	0.063
-255.122	-200.000	-0.012	0.089
-254.107	-16.180	-0.261	0.165
-253.092	-200.000	-0.016	0.151
-252.078	-75.723	0.168	0.059
-251.063	618.172	-0.065	-0.162
-250.049	93.137	0.162	-0.183
-249.034	262.715	-0.268	0.464
-248.019	-35.418	-0.186	0.101
-247.005	8.506	-0.248	0.186
-245.990	800.000	0.104	0.404
-244.976	484.106	0.047	0.107
-243.961	-145.356	0.192	-0.017
-242.946	-164.937	-0.108	-0.005
-241.932	-200.000	0.016	0.108
-240.917	-32.433	0.250	-0.139
-239.903	-6.671	-0.266	-0.180
-238.888	386.604	-0.123	0.254
-237.873	-46.547	-0.149	0.073
-236.859	-200.000	0.017	0.186
-235.844	-200.000	-0.025	0.218
-234.830	45.851	-0.156	0.144
-233.815	554.872	-0.088	0.210
-232.800	-199.747	0.192	-0.001
-231.786	-138.857	0.243	-0.026
-230.771	-6.541	0.252	0.171
-229.757	-68.170	-0.308	0.120
-228.742	-31.366	-0.199	0.112
-227.727	-71.506	0.243	-0.091
-226.713	800.000	0.007	-0.018
-225.698	800.000	-0.008	0.023
-224.684	-6.286	0.133	-0.091
-223.669	213.705	0.159	0.250
-222.655	-113.635	-0.034	-0.007
-221.640	800.000	-0.055	0.226
-220.625	-200.000	-0.026	-0.216
-219.611	800.000	0.014	0.045
-218.596	-48.895	0.180	0.086
-217.582	301.183	-0.056	0.104
-216.567	258.218	-0.127	0.219
-215.552	-23.696	0.190	0.114
-214.538	-54.789	-0.346	0.156
-213.523	-98.503	0.133	-0.034
-212.509	-44.383	0.240	0.120
-211.494	-88.915	-0.239	-0.070
-210.479	-108.846	-0.290	0.062
-209.465	-42.356	-0.059	0.030
-208.450	-13.265	-0.295	0.191
-207.436	-200.000	0.020	0.219
-206.421	102.349	-0.217	0.253
-205.406	800.000	0.050	-0.209
-204.392	261.110	-0.157	-0.271
-203.377	-21.148	0.114	-0.069
-202.363	-104.611	0.048	-0.011
-201.348	-83.510	0.347	-0.111
-200.333	477.251	0.039	0.088
-199.319	-200.000	0.022	0.124
-198.304	43.010	0.200	-0.181
-197.290	20.190	-0.220	-0.177
-196.275	-47.036	-0.189	-0.092
-195.260	800.000	-0.018	-0.068
-194.246	272.775	0.129	0.228
-193.231	61.232	0.193	-0.191
-192.217	-138.799	0.088	0.010
-191.202	-200.000	0.041	0.510
-190.187	91.526	0.142	0.159
-189.173	60.506	0.157	-0.154
-188.158	153.728	0.093	-0.127
-187.144	122.007	-0.107	-0.133
-186.129	-26.929	-0.254	0.147
-185.114	117.851	-0.170	0.209
-184.100	-79.927	0.014	-0.005
-183.085	-120.435	-0.435	-0.074
-182.071	-200.000	0.050	-0.304
-181.056	-49.025	-0.261	0.125
-180.042	8.817	0.158	-0.119
-179.027	-200.000	-0.017	-0.130
-178.012	425.860	0.062	0.133
-176.998	97.911	0.103	0.118
-175.983	83.772	-0.104	0.113
-174.969	800.000	0.025	-0.080
-173.954	-63.429	0.173	0.071
-172.939	726.200	-0.088	-0.232
-171.925	-30.251	-0.214	0.121
-170.910	-54.490	-0.019	-0.009
-169.896	-200.000	-0.003	-0.193
-168.881	-130.004	-0.386	0.053
-167.866	-107.210	0.052	0.011
-166.852	-111.611	0.539	0.109
-165.837	800.000	0.125	0.355
-164.823	118.998	-0.147	-0.181
-163.808	66.679	-0.044	0.045
-162.793	125.334	-0.143	0.179
-161.779	-200.000	-0.008	-0.037
-160.764	-53.476	-0.228	0.104
-159.750	800.000	0.005	0.022
-158.735	-46.193	0.029	-0.014
-157.720	-67.689	0.152	-0.059
-156.706	-105.819	-0.090	0.020
-155.691	294.929	-0.142	-0.259
-154.677	800.000	0.087	0.306
-153.662	-200.000	-0.008	0.141
-152.647	-21.978	-0.209	0.127
-151.633	-200.000	-0.005	-0.288
-150.618	800.000	-0.048	0.145
-149.604	4.542	0.093	-0.068
-148.589	-200.000	-0.038	-0.273
-147.574	-47.629	-0.302	-0.146
-146.560	-147.040	0.276	0.024
-145.545	-113.118	0.262	0.051
-144.531	800.000	-0.132	-0.404
-143.516	-200.000	0.013	-0.243
-142.502	-114.224	0.196	0.038
-141.487	-200.000	0.008	-0.108
-140.472	800.000	0.075	0.246
-139.458	58.343	0.207	0.202
-138.443	-35.256	-0.333	-0.180
-137.429	-200.000	-0.048	-0.281
-136.414	-47.441	-0.138	0.067
-135.399	732.560	-0.043	0.114
-134.385	-200.000	-0.020	0.174
-133.370	33.442	0.037	0.032
-132.356	-200.000	0.014	-0.071
-131.341	-60.852	-0.075	-0.032
-130.326	-5.958	0.096	-0.066
-129.312	-119.962	-0.133	-0.023
-128.297	127.263	0.310	-0.391
-127.283	-166.979	-0.443	-0.018
-126.268	-136.923	0.457	-0.052
-125.253	-37.208	-0.139	0.074
-124.239	258.742	0.197	-0.338
-123.224	158.665	0.283	-0.391
-122.210	-10.746	0.160	-0.105
-121.195	167.441	-0.162	-0.228
