DTS Sentinel unit serial number:	SN413079Multiplexer serial number:	ORYXHardware model number:	OX4-SRSoftware version number:	ORYX F/W v4.00 Oryx Data Collector v3.7.2.0data status	okinstallation	princeton_trtdifferential loss correction	single-endedforward channel	channel 3reverse channel	N/Adate	2019/09/19time	10:00:35forward acquisition time	60.00reverse acquisition time	0.00gamma	496.2192k internal	0.2343k external	0.2343temperature offset calibration	0.9975default loss term (dB/km)	0.3790temperature slope calibration	1.0000multiplexer offset coefficient	1.0000multiplexer slope coefficient	1.0000fibre end	0.00T internal ref (°C)	23.75T ext. ref 1 (°C)	0.66T ext. ref 2 (°C)	19.50length (m)	temperature (°C)	Stokes	anti-Stokes-747.200	-83.823	0.195	0.062
-746.185	240.599	0.101	-0.169
-745.171	2.239	-0.198	-0.143
-744.156	388.712	-0.056	0.115
-743.142	800.000	-0.025	-0.094
-742.127	28.179	0.273	0.231
-741.112	-32.579	0.374	0.209
-740.098	192.720	-0.087	0.131
-739.083	69.522	-0.064	-0.066
-738.069	-200.000	-0.002	0.293
-737.054	29.358	-0.127	0.108
-736.039	46.424	-0.255	-0.237
-735.025	-200.000	-0.027	-0.526
-734.010	219.557	-0.033	0.054
-732.996	166.205	0.030	0.042
-731.981	-53.825	-0.176	-0.080
-730.966	158.340	-0.309	-0.429
-729.952	800.000	-0.099	-0.304
-728.937	-200.000	0.021	-0.360
-727.923	800.000	-0.025	-0.092
-726.908	-200.000	0.009	-0.209
-725.894	293.443	-0.245	-0.448
-724.879	800.000	0.030	-0.089
-723.864	-200.000	0.005	0.146
-722.850	-96.251	0.118	-0.031
-721.835	-200.000	0.013	-0.133
-720.821	39.088	-0.128	-0.114
-719.806	671.561	0.105	0.273
-718.791	6.905	-0.340	0.253
-717.777	293.383	0.120	0.219
-716.762	800.000	0.022	0.086
-715.748	276.259	0.099	-0.177
-714.733	-29.769	0.304	0.173
-713.718	-55.374	0.014	-0.006
-712.704	-60.979	-0.129	-0.054
-711.689	60.244	-0.207	-0.205
-710.675	408.534	0.091	-0.193
-709.660	-200.000	-0.031	-0.231
-708.645	-154.233	-0.146	0.010
-707.631	43.185	-0.242	0.221
-706.616	-79.493	-0.003	0.001
-705.602	-200.000	0.044	0.260
-704.587	-107.529	-0.145	0.032
-703.572	236.538	0.062	0.103
-702.558	800.000	0.072	0.214
-701.543	204.187	0.178	0.276
-700.529	-169.972	0.372	0.013
-699.514	499.636	-0.064	0.147
-698.499	-61.927	-0.192	0.080
-697.485	29.651	0.147	0.125
-696.470	-85.109	0.377	-0.118
-695.456	-126.373	-0.197	-0.029
-694.441	-200.000	-0.030	-0.273
-693.426	107.214	-0.177	0.211
-692.412	-58.505	0.517	-0.224
-691.397	36.181	0.062	0.054
-690.383	800.000	-0.057	-0.181
-689.368	-100.934	-0.123	-0.030
-688.354	-187.456	0.150	0.002
-687.339	-98.043	-0.424	-0.109
-686.324	2.830	-0.143	-0.104
-685.310	800.000	-0.036	-0.148
-684.295	800.000	-0.033	-0.141
-683.281	-2.954	0.114	-0.079
-682.266	-81.948	0.017	-0.005
-681.251	-43.374	-0.162	-0.082
-680.237	800.000	0.097	-0.288
-679.222	-116.883	-0.187	-0.034
-678.208	12.624	0.096	-0.074
-677.193	-200.000	-0.009	-0.233
-676.178	127.933	-0.050	-0.064
-675.164	-86.845	-0.260	-0.079
-674.149	259.115	0.154	-0.265
-673.135	800.000	-0.061	-0.187
-672.120	111.593	-0.171	0.206
-671.105	368.575	-0.057	0.115
-670.091	352.199	-0.048	0.095
-669.076	-67.641	0.197	0.077
-668.062	-200.000	-0.018	0.080
-667.047	-2.694	-0.123	-0.086
-666.032	-200.000	-0.155	0.000
-665.018	77.971	0.086	-0.092
-664.003	-66.663	-0.164	0.065
-662.989	-200.000	-0.030	0.244
-661.974	74.242	-0.109	0.114
-660.959	-155.833	-0.412	0.026
-659.945	-200.000	-0.033	-0.156
-658.930	-19.230	0.274	-0.169
-657.916	32.202	0.239	-0.206
-656.901	-200.000	0.013	0.134
-655.886	-200.000	0.037	-0.328
-654.872	-161.080	-0.290	0.015
-653.857	800.000	-0.104	0.408
-652.843	-200.000	-0.067	0.406
-651.828	30.239	-0.225	-0.191
-650.814	-9.346	0.157	-0.105
-649.799	647.661	-0.086	0.219
-648.784	732.205	-0.046	-0.122
-647.770	-49.484	0.168	-0.080
-646.755	-200.000	-0.021	-0.119
-645.741	-200.000	0.016	-0.135
-644.726	-137.162	-0.376	-0.043
-643.711	-63.531	0.157	-0.064
-642.697	-164.990	0.217	-0.010
-641.682	-15.655	-0.097	0.062
-640.668	-200.000	0.012	0.112
-639.653	-102.530	-0.366	-0.087
-638.638	144.861	0.089	0.119
-637.624	-82.238	-0.016	0.005
-636.609	800.000	-0.023	0.096
-635.595	-122.193	0.048	0.008
-634.580	-123.985	-0.143	0.022
-633.565	108.589	0.091	-0.108
-632.551	-107.358	0.087	-0.019
-631.536	22.990	0.164	-0.134
-630.522	-1.468	-0.071	-0.050
-629.507	-3.366	-0.032	-0.022
-628.492	-93.645	0.299	0.082
-627.478	0.649	-0.193	0.138
-626.463	39.678	-0.139	0.124
-625.449	-61.488	0.136	-0.057
-624.434	-200.000	0.027	-0.220
-623.419	-29.978	-0.429	-0.243
-622.405	-128.798	0.105	-0.015
-621.390	315.288	0.056	0.106
-620.376	800.000	-0.050	-0.147
-619.361	365.399	0.085	0.171
-618.346	-55.768	0.042	0.019
-617.332	530.838	0.042	0.099
-616.317	-64.177	-0.044	0.018
-615.303	-56.472	0.168	0.074
-614.288	-180.877	0.184	-0.004
-613.273	-200.000	-0.027	0.167
-612.259	-72.879	-0.304	0.111
-611.244	441.766	-0.157	0.341
-610.230	-37.780	-0.165	0.087
-609.215	13.076	0.274	-0.211
-608.201	38.337	-0.119	-0.105
-607.186	-109.598	0.237	-0.050
-606.171	350.821	0.056	0.110
-605.157	-30.057	0.121	0.068
-604.142	800.000	0.081	0.245
-603.128	27.961	0.132	-0.110
-602.113	-200.000	0.002	0.384
-601.098	-126.784	-0.256	-0.038
-600.084	70.816	-0.094	0.097
-599.069	32.962	-0.012	-0.010
-598.055	419.960	-0.046	-0.099
-597.040	160.888	-0.097	-0.135
-596.025	-9.606	-0.206	-0.136
-595.011	-149.955	-0.140	0.011
-593.996	-78.441	0.188	0.064
-592.982	800.000	0.072	-0.271
-591.967	235.489	-0.158	-0.260
-590.952	-200.000	0.009	0.064
-589.938	800.000	-0.027	0.085
-588.923	-200.000	0.001	-0.087
-587.909	592.546	-0.142	-0.350
-586.894	-135.558	-0.434	-0.051
-585.879	527.216	0.130	-0.304
-584.865	-62.691	0.246	-0.101
-583.850	-113.038	-0.406	-0.080
-582.836	800.000	0.031	-0.099
-581.821	12.391	-0.024	-0.019
-580.806	-50.208	-0.173	-0.081
-579.792	0.006	0.098	-0.069
-578.777	141.158	0.075	0.098
-577.763	-127.027	-0.238	-0.035
-576.748	107.908	0.198	-0.234
-575.733	-64.990	0.195	-0.078
-574.719	-172.091	-0.072	-0.002
-573.704	66.559	0.202	-0.204
-572.690	-200.000	-0.007	-0.214
-571.675	48.607	0.076	-0.070
-570.661	800.000	-0.082	-0.226
-569.646	-63.593	-0.104	-0.042
-568.631	31.379	0.230	-0.196
-567.617	-177.835	0.366	0.009
-566.602	15.733	0.253	-0.198
-565.588	-118.040	0.226	0.040
-564.573	800.000	0.095	-0.265
-563.558	7.182	-0.395	0.293
-562.544	-143.181	-0.298	-0.029
-561.529	84.385	0.154	-0.167
-560.515	-102.221	-0.111	-0.027
-559.500	30.541	0.091	-0.077
-558.485	83.534	0.124	-0.134
-557.471	800.000	0.149	0.422
-556.456	800.000	-0.072	0.234
-555.442	313.392	-0.149	0.278
-554.427	-200.000	0.017	-0.099
-553.412	800.000	-0.077	-0.242
-552.398	-151.538	-0.078	0.006
-551.383	-38.204	0.217	0.114
-550.369	800.000	-0.139	-0.462
-549.354	201.629	-0.060	-0.092
-548.339	34.438	0.141	0.122
-547.325	100.980	-0.146	0.169
-546.310	75.592	0.123	-0.129
-545.296	89.007	0.108	-0.120
-544.281	44.948	-0.182	0.167
-543.266	38.249	0.183	-0.162
-542.252	-200.000	0.033	0.281
-541.237	800.000	0.033	-0.096
-540.223	274.534	-0.153	-0.268
-539.208	800.000	-0.095	-0.277
-538.193	-200.000	-0.045	-0.256
-537.179	169.513	-0.194	0.275
-536.164	-127.787	-0.171	-0.025
-535.150	165.395	0.100	-0.140
-534.135	259.773	-0.097	-0.166
-533.121	-17.892	0.086	0.054
-532.106	-200.000	-0.052	-0.262
-531.091	-28.791	0.348	-0.199
-530.077	30.518	0.136	0.115
-529.062	-109.111	-0.342	0.072
-528.048	-96.587	-0.175	-0.046
-527.033	-139.125	0.550	0.059
-526.018	-200.000	-0.048	-0.208
-525.004	-94.916	-0.330	-0.089
-523.989	-65.971	-0.270	0.107
-522.975	557.602	-0.186	-0.445
-521.960	-200.000	-0.024	0.227
-520.945	800.000	-0.083	-0.250
-519.931	25.524	0.232	-0.191
-518.916	800.000	-0.017	0.068
-517.902	441.795	-0.120	-0.260
-516.887	-15.427	-0.163	-0.103
-515.872	800.000	-0.029	0.102
-514.858	-11.988	0.089	0.058
-513.843	2.208	-0.149	-0.107
-512.829	-200.000	-0.024	0.111
-511.814	740.204	0.103	0.274
-510.799	60.501	-0.172	-0.169
-509.785	-200.000	0.010	-0.168
-508.770	-72.374	-0.257	0.094
-507.756	595.761	0.088	0.215
-506.741	400.978	-0.118	0.246
-505.726	347.992	0.099	0.193
-504.712	800.000	-0.102	0.443
-503.697	208.527	0.117	-0.182
-502.683	-8.908	0.210	-0.140
-501.668	252.350	-0.177	0.299
-500.653	142.952	0.227	0.299
-499.639	54.993	0.141	0.135
-498.624	-200.000	0.038	0.184
-497.610	-200.000	-0.011	0.171
-496.595	-98.874	-0.402	0.101
-495.581	-143.850	-0.408	-0.038
-494.566	-73.109	-0.338	-0.123
-493.551	197.686	-0.116	0.175
-492.537	-103.488	0.144	-0.034
-491.522	800.000	0.022	-0.071
-490.508	165.804	0.163	-0.228
-489.493	-200.000	-0.029	-0.159
-488.478	194.809	0.020	-0.030
-487.464	1.146	-0.296	-0.211
-486.449	672.784	0.029	0.075
-485.435	-200.000	0.037	-0.396
-484.420	-6.127	0.292	-0.197
-483.405	193.194	-0.127	-0.190
-482.391	362.965	-0.088	0.176
-481.376	-144.097	0.261	-0.024
-480.362	-69.114	0.236	-0.090
-479.347	438.245	0.091	0.197
-478.332	66.295	-0.248	-0.249
-477.318	137.712	-0.061	0.080
-476.303	-99.782	0.259	-0.064
-475.289	-200.000	-0.000	-0.021
-474.274	-70.974	0.286	-0.107
-473.259	167.064	0.080	0.112
-472.245	45.906	-0.114	0.105
-471.230	-200.000	0.026	-0.191
-470.216	800.000	-0.030	-0.132
-469.201	233.915	0.220	0.359
-468.186	-38.080	-0.167	0.088
-467.172	-157.889	-0.201	0.012
-466.157	-96.510	-0.070	-0.018
-465.143	-200.000	0.054	-0.435
-464.128	-68.453	-0.348	-0.134
-463.113	-200.000	0.024	-0.284
-462.099	-179.162	0.121	-0.003
-461.084	-171.192	0.242	-0.008
-460.070	-99.928	-0.127	-0.031
-459.055	329.344	-0.100	-0.191
-458.040	-200.000	-0.032	0.144
-457.026	235.915	0.224	-0.367
-456.011	-172.850	0.173	0.005
-454.997	800.000	0.027	0.109
-453.982	84.443	0.124	0.134
-452.968	-121.172	-0.177	0.029
-451.953	604.176	0.064	0.157
-450.938	-200.000	0.048	-0.244
-449.924	81.930	0.244	-0.261
-448.909	800.000	-0.073	0.215
-447.895	131.461	0.232	-0.295
-446.880	-200.000	0.030	0.163
-445.865	-76.257	-0.111	0.039
-444.851	104.902	0.084	-0.098
-443.836	-152.643	-0.504	-0.036
-442.822	-4.878	-0.282	0.192
-441.807	59.245	0.160	0.155
-440.792	187.834	0.188	0.278
-439.778	90.003	0.031	0.035
-438.763	800.000	-0.122	0.407
-437.749	170.031	0.125	0.177
-436.734	-129.080	-0.203	-0.028
-435.719	206.765	-0.169	-0.261
-434.705	-200.000	0.009	0.246
-433.690	242.376	0.109	-0.180
-432.676	-79.908	-0.145	0.048
-431.661	-200.000	-0.047	-0.299
-430.646	-98.180	-0.165	-0.042
-429.632	526.125	-0.136	0.316
-428.617	556.967	0.022	-0.053
-427.603	-135.433	-0.160	-0.019
-426.588	11.444	-0.144	-0.109
-425.573	-200.000	0.002	-0.431
-424.559	800.000	-0.094	-0.306
-423.544	-71.494	0.239	0.088
-422.530	149.049	0.043	-0.057
-421.515	-68.819	0.045	0.017
-420.500	150.663	-0.112	0.150
-419.486	-70.640	0.245	-0.091
-418.471	-61.585	-0.385	0.160
-417.457	7.824	0.130	-0.096
-416.442	10.504	0.153	-0.115
-415.428	-200.000	-0.027	-0.142
-414.413	-80.975	-0.251	-0.082
-413.398	-103.553	-0.155	-0.036
-412.384	31.536	-0.101	0.086
-411.369	-36.212	0.389	-0.207
-410.355	800.000	-0.045	-0.168
-409.340	800.000	-0.013	-0.049
-408.325	77.661	-0.049	-0.051
-407.311	-75.750	0.438	0.154
-406.296	51.903	-0.184	-0.174
-405.282	-149.918	-0.288	-0.022
-404.267	-67.329	-0.075	-0.029
-403.252	104.597	0.108	0.126
-402.238	-123.325	0.246	0.039
-401.223	-200.000	0.052	-0.404
-400.209	-200.000	-0.035	-0.219
-399.194	-200.000	-0.014	-0.264
-398.179	-0.301	0.175	-0.123
-397.165	753.370	0.017	0.047
-396.150	-119.675	0.127	0.022
-395.136	800.000	-0.081	0.232
-394.121	-200.000	0.043	-0.223
-393.106	111.221	-0.193	0.229
-392.092	-9.943	0.110	-0.072
-391.077	-21.687	0.169	0.102
-390.063	11.501	0.229	0.173
-389.048	606.307	0.182	-0.448
-388.033	800.000	-0.089	-0.299
-387.019	108.949	0.114	0.135
-386.004	800.000	0.088	0.340
-384.990	-200.000	-0.023	0.176
-383.975	27.270	-0.208	0.173
-382.960	800.000	0.018	0.055
-381.946	-51.282	-0.245	-0.113
-380.931	166.042	0.085	0.119
-379.917	27.273	0.335	0.277
-378.902	-200.000	0.032	-0.232
-377.888	800.000	0.101	0.323
-376.873	13.386	0.313	0.240
-375.858	-48.904	-0.597	0.283
-374.844	-93.605	0.264	-0.072
-373.829	286.472	0.138	0.245
-372.815	177.155	0.070	-0.100
-371.800	-54.159	0.149	0.067
-370.785	-200.000	0.027	-0.146
-369.771	296.536	0.041	0.075
-368.756	-122.345	0.080	-0.013
-367.742	800.000	0.066	0.252
-366.727	229.984	0.112	-0.180
-365.712	800.000	-0.106	0.376
-364.698	18.229	-0.059	-0.046
-363.683	-24.582	-0.076	0.045
-362.669	-57.511	0.049	0.021
-361.654	-182.762	-0.121	-0.002
-360.639	107.521	-0.283	0.332
-359.625	-200.000	-0.029	0.266
-358.610	-200.000	-0.050	0.295
-357.596	59.293	0.120	0.117
-356.581	-34.884	0.151	0.081
-355.566	123.065	0.177	-0.218
-354.552	551.230	-0.041	-0.097
-353.537	460.867	0.113	0.248
-352.523	-161.233	0.116	-0.006
-351.508	169.686	0.055	0.078
-350.493	34.766	0.118	0.102
-349.479	-200.000	0.001	-0.021
-348.464	-78.531	0.250	-0.084
-347.450	-33.281	-0.131	-0.071
-346.435	-126.061	-0.158	0.023
-345.420	-25.749	-0.171	0.099
-344.406	-132.929	-0.182	0.023
-343.391	515.973	-0.122	0.281
-342.377	50.407	0.119	0.111
-341.362	-33.947	-0.059	0.032
-340.348	477.328	0.043	0.095
-339.333	800.000	0.042	0.138
-338.318	-34.051	0.056	-0.030
-337.304	800.000	-0.037	0.137
-336.289	49.664	-0.383	0.356
-335.275	-148.198	0.358	0.029
-334.260	350.809	-0.121	-0.236
-333.245	-105.678	0.183	-0.041
-332.231	151.752	0.124	0.166
-331.216	-88.173	0.420	-0.124
-330.202	38.590	-0.092	0.081
-329.187	-200.000	0.016	0.121
-328.172	61.108	0.153	-0.150
-327.158	-17.802	0.224	0.139
-326.143	227.361	-0.044	0.070
-325.129	192.438	-0.120	0.178
-324.114	-76.558	0.231	0.080
-323.099	-88.906	-0.173	0.051
-322.085	-85.205	0.279	0.086
-321.070	-200.000	-0.014	0.262
-320.056	-200.000	0.065	-0.324
-319.041	-200.000	0.034	0.225
-318.026	2.557	-0.107	0.077
-317.012	-68.321	0.208	-0.080
-315.997	-67.354	-0.343	-0.133
-314.983	-103.170	0.157	0.037
-313.968	-0.279	0.114	-0.080
-312.953	-44.554	0.243	-0.120
-311.939	141.945	0.112	0.146
-310.924	-136.738	0.393	0.045
-309.910	109.632	0.149	-0.176
-308.895	15.590	-0.291	0.225
-307.880	-116.916	0.126	0.023
-306.866	800.000	-0.079	0.217
-305.851	-1.264	-0.238	0.166
-304.837	-70.282	-0.011	-0.004
-303.822	443.630	0.139	0.300
-302.807	-97.204	-0.250	-0.064
-301.793	-16.343	0.203	0.127
-300.778	-29.450	0.297	-0.167
-299.764	-200.000	0.013	-0.203
-298.749	-44.745	0.113	-0.056
-297.735	-107.446	-0.186	-0.040
-296.720	-200.000	-0.062	-0.435
-295.705	-200.000	0.007	-0.224
-294.691	-64.194	0.114	-0.046
-293.676	88.373	0.163	-0.178
-292.662	474.452	-0.027	0.060
-291.647	36.030	-0.360	-0.312
-290.632	-9.639	-0.107	0.070
-289.618	-200.000	-0.021	-0.341
-288.603	355.013	0.087	0.171
-287.589	348.094	-0.050	0.097
-286.574	-65.171	0.260	-0.103
-285.559	-103.958	-0.529	0.121
-284.545	126.348	0.089	-0.110
-283.530	477.755	0.058	0.129
-282.516	439.957	0.075	0.161
-281.501	659.704	-0.087	0.219
-280.486	190.653	-0.133	0.197
-279.472	542.447	-0.100	0.235
-278.457	800.000	0.009	-0.027
-277.443	234.200	0.173	0.281
-276.428	-22.243	0.255	0.152
-275.413	541.590	0.062	-0.146
-274.399	800.000	0.041	-0.119
-273.384	800.000	0.039	-0.156
-272.370	354.501	-0.131	0.255
-271.355	130.607	-0.204	0.257
-270.340	-78.746	-0.125	-0.042
-269.326	800.000	-0.043	0.159
-268.311	-97.753	-0.134	-0.034
-267.297	54.026	-0.084	0.080
-266.282	80.197	0.114	0.120
-265.267	-94.041	-0.358	0.096
-264.253	76.643	0.218	-0.227
-263.238	-126.864	0.121	0.018
-262.224	-52.288	-0.105	0.048
-261.209	-200.000	-0.047	-0.205
-260.195	327.274	-0.077	-0.144
-259.180	540.530	0.079	0.186
-258.165	-200.000	0.053	0.320
-257.151	45.162	-0.059	0.053
-256.136	-60.134	0.463	-0.194
-255.122	24.134	0.240	-0.194
-254.107	800.000	0.047	0.173
-253.092	-49.112	-0.310	-0.146
-252.078	237.357	-0.108	0.177
-251.063	800.000	-0.081	0.250
-250.049	800.000	-0.061	0.187
-249.034	-9.004	0.185	0.122
-248.019	301.093	-0.083	-0.151
-247.005	117.038	0.093	-0.112
-245.990	-53.292	-0.165	-0.074
-244.976	800.000	-0.138	-0.390
-243.961	-31.574	-0.139	-0.077
-242.946	685.714	-0.040	-0.102
-241.932	274.408	-0.148	0.257
-240.917	-200.000	-0.014	0.240
-239.903	86.004	-0.137	0.148
-238.888	216.118	-0.176	0.274
-237.873	-96.577	0.282	0.073
-236.859	-200.000	-0.030	-0.246
-235.844	543.344	-0.055	-0.129
-234.830	800.000	0.086	0.339
-233.815	-200.000	-0.001	-0.173
-232.800	800.000	-0.039	-0.139
-231.786	142.052	0.087	-0.114
-230.771	-200.000	-0.164	0.000
-229.757	205.662	-0.180	0.275
-228.742	-79.011	0.337	-0.113
-227.727	39.618	-0.216	0.190
-226.713	74.317	-0.163	-0.167
-225.698	-51.518	-0.238	0.109
-224.684	-25.360	0.158	-0.091
-223.669	198.785	-0.081	-0.121
-222.655	-92.510	-0.153	0.042
-221.640	103.283	-0.096	0.110
-220.625	72.991	-0.397	0.407
-219.611	-200.000	0.079	0.455
-218.596	-37.945	0.187	0.097
-217.582	11.203	0.140	-0.105
-216.567	49.497	-0.261	0.241
-215.552	130.275	0.008	-0.010
-214.538	-200.000	-0.026	-0.135
-213.523	-54.393	0.053	0.024
-212.509	-176.142	-0.259	-0.007
-211.494	125.665	0.108	0.133
-210.479	-31.282	0.039	-0.022
-209.465	-26.705	-0.431	-0.247
-208.450	-116.753	0.158	-0.028
-207.436	-200.000	0.010	0.080
-206.421	-23.363	-0.207	0.122
-205.406	165.579	0.115	-0.159
-204.392	116.589	-0.163	-0.195
-203.377	-200.000	-0.018	-0.227
-202.363	235.123	0.153	0.248
-201.348	120.767	0.066	0.080
-200.333	-60.169	0.236	0.099
-199.319	-104.580	0.196	0.044
-198.304	557.163	0.153	0.360
-197.290	-200.000	0.043	0.211
-196.275	259.249	0.110	0.187
-195.260	800.000	0.059	-0.171
-194.246	-109.794	-0.109	0.022
-193.231	800.000	0.105	-0.294
-192.217	692.681	0.105	-0.270
-191.202	-91.941	0.316	-0.088
-190.187	-200.000	0.036	0.162
-189.173	-15.029	0.036	0.022
-188.158	-14.662	-0.270	-0.170
-187.144	-200.000	0.035	-0.179
-186.129	-110.670	-0.272	0.055
-185.114	-36.036	-0.196	-0.104
-184.100	-60.731	0.238	-0.099
-183.085	-200.000	-0.017	0.119
-182.071	42.633	0.298	0.266
-181.056	800.000	-0.023	-0.068
-180.042	193.109	0.212	0.313
-179.027	-200.000	-0.009	-0.112
-178.012	800.000	0.058	0.177
-176.998	488.497	-0.166	0.372
-175.983	9.099	0.159	-0.118
-174.969	-19.311	0.173	0.105
-173.954	-66.862	-0.068	-0.026
-172.939	30.751	0.094	-0.079
-171.925	80.098	-0.187	0.197
-170.910	40.670	0.096	-0.085
-169.896	-2.544	-0.124	0.085
-168.881	-130.385	-0.077	0.010
-167.866	-200.000	-0.006	0.093
-166.852	318.333	0.083	-0.154
-165.837	-111.475	-0.176	0.035
-164.823	196.836	0.179	-0.267
-163.808	387.638	0.179	-0.363
-162.793	42.948	-0.170	-0.152
-161.779	108.993	0.138	-0.161
-160.764	-35.285	-0.233	-0.124
-159.750	-125.370	-0.397	-0.059
-158.735	189.296	-0.098	-0.144
-157.720	-38.065	0.178	-0.092
-156.706	800.000	0.058	0.188
-155.691	-200.000	0.006	-0.142
-154.677	-200.000	0.016	-0.082
-153.662	-109.064	-0.288	-0.060
-152.647	-77.387	0.417	-0.142
-151.633	151.987	0.221	0.295
-150.618	395.456	0.070	-0.142
-149.604	-142.402	-0.209	0.020
-148.589	-119.915	-0.213	-0.036
-147.574	-48.382	-0.187	0.088
-146.560	218.104	0.039	-0.061
-145.545	623.783	0.086	-0.212
-144.531	-114.610	-0.122	-0.023
-143.516	-4.083	-0.276	-0.187
-142.502	460.692	0.021	-0.045
-141.487	-67.927	0.285	-0.109
-140.472	152.854	-0.066	0.088
-139.458	43.550	0.180	0.161
-138.443	239.307	-0.057	-0.092
-137.429	800.000	-0.018	0.054
-136.414	-200.000	0.010	0.152
-135.399	-100.365	0.155	0.038
-134.385	-134.468	0.435	-0.052
-133.370	-185.736	-0.273	-0.004
-132.356	104.559	-0.293	0.338
-131.341	186.989	-0.112	-0.163
-130.326	75.476	-0.141	-0.146
-129.312	150.507	-0.089	0.118
-128.297	-139.254	-0.342	0.036
-127.283	-69.400	0.293	-0.110
-126.268	415.290	0.029	-0.060
-125.253	-200.000	-0.009	-0.239
-124.239	58.664	0.262	0.252
-123.224	694.044	-0.072	0.184
-122.210	-200.000	0.006	0.032
-121.195	20.876	-0.117	-0.093
