DTS Sentinel unit serial number:	SN413079Multiplexer serial number:	ORYXHardware model number:	OX4-SRSoftware version number:	ORYX F/W v4.00 Oryx Data Collector v3.7.2.0data status	okinstallation	princeton_trtdifferential loss correction	single-endedforward channel	channel 3reverse channel	N/Adate	2019/09/14time	10:52:34forward acquisition time	60.00reverse acquisition time	0.00gamma	496.2192k internal	0.2300k external	0.2300temperature offset calibration	1.0060default loss term (dB/km)	0.3790temperature slope calibration	1.0000multiplexer offset coefficient	1.0000multiplexer slope coefficient	1.0000fibre end	0.00T internal ref (°C)	35.69T ext. ref 1 (°C)	4.33T ext. ref 2 (°C)	33.08length (m)	temperature (°C)	Stokes	anti-Stokes-747.200	-45.911	-0.223	0.112
-746.185	-200.000	0.012	0.276
-745.171	800.000	-0.017	-0.052
-744.156	-200.000	-0.002	-0.046
-743.142	259.490	0.120	-0.212
-742.127	800.000	-0.091	0.330
-741.112	-43.539	0.320	-0.165
-740.098	-55.860	-0.218	0.099
-739.083	800.000	-0.069	0.256
-738.069	272.761	-0.191	0.343
-737.054	132.345	-0.127	0.167
-736.039	-130.996	-0.307	-0.042
-735.025	800.000	-0.085	0.313
-734.010	-13.699	-0.305	-0.201
-732.996	-4.559	-0.137	-0.096
-731.981	-200.000	0.025	0.146
-730.966	-12.814	0.149	0.099
-729.952	139.545	-0.051	-0.069
-728.937	-171.611	-0.342	0.012
-727.923	-132.566	-0.332	-0.043
-726.908	7.727	-0.059	-0.045
-725.894	-109.967	0.210	-0.045
-724.879	-183.856	-0.149	-0.003
-723.864	-176.453	0.236	0.006
-722.850	-56.182	0.147	-0.067
-721.835	-142.428	0.090	-0.009
-720.821	-109.510	-0.229	-0.049
-719.806	101.212	0.131	-0.155
-718.791	-11.416	-0.176	-0.118
-717.777	132.563	0.058	-0.076
-716.762	136.647	-0.282	-0.375
-715.748	42.226	-0.119	-0.110
-714.733	1.074	-0.366	0.268
-713.718	800.000	-0.103	-0.350
-712.704	23.561	-0.103	0.086
-711.689	-123.207	-0.429	0.070
-710.675	472.779	-0.060	-0.138
-709.660	-56.085	-0.302	0.137
-708.645	-168.920	0.290	0.011
-707.631	242.535	0.133	0.227
-706.616	-48.278	0.213	-0.104
-705.602	252.480	-0.233	-0.405
-704.587	-200.000	-0.006	0.205
-703.572	-200.000	-0.063	0.305
-702.558	21.212	0.181	-0.150
-701.543	-122.309	-0.379	0.063
-700.529	-59.857	-0.186	-0.081
-699.514	-200.000	0.045	-0.243
-698.499	128.693	-0.092	0.119
-697.485	5.146	-0.032	0.024
-696.470	-50.669	0.013	0.006
-695.456	200.545	-0.019	-0.030
-694.441	42.184	-0.104	-0.096
-693.426	287.186	0.148	0.273
-692.412	800.000	-0.082	-0.363
-691.397	800.000	-0.046	-0.128
-690.383	800.000	-0.013	0.052
-689.368	-3.458	-0.162	0.115
-688.354	-112.294	-0.549	0.112
-687.339	464.181	-0.012	-0.027
-686.324	800.000	-0.107	-0.437
-685.310	800.000	0.089	-0.306
-684.295	-78.846	-0.091	-0.032
-683.281	-200.000	0.079	0.376
-682.266	-73.249	-0.244	0.091
-681.251	74.730	-0.144	0.154
-680.237	544.266	-0.068	-0.165
-679.222	-42.225	0.516	-0.268
-678.208	-37.601	-0.173	-0.094
-677.193	-136.073	-0.026	0.003
-676.178	-200.000	0.038	-0.196
-675.164	-58.887	0.280	0.123
-674.149	-15.940	-0.036	0.024
-673.135	-200.000	-0.009	0.293
-672.120	-37.552	0.210	-0.114
-671.105	112.520	0.198	-0.244
-670.091	800.000	-0.113	-0.341
-669.076	-14.771	-0.141	-0.092
-668.062	-187.934	-0.049	-0.001
-667.047	-75.067	-0.215	0.078
-666.032	-154.092	-0.068	0.005
-665.018	-108.884	-0.021	-0.005
-664.003	487.862	0.086	0.200
-662.989	-70.874	-0.212	-0.081
-661.974	790.624	-0.069	-0.193
-660.959	38.992	-0.293	-0.266
-659.945	-76.926	-0.275	-0.098
-658.930	-200.000	-0.004	-0.140
-657.916	247.109	-0.265	0.454
-656.901	-147.327	-0.248	0.021
-655.886	800.000	0.075	-0.235
-654.872	131.015	-0.250	-0.326
-653.857	105.821	0.139	-0.167
-652.843	301.316	-0.114	-0.213
-651.828	-56.566	-0.161	-0.072
-650.814	-1.533	0.053	-0.038
-649.799	-145.687	0.123	-0.011
-648.784	-115.137	0.407	-0.078
-647.770	-200.000	0.029	-0.332
-646.755	596.740	-0.136	-0.343
-645.741	-200.000	0.009	-0.216
-644.726	-101.860	-0.135	-0.033
-643.711	-85.379	0.242	0.077
-642.697	279.856	0.107	-0.195
-641.682	-200.000	0.005	-0.147
-640.668	-200.000	-0.023	-0.261
-639.653	56.937	0.170	-0.168
-638.638	87.617	-0.021	-0.023
-637.624	85.999	-0.218	-0.244
-636.609	-200.000	0.013	0.105
-635.595	-31.746	-0.133	0.076
-634.580	800.000	-0.033	0.137
-633.565	800.000	0.036	0.152
-632.551	800.000	-0.024	-0.095
-631.536	119.573	0.049	0.061
-630.522	184.736	-0.136	0.204
-629.507	-65.209	0.074	-0.030
-628.492	628.980	0.128	0.328
-627.478	-31.303	-0.029	0.017
-626.463	9.669	-0.105	-0.081
-625.449	-16.966	0.167	0.107
-624.434	-73.720	-0.332	0.123
-623.419	-115.639	-0.158	-0.030
-622.405	164.364	0.145	-0.207
-621.390	-0.690	-0.411	0.296
-620.376	153.638	0.130	-0.181
-619.361	299.314	0.016	-0.031
-618.346	-200.000	0.068	-0.388
-617.332	800.000	-0.116	0.507
-616.317	-200.000	-0.058	-0.351
-615.303	-89.696	-0.123	0.036
-614.288	215.890	0.141	-0.227
-613.273	-200.000	0.008	0.221
-612.259	19.050	-0.205	0.167
-611.244	-153.265	0.359	-0.025
-610.230	-186.998	-0.137	-0.002
-609.215	-119.468	-0.145	0.025
-608.201	-97.915	-0.223	-0.058
-607.186	800.000	0.051	0.219
-606.171	-174.596	0.200	0.006
-605.157	-200.000	-0.008	0.251
-604.142	-69.463	-0.242	0.094
-603.128	85.645	-0.120	-0.134
-602.113	175.718	0.049	-0.072
-601.098	-200.000	0.067	-0.305
-600.084	788.187	0.059	0.164
-599.069	800.000	-0.038	-0.158
-598.055	-57.003	-0.088	0.039
-597.040	-200.000	0.009	-0.219
-596.025	-132.543	-0.174	0.023
-595.011	-136.769	-0.124	-0.014
-593.996	-23.532	0.217	-0.132
-592.982	800.000	-0.099	-0.413
-591.967	36.726	-0.281	-0.252
-590.952	800.000	-0.112	-0.359
-589.938	73.872	0.125	-0.133
-588.923	-122.984	0.263	0.043
-587.909	-79.967	0.350	-0.119
-586.894	-200.000	-0.025	-0.371
-585.879	315.901	-0.177	0.338
-584.865	-200.000	-0.015	-0.090
-583.850	-37.650	0.121	0.066
-582.836	-200.000	-0.056	0.329
-581.821	-182.740	-0.259	0.005
-580.806	546.211	0.133	0.322
-579.792	-179.533	0.113	-0.003
-578.777	327.095	-0.051	-0.100
-577.763	-64.868	-0.139	0.057
-576.748	-116.803	-0.062	0.012
-575.733	268.466	-0.142	0.253
-574.719	-133.045	-0.365	-0.047
-573.704	-55.179	-0.111	-0.051
-572.690	-170.004	-0.124	-0.004
-571.675	61.145	-0.282	0.284
-570.661	437.294	-0.018	-0.040
-569.646	93.867	0.121	0.139
-568.631	77.095	0.131	-0.141
-567.617	800.000	0.078	0.217
-566.602	-200.000	0.027	0.234
-565.588	74.974	-0.114	-0.122
-564.573	-200.000	0.058	0.347
-563.558	-60.594	0.146	0.063
-562.544	508.107	0.090	-0.211
-561.529	16.732	0.191	-0.153
-560.515	-200.000	0.028	-0.135
-559.500	4.694	-0.081	-0.060
-558.485	-55.782	-0.040	0.018
-557.471	-56.145	-0.114	-0.051
-556.456	-200.000	-0.036	0.205
-555.442	-57.258	0.274	-0.122
-554.427	800.000	-0.058	0.183
-553.412	-96.834	0.123	0.033
-552.398	198.221	-0.062	0.096
-551.383	-49.596	-0.039	-0.019
-550.369	231.246	-0.218	-0.361
-549.354	-46.034	-0.316	-0.158
-548.339	-5.897	0.107	0.074
-547.325	159.154	0.240	0.338
-546.310	-188.887	-0.310	0.004
-545.296	99.554	-0.014	0.016
-544.281	-71.547	-0.217	0.082
-543.266	144.982	0.049	0.066
-542.252	106.505	-0.133	0.160
-541.237	434.419	-0.052	-0.113
-540.223	-37.938	0.202	-0.109
-539.208	312.915	0.065	0.123
-538.193	758.064	-0.008	0.023
-537.179	-15.845	-0.098	-0.063
-536.164	-200.000	0.012	-0.101
-535.150	-115.847	0.362	-0.068
-534.135	-32.211	-0.153	0.086
-533.121	34.639	-0.071	-0.063
-532.106	78.295	-0.176	-0.191
-531.091	44.001	0.201	-0.186
-530.077	253.346	-0.212	0.366
-529.062	88.496	0.164	0.184
-528.048	30.615	-0.148	0.128
-527.033	144.699	0.172	0.232
-526.018	51.169	0.059	0.057
-525.004	-200.000	-0.018	0.203
-523.989	129.888	0.154	-0.199
-522.975	71.762	0.189	-0.199
-521.960	-57.284	-0.193	0.086
-520.945	782.278	0.041	0.115
-519.931	-62.171	-0.192	0.081
-518.916	-87.038	-0.409	0.126
-517.902	-25.273	-0.127	0.076
-516.887	-146.388	-0.094	0.008
-515.872	-87.130	0.115	0.035
-514.858	-132.950	-0.223	-0.029
-513.843	-134.200	0.231	0.029
-512.829	295.619	0.007	-0.013
-511.814	4.642	-0.078	0.058
-510.799	-10.747	-0.129	0.086
-509.785	66.876	0.145	-0.149
-508.770	95.809	0.077	0.088
-507.756	19.835	0.160	-0.130
-506.741	-86.271	-0.347	0.108
-505.726	104.092	-0.157	0.187
-504.712	-87.577	-0.206	-0.063
-503.697	-171.886	0.042	-0.001
-502.683	56.225	-0.051	0.050
-501.668	278.511	-0.133	0.239
-500.653	-200.000	0.031	0.525
-499.639	3.285	-0.152	-0.112
-498.624	800.000	0.092	0.307
-497.610	480.515	0.026	0.060
-496.595	391.580	-0.047	0.099
-495.581	14.294	0.203	0.160
-494.566	-200.000	0.014	-0.201
-493.551	24.255	-0.036	-0.030
-492.537	7.704	0.146	0.111
-491.522	-107.196	-0.043	-0.010
-490.508	1.498	0.305	-0.222
-489.493	54.240	0.088	-0.085
-488.478	241.395	-0.054	0.092
-487.464	-99.083	-0.152	0.039
-486.449	-161.526	-0.466	0.024
-485.435	711.364	0.022	-0.059
-484.420	85.661	0.075	0.083
-483.405	-44.899	-0.319	0.160
-482.391	-142.349	0.359	0.036
-481.376	-21.311	-0.153	0.095
-480.362	121.602	0.136	-0.171
-479.347	-1.043	0.343	-0.245
-478.332	412.247	0.082	-0.176
-477.318	193.061	0.170	0.259
-476.303	-80.389	-0.197	0.066
-475.289	-66.743	-0.174	-0.069
-474.274	-53.652	-0.242	-0.111
-473.259	-23.500	0.254	0.154
-472.245	-200.000	0.048	0.302
-471.230	800.000	0.067	-0.198
-470.216	20.347	0.390	0.318
-469.201	206.728	-0.120	0.189
-468.186	-25.492	0.120	0.071
-467.172	119.913	0.139	-0.173
-466.157	535.096	0.054	-0.129
-465.143	800.000	-0.110	0.330
-464.128	-200.000	-0.029	-0.148
-463.113	196.746	0.039	-0.060
-462.099	-185.553	0.125	-0.002
-461.084	-75.292	0.216	-0.078
-460.070	-91.146	-0.069	0.020
-459.055	-14.099	0.143	0.093
-458.040	601.852	0.146	-0.365
-457.026	-31.826	0.215	-0.122
-456.011	13.089	0.227	0.177
-454.997	-64.673	-0.122	-0.050
-453.982	-160.311	0.270	0.015
-452.968	77.475	-0.144	-0.155
-451.953	800.000	-0.043	-0.177
-450.938	239.134	-0.083	-0.139
-449.924	-65.970	-0.070	0.028
-448.909	-108.324	0.327	-0.071
-447.895	-149.315	-0.290	-0.023
-446.880	173.201	-0.089	0.129
-445.865	-200.000	-0.020	-0.247
-444.851	-0.501	-0.377	0.270
-443.836	-106.518	0.161	0.036
-442.822	-103.582	0.278	-0.066
-441.807	-37.728	-0.074	-0.040
-440.792	-44.180	0.062	-0.031
-439.778	187.815	-0.141	-0.213
-438.763	93.226	-0.212	-0.242
-437.749	800.000	0.096	0.279
-436.734	57.830	0.332	0.327
-435.719	-100.033	0.326	-0.082
-434.705	350.474	0.209	-0.416
-433.690	800.000	0.024	-0.100
-432.676	125.279	-0.234	-0.297
-431.661	-82.290	0.181	-0.059
-430.646	-138.176	0.359	-0.040
-429.632	325.875	-0.111	-0.214
-428.617	451.225	-0.085	0.190
-427.603	-96.856	0.225	-0.060
-426.588	15.576	-0.014	0.011
-425.573	278.422	0.062	0.111
-424.559	-162.896	0.262	0.013
-423.544	48.416	-0.335	0.316
-422.530	-200.000	-0.016	0.271
-421.515	530.071	-0.158	-0.376
-420.500	-67.759	0.348	0.137
-419.486	-67.428	0.118	0.047
-418.471	-200.000	0.019	-0.086
-417.457	-10.063	-0.059	-0.039
-416.442	-37.170	0.061	-0.033
-415.428	-33.560	-0.213	-0.119
-414.413	800.000	-0.092	0.351
-413.398	-101.802	-0.427	0.104
-412.384	-114.742	-0.255	-0.049
-411.369	-200.000	0.003	-0.219
-410.355	-10.266	-0.213	-0.142
-409.340	66.892	-0.145	0.149
-408.325	61.805	0.043	0.043
-407.311	-67.235	-0.255	0.101
-406.296	-200.000	0.042	0.260
-405.282	-200.000	0.064	-0.295
-404.267	141.269	0.085	0.114
-403.252	610.618	0.136	0.343
-402.238	380.505	0.145	-0.298
-401.223	-200.000	-0.002	-0.232
-400.209	560.680	-0.115	-0.280
-399.194	169.747	-0.161	0.231
-398.179	508.528	0.116	0.271
-397.165	-133.311	0.120	-0.015
-396.150	-98.751	-0.085	-0.022
-395.136	-151.471	-0.240	-0.018
-394.121	-190.947	-0.131	-0.001
-393.106	-46.757	0.184	-0.090
-392.092	-200.000	-0.019	-0.129
-391.077	-200.000	-0.017	-0.201
-390.063	-200.000	-0.020	-0.116
-389.048	-200.000	0.009	0.042
-388.033	-108.736	-0.431	0.093
-387.019	-103.988	-0.202	0.047
-386.004	129.823	-0.084	-0.107
-384.990	800.000	-0.024	-0.070
-383.975	110.778	-0.144	0.175
-382.960	489.975	-0.099	-0.228
-381.946	161.732	0.123	-0.173
-380.931	-74.756	-0.335	-0.121
-379.917	608.825	-0.097	-0.242
-378.902	-107.093	0.283	-0.063
-377.888	220.245	0.135	-0.217
-376.873	-137.796	0.188	-0.021
-375.858	363.481	-0.061	0.124
-374.844	74.611	-0.105	0.111
-373.829	-148.802	0.334	-0.027
-372.815	-83.609	0.224	0.072
-371.800	384.269	0.079	-0.163
-370.785	197.818	0.102	-0.157
-369.771	299.452	0.142	0.263
-368.756	-72.293	-0.220	0.082
-367.742	-96.429	0.177	0.047
-366.727	800.000	-0.068	-0.222
-365.712	800.000	-0.046	-0.163
-364.698	28.914	0.159	-0.135
-363.683	-41.673	0.144	0.075
-362.669	106.118	-0.282	0.335
-361.654	275.762	-0.127	-0.226
-360.639	-0.885	0.127	0.090
-359.625	36.965	-0.191	0.170
-358.610	-200.000	-0.038	-0.354
-357.596	141.887	0.208	-0.277
-356.581	24.837	-0.092	0.077
-355.566	9.383	-0.075	0.057
-354.552	86.850	-0.190	-0.210
-353.537	-200.000	0.002	0.134
-352.523	493.226	0.035	0.080
-351.508	-200.000	0.047	-0.274
-350.493	159.338	0.093	0.130
-349.479	551.993	0.169	-0.408
-348.464	-200.000	-0.037	0.196
-347.450	-21.864	0.228	-0.139
-346.435	-200.000	-0.009	0.288
-345.420	-70.644	0.227	0.086
-344.406	-200.000	0.003	0.081
-343.391	150.254	-0.112	-0.152
-342.377	-200.000	-0.013	0.209
-341.362	128.607	0.116	-0.148
-340.348	-124.841	0.227	0.035
-339.333	800.000	-0.096	0.286
-338.318	101.318	-0.087	0.102
-337.304	-23.122	0.197	-0.119
-336.289	-120.881	-0.044	-0.007
-335.275	-52.711	-0.134	0.062
-334.260	-60.485	-0.200	-0.085
-333.245	105.582	0.137	-0.163
-332.231	182.457	0.066	-0.098
-331.216	75.249	-0.217	0.230
-330.202	4.470	0.276	0.203
-329.187	-184.746	-0.394	0.006
-328.172	-88.614	0.317	0.095
-327.158	-161.025	0.058	0.003
-326.143	315.027	-0.083	0.157
-325.129	106.185	-0.144	-0.171
-324.114	-200.000	0.002	-0.134
-323.099	503.582	0.080	-0.186
-322.085	7.166	-0.054	0.040
-321.070	-176.448	-0.175	0.005
-320.056	-93.893	0.340	0.094
-319.041	-123.881	-0.211	-0.033
-318.026	-96.697	0.382	0.101
-317.012	182.150	0.159	0.235
-315.997	-86.067	-0.177	0.055
-314.983	-60.425	0.195	-0.083
-313.968	800.000	-0.049	-0.144
-312.953	-79.936	-0.233	0.079
-311.939	291.254	0.164	-0.299
-310.924	-69.657	0.237	0.091
-309.910	-200.000	0.024	-0.268
-308.895	260.932	-0.130	-0.226
-307.880	800.000	-0.029	0.086
-306.866	16.185	-0.199	0.158
-305.851	183.844	-0.267	-0.396
-304.837	-32.844	-0.140	-0.078
-303.822	320.803	-0.089	-0.169
-302.807	41.022	0.194	-0.175
-301.793	-200.000	-0.069	-0.425
-300.778	-200.000	-0.015	0.217
-299.764	800.000	0.027	0.077
-298.749	-147.719	-0.186	-0.016
-297.735	800.000	-0.112	0.345
-296.720	-102.208	-0.569	-0.137
-295.705	299.035	0.179	0.330
-294.691	-61.333	0.406	-0.171
-293.676	-200.000	0.001	0.038
-292.662	-200.000	0.006	-0.271
-291.647	293.931	0.047	-0.087
-290.632	-6.457	-0.268	0.183
-289.618	765.816	-0.127	-0.346
-288.603	-62.553	0.335	-0.139
-287.589	20.632	0.113	-0.092
-286.574	-10.218	-0.125	0.083
-285.559	-200.000	-0.017	0.421
-284.545	242.279	0.127	0.214
-283.530	26.838	-0.074	-0.062
-282.516	184.206	-0.061	0.091
-281.501	800.000	-0.067	-0.263
-280.486	-200.000	-0.030	-0.167
-279.472	-200.000	-0.003	-0.084
-278.457	-42.461	0.234	-0.120
-277.443	12.177	-0.241	0.186
-276.428	-13.691	0.160	0.104
-275.413	-200.000	-0.043	-0.209
-274.399	-200.000	-0.041	0.191
-273.384	800.000	-0.086	0.264
-272.370	-35.276	-0.086	0.047
-271.355	153.225	-0.130	0.178
-270.340	-157.349	0.364	-0.022
-269.326	-178.889	0.092	0.002
-268.311	-200.000	0.042	-0.226
-267.297	-148.484	-0.103	0.008
-266.282	8.913	0.025	-0.019
-265.267	-8.785	-0.267	-0.179
-264.253	189.948	0.122	0.184
-263.238	-80.773	-0.161	-0.053
-262.224	-13.507	-0.292	-0.189
-261.209	17.661	-0.045	-0.036
-260.195	67.096	0.360	0.368
-259.180	322.875	0.096	0.183
-258.165	-200.000	-0.042	0.341
-257.151	-200.000	0.036	-0.433
-256.136	-10.011	0.029	-0.019
-255.122	285.114	0.016	-0.029
-254.107	-115.576	0.127	-0.024
-253.092	214.524	0.251	0.398
-252.078	-106.382	-0.101	0.022
-251.063	253.425	-0.048	-0.082
-250.049	311.567	0.121	0.227
-249.034	134.315	-0.184	0.239
-248.019	523.511	0.046	0.108
-247.005	45.034	0.288	0.265
-245.990	800.000	0.062	0.202
-244.976	246.434	-0.112	-0.188
-243.961	-185.355	-0.389	-0.006
-242.946	-200.000	0.042	0.238
-241.932	17.688	-0.114	-0.091
-240.917	-200.000	0.011	0.093
-239.903	79.610	0.113	0.121
-238.888	238.085	0.045	-0.075
-237.873	494.858	-0.077	0.176
-236.859	-52.681	-0.224	0.103
-235.844	204.877	-0.084	-0.130
-234.830	-187.546	-0.155	-0.002
-233.815	-11.643	-0.127	-0.083
-232.800	-200.000	0.049	-0.403
-231.786	-60.990	0.236	-0.100
-230.771	-111.044	0.535	-0.110
-229.757	269.242	0.181	0.318
-228.742	-141.699	-0.189	-0.019
-227.727	-60.648	-0.315	0.133
-226.713	200.817	0.058	0.090
-225.698	22.692	0.124	0.101
-224.684	670.621	0.078	-0.201
-223.669	800.000	-0.097	-0.322
-222.655	96.971	-0.095	-0.109
-221.640	-44.576	0.185	-0.092
-220.625	-90.304	-0.304	0.088
-219.611	-200.000	-0.037	-0.187
-218.596	154.407	0.192	0.263
-217.582	-73.009	-0.163	-0.060
-216.567	-83.504	0.276	0.088
-215.552	292.054	0.032	-0.059
-214.538	-176.832	-0.111	-0.003
-213.523	-41.399	0.158	-0.081
-212.509	800.000	-0.055	0.197
-211.494	687.340	0.110	-0.286
-210.479	800.000	0.025	-0.095
-209.465	-45.995	0.224	0.110
-208.450	-183.078	-0.292	-0.005
-207.436	-114.171	0.240	0.046
-206.421	-200.000	-0.015	0.410
-205.406	62.534	-0.125	-0.124
-204.392	-31.430	0.074	-0.041
-203.377	302.854	-0.167	0.309
-202.363	-91.672	-0.233	0.066
-201.348	-79.286	-0.088	0.030
-200.333	-200.000	0.021	0.213
-199.319	-200.000	-0.005	-0.157
-198.304	-200.000	-0.004	-0.322
-197.290	520.295	-0.091	-0.212
-196.275	-200.000	-0.015	-0.089
-195.260	-15.507	-0.170	0.108
-194.246	-171.261	0.190	-0.006
-193.231	-69.771	-0.478	0.182
-192.217	-135.129	0.136	0.016
-191.202	77.367	-0.177	0.188
-190.187	7.330	0.121	0.090
-189.173	11.802	0.207	0.158
-188.158	37.446	0.073	-0.065
-187.144	-113.813	-0.091	0.018
-186.129	59.147	0.247	0.242
-185.114	10.207	0.204	0.155
-184.100	-200.000	-0.020	-0.140
-183.085	-132.780	0.550	0.070
-182.071	800.000	0.029	-0.090
-181.056	64.046	0.073	0.073
-180.042	-73.915	0.192	-0.070
-179.027	-14.805	0.340	0.218
-178.012	-59.001	0.036	-0.016
-176.998	-200.000	0.015	-0.219
-175.983	-200.000	0.005	-0.300
-174.969	-190.047	-0.536	-0.006
-173.954	800.000	0.062	-0.209
-172.939	-84.629	-0.234	0.074
-171.925	79.334	-0.149	0.159
-170.910	-109.911	0.558	-0.117
-169.896	-124.560	-0.214	-0.033
-168.881	-16.481	-0.129	0.082
-167.866	800.000	-0.067	0.200
-166.852	-45.427	0.202	-0.100
-165.837	-73.067	0.135	0.049
-164.823	-51.436	-0.175	-0.082
-163.808	-29.926	0.343	-0.195
-162.793	-150.606	0.303	0.023
-161.779	-25.939	0.321	0.189
-160.764	-153.138	-0.391	-0.027
-159.750	-45.234	0.391	0.194
-158.735	-200.000	0.075	-0.350
-157.720	-36.884	-0.245	0.131
-156.706	-47.216	0.143	0.070
-155.691	-67.019	-0.098	-0.039
-154.677	287.337	0.130	0.235
-153.662	-112.828	-0.061	-0.012
-152.647	-187.234	-0.058	-0.001
-151.633	-20.806	-0.115	0.070
-150.618	432.668	-0.103	-0.222
-149.604	534.053	-0.106	-0.250
-148.589	-58.331	-0.273	0.118
-147.574	-125.104	0.194	-0.030
-146.560	-4.024	-0.055	-0.038
-145.545	115.408	0.140	-0.171
-144.531	-27.231	-0.175	-0.101
-143.516	-200.000	-0.008	-0.075
-142.502	-99.190	-0.249	0.063
-141.487	249.609	-0.109	0.184
-140.472	-200.000	0.036	0.344
-139.458	-162.900	-0.199	-0.010
-138.443	-91.504	-0.424	0.121
-137.429	-172.335	-0.177	-0.006
-136.414	-61.033	-0.209	-0.088
-135.399	-30.540	0.123	-0.070
-134.385	-200.000	-0.003	0.289
-133.370	698.521	0.017	0.045
-132.356	532.611	-0.094	-0.222
-131.341	380.153	0.085	-0.173
-130.326	506.511	0.063	0.146
-129.312	385.145	0.108	-0.222
-128.297	147.316	-0.145	-0.194
-127.283	7.846	0.173	-0.129
-126.268	-83.836	0.061	0.019
-125.253	-36.969	0.131	0.070
-124.239	-200.000	-0.002	-0.076
-123.224	800.000	0.050	-0.183
