DTS Sentinel unit serial number:	SN413079Multiplexer serial number:	ORYXHardware model number:	OX4-SRSoftware version number:	ORYX F/W v4.00 Oryx Data Collector v3.7.2.0data status	okinstallation	princeton_trtdifferential loss correction	single-endedforward channel	channel 3reverse channel	N/Adate	2019/09/12time	19:36:04forward acquisition time	15.00reverse acquisition time	0.00gamma	496.2192k internal	0.2322k external	0.2322temperature offset calibration	1.0113default loss term (dB/km)	0.3790temperature slope calibration	1.0000multiplexer offset coefficient	1.0000multiplexer slope coefficient	1.0000fibre end	0.00T internal ref (°C)	32.19T ext. ref 1 (°C)	3.37T ext. ref 2 (°C)	26.66length (m)	temperature (°C)	Stokes	anti-Stokes-747.200	-53.060	0.366	0.170
-746.185	-143.305	-0.580	0.056
-745.171	-47.111	0.385	0.190
-744.156	800.000	-0.192	0.848
-743.142	-200.000	-0.035	-0.493
-742.127	-200.000	-0.085	0.621
-741.112	-151.547	-0.518	0.039
-740.098	-8.383	-0.411	-0.279
-739.083	96.545	-0.062	-0.072
-738.069	800.000	0.232	-0.735
-737.054	119.510	0.751	0.939
-736.039	-200.000	-0.110	1.086
-735.025	591.761	-0.262	0.653
-734.010	-52.874	-0.590	0.274
-732.996	-11.064	-0.759	-0.505
-731.981	-20.844	-0.389	-0.241
-730.966	96.349	0.501	-0.579
-729.952	266.532	-0.301	0.530
-728.937	-200.000	0.002	0.241
-727.923	275.141	-0.519	-0.928
-726.908	-200.000	-0.018	-1.032
-725.894	-129.392	-0.506	-0.071
-724.879	44.141	0.158	0.147
-723.864	-200.000	-0.140	0.951
-722.850	800.000	0.261	0.876
-721.835	4.894	-0.694	0.515
-720.821	800.000	-0.203	-0.616
-719.806	305.865	-0.354	-0.665
-718.791	298.112	0.071	-0.132
-717.777	59.327	0.118	0.117
-716.762	9.533	0.676	0.517
-715.748	-79.676	-0.525	0.179
-714.733	-52.144	-0.945	-0.442
-713.718	146.923	0.452	0.613
-712.704	198.692	-0.394	0.608
-711.689	-158.780	-0.691	0.040
-710.675	147.281	0.093	-0.126
-709.660	-23.952	-0.294	0.177
-708.645	393.908	-0.183	-0.384
-707.631	270.297	0.268	-0.476
-706.616	-168.052	-0.806	-0.032
-705.602	80.356	-0.469	0.509
-704.587	-112.833	0.564	-0.113
-703.572	-72.581	-0.197	-0.073
-702.558	-200.000	0.014	-0.192
-701.543	286.664	0.259	0.471
-700.529	37.625	0.264	0.236
-699.514	-50.274	0.455	0.217
-698.499	-3.686	0.298	-0.208
-697.485	46.854	-0.241	0.226
-696.470	-77.320	-0.617	-0.216
-695.456	-200.000	0.025	0.139
-694.441	239.050	-0.247	0.413
-693.426	265.738	0.555	-0.976
-692.412	-31.841	-0.667	0.377
-691.397	398.266	0.256	0.540
-690.383	31.089	-0.835	0.722
-689.368	-164.822	0.561	0.025
-688.354	63.219	0.380	-0.384
-687.339	-123.197	-0.786	-0.127
-686.324	523.701	-0.286	-0.677
-685.310	-22.750	0.254	0.155
-684.295	800.000	0.226	-0.752
-683.281	312.282	0.233	-0.440
-682.266	-26.989	0.696	-0.409
-681.251	800.000	0.281	0.887
-680.237	800.000	0.144	0.531
-679.222	-200.000	-0.158	-0.967
-678.208	7.855	0.424	-0.320
-677.193	84.900	-0.491	-0.542
-676.178	-149.322	-0.820	-0.066
-675.164	34.414	0.697	-0.613
-674.149	156.223	0.070	0.098
-673.135	-92.488	-0.493	-0.140
-672.120	-200.000	-0.024	0.401
-671.105	97.326	-0.288	-0.333
-670.091	196.424	0.157	-0.240
-669.076	-119.191	-0.733	-0.129
-668.062	445.239	-0.268	0.593
-667.047	501.438	0.082	0.191
-666.032	-200.000	-1.001	0.005
-665.018	-145.196	-0.337	-0.031
-664.003	96.987	-0.134	-0.154
-662.989	-5.737	0.591	-0.408
-661.974	100.230	-0.232	-0.270
-660.959	-101.054	0.298	-0.074
-659.945	107.825	0.373	-0.447
-658.930	-10.756	0.057	-0.038
-657.916	84.275	-0.402	-0.443
-656.901	-135.137	0.957	0.116
-655.886	72.383	1.044	1.095
-654.872	219.719	-0.225	-0.363
-653.857	185.274	0.030	-0.045
-652.843	-37.860	-0.736	-0.394
-651.828	86.231	0.693	0.768
-650.814	-200.000	-0.162	-0.972
-649.799	-200.000	0.077	0.371
-648.784	459.330	-0.266	-0.597
-647.770	452.399	0.088	-0.197
-646.755	-29.140	0.246	0.142
-645.741	-43.440	0.251	0.128
-644.726	-89.957	0.371	-0.109
-643.711	220.295	-0.359	0.579
-642.697	41.584	0.228	-0.208
-641.682	-29.768	0.258	0.148
-640.668	-182.994	0.357	0.006
-639.653	800.000	0.225	-0.794
-638.638	-58.815	0.363	-0.158
-637.624	316.495	-0.354	-0.672
-636.609	-5.246	-0.905	-0.626
-635.595	144.188	0.223	0.299
-634.580	-69.567	-0.783	0.302
-633.565	313.195	-0.170	-0.322
-632.551	-180.607	-0.858	0.018
-631.536	-200.000	0.069	0.608
-630.522	-58.458	0.754	0.329
-629.507	-182.876	-0.380	0.007
-628.492	72.844	0.259	-0.272
-627.478	89.431	-0.629	-0.706
-626.463	800.000	0.093	-0.361
-625.449	-200.000	-0.113	0.940
-624.434	-16.472	0.621	0.396
-623.419	53.601	0.197	-0.190
-622.405	800.000	0.145	0.480
-621.390	279.581	0.239	-0.429
-620.376	-200.000	-0.009	-0.227
-619.361	-149.297	0.654	0.052
-618.346	-200.000	-0.017	-0.318
-617.332	258.903	-0.554	0.959
-616.317	800.000	-0.196	-0.666
-615.303	-105.705	-0.287	0.065
-614.288	-55.331	0.649	0.293
-613.273	-98.349	-0.621	-0.160
-612.259	273.117	0.322	0.571
-611.244	-53.454	-0.148	0.068
-610.230	205.409	-0.291	-0.454
-609.215	-60.115	-0.572	0.245
-608.201	-120.843	0.635	-0.108
-607.186	61.959	0.251	0.252
-606.171	800.000	0.174	0.623
-605.157	54.086	-0.305	0.295
-604.142	202.422	0.217	0.336
-603.128	800.000	-0.221	0.625
-602.113	-35.698	-0.467	0.254
-601.098	-29.218	-0.991	-0.570
-600.084	149.620	-0.245	-0.333
-599.069	800.000	0.022	0.084
-598.055	-45.532	-0.806	0.401
-597.040	82.466	-0.132	0.144
-596.025	-200.000	-0.481	-0.000
-595.011	492.423	-0.220	-0.507
-593.996	143.250	0.295	0.394
-592.982	800.000	0.160	-0.613
-591.967	-200.000	-0.047	0.261
-590.952	80.778	0.092	0.099
-589.938	-102.315	-0.701	-0.169
-588.923	-200.000	-0.016	-0.552
-587.909	-30.796	0.794	-0.451
-586.894	450.430	-0.140	-0.310
-585.879	-25.559	0.362	0.215
-584.865	-200.000	0.188	-1.045
-583.850	381.254	-0.140	-0.289
-582.836	-28.650	0.758	0.438
-581.821	20.287	-0.421	-0.341
-580.806	1.075	0.294	0.212
-579.792	-151.346	0.120	0.009
-578.777	-10.803	-0.899	-0.597
-577.763	800.000	-0.140	-0.486
-576.748	300.246	-0.449	-0.830
-575.733	14.480	-0.678	0.531
-574.719	800.000	-0.117	-0.379
-573.704	-200.000	0.090	-0.561
-572.690	-117.369	0.213	0.039
-571.675	-200.000	-0.040	0.473
-570.661	800.000	-0.136	0.582
-569.646	-91.916	-0.453	-0.129
-568.631	-97.221	0.935	0.245
-567.617	123.672	-0.300	-0.377
-566.602	-200.000	0.004	0.249
-565.588	-100.702	0.535	-0.132
-564.573	76.060	-0.039	0.041
-563.558	-99.179	-0.116	0.029
-562.544	-200.000	-0.097	0.444
-561.529	-96.692	-0.540	0.142
-560.515	800.000	-0.092	-0.380
-559.500	-200.000	-0.024	-0.281
-558.485	151.208	-0.326	-0.444
-557.471	-80.017	0.754	0.254
-556.456	-60.740	-0.417	-0.177
-555.442	-4.384	-0.221	-0.153
-554.427	-200.000	-0.004	-0.277
-553.412	-132.757	0.644	-0.083
-552.398	158.835	0.181	-0.252
-551.383	123.028	-0.257	0.322
-550.369	-200.000	0.085	0.717
-549.354	29.121	0.461	-0.392
-548.339	-200.000	0.067	0.505
-547.325	800.000	-0.139	0.484
-546.310	-105.558	0.369	-0.084
-545.296	147.179	0.187	-0.252
-544.281	800.000	0.087	-0.349
-543.266	-200.000	0.154	0.730
-542.252	93.432	-0.552	-0.626
-541.237	-200.000	0.055	-0.626
-540.223	800.000	0.114	0.446
-539.208	-200.000	-0.006	-0.380
-538.193	-166.150	-0.875	0.037
-537.179	172.752	-0.356	-0.513
-536.164	170.208	-0.275	-0.394
-535.150	243.369	-0.306	-0.514
-534.135	16.791	0.260	-0.206
-533.121	10.008	-0.350	0.267
-532.106	-90.810	-0.477	0.138
-531.091	-200.000	-0.065	0.422
-530.077	-42.936	-0.708	0.360
-529.062	-7.829	-0.257	0.174
-528.048	-111.088	-0.281	0.058
-527.033	-84.612	0.245	-0.077
-526.018	-200.000	-0.008	0.642
-525.004	88.102	0.371	-0.412
-523.989	-118.159	-0.752	-0.134
-522.975	-124.956	0.724	-0.112
-521.960	800.000	0.042	0.130
-520.945	-40.058	-0.475	0.248
-519.931	70.550	0.474	-0.491
-518.916	109.411	0.290	-0.347
-517.902	101.409	-0.137	0.160
-516.887	54.835	0.170	-0.164
-515.872	-200.000	0.047	-0.396
-514.858	401.552	-0.380	-0.800
-513.843	-5.917	0.277	-0.190
-512.829	-142.941	1.048	-0.102
-511.814	-8.772	0.255	0.171
-510.799	-19.361	0.247	-0.153
-509.785	181.853	0.634	-0.934
-508.770	-131.247	0.260	-0.035
-507.756	-200.000	0.059	1.072
-506.741	-123.290	-0.620	-0.099
-505.726	70.647	-0.222	-0.230
-504.712	143.081	0.227	0.302
-503.697	-116.371	-1.223	0.226
-502.683	-49.851	-0.579	-0.275
-501.668	263.038	-0.359	-0.624
-500.653	81.204	0.247	-0.267
-499.639	179.696	0.385	0.564
-498.624	-100.134	-0.848	-0.211
-497.610	-200.000	0.036	0.606
-496.595	160.392	-0.330	0.460
-495.581	522.384	0.111	0.260
-494.566	-54.431	-0.896	-0.406
-493.551	-200.000	0.022	-0.464
-492.537	-200.000	-0.068	0.704
-491.522	800.000	-0.064	0.187
-490.508	-200.000	0.042	0.374
-489.493	-96.951	0.886	0.232
-488.478	93.256	0.642	-0.727
-487.464	-200.000	0.017	0.076
-486.449	-42.145	0.857	0.438
-485.435	-61.594	-0.174	-0.073
-484.420	-200.000	-0.187	0.969
-483.405	-104.674	0.512	0.118
-482.391	419.349	-0.306	-0.654
-481.376	410.236	-0.435	-0.921
-480.362	-109.491	0.497	0.105
-479.347	-119.128	-0.426	0.074
-478.332	58.707	0.237	0.233
-477.318	381.146	-0.241	0.494
-476.303	-112.340	-0.171	-0.034
-475.289	-63.506	-0.529	0.217
-474.274	62.050	-0.119	-0.118
-473.259	126.861	0.179	-0.226
-472.245	30.065	0.929	-0.792
-471.230	128.382	0.502	0.639
-470.216	-200.000	0.019	0.373
-469.201	289.249	-0.293	0.531
-468.186	332.234	-0.305	-0.589
-467.172	188.699	0.672	-1.005
-466.157	-95.652	-1.181	-0.316
-465.143	-101.530	0.921	0.224
-464.128	-1.267	-0.158	0.112
-463.113	209.283	0.021	0.033
-462.099	414.290	0.015	0.031
-461.084	-2.575	0.663	0.464
-460.070	481.881	-0.145	0.330
-459.055	-100.043	-0.806	-0.201
-458.040	359.341	-0.070	-0.139
-457.026	800.000	0.054	0.172
-456.011	696.386	-0.131	-0.344
-454.997	-43.917	1.286	0.646
-453.982	421.327	0.141	-0.302
-452.968	-79.179	-0.357	-0.121
-451.953	-94.152	0.896	0.245
-450.938	342.528	0.094	0.183
-449.924	800.000	0.177	0.571
-448.909	-200.000	0.093	-0.548
-447.895	800.000	-0.084	-0.330
-446.880	-200.000	-0.070	-0.375
-445.865	-200.000	-0.024	0.657
-444.851	-38.320	0.443	0.234
-443.836	-200.000	0.034	0.499
-442.822	-50.674	1.009	-0.474
-441.807	10.074	-0.745	0.565
-440.792	-200.000	-0.032	-0.335
-439.778	747.768	0.342	0.920
-438.763	261.582	-0.435	-0.753
-437.749	-47.276	0.380	-0.185
-436.734	35.619	0.274	-0.241
-435.719	-200.000	-0.277	-1.258
-434.705	-200.000	-0.022	0.150
-433.690	-53.015	0.679	-0.311
-432.676	-200.000	0.050	-0.284
-431.661	326.981	0.326	0.623
-430.646	800.000	-0.105	-0.325
-429.632	27.281	-0.168	-0.141
-428.617	92.661	-0.598	0.673
-427.603	-200.000	-0.055	1.005
-426.588	-23.002	-0.123	0.074
-425.573	200.379	0.100	0.154
-424.559	-136.378	0.303	-0.035
-423.544	-32.203	-0.045	0.025
-422.530	-2.588	-0.380	-0.265
-421.515	-12.143	0.503	-0.328
-420.500	1.053	-0.719	-0.514
-419.486	-121.529	-0.584	-0.097
-418.471	-71.766	-0.180	-0.067
-417.457	-64.969	-0.587	0.237
-416.442	-82.217	-0.807	-0.262
-415.428	800.000	0.265	0.814
-414.413	389.460	0.172	0.356
-413.398	-87.108	0.423	-0.128
-412.384	-86.213	-0.116	0.036
-411.369	-200.000	0.031	0.318
-410.355	-200.000	0.091	0.520
-409.340	-72.342	-0.679	0.251
-408.325	59.330	-0.255	-0.250
-407.311	-103.189	-0.477	0.112
-406.296	-7.034	0.497	0.337
-405.282	-59.078	-0.290	-0.125
-404.267	-157.796	-0.560	0.033
-403.252	-142.455	-0.283	0.028
-402.238	800.000	0.307	0.884
-401.223	87.372	0.379	0.418
-400.209	48.105	0.707	-0.659
-399.194	502.925	-0.358	-0.825
-398.179	320.131	0.398	0.754
-397.165	425.841	-0.086	-0.184
-396.150	25.630	-0.694	-0.576
-395.136	14.876	0.215	0.167
-394.121	83.110	0.516	0.559
-393.106	-86.816	-0.460	0.140
-392.092	370.285	-0.398	-0.803
-391.077	-200.000	0.054	-0.575
-390.063	36.374	-0.514	-0.452
-389.048	337.948	-0.220	-0.426
-388.033	163.609	0.355	0.497
-387.019	-200.000	-0.013	-0.535
-386.004	-49.232	-1.169	0.556
-384.990	-75.899	1.063	-0.375
-383.975	724.284	0.172	0.456
-382.960	-176.913	0.621	-0.016
-381.946	-200.000	-0.128	-0.942
-380.931	-61.216	0.637	0.267
-379.917	329.034	0.262	-0.502
-378.902	66.068	0.315	-0.318
-377.888	-200.000	-0.036	0.332
-376.873	-200.000	-0.004	0.611
-375.858	-65.193	-0.529	0.212
-374.844	-72.372	-0.488	0.180
-373.829	641.161	0.184	0.466
-372.815	91.517	0.111	-0.124
-371.800	-142.081	0.251	0.025
-370.785	800.000	0.267	0.884
-369.771	194.534	0.293	0.443
-368.756	561.696	-0.069	-0.166
-367.742	-200.000	0.029	-0.533
-366.727	127.064	-0.490	0.618
-365.712	-59.287	0.801	0.343
-364.698	-22.539	0.510	-0.307
-363.683	-116.984	0.391	-0.071
-362.669	206.586	-0.560	0.867
-361.654	-110.024	0.566	-0.118
-360.639	15.215	-0.065	-0.051
-359.625	-135.560	0.441	0.052
-358.610	545.323	-0.152	0.361
-357.596	-200.000	-0.022	-0.163
-356.581	243.726	-0.463	-0.773
-355.566	-46.460	0.449	-0.220
-354.552	-69.003	0.548	-0.210
-353.537	800.000	0.313	0.878
-352.523	-161.674	-0.351	-0.018
-351.508	112.199	-0.396	0.476
-350.493	-131.696	0.306	0.040
-349.479	615.110	-0.330	-0.822
-348.464	-115.978	-0.502	-0.093
-347.450	79.897	0.245	0.261
-346.435	-41.622	-0.599	0.306
-345.420	57.625	-0.575	-0.559
-344.406	-180.626	0.340	-0.007
-343.391	13.794	-0.073	0.057
-342.377	314.675	0.175	-0.327
-341.362	800.000	0.108	0.369
-340.348	601.735	0.161	0.397
-339.333	-148.859	-0.749	-0.060
-338.318	42.506	-0.548	-0.495
-337.304	-75.232	-0.853	0.303
-336.289	-200.000	-0.060	-0.357
-335.275	800.000	-0.068	0.240
-334.260	-84.999	-0.623	0.194
-333.245	-64.158	-0.552	-0.224
-332.231	-200.000	-0.027	0.290
-331.216	800.000	0.143	0.543
-330.202	-137.245	-0.572	-0.065
-329.187	-200.000	-0.062	-0.788
-328.172	-200.000	-0.039	-0.720
-327.158	800.000	0.341	-1.211
-326.143	-11.569	-0.202	0.132
-325.129	-16.695	0.499	-0.314
-324.114	25.087	0.291	0.240
-323.099	436.007	0.296	0.640
-322.085	115.568	0.316	-0.384
-321.070	-79.000	-1.053	0.356
-320.056	284.363	-0.102	0.182
-319.041	456.127	-0.147	0.325
-318.026	43.814	0.424	0.385
-317.012	-200.000	0.046	-1.036
-315.997	-20.883	-0.675	0.411
-314.983	-33.115	0.741	-0.408
-313.968	-200.000	-0.073	0.465
-312.953	-12.610	0.556	0.361
-311.939	-21.306	-0.925	-0.561
-310.924	208.307	0.023	-0.036
-309.910	246.388	0.311	0.521
-308.895	150.717	-0.214	0.288
-307.880	-143.464	0.847	-0.080
-306.866	58.753	0.631	-0.615
-305.851	-112.185	0.451	0.090
-304.837	-84.604	0.386	0.121
-303.822	-193.307	0.274	-0.002
-302.807	-157.830	-0.878	0.052
-301.793	-87.523	0.641	-0.193
-300.778	-84.400	-1.138	0.357
-299.764	259.700	0.280	0.480
-298.749	-104.226	0.580	0.134
-297.735	-158.526	0.333	0.019
-296.720	-200.000	0.079	-0.585
-295.705	365.935	-0.215	0.431
-294.691	-139.511	-0.744	-0.079
-293.676	-139.919	0.476	-0.050
-292.662	-88.939	0.681	-0.200
-291.647	-82.414	-0.379	0.122
-290.632	-105.973	-0.421	0.094
-289.618	127.350	-0.817	-1.029
-288.603	89.561	0.480	0.532
-287.589	285.644	0.081	0.145
-286.574	37.559	-0.505	0.445
-285.559	160.163	0.303	-0.419
-284.545	-60.310	-0.578	-0.244
-283.530	-197.246	0.343	-0.002
-282.516	657.920	-0.228	0.582
-281.501	54.370	0.173	-0.165
-280.486	-30.410	0.410	0.231
-279.472	148.982	0.098	-0.131
-278.457	1.562	-0.391	0.279
-277.443	-200.000	-0.025	0.854
-276.428	-65.851	-0.665	0.264
-275.413	800.000	-0.083	0.312
-274.399	-125.742	1.089	0.163
-273.384	91.199	-0.298	-0.332
-272.370	-166.225	0.328	0.014
-271.355	10.749	0.437	0.331
-270.340	-134.638	0.134	-0.016
-269.326	-174.737	0.133	0.004
-268.311	-91.272	1.266	-0.359
-267.297	102.156	-0.608	-0.704
-266.282	364.641	-0.083	-0.166
-265.267	-109.372	0.965	-0.203
-264.253	-32.550	0.895	-0.494
-263.238	-144.508	-0.668	-0.061
-262.224	318.098	0.386	0.725
-261.209	11.799	0.089	-0.068
-260.195	800.000	0.226	0.622
-259.180	31.708	0.449	0.383
-258.165	786.963	-0.243	0.661
-257.151	-46.726	0.320	-0.155
-256.136	126.173	0.373	0.468
-255.122	-200.000	-0.020	0.320
-254.107	190.520	0.173	-0.258
-253.092	-85.277	-0.482	0.149
-252.078	17.639	-0.309	0.243
-251.063	-200.000	-0.160	0.995
-250.049	-57.894	0.466	-0.202
-249.034	427.046	-0.185	-0.396
-248.019	-80.371	-0.995	0.329
-247.005	-200.000	-0.046	0.561
-245.990	800.000	-0.077	0.244
-244.976	-200.000	0.102	0.778
-243.961	78.173	0.980	1.036
-242.946	-200.000	-0.078	-0.604
-241.932	800.000	-0.156	0.579
-240.917	800.000	-0.113	0.451
-239.903	299.788	0.091	0.167
-238.888	-55.990	0.795	-0.351
-237.873	-200.000	-0.014	-0.091
-236.859	-104.480	0.376	0.086
-235.844	289.655	-0.234	0.420
-234.830	-46.544	0.501	-0.243
-233.815	-90.454	-0.332	0.095
-232.800	100.354	0.458	-0.526
-231.786	-88.585	0.840	-0.248
-230.771	-122.390	-0.359	-0.058
-229.757	800.000	-0.238	-0.671
-228.742	-30.429	0.845	0.474
-227.727	43.768	0.011	0.010
-226.713	343.072	0.657	1.273
-225.698	-141.221	0.915	0.092
-224.684	-88.305	0.495	-0.147
-223.669	800.000	0.124	-0.531
-222.655	135.447	-0.232	0.299
-221.640	-68.213	-0.343	0.132
-220.625	119.725	0.507	-0.622
-219.611	-30.191	0.385	-0.217
-218.596	-36.359	0.199	-0.106
-217.582	800.000	0.094	0.381
-216.567	75.325	-0.524	0.547
-215.552	658.758	-0.170	-0.433
-214.538	-119.269	0.322	-0.056
-213.523	-200.000	0.007	-0.538
-212.509	-200.000	0.119	-0.782
-211.494	800.000	0.148	-0.498
-210.479	800.000	-0.058	-0.183
-209.465	-200.000	-0.176	-0.929
-208.450	444.291	-0.098	-0.213
-207.436	800.000	-0.309	-1.120
-206.421	800.000	0.063	-0.232
-205.406	212.694	0.351	-0.548
-204.392	-74.151	0.390	-0.139
-203.377	-24.651	0.356	0.209
-202.363	49.654	-0.505	-0.470
-201.348	580.973	0.134	-0.324
-200.333	-25.222	0.449	0.263
-199.319	-107.483	-0.223	-0.048
-198.304	-200.000	-0.061	-0.478
-197.290	-200.000	0.055	-0.267
-196.275	247.075	-0.480	-0.800
-195.260	-32.943	0.286	-0.157
-194.246	-130.753	0.165	0.022
-193.231	344.054	-0.099	-0.191
-192.217	-174.002	-1.077	-0.031
-191.202	-200.000	-0.122	0.552
-190.187	-200.000	0.071	0.666
-189.173	800.000	0.112	-0.394
-188.158	-136.821	-0.351	-0.040
-187.144	-63.039	-0.701	0.286
-186.129	-161.033	-0.211	-0.011
-185.114	-126.236	1.078	0.159
-184.100	637.850	0.205	0.515
-183.085	-200.000	-0.040	0.488
-182.071	105.393	-0.613	-0.715
-181.056	-200.000	0.121	0.971
-180.042	-200.000	-0.073	-0.450
-179.027	-200.000	-0.100	0.597
-178.012	800.000	-0.099	0.397
-176.998	-48.138	0.957	-0.457
-175.983	114.377	0.167	0.201
-174.969	-105.605	-0.770	-0.172
-173.954	-103.237	-0.352	0.082
-172.939	243.394	-0.339	-0.562
-171.925	-200.000	0.037	0.413
-170.910	-127.953	-0.992	-0.141
-169.896	-105.329	-0.765	0.172
-168.881	-126.247	-0.829	-0.122
-167.866	210.413	-0.311	0.482
-166.852	-181.597	0.997	0.019
-165.837	30.714	0.599	-0.506
-164.823	-95.983	0.354	0.093
-163.808	307.179	0.209	-0.385
-162.793	-153.730	-0.648	0.044
-161.779	171.083	-0.082	0.116
-160.764	12.751	0.550	-0.420
-159.750	-200.000	0.027	-0.256
-158.735	-101.099	0.165	-0.040
-157.720	321.331	0.136	0.256
-156.706	-14.872	-0.250	-0.158
-155.691	-43.905	-0.753	0.374
-154.677	-200.000	0.090	0.760
-153.662	142.438	-0.358	0.469
-152.647	6.039	0.625	0.457
-151.633	365.248	-0.463	-0.919
-150.618	-127.669	-0.548	-0.078
-149.604	264.423	0.465	-0.800
-148.589	-27.086	0.210	-0.121
-147.574	-5.126	0.371	0.252
-146.560	202.597	0.049	-0.075
-145.545	449.830	-0.425	0.926
-144.531	349.765	0.238	-0.465
-143.516	-11.357	0.655	-0.426
-142.502	764.430	-0.227	0.607
-141.487	74.962	-0.080	-0.084
-140.472	-200.000	0.085	-0.410
-139.458	-72.354	-0.661	-0.241
-138.443	-87.348	-0.856	0.256
-137.429	800.000	-0.045	-0.168
-136.414	-50.274	-0.506	0.236
-135.399	231.127	0.445	-0.719
-134.385	95.039	-0.238	0.267
-133.370	712.676	-0.270	0.704
-132.356	-96.800	0.159	-0.041
-131.341	380.411	-0.200	-0.405
-130.326	459.962	-0.545	1.196
-129.312	63.605	-0.229	-0.226
-128.297	800.000	-0.202	0.791
-127.283	57.207	0.262	-0.252
-126.268	-143.132	0.424	0.040
-125.253	-200.000	0.048	-0.252
-124.239	800.000	0.289	-0.857
-123.224	-200.000	0.039	-0.425
-122.210	191.556	0.384	0.571
