DTS Sentinel unit serial number:	SN413079Multiplexer serial number:	ORYXHardware model number:	OX4-SRSoftware version number:	ORYX F/W v4.00 Oryx Data Collector v3.7.2.0data status	okinstallation	princeton_trtdifferential loss correction	single-endedforward channel	channel 3reverse channel	N/Adate	2019/09/17time	20:36:34forward acquisition time	60.00reverse acquisition time	0.00gamma	496.2192k internal	0.2330k external	0.2330temperature offset calibration	0.9948default loss term (dB/km)	0.3790temperature slope calibration	1.0000multiplexer offset coefficient	1.0000multiplexer slope coefficient	1.0000fibre end	0.00T internal ref (°C)	30.19T ext. ref 1 (°C)	0.21T ext. ref 2 (°C)	20.91length (m)	temperature (°C)	Stokes	anti-Stokes-747.200	459.827	0.013	-0.029
-746.185	46.078	-0.227	0.212
-745.171	-45.936	0.424	0.211
-744.156	29.330	0.170	0.145
-743.142	-126.669	0.113	0.017
-742.127	800.000	0.094	0.324
-741.112	800.000	0.083	-0.240
-740.098	51.017	-0.145	0.138
-739.083	0.306	0.315	0.226
-738.069	-200.000	-0.044	0.284
-737.054	-200.000	-0.040	-0.182
-736.039	-57.758	0.299	-0.132
-735.025	226.996	0.214	0.349
-734.010	283.528	-0.155	0.281
-732.996	379.948	-0.091	-0.188
-731.981	-106.694	-0.213	-0.048
-730.966	79.785	-0.092	-0.099
-729.952	-66.255	-0.281	0.113
-728.937	107.513	-0.060	-0.072
-727.923	-200.000	0.032	0.203
-726.908	-83.308	-0.043	-0.014
-725.894	-100.138	-0.212	-0.053
-724.879	-36.474	0.262	-0.142
-723.864	123.438	0.027	0.035
-722.850	800.000	-0.087	0.291
-721.835	242.984	-0.099	0.166
-720.821	-120.378	-0.252	-0.043
-719.806	180.415	0.105	0.156
-718.791	-200.000	-0.016	0.291
-717.777	-148.516	0.127	0.010
-716.762	263.302	0.142	0.249
-715.748	94.742	0.094	-0.108
-714.733	-108.560	-0.053	-0.011
-713.718	563.931	0.063	0.153
-712.704	-2.167	-0.299	-0.211
-711.689	37.669	0.088	0.079
-710.675	-115.010	0.187	0.036
-709.660	475.990	0.038	-0.086
-708.645	186.329	-0.067	-0.100
-707.631	62.879	0.203	0.204
-706.616	-42.307	-0.114	0.059
-705.602	287.885	-0.121	-0.220
-704.587	-89.409	0.231	-0.068
-703.572	-89.856	-0.097	-0.028
-702.558	23.318	-0.008	0.006
-701.543	-200.000	-0.021	0.249
-700.529	-113.273	-0.191	-0.038
-699.514	-100.615	-0.111	0.027
-698.499	800.000	-0.027	0.088
-697.485	-200.000	-0.001	0.056
-696.470	-174.719	-0.185	0.005
-695.456	423.600	0.101	-0.217
-694.441	151.464	0.167	-0.228
-693.426	800.000	0.095	-0.272
-692.412	324.577	-0.075	-0.143
-691.397	-200.000	-0.007	-0.168
-690.383	-200.000	-0.009	-0.082
-689.368	246.941	-0.075	-0.127
-688.354	-174.877	0.255	0.007
-687.339	800.000	0.068	-0.213
-686.324	-118.502	0.107	0.019
-685.310	121.658	0.068	0.085
-684.295	-69.537	-0.277	0.107
-683.281	-23.982	0.288	-0.173
-682.266	580.671	0.131	-0.323
-681.251	56.221	-0.040	0.039
-680.237	149.598	0.100	0.137
-679.222	-59.480	-0.184	0.079
-678.208	-200.000	0.017	-0.299
-677.193	-47.045	-0.157	-0.077
-676.178	312.109	-0.110	0.207
-675.164	-78.472	0.116	-0.040
-674.149	-200.000	-0.064	-0.425
-673.135	-105.157	0.190	0.044
-672.120	800.000	-0.066	0.206
-671.105	303.494	0.046	0.086
-670.091	253.424	0.084	-0.144
-669.076	-125.139	0.151	0.023
-668.062	-6.347	-0.116	-0.079
-667.047	354.172	0.067	0.135
-666.032	137.911	-0.102	0.134
-665.018	436.897	-0.116	-0.253
-664.003	-200.000	0.004	-0.174
-662.989	219.844	0.040	0.064
-661.974	-34.803	-0.162	-0.089
-660.959	320.721	0.167	0.318
-659.945	-91.416	0.007	-0.002
-658.930	642.747	-0.105	0.269
-657.916	35.888	-0.088	-0.078
-656.901	-41.802	0.061	-0.032
-655.886	-53.954	-0.060	-0.027
-654.872	95.427	0.092	0.105
-653.857	10.401	-0.409	-0.312
-652.843	25.901	0.269	-0.225
-651.828	-200.000	-0.035	0.205
-650.814	-115.218	-0.120	-0.023
-649.799	756.405	-0.057	-0.154
-648.784	282.278	0.056	0.100
-647.770	2.794	-0.272	0.198
-646.755	-116.575	0.268	0.050
-645.741	354.375	0.033	0.065
-644.726	69.135	0.107	0.110
-643.711	-200.000	0.016	0.332
-642.697	495.799	-0.021	-0.048
-641.682	56.786	0.007	-0.006
-640.668	61.050	-0.206	-0.205
-639.653	-87.811	0.242	-0.073
-638.638	-149.156	-0.340	0.027
-637.624	800.000	-0.026	0.076
-636.609	-200.000	0.036	-0.166
-635.595	264.562	0.067	-0.118
-634.580	-200.000	0.004	0.073
-633.565	72.839	0.165	-0.172
-632.551	-84.435	0.265	0.084
-631.536	-151.116	-0.253	-0.019
-630.522	-73.388	0.244	-0.089
-629.507	-110.891	-0.274	0.056
-628.492	800.000	0.064	-0.198
-627.478	-81.137	0.347	0.115
-626.463	-198.783	-0.230	-0.001
-625.449	-122.063	0.445	-0.073
-624.434	800.000	-0.045	0.183
-623.419	800.000	0.022	0.070
-622.405	-49.642	-0.445	0.212
-621.390	47.656	0.034	0.032
-620.376	800.000	-0.043	-0.128
-619.361	-89.747	0.390	-0.114
-618.346	-92.133	0.294	0.083
-617.332	37.473	-0.049	0.044
-616.317	35.160	0.134	0.118
-615.303	515.948	-0.070	-0.164
-614.288	-200.000	-0.011	-0.401
-613.273	-56.087	-0.347	-0.155
-612.259	-200.000	-0.005	0.228
-611.244	800.000	-0.022	0.084
-610.230	-200.000	-0.026	0.190
-609.215	-200.000	-0.002	-0.398
-608.201	179.221	0.085	-0.125
-607.186	-107.565	0.291	-0.064
-606.171	142.435	-0.118	-0.157
-605.157	183.522	-0.084	-0.125
-604.142	-87.973	-0.424	-0.128
-603.128	-49.010	-0.132	-0.063
-602.113	800.000	0.046	-0.147
-601.098	-92.538	0.268	0.075
-600.084	59.001	0.140	-0.138
-599.069	58.207	0.198	-0.194
-598.055	-200.000	0.037	-0.171
-597.040	-200.000	0.011	-0.363
-596.025	-158.891	-0.300	0.017
-595.011	-134.117	-0.128	-0.016
-593.996	297.930	-0.040	-0.074
-592.982	800.000	0.031	0.115
-591.967	211.119	0.070	0.110
-590.952	20.690	-0.086	-0.070
-589.938	-177.319	0.052	-0.001
-588.923	800.000	-0.032	0.105
-587.909	-75.940	-0.192	-0.068
-586.894	18.275	0.067	-0.054
-585.879	-200.000	-0.006	0.119
-584.865	117.497	0.159	0.195
-583.850	523.089	0.070	-0.164
-582.836	216.462	0.056	0.089
-581.821	-91.949	0.269	0.076
-580.806	317.810	-0.200	-0.379
-579.792	-200.000	0.046	-0.220
-578.777	306.074	0.025	-0.047
-577.763	-200.000	0.009	0.184
-576.748	188.779	0.139	-0.209
-575.733	257.613	-0.105	0.181
-574.719	-130.483	-0.335	-0.045
-573.704	110.029	0.085	-0.102
-572.690	-12.216	-0.174	0.114
-571.675	-102.765	-0.164	0.039
-570.661	30.497	0.075	-0.064
-569.646	581.588	-0.101	-0.248
-568.631	79.018	-0.218	-0.233
-567.617	171.789	-0.157	-0.225
-566.602	-101.108	-0.344	-0.084
-565.588	-42.434	0.331	-0.169
-564.573	-200.000	-0.005	0.071
-563.558	-117.557	-0.116	-0.021
-562.544	-118.121	-0.125	-0.022
-561.529	601.046	0.035	-0.086
-560.515	-200.000	0.052	0.247
-559.500	800.000	-0.103	0.351
-558.485	-35.355	0.149	-0.081
-557.471	800.000	0.046	-0.183
-556.456	800.000	-0.027	-0.085
-555.442	-60.628	-0.246	0.104
-554.427	-200.000	0.026	-0.328
-553.412	22.081	-0.246	0.200
-552.398	487.200	0.117	-0.266
-551.383	191.262	0.246	0.370
-550.369	21.425	0.114	-0.092
-549.354	-50.220	0.215	0.102
-548.339	-200.000	0.022	0.313
-547.325	-200.000	0.021	0.154
-546.310	219.269	0.087	0.138
-545.296	-95.729	0.130	0.035
-544.281	-63.081	-0.283	-0.117
-543.266	340.505	0.176	0.344
-542.252	111.383	-0.033	0.039
-541.237	-59.987	-0.031	-0.013
-540.223	800.000	0.049	-0.201
-539.208	-200.000	0.017	-0.245
-538.193	-75.140	0.198	0.071
-537.179	-18.032	0.208	-0.130
-536.164	-53.036	-0.157	0.072
-535.150	711.159	0.029	0.078
-534.135	-70.740	-0.199	-0.075
-533.121	-200.000	0.273	0.001
-532.106	-17.057	-0.245	0.154
-531.091	-200.000	0.050	-0.256
-530.077	-200.000	0.018	0.237
-529.062	58.162	0.078	-0.076
-528.048	-200.000	-0.027	-0.171
-527.033	-103.796	0.274	0.064
-526.018	2.644	-0.178	-0.128
-525.004	-200.000	-0.018	0.156
-523.989	88.356	-0.201	0.223
-522.975	-86.059	0.222	-0.068
-521.960	800.000	-0.137	0.395
-520.945	107.105	-0.029	-0.035
-519.931	153.412	-0.071	0.097
-518.916	82.956	0.194	-0.210
-517.902	190.862	-0.153	0.229
-516.887	800.000	-0.121	-0.375
-515.872	355.111	0.181	-0.358
-514.858	-200.000	-0.004	-0.086
-513.843	132.791	-0.165	0.212
-512.829	-88.592	-0.203	0.060
-511.814	-200.000	0.007	-0.179
-510.799	-145.830	0.131	-0.012
-509.785	800.000	-0.061	-0.248
-508.770	-200.000	-0.016	0.100
-507.756	-7.380	-0.284	0.192
-506.741	84.454	0.202	-0.221
-505.726	347.864	-0.024	0.046
-504.712	-200.000	-0.052	0.237
-503.697	6.700	0.213	0.158
-502.683	-171.577	0.258	0.009
-501.668	200.813	-0.362	-0.556
-500.653	249.493	0.213	-0.361
-499.639	604.018	0.064	0.158
-498.624	-183.298	-0.014	-0.000
-497.610	-91.074	-0.272	-0.078
-496.595	800.000	0.074	-0.233
-495.581	-200.000	-0.043	-0.234
-494.566	-36.468	0.246	-0.132
-493.551	107.242	0.014	-0.016
-492.537	800.000	-0.060	-0.168
-491.522	-200.000	0.015	-0.230
-490.508	554.085	0.066	0.159
-489.493	-200.000	-0.030	0.226
-488.478	-102.916	0.114	-0.027
-487.464	-27.690	-0.087	0.050
-486.449	-43.061	0.127	-0.064
-485.435	800.000	0.039	-0.168
-484.420	-63.388	0.097	0.040
-483.405	-200.000	0.058	-0.361
-482.391	-135.526	-0.294	0.035
-481.376	-11.408	-0.157	-0.103
-480.362	487.903	0.121	-0.276
-479.347	368.785	0.109	-0.220
-478.332	-200.000	0.025	-0.381
-477.318	800.000	0.027	0.116
-476.303	102.436	0.210	-0.245
-475.289	39.604	-0.101	0.091
-474.274	426.205	-0.126	-0.270
-473.259	231.807	0.169	-0.276
-472.245	800.000	-0.054	0.148
-471.230	-200.000	0.016	-0.164
-470.216	141.505	-0.288	0.379
-469.201	494.417	0.110	-0.251
-468.186	-101.145	-0.188	-0.046
-467.172	-164.054	0.265	0.012
-466.157	-200.000	-0.008	-0.038
-465.143	-103.963	-0.087	-0.020
-464.128	-82.038	-0.390	0.127
-463.113	800.000	-0.023	-0.076
-462.099	127.796	-0.113	-0.142
-461.084	-55.410	0.203	-0.091
-460.070	-56.431	-0.313	0.138
-459.055	32.121	-0.235	-0.202
-458.040	-122.213	-0.200	-0.033
-457.026	-200.000	-0.067	-0.312
-456.011	-200.000	-0.029	0.210
-454.997	-200.000	0.019	-0.119
-453.982	628.059	-0.105	-0.265
-452.968	553.595	-0.041	-0.097
-451.953	230.186	-0.096	-0.156
-450.938	35.149	0.236	-0.205
-449.924	-21.370	0.143	-0.087
-448.909	448.448	0.111	0.244
-447.895	-99.764	-0.376	-0.094
-446.880	111.640	-0.338	0.406
-445.865	-57.562	-0.348	-0.152
-444.851	-61.762	0.473	-0.197
-443.836	426.975	0.098	-0.210
-442.822	-7.754	-0.123	0.082
-441.807	98.738	0.126	-0.144
-440.792	-200.000	0.001	-0.096
-439.778	307.421	-0.044	-0.082
-438.763	-67.360	-0.164	-0.064
-437.749	-77.629	-0.360	0.124
-436.734	800.000	-0.083	0.313
-435.719	-200.000	0.010	-0.102
-434.705	-38.041	-0.144	0.076
-433.690	48.299	0.087	-0.081
-432.676	-12.571	-0.161	-0.105
-431.661	-54.985	-0.090	-0.040
-430.646	358.686	0.064	-0.126
-429.632	-29.912	0.304	0.172
-428.617	-79.116	-0.326	0.110
-427.603	1.888	-0.252	-0.181
-426.588	-146.984	-0.423	-0.036
-425.573	93.000	-0.048	0.054
-424.559	-95.541	0.328	0.087
-423.544	-200.000	0.035	0.189
-422.530	260.483	0.201	0.345
-421.515	-102.674	0.025	-0.006
-420.500	-200.000	0.017	-0.166
-419.486	-17.262	-0.202	-0.126
-418.471	612.411	0.068	-0.168
-417.457	292.217	0.062	0.113
-416.442	95.890	-0.153	0.173
-415.428	299.968	0.133	-0.244
-414.413	-28.556	0.222	-0.127
-413.398	16.888	0.053	-0.041
-412.384	-100.454	-0.061	0.015
-411.369	185.263	-0.209	0.309
-410.355	-157.211	0.164	0.010
-409.340	-200.000	-0.002	0.064
-408.325	800.000	0.121	-0.487
-407.311	248.937	-0.223	-0.375
-406.296	-111.380	-0.250	0.051
-405.282	-200.000	0.022	0.116
-404.267	-52.358	-0.281	-0.129
-403.252	58.785	-0.152	-0.149
-402.238	-200.000	0.009	0.303
-401.223	-110.622	-0.097	0.020
-400.209	256.948	0.210	0.358
-399.194	800.000	-0.090	0.325
-398.179	18.592	-0.309	0.245
-397.165	375.783	-0.073	-0.147
-396.150	-141.162	0.115	0.012
-395.136	483.799	-0.059	0.134
-394.121	-60.129	-0.299	0.127
-393.106	-200.000	0.027	-0.189
-392.092	-127.019	-0.214	0.031
-391.077	-200.000	0.023	-0.184
-390.063	-25.140	0.235	0.138
-389.048	-200.000	0.032	-0.230
-388.033	-102.395	-0.198	-0.047
-387.019	15.300	0.119	-0.093
-386.004	-110.206	-0.064	0.013
-384.990	57.495	-0.106	0.103
-383.975	-200.000	-0.001	0.103
-382.960	711.639	0.094	-0.247
-381.946	-200.000	0.002	0.027
-380.931	800.000	0.057	0.235
-379.917	107.719	-0.166	-0.197
-378.902	800.000	0.051	0.152
-377.888	-59.857	0.279	0.118
-376.873	-88.355	-0.266	0.079
-375.858	68.817	-0.188	-0.192
-374.844	132.916	0.026	0.033
-373.829	94.587	-0.114	0.128
-372.815	-125.210	-0.230	-0.035
-371.800	126.563	-0.184	0.231
-370.785	-134.812	-0.192	-0.023
-369.771	-108.472	0.104	-0.022
-368.756	-38.607	-0.095	0.050
-367.742	-200.000	0.004	-0.065
-366.727	-50.535	0.088	0.041
-365.712	-137.125	-0.282	-0.032
-364.698	-148.285	-0.184	0.015
-363.683	252.210	-0.276	0.466
-362.669	-200.000	0.045	0.317
-361.654	800.000	-0.051	0.146
-360.639	-115.033	0.187	-0.035
-359.625	202.973	0.178	0.273
-358.610	-68.991	0.123	-0.047
-357.596	800.000	0.106	0.303
-356.581	-44.088	0.175	-0.087
-355.566	154.235	-0.130	0.176
-354.552	-76.318	0.128	0.045
-353.537	-200.000	0.036	-0.189
-352.523	162.466	0.051	-0.072
-351.508	800.000	-0.049	0.172
-350.493	276.900	-0.142	0.250
-349.479	-200.000	0.035	-0.468
-348.464	-200.000	-0.024	0.380
-347.450	-20.751	-0.109	0.067
-346.435	-11.911	0.196	-0.128
-345.420	-38.231	-0.189	0.099
-344.406	800.000	0.020	0.065
-343.391	-36.594	0.273	0.145
-342.377	246.035	0.200	0.334
-341.362	15.484	0.128	-0.099
-340.348	-200.000	-0.052	0.241
-339.333	-137.293	0.248	0.028
-338.318	-122.584	0.239	-0.038
-337.304	-124.872	-0.089	-0.014
-336.289	-37.830	-0.090	0.047
-335.275	800.000	0.057	-0.190
-334.260	276.511	0.049	0.086
-333.245	33.524	0.142	0.122
-332.231	123.643	0.206	-0.256
-331.216	-200.000	0.016	-0.108
-330.202	251.817	-0.114	0.192
-329.187	-177.952	-0.411	0.010
-328.172	609.013	-0.110	0.273
-327.158	-69.561	-0.080	-0.030
-326.143	-200.000	0.168	-0.001
-325.129	-155.641	0.561	-0.036
-324.114	800.000	-0.039	-0.124
-323.099	-200.000	0.010	-0.152
-322.085	-146.974	0.209	-0.018
-321.070	31.493	0.143	0.122
-320.056	45.561	0.180	0.165
-319.041	-200.000	0.000	0.127
-318.026	97.649	0.066	-0.075
-317.012	-140.344	-0.111	0.011
-315.997	-26.469	0.204	-0.118
-314.983	-72.002	0.199	0.073
-313.968	-179.079	0.216	0.005
-312.953	-20.509	0.142	-0.087
-311.939	800.000	-0.055	-0.223
-310.924	105.450	0.181	-0.212
-309.910	-200.000	-0.002	-0.139
-308.895	730.640	-0.069	-0.181
-307.880	-130.145	-0.170	0.023
-306.866	56.342	-0.082	-0.079
-305.851	68.724	0.173	0.176
-304.837	-200.000	-0.011	-0.069
-303.822	86.448	-0.248	0.271
-302.807	-39.190	0.165	-0.086
-301.793	26.606	0.159	0.131
-300.778	-138.609	-0.113	-0.012
-299.764	464.298	-0.074	0.163
-298.749	545.064	0.072	0.171
-297.735	-6.849	0.093	0.062
-296.720	-31.798	0.350	-0.194
-295.705	-200.000	-0.058	-0.323
-294.691	-200.000	0.017	0.108
-293.676	-200.000	-0.001	0.084
-292.662	121.208	-0.017	0.021
-291.647	-48.940	-0.254	0.120
-290.632	193.275	0.062	0.093
-289.618	-94.546	0.168	-0.045
-288.603	-8.854	-0.046	-0.031
-287.589	800.000	0.031	0.096
-286.574	8.286	-0.197	0.147
-285.559	-61.495	0.345	0.143
-284.545	-70.553	-0.192	-0.072
-283.530	-200.000	0.060	0.342
-282.516	-79.137	-0.188	0.063
-281.501	-181.267	-0.179	-0.004
-280.486	41.716	0.076	0.068
-279.472	-108.364	-0.087	0.019
-278.457	800.000	-0.024	0.070
-277.443	-40.112	0.173	-0.089
-276.428	-76.424	-0.224	-0.078
-275.413	-157.066	-0.400	0.024
-274.399	-200.000	-0.005	-0.166
-273.384	558.574	0.058	-0.138
-272.370	-69.516	0.388	-0.147
-271.355	-67.892	0.062	-0.024
-270.340	-69.816	-0.054	0.020
-269.326	-130.014	-0.133	0.018
-268.311	758.998	0.162	0.433
-267.297	-200.000	0.034	0.434
-266.282	-32.918	0.305	0.167
-265.267	11.052	0.202	0.153
-264.253	163.955	0.014	0.020
-263.238	-62.555	0.207	0.085
-262.224	690.862	-0.046	-0.120
-261.209	800.000	0.076	0.245
-260.195	173.148	0.201	0.287
-259.180	-61.685	-0.044	-0.018
-258.165	-121.886	0.081	-0.013
-257.151	781.427	-0.073	-0.198
-256.136	-26.193	0.080	0.046
-255.122	-182.424	-0.280	0.005
-254.107	-109.983	-0.122	-0.025
-253.092	-16.529	-0.028	0.017
-252.078	800.000	0.123	0.437
-251.063	-108.737	-0.131	0.028
-250.049	-73.849	0.291	0.104
-249.034	-200.000	0.002	0.326
-248.019	6.246	0.322	0.236
-247.005	55.899	-0.300	0.287
-245.990	-1.730	-0.238	0.165
-244.976	84.217	-0.134	-0.145
-243.961	-189.438	0.174	0.002
-242.946	322.819	-0.108	-0.203
-241.932	209.540	-0.051	-0.079
-240.917	-112.620	-0.262	0.052
-239.903	-104.995	-0.203	0.046
-238.888	-200.000	0.007	0.210
-237.873	399.380	0.064	-0.133
-236.859	800.000	-0.060	-0.188
-235.844	11.492	0.064	-0.048
-234.830	-116.334	0.166	-0.030
-233.815	83.402	0.138	-0.148
-232.800	369.798	0.047	-0.095
-231.786	-200.000	0.018	0.194
-230.771	-71.128	0.221	-0.082
-229.757	9.584	-0.142	0.106
-228.742	391.221	0.187	0.383
-227.727	-41.685	0.149	0.075
-226.713	150.462	-0.067	-0.090
-225.698	800.000	0.026	0.098
-224.684	800.000	-0.090	0.298
-223.669	-69.639	0.188	0.071
-222.655	-182.794	0.053	0.001
-221.640	90.297	0.294	0.324
-220.625	-200.000	-0.022	-0.138
-219.611	-48.522	-0.316	-0.150
-218.596	-99.994	0.110	-0.027
-217.582	800.000	0.033	-0.126
-216.567	-103.894	0.195	-0.045
-215.552	-113.741	0.243	0.047
-214.538	63.442	-0.116	-0.115
-213.523	800.000	0.034	0.112
-212.509	800.000	-0.042	-0.152
-211.494	359.695	-0.202	0.398
-210.479	-175.704	-0.238	-0.006
-209.465	-82.315	0.189	0.061
-208.450	499.986	0.050	-0.114
-207.436	198.854	0.125	0.189
-206.421	800.000	-0.080	0.296
-205.406	-200.000	0.005	-0.023
-204.392	-148.668	0.080	0.006
-203.377	176.014	-0.080	0.114
-202.363	179.269	0.060	-0.087
-201.348	-200.000	0.027	-0.278
-200.333	-200.000	0.089	-0.000
-199.319	-200.000	0.049	-0.294
-198.304	-200.000	0.001	-0.101
-197.290	800.000	0.108	-0.430
-196.275	129.015	0.298	0.375
-195.260	294.070	0.069	-0.125
-194.246	83.520	-0.107	0.115
-193.231	350.284	-0.141	0.274
-192.217	-109.111	0.270	0.057
-191.202	79.146	0.139	0.146
-190.187	-18.318	-0.090	-0.055
-189.173	800.000	-0.044	0.178
-188.158	-32.292	-0.046	-0.025
-187.144	-90.643	0.376	-0.107
-186.129	383.607	0.046	-0.093
-185.114	-92.788	-0.198	-0.054
-184.100	448.460	-0.059	0.128
-183.085	41.733	0.173	-0.154
-182.071	6.094	0.147	-0.108
-181.056	20.888	0.160	-0.128
-180.042	-64.235	0.227	-0.091
-179.027	70.153	-0.168	0.170
-178.012	-15.373	-0.313	0.197
-176.998	311.843	0.023	-0.042
-175.983	800.000	-0.053	0.180
-174.969	25.577	0.103	-0.084
-173.954	19.235	-0.049	-0.039
-172.939	335.408	-0.118	0.225
-171.925	194.842	-0.135	-0.202
-170.910	-3.731	-0.335	-0.229
-169.896	-92.881	0.447	0.123
-168.881	-160.629	-0.049	-0.003
-167.866	-58.494	-0.186	0.080
-166.852	-75.254	0.093	0.033
-165.837	67.730	0.189	-0.191
-164.823	-200.000	0.003	0.115
-163.808	-98.463	-0.112	-0.028
-162.793	-200.000	0.001	0.057
-161.779	239.383	0.222	0.363
-160.764	424.307	0.096	0.203
-159.750	-200.000	0.019	-0.578
-158.735	-200.000	0.052	-0.250
-157.720	-137.376	-0.292	-0.033
-156.706	-73.885	-0.113	-0.040
-155.691	-200.000	0.005	0.354
-154.677	-36.906	-0.098	0.052
-153.662	800.000	-0.046	-0.196
-152.647	527.513	0.122	0.283
-151.633	-85.067	-0.130	-0.040
-150.618	800.000	0.054	0.198
-149.604	-146.271	0.136	0.012
-148.589	-200.000	0.044	0.220
-147.574	-200.000	-0.016	-0.436
-146.560	-58.228	0.234	-0.100
-145.545	-24.106	0.036	0.021
-144.531	20.509	0.296	0.235
-143.516	-36.947	0.210	-0.111
-142.502	-37.838	0.165	-0.087
-141.487	-87.825	0.093	0.027
-140.472	-109.256	0.243	0.051
-139.458	61.907	-0.223	-0.218
-138.443	276.729	0.054	-0.094
-137.429	800.000	0.097	0.377
-136.414	800.000	0.127	0.352
-135.399	102.994	0.226	-0.261
-134.385	-65.541	0.379	0.150
-133.370	-72.946	0.425	0.154
-132.356	-146.043	0.170	-0.015
-131.341	-8.022	-0.115	-0.076
-130.326	-12.872	-0.175	0.112
-129.312	-45.331	-0.259	-0.126
-128.297	-200.000	-0.029	0.347
-127.283	54.594	-0.245	0.232
-126.268	-65.243	0.177	-0.070
-125.253	-124.778	-0.344	-0.052
-124.239	-50.864	0.122	-0.056
-123.224	202.352	-0.042	-0.063
-122.210	31.008	-0.098	0.082
-121.195	-86.899	0.123	-0.037
