DTS Sentinel unit serial number:	SN413079Multiplexer serial number:	ORYXHardware model number:	OX4-SRSoftware version number:	ORYX F/W v4.00 Oryx Data Collector v3.7.2.0data status	okinstallation	princeton_trtdifferential loss correction	single-endedforward channel	channel 3reverse channel	N/Adate	2019/09/17time	03:40:35forward acquisition time	60.00reverse acquisition time	0.00gamma	496.2192k internal	0.2323k external	0.2323temperature offset calibration	0.9948default loss term (dB/km)	0.3790temperature slope calibration	1.0000multiplexer offset coefficient	1.0000multiplexer slope coefficient	1.0000fibre end	0.00T internal ref (°C)	30.00T ext. ref 1 (°C)	0.14T ext. ref 2 (°C)	24.49length (m)	temperature (°C)	Stokes	anti-Stokes-747.200	-4.501	0.150	0.105
-746.185	-200.000	-0.055	0.244
-745.171	-104.796	0.134	0.031
-744.156	507.475	0.086	0.201
-743.142	-80.755	-0.271	-0.091
-742.127	344.244	-0.088	-0.175
-741.112	138.973	0.232	-0.307
-740.098	-15.689	-0.424	0.273
-739.083	-200.000	0.016	0.355
-738.069	800.000	-0.091	0.334
-737.054	-30.058	0.056	0.032
-736.039	63.216	-0.176	-0.179
-735.025	177.327	0.029	-0.043
-734.010	342.064	0.052	0.102
-732.996	-52.233	-0.323	-0.151
-731.981	-119.569	-0.188	-0.033
-730.966	-200.000	-0.000	-0.141
-729.952	-113.033	-0.523	-0.104
-728.937	-132.360	0.121	0.016
-727.923	-200.000	0.083	0.425
-726.908	-1.703	-0.105	-0.075
-725.894	-161.586	0.098	0.005
-724.879	-27.506	-0.263	0.154
-723.864	800.000	0.041	0.172
-722.850	326.609	-0.095	-0.183
-721.835	-61.962	-0.455	-0.192
-720.821	-62.914	0.126	0.052
-719.806	-113.239	0.152	0.030
-718.791	-105.872	-0.143	0.033
-717.777	158.418	0.050	-0.070
-716.762	-25.569	-0.184	-0.110
-715.748	-98.549	0.255	0.066
-714.733	-200.000	-0.008	-0.101
-713.718	711.217	0.088	-0.234
-712.704	218.403	-0.095	-0.154
-711.689	180.279	-0.051	-0.076
-710.675	800.000	-0.089	-0.300
-709.660	-4.657	-0.297	0.207
-708.645	391.161	-0.227	0.476
-707.631	-126.963	-0.334	0.050
-706.616	-200.000	0.030	0.264
-705.602	326.013	-0.187	0.361
-704.587	800.000	0.041	0.171
-703.572	800.000	-0.076	0.243
-702.558	-97.137	0.272	-0.072
-701.543	312.448	0.027	-0.051
-700.529	-44.769	0.146	-0.074
-699.514	95.575	0.174	-0.200
-698.499	395.734	-0.115	-0.242
-697.485	-200.000	0.014	-0.285
-696.470	-54.276	0.454	0.208
-695.456	800.000	-0.090	-0.375
-694.441	-180.039	0.265	0.006
-693.426	68.868	0.180	0.186
-692.412	115.188	-0.239	0.294
-691.397	479.386	0.090	-0.205
-690.383	-200.000	-0.026	-0.179
-689.368	-193.270	-0.138	0.001
-688.354	-200.000	0.044	0.299
-687.339	-60.862	0.092	-0.039
-686.324	-114.847	-0.311	0.060
-685.310	249.020	-0.088	0.150
-684.295	90.984	-0.321	0.363
-683.281	-165.084	-0.259	0.012
-682.266	687.204	0.089	0.233
-681.251	800.000	0.048	0.143
-680.237	-79.390	-0.400	-0.136
-679.222	-42.942	-0.351	-0.180
-678.208	-200.000	0.023	-0.215
-677.193	6.814	-0.313	-0.234
-676.178	634.019	-0.062	0.159
-675.164	186.047	0.296	-0.444
-674.149	-14.181	-0.223	-0.145
-673.135	-103.023	-0.300	-0.072
-672.120	-14.690	-0.174	-0.113
-671.105	-200.000	0.011	-0.065
-670.091	735.402	-0.103	-0.277
-669.076	-200.000	-0.013	0.079
-668.062	172.442	-0.104	0.150
-667.047	338.804	-0.229	0.448
-666.032	-130.825	0.134	0.018
-665.018	409.830	-0.048	0.102
-664.003	60.667	0.145	0.144
-662.989	45.859	-0.389	0.362
-661.974	-21.870	0.025	0.015
-660.959	202.673	-0.064	0.099
-659.945	-144.599	-0.403	-0.037
-658.930	-180.418	0.211	-0.004
-657.916	-30.846	-0.232	-0.132
-656.901	-200.000	-0.381	-0.000
-655.886	-20.657	0.006	-0.004
-654.872	-20.056	-0.231	-0.143
-653.857	-49.866	0.298	-0.142
-652.843	-62.525	0.136	-0.057
-651.828	-137.622	0.277	-0.031
-650.814	800.000	0.056	0.203
-649.799	-45.339	0.213	0.106
-648.784	-23.426	-0.307	0.186
-647.770	800.000	-0.059	-0.171
-646.755	-153.212	-0.114	0.008
-645.741	-96.385	0.050	0.013
-644.726	67.556	-0.109	-0.112
-643.711	-42.265	-0.372	0.191
-642.697	-101.038	0.083	-0.021
-641.682	-37.558	-0.083	-0.045
-640.668	44.796	0.140	0.130
-639.653	-36.733	-0.189	-0.102
-638.638	-40.873	-0.127	-0.066
-637.624	48.090	-0.048	0.045
-636.609	121.991	-0.203	-0.255
-635.595	800.000	-0.049	0.156
-634.580	145.453	-0.151	-0.203
-633.565	-98.160	0.245	0.063
-632.551	-70.745	-0.205	0.078
-631.536	-85.670	-0.224	-0.070
-630.522	-57.636	-0.300	0.132
-629.507	-200.000	0.023	-0.296
-628.492	800.000	-0.046	-0.129
-627.478	98.677	0.170	-0.197
-626.463	-169.207	-0.124	0.005
-625.449	-106.358	0.204	-0.046
-624.434	18.442	0.153	0.123
-623.419	572.314	0.110	0.270
-622.405	217.255	-0.083	-0.132
-621.390	-132.125	-0.218	-0.028
-620.376	-200.000	-0.005	-0.633
-619.361	-15.881	-0.296	0.189
-618.346	-200.000	-0.012	0.152
-617.332	-139.149	-0.475	-0.052
-616.317	55.425	-0.345	-0.336
-615.303	-200.000	0.042	-0.340
-614.288	-114.793	0.209	-0.040
-613.273	101.184	-0.200	0.234
-612.259	87.283	0.280	-0.311
-611.244	33.875	-0.170	-0.149
-610.230	18.024	-0.152	-0.122
-609.215	267.493	-0.160	0.282
-608.201	20.490	0.227	-0.184
-607.186	127.429	-0.124	0.158
-606.171	-139.299	0.251	-0.027
-605.157	436.886	-0.015	-0.034
-604.142	1.195	-0.136	-0.098
-603.128	68.648	-0.197	0.203
-602.113	182.322	0.118	0.175
-601.098	37.420	-0.461	-0.410
-600.084	-200.000	-0.007	-0.185
-599.069	64.032	-0.118	-0.120
-598.055	159.364	-0.130	0.181
-597.040	558.711	0.064	-0.156
-596.025	-83.651	-0.435	-0.140
-595.011	101.193	0.054	0.064
-593.996	183.373	-0.115	-0.170
-592.982	-177.840	0.140	-0.003
-591.967	323.630	-0.177	0.339
-590.952	12.205	0.084	0.065
-589.938	-105.674	0.244	0.055
-588.923	77.711	-0.179	0.191
-587.909	-200.000	0.040	0.223
-586.894	-57.530	-0.285	-0.126
-585.879	800.000	0.129	-0.452
-584.865	51.601	0.120	0.115
-583.850	57.419	0.329	-0.322
-582.836	177.007	0.046	0.068
-581.821	-200.000	0.038	-0.196
-580.806	-15.783	-0.156	0.100
-579.792	30.631	-0.299	0.257
-578.777	-131.867	-0.052	-0.007
-577.763	-76.176	0.092	-0.033
-576.748	-36.715	-0.307	0.166
-575.733	800.000	0.042	-0.137
-574.719	64.416	-0.151	-0.153
-573.704	390.521	0.083	-0.173
-572.690	-142.280	-0.247	0.025
-571.675	474.655	0.094	0.213
-570.661	291.212	0.048	0.087
-569.646	-146.550	-0.358	-0.031
-568.631	150.288	0.225	0.307
-567.617	-64.327	-0.242	-0.099
-566.602	-26.080	-0.144	0.085
-565.588	267.843	-0.038	-0.067
-564.573	-142.497	0.306	0.030
-563.558	-66.900	-0.325	-0.129
-562.544	-200.000	0.060	-0.285
-561.529	-200.000	-0.011	-0.062
-560.515	-200.000	-0.040	-0.202
-559.500	-33.892	-0.243	-0.134
-558.485	76.327	-0.182	-0.193
-557.471	-200.000	0.040	0.282
-556.456	-22.500	0.211	0.128
-555.442	294.174	0.146	-0.267
-554.427	234.466	-0.061	0.102
-553.412	-7.685	0.489	0.331
-552.398	-121.311	-0.234	-0.039
-551.383	216.371	-0.110	-0.175
-550.369	-104.574	0.270	-0.062
-549.354	94.963	0.155	0.177
-548.339	422.792	-0.127	0.274
-547.325	83.539	-0.215	-0.235
-546.310	40.683	-0.272	-0.246
-545.296	-115.362	0.209	0.039
-544.281	-200.000	-0.016	0.189
-543.266	95.515	-0.059	-0.068
-542.252	667.642	-0.038	-0.098
-541.237	274.292	-0.037	0.065
-540.223	-58.709	0.111	-0.048
-539.208	-80.631	0.330	0.110
-538.193	68.493	0.138	-0.141
-537.179	-200.000	0.000	0.110
-536.164	-128.702	-0.156	-0.022
-535.150	157.449	-0.079	0.109
-534.135	392.574	0.061	-0.126
-533.121	101.514	-0.204	0.238
-532.106	-44.957	0.128	-0.064
-531.091	40.703	-0.130	-0.117
-530.077	-200.000	-0.003	-0.397
-529.062	279.453	-0.061	-0.109
-528.048	-200.000	0.001	-0.111
-527.033	0.362	-0.104	0.074
-526.018	800.000	-0.059	0.234
-525.004	96.954	0.160	0.184
-523.989	208.603	-0.221	0.346
-522.975	-200.000	0.042	-0.233
-521.960	154.739	-0.156	-0.214
-520.945	-88.327	0.275	-0.082
-519.931	61.012	-0.079	0.078
-518.916	68.987	-0.110	-0.113
-517.902	-73.650	0.416	-0.152
-516.887	-200.000	-0.004	-0.103
-515.872	-148.741	-0.205	0.017
-514.858	67.704	-0.076	0.078
-513.843	331.411	-0.053	0.102
-512.829	16.293	-0.145	0.114
-511.814	105.982	-0.386	0.457
-510.799	-6.717	-0.291	0.198
-509.785	-60.637	0.065	0.027
-508.770	619.754	-0.047	0.119
-507.756	-126.120	-0.351	0.053
-506.741	390.673	-0.224	0.464
-505.726	-200.000	-0.018	0.169
-504.712	-44.311	-0.053	-0.027
-503.697	-200.000	-0.017	0.177
-502.683	-132.035	-0.197	-0.026
-501.668	90.888	-0.100	-0.112
-500.653	800.000	0.029	0.100
-499.639	-33.424	0.296	-0.164
-498.624	261.210	0.259	0.449
-497.610	720.863	-0.109	0.289
-496.595	-148.860	0.154	-0.012
-495.581	-71.818	-0.078	0.029
-494.566	-200.000	0.068	0.373
-493.551	82.801	0.140	-0.152
-492.537	392.110	0.124	-0.258
-491.522	-31.763	0.173	-0.097
-490.508	389.769	0.056	-0.117
-489.493	-200.000	-0.034	-0.317
-488.478	-133.340	-0.085	0.011
-487.464	800.000	-0.054	-0.225
-486.449	-50.553	-0.289	-0.136
-485.435	-13.777	0.236	0.152
-484.420	-128.550	0.267	-0.038
-483.405	199.401	-0.067	0.103
-482.391	235.896	-0.148	0.245
-481.376	-86.325	-0.157	-0.048
-480.362	-122.677	-0.224	-0.036
-479.347	240.137	0.111	-0.186
-478.332	152.967	0.207	-0.282
-477.318	-200.000	-0.026	0.254
-476.303	-104.928	-0.135	-0.031
-475.289	-184.756	-0.239	-0.004
-474.274	800.000	0.098	-0.292
-473.259	-200.000	-0.013	-0.248
-472.245	-50.090	-0.354	-0.168
-471.230	-164.325	0.250	0.011
-470.216	-15.246	0.217	-0.138
-469.201	800.000	-0.062	0.212
-468.186	85.784	0.057	-0.063
-467.172	-179.584	-0.311	-0.007
-466.157	549.271	-0.148	0.354
-465.143	-149.436	-0.072	0.006
-464.128	-87.300	0.076	-0.023
-463.113	-54.365	-0.217	-0.098
-462.099	-59.557	-0.264	-0.113
-461.084	-110.603	0.125	-0.026
-460.070	-52.402	-0.273	0.126
-459.055	-93.890	0.330	-0.091
-458.040	395.081	-0.077	0.161
-457.026	800.000	-0.055	0.239
-456.011	-21.769	-0.099	-0.060
-454.997	-25.319	0.119	-0.070
-453.982	271.800	0.116	-0.205
-452.968	-142.647	0.327	0.032
-451.953	87.477	-0.165	0.182
-450.938	25.497	0.223	0.185
-449.924	489.698	-0.075	-0.171
-448.909	114.680	0.146	0.178
-447.895	7.370	-0.162	0.121
-446.880	197.874	0.291	-0.444
-445.865	-200.000	0.000	-0.372
-444.851	-200.000	-0.290	-0.000
-443.836	699.757	0.031	0.082
-442.822	-79.780	-0.174	-0.059
-441.807	229.370	-0.070	0.114
-440.792	-200.000	0.039	-0.294
-439.778	447.638	-0.088	-0.193
-438.763	-200.000	-0.039	-0.270
-437.749	113.138	-0.081	0.098
-436.734	800.000	-0.033	0.120
-435.719	38.123	-0.149	0.132
-434.705	-70.981	0.145	0.055
-433.690	46.878	-0.161	-0.149
-432.676	514.205	0.046	0.108
-431.661	85.314	0.053	0.058
-430.646	-94.354	-0.277	-0.076
-429.632	-200.000	0.025	-0.277
-428.617	48.119	0.080	0.074
-427.603	-166.713	0.410	0.017
-426.588	800.000	0.029	-0.084
-425.573	-99.415	0.161	-0.040
-424.559	-163.018	0.366	0.018
-423.544	113.330	0.281	-0.341
-422.530	261.056	-0.132	-0.228
-421.515	-200.000	0.005	0.089
-420.500	219.562	0.140	-0.223
-419.486	276.660	-0.066	-0.117
-418.471	-95.685	-0.291	-0.078
-417.457	800.000	0.103	0.383
-416.442	271.810	0.167	0.294
-415.428	800.000	0.056	0.242
-414.413	-16.240	0.162	-0.103
-413.398	147.052	0.235	0.316
-412.384	683.422	0.027	-0.070
-411.369	565.280	-0.204	0.493
-410.355	65.178	0.332	-0.335
-409.340	-73.460	-0.085	-0.031
-408.325	41.053	-0.271	0.244
-407.311	-88.141	-0.040	0.012
-406.296	-200.000	0.006	-0.255
-405.282	386.364	0.064	0.133
-404.267	800.000	-0.016	-0.048
-403.252	637.857	-0.067	-0.170
-402.238	-106.041	0.421	-0.094
-401.223	-200.000	0.030	0.321
-400.209	-39.999	-0.108	-0.056
-399.194	-200.000	-0.027	-0.190
-398.179	-137.332	0.152	-0.017
-397.165	-200.000	-0.009	0.062
-396.150	-200.000	0.014	0.385
-395.136	121.028	0.060	0.074
-394.121	800.000	0.056	-0.179
-393.106	504.569	0.068	-0.157
-392.092	-69.415	-0.123	0.047
-391.077	-65.096	-0.109	0.044
-390.063	-21.799	-0.166	0.101
-389.048	159.491	-0.144	-0.200
-388.033	-113.544	-0.322	-0.063
-387.019	259.721	0.124	0.213
-386.004	800.000	0.055	-0.227
-384.990	329.841	-0.046	0.088
-383.975	-51.181	-0.109	0.051
-382.960	-64.227	0.042	0.017
-381.946	266.851	-0.135	-0.235
-380.931	206.232	-0.344	-0.533
-379.917	800.000	-0.056	-0.207
-378.902	277.737	-0.035	-0.063
-377.888	-129.254	0.100	0.014
-376.873	-200.000	0.040	0.334
-375.858	-200.000	0.018	-0.201
-374.844	-16.293	0.105	-0.066
-373.829	33.493	-0.184	0.159
-372.815	800.000	0.124	-0.357
-371.800	-9.221	0.109	-0.073
-370.785	-200.000	0.026	0.170
-369.771	-200.000	0.014	-0.150
-368.756	-61.369	0.233	-0.098
-367.742	-10.435	0.295	0.194
-366.727	-200.000	-0.024	0.211
-365.712	-200.000	-0.040	-0.291
-364.698	41.198	0.139	0.125
-363.683	-33.738	0.263	0.144
-362.669	48.764	0.127	0.119
-361.654	520.139	-0.156	0.364
-360.639	163.913	0.160	0.224
-359.625	-38.526	-0.348	-0.183
-358.610	-138.848	0.353	0.038
-357.596	114.326	0.123	0.150
-356.581	24.056	-0.158	0.129
-355.566	-18.684	-0.150	-0.093
-354.552	238.273	0.056	0.093
-353.537	154.727	-0.116	0.158
-352.523	136.838	0.119	-0.154
-351.508	163.555	-0.019	-0.027
-350.493	226.270	-0.119	-0.193
-349.479	87.130	-0.043	0.047
-348.464	-19.380	0.159	-0.098
-347.450	800.000	0.034	0.103
-346.435	800.000	-0.079	0.309
-345.420	402.273	-0.075	-0.157
-344.406	-135.130	-0.194	-0.023
-343.391	-53.545	0.143	0.065
-342.377	-167.344	-0.303	-0.012
-341.362	228.448	-0.193	-0.312
-340.348	-200.000	-0.046	-0.256
-339.333	82.451	-0.215	0.232
-338.318	-74.577	-0.106	-0.038
-337.304	-34.113	-0.216	0.118
-336.289	64.690	-0.095	0.095
-335.275	-131.724	0.215	-0.028
-334.260	-112.959	0.237	-0.047
-333.245	290.820	0.061	0.110
-332.231	-57.508	0.145	-0.063
-331.216	-110.022	0.323	-0.067
-330.202	91.976	0.224	0.251
-329.187	800.000	0.034	0.146
-328.172	-101.239	0.402	-0.098
-327.158	3.451	-0.075	0.055
-326.143	116.647	-0.171	-0.208
-325.129	-200.000	0.031	0.176
-324.114	88.687	0.121	0.134
-323.099	-200.000	0.018	0.246
-322.085	800.000	0.075	-0.223
-321.070	-200.000	-0.078	-0.345
-320.056	800.000	0.029	-0.108
-319.041	86.262	0.141	0.155
-318.026	-200.000	-0.009	-0.228
-317.012	-110.355	0.505	0.104
-315.997	800.000	-0.054	0.177
-314.983	-64.781	0.021	0.008
-313.968	-16.153	-0.209	0.132
-312.953	548.795	-0.047	-0.112
-311.939	800.000	0.138	0.479
-310.924	592.713	-0.066	-0.162
-309.910	11.038	-0.096	-0.073
-308.895	-131.033	-0.216	-0.029
-307.880	800.000	-0.039	0.114
-306.866	6.324	-0.281	0.207
-305.851	-200.000	0.040	0.283
-304.837	85.905	0.083	-0.090
-303.822	193.497	0.073	-0.109
-302.807	-128.257	-0.219	0.031
-301.793	420.447	-0.069	-0.146
-300.778	151.905	0.185	0.250
-299.764	-75.165	0.357	-0.127
-298.749	-200.000	-0.012	0.100
-297.735	800.000	0.053	-0.200
-296.720	-200.000	-0.014	0.249
-295.705	52.630	0.304	0.288
-294.691	-200.000	0.007	-0.163
-293.676	-45.034	-0.388	0.192
-292.662	800.000	-0.068	0.252
-291.647	28.124	-0.023	0.019
-290.632	-10.356	0.232	-0.153
-289.618	-32.616	-0.267	-0.148
-288.603	179.165	-0.173	0.251
-287.589	-74.689	0.108	0.039
-286.574	-99.988	0.172	0.043
-285.559	-127.661	0.183	-0.026
-284.545	800.000	0.065	-0.189
-283.530	592.763	-0.137	0.336
-282.516	78.005	0.061	0.065
-281.501	255.969	-0.154	-0.262
-280.486	800.000	-0.046	-0.128
-279.472	-142.878	0.045	0.004
-278.457	290.496	-0.172	-0.310
-277.443	800.000	0.048	-0.206
-276.428	117.965	-0.061	-0.074
-275.413	-123.732	0.188	-0.029
-274.399	-1.410	0.131	0.092
-273.384	654.383	0.129	-0.329
-272.370	-134.696	-0.313	-0.038
-271.355	101.825	-0.073	0.084
-270.340	54.405	0.489	0.467
-269.326	281.730	-0.088	-0.156
-268.311	-23.189	-0.255	0.152
-267.297	-70.990	-0.324	-0.121
-266.282	-26.077	0.001	-0.001
-265.267	36.684	-0.104	0.091
-264.253	4.328	0.267	0.194
-263.238	-200.000	0.016	-0.101
-262.224	-60.792	0.103	-0.043
-261.209	-200.000	0.018	-0.270
-260.195	-132.088	0.656	0.085
-259.180	-200.000	0.031	0.273
-258.165	52.309	-0.187	-0.177
-257.151	-126.309	-0.180	0.027
-256.136	-169.125	0.317	-0.012
-255.122	-71.815	-0.114	-0.042
-254.107	14.736	-0.145	0.112
-253.092	-4.464	0.039	-0.027
-252.078	39.299	0.083	0.073
-251.063	-55.003	-0.127	0.057
-250.049	36.632	-0.166	-0.145
-249.034	-97.686	0.153	0.039
-248.019	-200.000	0.041	0.292
-247.005	-10.670	-0.181	0.119
-245.990	-92.555	0.467	-0.130
-244.976	-142.839	0.084	-0.008
-243.961	-156.202	0.343	0.021
-242.946	-79.769	0.265	-0.088
-241.932	-87.099	-0.158	0.047
-240.917	439.094	0.053	-0.114
-239.903	195.154	0.247	-0.372
-238.888	165.323	0.159	-0.223
-237.873	-200.000	-0.013	0.183
-236.859	-92.400	0.229	0.064
-235.844	652.787	-0.072	0.182
-234.830	-123.630	0.157	-0.025
-233.815	-25.231	0.340	0.199
-232.800	295.771	-0.062	-0.113
-231.786	-168.699	-0.224	-0.008
-230.771	-82.539	0.430	-0.138
-229.757	366.852	0.068	-0.136
-228.742	136.568	-0.207	0.268
-227.727	119.726	-0.273	0.335
-226.713	-200.000	0.001	0.079
-225.698	-60.967	0.439	0.184
-224.684	-83.341	-0.128	0.041
-223.669	-20.149	0.095	0.058
-222.655	-107.400	0.433	0.094
-221.640	182.396	0.075	-0.110
-220.625	114.968	0.096	-0.116
-219.611	-200.000	-0.019	-0.083
-218.596	-184.617	0.156	-0.002
-217.582	800.000	-0.084	-0.299
-216.567	-85.870	0.234	-0.072
-215.552	-200.000	-0.022	0.142
-214.538	213.461	-0.114	-0.179
-213.523	75.171	-0.076	-0.080
-212.509	800.000	-0.070	0.199
-211.494	-139.811	0.220	0.023
-210.479	183.294	-0.071	0.104
-209.465	23.218	0.173	-0.140
-208.450	800.000	-0.109	-0.336
-207.436	800.000	0.073	-0.216
-206.421	284.209	-0.100	0.178
-205.406	-200.000	0.030	0.373
-204.392	-200.000	0.040	0.329
-203.377	202.603	0.078	-0.119
-202.363	221.074	0.097	0.155
-201.348	-86.653	0.297	-0.090
-200.333	800.000	0.100	0.382
-199.319	-28.294	-0.330	-0.188
-198.304	-200.000	0.011	-0.123
-197.290	800.000	-0.017	0.064
-196.275	-28.461	-0.133	0.076
-195.260	482.854	0.070	-0.158
-194.246	530.608	0.072	0.167
-193.231	41.179	-0.139	-0.124
-192.217	-64.650	-0.262	-0.105
-191.202	2.728	0.403	0.289
-190.187	54.840	0.353	-0.337
-189.173	-200.000	-0.015	0.087
-188.158	-114.170	0.390	-0.075
-187.144	433.606	-0.167	0.358
-186.129	-11.845	-0.072	-0.047
-185.114	-163.559	0.451	0.021
-184.100	-200.000	0.028	0.148
-183.085	227.002	-0.214	-0.343
-182.071	32.425	-0.124	0.106
-181.056	800.000	0.072	-0.251
-180.042	-200.000	-0.007	0.038
-179.027	-152.001	-0.248	0.018
-178.012	-1.081	-0.212	-0.148
-176.998	47.542	-0.169	-0.156
-175.983	386.167	0.075	-0.152
-174.969	407.892	0.125	-0.262
-173.954	119.505	-0.067	0.082
-172.939	242.820	-0.159	-0.264
-171.925	52.180	-0.293	0.275
-170.910	149.314	0.124	0.166
-169.896	129.769	-0.185	-0.234
-168.881	800.000	-0.051	0.142
-167.866	386.302	-0.039	0.079
-166.852	-200.000	0.085	0.376
-165.837	-64.232	0.514	0.207
-164.823	601.932	-0.114	0.279
-163.808	25.463	0.287	-0.235
-162.793	200.782	-0.031	0.047
-161.779	-57.028	-0.545	0.237
-160.764	-59.915	0.181	-0.076
-159.750	-80.294	0.277	-0.091
-158.735	800.000	0.020	0.076
-157.720	173.139	-0.137	0.195
-156.706	-62.237	0.211	-0.087
-155.691	-100.193	0.470	0.115
-154.677	-200.000	-0.035	-0.172
-153.662	102.544	0.353	0.408
-152.647	-17.496	0.130	-0.081
-151.633	-200.000	-0.007	0.067
-150.618	271.556	-0.261	0.453
-149.604	318.814	0.097	-0.182
-148.589	800.000	-0.076	0.209
-147.574	800.000	0.066	0.184
-146.560	-24.929	0.365	0.214
-145.545	113.866	-0.229	-0.275
-144.531	613.371	0.143	-0.352
-143.516	-31.716	-0.270	0.149
-142.502	-61.379	-0.256	0.106
-141.487	-200.000	0.004	0.109
-140.472	465.613	-0.222	0.489
-139.458	-200.000	-0.058	0.431
-138.443	626.277	0.067	-0.166
-137.429	-44.495	-0.404	-0.199
-136.414	-66.599	0.082	0.032
-135.399	477.754	0.007	-0.015
-134.385	-137.921	0.085	0.009
-133.370	-162.945	-0.535	-0.026
-132.356	66.908	-0.211	-0.212
-131.341	-129.834	0.089	-0.012
-130.326	-16.844	-0.101	0.063
-129.312	-9.232	-0.278	0.183
-128.297	166.778	0.121	-0.169
-127.283	221.744	0.208	0.330
-126.268	22.610	0.238	0.192
-125.253	217.773	0.037	0.058
-124.239	178.523	0.136	0.197
-123.224	-4.465	0.180	-0.122
-122.210	-85.682	0.180	-0.055
