DTS Sentinel unit serial number:	SN413079Multiplexer serial number:	ORYXHardware model number:	OX4-SRSoftware version number:	ORYX F/W v4.00 Oryx Data Collector v3.7.2.0data status	okinstallation	princeton_trtdifferential loss correction	single-endedforward channel	channel 3reverse channel	N/Adate	2019/09/14time	04:24:34forward acquisition time	60.00reverse acquisition time	0.00gamma	496.2192k internal	0.2338k external	0.2338temperature offset calibration	1.0054default loss term (dB/km)	0.3790temperature slope calibration	1.0000multiplexer offset coefficient	1.0000multiplexer slope coefficient	1.0000fibre end	0.00T internal ref (°C)	26.75T ext. ref 1 (°C)	3.33T ext. ref 2 (°C)	21.90length (m)	temperature (°C)	Stokes	anti-Stokes-747.200	-200.000	-0.002	0.163
-746.185	-134.263	-0.121	-0.015
-745.171	800.000	0.161	0.504
-744.156	-50.183	-0.303	-0.144
-743.142	-64.014	-0.211	0.086
-742.127	-200.000	0.012	-0.163
-741.112	239.913	-0.139	-0.233
-740.098	-200.000	-0.049	0.220
-739.083	-200.000	-0.072	0.452
-738.069	97.853	-0.239	0.276
-737.054	171.836	0.101	0.146
-736.039	-200.000	0.006	-0.120
-735.025	-200.000	0.099	0.558
-734.010	-104.516	-0.124	-0.029
-732.996	-165.726	-0.194	0.008
-731.981	800.000	0.042	0.163
-730.966	487.252	0.108	-0.246
-729.952	30.088	0.279	0.239
-728.937	27.090	-0.115	0.097
-727.923	-200.000	0.014	0.118
-726.908	-37.215	-0.228	-0.123
-725.894	-73.852	-0.137	-0.050
-724.879	162.755	-0.016	0.023
-723.864	-150.570	-0.221	0.017
-722.850	-200.000	-0.011	0.229
-721.835	6.792	0.117	-0.087
-720.821	113.710	-0.240	-0.293
-719.806	91.108	-0.079	-0.089
-718.791	21.621	-0.109	-0.089
-717.777	800.000	0.128	0.390
-716.762	750.529	-0.054	0.147
-715.748	-200.000	-0.030	-0.139
-714.733	-105.185	-0.278	-0.064
-713.718	-200.000	-0.001	-0.034
-712.704	334.996	0.158	-0.307
-711.689	100.619	0.168	-0.195
-710.675	800.000	0.037	-0.141
-709.660	36.816	-0.020	0.018
-708.645	62.336	-0.068	0.068
-707.631	-59.400	0.137	-0.059
-706.616	800.000	-0.068	-0.193
-705.602	-200.000	-0.008	-0.056
-704.587	-19.274	0.099	-0.062
-703.572	-124.913	0.326	-0.050
-702.558	349.182	-0.162	0.321
-701.543	374.217	-0.093	-0.190
-700.529	-200.000	-0.002	0.308
-699.514	251.923	-0.313	0.534
-698.499	64.881	0.142	-0.143
-697.485	-170.589	0.059	-0.002
-696.470	-112.992	-0.473	-0.094
-695.456	-95.583	0.050	0.014
-694.441	170.246	0.152	-0.218
-693.426	-45.559	-0.372	-0.184
-692.412	4.896	-0.194	-0.143
-691.397	252.203	-0.083	0.141
-690.383	800.000	-0.017	-0.071
-689.368	-143.513	0.254	0.024
-688.354	-56.957	-0.165	0.073
-687.339	496.744	0.074	-0.171
-686.324	-30.344	-0.228	-0.130
-685.310	379.615	-0.084	-0.172
-684.295	177.415	0.169	0.247
-683.281	-130.244	-0.219	0.030
-682.266	-71.834	-0.124	0.046
-681.251	112.851	0.316	0.383
-680.237	-171.406	0.192	-0.006
-679.222	800.000	-0.121	0.352
-678.208	-39.018	-0.205	-0.108
-677.193	-176.062	-0.363	-0.010
-676.178	239.256	0.181	-0.301
-675.164	800.000	0.101	0.330
-674.149	-113.789	0.104	-0.020
-673.135	63.599	-0.187	-0.187
-672.120	282.845	0.070	0.126
-671.105	741.973	-0.083	-0.223
-670.091	-149.083	-0.041	-0.003
-669.076	-200.000	0.103	-0.512
-668.062	3.615	-0.096	-0.070
-667.047	415.002	0.125	0.267
-666.032	20.090	0.160	-0.129
-665.018	-200.000	0.005	-0.044
-664.003	-200.000	-0.017	0.084
-662.989	140.677	0.259	0.343
-661.974	-56.233	0.046	0.020
-660.959	-200.000	-0.016	-0.085
-659.945	465.804	-0.060	-0.134
-658.930	-200.000	0.032	0.337
-657.916	-80.908	-0.255	-0.085
-656.901	800.000	-0.047	-0.149
-655.886	537.599	-0.106	0.252
-654.872	122.621	-0.138	-0.173
-653.857	-200.000	0.009	0.115
-652.843	-170.193	-0.332	0.012
-651.828	-200.000	0.021	0.290
-650.814	-92.731	-0.147	0.041
-649.799	-20.076	-0.155	-0.096
-648.784	-27.759	0.290	-0.168
-647.770	-74.335	-0.182	-0.066
-646.755	-125.138	-0.478	-0.073
-645.741	-13.890	0.171	-0.110
-644.726	800.000	0.092	-0.327
-643.711	-200.000	-0.012	0.195
-642.697	-30.985	-0.217	0.123
-641.682	-155.430	-0.407	0.026
-640.668	-26.020	-0.210	-0.124
-639.653	-107.564	-0.035	-0.008
-638.638	146.516	-0.067	0.090
-637.624	190.979	-0.250	-0.376
-636.609	-159.106	0.171	0.010
-635.595	-25.762	0.185	0.109
-634.580	22.817	-0.177	-0.145
-633.565	-39.665	-0.313	0.163
-632.551	18.948	-0.108	0.087
-631.536	-13.722	0.164	0.106
-630.522	15.555	0.035	-0.027
-629.507	-35.437	0.170	0.092
-628.492	428.643	-0.096	0.207
-627.478	128.453	0.099	0.126
-626.463	-101.069	0.143	0.035
-625.449	800.000	0.081	0.256
-624.434	-28.319	-0.491	0.283
-623.419	-168.913	-0.183	-0.007
-622.405	-190.160	-0.325	0.004
-621.390	-111.103	-0.394	-0.081
-620.376	295.919	-0.132	-0.241
-619.361	800.000	0.013	-0.037
-618.346	-104.035	0.079	0.018
-617.332	234.893	-0.115	-0.190
-616.317	181.577	0.038	0.056
-615.303	-133.577	-0.272	0.034
-614.288	6.721	0.243	0.180
-613.273	-200.000	0.019	-0.146
-612.259	375.229	-0.049	0.099
-611.244	-157.709	0.316	0.019
-610.230	116.205	-0.262	0.321
-609.215	-64.249	-0.166	-0.068
-608.201	800.000	0.052	-0.192
-607.186	-33.236	-0.445	-0.246
-606.171	223.536	0.234	0.378
-605.157	222.408	0.231	-0.372
-604.142	-200.000	0.039	-0.402
-603.128	602.656	-0.052	0.130
-602.113	-122.627	-0.282	0.046
-601.098	376.605	0.082	0.167
-600.084	800.000	0.053	-0.164
-599.069	-15.936	0.135	-0.086
-598.055	-28.084	0.143	-0.082
-597.040	-95.430	0.211	0.057
-596.025	215.022	-0.159	-0.251
-595.011	-98.101	0.448	-0.115
-593.996	-97.372	0.200	-0.052
-592.982	-39.168	0.107	0.056
-591.967	32.956	0.272	0.235
-590.952	-29.141	-0.116	-0.067
-589.938	-169.721	-0.211	0.008
-588.923	634.737	0.083	0.210
-587.909	-55.491	0.191	0.086
-586.894	800.000	-0.085	-0.260
-585.879	-90.895	-0.294	-0.084
-584.865	445.849	0.080	0.176
-583.850	-111.588	0.192	-0.039
-582.836	316.707	0.052	0.097
-581.821	-200.000	-0.054	0.247
-580.806	-200.000	0.011	-0.331
-579.792	103.216	-0.198	-0.232
-578.777	-46.876	0.314	0.153
-577.763	92.772	-0.078	-0.087
-576.748	-200.000	0.025	0.216
-575.733	-160.310	0.227	0.012
-574.719	-191.435	-0.166	-0.002
-573.704	800.000	0.077	-0.241
-572.690	342.781	0.131	-0.255
-571.675	26.835	-0.197	-0.165
-570.661	-99.760	-0.071	0.018
-569.646	-25.388	0.087	0.051
-568.631	272.047	0.085	0.149
-567.617	368.673	-0.075	-0.152
-566.602	-175.162	0.136	-0.004
-565.588	-200.000	-0.008	-0.096
-564.573	521.897	0.053	-0.125
-563.558	800.000	0.026	-0.105
-562.544	-83.833	0.193	-0.061
-561.529	-200.000	-0.041	-0.193
-560.515	-200.000	0.023	-0.458
-559.500	109.899	0.057	0.068
-558.485	-96.999	-0.481	0.125
-557.471	783.728	0.053	-0.145
-556.456	-146.157	0.158	0.014
-555.442	-83.823	0.127	-0.040
-554.427	60.523	0.141	0.139
-553.412	-130.688	-0.300	-0.040
-552.398	-37.771	0.148	0.078
-551.383	-37.835	-0.133	-0.071
-550.369	-200.000	-0.026	-0.145
-549.354	103.235	-0.165	0.193
-548.339	144.753	0.186	0.247
-547.325	-4.173	0.294	0.203
-546.310	-200.000	-0.028	-0.155
-545.296	35.417	-0.151	0.132
-544.281	-40.948	0.064	0.033
-543.266	123.524	-0.107	-0.133
-542.252	-200.000	0.020	-0.200
-541.237	-86.687	0.203	0.062
-540.223	-200.000	-0.057	0.251
-539.208	800.000	0.127	-0.518
-538.193	116.175	-0.097	-0.119
-537.179	-200.000	-0.034	-0.287
-536.164	-85.557	-0.158	-0.049
-535.150	-26.941	-0.163	0.095
-534.135	-200.000	-0.022	0.176
-533.121	63.463	0.291	0.290
-532.106	-77.465	0.080	-0.027
-531.091	45.073	0.263	-0.241
-530.077	-85.141	0.489	0.152
-529.062	-200.000	-0.016	-0.148
-528.048	-5.164	0.169	-0.116
-527.033	800.000	0.114	-0.334
-526.018	36.966	-0.210	0.185
-525.004	-20.846	-0.313	-0.191
-523.989	-39.410	-0.157	-0.082
-522.975	-15.690	0.143	-0.090
-521.960	-125.533	-0.192	0.029
-520.945	122.997	-0.148	-0.184
-519.931	-56.373	0.198	0.087
-518.916	-179.149	-0.022	0.000
-517.902	594.302	-0.116	-0.285
-516.887	-62.087	-0.206	0.085
-515.872	-23.593	0.447	0.267
-514.858	204.265	-0.133	-0.204
-513.843	33.080	-0.108	0.093
-512.829	272.921	0.072	-0.127
-511.814	-200.000	-0.019	0.109
-510.799	5.991	0.080	0.059
-509.785	75.748	0.104	-0.110
-508.770	-200.000	0.025	-0.308
-507.756	-125.491	-0.080	-0.012
-506.741	193.471	0.110	-0.165
-505.726	90.236	0.032	-0.035
-504.712	-200.000	0.007	0.117
-503.697	14.181	-0.205	-0.159
-502.683	-185.175	0.463	0.007
-501.668	-148.326	0.308	0.025
-500.653	-76.140	-0.160	0.056
-499.639	287.457	0.140	0.251
-498.624	-145.820	-0.302	0.027
-497.610	150.851	0.058	0.079
-496.595	-174.309	-0.270	0.008
-495.581	-115.251	-0.284	0.053
-494.566	-139.442	-0.341	-0.036
-493.551	663.530	0.148	-0.380
-492.537	-122.912	-0.127	-0.020
-491.522	-22.275	0.112	-0.067
-490.508	-45.773	-0.135	-0.066
-489.493	-200.000	0.063	-0.307
-488.478	160.596	0.184	0.255
-487.464	74.693	-0.061	-0.064
-486.449	173.686	-0.032	0.045
-485.435	566.886	0.091	0.220
-484.420	800.000	0.078	0.254
-483.405	800.000	-0.068	-0.229
-482.391	-149.307	0.063	-0.005
-481.376	-129.123	-0.049	-0.007
-480.362	-200.000	-0.026	-0.152
-479.347	-144.246	0.106	-0.010
-478.332	197.027	0.108	0.163
-477.318	-200.000	0.023	-0.152
-476.303	-52.556	0.098	-0.045
-475.289	433.686	0.077	0.167
-474.274	71.619	0.245	0.252
-473.259	-50.943	0.073	-0.034
-472.245	398.122	0.124	-0.257
-471.230	800.000	-0.014	0.057
-470.216	-9.555	0.296	-0.196
-469.201	-29.795	-0.342	-0.194
-468.186	174.015	-0.063	-0.091
-467.172	800.000	-0.116	0.360
-466.157	-200.000	-0.089	0.394
-465.143	353.765	-0.083	0.164
-464.128	-200.000	0.008	0.081
-463.113	55.806	0.032	-0.031
-462.099	70.507	0.023	0.024
-461.084	-172.391	0.039	-0.001
-460.070	800.000	-0.025	-0.076
-459.055	7.101	0.191	-0.141
-458.040	-56.208	-0.168	-0.074
-457.026	50.234	0.068	0.064
-456.011	-200.000	0.047	0.249
-454.997	-46.249	-0.285	-0.139
-453.982	-35.190	0.220	0.119
-452.968	-79.180	0.228	-0.077
-451.953	-200.000	-0.006	0.196
-450.938	486.208	-0.124	0.281
-449.924	323.096	0.083	0.157
-448.909	-200.000	0.026	-0.198
-447.895	-200.000	0.002	-0.013
-446.880	419.265	-0.080	-0.170
-445.865	-200.000	-0.019	-0.171
-444.851	408.753	0.029	0.062
-443.836	-173.659	0.239	-0.007
-442.822	319.315	0.094	-0.177
-441.807	-42.125	-0.088	0.045
-440.792	-93.990	-0.400	0.109
-439.778	538.654	0.030	0.071
-438.763	-200.000	0.003	-0.221
-437.749	308.101	-0.074	-0.137
-436.734	-200.000	0.008	-0.134
-435.719	-37.439	0.328	-0.174
-434.705	-25.529	-0.190	0.111
-433.690	259.186	-0.072	-0.123
-432.676	-123.167	-0.210	0.033
-431.661	-94.579	0.052	0.014
-430.646	158.572	0.187	-0.257
-429.632	-11.771	-0.224	-0.146
-428.617	-41.454	-0.182	0.093
-427.603	274.329	-0.194	0.341
-426.588	-200.000	0.039	0.197
-425.573	-117.084	0.214	-0.039
-424.559	-151.139	-0.145	0.011
-423.544	160.857	0.030	-0.041
-422.530	-85.446	0.208	0.064
-421.515	30.439	0.173	0.147
-420.500	-63.921	-0.031	-0.013
-419.486	-200.000	-0.050	0.462
-418.471	-38.256	-0.051	-0.027
-417.457	800.000	-0.025	0.102
-416.442	-16.962	-0.298	0.187
-415.428	112.419	-0.159	-0.191
-414.413	-20.065	-0.159	0.097
-413.398	-123.854	0.303	0.047
-412.384	108.234	0.120	0.142
-411.369	122.326	0.095	-0.117
-410.355	800.000	-0.041	0.142
-409.340	180.572	0.310	-0.450
-408.325	-93.729	0.077	0.021
-407.311	-200.000	0.055	-0.284
-406.296	193.002	0.158	0.237
-405.282	56.410	0.099	0.095
-404.267	-75.042	-0.320	0.113
-403.252	-200.000	0.056	0.431
-402.238	68.968	0.225	0.228
-401.223	275.853	-0.077	0.135
-400.209	-86.647	-0.207	-0.063
-399.194	174.443	-0.063	-0.090
-398.179	-113.870	0.173	-0.033
-397.165	43.091	0.197	-0.178
-396.150	0.448	-0.107	0.076
-395.136	-200.000	-0.020	0.129
-394.121	-200.000	0.151	0.658
-393.106	800.000	0.025	-0.098
-392.092	486.607	0.040	-0.090
-391.077	-25.020	-0.119	-0.070
-390.063	-19.102	0.154	-0.095
-389.048	-200.000	0.014	-0.101
-388.033	-21.577	-0.174	0.105
-387.019	91.410	-0.167	0.185
-386.004	90.361	-0.150	-0.167
-384.990	226.776	0.145	-0.233
-383.975	20.611	0.156	-0.125
-382.960	69.953	-0.085	-0.086
-381.946	-151.839	-0.282	0.020
-380.931	-114.910	0.127	-0.024
-379.917	-59.629	0.367	0.156
-378.902	14.975	0.181	0.140
-377.888	-200.000	0.078	0.657
-376.873	561.248	0.083	0.198
-375.858	114.855	-0.113	-0.137
-374.844	97.326	-0.156	-0.177
-373.829	-64.645	-0.143	0.057
-372.815	-22.571	0.059	-0.035
-371.800	-200.000	0.065	-0.354
-370.785	193.393	-0.076	0.113
-369.771	54.089	-0.201	-0.191
-368.756	43.428	0.218	-0.197
-367.742	-31.045	-0.174	0.097
-366.727	-55.169	-0.162	-0.072
-365.712	800.000	-0.045	0.149
-364.698	328.118	0.156	-0.297
-363.683	-94.785	-0.252	-0.068
-362.669	37.784	0.112	0.098
-361.654	-149.882	-0.293	0.023
-360.639	-117.249	-0.322	-0.058
-359.625	98.493	0.158	-0.180
-358.610	-91.139	-0.387	0.110
-357.596	-133.632	0.391	0.048
-356.581	-200.000	-0.026	-0.115
-355.566	-152.039	-0.167	-0.012
-354.552	800.000	0.006	-0.020
-353.537	-200.000	-0.040	-0.235
-352.523	-126.787	0.144	0.021
-351.508	5.932	0.319	0.233
-350.493	464.343	-0.101	-0.222
-349.479	-16.595	-0.085	-0.053
-348.464	505.674	-0.177	-0.406
-347.450	212.994	-0.068	0.106
-346.435	-102.934	-0.116	-0.027
-345.420	108.779	0.156	0.184
-344.406	56.981	0.117	-0.113
-343.391	-68.890	-0.187	-0.071
-342.377	116.431	-0.118	0.142
-341.362	-140.296	-0.372	-0.038
-340.348	529.769	-0.067	0.157
-339.333	15.101	0.278	-0.215
-338.318	668.787	0.055	0.140
-337.304	349.954	-0.165	-0.321
-336.289	-200.000	-0.030	-0.241
-335.275	-200.000	0.036	0.158
-334.260	529.546	0.034	0.080
-333.245	189.239	0.051	0.076
-332.231	39.380	-0.123	0.108
-331.216	-117.774	0.184	0.033
-330.202	15.186	-0.008	0.006
-329.187	351.782	0.063	-0.122
-328.172	-92.073	0.250	0.070
-327.158	532.787	0.098	0.228
-326.143	267.573	-0.296	0.511
-325.129	-89.413	-0.172	0.050
-324.114	509.334	-0.094	0.216
-323.099	-5.183	0.129	-0.088
-322.085	-200.000	0.042	-0.324
-321.070	49.576	0.375	-0.348
-320.056	-99.292	-0.417	0.104
-319.041	265.020	0.188	-0.323
-318.026	-99.154	-0.095	0.024
-317.012	-200.000	-0.017	-0.103
-315.997	141.331	-0.137	0.179
-314.983	2.911	0.080	-0.057
-313.968	6.099	-0.230	0.168
-312.953	369.827	-0.025	0.051
-311.939	162.392	-0.079	-0.110
-310.924	100.777	0.140	-0.161
-309.910	508.181	0.133	-0.304
-308.895	800.000	-0.068	-0.215
-307.880	-200.000	-0.048	0.211
-306.866	-200.000	-0.042	-0.444
-305.851	37.195	0.145	-0.126
-304.837	17.934	0.100	-0.078
-303.822	430.715	0.083	-0.176
-302.807	441.063	-0.078	0.168
-301.793	10.617	-0.266	-0.200
-300.778	-68.500	0.283	0.108
-299.764	92.891	0.153	-0.171
-298.749	65.000	-0.030	0.030
-297.735	800.000	-0.050	0.194
-296.720	73.548	0.114	0.118
-295.705	-20.907	-0.089	0.054
-294.691	800.000	0.111	-0.341
-293.676	800.000	-0.088	0.258
-292.662	148.698	0.157	0.209
-291.647	139.435	0.105	0.136
-290.632	137.015	0.184	0.237
-289.618	-99.715	-0.382	0.094
-288.603	-151.304	0.322	0.024
-287.589	-139.789	-0.135	0.014
-286.574	-4.742	-0.311	-0.212
-285.559	-159.083	-0.275	0.015
-284.545	-42.234	-0.101	0.051
-283.530	800.000	0.075	0.238
-282.516	8.394	-0.118	-0.088
-281.501	-136.181	-0.054	-0.006
-280.486	-66.171	0.120	0.047
-279.472	800.000	0.110	0.420
-278.457	-200.000	0.022	0.145
-277.443	-200.000	0.042	0.194
-276.428	-122.113	-0.159	-0.026
-275.413	-15.296	-0.190	0.119
-274.399	-200.000	0.028	-0.157
-273.384	-22.365	0.112	0.067
-272.370	-81.082	-0.231	-0.075
-271.355	800.000	-0.084	-0.235
-270.340	-200.000	0.003	-0.050
-269.326	219.474	-0.313	0.493
-268.311	26.721	0.104	0.086
-267.297	-90.973	0.187	-0.053
-266.282	1.236	0.100	0.071
-265.267	-99.650	0.080	-0.020
-264.253	800.000	0.029	0.106
-263.238	800.000	0.077	0.220
-262.224	55.752	0.084	0.080
-261.209	-200.000	-0.004	-0.369
-260.195	-200.000	-0.005	0.060
-259.180	-88.768	0.336	0.098
-258.165	800.000	-0.065	0.178
-257.151	800.000	0.021	0.088
-256.136	115.573	0.127	-0.152
-255.122	-158.087	-0.251	-0.014
-254.107	286.887	-0.062	0.110
-253.092	-79.713	0.372	0.123
-252.078	-200.000	0.036	-0.155
-251.063	-200.000	0.004	0.057
-250.049	-28.959	0.096	0.055
-249.034	26.533	0.140	0.115
-248.019	68.033	0.211	0.213
-247.005	-127.457	0.104	-0.015
-245.990	-100.512	-0.055	0.013
-244.976	-21.654	-0.265	0.159
-243.961	-200.000	-0.009	0.044
-242.946	800.000	0.064	0.250
-241.932	18.766	-0.241	0.190
-240.917	76.116	-0.233	-0.242
-239.903	729.409	0.029	0.077
-238.888	438.054	0.099	0.212
-237.873	800.000	-0.032	0.108
-236.859	-180.364	0.179	-0.004
-235.844	-200.000	-0.008	0.048
-234.830	-110.435	-0.341	0.070
-233.815	-36.659	0.124	-0.066
-232.800	113.159	-0.134	-0.159
-231.786	-147.937	0.018	0.001
-230.771	800.000	-0.099	0.411
-229.757	-127.532	0.405	0.058
-228.742	671.930	0.094	-0.239
-227.727	171.954	0.073	-0.104
-226.713	-200.000	-0.014	0.205
-225.698	-107.024	0.241	0.052
-224.684	800.000	0.036	-0.130
-223.669	125.392	-0.162	0.201
-222.655	-200.000	-0.080	-0.000
-221.640	409.426	0.139	-0.290
-220.625	384.918	0.156	0.316
-219.611	-132.303	-0.297	-0.038
-218.596	-98.407	0.166	-0.042
-217.582	377.183	-0.030	0.061
-216.567	-106.090	0.334	-0.074
-215.552	-70.485	-0.235	0.087
-214.538	-200.000	0.007	-0.246
-213.523	10.811	-0.217	-0.163
-212.509	-200.000	-0.014	-0.120
-211.494	-200.000	-0.010	-0.195
-210.479	-157.998	-0.022	-0.001
-209.465	800.000	0.146	0.593
-208.450	-200.000	0.056	0.368
-207.436	-200.000	0.020	-0.131
-206.421	-121.246	0.057	-0.009
-205.406	-132.848	-0.286	-0.036
-204.392	800.000	-0.046	0.193
-203.377	-172.836	0.120	0.004
-202.363	16.835	0.060	0.047
-201.348	800.000	0.023	0.087
-200.333	31.309	-0.250	0.211
-199.319	-74.059	-0.137	0.049
-198.304	114.291	0.113	-0.136
-197.290	-108.840	-0.328	-0.069
-196.275	-194.194	0.190	0.002
-195.260	82.058	-0.034	-0.036
-194.246	800.000	0.085	-0.287
-193.231	45.447	-0.126	-0.114
-192.217	672.590	-0.086	-0.220
-191.202	85.014	0.085	0.092
-190.187	-200.000	-0.003	0.332
-189.173	60.418	-0.123	-0.120
-188.158	800.000	0.117	-0.408
-187.144	-200.000	0.009	0.072
-186.129	-10.996	0.275	0.178
-185.114	-110.925	-0.077	0.016
-184.100	-24.330	0.391	0.229
-183.085	231.203	-0.254	-0.409
-182.071	800.000	-0.030	0.110
-181.056	-79.032	-0.074	0.025
-180.042	-105.839	-0.210	-0.047
-179.027	-14.013	0.133	-0.084
-178.012	-83.200	0.295	0.093
-176.998	69.132	-0.226	-0.228
-175.983	800.000	-0.043	-0.173
-174.969	-93.064	0.151	-0.041
-173.954	330.436	-0.167	-0.316
-172.939	465.147	-0.082	0.179
-171.925	-122.316	0.056	-0.009
-170.910	151.366	-0.056	-0.074
-169.896	-200.000	0.022	0.000
-168.881	134.426	-0.058	0.074
-167.866	36.579	-0.109	0.095
-166.852	-50.483	-0.056	-0.026
-165.837	-200.000	-0.063	-0.318
-164.823	-142.534	0.077	-0.007
-163.808	-104.406	0.545	0.124
-162.793	144.907	-0.109	-0.143
-161.779	-200.000	-0.005	0.141
-160.764	800.000	0.060	0.212
-159.750	94.514	0.133	-0.148
-158.735	-200.000	-0.002	-0.059
-157.720	-200.000	0.041	0.228
-156.706	-200.000	0.016	0.307
-155.691	-143.798	0.120	-0.011
-154.677	553.932	0.039	0.091
-153.662	-140.166	0.280	0.029
-152.647	-94.878	0.193	0.051
-151.633	-59.329	-0.151	-0.064
-150.618	34.446	0.186	-0.159
-149.604	70.452	0.132	0.134
-148.589	216.804	-0.149	-0.232
-147.574	384.118	-0.077	-0.156
-146.560	-170.289	0.209	0.007
-145.545	-14.311	0.086	0.055
-144.531	328.836	0.088	0.166
-143.516	-99.701	-0.103	0.025
-142.502	166.942	0.200	-0.279
-141.487	-146.948	0.139	-0.012
-140.472	-137.644	-0.384	0.042
-139.458	-27.896	-0.138	0.079
-138.443	458.182	-0.092	0.200
-137.429	46.843	-0.173	-0.158
-136.414	-102.986	-0.298	0.069
-135.399	-83.376	-0.042	0.013
-134.385	-200.000	0.000	0.124
-133.370	-2.609	-0.227	0.156
-132.356	-59.942	0.151	0.063
-131.341	470.906	-0.029	0.063
-130.326	93.916	0.187	-0.208
-129.312	-96.927	0.101	-0.026
-128.297	264.012	-0.073	-0.124
-127.283	-77.302	-0.272	-0.093
-126.268	-166.323	0.357	-0.015
-125.253	-36.639	0.233	0.123
-124.239	-17.136	0.205	-0.126
-123.224	-69.357	-0.233	-0.088
-122.210	-130.909	-0.348	0.046
