DTS Sentinel unit serial number:	SN413079Multiplexer serial number:	ORYXHardware model number:	OX4-SRSoftware version number:	ORYX F/W v4.00 Oryx Data Collector v3.7.2.0data status	okinstallation	princeton_trtdifferential loss correction	single-endedforward channel	channel 3reverse channel	N/Adate	2019/09/15time	04:44:34forward acquisition time	60.00reverse acquisition time	0.00gamma	496.2192k internal	0.2324k external	0.2324temperature offset calibration	0.9976default loss term (dB/km)	0.3790temperature slope calibration	1.0000multiplexer offset coefficient	1.0000multiplexer slope coefficient	1.0000fibre end	0.00T internal ref (°C)	30.80T ext. ref 1 (°C)	4.73T ext. ref 2 (°C)	25.33length (m)	temperature (°C)	Stokes	anti-Stokes-747.200	257.299	0.117	0.204
-746.185	680.819	-0.092	-0.243
-745.171	-129.531	-0.262	0.037
-744.156	105.112	0.202	-0.241
-743.142	-60.380	-0.262	-0.113
-742.127	-140.731	0.289	-0.030
-741.112	-135.215	-0.279	0.034
-740.098	60.398	-0.123	0.122
-739.083	-116.930	-0.080	0.015
-738.069	-200.000	-0.023	0.208
-737.054	-152.345	-0.365	-0.027
-736.039	63.350	-0.138	0.140
-735.025	-200.000	0.035	0.190
-734.010	49.802	-0.066	-0.063
-732.996	800.000	0.031	-0.126
-731.981	-96.787	0.329	-0.087
-730.966	19.772	-0.242	-0.196
-729.952	148.502	-0.249	-0.339
-728.937	800.000	0.086	-0.254
-727.923	64.569	-0.140	-0.142
-726.908	-105.515	-0.390	-0.089
-725.894	800.000	-0.058	-0.167
-724.879	800.000	0.102	-0.372
-723.864	-172.243	-0.323	0.010
-722.850	159.179	-0.027	-0.038
-721.835	28.111	-0.060	-0.051
-720.821	-62.609	-0.294	-0.123
-719.806	44.647	-0.396	-0.367
-718.791	-92.156	-0.136	0.039
-717.777	-94.858	-0.151	-0.041
-716.762	-200.000	0.025	-0.330
-715.748	641.547	-0.032	-0.082
-714.733	-120.486	-0.165	-0.028
-713.718	-23.620	0.400	0.242
-712.704	-200.000	0.033	-0.408
-711.689	-127.647	-0.142	0.021
-710.675	469.866	-0.060	0.135
-709.660	-28.200	0.372	-0.217
-708.645	-200.000	-0.049	-0.586
-707.631	-87.673	-0.127	-0.039
-706.616	165.717	-0.104	-0.148
-705.602	-75.988	-0.133	0.047
-704.587	20.569	0.110	-0.090
-703.572	-88.469	-0.074	-0.022
-702.558	-124.922	0.083	-0.013
-701.543	-4.523	-0.135	-0.094
-700.529	63.966	-0.172	-0.174
-699.514	-110.300	0.201	0.042
-698.499	43.558	-0.039	-0.036
-697.485	-47.833	0.216	0.105
-696.470	-50.863	-0.331	-0.157
-695.456	-15.309	-0.060	-0.039
-694.441	440.345	-0.092	-0.202
-693.426	42.420	-0.297	0.272
-692.412	-73.344	-0.205	0.075
-691.397	58.326	0.125	0.123
-690.383	-21.197	-0.201	-0.124
-689.368	-200.000	0.010	-0.245
-688.354	400.850	-0.083	-0.176
-687.339	-32.051	-0.073	-0.041
-686.324	40.091	0.221	-0.201
-685.310	116.688	-0.061	0.076
-684.295	-200.000	-0.012	0.217
-683.281	-66.242	0.211	0.085
-682.266	-68.023	-0.151	-0.059
-681.251	16.252	0.119	-0.095
-680.237	-15.896	-0.328	0.210
-679.222	229.692	0.129	-0.211
-678.208	-200.000	-0.008	-0.147
-677.193	-76.412	0.151	-0.053
-676.178	206.349	0.014	-0.022
-675.164	-10.078	0.285	0.190
-674.149	155.071	0.233	-0.322
-673.135	-200.000	-0.204	0.000
-672.120	51.132	0.123	-0.118
-671.105	4.325	0.054	0.040
-670.091	800.000	-0.042	0.162
-669.076	-136.472	-0.365	-0.043
-668.062	800.000	-0.065	0.187
-667.047	800.000	-0.045	-0.132
-666.032	83.204	-0.112	-0.123
-665.018	800.000	0.051	0.186
-664.003	-26.240	0.210	0.124
-662.989	143.774	0.129	-0.174
-661.974	157.272	0.081	0.112
-660.959	279.755	0.124	-0.223
-659.945	505.567	0.240	-0.560
-658.930	-200.000	-0.002	-0.027
-657.916	800.000	-0.064	-0.230
-656.901	-124.131	-0.140	0.022
-655.886	800.000	-0.100	-0.354
-654.872	531.095	0.028	0.067
-653.857	-80.367	0.104	-0.035
-652.843	-27.678	0.113	-0.066
-651.828	121.527	-0.083	0.104
-650.814	593.388	-0.118	0.294
-649.799	-108.634	0.220	-0.047
-648.784	183.562	0.075	-0.111
-647.770	226.806	0.025	-0.042
-646.755	-46.225	-0.106	-0.052
-645.741	800.000	-0.068	-0.194
-644.726	386.151	-0.070	0.146
-643.711	800.000	-0.052	0.168
-642.697	138.084	-0.104	-0.138
-641.682	-200.000	0.006	-0.289
-640.668	-200.000	0.020	-0.187
-639.653	-66.273	-0.102	0.041
-638.638	578.629	0.061	-0.149
-637.624	-47.276	-0.368	-0.180
-636.609	-200.000	0.014	0.063
-635.595	77.993	0.250	0.268
-634.580	-68.235	-0.203	-0.079
-633.565	-200.000	-0.047	0.388
-632.551	-136.135	-0.312	-0.037
-631.536	-161.552	0.109	0.006
-630.522	71.749	0.109	-0.114
-629.507	-61.732	0.088	0.037
-628.492	356.305	0.086	-0.172
-627.478	123.793	0.142	-0.179
-626.463	191.466	-0.235	0.355
-625.449	-116.650	0.165	0.031
-624.434	-57.056	-0.286	-0.127
-623.419	-90.799	-0.212	0.062
-622.405	377.252	-0.022	-0.045
-621.390	299.353	0.032	0.059
-620.376	-65.974	0.054	0.022
-619.361	-59.503	0.120	0.052
-618.346	161.362	0.087	-0.122
-617.332	-200.000	-0.007	0.090
-616.317	245.235	0.145	0.245
-615.303	-200.000	-0.068	-0.299
-614.288	-122.347	0.190	0.031
-613.273	62.650	-0.087	0.088
-612.259	64.626	0.126	0.128
-611.244	60.729	-0.086	0.085
-610.230	-115.152	0.311	-0.059
-609.215	25.863	-0.236	-0.198
-608.201	-158.058	0.114	0.007
-607.186	-93.744	0.066	-0.018
-606.171	800.000	-0.053	-0.173
-605.157	800.000	0.100	-0.360
-604.142	-113.745	-0.197	-0.039
-603.128	607.653	-0.023	-0.057
-602.113	-200.000	-0.009	0.074
-601.098	-81.539	-0.193	0.064
-600.084	-200.000	-0.031	-0.138
-599.069	-128.783	0.070	0.010
-598.055	249.853	0.163	0.278
-597.040	-20.275	0.270	-0.167
-596.025	10.247	0.417	-0.318
-595.011	246.131	-0.087	-0.147
-593.996	75.248	0.088	0.094
-592.982	-89.041	-0.184	0.055
-591.967	-43.904	0.266	-0.134
-590.952	-177.422	-0.096	-0.002
-589.938	27.649	-0.318	-0.268
-588.923	-64.368	0.176	0.072
-587.909	-64.705	-0.127	-0.052
-586.894	204.086	-0.144	-0.224
-585.879	85.180	-0.134	-0.148
-584.865	-10.409	-0.060	-0.040
-583.850	587.762	-0.081	-0.200
-582.836	736.356	-0.118	0.316
-581.821	-50.393	-0.156	0.074
-580.806	117.361	-0.188	-0.231
-579.792	284.071	0.026	0.048
-578.777	355.887	-0.055	0.109
-577.763	-137.658	0.263	-0.030
-576.748	-36.141	0.240	-0.130
-575.733	181.590	0.156	0.229
-574.719	220.947	-0.046	-0.073
-573.704	140.198	0.072	-0.096
-572.690	-65.885	-0.488	0.196
-571.675	86.973	0.058	0.064
-570.661	340.159	-0.112	-0.219
-569.646	-97.977	0.247	-0.064
-568.631	-78.059	-0.159	0.055
-567.617	270.163	0.143	-0.252
-566.602	800.000	-0.054	-0.219
-565.588	-90.334	0.141	0.041
-564.573	104.537	0.097	-0.115
-563.558	91.065	-0.100	-0.113
-562.544	-181.081	0.170	0.003
-561.529	-200.000	0.005	-0.342
-560.515	800.000	-0.043	-0.150
-559.500	-53.668	0.427	-0.196
-558.485	800.000	-0.105	0.320
-557.471	-157.859	-0.201	0.012
-556.456	-200.000	0.037	-0.165
-555.442	87.815	-0.086	-0.096
-554.427	800.000	-0.084	-0.239
-553.412	25.365	-0.107	-0.089
-552.398	166.646	-0.167	-0.237
-551.383	-1.164	0.036	-0.025
-550.369	85.489	-0.433	0.477
-549.354	749.029	0.053	-0.145
-548.339	-93.899	-0.215	0.059
-547.325	-200.000	-0.010	0.047
-546.310	-200.000	-0.024	-0.157
-545.296	-200.000	-0.006	0.143
-544.281	68.917	0.146	0.151
-543.266	165.440	-0.024	0.033
-542.252	360.542	0.135	-0.270
-541.237	-17.863	0.316	0.199
-540.223	800.000	0.028	0.081
-539.208	-132.337	-0.051	0.007
-538.193	669.349	0.064	-0.167
-537.179	-126.677	0.096	-0.014
-536.164	-176.382	-0.234	0.006
-535.150	-8.626	-0.036	0.024
-534.135	-200.000	-0.005	-0.114
-533.121	539.433	-0.076	0.182
-532.106	-119.557	-0.336	-0.058
-531.091	-124.555	-0.225	0.035
-530.077	788.727	0.043	0.119
-529.062	-77.919	0.217	-0.075
-528.048	-96.822	0.228	-0.060
-527.033	147.803	0.264	-0.356
-526.018	312.293	-0.032	-0.060
-525.004	800.000	0.097	-0.283
-523.989	-113.711	-0.259	-0.051
-522.975	162.436	0.085	-0.119
-521.960	-63.536	-0.236	0.097
-520.945	-200.000	0.043	0.258
-519.931	-58.512	-0.116	0.050
-518.916	-200.000	-0.008	0.306
-517.902	-200.000	-0.028	-0.154
-516.887	1.044	-0.060	-0.043
-515.872	-200.000	-0.027	-0.239
-514.858	-15.214	0.118	0.075
-513.843	-67.867	0.407	0.159
-512.829	130.737	-0.153	0.196
-511.814	86.539	-0.071	0.078
-510.799	139.533	-0.111	0.146
-509.785	41.876	0.191	0.173
-508.770	-200.000	0.038	0.282
-507.756	-1.121	-0.255	-0.180
-506.741	800.000	0.015	0.064
-505.726	-26.804	-0.080	-0.047
-504.712	264.839	0.061	0.106
-503.697	281.205	-0.158	-0.284
-502.683	-109.018	-0.273	-0.058
-501.668	-32.164	0.128	0.071
-500.653	800.000	-0.079	0.230
-499.639	70.929	0.247	-0.256
-498.624	572.929	0.125	-0.303
-497.610	11.814	-0.228	0.175
-496.595	-91.326	0.150	-0.043
-495.581	239.791	0.091	-0.152
-494.566	-0.176	-0.081	-0.057
-493.551	-92.992	-0.044	0.012
-492.537	-100.574	-0.275	0.068
-491.522	-90.066	0.280	-0.082
-490.508	-93.792	-0.306	-0.084
-489.493	36.017	0.058	-0.051
-488.478	160.634	-0.100	0.140
-487.464	-200.000	-0.067	-0.324
-486.449	-86.956	0.272	-0.083
-485.435	-200.000	-0.025	0.273
-484.420	-59.204	0.085	-0.037
-483.405	349.790	0.132	0.260
-482.391	46.236	-0.158	-0.146
-481.376	-33.051	0.128	-0.071
-480.362	51.251	0.170	-0.161
-479.347	-92.800	0.316	0.088
-478.332	800.000	0.042	-0.143
-477.318	-200.000	-0.051	0.223
-476.303	532.842	-0.136	-0.322
-475.289	713.078	-0.095	0.251
-474.274	-130.838	-0.536	-0.072
-473.259	-200.000	0.012	-0.382
-472.245	-20.981	-0.131	0.080
-471.230	165.366	-0.203	0.287
-470.216	22.150	0.105	0.085
-469.201	334.451	0.134	0.260
-468.186	140.955	0.061	0.081
-467.172	-149.030	-0.168	-0.014
-466.157	-200.000	-0.049	0.217
-465.143	267.831	-0.041	-0.072
-464.128	-115.420	-0.123	0.023
-463.113	800.000	-0.037	-0.146
-462.099	-117.749	-0.224	0.040
-461.084	-200.000	0.002	-0.023
-460.070	93.020	-0.160	-0.180
-459.055	-16.887	-0.196	-0.124
-458.040	307.091	-0.021	0.040
-457.026	800.000	0.059	-0.206
-456.011	-97.182	-0.379	-0.099
-454.997	93.263	0.040	0.045
-453.982	-14.228	-0.028	-0.018
-452.968	139.977	0.103	-0.136
-451.953	-69.194	-0.218	0.084
-450.938	-56.170	0.215	0.095
-449.924	800.000	0.044	0.150
-448.909	236.083	-0.020	-0.033
-447.895	-200.000	-0.049	-0.309
-446.880	-65.442	0.182	-0.073
-445.865	-200.000	0.001	-0.005
-444.851	502.687	0.112	0.258
-443.836	-160.012	-0.429	0.023
-442.822	199.533	-0.062	0.095
-441.807	4.781	0.130	0.095
-440.792	205.686	0.116	0.180
-439.778	48.980	-0.191	0.179
-438.763	31.507	0.181	-0.156
-437.749	-121.935	-0.076	-0.013
-436.734	-129.004	-0.290	0.040
-435.719	126.239	0.171	0.216
-434.705	417.008	-0.035	0.075
-433.690	-168.141	-0.151	-0.006
-432.676	34.262	-0.303	0.263
-431.661	800.000	0.016	0.063
-430.646	800.000	0.087	0.338
-429.632	800.000	-0.100	-0.380
-428.617	-87.064	0.218	-0.066
-427.603	37.916	0.145	0.129
-426.588	-115.712	-0.167	0.031
-425.573	-80.365	-0.115	0.038
-424.559	-7.698	-0.089	0.060
-423.544	-200.000	-0.035	-0.300
-422.530	-155.240	-0.155	-0.010
-421.515	158.905	0.077	-0.107
-420.500	800.000	0.049	0.211
-419.486	-200.000	0.012	0.105
-418.471	-200.000	-0.017	-0.224
-417.457	800.000	0.066	0.211
-416.442	42.771	0.173	-0.157
-415.428	-50.150	-0.093	-0.044
-414.413	299.408	0.114	-0.208
-413.398	91.514	-0.178	-0.200
-412.384	800.000	-0.105	-0.301
-411.369	631.526	0.177	0.447
-410.355	109.770	0.137	0.163
-409.340	-200.000	-0.058	0.264
-408.325	-200.000	-0.050	0.243
-407.311	-161.617	0.275	0.014
-406.296	97.697	-0.210	-0.240
-405.282	-200.000	0.048	-0.230
-404.267	765.612	-0.055	-0.148
-403.252	89.125	0.067	-0.075
-402.238	237.412	-0.146	0.240
-401.223	-29.699	0.180	0.102
-400.209	246.107	0.092	-0.155
-399.194	201.720	-0.119	0.183
-398.179	323.859	-0.172	-0.327
-397.165	-143.159	0.161	-0.015
-396.150	-61.578	0.177	0.074
-395.136	477.208	0.031	0.070
-394.121	-118.611	0.364	0.064
-393.106	-200.000	-0.018	-0.303
-392.092	-200.000	-0.043	-0.235
-391.077	-5.857	-0.298	0.203
-390.063	-125.386	-0.115	-0.018
-389.048	800.000	-0.073	0.265
-388.033	-200.000	0.036	0.210
-387.019	30.717	0.064	0.055
-386.004	-140.652	-0.096	0.010
-384.990	86.228	0.026	0.028
-383.975	-28.768	0.276	-0.158
-382.960	49.826	-0.096	0.090
-381.946	-115.664	0.164	-0.031
-380.931	75.857	-0.069	-0.072
-379.917	-200.000	0.006	-0.196
-378.902	70.729	0.127	-0.131
-377.888	-28.065	0.100	-0.058
-376.873	800.000	-0.068	-0.202
-375.858	-47.048	0.152	-0.074
-374.844	-142.977	-0.216	0.021
-373.829	70.064	-0.162	0.166
-372.815	-200.000	-0.027	-0.320
-371.800	-35.678	0.122	-0.066
-370.785	-81.960	-0.219	0.071
-369.771	155.257	-0.171	0.234
-368.756	86.447	0.239	0.262
-367.742	800.000	0.033	-0.123
-366.727	-200.000	-0.003	-0.043
-365.712	-200.000	0.036	-0.166
-364.698	22.177	-0.117	0.095
-363.683	-28.476	-0.161	0.092
-362.669	599.453	0.031	0.076
-361.654	11.849	0.083	0.064
-360.639	-200.000	-0.019	-0.146
-359.625	47.192	0.205	0.190
-358.610	493.984	-0.089	0.203
-357.596	586.825	0.010	-0.024
-356.581	119.072	0.119	-0.146
-355.566	-200.000	0.023	-0.247
-354.552	-55.773	0.170	-0.076
-353.537	-22.815	-0.109	-0.066
-352.523	6.101	-0.153	-0.112
-351.508	293.379	-0.046	-0.084
-350.493	-132.029	0.080	-0.010
-349.479	157.077	-0.051	0.070
-348.464	218.812	0.085	0.134
-347.450	174.577	0.033	0.047
-346.435	-152.446	0.261	0.019
-345.420	-28.626	0.218	-0.125
-344.406	-200.000	-0.046	-0.275
-343.391	136.552	0.286	0.371
-342.377	49.295	0.234	-0.219
-341.362	-200.000	0.042	-0.231
-340.348	-105.326	-0.224	0.051
-339.333	-200.000	0.032	0.154
-338.318	-108.941	0.170	0.036
-337.304	-109.837	0.274	0.057
-336.289	649.294	-0.119	0.302
-335.275	800.000	-0.128	-0.384
-334.260	-200.000	-0.064	0.475
-333.245	800.000	0.088	-0.354
-332.231	129.490	0.191	0.242
-331.216	800.000	0.058	0.231
-330.202	182.513	0.080	0.117
-329.187	13.776	-0.184	0.142
-328.172	-200.000	-0.067	-0.332
-327.158	-61.668	0.264	-0.110
-326.143	-118.368	-0.176	0.031
-325.129	800.000	-0.023	0.078
-324.114	-24.922	0.134	-0.079
-323.099	-52.790	-0.368	-0.168
-322.085	-200.000	0.009	-0.091
-321.070	-159.569	0.132	0.007
-320.056	737.382	0.047	0.125
-319.041	82.557	0.157	-0.169
-318.026	-44.393	-0.185	0.092
-317.012	800.000	0.073	0.216
-315.997	106.315	-0.120	-0.142
-314.983	115.858	-0.210	0.255
-313.968	606.358	-0.036	-0.090
-312.953	153.714	-0.157	-0.213
-311.939	141.222	0.060	-0.079
-310.924	505.960	0.048	0.111
-309.910	800.000	-0.067	-0.262
-308.895	-153.982	0.393	-0.027
-307.880	-200.000	-0.023	0.196
-306.866	800.000	-0.028	-0.080
-305.851	-74.719	-0.117	-0.042
-304.837	800.000	0.061	0.246
-303.822	-200.000	0.040	-0.217
-302.807	466.112	0.121	0.269
-301.793	-84.081	0.413	-0.130
-300.778	-141.934	-0.096	-0.009
-299.764	159.887	-0.021	0.029
-298.749	-91.567	-0.248	-0.070
-297.735	221.520	0.198	-0.316
-296.720	22.741	0.194	0.158
-295.705	407.076	-0.076	-0.159
-294.691	-34.517	-0.011	0.006
-293.676	-63.088	0.091	-0.037
-292.662	-200.000	0.018	0.217
-291.647	-157.832	0.231	-0.014
-290.632	800.000	-0.068	0.224
-289.618	-193.441	0.163	-0.001
-288.603	-10.653	0.085	0.056
-287.589	-51.810	0.539	0.249
-286.574	-133.697	-0.260	-0.032
-285.559	106.614	0.179	0.211
-284.545	-200.000	-0.031	0.437
-283.530	-104.030	-0.405	0.094
-282.516	-26.461	0.253	0.147
-281.501	-64.173	0.097	-0.039
-280.486	160.459	0.069	-0.095
-279.472	-13.099	-0.249	-0.161
-278.457	20.674	0.103	-0.083
-277.443	-47.691	-0.326	0.157
-276.428	365.180	-0.041	-0.083
-275.413	-133.872	-0.351	-0.043
-274.399	-200.000	-0.154	0.001
-273.384	-13.675	0.149	0.096
-272.370	-175.625	0.460	-0.012
-271.355	-76.805	-0.199	0.069
-270.340	159.869	-0.208	0.288
-269.326	-75.824	-0.429	-0.151
-268.311	20.052	0.023	-0.019
-267.297	94.909	0.075	-0.085
-266.282	-200.000	0.014	-0.202
-265.267	1.900	-0.229	0.163
-264.253	800.000	0.061	0.262
-263.238	-57.059	-0.197	0.086
-262.224	-71.048	-0.023	0.009
-261.209	7.087	0.371	0.274
-260.195	17.171	0.122	0.096
-259.180	13.099	0.170	0.131
-258.165	800.000	-0.075	0.271
-257.151	-93.824	-0.217	0.059
-256.136	-73.823	-0.114	0.041
-255.122	69.510	0.156	0.159
-254.107	-115.053	-0.065	-0.012
-253.092	800.000	0.049	0.175
-252.078	200.706	0.002	0.003
-251.063	800.000	0.020	-0.068
-250.049	103.922	0.070	0.082
-249.034	800.000	-0.032	0.087
-248.019	693.850	0.100	0.259
-247.005	158.027	-0.020	-0.028
-245.990	-200.000	-0.001	-0.008
-244.976	-58.717	0.062	0.027
-243.961	-71.914	0.443	-0.163
-242.946	-172.375	0.129	-0.004
-241.932	800.000	-0.080	-0.264
-240.917	-166.768	-0.245	-0.010
-239.903	-200.000	-0.002	-0.086
-238.888	800.000	-0.053	0.190
-237.873	-107.730	0.177	0.038
-236.859	-143.012	0.137	0.013
-235.844	-27.066	-0.027	0.016
-234.830	41.214	0.169	-0.151
-233.815	-200.000	-0.016	-0.126
-232.800	13.744	-0.087	0.067
-231.786	-200.000	0.023	-0.101
-230.771	-126.012	0.204	-0.030
-229.757	-156.635	0.237	-0.015
-228.742	-144.857	0.217	0.020
-227.727	-129.964	-0.099	-0.013
-226.713	-105.680	-0.129	-0.029
-225.698	-177.044	0.598	0.015
-224.684	-136.788	0.132	-0.015
-223.669	-154.937	0.241	0.016
-222.655	390.549	0.137	-0.281
-221.640	60.289	-0.135	-0.132
-220.625	800.000	-0.099	0.312
-219.611	-10.714	-0.123	0.081
-218.596	49.546	0.127	0.119
-217.582	-86.426	-0.237	-0.072
-216.567	5.724	0.146	-0.107
-215.552	161.682	0.153	-0.212
-214.538	83.601	0.114	0.122
-213.523	-200.000	-0.403	-0.001
-212.509	-61.288	-0.152	0.063
-211.494	800.000	0.070	0.268
-210.479	800.000	0.128	0.408
-209.465	800.000	-0.019	0.055
-208.450	-200.000	0.039	0.277
-207.436	284.535	-0.106	0.188
-206.421	-59.312	0.107	-0.046
-205.406	-42.753	0.046	-0.023
-204.392	-91.336	0.099	-0.028
-203.377	137.492	0.140	0.181
-202.363	228.306	-0.076	0.122
-201.348	-101.296	0.135	0.032
-200.333	-103.497	0.104	0.024
-199.319	800.000	0.090	-0.249
-198.304	-74.650	0.205	-0.073
-197.290	-91.387	-0.390	0.110
-196.275	-200.000	-0.021	0.230
-195.260	-162.219	-0.294	-0.015
-194.246	69.713	0.056	0.057
-193.231	-200.000	0.018	0.275
-192.217	25.694	0.091	0.075
-191.202	-97.671	-0.164	-0.042
-190.187	800.000	0.006	-0.022
-189.173	-200.000	0.004	0.022
-188.158	-185.615	-0.461	-0.007
-187.144	-134.892	0.314	-0.038
-186.129	11.493	-0.161	-0.122
-185.114	503.265	-0.106	-0.242
-184.100	57.357	-0.057	0.055
-183.085	800.000	-0.076	-0.227
-182.071	-118.372	-0.220	0.038
-181.056	360.813	0.156	0.308
-180.042	-158.446	-0.100	-0.006
-179.027	-173.464	-0.144	0.004
-178.012	-133.433	-0.235	-0.029
-176.998	87.762	-0.236	-0.258
-175.983	-136.092	0.226	-0.026
-174.969	-31.633	-0.102	-0.056
-173.954	-164.927	0.126	-0.006
-172.939	-200.000	-0.065	0.000
-171.925	52.400	-0.186	0.175
-170.910	0.032	0.181	0.127
-169.896	523.367	0.096	-0.224
-168.881	242.148	0.096	0.159
-167.866	-200.000	0.010	-0.046
-166.852	-57.980	0.346	0.149
-165.837	-112.055	-0.218	0.043
-164.823	800.000	0.035	0.118
-163.808	-108.401	0.262	-0.056
-162.793	800.000	0.010	0.041
-161.779	-200.000	0.012	-0.191
-160.764	138.882	-0.091	0.118
-159.750	-90.771	-0.175	-0.050
-158.735	37.399	-0.293	-0.256
-157.720	132.801	0.101	-0.128
-156.706	203.199	0.043	-0.066
-155.691	371.584	0.078	0.156
-154.677	127.206	-0.235	0.295
-153.662	-147.298	0.148	0.012
-152.647	174.901	-0.066	0.094
-151.633	49.106	0.251	-0.233
-150.618	-200.000	-0.027	-0.461
-149.604	-200.000	-0.008	0.178
-148.589	198.153	-0.170	0.257
-147.574	-72.438	0.233	0.085
-146.560	-55.314	0.282	-0.125
-145.545	-67.904	-0.233	0.090
-144.531	800.000	-0.061	-0.203
-143.516	-200.000	-0.008	0.198
-142.502	-34.867	0.240	-0.129
-141.487	-110.448	0.320	0.065
-140.472	-200.000	0.062	-0.370
-139.458	800.000	-0.105	0.301
-138.443	-152.908	-0.362	0.025
-137.429	196.880	0.198	0.297
-136.414	-112.056	0.140	-0.028
-135.399	550.719	0.067	0.158
-134.385	-93.916	0.062	0.017
-133.370	800.000	0.079	-0.289
-132.356	-98.490	0.192	-0.048
-131.341	-24.656	0.141	0.083
-130.326	411.806	0.167	-0.349
-129.312	-200.000	-0.025	-0.198
-128.297	329.572	0.142	-0.269
-127.283	-0.367	0.326	0.228
-126.268	-28.195	-0.290	0.165
-125.253	15.816	0.111	-0.086
-124.239	-200.000	-0.006	0.144
-123.224	768.932	0.148	-0.396
-122.210	-186.578	-0.128	-0.002
