DTS Sentinel unit serial number:	SN413079Multiplexer serial number:	ORYXHardware model number:	OX4-SRSoftware version number:	ORYX F/W v4.00 Oryx Data Collector v3.7.2.0data status	okinstallation	princeton_trtdifferential loss correction	single-endedforward channel	channel 3reverse channel	N/Adate	2019/09/12time	20:01:04forward acquisition time	15.00reverse acquisition time	0.00gamma	496.2192k internal	0.2323k external	0.2323temperature offset calibration	1.0119default loss term (dB/km)	0.3790temperature slope calibration	1.0000multiplexer offset coefficient	1.0000multiplexer slope coefficient	1.0000fibre end	0.00T internal ref (°C)	31.75T ext. ref 1 (°C)	3.52T ext. ref 2 (°C)	26.38length (m)	temperature (°C)	Stokes	anti-Stokes-747.200	145.800	-0.282	0.382
-746.185	199.851	0.203	-0.314
-745.171	-200.000	-0.035	-0.952
-744.156	-156.303	0.848	-0.054
-743.142	219.178	-0.345	0.558
-742.127	-200.000	-0.036	0.191
-741.112	800.000	-0.061	0.261
-740.098	-97.103	-0.458	0.121
-739.083	98.381	-0.595	0.693
-738.069	-21.375	0.381	0.235
-737.054	-12.168	0.387	-0.256
-736.039	800.000	-0.050	0.211
-735.025	-48.169	0.850	-0.414
-734.010	-101.906	0.252	0.062
-732.996	-101.605	-0.697	-0.171
-731.981	-31.575	0.495	-0.281
-730.966	293.145	-0.149	-0.275
-729.952	-126.505	-0.375	-0.056
-728.937	442.048	0.181	-0.400
-727.923	-174.758	0.313	0.009
-726.908	-200.000	0.040	0.211
-725.894	200.520	-0.770	-1.194
-724.879	32.472	-0.380	-0.331
-723.864	280.168	-0.348	-0.627
-722.850	-66.559	-0.342	0.137
-721.835	-200.000	0.020	-0.601
-720.821	800.000	-0.299	0.848
-719.806	-200.000	0.087	-0.473
-718.791	37.322	-0.834	-0.746
-717.777	-195.684	-0.488	-0.004
-716.762	-83.636	-0.722	0.233
-715.748	-34.940	-0.594	-0.327
-714.733	62.522	0.640	-0.645
-713.718	105.785	-0.242	0.289
-712.704	-124.603	-0.327	-0.051
-711.689	-99.298	-0.361	0.092
-710.675	-4.062	0.504	0.352
-709.660	102.531	0.464	0.547
-708.645	800.000	0.109	-0.428
-707.631	-200.000	-0.083	-0.561
-706.616	144.889	-0.452	0.610
-705.602	90.711	-0.449	0.507
-704.587	-101.810	0.810	-0.198
-703.572	-77.902	-0.464	0.161
-702.558	-200.000	0.052	0.233
-701.543	-103.705	0.285	-0.067
-700.529	76.647	0.316	0.338
-699.514	-33.022	0.466	0.261
-698.499	-200.000	0.043	0.854
-697.485	133.504	0.304	-0.396
-696.470	211.019	-0.318	0.504
-695.456	-88.114	0.591	-0.179
-694.441	467.252	0.139	-0.314
-693.426	-141.249	-0.647	-0.066
-692.412	66.519	-0.489	0.501
-691.397	735.249	-0.104	-0.281
-690.383	-29.507	0.057	-0.033
-689.368	-66.057	-0.559	0.225
-688.354	-127.669	0.130	0.019
-687.339	-58.487	-0.319	-0.139
-686.324	-200.000	0.059	-0.532
-685.310	155.642	0.264	-0.366
-684.295	136.848	-0.360	-0.474
-683.281	-63.559	0.790	-0.327
-682.266	107.162	-0.111	0.132
-681.251	57.275	0.807	0.794
-680.237	313.463	0.373	0.706
-679.222	582.102	-0.116	0.288
-678.208	800.000	-0.179	0.504
-677.193	269.454	0.162	-0.287
-676.178	264.130	-0.291	-0.510
-675.164	800.000	-0.248	0.971
-674.149	391.118	-0.217	0.454
-673.135	-200.000	-0.046	-0.490
-672.120	511.402	-0.376	-0.882
-671.105	-140.315	-1.792	0.189
-670.091	-200.000	0.065	-0.400
-669.076	132.702	-0.243	0.315
-668.062	-126.954	0.078	0.012
-667.047	-142.003	0.494	-0.050
-666.032	-200.000	-0.096	-0.475
-665.018	250.908	0.286	-0.489
-664.003	-39.298	-0.724	-0.383
-662.989	35.206	0.753	-0.665
-661.974	-200.000	-0.141	0.771
-660.959	-88.419	-0.220	0.066
-659.945	800.000	0.304	-1.273
-658.930	-148.077	0.903	-0.075
-657.916	-53.230	-0.275	-0.127
-656.901	115.311	-0.160	-0.197
-655.886	-109.646	0.199	-0.042
-654.872	-88.918	0.336	-0.100
-653.857	90.963	-0.272	-0.307
-652.843	14.976	0.283	-0.223
-651.828	-16.435	0.473	0.302
-650.814	-163.749	0.704	0.033
-649.799	136.066	-0.158	0.208
-648.784	77.865	-0.414	-0.444
-647.770	473.648	0.348	-0.790
-646.755	-176.941	-0.634	-0.016
-645.741	372.179	0.245	-0.501
-644.726	800.000	0.027	0.102
-643.711	-152.178	0.758	0.055
-642.697	-37.730	0.683	-0.366
-641.682	-81.139	0.769	-0.256
-640.668	189.743	-0.428	-0.645
-639.653	201.467	-0.223	-0.345
-638.638	153.418	-0.447	0.616
-637.624	-51.298	-0.191	-0.090
-636.609	275.953	0.066	-0.119
-635.595	315.251	-0.114	0.216
-634.580	800.000	-0.194	0.850
-633.565	-200.000	-0.073	-0.459
-632.551	-36.484	-0.245	-0.133
-631.536	-200.000	-0.182	-1.037
-630.522	-123.878	0.668	0.106
-629.507	35.419	0.345	0.304
-628.492	800.000	-0.056	-0.236
-627.478	800.000	0.030	0.121
-626.463	-192.796	0.682	-0.006
-625.449	68.752	-0.208	0.215
-624.434	40.508	-0.204	-0.185
-623.419	-76.821	-0.426	-0.150
-622.405	-200.000	-0.089	-0.564
-621.390	96.847	-0.158	-0.182
-620.376	-200.000	-0.016	0.508
-619.361	56.428	-0.697	0.681
-618.346	800.000	0.112	-0.487
-617.332	-39.065	0.352	-0.186
-616.317	266.386	-0.383	-0.672
-615.303	212.635	-0.280	0.444
-614.288	-103.567	-0.649	0.153
-613.273	-106.483	-0.364	0.082
-612.259	76.657	-0.523	-0.557
-611.244	-200.000	0.060	-0.920
-610.230	772.176	-0.106	-0.291
-609.215	-9.599	-0.779	-0.522
-608.201	10.155	0.448	-0.342
-607.186	-22.378	0.647	-0.394
-606.171	-171.125	0.887	0.030
-605.157	-100.589	-0.817	0.203
-604.142	31.143	-0.370	0.319
-603.128	-200.000	0.052	0.275
-602.113	-157.774	0.309	0.018
-601.098	-181.077	0.551	-0.011
-600.084	800.000	0.298	-0.910
-599.069	-77.999	-1.273	0.440
-598.055	-127.598	-0.491	-0.071
-597.040	369.852	-0.125	0.254
-596.025	74.742	0.264	0.279
-595.011	-70.852	0.897	0.340
-593.996	-46.780	0.550	-0.270
-592.982	-70.445	-0.968	0.368
-591.967	-32.204	-0.448	0.251
-590.952	21.282	-0.520	0.424
-589.938	45.768	-0.350	0.324
-588.923	85.544	-0.551	-0.608
-587.909	-77.244	-0.586	0.205
-586.894	113.071	-0.109	0.133
-585.879	27.128	-0.521	0.439
-584.865	-200.000	0.075	-0.626
-583.850	-84.908	-0.740	-0.233
-582.836	137.951	-0.137	-0.181
-581.821	451.838	-0.364	0.808
-580.806	20.538	-0.261	-0.212
-579.792	208.090	-0.116	0.181
-578.777	800.000	0.160	0.487
-577.763	-200.000	-0.122	0.762
-576.748	-57.593	0.207	0.091
-575.733	13.902	0.331	-0.258
-574.719	89.075	0.580	-0.648
-573.704	438.915	0.126	0.276
-572.690	138.262	-0.247	0.324
-571.675	417.532	0.527	1.129
-570.661	101.695	-0.640	0.749
-569.646	26.757	0.736	-0.619
-568.631	293.870	0.261	0.478
-567.617	-33.783	0.246	0.136
-566.602	-54.393	-0.654	0.297
-565.588	-200.000	0.003	0.498
-564.573	-200.000	-0.050	0.569
-563.558	-200.000	0.079	-0.631
-562.544	86.474	-0.151	-0.167
-561.529	800.000	-0.111	-0.382
-560.515	-200.000	-0.027	0.774
-559.500	458.900	-0.317	0.707
-558.485	41.978	-0.503	-0.458
-557.471	800.000	-0.285	-1.114
-556.456	81.977	0.661	0.718
-555.442	214.707	0.128	-0.203
-554.427	-200.000	-0.006	0.146
-553.412	8.600	-0.659	-0.498
-552.398	-200.000	-0.037	0.406
-551.383	78.561	0.624	0.669
-550.369	-200.000	0.016	0.312
-549.354	-171.458	0.662	-0.022
-548.339	59.129	0.283	-0.279
-547.325	-150.441	-0.293	-0.023
-546.310	-63.792	0.040	0.016
-545.296	-95.847	1.054	-0.282
-544.281	800.000	-0.045	0.166
-543.266	-13.595	0.390	-0.253
-542.252	-200.000	0.111	1.005
-541.237	721.100	0.053	0.142
-540.223	800.000	-0.182	-0.760
-539.208	107.161	0.708	-0.844
-538.193	-200.000	0.002	-0.220
-537.179	-141.849	0.575	-0.058
-536.164	38.656	-0.154	-0.138
-535.150	-50.364	0.676	0.320
-534.135	-8.133	-0.556	-0.375
-533.121	90.292	0.274	0.308
-532.106	419.112	-0.265	0.568
-531.091	397.291	-0.205	-0.429
-530.077	113.121	-0.385	-0.468
-529.062	259.788	-0.205	0.355
-528.048	-200.000	-0.027	-1.032
-527.033	-151.213	-0.609	0.046
-526.018	-191.742	-0.620	0.006
-525.004	-200.000	-0.010	-0.365
-523.989	-147.504	-0.486	-0.041
-522.975	302.659	0.074	-0.137
-521.960	25.236	0.662	-0.550
-520.945	206.970	0.438	-0.684
-519.931	-44.803	0.717	0.358
-518.916	48.973	0.407	0.383
-517.902	-34.571	-0.358	0.196
-516.887	60.284	-0.648	-0.641
-515.872	92.988	0.398	-0.450
-514.858	105.608	0.385	-0.456
-513.843	-141.372	-0.472	0.048
-512.829	111.872	0.245	0.296
-511.814	-0.061	0.320	0.228
-510.799	169.086	-0.234	-0.334
-509.785	-37.160	0.479	-0.257
-508.770	-200.000	-0.017	0.522
-507.756	-197.879	0.522	-0.003
-506.741	-93.421	-0.406	-0.113
-505.726	8.073	-0.397	0.298
-504.712	-169.183	-0.211	0.008
-503.697	800.000	0.177	-0.755
-502.683	800.000	0.080	0.319
-501.668	107.545	-0.328	-0.390
-500.653	-200.000	-0.151	1.025
-499.639	-75.531	0.363	-0.129
-498.624	29.754	-0.306	0.261
-497.610	-18.665	0.229	0.143
-496.595	-136.432	0.569	-0.066
-495.581	-200.000	0.019	-0.362
-494.566	44.367	0.312	-0.286
-493.551	-79.587	0.779	0.263
-492.537	-140.538	-0.906	-0.094
-491.522	-114.996	0.296	-0.056
-490.508	-32.883	0.856	-0.475
-489.493	24.037	0.439	-0.363
-488.478	-117.131	0.730	0.133
-487.464	-200.000	0.070	0.456
-486.449	422.225	0.141	0.302
-485.435	-29.786	0.492	0.280
-484.420	-109.360	0.791	-0.168
-483.405	-180.183	-0.519	0.011
-482.391	-200.000	0.072	-0.377
-481.376	129.117	-0.494	-0.631
-480.362	-82.391	-0.447	-0.145
-479.347	309.336	0.199	-0.371
-478.332	344.305	0.227	-0.445
-477.318	800.000	-0.280	-1.002
-476.303	-54.572	-0.544	-0.246
-475.289	95.888	0.271	0.310
-474.274	-87.229	-0.396	0.120
-473.259	258.980	-0.519	0.895
-472.245	-21.104	-0.601	0.367
-471.230	-200.000	0.011	-0.876
-470.216	27.332	-0.901	0.756
-469.201	-91.115	0.568	-0.163
-468.186	114.968	-0.397	0.484
-467.172	185.252	0.464	0.688
-466.157	-63.740	-0.484	-0.198
-465.143	301.618	0.212	0.391
-464.128	70.467	0.272	-0.281
-463.113	-76.906	0.871	0.304
-462.099	111.907	0.698	0.842
-461.084	800.000	0.184	-0.722
-460.070	37.923	0.673	0.598
-459.055	368.384	-0.191	0.385
-458.040	-18.771	0.325	0.202
-457.026	800.000	0.076	-0.248
-456.011	800.000	-0.163	0.664
-454.997	-200.000	0.015	0.227
-453.982	81.801	0.538	0.582
-452.968	-112.875	-0.623	0.123
-451.953	420.618	0.137	-0.293
-450.938	-3.172	-0.123	0.086
-449.924	-48.297	0.468	0.225
-448.909	-68.519	0.875	-0.339
-447.895	800.000	-0.177	0.558
-446.880	343.889	-0.212	0.415
-445.865	137.005	-0.068	-0.089
-444.851	-194.371	-0.401	0.003
-443.836	193.436	-0.472	-0.713
-442.822	725.750	0.135	-0.358
-441.807	8.077	0.588	-0.440
-440.792	-0.040	0.222	0.158
-439.778	-200.000	0.059	-0.566
-438.763	-200.000	0.208	-1.112
-437.749	49.036	-0.509	-0.478
-436.734	800.000	-0.016	0.058
-435.719	-143.115	0.260	0.025
-434.705	-200.000	0.064	-0.731
-433.690	800.000	-0.263	-1.087
-432.676	562.976	0.151	0.366
-431.661	-31.281	-0.104	-0.058
-430.646	5.584	-0.744	-0.548
-429.632	-2.980	-0.353	-0.246
-428.617	-20.767	0.642	0.393
-427.603	-198.948	0.572	-0.003
-426.588	29.558	0.269	-0.228
-425.573	57.572	-0.741	0.722
-424.559	168.092	-0.227	0.323
-423.544	-137.156	0.208	0.024
-422.530	142.810	-0.248	-0.329
-421.515	-87.644	0.361	-0.109
-420.500	-74.780	0.630	0.226
-419.486	-23.650	-0.743	0.444
-418.471	233.257	0.428	0.702
-417.457	800.000	-0.188	0.677
-416.442	-200.000	-0.066	-0.568
-415.428	-121.799	0.687	0.113
-414.413	1.265	0.495	0.355
-413.398	-71.356	0.425	0.159
-412.384	-57.833	-0.097	0.042
-411.369	-74.306	0.446	-0.161
-410.355	-36.559	0.562	0.301
-409.340	173.613	-0.222	-0.319
-408.325	140.291	-0.481	-0.632
-407.311	-104.298	-0.763	-0.176
-406.296	-200.000	0.038	0.617
-405.282	-200.000	-0.004	0.211
-404.267	500.798	0.116	0.266
-403.252	-200.000	0.055	-0.613
-402.238	-162.823	-0.310	0.015
-401.223	713.849	-0.141	0.372
-400.209	-136.807	-0.269	-0.031
-399.194	-200.000	-0.027	-0.155
-398.179	8.846	0.041	-0.030
-397.165	220.333	-0.550	-0.879
-396.150	-93.693	-0.666	0.183
-395.136	-20.026	-0.312	0.192
-394.121	286.982	-0.198	-0.357
-393.106	-132.553	1.158	0.148
-392.092	-1.254	-0.122	0.086
-391.077	-112.583	0.502	-0.100
-390.063	22.813	-0.457	0.373
-389.048	97.978	-0.593	0.680
-388.033	-127.093	0.458	0.067
-387.019	290.814	-0.420	0.760
-386.004	-31.523	-0.441	-0.247
-384.990	-33.493	0.111	0.061
-383.975	-175.096	0.557	0.015
-382.960	83.049	-0.589	0.638
-381.946	-36.733	-1.247	-0.667
-380.931	-88.246	-0.366	-0.109
-379.917	-200.000	-0.054	0.286
-378.902	271.523	-0.191	-0.334
-377.888	-173.684	0.946	0.028
-376.873	12.723	0.299	-0.230
-375.858	-40.126	-0.259	-0.135
-374.844	-161.113	0.754	0.039
-373.829	-200.000	-0.008	0.175
-372.815	525.901	0.039	0.091
-371.800	164.521	0.382	0.536
-370.785	-143.591	0.484	-0.046
-369.771	169.505	0.375	0.533
-368.756	-8.786	0.252	-0.168
-367.742	-155.686	-0.686	-0.044
-366.727	-200.000	-0.104	-0.632
-365.712	-36.214	-0.717	0.385
-364.698	-200.000	0.084	0.668
-363.683	-119.375	0.285	-0.049
-362.669	-68.672	0.758	0.292
-361.654	-27.416	-0.303	-0.176
-360.639	69.354	-0.182	-0.186
-359.625	800.000	0.037	-0.107
-358.610	-110.709	-0.677	-0.139
-357.596	538.027	0.160	0.378
-356.581	-134.070	0.267	-0.033
-355.566	-105.077	0.994	0.226
-354.552	-200.000	-0.012	-0.129
-353.537	-123.939	-0.332	0.052
-352.523	-57.312	-0.200	-0.087
-351.508	800.000	0.173	-0.608
-350.493	93.306	-0.590	0.664
-349.479	81.369	-0.365	-0.392
-348.464	-200.000	0.019	-0.134
-347.450	-187.278	0.274	-0.004
-346.435	-200.000	-0.008	0.080
-345.420	-140.280	0.776	0.081
-344.406	17.844	0.273	0.216
-343.391	55.040	-0.360	-0.346
-342.377	60.884	-0.180	-0.177
-341.362	718.780	-0.106	-0.281
-340.348	-200.000	-0.009	-1.177
-339.333	75.280	0.059	-0.062
-338.318	-200.000	-0.145	-0.643
-337.304	-63.368	-0.372	0.152
-336.289	343.238	0.293	0.571
-335.275	-160.469	0.851	0.045
-334.260	-200.000	-0.051	0.551
-333.245	-102.082	0.262	0.063
-332.231	178.745	-0.037	0.053
-331.216	-200.000	0.106	-0.474
-330.202	-67.645	0.248	-0.097
-329.187	-4.051	-0.873	-0.602
-328.172	16.786	-0.784	-0.616
-327.158	622.781	-0.227	0.569
-326.143	180.620	0.281	0.410
-325.129	58.822	0.439	-0.428
-324.114	27.234	0.482	-0.402
-323.099	479.727	-0.141	0.318
-322.085	-200.000	-0.005	0.334
-321.070	-200.000	-0.039	-0.312
-320.056	-116.717	-0.358	-0.065
-319.041	-117.673	-0.835	-0.149
-318.026	298.408	-0.313	-0.571
-317.012	57.415	-0.147	-0.142
-315.997	-200.000	0.017	-0.454
-314.983	-47.335	-0.858	0.415
-313.968	-200.000	0.001	-0.348
-312.953	-74.591	-0.548	0.196
-311.939	-50.725	0.386	-0.180
-310.924	800.000	0.080	-0.280
-309.910	800.000	-0.206	-0.569
-308.895	137.834	-0.315	0.409
-307.880	-200.000	0.047	-0.281
-306.866	800.000	0.081	-0.347
-305.851	-200.000	-0.151	0.718
-304.837	-169.969	-0.466	0.017
-303.822	51.296	-0.342	-0.322
-302.807	800.000	-0.101	-0.327
-301.793	67.039	-0.144	-0.146
-300.778	-200.000	0.156	0.689
-299.764	-20.962	0.565	0.343
-298.749	-60.926	-0.646	-0.271
-297.735	800.000	0.104	0.453
-296.720	165.856	-0.723	1.015
-295.705	-75.763	-0.421	0.148
-294.691	270.800	0.525	0.917
-293.676	461.023	-0.295	0.653
-292.662	-200.000	0.045	0.928
-291.647	236.934	0.164	0.270
-290.632	-200.000	0.038	-0.863
-289.618	233.681	0.346	0.565
-288.603	-124.030	0.465	0.072
-287.589	-200.000	0.086	-0.911
-286.574	474.687	-0.301	-0.674
-285.559	243.732	-0.309	-0.515
-284.545	63.730	-0.609	0.607
-283.530	800.000	-0.123	0.462
-282.516	792.779	0.190	-0.518
-281.501	278.384	0.639	1.130
-280.486	800.000	0.160	0.684
-279.472	4.724	-0.433	0.315
-278.457	104.679	0.622	-0.727
-277.443	-140.774	-0.700	0.072
-276.428	-67.310	0.427	-0.167
-275.413	-25.670	-0.252	-0.147
-274.399	11.923	0.279	-0.213
-273.384	-200.000	-0.048	0.519
-272.370	59.523	-0.182	0.178
-271.355	800.000	-0.201	0.651
-270.340	800.000	0.174	0.622
-269.326	-200.000	0.099	-0.557
-268.311	-196.341	-0.278	0.002
-267.297	800.000	0.117	-0.348
-266.282	-149.598	-0.461	0.036
-265.267	-7.880	-0.298	-0.199
-264.253	70.493	-0.169	-0.173
-263.238	-31.847	0.592	-0.329
-262.224	50.578	-0.693	0.650
-261.209	800.000	-0.107	-0.416
-260.195	-104.534	-0.533	0.122
-259.180	-114.935	0.659	0.124
-258.165	84.385	0.531	0.576
-257.151	-75.451	0.320	-0.113
-256.136	-200.000	0.069	-0.380
-255.122	-82.235	-0.833	-0.269
-254.107	-144.478	0.540	-0.050
-253.092	69.822	0.219	0.223
-252.078	695.125	-0.047	-0.122
-251.063	-49.711	0.764	-0.360
-250.049	12.111	0.290	0.221
-249.034	173.759	-0.038	0.055
-248.019	-200.000	0.097	-0.559
-247.005	800.000	-0.074	0.281
-245.990	8.161	-0.752	0.559
-244.976	-200.000	0.079	-0.765
-243.961	-35.078	0.626	0.338
-242.946	238.409	0.174	0.286
-241.932	-35.518	0.320	0.172
-240.917	133.303	-0.251	0.321
-239.903	-4.627	0.403	0.275
-238.888	-7.860	0.454	-0.303
-237.873	-135.326	-0.454	0.054
-236.859	-190.661	-0.537	-0.006
-235.844	-151.533	0.331	-0.024
-234.830	-200.000	-0.048	-0.407
-233.815	-200.000	-0.170	-0.801
-232.800	-135.557	0.415	0.049
-231.786	-200.000	0.013	0.345
-230.771	170.921	0.547	-0.776
-229.757	115.159	-0.210	0.253
-228.742	-80.301	-0.368	0.122
-227.727	-15.631	0.462	0.292
-226.713	291.804	-0.454	0.817
-225.698	-65.785	0.738	-0.292
-224.684	-63.971	-0.151	0.061
-223.669	-141.364	-0.749	-0.075
-222.655	800.000	0.112	0.390
-221.640	53.965	-0.436	-0.414
-220.625	-179.019	0.215	-0.005
-219.611	246.807	-0.116	-0.194
-218.596	-80.879	0.533	-0.175
-217.582	-0.847	0.335	0.235
-216.567	54.197	0.167	0.159
-215.552	-200.000	0.125	0.685
-214.538	68.119	-0.458	0.463
-213.523	48.199	-0.487	0.451
-212.509	-200.000	-0.103	-0.463
-211.494	97.238	0.211	0.240
-210.479	58.270	0.287	0.278
-209.465	-59.776	0.283	-0.120
-208.450	-200.000	0.094	0.871
-207.436	-99.615	-0.577	-0.143
-206.421	311.084	-0.075	0.138
-205.406	-140.160	-0.465	-0.048
-204.392	109.824	0.399	0.473
-203.377	619.251	-0.346	0.860
-202.363	628.719	-0.093	0.234
-201.348	80.566	0.656	0.699
-200.333	186.334	-0.136	0.201
-199.319	4.251	-0.454	-0.328
-198.304	800.000	0.024	-0.074
-197.290	4.716	0.514	-0.373
-196.275	-200.000	-0.062	0.292
-195.260	-60.794	-0.264	-0.110
-194.246	800.000	-0.369	-1.204
-193.231	-93.441	0.892	0.244
-192.217	-200.000	-0.056	0.486
-191.202	-200.000	0.034	0.327
-190.187	1.811	0.627	0.447
-189.173	333.106	-0.215	-0.410
-188.158	273.532	0.127	-0.221
-187.144	34.568	0.532	-0.459
-186.129	800.000	-0.061	-0.202
-185.114	-12.580	-0.564	-0.364
-184.100	193.750	0.329	-0.492
-183.085	-10.294	0.726	0.476
-182.071	-26.941	0.442	0.255
-181.056	-192.527	0.414	-0.004
-180.042	272.544	0.375	0.654
-179.027	-129.763	-0.422	-0.057
-178.012	-8.406	-0.602	-0.400
-176.998	-136.385	0.915	-0.105
-175.983	800.000	0.499	1.601
-174.969	234.270	0.351	-0.571
-173.954	343.582	-0.224	-0.435
-172.939	-33.811	0.432	-0.235
-171.925	-15.408	-0.371	0.234
-170.910	-112.870	-0.576	0.113
-169.896	-40.188	-0.384	-0.198
-168.881	-13.974	0.638	0.407
-167.866	520.327	-0.242	0.560
-166.852	-82.892	-0.387	0.124
-165.837	262.439	-0.565	0.969
-164.823	800.000	0.067	0.222
-163.808	-200.000	-0.210	-0.999
-162.793	488.770	0.263	-0.594
-161.779	-200.000	-0.054	-0.302
-160.764	-107.746	0.722	0.155
-159.750	172.082	-0.441	-0.626
-158.735	202.765	-0.381	-0.581
-157.720	118.173	0.461	-0.561
-156.706	-61.505	-0.467	0.194
-155.691	-116.945	-0.412	-0.074
-154.677	-94.709	0.727	0.195
-153.662	-41.368	-0.709	-0.360
-152.647	136.665	0.609	-0.785
-151.633	-78.920	-0.218	-0.073
-150.618	-44.248	-0.398	-0.197
-149.604	-17.741	-0.457	-0.283
-148.589	800.000	0.082	-0.348
-147.574	4.376	0.329	0.238
-146.560	-149.419	0.731	-0.057
-145.545	14.017	0.258	-0.198
-144.531	-31.371	0.277	-0.154
-143.516	-37.489	-0.223	0.117
-142.502	800.000	-0.244	-0.792
-141.487	-82.316	-0.653	-0.210
-140.472	-19.723	-0.647	0.395
-139.458	-200.000	-0.075	-0.336
-138.443	92.935	0.625	0.696
-137.429	800.000	-0.088	0.248
-136.414	-161.919	0.765	0.038
-135.399	225.568	0.219	0.349
-134.385	709.703	0.205	0.534
-133.370	-92.404	0.492	0.136
-132.356	-200.000	-0.087	-0.704
-131.341	-149.404	0.532	-0.042
-130.326	-97.360	0.633	0.162
-129.312	171.753	0.380	-0.538
-128.297	-62.444	-0.253	0.104
-127.283	-200.000	-0.015	-0.513
-126.268	-200.000	0.007	-1.211
-125.253	478.969	-0.080	0.180
-124.239	-94.509	0.507	0.136
-123.224	186.340	0.244	0.357
-122.210	-42.829	-0.608	0.304
-121.195	-102.552	0.812	0.191
