DTS Sentinel unit serial number:	SN413079Multiplexer serial number:	ORYXHardware model number:	OX4-SRSoftware version number:	ORYX F/W v4.00 Oryx Data Collector v3.7.2.0data status	okinstallation	princeton_trtdifferential loss correction	single-endedforward channel	channel 3reverse channel	N/Adate	2019/09/17time	02:32:35forward acquisition time	60.00reverse acquisition time	0.00gamma	496.2192k internal	0.2323k external	0.2323temperature offset calibration	0.9943default loss term (dB/km)	0.3790temperature slope calibration	1.0000multiplexer offset coefficient	1.0000multiplexer slope coefficient	1.0000fibre end	0.00T internal ref (°C)	29.81T ext. ref 1 (°C)	0.12T ext. ref 2 (°C)	24.76length (m)	temperature (°C)	Stokes	anti-Stokes-747.200	7.660	-0.149	0.113
-746.185	373.015	0.130	-0.266
-745.171	238.267	0.130	0.218
-744.156	800.000	-0.070	0.249
-743.142	-2.519	0.474	0.335
-742.127	25.268	-0.195	0.164
-741.112	590.696	0.127	0.317
-740.098	28.468	-0.215	-0.183
-739.083	20.294	-0.066	-0.054
-738.069	-29.736	-0.228	0.132
-737.054	-103.107	-0.266	0.064
-736.039	-132.063	-0.235	-0.031
-735.025	-182.370	0.369	0.007
-734.010	-200.000	0.032	-0.290
-732.996	24.435	0.067	0.056
-731.981	-83.394	0.219	0.071
-730.966	-138.782	-0.288	0.032
-729.952	-200.000	0.001	-0.441
-728.937	-156.784	-0.321	0.020
-727.923	-200.000	-0.027	0.121
-726.908	385.623	-0.182	-0.379
-725.894	128.352	0.199	-0.255
-724.879	1.661	0.294	-0.214
-723.864	496.775	0.118	-0.273
-722.850	-200.000	0.003	0.162
-721.835	42.155	0.032	0.030
-720.821	-195.745	0.153	0.001
-719.806	196.567	-0.133	0.205
-718.791	40.259	-0.237	-0.215
-717.777	11.397	-0.036	-0.028
-716.762	10.523	0.174	-0.134
-715.748	-67.162	-0.303	0.120
-714.733	96.570	0.099	0.114
-713.718	800.000	0.067	0.285
-712.704	-34.950	0.302	-0.166
-711.689	-59.061	0.181	-0.079
-710.675	-17.701	-0.218	0.138
-709.660	-64.666	0.265	0.108
-708.645	435.525	-0.199	-0.437
-707.631	333.016	-0.095	-0.184
-706.616	-200.000	-0.070	-0.310
-705.602	222.226	-0.145	0.235
-704.587	-114.282	-0.225	0.044
-703.572	-153.776	0.281	0.019
-702.558	-200.000	0.028	-0.487
-701.543	-35.587	-0.333	-0.182
-700.529	-200.000	-0.038	-0.278
-699.514	730.042	-0.113	0.304
-698.499	-73.309	-0.246	0.091
-697.485	-39.473	-0.244	0.129
-696.470	-200.000	0.044	0.305
-695.456	25.799	0.069	0.058
-694.441	-52.736	-0.234	-0.109
-693.426	-200.000	-0.028	0.141
-692.412	-47.901	-0.195	0.095
-691.397	-193.061	-0.149	0.001
-690.383	325.045	-0.095	-0.184
-689.368	800.000	-0.051	-0.197
-688.354	-87.051	0.123	-0.038
-687.339	800.000	-0.088	0.343
-686.324	-197.195	-0.150	-0.001
-685.310	52.910	0.332	0.320
-684.295	232.390	0.063	0.104
-683.281	800.000	0.107	-0.318
-682.266	-84.395	-0.082	-0.026
-681.251	279.991	-0.095	-0.172
-680.237	-200.000	-0.019	0.306
-679.222	21.738	0.086	-0.071
-678.208	735.377	0.081	-0.219
-677.193	-200.000	0.013	0.215
-676.178	800.000	0.059	-0.238
-675.164	-15.860	-0.103	0.066
-674.149	21.061	0.260	-0.212
-673.135	-149.637	-0.163	0.013
-672.120	470.687	0.037	0.084
-671.105	800.000	0.054	-0.165
-670.091	595.707	0.042	0.104
-669.076	-19.521	-0.142	-0.089
-668.062	-30.700	-0.070	0.040
-667.047	-83.149	-0.380	0.123
-666.032	17.114	-0.072	0.058
-665.018	-200.000	-0.029	0.357
-664.003	-200.000	-0.035	-0.197
-662.989	-112.751	0.096	0.019
-661.974	800.000	-0.082	-0.292
-660.959	128.827	0.322	-0.413
-659.945	117.475	-0.109	-0.135
-658.930	84.131	-0.116	-0.128
-657.916	-134.090	-0.085	0.011
-656.901	663.815	0.095	0.247
-655.886	-110.966	0.396	-0.082
-654.872	-200.000	-0.106	0.487
-653.857	-149.764	-0.040	-0.003
-652.843	-200.000	0.045	-0.203
-651.828	13.802	-0.141	0.110
-650.814	-16.683	-0.125	0.080
-649.799	-200.000	-0.000	-0.131
-648.784	671.647	-0.152	0.396
-647.770	-123.793	-0.110	-0.017
-646.755	37.102	0.107	0.096
-645.741	-200.000	-0.002	-0.183
-644.726	358.065	-0.098	0.196
-643.711	638.935	-0.049	0.125
-642.697	-23.238	-0.021	0.013
-641.682	-138.933	-0.499	-0.055
-640.668	-200.000	0.073	-0.413
-639.653	-105.295	-0.166	-0.038
-638.638	177.653	-0.107	0.157
-637.624	472.073	0.017	0.039
-636.609	-200.000	-0.013	0.092
-635.595	79.921	0.190	-0.205
-634.580	800.000	0.019	-0.076
-633.565	243.544	-0.200	0.338
-632.551	442.021	-0.089	-0.197
-631.536	-67.706	-0.316	0.124
-630.522	-200.000	0.107	0.000
-629.507	250.612	-0.068	0.116
-628.492	538.269	-0.063	-0.151
-627.478	481.165	0.136	-0.309
-626.463	-3.531	0.195	0.137
-625.449	-117.975	-0.132	-0.024
-624.434	21.313	0.061	-0.050
-623.419	800.000	-0.040	-0.120
-622.405	245.526	-0.096	-0.163
-621.390	227.353	0.186	-0.304
-620.376	-93.212	0.338	-0.094
-619.361	800.000	-0.126	0.475
-618.346	-200.000	0.029	0.158
-617.332	800.000	0.035	-0.125
-616.317	-88.317	0.352	-0.106
-615.303	-5.245	-0.051	0.035
-614.288	80.255	-0.057	-0.062
-613.273	800.000	0.054	0.220
-612.259	-89.201	0.116	-0.034
-611.244	-33.928	-0.344	-0.190
-610.230	150.692	0.198	0.270
-609.215	800.000	0.062	-0.200
-608.201	37.738	-0.125	-0.111
-607.186	17.295	0.215	-0.171
-606.171	-200.000	0.003	0.419
-605.157	-60.982	-0.388	-0.165
-604.142	-41.029	0.085	-0.044
-603.128	-118.746	0.176	-0.031
-602.113	-20.861	0.039	0.024
-601.098	463.938	-0.050	0.112
-600.084	140.127	0.225	0.298
-599.069	288.820	-0.198	-0.361
-598.055	43.351	-0.197	-0.181
-597.040	-42.187	-0.135	0.069
-596.025	-200.000	0.022	0.109
-595.011	-72.372	-0.015	0.006
-593.996	-200.000	0.008	-0.060
-592.982	-148.099	-0.243	-0.020
-591.967	-73.758	-0.305	0.111
-590.952	-200.000	-0.057	0.322
-589.938	13.684	0.078	-0.061
-588.923	-20.081	-0.416	-0.257
-587.909	-200.000	0.003	0.420
-586.894	282.988	-0.182	-0.328
-585.879	-2.218	-0.180	-0.127
-584.865	800.000	0.053	-0.152
-583.850	-74.892	-0.393	-0.141
-582.836	85.212	-0.230	-0.253
-581.821	-200.000	0.081	-0.430
-580.806	800.000	-0.097	-0.326
-579.792	-136.892	0.042	-0.005
-578.777	-200.000	-0.034	-0.426
-577.763	-33.617	0.114	0.063
-576.748	-55.937	-0.065	-0.029
-575.733	257.951	0.129	-0.224
-574.719	800.000	0.065	-0.254
-573.704	8.167	0.220	0.166
-572.690	182.011	-0.178	0.262
-571.675	-148.597	0.225	0.018
-570.661	21.257	-0.382	-0.311
-569.646	-57.032	0.198	-0.088
-568.631	459.666	0.061	0.137
-567.617	-27.593	-0.199	0.116
-566.602	-21.033	-0.102	0.062
-565.588	800.000	-0.067	-0.224
-564.573	435.952	0.188	0.410
-563.558	-200.000	0.061	-0.373
-562.544	-107.035	0.017	-0.004
-561.529	-112.492	0.439	-0.088
-560.515	512.779	-0.102	-0.239
-559.500	33.894	0.093	0.082
-558.485	-22.308	0.235	0.143
-557.471	136.731	0.248	-0.325
-556.456	-114.757	0.417	-0.080
-555.442	-200.000	-0.013	-0.141
-554.427	167.926	-0.113	-0.161
-553.412	-200.000	0.003	-0.292
-552.398	122.902	-0.312	-0.392
-551.383	26.191	-0.257	-0.215
-550.369	442.640	-0.228	-0.500
-549.354	-200.000	0.004	-0.150
-548.339	2.306	-0.044	0.032
-547.325	-24.694	0.282	-0.168
-546.310	-137.147	0.038	-0.004
-545.296	-44.050	-0.248	0.125
-544.281	-157.889	0.031	0.002
-543.266	139.226	0.170	0.224
-542.252	-66.496	-0.099	0.039
-541.237	-18.660	-0.070	-0.044
-540.223	115.610	0.048	-0.059
-539.208	178.156	-0.075	-0.109
-538.193	-200.000	0.040	0.227
-537.179	-78.485	0.325	-0.111
-536.164	-200.000	0.037	-0.229
-535.150	-164.194	0.160	-0.007
-534.135	-18.503	-0.232	-0.145
-533.121	-200.000	-0.021	-0.214
-532.106	510.746	-0.098	-0.228
-531.091	67.568	0.103	0.105
-530.077	800.000	-0.115	-0.384
-529.062	93.180	-0.103	0.117
-528.048	-200.000	0.012	0.212
-527.033	69.366	-0.035	0.036
-526.018	589.794	-0.106	-0.262
-525.004	192.452	0.081	-0.123
-523.989	800.000	0.092	-0.301
-522.975	-85.016	0.160	-0.050
-521.960	112.985	0.141	0.172
-520.945	-8.028	-0.121	-0.082
-519.931	-200.000	-0.086	0.520
-518.916	68.344	-0.168	-0.173
-517.902	-57.472	-0.148	0.065
-516.887	-11.885	-0.370	0.243
-515.872	-189.933	0.191	0.002
-514.858	-125.221	-0.348	0.053
-513.843	-69.819	-0.295	0.113
-512.829	-9.825	0.146	-0.097
-511.814	-154.274	0.179	0.012
-510.799	-143.475	0.183	-0.017
-509.785	-143.901	-0.263	-0.025
-508.770	47.369	-0.120	-0.112
-507.756	3.492	-0.087	0.064
-506.741	378.908	-0.158	0.324
-505.726	-200.000	0.014	-0.090
-504.712	-16.070	-0.192	-0.122
-503.697	-56.875	0.231	-0.102
-502.683	-30.680	-0.387	-0.219
-501.668	-200.000	-0.003	-0.042
-500.653	-13.580	-0.184	-0.119
-499.639	-40.238	0.198	-0.103
-498.624	112.641	0.069	-0.084
-497.610	-158.718	-0.190	0.011
-496.595	106.131	0.086	0.102
-495.581	-66.174	0.034	-0.013
-494.566	386.920	-0.088	0.182
-493.551	-117.069	0.112	0.020
-492.537	-200.000	-0.040	-0.200
-491.522	651.714	-0.049	0.126
-490.508	-111.654	-0.201	0.041
-489.493	247.545	0.136	-0.229
-488.478	-200.000	-0.009	-0.290
-487.464	-200.000	0.066	-0.346
-486.449	61.529	-0.077	-0.076
-485.435	231.198	0.100	0.164
-484.420	5.216	0.287	-0.212
-483.405	425.828	-0.251	0.540
-482.391	-200.000	-0.059	-0.309
-481.376	-56.862	0.174	0.077
-480.362	-200.000	0.019	0.298
-479.347	262.333	0.089	-0.155
-478.332	10.988	0.163	0.125
-477.318	-117.644	-0.335	0.060
-476.303	800.000	0.115	-0.403
-475.289	203.602	0.094	-0.145
-474.274	-4.434	-0.298	-0.206
-473.259	241.359	0.047	-0.078
-472.245	-71.895	-0.387	-0.144
-471.230	-200.000	-0.076	-0.362
-470.216	-40.048	0.120	0.063
-469.201	-200.000	0.038	-0.450
-468.186	-48.595	0.155	0.074
-467.172	-200.000	0.007	0.247
-466.157	-28.162	0.131	0.076
-465.143	-200.000	-0.024	-0.212
-464.128	16.193	-0.150	-0.118
-463.113	-79.871	0.323	-0.108
-462.099	-62.714	0.212	-0.088
-461.084	-76.190	0.251	0.088
-460.070	-88.242	0.340	-0.102
-459.055	59.637	0.145	0.143
-458.040	162.570	-0.230	-0.322
-457.026	-200.000	-0.031	-0.369
-456.011	5.496	-0.176	-0.130
-454.997	197.857	-0.338	-0.516
-453.982	287.775	0.096	0.173
-452.968	-200.000	-0.023	0.115
-451.953	800.000	-0.077	0.308
-450.938	-117.444	-0.205	-0.037
-449.924	-200.000	0.038	0.329
-448.909	-200.000	0.003	0.276
-447.895	295.703	-0.106	0.194
-446.880	-102.503	0.294	0.070
-445.865	-197.736	-0.195	-0.001
-444.851	66.283	0.113	-0.114
-443.836	-200.000	-0.019	-0.132
-442.822	-66.652	0.309	0.122
-441.807	-22.516	-0.459	0.277
-440.792	-200.000	-0.020	0.118
-439.778	-50.819	-0.357	0.167
-438.763	13.365	0.184	0.143
-437.749	-148.020	-0.233	0.019
-436.734	800.000	0.071	0.242
-435.719	216.188	0.155	-0.246
-434.705	-200.000	-0.005	0.217
-433.690	5.002	0.120	-0.088
-432.676	419.581	-0.099	-0.212
-431.661	-200.000	0.002	-0.132
-430.646	457.003	0.023	-0.051
-429.632	109.532	-0.053	0.064
-428.617	209.570	0.084	-0.131
-427.603	-78.642	-0.159	0.054
-426.588	-63.537	-0.149	-0.061
-425.573	800.000	0.131	0.390
-424.559	33.395	0.199	-0.172
-423.544	286.520	0.072	0.129
-422.530	-14.696	0.239	-0.153
-421.515	-200.000	-0.006	-0.280
-420.500	-11.075	-0.136	0.090
-419.486	-151.528	-0.215	0.016
-418.471	800.000	-0.179	0.519
-417.457	46.799	0.089	0.082
-416.442	788.977	-0.070	-0.191
-415.428	800.000	0.013	-0.056
-414.413	162.892	-0.212	0.296
-413.398	-200.000	0.040	0.193
-412.384	-64.585	-0.179	-0.072
-411.369	154.801	0.098	0.134
-410.355	98.393	0.159	-0.183
-409.340	-200.000	-0.102	-0.466
-408.325	-25.545	0.067	0.039
-407.311	-34.964	-0.297	-0.161
-406.296	20.087	0.180	0.145
-405.282	800.000	0.052	0.173
-404.267	720.614	0.114	0.302
-403.252	171.655	0.135	0.193
-402.238	101.569	0.167	0.194
-401.223	-200.000	0.031	-0.221
-400.209	92.828	0.047	-0.053
-399.194	95.352	0.208	-0.236
-398.179	-12.161	0.334	0.218
-397.165	-95.172	-0.118	-0.032
-396.150	160.959	0.036	-0.050
-395.136	-200.000	-0.060	0.286
-394.121	788.758	0.045	0.122
-393.106	-13.429	0.223	-0.144
-392.092	32.528	-0.010	-0.009
-391.077	-200.000	-0.006	0.123
-390.063	20.386	-0.053	-0.042
-389.048	-91.192	0.428	-0.122
-388.033	31.461	-0.211	0.181
-387.019	763.865	-0.094	0.255
-386.004	119.556	0.058	0.072
-384.990	-16.436	0.285	0.180
-383.975	-176.607	0.154	0.004
-382.960	-27.571	-0.223	-0.129
-381.946	-78.018	0.048	0.017
-380.931	800.000	-0.058	0.166
-379.917	-54.461	-0.343	-0.155
-378.902	251.809	0.247	0.419
-377.888	-200.000	0.026	0.128
-376.873	-79.288	-0.314	0.106
-375.858	800.000	-0.092	-0.278
-374.844	-92.598	0.189	0.053
-373.829	-200.000	-0.301	0.000
-372.815	-77.149	0.051	0.018
-371.800	800.000	0.048	-0.135
-370.785	280.943	0.043	0.076
-369.771	321.567	-0.106	0.201
-368.756	323.329	-0.208	-0.395
-367.742	368.835	0.050	0.102
-366.727	-170.248	0.110	-0.004
-365.712	-200.000	0.021	0.168
-364.698	-74.962	-0.177	-0.063
-363.683	34.166	0.365	-0.317
-362.669	27.733	0.061	0.051
-361.654	800.000	-0.067	-0.257
-360.639	-200.000	0.033	0.235
-359.625	714.686	-0.135	0.356
-358.610	179.350	0.097	0.141
-357.596	108.975	0.255	0.303
-356.581	-23.008	0.210	0.126
-355.566	245.858	0.105	0.176
-354.552	-6.601	-0.248	0.168
-353.537	-122.550	-0.448	0.072
-352.523	235.760	-0.189	-0.310
-351.508	-67.050	-0.217	0.085
-350.493	-200.000	0.012	-0.148
-349.479	-96.984	-0.028	-0.007
-348.464	47.139	-0.183	0.169
-347.450	-41.173	-0.165	0.085
-346.435	-200.000	-0.026	0.241
-345.420	95.012	0.215	-0.244
-344.406	-0.450	0.096	-0.068
-343.391	-192.748	0.024	-0.000
-342.377	-20.681	0.016	0.010
-341.362	-24.021	-0.300	0.178
-340.348	-200.000	-0.013	0.082
-339.333	800.000	0.068	0.194
-338.318	-200.000	0.078	0.478
-337.304	-67.987	-0.316	0.123
-336.289	-65.940	0.314	0.125
-335.275	800.000	-0.043	0.161
-334.260	-57.250	0.311	-0.136
-333.245	-200.000	-0.053	0.245
-332.231	-200.000	-0.001	0.160
-331.216	209.740	-0.160	0.249
-330.202	136.388	-0.084	-0.109
-329.187	179.691	0.214	0.312
-328.172	-73.813	0.188	-0.068
-327.158	-200.000	0.003	0.239
-326.143	112.515	-0.106	0.127
-325.129	-200.000	-0.008	-0.321
-324.114	-11.707	-0.258	-0.168
-323.099	276.353	0.066	0.117
-322.085	-33.633	0.101	0.055
-321.070	659.338	0.047	-0.120
-320.056	-14.807	-0.113	-0.072
-319.041	157.996	0.048	0.066
-318.026	0.138	-0.120	0.085
-317.012	-94.424	0.050	0.013
-315.997	416.342	-0.020	-0.043
-314.983	-80.609	0.231	-0.076
-313.968	229.357	0.097	-0.157
-312.953	-200.000	0.064	-0.351
-311.939	-40.954	0.259	0.133
-310.924	378.076	-0.032	0.065
-309.910	146.497	0.082	0.110
-308.895	-122.820	-0.218	-0.035
-307.880	-200.000	0.027	0.275
-306.866	-79.723	0.327	-0.109
-305.851	-3.033	0.281	0.194
-304.837	-200.000	-0.030	0.301
-303.822	800.000	-0.060	-0.211
-302.807	401.994	-0.008	0.017
-301.793	34.918	0.083	0.072
-300.778	-131.058	0.017	-0.002
-299.764	251.348	-0.088	-0.149
-298.749	-133.031	-0.134	0.017
-297.735	-200.000	0.010	-0.225
-296.720	-79.583	0.199	0.067
-295.705	185.317	-0.222	0.327
-294.691	441.590	-0.101	0.219
-293.676	-95.311	-0.433	0.116
-292.662	-130.447	0.261	0.035
-291.647	-104.573	0.064	-0.015
-290.632	-200.000	-0.040	0.211
-289.618	-200.000	0.107	0.000
-288.603	800.000	-0.022	0.064
-287.589	-11.766	-0.117	-0.076
-286.574	-156.178	0.115	-0.007
-285.559	47.675	0.134	0.124
-284.545	4.882	0.224	0.163
-283.530	800.000	-0.036	0.153
-282.516	800.000	-0.049	-0.191
-281.501	-47.553	0.139	-0.067
-280.486	-54.786	-0.314	0.141
-279.472	495.369	-0.130	0.296
-278.457	-78.934	0.284	0.096
-277.443	588.316	0.058	0.141
-276.428	800.000	0.057	-0.199
-275.413	800.000	0.070	-0.207
-274.399	-200.000	0.004	0.017
-273.384	800.000	0.121	0.409
-272.370	26.776	0.296	-0.246
-271.355	800.000	0.084	-0.257
-270.340	-200.000	-0.006	0.161
-269.326	45.265	0.064	0.059
-268.311	99.207	0.165	0.189
-267.297	-200.000	-0.036	-0.304
-266.282	325.432	0.069	-0.131
-265.267	-200.000	-0.059	0.283
-264.253	-200.000	0.006	-0.333
-263.238	545.255	0.114	-0.271
-262.224	-70.059	0.082	-0.031
-261.209	800.000	0.124	0.386
-260.195	-89.869	0.083	0.024
-259.180	-200.000	-0.024	0.246
-258.165	-11.279	0.204	-0.133
-257.151	441.983	-0.054	-0.117
-256.136	800.000	0.068	-0.195
-255.122	-65.646	-0.083	-0.033
-254.107	254.789	0.089	0.150
-253.092	800.000	0.044	0.143
-252.078	-110.157	-0.272	-0.056
-251.063	-86.061	-0.222	0.068
-250.049	-119.147	0.162	-0.028
-249.034	-200.000	0.053	-0.330
-248.019	-42.937	0.320	0.161
-247.005	178.383	-0.149	0.215
-245.990	800.000	0.102	0.338
-244.976	-78.210	-0.262	0.089
-243.961	-200.000	-0.001	0.144
-242.946	10.077	0.201	0.151
-241.932	147.194	0.045	0.060
-240.917	548.845	0.078	-0.185
-239.903	29.144	-0.256	0.215
-238.888	-157.648	-0.053	0.003
-237.873	-200.000	0.020	-0.086
-236.859	-125.009	-0.224	0.034
-235.844	800.000	-0.097	-0.333
-234.830	236.583	0.067	-0.110
-233.815	338.611	-0.076	0.147
-232.800	-51.538	0.347	-0.160
-231.786	127.242	0.236	0.296
-230.771	17.028	0.070	0.055
-229.757	800.000	-0.044	0.181
-228.742	362.396	0.048	0.095
-227.727	-69.335	0.434	0.165
-226.713	161.246	0.174	0.241
-225.698	415.692	0.084	0.178
-224.684	-27.803	-0.134	-0.077
-223.669	800.000	0.097	-0.314
-222.655	-69.298	-0.163	0.062
-221.640	195.243	0.123	0.185
-220.625	167.675	-0.175	0.246
-219.611	-62.923	-0.261	0.107
-218.596	-200.000	0.016	-0.093
-217.582	-200.000	-0.059	0.272
-216.567	-76.633	0.133	-0.046
-215.552	800.000	-0.123	-0.368
-214.538	111.133	-0.256	-0.306
-213.523	28.426	-0.080	-0.067
-212.509	42.962	0.191	-0.172
-211.494	-111.221	0.135	0.027
-210.479	-56.685	0.274	0.120
-209.465	347.458	0.116	0.225
-208.450	279.173	0.116	-0.205
-207.436	-91.329	-0.033	-0.009
-206.421	-169.226	-0.446	0.016
-205.406	-111.207	-0.277	-0.056
-204.392	105.799	0.179	-0.209
-203.377	122.830	0.261	0.324
-202.363	-200.000	0.003	0.048
-201.348	-99.846	-0.067	0.017
-200.333	-36.103	0.191	-0.102
-199.319	-200.000	0.053	0.383
-198.304	-200.000	-0.068	0.363
-197.290	800.000	-0.055	0.170
-196.275	236.177	-0.138	0.226
-195.260	-31.973	0.272	-0.151
-194.246	-4.560	-0.344	0.235
-193.231	-11.961	0.046	0.030
-192.217	-76.746	0.380	-0.132
-191.202	34.826	0.199	-0.172
-190.187	-186.316	0.270	-0.004
-189.173	-112.248	0.308	-0.061
-188.158	-164.778	-0.210	0.009
-187.144	3.705	0.170	0.123
-186.129	536.897	-0.165	-0.386
-185.114	310.201	0.086	-0.159
-184.100	84.860	-0.167	-0.181
-183.085	174.026	0.102	-0.145
-182.071	462.434	-0.056	0.124
-181.056	-200.000	0.026	0.248
-180.042	-159.927	-0.123	-0.007
-179.027	-200.000	-0.027	-0.130
-178.012	-116.282	0.217	-0.040
-176.998	136.030	-0.234	-0.302
-175.983	-63.256	-0.249	-0.101
-174.969	53.515	0.151	-0.143
-173.954	271.869	-0.048	0.083
-172.939	5.744	0.367	-0.268
-171.925	-162.740	-0.261	-0.013
-170.910	-64.629	-0.138	0.055
-169.896	-103.415	0.179	0.042
-168.881	61.734	-0.197	0.194
-167.866	-60.879	0.244	-0.102
-166.852	-200.000	0.010	-0.129
-165.837	800.000	-0.088	-0.252
-164.823	-200.000	-0.033	-0.253
-163.808	-200.000	-0.063	-0.472
-162.793	224.273	-0.104	-0.166
-161.779	33.678	-0.185	0.159
-160.764	-142.472	0.215	-0.021
-159.750	-53.973	-0.146	0.066
-158.735	724.350	0.143	0.377
-157.720	243.310	0.167	-0.277
-156.706	178.365	0.038	0.055
-155.691	69.861	0.157	0.160
-154.677	-200.000	-0.021	0.491
-153.662	166.631	-0.083	0.117
-152.647	-147.047	-0.433	0.037
-151.633	367.947	0.154	0.306
-150.618	-200.000	-0.022	-0.207
-149.604	-200.000	-0.002	0.142
-148.589	217.079	-0.168	-0.264
-147.574	20.533	0.244	-0.195
-146.560	55.932	-0.253	0.242
-145.545	331.583	-0.103	0.196
-144.531	-156.241	0.353	-0.022
-143.516	308.449	0.054	-0.099
-142.502	-143.407	0.147	-0.014
-141.487	-61.639	0.318	0.131
-140.472	14.046	-0.083	-0.064
-139.458	112.957	0.077	0.092
-138.443	14.572	-0.094	0.072
-137.429	800.000	0.046	0.190
-136.414	-127.276	-0.108	0.015
-135.399	-200.000	0.024	-0.178
-134.385	-33.789	0.165	0.090
-133.370	19.240	0.129	0.102
-132.356	147.034	0.208	0.276
-131.341	-200.000	0.032	0.138
-130.326	-200.000	0.008	0.140
-129.312	-116.995	0.463	-0.083
-128.297	800.000	0.071	-0.259
-127.283	15.262	-0.295	0.228
-126.268	124.095	-0.275	-0.340
-125.253	8.582	0.120	0.089
-124.239	-159.460	0.188	-0.010
-123.224	-151.934	0.185	-0.013
-122.210	-89.846	-0.193	-0.056
-121.195	-74.551	0.511	0.182
-120.180	96.696	-0.095	0.107
