DTS Sentinel unit serial number:	SN413079Multiplexer serial number:	ORYXHardware model number:	OX4-SRSoftware version number:	ORYX F/W v4.00 Oryx Data Collector v3.7.2.0data status	okinstallation	princeton_trtdifferential loss correction	single-endedforward channel	channel 3reverse channel	N/Adate	2019/09/13time	22:52:35forward acquisition time	60.00reverse acquisition time	0.00gamma	496.2192k internal	0.2338k external	0.2338temperature offset calibration	1.0064default loss term (dB/km)	0.3790temperature slope calibration	1.0000multiplexer offset coefficient	1.0000multiplexer slope coefficient	1.0000fibre end	0.00T internal ref (°C)	27.47T ext. ref 1 (°C)	3.21T ext. ref 2 (°C)	21.55length (m)	temperature (°C)	Stokes	anti-Stokes-747.200	-118.572	0.349	0.062
-746.185	-82.013	-0.589	0.193
-745.171	-200.000	0.025	-0.306
-744.156	-83.198	-0.450	0.145
-743.142	588.851	0.187	-0.462
-742.127	-70.454	-0.336	-0.128
-741.112	174.402	-0.127	-0.184
-740.098	154.641	-0.228	0.314
-739.083	98.561	0.090	-0.104
-738.069	141.033	-0.159	0.211
-737.054	239.892	0.209	-0.349
-736.039	-95.546	0.023	0.006
-735.025	-20.540	0.372	0.229
-734.010	-200.000	-0.066	-0.414
-732.996	163.284	0.313	-0.441
-731.981	-113.225	-0.267	0.053
-730.966	25.042	0.266	-0.221
-729.952	-66.102	-0.240	-0.096
-728.937	23.877	-0.144	0.119
-727.923	800.000	-0.066	0.285
-726.908	-27.244	-0.169	-0.099
-725.894	510.418	-0.134	0.312
-724.879	800.000	-0.041	0.129
-723.864	-5.313	-0.303	-0.209
-722.850	-45.101	-0.017	0.008
-721.835	-27.815	-0.365	-0.212
-720.821	352.537	0.147	-0.293
-719.806	-200.000	0.019	-0.402
-718.791	442.892	-0.074	-0.162
-717.777	-56.266	0.345	-0.154
-716.762	-35.711	-0.124	0.067
-715.748	800.000	-0.066	-0.224
-714.733	-26.147	-0.082	0.048
-713.718	-19.035	-0.357	-0.222
-712.704	38.695	0.291	-0.260
-711.689	-200.000	-0.015	0.213
-710.675	-44.689	0.049	-0.025
-709.660	613.942	0.164	0.412
-708.645	269.945	0.111	-0.195
-707.631	-125.974	0.073	-0.011
-706.616	14.771	0.163	-0.128
-705.602	113.938	-0.213	-0.260
-704.587	-52.455	-0.174	-0.081
-703.572	-94.923	-0.421	0.114
-702.558	703.865	-0.098	-0.258
-701.543	428.007	-0.082	-0.178
-700.529	-200.000	0.043	0.313
-699.514	-7.521	0.175	-0.119
-698.499	635.036	0.045	-0.115
-697.485	-28.085	0.199	0.115
-696.470	-168.147	-0.156	-0.006
-695.456	800.000	0.076	0.229
-694.441	475.504	-0.088	-0.198
-693.426	402.838	0.137	0.288
-692.412	103.549	0.214	-0.252
-691.397	-53.498	-0.071	-0.032
-690.383	126.649	0.216	-0.274
-689.368	-57.721	0.121	0.053
-688.354	-70.224	-0.267	0.102
-687.339	800.000	0.205	0.634
-686.324	-103.075	0.313	0.074
-685.310	-0.764	-0.172	-0.122
-684.295	-183.611	0.277	0.005
-683.281	154.760	0.043	-0.059
-682.266	120.018	0.093	-0.116
-681.251	800.000	-0.051	-0.203
-680.237	-150.860	0.348	-0.026
-679.222	-95.248	0.047	-0.013
-678.208	-170.709	-0.254	0.009
-677.193	-200.000	0.031	0.197
-676.178	66.114	-0.031	-0.032
-675.164	-88.699	-0.245	0.073
-674.149	800.000	-0.089	-0.276
-673.135	-193.592	0.343	0.003
-672.120	-200.000	0.056	0.267
-671.105	457.934	-0.068	0.151
-670.091	-200.000	-0.019	0.224
-669.076	334.817	-0.155	-0.300
-668.062	297.607	-0.086	-0.158
-667.047	-166.122	0.238	-0.010
-666.032	687.214	-0.074	0.193
-665.018	19.280	-0.265	-0.213
-664.003	-177.839	-0.209	-0.005
-662.989	-63.673	0.160	0.066
-661.974	481.897	-0.121	-0.275
-660.959	-200.000	-0.015	0.140
-659.945	36.141	0.170	-0.150
-658.930	-24.680	-0.224	-0.133
-657.916	-71.156	-0.244	0.092
-656.901	-124.500	-0.306	-0.048
-655.886	-21.892	-0.186	0.113
-654.872	-200.000	0.024	0.134
-653.857	-65.279	-0.217	0.087
-652.843	-112.942	0.330	-0.065
-651.828	-52.613	-0.142	0.066
-650.814	-88.862	-0.327	0.097
-649.799	-125.449	0.175	-0.027
-648.784	-79.754	0.067	-0.023
-647.770	-200.000	-0.010	-0.308
-646.755	-65.421	-0.186	0.075
-645.741	800.000	0.094	-0.392
-644.726	-20.416	-0.133	0.082
-643.711	178.748	0.164	-0.240
-642.697	-158.965	-0.182	0.010
-641.682	71.972	-0.220	-0.229
-640.668	-171.458	-0.250	-0.008
-639.653	-200.000	-0.026	0.177
-638.638	-164.333	0.012	0.001
-637.624	54.132	0.283	-0.272
-636.609	57.575	0.183	-0.179
-635.595	-200.000	0.006	0.041
-634.580	-160.911	0.194	0.010
-633.565	726.706	-0.188	0.502
-632.551	42.013	0.130	-0.118
-631.536	-6.077	0.212	-0.145
-630.522	220.517	0.038	-0.061
-629.507	-25.784	0.246	0.145
-628.492	-200.000	0.142	0.000
-627.478	-200.000	-0.037	0.297
-626.463	-200.000	-0.036	0.316
-625.449	390.072	0.096	0.199
-624.434	-200.000	-0.225	-0.000
-623.419	75.045	-0.119	-0.126
-622.405	-144.338	0.193	-0.018
-621.390	-116.785	-0.133	-0.024
-620.376	-200.000	-0.026	-0.416
-619.361	-200.000	-0.022	-0.146
-618.346	-49.501	-0.092	-0.044
-617.332	-137.086	0.520	0.059
-616.317	0.460	0.121	0.086
-615.303	-101.207	0.273	-0.067
-614.288	-0.034	-0.131	-0.093
-613.273	-189.434	0.037	-0.000
-612.259	-200.000	0.008	-0.181
-611.244	800.000	-0.079	0.229
-610.230	274.241	0.055	0.098
-609.215	-69.381	-0.101	-0.039
-608.201	800.000	-0.047	-0.146
-607.186	-46.565	-0.261	-0.128
-606.171	-132.044	-0.339	0.044
-605.157	800.000	-0.054	0.152
-604.142	80.896	0.205	-0.221
-603.128	-151.542	-0.121	0.009
-602.113	-167.169	-0.131	0.005
-601.098	-44.952	-0.247	-0.123
-600.084	202.202	0.101	-0.155
-599.069	-200.000	0.006	-0.107
-598.055	79.419	-0.130	0.139
-597.040	83.375	0.032	0.035
-596.025	-200.000	0.011	-0.424
-595.011	-193.001	-0.267	0.002
-593.996	61.319	-0.194	-0.193
-592.982	26.716	-0.139	-0.117
-591.967	82.907	0.203	0.220
-590.952	-86.716	-0.192	-0.059
-589.938	25.047	-0.034	-0.028
-588.923	-200.000	-0.056	0.247
-587.909	800.000	-0.096	0.355
-586.894	367.329	0.087	0.175
-585.879	-200.000	-0.006	0.155
-584.865	800.000	0.090	0.392
-583.850	185.662	0.127	-0.188
-582.836	-200.000	0.029	-0.383
-581.821	-42.065	0.318	-0.162
-580.806	800.000	-0.031	0.099
-579.792	-51.143	-0.175	-0.082
-578.777	414.248	-0.092	0.195
-577.763	-200.000	0.036	-0.206
-576.748	-23.874	-0.373	0.223
-575.733	-83.200	-0.095	0.030
-574.719	800.000	-0.106	0.378
-573.704	282.863	-0.038	-0.068
-572.690	-200.000	-0.003	0.142
-571.675	800.000	-0.046	0.201
-570.661	38.160	0.275	0.244
-569.646	-48.737	-0.169	-0.081
-568.631	800.000	0.048	-0.181
-567.617	-120.113	-0.336	-0.057
-566.602	-200.000	-0.011	-0.146
-565.588	-123.769	0.269	0.042
-564.573	-200.000	0.028	0.135
-563.558	26.637	-0.117	-0.098
-562.544	-34.120	-0.176	-0.096
-561.529	-200.000	-0.016	-0.114
-560.515	137.093	-0.166	0.217
-559.500	-200.000	-0.043	-0.198
-558.485	-82.484	0.239	-0.077
-557.471	100.345	0.126	-0.145
-556.456	190.177	-0.304	-0.455
-555.442	-200.000	-0.035	-0.181
-554.427	-102.304	-0.153	0.037
-553.412	-91.959	-0.171	-0.048
-552.398	-157.741	0.118	0.007
-551.383	-52.821	-0.167	0.077
-550.369	219.666	0.103	0.164
-549.354	800.000	0.074	-0.302
-548.339	800.000	0.049	-0.211
-547.325	-104.102	0.212	-0.049
-546.310	-200.000	-0.001	0.036
-545.296	-200.000	0.051	0.268
-544.281	14.180	-0.060	-0.047
-543.266	-200.000	0.010	0.233
-542.252	-64.028	-0.094	-0.038
-541.237	-16.727	0.312	-0.196
-540.223	-146.322	0.051	0.004
-539.208	219.342	-0.147	0.235
-538.193	23.084	-0.098	0.080
-537.179	84.789	0.261	0.284
-536.164	206.386	-0.162	-0.252
-535.150	-193.697	-0.067	0.001
-534.135	-116.605	-0.364	0.067
-533.121	100.548	-0.183	-0.211
-532.106	-160.185	-0.119	0.006
-531.091	-68.061	-0.198	0.077
-530.077	-116.858	0.164	0.030
-529.062	-85.138	-0.231	0.072
-528.048	236.612	-0.049	-0.080
-527.033	43.129	0.060	0.054
-526.018	465.928	-0.077	-0.171
-525.004	789.893	0.052	-0.142
-523.989	591.059	-0.070	-0.171
-522.975	-28.133	0.151	-0.087
-521.960	-200.000	-0.040	-0.363
-520.945	161.600	0.097	-0.134
-519.931	-12.998	-0.067	-0.043
-518.916	800.000	0.053	-0.171
-517.902	400.973	0.078	0.163
-516.887	800.000	-0.113	0.335
-515.872	-200.000	-0.011	0.128
-514.858	-49.302	0.185	-0.088
-513.843	555.223	-0.055	0.132
-512.829	35.326	-0.053	-0.047
-511.814	-145.336	-0.381	-0.034
-510.799	800.000	-0.066	-0.234
-509.785	-71.885	0.285	0.106
-508.770	763.620	-0.102	0.274
-507.756	-117.656	0.277	0.050
-506.741	-80.197	0.153	-0.051
-505.726	169.073	-0.174	-0.246
-504.712	96.979	-0.111	-0.127
-503.697	-73.475	-0.232	0.084
-502.683	-200.000	-0.036	0.182
-501.668	-200.000	0.013	0.077
-500.653	255.462	0.208	-0.355
-499.639	61.058	0.296	0.292
-498.624	-200.000	0.004	-0.028
-497.610	-62.701	-0.160	-0.066
-496.595	134.112	0.093	0.120
-495.581	-72.936	0.336	-0.123
-494.566	590.785	-0.138	0.337
-493.551	-200.000	-0.026	0.157
-492.537	-39.881	0.304	-0.158
-491.522	-112.056	-0.042	0.008
-490.508	-34.352	0.150	-0.082
-489.493	6.032	-0.150	0.111
-488.478	-120.939	0.383	-0.064
-487.464	160.665	0.096	-0.133
-486.449	-45.966	-0.267	-0.131
-485.435	61.379	0.112	0.111
-484.420	3.084	-0.200	-0.144
-483.405	800.000	0.102	0.362
-482.391	-113.904	-0.254	-0.049
-481.376	29.548	0.166	0.140
-480.362	36.533	0.257	-0.225
-479.347	-101.231	0.138	0.034
-478.332	21.201	0.334	-0.270
-477.318	-10.077	0.151	0.099
-476.303	68.531	0.139	-0.142
-475.289	-200.000	-0.025	-0.207
-474.274	-1.642	-0.340	0.238
-473.259	-22.834	0.260	0.156
-472.245	-66.708	-0.178	-0.070
-471.230	800.000	0.062	-0.246
-470.216	-85.621	-0.287	-0.089
-469.201	540.233	-0.104	-0.246
-468.186	-200.000	-0.013	-0.199
-467.172	-82.211	-0.190	-0.062
-466.157	623.758	0.020	0.049
-465.143	-200.000	-0.063	0.309
-464.128	62.353	-0.133	-0.132
-463.113	-200.000	-0.021	-0.216
-462.099	-185.858	0.340	0.005
-461.084	178.980	-0.146	-0.212
-460.070	65.337	-0.301	-0.302
-459.055	291.449	-0.130	-0.235
-458.040	-95.550	-0.107	0.028
-457.026	289.479	-0.182	0.327
-456.011	-76.587	-0.226	-0.079
-454.997	292.411	0.052	0.095
-453.982	138.788	-0.219	-0.286
-452.968	-179.753	0.318	-0.007
-451.953	-200.000	-0.011	-0.254
-450.938	259.299	-0.058	-0.099
-449.924	-32.233	0.098	-0.054
-448.909	205.323	-0.072	0.110
-447.895	-136.400	-0.250	0.029
-446.880	800.000	-0.074	-0.211
-445.865	-16.261	0.336	-0.212
-444.851	233.925	0.300	0.490
-443.836	800.000	-0.119	0.335
-442.822	-200.000	-0.006	-0.356
-441.807	-155.846	-0.284	-0.018
-440.792	-75.107	0.271	-0.096
-439.778	-42.545	0.138	0.070
-438.763	724.690	0.048	-0.126
-437.749	185.117	0.146	-0.215
-436.734	-200.000	-0.014	-0.503
-435.719	-68.052	0.418	0.162
-434.705	-200.000	0.022	0.130
-433.690	9.115	0.244	-0.183
-432.676	140.622	0.108	-0.141
-431.661	-19.998	-0.418	-0.256
-430.646	15.596	0.202	0.157
-429.632	29.556	0.270	0.227
-428.617	-200.000	-0.011	-0.056
-427.603	250.305	-0.005	0.009
-426.588	-104.636	-0.221	-0.051
-425.573	559.175	0.016	0.039
-424.559	173.685	0.039	-0.056
-423.544	12.363	0.148	0.113
-422.530	-122.460	-0.169	0.027
-421.515	25.884	-0.061	0.050
-420.500	800.000	-0.049	0.149
-419.486	-52.584	-0.145	0.066
-418.471	-80.933	-0.193	-0.063
-417.457	-200.000	-0.019	0.085
-416.442	1.244	-0.374	0.266
-415.428	-69.843	0.295	-0.112
-414.413	-200.000	0.064	0.328
-413.398	-171.445	0.140	-0.005
-412.384	800.000	-0.047	-0.147
-411.369	344.697	-0.046	0.090
-410.355	301.265	-0.109	0.199
-409.340	169.553	-0.066	0.093
-408.325	800.000	0.026	0.109
-407.311	-117.921	0.288	0.051
-406.296	800.000	-0.079	-0.301
-405.282	-84.965	0.195	0.060
-404.267	181.951	-0.153	-0.224
-403.252	800.000	0.078	-0.215
-402.238	-200.000	-0.011	-0.069
-401.223	689.957	0.071	-0.184
-400.209	57.952	0.350	0.340
-399.194	-130.974	0.116	0.015
-398.179	-50.547	-0.222	0.104
-397.165	-0.200	-0.040	-0.028
-396.150	-26.811	0.358	0.207
-395.136	178.713	0.094	0.136
-394.121	58.696	-0.052	-0.051
-393.106	233.570	0.100	-0.163
-392.092	159.260	0.128	-0.177
-391.077	100.577	0.177	0.204
-390.063	800.000	0.137	-0.392
-389.048	21.130	-0.210	-0.169
-388.033	-72.094	0.244	0.090
-387.019	619.132	-0.047	-0.117
-386.004	-8.611	0.170	0.113
-384.990	800.000	-0.084	-0.247
-383.975	800.000	0.107	-0.297
-382.960	292.563	0.213	0.384
-381.946	-34.749	0.234	0.126
-380.931	401.845	0.095	0.197
-379.917	769.072	-0.064	-0.173
-378.902	-141.345	0.318	-0.032
-377.888	-5.189	0.182	0.124
-376.873	-120.575	-0.190	0.032
-375.858	342.809	-0.117	0.227
-374.844	18.280	-0.132	-0.104
-373.829	654.100	0.141	-0.358
-372.815	382.896	-0.077	-0.157
-371.800	310.335	0.106	-0.196
-370.785	-200.000	-0.029	0.253
-369.771	16.317	0.128	0.100
-368.756	800.000	-0.105	-0.290
-367.742	-80.730	-0.074	-0.024
-366.727	800.000	-0.077	-0.254
-365.712	-200.000	-0.057	-0.299
-364.698	-200.000	0.014	0.301
-363.683	634.678	-0.045	-0.114
-362.669	256.438	0.105	-0.178
-361.654	51.645	-0.261	0.246
-360.639	148.498	0.075	-0.101
-359.625	49.700	-0.152	0.142
-358.610	95.106	-0.093	-0.105
-357.596	-133.474	-0.175	0.022
-356.581	763.050	-0.049	0.131
-355.566	-200.000	0.004	0.190
-354.552	148.036	-0.099	0.132
-353.537	-149.680	0.265	0.021
-352.523	305.999	0.172	0.317
-351.508	-200.000	-0.007	-0.037
-350.493	108.793	-0.060	-0.071
-349.479	800.000	0.118	-0.413
-348.464	172.829	0.097	0.139
-347.450	800.000	0.076	-0.290
-346.435	-13.733	0.263	-0.168
-345.420	315.850	-0.306	0.571
-344.406	-108.361	-0.319	0.068
-343.391	113.609	-0.093	-0.111
-342.377	95.663	-0.184	0.207
-341.362	-200.000	0.049	-0.370
-340.348	120.212	-0.152	0.186
-339.333	68.502	-0.122	0.123
-338.318	105.811	-0.039	-0.045
-337.304	480.318	-0.118	-0.265
-336.289	510.092	0.109	-0.251
-335.275	-56.295	-0.129	-0.056
-334.260	280.205	0.047	0.083
-333.245	738.316	-0.098	0.260
-332.231	-74.179	-0.213	-0.076
-331.216	-47.351	0.115	0.055
-330.202	-200.000	0.028	-0.321
-329.187	-49.713	-0.125	0.059
-328.172	-113.787	-0.164	0.032
-327.158	-44.010	0.246	-0.122
-326.143	-56.015	-0.085	-0.038
-325.129	579.553	-0.167	0.403
-324.114	-104.043	-0.166	-0.038
-323.099	800.000	-0.071	-0.252
-322.085	59.533	0.215	-0.209
-321.070	-138.666	-0.213	-0.023
-320.056	32.418	-0.036	-0.031
-319.041	-80.429	-0.088	-0.029
-318.026	353.209	0.121	0.237
-317.012	-101.579	0.149	0.036
-315.997	-161.542	-0.413	-0.021
-314.983	800.000	0.077	0.301
-313.968	800.000	-0.090	0.345
-312.953	-105.689	-0.303	-0.068
-311.939	800.000	-0.017	-0.060
-310.924	88.433	0.185	0.202
-309.910	-200.000	-0.022	0.209
-308.895	-81.408	0.503	-0.164
-307.880	-200.000	0.069	-0.392
-306.866	517.411	-0.120	0.278
-305.851	387.181	-0.064	-0.131
-304.837	-200.000	-0.006	-0.316
-303.822	-200.000	0.037	0.298
-302.807	649.587	0.064	0.161
-301.793	-45.311	0.068	-0.033
-300.778	-200.000	-0.016	-0.145
-299.764	177.327	0.091	-0.131
-298.749	-21.982	0.154	0.092
-297.735	385.514	-0.081	-0.165
-296.720	-36.783	0.071	-0.038
-295.705	-7.204	0.090	-0.060
-294.691	-172.952	0.268	0.008
-293.676	597.189	0.015	0.037
-292.662	387.199	0.090	-0.183
-291.647	800.000	-0.025	0.102
-290.632	-84.044	0.192	0.060
-289.618	800.000	0.059	0.166
-288.603	-200.000	0.033	-0.171
-287.589	-98.535	-0.292	0.074
-286.574	-143.150	0.066	0.006
-285.559	76.348	0.090	0.094
-284.545	34.543	0.241	0.208
-283.530	137.491	0.125	0.162
-282.516	-59.660	-0.300	-0.127
-281.501	-126.641	0.290	-0.042
-280.486	-200.000	-0.038	0.303
-279.472	-127.908	0.115	0.016
-278.457	800.000	-0.074	-0.241
-277.443	101.420	0.136	0.156
-276.428	81.824	-0.096	0.103
-275.413	163.151	0.227	-0.314
-274.399	-13.823	0.062	-0.040
-273.384	-14.894	0.147	-0.093
-272.370	-159.599	-0.353	0.019
-271.355	800.000	-0.056	0.222
-270.340	-94.808	-0.276	-0.074
-269.326	-121.794	0.110	0.018
-268.311	-88.966	0.143	0.042
-267.297	44.389	-0.219	-0.198
-266.282	-22.122	-0.240	-0.143
-265.267	40.633	-0.152	-0.135
-264.253	-200.000	0.020	-0.207
-263.238	421.438	-0.100	0.211
-262.224	800.000	-0.020	-0.072
-261.209	387.624	-0.186	0.378
-260.195	350.029	-0.162	0.316
-259.180	-60.180	0.100	-0.042
-258.165	-123.818	-0.069	-0.011
-257.151	-200.000	-0.002	0.098
-256.136	-200.000	0.017	0.197
-255.122	-24.127	-0.138	0.081
-254.107	20.099	0.064	0.051
-253.092	45.274	0.064	0.059
-252.078	-53.249	0.339	0.153
-251.063	94.749	-0.204	0.229
-250.049	-67.304	0.257	0.100
-249.034	490.929	-0.076	0.171
-248.019	-31.445	-0.032	-0.018
-247.005	-200.000	0.056	0.402
-245.990	-51.127	-0.168	0.077
-244.976	107.265	0.144	0.168
-243.961	-49.679	-0.177	0.083
-242.946	-174.078	0.104	-0.003
-241.932	233.201	0.039	0.063
-240.917	-45.655	-0.089	-0.043
-239.903	257.768	-0.135	0.228
-238.888	-200.000	-0.013	-0.089
-237.873	241.334	0.112	0.184
-236.859	-200.000	0.016	0.138
-235.844	259.808	0.147	-0.250
-234.830	-46.900	-0.355	0.171
-233.815	800.000	0.013	0.041
-232.800	59.580	-0.225	0.218
-231.786	73.697	-0.157	0.162
-230.771	-200.000	0.073	0.332
-229.757	509.266	-0.129	-0.295
-228.742	800.000	0.023	-0.071
-227.727	-136.848	-0.156	0.018
-226.713	-200.000	-0.000	0.359
-225.698	-74.472	0.323	0.115
-224.684	-200.000	-0.020	0.137
-223.669	40.903	0.138	-0.122
-222.655	800.000	-0.082	-0.240
-221.640	-141.530	0.306	0.030
-220.625	-134.997	0.197	0.023
-219.611	-36.132	0.186	0.099
-218.596	426.845	-0.067	0.142
-217.582	116.866	-0.078	0.094
-216.567	-157.300	-0.316	0.019
-215.552	-200.000	-0.016	0.298
-214.538	-200.000	0.012	0.088
-213.523	208.907	-0.148	-0.228
-212.509	62.580	-0.101	-0.099
-211.494	272.652	0.131	0.227
-210.479	210.217	0.127	0.196
-209.465	-200.000	0.058	-0.297
-208.450	-97.440	0.260	0.066
-207.436	-21.374	-0.137	0.082
-206.421	-200.000	0.020	-0.114
-205.406	532.901	0.035	0.081
-204.392	-94.369	0.050	0.013
-203.377	-23.743	-0.183	-0.108
-202.363	101.322	0.140	0.160
-201.348	164.112	0.047	0.066
-200.333	-74.417	-0.123	0.043
-199.319	-104.369	0.192	0.044
-198.304	-18.632	-0.151	-0.092
-197.290	800.000	-0.065	-0.178
-196.275	-80.140	-0.254	-0.084
-195.260	-53.731	0.407	-0.182
-194.246	-163.602	0.335	0.016
-193.231	-105.388	0.366	0.082
-192.217	-140.342	-0.133	0.014
-191.202	-22.864	-0.117	0.069
-190.187	6.637	-0.172	-0.125
-189.173	7.425	-0.176	0.129
-188.158	-200.000	-0.062	0.266
-187.144	-200.000	-0.001	-0.213
-186.129	606.446	0.074	0.182
-185.114	-64.909	-0.295	0.117
-184.100	36.289	-0.160	0.139
-183.085	-98.205	-0.131	0.033
-182.071	130.572	-0.024	0.031
-181.056	58.565	-0.104	0.100
-180.042	-135.021	0.157	-0.019
-179.027	188.041	-0.074	0.109
-178.012	-73.197	0.272	-0.098
-176.998	157.579	-0.179	-0.244
-175.983	155.241	0.184	0.249
-174.969	-79.894	-0.376	-0.124
-173.954	-68.876	0.423	0.160
-172.939	4.187	0.144	-0.103
-171.925	-200.000	0.014	0.266
-170.910	-17.938	-0.173	-0.106
-169.896	-84.175	0.121	0.038
-168.881	-36.642	0.273	-0.144
-167.866	49.397	0.085	0.078
-166.852	-106.504	0.237	-0.052
-165.837	-200.000	-0.020	-0.087
-164.823	128.804	-0.197	-0.246
-163.808	490.518	-0.076	0.171
-162.793	-200.000	0.026	0.122
-161.779	-200.000	-0.023	0.165
-160.764	-60.059	0.290	-0.121
-159.750	-65.671	-0.159	-0.062
-158.735	771.879	-0.054	-0.145
-157.720	-4.633	-0.114	0.078
-156.706	800.000	-0.096	0.343
-155.691	57.851	-0.155	-0.148
-154.677	196.733	0.114	0.170
-153.662	-200.000	0.016	-0.370
-152.647	171.273	0.027	-0.038
-151.633	-67.802	0.300	0.115
-150.618	-120.747	0.285	-0.047
-149.604	-82.959	-0.144	-0.045
-148.589	-118.079	0.191	0.033
-147.574	-200.000	0.010	0.235
-146.560	-162.230	-0.118	0.006
-145.545	-200.000	-0.067	0.320
-144.531	-200.000	-0.012	-0.065
-143.516	-200.000	-0.012	-0.227
-142.502	-62.195	-0.154	-0.063
-141.487	586.264	0.072	0.174
-140.472	211.143	-0.200	-0.308
-139.458	-33.455	0.191	-0.103
-138.443	800.000	0.017	-0.059
-137.429	-20.455	0.130	0.078
-136.414	-200.000	0.058	-0.302
-135.399	-200.000	-0.007	-0.373
-134.385	-15.267	0.146	-0.091
-133.370	-65.705	0.199	0.078
-132.356	-200.000	-0.002	0.027
-131.341	800.000	0.070	-0.297
-130.326	751.682	-0.147	0.388
-129.312	199.879	-0.064	0.096
-128.297	-85.052	0.257	0.079
-127.283	-52.430	0.348	0.158
-126.268	84.099	0.111	-0.118
-125.253	93.456	0.022	-0.025
-124.239	800.000	-0.039	0.157
-123.224	-200.000	0.070	-0.369
-122.210	-200.000	-0.024	0.105
