DTS Sentinel unit serial number:	SN413079Multiplexer serial number:	ORYXHardware model number:	OX4-SRSoftware version number:	ORYX F/W v4.00 Oryx Data Collector v3.7.2.0data status	okinstallation	princeton_trtdifferential loss correction	single-endedforward channel	channel 3reverse channel	N/Adate	2019/09/18time	14:56:35forward acquisition time	60.00reverse acquisition time	0.00gamma	496.2192k internal	0.2306k external	0.2306temperature offset calibration	0.9975default loss term (dB/km)	0.3790temperature slope calibration	1.0000multiplexer offset coefficient	1.0000multiplexer slope coefficient	1.0000fibre end	0.00T internal ref (°C)	35.19T ext. ref 1 (°C)	0.72T ext. ref 2 (°C)	30.04length (m)	temperature (°C)	Stokes	anti-Stokes-747.200	-159.661	0.315	-0.018
-746.185	-25.109	0.319	0.192
-745.171	-200.000	-0.028	0.138
-744.156	22.251	-0.137	0.114
-743.142	222.122	-0.138	0.225
-742.127	160.561	-0.136	0.193
-741.112	-55.865	0.249	0.113
-740.098	187.700	-0.222	0.337
-739.083	-35.096	0.231	-0.128
-738.069	-158.186	0.326	0.019
-737.054	608.466	-0.049	-0.126
-736.039	-200.000	0.064	-0.314
-735.025	-146.433	0.221	-0.020
-734.010	-68.961	-0.223	-0.088
-732.996	137.000	0.077	-0.102
-731.981	-111.624	-0.194	0.040
-730.966	-138.713	-0.350	-0.039
-729.952	-41.846	-0.150	0.078
-728.937	-33.838	0.200	-0.112
-727.923	180.420	-0.170	-0.254
-726.908	-200.000	-0.003	0.047
-725.894	548.959	-0.063	0.154
-724.879	446.002	-0.067	0.150
-723.864	393.537	0.107	0.226
-722.850	-200.000	-0.041	0.185
-721.835	314.685	-0.077	0.147
-720.821	-61.195	0.099	0.042
-719.806	181.775	-0.098	0.147
-718.791	141.567	0.027	-0.036
-717.777	209.699	-0.052	0.083
-716.762	-200.000	-0.007	0.087
-715.748	58.889	-0.173	0.173
-714.733	557.516	-0.032	0.079
-713.718	-200.000	0.018	-0.125
-712.704	800.000	0.062	0.200
-711.689	-151.062	-0.294	-0.022
-710.675	443.675	-0.119	-0.265
-709.660	-77.053	-0.253	0.090
-708.645	-34.134	-0.182	-0.102
-707.631	-200.000	-0.016	0.322
-706.616	-185.192	0.332	-0.005
-705.602	-136.813	0.135	-0.016
-704.587	47.277	-0.180	0.170
-703.572	800.000	-0.085	0.336
-702.558	-129.978	-0.091	0.013
-701.543	-98.133	0.271	0.071
-700.529	-200.000	-0.017	-0.219
-699.514	-25.394	-0.226	0.136
-698.499	-86.847	-0.229	0.071
-697.485	-27.570	-0.221	0.130
-696.470	351.987	-0.062	0.125
-695.456	-200.000	0.018	0.343
-694.441	69.117	0.128	-0.134
-693.426	259.489	0.064	-0.112
-692.412	292.888	-0.088	0.163
-691.397	-82.058	-0.216	-0.072
-690.383	-166.265	0.013	0.001
-689.368	-200.000	0.034	0.432
-688.354	237.893	-0.078	-0.131
-687.339	131.394	0.170	-0.222
-686.324	800.000	0.060	0.248
-685.310	24.787	0.123	0.103
-684.295	27.632	-0.154	0.132
-683.281	-59.930	0.098	0.042
-682.266	88.140	-0.263	0.296
-681.251	6.401	0.316	0.238
-680.237	-200.000	-0.036	0.435
-679.222	-200.000	0.041	-0.262
-678.208	37.306	0.157	0.141
-677.193	-45.685	-0.052	0.026
-676.178	-187.550	-0.245	-0.003
-675.164	6.365	-0.162	0.122
-674.149	47.540	0.231	-0.218
-673.135	213.874	-0.179	-0.287
-672.120	-200.000	-0.014	0.131
-671.105	-149.171	0.116	0.009
-670.091	-29.665	-0.280	0.162
-669.076	-141.599	-0.162	0.017
-668.062	-147.210	0.092	0.008
-667.047	800.000	-0.092	0.288
-666.032	-197.351	-0.203	0.001
-665.018	518.445	0.113	0.268
-664.003	286.621	-0.109	-0.199
-662.989	-200.000	-0.021	0.291
-661.974	170.647	0.227	0.330
-660.959	156.261	-0.202	0.282
-659.945	-105.584	0.165	-0.038
-658.930	128.921	0.090	-0.116
-657.916	-124.313	-0.273	-0.043
-656.901	244.474	0.219	0.373
-655.886	-200.000	-0.053	-0.363
-654.872	-160.715	-0.090	-0.005
-653.857	800.000	-0.040	-0.155
-652.843	-178.537	0.459	-0.011
-651.828	-200.000	-0.018	-0.141
-650.814	-200.000	-0.027	0.263
-649.799	-104.809	0.134	0.031
-648.784	-115.867	-0.366	-0.069
-647.770	-24.547	-0.055	-0.033
-646.755	484.238	-0.166	-0.383
-645.741	-200.000	-0.142	-0.000
-644.726	800.000	0.029	0.090
-643.711	-8.321	-0.115	-0.079
-642.697	-22.054	-0.156	0.096
-641.682	-90.028	0.249	-0.073
-640.668	-200.000	0.035	-0.429
-639.653	-134.573	0.287	-0.036
-638.638	39.956	-0.132	-0.120
-637.624	4.204	0.173	0.128
-636.609	392.483	-0.099	-0.209
-635.595	431.188	-0.071	-0.157
-634.580	-151.230	0.118	-0.009
-633.565	-96.003	-0.227	0.061
-632.551	183.133	-0.042	0.062
-631.536	268.655	0.158	0.280
-630.522	172.367	0.085	0.124
-629.507	275.149	-0.149	0.268
-628.492	-110.308	0.273	0.057
-627.478	-72.452	-0.049	0.018
-626.463	209.846	0.158	-0.251
-625.449	66.039	-0.165	0.169
-624.434	274.255	0.128	0.230
-623.419	-47.073	-0.135	-0.067
-622.405	318.190	0.174	-0.334
-621.390	-39.960	-0.293	-0.155
-620.376	142.642	-0.240	-0.323
-619.361	-200.000	0.017	-0.154
-618.346	63.884	0.165	-0.168
-617.332	-42.222	0.212	-0.109
-616.317	-62.162	-0.099	-0.042
-615.303	141.285	0.270	0.362
-614.288	-127.410	-0.171	-0.025
-613.273	800.000	0.120	0.339
-612.259	6.273	-0.162	0.121
-611.244	-120.547	-0.031	-0.005
-610.230	-200.000	0.029	-0.321
-609.215	711.070	0.035	0.094
-608.201	5.694	-0.170	0.127
-607.186	12.713	0.139	-0.109
-606.171	-64.994	0.161	-0.066
-605.157	-200.000	0.045	0.227
-604.142	492.776	0.102	0.236
-603.128	-200.000	-0.066	-0.406
-602.113	508.923	0.114	-0.267
-601.098	-43.215	-0.148	-0.076
-600.084	380.213	-0.058	0.121
-599.069	-62.705	-0.232	-0.097
-598.055	30.174	-0.076	-0.066
-597.040	75.583	0.120	-0.128
-596.025	-167.930	0.305	0.012
-595.011	-54.480	-0.282	0.129
-593.996	-92.710	-0.216	-0.061
-592.982	527.301	0.215	0.512
-591.967	-50.059	0.384	-0.184
-590.952	243.217	0.041	0.070
-589.938	800.000	0.038	0.132
-588.923	-65.232	-0.092	0.037
-587.909	-200.000	-0.011	-0.084
-586.894	-178.001	-0.140	0.003
-585.879	441.523	0.083	0.183
-584.865	800.000	0.039	-0.124
-583.850	31.529	0.202	0.176
-582.836	-15.293	-0.203	-0.131
-581.821	800.000	0.053	0.218
-580.806	41.708	-0.124	-0.113
-579.792	-81.570	-0.142	-0.047
-578.777	108.474	0.190	0.229
-577.763	-124.923	0.269	-0.042
-576.748	-98.962	0.148	-0.038
-575.733	-52.585	0.224	0.104
-574.719	597.441	0.187	0.468
-573.704	-23.623	-0.045	0.027
-572.690	-138.244	0.283	0.032
-571.675	-48.647	0.354	-0.172
-570.661	-200.000	0.000	-0.264
-569.646	363.439	-0.039	0.079
-568.631	-26.287	0.043	-0.026
-567.617	66.309	0.224	0.230
-566.602	-25.631	0.101	-0.060
-565.588	36.905	-0.341	-0.304
-564.573	222.617	0.096	-0.156
-563.558	-122.804	0.057	0.009
-562.544	2.615	-0.103	-0.075
-561.529	-200.000	0.020	0.194
-560.515	366.061	-0.049	0.099
-559.500	20.819	-0.119	0.097
-558.485	-20.039	0.129	-0.080
-557.471	800.000	-0.076	-0.281
-556.456	0.599	-0.248	0.179
-555.442	-128.991	-0.166	0.024
-554.427	800.000	-0.086	-0.271
-553.412	34.232	0.060	-0.053
-552.398	-117.599	0.216	0.039
-551.383	-200.000	0.042	-0.289
-550.369	800.000	0.030	0.083
-549.354	501.230	-0.004	0.008
-548.339	6.553	-0.236	-0.177
-547.325	389.058	-0.108	0.226
-546.310	436.014	-0.015	-0.034
-545.296	800.000	0.079	0.241
-544.281	89.610	-0.147	0.166
-543.266	109.655	0.060	-0.072
-542.252	-200.000	0.012	-0.329
-541.237	100.044	0.185	-0.217
-540.223	207.500	0.187	0.295
-539.208	571.535	-0.081	-0.200
-538.193	52.300	-0.099	-0.096
-537.179	-200.000	-0.008	-0.213
-536.164	232.192	0.027	-0.044
-535.150	85.629	0.213	0.237
-534.135	-112.248	-0.139	-0.028
-533.121	36.390	-0.080	-0.071
-532.106	171.993	-0.112	0.163
-531.091	-137.850	-0.248	-0.028
-530.077	-200.000	-0.027	-0.227
-529.062	125.080	-0.194	0.247
-528.048	86.582	0.052	-0.058
-527.033	248.181	-0.067	-0.115
-526.018	194.440	-0.061	0.094
-525.004	-101.521	0.103	0.025
-523.989	173.394	0.065	0.095
-522.975	-200.000	0.020	0.250
-521.960	-200.000	-0.001	-0.035
-520.945	4.944	-0.043	0.032
-519.931	-200.000	0.036	0.262
-518.916	-146.740	0.263	-0.023
-517.902	90.385	-0.030	-0.034
-516.887	697.661	0.043	0.114
-515.872	-14.143	0.127	-0.083
-514.858	-104.363	-0.173	-0.040
-513.843	75.197	0.258	0.274
-512.829	207.376	-0.097	-0.152
-511.814	-29.697	-0.359	-0.206
-510.799	5.823	-0.280	0.209
-509.785	-110.416	0.379	-0.079
-508.770	310.152	-0.039	-0.074
-507.756	223.423	-0.130	0.212
-506.741	-200.000	0.009	0.308
-505.726	41.698	-0.109	0.099
-504.712	-20.363	0.395	0.245
-503.697	383.592	-0.198	0.411
-502.683	19.627	-0.148	-0.120
-501.668	9.454	0.327	-0.249
-500.653	-6.651	-0.262	-0.180
-499.639	36.280	-0.100	0.089
-498.624	5.716	0.457	-0.341
-497.610	283.931	0.146	-0.265
-496.595	800.000	-0.050	-0.153
-495.581	800.000	0.082	-0.359
-494.566	-114.723	-0.335	0.064
-493.551	-156.597	0.151	0.009
-492.537	-200.000	-0.028	-0.142
-491.522	12.305	-0.085	0.066
-490.508	-120.236	-0.432	0.074
-489.493	104.198	-0.084	0.099
-488.478	-68.452	-0.167	0.065
-487.464	800.000	0.037	-0.159
-486.449	151.273	0.041	0.056
-485.435	83.561	-0.073	-0.080
-484.420	-142.927	-0.100	0.010
-483.405	800.000	0.095	-0.311
-482.391	-26.006	-0.085	0.051
-481.376	-200.000	0.029	0.321
-480.362	640.620	0.148	0.379
-479.347	-58.337	-0.281	0.123
-478.332	-94.601	-0.344	-0.094
-477.318	-200.000	-0.075	-0.379
-476.303	800.000	-0.012	-0.043
-475.289	-200.000	-0.025	-0.372
-474.274	485.224	0.149	-0.342
-473.259	34.609	0.109	0.096
-472.245	56.097	-0.182	-0.178
-471.230	-200.000	-0.002	0.151
-470.216	800.000	0.093	-0.281
-469.201	59.609	0.115	0.114
-468.186	281.368	-0.133	-0.240
-467.172	238.200	0.153	-0.255
-466.157	106.525	0.271	0.324
-465.143	1.808	0.228	0.165
-464.128	-32.814	0.151	0.085
-463.113	38.387	0.119	0.106
-462.099	800.000	-0.088	0.321
-461.084	2.073	0.130	-0.094
-460.070	-48.361	-0.086	0.042
-459.055	-200.000	-0.016	-0.167
-458.040	-62.705	-0.040	0.017
-457.026	-200.000	0.013	-0.088
-456.011	-13.055	-0.110	-0.072
-454.997	639.768	0.040	0.102
-453.982	182.029	0.098	-0.144
-452.968	-58.775	-0.037	-0.016
-451.953	53.039	-0.084	0.081
-450.938	580.862	0.090	0.222
-449.924	-48.938	0.290	0.140
-448.909	144.906	-0.109	0.146
-447.895	52.773	0.182	0.175
-446.880	218.656	0.073	-0.118
-445.865	-21.929	-0.107	0.065
-444.851	-77.497	-0.047	0.016
-443.836	-200.000	-0.010	0.046
-442.822	-200.000	-0.019	0.101
-441.807	573.349	0.051	0.125
-440.792	-200.000	-0.017	0.255
-439.778	-42.231	0.163	-0.084
-438.763	-200.000	-0.038	-0.187
-437.749	77.318	-0.055	-0.059
-436.734	205.272	0.076	-0.118
-435.719	-184.382	-0.158	0.003
-434.705	161.691	0.196	-0.276
-433.690	-18.134	-0.183	0.115
-432.676	94.780	-0.080	0.092
-431.661	800.000	-0.057	-0.248
-430.646	115.387	-0.186	0.228
-429.632	160.012	-0.162	-0.226
-428.617	-148.720	-0.401	-0.033
-427.603	-52.980	0.175	-0.081
-426.588	-103.786	0.081	0.019
-425.573	62.159	0.164	-0.164
-424.559	-90.296	-0.232	-0.068
-423.544	-70.170	-0.278	-0.106
-422.530	65.778	0.238	-0.242
-421.515	138.688	0.133	-0.175
-420.500	526.880	-0.026	-0.062
-419.486	800.000	-0.097	-0.323
-418.471	-145.456	0.170	-0.015
-417.457	55.078	-0.116	0.113
-416.442	-200.000	-0.022	0.177
-415.428	800.000	-0.078	0.315
-414.413	-185.426	0.109	-0.002
-413.398	-96.777	0.358	0.095
-412.384	-108.211	0.119	-0.026
-411.369	800.000	-0.030	-0.098
-410.355	-200.000	0.046	0.314
-409.340	196.565	-0.228	0.349
-408.325	800.000	0.022	0.068
-407.311	-35.088	0.244	0.133
-406.296	356.619	0.121	-0.242
-405.282	105.507	0.098	0.116
-404.267	800.000	0.060	0.206
-403.252	153.829	0.224	0.308
-402.238	-200.000	0.004	-0.078
-401.223	-63.188	-0.290	0.120
-400.209	-200.000	-0.024	0.185
-399.194	800.000	-0.063	0.187
-398.179	-158.326	-0.449	0.026
-397.165	-88.639	-0.080	0.024
-396.150	322.261	-0.066	-0.126
-395.136	11.990	-0.144	-0.111
-394.121	129.282	0.031	0.040
-393.106	800.000	0.084	0.260
-392.092	-87.187	-0.140	-0.043
-391.077	-174.850	-0.034	-0.001
-390.063	-118.147	-0.244	0.044
-389.048	800.000	-0.075	0.275
-388.033	-200.000	-0.002	-0.209
-387.019	-87.957	-0.223	-0.067
-386.004	179.663	-0.053	0.077
-384.990	-88.591	-0.315	0.094
-383.975	-97.210	0.178	-0.046
-382.960	24.192	0.119	0.098
-381.946	40.476	-0.043	0.038
-380.931	133.132	0.311	0.403
-379.917	-200.000	-0.008	-0.113
-378.902	-35.280	-0.088	0.048
-377.888	-29.330	0.267	0.154
-376.873	44.891	0.252	0.232
-375.858	-118.006	-0.274	0.049
-374.844	-74.874	0.119	-0.043
-373.829	800.000	0.052	0.219
-372.815	-200.000	0.022	-0.274
-371.800	152.744	-0.211	-0.289
-370.785	-14.156	0.258	0.167
-369.771	162.609	0.045	0.064
-368.756	-50.642	0.094	0.044
-367.742	-46.905	-0.360	0.176
-366.727	-130.779	-0.113	0.015
-365.712	800.000	-0.048	-0.136
-364.698	69.895	0.182	-0.188
-363.683	-200.000	0.014	-0.073
-362.669	83.039	0.035	-0.038
-361.654	-200.000	-0.010	0.076
-360.639	-19.136	0.181	0.113
-359.625	-116.933	0.136	-0.025
-358.610	158.463	-0.151	0.210
-357.596	25.239	-0.068	0.056
-356.581	-5.076	-0.220	-0.152
-355.566	-30.926	0.234	0.132
-354.552	141.838	-0.112	0.149
-353.537	-50.655	0.150	-0.071
-352.523	-146.050	0.165	-0.015
-351.508	108.220	0.173	0.207
-350.493	-200.000	0.001	0.074
-349.479	-3.008	-0.127	0.089
-348.464	-200.000	-0.002	0.359
-347.450	-126.124	0.225	0.034
-346.435	-106.259	-0.327	-0.073
-345.420	697.628	-0.064	-0.168
-344.406	-200.000	0.056	-0.250
-343.391	-69.215	-0.098	-0.038
-342.377	277.081	0.046	-0.082
-341.362	147.827	-0.063	-0.085
-340.348	249.609	0.186	0.316
-339.333	45.236	-0.073	0.067
-338.318	-200.000	-0.027	0.167
-337.304	-200.000	0.060	0.323
-336.289	-200.000	-0.030	-0.326
-335.275	-167.475	0.164	-0.007
-334.260	456.076	0.141	0.313
-333.245	134.625	-0.053	-0.069
-332.231	218.643	0.219	-0.350
-331.216	-166.364	0.086	-0.004
-330.202	-200.000	0.049	-0.389
-329.187	-37.499	-0.114	-0.061
-328.172	-200.000	0.019	0.117
-327.158	59.257	0.135	-0.133
-326.143	25.015	0.045	0.037
-325.129	-9.928	-0.216	0.143
-324.114	800.000	-0.011	-0.039
-323.099	300.577	-0.063	-0.117
-322.085	-73.450	-0.270	0.099
-321.070	-200.000	0.012	0.118
-320.056	-200.000	0.044	0.326
-319.041	-34.905	0.391	-0.214
-318.026	-200.000	0.011	0.271
-317.012	-7.955	0.097	-0.065
-315.997	800.000	0.123	-0.375
-314.983	120.352	0.223	0.277
-313.968	105.508	0.172	0.203
-312.953	-160.077	0.152	0.008
-311.939	81.035	0.172	0.186
-310.924	-71.389	0.143	-0.054
-309.910	72.129	-0.241	0.251
-308.895	741.743	0.081	-0.218
-307.880	130.129	0.188	0.240
-306.866	-87.433	0.044	0.013
-305.851	501.840	-0.083	-0.193
-304.837	-200.000	-0.015	0.107
-303.822	-105.730	-0.206	-0.047
-302.807	70.030	0.420	-0.433
-301.793	-200.000	0.039	-0.370
-300.778	-200.000	0.011	0.058
-299.764	-97.625	-0.234	0.061
-298.749	93.059	-0.231	-0.261
-297.735	-200.000	0.010	0.114
-296.720	140.670	0.213	-0.281
-295.705	774.826	-0.040	-0.108
-294.691	1.484	-0.163	-0.117
-293.676	360.866	-0.064	0.128
-292.662	165.233	0.249	0.352
-291.647	-200.000	0.013	-0.138
-290.632	-200.000	-0.012	0.434
-289.618	-200.000	0.022	0.232
-288.603	-105.339	-0.103	0.024
-287.589	-200.000	0.014	0.205
-286.574	-200.000	-0.020	0.172
-285.559	800.000	0.046	0.140
-284.545	-95.090	-0.050	-0.014
-283.530	32.217	-0.210	-0.181
-282.516	-53.487	0.191	-0.087
-281.501	-200.000	0.075	-0.373
-280.486	-120.701	-0.499	-0.084
-279.472	-99.402	0.062	-0.016
-278.457	105.566	0.121	-0.143
-277.443	-149.614	0.093	0.007
-276.428	-46.933	-0.186	0.091
-275.413	-140.144	0.241	-0.025
-274.399	507.524	-0.044	0.102
-273.384	173.931	-0.094	-0.136
-272.370	-22.487	-0.165	-0.100
-271.355	75.375	-0.171	0.180
-270.340	-103.750	0.116	0.027
-269.326	-200.000	-0.005	0.089
-268.311	-63.673	-0.257	0.105
-267.297	322.955	-0.054	-0.102
-266.282	225.464	0.084	-0.136
-265.267	-94.170	-0.155	-0.043
-264.253	-133.083	0.319	-0.040
-263.238	202.107	0.068	-0.105
-262.224	-28.534	0.150	-0.086
-261.209	-200.000	-0.011	-0.194
-260.195	800.000	0.021	0.070
-259.180	31.927	-0.093	0.080
-258.165	508.049	0.128	0.297
-257.151	191.575	0.217	-0.326
-256.136	-48.263	0.079	-0.038
-255.122	-3.808	-0.189	-0.131
-254.107	166.959	0.272	-0.385
-253.092	-200.000	0.069	-0.331
-252.078	36.270	-0.213	0.187
-251.063	-137.245	0.211	0.024
-250.049	274.305	-0.194	0.343
-249.034	-63.924	-0.213	0.087
-248.019	-107.891	0.186	-0.040
-247.005	-200.000	-0.003	-0.082
-245.990	54.802	-0.032	-0.031
-244.976	-20.798	0.225	-0.138
-243.961	-200.000	0.047	-0.333
-242.946	350.820	-0.072	0.143
-241.932	203.640	-0.285	-0.440
-240.917	-200.000	-0.035	0.283
-239.903	47.864	0.189	-0.176
-238.888	171.679	-0.103	-0.148
-237.873	19.952	-0.376	-0.302
-236.859	-23.737	-0.311	0.186
-235.844	-200.000	0.012	-0.063
-234.830	-4.643	0.145	0.099
-233.815	38.684	0.156	0.139
-232.800	92.204	-0.102	-0.114
-231.786	-200.000	0.021	-0.159
-230.771	-200.000	-0.012	-0.171
-229.757	123.684	-0.102	0.127
-228.742	-22.937	0.207	0.125
-227.727	288.377	-0.061	-0.111
-226.713	-15.269	0.228	-0.145
-225.698	144.685	0.099	0.132
-224.684	-200.000	0.035	0.217
-223.669	-66.593	0.116	0.046
-222.655	290.684	-0.061	-0.111
-221.640	147.163	-0.163	0.219
-220.625	-200.000	0.042	0.421
-219.611	-89.401	-0.350	-0.103
-218.596	-157.517	0.076	-0.005
-217.582	-2.861	-0.057	-0.040
-216.567	-130.877	0.110	0.015
-215.552	-143.283	-0.124	0.012
-214.538	15.499	-0.170	-0.133
-213.523	-200.000	-0.039	-0.180
-212.509	-13.929	0.223	-0.144
-211.494	-153.642	-0.377	-0.026
-210.479	-36.336	0.166	-0.089
-209.465	-94.413	-0.175	-0.048
-208.450	-87.202	0.158	-0.048
-207.436	230.740	0.081	-0.132
-206.421	800.000	0.095	0.287
-205.406	40.307	-0.344	-0.309
-204.392	800.000	-0.074	0.207
-203.377	94.746	0.108	0.122
-202.363	-32.906	-0.164	0.091
-201.348	-16.424	-0.372	0.235
-200.333	-87.695	-0.253	-0.076
-199.319	-200.000	-0.057	-0.396
-198.304	800.000	0.052	-0.153
-197.290	-87.810	-0.224	-0.067
-196.275	140.010	0.210	-0.276
-195.260	413.239	0.090	0.190
-194.246	198.083	-0.043	-0.065
-193.231	181.599	0.194	-0.284
-192.217	41.559	-0.142	-0.128
-191.202	-111.511	-0.336	0.068
-190.187	82.364	-0.133	0.144
-189.173	800.000	-0.098	0.427
-188.158	-113.771	-0.088	-0.017
-187.144	-23.786	0.238	0.142
-186.129	-127.175	-0.397	0.058
-185.114	176.455	0.171	0.247
-184.100	118.017	0.067	-0.082
-183.085	616.757	-0.037	-0.092
-182.071	800.000	-0.116	0.343
-181.056	-82.789	-0.238	0.077
-180.042	-16.380	-0.147	-0.093
-179.027	800.000	0.008	-0.030
-178.012	579.165	-0.021	0.051
-176.998	-101.995	-0.181	0.043
-175.983	420.763	0.083	-0.178
-174.969	-200.000	0.009	-0.057
-173.954	-200.000	-0.004	0.049
-172.939	-103.056	0.195	-0.046
-171.925	-26.630	0.428	-0.249
-170.910	800.000	-0.069	-0.262
-169.896	705.402	-0.074	0.194
-168.881	800.000	0.064	0.194
-167.866	-149.932	-0.135	0.010
-166.852	32.902	0.158	0.136
-165.837	-127.648	0.290	0.042
-164.823	-21.809	0.266	0.161
-163.808	800.000	0.070	-0.282
-162.793	-36.502	0.099	0.053
-161.779	-76.111	0.140	-0.049
-160.764	-89.379	0.245	0.072
-159.750	142.783	-0.113	-0.150
-158.735	-151.828	0.255	-0.019
-157.720	800.000	-0.061	0.166
-156.706	-82.156	-0.293	-0.095
-155.691	800.000	-0.091	0.251
-154.677	800.000	-0.056	0.194
-153.662	800.000	-0.057	-0.161
-152.647	-14.056	-0.183	-0.117
-151.633	55.455	0.108	-0.104
-150.618	-71.497	-0.130	0.048
-149.604	-117.314	-0.209	-0.038
-148.589	800.000	-0.060	0.212
-147.574	12.256	-0.232	-0.178
-146.560	-200.000	-0.094	-0.583
-145.545	-200.000	-0.054	-0.332
-144.531	-89.087	0.068	-0.020
-143.516	380.102	-0.016	-0.032
-142.502	-124.880	0.293	0.045
-141.487	108.151	-0.121	-0.143
-140.472	181.862	0.302	-0.442
-139.458	363.846	-0.116	0.231
-138.443	-74.524	0.172	0.062
-137.429	-73.472	0.058	-0.021
-136.414	69.499	-0.113	0.115
-135.399	344.756	-0.039	0.075
-134.385	-191.359	-0.290	0.003
-133.370	-200.000	-0.021	0.357
-132.356	-22.463	-0.056	0.033
-131.341	-200.000	-0.009	-0.110
-130.326	-200.000	-0.030	0.156
-129.312	-200.000	-0.066	-0.324
-128.297	-70.488	-0.369	-0.139
-127.283	18.236	-0.058	-0.046
-126.268	-42.251	0.369	0.187
-125.253	-112.247	-0.186	-0.037
-124.239	419.911	0.134	0.285
-123.224	-200.000	0.018	0.089
-122.210	200.412	0.172	0.262
