DTS Sentinel unit serial number:	SN413079Multiplexer serial number:	ORYXHardware model number:	OX4-SRSoftware version number:	ORYX F/W v4.00 Oryx Data Collector v3.7.2.0data status	okinstallation	princeton_trtdifferential loss correction	single-endedforward channel	channel 3reverse channel	N/Adate	2019/09/12time	20:52:35forward acquisition time	60.00reverse acquisition time	0.00gamma	496.2192k internal	0.2324k external	0.2324temperature offset calibration	1.0130default loss term (dB/km)	0.3790temperature slope calibration	1.0000multiplexer offset coefficient	1.0000multiplexer slope coefficient	1.0000fibre end	0.00T internal ref (°C)	30.94T ext. ref 1 (°C)	3.60T ext. ref 2 (°C)	25.54length (m)	temperature (°C)	Stokes	anti-Stokes-747.200	230.282	0.102	-0.168
-746.185	-200.000	-0.101	0.492
-745.171	107.533	0.043	0.052
-744.156	-36.254	-0.108	0.059
-743.142	168.940	-0.194	0.280
-742.127	-108.665	0.180	-0.039
-741.112	-35.078	-0.149	-0.082
-740.098	385.344	-0.094	0.196
-739.083	312.844	-0.090	0.171
-738.069	166.652	0.049	0.071
-737.054	-160.952	0.202	-0.011
-736.039	103.956	0.088	-0.104
-735.025	-0.710	-0.205	-0.147
-734.010	-200.000	-0.071	-0.436
-732.996	800.000	-0.137	-0.483
-731.981	361.652	0.076	0.153
-730.966	-11.030	-0.077	0.051
-729.952	705.568	-0.122	-0.324
-728.937	-200.000	0.041	-0.494
-727.923	54.706	-0.032	0.031
-726.908	-136.201	-0.241	0.028
-725.894	-200.000	0.018	-0.284
-724.879	147.390	-0.239	-0.325
-723.864	127.252	-0.200	-0.256
-722.850	690.183	-0.150	-0.395
-721.835	314.480	0.139	-0.265
-720.821	501.293	0.147	0.342
-719.806	180.179	-0.053	-0.078
-718.791	800.000	-0.045	0.136
-717.777	-59.835	-0.220	-0.095
-716.762	-200.000	0.021	-0.152
-715.748	-36.074	0.079	0.043
-714.733	19.609	-0.142	0.115
-713.718	352.873	0.080	0.160
-712.704	-200.000	0.015	-0.070
-711.689	549.779	-0.099	-0.240
-710.675	-200.000	-0.064	-0.533
-709.660	-123.717	0.229	-0.037
-708.645	186.899	0.082	-0.123
-707.631	5.298	0.072	-0.054
-706.616	-86.288	0.182	0.056
-705.602	-17.453	-0.160	-0.102
-704.587	46.527	-0.209	0.195
-703.572	-200.000	-0.007	-0.267
-702.558	800.000	0.106	0.333
-701.543	-50.374	0.049	-0.023
-700.529	-200.000	0.041	-0.358
-699.514	252.874	0.062	-0.107
-698.499	88.161	0.019	0.021
-697.485	-19.947	0.223	-0.139
-696.470	52.916	-0.159	-0.153
-695.456	-78.255	0.119	-0.041
-694.441	-117.506	-0.270	0.049
-693.426	12.776	0.247	-0.192
-692.412	-129.211	0.011	0.002
-691.397	270.147	0.159	0.281
-690.383	-200.000	0.021	-0.188
-689.368	-43.351	-0.423	-0.216
-688.354	189.493	-0.149	0.225
-687.339	17.912	0.074	-0.059
-686.324	-30.170	0.077	-0.044
-685.310	353.168	0.176	0.351
-684.295	-9.037	-0.177	-0.119
-683.281	-39.192	-0.253	-0.134
-682.266	-119.541	0.079	-0.014
-681.251	-68.961	0.134	-0.052
-680.237	-25.720	-0.383	-0.228
-679.222	-38.791	0.063	-0.033
-678.208	-105.043	0.075	-0.017
-677.193	-95.348	-0.204	-0.055
-676.178	-45.544	0.124	0.062
-675.164	61.669	-0.156	0.157
-674.149	33.290	0.272	-0.238
-673.135	88.393	-0.075	-0.084
-672.120	146.396	-0.108	-0.146
-671.105	-28.671	0.144	0.083
-670.091	684.104	-0.026	-0.067
-669.076	-71.877	-0.346	0.130
-668.062	-200.000	0.028	-0.172
-667.047	-80.912	0.328	-0.109
-666.032	800.000	0.047	0.134
-665.018	-200.000	0.020	-0.125
-664.003	93.974	-0.206	0.235
-662.989	-152.750	0.280	0.020
-661.974	193.163	-0.135	-0.206
-660.959	461.664	0.098	-0.219
-659.945	-200.000	-0.004	-0.148
-658.930	-159.780	-0.562	0.031
-657.916	12.487	-0.026	-0.020
-656.901	238.505	0.061	-0.102
-655.886	562.840	-0.146	-0.355
-654.872	326.880	0.076	0.147
-653.857	-6.627	0.134	0.092
-652.843	-200.000	0.053	-0.239
-651.828	-23.133	0.572	-0.347
-650.814	-152.014	-0.134	-0.010
-649.799	-200.000	0.002	0.223
-648.784	108.958	0.091	0.110
-647.770	344.650	-0.129	0.255
-646.755	-129.205	-0.119	0.017
-645.741	-136.417	-0.327	0.038
-644.726	-178.318	-0.225	0.005
-643.711	-17.647	0.121	-0.077
-642.697	-16.874	-0.293	0.186
-641.682	-108.555	0.317	-0.068
-640.668	-200.000	-0.055	0.286
-639.653	-106.369	0.208	-0.047
-638.638	800.000	-0.105	-0.363
-637.624	-157.412	0.329	-0.020
-636.609	-9.106	-0.245	0.165
-635.595	-200.000	-0.038	0.173
-634.580	498.650	-0.162	0.375
-633.565	-0.567	-0.178	0.127
-632.551	-41.880	-0.351	0.181
-631.536	-91.662	0.160	-0.046
-630.522	297.569	-0.112	0.207
-629.507	-138.776	-0.229	-0.025
-628.492	-165.404	0.343	0.015
-627.478	-106.998	-0.146	0.032
-626.463	800.000	-0.019	0.059
-625.449	-200.000	0.034	-0.199
-624.434	-200.000	-0.012	0.063
-623.419	-88.700	0.170	-0.051
-622.405	-200.000	-0.059	-0.259
-621.390	54.997	0.209	-0.203
-620.376	595.695	0.064	-0.158
-619.361	115.622	-0.161	0.197
-618.346	747.842	0.037	0.101
-617.332	-200.000	0.007	-0.055
-616.317	152.581	0.198	-0.271
-615.303	-200.000	0.016	0.273
-614.288	-150.107	-0.315	-0.025
-613.273	-180.263	0.156	-0.003
-612.259	-98.640	-0.368	0.094
-611.244	-178.738	-0.245	0.006
-610.230	-180.409	-0.275	0.006
-609.215	205.726	0.256	-0.400
-608.201	-98.119	-0.150	-0.039
-607.186	-53.807	0.284	0.130
-606.171	413.383	-0.121	0.259
-605.157	-37.677	-0.029	-0.015
-604.142	-101.847	0.363	-0.088
-603.128	-66.078	-0.138	0.055
-602.113	92.922	0.076	0.086
-601.098	100.416	0.204	-0.238
-600.084	-187.780	0.128	-0.002
-599.069	158.060	0.089	-0.124
-598.055	-200.000	-0.002	0.382
-597.040	679.145	-0.043	0.113
-596.025	800.000	0.035	0.124
-595.011	-95.150	0.153	0.041
-593.996	-88.938	-0.346	-0.103
-592.982	-12.418	0.056	-0.037
-591.967	-37.026	-0.231	-0.124
-590.952	307.419	0.069	-0.128
-589.938	-100.157	0.071	0.018
-588.923	-200.000	0.064	-0.307
-587.909	-63.343	-0.201	0.083
-586.894	-200.000	0.047	-0.346
-585.879	218.230	0.096	-0.153
-584.865	145.203	0.248	-0.333
-583.850	-146.345	-0.452	-0.040
-582.836	-29.845	-0.245	0.140
-581.821	-7.644	-0.103	-0.070
-580.806	-52.396	0.105	0.049
-579.792	-68.049	0.289	-0.113
-578.777	-200.000	-0.009	-0.093
-577.763	-200.000	0.002	-0.053
-576.748	-20.099	-0.101	0.062
-575.733	93.044	0.068	0.077
-574.719	431.784	0.050	-0.108
-573.704	138.120	-0.075	-0.098
-572.690	-157.506	0.098	0.006
-571.675	-21.120	-0.236	0.145
-570.661	-200.000	0.002	-0.276
-569.646	83.034	0.010	-0.010
-568.631	-111.948	0.237	-0.048
-567.617	-61.428	-0.216	-0.091
-566.602	-200.000	0.028	0.204
-565.588	9.275	0.262	-0.199
-564.573	-200.000	-0.025	-0.170
-563.558	135.802	0.121	0.158
-562.544	303.196	0.104	0.193
-561.529	83.471	-0.189	0.206
-560.515	43.755	-0.149	-0.136
-559.500	-200.000	0.042	-0.296
-558.485	-97.548	-0.094	-0.024
-557.471	373.747	0.091	0.185
-556.456	800.000	0.038	-0.138
-555.442	-200.000	0.110	-0.000
-554.427	800.000	0.037	-0.140
-553.412	410.268	0.271	-0.576
-552.398	87.465	0.255	0.283
-551.383	212.895	0.021	0.033
-550.369	800.000	0.090	0.297
-549.354	-35.664	-0.053	-0.029
-548.339	223.106	0.037	-0.060
-547.325	35.846	0.142	-0.125
-546.310	64.527	0.120	0.121
-545.296	7.703	0.208	0.156
-544.281	-144.874	0.157	0.014
-543.266	-200.000	-0.024	0.201
-542.252	800.000	-0.069	-0.260
-541.237	-133.118	-0.059	-0.007
-540.223	-68.408	0.153	0.060
-539.208	-135.963	-0.161	0.019
-538.193	481.455	-0.090	0.204
-537.179	-200.000	0.003	0.042
-536.164	800.000	0.054	0.164
-535.150	218.160	-0.065	-0.104
-534.135	60.997	0.020	-0.020
-533.121	0.297	-0.307	-0.219
-532.106	434.848	0.145	0.315
-531.091	-144.120	-0.335	0.031
-530.077	86.896	0.145	0.160
-529.062	-113.384	0.149	0.029
-528.048	-16.664	0.251	-0.159
-527.033	163.013	0.063	0.089
-526.018	-200.000	0.049	-0.244
-525.004	59.912	0.228	0.225
-523.989	-86.582	-0.148	-0.045
-522.975	54.570	0.206	-0.199
-521.960	72.833	-0.228	0.238
-520.945	-108.604	0.050	-0.011
-519.931	40.504	0.078	-0.070
-518.916	-182.378	-0.110	0.002
-517.902	-84.518	0.143	-0.045
-516.887	13.708	0.233	0.181
-515.872	800.000	0.047	0.192
-514.858	800.000	0.016	0.049
-513.843	-64.778	0.266	-0.108
-512.829	800.000	0.021	-0.079
-511.814	-200.000	-0.057	0.311
-510.799	167.579	0.343	-0.488
-509.785	136.648	-0.239	-0.311
-508.770	-94.330	-0.070	-0.019
-507.756	-156.974	0.151	-0.009
-506.741	-81.071	-0.176	-0.058
-505.726	-66.873	-0.032	-0.012
-504.712	-71.091	0.163	-0.061
-503.697	82.234	0.045	0.049
-502.683	-73.987	-0.683	0.248
-501.668	-172.476	-0.301	-0.010
-500.653	-105.533	0.226	0.051
-499.639	96.897	-0.052	-0.060
-498.624	-26.884	-0.119	-0.070
-497.610	-39.884	-0.045	-0.024
-496.595	-10.800	0.160	-0.106
-495.581	-122.861	-0.247	-0.040
-494.566	-143.530	0.383	0.036
-493.551	800.000	0.122	0.416
-492.537	275.719	0.190	0.337
-491.522	21.558	0.065	0.053
-490.508	368.462	-0.059	-0.119
-489.493	11.928	0.060	0.046
-488.478	-43.013	-0.084	0.043
-487.464	800.000	-0.057	0.160
-486.449	63.417	-0.174	-0.174
-485.435	-76.958	-0.093	-0.033
-484.420	-200.000	-0.032	-0.504
-483.405	-175.214	-0.252	0.007
-482.391	318.049	0.079	-0.149
-481.376	800.000	0.159	-0.528
-480.362	-49.146	0.153	-0.073
-479.347	-200.000	-0.019	0.333
-478.332	12.459	0.138	0.106
-477.318	-1.539	-0.115	-0.081
-476.303	-99.465	-0.218	0.055
-475.289	298.157	-0.152	-0.279
-474.274	383.505	-0.115	-0.237
-473.259	-179.481	0.347	-0.008
-472.245	-169.378	-0.177	0.006
-471.230	-84.949	0.165	-0.052
-470.216	121.716	-0.007	0.009
-469.201	382.926	-0.080	0.164
-468.186	-200.000	0.014	0.217
-467.172	-200.000	0.018	-0.197
-466.157	-84.705	-0.254	-0.080
-465.143	-97.869	-0.036	-0.009
-464.128	435.769	0.125	0.271
-463.113	99.929	-0.158	-0.183
-462.099	-143.412	0.371	0.035
-461.084	-179.286	-0.323	-0.007
-460.070	-200.000	0.002	0.068
-459.055	800.000	-0.087	0.332
-458.040	6.029	-0.090	-0.066
-457.026	-127.251	-0.230	0.034
-456.011	-14.139	-0.295	-0.190
-454.997	12.282	0.122	-0.094
-453.982	-128.376	0.225	-0.032
-452.968	-200.000	-0.024	0.314
-451.953	-200.000	0.045	-0.260
-450.938	218.654	0.008	-0.013
-449.924	-182.315	0.187	-0.003
-448.909	-6.541	-0.229	0.155
-447.895	-45.875	0.090	0.044
-446.880	800.000	-0.053	-0.157
-445.865	278.432	-0.115	0.205
-444.851	117.473	0.092	-0.113
-443.836	-126.004	-0.249	-0.037
-442.822	196.753	-0.119	0.181
-441.807	292.469	-0.191	-0.346
-440.792	-61.309	0.140	0.059
-439.778	106.684	0.285	-0.337
-438.763	416.889	-0.046	-0.099
-437.749	-200.000	0.079	-0.368
-436.734	2.933	0.105	0.076
-435.719	-44.124	0.139	-0.070
-434.705	-177.759	0.260	-0.006
-433.690	-130.485	-0.237	-0.032
-432.676	-200.000	0.010	-0.098
-431.661	-50.258	-0.133	-0.063
-430.646	-37.687	-0.269	-0.143
-429.632	102.545	-0.091	-0.106
-428.617	-145.576	0.191	-0.017
-427.603	-200.000	-0.044	-0.193
-426.588	189.491	-0.137	0.205
-425.573	36.958	0.116	-0.102
-424.559	-180.924	-0.046	-0.001
-423.544	220.783	-0.041	-0.066
-422.530	-33.438	0.088	-0.048
-421.515	9.153	-0.152	-0.114
-420.500	-200.000	0.001	0.252
-419.486	-50.990	-0.159	-0.075
-418.471	145.560	-0.050	0.067
-417.457	51.861	0.194	-0.184
-416.442	-11.956	0.186	-0.122
-415.428	-62.786	-0.162	0.067
-414.413	384.018	0.117	-0.241
-413.398	-100.236	-0.238	-0.059
-412.384	800.000	0.034	-0.133
-411.369	800.000	-0.094	0.289
-410.355	-146.741	-0.110	0.009
-409.340	-33.796	0.091	-0.050
-408.325	-179.541	-0.224	0.005
-407.311	81.563	0.050	0.054
-406.296	-7.803	-0.195	0.131
-405.282	-200.000	-0.006	-0.237
-404.267	-156.593	-0.281	-0.017
-403.252	800.000	0.034	-0.123
-402.238	-62.653	0.313	-0.129
-401.223	567.228	-0.038	-0.092
-400.209	32.227	0.063	0.054
-399.194	-200.000	0.001	0.022
-398.179	104.086	-0.094	0.110
-397.165	493.444	0.089	0.204
-396.150	-200.000	0.079	0.381
-395.136	123.341	-0.095	0.119
-394.121	800.000	0.052	-0.195
-393.106	130.071	0.079	0.100
-392.092	229.241	0.118	0.191
-391.077	800.000	-0.086	-0.269
-390.063	301.922	-0.167	-0.308
-389.048	4.348	0.367	-0.268
-388.033	-116.373	-0.575	0.106
-387.019	-170.384	0.203	0.007
-386.004	-120.291	0.249	-0.042
-384.990	179.808	0.334	0.487
-383.975	800.000	0.103	0.347
-382.960	28.576	-0.144	0.121
-381.946	-200.000	0.042	-0.275
-380.931	-102.951	0.338	-0.080
-379.917	-200.000	-0.032	-0.169
-378.902	-117.726	0.381	-0.068
-377.888	-20.406	-0.115	-0.071
-376.873	-200.000	0.053	0.314
-375.858	-200.000	0.025	0.246
-374.844	197.344	-0.221	0.335
-373.829	800.000	-0.047	0.150
-372.815	-200.000	-0.010	0.183
-371.800	-200.000	-0.028	0.172
-370.785	-160.635	0.099	-0.005
-369.771	-200.000	-0.064	0.367
-368.756	39.594	-0.146	-0.130
-367.742	-86.048	0.103	-0.032
-366.727	346.603	-0.101	0.198
-365.712	-200.000	0.019	0.110
-364.698	-104.685	0.118	0.027
-363.683	464.246	0.055	-0.123
-362.669	253.378	-0.038	-0.065
-361.654	10.100	-0.106	0.080
-360.639	-200.000	-0.056	0.291
-359.625	238.841	0.118	0.195
-358.610	-70.283	0.281	-0.106
-357.596	-52.447	0.273	0.126
-356.581	-65.036	-0.175	-0.070
-355.566	239.997	-0.096	-0.159
-354.552	-200.000	-0.058	0.270
-353.537	-136.172	-0.216	-0.025
-352.523	-174.305	-0.466	-0.013
-351.508	-135.984	0.376	-0.044
-350.493	-13.533	-0.241	-0.155
-349.479	333.469	0.088	0.169
-348.464	-200.000	0.010	-0.161
-347.450	800.000	0.120	0.341
-346.435	-200.000	-0.044	-0.197
-345.420	800.000	-0.045	-0.128
-344.406	414.029	0.180	-0.381
-343.391	164.683	0.161	0.225
-342.377	800.000	-0.089	-0.372
-341.362	-200.000	-0.009	0.076
-340.348	128.118	-0.088	-0.111
-339.333	-1.865	0.065	-0.045
-338.318	28.068	-0.177	-0.149
-337.304	800.000	0.071	-0.302
-336.289	398.252	0.112	-0.233
-335.275	485.901	-0.072	0.163
-334.260	-200.000	0.010	0.092
-333.245	-74.428	-0.324	0.116
-332.231	66.139	0.168	0.169
-331.216	541.580	0.098	-0.231
-330.202	43.177	0.346	0.314
-329.187	-133.221	-0.222	0.028
-328.172	-200.000	0.038	0.210
-327.158	-166.114	0.367	-0.015
-326.143	-134.034	-0.247	-0.030
-325.129	-78.034	-0.321	0.110
-324.114	-68.065	0.187	-0.072
-323.099	-139.731	0.196	-0.021
-322.085	127.029	0.078	-0.099
-321.070	-133.431	-0.281	-0.035
-320.056	-200.000	-0.025	0.170
-319.041	-200.000	-0.039	-0.303
-318.026	94.917	-0.260	0.294
-317.012	31.660	-0.102	-0.087
-315.997	-171.120	-0.143	-0.005
-314.983	-200.000	-0.024	-0.279
-313.968	-0.310	-0.073	0.051
-312.953	-82.885	-0.213	0.068
-311.939	-200.000	-0.018	-0.098
-310.924	129.833	-0.024	0.031
-309.910	800.000	0.074	-0.219
-308.895	-7.904	0.106	0.071
-307.880	-200.000	-0.031	0.301
-306.866	105.625	-0.222	-0.261
-305.851	-183.705	0.295	0.005
-304.837	-200.000	0.010	-0.126
-303.822	-200.000	0.008	0.240
-302.807	10.636	-0.125	-0.094
-301.793	12.956	0.207	0.159
-300.778	422.654	0.120	-0.255
-299.764	51.641	-0.130	0.123
-298.749	-200.000	-0.014	-0.079
-297.735	-136.416	0.213	0.025
-296.720	24.841	-0.252	0.207
-295.705	51.676	0.345	0.325
-294.691	570.615	0.023	0.055
-293.676	98.910	0.274	-0.314
-292.662	-73.520	0.383	0.138
-291.647	-200.000	-0.015	-0.069
-290.632	-69.367	0.124	0.047
-289.618	-200.000	-0.062	0.289
-288.603	-200.000	-0.036	0.188
-287.589	-200.000	0.020	-0.134
-286.574	461.209	0.096	0.212
-285.559	-115.963	-0.102	-0.019
-284.545	-35.159	-0.238	-0.129
-283.530	189.347	-0.052	-0.077
-282.516	-121.455	0.266	-0.044
-281.501	-77.682	-0.247	-0.085
-280.486	-74.513	-0.151	-0.054
-279.472	36.402	-0.365	0.319
-278.457	800.000	0.050	-0.196
-277.443	-35.298	-0.341	-0.184
-276.428	-34.006	-0.041	0.022
-275.413	118.445	0.262	-0.321
-274.399	-172.578	-0.365	0.011
-273.384	800.000	-0.049	0.197
-272.370	-101.754	-0.322	-0.077
-271.355	-78.193	-0.180	0.061
-270.340	800.000	-0.016	-0.069
-269.326	92.846	-0.096	0.108
-268.311	-173.160	-0.317	0.010
-267.297	800.000	-0.027	0.110
-266.282	-200.000	0.029	0.146
-265.267	-117.639	-0.115	-0.021
-264.253	-200.000	-0.003	-0.116
-263.238	177.938	-0.094	-0.136
-262.224	-22.043	0.182	-0.110
-261.209	-125.640	0.219	0.033
-260.195	-4.156	-0.106	0.073
-259.180	12.273	0.195	0.149
-258.165	800.000	0.078	0.301
-257.151	81.167	0.334	0.357
-256.136	-200.000	-0.005	0.270
-255.122	334.553	0.052	-0.099
-254.107	88.232	0.198	-0.218
-253.092	317.865	0.115	-0.215
-252.078	146.121	-0.154	-0.205
-251.063	95.223	-0.066	0.075
-250.049	800.000	0.094	-0.350
-249.034	-168.875	0.221	-0.008
-248.019	30.978	0.180	-0.153
-247.005	39.907	0.028	-0.025
-245.990	561.864	-0.118	0.282
-244.976	-200.000	0.013	0.167
-243.961	135.361	-0.147	-0.190
-242.946	162.284	0.045	-0.062
-241.932	-200.000	0.016	0.142
-240.917	800.000	-0.059	-0.190
-239.903	-200.000	0.044	-0.225
-238.888	-143.307	0.104	-0.010
-237.873	-2.707	-0.092	0.064
-236.859	-200.000	0.009	0.117
-235.844	605.178	0.054	-0.133
-234.830	-105.487	0.253	-0.057
-233.815	86.605	-0.148	0.161
-232.800	226.862	-0.039	-0.062
-231.786	185.190	0.123	0.181
-230.771	222.592	-0.078	0.124
-229.757	-200.000	0.013	-0.253
-228.742	78.746	0.125	-0.132
-227.727	800.000	-0.041	0.153
-226.713	800.000	-0.088	0.297
-225.698	-123.112	-0.028	0.004
-224.684	-200.000	-0.009	0.225
-223.669	-200.000	0.004	0.230
-222.655	-88.327	0.342	0.101
-221.640	800.000	-0.051	-0.198
-220.625	280.955	-0.154	-0.272
-219.611	4.191	-0.296	0.215
-218.596	800.000	-0.017	-0.057
-217.582	52.887	-0.145	0.137
-216.567	532.802	0.100	0.234
-215.552	-127.415	-0.247	0.036
-214.538	178.765	0.127	0.183
-213.523	513.563	-0.194	-0.446
-212.509	195.300	-0.078	-0.118
-211.494	285.833	-0.057	-0.101
-210.479	176.420	-0.096	0.138
-209.465	-200.000	-0.025	0.112
-208.450	-49.226	0.332	0.157
-207.436	800.000	0.071	0.234
-206.421	-200.000	0.006	-0.099
-205.406	146.573	0.121	-0.160
-204.392	-200.000	0.007	-0.377
-203.377	-111.240	-0.215	-0.043
-202.363	-200.000	0.009	0.079
-201.348	-93.326	-0.251	0.069
-200.333	-200.000	-0.021	-0.149
-199.319	-200.000	0.065	-0.334
-198.304	373.528	0.081	-0.162
-197.290	-8.116	0.186	-0.124
-196.275	-200.000	-0.015	0.166
-195.260	800.000	-0.028	-0.109
-194.246	-93.772	0.102	0.028
-193.231	-200.000	0.028	0.198
-192.217	558.256	-0.061	0.146
-191.202	222.580	-0.056	0.088
-190.187	-67.085	0.286	-0.111
-189.173	-123.430	-0.292	0.046
-188.158	86.775	-0.080	-0.087
-187.144	-200.000	0.014	-0.254
-186.129	-46.849	-0.110	0.053
-185.114	-200.000	0.022	0.326
-184.100	-130.285	-0.234	0.031
-183.085	-153.737	-0.158	-0.011
-182.071	-200.000	-0.063	0.369
-181.056	9.177	0.076	0.056
-180.042	223.212	0.253	-0.404
-179.027	-17.363	-0.147	0.091
-178.012	-150.770	0.218	-0.016
-176.998	-175.427	0.423	0.011
-175.983	-125.864	0.076	-0.011
-174.969	-11.160	-0.120	0.078
-173.954	-16.163	0.119	0.075
-172.939	86.739	0.113	0.123
-171.925	-138.593	0.131	-0.014
-170.910	346.996	0.151	-0.293
-169.896	42.505	0.113	0.102
-168.881	73.346	0.105	-0.108
-167.866	137.827	-0.101	0.131
-166.852	-9.751	-0.097	0.064
-165.837	26.136	-0.052	-0.043
-164.823	0.462	0.327	-0.230
-163.808	316.998	0.141	0.263
-162.793	800.000	-0.037	-0.103
-161.779	-38.626	-0.289	-0.151
-160.764	221.129	-0.065	-0.103
-159.750	289.169	0.127	0.228
-158.735	95.378	0.216	-0.243
-157.720	-53.886	-0.192	-0.086
-156.706	-200.000	-0.077	0.390
-155.691	390.608	0.043	-0.087
-154.677	105.947	-0.015	-0.018
-153.662	-164.236	-0.130	0.006
-152.647	121.495	0.257	0.316
-151.633	-165.680	0.110	0.005
-150.618	150.747	0.241	0.323
-149.604	-17.903	0.218	-0.135
-148.589	800.000	-0.129	0.426
-147.574	800.000	0.009	0.025
-146.560	800.000	-0.005	0.020
-145.545	-151.563	-0.440	-0.032
-144.531	-50.771	-0.112	0.052
-143.516	79.207	-0.447	0.472
-142.502	-200.000	0.010	0.211
-141.487	-14.680	-0.097	0.061
-140.472	-0.640	-0.183	0.128
-139.458	212.249	-0.078	0.121
-138.443	-77.344	0.269	-0.092
-137.429	33.400	0.046	0.039
-136.414	-88.790	-0.228	-0.067
-135.399	-77.102	0.420	-0.144
-134.385	403.068	-0.159	-0.329
-133.370	528.157	0.006	0.015
-132.356	-145.818	-0.246	-0.022
-131.341	-82.079	-0.189	-0.061
-130.326	328.215	-0.196	-0.371
-129.312	-100.558	-0.065	-0.016
-128.297	71.346	0.084	0.086
-127.283	-58.707	-0.548	0.234
-126.268	-168.379	-0.197	-0.007
-125.253	408.792	0.101	0.210
-124.239	-112.694	0.386	0.076
-123.224	72.440	0.150	0.154
-122.210	24.464	0.223	-0.181
