DTS Sentinel unit serial number:	SN413079Multiplexer serial number:	ORYXHardware model number:	OX4-SRSoftware version number:	ORYX F/W v4.00 Oryx Data Collector v3.7.2.0data status	okinstallation	princeton_trtdifferential loss correction	single-endedforward channel	channel 3reverse channel	N/Adate	2019/09/17time	16:52:35forward acquisition time	60.00reverse acquisition time	0.00gamma	496.2192k internal	0.2291k external	0.2291temperature offset calibration	0.9952default loss term (dB/km)	0.3790temperature slope calibration	1.0000multiplexer offset coefficient	1.0000multiplexer slope coefficient	1.0000fibre end	0.00T internal ref (°C)	42.31T ext. ref 1 (°C)	0.36T ext. ref 2 (°C)	38.44length (m)	temperature (°C)	Stokes	anti-Stokes-747.200	800.000	-0.066	0.223
-746.185	-145.318	0.102	-0.009
-745.171	-2.313	0.085	0.061
-744.156	-179.386	0.212	0.005
-743.142	5.743	0.038	0.029
-742.127	800.000	0.009	-0.035
-741.112	233.473	0.046	-0.078
-740.098	87.328	-0.252	0.286
-739.083	-120.080	0.226	-0.040
-738.069	-20.690	-0.046	0.029
-737.054	-16.016	-0.156	0.102
-736.039	44.013	-0.113	-0.106
-735.025	106.043	0.309	0.374
-734.010	-200.000	0.025	0.150
-732.996	31.711	-0.400	-0.353
-731.981	354.072	-0.098	0.199
-730.966	57.997	-0.073	-0.073
-729.952	-44.423	0.104	-0.053
-728.937	205.231	0.037	-0.059
-727.923	-3.728	-0.175	-0.125
-726.908	59.477	-0.362	0.365
-725.894	-38.013	-0.129	0.070
-724.879	9.870	-0.173	-0.134
-723.864	7.506	-0.134	-0.103
-722.850	410.511	-0.080	0.174
-721.835	800.000	-0.026	0.081
-720.821	-200.000	0.006	-0.152
-719.806	283.383	0.127	-0.233
-718.791	800.000	0.070	0.217
-717.777	-63.864	0.152	-0.064
-716.762	238.060	-0.142	0.242
-715.748	-200.000	0.016	0.108
-714.733	-19.626	-0.128	0.081
-713.718	-113.602	0.225	0.045
-712.704	-200.000	-0.023	-0.276
-711.689	-151.614	0.242	0.018
-710.675	-24.288	-0.316	0.193
-709.660	-74.054	-0.196	0.073
-708.645	800.000	0.034	-0.108
-707.631	115.419	-0.104	0.130
-706.616	-109.090	-0.220	-0.048
-705.602	-200.000	0.001	0.064
-704.587	-67.954	-0.147	0.059
-703.572	-65.322	0.338	0.139
-702.558	-113.655	0.180	0.036
-701.543	39.983	0.190	-0.174
-700.529	-135.923	0.226	-0.027
-699.514	128.381	-0.096	-0.125
-698.499	-200.000	0.007	-0.240
-697.485	84.538	0.114	-0.128
-696.470	33.867	0.177	0.158
-695.456	24.478	-0.115	-0.097
-694.441	-200.000	0.063	-0.343
-693.426	-200.000	-0.009	-0.306
-692.412	-200.000	0.009	-0.117
-691.397	231.329	0.100	-0.168
-690.383	-170.301	-0.147	0.005
-689.368	103.236	0.113	0.135
-688.354	223.654	-0.155	-0.256
-687.339	-110.740	-0.143	0.030
-686.324	800.000	0.056	-0.247
-685.310	434.042	0.067	0.150
-684.295	-38.280	0.120	0.065
-683.281	-105.075	-0.122	-0.029
-682.266	321.240	-0.082	0.160
-681.251	188.349	-0.075	-0.114
-680.237	-134.414	-0.052	0.006
-679.222	247.953	0.069	-0.120
-678.208	-103.148	-0.319	0.077
-677.193	16.215	0.275	0.222
-676.178	-200.000	-0.025	-0.262
-675.164	-200.000	-0.006	0.170
-674.149	7.251	0.225	0.171
-673.135	-24.217	-0.318	-0.194
-672.120	800.000	0.130	-0.394
-671.105	-84.471	0.027	-0.009
-670.091	-200.000	0.011	0.067
-669.076	-200.000	-0.056	0.590
-668.062	91.101	-0.126	-0.145
-667.047	-200.000	0.080	0.456
-666.032	163.010	0.123	-0.176
-665.018	-90.893	0.098	-0.029
-664.003	91.283	0.233	-0.267
-662.989	800.000	-0.047	-0.195
-661.974	-50.355	0.173	0.084
-660.959	-200.000	0.003	-0.175
-659.945	-200.000	0.034	-0.243
-658.930	-105.145	0.224	0.052
-657.916	-200.000	-0.002	-0.206
-656.901	800.000	0.031	-0.101
-655.886	-47.103	0.201	-0.100
-654.872	-64.191	-0.425	-0.177
-653.857	58.443	-0.136	-0.136
-652.843	489.658	-0.119	0.278
-651.828	184.236	0.070	0.105
-650.814	97.074	-0.164	-0.192
-649.799	59.371	-0.093	0.094
-648.784	56.623	-0.183	-0.181
-647.770	-200.000	-0.024	-0.140
-646.755	-18.602	0.161	0.103
-645.741	-55.861	-0.127	0.058
-644.726	-152.705	0.271	-0.020
-643.711	-141.192	-0.220	-0.023
-642.697	-138.352	-0.280	-0.032
-641.682	-73.363	-0.059	-0.022
-640.668	-200.000	0.032	-0.145
-639.653	-128.420	-0.224	0.032
-638.638	309.069	-0.148	0.282
-637.624	-200.000	0.010	-0.234
-636.609	-200.000	0.058	-0.300
-635.595	-188.827	-0.088	-0.001
-634.580	-200.000	0.017	0.178
-633.565	800.000	0.043	-0.148
-632.551	-200.000	-0.013	-0.140
-631.536	-107.744	0.093	0.021
-630.522	-51.536	0.299	0.142
-629.507	-200.000	-0.013	0.182
-628.492	800.000	0.051	0.172
-627.478	-200.000	0.016	-0.170
-626.463	-131.237	-0.239	0.032
-625.449	20.461	-0.054	-0.044
-624.434	75.548	0.256	-0.275
-623.419	-76.163	-0.122	-0.044
-622.405	176.213	0.278	-0.411
-621.390	-93.808	-0.256	-0.072
-620.376	800.000	-0.023	-0.084
-619.361	184.618	0.095	0.143
-618.346	-61.300	0.137	-0.059
-617.332	-126.880	0.235	0.035
-616.317	-200.000	-0.021	0.141
-615.303	33.996	0.190	0.168
-614.288	-200.000	-0.232	-0.000
-613.273	-200.000	-0.011	0.254
-612.259	78.858	-0.032	0.035
-611.244	-200.000	0.009	-0.178
-610.230	105.486	0.132	0.159
-609.215	486.947	-0.017	0.040
-608.201	97.278	-0.076	-0.089
-607.186	74.459	0.124	0.132
-606.171	800.000	-0.021	0.068
-605.157	3.544	0.207	0.154
-604.142	-131.649	0.156	0.021
-603.128	12.388	0.011	-0.009
-602.113	3.838	0.109	0.081
-601.098	10.330	0.275	-0.213
-600.084	38.247	0.202	0.183
-599.069	231.881	0.146	0.243
-598.055	-200.000	-0.004	-0.040
-597.040	800.000	0.071	-0.298
-596.025	-118.828	-0.169	0.030
-595.011	-124.708	-0.189	-0.030
-593.996	-79.393	-0.202	-0.070
-592.982	88.224	-0.113	0.128
-591.967	-200.000	-0.002	0.085
-590.952	-200.000	-0.003	-0.185
-589.938	163.543	-0.073	0.105
-588.923	64.306	-0.204	0.209
-587.909	129.509	-0.183	-0.238
-586.894	-99.303	-0.190	0.049
-585.879	133.971	0.129	-0.170
-584.865	-9.914	0.122	0.083
-583.850	-28.008	-0.191	0.113
-582.836	-90.329	0.113	0.033
-581.821	-200.000	-0.015	0.410
-580.806	90.396	0.144	-0.164
-579.792	645.115	0.057	0.147
-578.777	36.816	-0.181	-0.163
-577.763	-54.898	-0.177	0.081
-576.748	246.028	0.109	-0.187
-575.733	36.291	-0.085	0.077
-574.719	-144.303	0.112	-0.011
-573.704	238.406	-0.187	-0.316
-572.690	9.306	0.221	-0.170
-571.675	-50.757	-0.174	-0.083
-570.661	800.000	0.025	0.071
-569.646	64.378	0.094	-0.096
-568.631	-200.000	-0.036	0.205
-567.617	141.532	0.230	-0.310
-566.602	433.302	-0.146	0.322
-565.588	331.185	-0.077	-0.151
-564.573	-73.191	0.395	-0.147
-563.558	101.566	0.120	-0.142
-562.544	6.359	-0.074	-0.056
-561.529	-152.346	-0.027	0.002
-560.515	52.111	-0.162	-0.157
-559.500	11.293	-0.438	0.341
-558.485	-200.000	0.368	-0.001
-557.471	-200.000	-0.006	-0.142
-556.456	191.251	0.068	-0.105
-555.442	30.883	-0.106	0.092
-554.427	-123.684	-0.126	0.020
-553.412	-200.000	-0.022	0.369
-552.398	-104.892	-0.239	0.056
-551.383	-176.267	0.088	-0.002
-550.369	252.525	-0.061	-0.106
-549.354	-108.853	-0.137	0.030
-548.339	174.245	0.180	0.264
-547.325	-37.523	-0.213	0.116
-546.310	-93.164	-0.331	-0.093
-545.296	-3.363	-0.095	-0.067
-544.281	-181.124	0.237	-0.005
-543.266	-138.055	0.100	0.011
-542.252	-33.384	0.150	-0.084
-541.237	-83.185	-0.151	-0.049
-540.223	800.000	0.051	-0.210
-539.208	800.000	-0.046	-0.154
-538.193	-59.547	0.329	0.143
-537.179	69.948	0.209	-0.219
-536.164	-45.144	-0.157	-0.079
-535.150	-200.000	0.025	-0.374
-534.135	800.000	-0.125	-0.422
-533.121	-200.000	-0.014	-0.336
-532.106	314.629	-0.191	0.365
-531.091	800.000	-0.062	0.267
-530.077	225.158	-0.059	-0.097
-529.062	-25.827	-0.219	-0.131
-528.048	-42.182	0.331	-0.172
-527.033	-200.000	-0.014	-0.159
-526.018	-9.509	0.053	0.036
-525.004	-200.000	-0.014	0.294
-523.989	191.387	-0.122	0.187
-522.975	334.460	-0.087	0.171
-521.960	-200.000	-0.002	-0.057
-520.945	800.000	-0.114	-0.337
-519.931	-134.998	-0.061	-0.007
-518.916	-158.424	0.297	-0.017
-517.902	47.696	-0.097	0.092
-516.887	-0.462	0.223	0.161
-515.872	-56.068	0.184	-0.083
-514.858	-87.642	-0.125	0.038
-513.843	70.861	-0.231	0.242
-512.829	12.206	0.126	-0.098
-511.814	800.000	-0.090	0.256
-510.799	-138.114	-0.346	-0.039
-509.785	-31.273	0.221	0.127
-508.770	-200.000	-0.049	-0.359
-507.756	-200.000	-0.003	-0.154
-506.741	-89.676	0.299	0.089
-505.726	-200.000	-0.070	0.397
-504.712	-60.516	0.552	0.238
-503.697	71.316	0.107	0.113
-502.683	473.073	-0.140	-0.321
-501.668	24.026	0.161	-0.135
-500.653	-137.770	0.324	0.037
-499.639	-31.875	0.082	-0.046
-498.624	14.029	-0.217	0.171
-497.610	-138.311	0.067	-0.007
-496.595	-26.666	-0.338	0.200
-495.581	-200.000	-0.010	0.083
-494.566	-200.000	-0.032	0.227
-493.551	-134.368	-0.394	0.049
-492.537	-103.189	-0.132	-0.032
-491.522	465.135	-0.081	-0.184
-490.508	800.000	-0.089	-0.294
-489.493	73.207	0.130	-0.138
-488.478	-32.014	-0.198	-0.112
-487.464	183.878	0.133	-0.200
-486.449	-200.000	0.007	-0.131
-485.435	517.237	0.056	-0.133
-484.420	-101.417	0.322	-0.079
-483.405	-106.202	0.255	-0.058
-482.391	376.449	0.052	-0.107
-481.376	411.299	-0.080	0.171
-480.362	-105.479	-0.215	0.050
-479.347	800.000	0.074	0.244
-478.332	-26.818	0.235	0.139
-477.318	-39.017	-0.257	-0.137
-476.303	800.000	0.160	0.531
-475.289	-10.081	0.071	0.048
-474.274	-108.395	-0.166	0.036
-473.259	-112.495	0.239	0.048
-472.245	-131.662	-0.380	0.051
-471.230	-63.166	0.092	0.039
-470.216	-75.428	0.253	-0.091
-469.201	-200.000	-0.039	-0.309
-468.186	143.404	-0.187	0.252
-467.172	-27.461	-0.188	0.111
-466.157	800.000	-0.076	-0.213
-465.143	-72.773	-0.048	0.018
-464.128	800.000	0.046	-0.142
-463.113	630.457	0.061	-0.156
-462.099	-14.579	-0.172	0.112
-461.084	555.657	-0.099	-0.241
-460.070	-38.083	-0.249	-0.134
-459.055	-73.712	-0.099	0.036
-458.040	252.835	0.182	-0.314
-457.026	-95.166	-0.146	0.040
-456.011	-146.547	0.109	-0.010
-454.997	-121.684	0.321	0.054
-453.982	-148.739	0.315	-0.026
-452.968	800.000	-0.048	0.138
-451.953	-200.000	0.001	0.208
-450.938	800.000	-0.084	0.255
-449.924	-4.225	0.157	-0.110
-448.909	-10.052	-0.021	-0.014
-447.895	64.481	0.107	-0.109
-446.880	-53.586	-0.139	-0.064
-445.865	-137.145	-0.400	-0.046
-444.851	-127.669	0.171	0.025
-443.836	-11.219	-0.408	0.272
-442.822	800.000	0.045	-0.176
-441.807	-9.301	0.037	0.025
-440.792	599.222	0.062	0.156
-439.778	800.000	-0.114	0.483
-438.763	-58.320	0.336	0.148
-437.749	-37.840	0.150	0.081
-436.734	-45.819	-0.153	-0.077
-435.719	24.159	-0.186	-0.156
-434.705	-200.000	-0.016	0.136
-433.690	-4.220	-0.380	-0.266
-432.676	176.769	-0.200	0.295
-431.661	-64.464	-0.266	0.109
-430.646	15.879	-0.033	0.026
-429.632	341.127	0.156	0.309
-428.617	190.701	-0.229	0.348
-427.603	-120.409	0.120	0.021
-426.588	-95.354	-0.397	0.108
-425.573	-48.676	0.119	-0.058
-424.559	39.268	-0.204	0.185
-423.544	-53.799	-0.068	0.031
-422.530	244.202	-0.107	-0.181
-421.515	-7.733	0.276	0.189
-420.500	16.233	-0.064	0.051
-419.486	401.229	0.117	-0.249
-418.471	-58.437	-0.206	0.091
-417.457	-94.948	0.139	0.038
-416.442	-110.454	0.119	-0.025
-415.428	-88.437	0.046	0.014
-414.413	93.982	-0.270	0.309
-413.398	-118.741	0.221	0.039
-412.384	18.533	0.085	0.069
-411.369	-200.000	0.029	0.179
-410.355	-27.101	0.160	0.094
-409.340	-169.215	0.281	-0.010
-408.325	800.000	-0.080	-0.249
-407.311	158.769	-0.034	0.048
-406.296	487.095	0.125	0.289
-405.282	-200.000	0.014	0.241
-404.267	-56.116	-0.098	0.044
-403.252	-200.000	-0.004	0.097
-402.238	-200.000	0.026	-0.122
-401.223	-173.208	-0.056	-0.002
-400.209	169.476	-0.292	0.421
-399.194	-12.004	0.243	0.161
-398.179	800.000	0.041	-0.154
-397.165	-12.499	0.034	0.022
-396.150	315.817	0.091	0.174
-395.136	-105.850	-0.249	0.057
-394.121	542.056	0.029	-0.071
-393.106	-37.168	0.325	-0.176
-392.092	-200.000	0.017	-0.110
-391.077	51.652	0.114	-0.110
-390.063	51.231	0.333	-0.319
-389.048	179.721	-0.099	-0.146
-388.033	47.552	0.071	0.067
-387.019	2.742	0.097	-0.071
-386.004	52.653	0.035	-0.034
-384.990	293.357	0.075	0.138
-383.975	1.900	0.078	-0.057
-382.960	800.000	0.118	-0.348
-381.946	325.455	0.066	0.128
-380.931	-34.772	0.070	0.039
-379.917	-200.000	0.020	-0.419
-378.902	-74.284	0.253	-0.092
-377.888	-200.000	0.079	-0.584
-376.873	-45.059	0.175	-0.088
-375.858	-148.290	0.229	-0.019
-374.844	-200.000	-0.078	-0.355
-373.829	8.980	0.062	-0.047
-372.815	188.190	0.102	0.154
-371.800	-200.000	0.021	0.271
-370.785	-70.320	-0.191	0.073
-369.771	800.000	-0.086	0.329
-368.756	-72.058	-0.162	-0.061
-367.742	-200.000	0.004	0.152
-366.727	-40.027	-0.116	0.061
-365.712	-47.992	0.196	-0.096
-364.698	-125.090	-0.208	0.032
-363.683	800.000	0.007	0.021
-362.669	-134.789	-0.100	0.012
-361.654	473.101	-0.053	0.121
-360.639	-200.000	0.001	-0.057
-359.625	800.000	0.039	-0.128
-358.610	-108.074	-0.337	-0.074
-357.596	509.298	-0.134	-0.314
-356.581	229.368	-0.103	-0.169
-355.566	-149.912	-0.129	0.010
-354.552	-77.235	0.395	0.139
-353.537	-58.641	-0.227	0.099
-352.523	-125.433	0.126	-0.019
-351.508	13.398	0.151	0.118
-350.493	-86.122	-0.381	0.119
-349.479	-198.737	-0.380	-0.002
-348.464	137.574	-0.185	-0.245
-347.450	-124.775	-0.318	-0.050
-346.435	-200.000	-0.002	-0.135
-345.420	-200.000	0.032	-0.207
-344.406	-200.000	0.030	0.137
-343.391	-200.000	0.005	-0.131
-342.377	-200.000	0.009	0.057
-341.362	45.825	-0.181	-0.169
-340.348	-200.000	-0.004	-0.172
-339.333	-200.000	0.036	-0.385
-338.318	-119.822	0.115	0.020
-337.304	53.479	-0.212	0.205
-336.289	-105.285	0.264	-0.061
-335.275	-70.114	0.091	-0.035
-334.260	800.000	-0.032	-0.097
-333.245	-200.000	0.023	0.129
-332.231	-23.465	-0.386	-0.234
-331.216	-154.466	-0.289	-0.019
-330.202	-200.000	0.004	0.148
-329.187	800.000	0.040	0.119
-328.172	57.835	0.141	-0.139
-327.158	-200.000	-0.010	-0.222
-326.143	-6.841	-0.062	-0.043
-325.129	621.835	0.055	-0.140
-324.114	800.000	-0.020	0.060
-323.099	-157.310	0.030	-0.002
-322.085	82.264	0.067	0.073
-321.070	-1.453	0.223	-0.158
-320.056	800.000	-0.062	-0.224
-319.041	800.000	-0.049	-0.174
-318.026	-200.000	0.023	-0.122
-317.012	193.041	0.135	0.206
-315.997	156.886	-0.220	0.306
-314.983	92.914	-0.120	0.137
-313.968	-200.000	-0.018	-0.254
-312.953	-200.000	0.002	0.015
-311.939	-109.013	-0.107	0.023
-310.924	142.043	-0.147	0.196
-309.910	45.177	-0.121	0.112
-308.895	-164.952	-0.177	0.008
-307.880	-57.059	-0.047	0.021
-306.866	-87.178	-0.225	0.069
-305.851	-63.758	-0.282	0.116
-304.837	-200.000	-0.045	0.277
-303.822	316.482	0.135	-0.256
-302.807	-122.941	-0.118	-0.019
-301.793	-199.109	0.349	-0.002
-300.778	49.493	-0.131	0.125
-299.764	334.467	0.008	-0.016
-298.749	800.000	0.079	0.222
-297.735	-192.413	0.185	-0.002
-296.720	-94.177	0.103	0.028
-295.705	-53.984	-0.197	0.090
-294.691	-200.000	0.045	-0.404
-293.676	800.000	0.033	-0.100
-292.662	-61.065	-0.378	0.160
-291.647	283.378	0.071	0.128
-290.632	-92.206	0.307	-0.087
-289.618	-21.550	0.158	-0.097
-288.603	-200.000	0.016	0.200
-287.589	-99.642	0.422	0.107
-286.574	800.000	0.054	-0.199
-285.559	-37.264	0.093	0.050
-284.545	-13.420	0.146	0.095
-283.530	13.885	-0.100	-0.078
-282.516	-46.121	0.228	0.113
-281.501	555.155	0.020	0.047
-280.486	12.775	-0.202	0.157
-279.472	134.121	-0.033	-0.043
-278.457	195.376	0.114	-0.174
-277.443	-107.506	-0.113	0.025
-276.428	-36.928	0.275	-0.148
-275.413	-50.421	0.076	0.036
-274.399	800.000	0.078	-0.236
-273.384	-200.000	-0.036	0.433
-272.370	-200.000	0.018	0.138
-271.355	70.060	-0.184	0.191
-270.340	588.554	0.121	-0.299
-269.326	258.189	0.086	-0.149
-268.311	-20.807	-0.163	0.100
-267.297	-42.745	0.181	0.093
-266.282	-34.937	-0.047	-0.026
-265.267	74.342	-0.065	0.069
-264.253	365.107	-0.186	-0.376
-263.238	-166.798	-0.026	0.001
-262.224	-200.000	-0.042	-0.345
-261.209	-32.084	0.176	-0.099
-260.195	-58.744	-0.097	-0.042
-259.180	-200.000	0.039	-0.265
-258.165	29.108	-0.157	-0.134
-257.151	51.453	-0.164	0.157
-256.136	179.187	-0.198	0.291
-255.122	-130.474	0.166	0.023
-254.107	-200.000	0.016	-0.437
-253.092	-200.000	-0.018	0.094
-252.078	-171.467	-0.131	0.004
-251.063	-181.341	-0.186	-0.004
-250.049	-105.379	0.281	-0.064
-249.034	-200.000	0.016	-0.124
-248.019	-125.419	0.118	0.018
-247.005	107.984	-0.097	0.116
-245.990	434.469	0.147	0.322
-244.976	-39.214	-0.220	-0.116
-243.961	-7.576	-0.032	0.022
-242.946	-23.613	-0.383	-0.231
-241.932	251.874	0.066	0.112
-240.917	-93.602	0.324	0.090
-239.903	201.904	0.112	0.173
-238.888	-200.000	-0.076	0.376
-237.873	644.485	0.088	-0.227
-236.859	8.193	-0.178	-0.134
-235.844	-200.000	-0.034	0.213
-234.830	-200.000	-0.013	-0.064
-233.815	-23.931	-0.107	-0.064
-232.800	-137.434	0.444	0.050
-231.786	-200.000	0.003	0.395
-230.771	-200.000	-0.084	0.394
-229.757	30.159	-0.202	0.173
-228.742	-25.129	0.328	0.195
-227.727	-74.665	0.241	-0.087
-226.713	71.871	-0.304	0.318
-225.698	-200.000	-0.007	0.147
-224.684	-161.998	-0.206	0.010
-223.669	-25.684	0.268	-0.159
-222.655	285.878	0.042	0.075
-221.640	86.929	-0.026	0.029
-220.625	222.303	-0.173	0.279
-219.611	-101.648	0.165	-0.040
-218.596	-76.925	0.208	0.073
-217.582	133.255	0.044	0.057
-216.567	800.000	-0.081	-0.227
-215.552	-90.873	0.321	-0.093
-214.538	-39.468	0.283	-0.149
-213.523	67.262	0.211	-0.216
-212.509	-35.951	0.318	-0.173
-211.494	100.045	-0.194	0.225
-210.479	437.392	0.088	-0.192
-209.465	400.019	-0.085	0.179
-208.450	73.651	0.110	-0.115
-207.436	800.000	0.093	0.404
-206.421	-99.441	-0.215	0.054
-205.406	800.000	-0.088	-0.296
-204.392	-108.541	-0.120	-0.026
-203.377	-92.201	0.040	0.011
-202.363	30.626	-0.139	0.119
-201.348	62.230	-0.114	0.114
-200.333	-21.937	0.105	-0.064
-199.319	-200.000	-0.036	-0.238
-198.304	319.479	0.084	-0.159
-197.290	800.000	0.050	-0.166
-196.275	0.017	0.073	0.052
-195.260	125.765	-0.091	0.115
-194.246	141.398	0.217	0.288
-193.231	-21.402	0.131	-0.080
-192.217	-200.000	-0.067	-0.301
-191.202	-5.839	-0.255	0.175
-190.187	-46.370	-0.282	0.139
-189.173	116.695	-0.065	0.080
-188.158	800.000	0.035	0.145
-187.144	-200.000	-0.041	0.212
-186.129	-200.000	0.033	-0.344
-185.114	-96.017	0.190	-0.051
-184.100	-2.460	0.079	0.055
-183.085	-118.360	-0.335	-0.060
-182.071	6.194	-0.314	0.233
-181.056	83.304	0.130	-0.142
-180.042	-79.177	0.128	-0.043
-179.027	-200.000	0.480	0.002
-178.012	496.680	0.065	0.150
-176.998	800.000	0.030	0.091
-175.983	-59.639	0.332	-0.143
-174.969	-38.443	-0.201	0.107
-173.954	-200.000	0.010	0.224
-172.939	408.548	0.048	0.101
-171.925	-62.909	-0.261	0.108
-170.910	-81.407	0.294	0.097
-169.896	193.977	0.066	-0.099
-168.881	162.104	0.132	-0.186
-167.866	29.973	0.248	-0.211
-166.852	-200.000	0.043	-0.314
-165.837	-181.072	0.280	-0.006
-164.823	-100.773	0.195	-0.048
-163.808	94.720	-0.215	0.245
-162.793	-18.834	-0.256	0.160
-161.779	85.405	0.213	-0.234
-160.764	41.543	-0.069	-0.063
-159.750	-85.348	-0.288	0.090
-158.735	684.482	-0.109	-0.284
-157.720	51.010	0.339	0.322
-156.706	168.458	0.131	-0.186
-155.691	-120.981	-0.128	0.022
-154.677	3.830	-0.188	0.137
-153.662	-13.003	0.122	0.079
-152.647	-200.000	0.008	-0.213
-151.633	800.000	-0.106	-0.374
-150.618	289.386	-0.086	-0.156
-149.604	435.707	0.086	-0.188
-148.589	-200.000	-0.156	0.000
-147.574	174.961	-0.133	0.193
-146.560	800.000	0.098	-0.352
-145.545	467.077	-0.104	0.233
-144.531	800.000	0.032	0.090
-143.516	559.595	-0.080	0.192
-142.502	-200.000	-0.005	0.265
-141.487	284.615	-0.057	-0.102
-140.472	-200.000	0.054	-0.263
-139.458	99.018	-0.142	0.164
-138.443	10.845	0.100	0.076
-137.429	100.571	-0.082	-0.095
-136.414	84.294	0.054	-0.059
-135.399	-200.000	-0.030	0.148
-134.385	800.000	-0.025	0.095
-133.370	327.261	-0.060	-0.115
-132.356	-132.493	0.332	-0.043
-131.341	-200.000	-0.019	-0.110
-130.326	308.936	0.063	-0.117
-129.312	800.000	0.101	-0.350
-128.297	326.560	-0.159	0.304
-127.283	800.000	-0.062	0.200
-126.268	140.088	0.103	0.136
-125.253	88.084	0.305	0.338
-124.239	-42.647	-0.038	-0.019
-123.224	87.735	-0.174	0.192
-122.210	191.105	-0.330	-0.496
-121.195	-66.334	-0.222	-0.088
