DTS Sentinel unit serial number:	SN413079Multiplexer serial number:	ORYXHardware model number:	OX4-SRSoftware version number:	ORYX F/W v4.00 Oryx Data Collector v3.7.2.0data status	okinstallation	princeton_trtdifferential loss correction	single-endedforward channel	channel 3reverse channel	N/Adate	2019/09/18time	18:08:35forward acquisition time	60.00reverse acquisition time	0.00gamma	496.2192k internal	0.2294k external	0.2294temperature offset calibration	0.9995default loss term (dB/km)	0.3790temperature slope calibration	1.0000multiplexer offset coefficient	1.0000multiplexer slope coefficient	1.0000fibre end	0.00T internal ref (°C)	39.20T ext. ref 1 (°C)	0.92T ext. ref 2 (°C)	32.11length (m)	temperature (°C)	Stokes	anti-Stokes-747.200	250.059	-0.033	0.057
-746.185	-50.448	0.170	-0.082
-745.171	376.986	0.166	0.348
-744.156	22.928	0.084	0.071
-743.142	82.450	-0.132	-0.146
-742.127	-44.686	-0.289	0.148
-741.112	92.383	0.060	0.069
-740.098	65.871	-0.184	0.191
-739.083	-12.515	-0.252	-0.168
-738.069	141.015	-0.096	0.130
-737.054	800.000	0.039	-0.148
-736.039	-200.000	0.089	-0.425
-735.025	10.051	0.030	0.023
-734.010	-200.000	0.006	0.087
-732.996	-25.904	0.056	0.033
-731.981	-75.066	-0.445	-0.163
-730.966	-200.000	-0.035	-0.163
-729.952	57.156	-0.227	0.226
-728.937	-116.358	0.071	0.013
-727.923	-37.882	-0.159	-0.086
-726.908	546.011	0.056	0.136
-725.894	1.485	0.262	0.193
-724.879	107.084	-0.081	0.098
-723.864	16.874	-0.040	-0.032
-722.850	-200.000	-0.016	0.139
-721.835	-112.985	0.197	0.040
-720.821	115.063	-0.212	0.265
-719.806	-200.000	-0.040	-0.289
-718.791	169.275	0.089	-0.130
-717.777	-200.000	0.048	0.237
-716.762	-163.223	0.113	0.006
-715.748	-117.378	0.120	0.022
-714.733	-136.075	-0.153	0.018
-713.718	800.000	-0.082	-0.240
-712.704	-20.244	-0.146	-0.092
-711.689	135.384	-0.163	-0.217
-710.675	-88.623	-0.241	-0.073
-709.660	-7.114	-0.368	-0.255
-708.645	800.000	0.092	-0.402
-707.631	430.746	0.058	0.128
-706.616	-200.000	-0.010	0.057
-705.602	-68.680	-0.407	0.161
-704.587	800.000	0.018	-0.059
-703.572	46.324	-0.121	0.114
-702.558	-100.719	0.233	0.059
-701.543	182.214	-0.125	0.187
-700.529	-48.259	0.215	0.106
-699.514	-57.378	0.186	-0.083
-698.499	183.315	0.071	0.107
-697.485	-46.651	0.175	-0.087
-696.470	28.939	0.184	0.159
-695.456	800.000	0.130	0.390
-694.441	680.068	0.045	0.120
-693.426	-8.375	-0.095	0.065
-692.412	2.950	0.092	0.068
-691.397	-200.000	0.050	0.232
-690.383	-62.454	-0.150	-0.064
-689.368	341.825	0.075	-0.150
-688.354	-56.157	-0.051	0.023
-687.339	-200.000	-0.061	-0.350
-686.324	20.202	0.305	-0.251
-685.310	-106.331	0.247	-0.056
-684.295	-200.000	0.009	0.092
-683.281	147.872	-0.061	-0.084
-682.266	-200.000	0.039	-0.374
-681.251	714.766	0.058	0.157
-680.237	-14.645	-0.092	-0.060
-679.222	127.397	-0.274	-0.355
-678.208	-64.939	0.170	-0.070
-677.193	7.494	0.135	-0.103
-676.178	-61.047	-0.435	-0.188
-675.164	-21.650	0.137	-0.085
-674.149	2.064	-0.297	0.218
-673.135	-29.255	0.407	0.238
-672.120	166.622	0.103	-0.148
-671.105	-200.000	-0.041	-0.299
-670.091	31.773	-0.315	-0.276
-669.076	188.409	0.278	-0.423
-668.062	-171.986	-0.306	0.010
-667.047	210.014	0.192	-0.307
-666.032	-200.000	0.002	0.049
-665.018	-94.254	-0.085	0.024
-664.003	77.931	0.185	-0.201
-662.989	-191.192	-0.313	-0.003
-661.974	-200.000	0.035	0.219
-660.959	146.804	-0.074	0.101
-659.945	65.426	0.130	-0.134
-658.930	735.737	-0.133	-0.363
-657.916	129.887	0.345	-0.450
-656.901	247.275	-0.051	-0.088
-655.886	-156.985	0.040	-0.002
-654.872	-32.972	0.187	-0.106
-653.857	-196.670	0.214	-0.001
-652.843	-68.089	0.154	0.061
-651.828	270.962	-0.058	-0.105
-650.814	36.295	-0.120	0.108
-649.799	785.875	0.058	0.162
-648.784	-186.791	-0.334	-0.005
-647.770	193.409	0.072	-0.111
-646.755	404.612	-0.058	-0.125
-645.741	108.657	-0.277	-0.338
-644.726	304.261	-0.070	-0.132
-643.711	777.512	-0.091	0.253
-642.697	-80.321	-0.300	0.102
-641.682	-88.541	0.102	0.031
-640.668	-139.364	0.297	0.032
-639.653	-58.916	-0.128	-0.056
-638.638	-200.000	0.009	-0.183
-637.624	-25.807	-0.293	0.176
-636.609	-200.000	0.005	-0.047
-635.595	800.000	-0.063	-0.219
-634.580	-21.122	-0.264	-0.165
-633.565	-123.972	0.143	0.023
-632.551	8.383	0.159	-0.122
-631.536	-200.000	0.014	0.062
-630.522	664.474	0.129	0.340
-629.507	382.549	0.029	0.060
-628.492	-143.133	-0.422	-0.041
-627.478	342.746	-0.141	0.281
-626.463	126.795	0.204	0.263
-625.449	-122.263	-0.143	0.024
-624.434	467.535	-0.057	-0.131
-623.419	800.000	0.069	0.195
-622.405	500.527	0.109	-0.256
-621.390	-32.379	0.204	0.116
-620.376	419.640	0.049	0.108
-619.361	-121.202	-0.110	-0.019
-618.346	-101.239	0.382	-0.095
-617.332	-63.740	0.130	-0.054
-616.317	-143.017	-0.098	-0.010
-615.303	-50.180	-0.054	-0.026
-614.288	-200.000	0.004	-0.129
-613.273	-41.890	0.228	-0.119
-612.259	19.746	-0.102	0.084
-611.244	-80.470	-0.219	0.074
-610.230	-84.277	0.365	0.117
-609.215	-30.596	-0.205	0.118
-608.201	45.766	-0.218	-0.205
-607.186	443.427	-0.167	0.373
-606.171	-200.000	-0.015	0.219
-605.157	363.520	0.067	0.137
-604.142	96.403	0.114	-0.133
-603.128	-200.000	0.025	-0.412
-602.113	-98.282	-0.247	-0.064
-601.098	347.514	-0.063	0.126
-600.084	-151.192	0.224	-0.017
-599.069	698.190	-0.116	-0.311
-598.055	218.146	-0.065	-0.105
-597.040	66.945	-0.124	-0.128
-596.025	-9.557	-0.158	-0.107
-595.011	407.609	-0.033	-0.070
-593.996	-35.669	0.239	-0.132
-592.982	28.752	0.297	-0.256
-591.967	-142.570	-0.436	0.043
-590.952	-145.463	0.219	0.020
-589.938	-1.135	0.021	-0.015
-588.923	47.461	-0.087	0.082
-587.909	-31.239	0.285	-0.163
-586.894	-51.948	0.191	-0.090
-585.879	-1.718	0.283	0.203
-584.865	-11.680	0.131	0.088
-583.850	-129.453	-0.203	-0.029
-582.836	-31.719	-0.361	-0.206
-581.821	800.000	-0.059	0.227
-580.806	-200.000	-0.004	0.097
-579.792	800.000	-0.088	0.259
-578.777	-99.811	-0.209	-0.053
-577.763	189.898	-0.114	0.173
-576.748	-200.000	-0.015	-0.142
-575.733	270.862	0.223	-0.399
-574.719	279.867	0.163	-0.296
-573.704	-43.754	0.253	0.129
-572.690	-16.710	-0.056	0.036
-571.675	56.176	0.086	0.085
-570.661	-200.000	-0.034	-0.163
-569.646	74.744	-0.117	0.125
-568.631	258.666	0.174	-0.305
-567.617	608.302	-0.102	-0.258
-566.602	92.025	-0.040	-0.046
-565.588	-48.276	-0.205	-0.100
-564.573	-96.431	-0.092	0.025
-563.558	-65.437	0.338	0.138
-562.544	-189.135	-0.181	-0.002
-561.529	800.000	0.110	0.449
-560.515	13.649	0.132	-0.104
-559.500	-73.662	-0.160	0.059
-558.485	-200.000	0.035	0.210
-557.471	-109.049	0.034	-0.007
-556.456	313.583	0.147	-0.280
-555.442	-42.776	0.166	0.086
-554.427	-119.919	0.292	-0.051
-553.412	-23.272	0.086	-0.052
-552.398	16.829	-0.200	0.161
-551.383	21.142	0.083	-0.068
-550.369	-91.856	0.112	-0.032
-549.354	800.000	0.033	0.131
-548.339	-200.000	0.006	0.117
-547.325	-39.015	-0.237	-0.126
-546.310	-15.548	0.065	-0.042
-545.296	-125.922	0.208	-0.032
-544.281	133.578	0.091	0.119
-543.266	216.384	0.110	0.177
-542.252	-113.056	-0.247	0.049
-541.237	465.900	0.072	-0.163
-540.223	-24.476	-0.124	0.075
-539.208	-135.431	0.313	-0.038
-538.193	-200.000	-0.045	0.224
-537.179	-140.609	-0.363	-0.038
-536.164	40.139	0.149	-0.136
-535.150	396.958	-0.082	-0.175
-534.135	-37.083	0.102	-0.055
-533.121	-132.939	-0.054	0.007
-532.106	-5.807	-0.126	0.087
-531.091	539.431	-0.179	0.433
-530.077	44.886	0.337	0.315
-529.062	391.291	-0.097	0.204
-528.048	-176.247	-0.278	-0.007
-527.033	113.789	0.171	0.211
-526.018	-200.000	0.004	-0.083
-525.004	-34.347	-0.205	0.114
-523.989	29.187	0.216	0.186
-522.975	-56.591	-0.094	0.042
-521.960	-200.000	0.007	0.145
-520.945	-200.000	-0.044	-0.421
-519.931	1.072	0.133	0.097
-518.916	-200.000	-0.019	0.118
-517.902	-84.752	0.102	-0.033
-516.887	-105.846	-0.089	0.020
-515.872	-200.000	-0.042	-0.233
-514.858	49.664	0.321	-0.306
-513.843	21.613	-0.231	-0.190
-512.829	488.793	0.060	-0.138
-511.814	-11.927	-0.297	0.198
-510.799	348.406	0.051	0.102
-509.785	-112.766	-0.071	-0.014
-508.770	-200.000	-0.034	-0.368
-507.756	800.000	0.047	-0.185
-506.741	-11.348	0.200	-0.133
-505.726	-80.474	-0.456	0.154
-504.712	-93.986	0.150	-0.042
-503.697	35.377	-0.057	0.051
-502.683	88.267	-0.046	0.052
-501.668	-15.354	-0.181	-0.117
-500.653	-125.493	0.012	0.002
-499.639	433.640	0.103	0.227
-498.624	-82.711	0.260	0.085
-497.610	-51.540	0.204	-0.097
-496.595	-200.000	-0.004	0.107
-495.581	-47.995	0.150	-0.074
-494.566	221.181	-0.239	0.389
-493.551	423.169	-0.063	0.137
-492.537	694.981	-0.045	0.119
-491.522	-53.322	0.250	-0.116
-490.508	123.265	0.123	0.156
-489.493	122.022	0.065	-0.082
-488.478	-20.557	0.239	-0.149
-487.464	-34.531	0.314	-0.174
-486.449	-73.010	0.057	0.021
-485.435	-40.453	-0.096	-0.051
-484.420	181.577	0.092	-0.137
-483.405	-148.514	0.062	-0.005
-482.391	-47.985	-0.309	-0.151
-481.376	-200.000	0.006	0.266
-480.362	-141.115	0.019	-0.002
-479.347	17.784	0.189	-0.152
-478.332	-46.288	-0.307	0.153
-477.318	677.839	0.024	-0.062
-476.303	-53.943	-0.084	-0.039
-475.289	21.076	-0.315	-0.259
-474.274	1.356	0.306	-0.223
-473.259	57.429	0.062	0.062
-472.245	42.459	0.238	-0.219
-471.230	75.796	-0.136	-0.146
-470.216	-200.000	0.003	-0.245
-469.201	-5.940	0.150	0.104
-468.186	317.406	0.043	-0.083
-467.172	88.294	-0.136	-0.153
-466.157	513.032	-0.119	-0.282
-465.143	-200.000	0.031	-0.269
-464.128	800.000	-0.060	0.211
-463.113	206.459	0.134	0.212
-462.099	-164.070	0.142	0.007
-461.084	4.650	0.083	-0.062
-460.070	676.183	0.051	-0.134
-459.055	-4.916	0.185	-0.129
-458.040	-107.650	-0.173	-0.038
-457.026	415.402	-0.009	-0.019
-456.011	-77.304	0.310	0.109
-454.997	-162.973	0.151	-0.007
-453.982	-200.000	0.036	-0.276
-452.968	523.303	0.031	-0.073
-451.953	-200.000	0.029	0.193
-450.938	-156.217	-0.166	0.011
-449.924	-59.926	-0.204	0.088
-448.909	433.511	0.134	-0.293
-447.895	-200.000	-0.000	0.058
-446.880	543.420	0.121	0.292
-445.865	67.709	-0.178	0.184
-444.851	-200.000	-0.003	-0.053
-443.836	618.667	-0.193	-0.490
-442.822	-200.000	-0.008	0.206
-441.807	-176.926	0.187	-0.005
-440.792	-200.000	0.006	0.084
-439.778	-42.300	0.111	0.057
-438.763	-81.355	-0.133	-0.044
-437.749	18.975	-0.273	0.221
-436.734	-17.199	-0.203	-0.129
-435.719	-28.606	0.311	-0.181
-434.705	800.000	0.175	-0.577
-433.690	-200.000	0.015	-0.111
-432.676	-117.628	0.170	0.031
-431.661	76.252	0.086	-0.092
-430.646	800.000	-0.039	0.152
-429.632	800.000	-0.084	0.302
-428.617	-63.571	-0.069	0.029
-427.603	-51.935	0.058	-0.027
-426.588	-41.251	-0.230	0.120
-425.573	184.595	-0.053	0.079
-424.559	-200.000	-0.003	-0.236
-423.544	-72.318	-0.194	-0.073
-422.530	149.015	-0.039	0.054
-421.515	753.661	0.070	-0.191
-420.500	676.086	0.046	0.121
-419.486	-200.000	0.001	-0.074
-418.471	140.333	-0.121	0.162
-417.457	68.722	-0.048	-0.050
-416.442	-48.176	0.110	-0.054
-415.428	800.000	-0.042	0.164
-414.413	-36.480	0.314	0.171
-413.398	-200.000	-0.033	0.325
-412.384	-17.866	0.102	-0.065
-411.369	-200.000	-0.047	-0.218
-410.355	557.607	-0.128	0.312
-409.340	800.000	-0.047	0.170
-408.325	147.381	-0.124	-0.169
-407.311	382.316	-0.066	0.137
-406.296	-23.188	0.352	-0.214
-405.282	-127.699	-0.157	-0.023
-404.267	469.846	0.172	-0.389
-403.252	33.587	-0.216	-0.190
-402.238	-32.174	0.195	-0.110
-401.223	-200.000	-0.022	-0.185
-400.209	-55.870	0.074	-0.033
-399.194	777.802	-0.019	-0.054
-398.179	339.866	-0.039	0.078
-397.165	214.158	-0.069	0.110
-396.150	-16.832	-0.244	0.156
-395.136	157.640	0.136	-0.190
-394.121	265.791	-0.042	0.074
-393.106	-7.001	-0.269	0.184
-392.092	-200.000	-0.007	0.031
-391.077	-44.179	-0.152	0.077
-390.063	-83.205	0.248	-0.081
-389.048	124.795	-0.148	0.187
-388.033	-200.000	-0.013	-0.124
-387.019	137.743	-0.060	-0.079
-386.004	60.938	-0.310	0.311
-384.990	-144.033	-0.263	0.025
-383.975	-200.000	0.034	0.407
-382.960	88.976	0.160	0.180
-381.946	-200.000	0.006	-0.143
-380.931	-200.000	-0.022	-0.138
-379.917	196.891	-0.103	0.158
-378.902	-159.162	-0.430	0.024
-377.888	-104.277	0.191	-0.045
-376.873	800.000	0.074	-0.313
-375.858	6.479	-0.176	0.132
-374.844	-92.839	0.120	0.034
-373.829	18.444	0.176	0.142
-372.815	22.690	-0.218	-0.180
-371.800	-186.985	-0.343	0.005
-370.785	81.307	0.202	0.220
-369.771	-200.000	-0.013	0.264
-368.756	-200.000	-0.011	-0.238
-367.742	275.202	-0.122	-0.217
-366.727	45.112	-0.111	-0.103
-365.712	54.561	-0.125	-0.121
-364.698	-200.000	-0.039	0.172
-363.683	-36.650	-0.209	0.113
-362.669	-5.880	-0.279	-0.193
-361.654	-4.844	-0.273	0.189
-360.639	96.929	0.153	0.177
-359.625	800.000	0.122	-0.347
-358.610	-200.000	0.001	-0.051
-357.596	-200.000	-0.009	0.070
-356.581	-65.852	0.062	-0.025
-355.566	34.368	0.250	0.220
-354.552	800.000	0.051	0.204
-353.537	-123.561	0.192	0.031
-352.523	74.989	0.163	0.173
-351.508	770.886	0.100	-0.276
-350.493	-92.686	-0.135	0.038
-349.479	-159.619	0.213	0.012
-348.464	36.736	0.207	0.184
-347.450	-200.000	-0.020	-0.186
-346.435	306.693	0.086	0.161
-345.420	-200.000	-0.035	0.237
-344.406	-70.359	-0.192	0.073
-343.391	-68.404	0.030	0.012
-342.377	183.059	-0.107	0.158
-341.362	345.285	0.042	-0.084
-340.348	-49.202	-0.036	-0.017
-339.333	-134.139	-0.163	-0.020
-338.318	35.698	-0.098	0.087
-337.304	800.000	0.038	-0.158
-336.289	-55.901	0.175	-0.079
-335.275	800.000	0.039	0.126
-334.260	-38.656	-0.226	-0.120
-333.245	-141.898	-0.509	-0.051
-332.231	104.638	0.074	-0.088
-331.216	306.805	0.112	0.210
-330.202	-60.039	0.242	-0.104
-329.187	800.000	-0.065	-0.220
-328.172	-110.550	0.541	-0.113
-327.158	-126.636	0.447	0.067
-326.143	68.451	-0.041	-0.043
-325.129	121.186	0.037	-0.046
-324.114	-0.541	0.336	0.240
-323.099	-200.000	-0.015	0.139
-322.085	-71.037	0.188	-0.071
-321.070	-153.132	0.262	-0.019
-320.056	-52.919	0.178	-0.082
-319.041	55.776	-0.191	-0.186
-318.026	-121.714	0.284	0.047
-317.012	67.166	0.053	0.054
-315.997	-45.047	0.245	-0.123
-314.983	-32.179	-0.193	-0.109
-313.968	-53.101	-0.184	-0.085
-312.953	-106.010	-0.101	-0.023
-311.939	575.734	-0.086	-0.212
-310.924	-128.019	-0.280	-0.040
-309.910	256.068	0.254	0.438
-308.895	-200.000	-0.019	0.313
-307.880	-200.000	-0.099	0.562
-306.866	39.159	-0.116	0.104
-305.851	-117.282	-0.197	-0.036
-304.837	77.530	-0.192	-0.206
-303.822	534.624	-0.064	0.153
-302.807	-200.000	-0.004	0.168
-301.793	56.105	-0.351	-0.343
-300.778	105.925	0.215	0.255
-299.764	-107.176	0.031	0.007
-298.749	-116.822	0.295	-0.054
-297.735	-200.000	-0.039	0.307
-296.720	603.347	-0.043	0.108
-295.705	5.017	0.297	0.220
-294.691	474.233	-0.101	-0.229
-293.676	-105.520	-0.200	0.046
-292.662	-55.181	-0.092	-0.041
-291.647	487.174	-0.007	0.015
-290.632	-123.067	-0.374	-0.060
-289.618	-174.502	-0.283	0.008
-288.603	-200.000	0.013	0.086
-287.589	-200.000	0.039	0.303
-286.574	-126.595	0.412	-0.061
-285.559	-88.628	-0.535	-0.160
-284.545	800.000	-0.039	-0.165
-283.530	-200.000	0.021	0.147
-282.516	-190.850	-0.381	0.004
-281.501	197.884	-0.222	-0.341
-280.486	800.000	0.087	0.267
-279.472	-33.578	0.075	0.042
-278.457	679.599	-0.102	-0.267
-277.443	-12.931	0.226	0.148
-276.428	58.554	-0.199	-0.197
-275.413	-99.811	0.396	0.100
-274.399	7.731	0.087	0.065
-273.384	-9.513	-0.295	0.197
-272.370	-200.000	-0.039	0.191
-271.355	-200.000	0.011	-0.097
-270.340	-200.000	0.026	0.151
-269.326	-13.158	-0.439	-0.286
-268.311	-8.830	-0.168	-0.113
-267.297	97.966	0.131	0.152
-266.282	-7.074	0.176	-0.120
-265.267	-100.655	0.066	0.016
-264.253	114.952	0.153	0.187
-263.238	199.716	0.124	0.191
-262.224	294.653	-0.073	0.135
-261.209	-121.590	0.271	0.045
-260.195	354.337	0.126	0.252
-259.180	21.572	-0.227	0.185
-258.165	296.069	-0.056	0.103
-257.151	-200.000	-0.032	-0.351
-256.136	-165.473	-0.190	0.008
-255.122	-72.770	-0.034	-0.013
-254.107	-84.642	0.091	-0.029
-253.092	318.386	0.088	-0.167
-252.078	38.944	-0.039	-0.035
-251.063	-97.094	0.304	-0.080
-250.049	369.707	0.050	-0.101
-249.034	-8.015	-0.097	0.066
-248.019	-200.000	0.016	0.205
-247.005	-64.221	-0.540	-0.221
-245.990	562.531	-0.228	-0.552
-244.976	800.000	-0.101	0.406
-243.961	153.437	0.052	-0.071
-242.946	-164.489	0.094	0.004
-241.932	-56.385	0.174	-0.078
-240.917	6.958	-0.076	-0.057
-239.903	144.704	0.081	-0.108
-238.888	800.000	-0.098	-0.343
-237.873	-117.064	0.146	-0.027
-236.859	418.315	0.064	0.136
-235.844	-88.371	0.260	-0.078
-234.830	38.055	-0.210	-0.187
-233.815	126.207	-0.071	0.090
-232.800	-200.000	0.001	-0.078
-231.786	-166.141	0.215	-0.009
-230.771	505.493	-0.036	-0.083
-229.757	-200.000	-0.027	0.177
-228.742	56.941	0.114	0.111
-227.727	11.744	-0.223	0.172
-226.713	80.433	0.280	-0.302
-225.698	-68.484	-0.271	-0.105
-224.684	152.778	0.027	-0.037
-223.669	800.000	0.079	0.227
-222.655	18.290	-0.226	-0.181
-221.640	-88.764	0.245	0.073
-220.625	171.922	0.085	0.123
-219.611	800.000	-0.015	-0.048
-218.596	-200.000	-0.004	-0.018
-217.582	-131.846	-0.253	-0.033
-216.567	364.960	-0.143	-0.288
-215.552	-117.505	0.444	-0.080
-214.538	-59.793	0.243	-0.104
-213.523	-95.443	0.121	-0.033
-212.509	-19.112	-0.082	0.051
-211.494	225.588	0.192	0.311
-210.479	-67.869	0.335	0.131
-209.465	-46.473	-0.136	0.067
-208.450	350.694	-0.099	0.196
-207.436	62.824	-0.141	-0.141
-206.421	-7.734	0.104	-0.071
-205.406	-63.400	-0.053	-0.022
-204.392	18.104	-0.142	-0.114
-203.377	-69.029	0.156	0.060
-202.363	65.406	0.231	-0.234
-201.348	78.041	0.152	-0.162
-200.333	6.539	0.199	0.148
-199.319	-13.427	-0.237	-0.154
-198.304	-88.650	-0.177	-0.053
-197.290	13.974	-0.271	0.211
-196.275	-48.228	0.085	-0.041
-195.260	800.000	-0.073	0.232
-194.246	-87.214	-0.104	0.032
-193.231	21.559	-0.382	0.311
-192.217	150.377	0.156	-0.211
-191.202	130.520	-0.017	0.022
-190.187	125.761	0.100	-0.127
-189.173	-87.933	0.183	-0.055
-188.158	-6.416	0.196	0.134
-187.144	-51.769	0.218	-0.102
-186.129	43.461	0.142	0.130
-185.114	136.380	-0.061	0.080
-184.100	-200.000	-0.039	0.300
-183.085	800.000	-0.072	-0.237
-182.071	-70.172	0.387	0.147
-181.056	231.699	0.092	0.152
-180.042	-154.473	-0.295	-0.020
-179.027	466.119	-0.099	-0.221
-178.012	181.099	-0.164	-0.241
-176.998	-31.532	-0.284	-0.159
-175.983	718.828	-0.040	-0.107
-174.969	-200.000	0.013	-0.121
-173.954	611.025	-0.045	0.111
-172.939	-39.579	0.230	0.120
-171.925	504.036	0.114	0.264
-170.910	-129.383	0.228	-0.032
-169.896	273.774	0.071	0.126
-168.881	800.000	0.085	0.249
-167.866	-122.746	-0.155	0.025
-166.852	99.294	0.206	0.239
-165.837	-9.882	-0.192	-0.128
-164.823	754.709	0.023	0.061
-163.808	-44.623	0.133	0.066
-162.793	-58.513	-0.323	-0.140
-161.779	800.000	0.042	-0.118
-160.764	-200.000	-0.023	-0.378
-159.750	-200.000	0.013	0.070
-158.735	-166.381	-0.172	-0.007
-157.720	-200.000	0.004	0.168
-156.706	-63.295	0.066	0.027
-155.691	-60.304	-0.172	0.073
-154.677	-49.394	0.334	0.159
-153.662	146.947	0.063	-0.085
-152.647	222.088	0.147	0.236
-151.633	160.808	0.048	-0.067
-150.618	-36.548	-0.267	-0.144
-149.604	95.061	-0.115	-0.131
-148.589	15.316	0.199	-0.156
-147.574	69.283	0.141	-0.145
-146.560	-198.738	-0.127	-0.001
-145.545	-114.651	-0.101	-0.019
-144.531	74.382	0.191	0.200
-143.516	686.940	0.035	-0.092
-142.502	800.000	-0.004	0.017
-141.487	800.000	-0.079	-0.240
-140.472	284.763	-0.077	-0.138
-139.458	-200.000	0.031	0.167
-138.443	-200.000	-0.000	-0.035
-137.429	-200.000	-0.014	-0.326
-136.414	-101.411	-0.218	0.053
-135.399	182.666	-0.133	-0.195
-134.385	-47.498	0.150	0.073
-133.370	9.509	0.448	-0.338
-132.356	800.000	0.066	0.191
-131.341	67.917	-0.150	0.154
-130.326	14.333	0.461	0.359
-129.312	114.830	0.174	-0.212
-128.297	-86.280	0.215	-0.066
-127.283	74.912	0.062	-0.065
-126.268	365.919	-0.066	0.132
-125.253	731.463	0.063	0.168
-124.239	-82.071	0.091	-0.030
-123.224	-30.029	-0.129	0.073
-122.210	-78.145	0.016	-0.005
-121.195	-99.560	0.168	-0.042
-120.180	-200.000	-0.007	0.316
