DTS Sentinel unit serial number:	SN413079Multiplexer serial number:	ORYXHardware model number:	OX4-SRSoftware version number:	ORYX F/W v4.00 Oryx Data Collector v3.7.2.0data status	okinstallation	princeton_trtdifferential loss correction	single-endedforward channel	channel 3reverse channel	N/Adate	2019/09/11time	05:58:10forward acquisition time	60.00reverse acquisition time	0.00gamma	496.2192k internal	0.2331k external	0.2331temperature offset calibration	0.9901default loss term (dB/km)	0.3790temperature slope calibration	1.0000multiplexer offset coefficient	1.0000multiplexer slope coefficient	1.0000fibre end	0.00T internal ref (°C)	29.44T ext. ref 1 (°C)	-0.23T ext. ref 2 (°C)	23.54length (m)	temperature (°C)	Stokes	anti-Stokes-747.200	191.740	-0.111	0.168
-746.185	-140.677	-0.398	-0.041
-745.171	-55.021	-0.231	-0.105
-744.156	67.031	0.102	0.104
-743.142	-130.363	0.145	-0.020
-742.127	-25.535	0.358	-0.213
-741.112	190.435	-0.291	0.439
-740.098	-18.332	-0.043	-0.027
-739.083	-153.293	0.234	-0.016
-738.069	-16.693	-0.121	0.077
-737.054	-31.484	0.120	-0.068
-736.039	-118.803	-0.554	-0.098
-735.025	-142.928	-0.288	-0.028
-734.010	-123.656	-0.195	0.031
-732.996	58.940	-0.188	-0.186
-731.981	-102.009	0.385	-0.093
-730.966	-104.368	-0.332	0.077
-729.952	665.063	0.043	-0.110
-728.937	-200.000	0.049	0.332
-727.923	202.887	-0.181	-0.282
-726.908	-160.326	-0.292	-0.016
-725.894	3.129	-0.084	-0.061
-724.879	-48.956	0.362	-0.175
-723.864	178.235	-0.131	-0.192
-722.850	-200.000	-0.024	0.196
-721.835	800.000	0.003	-0.012
-720.821	-102.708	0.333	-0.080
-719.806	154.551	-0.109	-0.150
-718.791	800.000	0.047	-0.172
-717.777	147.768	-0.135	-0.182
-716.762	800.000	0.007	0.029
-715.748	-27.182	-0.288	0.169
-714.733	-29.414	0.212	-0.122
-713.718	-31.224	0.056	0.031
-712.704	-200.000	-0.050	0.249
-711.689	685.863	0.038	0.101
-710.675	502.147	-0.182	0.422
-709.660	79.950	0.218	-0.235
-708.645	-141.292	0.358	-0.037
-707.631	152.499	0.048	-0.066
-706.616	-200.000	-0.000	-0.289
-705.602	92.704	0.103	0.117
-704.587	-154.165	-0.053	0.004
-703.572	295.025	-0.226	0.416
-702.558	30.612	-0.066	-0.057
-701.543	800.000	-0.091	0.386
-700.529	-4.451	0.216	-0.150
-699.514	722.055	-0.055	0.148
-698.499	229.905	0.123	-0.201
-697.485	-94.177	-0.128	0.035
-696.470	-169.554	0.157	-0.006
-695.456	-107.391	-0.460	-0.102
-694.441	79.692	-0.100	0.108
-693.426	-147.675	0.115	0.010
-692.412	-71.896	-0.371	-0.139
-691.397	-9.991	-0.133	0.089
-690.383	-88.024	-0.345	-0.104
-689.368	-41.506	0.212	-0.110
-688.354	258.309	-0.132	0.229
-687.339	410.175	-0.077	0.163
-686.324	511.169	-0.112	0.261
-685.310	800.000	-0.050	-0.209
-684.295	39.921	-0.436	0.393
-683.281	800.000	0.121	0.337
-682.266	-200.000	-0.004	-0.096
-681.251	800.000	-0.010	-0.039
-680.237	49.743	-0.194	-0.184
-679.222	88.084	-0.217	-0.242
-678.208	-11.515	0.236	0.156
-677.193	69.541	0.096	-0.099
-676.178	198.318	0.095	-0.146
-675.164	26.583	0.393	-0.330
-674.149	263.142	-0.100	-0.175
-673.135	253.624	-0.284	-0.487
-672.120	764.792	0.191	0.520
-671.105	-115.345	-0.062	0.012
-670.091	34.371	-0.167	0.146
-669.076	-99.596	-0.299	-0.075
-668.062	231.067	-0.080	0.132
-667.047	55.690	-0.333	0.324
-666.032	-200.000	0.056	-0.294
-665.018	-155.772	-0.115	-0.007
-664.003	-200.000	0.103	-0.515
-662.989	800.000	-0.078	0.260
-661.974	-177.319	-0.327	-0.008
-660.959	800.000	0.010	-0.039
-659.945	800.000	0.027	0.093
-658.930	-58.194	-0.053	0.023
-657.916	-74.413	-0.285	0.103
-656.901	-43.236	0.407	-0.207
-655.886	800.000	0.062	-0.215
-654.872	800.000	0.059	-0.238
-653.857	-9.247	0.172	-0.115
-652.843	0.719	-0.169	-0.121
-651.828	-21.220	0.082	0.050
-650.814	131.734	-0.144	0.185
-649.799	-200.000	0.008	-0.279
-648.784	44.114	-0.229	0.210
-647.770	-24.735	0.045	0.027
-646.755	149.591	0.181	0.245
-645.741	-200.000	0.003	-0.132
-644.726	163.450	-0.061	-0.086
-643.711	381.175	-0.147	-0.302
-642.697	152.338	-0.237	-0.324
-641.682	800.000	-0.145	0.408
-640.668	800.000	-0.050	0.152
-639.653	-200.000	0.017	-0.093
-638.638	-72.367	-0.356	0.132
-637.624	800.000	-0.064	0.204
-636.609	-200.000	-0.014	-0.152
-635.595	45.241	-0.347	-0.321
-634.580	-53.681	-0.105	-0.048
-633.565	60.092	-0.055	-0.054
-632.551	-200.000	0.004	-0.265
-631.536	-27.735	-0.237	0.138
-630.522	800.000	-0.102	0.305
-629.507	-163.485	0.070	0.003
-628.492	-62.061	0.171	-0.072
-627.478	60.397	-0.189	-0.187
-626.463	6.770	0.090	-0.067
-625.449	-152.346	-0.040	0.003
-624.434	-21.463	0.343	0.210
-623.419	-97.585	0.191	0.050
-622.405	28.363	0.143	-0.121
-621.390	97.052	0.201	0.231
-620.376	7.472	-0.166	0.124
-619.361	242.092	0.104	-0.175
-618.346	-173.554	0.307	0.009
-617.332	800.000	0.071	-0.206
-616.317	-104.537	0.172	0.040
-615.303	200.635	0.200	0.307
-614.288	-46.923	0.058	-0.028
-613.273	800.000	-0.041	-0.120
-612.259	-182.371	0.166	-0.003
-611.244	-200.000	0.002	-0.128
-610.230	-200.000	-0.057	0.263
-609.215	-27.192	-0.234	0.137
-608.201	20.491	-0.248	-0.201
-607.186	-200.000	-0.020	0.000
-606.171	704.891	0.076	0.200
-605.157	317.404	-0.206	-0.391
-604.142	329.755	-0.088	-0.169
-603.128	-167.995	-0.146	-0.006
-602.113	-200.000	-0.022	-0.218
-601.098	-122.627	0.222	-0.036
-600.084	609.667	0.047	0.119
-599.069	300.739	-0.036	0.066
-598.055	800.000	-0.025	0.105
-597.040	316.494	-0.087	-0.165
-596.025	-31.766	-0.310	0.174
-595.011	33.564	0.105	0.092
-593.996	-22.524	-0.064	-0.039
-592.982	800.000	0.056	-0.241
-591.967	168.548	0.146	0.208
-590.952	-200.000	-0.039	0.298
-589.938	-200.000	-0.002	-0.079
-588.923	76.298	0.116	0.122
-587.909	-49.285	-0.136	0.065
-586.894	18.539	0.276	-0.221
-585.879	53.874	0.101	0.097
-584.865	800.000	0.045	-0.168
-583.850	-18.490	-0.351	-0.219
-582.836	62.415	-0.104	0.104
-581.821	-15.955	-0.142	-0.090
-580.806	-200.000	-0.052	0.361
-579.792	-112.289	-0.135	0.027
-578.777	60.710	0.123	-0.122
-577.763	-101.556	-0.098	0.024
-576.748	-183.134	0.120	0.002
-575.733	-39.367	-0.076	0.040
-574.719	-127.019	-0.389	0.057
-573.704	581.707	-0.108	0.264
-572.690	-200.000	0.024	0.244
-571.675	81.246	-0.247	-0.267
-570.661	-200.000	0.010	0.209
-569.646	-182.409	-0.179	0.003
-568.631	52.738	-0.239	0.228
-567.617	104.586	0.067	-0.079
-566.602	-200.000	0.008	-0.176
-565.588	-200.000	0.024	-0.158
-564.573	-110.420	0.358	-0.074
-563.558	51.194	-0.262	0.248
-562.544	12.589	0.136	-0.105
-561.529	-200.000	-0.005	-0.104
-560.515	-64.908	-0.433	-0.175
-559.500	50.775	0.030	-0.029
-558.485	280.596	-0.178	0.319
-557.471	195.849	-0.080	-0.122
-556.456	164.764	0.051	-0.071
-555.442	49.036	0.277	-0.260
-554.427	-72.692	0.215	-0.079
-553.412	215.608	0.224	-0.356
-552.398	-93.285	0.212	-0.059
-551.383	210.306	0.140	0.220
-550.369	-200.000	-0.015	0.074
-549.354	312.299	-0.176	-0.330
-548.339	800.000	-0.033	-0.142
-547.325	761.885	-0.121	-0.328
-546.310	140.724	-0.102	0.134
-545.296	6.304	0.208	-0.154
-544.281	406.730	0.105	0.222
-543.266	-200.000	-0.043	0.473
-542.252	25.826	0.283	0.236
-541.237	-155.089	-0.240	-0.016
-540.223	-155.342	0.157	-0.010
-539.208	-0.902	0.198	0.140
-538.193	15.569	0.128	0.100
-537.179	307.557	-0.010	0.019
-536.164	-200.000	-0.002	-0.169
-535.150	120.098	-0.070	0.086
-534.135	9.148	0.129	-0.097
-533.121	-33.472	-0.139	-0.077
-532.106	-21.554	-0.124	-0.075
-531.091	6.914	0.036	0.026
-530.077	-26.836	0.158	-0.092
-529.062	57.553	-0.208	-0.203
-528.048	-200.000	0.056	-0.375
-527.033	-200.000	0.019	0.096
-526.018	-9.381	0.167	0.111
-525.004	-200.000	-0.009	-0.256
-523.989	152.172	-0.085	-0.115
-522.975	-70.630	0.130	-0.049
-521.960	422.803	0.055	0.119
-520.945	-112.352	0.280	0.056
-519.931	137.880	0.093	-0.121
-518.916	-181.645	-0.198	-0.004
-517.902	29.692	0.124	0.105
-516.887	409.126	-0.168	-0.354
-515.872	-67.699	-0.242	-0.094
-514.858	-200.000	0.004	0.057
-513.843	197.409	-0.154	-0.234
-512.829	-30.248	0.124	-0.070
-511.814	800.000	0.030	-0.130
-510.799	63.320	0.036	-0.036
-509.785	-80.895	0.489	-0.162
-508.770	800.000	-0.014	-0.045
-507.756	-200.000	-0.040	-0.329
-506.741	-28.496	0.158	0.091
-505.726	800.000	-0.031	-0.101
-504.712	621.433	-0.138	-0.345
-503.697	132.512	0.108	-0.139
-502.683	800.000	0.054	-0.177
-501.668	800.000	-0.024	0.075
-500.653	-177.899	0.352	-0.008
-499.639	-200.000	0.025	-0.256
-498.624	-22.383	0.285	0.172
-497.610	-23.542	-0.195	-0.117
-496.595	-200.000	-0.040	0.230
-495.581	-119.465	-0.309	0.053
-494.566	-104.013	0.178	0.041
-493.551	-77.215	-0.285	0.099
-492.537	-3.885	-0.171	-0.119
-491.522	800.000	0.055	-0.215
-490.508	-200.000	0.024	0.302
-489.493	-132.337	0.109	0.014
-488.478	-81.685	-0.181	-0.059
-487.464	-53.734	-0.218	0.099
-486.449	332.332	0.088	0.169
-485.435	52.567	0.287	0.273
-484.420	-140.104	0.058	-0.006
-483.405	52.058	0.097	-0.092
-482.391	-146.344	0.188	-0.016
-481.376	-82.010	-0.266	-0.087
-480.362	800.000	0.064	0.208
-479.347	-5.392	0.063	-0.043
-478.332	112.286	-0.089	-0.107
-477.318	-92.394	0.191	-0.054
-476.303	-7.498	-0.268	0.181
-475.289	277.082	0.173	0.307
-474.274	-66.017	-0.414	-0.165
-473.259	-200.000	-0.007	-0.033
-472.245	14.184	0.125	0.097
-471.230	-99.377	0.133	-0.033
-470.216	471.702	0.157	-0.352
-469.201	800.000	-0.074	-0.280
-468.186	83.181	0.116	0.125
-467.172	248.622	0.045	-0.076
-466.157	28.995	-0.290	0.245
-465.143	-110.590	-0.281	0.058
-464.128	-26.496	-0.148	-0.086
-463.113	-200.000	-0.003	0.173
-462.099	102.715	-0.056	-0.065
-461.084	-77.085	0.351	0.122
-460.070	362.095	0.061	0.122
-459.055	180.897	0.088	0.129
-458.040	-106.348	-0.179	0.040
-457.026	-131.266	-0.066	-0.009
-456.011	-103.534	0.154	-0.036
-454.997	-56.501	0.125	-0.055
-453.982	-55.366	-0.053	0.023
-452.968	-84.968	0.135	-0.042
-451.953	800.000	0.065	-0.194
-450.938	-200.000	0.024	0.130
-449.924	-200.000	0.017	0.082
-448.909	122.617	-0.139	0.173
-447.895	181.991	0.233	-0.342
-446.880	213.341	0.121	-0.190
-445.865	-119.283	0.007	0.001
-444.851	106.927	0.058	-0.068
-443.836	70.994	-0.067	0.069
-442.822	209.600	0.096	0.150
-441.807	800.000	0.034	0.141
-440.792	144.724	-0.104	-0.138
-439.778	-46.338	-0.291	0.142
-438.763	-69.615	-0.201	-0.076
-437.749	30.362	-0.400	0.339
-436.734	-122.783	-0.046	0.007
-435.719	434.791	-0.138	-0.299
-434.705	84.853	0.039	-0.043
-433.690	-51.028	0.145	0.068
-432.676	-200.000	0.026	0.171
-431.661	-200.000	-0.042	-0.248
-430.646	800.000	-0.027	0.116
-429.632	-73.056	-0.305	0.111
-428.617	800.000	0.040	-0.121
-427.603	-57.744	0.218	0.095
-426.588	113.937	0.090	-0.109
-425.573	-65.116	0.297	-0.119
-424.559	202.993	-0.137	-0.211
-423.544	-63.579	0.128	0.052
-422.530	-3.090	0.127	-0.088
-421.515	-57.595	-0.231	-0.101
-420.500	25.605	0.084	-0.070
-419.486	72.872	0.045	0.047
-418.471	-32.952	0.359	0.198
-417.457	-101.049	-0.409	0.100
-416.442	-200.000	0.008	0.103
-415.428	311.508	0.066	0.124
-414.413	84.535	0.150	0.163
-413.398	-48.294	0.257	-0.123
-412.384	283.086	-0.056	0.100
-411.369	145.533	-0.106	0.141
-410.355	-83.281	0.438	-0.140
-409.340	179.841	0.078	0.113
-408.325	-145.590	-0.274	-0.024
-407.311	125.977	-0.210	-0.264
-406.296	-101.221	-0.200	0.049
-405.282	43.528	-0.148	-0.134
-404.267	-84.840	0.219	-0.068
-403.252	174.968	0.031	0.044
-402.238	24.963	-0.190	-0.156
-401.223	19.966	-0.201	-0.161
-400.209	19.846	-0.155	0.124
-399.194	-200.000	-0.001	-0.097
-398.179	166.969	-0.234	-0.330
-397.165	800.000	-0.016	-0.055
-396.150	-46.077	-0.137	-0.067
-395.136	-142.055	-0.292	-0.029
-394.121	-200.000	-0.016	-0.161
-393.106	574.775	-0.066	-0.159
-392.092	101.445	0.184	-0.213
-391.077	-52.254	0.352	-0.162
-390.063	-105.282	0.177	-0.040
-389.048	-90.442	-0.165	-0.047
-388.033	800.000	0.081	0.250
-387.019	19.791	-0.176	-0.140
-386.004	-37.078	0.312	0.166
-384.990	238.053	0.110	0.182
-383.975	-78.534	-0.022	-0.008
-382.960	800.000	-0.113	0.341
-381.946	-110.372	-0.155	0.032
-380.931	-93.907	-0.306	0.083
-379.917	-200.000	-0.002	-0.252
-378.902	-146.508	0.146	0.013
-377.888	-57.599	-0.446	-0.194
-376.873	52.738	-0.118	0.112
-375.858	230.003	-0.088	0.143
-374.844	-200.000	-0.027	0.179
-373.829	-53.482	-0.043	-0.020
-372.815	-52.065	-0.141	0.065
-371.800	592.053	0.156	0.381
-370.785	135.331	-0.092	-0.119
-369.771	-90.285	0.213	-0.061
-368.756	19.090	0.098	0.078
-367.742	-200.000	-0.087	0.681
-366.727	87.095	-0.125	0.137
-365.712	800.000	0.027	0.087
-364.698	101.994	-0.087	0.100
-363.683	-25.162	0.267	-0.157
-362.669	-113.390	0.296	-0.057
-361.654	-154.954	0.179	-0.012
-360.639	800.000	0.043	-0.151
-359.625	800.000	-0.077	-0.230
-358.610	-200.000	-0.010	0.227
-357.596	-57.253	-0.171	0.075
-356.581	-10.333	0.074	0.049
-355.566	800.000	-0.114	-0.344
-354.552	33.410	0.172	0.148
-353.537	-99.012	0.290	-0.073
-352.523	336.790	-0.119	-0.229
-351.508	-156.603	-0.085	0.005
-350.493	-200.000	-0.012	-0.250
-349.479	-200.000	0.010	0.058
-348.464	-131.969	0.124	-0.016
-347.450	-36.327	0.054	0.029
-346.435	147.141	-0.216	0.288
-345.420	-11.245	0.068	-0.044
-344.406	359.838	0.044	0.087
-343.391	-63.977	-0.129	0.052
-342.377	10.960	-0.095	0.072
-341.362	-22.756	-0.397	0.237
-340.348	-120.734	0.066	0.011
-339.333	382.211	0.043	0.088
-338.318	-130.417	-0.131	0.018
-337.304	-200.000	0.060	-0.415
-336.289	-10.239	-0.282	-0.185
-335.275	-114.020	0.200	0.038
-334.260	142.731	-0.191	-0.251
-333.245	95.772	-0.252	-0.285
-332.231	656.544	0.028	0.071
-331.216	-107.226	0.142	0.031
-330.202	-101.182	0.100	-0.024
-329.187	389.157	-0.122	-0.251
-328.172	-200.000	0.010	-0.106
-327.158	70.497	0.269	0.275
-326.143	202.784	-0.152	0.232
-325.129	249.545	-0.209	0.351
-324.114	-200.000	-0.005	0.260
-323.099	-200.000	0.017	0.079
-322.085	124.349	-0.219	-0.273
-321.070	-137.809	-0.411	0.046
-320.056	281.129	0.029	0.051
-319.041	-200.000	0.001	-0.095
-318.026	287.804	0.159	-0.285
-317.012	-43.801	-0.226	-0.113
-315.997	800.000	-0.043	-0.184
-314.983	-81.759	-0.095	0.031
-313.968	-148.434	0.351	0.029
-312.953	-77.304	0.156	0.054
-311.939	800.000	0.091	0.250
-310.924	800.000	-0.029	0.084
-309.910	232.629	-0.092	0.150
-308.895	-200.000	0.027	-0.355
-307.880	77.341	-0.147	0.155
-306.866	19.507	0.053	0.042
-305.851	-97.480	-0.194	-0.050
-304.837	-200.000	0.032	-0.201
-303.822	-200.000	-0.003	0.199
-302.807	-145.337	0.159	-0.014
-301.793	323.485	-0.058	0.110
-300.778	417.097	0.101	0.214
-299.764	-113.301	-0.222	-0.043
-298.749	-17.905	-0.316	0.196
-297.735	-18.678	0.287	0.177
-296.720	-40.174	0.112	0.058
-295.705	297.452	0.074	0.135
-294.691	-200.000	0.018	0.094
-293.676	438.882	0.104	-0.225
-292.662	-200.000	-0.036	0.178
-291.647	-200.000	-0.010	0.457
-290.632	264.686	0.084	0.145
-289.618	352.002	-0.074	0.144
-288.603	-127.413	-0.419	0.060
-287.589	-200.000	0.032	-0.168
-286.574	-79.223	0.154	0.052
-285.559	-48.885	-0.142	0.067
-284.545	-200.000	-0.075	0.422
-283.530	-75.857	0.173	0.061
-282.516	48.299	-0.114	-0.105
-281.501	34.070	-0.159	-0.137
-280.486	-200.000	-0.027	-0.213
-279.472	-77.527	0.111	0.038
-278.457	-130.775	0.298	0.040
-277.443	-172.123	0.087	-0.003
-276.428	122.463	0.084	0.104
-275.413	355.151	0.048	0.095
-274.399	64.610	-0.188	-0.188
-273.384	-66.851	0.284	-0.111
-272.370	194.407	-0.186	0.278
-271.355	-14.847	0.154	-0.097
-270.340	-123.060	-0.057	-0.009
-269.326	-72.004	0.246	0.090
-268.311	-200.000	-0.032	-0.307
-267.297	152.095	0.118	-0.159
-266.282	-200.000	0.028	0.282
-265.267	342.010	0.144	-0.277
-264.253	80.555	0.059	0.062
-263.238	64.339	0.086	-0.086
-262.224	-200.000	-0.059	0.662
-261.209	63.787	-0.050	-0.050
-260.195	800.000	-0.047	-0.184
-259.180	-5.436	0.062	0.042
-258.165	-44.991	0.100	0.049
-257.151	713.870	0.101	-0.264
-256.136	-170.131	-0.222	0.008
-255.122	800.000	0.117	0.356
-254.107	205.713	0.084	-0.128
-253.092	94.426	0.020	-0.022
-252.078	-70.008	0.353	-0.133
-251.063	-159.743	0.348	-0.019
-250.049	-200.000	0.021	0.101
-249.034	57.373	-0.165	0.159
-248.019	-81.653	-0.354	0.115
-247.005	-200.000	-0.042	-0.268
-245.990	13.610	0.074	-0.057
-244.976	-154.567	0.269	0.018
-243.961	21.597	0.116	-0.093
-242.946	109.319	-0.127	-0.150
-241.932	-116.364	0.379	-0.069
-240.917	84.770	0.124	0.134
-239.903	-121.080	0.037	0.006
-238.888	-200.000	0.019	0.127
-237.873	80.482	-0.086	-0.092
-236.859	498.115	0.021	0.048
-235.844	-130.560	-0.280	0.037
-234.830	-71.071	0.102	0.038
-233.815	-40.995	-0.358	-0.183
-232.800	-41.528	0.357	0.181
-231.786	1.633	0.071	-0.051
-230.771	28.727	0.181	0.152
-229.757	133.822	-0.166	0.211
-228.742	220.767	0.116	0.183
-227.727	-200.000	-0.014	0.115
-226.713	-130.372	0.060	0.008
-225.698	800.000	0.030	-0.103
-224.684	43.136	-0.077	-0.069
-223.669	59.679	0.167	-0.162
-222.655	800.000	-0.069	0.288
-221.640	46.383	-0.175	0.160
-220.625	30.957	0.179	-0.151
-219.611	-168.299	-0.127	-0.005
-218.596	16.116	-0.206	0.160
-217.582	-0.467	-0.265	0.186
-216.567	-143.097	0.074	0.007
-215.552	-100.688	-0.107	0.026
-214.538	-132.160	-0.265	0.034
-213.523	192.485	0.003	-0.004
-212.509	-73.295	-0.056	-0.020
-211.494	-60.342	-0.147	-0.062
-210.479	-115.291	0.304	0.057
-209.465	664.333	-0.146	-0.371
-208.450	130.659	0.327	-0.413
-207.436	-200.000	-0.026	-0.145
-206.421	-200.000	0.024	-0.390
-205.406	-200.000	0.001	-0.214
-204.392	-41.213	0.203	0.103
-203.377	595.010	0.121	0.295
-202.363	83.658	-0.124	-0.133
-201.348	-10.280	0.115	-0.075
-200.333	222.300	0.101	-0.161
-199.319	-200.000	-0.004	0.279
-198.304	-155.615	0.513	0.033
-197.290	115.982	0.254	0.306
-196.275	-170.570	0.196	0.007
-195.260	93.966	0.237	0.265
-194.246	173.706	-0.230	0.327
-193.231	-104.586	-0.165	0.037
-192.217	-99.323	0.094	-0.023
-191.202	177.289	0.009	0.013
-190.187	64.459	-0.140	0.139
-189.173	556.895	0.049	0.115
-188.158	-16.252	0.158	0.099
-187.144	112.896	-0.094	0.112
-186.129	-47.341	-0.200	-0.096
-185.114	-101.406	0.216	-0.052
-184.100	-200.000	0.021	-0.290
-183.085	-182.584	-0.104	-0.002
-182.071	152.172	0.074	-0.100
-181.056	-200.000	0.066	0.284
-180.042	71.704	0.227	0.232
-179.027	53.664	0.090	-0.085
-178.012	383.271	-0.116	-0.236
-176.998	-191.662	0.187	0.002
-175.983	-157.453	-0.272	-0.016
-174.969	-4.594	-0.489	-0.333
-173.954	76.437	-0.017	0.018
-172.939	184.108	0.055	0.081
-171.925	-56.390	-0.214	0.094
-170.910	-112.694	0.207	-0.040
-169.896	800.000	0.025	0.090
-168.881	162.179	-0.064	-0.088
-167.866	-200.000	0.005	0.199
-166.852	-125.112	-0.199	-0.030
-165.837	240.597	-0.024	-0.039
-164.823	-200.000	0.004	-0.284
-163.808	-127.327	-0.191	0.027
-162.793	-69.389	0.531	0.201
-161.779	-34.634	-0.399	-0.215
-160.764	-200.000	-0.009	0.087
-159.750	181.111	-0.072	0.104
-158.735	-60.115	-0.344	0.144
-157.720	-111.408	0.407	-0.082
-156.706	122.223	-0.044	0.054
-155.691	15.304	0.305	0.236
-154.677	151.054	-0.071	0.095
-153.662	-200.000	0.088	-0.389
-152.647	-119.903	0.154	0.026
-151.633	-139.167	0.333	-0.035
-150.618	-200.000	0.034	0.410
-149.604	166.078	0.156	-0.217
-148.589	-118.652	0.211	-0.037
-147.574	32.466	0.222	-0.188
-146.560	46.966	0.231	0.212
-145.545	-200.000	-0.052	0.374
-144.531	-200.000	0.007	0.050
-143.516	-28.579	0.176	-0.100
-142.502	223.226	-0.046	0.074
-141.487	-163.957	0.403	0.018
-140.472	-100.923	-0.107	-0.026
-139.458	-154.113	-0.229	-0.015
-138.443	176.155	0.237	0.338
-137.429	158.518	-0.029	-0.039
-136.414	777.733	-0.149	-0.400
-135.399	726.608	-0.019	-0.049
-134.385	800.000	0.119	-0.325
-133.370	-196.853	0.075	0.000
-132.356	329.935	-0.137	-0.259
-131.341	-116.970	0.074	-0.013
-130.326	-60.381	0.071	0.030
-129.312	505.609	0.105	-0.238
-128.297	198.195	-0.118	-0.177
-127.283	215.742	0.072	-0.112
-126.268	800.000	0.029	0.079
-125.253	-177.648	-0.135	-0.003
-124.239	-200.000	0.000	0.220
-123.224	-76.477	-0.064	0.022
-122.210	-72.275	-0.026	-0.009
-121.195	205.646	0.045	-0.069
