DTS Sentinel unit serial number:	SN413079Multiplexer serial number:	ORYXHardware model number:	OX4-SRSoftware version number:	ORYX F/W v4.00 Oryx Data Collector v3.7.2.0data status	okinstallation	princeton_trtdifferential loss correction	single-endedforward channel	channel 3reverse channel	N/Adate	2019/09/16time	20:36:35forward acquisition time	60.00reverse acquisition time	0.00gamma	496.2192k internal	0.2323k external	0.2323temperature offset calibration	0.9940default loss term (dB/km)	0.3790temperature slope calibration	1.0000multiplexer offset coefficient	1.0000multiplexer slope coefficient	1.0000fibre end	0.00T internal ref (°C)	32.50T ext. ref 1 (°C)	0.05T ext. ref 2 (°C)	26.37length (m)	temperature (°C)	Stokes	anti-Stokes-747.200	-156.222	0.117	-0.007
-746.185	139.557	-0.153	0.203
-745.171	100.410	0.162	0.189
-744.156	-200.000	-0.050	0.258
-743.142	-200.000	0.009	0.174
-742.127	-125.732	-0.238	-0.036
-741.112	282.123	0.081	-0.147
-740.098	-114.464	-0.254	0.049
-739.083	-27.623	-0.208	0.122
-738.069	-77.917	-0.460	0.160
-737.054	378.598	0.161	0.332
-736.039	-11.408	-0.319	0.212
-735.025	800.000	0.029	-0.127
-734.010	27.797	-0.361	0.307
-732.996	237.308	-0.089	0.149
-731.981	239.150	0.147	-0.247
-730.966	335.415	-0.062	-0.122
-729.952	28.472	-0.409	-0.349
-728.937	38.378	-0.198	-0.178
-727.923	-20.153	-0.192	0.119
-726.908	-92.579	0.031	0.009
-725.894	-200.000	-0.029	-0.182
-724.879	-6.280	0.078	-0.053
-723.864	51.256	0.121	-0.116
-722.850	-96.277	-0.282	0.075
-721.835	189.964	-0.165	-0.249
-720.821	-97.883	-0.142	-0.037
-719.806	42.275	0.157	-0.144
-718.791	-200.000	0.070	-0.313
-717.777	44.425	-0.229	0.212
-716.762	308.589	0.118	0.222
-715.748	800.000	0.066	0.274
-714.733	-8.508	-0.277	0.187
-713.718	310.660	0.188	0.355
-712.704	2.031	0.182	0.133
-711.689	-159.655	-0.134	-0.007
-710.675	1.682	0.091	0.066
-709.660	-10.202	-0.355	-0.238
-708.645	-35.628	-0.172	-0.094
-707.631	-4.113	0.286	0.200
-706.616	-55.862	-0.175	0.079
-705.602	210.738	-0.115	0.182
-704.587	159.434	0.106	-0.149
-703.572	-13.541	0.332	-0.217
-702.558	56.908	-0.084	0.083
-701.543	-84.078	0.127	-0.041
-700.529	-200.000	-0.026	0.258
-699.514	-69.246	0.134	-0.052
-698.499	-141.403	-0.201	-0.021
-697.485	-111.187	0.188	-0.039
-696.470	38.707	-0.195	-0.176
-695.456	-75.610	-0.215	0.077
-694.441	100.557	-0.091	0.107
-693.426	533.759	0.108	0.259
-692.412	-78.976	-0.209	0.072
-691.397	605.519	-0.070	0.175
-690.383	-12.076	-0.135	0.089
-689.368	342.057	0.060	0.119
-688.354	-200.000	0.005	-0.033
-687.339	-110.706	0.179	-0.037
-686.324	-39.669	-0.089	0.047
-685.310	385.307	-0.050	0.105
-684.295	800.000	-0.059	0.260
-683.281	483.457	0.102	-0.233
-682.266	-200.000	0.006	-0.086
-681.251	461.746	0.128	0.286
-680.237	-200.000	-0.009	0.159
-679.222	420.799	-0.085	-0.183
-678.208	-49.223	-0.049	0.024
-677.193	-67.831	-0.083	-0.033
-676.178	-75.055	0.328	-0.118
-675.164	-155.628	-0.167	0.011
-674.149	-73.194	-0.212	-0.078
-673.135	800.000	-0.069	-0.221
-672.120	60.669	-0.073	0.073
-671.105	44.344	-0.077	0.072
-670.091	352.622	-0.150	0.299
-669.076	184.852	-0.229	-0.342
-668.062	-200.000	-0.014	-0.084
-667.047	-80.720	-0.290	0.097
-666.032	102.288	0.169	0.198
-665.018	800.000	0.076	-0.265
-664.003	-23.917	-0.159	-0.096
-662.989	460.003	-0.105	-0.235
-661.974	176.058	-0.145	0.212
-660.959	66.685	0.300	-0.307
-659.945	-131.993	0.149	0.020
-658.930	-56.909	0.151	0.067
-657.916	-200.000	0.017	0.193
-656.901	-9.765	-0.368	-0.246
-655.886	-53.185	0.253	-0.117
-654.872	330.166	-0.132	-0.255
-653.857	14.419	-0.408	-0.320
-652.843	-200.000	-0.013	-0.074
-651.828	206.002	-0.178	-0.279
-650.814	-200.000	-0.016	-0.144
-649.799	-78.532	0.239	0.082
-648.784	-122.000	-0.042	-0.007
-647.770	-104.778	0.105	-0.024
-646.755	-95.149	-0.213	0.058
-645.741	158.372	0.048	-0.066
-644.726	-110.287	-0.112	-0.023
-643.711	148.550	0.174	0.237
-642.697	-34.044	-0.094	0.052
-641.682	-135.900	-0.027	-0.003
-640.668	-97.355	0.076	-0.020
-639.653	-170.308	-0.250	0.009
-638.638	66.364	-0.063	-0.064
-637.624	-62.982	0.419	-0.174
-636.609	473.404	-0.161	-0.366
-635.595	-200.000	0.005	0.027
-634.580	-74.063	-0.130	-0.048
-633.565	-1.074	-0.212	-0.151
-632.551	95.530	-0.069	0.079
-631.536	-19.431	-0.032	0.020
-630.522	-200.000	0.004	0.361
-629.507	-24.346	-0.191	-0.114
-628.492	-33.837	0.274	0.152
-627.478	182.352	0.009	0.014
-626.463	-158.627	-0.119	-0.007
-625.449	-200.000	-0.017	-0.154
-624.434	-131.852	-0.105	-0.014
-623.419	-84.480	0.276	0.088
-622.405	800.000	-0.081	-0.271
-621.390	1.103	-0.216	0.156
-620.376	800.000	0.073	0.212
-619.361	800.000	0.042	-0.163
-618.346	138.047	0.132	-0.173
-617.332	800.000	0.025	0.091
-616.317	-90.303	-0.361	0.105
-615.303	293.456	0.115	-0.211
-614.288	800.000	-0.017	-0.053
-613.273	-121.727	0.095	0.016
-612.259	-200.000	-0.025	-0.154
-611.244	-200.000	0.036	-0.356
-610.230	-200.000	0.006	-0.072
-609.215	-94.866	-0.626	-0.170
-608.201	223.293	0.179	0.290
-607.186	411.530	0.136	0.291
-606.171	-41.414	-0.114	0.059
-605.157	15.315	0.154	0.121
-604.142	535.296	0.074	0.176
-603.128	9.515	0.230	-0.175
-602.113	-75.898	0.388	-0.138
-601.098	78.403	0.148	0.159
-600.084	-94.502	0.222	0.061
-599.069	20.480	0.052	-0.042
-598.055	800.000	-0.067	-0.283
-597.040	-200.000	-0.026	-0.158
-596.025	218.987	-0.241	-0.386
-595.011	-120.388	-0.061	0.010
-593.996	11.495	-0.118	-0.091
-592.982	14.768	0.144	0.113
-591.967	-106.781	0.098	0.022
-590.952	-46.588	0.156	-0.077
-589.938	-200.000	0.068	0.363
-588.923	30.530	0.073	0.062
-587.909	125.604	-0.148	-0.187
-586.894	638.455	0.147	-0.374
-585.879	800.000	0.100	0.286
-584.865	-53.107	-0.299	-0.138
-583.850	-200.000	-0.011	0.074
-582.836	32.366	-0.252	0.218
-581.821	-200.000	-0.018	-0.342
-580.806	-37.262	0.256	-0.137
-579.792	111.871	0.138	-0.168
-578.777	-58.459	0.311	-0.136
-577.763	-90.154	0.125	0.037
-576.748	97.410	-0.117	-0.134
-575.733	256.502	0.105	-0.181
-574.719	-139.417	0.181	-0.019
-573.704	-83.047	-0.069	-0.022
-572.690	-18.403	-0.114	0.071
-571.675	-165.117	0.082	0.004
-570.661	-59.384	0.066	-0.029
-569.646	-129.749	-0.276	0.038
-568.631	-200.000	0.031	-0.496
-567.617	-81.168	0.272	0.090
-566.602	-24.940	-0.101	-0.060
-565.588	-26.564	0.320	0.188
-564.573	85.160	-0.067	0.073
-563.558	82.197	-0.159	0.173
-562.544	-34.748	-0.063	0.034
-561.529	27.675	-0.060	0.051
-560.515	-35.853	-0.196	0.106
-559.500	-44.920	0.146	-0.073
-558.485	-55.225	-0.134	0.060
-557.471	-200.000	-0.055	0.330
-556.456	-150.893	0.183	0.014
-555.442	800.000	-0.046	0.134
-554.427	693.948	0.031	0.082
-553.412	117.546	0.240	0.296
-552.398	158.449	0.123	0.171
-551.383	-150.552	-0.146	-0.011
-550.369	150.287	-0.020	-0.027
-549.354	-200.000	-0.007	0.174
-548.339	166.999	-0.186	0.265
-547.325	-148.063	-0.503	0.042
-546.310	-71.324	0.154	-0.058
-545.296	161.655	-0.093	0.131
-544.281	-77.657	0.245	0.085
-543.266	662.561	-0.090	-0.233
-542.252	-50.539	-0.055	0.026
-541.237	800.000	-0.087	0.303
-540.223	-33.073	-0.185	-0.103
-539.208	116.624	-0.142	0.174
-538.193	-135.780	0.240	0.028
-537.179	-168.331	0.422	0.016
-536.164	145.474	-0.181	0.242
-535.150	-61.238	-0.095	-0.040
-534.135	-82.781	0.233	0.076
-533.121	800.000	-0.030	-0.110
-532.106	-19.901	0.261	0.161
-531.091	29.444	-0.158	0.134
-530.077	-115.694	-0.148	-0.028
-529.062	8.492	-0.035	0.026
-528.048	-188.341	0.149	0.002
-527.033	800.000	-0.061	0.179
-526.018	-90.775	0.256	0.074
-525.004	74.260	-0.144	-0.152
-523.989	10.969	-0.112	-0.086
-522.975	800.000	0.008	0.025
-521.960	-200.000	-0.001	0.026
-520.945	-200.000	0.021	-0.151
-519.931	23.980	0.283	0.233
-518.916	800.000	-0.104	0.325
-517.902	257.402	-0.297	0.511
-516.887	-200.000	-0.017	-0.365
-515.872	-200.000	-0.017	-0.154
-514.858	87.873	0.114	0.126
-513.843	-23.158	-0.040	-0.024
-512.829	-34.691	-0.215	0.118
-511.814	123.768	-0.223	-0.281
-510.799	-7.806	-0.186	-0.125
-509.785	-0.731	-0.283	-0.201
-508.770	-78.986	-0.069	-0.023
-507.756	230.298	-0.040	0.065
-506.741	-163.755	0.258	0.012
-505.726	119.376	0.067	0.083
-504.712	346.554	-0.165	0.325
-503.697	318.992	0.099	0.188
-502.683	-115.958	0.276	0.052
-501.668	-6.641	0.147	-0.100
-500.653	-151.455	0.472	-0.035
-499.639	450.376	0.025	-0.055
-498.624	128.596	-0.214	0.273
-497.610	-15.709	0.273	0.174
-496.595	312.918	-0.153	-0.288
-495.581	-85.208	-0.138	-0.043
-494.566	800.000	0.126	0.484
-493.551	-59.067	-0.246	0.106
-492.537	-200.000	-0.011	0.344
-491.522	-52.447	0.091	0.042
-490.508	-200.000	-0.013	0.355
-489.493	-44.774	0.094	-0.047
-488.478	-85.733	-0.201	0.062
-487.464	303.968	0.183	-0.339
-486.449	-103.288	0.087	0.021
-485.435	-60.862	-0.151	-0.064
-484.420	508.698	0.054	-0.125
-483.405	-56.625	0.077	-0.034
-482.391	0.903	0.029	0.021
-481.376	-106.971	0.235	0.052
-480.362	49.201	-0.129	-0.121
-479.347	345.553	0.068	0.134
-478.332	-59.333	-0.292	0.126
-477.318	-200.000	0.016	0.104
-476.303	-126.107	0.270	-0.041
-475.289	63.631	-0.090	0.090
-474.274	-200.000	-0.007	0.163
-473.259	-200.000	0.033	-0.167
-472.245	-155.226	0.422	-0.027
-471.230	-89.553	-0.269	0.079
-470.216	-200.000	-0.008	0.240
-469.201	-24.037	-0.091	-0.054
-468.186	-200.000	0.026	-0.157
-467.172	7.175	-0.212	0.158
-466.157	-73.169	-0.470	0.172
-465.143	248.611	-0.021	0.036
-464.128	-156.846	0.260	0.016
-463.113	-200.000	0.016	0.398
-462.099	800.000	0.082	0.264
-461.084	-95.595	-0.686	-0.183
-460.070	800.000	0.132	-0.375
-459.055	-200.000	0.014	0.180
-458.040	-200.000	0.053	-0.343
-457.026	256.247	0.206	-0.352
-456.011	141.314	0.120	-0.158
-454.997	-54.547	0.186	-0.084
-453.982	-108.059	0.042	0.009
-452.968	-33.051	-0.037	-0.021
-451.953	528.822	0.029	-0.068
-450.938	499.342	-0.075	0.173
-449.924	-0.985	0.253	-0.179
-448.909	-127.476	-0.390	0.057
-447.895	-88.570	-0.158	-0.047
-446.880	-194.069	0.222	-0.002
-445.865	-192.450	-0.085	-0.001
-444.851	-200.000	-0.020	-0.165
-443.836	-37.518	-0.139	-0.074
-442.822	-200.000	-0.013	-0.165
-441.807	-98.080	0.196	-0.050
-440.792	52.710	0.120	0.114
-439.778	-92.412	0.298	0.084
-438.763	-76.603	-0.581	-0.204
-437.749	-22.383	0.022	-0.013
-436.734	50.569	-0.088	-0.083
-435.719	448.525	-0.008	0.019
-434.705	-200.000	-0.076	0.511
-433.690	-11.157	0.047	0.031
-432.676	-200.000	-0.031	0.273
-431.661	-200.000	-0.024	0.110
-430.646	153.084	-0.244	0.333
-429.632	78.415	0.056	-0.059
-428.617	-200.000	-0.015	-0.156
-427.603	-200.000	-0.069	-0.307
-426.588	800.000	0.043	0.187
-425.573	-92.870	-0.192	-0.053
-424.559	800.000	-0.060	0.223
-423.544	800.000	0.071	-0.258
-422.530	577.530	-0.017	0.042
-421.515	800.000	0.061	-0.175
-420.500	-58.385	0.296	-0.128
-419.486	-86.588	-0.168	-0.051
-418.471	-50.341	-0.334	0.157
-417.457	-12.721	0.204	0.133
-416.442	1.757	0.078	-0.056
-415.428	800.000	-0.057	0.195
-414.413	-45.798	-0.197	-0.097
-413.398	54.706	0.077	0.074
-412.384	-159.821	0.232	0.013
-411.369	767.257	-0.096	-0.261
-410.355	-108.629	-0.506	-0.108
-409.340	-138.512	-0.136	0.015
-408.325	-54.205	-0.085	-0.038
-407.311	800.000	-0.129	-0.403
-406.296	-129.736	0.143	-0.020
-405.282	-71.701	-0.139	-0.052
-404.267	-143.672	-0.370	0.035
-403.252	-19.970	0.325	0.200
-402.238	800.000	0.053	-0.173
-401.223	64.995	0.258	0.260
-400.209	666.929	-0.129	0.333
-399.194	-91.821	-0.166	0.047
-398.179	800.000	0.068	0.242
-397.165	-12.974	-0.198	0.128
-396.150	-0.410	-0.236	-0.167
-395.136	80.068	-0.303	-0.325
-394.121	-78.315	-0.316	0.108
-393.106	-45.647	-0.070	0.034
-392.092	-15.538	0.117	0.075
-391.077	800.000	-0.049	0.159
-390.063	100.891	-0.106	-0.122
-389.048	-200.000	-0.024	0.111
-388.033	-200.000	-0.005	0.340
-387.019	23.661	0.102	-0.084
-386.004	-200.000	0.003	0.219
-384.990	-96.742	-0.219	-0.057
-383.975	-140.936	0.442	0.045
-382.960	58.242	0.126	-0.123
-381.946	-36.189	0.356	0.191
-380.931	-132.661	-0.699	-0.089
-379.917	-200.000	0.018	0.178
-378.902	-152.972	0.291	0.020
-377.888	-200.000	0.040	0.194
-376.873	-200.000	-0.010	-0.186
-375.858	-8.236	-0.359	-0.241
-374.844	-33.903	0.103	-0.057
-373.829	-24.977	0.177	-0.105
-372.815	-119.794	-0.148	0.025
-371.800	-77.211	0.255	0.088
-370.785	31.168	0.230	-0.196
-369.771	138.435	-0.067	-0.087
-368.756	-200.000	0.017	0.138
-367.742	-200.000	0.091	-0.422
-366.727	-43.868	-0.138	0.069
-365.712	-168.793	-0.120	-0.004
-364.698	-29.282	0.096	0.055
-363.683	371.923	-0.081	-0.163
-362.669	-200.000	0.016	-0.145
-361.654	-200.000	-0.039	0.196
-360.639	-200.000	0.048	0.226
-359.625	275.977	0.149	0.263
-358.610	295.051	-0.077	-0.139
-357.596	195.142	-0.058	0.087
-356.581	-111.161	-0.132	0.027
-355.566	-51.593	0.364	-0.169
-354.552	-70.224	0.155	-0.058
-353.537	800.000	0.034	0.114
-352.523	-55.697	-0.165	0.073
-351.508	-123.128	-0.182	-0.029
-350.493	-200.000	-0.023	0.294
-349.479	41.548	-0.074	0.067
-348.464	-200.000	-0.026	-0.291
-347.450	-79.289	0.108	-0.036
-346.435	-200.000	0.021	-0.269
-345.420	-32.318	-0.017	0.009
-344.406	201.081	0.060	0.091
-343.391	89.681	-0.188	-0.208
-342.377	-141.406	-0.131	0.013
-341.362	12.376	0.280	0.215
-340.348	44.422	-0.035	0.032
-339.333	609.446	0.207	-0.515
-338.318	75.326	0.044	-0.047
-337.304	-200.000	-0.008	0.166
-336.289	139.796	0.188	-0.246
-335.275	-63.917	-0.498	0.203
-334.260	160.727	0.124	-0.172
-333.245	94.016	-0.090	0.101
-332.231	153.167	0.195	0.265
-331.216	108.273	-0.173	-0.205
-330.202	76.840	0.253	0.266
-329.187	7.195	0.086	0.064
-328.172	228.667	0.214	-0.346
-327.158	-167.115	0.208	0.008
-326.143	-200.000	-0.022	0.152
-325.129	800.000	0.014	-0.059
-324.114	-41.642	0.078	-0.040
-323.099	716.113	0.083	0.220
-322.085	10.511	0.115	-0.087
-321.070	-71.000	0.211	0.079
-320.056	400.536	0.090	-0.188
-319.041	368.619	-0.140	-0.281
-318.026	81.040	-0.174	0.187
-317.012	166.198	0.104	-0.146
-315.997	80.831	0.099	-0.106
-314.983	203.520	0.163	0.251
-313.968	-200.000	-0.031	0.310
-312.953	800.000	0.011	-0.038
-311.939	-64.455	-0.059	0.024
-310.924	800.000	-0.047	-0.203
-309.910	-49.617	-0.070	0.033
-308.895	800.000	-0.098	-0.331
-307.880	-200.000	-0.003	-0.255
-306.866	123.402	0.072	-0.090
-305.851	138.486	0.225	-0.293
-304.837	297.153	-0.046	0.083
-303.822	419.995	-0.190	-0.404
-302.807	-76.696	-0.168	-0.058
-301.793	283.258	-0.065	0.115
-300.778	114.691	-0.111	-0.134
-299.764	-200.000	-0.029	-0.313
-298.749	-107.768	0.151	-0.033
-297.735	152.318	0.119	0.161
-296.720	-162.080	0.322	-0.016
-295.705	90.263	0.192	0.213
-294.691	128.186	-0.112	0.142
-293.676	-46.481	0.131	-0.064
-292.662	-200.000	0.026	0.182
-291.647	800.000	0.059	0.239
-290.632	-200.000	-0.014	-0.196
-289.618	192.855	-0.211	0.316
-288.603	-144.650	-0.342	0.031
-287.589	40.944	0.089	-0.079
-286.574	154.954	0.005	-0.007
-285.559	-64.440	0.056	-0.023
-284.545	-95.248	0.111	-0.030
-283.530	126.074	-0.077	0.097
-282.516	-63.447	0.135	-0.055
-281.501	-144.650	-0.063	0.006
-280.486	-143.864	0.016	-0.002
-279.472	106.572	-0.267	0.314
-278.457	-120.398	-0.172	-0.029
-277.443	-72.832	-0.064	0.023
-276.428	800.000	0.118	0.413
-275.413	-10.751	0.247	-0.162
-274.399	-200.000	0.008	-0.146
-273.384	-200.000	0.006	-0.074
-272.370	-200.000	-0.012	-0.334
-271.355	348.645	-0.080	-0.156
-270.340	46.315	0.142	-0.131
-269.326	-27.157	0.133	0.077
-268.311	-90.707	-0.301	-0.086
-267.297	177.791	0.085	-0.122
-266.282	-47.692	0.156	-0.075
-265.267	241.560	0.082	-0.136
-264.253	185.449	-0.246	-0.363
-263.238	146.036	-0.032	0.042
-262.224	-173.415	-0.226	0.007
-261.209	141.135	-0.127	0.167
-260.195	-64.709	0.404	0.162
-259.180	283.413	0.140	-0.249
-258.165	-51.339	-0.288	-0.134
-257.151	-200.000	-0.020	0.245
-256.136	112.627	0.245	0.294
-255.122	-60.259	-0.082	0.035
-254.107	-200.000	0.003	0.100
-253.092	800.000	0.027	-0.110
-252.078	16.937	0.190	-0.149
-251.063	163.184	-0.053	-0.073
-250.049	-200.000	-0.007	0.035
-249.034	-52.500	0.136	-0.062
-248.019	212.382	-0.226	-0.352
-247.005	585.441	-0.064	0.156
-245.990	117.612	-0.208	0.254
-244.976	53.798	-0.062	0.059
-243.961	-200.000	0.000	-0.228
-242.946	-200.000	0.005	-0.180
-241.932	239.138	0.055	0.090
-240.917	35.955	-0.202	0.176
-239.903	119.216	0.058	0.071
-238.888	-164.229	-0.112	-0.005
-237.873	-92.084	0.108	0.030
-236.859	238.251	-0.056	-0.092
-235.844	-146.173	0.173	-0.015
-234.830	-200.000	-0.045	0.209
-233.815	-200.000	-0.029	-0.138
-232.800	465.789	0.114	0.253
-231.786	444.215	-0.081	0.175
-230.771	318.412	0.085	-0.160
-229.757	282.784	-0.067	0.120
-228.742	15.657	0.095	0.074
-227.727	-107.268	0.153	-0.033
-226.713	94.251	-0.056	0.063
-225.698	-4.891	-0.415	-0.283
-224.684	310.490	0.071	-0.131
-223.669	-104.918	-0.110	0.025
-222.655	-195.002	-0.072	0.001
-221.640	-200.000	-0.052	0.372
-220.625	-33.097	-0.190	0.104
-219.611	-200.000	-0.036	0.210
-218.596	-200.000	-0.016	-0.137
-217.582	347.143	0.223	-0.435
-216.567	800.000	0.022	-0.090
-215.552	529.772	-0.071	0.165
-214.538	-11.400	0.130	0.085
-213.523	-46.834	-0.038	0.018
-212.509	-8.701	0.297	-0.197
-211.494	9.151	-0.052	-0.039
-210.479	88.839	0.249	0.274
-209.465	800.000	0.172	-0.516
-208.450	-35.022	0.190	0.103
-207.436	311.475	0.094	0.175
-206.421	-147.944	-0.235	-0.019
-205.406	-180.280	-0.170	0.004
-204.392	-200.000	0.024	-0.202
-203.377	35.437	-0.094	0.082
-202.363	-10.273	0.219	0.143
-201.348	348.377	-0.050	-0.098
-200.333	-64.868	0.282	0.113
-199.319	-59.339	0.022	-0.010
-198.304	800.000	0.025	-0.105
-197.290	36.077	-0.155	-0.135
-196.275	184.197	-0.055	0.080
-195.260	74.936	0.158	0.164
-194.246	-79.986	-0.228	-0.076
-193.231	-148.022	-0.299	0.025
-192.217	-76.669	-0.210	-0.073
-191.202	-200.000	-0.033	0.212
-190.187	-200.000	0.046	-0.238
-189.173	64.983	0.107	0.107
-188.158	-200.000	-0.010	-0.077
-187.144	-43.799	0.076	-0.038
-186.129	181.919	0.286	-0.417
-185.114	84.788	0.072	-0.078
-184.100	66.375	-0.100	0.101
-183.085	-200.000	-0.016	0.137
-182.071	24.689	-0.061	-0.050
-181.056	800.000	0.127	-0.350
-180.042	122.851	0.102	0.126
-179.027	-102.056	0.084	-0.020
-178.012	800.000	0.040	-0.159
-176.998	-104.467	0.449	-0.103
-175.983	172.931	0.169	-0.241
-174.969	-21.740	0.175	0.105
-173.954	127.264	0.102	-0.128
-172.939	-123.484	0.127	0.020
-171.925	-53.132	0.172	0.078
-170.910	30.590	-0.058	0.049
-169.896	250.898	0.201	-0.337
-168.881	800.000	-0.031	0.085
-167.866	35.625	-0.168	0.146
-166.852	165.599	0.095	0.133
-165.837	-152.199	-0.575	-0.041
-164.823	200.155	0.116	-0.176
-163.808	-200.000	0.011	0.051
-162.793	800.000	-0.062	-0.246
-161.779	302.373	0.094	0.171
-160.764	-92.337	0.089	-0.025
-159.750	24.148	-0.024	-0.019
-158.735	-10.245	-0.132	0.087
-157.720	-52.210	-0.225	-0.103
-156.706	366.569	0.128	-0.256
-155.691	-95.554	-0.351	-0.093
-154.677	602.002	-0.055	0.135
-153.662	319.442	0.099	0.185
-152.647	-66.593	0.044	0.017
-151.633	98.980	-0.150	0.170
-150.618	325.791	0.068	0.129
-149.604	800.000	0.055	-0.174
-148.589	375.316	0.030	0.061
-147.574	-81.634	0.246	-0.080
-146.560	51.881	-0.216	0.203
-145.545	-148.978	-0.169	0.013
-144.531	-98.654	-0.369	-0.093
-143.516	238.463	0.121	0.197
-142.502	800.000	0.051	0.182
-141.487	38.412	0.265	0.232
-140.472	184.361	0.055	-0.080
-139.458	-120.450	-0.153	-0.026
-138.443	-45.694	0.219	-0.107
-137.429	147.308	0.011	-0.014
-136.414	-150.185	-0.287	0.022
-135.399	-148.790	-0.264	-0.021
-134.385	800.000	-0.070	0.258
-133.370	800.000	-0.097	-0.278
-132.356	-173.651	-0.356	0.010
-131.341	-126.450	0.132	0.019
-130.326	-97.707	-0.223	0.057
-129.312	800.000	0.056	-0.233
-128.297	438.088	-0.122	0.262
-127.283	79.123	0.132	0.140
-126.268	30.953	-0.042	0.036
-125.253	105.874	0.120	0.140
-124.239	-14.232	-0.138	-0.088
-123.224	-200.000	-0.069	-0.452
-122.210	-76.760	0.264	-0.091
-121.195	676.068	-0.121	-0.310
