DTS Sentinel unit serial number:	SN413079Multiplexer serial number:	ORYXHardware model number:	OX4-SRSoftware version number:	ORYX F/W v4.00 Oryx Data Collector v3.7.2.0data status	okinstallation	princeton_trtdifferential loss correction	single-endedforward channel	channel 3reverse channel	N/Adate	2019/09/13time	05:36:35forward acquisition time	60.00reverse acquisition time	0.00gamma	496.2192k internal	0.2339k external	0.2339temperature offset calibration	1.0135default loss term (dB/km)	0.3790temperature slope calibration	1.0000multiplexer offset coefficient	1.0000multiplexer slope coefficient	1.0000fibre end	0.00T internal ref (°C)	26.25T ext. ref 1 (°C)	4.05T ext. ref 2 (°C)	20.87length (m)	temperature (°C)	Stokes	anti-Stokes-747.200	106.291	0.295	0.351
-746.185	293.752	-0.062	0.113
-745.171	-82.417	-0.141	0.046
-744.156	-200.000	0.045	0.248
-743.142	-200.000	-0.007	0.061
-742.127	-31.981	0.345	0.194
-741.112	189.557	0.019	-0.028
-740.098	-200.000	0.009	0.115
-739.083	364.639	-0.058	-0.116
-738.069	66.241	0.312	0.317
-737.054	225.964	-0.107	0.174
-736.039	-74.331	-0.511	0.185
-735.025	187.692	-0.072	0.108
-734.010	27.629	-0.117	-0.098
-732.996	800.000	0.012	-0.040
-731.981	-200.000	-0.017	-0.400
-730.966	25.241	-0.221	0.184
-729.952	-156.257	-0.406	-0.026
-728.937	-97.277	-0.341	-0.089
-727.923	71.959	0.158	-0.165
-726.908	-125.948	-0.076	0.011
-725.894	324.429	-0.276	-0.528
-724.879	-176.163	-0.342	-0.009
-723.864	86.730	0.043	0.047
-722.850	-32.397	-0.185	0.104
-721.835	-200.000	0.009	0.196
-720.821	274.514	0.114	0.202
-719.806	-13.191	-0.089	0.058
-718.791	32.959	-0.234	-0.203
-717.777	6.578	0.119	-0.088
-716.762	-200.000	-0.035	-0.269
-715.748	-18.540	0.207	-0.129
-714.733	-55.866	-0.532	0.238
-713.718	-88.293	-0.593	-0.178
-712.704	154.946	-0.056	-0.077
-711.689	141.058	0.317	-0.420
-710.675	-40.511	-0.180	-0.094
-709.660	-152.365	-0.186	-0.013
-708.645	46.903	-0.111	0.104
-707.631	-144.845	-0.521	0.048
-706.616	-200.000	0.000	-0.036
-705.602	174.340	0.281	0.407
-704.587	800.000	0.065	-0.239
-703.572	-143.948	0.197	0.019
-702.558	-114.979	-0.161	0.031
-701.543	226.886	0.037	-0.061
-700.529	484.614	0.054	-0.124
-699.514	-200.000	0.029	-0.186
-698.499	92.573	0.203	-0.229
-697.485	137.565	-0.120	-0.158
-696.470	-181.900	-0.200	-0.004
-695.456	-200.000	0.009	-0.173
-694.441	287.759	0.079	0.142
-693.426	-43.348	-0.127	0.064
-692.412	-21.832	0.121	0.073
-691.397	-75.625	-0.350	0.124
-690.383	77.187	-0.083	-0.089
-689.368	-200.000	0.046	-0.293
-688.354	113.456	0.096	-0.116
-687.339	-131.709	0.417	-0.055
-686.324	770.947	0.041	-0.112
-685.310	-200.000	0.014	-0.218
-684.295	-200.000	0.045	0.338
-683.281	766.860	-0.043	-0.116
-682.266	-164.398	-0.236	-0.011
-681.251	204.212	0.082	0.126
-680.237	-171.598	-0.371	-0.012
-679.222	-128.580	-0.164	-0.023
-678.208	-139.119	0.296	-0.032
-677.193	-25.645	-0.384	0.227
-676.178	-117.298	-0.126	-0.023
-675.164	-41.606	0.143	-0.074
-674.149	18.820	-0.043	-0.034
-673.135	800.000	0.090	-0.302
-672.120	91.535	0.201	0.226
-671.105	431.180	-0.098	0.212
-670.091	800.000	-0.069	-0.229
-669.076	88.413	-0.018	0.020
-668.062	38.090	0.172	0.153
-667.047	-106.825	0.228	0.050
-666.032	36.008	-0.103	0.091
-665.018	41.303	-0.325	0.294
-664.003	51.253	0.447	-0.424
-662.989	54.728	-0.321	-0.310
-661.974	-200.000	0.023	0.203
-660.959	389.853	0.071	0.147
-659.945	800.000	0.099	-0.375
-658.930	17.543	-0.313	-0.249
-657.916	-65.588	-0.685	0.275
-656.901	800.000	-0.143	0.427
-655.886	28.029	-0.161	-0.136
-654.872	-157.050	-0.234	0.014
-653.857	-85.110	0.088	0.028
-652.843	60.035	-0.177	-0.175
-651.828	-135.319	0.055	-0.007
-650.814	-17.892	-0.127	0.079
-649.799	-6.889	0.249	0.169
-648.784	711.455	-0.094	0.249
-647.770	-200.000	-0.029	-0.206
-646.755	-107.249	-0.112	-0.025
-645.741	-42.011	-0.151	-0.077
-644.726	-200.000	0.080	-0.415
-643.711	800.000	-0.075	0.258
-642.697	-200.000	0.019	0.340
-641.682	491.054	0.114	0.260
-640.668	-117.115	-0.099	0.018
-639.653	369.888	-0.083	-0.169
-638.638	-127.248	-0.322	-0.047
-637.624	-200.000	0.039	-0.239
-636.609	209.397	0.080	-0.126
-635.595	-200.000	-0.052	-0.265
-634.580	120.195	-0.123	-0.153
-633.565	-200.000	-0.015	-0.253
-632.551	800.000	0.029	-0.107
-631.536	224.346	-0.205	0.331
-630.522	-149.378	-0.167	0.013
-629.507	324.747	-0.092	-0.175
-628.492	-130.874	-0.252	-0.034
-627.478	-144.052	0.079	-0.007
-626.463	-113.250	-0.237	-0.047
-625.449	72.180	-0.041	-0.043
-624.434	35.508	-0.231	-0.203
-623.419	-153.061	0.152	-0.011
-622.405	237.785	0.070	0.115
-621.390	-38.598	0.063	0.033
-620.376	333.649	0.084	-0.161
-619.361	161.987	0.333	-0.465
-618.346	-94.575	-0.058	-0.016
-617.332	46.111	-0.139	-0.129
-616.317	-91.092	0.179	0.051
-615.303	-186.296	-0.115	0.002
-614.288	182.839	-0.199	-0.293
-613.273	37.823	-0.258	-0.229
-612.259	3.937	0.228	-0.166
-611.244	310.564	-0.130	0.244
-610.230	-52.222	0.153	0.071
-609.215	-72.348	-0.348	-0.128
-608.201	532.418	0.056	0.133
-607.186	-200.000	-0.049	0.358
-606.171	-200.000	0.008	0.073
-605.157	382.983	0.014	0.028
-604.142	265.073	0.047	-0.081
-603.128	557.469	0.186	-0.448
-602.113	171.427	-0.176	-0.252
-601.098	-101.419	0.097	0.024
-600.084	-169.228	0.276	-0.010
-599.069	108.842	0.204	-0.243
-598.055	-85.395	0.109	-0.034
-597.040	223.847	0.040	0.064
-596.025	-32.562	0.203	-0.113
-595.011	800.000	-0.044	0.136
-593.996	-200.000	-0.003	-0.095
-592.982	-118.363	-0.094	0.017
-591.967	-46.874	0.159	-0.077
-590.952	128.381	-0.087	0.110
-589.938	90.151	-0.121	-0.134
-588.923	800.000	-0.083	0.250
-587.909	-36.442	-0.032	-0.017
-586.894	-133.967	0.119	-0.015
-585.879	-180.167	0.216	-0.005
-584.865	138.512	0.131	-0.171
-583.850	-94.584	-0.329	-0.089
-582.836	800.000	0.046	-0.187
-581.821	178.457	0.069	0.101
-580.806	224.365	0.076	0.122
-579.792	175.065	0.083	-0.120
-578.777	-15.936	-0.251	-0.160
-577.763	39.417	-0.127	0.113
-576.748	800.000	0.113	-0.377
-575.733	-15.428	-0.062	-0.040
-574.719	800.000	0.075	0.311
-573.704	-62.110	-0.234	-0.098
-572.690	105.597	-0.197	-0.232
-571.675	-163.726	0.173	-0.008
-570.661	2.762	-0.392	0.284
-569.646	16.165	0.344	-0.271
-568.631	309.728	-0.068	-0.127
-567.617	18.766	-0.061	-0.049
-566.602	109.422	0.147	-0.176
-565.588	800.000	-0.047	-0.175
-564.573	-200.000	0.044	-0.210
-563.558	-124.862	-0.228	-0.035
-562.544	-119.367	0.076	0.013
-561.529	-43.407	0.335	0.169
-560.515	-107.068	0.161	0.035
-559.500	6.921	-0.314	0.233
-558.485	-200.000	-0.055	0.315
-557.471	-200.000	0.006	-0.200
-556.456	-107.279	-0.290	0.064
-555.442	-138.973	0.204	-0.022
-554.427	334.881	0.106	-0.204
-553.412	40.770	0.047	-0.042
-552.398	-56.586	-0.285	-0.126
-551.383	-146.346	0.260	-0.023
-550.369	800.000	0.054	0.215
-549.354	652.373	0.021	0.055
-548.339	93.419	-0.146	0.164
-547.325	-76.463	-0.326	-0.114
-546.310	-79.068	-0.055	-0.019
-545.296	-119.584	-0.055	0.009
-544.281	-121.346	0.233	0.039
-543.266	-167.793	-0.402	-0.016
-542.252	467.440	0.141	-0.314
-541.237	-200.000	-0.025	0.127
-540.223	24.261	0.254	-0.209
-539.208	27.597	-0.195	-0.163
-538.193	-60.246	-0.226	0.096
-537.179	-47.501	0.107	-0.052
-536.164	587.830	-0.159	0.391
-535.150	-106.936	-0.336	0.074
-534.135	-110.349	-0.268	-0.055
-533.121	-130.432	0.379	-0.051
-532.106	-200.000	-0.022	-0.095
-531.091	-49.133	-0.260	-0.124
-530.077	800.000	0.051	0.174
-529.062	182.816	-0.147	0.216
-528.048	800.000	0.079	0.231
-527.033	800.000	-0.032	-0.118
-526.018	307.323	0.133	0.246
-525.004	425.934	0.088	-0.189
-523.989	549.307	-0.077	0.183
-522.975	800.000	0.033	-0.114
-521.960	-200.000	-0.010	0.085
-520.945	-200.000	0.034	-0.186
-519.931	-93.625	-0.437	-0.120
-518.916	-61.547	-0.063	-0.026
-517.902	106.279	0.162	0.191
-516.887	55.366	0.106	0.102
-515.872	800.000	0.042	0.143
-514.858	-200.000	0.029	0.128
-513.843	-107.498	-0.314	-0.068
-512.829	-32.592	0.177	-0.098
-511.814	114.644	0.089	-0.108
-510.799	-93.141	-0.298	-0.083
-509.785	783.409	-0.090	-0.246
-508.770	-76.596	-0.299	-0.104
-507.756	101.210	0.122	0.141
-506.741	-119.744	0.118	0.020
-505.726	-200.000	0.000	-0.067
-504.712	647.948	-0.040	-0.102
-503.697	-200.000	-0.009	0.159
-502.683	-200.000	0.071	0.381
-501.668	-152.927	0.452	-0.032
-500.653	115.145	0.065	0.079
-499.639	30.361	-0.399	-0.339
-498.624	800.000	0.025	-0.085
-497.610	-200.000	0.138	0.000
-496.595	-38.875	-0.214	-0.112
-495.581	-10.256	0.087	-0.057
-494.566	778.298	0.056	0.153
-493.551	102.974	0.211	0.246
-492.537	238.046	-0.107	0.176
-491.522	120.708	0.091	-0.113
-490.508	-7.052	0.260	0.175
-489.493	225.384	0.008	-0.013
-488.478	153.300	0.085	-0.115
-487.464	-200.000	0.015	-0.166
-486.449	110.820	0.035	-0.042
-485.435	800.000	-0.087	0.279
-484.420	800.000	0.064	0.233
-483.405	-87.454	-0.209	0.063
-482.391	-134.002	0.295	-0.036
-481.376	339.395	0.022	-0.043
-480.362	63.076	-0.153	0.152
-479.347	-156.495	-0.097	0.006
-478.332	-135.628	0.188	-0.022
-477.318	-110.487	0.099	-0.020
-476.303	800.000	0.070	0.275
-475.289	74.393	-0.110	-0.115
-474.274	-104.891	-0.237	0.054
-473.259	-200.000	-0.041	-0.279
-472.245	800.000	0.133	-0.397
-471.230	-200.000	-0.045	0.299
-470.216	54.614	-0.061	-0.058
-469.201	262.075	-0.181	0.312
-468.186	433.916	0.152	0.327
-467.172	767.774	0.018	0.050
-466.157	-31.723	0.143	0.079
-465.143	153.394	-0.111	0.151
-464.128	800.000	0.060	0.262
-463.113	-127.592	-0.204	0.029
-462.099	-79.773	0.328	0.110
-461.084	-200.000	0.050	0.275
-460.070	-92.594	0.316	-0.088
-459.055	-116.518	-0.461	0.084
-458.040	-37.067	0.083	0.044
-457.026	28.799	-0.181	-0.152
-456.011	177.157	-0.080	0.116
-454.997	54.313	0.105	0.100
-453.982	-43.132	0.444	0.223
-452.968	-200.000	0.008	0.146
-451.953	-139.722	-0.105	0.011
-450.938	-50.038	-0.337	-0.158
-449.924	168.990	-0.188	-0.265
-448.909	51.351	-0.107	-0.101
-447.895	-106.274	-0.197	-0.044
-446.880	47.712	-0.143	-0.132
-445.865	-108.669	0.220	-0.047
-444.851	-200.000	-0.021	-0.207
-443.836	-128.424	0.202	-0.028
-442.822	103.691	-0.110	0.128
-441.807	588.118	-0.237	-0.578
-440.792	-200.000	0.061	-0.396
-439.778	4.401	-0.359	-0.261
-438.763	-52.205	0.176	0.081
-437.749	83.880	-0.073	0.079
-436.734	-89.826	0.225	0.065
-435.719	70.213	0.049	-0.050
-434.705	120.386	-0.071	-0.087
-433.690	-145.434	-0.302	0.027
-432.676	71.399	-0.114	-0.117
-431.661	150.205	0.020	-0.026
-430.646	-59.060	-0.084	0.036
-429.632	22.406	0.091	-0.073
-428.617	-200.000	-0.043	0.432
-427.603	57.031	-0.055	-0.053
-426.588	521.384	-0.034	0.079
-425.573	-45.661	-0.299	-0.147
-424.559	-200.000	-0.002	0.149
-423.544	-13.718	0.056	0.036
-422.530	21.202	0.219	0.176
-421.515	13.710	0.079	-0.061
-420.500	170.971	0.031	-0.043
-419.486	776.568	0.068	0.185
-418.471	-162.161	0.280	-0.014
-417.457	92.079	-0.165	0.184
-416.442	251.597	-0.167	0.281
-415.428	131.160	-0.201	0.256
-414.413	646.017	-0.117	-0.295
-413.398	-4.604	0.122	-0.083
-412.384	-200.000	0.048	-0.359
-411.369	-2.367	-0.205	0.142
-410.355	-36.393	0.191	-0.102
-409.340	-200.000	-0.032	0.251
-408.325	-200.000	0.041	-0.352
-407.311	284.327	0.027	-0.048
-406.296	65.325	-0.111	-0.111
-405.282	-200.000	-0.022	-0.143
-404.267	-200.000	0.003	0.150
-403.252	-115.852	0.168	-0.031
-402.238	-28.388	-0.121	-0.069
-401.223	59.003	0.209	-0.203
-400.209	444.628	-0.163	0.355
-399.194	5.031	-0.080	-0.058
-398.179	-57.881	0.224	-0.097
-397.165	-200.000	-0.006	-0.219
-396.150	-49.969	-0.059	0.028
-395.136	-200.000	-0.016	-0.132
-394.121	324.819	-0.131	0.248
-393.106	800.000	0.098	0.359
-392.092	279.706	0.065	0.115
-391.077	-61.870	0.215	0.089
-390.063	-200.000	0.004	0.306
-389.048	314.434	0.054	-0.101
-388.033	-4.580	0.447	0.306
-387.019	41.210	0.145	-0.129
-386.004	352.881	0.059	0.116
-384.990	457.332	0.047	0.102
-383.975	-174.460	-0.474	-0.013
-382.960	-200.000	-0.041	-0.219
-381.946	0.736	0.215	0.152
-380.931	-28.047	0.183	0.105
-379.917	283.877	-0.304	0.541
-378.902	234.359	-0.052	0.085
-377.888	-200.000	0.029	0.127
-376.873	800.000	-0.031	-0.102
-375.858	-78.910	-0.139	-0.047
-374.844	-36.136	0.088	-0.047
-373.829	-46.408	-0.459	-0.223
-372.815	98.228	-0.039	0.044
-371.800	-53.740	-0.297	-0.134
-370.785	-200.000	-0.007	0.328
-369.771	333.883	-0.099	0.189
-368.756	88.341	0.138	-0.151
-367.742	70.754	0.208	-0.213
-366.727	20.983	0.033	-0.026
-365.712	-43.168	-0.316	0.158
-364.698	49.600	-0.171	-0.159
-363.683	-64.264	-0.226	0.091
-362.669	-66.345	-0.118	-0.046
-361.654	800.000	0.081	-0.280
-360.639	587.491	-0.100	-0.244
-359.625	18.172	-0.093	-0.073
-358.610	-200.000	-0.015	-0.107
-357.596	138.292	-0.110	-0.143
-356.581	-86.727	-0.136	-0.041
-355.566	295.751	-0.042	-0.076
-354.552	131.977	-0.104	-0.132
-353.537	121.825	0.107	-0.132
-352.523	383.196	0.197	0.400
-351.508	286.504	-0.041	0.074
-350.493	-2.435	0.105	-0.072
-349.479	434.597	0.116	-0.248
-348.464	413.597	0.101	0.212
-347.450	53.374	-0.148	-0.140
-346.435	512.955	0.089	-0.206
-345.420	66.086	0.242	-0.243
-344.406	-200.000	-0.009	0.170
-343.391	74.200	0.159	-0.165
-342.377	120.469	-0.330	-0.404
-341.362	439.734	0.064	0.138
-340.348	-77.288	-0.095	-0.033
-339.333	800.000	0.086	0.290
-338.318	242.916	-0.168	-0.278
-337.304	-200.000	0.027	0.136
-336.289	800.000	0.047	0.171
-335.275	92.963	0.116	-0.130
-334.260	-200.000	0.029	0.323
-333.245	-111.845	0.334	-0.067
-332.231	3.783	-0.120	-0.086
-331.216	-130.954	-0.251	-0.033
-330.202	-85.517	-0.117	0.036
-329.187	-200.000	0.017	-0.140
-328.172	59.049	-0.197	-0.192
-327.158	-200.000	0.047	0.215
-326.143	-31.385	0.111	0.062
-325.129	-62.926	0.427	-0.174
-324.114	-162.873	-0.085	0.004
-323.099	534.095	-0.211	-0.494
-322.085	-73.326	-0.083	0.030
-321.070	18.081	-0.323	-0.254
-320.056	283.293	0.025	-0.044
-319.041	29.468	0.358	0.300
-318.026	403.731	0.114	0.236
-317.012	30.205	0.158	-0.133
-315.997	-130.345	-0.189	-0.025
-314.983	-152.752	-0.281	-0.020
-313.968	62.017	0.226	0.222
-312.953	-34.087	0.260	-0.141
-311.939	800.000	0.038	0.137
-310.924	-200.000	0.000	0.147
-309.910	-141.600	-0.320	0.032
-308.895	596.068	0.046	0.113
-307.880	89.458	0.270	0.297
-306.866	10.601	0.283	0.212
-305.851	79.318	-0.183	-0.193
-304.837	800.000	-0.095	-0.263
-303.822	800.000	-0.023	0.072
-302.807	-200.000	-0.019	-0.203
-301.793	-200.000	0.023	0.221
-300.778	-141.588	-0.012	0.001
-299.764	-54.943	-0.303	0.135
-298.749	-31.058	0.426	0.237
-297.735	-13.564	0.081	0.052
-296.720	-26.416	-0.219	0.127
-295.705	-18.472	-0.214	0.132
-294.691	-200.000	-0.011	0.054
-293.676	-200.000	0.006	0.194
-292.662	-92.301	0.184	-0.051
-291.647	129.935	0.167	0.211
-290.632	-85.216	-0.306	-0.094
-289.618	800.000	-0.042	0.129
-288.603	-19.841	-0.154	0.094
-287.589	257.530	0.124	-0.210
-286.574	471.635	-0.116	0.256
-285.559	800.000	-0.037	0.160
-284.545	-60.524	0.165	0.069
-283.530	-47.500	0.174	0.083
-282.516	-69.283	0.093	-0.035
-281.501	-58.808	0.106	-0.045
-280.486	-200.000	-0.005	-0.047
-279.472	-35.005	0.048	-0.026
-278.457	42.467	0.153	-0.137
-277.443	-117.629	0.112	-0.020
-276.428	-85.489	-0.103	-0.032
-275.413	253.092	0.146	-0.246
-274.399	-134.544	0.244	-0.029
-273.384	-90.461	0.252	0.072
-272.370	-86.632	0.068	0.020
-271.355	-200.000	-0.032	0.158
-270.340	17.072	0.297	-0.232
-269.326	800.000	-0.103	-0.443
-268.311	-111.126	0.016	0.003
-267.297	-97.095	0.367	-0.095
-266.282	-200.000	0.002	0.068
-265.267	-200.000	-0.026	0.178
-264.253	158.647	0.280	-0.383
-263.238	-200.000	0.047	0.427
-262.224	-200.000	0.017	0.132
-261.209	68.089	0.154	-0.155
-260.195	-15.076	-0.084	-0.053
-259.180	-200.000	0.015	-0.141
-258.165	-19.232	0.275	0.168
-257.151	606.338	0.035	0.085
-256.136	282.997	0.122	0.216
-255.122	177.619	-0.053	0.076
-254.107	-141.796	-0.142	-0.014
-253.092	-104.723	-0.117	-0.026
-252.078	233.360	0.045	-0.073
-251.063	56.682	-0.203	0.194
-250.049	-47.097	0.292	-0.140
-249.034	-45.129	-0.241	-0.118
-248.019	-50.119	-0.355	-0.165
-247.005	-117.704	-0.212	-0.037
-245.990	-18.899	0.447	0.274
-244.976	34.513	-0.092	-0.079
-243.961	-200.000	0.007	0.050
-242.946	79.385	-0.234	-0.246
-241.932	331.076	0.071	-0.134
-240.917	-200.000	0.010	0.225
-239.903	-91.021	0.202	0.057
-238.888	-10.422	-0.089	-0.058
-237.873	34.029	0.131	-0.112
-236.859	-33.806	-0.279	-0.151
-235.844	-26.851	0.324	0.186
-234.830	179.749	0.100	-0.144
-233.815	608.884	-0.078	0.191
-232.800	272.590	-0.078	0.136
-231.786	141.290	0.102	-0.132
-230.771	-2.415	0.155	-0.107
-229.757	-200.000	-0.002	0.068
-228.742	4.667	-0.096	-0.069
-227.727	64.907	0.059	0.058
-226.713	127.226	0.108	0.135
-225.698	209.041	-0.190	0.292
-224.684	67.449	0.124	-0.124
-223.669	-200.000	0.023	0.181
-222.655	800.000	0.114	0.409
-221.640	158.300	0.018	0.025
-220.625	63.466	0.057	0.056
-219.611	-43.568	-0.132	-0.065
-218.596	276.756	-0.183	-0.320
-217.582	-19.402	0.169	-0.103
-216.567	-16.621	0.316	0.197
-215.552	190.589	-0.242	-0.357
-214.538	800.000	-0.049	0.156
-213.523	800.000	-0.017	-0.053
-212.509	-6.060	0.209	0.141
-211.494	199.376	0.059	0.089
-210.479	-45.427	0.165	0.081
-209.465	-75.647	-0.155	0.054
-208.450	-169.534	0.300	0.011
-207.436	205.457	-0.085	-0.130
-206.421	800.000	0.054	0.160
-205.406	539.298	-0.091	0.214
-204.392	-200.000	-0.275	0.000
-203.377	81.181	0.192	-0.204
-202.363	-111.763	0.164	0.033
-201.348	22.907	-0.161	-0.129
-200.333	800.000	-0.019	0.073
-199.319	159.902	-0.204	0.280
-198.304	-200.000	-0.003	0.150
-197.290	-139.654	0.134	0.014
-196.275	-70.510	-0.164	-0.061
-195.260	33.734	-0.207	0.177
-194.246	114.840	-0.127	-0.152
-193.231	-26.620	0.343	-0.197
-192.217	-200.000	0.029	-0.204
-191.202	-74.408	-0.035	0.012
-190.187	406.236	0.142	0.294
-189.173	212.484	-0.034	-0.053
-188.158	382.480	0.117	0.235
-187.144	-86.944	0.294	-0.088
-186.129	800.000	0.115	0.332
-185.114	-20.980	-0.196	0.118
-184.100	-15.200	0.111	-0.070
-183.085	-62.911	0.294	-0.119
-182.071	36.331	-0.126	0.109
-181.056	66.963	0.133	-0.133
-180.042	620.952	0.044	0.109
-179.027	-130.546	0.163	0.022
-178.012	200.307	0.059	-0.088
-176.998	-99.158	0.351	0.087
-175.983	84.251	-0.097	0.104
-174.969	-7.229	0.035	-0.023
-173.954	-115.144	0.230	-0.043
-172.939	-160.547	0.170	0.009
-171.925	800.000	-0.061	0.193
-170.910	-150.022	0.109	0.008
-169.896	173.093	0.163	-0.231
-168.881	-76.030	0.098	0.034
-167.866	572.094	0.053	-0.127
-166.852	20.723	0.098	0.078
-165.837	-10.474	0.123	0.080
-164.823	-67.355	0.125	0.048
-163.808	-164.738	-0.391	0.017
-162.793	-44.783	-0.050	-0.024
-161.779	125.264	0.125	-0.155
-160.764	227.220	-0.063	-0.101
-159.750	-85.075	-0.029	-0.009
-158.735	-114.008	-0.339	0.064
-157.720	360.197	0.043	-0.085
-156.706	-200.000	-0.022	0.179
-155.691	-168.377	-0.195	-0.007
-154.677	-200.000	-0.006	-0.305
-153.662	-53.663	0.078	-0.035
-152.647	27.124	-0.364	0.300
-151.633	136.357	0.093	0.118
-150.618	0.366	0.152	-0.106
-149.604	800.000	-0.100	-0.334
-148.589	88.969	0.244	-0.266
-147.574	-110.255	0.274	-0.056
-146.560	800.000	0.050	0.215
-145.545	-200.000	-0.027	-0.170
-144.531	176.783	0.098	0.140
-143.516	-112.390	-0.163	0.032
-142.502	38.400	-0.286	0.249
-141.487	-78.571	0.163	-0.055
-140.472	800.000	0.025	0.096
-139.458	-8.836	0.183	-0.120
-138.443	72.581	-0.115	-0.118
-137.429	-26.654	-0.158	0.091
-136.414	-86.326	-0.267	-0.080
-135.399	26.883	0.005	-0.004
-134.385	-200.000	-0.001	-0.400
-133.370	313.000	0.065	0.120
-132.356	-53.702	0.147	-0.066
-131.341	99.524	0.132	0.150
-130.326	800.000	-0.043	0.152
-129.312	1.268	0.185	0.130
-128.297	481.627	0.093	0.206
-127.283	204.513	-0.021	0.032
-126.268	-34.356	0.165	-0.089
-125.253	48.780	-0.119	-0.110
-124.239	-36.768	-0.160	0.084
-123.224	-113.724	-0.073	-0.014
-122.210	-137.991	0.218	0.024
-121.195	-146.094	0.061	-0.005
