DTS Sentinel unit serial number:	SN413079Multiplexer serial number:	ORYXHardware model number:	OX4-SRSoftware version number:	ORYX F/W v4.00 Oryx Data Collector v3.7.2.0data status	okinstallation	princeton_trtdifferential loss correction	single-endedforward channel	channel 3reverse channel	N/Adate	2019/09/17time	09:40:35forward acquisition time	60.00reverse acquisition time	0.00gamma	496.2192k internal	0.2324k external	0.2324temperature offset calibration	0.9941default loss term (dB/km)	0.3790temperature slope calibration	1.0000multiplexer offset coefficient	1.0000multiplexer slope coefficient	1.0000fibre end	0.00T internal ref (°C)	29.23T ext. ref 1 (°C)	0.16T ext. ref 2 (°C)	25.41length (m)	temperature (°C)	Stokes	anti-Stokes-747.200	105.523	0.276	-0.330
-746.185	-200.000	0.004	-0.201
-745.171	-200.000	-0.006	0.115
-744.156	172.697	0.054	0.079
-743.142	-51.027	0.074	-0.035
-742.127	-118.444	0.182	0.033
-741.112	-22.602	0.263	-0.160
-740.098	-35.337	-0.107	0.059
-739.083	165.605	0.084	-0.120
-738.069	800.000	-0.016	0.053
-737.054	-37.028	0.504	-0.273
-736.039	68.702	-0.132	0.136
-735.025	-200.000	0.073	0.401
-734.010	-191.768	-0.327	-0.003
-732.996	-137.419	-0.384	-0.044
-731.981	800.000	0.102	-0.302
-730.966	-200.000	-0.233	-0.001
-729.952	227.528	-0.103	0.169
-728.937	188.958	0.134	-0.202
-727.923	-200.000	-0.068	0.000
-726.908	61.921	-0.160	-0.161
-725.894	149.525	0.179	-0.245
-724.879	386.049	-0.233	-0.484
-723.864	800.000	-0.115	0.417
-722.850	1.238	0.120	0.087
-721.835	-65.752	-0.336	0.136
-720.821	-7.195	0.125	0.085
-719.806	281.194	-0.094	-0.170
-718.791	-75.695	-0.173	0.062
-717.777	-54.794	0.284	-0.129
-716.762	800.000	-0.069	0.265
-715.748	154.319	-0.079	-0.110
-714.733	800.000	-0.027	-0.098
-713.718	102.752	-0.252	0.297
-712.704	4.389	0.268	0.198
-711.689	139.640	-0.132	-0.175
-710.675	-200.000	0.009	0.106
-709.660	800.000	0.127	0.557
-708.645	-200.000	-0.059	-0.312
-707.631	-200.000	0.020	-0.335
-706.616	800.000	0.035	0.141
-705.602	-200.000	0.178	0.001
-704.587	43.231	-0.142	-0.131
-703.572	-200.000	0.028	0.148
-702.558	-200.000	-0.021	-0.252
-701.543	51.224	-0.342	-0.327
-700.529	340.372	0.045	-0.088
-699.514	229.899	-0.063	0.104
-698.499	-200.000	0.001	-0.027
-697.485	15.866	0.088	0.070
-696.470	68.443	-0.121	-0.125
-695.456	-61.052	-0.231	0.098
-694.441	800.000	-0.010	0.031
-693.426	-200.000	-0.001	0.089
-692.412	-200.000	-0.022	-0.349
-691.397	800.000	-0.093	0.355
-690.383	80.993	-0.122	0.132
-689.368	205.039	0.192	0.300
-688.354	-128.236	0.125	-0.018
-687.339	119.738	-0.158	0.197
-686.324	-200.000	0.065	0.312
-685.310	107.366	-0.076	-0.091
-684.295	-113.857	-0.128	-0.025
-683.281	-159.031	0.112	0.006
-682.266	-156.896	0.488	0.030
-681.251	25.504	0.135	-0.113
-680.237	363.972	0.082	0.166
-679.222	142.273	0.139	0.186
-678.208	-46.182	-0.048	0.024
-677.193	86.413	-0.095	-0.106
-676.178	-183.603	0.115	0.002
-675.164	66.635	-0.274	0.281
-674.149	798.310	0.054	-0.150
-673.135	800.000	-0.067	-0.265
-672.120	-125.861	-0.345	0.052
-671.105	265.525	-0.235	0.413
-670.091	302.294	0.085	-0.158
-669.076	-80.487	0.345	0.116
-668.062	-178.528	-0.500	0.012
-667.047	436.851	0.102	-0.224
-666.032	-200.000	0.039	-0.180
-665.018	-54.833	0.301	-0.137
-664.003	-89.042	0.083	-0.025
-662.989	-170.205	0.209	0.007
-661.974	765.120	-0.150	0.411
-660.959	800.000	-0.066	0.191
-659.945	94.314	-0.321	-0.367
-658.930	299.247	-0.092	-0.171
-657.916	-32.288	0.270	-0.151
-656.901	-99.067	-0.068	0.017
-655.886	-140.190	-0.210	-0.022
-654.872	-109.951	0.182	-0.038
-653.857	-200.000	0.043	-0.252
-652.843	-32.190	-0.027	-0.015
-651.828	642.496	-0.077	-0.198
-650.814	800.000	-0.047	0.167
-649.799	135.058	0.203	-0.265
-648.784	-158.387	0.195	-0.011
-647.770	-151.559	-0.260	0.019
-646.755	72.441	-0.213	0.224
-645.741	288.919	0.063	0.114
-644.726	90.538	-0.121	-0.136
-643.711	135.039	0.195	-0.254
-642.697	800.000	-0.050	-0.188
-641.682	8.509	0.268	-0.203
-640.668	-200.000	-0.013	-0.161
-639.653	-200.000	0.054	0.239
-638.638	64.567	0.221	-0.224
-637.624	1.354	-0.237	-0.171
-636.609	12.131	0.185	-0.143
-635.595	-178.002	-0.338	-0.008
-634.580	-200.000	-0.030	0.139
-633.565	219.334	-0.109	-0.175
-632.551	-200.000	-0.006	0.159
-631.536	-200.000	0.097	-0.469
-630.522	-91.665	-0.338	-0.097
-629.507	29.515	-0.291	-0.249
-628.492	-180.326	-0.240	-0.005
-627.478	-156.954	0.170	-0.010
-626.463	-200.000	0.013	0.229
-625.449	422.901	-0.089	-0.192
-624.434	-200.000	0.041	-0.194
-623.419	106.915	-0.156	-0.186
-622.405	346.397	0.065	-0.129
-621.390	-200.000	-0.035	-0.186
-620.376	-113.026	0.120	-0.024
-619.361	-68.791	0.121	-0.047
-618.346	-200.000	-0.017	0.206
-617.332	-29.956	-0.102	0.058
-616.317	16.286	-0.164	0.130
-615.303	48.194	-0.320	-0.301
-614.288	-200.000	-0.002	0.275
-613.273	-191.894	-0.099	-0.001
-612.259	177.780	-0.060	0.088
-611.244	0.635	-0.209	-0.150
-610.230	-92.926	-0.282	-0.079
-609.215	-95.370	-0.070	-0.019
-608.201	-69.705	0.189	-0.073
-607.186	106.986	-0.127	0.151
-606.171	-43.638	-0.207	0.105
-605.157	-200.000	-0.003	0.273
-604.142	163.488	0.118	-0.167
-603.128	141.851	-0.275	-0.366
-602.113	58.509	-0.206	-0.203
-601.098	-121.221	-0.422	0.071
-600.084	115.578	-0.104	0.127
-599.069	63.676	0.223	0.225
-598.055	581.956	-0.099	-0.244
-597.040	200.676	0.036	-0.056
-596.025	326.299	-0.077	-0.149
-595.011	-200.000	-0.002	-0.023
-593.996	66.814	-0.134	-0.137
-592.982	91.649	-0.107	-0.121
-591.967	800.000	-0.147	-0.491
-590.952	252.513	0.188	-0.322
-589.938	68.675	0.206	-0.212
-588.923	63.634	-0.113	0.114
-587.909	361.724	-0.124	-0.250
-586.894	740.209	-0.042	0.113
-585.879	144.466	0.019	0.025
-584.865	-176.258	0.337	-0.009
-583.850	82.008	0.116	-0.126
-582.836	-172.894	0.116	0.004
-581.821	117.174	0.121	0.149
-580.806	-29.295	-0.065	0.037
-579.792	-200.000	-0.013	-0.139
-578.777	-200.000	0.010	0.180
-577.763	800.000	0.067	-0.188
-576.748	-155.509	0.443	-0.029
-575.733	94.986	0.103	0.118
-574.719	-84.880	-0.207	-0.065
-573.704	-126.568	0.024	0.004
-572.690	151.023	-0.118	0.162
-571.675	85.947	0.049	0.054
-570.661	-143.306	-0.021	-0.002
-569.646	644.714	0.031	-0.079
-568.631	-50.412	-0.047	-0.022
-567.617	-8.458	-0.287	-0.194
-566.602	-200.000	-0.007	0.062
-565.588	-39.986	0.214	0.112
-564.573	2.498	-0.070	0.051
-563.558	99.763	0.209	0.243
-562.544	-129.384	-0.137	0.019
-561.529	-97.982	0.355	-0.092
-560.515	-126.872	0.319	0.047
-559.500	48.319	-0.116	-0.109
-558.485	139.856	0.132	-0.174
-557.471	-200.000	-0.018	0.109
-556.456	-161.073	-0.067	-0.003
-555.442	-101.513	0.348	0.085
-554.427	-4.598	-0.055	-0.038
-553.412	140.033	-0.155	0.205
-552.398	15.362	0.068	-0.053
-551.383	118.738	0.033	0.041
-550.369	-174.744	0.363	0.010
-549.354	-97.641	0.061	-0.016
-548.339	21.665	0.174	0.142
-547.325	-40.632	-0.260	-0.135
-546.310	-200.000	-0.015	-0.156
-545.296	-104.934	-0.111	-0.025
-544.281	-200.000	0.059	-0.301
-543.266	-104.333	0.262	-0.061
-542.252	-124.864	0.205	0.032
-541.237	79.852	0.178	-0.191
-540.223	214.787	0.211	-0.335
-539.208	-139.601	0.165	0.018
-538.193	-3.755	-0.121	0.084
-537.179	-200.000	-0.007	0.426
-536.164	139.446	-0.079	-0.104
-535.150	540.199	-0.049	0.116
-534.135	-13.294	-0.051	0.033
-533.121	-66.329	-0.191	-0.076
-532.106	715.415	0.053	0.141
-531.091	-107.495	0.080	0.018
-530.077	800.000	-0.095	0.341
-529.062	169.269	-0.060	0.086
-528.048	-200.000	-0.047	0.238
-527.033	128.272	-0.255	0.325
-526.018	124.222	-0.138	-0.173
-525.004	217.306	-0.151	0.241
-523.989	-74.804	0.306	-0.110
-522.975	-200.000	0.057	0.296
-521.960	350.875	-0.059	0.117
-520.945	-200.000	-0.013	-0.369
-519.931	11.710	-0.214	0.164
-518.916	800.000	0.074	-0.206
-517.902	71.222	0.130	0.135
-516.887	118.707	-0.222	-0.275
-515.872	-50.249	0.117	0.056
-514.858	800.000	-0.080	0.226
-513.843	-73.194	0.215	0.079
-512.829	-32.654	0.137	-0.076
-511.814	-36.533	0.185	-0.100
-510.799	-200.000	-0.007	-0.063
-509.785	-200.000	-0.039	-0.254
-508.770	-38.404	0.170	-0.090
-507.756	-143.763	-0.345	-0.033
-506.741	135.861	-0.094	0.122
-505.726	-200.000	-0.037	-0.282
-504.712	9.153	-0.244	0.184
-503.697	151.971	0.237	0.323
-502.683	800.000	-0.055	0.227
-501.668	-167.289	0.171	0.007
-500.653	-89.148	-0.056	0.017
-499.639	180.993	-0.126	-0.185
-498.624	800.000	0.098	-0.279
-497.610	800.000	-0.095	-0.372
-496.595	-1.930	-0.180	0.127
-495.581	-36.448	-0.234	-0.126
-494.566	-26.641	0.279	-0.164
-493.551	94.948	-0.193	-0.220
-492.537	-200.000	0.009	0.041
-491.522	-79.435	-0.341	0.115
-490.508	-53.378	0.116	-0.053
-489.493	199.132	0.197	0.302
-488.478	-44.936	0.273	-0.136
-487.464	54.206	0.119	-0.115
-486.449	616.496	-0.055	-0.137
-485.435	99.545	0.072	-0.084
-484.420	-56.881	0.162	-0.071
-483.405	-121.858	-0.091	0.015
-482.391	382.243	-0.111	-0.229
-481.376	-120.252	0.076	-0.013
-480.362	-25.529	-0.190	0.112
-479.347	33.049	-0.085	-0.074
-478.332	-200.000	0.031	-0.275
-477.318	408.865	-0.194	0.410
-476.303	323.250	-0.117	-0.222
-475.289	-21.872	-0.020	0.012
-474.274	-114.929	-0.316	-0.060
-473.259	-200.000	-0.035	0.288
-472.245	-44.767	-0.248	-0.124
-471.230	-200.000	0.037	0.238
-470.216	-5.888	0.194	-0.133
-469.201	-200.000	0.000	0.090
-468.186	51.957	0.235	0.224
-467.172	-200.000	0.015	-0.225
-466.157	-200.000	0.013	-0.082
-465.143	-200.000	0.094	0.474
-464.128	-200.000	-0.005	-0.050
-463.113	246.565	-0.051	-0.086
-462.099	523.576	-0.067	-0.158
-461.084	-108.789	-0.411	-0.088
-460.070	-59.410	-0.082	-0.035
-459.055	-20.048	0.116	-0.071
-458.040	-41.327	0.263	-0.136
-457.026	-65.057	0.077	0.031
-456.011	33.109	-0.214	0.185
-454.997	-7.371	-0.058	-0.039
-453.982	-76.227	0.487	0.171
-452.968	-152.120	0.073	-0.005
-451.953	-176.527	0.116	0.003
-450.938	39.203	0.206	-0.184
-449.924	-132.492	-0.169	-0.022
-448.909	1.002	-0.199	0.142
-447.895	-83.742	-0.096	0.031
-446.880	24.120	-0.072	0.059
-445.865	6.490	0.040	-0.030
-444.851	-19.404	-0.228	0.141
-443.836	-112.470	0.372	-0.074
-442.822	-75.228	-0.217	-0.077
-441.807	-82.821	0.063	-0.020
-440.792	138.192	-0.272	-0.355
-439.778	-200.000	0.002	0.086
-438.763	-87.619	-0.150	0.045
-437.749	385.018	0.041	-0.084
-436.734	-61.925	-0.324	-0.135
-435.719	-22.064	-0.262	0.159
-434.705	97.663	0.077	0.088
-433.690	157.275	0.134	0.186
-432.676	357.286	-0.026	-0.052
-431.661	-38.043	-0.145	0.077
-430.646	-32.915	-0.189	0.105
-429.632	-154.553	-0.136	-0.009
-428.617	114.378	0.137	-0.167
-427.603	-54.303	0.211	-0.095
-426.588	-71.816	-0.246	-0.091
-425.573	-76.166	0.270	-0.095
-424.559	172.467	0.248	-0.356
-423.544	224.298	0.111	-0.178
-422.530	-112.448	-0.090	0.018
-421.515	-57.029	0.153	-0.067
-420.500	89.590	0.084	0.093
-419.486	292.321	0.099	0.181
-418.471	800.000	0.049	0.194
-417.457	800.000	-0.078	0.253
-416.442	-200.000	-0.008	-0.263
-415.428	190.065	0.060	-0.089
-414.413	-71.106	-0.202	0.076
-413.398	59.802	-0.222	0.219
-412.384	64.478	-0.166	-0.167
-411.369	-116.766	0.131	-0.024
-410.355	-125.564	0.324	-0.049
-409.340	-8.949	-0.162	0.108
-408.325	-28.726	-0.071	0.041
-407.311	-2.652	-0.046	0.032
-406.296	-139.404	0.260	-0.028
-405.282	-83.404	0.173	-0.055
-404.267	-82.944	-0.051	0.016
-403.252	-200.000	-0.037	-0.281
-402.238	-99.409	-0.199	0.050
-401.223	-34.539	0.208	0.113
-400.209	-6.124	0.313	-0.213
-399.194	451.045	-0.023	0.051
-398.179	800.000	-0.064	0.212
-397.165	-200.000	-0.024	0.141
-396.150	-200.000	-0.015	-0.081
-395.136	110.975	0.052	0.062
-394.121	-74.535	0.132	0.048
-393.106	-200.000	-0.042	0.326
-392.092	800.000	0.058	0.199
-391.077	-108.124	0.119	-0.026
-390.063	800.000	0.048	-0.153
-389.048	-52.150	0.233	0.108
-388.033	-57.369	0.438	0.192
-387.019	-71.360	-0.401	0.149
-386.004	-52.015	0.209	0.096
-384.990	142.391	-0.113	0.150
-383.975	-36.410	-0.252	0.135
-382.960	800.000	0.057	-0.230
-381.946	-74.896	0.161	0.058
-380.931	800.000	-0.087	0.261
-379.917	800.000	-0.066	-0.282
-378.902	800.000	0.044	0.189
-377.888	345.909	0.218	0.426
-376.873	-200.000	-0.018	0.109
-375.858	-4.225	-0.264	0.182
-374.844	119.180	-0.171	0.211
-373.829	29.738	-0.335	0.284
-372.815	-140.738	0.234	0.024
-371.800	369.210	0.119	0.240
-370.785	-34.880	-0.159	0.086
-369.771	-164.092	0.397	0.018
-368.756	139.562	-0.042	0.056
-367.742	171.738	0.200	0.286
-366.727	-82.002	0.071	-0.023
-365.712	-200.000	-0.034	-0.152
-364.698	-200.000	-0.027	0.316
-363.683	9.381	-0.344	-0.259
-362.669	-163.943	-0.323	-0.015
-361.654	800.000	0.072	-0.252
-360.639	150.317	-0.176	-0.237
-359.625	-200.000	-0.008	-0.212
-358.610	99.191	0.187	-0.215
-357.596	59.755	-0.241	-0.237
-356.581	53.951	-0.182	-0.174
-355.566	-158.591	0.221	-0.013
-354.552	576.300	0.006	-0.014
-353.537	-161.843	0.087	-0.004
-352.523	84.578	0.214	0.233
-351.508	-121.215	-0.054	0.009
-350.493	-200.000	0.038	-0.184
-349.479	-200.000	-0.046	0.259
-348.464	229.843	-0.119	-0.194
-347.450	11.732	0.216	-0.165
-346.435	800.000	-0.087	-0.255
-345.420	94.608	-0.133	-0.151
-344.406	231.650	0.023	-0.038
-343.391	-200.000	-0.067	0.326
-342.377	395.217	-0.076	-0.158
-341.362	20.309	-0.246	-0.197
-340.348	-43.509	-0.109	-0.055
-339.333	12.403	0.037	0.029
-338.318	27.047	-0.135	-0.113
-337.304	172.472	0.259	0.370
-336.289	-200.000	0.010	0.266
-335.275	-114.160	0.275	0.053
-334.260	-112.282	0.362	0.072
-333.245	167.331	-0.059	0.084
-332.231	-200.000	0.066	-0.478
-331.216	-200.000	0.053	-0.394
-330.202	7.538	-0.057	0.042
-329.187	-182.983	0.498	-0.009
-328.172	800.000	-0.053	-0.174
-327.158	-200.000	0.043	-0.205
-326.143	-200.000	0.029	-0.160
-325.129	266.697	-0.042	0.073
-324.114	-179.791	-0.610	-0.013
-323.099	-143.358	-0.238	-0.023
-322.085	-70.925	0.286	0.107
-321.070	138.549	-0.227	-0.295
-320.056	632.954	-0.025	0.063
-319.041	-200.000	0.005	-0.035
-318.026	-200.000	0.024	0.174
-317.012	800.000	0.116	0.417
-315.997	36.014	0.053	-0.046
-314.983	-200.000	-0.032	0.427
-313.968	-136.962	0.258	-0.029
-312.953	-102.284	0.097	0.023
-311.939	-169.790	-0.150	0.005
-310.924	-200.000	-0.062	0.387
-309.910	112.332	0.359	-0.431
-308.895	-51.511	0.072	0.033
-307.880	-200.000	0.026	0.289
-306.866	-200.000	0.001	-0.502
-305.851	-103.107	-0.238	-0.056
-304.837	438.077	0.069	0.150
-303.822	-125.889	0.022	-0.003
-302.807	-200.000	-0.063	-0.305
-301.793	-124.378	-0.068	-0.011
-300.778	81.042	0.069	-0.074
-299.764	800.000	-0.033	0.112
-298.749	-200.000	-0.094	0.439
-297.735	-131.458	0.306	-0.040
-296.720	-200.000	-0.004	-0.196
-295.705	646.848	-0.110	-0.278
-294.691	-48.445	0.209	-0.100
-293.676	22.246	-0.061	0.050
-292.662	-72.928	-0.292	0.107
-291.647	800.000	0.019	0.077
-290.632	-111.137	0.236	-0.048
-289.618	-200.000	-0.006	0.043
-288.603	800.000	-0.046	0.150
-287.589	84.848	0.054	0.058
-286.574	31.550	0.092	-0.079
-285.559	-200.000	-0.015	-0.131
-284.545	31.498	-0.251	-0.214
-283.530	-200.000	-0.036	-0.216
-282.516	9.579	-0.088	0.066
-281.501	-63.367	-0.162	0.066
-280.486	-200.000	0.034	-0.172
-279.472	213.516	-0.086	-0.135
-278.457	-200.000	-0.034	0.254
-277.443	139.660	0.137	-0.179
-276.428	150.736	-0.052	0.069
-275.413	275.488	-0.139	0.244
-274.399	274.698	0.197	0.346
-273.384	-60.880	0.214	-0.090
-272.370	-142.954	0.188	-0.018
-271.355	-47.608	-0.178	-0.086
-270.340	-112.653	0.124	-0.025
-269.326	106.582	-0.114	-0.134
-268.311	99.256	0.076	-0.087
-267.297	-75.598	0.084	-0.030
-266.282	-59.526	-0.204	0.087
-265.267	-200.000	-0.109	-0.489
-264.253	-136.249	0.084	-0.010
-263.238	261.831	-0.172	0.296
-262.224	-157.301	-0.083	0.005
-261.209	42.584	0.187	-0.168
-260.195	-101.806	-0.249	-0.060
-259.180	-200.000	-0.059	0.462
-258.165	139.129	-0.079	-0.103
-257.151	699.362	0.109	0.283
-256.136	-200.000	0.013	0.094
-255.122	-27.276	-0.212	-0.122
-254.107	258.826	-0.092	0.157
-253.092	-200.000	0.016	0.269
-252.078	-112.448	-0.378	-0.075
-251.063	548.323	0.035	0.084
-250.049	122.296	-0.117	-0.145
-249.034	97.847	0.150	0.171
-248.019	0.285	-0.194	-0.137
-247.005	15.699	0.272	-0.211
-245.990	800.000	-0.032	0.125
-244.976	-34.372	-0.293	0.159
-243.961	-125.278	0.319	-0.048
-242.946	346.704	0.024	-0.047
-241.932	-67.741	0.241	-0.093
-240.917	-41.063	0.416	0.213
-239.903	436.380	0.106	-0.229
-238.888	354.966	-0.097	-0.191
-237.873	-138.370	0.260	0.028
-236.859	193.972	-0.086	-0.129
-235.844	-16.862	-0.197	0.123
-234.830	-39.779	-0.308	-0.159
-233.815	-43.568	0.142	-0.071
-232.800	703.907	0.086	-0.224
-231.786	-129.423	0.111	0.015
-230.771	273.418	0.119	0.208
-229.757	155.728	-0.213	-0.290
-228.742	-65.703	-0.141	-0.056
-227.727	800.000	0.100	0.405
-226.713	-200.000	-0.021	-0.295
-225.698	-104.247	-0.267	-0.061
-224.684	94.314	0.319	0.359
-223.669	-182.788	-0.062	0.001
-222.655	239.220	0.151	-0.249
-221.640	800.000	0.049	-0.163
-220.625	800.000	-0.037	0.136
-219.611	-71.497	-0.053	0.020
-218.596	800.000	-0.035	0.106
-217.582	-200.000	-0.008	0.276
-216.567	105.840	-0.171	0.200
-215.552	-200.000	0.031	0.370
-214.538	-2.448	-0.182	0.126
-213.523	242.403	0.099	-0.164
-212.509	513.012	-0.094	0.216
-211.494	800.000	0.019	0.052
-210.479	263.715	-0.214	0.367
-209.465	-200.000	-0.008	0.322
-208.450	-53.714	-0.066	-0.030
-207.436	-200.000	0.025	-0.437
-206.421	-200.000	0.024	0.191
-205.406	94.671	-0.202	0.227
-204.392	-16.321	0.104	-0.065
-203.377	-200.000	-0.036	0.251
-202.363	554.701	-0.007	-0.017
-201.348	-154.777	0.282	0.018
-200.333	27.643	-0.304	0.253
-199.319	-84.490	-0.191	0.060
-198.304	488.840	-0.018	-0.041
-197.290	-35.002	-0.221	0.119
-196.275	-80.536	0.183	-0.060
-195.260	-92.329	0.451	0.126
-194.246	-153.715	0.144	-0.010
-193.231	92.815	-0.171	0.191
-192.217	-200.000	-0.047	0.224
-191.202	-155.341	-0.027	0.002
-190.187	-200.000	0.069	0.350
-189.173	-200.000	0.004	0.201
-188.158	-18.630	-0.239	0.147
-187.144	800.000	-0.065	-0.205
-186.129	-200.000	-0.009	0.171
-185.114	-88.064	-0.065	0.019
-184.100	-200.000	0.026	-0.153
-183.085	54.290	0.183	0.174
-182.071	800.000	0.102	0.296
-181.056	-83.825	-0.195	0.061
-180.042	-129.555	0.220	0.030
-179.027	-187.247	0.050	-0.001
-178.012	-73.668	0.131	0.047
-176.998	-154.502	0.273	0.018
-175.983	-200.000	-0.024	0.178
-174.969	-100.059	0.134	-0.033
-173.954	-95.584	0.237	0.063
-172.939	40.329	0.204	0.182
-171.925	403.190	0.061	-0.126
-170.910	-130.759	0.240	0.032
-169.896	-137.307	0.147	-0.016
-168.881	-200.000	-0.003	0.402
-167.866	-126.036	0.066	-0.010
-166.852	-29.157	-0.047	-0.026
-165.837	95.492	-0.087	-0.098
-164.823	404.738	-0.134	0.278
-163.808	75.493	0.143	0.149
-162.793	-200.000	-0.082	-0.703
-161.779	-64.554	0.227	0.091
-160.764	-137.850	0.155	-0.017
-159.750	800.000	-0.056	-0.163
-158.735	-200.000	0.038	-0.252
-157.720	156.887	-0.195	-0.266
-156.706	8.767	0.309	0.230
-155.691	284.164	-0.097	-0.172
-154.677	-26.405	-0.137	0.079
-153.662	-5.376	0.099	0.067
-152.647	-142.339	0.354	0.034
-151.633	-134.209	-0.170	0.021
-150.618	98.512	0.287	0.326
-149.604	189.011	-0.162	-0.239
-148.589	25.624	-0.134	0.110
-147.574	-70.746	0.287	0.107
-146.560	-134.355	-0.389	0.047
-145.545	-91.721	0.143	-0.040
-144.531	-84.565	0.108	-0.034
-143.516	56.431	-0.152	0.146
-142.502	-57.985	-0.203	-0.088
-141.487	-89.004	-0.441	-0.129
-140.472	-180.816	0.240	0.005
-139.458	-200.000	-0.011	0.076
-138.443	800.000	0.011	-0.041
-137.429	-200.000	-0.035	0.323
-136.414	-200.000	0.035	0.204
-135.399	91.091	-0.225	0.249
-134.385	624.971	0.117	0.291
-133.370	633.967	0.057	-0.141
-132.356	-116.326	0.152	-0.028
-131.341	130.857	-0.225	0.285
-130.326	-182.654	-0.186	0.003
-129.312	-139.730	-0.057	-0.006
-128.297	631.396	0.182	-0.454
-127.283	-85.137	0.169	0.052
-126.268	-144.661	0.136	0.012
-125.253	800.000	0.082	0.235
-124.239	159.388	-0.053	-0.073
-123.224	800.000	-0.045	0.149
