DTS Sentinel unit serial number:	SN413079Multiplexer serial number:	ORYXHardware model number:	OX4-SRSoftware version number:	ORYX F/W v4.00 Oryx Data Collector v3.7.2.0data status	okinstallation	princeton_trtdifferential loss correction	single-endedforward channel	channel 3reverse channel	N/Adate	2019/09/14time	04:40:35forward acquisition time	60.00reverse acquisition time	0.00gamma	496.2192k internal	0.2337k external	0.2337temperature offset calibration	1.0056default loss term (dB/km)	0.3790temperature slope calibration	1.0000multiplexer offset coefficient	1.0000multiplexer slope coefficient	1.0000fibre end	0.00T internal ref (°C)	26.81T ext. ref 1 (°C)	3.35T ext. ref 2 (°C)	22.00length (m)	temperature (°C)	Stokes	anti-Stokes-747.200	74.525	-0.082	0.087
-746.185	-160.530	-0.284	0.015
-745.171	202.708	-0.034	0.053
-744.156	-107.996	0.084	0.018
-743.142	-2.704	-0.105	-0.074
-742.127	270.506	-0.138	0.244
-741.112	228.720	-0.218	0.357
-740.098	312.711	0.102	0.193
-739.083	800.000	0.068	0.206
-738.069	-109.876	-0.258	0.054
-737.054	102.548	0.173	-0.203
-736.039	800.000	-0.033	-0.096
-735.025	125.298	0.051	0.064
-734.010	-131.723	-0.391	-0.051
-732.996	597.556	0.055	0.138
-731.981	-53.787	-0.192	0.088
-730.966	-64.858	-0.288	0.117
-729.952	800.000	0.026	0.104
-728.937	-200.000	-0.023	-0.282
-727.923	38.090	0.167	-0.149
-726.908	69.294	-0.097	0.100
-725.894	800.000	0.057	-0.180
-724.879	-183.917	-0.368	-0.006
-723.864	-13.584	-0.097	0.063
-722.850	-200.000	0.015	0.226
-721.835	354.907	-0.190	-0.380
-720.821	510.752	0.060	-0.140
-719.806	97.081	0.049	0.056
-718.791	555.443	-0.190	-0.459
-717.777	-22.896	0.205	-0.124
-716.762	-200.000	0.198	-0.000
-715.748	800.000	0.020	0.089
-714.733	-200.000	-0.001	0.118
-713.718	-127.785	0.140	0.020
-712.704	-123.058	-0.294	-0.047
-711.689	-200.000	0.067	0.405
-710.675	-182.664	-0.227	-0.004
-709.660	-200.000	0.007	0.055
-708.645	-200.000	-0.010	-0.078
-707.631	-84.074	-0.311	0.099
-706.616	-68.851	0.052	0.020
-705.602	-200.000	-0.036	-0.160
-704.587	235.418	-0.206	0.341
-703.572	587.440	0.077	-0.189
-702.558	-161.852	-0.204	-0.010
-701.543	366.819	-0.108	0.219
-700.529	-66.330	-0.209	0.083
-699.514	-43.142	-0.027	0.014
-698.499	-200.000	-0.003	-0.226
-697.485	-200.000	0.055	0.383
-696.470	-101.766	-0.201	-0.049
-695.456	93.923	0.064	0.073
-694.441	245.357	-0.197	0.332
-693.426	-200.000	0.024	0.188
-692.412	-12.604	0.243	-0.159
-691.397	-66.871	0.214	-0.085
-690.383	104.273	-0.340	0.401
-689.368	-182.815	-0.187	0.003
-688.354	-200.000	-0.015	-0.066
-687.339	136.549	0.126	-0.164
-686.324	121.474	0.104	0.129
-685.310	-200.000	-0.016	0.206
-684.295	800.000	-0.046	0.131
-683.281	338.476	0.117	-0.228
-682.266	-6.679	0.231	-0.157
-681.251	-72.539	0.142	-0.052
-680.237	-34.316	-0.179	0.098
-679.222	-70.732	-0.148	0.056
-678.208	-69.373	-0.286	0.110
-677.193	543.177	-0.145	0.347
-676.178	-48.010	0.153	-0.074
-675.164	506.475	0.061	0.141
-674.149	-50.963	-0.199	-0.094
-673.135	356.915	0.033	-0.066
-672.120	421.204	-0.107	-0.229
-671.105	-138.732	0.405	0.044
-670.091	-114.317	-0.222	0.043
-669.076	-119.208	-0.181	0.032
-668.062	-200.000	0.079	0.000
-667.047	-200.000	0.024	-0.247
-666.032	-115.640	-0.031	0.006
-665.018	162.093	0.077	0.108
-664.003	-15.996	0.177	-0.113
-662.989	224.976	0.098	-0.159
-661.974	-200.000	-0.011	0.146
-660.959	-124.698	0.110	0.017
-659.945	28.541	-0.286	0.242
-658.930	78.010	0.200	-0.213
-657.916	28.079	0.115	-0.097
-656.901	75.091	-0.246	0.259
-655.886	-79.233	-0.314	0.106
-654.872	116.250	-0.222	-0.272
-653.857	-120.822	-0.193	0.032
-652.843	800.000	-0.096	-0.314
-651.828	-122.426	-0.320	-0.052
-650.814	-196.528	-0.487	-0.003
-649.799	143.667	0.122	0.163
-648.784	11.352	0.133	0.102
-647.770	-126.881	0.073	-0.011
-646.755	26.140	-0.153	-0.128
-645.741	646.859	0.167	0.425
-644.726	6.971	-0.281	-0.210
-643.711	432.170	-0.113	0.244
-642.697	-167.250	0.276	-0.011
-641.682	-59.638	-0.277	0.119
-640.668	-24.987	-0.366	-0.217
-639.653	-77.665	-0.328	0.114
-638.638	127.019	0.085	-0.108
-637.624	14.033	0.107	-0.084
-636.609	-82.916	0.195	-0.063
-635.595	-84.794	-0.109	0.034
-634.580	-200.000	0.002	0.037
-633.565	234.492	-0.122	-0.200
-632.551	-200.000	0.069	0.363
-631.536	-200.000	0.006	0.212
-630.522	538.562	0.028	-0.066
-629.507	18.981	-0.257	-0.206
-628.492	-200.000	0.035	0.222
-627.478	-62.914	0.101	-0.042
-626.463	209.815	0.159	-0.248
-625.449	130.641	0.213	-0.273
-624.434	-34.862	0.219	0.120
-623.419	37.115	0.294	0.260
-622.405	-200.000	-0.018	0.180
-621.390	-12.679	0.210	0.136
-620.376	-58.604	-0.250	-0.108
-619.361	-61.144	-0.164	0.069
-618.346	-200.000	-0.036	-0.204
-617.332	-123.749	-0.222	-0.035
-616.317	-169.213	-0.172	0.006
-615.303	-200.000	-0.045	0.304
-614.288	23.076	-0.154	-0.126
-613.273	-66.673	-0.090	-0.036
-612.259	-200.000	0.014	0.114
-611.244	-36.430	-0.250	-0.134
-610.230	68.240	0.105	-0.108
-609.215	-156.266	0.213	-0.013
-608.201	-200.000	0.008	-0.126
-607.186	-76.504	0.373	0.131
-606.171	-200.000	-0.080	-0.366
-605.157	-20.658	-0.114	-0.070
-604.142	224.100	-0.128	-0.207
-603.128	-200.000	0.004	0.044
-602.113	800.000	-0.083	0.335
-601.098	-137.430	-0.201	-0.023
-600.084	-1.084	0.042	0.030
-599.069	-74.597	-0.221	0.080
-598.055	213.516	0.136	0.215
-597.040	95.854	0.214	-0.244
-596.025	110.022	-0.163	0.195
-595.011	-200.000	0.056	0.292
-593.996	-156.544	0.240	-0.015
-592.982	-200.000	0.037	-0.231
-591.967	415.793	-0.004	0.008
-590.952	10.591	0.103	-0.079
-589.938	136.649	-0.176	0.229
-588.923	-53.760	0.194	-0.088
-587.909	773.471	0.086	-0.233
-586.894	-23.088	0.218	-0.131
-585.879	800.000	0.026	-0.085
-584.865	-138.591	-0.241	0.026
-583.850	-124.203	0.100	0.016
-582.836	4.045	-0.177	0.129
-581.821	65.867	0.081	-0.082
-580.806	-74.197	0.115	-0.042
-579.792	-46.699	0.088	-0.043
-578.777	288.373	-0.065	-0.118
-577.763	-2.274	-0.105	0.073
-576.748	-200.000	0.054	-0.285
-575.733	800.000	0.073	-0.282
-574.719	-114.505	-0.344	0.066
-573.704	-87.810	-0.048	-0.015
-572.690	-36.685	0.344	-0.184
-571.675	-100.899	-0.116	0.028
-570.661	-64.843	0.237	0.096
-569.646	142.028	0.339	-0.448
-568.631	-78.638	0.058	0.020
-567.617	8.910	-0.049	0.037
-566.602	-0.243	0.151	0.107
-565.588	529.672	0.081	-0.191
-564.573	232.901	-0.045	0.074
-563.558	-200.000	-0.045	-0.311
-562.544	-51.089	-0.428	0.200
-561.529	128.806	-0.072	0.091
-560.515	-140.972	0.158	-0.016
-559.500	-54.188	-0.158	-0.072
-558.485	-121.694	0.265	0.044
-557.471	252.881	0.152	-0.259
-556.456	800.000	0.052	-0.148
-555.442	800.000	0.129	-0.411
-554.427	-112.714	-0.075	-0.015
-553.412	288.989	-0.058	0.105
-552.398	-200.000	0.002	-0.097
-551.383	-200.000	-0.033	-0.201
-550.369	-2.586	-0.383	-0.267
-549.354	800.000	0.066	-0.182
-548.339	800.000	0.076	-0.216
-547.325	-116.911	0.405	0.074
-546.310	-200.000	0.006	0.173
-545.296	-114.214	0.023	0.004
-544.281	-200.000	0.013	0.332
-543.266	-63.669	-0.223	-0.091
-542.252	-200.000	0.043	-0.471
-541.237	2.067	-0.059	0.043
-540.223	-69.267	-0.034	0.013
-539.208	6.176	0.135	-0.100
-538.193	-136.747	-0.436	0.050
-537.179	-97.991	-0.202	0.052
-536.164	207.766	-0.149	0.231
-535.150	-65.212	0.275	-0.110
-534.135	-77.450	0.304	-0.105
-533.121	-200.000	-0.003	-0.133
-532.106	15.696	-0.098	0.077
-531.091	-44.846	0.167	0.083
-530.077	-20.204	0.256	-0.157
-529.062	-131.490	0.195	0.026
-528.048	781.362	0.019	0.051
-527.033	-132.115	-0.227	-0.029
-526.018	-14.674	0.165	0.106
-525.004	332.048	-0.207	-0.397
-523.989	620.517	0.100	-0.251
-522.975	141.824	-0.183	-0.242
-521.960	-11.438	0.111	0.073
-520.945	161.038	-0.095	0.133
-519.931	-108.456	0.239	-0.051
-518.916	800.000	-0.020	-0.056
-517.902	-200.000	-0.007	-0.037
-516.887	554.849	0.032	-0.076
-515.872	535.210	-0.199	0.469
-514.858	-118.795	-0.289	-0.051
-513.843	800.000	0.074	-0.310
-512.829	303.227	-0.145	0.267
-511.814	-100.160	0.121	0.030
-510.799	-91.894	-0.096	-0.027
-509.785	-200.000	-0.006	0.289
-508.770	177.183	-0.148	-0.214
-507.756	37.290	0.161	-0.142
-506.741	-98.694	-0.240	0.061
-505.726	28.337	0.234	0.197
-504.712	508.458	0.064	0.148
-503.697	-4.902	-0.257	-0.176
-502.683	62.761	-0.109	0.108
-501.668	800.000	-0.083	0.254
-500.653	800.000	-0.067	-0.233
-499.639	-106.005	0.146	-0.033
-498.624	-104.646	-0.263	0.060
-497.610	-48.086	0.030	-0.014
-496.595	190.761	0.185	0.277
-495.581	-197.056	0.373	0.002
-494.566	103.723	0.050	-0.058
-493.551	-84.578	-0.308	0.097
-492.537	22.390	0.199	-0.162
-491.522	-82.973	0.239	0.077
-490.508	608.007	-0.073	-0.181
-489.493	-80.231	0.270	0.090
-488.478	-200.000	-0.063	0.367
-487.464	-106.073	0.107	-0.024
-486.449	800.000	-0.165	-0.468
-485.435	800.000	0.045	-0.140
-484.420	635.277	0.052	-0.131
-483.405	-195.088	-0.371	-0.003
-482.391	454.772	-0.074	-0.163
-481.376	82.562	0.078	0.084
-480.362	800.000	0.012	-0.046
-479.347	-52.192	-0.361	0.166
-478.332	438.731	-0.127	-0.275
-477.318	800.000	0.085	-0.345
-476.303	62.912	0.200	-0.198
-475.289	-74.882	0.224	-0.080
-474.274	-86.932	0.255	0.077
-473.259	-4.984	-0.037	-0.025
-472.245	41.879	0.158	-0.142
-471.230	-88.623	0.397	-0.117
-470.216	-200.000	-0.003	-0.101
-469.201	-98.961	0.015	-0.004
-468.186	-200.000	0.044	0.424
-467.172	800.000	0.091	0.264
-466.157	39.556	-0.148	-0.132
-465.143	-79.276	0.110	-0.037
-464.128	-200.000	-0.016	-0.266
-463.113	-158.428	-0.118	-0.007
-462.099	-200.000	-0.014	0.139
-461.084	-142.149	0.063	0.006
-460.070	800.000	-0.089	-0.321
-459.055	-159.666	-0.087	0.005
-458.040	-143.753	-0.265	-0.025
-457.026	-47.731	-0.200	-0.096
-456.011	-200.000	0.009	-0.042
-454.997	-200.000	-0.021	0.186
-453.982	-24.438	-0.105	0.062
-452.968	-87.285	-0.267	0.081
-451.953	732.920	0.032	0.084
-450.938	-93.114	-0.115	-0.032
-449.924	-86.604	0.222	-0.068
-448.909	-200.000	0.000	0.152
-447.895	571.919	0.037	0.090
-446.880	213.144	-0.239	-0.375
-445.865	170.711	0.123	-0.175
-444.851	-78.315	-0.030	-0.010
-443.836	-200.000	0.030	0.160
-442.822	-120.099	0.528	0.090
-441.807	-52.352	0.149	-0.068
-440.792	800.000	0.055	-0.220
-439.778	-16.194	-0.230	-0.145
-438.763	79.070	0.223	0.237
-437.749	-171.421	-0.241	0.008
-436.734	-104.168	0.031	-0.007
-435.719	69.799	-0.192	0.196
-434.705	205.228	0.208	0.321
-433.690	380.447	0.100	0.203
-432.676	0.357	0.119	-0.084
-431.661	800.000	-0.073	-0.228
-430.646	-34.662	0.116	-0.063
-429.632	-200.000	0.022	0.163
-428.617	-36.122	0.229	0.123
-427.603	-47.268	0.382	0.185
-426.588	105.144	-0.113	-0.132
-425.573	27.320	0.037	0.031
-424.559	-9.845	-0.156	-0.103
-423.544	-40.320	0.054	-0.028
-422.530	345.407	-0.097	-0.190
-421.515	-78.862	-0.164	0.055
-420.500	-134.023	-0.162	-0.020
-419.486	-47.121	0.160	-0.077
-418.471	800.000	-0.039	-0.140
-417.457	520.900	0.078	0.182
-416.442	-134.915	0.505	-0.060
-415.428	-20.588	-0.149	0.090
-414.413	-96.100	-0.324	0.085
-413.398	-41.716	0.201	0.102
-412.384	-121.168	-0.236	-0.039
-411.369	-88.671	-0.226	0.067
-410.355	-132.568	-0.419	-0.053
-409.340	-200.000	-0.069	-0.352
-408.325	93.516	-0.105	0.117
-407.311	251.140	-0.089	-0.149
-406.296	364.987	0.086	0.171
-405.282	-153.498	0.291	0.020
-404.267	-46.893	-0.052	0.025
-403.252	143.378	-0.233	-0.307
-402.238	-200.000	0.005	-0.107
-401.223	-200.000	0.018	-0.214
-400.209	169.068	0.173	-0.244
-399.194	466.661	0.104	-0.232
-398.179	-200.000	0.039	-0.371
-397.165	25.201	0.167	0.137
-396.150	-45.546	-0.054	0.027
-395.136	-167.588	0.202	0.008
-394.121	-155.074	-0.286	0.019
-393.106	-91.265	0.152	0.043
-392.092	-100.609	-0.302	0.074
-391.077	183.812	-0.115	-0.169
-390.063	-154.699	0.295	-0.019
-389.048	-23.798	-0.132	-0.078
-388.033	282.767	0.108	0.191
-387.019	-122.622	-0.228	-0.037
-386.004	-136.765	0.069	-0.008
-384.990	-102.076	0.302	0.072
-383.975	204.016	0.133	-0.203
-382.960	109.929	0.093	-0.110
-381.946	-45.889	-0.341	0.166
-380.931	-118.538	-0.036	-0.006
-379.917	110.101	-0.120	0.142
-378.902	714.619	0.093	-0.244
-377.888	429.764	-0.034	-0.073
-376.873	-200.000	0.030	0.345
-375.858	129.544	0.294	-0.372
-374.844	649.036	0.178	0.449
-373.829	-200.000	0.013	0.093
-372.815	152.578	-0.187	0.253
-371.800	-37.463	0.048	-0.025
-370.785	-188.987	0.234	0.003
-369.771	-200.000	0.015	0.111
-368.756	102.712	-0.041	-0.047
-367.742	-63.005	0.220	0.090
-366.727	434.994	-0.025	-0.054
-365.712	571.987	0.047	0.114
-364.698	-69.075	-0.144	-0.055
-363.683	-9.597	0.160	-0.105
-362.669	800.000	-0.121	0.469
-361.654	331.894	0.201	-0.383
-360.639	352.034	0.159	-0.312
-359.625	339.161	-0.070	-0.135
-358.610	168.722	-0.140	-0.197
-357.596	-200.000	-0.001	0.255
-356.581	47.190	0.187	0.172
-355.566	22.923	-0.179	0.145
-354.552	-200.000	-0.093	0.560
-353.537	-118.004	-0.268	0.047
-352.523	83.043	-0.099	-0.106
-351.508	458.753	0.106	-0.232
-350.493	-102.605	0.067	-0.016
-349.479	-200.000	0.028	-0.179
-348.464	54.807	0.083	-0.079
-347.450	-200.000	0.048	-0.269
-346.435	800.000	-0.136	-0.481
-345.420	-200.000	-0.077	0.368
-344.406	-115.547	0.134	-0.025
-343.391	-24.144	0.231	0.136
-342.377	800.000	0.037	0.153
-341.362	20.935	0.113	-0.091
-340.348	262.032	0.166	0.284
-339.333	-152.213	-0.168	0.012
-338.318	-200.000	-0.025	-0.174
-337.304	-91.189	-0.170	0.048
-336.289	-90.141	-0.403	-0.116
-335.275	-163.171	0.525	0.025
-334.260	-65.910	-0.286	-0.113
-333.245	-89.037	-0.251	-0.073
-332.231	419.644	0.133	0.281
-331.216	-152.272	-0.409	-0.029
-330.202	-45.672	0.391	-0.191
-329.187	73.726	-0.316	-0.327
-328.172	-108.101	0.327	-0.070
-327.158	800.000	0.004	0.018
-326.143	-200.000	0.041	0.224
-325.129	-181.417	0.336	-0.007
-324.114	-78.108	0.095	-0.032
-323.099	800.000	-0.140	-0.467
-322.085	-18.913	-0.120	-0.074
-321.070	-200.000	-0.010	-0.398
-320.056	-117.292	0.418	0.075
-319.041	-200.000	0.013	0.099
-318.026	-200.000	-0.010	0.258
-317.012	-10.554	-0.420	-0.275
-315.997	268.161	0.095	-0.164
-314.983	-76.818	0.245	0.085
-313.968	-194.234	-0.292	0.002
-312.953	-127.043	-0.104	-0.015
-311.939	255.670	-0.117	0.199
-310.924	800.000	0.026	-0.085
-309.910	138.991	0.168	-0.218
-308.895	329.170	-0.120	0.228
-307.880	112.263	-0.190	0.227
-306.866	-200.000	0.007	0.033
-305.851	800.000	0.160	0.525
-304.837	-200.000	-0.011	-0.215
-303.822	333.309	0.061	0.117
-302.807	-175.961	0.210	0.006
-301.793	391.021	-0.060	-0.124
-300.778	-121.250	-0.234	0.039
-299.764	-38.230	0.173	-0.090
-298.749	-200.000	0.028	0.157
-297.735	-194.459	-0.297	0.002
-296.720	-119.707	-0.164	-0.028
-295.705	-70.506	0.100	0.037
-294.691	-39.997	-0.306	-0.157
-293.676	-142.986	-0.157	0.015
-292.662	-156.924	0.410	0.025
-291.647	800.000	0.087	0.314
-290.632	6.371	0.241	-0.177
-289.618	-59.014	0.164	-0.070
-288.603	217.386	0.144	0.227
-287.589	-180.859	0.415	0.008
-286.574	-52.689	-0.315	-0.143
-285.559	7.116	-0.232	0.171
-284.545	-200.000	-0.009	0.131
-283.530	318.719	-0.032	0.061
-282.516	-70.835	-0.079	0.029
-281.501	301.067	-0.160	-0.290
-280.486	-200.000	0.049	0.487
-279.472	-200.000	-0.027	0.365
-278.457	97.975	0.120	-0.136
-277.443	702.005	0.101	0.263
-276.428	-27.042	0.247	-0.142
-275.413	183.017	0.103	0.150
-274.399	-34.880	-0.126	-0.068
-273.384	44.360	0.068	-0.062
-272.370	780.455	-0.035	0.096
-271.355	-116.136	0.304	0.056
-270.340	-200.000	0.001	0.131
-269.326	519.439	-0.055	-0.126
-268.311	6.515	-0.115	-0.084
-267.297	-200.000	0.001	0.051
-266.282	-95.478	-0.370	0.098
-265.267	167.851	-0.108	-0.151
-264.253	-52.945	0.235	-0.107
-263.238	800.000	0.050	0.195
-262.224	514.997	-0.116	-0.267
-261.209	314.459	-0.021	-0.039
-260.195	-31.339	0.174	0.096
-259.180	800.000	-0.018	0.055
-258.165	22.028	-0.090	-0.072
-257.151	-57.542	-0.153	-0.066
-256.136	-85.560	-0.146	-0.045
-255.122	-200.000	-0.010	-0.158
-254.107	-200.000	-0.061	-0.442
-253.092	-194.912	0.062	-0.000
-252.078	-200.000	-0.064	0.585
-251.063	38.712	-0.137	0.120
-250.049	-72.588	0.171	0.062
-249.034	800.000	0.044	-0.127
-248.019	-200.000	-0.002	-0.236
-247.005	-78.138	-0.174	0.059
-245.990	-85.453	0.349	0.107
-244.976	-88.002	-0.082	-0.024
-243.961	229.066	-0.111	-0.178
-242.946	-200.000	-0.027	0.302
-241.932	-142.868	0.220	-0.021
-240.917	-83.788	0.196	-0.062
-239.903	-130.348	0.127	0.017
-238.888	-136.352	0.189	0.022
-237.873	366.478	-0.085	-0.169
-236.859	-27.394	-0.153	0.088
-235.844	-146.396	-0.295	-0.025
-234.830	-200.000	-0.002	0.073
-233.815	687.603	-0.014	0.036
-232.800	30.020	-0.401	0.336
-231.786	-200.000	0.034	0.486
-230.771	-200.000	0.012	0.245
-229.757	72.589	-0.113	0.116
-228.742	496.845	-0.014	-0.031
-227.727	-200.000	0.042	-0.207
-226.713	-16.921	0.228	0.142
-225.698	-7.377	-0.120	0.080
-224.684	-200.000	0.010	0.110
-223.669	316.982	0.054	-0.101
-222.655	259.251	0.176	-0.299
-221.640	-89.863	0.066	0.019
-220.625	19.834	0.134	-0.106
-219.611	237.156	-0.017	-0.028
-218.596	-78.476	0.193	0.065
-217.582	-200.000	0.030	-0.211
-216.567	800.000	-0.037	0.148
-215.552	-97.333	0.131	0.034
-214.538	98.564	0.110	-0.125
-213.523	88.102	-0.214	0.233
-212.509	-64.123	0.191	0.077
-211.494	398.705	0.122	0.251
-210.479	-138.315	0.142	-0.015
-209.465	-16.469	-0.243	-0.151
-208.450	114.437	0.107	0.129
-207.436	800.000	-0.063	0.177
-206.421	-90.668	-0.266	0.076
-205.406	-129.410	0.101	0.014
-204.392	-200.000	0.027	0.159
-203.377	148.304	0.212	-0.281
-202.363	-200.000	0.005	-0.102
-201.348	-121.227	0.342	-0.056
-200.333	155.943	0.122	-0.165
-199.319	-35.797	-0.198	0.105
-198.304	428.185	0.241	0.511
-197.290	-200.000	0.037	0.239
-196.275	-71.102	-0.097	0.036
-195.260	176.457	-0.169	-0.241
-194.246	97.915	-0.215	-0.243
-193.231	-103.611	-0.225	0.052
-192.217	143.823	-0.140	0.183
-191.202	53.249	-0.214	0.202
-190.187	81.697	-0.042	0.045
-189.173	-133.276	-0.413	-0.051
-188.158	55.982	-0.139	0.132
-187.144	133.883	0.171	-0.217
-186.129	462.324	0.177	-0.387
-185.114	-200.000	0.031	0.239
-184.100	-200.000	-0.035	-0.180
-183.085	-118.605	0.286	0.050
-182.071	72.961	-0.138	0.141
-181.056	-12.104	0.168	0.108
-180.042	-49.308	-0.089	-0.042
-179.027	-150.547	-0.280	0.021
-178.012	28.375	-0.043	-0.036
-176.998	-200.000	0.005	0.420
-175.983	-200.000	-0.001	-0.154
-174.969	414.675	-0.051	-0.107
-173.954	800.000	-0.056	0.165
-172.939	-40.322	-0.213	0.109
-171.925	37.102	0.174	-0.151
-170.910	508.028	0.047	0.108
-169.896	212.995	-0.229	0.355
-168.881	-66.514	0.164	-0.064
-167.866	800.000	-0.037	-0.151
-166.852	-127.441	0.074	-0.011
-165.837	-200.000	0.044	0.305
-164.823	800.000	-0.084	0.260
-163.808	92.673	-0.037	0.041
-162.793	-200.000	0.006	-0.084
-161.779	-13.808	0.026	0.016
-160.764	-200.000	-0.013	0.151
-159.750	800.000	-0.069	0.249
-158.735	-144.690	0.319	0.029
-157.720	198.736	-0.213	0.320
-156.706	-65.137	-0.008	-0.003
-155.691	800.000	0.138	0.408
-154.677	142.862	-0.215	-0.280
-153.662	-200.000	-0.365	0.001
-152.647	70.138	-0.269	0.272
-151.633	-26.406	-0.309	0.178
-150.618	32.617	0.173	0.147
-149.604	-200.000	0.040	-0.211
-148.589	-53.043	-0.251	-0.113
-147.574	178.208	-0.076	0.109
-146.560	-200.000	0.019	0.240
-145.545	204.078	0.096	0.146
-144.531	270.717	0.079	0.137
-143.516	-121.124	0.429	-0.070
-142.502	-200.000	0.020	0.124
-141.487	328.020	0.123	0.232
-140.472	20.844	0.104	0.083
-139.458	-109.178	0.147	0.031
-138.443	800.000	0.028	0.094
-137.429	9.252	0.052	-0.039
-136.414	-52.091	0.171	-0.078
-135.399	800.000	-0.082	0.279
-134.385	-134.605	0.242	0.029
-133.370	48.213	-0.128	-0.117
-132.356	-200.000	-0.039	0.274
-131.341	402.830	-0.129	0.267
-130.326	-200.000	-0.064	0.458
-129.312	47.940	0.023	0.021
-128.297	-21.231	0.435	-0.261
-127.283	-118.789	0.213	0.037
-126.268	-12.076	0.170	0.109
-125.253	171.724	-0.071	0.100
-124.239	-69.110	0.266	-0.100
-123.224	-200.000	0.015	0.348
-122.210	-200.000	0.032	-0.202
