DTS Sentinel unit serial number:	SN413079Multiplexer serial number:	ORYXHardware model number:	OX4-SRSoftware version number:	ORYX F/W v4.00 Oryx Data Collector v3.7.2.0data status	okinstallation	princeton_trtdifferential loss correction	single-endedforward channel	channel 3reverse channel	N/Adate	2019/09/17time	15:24:34forward acquisition time	60.00reverse acquisition time	0.00gamma	496.2192k internal	0.2294k external	0.2294temperature offset calibration	0.9954default loss term (dB/km)	0.3790temperature slope calibration	1.0000multiplexer offset coefficient	1.0000multiplexer slope coefficient	1.0000fibre end	0.00T internal ref (°C)	38.08T ext. ref 1 (°C)	0.38T ext. ref 2 (°C)	35.34length (m)	temperature (°C)	Stokes	anti-Stokes-747.200	318.586	0.053	0.103
-746.185	-103.676	-0.232	0.056
-745.171	-15.514	0.114	0.074
-744.156	-19.450	-0.215	0.136
-743.142	386.629	-0.088	0.186
-742.127	592.176	0.076	-0.192
-741.112	-200.000	-0.014	-0.193
-740.098	-164.362	-0.451	0.021
-739.083	800.000	-0.032	-0.096
-738.069	-200.000	0.003	-0.216
-737.054	-200.000	-0.004	-0.217
-736.039	32.500	-0.130	0.115
-735.025	379.397	0.080	0.167
-734.010	800.000	-0.032	0.116
-732.996	-200.000	-0.007	-0.551
-731.981	-19.405	-0.243	-0.154
-730.966	36.304	0.167	-0.150
-729.952	-200.000	0.000	0.012
-728.937	-36.856	0.110	-0.060
-727.923	46.167	-0.056	0.053
-726.908	-44.770	-0.115	0.059
-725.894	-200.000	0.055	-0.248
-724.879	-34.820	0.154	0.086
-723.864	-125.622	-0.205	0.032
-722.850	-200.000	0.039	-0.219
-721.835	-145.129	-0.325	0.030
-720.821	62.021	0.110	0.112
-719.806	-145.131	0.201	-0.019
-718.791	-74.989	-0.427	-0.156
-717.777	65.708	-0.161	-0.167
-716.762	-151.273	-0.124	-0.009
-715.748	62.109	-0.039	-0.040
-714.733	-87.620	0.156	-0.048
-713.718	3.272	0.080	0.059
-712.704	-51.484	-0.164	-0.078
-711.689	-63.474	-0.247	-0.104
-710.675	-59.727	-0.134	0.059
-709.660	-92.947	0.433	-0.124
-708.645	-200.000	-0.037	0.278
-707.631	117.999	-0.082	0.103
-706.616	-200.000	0.024	0.203
-705.602	800.000	0.037	-0.153
-704.587	29.425	0.128	-0.111
-703.572	541.093	0.077	-0.187
-702.558	-187.366	-0.075	0.001
-701.543	-66.502	0.064	-0.026
-700.529	374.737	0.076	-0.157
-699.514	-4.698	-0.393	-0.276
-698.499	-47.561	-0.030	-0.015
-697.485	-44.905	0.284	-0.144
-696.470	-39.693	-0.213	-0.114
-695.456	526.194	0.071	-0.170
-694.441	-118.834	0.210	0.038
-693.426	217.122	0.263	0.427
-692.412	-21.139	-0.317	0.198
-691.397	-200.000	-0.012	0.536
-690.383	-162.273	-0.245	0.012
-689.368	191.560	-0.118	0.181
-688.354	-200.000	-0.023	-0.122
-687.339	-172.575	0.030	0.001
-686.324	134.280	-0.073	-0.097
-685.310	-18.506	0.172	-0.110
-684.295	329.981	0.111	-0.219
-683.281	-113.537	-0.260	0.052
-682.266	-52.090	0.284	-0.135
-681.251	96.348	-0.073	0.085
-680.237	192.296	-0.098	0.151
-679.222	800.000	0.059	0.186
-678.208	-83.090	-0.106	-0.035
-677.193	-92.181	-0.229	0.066
-676.178	-200.000	0.010	-0.211
-675.164	-95.441	-0.570	0.156
-674.149	-68.710	-0.089	0.035
-673.135	-0.380	-0.179	-0.130
-672.120	-6.438	0.095	-0.066
-671.105	13.586	-0.134	-0.106
-670.091	-101.665	0.116	-0.029
-669.076	38.592	0.131	-0.119
-668.062	-200.000	0.016	-0.283
-667.047	64.223	-0.158	-0.162
-666.032	55.574	0.201	0.199
-665.018	-128.572	-0.162	-0.023
-664.003	171.235	-0.095	-0.139
-662.989	-45.929	0.097	-0.049
-661.974	-25.211	0.192	-0.116
-660.959	-58.951	0.207	-0.091
-659.945	800.000	0.023	0.072
-658.930	735.105	0.037	0.100
-657.916	6.366	-0.100	-0.076
-656.901	-200.000	0.034	0.371
-655.886	800.000	-0.100	-0.413
-654.872	275.857	0.129	0.233
-653.857	-200.000	-0.028	-0.324
-652.843	145.852	-0.142	-0.194
-651.828	69.271	-0.334	-0.350
-650.814	696.834	-0.061	-0.164
-649.799	579.186	-0.070	-0.176
-648.784	-200.000	0.007	0.116
-647.770	-47.730	0.445	0.220
-646.755	187.344	0.142	-0.215
-645.741	-200.000	0.008	0.286
-644.726	321.535	-0.126	0.244
-643.711	-6.811	0.218	-0.151
-642.697	-114.394	0.443	-0.087
-641.682	51.980	0.337	-0.327
-640.668	-188.195	0.245	0.003
-639.653	-200.000	-0.004	-0.024
-638.638	800.000	0.014	-0.045
-637.624	-118.904	-0.249	0.045
-636.609	-52.506	0.179	0.084
-635.595	-103.098	-0.220	-0.053
-634.580	465.711	0.030	0.069
-633.565	119.756	-0.111	0.140
-632.551	-96.131	0.090	0.024
-631.536	-90.384	-0.330	-0.097
-630.522	-200.000	-0.002	-0.510
-629.507	262.932	0.135	0.239
-628.492	25.912	0.284	-0.241
-627.478	-32.358	0.193	-0.109
-626.463	-200.000	0.023	-0.118
-625.449	-143.608	0.212	-0.020
-624.434	-45.289	-0.077	-0.039
-623.419	-200.000	0.041	-0.225
-622.405	-96.990	-0.165	0.044
-621.390	-200.000	0.023	0.165
-620.376	-176.396	0.210	0.006
-619.361	-31.195	0.226	-0.130
-618.346	-200.000	0.025	0.375
-617.332	-40.699	-0.378	0.199
-616.317	-200.000	-0.005	0.157
-615.303	-35.995	-0.265	0.146
-614.288	-18.435	0.011	-0.007
-613.273	338.861	0.028	-0.055
-612.259	-82.964	-0.211	0.069
-611.244	-47.731	-0.249	-0.123
-610.230	111.747	0.136	-0.167
-609.215	-200.000	0.017	-0.241
-608.201	58.155	-0.101	0.101
-607.186	-181.104	0.219	0.004
-606.171	800.000	0.056	0.225
-605.157	-200.000	0.020	-0.138
-604.142	-200.000	0.086	-0.410
-603.128	-30.897	-0.321	0.185
-602.113	-37.063	-0.044	-0.024
-601.098	-92.852	0.149	0.042
-600.084	-126.627	-0.141	0.021
-599.069	-157.195	-0.187	0.012
-598.055	101.011	-0.127	0.151
-597.040	-200.000	0.004	-0.188
-596.025	78.559	-0.053	0.057
-595.011	-82.192	-0.094	0.031
-593.996	164.921	0.105	0.151
-592.982	125.796	-0.177	0.227
-591.967	-6.018	-0.198	-0.137
-590.952	58.977	0.133	0.133
-589.938	163.678	0.054	-0.077
-588.923	-78.687	0.071	-0.025
-587.909	-200.000	-0.007	-0.086
-586.894	217.870	-0.082	0.133
-585.879	74.010	0.061	-0.065
-584.865	-200.000	-0.009	-0.260
-583.850	-81.906	-0.053	-0.018
-582.836	383.785	0.096	-0.201
-581.821	-101.437	-0.192	0.048
-580.806	735.105	0.207	-0.564
-579.792	10.421	-0.134	0.104
-578.777	800.000	0.057	-0.225
-577.763	800.000	-0.051	-0.219
-576.748	92.236	0.228	0.261
-575.733	299.494	-0.175	0.328
-574.719	800.000	0.024	-0.091
-573.704	-41.795	0.205	0.107
-572.690	-200.000	-0.014	-0.119
-571.675	-144.498	-0.181	0.017
-570.661	-200.000	-0.003	0.074
-569.646	800.000	0.102	0.295
-568.631	-200.000	-0.030	-0.143
-567.617	-200.000	0.097	0.000
-566.602	-0.682	-0.213	-0.154
-565.588	413.015	-0.052	0.113
-564.573	-200.000	0.034	-0.168
-563.558	-191.582	0.299	0.003
-562.544	-131.150	0.213	-0.029
-561.529	-200.000	-0.015	-0.070
-560.515	-187.459	-0.153	0.002
-559.500	335.483	-0.037	-0.072
-558.485	-111.593	-0.452	0.093
-557.471	-200.000	-0.013	0.105
-556.456	800.000	0.070	0.271
-555.442	-143.464	-0.105	-0.010
-554.427	-161.566	0.646	0.034
-553.412	-2.825	0.149	-0.106
-552.398	181.682	0.045	0.067
-551.383	38.031	0.157	-0.141
-550.369	-37.721	-0.179	0.097
-549.354	-200.000	-0.062	-0.379
-548.339	26.880	0.223	0.189
-547.325	-91.614	-0.438	0.126
-546.310	800.000	0.084	0.276
-545.296	7.601	-0.025	-0.019
-544.281	-200.000	0.002	0.301
-543.266	-95.504	-0.105	0.029
-542.252	63.903	-0.286	0.292
-541.237	299.491	0.120	0.224
-540.223	725.609	0.076	-0.205
-539.208	10.948	-0.225	0.174
-538.193	800.000	-0.051	-0.169
-537.179	-105.403	-0.168	-0.039
-536.164	99.831	0.225	-0.265
-535.150	179.533	-0.242	-0.359
-534.135	-90.453	0.196	-0.058
-533.121	-80.374	0.380	-0.129
-532.106	585.596	-0.130	-0.325
-531.091	108.803	0.074	-0.090
-530.077	192.438	-0.248	-0.379
-529.062	157.692	-0.028	-0.039
-528.048	425.894	0.104	0.227
-527.033	766.816	0.082	0.225
-526.018	-200.000	-0.019	0.207
-525.004	-68.751	-0.153	0.060
-523.989	-70.278	-0.107	-0.041
-522.975	-89.538	-0.128	-0.038
-521.960	46.356	0.149	0.140
-520.945	-132.846	-0.132	0.017
-519.931	-200.000	0.009	-0.263
-518.916	-52.499	0.230	-0.108
-517.902	-24.406	-0.084	0.051
-516.887	-141.897	0.133	-0.013
-515.872	736.640	0.055	-0.150
-514.858	25.803	-0.100	-0.085
-513.843	35.191	0.145	0.129
-512.829	168.126	0.133	-0.192
-511.814	-200.000	-0.024	0.121
-510.799	-200.000	0.003	0.078
-509.785	-73.719	-0.408	-0.150
-508.770	-200.000	-0.032	-0.256
-507.756	16.427	0.051	-0.041
-506.741	-69.149	-0.133	0.052
-505.726	594.449	0.131	0.328
-504.712	-177.997	-0.267	0.006
-503.697	-200.000	-0.027	0.232
-502.683	-200.000	-0.000	0.008
-501.668	-200.000	-0.026	0.140
-500.653	202.758	-0.221	-0.346
-499.639	-119.843	-0.316	-0.055
-498.624	-164.537	0.195	-0.009
-497.610	800.000	-0.113	0.368
-496.595	603.391	0.067	0.168
-495.581	-200.000	-0.021	0.227
-494.566	135.511	0.119	0.156
-493.551	-98.776	-0.222	-0.057
-492.537	-58.177	0.140	-0.062
-491.522	-68.286	0.147	0.058
-490.508	537.391	-0.033	0.080
-489.493	-115.854	0.138	-0.026
-488.478	-71.653	0.421	-0.159
-487.464	-200.000	-0.059	-0.292
-486.449	248.672	-0.065	0.111
-485.435	116.916	0.170	-0.211
-484.420	68.881	-0.168	0.174
-483.405	508.007	0.118	-0.278
-482.391	229.213	0.129	0.213
-481.376	370.108	0.119	0.244
-480.362	-156.464	-0.297	0.019
-479.347	35.105	0.109	0.097
-478.332	-157.748	0.290	0.017
-477.318	124.047	0.183	0.232
-476.303	423.375	-0.092	0.200
-475.289	273.875	-0.163	0.291
-474.274	-50.496	0.138	-0.066
-473.259	-69.755	-0.038	-0.015
-472.245	-200.000	0.041	-0.309
-471.230	-200.000	0.025	0.135
-470.216	-200.000	-0.049	-0.247
-469.201	-200.000	0.027	0.174
-468.186	-87.127	0.050	0.015
-467.172	-92.493	-0.211	-0.060
-466.157	247.985	-0.104	0.178
-465.143	-200.000	0.042	0.360
-464.128	707.540	0.105	-0.281
-463.113	-200.000	-0.023	0.254
-462.099	-107.540	-0.204	0.045
-461.084	50.698	-0.302	0.289
-460.070	20.861	-0.119	-0.098
-459.055	-200.000	0.017	0.145
-458.040	14.016	-0.041	0.032
-457.026	-200.000	-0.020	-0.140
-456.011	370.574	0.026	0.054
-454.997	-90.543	-0.269	0.079
-453.982	-200.000	-0.029	0.145
-452.968	76.712	0.090	-0.096
-451.953	-20.729	-0.118	-0.073
-450.938	-89.053	0.187	0.056
-449.924	122.337	0.121	-0.153
-448.909	-82.105	0.329	0.108
-447.895	-92.425	-0.132	0.037
-446.880	-32.943	-0.246	-0.138
-445.865	61.909	-0.102	-0.103
-444.851	-80.385	0.164	-0.055
-443.836	549.146	0.087	0.211
-442.822	187.960	-0.099	-0.150
-441.807	71.900	0.076	-0.080
-440.792	-67.544	0.148	-0.059
-439.778	91.009	0.097	-0.110
-438.763	59.875	0.285	0.284
-437.749	-71.929	-0.418	-0.157
-436.734	226.390	-0.129	-0.211
-435.719	-36.382	-0.208	0.113
-434.705	249.739	0.187	0.320
-433.690	-42.741	-0.046	-0.024
-432.676	-51.414	-0.146	-0.069
-431.661	-141.788	-0.087	0.009
-430.646	-90.172	0.234	-0.069
-429.632	31.615	-0.137	0.119
-428.617	800.000	-0.055	-0.171
-427.603	-100.909	-0.211	-0.052
-426.588	-106.536	-0.356	-0.080
-425.573	-49.771	0.400	-0.192
-424.559	-135.587	0.293	0.035
-423.544	-200.000	-0.025	-0.147
-422.530	431.431	0.058	0.127
-421.515	-101.937	0.228	0.056
-420.500	800.000	-0.087	-0.377
-419.486	800.000	-0.152	-0.495
-418.471	-200.000	0.040	0.262
-417.457	-200.000	-0.025	0.232
-416.442	106.414	0.131	-0.157
-415.428	-2.357	0.087	-0.061
-414.413	412.940	0.056	-0.121
-413.398	-70.433	0.265	0.102
-412.384	65.989	-0.070	-0.072
-411.369	-65.612	0.046	0.018
-410.355	3.358	0.068	-0.050
-409.340	-62.818	0.341	-0.142
-408.325	-200.000	0.002	-0.051
-407.311	-97.555	-0.159	-0.042
-406.296	-12.089	-0.132	0.087
-405.282	800.000	-0.002	-0.006
-404.267	506.436	-0.094	0.219
-403.252	47.300	-0.254	-0.239
-402.238	24.614	0.316	0.264
-401.223	51.146	0.058	-0.055
-400.209	-121.662	0.224	0.037
-399.194	-3.589	0.181	0.127
-398.179	-200.000	-0.016	0.261
-397.165	-200.000	0.006	-0.278
-396.150	-200.000	-0.029	-0.173
-395.136	-46.910	-0.186	-0.092
-394.121	-66.392	-0.076	0.031
-393.106	-200.000	-0.015	0.169
-392.092	-104.950	0.070	0.016
-391.077	267.576	0.067	0.118
-390.063	800.000	0.077	0.239
-389.048	-200.000	0.063	-0.375
-388.033	149.929	-0.207	0.283
-387.019	-93.359	0.443	-0.124
-386.004	-28.702	-0.289	-0.168
-384.990	800.000	0.106	0.358
-383.975	800.000	-0.036	0.151
-382.960	-54.370	0.193	-0.088
-381.946	137.002	0.191	-0.251
-380.931	257.413	-0.133	0.230
-379.917	106.300	0.058	0.069
-378.902	183.257	0.143	-0.212
-377.888	-200.000	0.004	0.157
-376.873	-200.000	0.009	-0.088
-375.858	49.902	0.268	0.255
-374.844	175.511	0.101	-0.148
-373.829	516.532	0.069	0.162
-372.815	800.000	0.054	0.167
-371.800	-98.561	-0.221	0.057
-370.785	-200.000	0.072	0.395
-369.771	-200.000	0.008	0.101
-368.756	-200.000	-0.037	0.194
-367.742	-71.846	0.007	0.003
-366.727	170.739	-0.095	0.137
-365.712	800.000	0.046	0.164
-364.698	-25.001	-0.289	0.173
-363.683	800.000	-0.177	-0.498
-362.669	286.340	0.016	-0.030
-361.654	-200.000	0.022	-0.260
-360.639	-153.388	0.077	-0.005
-359.625	800.000	0.063	-0.271
-358.610	-73.976	0.206	-0.075
-357.596	-200.000	0.012	-0.427
-356.581	211.025	-0.041	-0.065
-355.566	-63.122	-0.147	0.061
-354.552	-42.436	-0.295	0.152
-353.537	124.977	-0.058	0.073
-352.523	-200.000	0.005	0.168
-351.508	250.163	-0.044	0.076
-350.493	-7.275	-0.217	-0.148
-349.479	-2.956	0.242	0.170
-348.464	800.000	0.055	0.219
-347.450	257.872	0.196	-0.340
-346.435	-189.581	-0.197	0.002
-345.420	90.136	0.104	-0.117
-344.406	-48.571	0.029	-0.014
-343.391	15.552	-0.103	0.082
-342.377	800.000	0.079	-0.337
-341.362	-124.124	0.608	0.096
-340.348	276.721	0.306	-0.548
-339.333	111.079	-0.025	0.031
-338.318	800.000	-0.060	0.238
-337.304	-14.700	-0.114	-0.074
-336.289	-200.000	-0.028	0.153
-335.275	612.016	0.107	-0.268
-334.260	243.929	0.028	0.048
-333.245	800.000	-0.085	0.297
-332.231	800.000	0.057	0.209
-331.216	319.801	-0.007	0.014
-330.202	-24.202	-0.089	0.053
-329.187	-57.759	0.367	0.162
-328.172	-151.240	-0.125	0.009
-327.158	800.000	-0.021	-0.067
-326.143	-200.000	-0.035	0.191
-325.129	800.000	-0.055	-0.221
-324.114	144.488	0.205	-0.275
-323.099	90.006	-0.120	-0.135
-322.085	-35.289	-0.164	-0.090
-321.070	9.765	-0.138	0.105
-320.056	66.342	0.138	-0.141
-319.041	59.132	0.149	-0.147
-318.026	464.620	0.130	-0.293
-317.012	560.483	0.068	-0.165
-315.997	-170.640	-0.326	-0.011
-314.983	-120.664	-0.467	-0.080
-313.968	-59.691	-0.080	-0.035
-312.953	-200.000	0.010	-0.151
-311.939	64.696	-0.070	0.071
-310.924	123.427	-0.068	-0.086
-309.910	800.000	0.038	0.165
-308.895	-141.621	-0.145	-0.015
-307.880	-200.000	0.000	0.258
-306.866	-130.013	-0.233	0.032
-305.851	-158.776	0.365	0.021
-304.837	205.374	-0.165	-0.258
-303.822	-31.820	-0.207	0.117
-302.807	210.527	-0.273	-0.432
-301.793	-200.000	-0.013	-0.300
-300.778	131.564	-0.043	0.056
-299.764	77.004	0.064	-0.069
-298.749	18.455	0.421	-0.338
-297.735	-133.716	0.120	-0.015
-296.720	13.812	-0.125	0.097
-295.705	-165.866	0.290	0.013
-294.691	23.743	-0.246	0.204
-293.676	91.350	0.185	0.209
-292.662	142.305	-0.223	-0.297
-291.647	79.843	-0.018	0.020
-290.632	800.000	-0.064	-0.259
-289.618	-66.890	0.114	0.045
-288.603	-200.000	0.009	0.368
-287.589	-200.000	-0.009	-0.383
-286.574	17.175	0.240	0.191
-285.559	314.101	0.171	0.323
-284.545	597.950	-0.148	0.369
-283.530	-200.000	0.009	-0.222
-282.516	-49.154	0.222	-0.106
-281.501	-119.358	0.096	-0.017
-280.486	-87.617	0.122	-0.037
-279.472	261.916	0.210	-0.366
-278.457	454.676	0.029	0.064
-277.443	619.127	-0.236	0.594
-276.428	800.000	0.121	0.434
-275.413	-200.000	0.082	0.522
-274.399	-43.044	-0.238	0.121
-273.384	541.363	0.081	-0.193
-272.370	-61.823	0.273	-0.115
-271.355	107.568	-0.112	0.134
-270.340	326.083	0.056	0.107
-269.326	-47.316	-0.278	-0.136
-268.311	364.315	0.096	0.195
-267.297	-200.000	-0.006	-0.332
-266.282	116.132	-0.139	0.170
-265.267	-200.000	-0.033	-0.161
-264.253	-84.684	0.246	0.078
-263.238	650.755	-0.125	-0.321
-262.224	503.821	-0.072	-0.168
-261.209	-149.418	0.038	-0.003
-260.195	-160.436	-0.132	-0.007
-259.180	-200.000	-0.013	0.187
-258.165	-9.845	-0.340	0.227
-257.151	24.684	0.262	0.218
-256.136	-138.479	-0.348	0.038
-255.122	512.658	-0.080	-0.186
-254.107	183.009	-0.044	0.065
-253.092	373.873	-0.073	-0.148
-252.078	198.312	-0.178	-0.272
-251.063	16.585	-0.077	0.061
-250.049	-92.261	0.116	0.033
-249.034	-200.000	0.008	-0.174
-248.019	152.489	-0.052	-0.071
-247.005	290.059	0.059	-0.107
-245.990	-100.169	-0.274	0.068
-244.976	-144.460	0.239	-0.022
-243.961	46.437	0.128	-0.119
-242.946	443.970	-0.024	0.052
-241.932	-137.530	0.167	-0.019
-240.917	679.120	-0.145	0.379
-239.903	-60.315	-0.136	0.058
-238.888	800.000	-0.046	0.151
-237.873	-200.000	0.059	0.289
-236.859	203.391	-0.187	0.291
-235.844	800.000	0.068	0.246
-234.830	203.994	-0.069	0.107
-233.815	-200.000	0.026	0.155
-232.800	-125.070	0.106	0.016
-231.786	-97.080	-0.177	-0.046
-230.771	-200.000	0.014	0.346
-229.757	-21.874	-0.269	0.164
-228.742	-12.178	-0.298	0.195
-227.727	194.392	0.047	0.072
-226.713	206.863	-0.149	0.233
-225.698	-18.686	-0.297	0.186
-224.684	-200.000	0.044	-0.301
-223.669	-103.248	0.203	-0.048
-222.655	-60.752	0.227	0.097
-221.640	-94.796	-0.343	-0.093
-220.625	-200.000	-0.045	0.286
-219.611	-110.201	0.070	-0.015
-218.596	61.142	0.169	0.168
-217.582	105.645	0.379	-0.449
-216.567	-200.000	0.029	-0.256
-215.552	-101.172	0.458	-0.112
-214.538	227.087	-0.101	-0.164
-213.523	800.000	0.079	0.240
-212.509	-25.716	-0.360	-0.212
-211.494	241.688	-0.120	0.201
-210.479	-164.978	0.088	0.004
-209.465	-45.880	0.304	-0.150
-208.450	-94.048	0.360	0.099
-207.436	15.229	0.060	-0.047
-206.421	94.382	0.200	-0.228
-205.406	-200.000	0.079	-0.422
-204.392	-200.000	-0.041	-0.386
-203.377	-72.214	-0.045	-0.017
-202.363	35.900	-0.276	0.243
-201.348	-157.067	-0.340	-0.021
-200.333	800.000	-0.070	0.300
-199.319	7.847	0.079	-0.059
-198.304	252.126	-0.165	0.282
-197.290	6.184	0.434	-0.322
-196.275	-200.000	0.032	0.228
-195.260	240.185	-0.273	-0.455
-194.246	-88.199	0.266	-0.080
-193.231	-200.000	0.014	-0.271
-192.217	12.885	0.139	-0.107
-191.202	66.259	-0.213	-0.216
-190.187	16.587	0.324	-0.256
-189.173	174.892	-0.182	-0.263
-188.158	521.591	-0.072	0.168
-187.144	27.964	0.147	0.124
-186.129	800.000	0.026	-0.109
-185.114	199.240	0.045	0.069
-184.100	60.024	-0.416	-0.411
-183.085	-78.568	-0.437	-0.150
-182.071	-111.984	-0.275	0.055
-181.056	10.911	0.135	0.103
-180.042	162.699	-0.167	0.234
-179.027	-0.050	0.294	0.209
-178.012	800.000	-0.071	0.264
-176.998	-200.000	-0.025	0.190
-175.983	-200.000	-0.010	-0.063
-174.969	-66.659	-0.235	-0.093
-173.954	66.075	-0.088	0.089
-172.939	50.285	-0.040	-0.037
-171.925	236.332	0.079	-0.131
-170.910	-59.897	0.166	-0.071
-169.896	-189.000	0.155	-0.002
-168.881	-200.000	0.002	-0.082
-167.866	2.749	-0.057	0.042
-166.852	-67.526	0.033	0.013
-165.837	151.980	-0.116	-0.158
-164.823	-200.000	0.016	0.229
-163.808	-61.023	-0.170	-0.072
-162.793	-200.000	0.044	-0.330
-161.779	272.684	0.018	-0.032
-160.764	56.012	0.169	0.164
-159.750	800.000	-0.051	0.154
-158.735	-55.386	0.074	-0.033
-157.720	-91.512	0.144	-0.041
-156.706	113.638	-0.225	0.273
-155.691	2.307	-0.184	0.133
-154.677	800.000	-0.114	-0.400
-153.662	572.103	-0.096	0.235
-152.647	762.283	-0.090	0.244
-151.633	-200.000	-0.006	0.118
-150.618	185.938	0.100	-0.148
-149.604	-200.000	-0.174	0.001
-148.589	-165.761	-0.103	0.004
-147.574	800.000	0.038	0.160
-146.560	-65.891	-0.407	-0.162
-145.545	51.196	-0.162	-0.154
-144.531	-200.000	-0.044	-0.320
-143.516	-87.090	-0.099	-0.030
-142.502	-200.000	0.007	0.060
-141.487	162.641	-0.026	0.036
-140.472	350.722	-0.160	0.315
-139.458	-142.858	0.233	0.023
-138.443	-177.883	0.248	-0.006
-137.429	-193.505	0.079	-0.001
-136.414	47.248	0.267	-0.248
-135.399	-200.000	0.003	-0.074
-134.385	400.047	0.071	0.148
-133.370	-200.000	-0.003	-0.252
-132.356	-200.000	-0.029	0.134
-131.341	-84.294	0.136	-0.043
-130.326	380.986	-0.096	-0.197
-129.312	460.356	-0.043	0.096
-128.297	177.782	0.089	-0.130
-127.283	-33.459	-0.458	-0.253
-126.268	-38.126	0.233	-0.123
-125.253	-97.327	-0.370	-0.096
-124.239	202.631	-0.178	-0.274
-123.224	-200.000	0.038	-0.211
-122.210	268.162	-0.055	0.095
