DTS Sentinel unit serial number:	SN413079Multiplexer serial number:	ORYXHardware model number:	OX4-SRSoftware version number:	ORYX F/W v4.00 Oryx Data Collector v3.7.2.0data status	okinstallation	princeton_trtdifferential loss correction	single-endedforward channel	channel 3reverse channel	N/Adate	2019/09/18time	12:08:35forward acquisition time	60.00reverse acquisition time	0.00gamma	496.2192k internal	0.2323k external	0.2323temperature offset calibration	0.9961default loss term (dB/km)	0.3790temperature slope calibration	1.0000multiplexer offset coefficient	1.0000multiplexer slope coefficient	1.0000fibre end	0.00T internal ref (°C)	31.67T ext. ref 1 (°C)	0.50T ext. ref 2 (°C)	27.01length (m)	temperature (°C)	Stokes	anti-Stokes-747.200	334.456	0.002	0.004
-746.185	212.789	-0.145	0.231
-745.171	-200.000	0.025	0.136
-744.156	-18.921	-0.413	0.259
-743.142	-200.000	0.052	0.235
-742.127	-200.000	0.006	0.132
-741.112	351.450	-0.087	-0.174
-740.098	-125.497	0.233	0.036
-739.083	162.600	-0.141	0.199
-738.069	189.545	0.214	0.324
-737.054	244.157	0.066	-0.112
-736.039	-185.759	-0.302	0.005
-735.025	78.436	-0.099	-0.107
-734.010	145.490	-0.153	-0.207
-732.996	-200.000	0.009	0.071
-731.981	98.322	-0.119	-0.138
-730.966	3.916	-0.082	-0.061
-729.952	95.524	0.147	-0.169
-728.937	55.356	0.201	-0.197
-727.923	198.397	0.152	-0.235
-726.908	-200.000	-0.024	0.189
-725.894	-200.000	-0.048	0.230
-724.879	-5.723	0.062	-0.043
-723.864	407.695	0.103	-0.219
-722.850	-200.000	0.044	-0.423
-721.835	-110.851	-0.369	-0.077
-720.821	-177.073	-0.133	0.003
-719.806	5.334	-0.419	-0.312
-718.791	800.000	-0.044	0.162
-717.777	655.143	0.192	0.497
-716.762	-200.000	0.042	-0.333
-715.748	-9.281	-0.306	-0.206
-714.733	800.000	0.048	0.180
-713.718	-26.280	-0.120	0.071
-712.704	128.611	0.193	-0.248
-711.689	3.447	-0.124	0.091
-710.675	67.271	0.233	-0.239
-709.660	-102.703	-0.228	-0.055
-708.645	-66.609	-0.322	-0.129
-707.631	-65.711	0.276	0.111
-706.616	233.052	0.084	-0.140
-705.602	361.062	0.100	0.202
-704.587	-129.435	0.117	-0.016
-703.572	-96.125	-0.177	0.047
-702.558	310.956	0.066	-0.124
-701.543	-23.579	0.146	0.088
-700.529	-1.177	0.186	0.132
-699.514	-76.666	-0.339	-0.120
-698.499	75.693	0.139	-0.149
-697.485	374.174	-0.115	0.235
-696.470	-113.182	0.154	-0.031
-695.456	-200.000	-0.017	-0.303
-694.441	786.798	0.108	0.298
-693.426	46.030	0.341	0.318
-692.412	-48.016	-0.248	-0.121
-691.397	2.156	-0.249	-0.182
-690.383	138.807	0.121	-0.160
-689.368	-182.947	0.019	-0.000
-688.354	-19.554	-0.171	0.107
-687.339	20.009	-0.216	0.176
-686.324	-47.603	0.182	-0.089
-685.310	107.403	-0.076	-0.091
-684.295	-200.000	0.053	-0.334
-683.281	-4.619	-0.152	0.106
-682.266	-72.448	-0.225	0.084
-681.251	-172.174	-0.139	-0.004
-680.237	355.017	0.134	0.269
-679.222	800.000	-0.024	0.103
-678.208	398.141	-0.110	0.232
-677.193	151.849	-0.042	-0.058
-676.178	133.315	-0.242	0.315
-675.164	-68.072	-0.322	-0.126
-674.149	-153.650	0.198	-0.014
-673.135	132.452	0.158	0.206
-672.120	-23.824	-0.185	0.111
-671.105	-64.167	0.083	0.034
-670.091	241.672	0.082	-0.139
-669.076	800.000	-0.042	-0.121
-668.062	61.948	0.173	-0.174
-667.047	-200.000	-0.003	-0.321
-666.032	26.273	-0.241	-0.203
-665.018	-53.147	0.075	-0.035
-664.003	467.369	0.147	0.331
-662.989	71.998	-0.116	0.121
-661.974	-81.996	-0.248	-0.082
-660.959	-15.432	0.207	-0.133
-659.945	-200.000	0.050	-0.345
-658.930	462.177	0.093	-0.209
-657.916	581.749	-0.076	0.187
-656.901	136.464	-0.018	0.024
-655.886	-36.676	0.105	0.057
-654.872	-148.594	-0.114	-0.009
-653.857	-200.000	-0.011	-0.053
-652.843	-52.207	0.296	-0.138
-651.828	-99.708	-0.269	0.068
-650.814	-129.788	-0.074	0.010
-649.799	219.112	0.055	0.088
-648.784	-58.659	-0.258	0.113
-647.770	473.453	0.045	0.102
-646.755	227.879	0.180	0.295
-645.741	-109.724	0.275	-0.058
-644.726	122.208	-0.072	0.090
-643.711	-170.709	0.422	0.015
-642.697	-132.805	0.257	-0.033
-641.682	-127.419	-0.208	0.030
-640.668	800.000	0.022	-0.092
-639.653	260.555	-0.083	-0.144
-638.638	-22.455	-0.149	0.091
-637.624	-29.718	0.156	0.089
-636.609	-200.000	0.007	-0.037
-635.595	-127.375	0.153	0.022
-634.580	-200.000	0.003	0.131
-633.565	787.772	-0.100	-0.276
-632.551	-104.833	-0.250	-0.058
-631.536	-98.284	0.168	0.043
-630.522	-7.355	0.257	0.175
-629.507	409.253	0.129	-0.274
-628.492	-82.648	-0.254	0.083
-627.478	800.000	0.066	0.242
-626.463	-97.260	-0.410	-0.107
-625.449	-131.218	-0.263	0.035
-624.434	-120.037	-0.308	-0.053
-623.419	-200.000	0.032	0.361
-622.405	-95.260	-0.329	0.089
-621.390	-38.858	-0.145	-0.077
-620.376	-125.966	0.226	-0.034
-619.361	-0.472	0.152	-0.109
-618.346	436.610	-0.050	-0.108
-617.332	14.482	-0.166	-0.130
-616.317	-67.736	0.364	-0.143
-615.303	800.000	-0.114	-0.318
-614.288	61.254	0.108	-0.108
-613.273	72.098	0.104	-0.109
-612.259	-200.000	0.063	0.286
-611.244	21.970	0.276	-0.226
-610.230	-23.825	-0.221	-0.133
-609.215	-200.000	-0.005	0.080
-608.201	-200.000	-0.002	-0.140
-607.186	-67.033	0.364	-0.144
-606.171	7.361	0.061	-0.046
-605.157	-200.000	0.050	0.284
-604.142	36.384	-0.272	0.241
-603.128	-200.000	0.020	0.130
-602.113	7.955	-0.162	-0.122
-601.098	-149.703	0.108	-0.009
-600.084	45.141	-0.039	-0.036
-599.069	-39.593	0.205	0.108
-598.055	-61.468	-0.292	0.123
-597.040	395.172	-0.044	0.092
-596.025	-200.000	0.028	0.498
-595.011	12.547	-0.228	-0.177
-593.996	120.554	0.088	-0.110
-592.982	-8.090	-0.020	0.014
-591.967	1.545	-0.038	-0.027
-590.952	-31.017	-0.282	-0.160
-589.938	-30.996	-0.198	0.112
-588.923	-162.308	-0.171	0.009
-587.909	-56.998	0.247	0.109
-586.894	-134.844	0.107	0.013
-585.879	177.703	0.052	0.076
-584.865	800.000	-0.095	-0.284
-583.850	67.511	0.131	-0.134
-582.836	-171.965	-0.121	0.004
-581.821	-58.984	-0.350	-0.152
-580.806	7.174	0.375	-0.281
-579.792	-16.755	-0.023	-0.014
-578.777	-53.680	0.290	-0.133
-577.763	-11.901	0.152	0.100
-576.748	-10.426	0.263	0.175
-575.733	158.257	0.051	0.070
-574.719	127.102	0.110	0.140
-573.704	-200.000	-0.002	-0.407
-572.690	6.944	-0.250	0.187
-571.675	-56.442	-0.140	-0.062
-570.661	232.716	-0.176	0.290
-569.646	-19.735	0.142	-0.088
-568.631	-69.064	-0.087	0.034
-567.617	447.598	-0.052	0.114
-566.602	54.392	-0.137	0.132
-565.588	-200.000	0.032	-0.250
-564.573	-27.151	-0.204	-0.119
-563.558	-81.561	0.056	0.019
-562.544	-19.515	-0.022	0.013
-561.529	94.931	0.066	0.075
-560.515	-200.000	0.002	0.100
-559.500	-200.000	0.018	0.134
-558.485	-138.956	-0.142	-0.016
-557.471	-48.713	-0.145	0.070
-556.456	-92.243	0.071	-0.020
-555.442	-200.000	-0.017	-0.073
-554.427	-200.000	-0.018	0.233
-553.412	-97.344	-0.068	-0.018
-552.398	518.107	-0.047	-0.109
-551.383	-200.000	0.004	0.085
-550.369	-18.535	-0.180	-0.113
-549.354	-200.000	0.004	0.159
-548.339	-200.000	-0.005	-0.027
-547.325	440.992	0.043	0.095
-546.310	-17.374	-0.192	0.121
-545.296	109.815	-0.209	-0.251
-544.281	291.954	0.015	-0.028
-543.266	-162.483	0.149	0.007
-542.252	-101.556	0.027	0.007
-541.237	-36.226	-0.140	0.076
-540.223	77.116	0.028	-0.030
-539.208	713.898	0.127	-0.337
-538.193	202.744	-0.030	-0.046
-537.179	565.747	0.064	0.155
-536.164	73.185	0.160	-0.167
-535.150	-200.000	-0.047	-0.423
-534.135	-46.519	0.305	0.150
-533.121	241.340	-0.177	0.296
-532.106	-115.677	-0.191	-0.036
-531.091	20.383	-0.106	-0.086
-530.077	224.700	0.179	-0.290
-529.062	-68.836	0.232	-0.090
-528.048	18.281	0.228	0.182
-527.033	-61.823	0.152	-0.064
-526.018	-84.423	-0.143	-0.045
-525.004	642.011	-0.060	-0.153
-523.989	-105.482	0.296	-0.067
-522.975	-200.000	0.002	-0.150
-521.960	215.245	-0.020	-0.032
-520.945	-200.000	0.011	-0.096
-519.931	-122.846	0.187	0.030
-518.916	-140.243	0.116	0.012
-517.902	358.221	0.131	-0.262
-516.887	-5.065	0.179	-0.123
-515.872	-131.268	0.245	0.032
-514.858	135.747	0.214	-0.279
-513.843	365.625	0.071	-0.143
-512.829	12.116	0.279	-0.215
-511.814	-71.934	-0.391	-0.145
-510.799	20.220	-0.092	-0.074
-509.785	-200.000	-0.002	-0.240
-508.770	-31.060	0.177	0.100
-507.756	164.844	-0.356	0.503
-506.741	-200.000	-0.018	0.089
-505.726	-167.687	-0.212	0.008
-504.712	15.363	0.048	-0.038
-503.697	-91.222	0.309	-0.088
-502.683	-80.272	-0.213	0.071
-501.668	40.728	0.185	-0.167
-500.653	-198.256	-0.249	0.001
-499.639	49.162	0.138	0.130
-498.624	82.361	0.259	-0.281
-497.610	645.397	-0.160	-0.407
-496.595	-157.074	-0.194	0.012
-495.581	-65.312	-0.265	-0.107
-494.566	87.094	0.168	0.186
-493.551	-26.493	-0.272	0.159
-492.537	534.356	0.192	-0.456
-491.522	800.000	0.016	-0.047
-490.508	-200.000	-0.017	-0.112
-489.493	67.098	-0.220	-0.224
-488.478	-200.000	0.008	0.467
-487.464	440.944	0.149	0.326
-486.449	-92.111	-0.111	0.031
-485.435	-133.820	-0.086	-0.011
-484.420	-80.988	-0.229	-0.076
-483.405	-46.871	0.113	0.055
-482.391	-110.044	-0.222	-0.046
-481.376	318.816	0.237	0.449
-480.362	69.134	-0.140	0.144
-479.347	-17.655	0.154	-0.097
-478.332	471.430	-0.131	0.296
-477.318	78.840	-0.014	-0.015
-476.303	-46.040	0.150	-0.074
-475.289	-166.586	0.073	-0.003
-474.274	-176.085	-0.283	-0.007
-473.259	228.358	0.110	0.179
-472.245	-103.034	-0.263	0.062
-471.230	30.813	-0.210	-0.179
-470.216	-154.211	0.273	-0.018
-469.201	-53.515	0.314	0.144
-468.186	59.384	0.313	0.308
-467.172	169.205	0.259	0.369
-466.157	-181.907	-0.256	0.005
-465.143	53.182	-0.253	-0.242
-464.128	188.086	0.058	-0.086
-463.113	318.834	0.060	-0.113
-462.099	207.094	0.101	0.157
-461.084	425.046	-0.159	0.342
-460.070	448.565	-0.123	0.271
-459.055	-200.000	0.005	0.026
-458.040	-200.000	0.080	0.437
-457.026	652.448	-0.002	0.006
-456.011	-3.448	0.103	-0.071
-454.997	197.156	-0.083	-0.126
-453.982	-63.844	0.133	0.054
-452.968	-59.033	-0.243	0.105
-451.953	-38.689	0.055	0.029
-450.938	800.000	-0.075	-0.244
-449.924	-98.590	0.321	-0.082
-448.909	-129.846	-0.238	-0.033
-447.895	-79.673	0.402	-0.135
-446.880	86.904	0.038	0.042
-445.865	329.622	0.037	0.072
-444.851	-145.475	-0.140	0.013
-443.836	556.924	-0.009	-0.022
-442.822	-128.995	-0.494	-0.069
-441.807	89.125	-0.156	0.173
-440.792	224.608	-0.186	-0.300
-439.778	-200.000	-0.028	0.352
-438.763	470.309	-0.122	0.274
-437.749	150.065	0.201	-0.272
-436.734	-121.044	0.220	-0.037
-435.719	643.043	0.013	0.033
-434.705	-36.813	0.295	-0.158
-433.690	-158.294	0.237	0.014
-432.676	-81.996	0.293	-0.095
-431.661	269.794	0.095	-0.167
-430.646	-135.836	0.055	0.006
-429.632	800.000	-0.016	-0.051
-428.617	60.162	-0.038	-0.037
-427.603	-200.000	0.055	-0.269
-426.588	-40.589	-0.135	-0.070
-425.573	-174.874	-0.044	-0.001
-424.559	-54.803	-0.061	-0.028
-423.544	-114.052	-0.214	0.041
-422.530	-118.798	-0.232	0.041
-421.515	-200.000	-0.017	-0.122
-420.500	229.774	0.036	0.058
-419.486	-105.077	0.210	-0.048
-418.471	-44.559	0.199	0.099
-417.457	228.860	0.138	-0.224
-416.442	-22.290	0.232	0.140
-415.428	211.955	0.123	0.193
-414.413	-140.570	-0.085	-0.009
-413.398	-39.328	-0.191	0.100
-412.384	397.027	-0.083	0.174
-411.369	396.731	0.100	-0.208
-410.355	305.233	-0.101	0.187
-409.340	-200.000	-0.012	0.189
-408.325	121.634	-0.292	-0.363
-407.311	800.000	-0.050	0.172
-406.296	385.890	-0.111	-0.229
-405.282	241.537	-0.074	0.123
-404.267	179.475	0.068	-0.100
-403.252	-133.351	0.063	-0.008
-402.238	-200.000	-0.032	0.478
-401.223	800.000	-0.092	0.362
-400.209	-73.734	0.137	-0.050
-399.194	800.000	-0.125	0.424
-398.179	306.423	-0.086	0.159
-397.165	-39.003	0.049	0.026
-396.150	13.562	-0.188	-0.146
-395.136	257.250	0.085	0.145
-394.121	138.647	-0.005	0.007
-393.106	162.997	-0.238	0.333
-392.092	-3.667	-0.326	0.226
-391.077	-200.000	0.062	-0.282
-390.063	-200.000	0.013	0.091
-389.048	438.661	0.073	-0.159
-388.033	413.422	-0.086	0.183
-387.019	67.388	0.193	0.196
-386.004	-44.621	-0.282	-0.140
-384.990	-46.478	-0.094	-0.046
-383.975	5.981	-0.144	0.106
-382.960	-59.408	0.098	0.042
-381.946	800.000	-0.078	0.243
-380.931	-112.429	-0.246	0.049
-379.917	-167.671	-0.062	-0.002
-378.902	800.000	0.077	0.217
-377.888	-140.420	-0.201	0.021
-376.873	-45.917	-0.274	-0.135
-375.858	122.159	0.228	0.283
-374.844	129.117	-0.047	0.059
-373.829	800.000	0.073	-0.266
-372.815	680.575	-0.035	-0.090
-371.800	-200.000	0.078	0.348
-370.785	302.193	-0.136	-0.251
-369.771	407.104	0.026	0.056
-368.756	-200.000	-0.005	-0.258
-367.742	-160.778	0.260	-0.014
-366.727	-100.564	0.087	0.021
-365.712	187.792	-0.084	-0.125
-364.698	-139.289	-0.260	0.028
-363.683	38.037	0.129	-0.114
-362.669	-102.845	-0.324	0.077
-361.654	93.917	-0.065	0.073
-360.639	-200.000	-0.039	-0.195
-359.625	180.569	0.119	0.173
-358.610	800.000	-0.051	-0.210
-357.596	-31.430	-0.120	-0.067
-356.581	28.043	0.233	-0.196
-355.566	96.765	0.080	0.091
-354.552	-89.670	-0.090	0.026
-353.537	653.857	-0.079	-0.202
-352.523	-75.740	0.209	0.074
-351.508	337.696	-0.066	0.127
-350.493	-200.000	0.001	-0.172
-349.479	-200.000	-0.021	0.132
-348.464	777.327	-0.104	-0.282
-347.450	-14.736	-0.036	-0.023
-346.435	-200.000	0.009	0.054
-345.420	-137.460	0.090	-0.010
-344.406	-200.000	0.010	-0.175
-343.391	-15.946	-0.179	-0.114
-342.377	800.000	0.073	-0.247
-341.362	800.000	0.131	-0.364
-340.348	-200.000	-0.002	-0.208
-339.333	119.146	0.040	-0.050
-338.318	-113.202	0.265	0.052
-337.304	-66.639	0.076	0.030
-336.289	-200.000	-0.057	0.327
-335.275	-6.762	0.227	0.154
-334.260	251.244	-0.191	-0.323
-333.245	61.504	0.206	-0.204
-332.231	-200.000	0.041	-0.193
-331.216	74.898	-0.155	0.163
-330.202	211.162	-0.134	0.209
-329.187	-71.143	0.250	-0.093
-328.172	134.463	-0.044	0.056
-327.158	800.000	0.077	0.227
-326.143	-8.030	-0.106	0.071
-325.129	236.150	-0.084	0.138
-324.114	-99.261	0.227	0.057
-323.099	88.094	-0.063	-0.070
-322.085	17.948	-0.117	-0.093
-321.070	-200.000	0.020	-0.099
-320.056	-8.274	-0.101	0.068
-319.041	-55.810	-0.287	-0.127
-318.026	-92.969	0.247	-0.069
-317.012	631.178	0.151	-0.379
-315.997	-194.221	-0.243	-0.002
-314.983	-200.000	0.021	0.175
-313.968	392.924	-0.140	-0.288
-312.953	800.000	-0.033	-0.140
-311.939	-200.000	-0.024	0.216
-310.924	-84.719	0.149	0.046
-309.910	-53.812	0.317	0.144
-308.895	-200.000	0.005	0.043
-307.880	-75.476	0.103	0.036
-306.866	-200.000	-0.017	0.176
-305.851	80.622	-0.158	-0.170
-304.837	148.116	-0.027	0.036
-303.822	49.826	0.105	-0.098
-302.807	-6.410	-0.169	0.114
-301.793	183.576	-0.113	-0.166
-300.778	27.591	-0.078	0.065
-299.764	141.148	0.281	0.368
-298.749	800.000	0.065	0.239
-297.735	84.030	0.209	0.227
-296.720	55.855	-0.199	0.191
-295.705	91.000	0.085	-0.095
-294.691	593.142	-0.097	-0.239
-293.676	-34.880	0.068	0.037
-292.662	-11.131	0.175	0.115
-291.647	800.000	0.124	-0.430
-290.632	76.803	-0.105	-0.111
-289.618	-200.000	0.045	-0.323
-288.603	-50.282	0.133	-0.062
-287.589	800.000	-0.059	-0.251
-286.574	-6.294	0.137	-0.093
-285.559	401.924	0.097	0.202
-284.545	-35.532	0.114	0.061
-283.530	-32.923	0.397	0.219
-282.516	-155.249	-0.215	0.014
-281.501	-157.948	-0.032	0.002
-280.486	-157.848	-0.194	0.011
-279.472	-162.536	-0.438	-0.021
-278.457	-70.953	0.283	-0.106
-277.443	79.911	0.144	-0.154
-276.428	430.921	-0.114	0.244
-275.413	-37.605	0.276	0.146
-274.399	-200.000	0.000	-0.171
-273.384	-23.431	-0.079	-0.047
-272.370	-116.676	0.211	-0.039
-271.355	-200.000	0.012	0.120
-270.340	185.135	-0.102	0.150
-269.326	-200.000	0.038	0.238
-268.311	-64.706	-0.102	-0.041
-267.297	-200.000	-0.010	-0.205
-266.282	-116.793	0.282	0.051
-265.267	-97.559	-0.325	0.084
-264.253	261.099	0.119	-0.203
-263.238	-93.383	-0.189	-0.052
-262.224	46.892	-0.076	0.070
-261.209	800.000	-0.050	-0.169
-260.195	800.000	-0.017	-0.057
-259.180	-115.608	0.239	0.045
-258.165	-16.171	-0.106	-0.067
-257.151	7.833	-0.314	-0.233
-256.136	800.000	0.032	-0.096
-255.122	42.166	-0.337	0.303
-254.107	64.383	0.059	-0.059
-253.092	-129.476	0.163	-0.022
-252.078	361.035	-0.082	0.162
-251.063	-61.337	0.469	0.196
-250.049	-43.821	0.080	-0.040
-249.034	730.349	-0.038	0.101
-248.019	-45.764	0.170	0.083
-247.005	-200.000	0.021	0.161
-245.990	56.736	-0.047	0.045
-244.976	140.413	-0.125	-0.164
-243.961	65.543	0.294	0.295
-242.946	-152.284	-0.225	-0.016
-241.932	-93.840	0.335	-0.091
-240.917	-56.893	-0.343	0.150
-239.903	613.768	0.131	0.325
-238.888	-134.185	0.236	-0.029
-237.873	154.000	-0.116	-0.158
-236.859	800.000	-0.008	0.031
-235.844	-117.364	-0.087	0.016
-234.830	-200.000	-0.022	0.351
-233.815	-32.967	0.167	-0.092
-232.800	-200.000	0.051	-0.267
-231.786	-20.450	-0.340	0.207
-230.771	-123.002	0.272	-0.043
-229.757	155.377	-0.258	0.352
-228.742	-61.961	0.145	-0.060
-227.727	-54.034	-0.202	0.091
-226.713	-158.740	-0.326	-0.018
-225.698	-36.274	-0.081	-0.043
-224.684	-88.719	-0.201	-0.059
-223.669	-200.000	0.027	-0.407
-222.655	-42.016	-0.065	0.033
-221.640	52.073	0.306	-0.289
-220.625	86.859	-0.114	0.125
-219.611	-101.318	0.435	0.105
-218.596	232.569	-0.140	0.227
-217.582	800.000	-0.027	-0.078
-216.567	-56.511	-0.075	0.033
-215.552	-94.426	0.127	0.034
-214.538	77.788	0.122	0.128
-213.523	-129.210	0.110	-0.015
-212.509	206.544	-0.091	0.140
-211.494	320.956	-0.144	0.271
-210.479	182.462	0.119	0.174
-209.465	-146.105	0.288	-0.025
-208.450	31.362	0.188	-0.159
-207.436	-100.462	0.127	-0.031
-206.421	-66.385	0.235	0.092
-205.406	800.000	0.115	-0.338
-204.392	20.538	0.285	-0.228
-203.377	-200.000	0.033	-0.296
-202.363	-43.565	-0.160	0.080
-201.348	47.634	-0.269	-0.248
-200.333	-200.000	0.036	-0.163
-199.319	434.978	-0.009	-0.018
-198.304	569.467	-0.096	0.230
-197.290	-54.103	0.213	-0.096
-196.275	-200.000	-0.036	0.304
-195.260	-63.427	0.062	-0.025
-194.246	315.513	-0.082	0.152
-193.231	3.447	0.096	-0.069
-192.217	-57.484	0.244	-0.106
-191.202	-111.800	0.144	-0.029
-190.187	-200.000	0.041	-0.632
-189.173	332.235	-0.283	0.539
-188.158	64.046	-0.286	-0.284
-187.144	-165.870	-0.055	0.002
-186.129	-93.738	0.227	-0.062
-185.114	-162.871	-0.119	-0.006
-184.100	209.947	-0.038	-0.059
-183.085	-200.000	0.009	-0.395
-182.071	63.593	-0.117	-0.116
-181.056	-48.628	-0.085	0.040
-180.042	-200.000	-0.001	0.028
-179.027	617.188	-0.067	-0.165
-178.012	175.924	-0.105	-0.150
-176.998	11.637	0.268	-0.203
-175.983	173.816	0.085	0.121
-174.969	-200.000	0.021	0.119
-173.954	187.628	0.092	0.135
-172.939	-149.051	-0.321	0.025
-171.925	-200.000	0.072	0.417
-170.910	-146.163	-0.174	0.015
-169.896	-120.655	-0.262	0.044
-168.881	319.046	0.110	-0.206
-167.866	-200.000	0.006	-0.191
-166.852	-200.000	-0.031	0.173
-165.837	-149.385	0.160	0.013
-164.823	-52.344	-0.295	-0.135
-163.808	-84.077	-0.059	0.018
-162.793	122.473	-0.075	-0.092
-161.779	-2.349	-0.094	-0.065
-160.764	800.000	0.083	0.294
-159.750	0.646	0.271	0.191
-158.735	82.399	0.138	0.148
-157.720	97.597	0.152	-0.173
-156.706	402.108	-0.154	0.319
-155.691	280.000	-0.032	0.056
-154.677	-90.176	-0.430	-0.123
-153.662	-57.827	0.334	0.144
-152.647	-37.100	-0.175	-0.092
-151.633	204.328	-0.157	-0.241
-150.618	-37.873	0.210	0.110
-149.604	-168.322	-0.280	0.011
-148.589	189.604	0.172	0.255
-147.574	385.873	0.041	0.083
-146.560	-200.000	0.023	0.312
-145.545	-72.252	0.167	-0.061
-144.531	-200.000	-0.024	-0.272
-143.516	-200.000	-0.007	-0.436
-142.502	-62.021	-0.322	0.133
-141.487	510.962	0.167	0.384
-140.472	156.109	-0.058	-0.079
-139.458	800.000	-0.111	-0.387
-138.443	-200.000	0.040	-0.351
-137.429	145.504	-0.039	-0.052
-136.414	10.366	-0.128	0.096
-135.399	-11.256	-0.166	-0.108
-134.385	-103.156	0.424	0.099
-133.370	-108.095	0.283	0.061
-132.356	-200.000	0.180	0.000
-131.341	-26.637	-0.187	-0.108
-130.326	59.820	-0.254	0.247
-129.312	108.344	0.121	0.143
-128.297	-93.180	0.311	-0.085
-127.283	-200.000	0.004	-0.183
-126.268	-9.789	0.088	-0.058
-125.253	-11.922	0.088	-0.057
-124.239	-32.852	-0.127	-0.070
-123.224	14.355	-0.450	0.346
-122.210	162.575	-0.182	0.251
-121.195	429.601	0.057	-0.121
