DTS Sentinel unit serial number:	SN413079Multiplexer serial number:	ORYXHardware model number:	OX4-SRSoftware version number:	ORYX F/W v4.00 Oryx Data Collector v3.7.2.0data status	okinstallation	princeton_trtdifferential loss correction	single-endedforward channel	channel 3reverse channel	N/Adate	2019/09/16time	23:12:35forward acquisition time	60.00reverse acquisition time	0.00gamma	496.2192k internal	0.2326k external	0.2326temperature offset calibration	0.9938default loss term (dB/km)	0.3790temperature slope calibration	1.0000multiplexer offset coefficient	1.0000multiplexer slope coefficient	1.0000fibre end	0.00T internal ref (°C)	30.14T ext. ref 1 (°C)	0.09T ext. ref 2 (°C)	23.81length (m)	temperature (°C)	Stokes	anti-Stokes-747.200	-45.536	-0.069	-0.034
-746.185	59.169	0.219	0.217
-745.171	-68.153	-0.086	0.034
-744.156	-200.000	0.040	0.436
-743.142	800.000	-0.048	0.188
-742.127	144.161	-0.129	0.174
-741.112	224.739	0.078	0.127
-740.098	79.238	0.150	0.162
-739.083	-129.959	0.083	0.011
-738.069	-200.000	0.030	0.239
-737.054	-13.416	-0.178	0.117
-736.039	139.915	-0.122	-0.162
-735.025	-75.833	-0.144	-0.051
-734.010	71.702	-0.181	0.190
-732.996	-50.408	-0.346	-0.165
-731.981	107.868	0.090	0.108
-730.966	669.047	-0.082	0.215
-729.952	-140.302	0.410	0.043
-728.937	-14.938	-0.144	-0.093
-727.923	-51.162	0.161	-0.076
-726.908	261.084	-0.154	-0.269
-725.894	-200.000	-0.017	0.150
-724.879	-102.590	-0.229	-0.055
-723.864	-200.000	0.017	-0.113
-722.850	294.620	-0.060	0.110
-721.835	-78.521	-0.021	-0.007
-720.821	-142.315	0.191	-0.019
-719.806	-80.237	0.231	-0.078
-718.791	-200.000	0.072	0.454
-717.777	91.317	0.052	-0.059
-716.762	-26.656	0.175	0.103
-715.748	800.000	-0.102	0.298
-714.733	150.086	-0.095	0.130
-713.718	174.340	0.082	0.119
-712.704	-200.000	-0.008	-0.246
-711.689	-120.861	0.135	-0.023
-710.675	-139.824	0.013	-0.001
-709.660	-101.953	-0.073	-0.018
-708.645	-200.000	0.001	-0.043
-707.631	-104.496	-0.283	0.066
-706.616	108.296	0.220	0.265
-705.602	255.458	-0.116	-0.201
-704.587	21.795	0.075	-0.061
-703.572	31.008	0.159	0.137
-702.558	284.188	-0.116	0.210
-701.543	-154.685	-0.142	0.010
-700.529	-200.000	0.016	0.125
-699.514	-200.000	-0.004	0.209
-698.499	408.801	0.056	-0.118
-697.485	251.871	0.102	-0.175
-696.470	-51.969	0.154	-0.072
-695.456	-200.000	0.003	0.254
-694.441	-94.066	0.210	-0.058
-693.426	80.054	0.033	-0.036
-692.412	-200.000	0.001	-0.199
-691.397	800.000	0.031	-0.121
-690.383	201.147	-0.117	-0.181
-689.368	800.000	0.046	-0.142
-688.354	800.000	0.162	-0.482
-687.339	436.655	-0.024	-0.052
-686.324	575.268	0.117	-0.287
-685.310	-76.589	-0.445	-0.157
-684.295	-105.886	-0.508	-0.115
-683.281	-55.714	-0.353	0.159
-682.266	-95.147	0.460	-0.125
-681.251	800.000	0.034	0.129
-680.237	-200.000	0.032	-0.205
-679.222	30.467	0.164	-0.141
-678.208	-93.075	-0.141	-0.040
-677.193	-68.053	-0.384	-0.150
-676.178	374.542	0.106	0.216
-675.164	-118.665	0.241	-0.043
-674.149	-19.696	-0.141	-0.088
-673.135	-125.028	-0.168	0.026
-672.120	207.200	0.117	-0.184
-671.105	262.685	0.036	-0.062
-670.091	185.570	-0.163	0.244
-669.076	205.382	0.111	-0.174
-668.062	723.838	0.086	-0.230
-667.047	41.543	-0.201	-0.183
-666.032	-102.848	-0.093	-0.022
-665.018	-69.688	0.178	0.068
-664.003	91.924	-0.139	0.157
-662.989	-200.000	0.014	0.277
-661.974	-108.811	-0.277	-0.060
-660.959	-104.498	-0.182	-0.042
-659.945	-112.073	0.326	0.066
-658.930	800.000	-0.028	0.101
-657.916	-200.000	-0.007	-0.145
-656.901	-91.109	-0.370	-0.107
-655.886	-200.000	0.012	-0.238
-654.872	49.288	-0.186	0.176
-653.857	86.438	-0.160	0.177
-652.843	31.846	-0.253	0.219
-651.828	-93.715	-0.376	-0.104
-650.814	-200.000	0.000	0.034
-649.799	266.967	0.133	-0.234
-648.784	800.000	-0.082	-0.291
-647.770	36.562	-0.182	0.162
-646.755	701.857	0.041	0.108
-645.741	-200.000	0.057	-0.322
-644.726	-153.065	0.166	0.012
-643.711	800.000	0.096	0.293
-642.697	225.719	-0.067	-0.109
-641.682	305.417	0.102	0.190
-640.668	-86.676	0.184	0.057
-639.653	-64.016	0.250	-0.103
-638.638	-0.532	-0.009	-0.006
-637.624	105.900	0.133	-0.158
-636.609	-151.719	-0.198	-0.015
-635.595	-77.041	-0.113	0.039
-634.580	735.010	0.120	-0.324
-633.565	22.165	-0.210	-0.172
-632.551	301.751	-0.231	-0.429
-631.536	-143.083	0.251	-0.024
-630.522	87.947	-0.261	0.290
-629.507	210.723	0.031	-0.049
-628.492	-125.891	-0.098	0.015
-627.478	-87.268	0.224	0.068
-626.463	-200.000	-0.018	-0.165
-625.449	-200.000	-0.018	0.088
-624.434	-116.113	0.367	0.068
-623.419	-135.793	-0.164	0.019
-622.405	107.095	-0.130	-0.155
-621.390	-87.631	-0.207	-0.063
-620.376	488.025	-0.218	0.501
-619.361	800.000	0.085	-0.261
-618.346	89.886	-0.083	0.093
-617.332	-121.531	-0.545	0.091
-616.317	287.908	-0.265	-0.482
-615.303	-152.843	-0.010	0.001
-614.288	-200.000	-0.009	0.200
-613.273	-76.506	-0.093	0.033
-612.259	-65.722	-0.341	0.137
-611.244	131.991	-0.243	-0.314
-610.230	106.961	0.274	0.326
-609.215	-200.000	0.003	0.232
-608.201	-200.000	-0.004	-0.306
-607.186	-200.000	-0.055	-0.291
-606.171	-86.280	0.318	-0.098
-605.157	266.904	0.057	-0.100
-604.142	129.564	-0.156	-0.200
-603.128	-85.580	-0.172	-0.054
-602.113	-29.429	-0.019	-0.011
-601.098	800.000	-0.081	-0.238
-600.084	162.105	-0.142	0.200
-599.069	-14.604	0.293	0.189
-598.055	-156.011	0.366	-0.023
-597.040	800.000	0.046	0.198
-596.025	-200.000	-0.014	-0.263
-595.011	800.000	-0.023	-0.097
-593.996	-89.165	-0.224	0.066
-592.982	69.850	0.258	0.267
-591.967	800.000	-0.110	0.334
-590.952	65.765	-0.308	-0.313
-589.938	325.878	-0.061	0.117
-588.923	-200.000	-0.005	0.306
-587.909	-136.198	-0.275	0.032
-586.894	800.000	0.127	-0.432
-585.879	-200.000	0.010	-0.065
-584.865	197.808	-0.131	-0.200
-583.850	492.186	0.149	-0.342
-582.836	-200.000	-0.021	-0.109
-581.821	-85.400	-0.160	0.050
-580.806	67.889	-0.150	0.154
-579.792	428.141	-0.032	0.070
-578.777	-200.000	0.021	0.225
-577.763	-127.292	0.240	-0.035
-576.748	118.287	0.101	-0.125
-575.733	2.981	0.102	-0.074
-574.719	61.018	0.349	0.347
-573.704	-105.380	-0.227	-0.052
-572.690	390.045	0.027	0.055
-571.675	37.855	0.183	0.163
-570.661	-200.000	0.060	-0.291
-569.646	-46.659	0.291	-0.143
-568.631	-200.000	0.012	-0.075
-567.617	166.873	0.065	-0.093
-566.602	-200.000	0.011	-0.205
-565.588	35.923	-0.215	0.189
-564.573	578.687	-0.077	-0.189
-563.558	-31.114	0.216	0.122
-562.544	135.094	-0.113	-0.148
-561.529	800.000	-0.080	-0.259
-560.515	13.919	-0.330	-0.257
-559.500	-82.864	0.084	-0.027
-558.485	-200.000	-0.223	0.001
-557.471	-94.881	0.095	0.026
-556.456	-200.000	-0.012	0.085
-555.442	-96.907	-0.110	-0.029
-554.427	46.392	-0.115	-0.107
-553.412	-120.648	0.262	0.044
-552.398	800.000	-0.085	0.351
-551.383	151.056	0.052	-0.071
-550.369	265.341	0.168	-0.293
-549.354	-21.297	0.044	-0.027
-548.339	775.127	-0.032	-0.089
-547.325	669.601	-0.075	0.194
-546.310	-200.000	-0.026	0.303
-545.296	83.611	-0.125	-0.137
-544.281	-200.000	0.011	-0.098
-543.266	-35.082	0.163	0.089
-542.252	-200.000	0.213	0.001
-541.237	-200.000	0.029	0.302
-540.223	-96.455	-0.229	-0.060
-539.208	701.600	-0.111	-0.293
-538.193	515.958	0.075	-0.176
-537.179	29.714	0.205	0.174
-536.164	-113.732	-0.168	0.033
-535.150	-132.704	0.042	0.005
-534.135	800.000	-0.082	-0.226
-533.121	800.000	0.057	0.213
-532.106	657.907	0.065	0.167
-531.091	-148.734	0.108	0.009
-530.077	218.507	-0.149	-0.238
-529.062	-193.589	0.159	0.001
-528.048	-158.243	0.166	-0.010
-527.033	800.000	0.041	0.116
-526.018	542.294	0.093	0.221
-525.004	-75.986	-0.254	0.090
-523.989	-10.568	-0.196	-0.130
-522.975	-200.000	-0.027	-0.120
-521.960	800.000	-0.093	-0.353
-520.945	-28.488	0.041	0.023
-519.931	224.554	0.151	-0.243
-518.916	-52.516	-0.130	0.060
-517.902	-26.591	-0.133	-0.078
-516.887	-40.624	0.148	0.077
-515.872	124.276	-0.154	0.193
-514.858	250.517	-0.063	-0.107
-513.843	-134.624	-0.103	0.013
-512.829	75.995	-0.184	-0.194
-511.814	-200.000	-0.028	0.127
-510.799	800.000	-0.102	-0.318
-509.785	-200.000	0.012	0.182
-508.770	-87.974	-0.101	0.030
-507.756	199.055	-0.164	0.251
-506.741	37.021	-0.304	-0.269
-505.726	433.634	0.105	-0.228
-504.712	12.604	-0.084	-0.065
-503.697	136.609	0.114	-0.149
-502.683	-33.748	0.012	0.006
-501.668	-88.634	-0.117	-0.035
-500.653	-10.470	0.335	0.222
-499.639	-116.442	0.290	-0.053
-498.624	800.000	-0.148	0.445
-497.610	9.263	-0.096	-0.072
-496.595	-94.843	-0.151	-0.041
-495.581	581.696	0.040	-0.098
-494.566	58.961	0.162	0.159
-493.551	-85.594	-0.061	-0.019
-492.537	800.000	-0.029	-0.081
-491.522	-131.176	-0.208	0.028
-490.508	-200.000	0.031	0.236
-489.493	224.354	0.200	0.324
-488.478	-49.107	0.180	0.086
-487.464	-11.757	-0.038	0.025
-486.449	-200.000	-0.013	-0.236
-485.435	-25.767	-0.174	-0.102
-484.420	-200.000	0.051	-0.254
-483.405	800.000	-0.070	-0.244
-482.391	-8.040	0.075	0.050
-481.376	412.985	0.098	0.208
-480.362	800.000	-0.052	0.194
-479.347	412.472	-0.047	0.101
-478.332	325.630	-0.110	-0.209
-477.318	-200.000	-0.065	0.440
-476.303	-52.256	0.209	0.097
-475.289	26.703	0.341	0.285
-474.274	33.541	0.315	0.273
-473.259	200.458	0.174	-0.268
-472.245	80.014	0.105	-0.112
-471.230	163.709	-0.044	0.062
-470.216	651.017	-0.118	-0.301
-469.201	-200.000	-0.033	0.188
-468.186	-10.958	0.116	-0.076
-467.172	-106.792	-0.157	0.035
-466.157	-106.612	-0.312	0.069
-465.143	-140.268	-0.122	-0.013
-464.128	87.937	-0.152	0.168
-463.113	155.062	0.053	-0.073
-462.099	33.883	-0.185	-0.161
-461.084	791.470	-0.055	-0.150
-460.070	6.047	0.173	0.128
-459.055	42.579	0.310	-0.281
-458.040	-101.585	-0.050	-0.012
-457.026	-200.000	-0.016	0.189
-456.011	-92.132	0.015	-0.004
-454.997	78.576	0.167	0.178
-453.982	127.643	0.160	-0.202
-452.968	-77.686	-0.180	-0.062
-451.953	-200.000	0.069	0.316
-450.938	-146.664	-0.335	-0.029
-449.924	-200.000	-0.045	-0.324
-448.909	800.000	-0.035	-0.095
-447.895	-79.340	-0.112	0.038
-446.880	-34.302	0.138	-0.076
-445.865	546.588	-0.063	-0.150
-444.851	218.366	0.096	0.153
-443.836	53.032	0.115	-0.110
-442.822	257.741	0.181	0.310
-441.807	-50.783	-0.072	-0.034
-440.792	107.536	-0.040	-0.048
-439.778	71.089	-0.326	-0.337
-438.763	30.199	0.285	-0.242
-437.749	-200.000	0.001	-0.274
-436.734	800.000	-0.080	-0.333
-435.719	-48.571	-0.069	0.033
-434.705	-200.000	0.031	0.269
-433.690	94.831	-0.069	-0.078
-432.676	748.204	0.085	0.229
-431.661	447.253	0.044	0.097
-430.646	800.000	0.017	0.047
-429.632	-169.149	0.193	0.007
-428.617	169.575	0.169	0.241
-427.603	356.574	0.069	-0.137
-426.588	-73.209	0.133	0.049
-425.573	746.157	-0.052	-0.140
-424.559	-77.830	-0.355	0.122
-423.544	253.792	0.104	-0.177
-422.530	427.748	-0.048	0.104
-421.515	-35.453	-0.196	0.106
-420.500	-33.804	-0.032	0.018
-419.486	-106.539	0.123	0.027
-418.471	57.631	0.070	-0.068
-417.457	287.455	0.078	-0.141
-416.442	-112.814	0.097	-0.019
-415.428	-162.585	-0.209	0.010
-414.413	800.000	-0.028	-0.114
-413.398	-46.520	0.149	0.073
-412.384	702.243	0.103	0.270
-411.369	281.092	-0.092	-0.163
-410.355	800.000	-0.100	0.319
-409.340	86.898	-0.164	-0.181
-408.325	-52.649	-0.154	0.071
-407.311	168.102	0.084	0.118
-406.296	-39.231	-0.224	0.117
-405.282	-88.615	-0.019	-0.006
-404.267	343.679	-0.067	-0.130
-403.252	-5.019	0.201	-0.138
-402.238	800.000	0.033	0.138
-401.223	-200.000	0.030	-0.362
-400.209	202.171	0.070	0.107
-399.194	-177.204	-0.233	-0.006
-398.179	22.694	-0.122	0.099
-397.165	-49.235	-0.251	-0.119
-396.150	127.748	0.094	-0.119
-395.136	-186.517	-0.302	-0.004
-394.121	327.695	-0.096	-0.184
-393.106	-110.177	-0.213	0.044
-392.092	-96.630	0.481	-0.126
-391.077	-200.000	-0.026	0.182
-390.063	395.689	0.168	-0.350
-389.048	-161.438	0.437	0.022
-388.033	-8.655	-0.162	0.108
-387.019	-9.841	0.262	-0.174
-386.004	-140.312	0.387	0.040
-384.990	451.818	-0.090	-0.198
-383.975	800.000	0.083	-0.333
-382.960	800.000	-0.036	0.109
-381.946	800.000	-0.028	-0.096
-380.931	-21.433	-0.194	-0.118
-379.917	181.138	-0.058	0.085
-378.902	420.268	0.127	0.270
-377.888	26.220	0.209	-0.173
-376.873	800.000	0.097	0.374
-375.858	380.400	-0.105	0.215
-374.844	-200.000	0.006	-0.060
-373.829	-200.000	-0.009	-0.194
-372.815	-200.000	0.001	-0.051
-371.800	-39.498	0.223	-0.116
-370.785	800.000	-0.093	-0.257
-369.771	345.294	-0.198	0.387
-368.756	19.918	0.139	0.111
-367.742	-200.000	-0.041	-0.450
-366.727	-112.992	0.293	-0.058
-365.712	800.000	0.053	0.181
-364.698	-200.000	0.041	-0.186
-363.683	800.000	-0.087	-0.265
-362.669	800.000	-0.023	0.068
-361.654	126.356	-0.250	0.315
-360.639	562.040	0.030	0.073
-359.625	-52.266	0.070	-0.032
-358.610	-166.819	-0.337	-0.014
-357.596	118.339	0.237	0.290
-356.581	-43.559	-0.207	-0.104
-355.566	475.332	-0.099	0.221
-354.552	-200.000	-0.003	0.063
-353.537	468.807	0.069	0.154
-352.523	196.968	-0.196	0.296
-351.508	-200.000	-0.026	-0.192
-350.493	-36.125	0.312	-0.167
-349.479	339.146	-0.030	-0.058
-348.464	-200.000	0.032	0.215
-347.450	1.936	-0.194	0.139
-346.435	60.473	-0.052	-0.051
-345.420	25.655	0.233	-0.192
-344.406	-200.000	-0.060	0.389
-343.391	-137.110	0.202	-0.023
-342.377	-189.577	0.455	0.005
-341.362	216.524	0.090	0.142
-340.348	-148.179	0.197	-0.016
-339.333	528.635	0.068	0.159
-338.318	26.386	-0.099	-0.083
-337.304	-43.764	-0.173	0.086
-336.289	286.944	-0.209	0.375
-335.275	800.000	-0.027	-0.082
-334.260	-130.500	-0.286	0.038
-333.245	-200.000	0.001	-0.041
-332.231	-104.390	-0.100	0.023
-331.216	-64.390	-0.089	0.036
-330.202	6.306	-0.210	-0.155
-329.187	478.595	-0.068	0.152
-328.172	34.525	0.072	-0.062
-327.158	134.441	-0.177	-0.227
-326.143	-200.000	0.017	-0.266
-325.129	61.191	-0.017	0.017
-324.114	-200.000	-0.084	0.435
-323.099	-17.488	-0.191	-0.119
-322.085	228.608	0.111	-0.180
-321.070	-200.000	-0.028	-0.291
-320.056	397.058	-0.082	0.171
-319.041	-40.333	0.211	0.109
-318.026	291.792	-0.067	0.121
-317.012	-78.971	-0.305	0.103
-315.997	140.056	0.201	0.263
-314.983	-200.000	0.029	0.159
-313.968	-105.408	0.276	-0.062
-312.953	-10.449	-0.099	-0.065
-311.939	11.272	-0.174	0.132
-310.924	122.852	-0.142	-0.176
-309.910	-89.262	0.110	-0.032
-308.895	-200.000	0.003	0.066
-307.880	-200.000	0.030	-0.208
-306.866	-98.135	0.198	0.050
-305.851	-115.221	0.323	-0.061
-304.837	-109.807	0.143	0.030
-303.822	-200.000	0.053	0.233
-302.807	-92.978	-0.086	-0.024
-301.793	-200.000	0.014	0.185
-300.778	-112.354	0.310	0.062
-299.764	-147.409	-0.069	-0.006
-298.749	-48.019	-0.254	0.122
-297.735	89.527	0.116	0.129
-296.720	-171.104	0.181	0.006
-295.705	33.752	-0.220	0.190
-294.691	-158.104	0.148	-0.009
-293.676	-140.860	-0.151	-0.015
-292.662	519.899	0.109	-0.252
-291.647	800.000	-0.023	0.075
-290.632	-84.260	0.295	0.093
-289.618	-180.836	-0.420	-0.008
-288.603	377.609	-0.069	0.139
-287.589	538.489	-0.091	0.215
-286.574	800.000	-0.101	0.389
-285.559	7.731	0.175	-0.130
-284.545	184.121	0.246	-0.360
-283.530	440.182	0.056	-0.121
-282.516	-200.000	-0.008	-0.059
-281.501	25.813	-0.090	-0.074
-280.486	800.000	0.018	0.055
-279.472	-126.067	-0.161	0.024
-278.457	800.000	0.064	0.181
-277.443	-102.548	-0.301	-0.071
-276.428	-200.000	0.016	-0.082
-275.413	-200.000	-0.024	-0.229
-274.399	-136.863	0.193	-0.022
-273.384	614.608	-0.031	-0.076
-272.370	-105.909	-0.232	0.052
-271.355	800.000	0.097	-0.334
-270.340	800.000	-0.082	-0.301
-269.326	-98.883	-0.205	0.052
-268.311	-39.187	-0.262	-0.136
-267.297	-120.560	0.317	-0.053
-266.282	26.324	-0.087	-0.072
-265.267	800.000	0.064	0.248
-264.253	-200.000	-0.008	0.254
-263.238	43.202	0.053	-0.048
-262.224	-72.051	-0.180	0.066
-261.209	800.000	-0.122	0.397
-260.195	800.000	-0.086	0.288
-259.180	800.000	-0.034	-0.119
-258.165	181.243	-0.143	-0.208
-257.151	-43.919	-0.134	-0.067
-256.136	-53.136	-0.133	-0.060
-255.122	39.829	-0.148	0.132
-254.107	-200.000	0.022	-0.167
-253.092	407.541	-0.012	-0.025
-252.078	-15.899	0.312	0.197
-251.063	567.277	0.090	-0.217
-250.049	124.720	0.170	0.212
-249.034	19.988	-0.191	-0.153
-248.019	-12.898	0.295	-0.190
-247.005	-200.000	0.031	-0.235
-245.990	284.411	-0.174	-0.310
-244.976	-43.597	-0.079	-0.039
-243.961	54.241	0.110	0.105
-242.946	-11.368	-0.182	-0.118
-241.932	15.100	0.030	-0.023
-240.917	800.000	0.052	0.174
-239.903	136.530	0.105	0.135
-238.888	7.078	0.127	0.094
-237.873	-101.792	0.320	-0.077
-236.859	-150.129	-0.176	-0.013
-235.844	-30.416	-0.345	-0.194
-234.830	-200.000	-0.017	-0.244
-233.815	11.451	-0.347	0.263
-232.800	-39.625	0.103	-0.053
-231.786	-29.336	-0.165	0.094
-230.771	-200.000	-0.051	0.228
-229.757	26.984	0.160	-0.133
-228.742	23.343	0.089	0.072
-227.727	-43.565	-0.152	-0.076
-226.713	258.029	-0.007	-0.012
-225.698	-83.967	-0.089	0.028
-224.684	-200.000	0.002	-0.175
-223.669	-126.294	0.190	0.028
-222.655	84.950	0.160	0.173
-221.640	30.236	-0.170	-0.144
-220.625	-30.223	0.357	0.200
-219.611	800.000	0.067	0.204
-218.596	-200.000	0.032	-0.300
-217.582	45.484	-0.133	-0.121
-216.567	650.398	0.106	-0.269
-215.552	-2.457	-0.092	0.063
-214.538	-200.000	-0.002	-0.319
-213.523	683.650	0.023	-0.059
-212.509	-18.032	0.074	-0.046
-211.494	128.321	-0.052	-0.065
-210.479	-30.754	0.114	-0.064
-209.465	63.441	-0.161	0.159
-208.450	-200.000	0.100	0.469
-207.436	-200.000	0.008	0.352
-206.421	278.014	0.111	0.195
-205.406	-67.498	-0.329	-0.128
-204.392	-200.000	0.015	0.210
-203.377	124.340	0.105	-0.130
-202.363	-78.822	0.178	-0.060
-201.348	-137.812	0.183	-0.020
-200.333	-200.000	-0.001	-0.070
-199.319	-141.934	0.128	-0.013
-198.304	-159.780	-0.164	0.009
-197.290	800.000	0.061	0.261
-196.275	-92.887	0.130	0.036
-195.260	65.017	-0.037	0.037
-194.246	-200.000	-0.010	0.222
-193.231	-129.210	0.216	-0.030
-192.217	35.699	0.234	0.203
-191.202	165.324	0.082	0.114
-190.187	-200.000	-0.003	-0.037
-189.173	-118.951	0.083	0.014
-188.158	-181.961	-0.350	0.007
-187.144	-81.550	-0.253	-0.082
-186.129	90.615	0.008	0.009
-185.114	44.956	-0.260	-0.236
-184.100	389.107	-0.100	0.205
-183.085	800.000	-0.039	-0.109
-182.071	399.445	0.101	-0.209
-181.056	-200.000	-0.090	0.000
-180.042	88.915	0.324	0.355
-179.027	-15.813	0.279	0.175
-178.012	-69.730	0.124	-0.047
-176.998	74.742	-0.102	0.106
-175.983	794.648	0.021	0.057
-174.969	-200.000	0.084	0.424
-173.954	278.704	-0.174	0.307
-172.939	637.805	0.025	0.064
-171.925	-200.000	0.027	0.144
-170.910	111.223	-0.124	-0.147
-169.896	-3.905	-0.118	0.081
-168.881	190.359	0.253	0.374
-167.866	-107.023	0.460	0.100
-166.852	-72.750	0.218	-0.079
-165.837	-114.290	0.242	0.046
-164.823	-200.000	-0.077	-0.427
-163.808	-200.000	0.018	-0.159
-162.793	237.685	0.198	-0.324
-161.779	-200.000	0.002	-0.191
-160.764	-91.901	0.197	0.055
-159.750	308.121	-0.171	0.314
-158.735	800.000	0.050	0.153
-157.720	-82.337	0.351	0.113
-156.706	15.718	-0.103	0.080
-155.691	332.758	-0.032	-0.061
-154.677	800.000	0.099	0.303
-153.662	-95.284	-0.142	-0.038
-152.647	266.946	0.081	0.139
-151.633	-162.091	-0.077	-0.004
-150.618	567.979	-0.080	-0.192
-149.604	171.025	-0.115	-0.162
-148.589	624.514	-0.120	0.298
-147.574	-125.069	-0.473	0.072
-146.560	-5.843	-0.189	0.128
-145.545	-75.945	0.181	0.063
-144.531	249.937	-0.043	-0.071
-143.516	800.000	0.065	-0.258
-142.502	800.000	-0.048	-0.133
-141.487	-200.000	0.044	0.413
-140.472	-200.000	-0.010	-0.345
-139.458	250.226	0.032	-0.054
-138.443	-200.000	-0.002	0.112
-137.429	-200.000	0.024	0.210
-136.414	800.000	0.034	-0.115
-135.399	189.096	0.137	0.203
-134.385	800.000	-0.066	-0.280
-133.370	33.978	-0.034	0.029
-132.356	-116.000	0.116	0.021
-131.341	-40.545	-0.051	0.026
-130.326	-200.000	-0.002	-0.091
-129.312	172.584	0.098	0.139
-128.297	5.417	-0.088	0.064
-127.283	87.451	-0.194	0.212
-126.268	800.000	0.109	0.451
-125.253	800.000	0.027	-0.111
-124.239	800.000	-0.049	0.206
-123.224	800.000	0.008	-0.022
-122.210	19.944	0.318	0.252
