DTS Sentinel unit serial number:	SN413079Multiplexer serial number:	ORYXHardware model number:	OX4-SRSoftware version number:	ORYX F/W v4.00 Oryx Data Collector v3.7.2.0data status	okinstallation	princeton_trtdifferential loss correction	single-endedforward channel	channel 3reverse channel	N/Adate	2019/09/16time	05:40:34forward acquisition time	60.00reverse acquisition time	0.00gamma	496.2192k internal	0.2335k external	0.2335temperature offset calibration	0.9959default loss term (dB/km)	0.3790temperature slope calibration	1.0000multiplexer offset coefficient	1.0000multiplexer slope coefficient	1.0000fibre end	0.00T internal ref (°C)	27.31T ext. ref 1 (°C)	11.17T ext. ref 2 (°C)	22.25length (m)	temperature (°C)	Stokes	anti-Stokes-747.200	-54.624	-0.160	0.073
-746.185	30.358	-0.105	0.090
-745.171	-200.000	0.010	0.163
-744.156	-50.626	-0.321	0.152
-743.142	-182.916	0.153	0.003
-742.127	800.000	-0.059	0.254
-741.112	800.000	-0.050	0.167
-740.098	22.224	-0.217	0.178
-739.083	-5.272	0.152	-0.105
-738.069	40.518	0.252	0.228
-737.054	-118.258	-0.104	-0.019
-736.039	-118.206	-0.244	0.044
-735.025	-85.306	0.350	0.110
-734.010	-3.413	-0.262	0.183
-732.996	800.000	0.036	0.112
-731.981	114.828	0.086	-0.106
-730.966	-143.781	-0.424	0.040
-729.952	-200.000	0.021	-0.161
-728.937	267.643	-0.181	-0.318
-727.923	-200.000	0.001	0.090
-726.908	25.051	-0.144	0.120
-725.894	-198.789	-0.354	0.002
-724.879	275.841	0.110	0.196
-723.864	-200.000	0.008	0.167
-722.850	87.654	-0.223	0.248
-721.835	-156.064	-0.065	-0.004
-720.821	-200.000	0.024	-0.302
-719.806	19.476	-0.143	-0.116
-718.791	-182.348	0.106	-0.002
-717.777	-51.913	-0.118	0.055
-716.762	-104.677	-0.114	-0.026
-715.748	-107.610	-0.282	-0.062
-714.733	-82.423	0.191	0.062
-713.718	-200.000	-0.044	-0.285
-712.704	-6.786	0.320	0.219
-711.689	-0.275	-0.277	-0.198
-710.675	46.558	0.141	-0.132
-709.660	-89.862	0.049	-0.014
-708.645	-78.133	-0.170	-0.059
-707.631	271.617	-0.028	0.049
-706.616	413.237	-0.034	-0.073
-705.602	-135.663	0.282	-0.034
-704.587	270.548	-0.124	0.219
-703.572	152.631	0.032	-0.044
-702.558	-27.345	0.194	-0.114
-701.543	-33.537	-0.162	-0.090
-700.529	80.006	0.152	-0.164
-699.514	-100.191	-0.387	-0.096
-698.499	-200.000	-0.038	-0.201
-697.485	65.930	-0.270	-0.274
-696.470	-162.337	0.206	-0.010
-695.456	800.000	0.034	-0.141
-694.441	283.648	0.090	-0.161
-693.426	-40.650	-0.289	-0.150
-692.412	-84.313	0.152	0.048
-691.397	126.779	-0.264	-0.336
-690.383	-168.773	-0.045	-0.002
-689.368	-200.000	-0.057	-0.287
-688.354	43.110	0.067	0.061
-687.339	60.505	-0.064	0.064
-686.324	557.150	0.036	-0.087
-685.310	-107.027	-0.256	0.057
-684.295	-200.000	-0.018	-0.239
-683.281	-103.946	-0.280	0.065
-682.266	800.000	-0.077	-0.293
-681.251	-200.000	0.016	0.185
-680.237	30.208	-0.124	0.106
-679.222	-88.037	0.313	0.094
-678.208	-7.999	-0.276	-0.187
-677.193	-200.000	0.026	0.173
-676.178	800.000	-0.068	-0.240
-675.164	-8.792	-0.114	-0.077
-674.149	27.201	0.105	0.088
-673.135	800.000	0.052	0.203
-672.120	800.000	0.156	0.479
-671.105	-96.314	0.015	-0.004
-670.091	19.040	-0.260	0.209
-669.076	-150.060	-0.039	0.003
-668.062	-119.772	-0.130	-0.022
-667.047	-200.000	-0.046	0.397
-666.032	-68.751	-0.296	0.115
-665.018	99.088	-0.098	0.113
-664.003	92.877	0.223	0.252
-662.989	800.000	-0.049	-0.196
-661.974	-200.000	0.191	0.001
-660.959	-200.000	-0.033	-0.197
-659.945	-200.000	0.101	-0.476
-658.930	-122.643	0.071	-0.012
-657.916	800.000	-0.022	0.070
-656.901	800.000	-0.099	0.329
-655.886	-200.000	0.022	-0.098
-654.872	-71.138	-0.323	-0.122
-653.857	-97.178	0.025	-0.006
-652.843	-200.000	-0.002	0.040
-651.828	403.939	-0.010	-0.020
-650.814	-60.853	-0.149	-0.063
-649.799	-136.947	-0.380	-0.044
-648.784	-101.230	-0.092	0.023
-647.770	84.139	0.234	0.255
-646.755	-46.092	-0.216	-0.107
-645.741	800.000	-0.099	-0.278
-644.726	765.372	0.050	-0.136
-643.711	149.366	0.196	0.265
-642.697	-62.717	-0.324	-0.134
-641.682	208.283	-0.133	0.208
-640.668	655.226	-0.040	-0.103
-639.653	800.000	0.070	-0.251
-638.638	-71.582	0.228	0.085
-637.624	117.266	-0.022	0.026
-636.609	109.449	-0.207	0.248
-635.595	154.804	0.125	-0.172
-634.580	303.070	-0.077	0.143
-633.565	27.976	-0.096	0.081
-632.551	-24.653	-0.372	-0.221
-631.536	-194.758	0.159	-0.001
-630.522	376.704	-0.139	-0.283
-629.507	223.844	-0.144	0.233
-628.492	-7.504	-0.156	-0.106
-627.478	-12.123	0.069	-0.045
-626.463	-111.384	-0.128	-0.026
-625.449	784.790	-0.114	-0.312
-624.434	103.304	-0.092	0.108
-623.419	-140.188	-0.058	-0.006
-622.405	179.008	0.082	-0.120
-621.390	-76.000	-0.116	0.041
-620.376	-200.000	-0.071	0.333
-619.361	-72.653	-0.152	-0.056
-618.346	-67.964	-0.250	-0.098
-617.332	800.000	-0.047	-0.157
-616.317	267.022	0.111	-0.194
-615.303	68.240	-0.163	0.167
-614.288	-200.000	0.025	0.118
-613.273	525.984	0.139	0.328
-612.259	-200.000	0.029	0.166
-611.244	-132.529	-0.156	-0.020
-610.230	72.319	-0.053	0.056
-609.215	380.376	-0.062	-0.128
-608.201	3.991	0.084	-0.061
-607.186	3.474	0.146	0.106
-606.171	-200.000	0.003	0.165
-605.157	83.440	-0.203	-0.221
-604.142	42.143	0.254	0.231
-603.128	-75.715	-0.358	-0.127
-602.113	205.193	-0.054	0.083
-601.098	93.679	0.245	0.277
-600.084	-200.000	0.006	0.052
-599.069	-116.324	0.168	-0.031
-598.055	115.161	0.228	0.278
-597.040	-200.000	-0.045	-0.391
-596.025	-18.075	-0.293	0.183
-595.011	-130.231	-0.201	-0.027
-593.996	333.325	-0.128	-0.246
-592.982	-19.972	-0.217	-0.134
-591.967	-200.000	-0.028	-0.247
-590.952	800.000	0.036	-0.115
-589.938	-104.758	-0.188	-0.043
-588.923	-140.271	0.215	-0.022
-587.909	-200.000	0.009	0.129
-586.894	-200.000	-0.000	-0.108
-585.879	-168.981	-0.220	0.008
-584.865	-19.703	-0.127	0.078
-583.850	-110.863	0.125	0.026
-582.836	-89.208	0.199	-0.059
-581.821	-166.210	0.269	-0.011
-580.806	-174.788	-0.391	-0.011
-579.792	800.000	0.061	-0.178
-578.777	348.646	-0.126	0.248
-577.763	140.634	0.077	0.101
-576.748	800.000	0.051	0.196
-575.733	-200.000	0.036	0.182
-574.719	-200.000	0.008	0.075
-573.704	-200.000	-0.045	-0.355
-572.690	-39.290	-0.170	0.089
-571.675	-200.000	-0.085	0.380
-570.661	-200.000	0.002	0.087
-569.646	-73.053	0.182	0.067
-568.631	70.090	-0.139	0.144
-567.617	-26.981	0.161	0.094
-566.602	248.743	0.079	-0.134
-565.588	-200.000	-0.031	-0.319
-564.573	347.505	-0.177	-0.348
-563.558	-133.815	-0.046	0.006
-562.544	-22.097	-0.044	0.027
-561.529	-164.093	-0.294	-0.014
-560.515	229.140	0.097	0.158
-559.500	-5.482	-0.137	0.094
-558.485	99.198	0.123	0.142
-557.471	800.000	0.110	0.349
-556.456	-22.076	0.206	-0.124
-555.442	-121.806	-0.119	0.020
-554.427	-62.126	0.097	-0.041
-553.412	103.384	-0.257	-0.300
-552.398	-108.491	-0.252	-0.054
-551.383	-1.054	0.376	-0.265
-550.369	604.903	0.108	-0.269
-549.354	67.809	-0.159	0.162
-548.339	292.692	0.189	-0.344
-547.325	-74.791	-0.305	-0.109
-546.310	690.405	0.112	-0.293
-545.296	32.141	-0.096	-0.083
-544.281	552.129	0.074	0.178
-543.266	-56.157	-0.268	-0.119
-542.252	-200.000	0.031	-0.211
-541.237	10.025	-0.120	-0.091
-540.223	-83.134	-0.114	-0.037
-539.208	-62.389	-0.175	-0.072
-538.193	800.000	0.032	-0.122
-537.179	-51.602	0.175	-0.081
-536.164	-169.379	-0.254	0.009
-535.150	32.961	-0.169	-0.146
-534.135	-123.396	0.468	0.074
-533.121	261.141	-0.068	0.117
-532.106	13.572	-0.376	0.291
-531.091	-7.390	-0.037	0.025
-530.077	102.419	-0.114	0.132
-529.062	-127.649	-0.073	0.011
-528.048	66.094	-0.058	0.059
-527.033	-89.439	-0.351	0.103
-526.018	722.407	-0.183	-0.484
-525.004	-112.145	0.347	0.069
-523.989	800.000	-0.138	0.483
-522.975	-40.976	0.291	0.150
-521.960	-70.530	-0.174	-0.066
-520.945	800.000	0.123	0.409
-519.931	-148.349	0.453	-0.037
-518.916	-7.384	-0.108	-0.073
-517.902	-200.000	0.039	0.353
-516.887	-200.000	-0.019	0.214
-515.872	-200.000	0.051	0.476
-514.858	-200.000	0.022	0.130
-513.843	183.856	-0.041	-0.061
-512.829	453.342	-0.118	-0.260
-511.814	-46.522	0.152	0.074
-510.799	97.833	-0.151	-0.173
-509.785	800.000	-0.039	0.169
-508.770	800.000	0.049	0.196
-507.756	384.146	0.067	-0.137
-506.741	-83.781	-0.204	0.065
-505.726	-109.977	0.064	0.013
-504.712	-200.000	-0.023	-0.294
-503.697	308.230	-0.056	-0.105
-502.683	291.960	-0.244	0.443
-501.668	-43.761	-0.134	-0.067
-500.653	-128.364	-0.286	-0.040
-499.639	-117.034	0.343	0.062
-498.624	139.798	-0.091	-0.119
-497.610	30.744	0.174	-0.148
-496.595	38.015	0.099	-0.088
-495.581	-105.891	0.209	0.047
-494.566	127.951	-0.106	-0.134
-493.551	-146.709	-0.409	0.035
-492.537	-200.000	0.027	-0.280
-491.522	-158.576	0.146	-0.008
-490.508	-151.793	0.133	0.010
-489.493	-200.000	0.044	0.298
-488.478	800.000	-0.095	-0.319
-487.464	-198.719	0.151	0.001
-486.449	200.310	-0.090	-0.137
-485.435	800.000	-0.100	-0.283
-484.420	-32.690	0.153	-0.085
-483.405	800.000	-0.055	0.184
-482.391	339.699	0.110	0.214
-481.376	800.000	0.051	0.168
-480.362	-76.733	0.145	0.050
-479.347	-2.988	0.181	-0.126
-478.332	-149.046	0.110	0.009
-477.318	-82.209	-0.288	-0.093
-476.303	-83.050	0.067	-0.021
-475.289	-74.537	0.078	0.028
-474.274	19.226	0.214	-0.171
-473.259	-200.000	-0.061	0.371
-472.245	186.153	-0.034	-0.050
-471.230	94.225	0.025	-0.028
-470.216	117.253	0.123	-0.150
-469.201	-94.311	0.123	0.033
-468.186	-200.000	-0.061	0.284
-467.172	-148.414	-0.190	0.016
-466.157	423.494	-0.021	-0.044
-465.143	9.441	-0.061	0.046
-464.128	75.365	0.163	0.171
-463.113	58.110	-0.043	0.042
-462.099	800.000	0.027	0.086
-461.084	8.188	0.132	-0.099
-460.070	-22.198	0.183	0.110
-459.055	243.393	-0.218	0.363
-458.040	20.761	0.030	0.024
-457.026	25.962	0.307	0.254
-456.011	-128.611	0.061	0.009
-454.997	146.625	0.087	-0.117
-453.982	-93.109	0.254	0.070
-452.968	98.880	0.145	-0.166
-451.953	82.439	-0.292	-0.315
-450.938	81.270	-0.160	-0.172
-449.924	-15.566	0.216	-0.137
-448.909	293.141	-0.148	-0.269
-447.895	185.094	-0.129	-0.191
-446.880	17.251	0.229	-0.181
-445.865	-182.200	0.149	-0.003
-444.851	-200.000	-0.033	-0.227
-443.836	215.649	-0.095	-0.150
-442.822	-151.592	0.363	0.027
-441.807	-109.877	0.138	0.029
-440.792	-200.000	0.020	0.223
-439.778	800.000	0.029	0.096
-438.763	-131.332	-0.207	-0.027
-437.749	-200.000	-0.020	0.251
-436.734	-158.280	-0.229	-0.013
-435.719	-200.000	0.061	0.339
-434.705	11.961	0.112	-0.086
-433.690	22.769	0.094	-0.076
-432.676	83.917	-0.188	-0.204
-431.661	-153.862	0.230	0.016
-430.646	-116.546	-0.067	-0.012
-429.632	332.884	0.083	0.159
-428.617	430.012	-0.093	-0.201
-427.603	-200.000	-0.117	0.000
-426.588	113.789	0.216	0.261
-425.573	-200.000	-0.016	0.229
-424.559	-200.000	-0.029	0.131
-423.544	-107.267	0.247	0.054
-422.530	-176.420	-0.135	-0.003
-421.515	-200.000	-0.059	-0.357
-420.500	142.101	-0.043	0.056
-419.486	147.863	0.081	0.108
-418.471	315.980	-0.107	0.200
-417.457	800.000	-0.062	-0.223
-416.442	27.491	0.187	-0.156
-415.428	-140.331	-0.148	0.015
-414.413	285.195	0.202	-0.360
-413.398	38.386	0.092	-0.081
-412.384	65.582	0.286	-0.288
-411.369	800.000	-0.080	0.237
-410.355	178.786	-0.102	0.148
-409.340	157.365	-0.089	-0.123
-408.325	-43.661	-0.127	0.064
-407.311	-18.189	0.269	0.167
-406.296	-200.000	0.029	-0.179
-405.282	800.000	0.063	-0.211
-404.267	800.000	-0.057	-0.160
-403.252	-122.228	-0.059	0.010
-402.238	800.000	-0.033	0.133
-401.223	-200.000	0.032	0.151
-400.209	9.017	-0.028	-0.021
-399.194	169.685	-0.239	-0.339
-398.179	19.019	0.331	-0.263
-397.165	-6.203	0.085	-0.058
-396.150	-111.773	-0.119	-0.024
-395.136	-200.000	0.008	-0.242
-394.121	-82.868	-0.083	0.027
-393.106	-8.788	-0.345	0.230
-392.092	-200.000	-0.049	-0.276
-391.077	65.039	0.195	0.195
-390.063	21.320	0.261	0.210
-389.048	40.063	0.261	0.232
-388.033	800.000	0.067	-0.288
-387.019	10.296	0.090	-0.068
-386.004	-86.922	-0.058	-0.017
-384.990	280.011	0.101	0.178
-383.975	-14.148	-0.168	0.107
-382.960	-105.998	-0.059	0.013
-381.946	12.486	-0.013	0.010
-380.931	-108.084	0.124	-0.027
-379.917	-200.000	0.015	0.212
-378.902	-200.000	-0.044	0.225
-377.888	183.454	-0.101	-0.148
-376.873	-43.990	-0.131	0.065
-375.858	-19.653	-0.171	0.105
-374.844	49.362	-0.186	-0.173
-373.829	-113.187	0.230	-0.045
-372.815	-48.119	-0.116	-0.056
-371.800	-50.060	-0.275	0.129
-370.785	279.645	0.039	-0.069
-369.771	-200.000	0.010	0.249
-368.756	196.141	-0.252	0.379
-367.742	-62.528	0.289	-0.119
-366.727	113.660	-0.137	0.165
-365.712	339.892	0.127	0.245
-364.698	508.439	-0.066	0.152
-363.683	-200.000	-0.001	0.148
-362.669	-200.000	0.032	-0.154
-361.654	17.951	0.238	0.188
-360.639	479.312	0.101	0.227
-359.625	800.000	-0.128	0.367
-358.610	-40.925	-0.020	0.010
-357.596	133.107	-0.186	-0.238
-356.581	-99.935	0.126	0.031
-355.566	-200.000	-0.016	-0.281
-354.552	-153.865	0.220	0.015
-353.537	-97.919	-0.234	0.060
-352.523	347.358	0.197	-0.383
-351.508	-108.465	-0.299	-0.064
-350.493	-136.858	0.388	-0.044
-349.479	-43.201	0.175	0.088
-348.464	800.000	0.018	-0.050
-347.450	-200.000	-0.033	0.180
-346.435	-200.000	-0.010	0.172
-345.420	-56.366	0.103	0.045
-344.406	-200.000	0.040	0.197
-343.391	-141.051	0.351	0.036
-342.377	800.000	-0.070	-0.241
-341.362	-87.632	0.314	-0.094
-340.348	-200.000	0.048	0.227
-339.333	219.270	0.120	0.190
-338.318	779.220	-0.064	-0.174
-337.304	-5.303	-0.201	-0.136
-336.289	800.000	-0.070	0.269
-335.275	-43.241	0.188	0.094
-334.260	414.752	0.104	-0.219
-333.245	150.069	-0.116	0.155
-332.231	93.026	0.075	-0.083
-331.216	-200.000	0.021	-0.095
-330.202	277.508	0.154	-0.271
-329.187	-185.499	0.151	-0.002
-328.172	-88.815	0.143	-0.042
-327.158	139.222	-0.296	0.385
-326.143	541.566	-0.054	0.126
-325.129	800.000	-0.061	-0.211
-324.114	800.000	0.094	0.338
-323.099	-138.994	-0.167	0.018
-322.085	185.045	-0.100	0.147
-321.070	279.323	0.140	-0.246
-320.056	188.106	-0.181	0.268
-319.041	-69.365	0.242	0.092
-318.026	287.900	0.117	-0.209
-317.012	-139.698	0.184	0.019
-315.997	800.000	0.058	0.204
-314.983	38.523	0.241	0.212
-313.968	231.780	-0.195	-0.315
-312.953	149.092	0.171	-0.228
-311.939	30.128	-0.068	-0.057
-310.924	89.908	-0.185	-0.204
-309.910	-52.676	0.081	-0.037
-308.895	-120.999	-0.222	0.037
-307.880	-74.651	0.283	0.101
-306.866	31.109	-0.161	-0.136
-305.851	800.000	-0.078	-0.255
-304.837	-200.000	-0.045	-0.213
-303.822	569.118	0.089	0.214
-302.807	800.000	-0.068	0.205
-301.793	-200.000	-0.039	0.476
-300.778	-200.000	-0.045	-0.377
-299.764	196.062	-0.240	-0.361
-298.749	-200.000	0.014	-0.140
-297.735	-68.895	-0.276	-0.105
-296.720	-191.579	0.171	-0.002
-295.705	-36.481	-0.155	0.083
-294.691	194.354	-0.217	0.325
-293.676	-31.014	-0.121	0.067
-292.662	-26.851	-0.160	0.092
-291.647	-132.103	0.383	-0.049
-290.632	-18.493	0.241	0.149
-289.618	72.260	0.155	0.159
-288.603	313.239	-0.199	-0.370
-287.589	-200.000	0.018	-0.147
-286.574	2.054	-0.292	-0.208
-285.559	-200.000	0.015	-0.080
-284.545	-200.000	-0.004	0.145
-283.530	-149.832	-0.177	0.014
-282.516	-179.503	-0.327	0.007
-281.501	-69.476	-0.066	-0.025
-280.486	-64.213	0.298	-0.120
-279.472	4.318	-0.222	-0.161
-278.457	140.515	-0.120	-0.156
-277.443	129.863	-0.236	-0.297
-276.428	-12.373	-0.141	0.091
-275.413	30.691	-0.055	-0.046
-274.399	161.615	0.147	0.203
-273.384	-72.368	0.249	0.091
-272.370	103.044	-0.215	-0.249
-271.355	640.728	0.079	-0.198
-270.340	800.000	0.068	0.222
-269.326	-60.181	-0.137	-0.058
-268.311	-200.000	-0.031	0.158
-267.297	-200.000	-0.051	-0.333
-266.282	-108.444	0.150	-0.032
-265.267	-124.970	0.081	0.012
-264.253	-200.000	0.026	-0.143
-263.238	-200.000	0.050	-0.278
-262.224	-111.380	0.334	0.067
-261.209	800.000	-0.104	-0.359
-260.195	800.000	-0.033	-0.105
-259.180	93.159	0.080	0.089
-258.165	800.000	-0.016	-0.067
-257.151	-95.122	0.331	0.088
-256.136	83.498	-0.220	0.236
-255.122	-31.050	-0.345	-0.192
-254.107	-151.314	0.285	-0.021
-253.092	380.343	0.083	0.168
-252.078	264.059	0.156	0.267
-251.063	-63.660	-0.117	-0.047
-250.049	-113.298	0.396	0.077
-249.034	-200.000	-0.060	-0.486
-248.019	-185.762	0.184	-0.003
-247.005	-61.427	0.226	0.094
-245.990	-200.000	0.000	0.089
-244.976	-121.510	-0.199	0.033
-243.961	271.349	-0.013	0.022
-242.946	-31.549	0.211	-0.117
-241.932	4.448	0.227	-0.164
-240.917	-15.711	0.469	-0.295
-239.903	800.000	-0.067	-0.200
-238.888	800.000	-0.058	0.199
-237.873	-99.164	0.195	0.049
-236.859	-116.518	-0.226	0.041
-235.844	-200.000	-0.030	0.245
-234.830	76.809	-0.111	0.116
-233.815	-75.390	0.198	0.070
-232.800	800.000	-0.053	0.197
-231.786	-61.614	-0.154	-0.064
-230.771	-91.311	-0.283	0.080
-229.757	-200.000	-0.009	0.233
-228.742	-20.240	0.110	0.067
-227.727	-87.176	-0.124	0.037
-226.713	-200.000	0.025	0.172
-225.698	16.503	0.170	-0.132
-224.684	472.323	0.019	0.042
-223.669	-146.068	-0.349	0.030
-222.655	-95.532	0.430	-0.113
-221.640	82.547	-0.271	-0.289
-220.625	-51.953	-0.212	-0.097
-219.611	-173.608	0.084	0.002
-218.596	-132.176	-0.257	-0.033
-217.582	-87.838	-0.170	0.051
-216.567	-56.063	0.272	0.119
-215.552	-107.947	-0.430	0.092
-214.538	127.807	0.063	0.079
-213.523	-200.000	-0.004	0.110
-212.509	-200.000	0.009	0.195
-211.494	-200.000	0.006	-0.056
-210.479	-200.000	-0.002	-0.276
-209.465	-200.000	-0.071	-0.385
-208.450	-28.192	-0.285	0.162
-207.436	16.815	0.090	-0.070
-206.421	-97.542	0.357	-0.091
-205.406	-200.000	0.005	-0.080
-204.392	206.809	0.088	-0.135
-203.377	-91.574	0.091	-0.026
-202.363	541.784	-0.088	0.205
-201.348	-159.379	0.254	-0.014
-200.333	23.429	0.216	0.175
-199.319	-134.050	-0.068	0.008
-198.304	-56.588	0.214	-0.093
-197.290	194.262	-0.027	0.040
-196.275	-200.000	0.028	-0.195
-195.260	800.000	-0.046	-0.145
-194.246	208.241	0.154	-0.237
-193.231	111.381	0.155	-0.184
-192.217	-200.000	-0.006	0.130
-191.202	-134.465	-0.523	0.063
-190.187	-200.000	0.049	0.448
-189.173	-161.587	0.183	-0.009
-188.158	326.891	-0.145	-0.273
-187.144	351.565	-0.109	-0.212
-186.129	110.842	-0.042	-0.049
-185.114	-118.332	0.266	-0.046
-184.100	-76.936	0.065	-0.022
-183.085	-55.184	0.186	0.082
-182.071	-83.422	0.294	0.093
-181.056	725.109	0.044	0.115
-180.042	-200.000	-0.056	-0.384
-179.027	-4.918	-0.106	-0.072
-178.012	-147.650	-0.064	-0.005
-176.998	78.982	-0.069	0.073
-175.983	-160.710	0.416	0.022
-174.969	355.100	0.147	0.287
-173.954	800.000	0.113	0.417
-172.939	35.196	-0.185	-0.159
-171.925	32.078	0.186	0.157
-170.910	-200.000	0.001	0.196
-169.896	-10.916	-0.153	0.099
-168.881	-200.000	0.017	0.180
-167.866	39.093	0.184	0.161
-166.852	23.195	-0.111	0.090
-165.837	35.354	-0.109	0.094
-164.823	21.105	-0.500	0.398
-163.808	324.353	0.145	-0.273
-162.793	53.994	0.230	-0.218
-161.779	-98.686	-0.262	0.066
-160.764	415.310	0.072	0.150
-159.750	258.605	-0.119	-0.201
-158.735	-200.000	0.012	-0.405
-157.720	-8.734	0.306	0.202
-156.706	-42.008	0.154	-0.078
-155.691	79.791	-0.207	-0.218
-154.677	-62.927	0.392	0.159
-153.662	-84.606	0.151	-0.047
-152.647	800.000	0.037	0.152
-151.633	242.472	-0.187	0.307
-150.618	-200.000	0.011	0.216
-149.604	-41.413	-0.341	0.172
-148.589	-200.000	-0.317	-0.001
-147.574	185.665	-0.139	0.202
-146.560	-120.016	0.172	0.029
-145.545	-200.000	-0.033	-0.267
-144.531	-37.951	-0.227	0.118
-143.516	62.114	-0.120	0.118
-142.502	-107.941	-0.373	0.080
-141.487	-111.161	0.118	-0.024
-140.472	-40.356	-0.131	0.067
-139.458	-200.000	-0.011	0.427
-138.443	-200.000	0.037	-0.174
-137.429	156.304	0.061	-0.082
-136.414	-200.000	-0.002	0.062
-135.399	-52.504	0.138	0.062
-134.385	-200.000	0.044	-0.439
-133.370	-97.056	-0.097	0.025
-132.356	-139.956	0.262	-0.027
-131.341	-144.022	-0.236	-0.022
-130.326	-110.405	-0.288	-0.059
-129.312	-200.000	0.021	-0.107
-128.297	88.793	0.226	0.246
-127.283	-48.764	-0.259	-0.122
-126.268	-18.000	0.359	0.221
-125.253	-13.057	0.218	-0.139
-124.239	-200.000	-0.024	-0.190
-123.224	-200.000	0.022	-0.116
-122.210	45.142	-0.421	0.380
