DTS Sentinel unit serial number:	SN413079Multiplexer serial number:	ORYXHardware model number:	OX4-SRSoftware version number:	ORYX F/W v4.00 Oryx Data Collector v3.7.2.0data status	okinstallation	princeton_trtdifferential loss correction	single-endedforward channel	channel 3reverse channel	N/Adate	2019/09/17time	16:16:34forward acquisition time	60.00reverse acquisition time	0.00gamma	496.2192k internal	0.2292k external	0.2292temperature offset calibration	0.9952default loss term (dB/km)	0.3790temperature slope calibration	1.0000multiplexer offset coefficient	1.0000multiplexer slope coefficient	1.0000fibre end	0.00T internal ref (°C)	40.89T ext. ref 1 (°C)	0.37T ext. ref 2 (°C)	38.67length (m)	temperature (°C)	Stokes	anti-Stokes-747.200	294.301	-0.095	0.179
-746.185	231.885	-0.261	0.439
-745.171	800.000	0.020	0.080
-744.156	-38.195	-0.466	-0.253
-743.142	-39.993	-0.169	0.090
-742.127	-200.000	0.009	0.355
-741.112	35.250	0.203	-0.182
-740.098	98.699	-0.151	0.179
-739.083	-54.772	0.132	0.061
-738.069	238.005	-0.052	-0.088
-737.054	180.704	-0.067	0.100
-736.039	-71.875	-0.290	0.111
-735.025	-200.000	-0.024	-0.199
-734.010	-147.076	-0.129	-0.011
-732.996	-3.298	0.057	0.040
-731.981	-200.000	-0.033	0.252
-730.966	-75.458	0.114	-0.041
-729.952	159.755	-0.210	-0.299
-728.937	-200.000	-0.018	-0.443
-727.923	8.809	0.135	-0.104
-726.908	-200.000	0.014	0.182
-725.894	-46.548	0.061	-0.031
-724.879	-135.300	-0.574	0.070
-723.864	139.857	-0.113	-0.152
-722.850	-35.181	0.052	-0.029
-721.835	-200.000	-0.030	0.181
-720.821	-142.526	-0.135	-0.014
-719.806	-142.092	-0.242	0.025
-718.791	182.520	0.108	0.163
-717.777	-177.685	0.167	-0.004
-716.762	30.448	-0.218	-0.190
-715.748	509.094	0.055	-0.130
-714.733	-137.212	0.068	0.008
-713.718	-55.559	-0.159	-0.073
-712.704	800.000	-0.038	-0.129
-711.689	-200.000	-0.012	0.193
-710.675	800.000	0.061	0.264
-709.660	736.500	-0.080	0.218
-708.645	-105.006	0.161	0.038
-707.631	-132.956	-0.223	-0.029
-706.616	800.000	-0.092	0.360
-705.602	-72.349	-0.327	0.124
-704.587	364.266	0.029	-0.060
-703.572	114.988	-0.193	-0.241
-702.558	427.132	0.120	-0.265
-701.543	65.208	0.089	0.092
-700.529	-177.781	-0.227	0.006
-699.514	-48.848	0.161	-0.079
-698.499	-170.594	-0.323	-0.011
-697.485	317.174	0.101	0.195
-696.470	592.699	0.094	0.238
-695.456	-200.000	-0.025	0.438
-694.441	84.903	0.204	0.228
-693.426	-22.157	-0.171	-0.106
-692.412	-120.534	-0.090	-0.016
-691.397	531.619	-0.057	0.139
-690.383	37.480	0.090	0.081
-689.368	-63.530	0.063	-0.027
-688.354	-61.782	0.216	0.092
-687.339	36.959	0.308	-0.278
-686.324	-173.403	-0.054	-0.002
-685.310	604.778	0.113	-0.286
-684.295	-168.215	-0.294	-0.012
-683.281	-124.717	0.226	0.036
-682.266	-200.000	-0.007	0.481
-681.251	-107.347	-0.120	-0.027
-680.237	-20.979	-0.053	0.033
-679.222	800.000	0.112	0.324
-678.208	-194.225	0.040	-0.000
-677.193	-110.901	-0.302	-0.063
-676.178	-111.976	-0.254	-0.052
-675.164	-83.915	-0.260	0.085
-674.149	61.852	-0.148	-0.150
-673.135	-200.000	0.000	0.277
-672.120	297.872	0.108	0.202
-671.105	-200.000	-0.011	-0.273
-670.091	-162.023	-0.368	0.019
-669.076	29.106	0.227	-0.197
-668.062	-109.350	-0.129	0.028
-667.047	-200.000	-0.021	-0.364
-666.032	-200.000	0.003	-0.021
-665.018	-151.765	0.237	-0.018
-664.003	-65.924	0.324	0.132
-662.989	800.000	0.079	-0.257
-661.974	-1.478	-0.083	0.060
-660.959	-23.771	-0.207	-0.127
-659.945	-200.000	0.043	0.227
-658.930	-0.358	-0.216	-0.156
-657.916	-143.182	-0.308	0.030
-656.901	-1.997	0.213	-0.153
-655.886	242.203	-0.128	-0.218
-654.872	-200.000	-0.038	-0.260
-653.857	-200.000	0.003	0.047
-652.843	161.522	0.090	-0.128
-651.828	106.786	0.135	0.163
-650.814	-149.928	0.064	0.005
-649.799	204.620	-0.064	0.101
-648.784	-99.015	-0.319	-0.083
-647.770	56.443	0.050	0.050
-646.755	-91.514	0.451	0.131
-645.741	800.000	-0.041	0.169
-644.726	-200.000	-0.012	-0.078
-643.711	47.340	-0.082	0.078
-642.697	210.778	-0.086	0.137
-641.682	214.894	0.141	-0.228
-640.668	-87.439	0.229	-0.071
-639.653	800.000	0.070	-0.271
-638.638	-52.691	0.257	-0.121
-637.624	702.108	0.079	-0.213
-636.609	-200.000	0.030	0.267
-635.595	41.397	0.158	0.146
-634.580	-200.000	0.015	-0.140
-633.565	296.757	0.100	-0.187
-632.551	52.749	0.259	0.253
-631.536	-144.365	-0.016	-0.002
-630.522	-33.734	0.128	-0.072
-629.507	-120.387	-0.366	0.063
-628.492	-167.948	0.133	-0.005
-627.478	75.502	0.166	-0.178
-626.463	-86.928	0.232	-0.072
-625.449	269.158	-0.143	0.257
-624.434	-75.845	-0.066	-0.024
-623.419	-200.000	-0.007	-0.457
-622.405	167.773	0.010	0.014
-621.390	80.125	-0.092	0.101
-620.376	-118.537	-0.176	-0.032
-619.361	335.017	0.056	-0.111
-618.346	800.000	-0.116	0.487
-617.332	-150.587	-0.050	-0.004
-616.317	255.358	0.116	-0.202
-615.303	53.011	-0.144	0.141
-614.288	149.968	-0.069	0.095
-613.273	53.369	0.149	0.145
-612.259	-200.000	-0.044	-0.410
-611.244	168.715	-0.088	0.128
-610.230	10.266	0.358	-0.278
-609.215	800.000	-0.070	-0.205
-608.201	800.000	-0.096	-0.395
-607.186	800.000	-0.110	-0.361
-606.171	-66.481	-0.299	-0.121
-605.157	29.651	-0.178	-0.154
-604.142	133.789	-0.172	0.226
-603.128	-198.871	0.231	0.001
-602.113	202.414	0.186	-0.293
-601.098	102.861	0.150	-0.178
-600.084	57.135	0.071	-0.071
-599.069	-47.725	-0.102	0.051
-598.055	-30.303	-0.197	-0.114
-597.040	800.000	0.067	0.289
-596.025	-118.904	0.117	-0.021
-595.011	-116.465	0.278	0.052
-593.996	-0.731	0.160	-0.115
-592.982	-79.729	-0.023	-0.008
-591.967	-75.618	-0.098	-0.035
-590.952	49.471	0.099	-0.095
-589.938	-102.915	-0.335	0.081
-588.923	355.783	-0.158	0.320
-587.909	-115.229	-0.493	-0.095
-586.894	-12.806	-0.339	-0.224
-585.879	-97.907	-0.202	0.053
-584.865	-94.753	-0.079	-0.022
-583.850	-200.000	0.013	0.170
-582.836	-43.203	-0.143	0.074
-581.821	241.804	-0.092	-0.156
-580.806	799.008	0.028	0.079
-579.792	-9.335	0.431	0.293
-578.777	-41.099	-0.263	-0.138
-577.763	-135.338	0.269	-0.033
-576.748	36.960	0.063	0.057
-575.733	492.894	0.141	-0.329
-574.719	696.760	0.047	0.127
-573.704	800.000	-0.056	0.165
-572.690	203.789	0.118	0.185
-571.675	-53.750	0.083	0.038
-570.661	-200.000	-0.000	-0.516
-569.646	-162.754	-0.316	0.016
-568.631	95.665	0.201	0.233
-567.617	12.243	-0.080	-0.062
-566.602	-180.628	0.126	0.003
-565.588	65.074	0.069	-0.071
-564.573	87.408	0.318	0.357
-563.558	-64.135	0.111	-0.046
-562.544	-42.600	-0.140	0.072
-561.529	211.210	0.097	-0.155
-560.515	12.021	0.312	-0.244
-559.500	40.791	0.107	0.098
-558.485	-200.000	0.005	-0.152
-557.471	-67.004	-0.171	-0.068
-556.456	-50.938	0.114	-0.055
-555.442	-63.791	0.274	0.114
-554.427	-83.583	-0.232	-0.075
-553.412	13.324	0.325	0.256
-552.398	-104.147	-0.146	-0.035
-551.383	-77.138	0.275	-0.097
-550.369	800.000	-0.027	-0.095
-549.354	-146.995	0.254	0.022
-548.339	-76.220	0.142	0.051
-547.325	-200.000	0.038	-0.197
-546.310	-9.553	-0.074	-0.050
-545.296	183.373	-0.071	-0.106
-544.281	-145.772	-0.290	0.026
-543.266	-88.330	-0.210	0.064
-542.252	319.089	0.129	-0.248
-541.237	-159.149	-0.588	0.034
-540.223	-125.729	-0.119	0.018
-539.208	395.894	-0.058	-0.123
-538.193	13.207	0.216	-0.170
-537.179	-94.399	0.238	0.066
-536.164	274.581	0.086	0.155
-535.150	-87.009	0.165	0.051
-534.135	82.551	0.123	-0.135
-533.121	40.290	0.211	0.193
-532.106	35.770	-0.099	-0.089
-531.091	-102.169	0.319	0.078
-530.077	-49.138	0.183	-0.089
-529.062	-70.818	0.232	0.089
-528.048	-13.762	0.227	-0.149
-527.033	-200.000	-0.020	0.292
-526.018	276.044	0.113	0.203
-525.004	264.852	0.074	-0.131
-523.989	-200.000	-0.006	-0.176
-522.975	7.156	-0.272	-0.206
-521.960	63.194	0.059	-0.060
-520.945	-67.970	0.415	-0.164
-519.931	-113.480	0.170	-0.034
-518.916	-159.976	0.206	0.011
-517.902	524.446	-0.125	-0.298
-516.887	-200.000	0.053	-0.358
-515.872	800.000	0.063	-0.232
-514.858	121.541	-0.117	0.148
-513.843	-200.000	-0.001	-0.036
-512.829	28.065	0.167	0.143
-511.814	-200.000	0.026	-0.245
-510.799	-200.000	-0.007	0.128
-509.785	273.985	-0.117	-0.210
-508.770	-41.871	-0.255	0.132
-507.756	51.256	0.126	0.122
-506.741	-10.797	-0.205	-0.137
-505.726	-200.000	0.011	0.085
-504.712	-52.701	-0.184	-0.086
-503.697	-173.162	-0.125	-0.004
-502.683	-200.000	0.009	-0.111
-501.668	35.008	0.127	0.113
-500.653	800.000	-0.062	0.213
-499.639	800.000	0.066	0.201
-498.624	29.482	-0.167	-0.144
-497.610	82.513	-0.116	-0.128
-496.595	-44.050	-0.158	0.080
-495.581	76.487	0.143	-0.153
-494.566	-200.000	0.043	-0.264
-493.551	-57.049	0.157	-0.070
-492.537	800.000	0.108	0.436
-491.522	51.128	-0.139	-0.134
-490.508	-162.692	-0.337	-0.017
-489.493	404.151	-0.052	0.111
-488.478	11.093	0.304	-0.236
-487.464	-84.429	-0.122	0.039
-486.449	-200.000	-0.001	-0.189
-485.435	-200.000	0.014	-0.071
-484.420	18.513	-0.164	0.132
-483.405	-37.208	0.226	-0.123
-482.391	-200.000	0.014	0.217
-481.376	5.720	0.192	-0.144
-480.362	724.671	0.100	-0.270
-479.347	-92.948	-0.097	0.027
-478.332	5.559	-0.030	0.022
-477.318	-130.640	-0.237	-0.032
-476.303	-38.277	-0.200	0.107
-475.289	428.007	-0.059	0.128
-474.274	393.373	0.061	0.129
-473.259	-103.688	-0.054	-0.013
-472.245	129.417	-0.120	0.155
-471.230	12.537	0.101	0.079
-470.216	135.556	-0.061	0.080
-469.201	408.713	-0.015	0.033
-468.186	-200.000	0.111	-0.548
-467.172	-96.576	0.432	-0.115
-466.157	-98.792	-0.207	0.053
-465.143	-71.373	0.126	-0.048
-464.128	-52.203	0.211	-0.099
-463.113	-136.690	0.157	0.018
-462.099	-96.758	0.190	0.051
-461.084	-123.155	0.174	-0.028
-460.070	-54.205	-0.142	-0.065
-459.055	770.940	-0.033	-0.091
-458.040	198.918	0.043	0.067
-457.026	260.451	0.140	-0.245
-456.011	232.040	-0.090	0.150
-454.997	-120.126	0.057	-0.010
-453.982	105.311	-0.064	-0.077
-452.968	494.349	0.035	-0.082
-451.953	-73.553	0.182	-0.067
-450.938	158.060	-0.194	0.272
-449.924	360.920	0.137	-0.278
-448.909	157.763	0.150	0.210
-447.895	-200.000	0.003	0.092
-446.880	415.952	-0.043	-0.092
-445.865	-52.830	0.220	0.102
-444.851	83.004	-0.180	-0.198
-443.836	195.545	-0.018	0.028
-442.822	271.010	-0.034	0.060
-441.807	-103.316	-0.108	-0.026
-440.792	320.314	0.054	-0.104
-439.778	-200.000	0.029	0.238
-438.763	-143.367	-0.271	-0.026
-437.749	-158.005	-0.160	0.010
-436.734	-89.881	-0.226	-0.067
-435.719	121.978	0.099	0.125
-434.705	350.645	0.139	-0.278
-433.690	800.000	0.039	-0.145
-432.676	-200.000	-0.009	0.244
-431.661	-14.971	0.030	0.020
-430.646	-62.700	0.113	-0.047
-429.632	-19.444	-0.353	-0.221
-428.617	21.939	-0.117	0.097
-427.603	-67.061	-0.206	0.082
-426.588	51.965	-0.084	-0.081
-425.573	-46.806	0.338	-0.167
-424.559	425.506	-0.077	-0.167
-423.544	43.799	-0.176	0.163
-422.530	139.190	-0.221	0.294
-421.515	221.416	-0.022	0.035
-420.500	30.078	0.006	0.005
-419.486	-200.000	0.016	0.185
-418.471	-116.180	0.224	-0.042
-417.457	351.391	0.038	-0.077
-416.442	50.498	0.051	-0.049
-415.428	-59.883	0.169	-0.073
-414.413	800.000	0.020	0.087
-413.398	14.269	-0.362	0.285
-412.384	184.693	0.141	-0.212
-411.369	482.272	-0.035	-0.080
-410.355	-200.000	-0.035	0.513
-409.340	-91.758	-0.194	0.056
-408.325	415.756	0.038	-0.081
-407.311	306.906	-0.167	0.314
-406.296	475.904	0.073	0.167
-405.282	-93.272	-0.238	0.067
-404.267	-189.409	-0.524	0.006
-403.252	46.003	-0.177	-0.165
-402.238	-200.000	-0.052	-0.272
-401.223	-40.769	-0.265	0.139
-400.209	35.771	0.096	0.086
-399.194	-75.889	-0.321	0.115
-398.179	24.864	-0.162	0.135
-397.165	-109.777	-0.111	-0.024
-396.150	-53.131	0.029	0.013
-395.136	-200.000	-0.022	0.129
-394.121	800.000	0.078	-0.222
-393.106	-28.504	-0.195	0.113
-392.092	-84.159	0.126	0.040
-391.077	-200.000	0.035	0.446
-390.063	-96.828	-0.182	-0.048
-389.048	-70.844	0.221	0.084
-388.033	-108.712	-0.225	0.049
-387.019	33.762	-0.081	-0.071
-386.004	-105.323	-0.091	-0.021
-384.990	482.584	0.033	-0.077
-383.975	-11.533	0.033	0.022
-382.960	-200.000	0.014	0.078
-381.946	-137.744	-0.261	-0.030
-380.931	19.493	0.234	0.190
-379.917	-77.144	-0.106	-0.037
-378.902	-200.000	0.070	0.391
-377.888	800.000	0.037	0.106
-376.873	-200.000	0.012	0.163
-375.858	-150.982	-0.184	-0.014
-374.844	-147.345	-0.173	0.015
-373.829	-11.854	0.153	0.101
-372.815	-59.005	-0.373	-0.163
-371.800	-117.653	0.052	0.009
-370.785	444.170	0.074	0.164
-369.771	-89.019	0.180	0.054
-368.756	61.602	-0.287	-0.288
-367.742	-44.344	0.112	-0.057
-366.727	148.259	0.206	0.281
-365.712	81.058	-0.080	-0.087
-364.698	689.831	0.026	-0.069
-363.683	800.000	0.055	0.198
-362.669	-200.000	-0.059	-0.360
-361.654	800.000	-0.068	0.198
-360.639	-144.292	0.072	-0.007
-359.625	-200.000	-0.061	0.340
-358.610	-11.584	-0.298	0.198
-357.596	-89.417	-0.234	-0.069
-356.581	-46.512	-0.047	0.023
-355.566	45.683	0.115	0.107
-354.552	-54.345	0.080	0.037
-353.537	89.424	0.066	0.074
-352.523	12.364	0.132	-0.102
-351.508	-31.864	-0.118	0.067
-350.493	-63.220	-0.355	-0.148
-349.479	47.776	0.185	0.175
-348.464	-200.000	-0.006	0.052
-347.450	-200.000	-0.008	0.239
-346.435	-87.186	-0.057	0.018
-345.420	-154.269	0.379	0.026
-344.406	-14.687	-0.146	0.095
-343.391	140.273	0.029	0.038
-342.377	800.000	0.061	-0.176
-341.362	-200.000	-0.011	0.584
-340.348	-143.686	0.163	-0.016
-339.333	-104.094	0.317	0.074
-338.318	-92.855	0.141	-0.040
-337.304	-1.085	0.137	0.098
-336.289	265.569	0.140	-0.246
-335.275	-77.898	0.092	0.032
-334.260	464.699	-0.061	-0.137
-333.245	-55.138	-0.190	0.086
-332.231	33.075	0.052	0.045
-331.216	-200.000	0.067	0.298
-330.202	380.873	-0.046	-0.095
-329.187	800.000	-0.040	-0.139
-328.172	-85.262	-0.035	0.011
-327.158	-31.322	0.050	-0.028
-326.143	-200.000	-0.017	0.144
-325.129	78.548	-0.080	0.087
-324.114	93.270	0.069	-0.078
-323.099	111.028	-0.145	-0.176
-322.085	-87.636	-0.247	0.075
-321.070	316.808	0.130	0.247
-320.056	-200.000	0.018	0.353
-319.041	68.097	-0.131	-0.135
-318.026	99.993	-0.145	-0.169
-317.012	-200.000	0.000	0.085
-315.997	10.000	-0.116	0.089
-314.983	199.380	-0.057	0.088
-313.968	800.000	0.006	0.021
-312.953	-200.000	-0.252	-0.001
-311.939	37.809	-0.157	-0.140
-310.924	18.458	0.183	0.147
-309.910	72.332	0.069	0.073
-308.895	68.918	0.177	0.183
-307.880	563.684	0.107	-0.261
-306.866	84.566	-0.081	0.089
-305.851	-114.403	-0.225	0.044
-304.837	-118.170	-0.187	0.033
-303.822	-200.000	-0.020	0.276
-302.807	2.434	-0.178	0.129
-301.793	96.532	0.051	-0.059
-300.778	13.407	-0.273	-0.213
-299.764	-95.188	0.128	0.035
-298.749	59.668	0.065	-0.065
-297.735	-200.000	-0.034	-0.358
-296.720	-200.000	0.015	0.171
-295.705	-200.000	-0.004	-0.066
-294.691	-200.000	-0.006	0.068
-293.676	187.551	-0.113	0.169
-292.662	800.000	-0.050	0.184
-291.647	800.000	-0.062	0.183
-290.632	-148.964	-0.122	0.010
-289.618	-51.718	0.358	-0.168
-288.603	800.000	0.064	0.243
-287.589	-26.214	-0.216	0.127
-286.574	33.261	0.093	0.081
-285.559	-71.639	0.210	0.079
-284.545	30.413	-0.286	-0.246
-283.530	134.416	-0.107	0.140
-282.516	289.528	0.074	0.136
-281.501	5.514	-0.103	0.076
-280.486	113.761	0.078	-0.095
-279.472	-107.195	0.453	-0.100
-278.457	800.000	-0.091	0.335
-277.443	181.887	-0.161	0.239
-276.428	-159.832	0.300	0.017
-275.413	668.043	-0.064	0.165
-274.399	-22.616	-0.235	-0.143
-273.384	86.509	0.035	0.039
-272.370	406.077	0.057	-0.120
-271.355	-84.901	-0.102	-0.032
-270.340	-200.000	-0.017	-0.086
-269.326	2.952	0.265	-0.193
-268.311	-200.000	-0.004	0.418
-267.297	-89.957	-0.220	0.065
-266.282	200.168	0.162	0.250
-265.267	145.758	0.090	0.121
-264.253	243.738	-0.058	-0.097
-263.238	167.346	-0.125	-0.178
-262.224	-118.518	-0.194	-0.034
-261.209	163.833	0.064	-0.090
-260.195	-122.640	0.130	0.021
-259.180	26.600	-0.194	-0.163
-258.165	-197.370	-0.194	-0.001
-257.151	-200.000	-0.013	-0.114
-256.136	499.378	-0.134	-0.309
-255.122	2.950	-0.236	0.172
-254.107	-10.000	-0.185	0.123
-253.092	800.000	-0.016	0.060
-252.078	34.225	0.051	0.045
-251.063	800.000	-0.018	0.069
-250.049	-127.597	-0.231	-0.034
-249.034	430.540	0.175	-0.380
-248.019	-200.000	0.040	-0.181
-247.005	456.213	0.186	-0.414
-245.990	-179.320	-0.089	-0.002
-244.976	800.000	-0.042	-0.134
-243.961	527.067	-0.133	-0.314
-242.946	-69.886	0.363	0.139
-241.932	789.687	0.115	-0.316
-240.917	-64.925	0.386	0.157
-239.903	-102.030	0.290	-0.070
-238.888	-110.840	-0.262	-0.054
-237.873	-35.831	-0.370	-0.201
-236.859	-138.263	-0.346	0.038
-235.844	-39.871	0.293	0.154
-234.830	486.976	-0.102	-0.233
-233.815	-65.490	-0.241	-0.097
-232.800	-110.756	-0.257	0.053
-231.786	708.571	0.077	-0.204
-230.771	396.362	0.163	-0.341
-229.757	-200.000	-0.023	-0.116
-228.742	179.792	0.163	0.240
-227.727	188.478	-0.086	0.129
-226.713	-57.787	0.134	0.059
-225.698	-108.851	-0.420	0.090
-224.684	304.860	-0.211	-0.393
-223.669	-88.271	0.262	-0.078
-222.655	800.000	0.141	0.552
-221.640	50.269	-0.157	0.149
-220.625	281.726	-0.068	-0.122
-219.611	-200.000	0.009	-0.108
-218.596	-13.834	0.036	0.023
-217.582	119.078	0.066	-0.082
-216.567	32.247	0.146	-0.126
-215.552	-100.408	-0.011	0.003
-214.538	-112.137	0.122	0.024
-213.523	-48.115	0.071	-0.034
-212.509	424.704	-0.104	-0.225
-211.494	-200.000	-0.044	-0.288
-210.479	-55.360	0.364	-0.164
-209.465	-200.000	0.006	0.069
-208.450	-200.000	-0.026	0.237
-207.436	-2.422	0.140	-0.099
-206.421	15.560	-0.118	0.093
-205.406	186.274	0.129	-0.193
-204.392	258.758	-0.174	-0.300
-203.377	-200.000	0.006	0.187
-202.363	-193.086	-0.114	-0.001
-201.348	54.179	0.146	-0.141
-200.333	-13.714	0.185	0.120
-199.319	357.611	-0.097	-0.194
-198.304	306.701	0.194	-0.362
-197.290	-139.544	-0.077	-0.008
-196.275	146.541	0.060	-0.081
-195.260	-200.000	-0.048	0.282
-194.246	-36.554	-0.180	0.097
-193.231	800.000	0.017	0.075
-192.217	-200.000	0.037	-0.257
-191.202	-200.000	0.007	0.228
-190.187	-163.183	0.132	-0.006
-189.173	-117.855	-0.212	-0.038
-188.158	-200.000	-0.011	-0.134
-187.144	-64.304	0.166	0.068
-186.129	-200.000	0.007	0.182
-185.114	800.000	-0.113	0.357
-184.100	334.084	0.190	0.369
-183.085	-200.000	0.020	-0.133
-182.071	-200.000	-0.030	-0.247
-181.056	-46.513	0.315	-0.155
-180.042	782.705	0.246	0.675
-179.027	-62.556	-0.167	0.070
-178.012	232.474	0.108	-0.177
-176.998	118.875	0.046	0.057
-175.983	-83.375	0.309	0.099
-174.969	84.727	0.200	-0.219
-173.954	220.995	-0.072	0.115
-172.939	-55.435	-0.174	-0.078
-171.925	81.903	0.060	0.065
-170.910	56.569	-0.032	0.031
-169.896	-107.219	-0.248	0.055
-168.881	614.598	-0.074	0.185
-167.866	-123.204	-0.215	0.034
-166.852	-200.000	-0.027	0.149
-165.837	-200.000	0.014	-0.110
-164.823	800.000	0.036	-0.125
-163.808	-143.591	-0.107	-0.010
-162.793	39.622	-0.078	-0.070
-161.779	-40.836	0.263	-0.136
-160.764	270.909	0.077	0.135
-159.750	144.298	0.145	0.194
-158.735	368.464	0.072	-0.146
-157.720	-166.490	-0.056	-0.002
-156.706	-165.606	0.428	-0.019
-155.691	338.778	-0.067	-0.130
-154.677	-140.126	0.245	0.026
-153.662	-93.933	0.324	-0.089
-152.647	110.302	-0.270	0.325
-151.633	133.281	-0.191	0.247
-150.618	-23.581	-0.126	-0.076
-149.604	-55.607	-0.176	-0.079
-148.589	-200.000	-0.038	0.252
-147.574	99.830	-0.176	-0.204
-146.560	-62.846	0.026	-0.011
-145.545	-37.473	-0.332	-0.177
-144.531	294.217	-0.078	-0.142
-143.516	-107.538	0.168	0.037
-142.502	18.672	-0.171	-0.137
-141.487	800.000	0.066	-0.260
-140.472	800.000	-0.055	0.195
-139.458	152.968	0.009	-0.012
-138.443	800.000	0.113	0.479
-137.429	-200.000	-0.032	0.294
-136.414	-122.729	0.141	0.023
-135.399	800.000	0.022	0.080
-134.385	66.254	0.209	0.212
-133.370	-14.547	0.050	0.032
-132.356	-178.626	-0.179	0.004
-131.341	-114.022	0.375	-0.073
-130.326	-200.000	0.038	0.202
-129.312	460.768	0.020	-0.045
-128.297	-0.253	-0.252	-0.179
-127.283	-105.623	-0.027	0.006
-126.268	-68.513	0.125	-0.048
-125.253	176.389	-0.098	0.142
-124.239	240.746	-0.082	0.137
-123.224	-200.000	-0.009	-0.305
-122.210	215.822	0.221	-0.350
-121.195	-138.019	0.077	0.009
