DTS Sentinel unit serial number:	SN413079Multiplexer serial number:	ORYXHardware model number:	OX4-SRSoftware version number:	ORYX F/W v4.00 Oryx Data Collector v3.7.2.0data status	okinstallation	princeton_trtdifferential loss correction	single-endedforward channel	channel 3reverse channel	N/Adate	2019/09/16time	15:52:35forward acquisition time	60.00reverse acquisition time	0.00gamma	496.2192k internal	0.2293k external	0.2293temperature offset calibration	0.9943default loss term (dB/km)	0.3790temperature slope calibration	1.0000multiplexer offset coefficient	1.0000multiplexer slope coefficient	1.0000fibre end	0.00T internal ref (°C)	41.12T ext. ref 1 (°C)	14.83T ext. ref 2 (°C)	35.90length (m)	temperature (°C)	Stokes	anti-Stokes-747.200	-93.152	-0.219	-0.062
-746.185	-31.790	-0.320	-0.184
-745.171	168.187	0.217	0.316
-744.156	95.394	0.263	0.307
-743.142	-103.064	-0.192	-0.047
-742.127	-200.000	-0.011	-0.078
-741.112	-81.792	0.287	0.096
-740.098	162.052	-0.237	0.339
-739.083	212.464	-0.069	-0.111
-738.069	-66.572	-0.231	0.094
-737.054	100.821	-0.114	0.136
-736.039	75.897	-0.253	-0.274
-735.025	-200.000	-0.017	0.184
-734.010	-126.500	0.139	0.021
-732.996	-3.779	-0.098	-0.070
-731.981	5.250	-0.253	-0.191
-730.966	-127.573	0.071	-0.011
-729.952	800.000	0.027	-0.088
-728.937	-111.205	-0.143	-0.030
-727.923	78.506	-0.044	0.048
-726.908	-200.000	0.020	-0.159
-725.894	300.537	-0.042	0.080
-724.879	-127.151	0.087	-0.013
-723.864	-75.453	0.229	-0.083
-722.850	245.481	0.120	-0.206
-721.835	688.548	-0.071	-0.190
-720.821	123.377	-0.156	-0.200
-719.806	-54.056	0.207	-0.096
-718.791	-45.470	-0.136	-0.069
-717.777	-37.826	0.037	-0.020
-716.762	-37.861	-0.324	-0.176
-715.748	-200.000	-0.023	0.435
-714.733	-146.176	0.188	-0.017
-713.718	-200.000	-0.001	-0.050
-712.704	-200.000	-0.017	0.207
-711.689	-57.551	0.163	0.073
-710.675	398.860	-0.080	0.171
-709.660	-35.660	-0.129	-0.071
-708.645	135.834	-0.085	-0.114
-707.631	130.131	0.220	-0.288
-706.616	193.091	-0.125	0.193
-705.602	-200.000	-0.007	0.296
-704.587	375.914	0.049	-0.102
-703.572	498.378	0.193	-0.453
-702.558	389.543	0.117	0.248
-701.543	-200.000	-0.007	0.104
-700.529	73.671	-0.105	0.112
-699.514	85.963	-0.192	0.216
-698.499	-41.244	-0.153	-0.081
-697.485	-200.000	-0.013	0.094
-696.470	118.731	-0.200	-0.252
-695.456	-200.000	-0.071	-0.365
-694.441	-200.000	0.027	-0.309
-693.426	-45.359	0.024	0.012
-692.412	-200.000	0.031	-0.227
-691.397	-165.464	0.078	0.004
-690.383	800.000	-0.170	0.493
-689.368	126.757	0.097	0.126
-688.354	257.519	0.189	0.332
-687.339	282.975	-0.175	-0.321
-686.324	-200.000	0.006	-0.217
-685.310	-116.582	-0.228	-0.043
-684.295	2.417	0.180	-0.133
-683.281	800.000	-0.025	-0.082
-682.266	-200.000	0.011	-0.068
-681.251	-34.264	-0.110	0.061
-680.237	-200.000	0.018	-0.148
-679.222	-163.381	0.023	-0.001
-678.208	-103.042	-0.277	0.067
-677.193	400.555	0.249	-0.533
-676.178	-71.599	-0.089	-0.034
-675.164	19.992	-0.125	-0.103
-674.149	11.234	-0.118	-0.092
-673.135	800.000	0.027	-0.078
-672.120	45.636	-0.213	0.201
-671.105	369.480	0.046	-0.095
-670.091	-200.000	0.009	0.154
-669.076	521.284	0.039	-0.092
-668.062	-178.199	0.147	-0.004
-667.047	176.539	-0.149	0.221
-666.032	41.024	-0.248	-0.228
-665.018	-200.000	-0.077	0.427
-664.003	388.653	-0.051	0.107
-662.989	-45.492	0.237	0.120
-661.974	439.207	-0.098	-0.218
-660.959	-154.157	-0.229	0.016
-659.945	-200.000	0.003	0.175
-658.930	101.192	-0.229	-0.271
-657.916	800.000	-0.124	0.475
-656.901	-40.217	0.228	-0.121
-655.886	800.000	0.103	-0.332
-654.872	800.000	-0.150	-0.434
-653.857	-62.684	0.206	0.087
-652.843	-200.000	-0.072	-0.348
-651.828	-32.109	-0.271	0.154
-650.814	-146.522	-0.407	0.036
-649.799	-117.184	-0.219	0.041
-648.784	-137.652	-0.191	0.022
-647.770	800.000	-0.021	-0.075
-646.755	800.000	0.078	-0.292
-645.741	-114.286	-0.251	-0.049
-644.726	41.744	-0.149	-0.138
-643.711	309.623	-0.064	0.123
-642.697	-129.880	-0.312	-0.044
-641.682	800.000	-0.047	0.140
-640.668	443.131	0.132	0.295
-639.653	109.235	-0.121	0.147
-638.638	-111.944	-0.165	0.034
-637.624	617.541	0.087	0.223
-636.609	-200.000	0.011	-0.574
-635.595	156.092	0.172	-0.241
-634.580	-200.000	-0.044	0.363
-633.565	-53.599	0.082	-0.038
-632.551	-180.049	-0.414	-0.009
-631.536	-120.371	-0.250	-0.043
-630.522	-100.635	0.167	-0.042
-629.507	-53.029	-0.190	-0.089
-628.492	-157.842	-0.390	0.024
-627.478	-86.909	-0.283	-0.088
-626.463	20.402	0.147	-0.121
-625.449	-200.000	-0.021	-0.286
-624.434	-137.484	-0.126	0.014
-623.419	-187.829	-0.337	0.004
-622.405	-200.000	0.014	-0.226
-621.390	800.000	0.083	0.350
-620.376	332.000	-0.100	-0.197
-619.361	-200.000	0.064	-0.396
-618.346	-12.359	0.050	0.033
-617.332	-63.072	-0.222	-0.093
-616.317	-200.000	-0.001	-0.005
-615.303	-200.000	0.095	-0.487
-614.288	0.825	0.104	0.076
-613.273	96.532	-0.030	-0.035
-612.259	-58.707	0.187	-0.083
-611.244	-200.000	-0.024	-0.361
-610.230	-52.171	0.251	-0.119
-609.215	-111.827	-0.084	0.017
-608.201	-77.475	-0.168	-0.059
-607.186	-65.650	0.192	0.078
-606.171	318.019	0.042	-0.080
-605.157	-37.693	-0.131	0.071
-604.142	-66.602	-0.110	-0.044
-603.128	1.692	-0.221	-0.162
-602.113	20.452	0.108	-0.088
-601.098	-200.000	-0.021	-0.207
-600.084	221.797	0.127	0.208
-599.069	-200.000	-0.002	-0.031
-598.055	-38.714	-0.238	0.128
-597.040	-200.000	-0.041	-0.197
-596.025	800.000	-0.067	-0.202
-595.011	-200.000	-0.028	-0.133
-593.996	-142.977	0.171	-0.017
-592.982	105.477	-0.206	0.248
-591.967	-168.171	-0.495	0.020
-590.952	-52.348	-0.220	0.104
-589.938	112.349	0.148	-0.183
-588.923	-150.979	-0.174	0.013
-587.909	65.436	-0.334	0.344
-586.894	-50.937	-0.170	0.081
-585.879	18.294	-0.258	0.210
-584.865	75.373	-0.018	0.019
-583.850	-148.342	-0.342	0.029
-582.836	588.917	-0.082	0.205
-581.821	-15.475	-0.105	-0.068
-580.806	-129.598	-0.205	0.029
-579.792	55.956	-0.080	0.079
-578.777	-200.000	-0.024	0.135
-577.763	-8.927	-0.084	-0.057
-576.748	-200.000	0.030	0.284
-575.733	-172.446	0.167	-0.005
-574.719	127.096	0.118	-0.152
-573.704	-200.000	-0.006	0.187
-572.690	51.378	0.148	-0.143
-571.675	-99.354	0.221	0.057
-570.661	800.000	-0.034	0.123
-569.646	-200.000	0.035	-0.324
-568.631	-142.766	0.161	0.016
-567.617	463.165	-0.211	0.478
-566.602	-200.000	-0.009	0.141
-565.588	-98.685	0.367	0.095
-564.573	32.066	-0.335	0.294
-563.558	800.000	-0.015	-0.046
-562.544	627.675	0.002	-0.006
-561.529	-29.817	-0.257	-0.149
-560.515	-200.000	0.028	-0.270
-559.500	231.222	0.234	-0.389
-558.485	800.000	0.011	-0.046
-557.471	-129.258	-0.143	-0.020
-556.456	94.363	-0.323	-0.373
-555.442	-200.000	0.012	-0.094
-554.427	498.092	-0.077	0.179
-553.412	800.000	0.014	0.060
-552.398	-165.243	-0.285	0.013
-551.383	23.024	-0.162	-0.135
-550.369	-129.266	-0.088	-0.012
-549.354	-200.000	0.001	-0.174
-548.339	-109.689	0.105	-0.022
-547.325	257.661	0.198	-0.346
-546.310	192.299	0.265	0.405
-545.296	800.000	-0.049	0.183
-544.281	382.383	-0.125	0.261
-543.266	61.397	0.118	-0.119
-542.252	-21.215	0.220	0.137
-541.237	-35.154	0.241	0.133
-540.223	4.354	-0.088	-0.065
-539.208	214.101	0.163	0.262
-538.193	314.569	-0.107	0.205
-537.179	-200.000	0.022	0.219
-536.164	95.349	0.093	0.108
-535.150	800.000	-0.044	-0.167
-534.135	-98.215	-0.116	0.030
-533.121	-200.000	-0.034	0.511
-532.106	-200.000	-0.071	0.319
-531.091	65.115	0.149	0.153
-530.077	179.031	0.005	0.008
-529.062	168.677	-0.090	-0.130
-528.048	800.000	0.016	0.049
-527.033	238.573	-0.163	0.276
-526.018	-200.000	0.023	-0.435
-525.004	239.493	-0.055	-0.093
-523.989	-58.906	0.094	-0.041
-522.975	41.997	0.139	0.128
-521.960	-200.000	0.031	-0.169
-520.945	800.000	-0.069	-0.302
-519.931	29.039	-0.232	0.199
-518.916	-200.000	0.055	-0.271
-517.902	-200.000	-0.019	-0.261
-516.887	-116.299	-0.283	-0.053
-515.872	-148.067	0.257	-0.022
-514.858	-28.479	-0.160	0.094
-513.843	-200.000	-0.021	-0.198
-512.829	12.814	-0.231	-0.181
-511.814	24.816	0.334	-0.281
-510.799	352.770	-0.204	0.410
-509.785	337.341	-0.166	0.327
-508.770	-80.130	0.332	0.113
-507.756	25.410	0.196	0.165
-506.741	-157.129	0.319	0.020
-505.726	-34.415	0.331	0.184
-504.712	-149.172	-0.140	0.011
-503.697	-120.065	0.270	0.047
-502.683	478.011	-0.069	-0.158
-501.668	-16.578	0.197	0.127
-500.653	-200.000	0.044	-0.431
-499.639	-119.397	0.150	-0.026
-498.624	9.912	0.318	-0.245
-497.610	46.535	0.168	-0.158
-496.595	307.721	-0.056	0.105
-495.581	-126.262	0.111	0.017
-494.566	-85.240	0.225	0.071
-493.551	-185.607	0.211	-0.003
-492.537	338.816	-0.107	0.212
-491.522	-3.303	0.476	0.336
-490.508	-200.000	-0.051	-0.294
-489.493	219.807	0.148	-0.240
-488.478	800.000	-0.055	-0.184
-487.464	3.623	0.145	-0.107
-486.449	50.902	-0.224	-0.215
-485.435	-17.091	-0.251	-0.160
-484.420	800.000	-0.030	0.114
-483.405	120.373	-0.067	-0.084
-482.391	-26.992	0.107	-0.063
-481.376	-28.871	0.065	-0.038
-480.362	151.348	-0.112	0.155
-479.347	-200.000	0.031	0.264
-478.332	-200.000	-0.002	-0.052
-477.318	-117.967	-0.219	0.040
-476.303	-167.761	0.010	0.000
-475.289	-144.527	-0.207	-0.019
-474.274	-200.000	-0.011	-0.051
-473.259	800.000	-0.046	-0.190
-472.245	-32.274	0.206	-0.117
-471.230	-1.368	-0.493	-0.352
-470.216	308.042	0.119	-0.226
-469.201	-140.034	0.123	-0.013
-468.186	-55.315	0.201	0.091
-467.172	-200.000	0.031	-0.262
-466.157	-14.942	-0.135	0.088
-465.143	298.922	-0.179	-0.332
-464.128	69.752	0.304	0.317
-463.113	-15.988	-0.069	-0.044
-462.099	331.800	0.080	-0.156
-461.084	-150.109	0.125	0.010
-460.070	-65.041	0.368	0.150
-459.055	800.000	-0.118	0.350
-458.040	-200.000	-0.012	0.119
-457.026	-10.563	0.206	0.138
-456.011	558.648	-0.068	-0.167
-454.997	45.070	-0.089	-0.083
-453.982	62.840	-0.297	-0.300
-452.968	-147.796	0.154	-0.013
-451.953	164.078	-0.048	0.068
-450.938	-51.597	-0.262	-0.124
-449.924	213.645	-0.031	-0.050
-448.909	-43.098	0.159	-0.081
-447.895	445.872	-0.094	0.208
-446.880	100.397	-0.069	-0.081
-445.865	83.688	-0.136	0.150
-444.851	-76.557	0.125	-0.044
-443.836	-68.488	-0.301	-0.118
-442.822	-200.000	0.026	-0.238
-441.807	336.508	-0.103	-0.203
-440.792	-200.000	-0.028	-0.146
-439.778	146.049	-0.085	-0.115
-438.763	317.393	0.035	0.067
-437.749	-36.685	-0.189	0.103
-436.734	-33.076	0.216	0.121
-435.719	800.000	-0.057	-0.195
-434.705	-200.000	-0.046	0.332
-433.690	-129.328	-0.063	0.009
-432.676	165.536	-0.109	-0.155
-431.661	-200.000	-0.030	-0.165
-430.646	-180.065	0.140	0.003
-429.632	202.434	-0.144	-0.225
-428.617	209.931	0.041	0.065
-427.603	279.736	-0.026	-0.046
-426.588	60.436	-0.108	-0.108
-425.573	-113.826	0.113	-0.022
-424.559	205.558	-0.055	-0.086
-423.544	-119.999	-0.124	0.021
-422.530	800.000	0.035	-0.115
-421.515	4.123	0.264	-0.196
-420.500	-60.306	0.189	0.081
-419.486	800.000	0.034	-0.119
-418.471	74.630	-0.042	0.045
-417.457	-200.000	-0.000	0.231
-416.442	62.480	0.255	0.258
-415.428	515.075	0.110	0.259
-414.413	-38.697	0.177	0.094
-413.398	-92.215	-0.133	-0.038
-412.384	-200.000	0.028	0.131
-411.369	383.578	-0.065	0.136
-410.355	373.120	0.134	0.275
-409.340	546.163	-0.035	0.083
-408.325	-200.000	0.002	0.225
-407.311	-142.927	-0.260	0.025
-406.296	-191.640	0.224	0.002
-405.282	403.701	0.116	-0.247
-404.267	-200.000	0.038	-0.284
-403.252	40.749	-0.259	-0.236
-402.238	-146.663	0.098	-0.009
-401.223	89.480	0.105	-0.119
-400.209	-200.000	-0.057	-0.366
-399.194	-132.656	-0.110	0.014
-398.179	431.034	0.068	0.148
-397.165	230.469	-0.067	0.111
-396.150	-177.734	0.105	0.003
-395.136	-200.000	0.007	-0.111
-394.121	-55.334	-0.036	-0.016
-393.106	210.540	-0.124	-0.197
-392.092	69.379	-0.099	0.103
-391.077	-116.555	-0.291	-0.054
-390.063	329.523	0.075	0.145
-389.048	113.312	-0.156	-0.190
-388.033	-200.000	0.017	-0.251
-387.019	71.366	0.219	0.229
-386.004	-58.399	-0.293	0.129
-384.990	120.495	-0.051	0.064
-383.975	-46.944	-0.253	0.125
-382.960	-200.000	-0.086	0.401
-381.946	-200.000	-0.006	0.442
-380.931	-10.210	-0.081	0.054
-379.917	800.000	-0.094	0.290
-378.902	11.912	-0.180	0.140
-377.888	444.965	-0.083	-0.183
-376.873	-166.687	0.020	0.001
-375.858	108.858	0.222	-0.267
-374.844	215.565	-0.038	0.061
-373.829	11.864	-0.212	-0.164
-372.815	-200.000	-0.013	0.074
-371.800	-79.200	-0.242	-0.083
-370.785	-87.856	-0.080	0.024
-369.771	800.000	-0.046	0.135
-368.756	8.975	-0.164	0.125
-367.742	-45.333	0.248	-0.124
-366.727	-136.781	-0.186	0.022
-365.712	-40.605	0.152	-0.080
-364.698	33.214	0.163	-0.142
-363.683	76.039	0.177	-0.188
-362.669	524.364	-0.115	0.272
-361.654	412.242	-0.081	0.174
-360.639	77.731	-0.054	0.057
-359.625	-77.153	-0.141	-0.050
-358.610	179.834	-0.130	0.192
-357.596	156.046	-0.197	0.274
-356.581	-105.825	0.138	-0.031
-355.566	-200.000	0.012	0.060
-354.552	155.266	0.111	0.154
-353.537	447.446	0.081	0.180
-352.523	-94.671	0.065	-0.018
-351.508	-39.003	0.122	0.065
-350.493	-91.815	-0.015	0.004
-349.479	234.720	0.090	0.149
-348.464	-200.000	-0.011	0.130
-347.450	78.386	0.095	0.102
-346.435	-200.000	0.068	0.354
-345.420	193.105	0.017	-0.025
-344.406	241.923	-0.147	-0.247
-343.391	81.108	-0.157	0.171
-342.377	-106.011	0.183	-0.042
-341.362	-79.624	0.230	-0.078
-340.348	-147.248	-0.279	-0.024
-339.333	-200.000	0.048	-0.269
-338.318	21.296	-0.202	0.165
-337.304	-88.589	0.111	0.033
-336.289	169.861	-0.077	-0.111
-335.275	-200.000	0.007	-0.164
-334.260	173.777	0.081	0.118
-333.245	13.376	-0.323	0.252
-332.231	47.399	0.095	0.089
-331.216	-20.452	0.237	-0.147
-330.202	-200.000	-0.035	0.486
-329.187	-28.647	0.063	-0.037
-328.172	98.576	0.109	0.127
-327.158	800.000	0.031	0.117
-326.143	-35.654	0.040	-0.022
-325.129	23.826	-0.108	-0.089
-324.114	55.068	0.332	-0.323
-323.099	-93.426	0.424	-0.118
-322.085	-6.450	-0.094	0.064
-321.070	543.622	-0.108	0.260
-320.056	-88.163	-0.196	-0.059
-319.041	83.583	-0.086	-0.094
-318.026	-162.930	0.265	-0.013
-317.012	226.245	0.184	0.301
-315.997	-83.457	0.144	0.047
-314.983	-200.000	0.030	0.387
-313.968	48.446	0.220	0.207
-312.953	-97.122	-0.272	-0.072
-311.939	-200.000	-0.059	-0.318
-310.924	304.795	-0.112	0.209
-309.910	68.808	0.264	-0.273
-308.895	261.564	-0.112	0.196
-307.880	489.441	0.010	-0.023
-306.866	-200.000	0.032	-0.394
-305.851	165.353	-0.134	0.190
-304.837	800.000	-0.112	0.473
-303.822	-200.000	0.009	0.089
-302.807	-82.692	0.227	0.074
-301.793	-87.616	0.071	0.021
-300.778	800.000	-0.101	-0.390
-299.764	-112.305	-0.121	0.024
-298.749	-200.000	-0.082	0.442
-297.735	134.070	-0.283	-0.368
-296.720	11.346	-0.151	-0.117
-295.705	-9.396	0.222	0.149
-294.691	-200.000	0.034	0.280
-293.676	-23.899	-0.218	-0.131
-292.662	-135.027	-0.083	0.010
-291.647	293.184	0.127	-0.234
-290.632	-14.045	-0.282	0.183
-289.618	316.510	-0.084	0.159
-288.603	2.176	-0.074	-0.054
-287.589	-200.000	-0.004	0.085
-286.574	587.398	-0.099	-0.246
-285.559	125.711	-0.166	0.210
-284.545	800.000	-0.025	-0.096
-283.530	-170.920	-0.049	-0.002
-282.516	-128.841	0.114	-0.016
-281.501	-57.340	0.192	0.085
-280.486	-89.814	-0.094	-0.028
-279.472	-115.961	0.623	0.117
-278.457	-78.194	0.283	-0.098
-277.443	-50.744	0.096	-0.045
-276.428	56.474	-0.240	0.234
-275.413	17.314	0.175	-0.140
-274.399	-20.174	0.191	0.118
-273.384	-150.318	0.087	-0.007
-272.370	800.000	0.052	0.162
-271.355	-57.352	0.194	0.086
-270.340	-6.781	-0.139	-0.095
-269.326	-65.807	-0.275	0.111
-268.311	-200.000	0.034	0.173
-267.297	-39.669	0.125	-0.066
-266.282	-74.442	-0.242	0.088
-265.267	800.000	0.009	-0.033
-264.253	-133.006	0.139	0.018
-263.238	96.568	0.079	0.091
-262.224	439.626	-0.080	-0.175
-261.209	73.591	-0.171	-0.179
-260.195	-43.889	0.161	-0.081
-259.180	22.135	-0.174	0.142
-258.165	-128.940	-0.436	-0.061
-257.151	-151.010	0.344	-0.026
-256.136	-200.000	-0.018	-0.103
-255.122	-74.629	0.208	-0.075
-254.107	120.688	0.052	-0.065
-253.092	483.481	-0.061	-0.139
-252.078	-131.272	0.355	-0.047
-251.063	-32.967	0.117	0.065
-250.049	-123.474	0.092	-0.015
-249.034	-43.668	0.397	-0.201
-248.019	253.392	0.124	-0.213
-247.005	121.627	-0.171	-0.214
-245.990	-200.000	-0.009	0.111
-244.976	-16.539	0.266	0.169
-243.961	800.000	0.026	0.096
-242.946	425.767	-0.124	0.267
-241.932	317.690	0.069	-0.130
-240.917	-200.000	-0.013	-0.204
-239.903	-10.897	0.082	-0.054
-238.888	-78.945	-0.029	0.010
-237.873	-143.048	0.260	0.025
-236.859	12.175	0.378	0.292
-235.844	129.131	0.156	-0.199
-234.830	192.181	-0.047	0.072
-233.815	62.875	0.310	0.311
-232.800	-200.000	0.021	0.209
-231.786	59.228	0.098	0.097
-230.771	-28.933	0.254	0.146
-229.757	310.765	-0.034	0.064
-228.742	109.625	-0.166	-0.199
-227.727	-200.000	-0.027	-0.156
-226.713	-84.845	-0.429	-0.135
-225.698	-200.000	-0.016	-0.377
-224.684	-55.636	-0.178	-0.080
-223.669	-59.720	0.252	0.108
-222.655	221.319	-0.044	-0.070
-221.640	531.254	-0.036	-0.085
-220.625	143.417	-0.048	-0.064
-219.611	-60.635	0.069	-0.029
-218.596	-200.000	-0.019	0.284
-217.582	-119.704	-0.238	0.041
-216.567	70.003	0.046	0.047
-215.552	-120.278	-0.274	0.047
-214.538	800.000	0.072	-0.209
-213.523	-114.967	-0.166	-0.032
-212.509	-90.281	-0.085	-0.025
-211.494	92.673	0.049	-0.055
-210.479	293.593	-0.167	-0.306
-209.465	-200.000	-0.015	-0.278
-208.450	79.551	0.161	0.173
-207.436	103.595	0.265	0.312
-206.421	228.802	-0.072	0.117
-205.406	-167.521	0.212	0.008
-204.392	587.890	-0.036	-0.089
-203.377	-200.000	0.071	-0.324
-202.363	492.228	0.058	0.132
-201.348	-61.671	0.325	0.136
-200.333	96.532	-0.036	0.041
-199.319	-101.605	0.153	0.037
-198.304	800.000	-0.068	0.198
-197.290	0.095	-0.148	-0.106
-196.275	383.492	0.113	0.233
-195.260	152.771	0.173	0.237
-194.246	145.925	0.098	0.131
-193.231	15.537	0.077	0.061
-192.217	168.575	-0.089	0.127
-191.202	210.841	0.126	0.198
-190.187	-0.374	0.298	0.212
-189.173	-161.234	-0.189	0.010
-188.158	-200.000	-0.008	0.189
-187.144	-200.000	-0.002	0.133
-186.129	-3.265	0.026	-0.018
-185.114	120.005	0.124	-0.154
-184.100	-57.860	0.211	0.092
-183.085	22.238	-0.117	-0.095
-182.071	-200.000	0.115	-0.001
-181.056	40.059	0.149	0.134
-180.042	800.000	0.104	-0.340
-179.027	-200.000	-0.024	-0.163
-178.012	-76.798	0.120	-0.042
-176.998	158.540	-0.308	-0.427
-175.983	-19.001	-0.323	0.201
-174.969	800.000	-0.033	-0.109
-173.954	-66.340	0.649	-0.258
-172.939	800.000	-0.045	-0.162
-171.925	437.796	0.119	0.259
-170.910	800.000	-0.048	0.192
-169.896	264.713	0.063	0.110
-168.881	-150.811	-0.361	-0.027
-167.866	-200.000	-0.010	-0.387
-166.852	-106.240	0.273	0.061
-165.837	28.011	0.215	-0.181
-164.823	98.611	0.237	-0.273
-163.808	299.288	-0.031	-0.056
-162.793	-200.000	0.001	0.025
-161.779	179.278	0.143	-0.209
-160.764	-88.047	-0.100	-0.030
-159.750	-15.064	-0.297	0.191
-158.735	314.909	0.092	0.174
-157.720	2.385	0.172	-0.124
-156.706	481.826	0.031	0.070
-155.691	-118.428	0.224	-0.040
-154.677	-10.899	-0.354	-0.234
-153.662	-106.148	0.438	0.098
-152.647	-200.000	-0.015	-0.123
-151.633	325.496	-0.051	0.098
-150.618	638.990	0.056	-0.142
-149.604	-200.000	0.017	-0.095
-148.589	-200.000	0.011	0.206
-147.574	800.000	0.037	0.119
-146.560	20.316	0.308	0.248
-145.545	-26.346	0.158	0.093
-144.531	106.416	0.111	0.132
-143.516	-192.449	0.450	-0.004
-142.502	-200.000	-0.037	0.169
-141.487	34.562	-0.238	-0.208
-140.472	460.758	0.176	-0.391
-139.458	-53.374	0.134	-0.061
-138.443	800.000	-0.107	-0.308
-137.429	-200.000	-0.028	0.200
-136.414	-200.000	-0.001	-0.110
-135.399	260.446	-0.147	0.253
-134.385	-60.994	-0.138	-0.058
-133.370	-79.794	0.493	-0.166
-132.356	-114.878	-0.343	-0.065
-131.341	214.963	0.026	0.041
-130.326	8.394	-0.087	-0.065
-129.312	15.045	-0.209	0.164
-128.297	-24.740	0.126	0.075
-127.283	800.000	0.047	0.140
-126.268	-200.000	0.004	-0.368
-125.253	58.658	0.220	0.216
-124.239	55.234	-0.063	-0.061
-123.224	-39.026	0.152	0.080
-122.210	697.267	0.077	-0.203
