DTS Sentinel unit serial number:	SN413079Multiplexer serial number:	ORYXHardware model number:	OX4-SRSoftware version number:	ORYX F/W v4.00 Oryx Data Collector v3.7.2.0data status	okinstallation	princeton_trtdifferential loss correction	single-endedforward channel	channel 3reverse channel	N/Adate	2019/09/14time	12:04:34forward acquisition time	60.00reverse acquisition time	0.00gamma	496.2192k internal	0.2295k external	0.2295temperature offset calibration	1.0062default loss term (dB/km)	0.3790temperature slope calibration	1.0000multiplexer offset coefficient	1.0000multiplexer slope coefficient	1.0000fibre end	0.00T internal ref (°C)	37.50T ext. ref 1 (°C)	4.68T ext. ref 2 (°C)	34.15length (m)	temperature (°C)	Stokes	anti-Stokes-747.200	-151.065	-0.058	-0.004
-746.185	-200.000	0.007	0.137
-745.171	24.424	-0.194	-0.164
-744.156	-200.000	0.025	0.448
-743.142	13.030	-0.245	0.194
-742.127	-200.000	0.033	0.397
-741.112	800.000	-0.120	-0.356
-740.098	323.155	-0.108	0.211
-739.083	-76.360	0.238	-0.086
-738.069	-200.000	-0.020	-0.346
-737.054	800.000	0.103	0.440
-736.039	-200.000	-0.010	0.223
-735.025	31.470	0.285	0.250
-734.010	66.854	0.277	-0.288
-732.996	800.000	0.025	-0.103
-731.981	-139.784	-0.319	0.035
-730.966	-169.326	0.130	0.005
-729.952	185.365	-0.247	-0.375
-728.937	800.000	0.030	-0.124
-727.923	800.000	-0.066	-0.275
-726.908	230.696	-0.118	-0.198
-725.894	-81.455	-0.323	0.109
-724.879	32.368	0.136	0.120
-723.864	-200.000	-0.020	0.100
-722.850	-85.321	0.362	-0.116
-721.835	146.429	-0.144	-0.197
-720.821	186.592	-0.069	-0.105
-719.806	800.000	-0.047	0.158
-718.791	103.821	-0.097	0.116
-717.777	-93.324	-0.159	0.045
-716.762	-37.630	-0.534	0.291
-715.748	-62.116	-0.131	0.056
-714.733	-200.000	-0.022	-0.254
-713.718	680.795	0.036	-0.094
-712.704	177.738	-0.199	-0.297
-711.689	800.000	-0.084	-0.260
-710.675	15.504	0.094	-0.075
-709.660	-37.897	0.200	-0.108
-708.645	249.139	0.107	0.184
-707.631	-200.000	0.012	-0.055
-706.616	-169.291	0.205	-0.008
-705.602	-200.000	0.015	-0.141
-704.587	-200.000	0.003	0.083
-703.572	-47.647	-0.377	-0.187
-702.558	800.000	-0.095	0.294
-701.543	308.986	-0.125	0.238
-700.529	211.148	-0.120	0.193
-699.514	-200.000	-0.038	0.186
-698.499	-200.000	-0.020	-0.275
-697.485	-68.577	-0.250	0.099
-696.470	-7.578	-0.196	0.135
-695.456	-150.734	0.081	-0.006
-694.441	-86.497	-0.018	-0.006
-693.426	58.140	-0.038	0.038
-692.412	248.424	-0.134	-0.232
-691.397	-88.712	-0.232	0.070
-690.383	52.875	0.280	0.273
-689.368	800.000	-0.045	0.181
-688.354	-35.105	-0.097	0.054
-687.339	367.043	-0.125	0.258
-686.324	253.630	-0.204	0.355
-685.310	126.788	0.011	-0.014
-684.295	-200.000	0.027	0.215
-683.281	-92.087	-0.187	0.054
-682.266	-152.573	0.136	0.010
-681.251	-152.067	0.351	0.026
-680.237	-200.000	0.004	0.089
-679.222	206.148	-0.093	-0.148
-678.208	181.872	-0.129	0.194
-677.193	800.000	-0.061	0.183
-676.178	-80.612	-0.036	-0.012
-675.164	82.256	-0.104	0.115
-674.149	-105.174	0.087	0.020
-673.135	-83.483	-0.129	0.042
-672.120	383.053	-0.156	-0.328
-671.105	-200.000	0.018	0.108
-670.091	-62.732	0.291	0.123
-669.076	-1.289	-0.252	0.181
-668.062	-200.000	0.007	0.373
-667.047	800.000	0.032	-0.120
-666.032	91.750	-0.144	-0.164
-665.018	-91.775	-0.269	-0.078
-664.003	-200.000	0.045	-0.297
-662.989	-80.854	-0.246	0.083
-661.974	163.451	-0.096	-0.137
-660.959	211.537	-0.043	-0.068
-659.945	800.000	-0.105	0.448
-658.930	-40.594	-0.043	-0.023
-657.916	311.896	0.023	-0.043
-656.901	-200.000	-0.018	0.100
-655.886	800.000	0.057	-0.183
-654.872	147.959	-0.076	0.105
-653.857	50.879	-0.075	0.073
-652.843	50.036	0.190	0.183
-651.828	-155.631	-0.383	-0.025
-650.814	-92.657	0.147	0.042
-649.799	159.565	-0.075	0.106
-648.784	-50.061	-0.164	0.079
-647.770	-119.768	-0.324	-0.057
-646.755	141.303	0.187	-0.251
-645.741	458.019	-0.127	-0.287
-644.726	35.391	0.242	0.216
-643.711	-67.164	-0.108	-0.043
-642.697	-34.800	-0.177	-0.099
-641.682	-75.196	0.130	-0.047
-640.668	-200.000	0.003	-0.237
-639.653	303.549	-0.053	-0.100
-638.638	-100.812	0.412	-0.103
-637.624	130.111	-0.151	0.197
-636.609	-39.175	-0.254	0.136
-635.595	66.759	-0.163	0.168
-634.580	-159.979	0.129	0.007
-633.565	-131.312	-0.139	-0.019
-632.551	-200.000	-0.217	-0.000
-631.536	753.496	0.149	-0.410
-630.522	272.143	-0.313	-0.562
-629.507	219.058	-0.034	0.056
-628.492	-11.933	-0.066	-0.044
-627.478	550.327	-0.111	-0.271
-626.463	-143.552	-0.262	0.025
-625.449	-14.047	-0.150	-0.099
-624.434	74.325	0.099	0.106
-623.419	1.553	-0.156	0.114
-622.405	51.782	-0.144	0.139
-621.390	233.083	-0.089	0.149
-620.376	15.240	-0.494	0.394
-619.361	151.176	-0.146	0.203
-618.346	-200.000	0.012	-0.114
-617.332	800.000	0.046	-0.140
-616.317	-177.159	-0.055	0.001
-615.303	-42.807	-0.274	0.142
-614.288	385.622	-0.237	-0.497
-613.273	90.999	0.152	-0.173
-612.259	283.373	0.045	-0.082
-611.244	800.000	-0.068	0.218
-610.230	92.624	0.081	0.092
-609.215	-83.299	0.194	0.063
-608.201	-74.635	-0.156	-0.057
-607.186	-24.008	-0.408	-0.248
-606.171	-200.000	0.036	-0.436
-605.157	-200.000	-0.002	0.168
-604.142	-83.488	-0.162	-0.053
-603.128	-145.117	-0.441	0.041
-602.113	-78.246	0.044	0.015
-601.098	-74.616	-0.415	0.152
-600.084	-182.450	-0.337	-0.006
-599.069	-158.213	-0.210	0.012
-598.055	-10.009	0.236	0.160
-597.040	-92.696	0.234	-0.067
-596.025	230.808	-0.063	-0.105
-595.011	340.844	-0.041	-0.082
-593.996	34.629	0.192	0.170
-592.982	11.199	0.069	0.054
-591.967	-79.095	0.198	-0.068
-590.952	-150.143	-0.241	0.019
-589.938	-115.203	-0.232	-0.045
-588.923	-112.695	0.205	-0.041
-587.909	-36.724	-0.185	0.101
-586.894	41.823	-0.131	0.121
-585.879	117.829	0.108	0.135
-584.865	-94.217	-0.142	0.039
-583.850	-155.784	0.207	-0.013
-582.836	26.495	0.171	-0.145
-581.821	112.456	-0.124	-0.152
-580.806	-200.000	0.052	-0.271
-579.792	26.664	0.099	0.084
-578.777	59.407	-0.077	-0.077
-577.763	172.471	0.109	0.160
-576.748	375.212	0.135	0.279
-575.733	-30.333	0.290	-0.167
-574.719	-80.459	0.191	-0.065
-573.704	800.000	0.041	0.158
-572.690	-200.000	-0.017	-0.091
-571.675	-200.000	0.030	-0.192
-570.661	-39.973	-0.248	0.132
-569.646	-79.386	0.234	-0.080
-568.631	332.716	0.044	-0.086
-567.617	-106.614	0.242	0.055
-566.602	-53.640	-0.112	-0.052
-565.588	-63.100	0.224	-0.094
-564.573	159.223	0.242	0.341
-563.558	211.266	-0.102	-0.162
-562.544	800.000	-0.021	-0.088
-561.529	-200.000	0.022	0.171
-560.515	-90.613	-0.258	-0.076
-559.500	260.094	0.113	0.198
-558.485	125.290	0.178	0.228
-557.471	139.367	0.109	-0.146
-556.456	-151.053	-0.252	0.019
-555.442	120.915	-0.049	0.062
-554.427	78.905	0.162	0.176
-553.412	630.025	0.049	-0.127
-552.398	6.439	0.228	-0.171
-551.383	-54.768	0.137	0.063
-550.369	-200.000	-0.003	0.182
-549.354	-200.000	-0.046	-0.393
-548.339	-44.954	-0.078	-0.039
-547.325	-200.000	-0.032	0.145
-546.310	-57.995	-0.195	-0.086
-545.296	68.294	-0.457	0.474
-544.281	-142.839	-0.216	0.021
-543.266	42.758	-0.132	-0.122
-542.252	208.128	-0.210	-0.333
-541.237	29.028	-0.323	0.278
-540.223	-200.000	-0.041	-0.462
-539.208	340.655	-0.163	-0.323
-538.193	-150.537	0.212	0.016
-537.179	-200.000	-0.009	0.270
-536.164	-200.000	-0.013	-0.132
-535.150	404.198	-0.043	-0.092
-534.135	-200.000	0.013	-0.171
-533.121	85.407	-0.088	0.098
-532.106	-16.461	0.285	0.183
-531.091	-137.947	0.234	0.026
-530.077	-200.000	-0.014	0.117
-529.062	-127.689	0.158	-0.023
-528.048	300.355	0.055	-0.103
-527.033	-85.261	0.073	-0.023
-526.018	-49.760	-0.173	0.083
-525.004	-133.254	0.242	-0.031
-523.989	-200.000	0.061	0.379
-522.975	122.307	-0.274	0.347
-521.960	154.295	0.132	0.184
-520.945	66.491	0.392	-0.404
-519.931	341.687	-0.187	-0.369
-518.916	-61.028	0.508	0.217
-517.902	-200.000	-0.027	0.217
-516.887	-36.694	-0.220	-0.120
-515.872	-200.000	0.041	-0.245
-514.858	-103.223	-0.050	-0.012
-513.843	9.639	0.053	0.040
-512.829	-200.000	0.013	-0.154
-511.814	-200.000	-0.004	-0.300
-510.799	1.277	-0.106	0.077
-509.785	-200.000	0.096	0.479
-508.770	20.780	0.265	0.217
-507.756	189.245	0.027	-0.041
-506.741	-18.580	-0.359	-0.227
-505.726	800.000	0.083	-0.342
-504.712	-200.000	-0.015	-0.128
-503.697	266.217	0.138	-0.245
-502.683	-142.881	-0.135	0.013
-501.668	156.344	0.070	-0.097
-500.653	-139.504	-0.264	0.029
-499.639	-200.000	0.014	0.140
-498.624	52.676	0.253	0.245
-497.610	-155.252	0.319	0.021
-496.595	-200.000	-0.012	-0.159
-495.581	763.356	0.106	0.291
-494.566	156.528	-0.107	-0.150
-493.551	211.889	0.176	-0.280
-492.537	-153.358	-0.450	-0.032
-491.522	193.855	0.096	0.148
-490.508	-74.302	0.191	0.070
-489.493	-130.578	-0.151	0.021
-488.478	-74.034	0.344	-0.126
-487.464	-70.648	0.401	0.153
-486.449	-200.000	-0.029	0.175
-485.435	304.831	-0.054	0.102
-484.420	194.127	0.085	0.130
-483.405	800.000	0.033	0.133
-482.391	30.170	-0.022	-0.019
-481.376	101.829	0.083	-0.098
-480.362	-95.804	-0.263	0.071
-479.347	-121.754	-0.175	-0.029
-478.332	19.516	-0.177	-0.144
-477.318	79.754	0.072	-0.078
-476.303	641.490	0.127	-0.327
-475.289	304.623	0.141	0.265
-474.274	-115.058	0.298	0.057
-473.259	82.524	-0.040	0.044
-472.245	-80.103	-0.121	0.041
-471.230	501.340	0.141	0.329
-470.216	-158.541	-0.172	-0.010
-469.201	-118.800	0.156	-0.028
-468.186	-19.744	-0.177	0.111
-467.172	-66.143	0.167	0.067
-466.157	341.622	-0.054	-0.107
-465.143	56.379	0.234	0.230
-464.128	-56.267	0.197	0.089
-463.113	189.182	0.135	0.204
-462.099	397.653	-0.128	0.271
-461.084	185.654	0.129	0.193
-460.070	233.533	-0.228	0.379
-459.055	80.066	0.046	-0.050
-458.040	55.537	-0.105	0.103
-457.026	-41.775	-0.192	0.100
-456.011	800.000	0.062	-0.245
-454.997	-200.000	0.028	-0.263
-453.982	-200.000	-0.015	0.159
-452.968	-11.483	-0.087	0.058
-451.953	418.698	0.171	-0.370
-450.938	6.865	-0.148	-0.112
-449.924	120.072	0.057	-0.072
-448.909	-200.000	0.029	0.148
-447.895	-106.142	0.140	0.032
-446.880	-23.768	-0.296	-0.179
-445.865	800.000	0.088	0.304
-444.851	306.141	-0.041	-0.077
-443.836	195.180	0.100	-0.153
-442.822	55.612	-0.101	0.099
-441.807	346.334	0.102	-0.203
-440.792	127.238	-0.131	-0.168
-439.778	-200.000	-0.040	-0.302
-438.763	-200.000	-0.062	0.000
-437.749	-68.658	0.149	0.058
-436.734	-200.000	-0.014	-0.076
-435.719	800.000	0.056	0.218
-434.705	-51.800	0.267	-0.125
-433.690	24.248	-0.123	0.103
-432.676	-72.210	-0.078	0.029
-431.661	149.494	0.098	0.134
-430.646	352.936	0.022	0.044
-429.632	-72.316	-0.367	-0.137
-428.617	-83.655	0.105	-0.034
-427.603	143.243	-0.086	-0.115
-426.588	354.516	-0.134	-0.269
-425.573	121.444	0.170	-0.214
-424.559	-200.000	0.034	-0.189
-423.544	-14.595	-0.153	0.099
-422.530	40.942	-0.176	0.161
-421.515	-52.955	-0.323	0.150
-420.500	-146.006	-0.125	0.011
-419.486	182.702	0.175	0.261
-418.471	367.165	-0.058	-0.119
-417.457	14.093	0.278	-0.218
-416.442	27.291	0.185	-0.157
-415.428	-200.000	0.000	-0.097
-414.413	-155.722	0.406	-0.026
-413.398	-167.180	-0.256	-0.010
-412.384	179.975	0.062	-0.092
-411.369	-0.788	-0.080	0.057
-410.355	40.599	-0.132	0.120
-409.340	-54.808	-0.029	0.013
-408.325	800.000	-0.070	-0.195
-407.311	-200.000	0.064	0.316
-406.296	-200.000	-0.005	0.183
-405.282	-67.126	0.138	0.055
-404.267	-200.000	-0.041	-0.185
-403.252	800.000	0.061	0.252
-402.238	-39.433	-0.207	0.109
-401.223	225.062	-0.055	-0.089
-400.209	-3.891	-0.366	-0.256
-399.194	129.042	0.080	-0.103
-398.179	800.000	-0.055	-0.241
-397.165	-200.000	-0.034	-0.285
-396.150	176.199	-0.054	0.080
-395.136	-98.695	-0.315	0.081
-394.121	-200.000	-0.016	0.072
-393.106	6.055	-0.178	-0.133
-392.092	313.908	0.205	-0.389
-391.077	60.917	0.094	0.094
-390.063	-40.950	0.122	-0.063
-389.048	-108.180	-0.061	0.013
-388.033	-119.483	-0.071	-0.012
-387.019	299.786	-0.035	0.065
-386.004	30.868	-0.185	-0.160
-384.990	-200.000	-0.026	0.154
-383.975	-119.377	0.345	-0.060
-382.960	-100.549	-0.226	-0.056
-381.946	-43.264	0.303	0.155
-380.931	-107.614	0.095	0.021
-379.917	-169.821	0.565	-0.020
-378.902	-53.262	0.030	-0.014
-377.888	-200.000	0.028	0.196
-376.873	24.703	0.201	-0.168
-375.858	-21.363	-0.130	-0.080
-374.844	564.012	-0.077	0.188
-373.829	-146.408	0.231	0.020
-372.815	-4.244	0.250	-0.174
-371.800	340.310	-0.109	-0.215
-370.785	-35.987	-0.301	0.164
-369.771	272.485	-0.136	0.242
-368.756	800.000	0.058	-0.211
-367.742	800.000	-0.110	-0.384
-366.727	-200.000	0.007	0.155
-365.712	47.114	0.083	-0.078
-364.698	112.641	-0.202	0.247
-363.683	26.044	-0.203	0.171
-362.669	143.129	-0.096	0.129
-361.654	384.680	0.060	-0.125
-360.639	132.986	-0.110	0.143
-359.625	-200.000	-0.028	0.188
-358.610	-9.138	-0.193	-0.130
-357.596	-47.185	-0.405	-0.199
-356.581	-42.525	0.203	0.104
-355.566	-10.970	0.088	0.058
-354.552	800.000	0.056	0.160
-353.537	-136.860	0.365	0.042
-352.523	38.080	0.491	-0.439
-351.508	80.922	-0.254	0.276
-350.493	-170.559	0.265	-0.009
-349.479	470.680	-0.091	-0.205
-348.464	-91.514	0.082	-0.024
-347.450	-200.000	0.016	-0.178
-346.435	-57.556	0.216	0.095
-345.420	-200.000	0.055	-0.310
-344.406	800.000	0.088	-0.344
-343.391	17.747	0.253	-0.203
-342.377	-58.074	0.022	0.010
-341.362	-109.543	-0.167	-0.035
-340.348	-109.255	0.158	0.034
-339.333	-171.113	0.131	-0.004
-338.318	800.000	-0.047	-0.196
-337.304	-162.259	0.059	-0.003
-336.289	-84.149	0.427	-0.136
-335.275	226.070	-0.153	0.249
-334.260	-7.379	0.200	-0.136
-333.245	-144.577	-0.324	-0.030
-332.231	184.542	-0.182	0.271
-331.216	40.347	-0.012	-0.011
-330.202	-200.000	-0.031	-0.239
-329.187	-115.275	0.042	-0.008
-328.172	-166.047	-0.168	0.007
-327.158	-200.000	0.013	0.318
-326.143	-122.239	0.263	0.043
-325.129	800.000	0.073	-0.248
-324.114	800.000	-0.017	0.068
-323.099	401.719	-0.056	0.119
-322.085	-30.807	0.196	0.111
-321.070	800.000	-0.042	-0.132
-320.056	-87.751	-0.129	0.039
-319.041	800.000	0.011	0.034
-318.026	89.301	0.217	0.243
-317.012	800.000	-0.097	0.344
-315.997	-66.683	0.171	0.068
-314.983	54.178	-0.233	0.225
-313.968	-26.863	-0.165	-0.097
-312.953	800.000	-0.075	0.274
-311.939	10.476	0.056	0.043
-310.924	75.130	-0.008	0.009
-309.910	1.322	-0.240	-0.173
-308.895	-70.558	-0.424	-0.161
-307.880	-20.626	0.101	0.062
-306.866	99.206	0.104	-0.120
-305.851	134.018	0.189	0.246
-304.837	167.231	0.108	0.154
-303.822	366.762	-0.073	0.147
-302.807	-200.000	0.394	-0.000
-301.793	-144.875	0.341	0.031
-300.778	63.368	0.215	0.216
-299.764	-200.000	-0.007	0.223
-298.749	-82.655	0.150	0.049
-297.735	-12.097	-0.256	-0.168
-296.720	-200.000	0.002	-0.077
-295.705	800.000	0.126	0.422
-294.691	28.569	0.364	-0.309
-293.676	-159.854	-0.257	-0.014
-292.662	-200.000	0.024	-0.193
-291.647	-35.930	-0.040	0.022
-290.632	-4.153	0.152	0.105
-289.618	-10.080	-0.165	-0.110
-288.603	263.751	-0.142	0.248
-287.589	82.976	-0.258	0.281
-286.574	-112.021	0.191	0.039
-285.559	-1.101	0.168	-0.119
-284.545	15.416	-0.156	-0.123
-283.530	-157.842	-0.186	-0.011
-282.516	-56.331	0.238	0.106
-281.501	218.909	-0.028	-0.045
-280.486	-57.462	0.250	-0.110
-279.472	-74.578	0.240	-0.087
-278.457	-200.000	-0.011	-0.078
-277.443	-122.524	0.278	-0.045
-276.428	-7.056	0.116	0.079
-275.413	225.809	-0.048	-0.079
-274.399	261.879	-0.062	0.108
-273.384	103.947	-0.241	-0.284
-272.370	205.075	-0.282	-0.439
-271.355	62.423	0.148	0.149
-270.340	-200.000	-0.239	-0.001
-269.326	-200.000	-0.010	-0.071
-268.311	-200.000	0.004	0.060
-267.297	-200.000	-0.031	-0.417
-266.282	-200.000	0.064	0.374
-265.267	-153.049	-0.079	0.006
-264.253	351.603	0.071	0.141
-263.238	-26.409	-0.162	0.096
-262.224	-72.752	-0.538	0.199
-261.209	-200.000	0.042	0.352
-260.195	-133.818	0.150	0.019
-259.180	295.965	-0.170	0.313
-258.165	-93.936	0.303	0.083
-257.151	-41.210	-0.277	-0.143
-256.136	531.244	-0.059	-0.141
-255.122	-200.000	0.009	-0.313
-254.107	-200.000	-0.014	-0.087
-253.092	195.960	0.063	0.096
-252.078	-147.273	0.150	-0.013
-251.063	-55.859	0.119	-0.053
-250.049	-42.487	0.120	-0.061
-249.034	-86.918	-0.212	-0.065
-248.019	282.052	-0.204	-0.367
-247.005	40.480	0.170	-0.154
-245.990	209.867	0.066	-0.104
-244.976	6.101	-0.205	-0.153
-243.961	120.450	0.059	-0.073
-242.946	-200.000	-0.017	-0.131
-241.932	-24.689	0.468	-0.279
-240.917	-124.082	0.185	0.029
-239.903	-173.522	-0.137	0.004
-238.888	-40.569	0.222	-0.115
-237.873	800.000	-0.076	-0.216
-236.859	-122.873	0.535	0.087
-235.844	730.325	-0.083	0.223
-234.830	-109.942	-0.186	-0.039
-233.815	-50.412	0.235	-0.111
-232.800	-166.011	0.272	-0.012
-231.786	429.575	0.098	0.213
-230.771	-200.000	-0.054	-0.248
-229.757	-157.314	0.167	-0.010
-228.742	680.976	0.112	-0.293
-227.727	-200.000	-0.020	0.152
-226.713	-99.988	0.083	-0.021
-225.698	57.670	0.124	0.121
-224.684	-124.844	-0.086	0.013
-223.669	-110.010	0.202	-0.042
-222.655	238.854	-0.162	-0.270
-221.640	-75.566	-0.216	-0.077
-220.625	447.650	-0.148	0.327
-219.611	-22.864	-0.366	0.221
-218.596	-69.273	-0.295	0.114
-217.582	-184.975	0.132	-0.002
-216.567	-200.000	0.009	-0.164
-215.552	-18.685	-0.244	-0.152
-214.538	98.918	0.113	-0.131
-213.523	87.981	-0.135	0.150
-212.509	-42.138	0.046	0.024
-211.494	103.389	-0.241	-0.283
-210.479	-136.452	-0.288	-0.033
-209.465	-200.000	-0.042	-0.205
-208.450	-200.000	-0.002	-0.030
-207.436	-200.000	-0.034	0.187
-206.421	-200.000	0.010	-0.150
-205.406	-76.344	0.407	0.144
-204.392	227.967	0.091	-0.148
-203.377	95.095	0.073	0.083
-202.363	151.225	-0.253	-0.344
-201.348	438.838	0.092	0.202
-200.333	193.213	0.057	-0.087
-199.319	163.166	0.272	0.383
-198.304	-200.000	0.053	0.317
-197.290	-200.000	0.005	0.289
-196.275	-144.600	-0.128	-0.012
-195.260	800.000	-0.108	-0.315
-194.246	800.000	-0.006	0.018
-193.231	691.754	0.070	0.184
-192.217	463.939	-0.061	-0.137
-191.202	-129.420	0.067	-0.009
-190.187	-24.557	0.048	-0.029
-189.173	-20.124	-0.143	0.088
-188.158	-200.000	0.024	0.425
-187.144	-200.000	0.009	0.199
-186.129	22.004	-0.150	0.122
-185.114	472.586	0.114	0.257
-184.100	-200.000	0.009	0.362
-183.085	-46.814	-0.072	-0.035
-182.071	-200.000	0.017	-0.172
-181.056	63.141	-0.030	-0.030
-180.042	-134.197	-0.084	-0.010
-179.027	68.525	-0.267	0.274
-178.012	-91.266	-0.177	0.051
-176.998	118.173	-0.122	0.150
-175.983	-200.000	-0.011	0.068
-174.969	113.422	0.088	-0.107
-173.954	37.988	0.191	0.169
-172.939	-91.947	0.137	-0.039
-171.925	208.180	0.088	-0.138
-170.910	-30.122	0.031	0.018
-169.896	734.089	0.129	0.346
-168.881	-67.794	-0.184	-0.072
-167.866	-17.108	-0.108	0.068
-166.852	800.000	-0.024	-0.084
-165.837	-132.408	-0.120	0.015
-164.823	-200.000	-0.003	0.357
-163.808	-133.339	0.221	0.028
-162.793	-92.705	0.137	0.038
-161.779	26.254	0.172	-0.143
-160.764	-53.245	-0.194	0.089
-159.750	69.314	0.160	0.165
-158.735	-116.264	-0.191	-0.035
-157.720	429.470	-0.048	0.103
-156.706	-89.344	0.532	-0.157
-155.691	126.223	0.136	0.172
-154.677	-81.487	0.257	0.084
-153.662	-200.000	-0.025	0.145
-152.647	224.179	-0.185	-0.299
-151.633	668.634	-0.104	0.268
-150.618	186.609	0.290	0.431
-149.604	-39.829	0.136	-0.071
-148.589	-4.959	0.294	-0.202
-147.574	-88.993	0.267	-0.079
-146.560	161.969	0.129	0.181
-145.545	800.000	-0.050	0.181
-144.531	-123.365	0.074	-0.012
-143.516	-140.005	-0.123	0.013
-142.502	58.873	0.194	0.190
-141.487	-112.964	0.137	-0.027
-140.472	800.000	-0.082	-0.264
-139.458	22.587	-0.152	-0.124
-138.443	-35.687	0.259	0.140
-137.429	800.000	0.059	0.225
-136.414	-200.000	-0.060	0.340
-135.399	45.673	-0.256	0.236
-134.385	-111.877	-0.131	0.026
-133.370	337.317	0.057	-0.111
-132.356	-200.000	-0.001	0.256
-131.341	-178.194	0.161	0.004
-130.326	-174.397	-0.196	0.006
-129.312	-91.482	0.104	-0.030
-128.297	-60.550	0.084	-0.035
-127.283	-200.000	0.024	-0.141
-126.268	-44.038	-0.074	0.037
-125.253	152.431	-0.141	-0.192
-124.239	630.458	0.144	-0.364
-123.224	293.199	0.046	-0.084
-122.210	-200.000	-0.020	-0.200
