DTS Sentinel unit serial number:	SN413079Multiplexer serial number:	ORYXHardware model number:	OX4-SRSoftware version number:	ORYX F/W v4.00 Oryx Data Collector v3.7.2.0data status	okinstallation	princeton_trtdifferential loss correction	single-endedforward channel	channel 3reverse channel	N/Adate	2019/09/18time	02:56:34forward acquisition time	60.00reverse acquisition time	0.00gamma	496.2192k internal	0.2344k external	0.2344temperature offset calibration	0.9949default loss term (dB/km)	0.3790temperature slope calibration	1.0000multiplexer offset coefficient	1.0000multiplexer slope coefficient	1.0000fibre end	0.00T internal ref (°C)	22.75T ext. ref 1 (°C)	0.17T ext. ref 2 (°C)	16.68length (m)	temperature (°C)	Stokes	anti-Stokes-747.200	-56.280	0.225	0.100
-746.185	783.443	0.046	-0.127
-745.171	-48.693	0.112	0.054
-744.156	98.080	0.113	0.130
-743.142	-125.395	-0.114	-0.017
-742.127	61.122	-0.265	0.263
-741.112	241.461	-0.019	-0.032
-740.098	408.750	-0.163	-0.346
-739.083	75.285	-0.297	0.313
-738.069	-72.410	0.427	0.158
-737.054	-121.374	0.125	-0.021
-736.039	-25.936	-0.085	0.050
-735.025	-130.778	0.200	-0.027
-734.010	-200.000	-0.020	-0.224
-732.996	379.440	0.115	0.236
-731.981	231.872	0.150	-0.246
-730.966	4.887	-0.141	-0.104
-729.952	-200.000	-0.025	-0.162
-728.937	20.351	-0.252	0.204
-727.923	-19.326	0.164	-0.102
-726.908	14.564	0.063	0.049
-725.894	32.401	0.343	-0.297
-724.879	-200.000	-0.074	-0.335
-723.864	-102.607	0.229	-0.055
-722.850	45.381	0.215	0.198
-721.835	800.000	0.093	0.370
-720.821	800.000	0.127	-0.359
-719.806	-6.499	0.170	-0.116
-718.791	44.360	-0.097	-0.089
-717.777	72.113	-0.175	-0.182
-716.762	56.415	0.179	0.174
-715.748	234.605	0.071	0.116
-714.733	-42.950	-0.184	-0.093
-713.718	-200.000	0.001	-0.224
-712.704	800.000	0.067	-0.237
-711.689	708.067	0.058	-0.152
-710.675	-92.857	0.074	-0.021
-709.660	-200.000	0.066	-0.351
-708.645	36.668	-0.038	-0.033
-707.631	-197.464	0.161	-0.001
-706.616	421.694	-0.172	-0.369
-705.602	-200.000	0.047	-0.279
-704.587	800.000	-0.120	0.343
-703.572	-51.621	-0.291	-0.136
-702.558	800.000	0.019	-0.059
-701.543	-33.278	-0.091	-0.050
-700.529	-200.000	-0.011	-0.119
-699.514	-147.663	-0.326	0.027
-698.499	800.000	-0.030	0.120
-697.485	-57.998	0.138	0.060
-696.470	74.285	-0.100	-0.104
-695.456	-200.000	-0.031	-0.335
-694.441	-56.340	0.239	0.106
-693.426	275.145	-0.114	0.202
-692.412	800.000	0.047	-0.153
-691.397	-159.932	0.273	-0.015
-690.383	-69.942	0.268	-0.102
-689.368	-38.328	0.039	-0.021
-688.354	-51.964	0.078	-0.036
-687.339	-48.247	0.150	-0.072
-686.324	-30.003	-0.156	-0.089
-685.310	800.000	0.076	-0.217
-684.295	-200.000	-0.026	-0.275
-683.281	-80.770	-0.101	-0.033
-682.266	68.221	-0.177	0.181
-681.251	541.646	-0.047	0.112
-680.237	25.044	-0.228	0.189
-679.222	156.459	-0.071	-0.097
-678.208	-200.000	0.051	0.347
-677.193	171.565	-0.266	-0.381
-676.178	-200.000	0.024	0.148
-675.164	-194.716	0.138	0.001
-674.149	64.764	0.113	-0.113
-673.135	-199.610	-0.426	-0.002
-672.120	-200.000	-0.038	-0.228
-671.105	221.932	0.179	0.288
-670.091	-200.000	-0.003	-0.434
-669.076	356.821	-0.113	-0.224
-668.062	-200.000	0.034	-0.177
-667.047	-165.312	0.256	-0.011
-666.032	287.931	-0.088	-0.160
-665.018	800.000	0.041	-0.137
-664.003	-200.000	0.025	0.257
-662.989	-174.292	0.255	-0.007
-661.974	-31.757	-0.175	-0.098
-660.959	16.309	-0.081	0.064
-659.945	-200.000	-0.010	-0.062
-658.930	11.106	-0.483	0.369
-657.916	-200.000	0.017	0.177
-656.901	21.535	-0.168	0.136
-655.886	27.039	-0.201	0.168
-654.872	20.139	0.167	0.135
-653.857	-200.000	-0.031	-0.480
-652.843	-156.842	0.509	0.031
-651.828	-61.384	0.163	0.068
-650.814	-5.407	-0.284	0.195
-649.799	-123.940	0.244	-0.038
-648.784	117.782	-0.201	0.247
-647.770	18.570	0.135	-0.108
-646.755	-62.037	-0.318	0.133
-645.741	-180.825	-0.189	0.004
-644.726	73.125	0.086	-0.089
-643.711	50.274	0.046	0.043
-642.697	-59.777	0.223	0.095
-641.682	800.000	0.064	-0.194
-640.668	47.017	0.080	0.074
-639.653	-160.988	0.278	-0.015
-638.638	589.933	-0.064	-0.157
-637.624	60.827	-0.168	0.167
-636.609	135.613	0.100	-0.129
-635.595	800.000	0.033	-0.104
-634.580	141.036	-0.114	-0.150
-633.565	375.203	0.117	-0.238
-632.551	14.425	0.231	0.179
-631.536	-51.276	-0.189	-0.088
-630.522	-200.000	0.005	-0.027
-629.507	-91.140	-0.285	0.082
-628.492	-112.794	-0.142	-0.028
-627.478	171.665	-0.259	-0.371
-626.463	6.967	-0.174	-0.129
-625.449	75.698	-0.314	-0.331
-624.434	800.000	0.090	-0.253
-623.419	-136.375	0.050	-0.006
-622.405	126.040	0.103	0.130
-621.390	-120.457	-0.354	-0.060
-620.376	-200.000	0.002	0.076
-619.361	-94.250	-0.058	0.016
-618.346	-159.319	-0.099	0.006
-617.332	800.000	-0.125	-0.400
-616.317	15.465	-0.291	-0.228
-615.303	689.368	0.097	0.253
-614.288	86.048	-0.328	-0.359
-613.273	-200.000	0.028	-0.330
-612.259	61.205	-0.281	-0.277
-611.244	136.181	-0.033	-0.043
-610.230	263.208	-0.118	-0.203
-609.215	36.128	0.185	-0.162
-608.201	-200.000	0.096	-0.503
-607.186	365.524	0.066	-0.133
-606.171	-126.877	-0.237	-0.035
-605.157	100.477	-0.167	0.194
-604.142	-39.576	0.162	-0.084
-603.128	19.439	-0.140	-0.112
-602.113	-20.658	0.258	-0.158
-601.098	-56.250	0.184	0.081
-600.084	-40.944	0.128	-0.066
-599.069	-36.655	-0.075	-0.040
-598.055	-154.634	0.083	0.006
-597.040	-134.375	0.260	0.032
-596.025	-160.606	0.304	-0.016
-595.011	-89.773	-0.231	-0.067
-593.996	64.261	-0.194	-0.194
-592.982	-127.830	0.058	-0.008
-591.967	-34.114	0.222	-0.121
-590.952	295.324	-0.064	-0.116
-589.938	364.619	0.157	-0.314
-588.923	-200.000	0.001	-0.146
-587.909	800.000	0.048	-0.141
-586.894	-71.080	-0.279	-0.104
-585.879	-117.902	-0.308	0.055
-584.865	237.920	0.115	-0.189
-583.850	57.859	0.122	0.119
-582.836	-117.584	0.260	-0.047
-581.821	-7.017	-0.414	0.279
-580.806	-56.629	-0.111	0.049
-579.792	-9.059	-0.315	0.210
-578.777	-200.000	0.003	-0.168
-577.763	455.508	0.009	-0.021
-576.748	69.429	0.160	-0.164
-575.733	-200.000	0.033	0.162
-574.719	-200.000	0.002	0.034
-573.704	19.368	0.114	0.091
-572.690	332.043	-0.068	0.131
-571.675	-15.032	-0.196	-0.125
-570.661	-143.551	0.310	0.029
-569.646	-14.565	0.136	0.087
-568.631	36.173	-0.124	0.109
-567.617	488.289	0.124	-0.282
-566.602	94.054	-0.301	0.340
-565.588	-142.484	-0.183	-0.018
-564.573	32.852	0.141	-0.121
-563.558	-14.075	-0.425	-0.273
-562.544	-27.433	0.292	-0.169
-561.529	108.351	0.006	0.007
-560.515	-200.000	-0.022	0.208
-559.500	800.000	-0.010	-0.037
-558.485	-200.000	-0.008	0.437
-557.471	-77.527	0.050	0.017
-556.456	-108.294	-0.281	0.060
-555.442	-46.549	0.289	-0.141
-554.427	-168.140	0.208	-0.008
-553.412	-67.071	-0.387	0.152
-552.398	256.415	0.142	-0.241
-551.383	-37.021	-0.189	-0.101
-550.369	157.665	-0.175	0.241
-549.354	79.952	0.254	-0.271
-548.339	800.000	0.058	-0.161
-547.325	-24.422	-0.232	-0.138
-546.310	-122.140	-0.190	0.031
-545.296	11.892	0.188	-0.143
-544.281	-133.680	0.229	-0.028
-543.266	800.000	-0.026	-0.100
-542.252	-200.000	0.024	0.184
-541.237	271.243	-0.151	-0.263
-540.223	46.771	-0.266	0.245
-539.208	-200.000	-0.010	0.120
-538.193	-200.000	0.020	0.091
-537.179	34.923	-0.231	0.201
-536.164	341.636	-0.035	-0.068
-535.150	675.137	0.034	-0.088
-534.135	192.971	0.161	-0.242
-533.121	119.232	-0.087	-0.107
-532.106	336.526	-0.094	0.182
-531.091	18.077	0.307	-0.243
-530.077	287.844	0.064	0.114
-529.062	295.776	-0.135	-0.245
-528.048	68.396	0.264	-0.269
-527.033	-10.585	-0.078	0.051
-526.018	-22.642	-0.035	0.021
-525.004	800.000	-0.035	-0.113
-523.989	-200.000	-0.014	0.139
-522.975	-78.316	-0.398	-0.136
-521.960	-200.000	0.033	-0.187
-520.945	102.858	-0.052	0.060
-519.931	-160.514	-0.452	0.024
-518.916	-152.350	-0.210	0.015
-517.902	-26.451	-0.061	0.036
-516.887	-200.000	0.003	0.290
-515.872	-200.000	-0.011	0.155
-514.858	463.398	0.210	0.466
-513.843	-35.157	0.221	-0.119
-512.829	-87.628	-0.193	-0.058
-511.814	800.000	0.070	0.286
-510.799	550.885	0.057	-0.137
-509.785	-65.892	0.139	0.055
-508.770	85.207	-0.070	0.076
-507.756	-81.411	-0.291	0.095
-506.741	399.109	0.023	-0.048
-505.726	-65.129	0.161	0.064
-504.712	109.885	0.212	0.252
-503.697	-200.000	0.060	0.326
-502.683	-37.796	-0.235	0.124
-501.668	58.781	-0.366	-0.356
-500.653	800.000	0.092	-0.284
-499.639	23.251	-0.072	-0.058
-498.624	-42.323	0.112	0.057
-497.610	-37.666	0.145	0.077
-496.595	-102.793	-0.241	0.057
-495.581	-25.864	0.327	-0.191
-494.566	-200.000	-0.014	0.140
-493.551	800.000	0.042	0.134
-492.537	150.268	0.043	0.058
-491.522	-50.587	-0.387	-0.181
-490.508	-19.137	0.017	0.011
-489.493	-87.012	0.356	0.107
-488.478	-200.000	0.015	0.070
-487.464	-67.718	-0.286	0.111
-486.449	-177.634	0.100	0.002
-485.435	-178.036	-0.310	-0.007
-484.420	-76.984	-0.256	0.089
-483.405	201.181	0.074	-0.113
-482.391	410.956	-0.083	0.175
-481.376	459.650	-0.028	0.062
-480.362	-102.460	0.139	0.033
-479.347	800.000	0.057	-0.236
-478.332	-200.000	-0.048	0.222
-477.318	800.000	0.094	0.390
-476.303	-200.000	0.044	0.295
-475.289	-155.391	0.044	-0.003
-474.274	-200.000	0.032	-0.155
-473.259	800.000	0.091	-0.281
-472.245	-200.000	0.014	-0.105
-471.230	11.733	0.229	-0.174
-470.216	-99.782	0.287	0.071
-469.201	800.000	-0.007	0.028
-468.186	660.603	0.029	0.075
-467.172	-121.223	0.248	-0.041
-466.157	-106.098	-0.244	0.054
-465.143	597.164	-0.145	0.356
-464.128	-137.700	0.370	-0.041
-463.113	-149.665	-0.340	0.027
-462.099	-80.083	-0.096	0.032
-461.084	-123.443	-0.375	0.059
-460.070	-200.000	0.042	0.277
-459.055	-200.000	-0.026	0.222
-458.040	-200.000	0.002	0.194
-457.026	14.557	-0.266	-0.206
-456.011	33.724	0.238	-0.205
-454.997	-120.152	0.250	0.042
-453.982	17.207	0.169	-0.132
-452.968	-86.837	-0.219	0.066
-451.953	-4.734	-0.277	-0.189
-450.938	-102.702	-0.306	0.072
-449.924	239.216	-0.127	-0.209
-448.909	-40.464	0.085	0.044
-447.895	-2.371	0.215	0.149
-446.880	450.448	-0.040	-0.086
-445.865	145.631	0.352	0.467
-444.851	386.503	0.146	0.299
-443.836	-39.612	-0.192	0.100
-442.822	140.965	0.092	-0.120
-441.807	-4.775	-0.063	0.043
-440.792	128.188	0.197	0.248
-439.778	288.477	0.012	-0.022
-438.763	353.019	0.204	0.401
-437.749	-19.267	-0.136	0.083
-436.734	-200.000	0.031	-0.140
-435.719	-56.617	0.251	0.110
-434.705	-120.349	-0.268	0.045
-433.690	313.527	-0.017	0.031
-432.676	-200.000	-0.026	-0.511
-431.661	116.261	-0.144	0.174
-430.646	800.000	-0.087	-0.299
-429.632	-71.801	0.115	-0.043
-428.617	-10.918	-0.185	-0.120
-427.603	353.245	-0.117	-0.229
-426.588	516.947	0.090	0.208
-425.573	21.923	-0.087	0.070
-424.559	23.911	0.201	0.164
-423.544	-200.000	0.001	-0.036
-422.530	144.049	0.100	-0.132
-421.515	-200.000	0.069	-0.329
-420.500	64.787	0.365	0.364
-419.486	-88.106	0.333	-0.099
-418.471	158.053	-0.231	-0.316
-417.457	-81.743	-0.126	0.041
-416.442	280.033	-0.150	-0.264
-415.428	-200.000	0.019	-0.133
-414.413	46.095	0.051	0.046
-413.398	354.037	-0.072	-0.142
-412.384	800.000	0.067	-0.238
-411.369	-200.000	0.006	-0.234
-410.355	297.078	-0.219	-0.397
-409.340	-31.875	0.169	0.094
-408.325	-12.488	-0.074	0.048
-407.311	-142.655	0.422	-0.041
-406.296	-11.364	0.114	-0.074
-405.282	26.912	-0.255	-0.211
-404.267	-108.922	0.077	0.016
-403.252	289.084	-0.171	0.306
-402.238	113.043	0.134	0.160
-401.223	285.588	-0.032	0.056
-400.209	-112.454	-0.154	-0.030
-399.194	39.935	0.115	-0.102
-398.179	48.404	0.082	-0.076
-397.165	-134.428	0.362	0.044
-396.150	-109.118	-0.166	0.035
-395.136	267.534	-0.039	0.067
-394.121	-126.326	0.323	0.048
-393.106	8.914	-0.201	-0.150
-392.092	74.950	-0.082	-0.086
-391.077	-200.000	-0.002	-0.268
-390.063	-200.000	0.070	-0.327
-389.048	78.015	0.163	0.172
-388.033	-200.000	-0.062	-0.351
-387.019	-24.391	0.144	0.085
-386.004	11.727	-0.090	-0.069
-384.990	-3.316	-0.224	-0.154
-383.975	-125.137	-0.182	0.028
-382.960	181.162	-0.135	0.196
-381.946	378.908	-0.082	-0.165
-380.931	-200.000	-0.001	-0.196
-379.917	74.901	0.176	-0.183
-378.902	2.338	0.156	-0.111
-377.888	-88.958	-0.323	0.094
-376.873	-200.000	-0.017	-0.119
-375.858	-65.073	-0.147	-0.058
-374.844	-200.000	-0.008	-0.048
-373.829	-200.000	-0.013	-0.107
-372.815	5.926	0.268	-0.196
-371.800	-70.989	0.152	0.056
-370.785	-125.941	0.240	-0.036
-369.771	-100.322	-0.178	-0.044
-368.756	-144.002	-0.166	-0.015
-367.742	196.626	-0.183	0.275
-366.727	-176.389	0.285	0.007
-365.712	800.000	0.078	0.316
-364.698	-8.707	0.165	0.109
-363.683	243.479	-0.012	0.019
-362.669	4.844	-0.352	-0.255
-361.654	92.007	0.088	0.097
-360.639	156.770	0.164	0.224
-359.625	-200.000	-0.005	0.189
-358.610	-1.886	0.139	0.096
-357.596	-200.000	-0.045	0.299
-356.581	-60.329	-0.280	-0.118
-355.566	-200.000	-0.020	-0.178
-354.552	-200.000	-0.065	0.299
-353.537	15.167	-0.192	-0.148
-352.523	538.223	0.072	-0.169
-351.508	-31.439	-0.518	-0.287
-350.493	-120.152	0.199	-0.033
-349.479	-38.680	-0.251	-0.131
-348.464	104.289	0.218	-0.253
-347.450	51.385	0.353	-0.330
-346.435	-13.965	-0.164	0.104
-345.420	140.676	0.184	0.240
-344.406	100.800	-0.217	0.249
-343.391	-29.841	0.213	0.120
-342.377	-51.064	0.135	0.062
-341.362	-200.000	0.038	-0.211
-340.348	-200.000	-0.010	0.199
-339.333	-43.451	0.078	-0.039
-338.318	-200.000	-0.040	0.256
-337.304	-9.193	0.350	0.231
-336.289	-200.000	-0.009	0.109
-335.275	-34.131	0.231	-0.125
-334.260	800.000	0.094	0.298
-333.245	33.786	-0.168	0.144
-332.231	575.911	0.096	0.230
-331.216	-25.618	0.100	0.058
-330.202	800.000	-0.135	-0.435
-329.187	-200.000	-0.030	0.326
-328.172	-41.132	-0.107	-0.054
-327.158	800.000	0.059	0.216
-326.143	800.000	0.083	0.314
-325.129	172.698	0.285	0.404
-324.114	110.908	-0.202	0.239
-323.099	292.483	0.229	0.410
-322.085	122.939	0.077	0.095
-321.070	404.930	0.143	0.297
-320.056	-18.764	0.147	-0.090
-319.041	800.000	0.131	0.485
-318.026	178.384	0.170	-0.245
-317.012	-28.976	-0.415	-0.234
-315.997	-71.575	0.234	-0.086
-314.983	-148.033	-0.245	0.020
-313.968	-200.000	-0.084	0.367
-312.953	-176.340	0.163	-0.004
-311.939	37.085	0.071	-0.062
-310.924	-92.215	0.126	0.035
-309.910	-200.000	-0.028	-0.401
-308.895	-129.278	-0.364	-0.050
-307.880	-115.283	-0.127	-0.024
-306.866	800.000	0.055	-0.163
-305.851	19.192	-0.291	0.230
-304.837	-20.554	-0.373	-0.225
-303.822	366.677	0.120	0.238
-302.807	-200.000	-0.008	0.231
-301.793	800.000	0.051	-0.147
-300.778	-200.000	-0.018	-0.306
-299.764	43.013	-0.123	0.110
-298.749	80.067	0.018	0.019
-297.735	5.445	0.216	0.157
-296.720	-59.167	0.225	0.095
-295.705	-200.000	-0.036	0.241
-294.691	-180.503	-0.220	-0.004
-293.676	-25.502	0.171	0.099
-292.662	-63.612	0.198	-0.080
-291.647	65.574	0.219	-0.218
-290.632	104.799	-0.255	0.296
-289.618	-138.200	-0.192	-0.021
-288.603	-78.756	0.461	-0.155
-287.589	201.938	-0.150	-0.228
-286.574	32.745	-0.354	0.301
-285.559	-150.509	-0.214	-0.016
-284.545	8.610	-0.143	0.106
-283.530	97.480	0.035	0.040
-282.516	-164.360	-0.136	-0.006
-281.501	358.383	-0.087	0.172
-280.486	-200.000	0.090	0.417
-279.472	111.959	0.150	-0.178
-278.457	-200.000	0.021	0.317
-277.443	-200.000	0.016	-0.077
-276.428	275.575	0.243	-0.423
-275.413	58.984	0.078	-0.075
-274.399	69.153	0.106	-0.107
-273.384	241.497	-0.122	0.200
-272.370	25.944	0.331	0.271
-271.355	-120.604	0.186	0.031
-270.340	800.000	0.091	-0.353
-269.326	800.000	-0.079	0.280
-268.311	85.484	0.153	-0.165
-267.297	-11.612	-0.073	0.047
-266.282	-139.551	0.131	0.014
-265.267	738.207	0.082	-0.215
-264.253	-183.273	-0.059	0.001
-263.238	145.482	0.217	-0.285
-262.224	-2.042	-0.174	-0.120
-261.209	-200.000	0.058	-0.452
-260.195	-3.696	0.104	-0.071
-259.180	800.000	-0.133	0.422
-258.165	-200.000	0.000	-0.140
-257.151	-200.000	0.024	-0.211
-256.136	-200.000	-0.004	0.158
-255.122	-200.000	0.007	0.045
-254.107	-21.377	-0.114	-0.068
-253.092	153.009	-0.093	0.125
-252.078	-40.198	-0.117	0.060
-251.063	-119.691	0.242	-0.041
-250.049	438.486	-0.093	-0.199
-249.034	109.284	0.177	-0.208
-248.019	85.499	0.229	-0.246
-247.005	-71.686	0.100	-0.037
-245.990	-105.996	-0.160	-0.035
-244.976	800.000	0.071	0.194
-243.961	55.088	0.063	0.060
-242.946	-12.568	-0.153	0.098
-241.932	-200.000	0.023	0.167
-240.917	800.000	0.138	0.391
-239.903	800.000	0.061	-0.183
-238.888	-145.092	-0.236	-0.021
-237.873	-200.000	-0.002	-0.251
-236.859	77.158	-0.113	0.118
-235.844	17.976	-0.209	0.163
-234.830	439.514	0.104	0.222
-233.815	76.683	-0.066	-0.069
-232.800	-2.069	0.074	-0.051
-231.786	24.506	0.082	-0.066
-230.771	800.000	0.064	-0.197
-229.757	647.407	0.055	-0.137
-228.742	270.397	0.130	0.224
-227.727	76.226	-0.142	0.147
-226.713	800.000	0.070	0.253
-225.698	657.433	-0.046	0.116
-224.684	-148.513	-0.473	-0.038
-223.669	-200.000	0.093	0.473
-222.655	800.000	0.098	0.407
-221.640	95.562	0.234	0.262
-220.625	-200.000	-0.033	0.161
-219.611	-200.000	0.015	0.070
-218.596	-200.000	0.012	0.187
-217.582	-95.861	0.154	-0.040
-216.567	800.000	0.024	0.077
-215.552	-200.000	-0.027	-0.128
-214.538	-27.050	0.137	-0.079
-213.523	-8.810	0.074	0.049
-212.509	-102.716	-0.243	0.057
-211.494	-63.321	0.315	0.127
-210.479	-81.858	-0.295	-0.095
-209.465	352.637	-0.116	0.225
-208.450	800.000	-0.082	0.252
-207.436	800.000	-0.069	-0.217
-206.421	24.765	0.196	0.159
-205.406	24.090	-0.131	-0.106
-204.392	221.979	0.116	0.182
-203.377	800.000	0.060	0.219
-202.363	-107.982	0.148	0.031
-201.348	280.990	0.117	0.205
-200.333	208.710	-0.063	0.096
-199.319	-47.498	-0.057	0.027
-198.304	566.845	-0.111	0.264
-197.290	-19.461	0.065	-0.039
-196.275	-85.310	0.181	-0.055
-195.260	435.683	-0.135	-0.287
-194.246	-40.339	-0.335	0.171
-193.231	-131.084	-0.203	0.027
-192.217	250.272	0.093	0.155
-191.202	-88.881	0.155	-0.045
-190.187	47.542	0.212	0.194
-189.173	-93.100	-0.073	-0.020
-188.158	-64.347	0.628	-0.250
-187.144	26.274	0.149	0.122
-186.129	60.976	0.160	-0.156
-185.114	-200.000	0.010	0.226
-184.100	-98.343	0.176	-0.044
-183.085	-109.922	0.189	-0.039
-182.071	101.140	-0.329	0.374
-181.056	-66.109	0.200	0.078
-180.042	-51.320	-0.175	-0.080
-179.027	-23.823	0.179	0.105
-178.012	164.824	0.173	-0.239
-176.998	800.000	0.046	0.167
-175.983	-200.000	0.005	0.029
-174.969	184.989	-0.223	-0.324
-173.954	65.080	0.260	-0.257
-172.939	189.015	0.227	0.333
-171.925	91.431	-0.254	-0.279
-170.910	800.000	-0.093	-0.391
-169.896	-104.492	0.106	0.024
-168.881	-95.968	-0.278	0.072
-167.866	-80.653	-0.203	0.066
-166.852	195.908	0.153	0.227
-165.837	149.521	0.086	-0.114
-164.823	-80.261	0.157	-0.051
-163.808	800.000	-0.091	-0.259
-162.793	-164.978	0.296	-0.013
-161.779	62.266	-0.015	0.014
-160.764	111.904	-0.127	0.149
-159.750	139.171	-0.152	-0.195
-158.735	-200.000	-0.066	-0.399
-157.720	27.311	0.161	-0.132
-156.706	-121.811	0.104	0.017
-155.691	52.596	-0.226	0.211
-154.677	-95.113	-0.131	0.035
-153.662	-48.195	-0.310	-0.146
-152.647	651.312	-0.041	-0.103
-151.633	-144.045	0.196	0.018
-150.618	-153.522	0.244	-0.016
-149.604	-200.000	0.028	-0.162
-148.589	13.268	-0.083	0.063
-147.574	-110.914	0.207	0.042
-146.560	296.584	-0.171	0.306
-145.545	-200.000	-0.005	0.030
-144.531	584.853	0.102	-0.246
-143.516	-115.185	-0.321	-0.059
-142.502	30.804	0.138	0.116
-141.487	385.182	0.077	-0.155
-140.472	-54.416	0.287	0.127
-139.458	16.041	0.330	-0.254
-138.443	-200.000	-0.006	-0.254
-137.429	688.152	-0.082	-0.210
-136.414	721.286	0.045	-0.116
-135.399	325.743	0.161	-0.300
-134.385	-57.864	0.355	0.152
-133.370	506.218	-0.120	0.271
-132.356	-86.565	0.071	-0.021
-131.341	463.714	-0.055	-0.119
-130.326	-200.000	-0.012	-0.295
-129.312	-147.303	-0.317	0.026
-128.297	42.874	-0.264	-0.235
-127.283	375.141	0.147	-0.294
-126.268	60.904	-0.225	-0.218
-125.253	15.469	0.170	-0.131
-124.239	145.290	0.169	-0.222
-123.224	-84.397	-0.178	-0.055
-122.210	148.492	-0.104	0.138
-121.195	-24.781	0.028	-0.016
-120.180	800.000	0.046	0.151
