DTS Sentinel unit serial number:	SN413079Multiplexer serial number:	ORYXHardware model number:	OX4-SRSoftware version number:	ORYX F/W v4.00 Oryx Data Collector v3.7.2.0data status	okinstallation	princeton_trtdifferential loss correction	single-endedforward channel	channel 3reverse channel	N/Adate	2019/09/15time	10:08:34forward acquisition time	60.00reverse acquisition time	0.00gamma	496.2192k internal	0.2307k external	0.2307temperature offset calibration	0.9976default loss term (dB/km)	0.3790temperature slope calibration	1.0000multiplexer offset coefficient	1.0000multiplexer slope coefficient	1.0000fibre end	0.00T internal ref (°C)	34.19T ext. ref 1 (°C)	5.02T ext. ref 2 (°C)	30.00length (m)	temperature (°C)	Stokes	anti-Stokes-747.200	-26.545	-0.137	0.081
-746.185	800.000	-0.106	0.422
-745.171	597.447	-0.088	-0.222
-744.156	588.559	-0.064	0.160
-743.142	800.000	0.084	0.352
-742.127	-200.000	0.022	0.127
-741.112	69.323	-0.065	0.068
-740.098	-200.000	-0.030	0.203
-739.083	-91.933	0.160	-0.046
-738.069	-200.000	-0.026	-0.129
-737.054	191.536	-0.171	0.263
-736.039	-28.314	-0.115	-0.067
-735.025	-200.000	-0.060	0.398
-734.010	-86.259	-0.262	0.082
-732.996	445.062	0.140	-0.311
-731.981	-31.413	-0.191	-0.109
-730.966	-15.425	0.183	0.119
-729.952	167.418	-0.153	-0.221
-728.937	136.248	-0.053	0.070
-727.923	-200.000	0.044	0.324
-726.908	-90.344	-0.303	-0.090
-725.894	-200.000	0.058	-0.262
-724.879	128.235	-0.068	-0.088
-723.864	358.697	0.097	-0.197
-722.850	199.821	0.059	0.091
-721.835	489.432	-0.077	-0.179
-720.821	453.680	0.113	0.254
-719.806	-89.437	0.137	-0.041
-718.791	53.321	-0.144	-0.141
-717.777	105.085	-0.068	0.081
-716.762	-52.130	-0.177	0.084
-715.748	-200.000	0.006	-0.048
-714.733	-200.000	-0.005	-0.260
-713.718	-200.000	-0.059	0.359
-712.704	30.851	0.056	0.049
-711.689	-2.581	-0.189	-0.134
-710.675	658.657	0.059	0.154
-709.660	159.970	0.151	-0.214
-708.645	-152.998	-0.101	-0.007
-707.631	-82.849	0.430	-0.141
-706.616	-200.000	-0.009	-0.190
-705.602	-62.579	-0.402	-0.169
-704.587	800.000	0.042	-0.185
-703.572	1.090	-0.186	0.135
-702.558	-160.988	-0.338	0.018
-701.543	-46.424	-0.261	-0.130
-700.529	-49.318	-0.362	0.176
-699.514	240.059	0.043	-0.073
-698.499	-200.000	-0.021	-0.222
-697.485	-27.711	0.230	-0.136
-696.470	800.000	-0.138	0.422
-695.456	263.195	0.192	0.339
-694.441	57.857	-0.147	0.146
-693.426	-113.532	0.197	-0.039
-692.412	-95.210	-0.164	-0.045
-691.397	-115.536	-0.258	0.049
-690.383	-98.985	0.382	-0.098
-689.368	58.411	-0.206	0.205
-688.354	800.000	0.061	0.170
-687.339	88.642	0.079	0.089
-686.324	-200.000	0.066	0.298
-685.310	35.853	0.151	-0.135
-684.295	-83.804	-0.257	-0.083
-683.281	-6.023	-0.397	0.275
-682.266	489.503	0.101	-0.234
-681.251	290.817	0.097	0.179
-680.237	-70.631	0.113	0.043
-679.222	1.683	-0.418	-0.305
-678.208	21.755	-0.246	-0.203
-677.193	-157.859	-0.272	-0.016
-676.178	-119.263	-0.108	-0.019
-675.164	-200.000	-0.055	0.354
-674.149	800.000	-0.037	0.163
-673.135	-50.187	0.312	-0.150
-672.120	94.490	0.145	0.167
-671.105	260.162	-0.186	-0.326
-670.091	165.278	-0.114	0.164
-669.076	-81.662	0.172	0.057
-668.062	707.931	0.080	-0.215
-667.047	377.038	0.100	0.206
-666.032	-167.200	0.237	-0.010
-665.018	505.024	0.008	-0.019
-664.003	215.463	0.171	0.275
-662.989	-51.985	0.086	-0.041
-661.974	479.566	-0.048	-0.111
-660.959	800.000	0.126	-0.425
-659.945	-20.391	0.182	-0.114
-658.930	-63.096	0.218	0.091
-657.916	-75.196	-0.052	0.019
-656.901	-200.000	-0.014	0.081
-655.886	-95.996	-0.138	0.037
-654.872	800.000	-0.055	-0.196
-653.857	300.844	0.181	0.338
-652.843	31.829	0.083	-0.073
-651.828	-25.254	-0.162	-0.097
-650.814	110.272	0.047	-0.058
-649.799	800.000	-0.055	-0.179
-648.784	-51.254	0.054	-0.026
-647.770	-110.017	-0.201	0.043
-646.755	60.473	0.212	0.212
-645.741	800.000	-0.017	0.050
-644.726	800.000	-0.051	0.218
-643.711	111.322	0.088	-0.108
-642.697	-44.176	0.138	0.070
-641.682	77.334	-0.093	0.100
-640.668	-50.104	-0.205	-0.098
-639.653	12.566	0.104	-0.081
-638.638	9.607	-0.227	0.174
-637.624	800.000	0.066	-0.222
-636.609	-133.715	0.264	0.033
-635.595	-41.959	-0.241	-0.125
-634.580	-88.024	0.123	0.037
-633.565	22.536	0.167	0.138
-632.551	-200.000	-0.080	0.385
-631.536	-71.580	-0.139	0.052
-630.522	194.694	-0.116	-0.178
-629.507	-200.000	-0.018	0.097
-628.492	-115.560	0.140	0.027
-627.478	-200.000	0.038	0.232
-626.463	-64.572	0.110	0.045
-625.449	-129.997	0.066	0.009
-624.434	576.881	0.134	-0.330
-623.419	-25.134	0.150	-0.090
-622.405	25.985	-0.260	-0.219
-621.390	-85.905	-0.111	0.035
-620.376	-10.115	-0.210	-0.141
-619.361	306.623	-0.053	0.099
-618.346	-69.205	0.053	0.021
-617.332	603.862	0.039	0.097
-616.317	-200.000	0.004	0.194
-615.303	68.272	0.199	-0.206
-614.288	106.310	0.316	-0.379
-613.273	183.212	0.120	-0.179
-612.259	-58.207	-0.045	0.020
-611.244	31.472	-0.441	0.384
-610.230	-89.112	0.375	-0.112
-609.215	332.786	-0.052	-0.101
-608.201	-200.000	-0.021	-0.226
-607.186	-200.000	0.117	0.000
-606.171	85.370	0.167	-0.186
-605.157	-118.044	-0.136	0.025
-604.142	800.000	-0.027	0.087
-603.128	-136.355	0.139	0.016
-602.113	57.024	-0.327	-0.322
-601.098	-200.000	-0.011	0.058
-600.084	718.954	-0.026	-0.070
-599.069	-200.000	0.034	0.453
-598.055	44.289	0.133	0.124
-597.040	-131.992	-0.127	-0.017
-596.025	800.000	0.071	0.263
-595.011	-13.004	0.218	-0.143
-593.996	-83.037	-0.345	0.112
-592.982	-55.262	0.199	-0.090
-591.967	570.008	0.066	-0.161
-590.952	-7.705	0.190	0.130
-589.938	-101.211	0.242	0.060
-588.923	104.827	0.210	-0.250
-587.909	800.000	0.016	0.059
-586.894	285.351	-0.063	-0.115
-585.879	461.169	0.009	0.019
-584.865	327.489	0.189	-0.367
-583.850	-62.743	0.125	-0.052
-582.836	555.593	-0.163	0.397
-581.821	372.038	-0.073	0.149
-580.806	693.905	-0.125	-0.332
-579.792	-77.030	0.212	-0.075
-578.777	-200.000	0.033	-0.349
-577.763	786.663	0.126	-0.349
-576.748	-171.223	0.381	0.013
-575.733	-86.734	0.160	0.050
-574.719	800.000	-0.068	0.267
-573.704	356.697	-0.084	-0.169
-572.690	222.854	-0.118	-0.192
-571.675	800.000	0.106	0.333
-570.661	3.484	-0.232	0.171
-569.646	38.896	0.274	0.247
-568.631	-109.355	-0.207	0.044
-567.617	710.150	-0.069	-0.183
-566.602	43.288	-0.202	-0.186
-565.588	211.082	-0.106	-0.169
-564.573	800.000	-0.026	-0.094
-563.558	-126.104	0.228	-0.035
-562.544	121.587	-0.318	0.400
-561.529	-20.963	-0.137	0.085
-560.515	-38.758	0.292	0.155
-559.500	-200.000	-0.017	-0.379
-558.485	-160.407	0.277	0.015
-557.471	-61.496	-0.290	0.123
-556.456	-167.107	0.183	-0.007
-555.442	-158.128	0.226	-0.013
-554.427	170.340	-0.025	-0.036
-553.412	-120.502	0.132	0.023
-552.398	-114.636	0.057	-0.011
-551.383	189.351	0.316	-0.478
-550.369	272.021	0.094	-0.168
-549.354	-200.000	0.042	0.187
-548.339	32.976	0.336	-0.294
-547.325	26.056	0.154	-0.129
-546.310	-200.000	-0.010	-0.129
-545.296	227.675	-0.119	-0.195
-544.281	-53.492	-0.171	-0.079
-543.266	22.962	-0.203	0.168
-542.252	106.083	-0.155	0.185
-541.237	800.000	-0.063	-0.219
-540.223	30.203	0.078	-0.067
-539.208	38.440	0.041	0.037
-538.193	131.002	0.295	0.382
-537.179	-65.839	0.029	0.012
-536.164	226.942	-0.019	-0.031
-535.150	71.139	-0.129	0.135
-534.135	800.000	0.070	0.198
-533.121	546.212	0.099	0.238
-532.106	-32.882	0.086	0.048
-531.091	-200.000	-0.005	0.105
-530.077	800.000	-0.050	0.186
-529.062	-79.520	-0.146	0.050
-528.048	-200.000	0.025	-0.124
-527.033	-164.826	-0.183	0.008
-526.018	-90.551	-0.184	-0.054
-525.004	-121.668	-0.364	-0.061
-523.989	43.583	-0.266	-0.245
-522.975	152.978	0.103	-0.142
-521.960	-177.532	-0.274	0.007
-520.945	-53.480	0.295	-0.136
-519.931	24.336	0.258	0.215
-518.916	800.000	-0.011	0.046
-517.902	-200.000	-0.009	0.126
-516.887	20.450	-0.238	0.194
-515.872	-76.953	-0.285	0.100
-514.858	800.000	-0.054	-0.172
-513.843	-127.512	0.052	0.008
-512.829	109.139	-0.110	-0.133
-511.814	-104.253	-0.151	0.035
-510.799	-200.000	0.015	-0.411
-509.785	-119.955	0.056	-0.010
-508.770	800.000	-0.069	-0.211
-507.756	443.833	0.122	-0.271
-506.741	-78.602	-0.331	0.114
-505.726	-102.873	-0.201	-0.048
-504.712	-101.070	-0.073	-0.018
-503.697	-69.586	0.129	-0.050
-502.683	-111.711	-0.373	-0.076
-501.668	416.340	0.125	-0.268
-500.653	-28.475	-0.114	-0.066
-499.639	155.343	-0.103	-0.143
-498.624	-112.193	0.166	-0.034
-497.610	-98.367	-0.039	0.010
-496.595	762.549	0.083	-0.228
-495.581	119.624	0.140	0.175
-494.566	-61.020	-0.404	0.172
-493.551	-15.582	0.181	-0.116
-492.537	-200.000	0.012	0.290
-491.522	53.809	0.110	0.106
-490.508	-147.762	-0.167	0.014
-489.493	-200.000	-0.014	0.122
-488.478	-122.993	0.290	-0.047
-487.464	-172.777	0.120	0.004
-486.449	800.000	-0.081	-0.297
-485.435	-200.000	0.021	0.097
-484.420	800.000	-0.069	-0.227
-483.405	-200.000	-0.004	0.356
-482.391	-200.000	0.053	0.330
-481.376	118.664	-0.039	0.049
-480.362	450.310	0.094	0.208
-479.347	-109.832	-0.347	0.073
-478.332	-200.000	-0.005	0.201
-477.318	491.753	-0.084	-0.193
-476.303	83.863	-0.051	0.056
-475.289	-200.000	-0.025	0.187
-474.274	-59.788	0.310	0.134
-473.259	6.626	-0.270	0.202
-472.245	-123.656	0.330	0.053
-471.230	-112.064	0.307	-0.062
-470.216	-120.424	-0.296	-0.051
-469.201	800.000	0.083	0.301
-468.186	229.959	0.079	0.130
-467.172	203.279	0.064	-0.100
-466.157	-200.000	-0.054	0.261
-465.143	187.288	-0.170	-0.255
-464.128	-200.000	0.045	0.248
-463.113	-84.776	-0.040	-0.013
-462.099	-200.000	-0.003	0.281
-461.084	-1.293	0.072	-0.051
-460.070	-160.893	-0.445	-0.024
-459.055	-160.213	0.059	-0.003
-458.040	155.523	-0.043	0.060
-457.026	-117.430	-0.027	-0.005
-456.011	59.215	-0.152	-0.150
-454.997	203.850	-0.131	-0.204
-453.982	265.107	0.071	-0.124
-452.968	6.823	-0.094	-0.071
-451.953	48.969	-0.146	0.138
-450.938	-33.126	-0.274	0.153
-449.924	-105.640	-0.225	0.051
-448.909	15.631	0.167	-0.132
-447.895	-19.555	0.080	-0.050
-446.880	800.000	-0.027	0.112
-445.865	-118.632	-0.430	-0.076
-444.851	800.000	0.078	0.297
-443.836	-34.867	-0.083	-0.046
-442.822	800.000	0.057	-0.230
-441.807	800.000	0.055	-0.240
-440.792	800.000	-0.079	-0.284
-439.778	398.555	0.103	-0.216
-438.763	40.459	-0.277	0.251
-437.749	-200.000	0.057	-0.330
-436.734	800.000	-0.067	0.190
-435.719	-52.971	0.068	-0.031
-434.705	26.280	-0.214	-0.180
-433.690	62.156	0.094	-0.095
-432.676	21.429	-0.191	-0.156
-431.661	-108.959	-0.447	-0.096
-430.646	-168.394	-0.175	0.007
-429.632	26.600	-0.105	0.089
-428.617	114.654	0.194	-0.238
-427.603	-200.000	-0.024	-0.189
-426.588	-10.209	-0.320	-0.213
-425.573	-38.716	0.246	0.130
-424.559	129.103	-0.214	0.275
-423.544	-47.250	0.225	0.110
-422.530	-103.168	0.336	-0.080
-421.515	186.128	-0.057	0.085
-420.500	67.981	-0.143	-0.147
-419.486	-48.997	0.056	-0.027
-418.471	-37.433	0.122	-0.066
-417.457	-64.225	0.170	0.070
-416.442	41.048	0.207	0.188
-415.428	14.868	-0.031	-0.024
-414.413	236.227	0.161	0.268
-413.398	800.000	0.057	-0.246
-412.384	44.897	0.088	0.082
-411.369	-136.172	0.408	-0.048
-410.355	-46.594	-0.153	0.075
-409.340	24.846	0.143	0.119
-408.325	-42.079	-0.179	0.092
-407.311	-200.000	-0.012	0.134
-406.296	-169.984	0.097	0.003
-405.282	490.187	0.045	-0.103
-404.267	-62.201	0.242	0.101
-403.252	800.000	-0.012	0.050
-402.238	256.562	0.166	0.286
-401.223	-32.184	0.185	-0.104
-400.209	-170.737	-0.131	-0.005
-399.194	-200.000	0.021	0.380
-398.179	-115.309	-0.230	0.044
-397.165	-9.081	-0.218	-0.147
-396.150	-200.000	-0.261	-0.001
-395.136	-200.000	0.020	-0.113
-394.121	41.628	0.242	-0.220
-393.106	-104.887	-0.246	-0.057
-392.092	-200.000	0.004	0.070
-391.077	2.677	0.076	0.056
-390.063	268.163	-0.126	0.222
-389.048	120.685	-0.269	0.335
-388.033	-200.000	0.010	-0.133
-387.019	800.000	0.051	0.151
-386.004	-187.179	0.243	0.003
-384.990	-200.000	-0.023	-0.260
-383.975	134.045	-0.223	0.290
-382.960	-76.683	-0.225	0.079
-381.946	14.662	0.175	-0.137
-380.931	201.820	-0.061	0.094
-379.917	-200.000	-0.029	0.181
-378.902	327.141	-0.124	-0.239
-377.888	-12.378	-0.263	-0.173
-376.873	-200.000	0.079	-0.351
-375.858	-121.642	-0.042	-0.007
-374.844	140.755	-0.241	0.320
-373.829	103.715	-0.119	0.140
-372.815	76.809	-0.106	0.113
-371.800	-37.100	0.102	-0.055
-370.785	-99.347	-0.582	0.147
-369.771	-200.000	-0.007	0.068
-368.756	270.209	0.128	0.225
-367.742	25.011	-0.114	0.095
-366.727	797.886	0.082	0.226
-365.712	400.139	-0.134	0.281
-364.698	36.568	-0.268	-0.237
-363.683	89.602	0.029	-0.032
-362.669	233.592	-0.286	0.471
-361.654	563.449	-0.158	0.383
-360.639	472.281	0.101	0.228
-359.625	-200.000	-0.006	0.189
-358.610	-81.690	-0.026	0.008
-357.596	-124.813	-0.151	-0.023
-356.581	-200.000	-0.007	0.228
-355.566	703.427	-0.046	0.122
-354.552	240.050	-0.039	-0.065
-353.537	38.262	-0.257	-0.229
-352.523	-200.000	0.004	-0.051
-351.508	800.000	-0.085	0.245
-350.493	56.824	0.082	0.080
-349.479	800.000	0.070	0.231
-348.464	-169.075	-0.171	-0.006
-347.450	298.543	0.120	-0.221
-346.435	-161.059	0.229	-0.012
-345.420	178.116	-0.075	-0.110
-344.406	209.358	0.329	0.516
-343.391	299.762	-0.071	0.131
-342.377	-20.891	0.088	-0.054
-341.362	328.116	-0.087	0.167
-340.348	393.070	-0.060	-0.125
-339.333	314.575	0.108	-0.204
-338.318	241.881	-0.078	-0.131
-337.304	-200.000	-0.032	0.196
-336.289	-166.780	-0.190	0.008
-335.275	54.096	-0.189	0.182
-334.260	-170.014	-0.191	-0.007
-333.245	-164.143	0.236	-0.011
-332.231	520.775	0.079	-0.184
-331.216	48.122	0.026	-0.024
-330.202	74.135	0.192	0.202
-329.187	-60.962	-0.062	0.026
-328.172	-149.448	0.041	0.003
-327.158	-183.221	0.300	-0.005
-326.143	401.598	-0.074	-0.156
-325.129	216.294	0.117	-0.185
-324.114	185.565	-0.193	-0.287
-323.099	-138.948	0.125	-0.014
-322.085	181.893	0.096	0.141
-321.070	-50.663	-0.229	-0.108
-320.056	-200.000	-0.042	-0.184
-319.041	-28.208	0.163	-0.094
-318.026	-200.000	-0.014	0.106
-317.012	-75.718	0.336	0.119
-315.997	-50.370	-0.435	-0.206
-314.983	-200.000	-0.006	0.171
-313.968	-200.000	0.017	0.403
-312.953	-200.000	0.004	-0.082
-311.939	-200.000	-0.027	-0.246
-310.924	156.657	0.154	0.213
-309.910	-200.000	0.062	0.273
-308.895	201.223	-0.138	-0.212
-307.880	160.816	0.150	0.209
-306.866	-200.000	-0.019	-0.231
-305.851	-72.502	0.210	0.078
-304.837	257.558	-0.108	0.185
-303.822	-150.744	0.127	-0.010
-302.807	800.000	-0.068	-0.286
-301.793	-200.000	-0.009	0.178
-300.778	-145.932	-0.071	0.006
-299.764	-11.925	-0.176	0.115
-298.749	23.817	0.149	-0.123
-297.735	-92.530	-0.521	-0.146
-296.720	141.131	0.086	-0.113
-295.705	-38.466	0.087	-0.046
-294.691	286.936	0.162	0.293
-293.676	-200.000	0.052	-0.229
-292.662	-110.953	-0.057	-0.012
-291.647	-117.208	-0.172	0.031
-290.632	130.970	0.152	-0.195
-289.618	-136.413	0.064	-0.007
-288.603	-22.125	-0.035	0.021
-287.589	-74.263	0.259	-0.094
-286.574	-171.781	-0.478	0.016
-285.559	-98.590	-0.162	-0.041
-284.545	-100.286	0.145	0.036
-283.530	-200.000	-0.002	0.059
-282.516	-51.396	0.470	-0.219
-281.501	-16.644	0.145	-0.092
-280.486	698.692	0.023	-0.061
-279.472	65.228	-0.243	0.245
-278.457	800.000	-0.134	-0.448
-277.443	-200.000	0.023	-0.109
-276.428	-141.527	-0.198	0.020
-275.413	-156.381	-0.219	-0.014
-274.399	-200.000	0.016	-0.096
-273.384	253.299	0.147	-0.250
-272.370	-8.215	0.218	-0.147
-271.355	-61.421	0.166	-0.070
-270.340	-47.349	-0.127	0.062
-269.326	-100.198	0.140	0.035
-268.311	224.961	0.129	0.209
-267.297	725.577	0.046	-0.122
-266.282	-200.000	0.100	-0.651
-265.267	-31.298	-0.107	-0.060
-264.253	-127.572	-0.278	0.040
-263.238	-93.003	-0.035	-0.010
-262.224	-72.705	-0.039	0.014
-261.209	-3.338	0.176	-0.122
-260.195	-157.733	-0.009	0.001
-259.180	800.000	0.026	-0.083
-258.165	-200.000	-0.003	-0.276
-257.151	-26.427	-0.180	0.105
-256.136	-18.732	0.111	0.069
-255.122	-51.938	-0.140	0.065
-254.107	-177.527	0.107	-0.003
-253.092	-200.000	-0.012	-0.125
-252.078	-200.000	-0.011	-0.092
-251.063	-200.000	0.084	-0.441
-250.049	800.000	-0.066	-0.245
-249.034	105.610	-0.189	0.223
-248.019	-200.000	0.003	-0.436
-247.005	19.948	-0.068	-0.055
-245.990	-30.339	-0.290	0.164
-244.976	-77.417	0.414	0.143
-243.961	-85.216	0.101	-0.031
-242.946	800.000	0.058	0.162
-241.932	-43.461	0.207	0.104
-240.917	28.274	-0.091	-0.077
-239.903	501.342	0.117	0.270
-238.888	-20.181	-0.132	0.081
-237.873	-200.000	-0.036	0.211
-236.859	54.305	0.187	0.179
-235.844	-26.567	0.106	0.062
-234.830	-4.168	-0.170	-0.117
-233.815	-191.005	-0.222	-0.002
-232.800	-111.367	0.220	-0.045
-231.786	-200.000	0.039	-0.192
-230.771	197.505	0.171	0.261
-229.757	324.867	-0.131	0.249
-228.742	-79.094	-0.318	0.108
-227.727	-76.818	-0.126	0.044
-226.713	-43.611	0.486	0.244
-225.698	-130.434	0.067	-0.009
-224.684	716.368	-0.120	-0.316
-223.669	179.377	-0.143	-0.209
-222.655	800.000	-0.075	-0.315
-221.640	27.369	0.157	-0.131
-220.625	131.143	-0.101	-0.129
-219.611	800.000	0.106	-0.360
-218.596	800.000	0.082	-0.282
-217.582	-103.487	0.242	-0.057
-216.567	-35.930	0.218	0.117
-215.552	163.992	-0.084	0.117
-214.538	-200.000	0.041	-0.320
-213.523	660.690	0.152	0.389
-212.509	-118.661	-0.251	0.044
-211.494	-124.804	-0.296	0.046
-210.479	343.213	-0.041	0.080
-209.465	-147.741	-0.134	-0.011
-208.450	-122.131	-0.482	-0.079
-207.436	800.000	0.036	0.119
-206.421	354.489	0.051	-0.102
-205.406	140.173	0.122	0.160
-204.392	-186.128	0.265	-0.004
-203.377	-64.443	-0.301	0.122
-202.363	-200.000	0.039	0.250
-201.348	-131.911	0.192	-0.025
-200.333	131.930	0.234	0.299
-199.319	-153.155	-0.197	-0.014
-198.304	720.173	0.124	0.329
-197.290	28.220	-0.119	0.100
-196.275	82.702	0.119	-0.129
-195.260	800.000	-0.074	-0.279
-194.246	107.937	-0.103	-0.122
-193.231	-83.826	0.175	0.056
-192.217	-50.025	0.348	0.164
-191.202	524.190	-0.108	-0.252
-190.187	-136.501	-0.239	-0.028
-189.173	15.271	-0.244	-0.190
-188.158	49.515	-0.235	-0.220
-187.144	-47.039	-0.183	0.089
-186.129	-90.243	0.188	-0.054
-185.114	4.093	0.289	-0.210
-184.100	-181.800	0.202	0.004
-183.085	-200.000	0.055	-0.241
-182.071	-111.195	0.212	-0.043
-181.056	-133.100	0.309	-0.039
-180.042	96.219	-0.274	0.312
-179.027	-200.000	0.013	-0.152
-178.012	-90.728	-0.332	-0.095
-176.998	58.403	-0.230	0.224
-175.983	-35.425	0.221	-0.119
-174.969	-147.747	0.168	0.014
-173.954	293.966	0.108	0.196
-172.939	43.463	0.214	0.194
-171.925	-162.017	0.343	0.017
-170.910	800.000	0.072	0.222
-169.896	-7.956	0.342	-0.229
-168.881	-22.931	0.215	0.129
-167.866	-11.938	0.177	0.116
-166.852	-200.000	0.032	0.252
-165.837	219.323	-0.136	-0.216
-164.823	109.953	-0.077	-0.092
-163.808	-49.911	0.193	-0.091
-162.793	19.198	0.101	0.080
-161.779	-200.000	0.133	0.000
-160.764	-200.000	0.083	-0.462
-159.750	800.000	0.124	0.365
-158.735	-132.082	0.214	-0.028
-157.720	-200.000	0.031	0.349
-156.706	800.000	0.034	0.104
-155.691	-45.999	0.398	0.195
-154.677	-109.309	0.284	-0.060
-153.662	0.509	-0.095	-0.067
-152.647	-200.000	-0.011	-0.071
-151.633	-200.000	0.028	-0.163
-150.618	14.795	0.044	-0.034
-149.604	800.000	0.083	0.349
-148.589	-200.000	-0.000	0.268
-147.574	558.410	0.066	0.159
-146.560	-200.000	-0.016	-0.149
-145.545	800.000	-0.063	0.181
-144.531	86.274	0.017	-0.019
-143.516	-14.936	0.153	-0.098
-142.502	800.000	0.122	-0.493
-141.487	37.427	0.020	0.017
-140.472	82.983	-0.148	-0.160
-139.458	800.000	0.095	0.316
-138.443	-59.010	-0.096	-0.041
-137.429	136.065	-0.082	-0.106
-136.414	-35.812	-0.329	0.177
-135.399	-200.000	0.041	-0.343
-134.385	-137.915	-0.096	0.011
-133.370	-21.006	-0.262	0.159
-132.356	800.000	0.074	0.269
-131.341	-36.569	0.280	-0.149
-130.326	-6.508	-0.010	-0.007
-129.312	-122.238	0.312	-0.051
-128.297	49.268	-0.124	0.116
-127.283	-99.437	-0.112	-0.028
-126.268	511.969	-0.063	0.145
-125.253	-200.000	0.405	0.002
-124.239	-48.808	0.183	0.087
-123.224	151.504	0.076	-0.103
-122.210	-85.392	0.323	0.100
