DTS Sentinel unit serial number:	SN413079Multiplexer serial number:	ORYXHardware model number:	OX4-SRSoftware version number:	ORYX F/W v4.00 Oryx Data Collector v3.7.2.0data status	okinstallation	princeton_trtdifferential loss correction	single-endedforward channel	channel 3reverse channel	N/Adate	2019/09/13time	09:48:34forward acquisition time	60.00reverse acquisition time	0.00gamma	496.2192k internal	0.2324k external	0.2324temperature offset calibration	1.0144default loss term (dB/km)	0.3790temperature slope calibration	1.0000multiplexer offset coefficient	1.0000multiplexer slope coefficient	1.0000fibre end	0.00T internal ref (°C)	29.87T ext. ref 1 (°C)	4.46T ext. ref 2 (°C)	26.69length (m)	temperature (°C)	Stokes	anti-Stokes-747.200	-200.000	0.037	-0.230
-746.185	-200.000	-0.004	0.148
-745.171	800.000	0.112	0.339
-744.156	209.418	-0.134	0.211
-743.142	-8.108	0.275	0.187
-742.127	631.153	-0.079	0.201
-741.112	67.105	0.076	0.078
-740.098	-69.780	0.151	0.058
-739.083	19.963	0.108	0.088
-738.069	3.525	0.060	0.044
-737.054	112.203	0.104	0.126
-736.039	-37.660	0.314	-0.169
-735.025	-5.021	0.075	-0.052
-734.010	478.025	0.144	-0.329
-732.996	-56.220	-0.259	-0.116
-731.981	-59.458	0.302	-0.131
-730.966	125.965	-0.176	-0.224
-729.952	-138.780	-0.421	0.046
-728.937	356.665	-0.074	0.149
-727.923	-29.188	-0.120	-0.070
-726.908	-200.000	0.019	0.123
-725.894	5.385	0.137	0.102
-724.879	-189.924	-0.236	-0.003
-723.864	-118.663	-0.215	-0.038
-722.850	56.910	-0.170	-0.167
-721.835	177.558	-0.017	-0.025
-720.821	-90.477	0.238	-0.069
-719.806	-154.472	0.080	-0.005
-718.791	18.753	-0.147	0.119
-717.777	-200.000	0.010	-0.587
-716.762	27.360	0.207	0.176
-715.748	113.356	-0.147	0.180
-714.733	88.684	-0.241	0.270
-713.718	-115.770	-0.164	-0.031
-712.704	-200.000	-0.014	-0.073
-711.689	-16.673	-0.287	-0.183
-710.675	3.800	-0.403	0.296
-709.660	477.629	-0.110	0.251
-708.645	-200.000	-0.053	0.400
-707.631	125.649	0.149	-0.190
-706.616	252.831	-0.095	-0.163
-705.602	47.990	0.210	-0.198
-704.587	-43.568	0.185	0.094
-703.572	399.657	-0.203	-0.428
-702.558	-143.308	-0.092	-0.009
-701.543	-20.242	-0.245	0.152
-700.529	-6.042	-0.266	0.183
-699.514	-200.000	-0.051	-0.276
-698.499	26.373	-0.114	-0.096
-697.485	-6.828	-0.138	-0.095
-696.470	-115.383	-0.271	0.051
-695.456	55.357	-0.198	0.193
-694.441	-200.000	0.014	0.275
-693.426	16.879	0.165	0.131
-692.412	254.065	-0.118	0.203
-691.397	135.714	-0.144	-0.189
-690.383	-38.383	-0.295	0.157
-689.368	49.131	-0.104	-0.098
-688.354	77.242	0.257	-0.275
-687.339	-56.572	-0.242	-0.108
-686.324	12.872	-0.109	0.085
-685.310	-101.614	0.059	-0.014
-684.295	-200.000	-0.019	-0.345
-683.281	64.919	-0.347	-0.353
-682.266	589.312	-0.095	-0.235
-681.251	114.779	0.302	-0.371
-680.237	-34.752	0.154	-0.085
-679.222	800.000	-0.056	-0.165
-678.208	-200.000	-0.012	0.195
-677.193	98.034	-0.114	0.132
-676.178	408.799	-0.140	-0.298
-675.164	-178.826	-0.074	0.002
-674.149	-51.892	-0.199	0.093
-673.135	-200.000	-0.010	0.147
-672.120	-9.652	-0.082	0.055
-671.105	-55.455	0.254	-0.115
-670.091	558.707	-0.016	-0.040
-669.076	220.368	-0.177	-0.285
-668.062	800.000	0.066	0.217
-667.047	-48.762	-0.184	-0.089
-666.032	-47.025	-0.180	0.089
-665.018	-42.279	0.335	-0.172
-664.003	87.205	-0.183	0.204
-662.989	198.177	-0.095	0.146
-661.974	-172.471	0.186	-0.006
-660.959	535.577	-0.030	-0.071
-659.945	-108.815	-0.210	-0.045
-658.930	-157.087	-0.176	-0.011
-657.916	-58.958	-0.137	-0.059
-656.901	-89.836	0.041	-0.012
-655.886	-130.096	-0.167	0.023
-654.872	-59.524	0.059	-0.025
-653.857	800.000	0.076	-0.266
-652.843	800.000	0.019	-0.079
-651.828	-200.000	-0.028	-0.402
-650.814	-200.000	0.008	0.445
-649.799	238.477	0.102	0.170
-648.784	800.000	0.136	-0.438
-647.770	-100.306	-0.339	-0.085
-646.755	53.565	-0.104	0.101
-645.741	240.321	-0.141	0.236
-644.726	-200.000	-0.030	-0.148
-643.711	426.396	0.100	-0.216
-642.697	-68.718	0.415	0.161
-641.682	-32.397	0.206	0.116
-640.668	128.190	-0.236	-0.302
-639.653	394.059	0.083	-0.174
-638.638	375.275	0.110	0.225
-637.624	66.673	-0.124	0.127
-636.609	135.380	-0.192	-0.251
-635.595	-134.314	0.076	0.009
-634.580	800.000	0.096	0.301
-633.565	-97.252	-0.290	-0.076
-632.551	100.073	-0.038	0.044
-631.536	-25.207	-0.271	-0.162
-630.522	-200.000	0.005	-0.071
-629.507	-200.000	-0.029	-0.153
-628.492	34.647	-0.015	0.014
-627.478	-67.194	0.187	-0.074
-626.463	-95.587	0.379	-0.102
-625.449	800.000	-0.060	-0.183
-624.434	24.546	-0.256	0.213
-623.419	800.000	0.011	0.032
-622.405	-70.491	-0.296	0.113
-621.390	254.045	0.137	0.235
-620.376	61.436	-0.097	0.097
-619.361	-144.095	0.165	0.016
-618.346	-59.255	-0.136	-0.059
-617.332	80.576	-0.069	0.074
-616.317	-200.000	0.052	-0.425
-615.303	-200.000	0.023	-0.218
-614.288	91.797	-0.199	0.225
-613.273	-181.704	-0.145	0.003
-612.259	-124.559	0.013	0.002
-611.244	16.464	0.311	-0.247
-610.230	-200.000	0.012	-0.200
-609.215	42.169	0.250	0.228
-608.201	555.345	0.121	-0.294
-607.186	52.598	-0.086	-0.082
-606.171	-58.350	0.206	-0.090
-605.157	4.045	0.100	0.074
-604.142	800.000	-0.089	0.272
-603.128	106.211	-0.097	-0.116
-602.113	-142.230	-0.095	0.009
-601.098	15.697	0.134	-0.106
-600.084	740.452	-0.068	-0.184
-599.069	91.786	0.097	-0.110
-598.055	86.361	-0.122	-0.135
-597.040	-144.710	-0.164	-0.015
-596.025	-200.000	-0.000	0.005
-595.011	-40.983	0.367	-0.190
-593.996	-25.049	0.380	0.226
-592.982	-200.000	-0.072	0.346
-591.967	-87.890	0.040	0.012
-590.952	-74.559	0.335	-0.121
-589.938	-160.495	-0.245	-0.013
-588.923	-25.199	0.279	-0.166
-587.909	-200.000	0.013	0.224
-586.894	-200.000	-0.017	-0.397
-585.879	-2.360	0.097	-0.068
-584.865	382.133	-0.061	0.126
-583.850	-172.749	0.338	0.011
-582.836	477.799	0.152	-0.346
-581.821	800.000	-0.031	-0.111
-580.806	16.947	-0.063	0.050
-579.792	88.905	0.112	0.125
-578.777	-98.831	0.403	-0.103
-577.763	-139.717	-0.181	0.019
-576.748	437.895	-0.107	-0.233
-575.733	44.800	-0.122	-0.112
-574.719	-48.798	-0.282	-0.136
-573.704	147.707	-0.143	-0.194
-572.690	-129.511	0.097	-0.014
-571.675	438.453	-0.105	-0.231
-570.661	-28.805	-0.015	-0.009
-569.646	-200.000	-0.014	0.103
-568.631	-94.406	0.071	-0.019
-567.617	154.241	0.108	0.149
-566.602	381.861	-0.108	0.223
-565.588	-200.000	0.002	-0.099
-564.573	800.000	0.051	0.175
-563.558	-117.661	0.345	0.062
-562.544	-200.000	0.010	-0.160
-561.529	358.743	0.320	-0.641
-560.515	-28.565	-0.211	0.122
-559.500	291.035	-0.032	-0.059
-558.485	800.000	-0.071	0.290
-557.471	-11.710	-0.380	0.250
-556.456	311.776	-0.050	0.094
-555.442	101.706	0.078	0.091
-554.427	-29.959	0.195	-0.111
-553.412	-200.000	-0.007	-0.143
-552.398	800.000	-0.014	-0.041
-551.383	7.830	-0.165	0.124
-550.369	800.000	-0.090	0.337
-549.354	67.680	-0.072	-0.074
-548.339	-200.000	-0.000	-0.351
-547.325	-200.000	0.021	-0.246
-546.310	-117.950	-0.267	0.048
-545.296	800.000	0.081	0.271
-544.281	800.000	0.070	-0.205
-543.266	-200.000	-0.022	-0.178
-542.252	107.771	-0.092	-0.109
-541.237	65.574	-0.100	-0.102
-540.223	-186.236	0.174	-0.003
-539.208	-161.209	-0.021	0.001
-538.193	-100.157	-0.151	-0.038
-537.179	98.287	0.112	0.129
-536.164	22.047	-0.085	-0.069
-535.150	-166.998	-0.158	-0.006
-534.135	-105.120	0.288	0.066
-533.121	800.000	-0.057	0.162
-532.106	43.974	0.061	-0.056
-531.091	-147.271	-0.074	0.006
-530.077	-200.000	-0.035	0.243
-529.062	-5.120	0.179	-0.123
-528.048	-5.768	0.148	-0.102
-527.033	193.084	0.103	0.155
-526.018	-4.452	0.261	0.181
-525.004	-109.076	-0.213	-0.045
-523.989	94.292	-0.134	0.152
-522.975	-18.638	0.143	-0.089
-521.960	529.051	-0.054	-0.128
-520.945	-37.641	0.027	0.014
-519.931	800.000	0.033	0.137
-518.916	159.128	0.174	0.242
-517.902	-139.000	0.071	0.008
-516.887	-161.774	0.257	0.013
-515.872	800.000	-0.071	0.201
-514.858	-157.715	-0.497	-0.030
-513.843	224.733	0.077	0.124
-512.829	1.256	-0.206	-0.148
-511.814	193.096	0.129	0.195
-510.799	-200.000	-0.003	-0.014
-509.785	56.276	-0.215	0.209
-508.770	198.830	-0.087	-0.133
-507.756	-129.621	0.188	0.026
-506.741	-200.000	-0.015	-0.350
-505.726	83.029	0.163	-0.178
-504.712	-200.000	-0.012	-0.090
-503.697	377.138	0.075	-0.153
-502.683	26.689	-0.277	-0.232
-501.668	71.184	-0.130	-0.134
-500.653	468.420	-0.051	-0.114
-499.639	9.477	0.100	0.076
-498.624	20.304	-0.256	-0.206
-497.610	-105.609	0.201	-0.046
-496.595	-109.852	-0.272	0.057
-495.581	54.244	0.151	0.145
-494.566	-200.000	0.001	-0.018
-493.551	-12.280	-0.219	-0.143
-492.537	-58.925	-0.176	0.076
-491.522	-149.926	-0.116	0.009
-490.508	-200.000	0.031	0.228
-489.493	-80.176	-0.199	-0.067
-488.478	165.580	0.082	0.116
-487.464	256.674	-0.041	-0.070
-486.449	231.631	0.099	0.162
-485.435	140.908	0.110	-0.145
-484.420	454.806	0.121	0.269
-483.405	376.946	-0.067	-0.137
-482.391	-200.000	-0.017	-0.129
-481.376	-120.506	-0.091	-0.015
-480.362	380.873	-0.134	0.275
-479.347	-172.602	-0.283	-0.009
-478.332	-106.885	0.313	-0.069
-477.318	-200.000	0.058	-0.348
-476.303	327.638	-0.049	0.094
-475.289	-23.189	0.119	-0.072
-474.274	74.665	0.261	0.274
-473.259	-200.000	-0.002	0.118
-472.245	90.414	-0.171	-0.191
-471.230	800.000	0.057	0.166
-470.216	-58.609	-0.385	0.167
-469.201	-59.817	0.170	-0.073
-468.186	6.151	-0.232	-0.172
-467.172	-2.538	-0.077	-0.054
-466.157	-41.759	-0.084	-0.043
-465.143	631.680	-0.117	0.296
-464.128	-96.516	0.299	-0.079
-463.113	-77.603	0.361	0.125
-462.099	-101.029	0.069	-0.017
-461.084	70.780	-0.062	0.064
-460.070	-30.213	-0.241	0.137
-459.055	567.316	0.035	-0.085
-458.040	52.674	-0.092	-0.087
-457.026	-200.000	-0.011	0.067
-456.011	715.495	0.076	0.202
-454.997	23.110	0.210	0.172
-453.982	-95.171	0.317	0.085
-452.968	-82.397	0.113	0.037
-451.953	178.629	-0.201	0.292
-450.938	800.000	-0.106	0.339
-449.924	-78.799	0.034	-0.012
-448.909	509.746	-0.106	0.247
-447.895	112.129	0.041	0.050
-446.880	800.000	0.033	0.100
-445.865	75.410	0.332	0.349
-444.851	-200.000	0.028	0.157
-443.836	66.957	0.197	-0.201
-442.822	469.073	0.028	-0.063
-441.807	97.488	-0.187	-0.215
-440.792	29.244	-0.021	-0.018
-439.778	64.054	0.201	-0.202
-438.763	800.000	0.049	0.196
-437.749	-200.000	-0.057	0.447
-436.734	35.865	0.127	0.112
-435.719	-53.448	-0.373	-0.170
-434.705	-11.216	-0.233	-0.153
-433.690	26.883	0.166	-0.139
-432.676	-24.037	0.102	0.061
-431.661	-83.900	-0.177	0.056
-430.646	800.000	-0.049	0.181
-429.632	198.154	0.220	0.336
-428.617	-200.000	-0.084	0.000
-427.603	-142.556	-0.512	-0.050
-426.588	-200.000	0.014	-0.117
-425.573	-200.000	-0.122	0.000
-424.559	-92.129	-0.121	-0.034
-423.544	-60.476	-0.108	-0.046
-422.530	241.976	-0.107	0.178
-421.515	-165.059	-0.337	-0.015
-420.500	132.908	0.090	-0.116
-419.486	-11.175	0.081	0.053
-418.471	-115.237	0.129	-0.024
-417.457	-28.330	0.115	-0.066
-416.442	749.118	0.089	-0.238
-415.428	152.331	-0.090	-0.123
-414.413	-63.892	0.210	-0.085
-413.398	-200.000	-0.044	0.368
-412.384	189.856	0.225	0.336
-411.369	-200.000	-0.092	0.449
-410.355	160.665	-0.279	-0.388
-409.340	340.867	0.151	-0.294
-408.325	-94.511	0.109	-0.030
-407.311	-200.000	-0.021	-0.192
-406.296	112.195	0.205	-0.247
-405.282	-148.170	0.278	0.023
-404.267	642.644	0.097	-0.247
-403.252	-80.392	0.499	-0.166
-402.238	-41.024	-0.167	0.086
-401.223	75.286	-0.206	0.217
-400.209	31.841	0.143	-0.123
-399.194	-56.940	-0.072	0.031
-398.179	-118.685	-0.104	-0.018
-397.165	307.283	0.206	0.383
-396.150	79.759	0.126	-0.134
-395.136	-32.335	0.133	0.074
-394.121	4.977	-0.284	0.208
-393.106	27.380	-0.171	0.143
-392.092	-200.000	-0.005	0.121
-391.077	32.628	-0.175	0.150
-390.063	-115.742	0.114	0.021
-389.048	41.390	-0.073	0.065
-388.033	-116.989	-0.151	0.027
-387.019	800.000	-0.069	0.233
-386.004	656.992	-0.101	0.259
-384.990	-200.000	0.014	0.359
-383.975	-52.122	-0.044	-0.020
-382.960	-200.000	0.019	0.159
-381.946	-39.158	-0.289	0.151
-380.931	54.956	0.203	-0.195
-379.917	11.319	-0.173	0.132
-378.902	19.530	0.142	-0.114
-377.888	-106.294	0.506	-0.113
-376.873	78.903	0.234	-0.249
-375.858	800.000	0.010	-0.039
-374.844	201.419	-0.114	-0.175
-373.829	104.478	0.146	-0.171
-372.815	-200.000	0.004	0.074
-371.800	139.012	0.130	0.171
-370.785	-64.819	-0.164	0.066
-369.771	-35.891	0.133	-0.072
-368.756	800.000	-0.118	-0.345
-367.742	-200.000	0.001	-0.082
-366.727	-101.299	-0.086	-0.021
-365.712	-144.072	0.089	0.008
-364.698	-200.000	0.050	-0.332
-363.683	-3.441	-0.131	-0.091
-362.669	-200.000	-0.010	-0.190
-361.654	214.956	-0.081	-0.128
-360.639	-60.086	0.181	-0.077
-359.625	-5.710	0.164	-0.112
-358.610	800.000	-0.075	-0.247
-357.596	-8.947	-0.260	-0.173
-356.581	197.811	0.250	-0.380
-355.566	227.903	0.008	-0.013
-354.552	62.360	0.189	-0.188
-353.537	-45.505	-0.125	-0.062
-352.523	86.000	-0.163	-0.178
-351.508	-130.763	0.406	0.054
-350.493	53.481	0.122	-0.116
-349.479	800.000	-0.064	-0.206
-348.464	513.082	0.072	-0.167
-347.450	324.046	0.022	-0.042
-346.435	92.766	0.222	0.249
-345.420	-61.336	0.228	-0.095
-344.406	-200.000	-0.016	0.087
-343.391	127.519	0.158	0.200
-342.377	305.685	0.038	0.071
-341.362	57.369	-0.144	0.140
-340.348	1.762	0.156	-0.112
-339.333	213.667	0.064	0.100
-338.318	520.359	-0.187	0.436
-337.304	-200.000	-0.029	-0.188
-336.289	-12.241	-0.348	0.226
-335.275	97.230	-0.118	0.134
-334.260	62.446	0.106	0.105
-333.245	117.971	-0.078	0.095
-332.231	204.938	-0.280	0.432
-331.216	-17.620	-0.027	-0.017
-330.202	-200.000	-0.021	0.139
-329.187	-200.000	-0.031	-0.153
-328.172	-180.194	0.267	-0.006
-327.158	-83.063	-0.202	0.065
-326.143	-200.000	0.002	0.248
-325.129	619.087	0.090	-0.224
-324.114	152.882	-0.120	0.163
-323.099	-200.000	0.002	-0.009
-322.085	115.118	-0.107	-0.129
-321.070	-127.730	0.151	0.022
-320.056	413.987	0.064	-0.135
-319.041	38.804	-0.207	-0.184
-318.026	-114.114	-0.206	0.040
-317.012	-61.163	-0.094	-0.039
-315.997	7.703	0.189	0.140
-314.983	-200.000	0.045	0.232
-313.968	-40.488	0.073	-0.038
-312.953	122.827	-0.301	0.374
-311.939	-69.616	-0.127	0.048
-310.924	-55.759	-0.326	-0.145
-309.910	303.796	-0.112	-0.206
-308.895	-200.000	-0.042	-0.232
-307.880	365.570	-0.198	-0.396
-306.866	82.079	-0.128	-0.138
-305.851	-20.236	0.087	-0.053
-304.837	-105.270	0.031	-0.007
-303.822	-67.606	-0.118	0.046
-302.807	5.288	-0.076	0.056
-301.793	-119.613	0.083	-0.014
-300.778	72.104	-0.060	-0.062
-299.764	-126.580	0.303	0.045
-298.749	46.218	0.138	-0.127
-297.735	39.186	-0.220	0.195
-296.720	95.672	0.177	-0.201
-295.705	-48.596	0.042	0.020
-294.691	-109.762	-0.253	0.053
-293.676	-81.941	-0.324	0.105
-292.662	42.761	0.266	-0.240
-291.647	-85.470	-0.313	0.097
-290.632	-200.000	0.034	-0.179
-289.618	-200.000	0.026	0.192
-288.603	-93.623	-0.283	-0.078
-287.589	119.911	0.125	-0.154
-286.574	800.000	0.114	0.352
-285.559	119.836	0.089	-0.110
-284.545	646.614	-0.085	0.215
-283.530	-200.000	0.021	0.301
-282.516	-5.435	0.329	0.224
-281.501	-174.251	0.250	0.007
-280.486	591.537	-0.073	0.179
-279.472	494.316	0.138	0.313
-278.457	-120.816	-0.437	-0.073
-277.443	178.321	0.130	0.188
-276.428	800.000	0.084	0.300
-275.413	92.807	0.125	0.140
-274.399	44.141	0.219	0.199
-273.384	359.589	0.144	-0.286
-272.370	89.962	-0.132	0.146
-271.355	268.332	-0.134	-0.233
-270.340	800.000	-0.064	0.243
-269.326	-155.682	0.244	-0.016
-268.311	-131.882	0.094	-0.012
-267.297	-4.469	0.174	-0.119
-266.282	2.588	-0.232	-0.167
-265.267	800.000	-0.008	-0.033
-264.253	735.835	-0.052	0.138
-263.238	194.769	0.102	-0.153
-262.224	308.050	-0.157	-0.290
-261.209	449.077	-0.077	-0.168
-260.195	-53.661	-0.199	0.090
-259.180	100.349	0.088	-0.101
-258.165	78.364	-0.065	-0.069
-257.151	-142.553	-0.088	0.009
-256.136	-200.000	-0.044	-0.288
-255.122	80.948	-0.137	-0.147
-254.107	144.959	-0.080	0.105
-253.092	-22.997	0.172	-0.102
-252.078	-160.565	0.185	0.010
-251.063	32.095	0.149	-0.128
-250.049	-99.035	-0.369	0.093
-249.034	499.243	0.074	-0.169
-248.019	-132.337	-0.219	0.028
-247.005	4.895	-0.149	-0.109
-245.990	-0.610	0.111	-0.078
-244.976	-200.000	0.092	-0.462
-243.961	-39.887	-0.134	-0.069
-242.946	186.991	-0.147	-0.217
-241.932	-200.000	0.043	0.351
-240.917	-200.000	-0.017	-0.192
-239.903	-46.492	0.078	-0.038
-238.888	-123.323	-0.171	0.027
-237.873	-200.000	-0.018	-0.149
-236.859	-103.892	0.206	-0.048
-235.844	-106.927	-0.187	0.041
-234.830	-200.000	0.021	-0.270
-233.815	-200.000	-0.011	0.129
-232.800	201.035	0.249	0.380
-231.786	-110.333	-0.249	-0.051
-230.771	-62.536	-0.148	0.061
-229.757	-200.000	-0.005	-0.038
-228.742	-163.520	0.084	-0.004
-227.727	19.602	-0.199	0.158
-226.713	-15.323	-0.085	0.054
-225.698	-112.067	-0.211	0.042
-224.684	55.550	-0.333	0.319
-223.669	-1.144	0.027	-0.019
-222.655	23.237	-0.059	0.048
-221.640	254.383	-0.019	0.032
-220.625	-132.699	0.216	-0.027
-219.611	-54.304	-0.168	-0.075
-218.596	-30.713	0.230	0.129
-217.582	714.390	-0.082	-0.216
-216.567	24.556	0.288	0.235
-215.552	-200.000	0.035	0.340
-214.538	87.137	0.120	0.132
-213.523	-200.000	-0.048	0.392
-212.509	-133.642	-0.102	0.013
-211.494	90.964	0.191	-0.211
-210.479	800.000	0.109	0.316
-209.465	197.337	-0.037	0.056
-208.450	121.754	-0.091	0.112
-207.436	-200.000	-0.017	0.132
-206.421	273.992	-0.028	0.048
-205.406	128.563	-0.117	-0.148
-204.392	-200.000	0.000	-0.359
-203.377	125.022	0.078	-0.098
-202.363	-125.668	-0.204	-0.030
-201.348	-13.095	-0.327	-0.210
-200.333	-27.268	0.204	-0.118
-199.319	138.462	-0.221	-0.287
-198.304	-142.638	-0.111	0.011
-197.290	-102.620	-0.445	-0.105
-196.275	-93.780	0.213	0.058
-195.260	-200.000	-0.044	-0.344
-194.246	-200.000	-0.021	0.235
-193.231	-125.259	-0.457	0.069
-192.217	-124.862	0.223	0.034
-191.202	97.213	0.144	0.163
-190.187	-187.776	0.236	-0.003
-189.173	800.000	-0.067	-0.232
-188.158	-200.000	-0.040	-0.358
-187.144	28.506	0.116	-0.097
-186.129	65.189	-0.253	0.253
-185.114	127.275	0.206	0.259
-184.100	758.435	-0.078	-0.208
-183.085	-155.583	-0.061	-0.004
-182.071	57.407	0.156	0.151
-181.056	-200.000	-0.069	0.316
-180.042	159.431	-0.102	0.140
-179.027	108.884	0.129	0.152
-178.012	-30.934	0.038	0.021
-176.998	7.641	0.121	0.090
-175.983	800.000	0.066	0.242
-174.969	-67.557	0.224	0.087
-173.954	165.131	-0.196	-0.273
-172.939	-150.175	0.417	-0.032
-171.925	92.168	-0.189	-0.210
-170.910	-200.000	-0.013	0.113
-169.896	272.936	-0.122	-0.212
-168.881	15.144	0.060	-0.046
-167.866	-24.291	-0.062	0.036
-166.852	-132.494	0.240	0.031
-165.837	6.182	0.209	-0.153
-164.823	-3.995	0.143	-0.098
-163.808	-142.855	0.265	-0.025
-162.793	800.000	0.087	0.245
-161.779	33.301	-0.083	-0.071
-160.764	-70.291	0.353	-0.132
-159.750	272.280	-0.162	0.282
-158.735	-200.000	-0.006	-0.331
-157.720	72.672	0.249	0.256
-156.706	-122.575	0.125	0.020
-155.691	-33.266	-0.344	0.188
-154.677	68.088	0.163	0.165
-153.662	-200.000	-0.019	-0.224
-152.647	-200.000	-0.001	0.266
-151.633	164.751	0.210	0.292
-150.618	-77.939	-0.100	0.034
-149.604	145.756	-0.097	-0.129
-148.589	-200.000	0.029	0.210
-147.574	39.138	0.077	0.068
-146.560	706.221	0.032	-0.084
-145.545	-200.000	-0.019	0.195
-144.531	35.190	0.190	0.165
-143.516	81.490	-0.189	-0.202
-142.502	114.837	0.288	-0.346
-141.487	-135.559	-0.265	-0.031
-140.472	-107.390	0.485	-0.105
-139.458	800.000	0.014	0.046
-138.443	-136.939	-0.466	-0.053
-137.429	-200.000	-0.038	-0.218
-136.414	-165.149	0.048	-0.002
-135.399	-75.710	0.155	-0.054
-134.385	-106.726	-0.193	-0.042
-133.370	-83.920	-0.139	-0.044
-132.356	202.186	0.118	-0.179
-131.341	-200.000	0.046	0.385
-130.326	800.000	0.061	-0.241
-129.312	21.262	0.162	0.130
-128.297	538.789	0.067	-0.158
-127.283	300.440	-0.120	-0.218
-126.268	800.000	-0.094	0.337
-125.253	-200.000	0.032	0.159
-124.239	-92.853	-0.134	0.037
-123.224	-159.995	0.073	0.004
-122.210	-200.000	0.043	-0.248
-121.195	263.248	0.055	-0.094
