DTS Sentinel unit serial number:	SN413079Multiplexer serial number:	ORYXHardware model number:	OX4-SRSoftware version number:	ORYX F/W v4.00 Oryx Data Collector v3.7.2.0data status	okinstallation	princeton_trtdifferential loss correction	single-endedforward channel	channel 3reverse channel	N/Adate	2019/09/16time	09:36:35forward acquisition time	60.00reverse acquisition time	0.00gamma	496.2192k internal	0.2320k external	0.2320temperature offset calibration	0.9955default loss term (dB/km)	0.3790temperature slope calibration	1.0000multiplexer offset coefficient	1.0000multiplexer slope coefficient	1.0000fibre end	0.00T internal ref (°C)	32.14T ext. ref 1 (°C)	12.24T ext. ref 2 (°C)	30.00length (m)	temperature (°C)	Stokes	anti-Stokes-747.200	79.841	0.080	0.087
-746.185	800.000	0.009	-0.035
-745.171	-200.000	-0.051	-0.358
-744.156	800.000	-0.057	-0.240
-743.142	66.727	-0.017	-0.017
-742.127	457.060	-0.210	0.471
-741.112	800.000	-0.012	-0.055
-740.098	-34.356	-0.171	0.095
-739.083	-200.000	0.026	-0.529
-738.069	-43.459	-0.052	-0.027
-737.054	469.981	0.121	0.275
-736.039	800.000	-0.093	-0.302
-735.025	456.148	0.090	0.202
-734.010	800.000	-0.138	-0.401
-732.996	-200.000	-0.003	0.261
-731.981	-59.479	0.157	0.068
-730.966	71.265	0.064	0.067
-729.952	-200.000	-0.007	-0.167
-728.937	26.598	-0.206	-0.174
-727.923	107.800	-0.048	-0.057
-726.908	548.724	0.066	0.160
-725.894	-22.413	-0.291	-0.178
-724.879	-11.581	0.031	-0.021
-723.864	-62.859	0.106	0.045
-722.850	-200.000	0.013	0.233
-721.835	36.818	-0.080	0.071
-720.821	-45.356	0.160	0.080
-719.806	46.927	0.077	0.072
-718.791	149.882	0.059	0.081
-717.777	533.465	0.128	-0.306
-716.762	32.276	0.133	-0.116
-715.748	-76.886	-0.213	0.075
-714.733	-28.782	0.202	-0.117
-713.718	-17.189	0.117	0.075
-712.704	171.655	0.290	-0.421
-711.689	76.148	0.139	-0.149
-710.675	-200.000	-0.004	0.047
-709.660	800.000	-0.125	0.483
-708.645	145.722	0.232	-0.314
-707.631	5.194	-0.178	-0.133
-706.616	17.975	-0.149	-0.120
-705.602	-191.255	-0.086	0.001
-704.587	386.094	-0.052	-0.108
-703.572	50.469	-0.273	-0.261
-702.558	-49.586	0.583	0.280
-701.543	306.739	0.047	0.088
-700.529	-2.687	-0.020	-0.014
-699.514	248.350	-0.128	0.218
-698.499	337.295	0.048	0.094
-697.485	-74.845	-0.104	-0.038
-696.470	-200.000	-0.080	-0.363
-695.456	-18.884	-0.125	0.078
-694.441	-151.487	-0.137	-0.010
-693.426	-26.857	-0.016	0.009
-692.412	147.436	-0.179	0.244
-691.397	10.863	-0.113	0.087
-690.383	-110.028	-0.376	0.079
-689.368	-41.912	-0.206	0.107
-688.354	80.138	-0.342	-0.371
-687.339	-200.000	0.029	-0.484
-686.324	24.320	-0.276	0.230
-685.310	-60.404	0.348	-0.149
-684.295	-200.000	0.070	0.376
-683.281	267.872	-0.262	-0.464
-682.266	-177.148	-0.190	-0.005
-681.251	-200.000	-0.009	-0.166
-680.237	-200.000	0.031	-0.423
-679.222	-37.522	-0.134	0.072
-678.208	-200.000	0.050	0.253
-677.193	90.323	-0.221	-0.250
-676.178	47.200	-0.283	-0.266
-675.164	161.980	0.061	-0.086
-674.149	-72.953	-0.200	-0.074
-673.135	-200.000	-0.034	0.203
-672.120	387.699	0.079	-0.164
-671.105	-96.703	-0.262	-0.069
-670.091	545.257	0.126	0.305
-669.076	3.558	-0.149	-0.109
-668.062	447.977	-0.064	-0.141
-667.047	20.774	-0.198	0.161
-666.032	451.785	0.163	-0.363
-665.018	1.697	0.176	-0.128
-664.003	-200.000	0.010	-0.198
-662.989	586.632	-0.014	-0.034
-661.974	490.768	0.214	-0.494
-660.959	-200.000	-0.097	0.000
-659.945	-7.447	-0.116	-0.079
-658.930	-131.187	0.285	0.038
-657.916	-108.146	-0.146	-0.032
-656.901	221.301	-0.092	0.149
-655.886	-71.030	0.132	-0.050
-654.872	-5.613	0.084	0.058
-653.857	800.000	-0.117	-0.350
-652.843	114.688	-0.142	-0.174
-651.828	-69.999	0.193	-0.074
-650.814	50.371	-0.256	0.244
-649.799	-179.478	-0.182	-0.004
-648.784	211.663	0.014	-0.023
-647.770	168.960	-0.100	0.143
-646.755	581.273	-0.082	0.201
-645.741	-200.000	-0.003	-0.085
-644.726	-94.567	-0.209	-0.057
-643.711	-67.879	-0.295	-0.116
-642.697	-40.851	-0.386	-0.201
-641.682	800.000	0.033	-0.139
-640.668	-58.537	0.303	-0.133
-639.653	-95.579	0.306	-0.083
-638.638	547.062	-0.111	-0.268
-637.624	-200.000	0.024	-0.163
-636.609	-61.703	0.097	-0.041
-635.595	-200.000	-0.033	-0.426
-634.580	-134.577	-0.152	0.019
-633.565	-200.000	0.000	-0.371
-632.551	-51.374	-0.192	0.090
-631.536	102.726	-0.203	0.239
-630.522	-98.265	0.095	0.025
-629.507	7.911	0.210	-0.159
-628.492	-172.586	-0.224	-0.007
-627.478	-42.480	0.296	-0.152
-626.463	64.416	-0.068	-0.069
-625.449	8.462	0.177	0.134
-624.434	127.069	0.111	0.142
-623.419	523.901	0.118	0.279
-622.405	170.090	-0.158	0.227
-621.390	-200.000	0.003	-0.057
-620.376	-200.000	0.018	0.133
-619.361	660.465	0.058	-0.150
-618.346	-186.301	-0.449	0.007
-617.332	478.427	0.089	0.204
-616.317	-200.000	0.042	0.222
-615.303	-40.629	-0.214	0.112
-614.288	800.000	-0.067	0.281
-613.273	-79.822	0.139	-0.047
-612.259	-191.583	-0.251	-0.003
-611.244	-133.777	0.158	0.020
-610.230	154.167	0.060	0.082
-609.215	-200.000	-0.001	0.286
-608.201	451.883	0.194	0.432
-607.186	117.552	-0.021	-0.026
-606.171	-34.261	0.210	0.116
-605.157	-200.000	-0.019	0.174
-604.142	3.863	-0.322	0.237
-603.128	-165.385	0.105	-0.005
-602.113	800.000	-0.020	0.082
-601.098	-200.000	-0.063	-0.327
-600.084	800.000	0.161	-0.537
-599.069	48.914	-0.238	0.224
-598.055	356.352	0.110	-0.221
-597.040	18.761	-0.222	-0.179
-596.025	-4.367	0.164	-0.114
-595.011	-200.000	0.028	-0.244
-593.996	502.134	0.155	-0.360
-592.982	-123.470	-0.219	0.035
-591.967	800.000	0.058	0.216
-590.952	-11.928	-0.221	-0.146
-589.938	45.537	-0.121	0.112
-588.923	697.633	0.049	0.129
-587.909	-63.597	-0.138	-0.057
-586.894	800.000	0.020	0.081
-585.879	-62.735	-0.227	0.095
-584.865	-200.000	0.028	0.219
-583.850	-10.624	0.149	0.099
-582.836	-4.054	-0.227	-0.158
-581.821	-123.760	0.113	-0.018
-580.806	627.029	-0.052	-0.131
-579.792	-138.547	-0.218	-0.024
-578.777	185.507	-0.114	0.170
-577.763	519.494	-0.018	-0.041
-576.748	-94.778	-0.196	0.054
-575.733	-200.000	0.002	0.039
-574.719	18.506	-0.123	-0.098
-573.704	-200.000	0.013	-0.063
-572.690	385.797	0.043	-0.089
-571.675	-128.672	0.118	-0.017
-570.661	-92.740	-0.056	0.016
-569.646	800.000	-0.031	0.131
-568.631	800.000	-0.061	-0.225
-567.617	-4.416	-0.209	0.145
-566.602	254.912	0.224	-0.385
-565.588	800.000	0.094	-0.319
-564.573	-22.945	0.443	-0.268
-563.558	179.874	0.071	-0.104
-562.544	800.000	0.131	-0.447
-561.529	-66.357	0.385	-0.154
-560.515	-12.288	-0.041	0.027
-559.500	243.830	-0.162	0.273
-558.485	73.705	0.115	-0.121
-557.471	131.664	0.175	-0.226
-556.456	21.377	0.199	0.162
-555.442	-189.883	0.248	-0.003
-554.427	800.000	-0.086	0.249
-553.412	66.581	0.097	0.099
-552.398	-200.000	0.013	-0.430
-551.383	-108.011	-0.330	0.072
-550.369	-40.256	0.373	0.195
-549.354	-200.000	-0.013	0.076
-548.339	-200.000	0.050	0.377
-547.325	800.000	-0.052	-0.178
-546.310	-55.920	0.330	-0.148
-545.296	103.823	0.213	-0.251
-544.281	-14.035	0.116	0.075
-543.266	800.000	0.021	0.082
-542.252	-99.090	-0.242	0.061
-541.237	140.138	-0.169	0.223
-540.223	-200.000	-0.009	-0.123
-539.208	-48.241	-0.067	0.032
-538.193	73.503	0.192	-0.202
-537.179	-63.372	-0.299	-0.123
-536.164	52.510	0.119	-0.114
-535.150	11.892	0.107	0.082
-534.135	-113.576	-0.106	-0.021
-533.121	-23.023	0.059	0.035
-532.106	-46.961	-0.215	0.105
-531.091	-85.087	-0.244	-0.077
-530.077	-120.521	0.162	0.028
-529.062	800.000	0.054	0.173
-528.048	114.483	-0.165	0.201
-527.033	-49.663	0.095	0.045
-526.018	-153.853	-0.096	-0.007
-525.004	800.000	0.084	0.298
-523.989	-62.501	-0.276	-0.115
-522.975	423.742	-0.147	0.317
-521.960	132.925	-0.120	-0.156
-520.945	-41.581	0.041	0.021
-519.931	0.264	-0.145	-0.104
-518.916	-200.000	-0.037	-0.176
-517.902	75.391	-0.193	0.204
-516.887	189.680	-0.277	0.416
-515.872	64.618	0.053	0.054
-514.858	172.744	0.111	-0.160
-513.843	347.791	0.052	-0.103
-512.829	27.530	-0.299	-0.252
-511.814	-200.000	0.044	0.307
-510.799	-60.974	-0.123	-0.052
-509.785	-200.000	0.000	0.043
-508.770	289.664	-0.105	-0.191
-507.756	89.297	-0.242	-0.271
-506.741	499.969	-0.034	0.078
-505.726	59.280	0.154	-0.152
-504.712	-92.912	0.470	-0.131
-503.697	-141.805	-0.189	-0.019
-502.683	-176.262	0.136	-0.004
-501.668	-200.000	-0.021	-0.388
-500.653	33.906	0.423	-0.369
-499.639	-119.576	-0.184	-0.032
-498.624	-67.671	-0.433	0.170
-497.610	70.660	-0.155	0.161
-496.595	-1.005	-0.240	-0.170
-495.581	170.476	-0.093	0.133
-494.566	-200.000	-0.003	-0.178
-493.551	-102.212	-0.178	0.043
-492.537	-200.000	-0.045	0.206
-491.522	327.191	-0.071	-0.137
-490.508	-200.000	-0.021	-0.105
-489.493	187.373	-0.047	0.070
-488.478	5.416	-0.150	-0.111
-487.464	800.000	0.008	0.023
-486.449	338.106	0.215	-0.419
-485.435	800.000	0.084	0.265
-484.420	3.471	-0.273	-0.199
-483.405	364.686	-0.061	0.123
-482.391	164.231	-0.160	0.226
-481.376	-43.329	-0.370	0.187
-480.362	301.625	-0.077	-0.142
-479.347	-200.000	0.065	-0.337
-478.332	-200.000	-0.015	0.369
-477.318	113.345	0.120	0.145
-476.303	-43.345	0.106	-0.054
-475.289	-148.779	0.152	0.012
-474.274	-200.000	-0.049	0.223
-473.259	492.250	0.091	0.208
-472.245	-124.311	0.440	0.069
-471.230	800.000	0.070	-0.283
-470.216	-145.462	0.007	0.001
-469.201	752.224	-0.162	0.436
-468.186	323.771	0.063	-0.121
-467.172	-65.589	-0.158	-0.064
-466.157	372.566	0.170	-0.346
-465.143	800.000	0.113	-0.381
-464.128	-51.228	-0.173	-0.081
-463.113	-7.338	-0.189	0.128
-462.099	800.000	0.072	0.304
-461.084	19.826	0.089	-0.072
-460.070	-97.195	-0.318	-0.083
-459.055	-137.214	-0.082	-0.009
-458.040	-89.340	0.456	-0.134
-457.026	151.137	0.152	0.207
-456.011	-119.124	-0.130	0.023
-454.997	9.542	-0.288	-0.218
-453.982	-7.125	-0.174	-0.118
-452.968	800.000	-0.076	0.303
-451.953	-133.533	0.095	0.012
-450.938	-149.338	-0.208	0.017
-449.924	-200.000	-0.017	-0.214
-448.909	764.618	0.107	-0.291
-447.895	412.420	-0.097	0.206
-446.880	-35.279	0.506	0.275
-445.865	-39.153	-0.236	0.124
-444.851	-200.000	0.010	0.425
-443.836	-181.795	0.178	-0.003
-442.822	-47.512	-0.053	0.026
-441.807	103.672	-0.083	-0.097
-440.792	114.095	-0.132	-0.160
-439.778	100.982	0.211	0.245
-438.763	-108.190	0.279	0.060
-437.749	588.052	0.209	-0.514
-436.734	800.000	-0.165	-0.549
-435.719	-113.186	-0.329	0.065
-434.705	-111.749	0.130	0.026
-433.690	-111.603	-0.109	-0.022
-432.676	290.674	0.086	-0.156
-431.661	19.795	0.308	-0.247
-430.646	-79.511	0.053	0.018
-429.632	-200.000	-0.065	-0.310
-428.617	-151.530	0.403	-0.030
-427.603	-200.000	0.003	0.191
-426.588	800.000	0.129	-0.382
-425.573	-120.496	0.124	-0.021
-424.559	95.802	-0.313	-0.357
-423.544	800.000	0.073	-0.203
-422.530	800.000	0.114	0.338
-421.515	-101.395	-0.176	-0.043
-420.500	800.000	-0.068	0.263
-419.486	357.070	0.094	0.187
-418.471	15.990	-0.166	0.131
-417.457	-120.705	-0.420	0.071
-416.442	-200.000	0.155	-0.000
-415.428	-105.643	-0.330	-0.075
-414.413	-92.590	0.250	0.070
-413.398	530.026	-0.218	0.514
-412.384	290.721	-0.089	0.161
-411.369	111.984	0.079	-0.095
-410.355	-129.299	-0.252	0.035
-409.340	-43.610	0.252	0.127
-408.325	81.019	-0.090	0.097
-407.311	64.766	0.162	-0.163
-406.296	-54.449	-0.091	-0.041
-405.282	-5.392	0.075	-0.051
-404.267	48.414	-0.054	-0.050
-403.252	211.205	-0.177	0.277
-402.238	-156.880	0.107	-0.007
-401.223	-200.000	-0.024	-0.456
-400.209	113.536	0.114	0.138
-399.194	22.433	0.231	-0.189
-398.179	-200.000	0.064	-0.351
-397.165	-113.026	-0.313	-0.062
-396.150	-93.245	-0.059	0.016
-395.136	69.946	0.177	-0.182
-394.121	-148.146	0.241	-0.020
-393.106	139.889	-0.037	0.049
-392.092	-87.413	0.133	0.040
-391.077	-145.004	0.256	0.023
-390.063	508.678	0.093	-0.215
-389.048	419.969	0.087	-0.185
-388.033	-200.000	-0.016	0.249
-387.019	-22.405	0.151	-0.091
-386.004	-163.937	0.058	-0.003
-384.990	-123.112	0.470	0.075
-383.975	-200.000	-0.015	-0.269
-382.960	-53.964	0.345	0.157
-381.946	-17.657	-0.261	0.163
-380.931	-71.829	-0.322	-0.119
-379.917	328.167	-0.112	0.214
-378.902	117.427	-0.088	-0.107
-377.888	202.750	0.072	-0.110
-376.873	3.660	-0.211	0.154
-375.858	584.603	0.042	0.102
-374.844	-90.242	0.080	0.023
-373.829	-173.295	0.165	0.005
-372.815	-25.953	-0.449	-0.264
-371.800	-139.090	0.281	-0.030
-370.785	-72.683	0.120	0.044
-369.771	-83.780	0.113	0.036
-368.756	36.113	-0.225	-0.197
-367.742	-22.891	0.163	0.098
-366.727	-168.875	0.075	-0.003
-365.712	284.775	0.159	0.286
-364.698	216.372	0.104	0.164
-363.683	-92.349	0.158	0.044
-362.669	800.000	0.078	0.298
-361.654	-200.000	-0.009	0.349
-360.639	-81.292	-0.268	0.088
-359.625	155.020	-0.038	-0.052
-358.610	800.000	0.046	-0.150
-357.596	-104.300	-0.317	0.073
-356.581	351.128	0.040	-0.080
-355.566	800.000	-0.078	-0.322
-354.552	800.000	0.072	0.243
-353.537	92.875	-0.124	0.139
-352.523	-22.333	0.120	0.072
-351.508	-200.000	0.047	0.327
-350.493	-200.000	0.012	-0.311
-349.479	281.397	-0.053	0.094
-348.464	266.089	0.070	-0.121
-347.450	-139.164	-0.007	0.001
-346.435	540.027	-0.094	0.223
-345.420	224.420	-0.065	0.104
-344.406	41.080	-0.177	-0.160
-343.391	162.588	-0.102	-0.143
-342.377	-97.136	-0.337	-0.088
-341.362	-125.076	0.072	0.011
-340.348	46.058	0.313	-0.288
-339.333	165.715	-0.044	0.062
-338.318	-87.305	-0.146	-0.044
-337.304	5.825	0.139	-0.103
-336.289	110.714	0.129	0.155
-335.275	-200.000	0.017	0.473
-334.260	-118.129	0.142	0.025
-333.245	800.000	0.065	0.225
-332.231	83.236	-0.298	0.323
-331.216	174.368	-0.109	0.156
-330.202	-85.822	0.129	-0.040
-329.187	13.283	-0.256	-0.198
-328.172	-98.685	-0.283	0.072
-327.158	-87.095	-0.208	0.063
-326.143	545.147	0.134	0.318
-325.129	57.564	0.278	0.270
-324.114	800.000	0.025	0.072
-323.099	26.021	-0.165	-0.137
-322.085	53.066	-0.150	-0.143
-321.070	306.539	0.078	0.145
-320.056	-200.000	0.001	-0.200
-319.041	-200.000	-0.011	0.284
-318.026	-200.000	-0.013	0.126
-317.012	-69.878	0.088	0.033
-315.997	565.197	0.141	0.341
-314.983	-90.295	-0.192	0.055
-313.968	-137.371	-0.324	-0.037
-312.953	-134.207	-0.076	0.009
-311.939	-114.477	0.484	0.092
-310.924	-200.000	-0.004	0.035
-309.910	-155.248	0.245	-0.016
-308.895	-58.266	0.343	0.148
-307.880	-23.573	0.128	-0.076
-306.866	800.000	-0.069	0.219
-305.851	-117.617	0.109	0.020
-304.837	-108.878	0.432	0.092
-303.822	186.704	0.133	0.197
-302.807	365.109	0.079	0.159
-301.793	206.085	-0.017	0.026
-300.778	66.409	-0.104	0.105
-299.764	-143.403	-0.262	-0.025
-298.749	35.306	-0.036	0.031
-297.735	-1.999	0.112	-0.078
-296.720	77.720	-0.145	-0.154
-295.705	-200.000	-0.013	-0.180
-294.691	-34.380	0.262	0.143
-293.676	-200.000	0.031	0.375
-292.662	-200.000	-0.019	0.206
-291.647	-99.790	0.410	0.102
-290.632	453.753	0.077	-0.170
-289.618	120.348	-0.141	0.174
-288.603	800.000	-0.054	-0.231
-287.589	37.588	-0.064	-0.057
-286.574	-115.470	0.051	-0.010
-285.559	-82.090	-0.255	0.083
-284.545	-129.592	-0.227	0.031
-283.530	-123.773	0.083	0.013
-282.516	-72.478	0.334	0.123
-281.501	156.033	0.020	-0.027
-280.486	-23.271	-0.136	0.081
-279.472	800.000	0.075	0.260
-278.457	252.937	-0.306	-0.518
-277.443	70.139	0.169	0.173
-276.428	429.603	0.116	-0.249
-275.413	-200.000	-0.003	0.341
-274.399	253.888	0.202	-0.343
-273.384	32.738	0.088	-0.075
-272.370	73.456	-0.181	0.189
-271.355	-61.033	0.153	-0.064
-270.340	-79.834	0.208	0.070
-269.326	-189.784	-0.105	-0.001
-268.311	717.823	0.110	-0.291
-267.297	-140.125	-0.115	-0.012
-266.282	-200.000	0.129	0.691
-265.267	66.764	-0.348	0.352
-264.253	599.015	-0.124	-0.306
-263.238	87.227	-0.153	-0.168
-262.224	54.243	-0.138	-0.132
-261.209	5.551	-0.077	-0.056
-260.195	-161.968	-0.313	0.016
-259.180	-200.000	0.123	0.683
-258.165	-70.947	0.127	0.047
-257.151	-200.000	-0.021	0.102
-256.136	-62.839	0.270	-0.111
-255.122	-200.000	-0.022	-0.158
-254.107	136.545	-0.174	0.225
-253.092	549.291	-0.112	0.265
-252.078	-62.786	-0.285	-0.117
-251.063	-200.000	0.005	0.252
-250.049	-200.000	0.033	-0.286
-249.034	-90.204	0.295	-0.085
-248.019	-135.723	-0.082	0.010
-247.005	10.270	0.038	-0.029
-245.990	211.022	-0.034	0.053
-244.976	800.000	-0.007	-0.026
-243.961	-74.360	-0.162	0.058
-242.946	-93.724	0.392	0.107
-241.932	434.423	-0.108	0.234
-240.917	-15.452	0.193	0.122
-239.903	-3.109	0.132	-0.091
-238.888	-200.000	-0.005	0.233
-237.873	-200.000	0.006	-0.252
-236.859	58.486	0.259	-0.252
-235.844	-41.047	-0.195	0.100
-234.830	-129.041	-0.201	0.028
-233.815	97.782	0.124	-0.142
-232.800	-117.234	0.343	-0.062
-231.786	340.460	0.016	-0.030
-230.771	-107.008	0.121	0.026
-229.757	421.778	-0.073	0.155
-228.742	-13.522	-0.166	-0.106
-227.727	-81.223	-0.238	0.078
-226.713	-48.469	-0.353	-0.168
-225.698	-200.000	-0.038	-0.191
-224.684	800.000	-0.060	0.176
-223.669	-47.320	0.255	-0.123
-222.655	-171.156	-0.124	0.004
-221.640	800.000	0.049	0.135
-220.625	-100.027	0.168	-0.042
-219.611	31.290	-0.129	-0.110
-218.596	-200.000	0.088	-0.429
-217.582	800.000	0.069	0.295
-216.567	-92.808	0.297	0.082
-215.552	297.811	0.135	-0.246
-214.538	-45.738	0.124	-0.061
-213.523	215.562	-0.159	-0.250
-212.509	64.227	0.118	-0.118
-211.494	-85.033	0.132	0.041
-210.479	-45.467	-0.390	-0.191
-209.465	-29.398	0.210	-0.119
-208.450	800.000	0.047	-0.153
-207.436	104.285	-0.087	-0.102
-206.421	397.821	-0.159	-0.330
-205.406	-200.000	-0.005	-0.060
-204.392	150.888	-0.108	-0.146
-203.377	-68.027	0.173	-0.067
-202.363	-200.000	0.038	-0.185
-201.348	-200.000	-0.010	-0.179
-200.333	106.584	0.166	-0.195
-199.319	275.593	0.117	-0.205
-198.304	239.554	-0.144	0.238
-197.290	101.844	0.063	0.073
-196.275	62.807	-0.113	-0.112
-195.260	-4.521	-0.222	0.152
-194.246	234.015	0.222	0.361
-193.231	313.168	-0.119	0.221
-192.217	-131.534	-0.183	-0.024
-191.202	467.996	-0.111	-0.246
-190.187	-200.000	-0.028	0.250
-189.173	-72.374	-0.072	0.026
-188.158	800.000	0.116	0.468
-187.144	142.021	0.238	0.312
-186.129	-75.806	0.269	-0.094
-185.114	-127.132	-0.314	-0.045
-184.100	800.000	0.077	-0.256
-183.085	183.257	0.024	0.035
-182.071	800.000	0.062	0.201
-181.056	-200.000	0.021	0.249
-180.042	1.374	0.150	-0.106
-179.027	-61.534	0.358	0.149
-178.012	460.267	-0.173	-0.382
-176.998	-118.076	-0.146	-0.026
-175.983	259.074	0.090	-0.153
-174.969	-175.064	-0.287	-0.008
-173.954	-25.092	0.206	0.121
-172.939	-146.912	-0.081	-0.007
-171.925	-82.260	-0.176	0.057
-170.910	-185.293	0.300	0.005
-169.896	-200.000	-0.026	0.173
-168.881	-151.256	0.229	0.017
-167.866	-42.564	0.136	-0.068
-166.852	272.608	0.049	-0.086
-165.837	-76.361	-0.086	-0.030
-164.823	199.738	0.107	-0.163
-163.808	150.092	0.092	-0.123
-162.793	385.014	0.015	0.030
-161.779	800.000	0.036	-0.111
-160.764	-118.687	0.042	-0.007
-159.750	-200.000	-0.015	-0.265
-158.735	82.187	0.174	0.186
-157.720	-107.676	0.235	-0.051
-156.706	-68.565	-0.036	-0.014
-155.691	-26.669	-0.114	-0.066
-154.677	7.778	0.081	-0.060
-153.662	-200.000	-0.005	0.051
-152.647	-100.319	-0.318	-0.078
-151.633	-68.246	-0.127	-0.049
-150.618	-42.757	0.146	0.073
-149.604	-68.671	0.161	-0.062
-148.589	18.149	0.060	0.047
-147.574	800.000	-0.095	0.353
-146.560	36.843	0.309	-0.270
-145.545	-36.362	-0.148	0.079
-144.531	-101.158	0.330	0.080
-143.516	-200.000	0.005	-0.049
-142.502	623.808	-0.092	0.229
-141.487	65.762	-0.087	-0.087
-140.472	364.959	-0.140	0.278
-139.458	-200.000	0.074	-0.509
-138.443	-200.000	-0.011	0.058
-137.429	-200.000	0.029	-0.232
-136.414	-130.370	-0.345	-0.046
-135.399	-200.000	0.037	-0.291
-134.385	800.000	0.052	-0.155
-133.370	30.154	-0.226	-0.190
-132.356	-49.740	-0.098	-0.046
-131.341	363.418	-0.184	-0.365
-130.326	-96.182	0.255	0.067
-129.312	-64.800	-0.252	0.101
-128.297	2.998	0.108	0.078
-127.283	-168.325	0.125	-0.005
-126.268	513.973	0.049	0.114
-125.253	-125.682	-0.335	-0.050
-124.239	-101.218	-0.069	-0.017
-123.224	-200.000	0.015	0.259
-122.210	-200.000	0.038	0.304
-121.195	-200.000	-0.002	0.194
