DTS Sentinel unit serial number:	SN413079Multiplexer serial number:	ORYXHardware model number:	OX4-SRSoftware version number:	ORYX F/W v4.00 Oryx Data Collector v3.7.2.0data status	okinstallation	princeton_trtdifferential loss correction	single-endedforward channel	channel 3reverse channel	N/Adate	2019/09/18time	18:48:35forward acquisition time	60.00reverse acquisition time	0.00gamma	496.2192k internal	0.2303k external	0.2303temperature offset calibration	0.9998default loss term (dB/km)	0.3790temperature slope calibration	1.0000multiplexer offset coefficient	1.0000multiplexer slope coefficient	1.0000fibre end	0.00T internal ref (°C)	37.20T ext. ref 1 (°C)	0.92T ext. ref 2 (°C)	27.22length (m)	temperature (°C)	Stokes	anti-Stokes-747.200	-125.184	-0.481	0.075
-746.185	-200.000	-0.088	0.413
-745.171	13.215	0.302	-0.239
-744.156	-51.116	-0.367	0.175
-743.142	-200.000	-0.047	0.347
-742.127	90.058	-0.223	0.254
-741.112	-150.561	-0.080	0.006
-740.098	-200.000	-0.048	0.506
-739.083	-67.773	0.253	0.101
-738.069	-58.434	-0.252	0.111
-737.054	394.997	0.124	0.263
-736.039	-97.254	-0.180	-0.048
-735.025	-200.000	-0.018	-0.269
-734.010	-200.000	0.015	-0.198
-732.996	657.260	-0.089	-0.232
-731.981	27.727	0.074	-0.064
-730.966	800.000	0.068	-0.247
-729.952	214.393	-0.125	-0.202
-728.937	800.000	0.094	-0.409
-727.923	-142.375	0.231	0.023
-726.908	-200.000	0.033	-0.447
-725.894	15.908	-0.186	0.149
-724.879	-153.764	0.287	-0.020
-723.864	800.000	-0.052	0.161
-722.850	-84.370	0.119	-0.038
-721.835	45.327	0.074	-0.069
-720.821	401.327	0.081	-0.174
-719.806	-53.460	0.077	0.036
-718.791	23.617	-0.137	0.115
-717.777	-32.388	-0.302	-0.171
-716.762	-113.820	-0.246	-0.049
-715.748	42.969	0.163	-0.151
-714.733	47.749	0.114	-0.108
-713.718	148.079	0.069	-0.094
-712.704	386.064	0.187	-0.393
-711.689	21.473	0.152	0.126
-710.675	85.817	-0.186	-0.208
-709.660	-200.000	-0.007	-0.114
-708.645	3.052	-0.055	0.041
-707.631	-65.447	-0.205	0.084
-706.616	-200.000	-0.033	0.498
-705.602	341.990	-0.043	0.086
-704.587	-200.000	0.024	0.173
-703.572	-200.000	-0.029	0.330
-702.558	800.000	-0.076	-0.225
-701.543	-71.720	-0.125	-0.047
-700.529	428.305	-0.081	-0.179
-699.514	420.420	0.043	0.094
-698.499	57.565	-0.212	-0.211
-697.485	59.632	-0.047	-0.047
-696.470	-53.285	0.200	0.093
-695.456	-200.000	-0.062	0.331
-694.441	-110.135	-0.158	-0.034
-693.426	-119.350	-0.154	-0.027
-692.412	332.210	0.017	-0.033
-691.397	-200.000	0.017	0.166
-690.383	-200.000	0.052	-0.280
-689.368	28.391	0.087	-0.075
-688.354	-22.619	-0.238	-0.146
-687.339	800.000	0.068	-0.195
-686.324	-200.000	-0.041	-0.468
-685.310	-86.101	0.335	-0.105
-684.295	-20.675	-0.353	-0.220
-683.281	-69.042	-0.195	0.076
-682.266	-11.658	-0.276	0.184
-681.251	-86.031	-0.313	-0.098
-680.237	86.515	-0.040	-0.045
-679.222	-47.174	-0.393	0.194
-678.208	-125.144	-0.115	-0.018
-677.193	-200.000	0.058	-0.360
-676.178	-29.763	0.188	0.109
-675.164	-200.000	-0.059	-0.288
-674.149	332.866	-0.097	-0.190
-673.135	152.992	-0.243	0.338
-672.120	219.915	0.086	0.140
-671.105	465.346	0.108	-0.245
-670.091	14.258	-0.317	0.251
-669.076	-14.094	0.128	-0.084
-668.062	71.732	-0.066	0.070
-667.047	-200.000	-0.004	-0.097
-666.032	800.000	0.029	-0.117
-665.018	796.914	-0.100	-0.279
-664.003	69.030	-0.095	-0.099
-662.989	-194.316	-0.247	-0.002
-661.974	-52.484	-0.400	0.188
-660.959	-42.983	0.139	-0.071
-659.945	13.593	0.113	0.089
-658.930	-200.000	0.039	0.204
-657.916	800.000	0.027	-0.112
-656.901	-111.564	-0.397	-0.082
-655.886	-139.319	-0.268	-0.029
-654.872	-105.712	0.147	-0.034
-653.857	800.000	0.015	0.058
-652.843	174.447	-0.221	0.324
-651.828	0.763	0.251	-0.183
-650.814	-12.214	-0.190	0.126
-649.799	-29.948	0.208	-0.120
-648.784	249.389	-0.305	-0.525
-647.770	-200.000	0.015	-0.321
-646.755	271.313	0.137	0.246
-645.741	163.833	-0.197	-0.281
-644.726	800.000	0.110	0.321
-643.711	25.807	0.294	0.248
-642.697	-142.063	0.108	-0.011
-641.682	-200.000	0.010	0.341
-640.668	-200.000	0.016	0.137
-639.653	26.528	-0.169	0.143
-638.638	528.775	-0.005	-0.013
-637.624	326.231	0.016	-0.031
-636.609	-200.000	-0.031	0.155
-635.595	23.333	0.238	-0.198
-634.580	-79.562	-0.434	-0.148
-633.565	800.000	0.122	-0.371
-632.551	-16.574	0.314	-0.202
-631.536	-20.542	-0.253	0.158
-630.522	-200.000	0.021	-0.189
-629.507	-140.064	-0.275	0.029
-628.492	-44.554	-0.190	-0.096
-627.478	151.172	-0.153	0.211
-626.463	191.823	-0.126	0.192
-625.449	-200.000	0.001	-0.098
-624.434	-137.197	0.151	0.017
-623.419	-11.471	-0.226	-0.150
-622.405	-113.027	0.018	-0.004
-621.390	26.222	0.261	0.221
-620.376	309.311	-0.202	0.382
-619.361	77.741	-0.191	-0.207
-618.346	-13.734	-0.061	-0.040
-617.332	30.799	-0.053	0.046
-616.317	-51.319	-0.125	-0.059
-615.303	-200.000	0.024	-0.193
-614.288	201.958	0.077	0.121
-613.273	288.193	0.058	0.106
-612.259	149.937	0.180	-0.248
-611.244	-60.348	0.572	0.247
-610.230	-200.000	0.006	-0.289
-609.215	-75.554	-0.136	-0.049
-608.201	-34.829	0.106	0.059
-607.186	-4.133	0.330	0.231
-606.171	18.551	-0.096	-0.078
-605.157	-200.000	0.017	-0.137
-604.142	691.695	0.136	-0.361
-603.128	-102.797	0.141	0.034
-602.113	-27.543	-0.092	0.054
-601.098	-200.000	-0.027	-0.171
-600.084	800.000	-0.037	0.134
-599.069	-95.389	0.216	-0.059
-598.055	149.139	-0.131	0.180
-597.040	356.560	0.073	-0.147
-596.025	-86.214	0.387	-0.121
-595.011	800.000	-0.022	-0.097
-593.996	-98.990	-0.511	-0.131
-592.982	-137.783	0.129	0.015
-591.967	114.646	-0.077	-0.095
-590.952	295.069	-0.077	0.143
-589.938	-200.000	0.010	-0.181
-588.923	-200.000	0.002	0.197
-587.909	-200.000	-0.056	0.382
-586.894	697.423	-0.049	0.131
-585.879	212.115	-0.244	-0.390
-584.865	460.717	-0.072	-0.162
-583.850	542.880	-0.065	-0.156
-582.836	64.812	0.106	0.108
-581.821	-49.220	-0.290	0.140
-580.806	-100.807	-0.126	-0.031
-579.792	691.088	0.111	-0.294
-578.777	18.378	-0.162	-0.131
-577.763	-200.000	0.049	0.292
-576.748	-10.296	-0.208	0.140
-575.733	800.000	-0.049	-0.140
-574.719	-200.000	-0.006	-0.088
-573.704	-200.000	0.022	-0.178
-572.690	-200.000	-0.003	0.021
-571.675	-108.628	0.284	-0.062
-570.661	19.638	0.155	0.127
-569.646	-56.574	0.180	0.081
-568.631	-32.886	0.185	0.104
-567.617	239.853	0.069	0.116
-566.602	-27.010	0.380	-0.224
-565.588	800.000	0.065	-0.272
-564.573	-200.000	0.013	-0.186
-563.558	-11.993	0.168	-0.111
-562.544	-137.927	-0.057	-0.006
-561.529	267.185	-0.132	-0.233
-560.515	-151.289	-0.381	0.029
-559.500	375.094	-0.090	0.185
-558.485	47.957	-0.049	0.047
-557.471	-47.626	0.183	-0.090
-556.456	32.722	0.017	-0.015
-555.442	225.905	0.169	0.278
-554.427	-63.498	-0.142	-0.059
-553.412	50.842	0.171	0.164
-552.398	-54.060	-0.206	-0.095
-551.383	255.169	0.229	-0.397
-550.369	168.746	0.107	0.154
-549.354	800.000	0.078	0.284
-548.339	-200.000	0.049	-0.418
-547.325	-200.000	0.007	-0.097
-546.310	-200.000	0.023	0.157
-545.296	-88.217	-0.175	0.053
-544.281	-184.258	0.259	-0.004
-543.266	-200.000	0.031	-0.291
-542.252	472.378	-0.168	0.383
-541.237	17.868	0.266	0.214
-540.223	750.741	-0.103	0.282
-539.208	639.209	0.116	-0.299
-538.193	800.000	0.072	-0.319
-537.179	177.259	0.238	0.350
-536.164	-141.995	-0.112	0.011
-535.150	-115.701	-0.306	-0.058
-534.135	8.295	0.178	0.135
-533.121	94.490	0.369	0.424
-532.106	800.000	0.025	-0.078
-531.091	333.081	-0.139	-0.271
-530.077	-200.000	0.017	-0.311
-529.062	-200.000	0.014	-0.166
-528.048	800.000	0.046	0.183
-527.033	122.329	0.062	-0.078
-526.018	-4.572	-0.090	0.063
-525.004	-200.000	0.055	0.268
-523.989	-200.000	-0.036	0.342
-522.975	-73.215	-0.124	0.046
-521.960	142.670	0.044	0.059
-520.945	46.444	0.219	0.205
-519.931	141.553	-0.021	0.029
-518.916	161.424	-0.236	-0.333
-517.902	-50.668	-0.089	0.042
-516.887	87.729	-0.032	-0.036
-515.872	78.764	-0.195	-0.211
-514.858	500.620	-0.076	0.176
-513.843	800.000	-0.101	0.372
-512.829	-80.484	0.209	0.070
-511.814	-146.795	-0.082	0.007
-510.799	271.350	-0.071	0.126
-509.785	410.561	0.035	0.074
-508.770	-56.694	0.194	0.087
-507.756	-110.983	0.320	0.066
-506.741	347.508	0.069	-0.137
-505.726	-122.985	-0.067	0.011
-504.712	-175.638	0.416	0.011
-503.697	47.140	-0.127	-0.119
-502.683	219.796	-0.064	0.103
-501.668	301.437	-0.103	0.192
-500.653	-6.008	0.367	0.253
-499.639	12.558	0.118	-0.092
-498.624	-39.680	-0.123	0.065
-497.610	-200.000	0.006	0.220
-496.595	516.199	0.024	0.057
-495.581	-200.000	-0.014	0.100
-494.566	800.000	0.047	0.197
-493.551	-125.382	0.233	0.036
-492.537	-64.899	0.137	0.056
-491.522	-64.149	-0.024	0.010
-490.508	49.400	0.120	-0.114
-489.493	-167.313	-0.303	-0.012
-488.478	454.184	0.085	-0.189
-487.464	-200.000	0.001	0.450
-486.449	78.400	0.232	0.250
-485.435	-130.996	-0.093	-0.012
-484.420	-200.000	0.007	-0.198
-483.405	71.277	-0.115	0.121
-482.391	-200.000	0.048	0.216
-481.376	-178.590	0.044	0.001
-480.362	-200.000	-0.005	0.160
-479.347	220.986	-0.167	-0.270
-478.332	7.715	-0.255	-0.192
-477.318	135.467	0.078	0.102
-476.303	-200.000	-0.011	0.101
-475.289	-44.052	0.062	0.031
-474.274	-67.203	0.159	-0.063
-473.259	595.731	-0.045	-0.113
-472.245	278.477	0.092	-0.164
-471.230	0.693	-0.259	-0.187
-470.216	383.731	0.127	-0.263
-469.201	-200.000	0.031	-0.166
-468.186	269.819	0.013	-0.024
-467.172	-41.968	0.112	0.058
-466.157	-119.779	0.063	-0.011
-465.143	800.000	0.047	-0.179
-464.128	26.294	-0.226	0.190
-463.113	41.148	0.127	0.116
-462.099	112.188	0.109	-0.133
-461.084	-64.051	-0.311	0.128
-460.070	-140.924	-0.322	-0.033
-459.055	-200.000	0.029	0.170
-458.040	-123.488	0.247	-0.040
-457.026	343.992	0.231	-0.456
-456.011	800.000	-0.117	-0.366
-454.997	-200.000	-0.022	-0.276
-453.982	-82.538	0.172	0.056
-452.968	721.979	-0.058	0.157
-451.953	175.963	-0.121	-0.177
-450.938	65.677	-0.161	0.164
-449.924	471.767	-0.070	-0.159
-448.909	316.510	-0.176	-0.334
-447.895	551.409	-0.176	-0.425
-446.880	800.000	0.095	-0.312
-445.865	-100.960	-0.145	-0.036
-444.851	-200.000	-0.075	-0.392
-443.836	146.841	0.125	0.169
-442.822	81.954	-0.118	0.128
-441.807	800.000	-0.123	-0.359
-440.792	383.478	0.060	-0.124
-439.778	-8.342	0.204	-0.138
-438.763	-42.801	-0.062	0.032
-437.749	800.000	0.042	0.163
-436.734	-118.630	0.199	-0.035
-435.719	800.000	-0.099	0.355
-434.705	-151.408	-0.127	0.009
-433.690	-77.403	-0.225	0.079
-432.676	295.309	-0.133	0.245
-431.661	-200.000	-0.022	-0.101
-430.646	-200.000	-0.046	-0.307
-429.632	-185.160	0.319	-0.005
-428.617	356.133	0.030	-0.061
-427.603	482.523	-0.150	-0.343
-426.588	52.794	-0.249	-0.239
-425.573	28.722	-0.159	-0.136
-424.559	800.000	0.075	0.254
-423.544	-148.888	-0.266	-0.022
-422.530	-200.000	-0.018	-0.271
-421.515	-200.000	-0.107	-0.569
-420.500	800.000	-0.061	-0.224
-419.486	-53.034	-0.133	-0.062
-418.471	306.758	-0.085	-0.158
-417.457	-169.697	0.093	-0.003
-416.442	-151.621	0.068	-0.005
-415.428	-107.172	-0.123	-0.027
-414.413	402.300	-0.111	-0.234
-413.398	-17.421	0.218	0.138
-412.384	120.834	-0.187	-0.234
-411.369	800.000	0.031	-0.102
-410.355	-200.000	0.034	0.238
-409.340	-200.000	-0.054	0.243
-408.325	-34.551	-0.227	-0.125
-407.311	543.541	-0.122	-0.293
-406.296	232.974	-0.121	-0.199
-405.282	-200.000	-0.032	0.271
-404.267	565.411	0.074	-0.181
-403.252	87.021	0.066	0.073
-402.238	37.269	0.163	0.146
-401.223	-190.436	0.113	0.001
-400.209	-54.794	0.282	0.128
-399.194	-200.000	0.013	0.198
-398.179	129.503	0.139	0.178
-397.165	-200.000	-0.103	0.465
-396.150	800.000	-0.122	-0.355
-395.136	421.748	-0.099	-0.214
-394.121	-145.346	-0.324	0.029
-393.106	100.296	-0.083	0.097
-392.092	-58.380	0.367	0.160
-391.077	-109.347	-0.197	0.042
-390.063	138.133	-0.067	-0.088
-389.048	31.756	0.198	-0.171
-388.033	35.117	0.134	-0.118
-387.019	-65.950	-0.300	-0.120
-386.004	-79.854	-0.274	0.093
-384.990	-200.000	0.047	-0.282
-383.975	17.974	-0.269	-0.215
-382.960	122.546	0.085	-0.107
-381.946	-62.661	-0.224	0.093
-380.931	109.153	0.170	0.205
-379.917	102.043	0.016	-0.019
-378.902	-95.747	0.314	-0.084
-377.888	-40.929	-0.246	0.128
-376.873	-200.000	0.017	0.373
-375.858	49.827	-0.309	0.292
-374.844	-200.000	0.002	0.368
-373.829	0.935	0.160	0.115
-372.815	265.768	0.033	-0.057
-371.800	230.892	0.173	0.284
-370.785	-200.000	-0.013	-0.175
-369.771	-60.866	-0.177	-0.075
-368.756	-200.000	-0.010	0.056
-367.742	-164.838	0.261	-0.012
-366.727	-85.086	-0.300	0.094
-365.712	285.805	0.069	0.125
-364.698	800.000	-0.116	0.395
-363.683	-46.052	0.183	-0.091
-362.669	176.878	-0.158	0.230
-361.654	538.840	-0.080	-0.190
-360.639	399.247	0.092	-0.194
-359.625	-14.534	0.253	-0.163
-358.610	-200.000	0.013	0.129
-357.596	-83.408	0.267	-0.086
-356.581	-14.059	0.151	-0.098
-355.566	288.283	0.109	-0.198
-354.552	184.511	0.108	0.160
-353.537	586.145	0.180	-0.445
-352.523	-105.495	-0.144	-0.033
-351.508	-200.000	-0.002	-0.081
-350.493	-38.521	-0.122	-0.065
-349.479	-200.000	0.038	0.237
-348.464	800.000	-0.036	-0.107
-347.450	-200.000	-0.019	-0.136
-346.435	319.640	-0.120	-0.228
-345.420	-17.807	0.166	0.105
-344.406	-127.871	0.150	-0.022
-343.391	-197.629	-0.122	-0.001
-342.377	57.205	-0.021	-0.021
-341.362	38.132	-0.051	-0.046
-340.348	-97.547	-0.234	-0.061
-339.333	8.423	0.114	-0.086
-338.318	800.000	-0.079	0.219
-337.304	-3.228	0.172	0.120
-336.289	-178.630	-0.247	0.006
-335.275	372.131	0.019	0.039
-334.260	-200.000	0.063	0.308
-333.245	-90.222	0.328	-0.096
-332.231	-48.200	0.141	-0.068
-331.216	133.571	0.171	0.222
-330.202	163.081	-0.084	0.119
-329.187	800.000	0.016	0.067
-328.172	-200.000	0.002	-0.079
-327.158	111.710	-0.253	-0.306
-326.143	35.003	-0.056	-0.049
-325.129	87.192	-0.113	-0.125
-324.114	564.246	-0.092	0.223
-323.099	-170.832	-0.281	0.010
-322.085	-12.543	-0.149	0.097
-321.070	-104.352	-0.267	0.062
-320.056	-200.000	-0.093	-0.462
-319.041	-200.000	0.034	0.303
-318.026	542.083	0.068	0.162
-317.012	-200.000	0.005	-0.224
-315.997	-200.000	-0.006	-0.060
-314.983	-24.950	0.187	-0.111
-313.968	-61.698	-0.148	-0.062
-312.953	-0.273	-0.294	-0.209
-311.939	800.000	0.101	-0.302
-310.924	21.839	0.325	-0.265
-309.910	-174.666	0.317	-0.009
-308.895	-149.329	-0.169	0.014
-307.880	51.484	-0.114	0.109
-306.866	-200.000	-0.032	0.157
-305.851	-8.481	0.150	-0.101
-304.837	-200.000	0.060	-0.280
-303.822	92.323	0.043	0.048
-302.807	76.889	-0.148	0.158
-301.793	-60.380	-0.062	0.026
-300.778	339.126	-0.142	0.277
-299.764	18.123	-0.187	-0.149
-298.749	685.903	-0.032	-0.084
-297.735	-200.000	0.019	0.209
-296.720	161.503	-0.024	-0.034
-295.705	-63.887	-0.206	0.084
-294.691	-143.173	0.316	0.030
-293.676	144.544	0.080	-0.106
-292.662	279.517	0.047	0.084
-291.647	-32.532	0.118	-0.066
-290.632	-200.000	0.072	0.325
-289.618	125.663	-0.136	-0.172
-288.603	108.155	-0.127	-0.151
-287.589	-51.500	-0.146	-0.068
-286.574	-49.130	0.071	-0.034
-285.559	-36.017	-0.176	-0.095
-284.545	-15.657	-0.269	0.172
-283.530	800.000	0.029	0.082
-282.516	-75.317	-0.112	-0.040
-281.501	133.264	0.344	0.444
-280.486	-200.000	-0.033	0.293
-279.472	645.461	-0.115	0.295
-278.457	-59.219	0.164	0.071
-277.443	-114.267	-0.126	0.024
-276.428	445.407	0.108	0.237
-275.413	-49.918	-0.257	-0.122
-274.399	-79.289	0.249	-0.084
-273.384	-200.000	-0.014	-0.185
-272.370	800.000	-0.063	-0.267
-271.355	579.741	0.116	0.283
-270.340	378.566	-0.047	-0.096
-269.326	-89.021	0.111	-0.033
-268.311	-200.000	0.008	0.157
-267.297	800.000	0.053	0.229
-266.282	-117.479	-0.216	-0.039
-265.267	-159.489	0.181	-0.010
-264.253	180.294	0.248	0.364
-263.238	42.226	0.057	-0.052
-262.224	-144.804	0.220	0.020
-261.209	-38.160	-0.220	0.116
-260.195	-200.000	0.045	0.246
-259.180	800.000	-0.076	0.264
-258.165	-98.748	0.270	-0.069
-257.151	800.000	-0.070	0.198
-256.136	202.868	0.194	-0.299
-255.122	156.956	0.058	-0.080
-254.107	14.635	0.104	0.081
-253.092	-82.612	-0.231	0.075
-252.078	-81.161	-0.102	0.034
-251.063	-153.846	0.231	0.016
-250.049	-113.201	-0.054	-0.011
-249.034	-30.135	-0.115	-0.065
-248.019	63.757	-0.328	0.330
-247.005	43.280	0.036	-0.033
-245.990	52.845	-0.070	-0.067
-244.976	83.129	0.072	0.078
-243.961	-57.541	0.175	-0.076
-242.946	-92.304	0.390	0.110
-241.932	-179.260	0.214	0.005
-240.917	800.000	0.036	-0.111
-239.903	-71.165	0.195	-0.073
-238.888	-82.413	0.152	0.049
-237.873	20.111	0.249	0.200
-236.859	28.731	0.180	0.152
-235.844	98.218	0.085	-0.097
-234.830	-38.597	0.201	-0.106
-233.815	71.520	-0.019	-0.020
-232.800	144.968	-0.144	0.192
-231.786	-36.209	-0.220	-0.119
-230.771	-131.654	-0.072	0.009
-229.757	-200.000	0.087	-0.416
-228.742	-149.873	0.029	0.002
-227.727	-15.568	0.111	0.071
-226.713	-101.288	0.250	-0.061
-225.698	-89.960	0.292	0.085
-224.684	-127.055	-0.098	0.014
-223.669	251.692	0.193	0.329
-222.655	-200.000	-0.010	-0.139
-221.640	32.682	-0.373	-0.322
-220.625	-119.203	-0.077	-0.013
-219.611	-200.000	-0.006	-0.066
-218.596	382.359	-0.023	0.047
-217.582	-9.891	-0.117	0.078
-216.567	23.016	-0.027	0.022
-215.552	45.658	0.066	-0.061
-214.538	-67.700	0.150	-0.059
-213.523	-136.487	-0.191	0.022
-212.509	800.000	-0.095	0.286
-211.494	-90.903	-0.213	0.061
-210.479	111.698	-0.139	-0.167
-209.465	156.945	0.171	0.235
-208.450	-20.523	-0.113	0.069
-207.436	7.925	-0.052	0.039
-206.421	-96.792	0.327	-0.086
-205.406	-108.361	0.164	-0.035
-204.392	-110.879	0.237	-0.049
-203.377	38.763	-0.026	-0.023
-202.363	313.279	0.135	0.253
-201.348	-128.790	-0.025	-0.004
-200.333	93.778	-0.078	-0.088
-199.319	-150.869	0.248	-0.019
-198.304	-122.627	-0.142	-0.023
-197.290	-46.539	-0.340	0.166
-196.275	-200.000	-0.008	-0.196
-195.260	-200.000	-0.003	0.218
-194.246	6.394	0.069	0.051
-193.231	367.370	0.090	-0.182
-192.217	-147.774	-0.390	0.033
-191.202	-200.000	0.013	-0.102
-190.187	-113.094	-0.171	0.034
-189.173	-118.082	-0.103	0.018
-188.158	557.385	-0.010	-0.025
-187.144	163.744	-0.121	0.170
-186.129	18.557	-0.127	-0.101
-185.114	27.170	0.339	0.283
-184.100	-18.182	-0.191	0.119
-183.085	56.305	-0.141	0.137
-182.071	-65.922	0.144	0.057
-181.056	-200.000	0.045	0.386
-180.042	-200.000	0.006	-0.152
-179.027	240.580	0.145	-0.241
-178.012	176.952	0.210	0.304
-176.998	659.475	0.044	-0.113
-175.983	24.848	-0.131	0.108
-174.969	41.537	-0.174	0.157
-173.954	42.617	0.144	-0.130
-172.939	-42.369	-0.032	0.016
-171.925	-200.000	-0.023	0.189
-170.910	-147.333	-0.274	-0.023
-169.896	-200.000	0.003	-0.063
-168.881	-200.000	0.034	0.193
-167.866	14.514	0.188	0.146
-166.852	-43.748	-0.213	0.107
-165.837	-200.000	0.037	0.163
-164.823	-79.782	-0.122	0.041
-163.808	-200.000	-0.001	0.050
-162.793	-20.016	0.085	0.052
-161.779	-128.760	-0.278	-0.039
-160.764	740.195	0.088	0.236
-159.750	310.071	-0.135	-0.252
-158.735	233.148	0.032	0.053
-157.720	-1.484	0.305	-0.214
-156.706	7.363	-0.388	-0.288
-155.691	701.216	-0.103	0.269
-154.677	161.938	0.071	-0.100
-153.662	248.876	-0.150	-0.253
-152.647	23.999	0.264	0.217
-151.633	-152.466	-0.302	0.022
-150.618	-134.769	-0.306	-0.037
-149.604	282.060	0.126	0.225
-148.589	800.000	0.044	-0.125
-147.574	385.037	0.093	-0.192
-146.560	26.547	0.085	-0.071
-145.545	48.061	0.275	-0.256
-144.531	800.000	-0.044	-0.142
-143.516	175.712	0.188	-0.271
-142.502	62.145	0.281	-0.278
-141.487	-157.474	-0.167	0.010
-140.472	-76.609	0.387	-0.135
-139.458	-46.410	0.365	0.178
-138.443	47.287	-0.156	-0.144
-137.429	-129.639	-0.202	-0.028
-136.414	271.476	-0.054	-0.094
-135.399	626.215	-0.026	-0.065
-134.385	3.813	0.044	0.032
-133.370	190.082	0.105	-0.157
-132.356	-33.369	0.109	0.060
-131.341	569.616	0.073	0.176
-130.326	12.053	-0.265	-0.202
-129.312	32.199	0.172	0.148
-128.297	314.221	-0.166	0.311
-127.283	-200.000	-0.020	0.134
-126.268	-119.127	0.196	0.034
-125.253	-87.918	-0.183	-0.055
-124.239	325.642	-0.133	0.252
-123.224	-200.000	-0.002	0.026
-122.210	-13.702	0.158	0.101
