DTS Sentinel unit serial number:	SN413079Multiplexer serial number:	ORYXHardware model number:	OX4-SRSoftware version number:	ORYX F/W v4.00 Oryx Data Collector v3.7.2.0data status	okinstallation	princeton_trtdifferential loss correction	single-endedforward channel	channel 3reverse channel	N/Adate	2019/09/14time	00:36:35forward acquisition time	60.00reverse acquisition time	0.00gamma	496.2192k internal	0.2340k external	0.2340temperature offset calibration	1.0054default loss term (dB/km)	0.3790temperature slope calibration	1.0000multiplexer offset coefficient	1.0000multiplexer slope coefficient	1.0000fibre end	0.00T internal ref (°C)	26.44T ext. ref 1 (°C)	3.16T ext. ref 2 (°C)	21.10length (m)	temperature (°C)	Stokes	anti-Stokes-747.200	302.861	0.230	0.427
-746.185	106.843	-0.406	0.483
-745.171	-84.016	-0.084	-0.027
-744.156	17.027	0.137	0.109
-743.142	-200.000	0.013	-0.091
-742.127	-106.303	0.114	0.026
-741.112	-82.977	0.329	-0.106
-740.098	79.365	0.139	0.149
-739.083	40.095	0.190	0.171
-738.069	-200.000	-0.010	-0.071
-737.054	-200.000	0.005	-0.199
-736.039	-200.000	-0.014	-0.083
-735.025	-39.700	0.130	0.068
-734.010	-200.000	0.058	0.482
-732.996	800.000	-0.024	-0.072
-731.981	126.372	-0.163	-0.206
-730.966	-200.000	-0.019	-0.169
-729.952	-64.699	0.223	-0.091
-728.937	800.000	-0.038	-0.131
-727.923	-169.926	-0.260	-0.009
-726.908	-104.363	-0.208	-0.048
-725.894	-22.826	0.295	0.178
-724.879	-146.982	-0.159	-0.014
-723.864	800.000	-0.053	-0.151
-722.850	324.795	-0.046	0.089
-721.835	-137.470	-0.161	-0.018
-720.821	-119.674	-0.334	0.058
-719.806	-104.528	-0.062	0.014
-718.791	240.459	0.075	0.126
-717.777	-200.000	0.030	0.537
-716.762	-86.543	-0.347	0.107
-715.748	-40.481	-0.137	0.071
-714.733	740.350	-0.103	-0.276
-713.718	96.372	-0.276	-0.316
-712.704	328.001	0.112	-0.215
-711.689	800.000	-0.057	0.222
-710.675	-90.060	0.398	0.116
-709.660	-142.709	0.260	0.025
-708.645	-70.250	-0.329	0.125
-707.631	-11.692	-0.140	-0.092
-706.616	800.000	-0.052	-0.205
-705.602	-37.745	-0.280	0.149
-704.587	-47.405	-0.294	0.143
-703.572	135.529	0.218	0.284
-702.558	-95.472	-0.334	-0.090
-701.543	-33.401	0.352	-0.195
-700.529	-54.545	-0.136	0.062
-699.514	-25.268	0.088	0.052
-698.499	800.000	0.082	-0.292
-697.485	800.000	0.011	0.037
-696.470	-200.000	0.030	-0.182
-695.456	523.453	-0.081	-0.189
-694.441	-200.000	0.017	-0.146
-693.426	321.214	-0.153	0.292
-692.412	94.791	0.095	0.109
-691.397	-54.954	0.045	-0.020
-690.383	-143.464	-0.167	0.016
-689.368	-56.743	-0.201	-0.089
-688.354	-200.000	-0.006	0.273
-687.339	-154.853	-0.121	-0.008
-686.324	236.932	-0.216	0.358
-685.310	6.302	-0.105	0.078
-684.295	-94.939	-0.281	-0.076
-683.281	-21.197	-0.314	0.192
-682.266	-131.960	-0.247	-0.032
-681.251	-19.125	-0.086	-0.054
-680.237	-157.708	0.241	0.014
-679.222	-13.486	-0.067	-0.043
-678.208	68.779	-0.113	-0.116
-677.193	739.405	0.119	-0.320
-676.178	-103.928	0.194	-0.045
-675.164	-99.075	0.161	0.041
-674.149	-189.245	0.195	0.002
-673.135	756.497	-0.074	0.200
-672.120	198.505	0.100	0.153
-671.105	10.314	-0.159	-0.121
-670.091	41.440	0.313	-0.283
-669.076	331.485	-0.045	-0.087
-668.062	-200.000	0.040	-0.260
-667.047	-101.797	-0.055	0.013
-666.032	-90.768	-0.071	0.020
-665.018	-59.330	-0.070	-0.030
-664.003	-34.343	0.154	-0.084
-662.989	130.156	-0.225	-0.287
-661.974	-79.726	-0.396	0.133
-660.959	-200.000	-0.044	0.325
-659.945	90.987	-0.096	0.108
-658.930	-200.000	0.013	-0.066
-657.916	254.019	-0.026	-0.045
-656.901	-200.000	-0.049	-0.256
-655.886	-75.563	-0.069	0.024
-654.872	-123.281	-0.474	0.076
-653.857	-89.459	0.146	0.043
-652.843	-158.708	0.135	0.008
-651.828	0.613	0.045	-0.032
-650.814	199.528	-0.163	-0.249
-649.799	-146.507	-0.144	0.013
-648.784	646.215	0.079	-0.201
-647.770	-84.240	-0.175	-0.056
-646.755	-200.000	-0.028	0.217
-645.741	231.704	-0.201	0.329
-644.726	-200.000	0.053	-0.387
-643.711	-200.000	-0.076	-0.361
-642.697	80.260	0.215	-0.231
-641.682	61.758	-0.147	0.146
-640.668	-200.000	0.001	-0.029
-639.653	800.000	0.065	0.274
-638.638	121.989	-0.218	-0.271
-637.624	-200.000	-0.029	-0.199
-636.609	-200.000	-0.003	-0.141
-635.595	112.842	0.094	-0.114
-634.580	-52.726	-0.159	-0.073
-633.565	-9.607	-0.292	-0.194
-632.551	653.372	0.086	-0.219
-631.536	41.748	0.149	0.135
-630.522	-200.000	0.098	0.487
-629.507	100.670	-0.146	0.170
-628.492	800.000	-0.051	0.140
-627.478	-137.598	-0.135	0.015
-626.463	263.540	-0.127	-0.221
-625.449	-200.000	-0.011	-0.180
-624.434	-35.701	-0.357	-0.193
-623.419	-134.541	0.310	-0.038
-622.405	290.223	-0.144	-0.261
-621.390	-180.011	0.387	-0.008
-620.376	685.147	-0.057	0.148
-619.361	530.315	-0.071	0.166
-618.346	-118.953	0.235	-0.041
-617.332	296.400	0.059	-0.108
-616.317	-99.454	0.304	-0.076
-615.303	800.000	0.070	0.196
-614.288	-111.656	0.063	-0.013
-613.273	-10.368	0.127	0.084
-612.259	201.654	-0.075	0.115
-611.244	-96.211	0.198	0.052
-610.230	-10.200	0.223	-0.148
-609.215	-155.886	-0.036	0.002
-608.201	-118.400	-0.144	-0.026
-607.186	-96.068	-0.268	0.071
-606.171	-200.000	0.047	-0.208
-605.157	183.528	0.098	-0.144
-604.142	274.678	-0.063	0.111
-603.128	617.404	-0.086	-0.215
-602.113	23.657	-0.107	-0.088
-601.098	392.156	-0.200	-0.414
-600.084	-19.530	0.160	-0.099
-599.069	800.000	-0.065	0.239
-598.055	280.978	-0.043	-0.076
-597.040	-22.406	0.271	-0.163
-596.025	-37.126	-0.179	0.096
-595.011	-80.901	-0.169	0.056
-593.996	-49.789	0.140	-0.066
-592.982	42.811	-0.121	-0.110
-591.967	-200.000	-0.014	-0.323
-590.952	-24.395	0.208	-0.123
-589.938	800.000	-0.130	0.374
-588.923	-43.472	-0.287	-0.145
-587.909	300.809	-0.098	-0.180
-586.894	70.037	0.161	-0.166
-585.879	97.480	-0.249	0.284
-584.865	-200.000	-0.016	0.146
-583.850	146.452	-0.131	0.176
-582.836	-122.500	0.123	0.020
-581.821	9.344	0.201	-0.151
-580.806	800.000	-0.081	-0.275
-579.792	-138.413	0.304	0.033
-578.777	332.131	0.100	-0.192
-577.763	566.632	-0.054	0.130
-576.748	-14.478	-0.269	0.173
-575.733	46.265	-0.013	0.012
-574.719	-141.387	-0.300	-0.030
-573.704	-200.000	-0.003	-0.126
-572.690	-34.177	-0.041	0.022
-571.675	152.947	0.125	-0.170
-570.661	33.492	-0.067	0.058
-569.646	-82.772	0.060	0.019
-568.631	-200.000	0.013	0.228
-567.617	170.335	-0.181	-0.258
-566.602	601.655	0.109	0.270
-565.588	-200.000	-0.003	-0.023
-564.573	276.575	0.211	0.373
-563.558	0.094	-0.315	0.223
-562.544	-102.397	-0.306	-0.073
-561.529	309.124	0.055	-0.102
-560.515	-4.409	-0.313	0.216
-559.500	642.975	-0.042	0.106
-558.485	-99.249	-0.324	0.081
-557.471	442.511	-0.084	0.183
-556.456	-96.601	0.351	-0.092
-555.442	79.556	-0.129	-0.138
-554.427	800.000	0.058	0.167
-553.412	-62.932	-0.168	0.069
-552.398	800.000	0.107	-0.428
-551.383	448.832	0.030	0.066
-550.369	-155.260	0.445	0.029
-549.354	-140.380	0.303	-0.031
-548.339	171.813	0.215	0.307
-547.325	131.996	0.105	-0.135
-546.310	95.225	0.051	-0.058
-545.296	-162.240	-0.248	-0.012
-544.281	75.273	-0.149	-0.156
-543.266	-134.964	0.318	-0.038
-542.252	100.404	-0.104	0.120
-541.237	-36.014	0.439	-0.236
-540.223	-81.409	0.553	-0.181
-539.208	24.926	0.152	0.125
-538.193	-200.000	-0.005	0.083
-537.179	61.341	0.127	0.125
-536.164	-96.394	0.328	-0.086
-535.150	-200.000	0.024	-0.202
-534.135	415.478	0.132	-0.279
-533.121	-200.000	0.049	-0.251
-532.106	-63.570	-0.042	-0.017
-531.091	800.000	-0.079	-0.268
-530.077	-200.000	-0.010	0.182
-529.062	-83.254	0.409	-0.130
-528.048	2.635	-0.229	-0.165
-527.033	668.116	-0.061	-0.156
-526.018	146.133	-0.241	-0.321
-525.004	65.696	0.193	-0.195
-523.989	214.112	0.128	-0.201
-522.975	-107.046	-0.030	0.007
-521.960	8.335	0.162	0.121
-520.945	1.850	0.378	-0.271
-519.931	-200.000	-0.033	-0.422
-518.916	39.005	-0.081	-0.072
-517.902	-25.087	-0.070	0.041
-516.887	578.302	0.061	-0.148
-515.872	-53.207	-0.237	-0.108
-514.858	63.330	0.155	0.154
-513.843	-200.000	-0.051	0.329
-512.829	4.078	0.267	-0.194
-511.814	-200.000	-0.022	-0.104
-510.799	482.258	0.052	0.117
-509.785	77.937	-0.252	0.267
-508.770	700.694	-0.132	0.346
-507.756	308.775	0.163	-0.302
-506.741	-54.267	-0.056	0.025
-505.726	593.330	0.053	-0.131
-504.712	-200.000	-0.021	0.194
-503.697	-106.100	0.152	-0.034
-502.683	-9.807	-0.081	-0.054
-501.668	800.000	0.060	-0.249
-500.653	-118.446	0.100	-0.018
-499.639	84.851	-0.080	0.087
-498.624	29.318	-0.200	-0.169
-497.610	127.420	0.073	0.092
-496.595	128.304	0.225	0.285
-495.581	800.000	-0.094	-0.259
-494.566	-150.031	-0.384	0.030
-493.551	-200.000	-0.037	0.356
-492.537	-145.705	-0.122	0.011
-491.522	-150.942	-0.157	-0.012
-490.508	13.726	0.196	0.151
-489.493	-70.086	0.037	0.014
-488.478	255.706	-0.108	-0.184
-487.464	-200.000	0.010	-0.201
-486.449	-128.311	-0.089	-0.013
-485.435	6.632	-0.065	-0.048
-484.420	-57.405	-0.221	-0.096
-483.405	20.708	-0.130	0.105
-482.391	-122.287	-0.232	0.038
-481.376	-200.000	0.023	0.271
-480.362	375.935	0.093	-0.188
-479.347	-65.427	0.115	0.046
-478.332	-200.000	0.153	0.000
-477.318	19.145	-0.126	0.100
-476.303	-118.415	0.303	0.053
-475.289	800.000	-0.073	-0.281
-474.274	167.564	0.080	-0.112
-473.259	-145.915	-0.124	0.011
-472.245	-153.864	0.133	-0.009
-471.230	13.729	-0.072	-0.055
-470.216	-12.718	-0.228	-0.148
-469.201	137.136	0.116	0.150
-468.186	34.233	-0.253	0.219
-467.172	-200.000	-0.014	0.208
-466.157	-80.899	0.199	0.065
-465.143	-200.000	0.002	-0.060
-464.128	-96.267	-0.188	0.050
-463.113	-99.731	0.204	0.051
-462.099	800.000	-0.024	0.068
-461.084	-200.000	-0.008	0.086
-460.070	-200.000	-0.058	-0.296
-459.055	-200.000	0.006	-0.112
-458.040	-42.362	-0.201	0.102
-457.026	-121.568	-0.291	-0.048
-456.011	-55.992	-0.189	0.084
-454.997	-87.897	0.218	0.065
-453.982	163.446	-0.266	0.371
-452.968	3.203	0.089	-0.064
-451.953	-190.886	-0.469	-0.005
-450.938	-19.206	-0.243	-0.149
-449.924	124.782	0.101	-0.125
-448.909	76.705	-0.160	-0.168
-447.895	-200.000	-0.030	0.399
-446.880	173.669	-0.078	-0.112
-445.865	128.990	0.151	-0.191
-444.851	800.000	-0.052	0.165
-443.836	185.349	0.041	-0.060
-442.822	531.803	-0.109	-0.256
-441.807	-38.051	-0.040	0.021
-440.792	-70.265	-0.207	0.078
-439.778	98.516	0.046	0.052
-438.763	-129.573	-0.252	-0.034
-437.749	-62.767	-0.117	0.048
-436.734	-91.795	0.084	-0.024
-435.719	-85.211	0.194	0.060
-434.705	-111.902	-0.446	0.089
-433.690	202.959	0.112	-0.172
-432.676	416.667	0.106	-0.223
-431.661	-200.000	-0.033	0.193
-430.646	54.278	0.064	0.061
-429.632	165.553	0.135	-0.189
-428.617	-96.748	-0.183	-0.048
-427.603	391.603	-0.136	0.280
-426.588	800.000	0.137	0.381
-425.573	-67.028	0.216	-0.084
-424.559	-72.950	-0.119	0.043
-423.544	-38.517	-0.362	-0.189
-422.530	-200.000	0.038	-0.349
-421.515	-200.000	0.011	-0.167
-420.500	-39.558	0.042	0.022
-419.486	21.592	0.192	0.155
-418.471	176.439	0.080	-0.115
-417.457	-0.610	-0.128	-0.090
-416.442	133.076	-0.325	0.415
-415.428	-57.631	0.239	-0.104
-414.413	-200.000	-0.032	-0.145
-413.398	-147.899	-0.058	0.005
-412.384	30.976	-0.159	-0.135
-411.369	-3.672	0.206	0.141
-410.355	-37.859	0.270	0.142
-409.340	68.513	0.245	-0.248
-408.325	800.000	-0.036	0.132
-407.311	-19.327	-0.023	-0.014
-406.296	192.531	-0.223	0.333
-405.282	-69.335	-0.118	-0.045
-404.267	69.333	-0.101	-0.103
-403.252	-116.723	0.147	0.027
-402.238	-136.087	-0.223	-0.026
-401.223	33.950	0.063	0.054
-400.209	117.975	0.153	0.187
-399.194	273.597	-0.058	0.101
-398.179	-200.000	-0.095	-0.436
-397.165	-200.000	0.085	0.430
-396.150	-86.502	0.261	-0.079
-395.136	-32.110	-0.073	-0.040
-394.121	-31.794	-0.262	-0.145
-393.106	-186.191	0.021	0.000
-392.092	596.289	0.071	0.174
-391.077	-200.000	0.049	0.285
-390.063	-200.000	0.068	0.407
-389.048	-79.298	0.275	-0.092
-388.033	-77.420	0.177	-0.061
-387.019	-62.788	-0.254	-0.104
-386.004	644.200	-0.071	0.179
-384.990	143.055	-0.196	0.258
-383.975	-114.163	0.128	-0.024
-382.960	243.734	0.180	0.299
-381.946	-179.090	-0.077	0.002
-380.931	201.169	0.109	0.165
-379.917	-200.000	0.039	-0.432
-378.902	265.488	-0.240	-0.413
-377.888	-177.293	-0.185	0.005
-376.873	321.396	-0.046	0.086
-375.858	-124.965	-0.283	0.043
-374.844	-79.356	-0.169	0.057
-373.829	26.803	0.232	0.192
-372.815	137.361	-0.155	0.200
-371.800	28.770	-0.161	-0.134
-370.785	21.707	0.075	0.060
-369.771	800.000	-0.056	0.201
-368.756	17.766	0.174	0.137
-367.742	149.152	-0.176	0.235
-366.727	427.148	-0.089	0.191
-365.712	800.000	0.073	0.288
-364.698	269.540	0.116	0.201
-363.683	-122.752	0.235	-0.038
-362.669	75.966	0.193	0.202
-361.654	91.648	0.270	0.300
-360.639	26.197	-0.132	-0.109
-359.625	105.305	0.129	0.151
-358.610	-83.758	0.127	-0.040
-357.596	800.000	-0.084	0.261
-356.581	382.100	-0.005	0.010
-355.566	615.809	0.051	0.125
-354.552	210.703	-0.100	-0.154
-353.537	-8.378	-0.070	0.046
-352.523	9.527	-0.316	-0.236
-351.508	-32.400	0.154	0.085
-350.493	-200.000	-0.015	-0.453
-349.479	456.233	-0.069	0.150
-348.464	6.529	-0.237	0.174
-347.450	-67.763	0.366	-0.141
-346.435	-27.384	0.320	0.184
-345.420	-200.000	-0.016	-0.206
-344.406	-200.000	0.100	-0.442
-343.391	-156.422	0.059	0.004
-342.377	47.198	0.246	-0.226
-341.362	399.847	-0.156	0.323
-340.348	429.224	-0.121	0.259
-339.333	-84.550	-0.248	0.077
-338.318	-138.427	0.067	0.007
-337.304	-200.000	-0.018	0.174
-336.289	37.072	-0.062	0.054
-335.275	-200.000	0.054	0.268
-334.260	46.480	0.147	0.134
-333.245	220.910	-0.204	0.322
-332.231	-38.016	0.209	0.109
-331.216	-110.399	0.254	0.052
-330.202	14.742	-0.139	0.107
-329.187	-200.000	0.014	0.177
-328.172	-200.000	-0.025	0.320
-327.158	800.000	-0.076	0.210
-326.143	-72.961	0.183	0.066
-325.129	-2.151	0.273	0.189
-324.114	495.701	0.145	-0.330
-323.099	-85.424	0.228	0.070
-322.085	-64.854	0.081	0.032
-321.070	144.508	0.139	0.183
-320.056	-200.000	-0.014	0.224
-319.041	-170.416	0.247	-0.009
-318.026	-104.240	-0.277	0.063
-317.012	-128.646	-0.243	0.034
-315.997	-32.416	-0.237	0.130
-314.983	-110.371	0.183	0.037
-313.968	-130.073	0.142	-0.019
-312.953	-98.520	0.181	0.046
-311.939	-76.407	-0.236	-0.082
-310.924	-200.000	-0.035	0.151
-309.910	-16.403	-0.106	-0.066
-308.895	-200.000	0.020	0.105
-307.880	-138.321	-0.169	0.018
-306.866	800.000	0.007	0.020
-305.851	519.990	0.058	0.134
-304.837	394.561	0.125	-0.256
-303.822	322.298	-0.245	0.459
-302.807	-200.000	-0.018	-0.223
-301.793	20.792	0.214	-0.171
-300.778	101.545	-0.110	-0.127
-299.764	-200.000	-0.001	-0.296
-298.749	309.102	-0.035	-0.065
-297.735	-129.231	-0.413	0.057
-296.720	-200.000	0.016	-0.186
-295.705	-111.676	0.360	-0.072
-294.691	31.984	-0.106	0.090
-293.676	-11.193	0.300	-0.195
-292.662	-200.000	-0.032	-0.138
-291.647	665.218	-0.044	0.113
-290.632	-141.935	0.256	0.025
-289.618	-193.127	-0.238	0.002
-288.603	195.941	-0.036	-0.054
-287.589	-81.608	-0.171	-0.055
-286.574	-174.162	0.039	0.001
-285.559	-200.000	-0.001	0.136
-284.545	-131.726	0.321	0.041
-283.530	-78.020	0.194	0.066
-282.516	-200.000	-0.023	-0.247
-281.501	-200.000	0.011	-0.075
-280.486	459.041	-0.070	0.154
-279.472	-26.291	-0.145	0.084
-278.457	-200.000	-0.014	0.205
-277.443	78.914	0.078	-0.082
-276.428	41.353	-0.138	-0.123
-275.413	52.893	-0.084	-0.079
-274.399	321.920	0.110	-0.206
-273.384	-169.561	0.112	-0.004
-272.370	-59.857	-0.174	0.073
-271.355	-66.862	-0.217	0.084
-270.340	-79.670	0.190	0.063
-269.326	-159.058	-0.139	0.008
-268.311	-90.134	0.124	-0.036
-267.297	-189.903	-0.227	0.003
-266.282	221.488	0.069	0.108
-265.267	57.092	0.190	-0.182
-264.253	704.479	0.028	0.074
-263.238	-142.771	-0.280	-0.027
-262.224	36.938	-0.293	0.255
-261.209	55.441	0.173	0.165
-260.195	-200.000	0.205	-0.000
-259.180	-67.187	-0.468	-0.181
-258.165	119.197	0.094	-0.114
-257.151	-142.709	-0.104	0.010
-256.136	-137.652	-0.334	-0.037
-255.122	-144.076	0.113	-0.010
-254.107	-26.491	0.034	0.020
-253.092	-139.496	0.269	0.028
-252.078	279.319	-0.078	0.137
-251.063	-35.629	-0.304	0.162
-250.049	-50.828	-0.248	0.115
-249.034	-49.495	-0.403	0.189
-248.019	-94.288	-0.245	0.066
-247.005	-200.000	-0.050	0.242
-245.990	-200.000	0.040	-0.332
-244.976	-146.137	0.190	0.016
-243.961	-200.000	0.015	-0.229
-242.946	-112.583	0.312	-0.061
-241.932	42.192	0.362	-0.323
-240.917	-128.789	0.187	0.026
-239.903	-86.792	0.155	0.047
-238.888	-41.941	0.354	-0.178
-237.873	-120.995	0.179	0.030
-236.859	156.208	-0.159	0.215
-235.844	215.763	0.267	0.416
-234.830	2.767	-0.180	0.128
-233.815	-200.000	-0.020	-0.240
-232.800	150.158	-0.232	-0.309
-231.786	501.808	0.043	0.098
-230.771	378.632	0.098	0.197
-229.757	-185.000	-0.082	0.001
-228.742	-69.357	-0.166	0.063
-227.727	54.660	0.243	-0.231
-226.713	-90.132	-0.137	0.039
-225.698	6.031	0.246	-0.179
-224.684	-139.263	-0.428	-0.045
-223.669	79.894	0.101	0.107
-222.655	-76.545	0.047	-0.016
-221.640	-103.073	-0.191	-0.045
-220.625	500.034	-0.031	0.071
-219.611	-200.000	0.038	-0.404
-218.596	-135.473	-0.058	0.007
-217.582	-200.000	0.068	-0.490
-216.567	89.061	-0.151	0.165
-215.552	-81.244	0.266	-0.086
-214.538	-115.647	-0.208	-0.038
-213.523	-29.966	0.346	-0.194
-212.509	-145.709	0.083	-0.007
-211.494	358.839	0.066	0.129
-210.479	-101.858	0.079	0.019
-209.465	-200.000	-0.015	0.334
-208.450	-200.000	0.020	0.203
-207.436	800.000	0.153	-0.419
-206.421	207.234	-0.132	0.201
-205.406	451.957	0.166	-0.361
-204.392	-40.783	0.278	0.141
-203.377	18.671	-0.099	0.078
-202.363	60.501	0.285	-0.277
-201.348	-82.987	0.108	0.034
-200.333	-179.658	0.035	-0.001
-199.319	301.026	0.201	-0.364
-198.304	-106.284	-0.194	0.043
-197.290	-104.626	-0.290	-0.066
-196.275	-99.058	0.344	0.086
-195.260	800.000	-0.056	0.219
-194.246	-161.660	0.165	-0.008
-193.231	460.683	0.194	0.423
-192.217	-200.000	0.011	0.145
-191.202	-65.289	0.131	-0.052
-190.187	-200.000	-0.007	0.184
-189.173	0.032	0.133	-0.093
-188.158	-200.000	-0.001	0.152
-187.144	529.384	0.072	0.168
-186.129	186.546	0.091	0.133
-185.114	-200.000	0.047	-0.469
-184.100	10.418	0.162	0.121
-183.085	9.561	-0.210	0.156
-182.071	15.672	-0.104	-0.080
-181.056	-200.000	-0.001	0.038
-180.042	529.099	-0.102	-0.235
-179.027	144.715	-0.031	0.040
-178.012	29.953	-0.191	0.159
-176.998	-66.835	-0.206	-0.080
-175.983	665.958	-0.113	-0.286
-174.969	231.734	-0.084	0.135
-173.954	58.289	0.080	0.077
-172.939	196.733	-0.124	-0.185
-171.925	-25.565	0.292	-0.169
-170.910	188.144	-0.006	0.008
-169.896	213.688	0.176	-0.272
-168.881	800.000	-0.091	0.291
-167.866	-17.123	0.124	0.076
-166.852	-43.963	-0.238	-0.117
-165.837	-62.728	0.244	-0.099
-164.823	-62.924	-0.251	-0.102
-163.808	296.459	-0.077	0.139
-162.793	26.007	-0.110	0.090
-161.779	-92.582	0.132	0.036
-160.764	259.666	-0.064	0.108
-159.750	-200.000	-0.003	0.075
-158.735	-89.495	-0.042	-0.012
-157.720	691.349	-0.057	-0.146
-156.706	-132.270	0.123	0.016
-155.691	-148.246	0.307	-0.025
-154.677	767.226	0.111	-0.295
-153.662	-200.000	0.003	-0.063
-152.647	-165.697	-0.187	0.008
-151.633	-46.443	-0.140	-0.067
-150.618	150.492	-0.107	-0.143
-149.604	-74.683	-0.165	-0.058
-148.589	538.469	0.050	-0.117
-147.574	-61.595	-0.080	-0.033
-146.560	714.603	-0.146	0.379
-145.545	-44.179	-0.137	-0.067
-144.531	48.071	0.192	-0.175
-143.516	-26.170	0.102	-0.059
-142.502	7.341	0.134	0.098
-141.487	-93.047	-0.087	-0.024
-140.472	-200.000	-0.039	0.327
-139.458	32.859	0.182	-0.154
-138.443	109.189	-0.049	-0.058
-137.429	239.648	0.166	0.271
-136.414	457.917	0.106	0.230
-135.399	258.804	0.067	0.113
-134.385	83.179	-0.261	0.278
-133.370	-200.000	0.099	-0.426
-132.356	-19.694	0.272	0.165
-131.341	189.538	-0.096	0.140
-130.326	57.468	0.263	0.252
-129.312	98.818	0.120	0.136
-128.297	86.550	-0.132	0.142
-127.283	-109.962	-0.240	0.049
-126.268	709.367	0.014	0.036
-125.253	-200.000	-0.084	0.380
-124.239	422.590	0.175	0.367
-123.224	-81.676	0.404	0.130
-122.210	800.000	-0.045	0.142
-121.195	-137.562	-0.147	0.016
