DTS Sentinel unit serial number:	SN413079Multiplexer serial number:	ORYXHardware model number:	OX4-SRSoftware version number:	ORYX F/W v4.00 Oryx Data Collector v3.7.2.0data status	okinstallation	princeton_trtdifferential loss correction	single-endedforward channel	channel 3reverse channel	N/Adate	2019/09/19time	14:16:34forward acquisition time	60.00reverse acquisition time	0.00gamma	496.2192k internal	0.2322k external	0.2322temperature offset calibration	1.0001default loss term (dB/km)	0.3790temperature slope calibration	1.0000multiplexer offset coefficient	1.0000multiplexer slope coefficient	1.0000fibre end	0.00T internal ref (°C)	31.69T ext. ref 1 (°C)	1.04T ext. ref 2 (°C)	28.99length (m)	temperature (°C)	Stokes	anti-Stokes-747.200	-98.567	-0.370	-0.096
-746.185	-83.331	0.228	-0.074
-745.171	-200.000	0.030	0.188
-744.156	800.000	0.116	0.342
-743.142	-22.438	-0.121	0.074
-742.127	-153.649	-0.183	0.013
-741.112	-200.000	0.012	0.123
-740.098	9.836	0.259	0.198
-739.083	98.820	-0.163	-0.190
-738.069	164.816	0.217	-0.309
-737.054	-200.000	-0.026	-0.291
-736.039	246.259	0.089	-0.151
-735.025	-108.843	0.230	0.050
-734.010	283.756	-0.141	0.255
-732.996	30.320	-0.149	0.128
-731.981	53.722	-0.236	-0.229
-730.966	-200.000	-0.021	-0.312
-729.952	-200.000	0.009	0.233
-728.937	178.178	-0.109	-0.161
-727.923	-200.000	-0.003	0.218
-726.908	178.723	-0.104	0.153
-725.894	-200.000	0.038	0.196
-724.879	-76.801	-0.544	0.192
-723.864	-22.214	-0.245	-0.150
-722.850	276.689	0.088	-0.159
-721.835	129.359	-0.036	-0.046
-720.821	-30.772	-0.213	-0.122
-719.806	-200.000	0.039	-0.260
-718.791	-200.000	-0.037	-0.187
-717.777	-20.431	-0.068	0.042
-716.762	-200.000	-0.044	-0.374
-715.748	-136.854	0.089	0.010
-714.733	74.254	-0.028	0.029
-713.718	-67.513	0.141	0.056
-712.704	-27.568	0.254	-0.149
-711.689	-137.491	0.257	0.029
-710.675	-180.888	-0.150	0.003
-709.660	-93.485	0.284	-0.079
-708.645	202.220	0.072	0.112
-707.631	84.906	0.044	-0.049
-706.616	-43.739	-0.279	-0.142
-705.602	90.013	0.193	-0.217
-704.587	27.352	0.268	0.227
-703.572	-142.523	-0.395	0.039
-702.558	-114.765	-0.147	0.028
-701.543	63.919	0.191	0.194
-700.529	-11.162	0.121	0.080
-699.514	246.085	-0.154	0.262
-698.499	-200.000	-0.021	-0.271
-697.485	-118.523	-0.315	-0.056
-696.470	-17.925	0.180	-0.114
-695.456	69.592	0.207	0.215
-694.441	800.000	0.048	-0.149
-693.426	-200.000	-0.049	0.316
-692.412	-2.041	0.251	-0.177
-691.397	131.039	0.144	0.186
-690.383	172.206	0.078	-0.113
-689.368	678.200	0.053	-0.139
-688.354	46.523	-0.156	0.146
-687.339	-61.013	-0.289	0.123
-686.324	-162.789	0.463	0.023
-685.310	-122.280	-0.311	0.051
-684.295	-54.283	-0.373	0.171
-683.281	-149.011	-0.267	0.022
-682.266	-21.737	-0.241	0.148
-681.251	-80.855	-0.173	0.058
-680.237	800.000	0.014	0.054
-679.222	-118.947	-0.167	0.029
-678.208	-135.940	0.151	0.018
-677.193	264.926	0.081	0.141
-676.178	800.000	0.134	-0.379
-675.164	-61.521	-0.103	-0.044
-674.149	50.457	-0.268	-0.255
-673.135	-200.000	-0.032	0.183
-672.120	-165.263	-0.246	0.011
-671.105	52.150	0.228	0.219
-670.091	-72.050	0.433	-0.162
-669.076	-79.267	-0.214	-0.073
-668.062	-200.000	-0.077	-0.367
-667.047	-145.059	0.112	-0.010
-666.032	-113.807	-0.336	-0.066
-665.018	800.000	-0.097	-0.320
-664.003	481.492	0.099	0.227
-662.989	-26.955	-0.107	0.063
-661.974	52.963	0.318	0.306
-660.959	553.844	0.029	-0.071
-659.945	-200.000	-0.011	0.114
-658.930	107.911	-0.087	-0.105
-657.916	800.000	-0.044	0.171
-656.901	725.524	-0.187	-0.502
-655.886	800.000	0.026	-0.107
-654.872	-47.169	0.171	0.084
-653.857	-200.000	0.103	-0.000
-652.843	-134.223	-0.271	-0.034
-651.828	6.047	-0.056	-0.041
-650.814	-200.000	0.016	-0.082
-649.799	106.481	-0.127	-0.152
-648.784	-200.000	-0.018	-0.383
-647.770	93.229	0.251	-0.285
-646.755	226.191	0.078	-0.127
-645.741	-200.000	-0.013	-0.306
-644.726	800.000	-0.030	-0.086
-643.711	-31.957	0.174	0.098
-642.697	302.638	-0.148	0.276
-641.682	-200.000	0.022	0.324
-640.668	-134.702	-0.520	-0.064
-639.653	-69.580	0.384	-0.148
-638.638	-200.000	-0.016	0.154
-637.624	-31.718	0.267	0.151
-636.609	265.672	-0.168	-0.295
-635.595	627.611	-0.117	-0.298
-634.580	-200.000	-0.016	0.078
-633.565	800.000	0.036	-0.107
-632.551	96.194	-0.146	-0.168
-631.536	-163.753	0.241	0.011
-630.522	-60.287	0.030	0.013
-629.507	119.742	0.041	0.051
-628.492	-200.000	0.027	0.289
-627.478	-30.811	-0.106	0.060
-626.463	293.289	0.095	-0.175
-625.449	-135.742	-0.117	0.014
-624.434	-22.682	0.043	0.026
-623.419	52.177	-0.148	-0.142
-622.405	-73.572	0.126	0.046
-621.390	-153.819	-0.040	-0.003
-620.376	-29.610	-0.073	-0.042
-619.361	43.791	-0.063	0.058
-618.346	-167.789	0.220	0.009
-617.332	-85.202	0.152	0.048
-616.317	147.068	0.131	0.178
-615.303	0.719	-0.294	-0.211
-614.288	-200.000	-0.054	0.274
-613.273	111.931	0.245	0.298
-612.259	-200.000	-0.004	-0.400
-611.244	-176.065	-0.231	-0.006
-610.230	-108.655	-0.255	0.055
-609.215	25.742	-0.193	0.162
-608.201	161.243	0.055	0.077
-607.186	-200.000	-0.002	-0.287
-606.171	-200.000	0.029	-0.381
-605.157	-35.368	0.379	0.207
-604.142	-157.577	-0.321	-0.019
-603.128	-98.708	-0.416	0.107
-602.113	14.216	0.127	0.100
-601.098	201.916	0.150	-0.232
-600.084	34.852	-0.340	-0.299
-599.069	174.924	-0.036	0.053
-598.055	379.164	0.160	-0.330
-597.040	-200.000	0.029	-0.320
-596.025	-60.514	0.461	-0.197
-595.011	209.592	0.236	-0.371
-593.996	221.220	-0.174	-0.281
-592.982	-110.033	-0.337	0.071
-591.967	-20.121	0.096	0.059
-590.952	-1.019	-0.155	-0.110
-589.938	104.129	-0.126	0.149
-588.923	-180.728	-0.263	-0.005
-587.909	-1.140	0.082	-0.058
-586.894	-200.000	0.021	-0.117
-585.879	1.834	0.107	-0.078
-584.865	89.716	0.123	-0.137
-583.850	-19.822	-0.329	-0.204
-582.836	33.668	-0.087	0.076
-581.821	-122.422	0.430	-0.070
-580.806	-8.337	-0.187	-0.126
-579.792	-200.000	-0.009	-0.420
-578.777	-200.000	-0.007	-0.267
-577.763	-35.129	-0.079	0.043
-576.748	-168.677	0.290	-0.011
-575.733	-122.035	-0.189	0.031
-574.719	-129.346	0.312	-0.044
-573.704	-148.924	0.207	0.017
-572.690	-200.000	-0.078	0.424
-571.675	125.070	0.224	-0.283
-570.661	-78.408	-0.294	-0.101
-569.646	800.000	-0.048	0.197
-568.631	227.489	-0.180	-0.294
-567.617	177.454	-0.341	-0.499
-566.602	-134.736	0.063	0.008
-565.588	-110.335	-0.129	0.027
-564.573	800.000	-0.053	-0.174
-563.558	-200.000	-0.202	-0.000
-562.544	109.226	-0.273	0.328
-561.529	425.284	-0.110	0.238
-560.515	-200.000	-0.045	-0.258
-559.500	-96.626	0.216	0.057
-558.485	-38.419	-0.348	-0.185
-557.471	-200.000	-0.101	0.520
-556.456	5.227	-0.052	0.038
-555.442	232.248	-0.113	0.186
-554.427	-200.000	-0.005	0.234
-553.412	-200.000	0.015	-0.142
-552.398	428.173	0.162	-0.352
-551.383	667.392	0.073	0.190
-550.369	392.121	0.115	-0.240
-549.354	-146.884	0.049	0.004
-548.339	800.000	-0.061	0.263
-547.325	-6.300	-0.081	0.055
-546.310	-200.000	0.029	0.189
-545.296	113.493	-0.170	0.206
-544.281	270.809	0.200	-0.353
-543.266	76.244	-0.086	-0.092
-542.252	-200.000	0.025	-0.212
-541.237	47.846	0.136	-0.127
-540.223	-16.644	-0.137	-0.087
-539.208	-200.000	0.025	0.328
-538.193	-144.182	0.129	0.012
-537.179	-91.656	-0.290	-0.083
-536.164	-200.000	-0.033	0.262
-535.150	-48.794	0.191	-0.092
-534.135	298.285	0.036	-0.067
-533.121	-127.046	0.216	0.032
-532.106	137.902	0.093	0.121
-531.091	-64.232	0.028	-0.011
-530.077	376.064	-0.233	0.476
-529.062	-162.990	-0.222	0.011
-528.048	76.161	0.143	0.151
-527.033	-200.000	0.010	-0.141
-526.018	-166.058	-0.241	-0.010
-525.004	-23.742	0.223	0.134
-523.989	-200.000	-0.013	0.374
-522.975	800.000	0.111	-0.361
-521.960	-200.000	0.029	0.130
-520.945	-129.292	0.278	0.039
-519.931	-129.362	0.386	0.054
-518.916	-35.704	0.185	0.100
-517.902	-97.470	0.333	0.087
-516.887	531.786	-0.115	0.273
-515.872	291.144	0.027	-0.049
-514.858	571.773	-0.107	-0.262
-513.843	-200.000	-0.029	-0.239
-512.829	-96.561	0.292	-0.077
-511.814	16.910	0.026	-0.021
-510.799	-200.000	0.009	0.362
-509.785	19.134	0.081	-0.065
-508.770	63.386	-0.052	0.052
-507.756	-200.000	-0.043	0.206
-506.741	-200.000	0.007	-0.057
-505.726	214.162	0.087	0.138
-504.712	246.581	0.120	-0.203
-503.697	-142.876	-0.225	-0.022
-502.683	800.000	0.081	-0.231
-501.668	-200.000	-0.019	0.192
-500.653	-37.063	-0.089	-0.048
-499.639	-44.054	0.077	0.039
-498.624	-144.631	0.197	0.018
-497.610	800.000	0.060	0.175
-496.595	722.887	0.090	-0.241
-495.581	106.589	0.092	0.109
-494.566	-50.048	-0.100	-0.048
-493.551	663.321	0.069	-0.178
-492.537	-169.070	-0.244	-0.009
-491.522	-200.000	0.004	0.172
-490.508	158.641	0.034	-0.047
-489.493	73.285	0.125	0.131
-488.478	800.000	-0.006	0.022
-487.464	-79.291	0.164	-0.056
-486.449	-200.000	0.031	0.253
-485.435	-128.033	0.251	-0.036
-484.420	12.853	0.190	0.147
-483.405	-49.138	0.208	-0.099
-482.391	16.866	-0.375	0.297
-481.376	-11.847	0.191	0.126
-480.362	42.960	-0.265	0.242
-479.347	-54.479	-0.112	-0.051
-478.332	-172.577	0.126	0.004
-477.318	740.426	-0.101	-0.271
-476.303	-102.261	0.292	0.070
-475.289	-200.000	-0.024	0.150
-474.274	-187.534	-0.281	-0.004
-473.259	106.831	-0.154	-0.183
-472.245	800.000	-0.055	0.225
-471.230	-85.780	0.058	-0.018
-470.216	-68.997	-0.314	-0.121
-469.201	267.735	-0.047	0.081
-468.186	-96.934	0.277	0.073
-467.172	-200.000	-0.025	-0.138
-466.157	800.000	-0.118	0.342
-465.143	-66.253	0.231	-0.092
-464.128	-51.478	-0.441	0.206
-463.113	-200.000	-0.025	-0.155
-462.099	24.117	-0.375	0.309
-461.084	-200.000	0.034	-0.200
-460.070	-22.295	-0.157	-0.095
-459.055	-46.207	-0.445	-0.219
-458.040	-200.000	0.020	0.115
-457.026	-200.000	0.022	-0.228
-456.011	800.000	0.038	-0.111
-454.997	-119.556	0.075	0.013
-453.982	-58.886	0.433	0.187
-452.968	800.000	-0.069	-0.218
-451.953	559.025	0.156	0.377
-450.938	800.000	-0.009	0.034
-449.924	-93.522	0.112	0.031
-448.909	529.101	0.098	0.231
-447.895	25.659	0.103	0.086
-446.880	-184.160	0.185	0.003
-445.865	-12.604	0.264	-0.172
-444.851	358.115	-0.111	-0.221
-443.836	-63.940	-0.238	-0.097
-442.822	-157.397	-0.181	-0.011
-441.807	438.269	0.049	0.106
-440.792	-194.931	-0.302	0.002
-439.778	-62.160	0.093	0.039
-438.763	253.879	-0.094	0.161
-437.749	-200.000	0.047	0.310
-436.734	-115.502	0.136	0.025
-435.719	-8.703	-0.185	-0.124
-434.705	268.640	0.128	0.224
-433.690	58.060	0.069	-0.068
-432.676	-12.055	0.154	0.101
-431.661	228.920	-0.050	0.082
-430.646	-200.000	0.022	0.250
-429.632	-49.608	-0.184	-0.088
-428.617	-200.000	0.018	0.166
-427.603	-97.902	-0.251	0.065
-426.588	-42.238	0.231	0.118
-425.573	-54.617	-0.353	-0.159
-424.559	-200.000	0.038	-0.190
-423.544	-87.561	-0.153	-0.046
-422.530	238.063	-0.088	0.146
-421.515	-200.000	0.020	-0.374
-420.500	-12.489	-0.283	0.184
-419.486	365.485	-0.165	0.332
-418.471	140.504	0.110	0.145
-417.457	257.112	-0.008	0.013
-416.442	-15.007	-0.214	0.137
-415.428	-40.849	0.090	-0.047
-414.413	-74.369	-0.034	0.012
-413.398	-200.000	-0.025	-0.490
-412.384	-200.000	0.035	0.197
-411.369	-200.000	0.017	0.081
-410.355	360.791	-0.088	0.175
-409.340	-19.001	0.305	-0.189
-408.325	-132.667	-0.117	-0.015
-407.311	-200.000	-0.004	-0.238
-406.296	283.242	-0.052	-0.092
-405.282	106.777	-0.212	0.251
-404.267	800.000	-0.083	-0.303
-403.252	800.000	0.049	0.186
-402.238	451.968	-0.109	-0.240
-401.223	-17.545	0.208	0.130
-400.209	199.749	0.085	0.129
-399.194	702.230	-0.117	-0.306
-398.179	800.000	-0.030	0.091
-397.165	533.227	0.049	0.116
-396.150	800.000	0.061	-0.193
-395.136	-159.879	0.294	-0.016
-394.121	-6.100	-0.213	-0.145
-393.106	21.411	0.177	-0.143
-392.092	86.337	-0.133	0.146
-391.077	-179.796	0.489	0.011
-390.063	-21.716	0.229	-0.139
-389.048	58.557	-0.222	0.217
-388.033	-200.000	-0.076	-0.433
-387.019	-200.000	0.001	-0.410
-386.004	-71.244	0.345	0.129
-384.990	-121.358	0.225	-0.037
-383.975	372.581	0.181	0.366
-382.960	53.678	0.246	-0.235
-381.946	48.236	0.133	0.124
-380.931	-35.271	-0.205	-0.111
-379.917	579.149	0.048	-0.117
-378.902	-38.131	-0.285	-0.150
-377.888	-200.000	-0.047	-0.262
-376.873	-28.418	-0.334	0.192
-375.858	800.000	-0.026	0.078
-374.844	122.590	0.152	0.190
-373.829	800.000	-0.111	0.308
-372.815	-200.000	0.005	-0.057
-371.800	-63.174	0.114	-0.047
-370.785	656.387	-0.055	-0.142
-369.771	-200.000	0.031	-0.182
-368.756	-200.000	0.079	0.373
-367.742	237.784	-0.115	0.190
-366.727	76.271	0.225	-0.238
-365.712	-200.000	0.022	0.337
-364.698	463.646	0.179	-0.399
-363.683	-48.946	0.348	0.166
-362.669	85.875	0.062	-0.068
-361.654	-97.918	0.140	0.036
-360.639	-139.234	-0.083	-0.009
-359.625	247.242	0.157	-0.264
-358.610	74.818	0.204	-0.213
-357.596	45.887	-0.208	-0.191
-356.581	191.355	-0.076	-0.114
-355.566	85.119	0.047	-0.051
-354.552	638.640	-0.017	0.042
-353.537	-89.432	0.174	-0.051
-352.523	-78.094	0.308	-0.105
-351.508	800.000	0.079	0.235
-350.493	-71.241	0.082	-0.030
-349.479	-200.000	-0.055	0.241
-348.464	93.308	0.102	0.115
-347.450	-200.000	0.006	-0.267
-346.435	439.818	0.107	0.232
-345.420	-200.000	-0.087	0.479
-344.406	379.302	-0.073	-0.150
-343.391	-61.230	0.249	-0.104
-342.377	-156.853	-0.326	-0.020
-341.362	-170.847	-0.360	0.012
-340.348	65.693	0.031	-0.031
-339.333	-91.473	-0.163	0.046
-338.318	-200.000	-0.047	-0.246
-337.304	363.638	-0.195	0.390
-336.289	258.792	-0.077	-0.131
-335.275	-113.447	-0.275	0.054
-334.260	51.816	-0.167	0.158
-333.245	-200.000	0.025	0.130
-332.231	-200.000	0.052	-0.242
-331.216	70.624	0.139	-0.143
-330.202	-200.000	-0.016	0.308
-329.187	-10.143	-0.138	-0.091
-328.172	184.642	-0.035	0.051
-327.158	-199.554	-0.278	0.001
-326.143	800.000	0.040	0.130
-325.129	-95.587	0.041	-0.011
-324.114	317.544	-0.184	-0.345
-323.099	-200.000	0.032	-0.219
-322.085	-200.000	-0.011	0.268
-321.070	-78.419	-0.187	-0.064
-320.056	-82.688	0.112	0.036
-319.041	246.162	0.040	0.067
-318.026	55.769	-0.122	-0.117
-317.012	-171.735	0.165	-0.005
-315.997	-126.102	-0.251	0.037
-314.983	800.000	0.004	-0.014
-313.968	-84.280	0.072	0.023
-312.953	-200.000	0.002	-0.098
-311.939	-200.000	-0.008	-0.503
-310.924	800.000	-0.056	-0.221
-309.910	-19.940	0.228	0.140
-308.895	35.057	-0.322	-0.280
-307.880	-200.000	0.035	0.200
-306.866	320.284	0.080	0.151
-305.851	800.000	0.052	-0.186
-304.837	-20.092	0.098	-0.060
-303.822	-200.000	0.004	0.451
-302.807	293.047	-0.122	-0.222
-301.793	136.380	0.148	-0.192
-300.778	-16.168	-0.132	-0.083
-299.764	-122.317	-0.150	0.024
-298.749	296.795	-0.086	0.157
-297.735	60.369	0.149	-0.146
-296.720	-126.682	-0.372	0.055
-295.705	800.000	-0.042	-0.181
-294.691	161.568	0.156	-0.217
-293.676	-200.000	0.003	0.175
-292.662	247.719	-0.122	0.205
-291.647	27.481	-0.097	0.081
-290.632	-164.347	0.145	-0.007
-289.618	-124.885	-0.268	-0.041
-288.603	-62.797	-0.117	-0.048
-287.589	93.823	0.109	0.123
-286.574	-200.000	-0.023	0.291
-285.559	-81.401	-0.415	-0.136
-284.545	-200.000	-0.010	-0.111
-283.530	-200.000	0.044	0.353
-282.516	800.000	0.048	0.145
-281.501	-200.000	-0.093	-0.469
-280.486	-47.961	0.034	0.016
-279.472	212.157	0.098	0.154
-278.457	15.347	0.081	0.063
-277.443	-57.112	-0.117	0.051
-276.428	261.543	-0.173	0.297
-275.413	-200.000	-0.020	0.133
-274.399	140.993	0.057	-0.074
-273.384	9.912	0.237	0.179
-272.370	114.193	0.072	0.087
-271.355	-37.063	-0.226	0.120
-270.340	-57.624	0.087	0.038
-269.326	88.930	0.145	-0.160
-268.311	-76.957	-0.390	0.135
-267.297	-200.000	-0.054	0.265
-266.282	485.379	0.013	0.029
-265.267	-112.963	0.145	0.028
-264.253	405.649	0.206	-0.431
-263.238	-200.000	0.008	-0.104
-262.224	102.743	0.134	0.156
-261.209	-34.071	-0.048	-0.026
-260.195	-103.830	-0.161	0.037
-259.180	-200.000	0.027	0.326
-258.165	-200.000	0.036	-0.438
-257.151	102.720	-0.168	-0.195
-256.136	254.231	-0.022	-0.037
-255.122	-85.794	0.179	-0.055
-254.107	-157.732	0.330	-0.019
-253.092	-200.000	-0.047	0.361
-252.078	-200.000	0.003	-0.078
-251.063	-200.000	0.061	-0.359
-250.049	282.910	0.043	-0.077
-249.034	-200.000	-0.023	0.252
-248.019	-200.000	0.018	0.295
-247.005	400.750	0.085	0.177
-245.990	74.471	0.192	-0.200
-244.976	-200.000	0.015	0.129
-243.961	-124.967	0.132	-0.020
-242.946	94.827	0.084	0.095
-241.932	-71.658	-0.309	0.114
-240.917	-200.000	0.011	-0.053
-239.903	800.000	0.027	0.084
-238.888	25.573	0.220	0.181
-237.873	103.236	0.064	0.074
-236.859	549.052	0.090	0.213
-235.844	140.063	0.132	-0.173
-234.830	-200.000	-0.012	0.081
-233.815	-200.000	-0.018	0.192
-232.800	-200.000	0.587	-0.002
-231.786	529.631	-0.049	0.114
-230.771	271.614	0.100	0.175
-229.757	-63.611	0.304	0.123
-228.742	-98.289	0.184	-0.047
-227.727	-200.000	0.033	-0.160
-226.713	-200.000	-0.011	0.066
-225.698	-24.205	0.126	-0.074
-224.684	41.362	-0.142	-0.127
-223.669	-200.000	0.040	0.200
-222.655	-200.000	0.002	-0.062
-221.640	-200.000	-0.049	-0.341
-220.625	107.249	-0.094	-0.110
-219.611	800.000	0.017	0.073
-218.596	-162.273	-0.160	-0.008
-217.582	800.000	-0.016	-0.048
-216.567	-200.000	-0.040	0.298
-215.552	-103.234	0.311	0.073
-214.538	340.312	0.190	-0.367
-213.523	-200.000	0.009	0.241
-212.509	612.736	0.075	-0.186
-211.494	120.919	-0.120	0.148
-210.479	74.676	0.217	0.226
-209.465	-196.437	0.052	-0.000
-208.450	92.518	-0.041	0.046
-207.436	60.194	0.166	-0.162
-206.421	-54.527	-0.296	0.133
-205.406	-200.000	-0.011	0.131
-204.392	-43.517	0.030	-0.015
-203.377	276.989	-0.042	0.074
-202.363	13.569	-0.340	0.261
-201.348	-114.720	-0.191	0.036
-200.333	-105.237	-0.131	0.030
-199.319	-161.513	0.269	-0.014
-198.304	152.598	-0.047	0.064
-197.290	391.636	-0.126	-0.260
-196.275	-187.566	-0.149	-0.002
-195.260	-4.131	-0.123	0.085
-194.246	-119.064	-0.390	-0.068
-193.231	-200.000	-0.040	0.487
-192.217	777.179	-0.076	-0.207
-191.202	-50.334	0.233	-0.109
-190.187	644.478	0.164	-0.413
-189.173	-100.694	-0.271	-0.066
-188.158	-200.000	-0.030	0.196
-187.144	108.677	0.061	-0.072
-186.129	64.476	-0.180	0.180
-185.114	800.000	-0.109	-0.396
-184.100	265.888	0.033	0.057
-183.085	-175.991	-0.189	-0.005
-182.071	158.496	0.190	0.260
-181.056	152.233	0.128	-0.173
-180.042	-127.022	0.212	-0.031
-179.027	800.000	-0.068	0.279
-178.012	-200.000	0.063	0.362
-176.998	-83.009	0.272	0.087
-175.983	54.330	0.304	-0.289
-174.969	26.798	-0.259	0.215
-173.954	-158.314	-0.240	-0.014
-172.939	74.998	-0.148	-0.154
-171.925	-139.502	0.464	0.049
-170.910	-200.000	-0.012	-0.113
-169.896	-86.243	-0.129	-0.039
-168.881	-72.400	-0.204	-0.075
-167.866	238.686	0.089	0.146
-166.852	-10.414	0.167	0.109
-165.837	-65.069	0.142	0.057
-164.823	-146.821	0.308	0.026
-163.808	46.685	-0.164	0.151
-162.793	-183.055	-0.039	0.001
-161.779	-74.460	0.084	0.030
-160.764	396.641	-0.082	0.168
-159.750	124.442	-0.107	0.134
-158.735	275.163	0.150	-0.263
-157.720	800.000	0.122	-0.390
-156.706	-115.854	-0.401	-0.074
-155.691	159.202	0.053	0.073
-154.677	-45.978	-0.306	-0.149
-153.662	524.864	-0.082	-0.189
-152.647	372.475	0.195	0.390
-151.633	800.000	0.093	-0.272
-150.618	238.157	0.078	-0.127
-149.604	800.000	0.060	-0.211
-148.589	465.512	-0.099	-0.218
-147.574	-200.000	0.003	-0.138
-146.560	-95.176	-0.106	-0.028
-145.545	117.698	0.030	-0.037
-144.531	-200.000	-0.033	-0.217
-143.516	-105.717	0.141	0.031
-142.502	191.264	0.114	0.169
-141.487	-200.000	0.057	-0.361
-140.472	188.450	-0.037	0.055
-139.458	-144.690	0.445	-0.040
-138.443	82.111	-0.134	-0.143
-137.429	229.240	-0.096	-0.155
-136.414	-16.696	0.085	-0.053
-135.399	-40.320	-0.142	-0.073
-134.385	-200.000	0.032	0.379
-133.370	325.010	-0.084	0.159
-132.356	-63.850	0.070	-0.028
-131.341	-85.058	0.389	-0.120
-130.326	-65.814	0.272	-0.107
-129.312	-101.285	0.152	0.037
-128.297	-109.614	0.102	-0.021
-127.283	-84.205	-0.186	-0.058
-126.268	-140.017	-0.086	-0.009
-125.253	130.766	0.140	-0.177
-124.239	478.199	0.150	0.334
-123.224	-175.951	-0.205	-0.005
