DTS Sentinel unit serial number:	SN413079Multiplexer serial number:	ORYXHardware model number:	OX4-SRSoftware version number:	ORYX F/W v4.00 Oryx Data Collector v3.7.2.0data status	okinstallation	princeton_trtdifferential loss correction	single-endedforward channel	channel 3reverse channel	N/Adate	2019/09/16time	18:28:35forward acquisition time	60.00reverse acquisition time	0.00gamma	496.2192k internal	0.2306k external	0.2306temperature offset calibration	0.9950default loss term (dB/km)	0.3790temperature slope calibration	1.0000multiplexer offset coefficient	1.0000multiplexer slope coefficient	1.0000fibre end	0.00T internal ref (°C)	36.69T ext. ref 1 (°C)	15.81T ext. ref 2 (°C)	30.15length (m)	temperature (°C)	Stokes	anti-Stokes-747.200	800.000	-0.058	0.192
-746.185	-200.000	-0.043	0.353
-745.171	259.677	0.045	-0.080
-744.156	252.930	0.094	0.163
-743.142	192.917	0.124	0.191
-742.127	-200.000	-0.000	-0.302
-741.112	-101.671	0.184	0.045
-740.098	800.000	0.037	-0.129
-739.083	800.000	-0.058	-0.205
-738.069	7.179	0.105	-0.080
-737.054	254.091	0.102	0.177
-736.039	-200.000	0.007	0.261
-735.025	-200.000	-0.069	0.403
-734.010	800.000	-0.080	-0.265
-732.996	127.812	-0.058	-0.075
-731.981	-200.000	-0.009	-0.221
-730.966	-178.482	-0.124	-0.003
-729.952	-68.996	-0.143	-0.056
-728.937	136.022	0.050	0.066
-727.923	-34.044	-0.171	-0.096
-726.908	800.000	0.083	-0.368
-725.894	192.557	0.189	-0.290
-724.879	-158.502	-0.123	-0.007
-723.864	-200.000	-0.050	0.325
-722.850	-67.642	0.212	0.084
-721.835	66.451	0.135	-0.139
-720.821	-200.000	-0.036	-0.261
-719.806	-70.219	-0.259	0.100
-718.791	13.006	-0.408	0.321
-717.777	287.667	0.121	0.222
-716.762	352.361	0.088	-0.177
-715.748	120.823	0.186	0.236
-714.733	670.195	-0.106	0.278
-713.718	797.938	0.042	-0.117
-712.704	68.064	-0.107	-0.111
-711.689	-37.354	0.056	-0.031
-710.675	13.261	0.203	-0.160
-709.660	-10.282	-0.209	-0.141
-708.645	-134.483	0.141	-0.017
-707.631	-102.104	-0.150	-0.037
-706.616	82.243	-0.205	0.226
-705.602	265.728	-0.158	-0.279
-704.587	80.094	-0.062	-0.068
-703.572	-122.038	0.218	0.036
-702.558	-200.000	0.011	0.115
-701.543	228.892	0.080	-0.133
-700.529	540.829	-0.118	-0.286
-699.514	800.000	-0.053	0.214
-698.499	-200.000	0.094	-0.000
-697.485	7.923	0.318	0.242
-696.470	-24.609	-0.235	-0.142
-695.456	-108.724	-0.241	-0.052
-694.441	-126.855	-0.062	-0.009
-693.426	-128.127	-0.208	0.030
-692.412	-23.988	0.207	-0.126
-691.397	-95.995	0.271	-0.073
-690.383	-200.000	0.051	0.290
-689.368	-173.283	-0.363	0.011
-688.354	250.431	0.090	0.155
-687.339	241.175	-0.048	-0.082
-686.324	59.642	0.068	-0.068
-685.310	-99.635	0.067	0.017
-684.295	-138.131	-0.548	-0.062
-683.281	121.005	-0.044	-0.056
-682.266	520.988	-0.098	0.233
-681.251	146.358	-0.197	0.268
-680.237	138.214	0.235	-0.312
-679.222	451.408	0.118	-0.264
-678.208	-98.029	0.424	-0.111
-677.193	-126.845	-0.310	0.046
-676.178	-67.472	0.220	-0.087
-675.164	-26.879	-0.272	-0.161
-674.149	-38.845	-0.153	-0.082
-673.135	-72.777	-0.128	-0.048
-672.120	-56.749	0.320	0.143
-671.105	800.000	0.009	0.028
-670.091	800.000	0.154	0.478
-669.076	800.000	-0.058	-0.196
-668.062	56.831	-0.131	0.130
-667.047	414.162	-0.056	0.122
-666.032	212.614	-0.041	0.066
-665.018	-200.000	0.004	0.335
-664.003	-119.373	-0.247	-0.043
-662.989	-32.525	0.230	0.130
-661.974	-200.000	-0.030	0.139
-660.959	-0.266	-0.168	-0.121
-659.945	568.118	0.051	-0.125
-658.930	219.628	0.087	0.142
-657.916	10.575	0.045	-0.035
-656.901	-110.973	-0.273	0.057
-655.886	411.880	-0.080	-0.173
-654.872	59.313	-0.115	0.115
-653.857	84.542	-0.133	0.148
-652.843	44.908	0.129	0.120
-651.828	-83.183	0.247	-0.081
-650.814	246.693	0.102	0.175
-649.799	-200.000	-0.038	0.207
-648.784	1.321	-0.262	0.191
-647.770	8.685	-0.135	0.103
-646.755	800.000	0.054	0.212
-645.741	-18.326	0.123	-0.078
-644.726	-200.000	0.020	-0.114
-643.711	-110.300	0.249	-0.053
-642.697	-77.358	-0.163	-0.057
-641.682	800.000	-0.020	-0.077
-640.668	800.000	0.019	-0.063
-639.653	18.142	-0.220	-0.178
-638.638	188.795	-0.169	0.256
-637.624	11.294	-0.210	0.163
-636.609	-200.000	-0.010	-0.249
-635.595	-135.613	-0.371	-0.045
-634.580	-124.094	-0.047	-0.007
-633.565	800.000	0.085	-0.239
-632.551	-129.337	0.283	-0.040
-631.536	139.622	0.065	-0.087
-630.522	-35.123	0.190	-0.105
-629.507	-173.513	0.305	-0.009
-628.492	-22.341	-0.158	-0.097
-627.478	175.389	0.069	0.101
-626.463	-26.923	-0.101	0.060
-625.449	225.406	-0.083	-0.135
-624.434	208.511	-0.047	0.075
-623.419	800.000	-0.053	-0.199
-622.405	480.092	0.088	0.202
-621.390	98.301	0.176	-0.206
-620.376	-115.751	-0.235	0.044
-619.361	-161.470	-0.072	0.004
-618.346	76.967	-0.279	0.299
-617.332	800.000	-0.099	-0.284
-616.317	-28.853	0.193	-0.112
-615.303	173.454	0.190	0.277
-614.288	181.108	-0.076	0.114
-613.273	-105.044	0.152	0.035
-612.259	66.257	0.064	-0.066
-611.244	93.898	0.218	0.250
-610.230	-10.301	-0.287	0.193
-609.215	-200.000	0.006	0.067
-608.201	24.440	-0.163	0.136
-607.186	-81.133	-0.361	0.121
-606.171	800.000	0.034	-0.099
-605.157	226.606	-0.050	-0.083
-604.142	-99.111	-0.045	-0.012
-603.128	800.000	-0.030	-0.112
-602.113	163.681	0.182	0.259
-601.098	-87.575	-0.098	-0.030
-600.084	-139.522	0.288	0.031
-599.069	800.000	-0.033	0.129
-598.055	-200.000	0.001	-0.227
-597.040	423.738	-0.056	0.121
-596.025	646.011	-0.021	-0.054
-595.011	-200.000	0.015	-0.232
-593.996	252.344	0.296	0.510
-592.982	24.767	0.167	-0.140
-591.967	211.208	0.145	-0.231
-590.952	-80.277	-0.071	0.024
-589.938	465.727	-0.193	0.438
-588.923	139.190	-0.156	-0.208
-587.909	702.611	-0.159	0.424
-586.894	129.364	-0.160	0.207
-585.879	141.455	0.222	-0.298
-584.865	636.855	-0.071	0.182
-583.850	-200.000	-0.030	0.175
-582.836	-200.000	0.050	-0.362
-581.821	97.924	-0.282	-0.328
-580.806	658.079	0.085	-0.220
-579.792	-129.981	-0.105	0.014
-578.777	-103.182	0.261	-0.062
-577.763	159.040	0.152	-0.213
-576.748	44.948	0.090	0.083
-575.733	-31.744	-0.075	-0.042
-574.719	25.776	0.243	0.205
-573.704	177.404	0.128	0.189
-572.690	-33.181	-0.225	0.126
-571.675	-200.000	0.003	0.068
-570.661	85.047	0.119	0.131
-569.646	-200.000	-0.027	0.288
-568.631	-111.037	0.082	-0.017
-567.617	-200.000	0.016	-0.078
-566.602	-175.315	0.314	-0.009
-565.588	14.953	-0.261	-0.207
-564.573	-78.807	-0.289	-0.100
-563.558	62.622	0.273	0.276
-562.544	-69.968	0.415	-0.160
-561.529	205.440	-0.090	0.142
-560.515	800.000	0.061	-0.202
-559.500	-34.950	-0.083	-0.046
-558.485	-200.000	-0.021	-0.293
-557.471	161.867	0.030	0.042
-556.456	-200.000	-0.014	0.073
-555.442	137.088	0.121	0.159
-554.427	-74.916	-0.234	0.085
-553.412	-52.568	-0.217	-0.101
-552.398	236.585	0.201	0.336
-551.383	-22.823	-0.137	-0.084
-550.369	40.705	0.042	-0.038
-549.354	112.440	0.190	0.232
-548.339	506.985	0.119	-0.278
-547.325	621.493	0.112	0.284
-546.310	10.422	-0.022	-0.017
-545.296	124.806	0.266	-0.338
-544.281	-80.565	0.168	-0.056
-543.266	-179.235	-0.195	-0.004
-542.252	8.088	-0.066	0.050
-541.237	133.677	0.077	-0.100
-540.223	27.000	0.162	-0.137
-539.208	-105.270	0.191	-0.044
-538.193	113.179	0.210	-0.257
-537.179	-154.398	-0.082	0.006
-536.164	360.360	-0.106	0.214
-535.150	215.938	0.048	-0.077
-534.135	800.000	0.117	-0.344
-533.121	225.843	-0.174	-0.284
-532.106	-200.000	0.004	-0.123
-531.091	-200.000	0.001	-0.167
-530.077	345.516	0.066	0.131
-529.062	800.000	-0.098	0.299
-528.048	27.920	-0.106	-0.091
-527.033	-200.000	-0.020	-0.221
-526.018	-200.000	-0.003	0.452
-525.004	800.000	0.070	-0.299
-523.989	-200.000	0.020	-0.152
-522.975	-131.973	-0.325	-0.043
-521.960	67.906	0.234	-0.241
-520.945	-92.057	0.228	-0.065
-519.931	45.353	-0.153	0.142
-518.916	-151.027	-0.552	-0.042
-517.902	-140.569	-0.175	0.018
-516.887	-142.607	0.226	0.022
-515.872	22.075	-0.309	0.254
-514.858	-200.000	-0.027	-0.264
-513.843	174.665	0.253	0.369
-512.829	-138.164	-0.108	0.012
-511.814	145.317	0.181	0.245
-510.799	238.616	-0.155	0.260
-509.785	50.760	-0.166	0.158
-508.770	-35.914	-0.313	-0.171
-507.756	-44.283	-0.293	0.148
-506.741	5.090	-0.095	0.070
-505.726	-105.199	-0.407	-0.094
-504.712	621.753	-0.078	0.197
-503.697	800.000	-0.108	0.471
-502.683	787.683	-0.062	0.171
-501.668	30.493	-0.234	-0.202
-500.653	120.323	-0.109	0.136
-499.639	-200.000	0.055	0.258
-498.624	132.252	0.198	-0.257
-497.610	-163.333	0.257	0.012
-496.595	800.000	-0.074	-0.262
-495.581	-23.148	0.064	-0.039
-494.566	-171.861	-0.318	-0.010
-493.551	-105.766	-0.231	0.053
-492.537	-146.280	0.470	0.042
-491.522	800.000	0.092	0.305
-490.508	800.000	0.060	0.208
-489.493	800.000	-0.056	0.203
-488.478	509.142	-0.129	0.302
-487.464	-73.502	-0.383	0.141
-486.449	-67.610	0.064	-0.025
-485.435	-160.523	-0.327	-0.018
-484.420	247.743	0.087	0.148
-483.405	-120.310	-0.509	0.087
-482.391	792.049	0.139	0.385
-481.376	543.017	-0.101	-0.243
-480.362	-200.000	-0.036	0.208
-479.347	121.546	0.070	-0.088
-478.332	-200.000	0.026	0.311
-477.318	-94.627	-0.069	0.019
-476.303	-63.204	-0.105	0.044
-475.289	800.000	-0.047	0.160
-474.274	406.745	0.131	-0.280
-473.259	106.290	-0.132	0.157
-472.245	116.497	-0.281	0.347
-471.230	411.689	0.093	-0.198
-470.216	107.582	0.032	-0.038
-469.201	-76.438	0.206	0.073
-468.186	90.091	0.033	0.037
-467.172	800.000	0.056	-0.163
-466.157	243.423	-0.116	0.196
-465.143	-200.000	0.059	-0.339
-464.128	-95.219	0.143	0.039
-463.113	-88.473	0.272	-0.082
-462.099	-125.631	-0.041	0.006
-461.084	-116.449	0.315	0.059
-460.070	-195.448	0.170	-0.001
-459.055	494.045	-0.073	-0.169
-458.040	800.000	-0.020	0.088
-457.026	15.719	0.312	-0.247
-456.011	800.000	0.006	0.022
-454.997	-200.000	-0.032	0.171
-453.982	53.737	-0.066	-0.063
-452.968	-71.227	-0.264	0.100
-451.953	-13.637	0.139	-0.091
-450.938	212.493	-0.117	-0.185
-449.924	-200.000	-0.042	0.235
-448.909	661.251	0.102	-0.264
-447.895	800.000	-0.040	-0.129
-446.880	3.290	-0.152	0.111
-445.865	-200.000	0.027	0.162
-444.851	-51.616	-0.188	0.088
-443.836	-200.000	-0.020	-0.186
-442.822	24.827	-0.098	-0.082
-441.807	195.675	0.134	-0.204
-440.792	800.000	0.084	0.361
-439.778	-114.661	-0.133	-0.026
-438.763	-200.000	-0.029	0.276
-437.749	-200.000	0.001	0.137
-436.734	5.617	-0.030	-0.022
-435.719	-90.531	0.299	0.087
-434.705	660.572	-0.048	0.124
-433.690	-200.000	0.016	-0.103
-432.676	-68.521	-0.176	-0.069
-431.661	-200.000	0.027	0.218
-430.646	-88.747	-0.181	-0.054
-429.632	47.411	0.304	-0.285
-428.617	800.000	0.051	-0.187
-427.603	-124.698	-0.241	0.037
-426.588	39.370	0.166	0.149
-425.573	-29.051	-0.253	-0.146
-424.559	-200.000	0.084	0.398
-423.544	-57.132	0.397	-0.176
-422.530	-52.687	-0.219	-0.102
-421.515	83.945	0.084	-0.093
-420.500	-200.000	-0.014	-0.525
-419.486	-200.000	0.022	-0.159
-418.471	677.715	-0.044	-0.116
-417.457	-200.000	-0.021	-0.122
-416.442	584.559	0.117	0.289
-415.428	112.802	-0.195	0.237
-414.413	83.337	0.160	0.175
-413.398	-200.000	0.062	0.314
-412.384	469.832	0.137	-0.309
-411.369	-109.767	0.193	-0.041
-410.355	-200.000	-0.014	-0.175
-409.340	-51.732	-0.159	-0.074
-408.325	-87.672	-0.336	-0.102
-407.311	-6.877	-0.409	0.279
-406.296	17.427	-0.218	0.173
-405.282	-107.460	0.162	-0.036
-404.267	-184.923	0.362	-0.006
-403.252	451.370	-0.135	-0.300
-402.238	140.479	0.237	0.314
-401.223	800.000	-0.072	0.206
-400.209	-147.576	-0.159	0.013
-399.194	-174.443	-0.142	-0.004
-398.179	-9.164	0.161	-0.108
-397.165	800.000	-0.100	-0.337
-396.150	-200.000	0.020	0.120
-395.136	-57.129	0.205	-0.091
-394.121	322.166	0.086	-0.163
-393.106	206.407	0.195	-0.305
-392.092	-200.000	-0.058	0.286
-391.077	223.505	0.281	-0.456
-390.063	-106.242	0.423	-0.095
-389.048	63.641	0.161	0.162
-388.033	-58.015	-0.365	-0.160
-387.019	210.716	0.049	-0.078
-386.004	800.000	-0.063	-0.262
-384.990	91.768	0.131	-0.148
-383.975	-200.000	-0.040	0.304
-382.960	-185.279	-0.283	0.004
-381.946	-200.000	0.029	0.451
-380.931	43.738	0.140	-0.128
-379.917	181.075	0.051	0.074
-378.902	-4.265	0.134	-0.093
-377.888	800.000	-0.063	0.177
-376.873	-64.912	-0.051	-0.021
-375.858	-200.000	0.038	-0.273
-374.844	365.076	-0.088	-0.177
-373.829	-28.076	-0.087	0.050
-372.815	-200.000	-0.002	-0.223
-371.800	-200.000	0.001	-0.179
-370.785	108.539	0.108	-0.130
-369.771	-45.060	0.094	0.047
-368.756	-2.361	0.203	0.143
-367.742	269.528	-0.151	-0.266
-366.727	151.261	0.122	-0.167
-365.712	-200.000	-0.010	0.237
-364.698	133.455	-0.102	-0.133
-363.683	-200.000	-0.009	-0.201
-362.669	-29.788	0.078	0.045
-361.654	800.000	0.040	-0.152
-360.639	800.000	-0.123	0.342
-359.625	-54.209	-0.205	-0.093
-358.610	-59.462	0.012	-0.005
-357.596	-95.589	-0.210	0.056
-356.581	-71.783	-0.224	0.084
-355.566	118.982	-0.247	0.306
-354.552	-95.671	0.266	0.071
-353.537	-200.000	-0.011	0.117
-352.523	289.363	0.039	0.071
-351.508	-200.000	-0.035	-0.160
-350.493	-148.756	0.202	0.016
-349.479	148.589	0.054	-0.073
-348.464	-200.000	-0.016	0.103
-347.450	186.352	0.175	-0.260
-346.435	138.427	-0.057	-0.075
-345.420	800.000	0.046	-0.173
-344.406	-200.000	0.046	-0.208
-343.391	81.985	-0.202	-0.219
-342.377	-200.000	-0.025	-0.135
-341.362	-123.948	-0.330	0.052
-340.348	-132.629	0.334	0.043
-339.333	37.113	0.110	0.097
-338.318	67.079	-0.188	0.192
-337.304	91.695	0.034	-0.038
-336.289	480.109	0.148	0.335
-335.275	617.626	0.122	-0.307
-334.260	-200.000	-0.028	-0.133
-333.245	-200.000	0.027	-0.420
-332.231	800.000	0.043	-0.122
-331.216	90.954	0.129	0.144
-330.202	-74.782	-0.077	0.028
-329.187	85.949	-0.107	-0.117
-328.172	-71.499	0.042	0.016
-327.158	-37.142	0.373	-0.200
-326.143	10.194	-0.101	0.077
-325.129	65.500	-0.061	0.062
-324.114	800.000	-0.067	0.258
-323.099	-200.000	-0.021	-0.105
-322.085	-200.000	-0.036	-0.310
-321.070	-119.771	0.207	-0.036
-320.056	-200.000	-0.009	-0.059
-319.041	-200.000	0.028	-0.354
-318.026	381.420	0.174	0.358
-317.012	-200.000	-0.002	-0.091
-315.997	-200.000	0.071	0.355
-314.983	22.002	-0.234	0.191
-313.968	800.000	-0.017	0.062
-312.953	396.597	-0.006	0.012
-311.939	-74.260	0.142	-0.051
-310.924	-200.000	0.021	-0.131
-309.910	774.734	0.072	0.198
-308.895	-17.331	-0.157	-0.099
-307.880	373.232	-0.041	0.084
-306.866	567.843	0.098	0.239
-305.851	349.180	-0.009	-0.018
-304.837	191.668	-0.120	0.181
-303.822	800.000	0.022	-0.067
-302.807	70.481	0.202	0.209
-301.793	203.353	-0.157	0.243
-300.778	-138.573	-0.274	0.030
-299.764	-200.000	-0.007	0.179
-298.749	-200.000	0.052	-0.361
-297.735	-200.000	0.007	-0.059
-296.720	23.827	0.069	-0.057
-295.705	-14.749	0.261	0.168
-294.691	-9.779	0.099	-0.066
-293.676	-78.763	0.205	0.070
-292.662	-200.000	-0.020	-0.203
-291.647	649.356	0.076	0.194
-290.632	-164.919	-0.198	-0.009
-289.618	-112.745	-0.270	0.054
-288.603	-59.505	0.287	0.123
-287.589	-44.787	0.421	-0.210
-286.574	-90.073	-0.170	0.050
-285.559	-103.139	-0.440	0.104
-284.545	-200.000	-0.009	0.205
-283.530	212.543	0.161	-0.253
-282.516	-121.734	0.319	-0.053
-281.501	372.458	-0.156	-0.317
-280.486	148.976	-0.015	0.020
-279.472	221.645	-0.211	-0.339
-278.457	-38.766	0.119	-0.063
-277.443	116.310	-0.136	0.167
-276.428	800.000	0.080	0.243
-275.413	-58.316	-0.113	-0.049
-274.399	-91.149	0.197	0.056
-273.384	103.387	-0.115	-0.135
-272.370	-126.641	0.045	0.007
-271.355	-119.126	0.341	0.059
-270.340	-68.615	0.313	-0.121
-269.326	632.337	0.130	-0.328
-268.311	95.691	-0.035	-0.040
-267.297	800.000	-0.059	-0.191
-266.282	-200.000	0.015	0.131
-265.267	-200.000	0.193	0.000
-264.253	12.837	-0.182	0.141
-263.238	60.239	-0.155	0.153
-262.224	70.372	-0.147	0.151
-261.209	-44.761	-0.259	0.129
-260.195	263.488	0.215	0.373
-259.180	800.000	-0.029	-0.089
-258.165	-102.296	0.161	0.039
-257.151	660.179	-0.025	0.063
-256.136	-195.543	0.075	-0.001
-255.122	-0.915	0.391	-0.276
-254.107	800.000	-0.020	0.074
-253.092	721.770	0.113	0.300
-252.078	505.195	0.083	-0.191
-251.063	-200.000	0.025	0.114
-250.049	-164.493	0.207	0.009
-249.034	-200.000	0.044	-0.302
-248.019	-32.906	0.132	0.073
-247.005	-200.000	0.013	-0.174
-245.990	237.929	-0.106	-0.176
-244.976	-200.000	0.006	0.125
-243.961	-36.201	-0.051	-0.028
-242.946	281.689	0.053	0.094
-241.932	40.297	-0.189	-0.169
-240.917	-145.536	0.336	-0.030
-239.903	13.135	0.245	-0.190
-238.888	-200.000	0.009	0.258
-237.873	302.706	0.119	-0.220
-236.859	27.420	0.213	0.179
-235.844	-66.273	-0.181	0.072
-234.830	-133.080	0.084	0.011
-233.815	-200.000	0.025	-0.161
-232.800	198.181	0.269	-0.409
-231.786	49.271	-0.175	0.164
-230.771	306.478	-0.056	-0.105
-229.757	-200.000	-0.039	0.385
-228.742	-200.000	0.004	-0.032
-227.727	-200.000	0.027	0.328
-226.713	101.806	0.082	-0.095
-225.698	-5.193	0.138	0.094
-224.684	-200.000	-0.002	-0.074
-223.669	-107.018	-0.389	-0.086
-222.655	-200.000	-0.043	-0.328
-221.640	-30.845	0.240	-0.135
-220.625	-109.193	0.081	0.017
-219.611	-200.000	0.004	-0.279
-218.596	-200.000	0.008	-0.233
-217.582	-105.463	-0.221	0.050
-216.567	-21.041	-0.100	0.061
-215.552	-42.823	-0.122	-0.062
-214.538	29.752	0.177	-0.151
-213.523	800.000	0.079	0.285
-212.509	-119.488	-0.142	-0.025
-211.494	-200.000	0.003	0.232
-210.479	120.510	0.037	0.046
-209.465	27.678	0.292	-0.245
-208.450	-200.000	-0.021	-0.123
-207.436	-160.442	-0.110	-0.006
-206.421	-148.924	0.115	-0.009
-205.406	-84.555	0.239	0.075
-204.392	-72.184	-0.114	-0.042
-203.377	-31.989	-0.233	-0.130
-202.363	-172.092	-0.164	-0.005
-201.348	3.589	-0.124	0.090
-200.333	-200.000	0.053	-0.247
-199.319	-123.417	0.290	0.046
-198.304	-200.000	-0.025	-0.149
-197.290	-102.511	0.056	0.013
-196.275	9.871	-0.138	0.104
-195.260	168.769	0.138	-0.196
-194.246	158.020	-0.260	-0.358
-193.231	800.000	0.027	0.110
-192.217	86.205	-0.284	0.312
-191.202	320.414	0.343	0.648
-190.187	29.929	-0.132	0.112
-189.173	-118.251	-0.125	-0.022
-188.158	-153.534	-0.251	0.017
-187.144	212.212	-0.173	0.271
-186.129	-200.000	0.037	0.209
-185.114	-0.702	-0.204	-0.144
-184.100	-130.317	-0.187	0.025
-183.085	800.000	-0.041	0.115
-182.071	332.601	0.077	0.148
-181.056	800.000	0.062	-0.261
-180.042	-163.405	-0.136	0.006
-179.027	-23.855	-0.142	0.084
-178.012	58.328	-0.154	-0.150
-176.998	-140.779	0.467	-0.048
-175.983	155.337	0.218	0.298
-174.969	-200.000	0.046	-0.371
-173.954	-132.607	-0.149	0.019
-172.939	-55.851	0.113	-0.050
-171.925	-53.638	0.215	0.098
-170.910	-200.000	0.004	-0.068
-169.896	718.213	0.067	-0.178
-168.881	92.666	-0.059	-0.066
-167.866	70.818	-0.233	-0.240
-166.852	206.511	0.040	-0.061
-165.837	174.058	0.087	0.126
-164.823	36.104	-0.088	0.077
-163.808	34.040	-0.190	0.165
-162.793	470.685	0.013	0.028
-161.779	405.042	-0.101	-0.211
-160.764	73.979	0.162	0.169
-159.750	-36.796	0.157	0.084
-158.735	85.981	-0.187	-0.205
-157.720	78.870	-0.188	-0.200
-156.706	88.195	-0.203	0.224
-155.691	76.694	-0.100	-0.106
-154.677	-23.069	-0.142	-0.085
-153.662	-200.000	0.003	0.095
-152.647	580.608	-0.141	0.344
-151.633	156.231	0.282	-0.387
-150.618	-200.000	-0.338	-0.001
-149.604	22.491	-0.245	0.200
-148.589	-180.988	-0.102	-0.002
-147.574	-68.497	-0.258	0.100
-146.560	132.132	-0.128	0.164
-145.545	-200.000	-0.032	-0.153
-144.531	-143.533	-0.240	0.023
-143.516	536.041	-0.116	0.274
-142.502	-152.985	0.085	0.006
-141.487	-200.000	-0.006	0.196
-140.472	800.000	0.047	0.167
-139.458	174.815	0.148	0.213
-138.443	-131.487	-0.324	0.043
-137.429	-35.451	-0.389	-0.210
-136.414	94.660	0.214	-0.242
-135.399	-87.124	-0.210	0.063
-134.385	-25.903	-0.226	-0.132
-133.370	71.146	-0.367	-0.378
-132.356	-89.824	0.091	-0.027
-131.341	-83.970	0.253	-0.080
-130.326	-151.772	-0.185	-0.013
-129.312	105.579	0.186	-0.219
-128.297	2.968	-0.025	0.018
-127.283	-200.000	0.026	-0.207
-126.268	-66.458	0.191	0.075
-125.253	-156.728	0.285	0.017
-124.239	37.332	-0.190	-0.167
-123.224	396.128	-0.158	0.327
-122.210	-78.432	0.292	0.099
