DTS Sentinel unit serial number:	SN413079Multiplexer serial number:	ORYXHardware model number:	OX4-SRSoftware version number:	ORYX F/W v4.00 Oryx Data Collector v3.7.2.0data status	okinstallation	princeton_trtdifferential loss correction	single-endedforward channel	channel 3reverse channel	N/Adate	2019/09/15time	20:52:34forward acquisition time	60.00reverse acquisition time	0.00gamma	496.2192k internal	0.2326k external	0.2326temperature offset calibration	0.9937default loss term (dB/km)	0.3790temperature slope calibration	1.0000multiplexer offset coefficient	1.0000multiplexer slope coefficient	1.0000fibre end	0.00T internal ref (°C)	32.19T ext. ref 1 (°C)	8.00T ext. ref 2 (°C)	24.42length (m)	temperature (°C)	Stokes	anti-Stokes-747.200	-9.578	0.121	0.081
-746.185	234.952	0.375	0.624
-745.171	717.766	-0.037	0.100
-744.156	8.014	-0.116	0.088
-743.142	-51.291	0.108	-0.051
-742.127	-115.959	-0.372	0.070
-741.112	800.000	0.070	0.277
-740.098	-200.000	-0.010	0.208
-739.083	800.000	0.034	0.126
-738.069	-149.883	0.268	0.021
-737.054	-57.760	-0.068	0.030
-736.039	-82.355	-0.219	-0.072
-735.025	97.913	0.130	0.151
-734.010	87.907	0.115	-0.128
-732.996	-136.251	-0.248	-0.029
-731.981	54.136	-0.126	-0.122
-730.966	-74.740	-0.161	-0.058
-729.952	630.750	-0.078	0.198
-728.937	-20.424	-0.354	-0.219
-727.923	164.786	-0.058	-0.082
-726.908	-53.618	-0.219	-0.101
-725.894	61.664	0.046	-0.046
-724.879	88.256	0.189	-0.211
-723.864	-67.312	0.309	0.122
-722.850	100.142	-0.213	-0.248
-721.835	250.867	-0.068	-0.117
-720.821	92.513	-0.157	-0.179
-719.806	130.425	0.081	0.105
-718.791	316.627	-0.108	0.206
-717.777	-35.679	-0.087	0.048
-716.762	-128.200	-0.290	-0.042
-715.748	-26.664	-0.091	0.054
-714.733	-68.426	-0.197	0.077
-713.718	-94.152	0.232	0.064
-712.704	-200.000	0.039	-0.569
-711.689	-200.000	-0.093	-0.495
-710.675	22.950	0.056	-0.046
-709.660	-200.000	0.009	0.166
-708.645	800.000	0.052	0.176
-707.631	39.767	-0.190	-0.172
-706.616	-200.000	0.002	0.295
-705.602	193.863	0.141	-0.215
-704.587	10.113	-0.157	0.120
-703.572	-200.000	0.002	-0.259
-702.558	4.569	0.189	0.140
-701.543	18.042	-0.265	0.213
-700.529	800.000	-0.053	-0.217
-699.514	626.453	0.052	-0.133
-698.499	-66.818	0.183	0.073
-697.485	692.670	-0.082	-0.217
-696.470	-50.585	-0.433	-0.206
-695.456	-200.000	-0.017	0.147
-694.441	461.705	-0.116	-0.261
-693.426	800.000	-0.072	0.236
-692.412	-101.409	-0.058	-0.014
-691.397	113.264	0.226	-0.276
-690.383	-41.633	0.179	-0.093
-689.368	331.374	-0.120	0.233
-688.354	-132.264	0.642	0.084
-687.339	359.343	-0.133	0.267
-686.324	136.119	0.021	-0.028
-685.310	128.172	0.137	-0.175
-684.295	417.300	0.101	0.216
-683.281	86.034	-0.314	0.347
-682.266	-200.000	0.008	0.164
-681.251	21.236	-0.138	-0.113
-680.237	-200.000	0.017	-0.093
-679.222	-42.923	-0.083	-0.043
-678.208	-53.242	-0.126	0.058
-677.193	-200.000	-0.048	0.260
-676.178	165.727	0.045	-0.063
-675.164	-63.760	-0.031	-0.013
-674.149	-20.016	0.089	-0.055
-673.135	-200.000	0.039	-0.203
-672.120	475.395	-0.199	-0.452
-671.105	-142.525	-0.406	0.040
-670.091	228.096	-0.110	-0.180
-669.076	-81.541	-0.371	-0.123
-668.062	306.444	0.063	-0.117
-667.047	-200.000	-0.003	0.224
-666.032	70.073	0.241	0.250
-665.018	800.000	0.052	-0.201
-664.003	278.108	0.091	-0.163
-662.989	-200.000	0.049	-0.220
-661.974	-200.000	-0.024	-0.170
-660.959	800.000	0.040	-0.134
-659.945	12.558	0.240	-0.186
-658.930	114.447	0.118	0.145
-657.916	-200.000	-0.057	0.433
-656.901	800.000	-0.043	-0.171
-655.886	-200.000	-0.008	0.058
-654.872	-200.000	-0.000	-0.125
-653.857	-200.000	0.011	-0.282
-652.843	-200.000	-0.012	0.093
-651.828	112.398	0.117	-0.142
-650.814	-108.177	0.102	0.022
-649.799	116.664	-0.146	-0.180
-648.784	-48.079	-0.126	0.061
-647.770	457.219	0.084	-0.188
-646.755	-200.000	0.029	0.416
-645.741	211.799	0.140	0.222
-644.726	-156.011	0.525	0.033
-643.711	311.036	-0.119	0.225
-642.697	800.000	-0.108	0.394
-641.682	-200.000	0.029	0.151
-640.668	800.000	0.041	0.143
-639.653	7.660	-0.223	0.168
-638.638	120.135	0.078	0.097
-637.624	-47.384	0.369	-0.180
-636.609	18.979	-0.182	0.146
-635.595	587.570	-0.120	0.297
-634.580	-20.894	0.163	0.100
-633.565	124.116	-0.201	0.253
-632.551	229.443	-0.136	-0.223
-631.536	-93.569	0.202	-0.056
-630.522	-133.451	0.092	-0.012
-629.507	-96.664	-0.115	-0.030
-628.492	80.757	0.147	-0.160
-627.478	800.000	0.135	0.376
-626.463	-21.395	0.136	0.083
-625.449	84.005	-0.116	0.127
-624.434	-123.464	0.157	-0.025
-623.419	-91.824	0.375	-0.107
-622.405	668.965	0.056	0.145
-621.390	-132.177	-0.247	0.032
-620.376	183.169	-0.204	-0.302
-619.361	686.330	0.078	-0.204
-618.346	262.256	-0.080	-0.139
-617.332	-116.411	-0.094	0.017
-616.317	-80.735	0.313	-0.104
-615.303	171.388	-0.124	-0.178
-614.288	-109.161	-0.295	-0.063
-613.273	27.367	-0.277	-0.233
-612.259	-200.000	-0.034	0.182
-611.244	235.243	-0.016	-0.027
-610.230	-16.964	-0.110	0.070
-609.215	-5.059	0.051	0.035
-608.201	-100.024	-0.249	0.062
-607.186	-200.000	0.009	0.069
-606.171	-47.418	-0.299	-0.146
-605.157	10.128	-0.171	-0.130
-604.142	-191.908	-0.268	-0.003
-603.128	-108.878	-0.371	0.079
-602.113	-126.171	0.037	-0.006
-601.098	-200.000	0.025	0.313
-600.084	421.839	-0.022	-0.046
-599.069	681.238	-0.052	0.136
-598.055	175.399	0.129	-0.187
-597.040	365.350	-0.060	-0.121
-596.025	-95.262	0.183	0.049
-595.011	-200.000	-0.013	0.097
-593.996	-18.373	-0.109	-0.068
-592.982	371.132	0.259	-0.527
-591.967	509.152	0.062	0.144
-590.952	-37.382	-0.117	-0.063
-589.938	-200.000	-0.041	0.313
-588.923	-200.000	-0.015	0.214
-587.909	800.000	-0.024	-0.079
-586.894	-200.000	-0.025	0.126
-585.879	-200.000	-0.037	0.169
-584.865	277.510	0.210	0.375
-583.850	-16.862	-0.218	-0.138
-582.836	-50.568	0.075	0.036
-581.821	116.307	-0.072	-0.089
-580.806	-200.000	-0.026	0.385
-579.792	-165.996	-0.162	-0.007
-578.777	28.242	0.091	0.077
-577.763	-85.734	-0.104	-0.032
-576.748	-93.237	0.216	0.060
-575.733	392.974	0.203	0.422
-574.719	-200.000	-0.016	-0.140
-573.704	-24.567	-0.272	-0.162
-572.690	800.000	0.007	-0.024
-571.675	-200.000	-0.020	-0.195
-570.661	-70.126	0.237	-0.090
-569.646	-51.158	0.209	0.098
-568.631	-105.769	-0.133	-0.030
-567.617	223.519	-0.134	-0.216
-566.602	-4.404	0.188	-0.130
-565.588	-179.215	-0.162	0.004
-564.573	138.268	0.256	-0.337
-563.558	-125.562	-0.233	-0.035
-562.544	713.790	0.052	0.139
-561.529	-103.953	-0.122	0.029
-560.515	-200.000	-0.017	-0.139
-559.500	-93.643	-0.115	0.032
-558.485	58.704	0.090	-0.089
-557.471	-143.064	0.154	-0.015
-556.456	-110.589	-0.254	0.053
-555.442	205.507	-0.159	0.247
-554.427	-104.905	0.140	0.032
-553.412	-173.371	-0.194	-0.006
-552.398	-200.000	0.011	0.130
-551.383	-200.000	0.014	-0.108
-550.369	38.597	-0.074	-0.066
-549.354	-86.191	0.331	-0.102
-548.339	167.147	-0.051	0.073
-547.325	-85.565	-0.173	-0.054
-546.310	800.000	-0.016	-0.062
-545.296	-200.000	-0.090	-0.397
-544.281	-106.975	0.299	-0.066
-543.266	-125.960	-0.420	0.063
-542.252	-140.549	-0.168	0.017
-541.237	148.951	-0.145	0.196
-540.223	75.813	0.197	0.208
-539.208	-105.332	-0.092	0.021
-538.193	-200.000	0.063	-0.421
-537.179	215.304	-0.139	0.221
-536.164	-28.523	-0.250	0.144
-535.150	-14.226	-0.006	0.004
-534.135	47.160	0.212	0.197
-533.121	-67.187	-0.060	-0.024
-532.106	-115.344	-0.332	-0.063
-531.091	-89.149	0.083	-0.025
-530.077	26.176	0.137	0.115
-529.062	611.140	0.161	0.402
-528.048	-105.475	0.105	0.024
-527.033	-120.833	0.094	-0.016
-526.018	-49.388	0.212	-0.101
-525.004	-200.000	0.009	0.064
-523.989	-62.702	-0.090	-0.037
-522.975	-200.000	0.001	-0.062
-521.960	96.324	0.182	0.208
-520.945	45.585	-0.096	-0.089
-519.931	31.794	-0.087	-0.074
-518.916	-138.578	-0.062	-0.007
-517.902	-65.929	-0.275	0.110
-516.887	-117.969	0.282	-0.051
-515.872	-160.642	-0.509	0.027
-514.858	-200.000	-0.000	-0.391
-513.843	145.995	-0.273	-0.366
-512.829	402.988	0.105	-0.221
-511.814	76.824	-0.042	0.044
-510.799	-13.247	0.074	-0.048
-509.785	800.000	-0.094	0.279
-508.770	297.091	0.054	0.098
-507.756	337.748	-0.173	-0.335
-506.741	800.000	0.085	0.317
-505.726	-200.000	-0.004	0.172
-504.712	15.268	0.166	-0.130
-503.697	68.819	-0.182	-0.187
-502.683	112.182	0.167	-0.202
-501.668	15.805	0.242	0.190
-500.653	-4.579	-0.314	-0.217
-499.639	-96.392	-0.166	-0.044
-498.624	-123.808	-0.127	-0.020
-497.610	-48.760	-0.098	0.047
-496.595	-200.000	-0.005	0.283
-495.581	247.453	0.076	-0.127
-494.566	68.122	-0.173	0.177
-493.551	269.686	-0.082	0.145
-492.537	800.000	0.031	0.087
-491.522	-25.879	-0.156	-0.092
-490.508	377.329	-0.036	0.073
-489.493	-6.425	0.131	0.089
-488.478	84.305	-0.185	0.201
-487.464	114.411	-0.150	-0.183
-486.449	476.751	0.049	-0.110
-485.435	-200.000	0.054	-0.393
-484.420	-32.661	-0.073	-0.041
-483.405	-77.198	-0.192	0.067
-482.391	332.661	0.088	-0.170
-481.376	-183.294	0.099	0.002
-480.362	800.000	0.110	-0.411
-479.347	-104.462	0.233	0.054
-478.332	800.000	0.015	-0.056
-477.318	-200.000	0.007	-0.099
-476.303	-196.618	-0.192	-0.001
-475.289	-32.491	0.206	0.114
-474.274	-110.176	-0.187	0.039
-473.259	-200.000	-0.037	-0.376
-472.245	-62.943	-0.107	0.044
-471.230	-7.404	0.237	-0.160
-470.216	58.212	0.049	0.048
-469.201	-33.464	0.272	0.150
-468.186	270.596	0.062	0.109
-467.172	800.000	0.057	-0.185
-466.157	-112.222	0.240	-0.048
-465.143	-200.000	0.014	0.079
-464.128	-200.000	-0.013	-0.122
-463.113	212.163	0.097	0.153
-462.099	66.777	0.087	-0.089
-461.084	-156.480	0.133	0.008
-460.070	-200.000	-0.422	0.001
-459.055	130.628	-0.125	-0.160
-458.040	88.459	0.030	0.033
-457.026	-64.522	-0.155	0.063
-456.011	-175.469	0.297	0.008
-454.997	410.773	0.111	0.235
-453.982	-167.309	0.057	0.002
-452.968	-200.000	0.011	-0.129
-451.953	-200.000	-0.016	0.125
-450.938	-102.901	-0.228	0.054
-449.924	240.159	-0.193	0.321
-448.909	-92.354	-0.126	0.035
-447.895	-1.861	0.018	0.013
-446.880	-59.273	0.037	-0.016
-445.865	0.368	0.075	-0.053
-444.851	-177.091	-0.252	-0.006
-443.836	-46.536	0.257	-0.126
-442.822	-166.073	0.228	-0.010
-441.807	347.223	-0.091	-0.178
-440.792	543.572	0.114	0.270
-439.778	800.000	-0.042	0.115
-438.763	-71.978	-0.304	-0.113
-437.749	-23.614	0.301	0.180
-436.734	112.875	0.059	-0.071
-435.719	-27.925	0.073	0.042
-434.705	476.481	-0.095	-0.215
-433.690	-47.760	0.089	-0.043
-432.676	-200.000	0.002	0.087
-431.661	-200.000	-0.029	0.157
-430.646	78.204	-0.199	0.212
-429.632	-200.000	0.014	-0.192
-428.617	-200.000	0.009	-0.118
-427.603	320.774	-0.192	-0.364
-426.588	-200.000	0.008	-0.286
-425.573	800.000	-0.037	-0.104
-424.559	-200.000	-0.010	-0.081
-423.544	177.250	-0.114	-0.165
-422.530	456.469	-0.015	-0.033
-421.515	576.560	-0.125	-0.304
-420.500	37.501	0.198	0.175
-419.486	45.883	-0.133	0.123
-418.471	-26.743	0.187	-0.109
-417.457	-147.571	0.206	-0.017
-416.442	38.738	-0.180	-0.160
-415.428	-142.139	0.103	0.010
-414.413	95.516	-0.138	0.157
-413.398	-200.000	-0.009	0.127
-412.384	-200.000	0.046	0.294
-411.369	232.612	0.109	0.178
-410.355	-200.000	0.039	-0.253
-409.340	106.136	-0.285	-0.336
-408.325	-200.000	0.016	-0.317
-407.311	37.437	0.338	-0.299
-406.296	-2.036	0.232	-0.162
-405.282	200.998	-0.006	-0.009
-404.267	-40.131	0.129	0.067
-403.252	-110.349	0.230	-0.048
-402.238	800.000	-0.088	0.268
-401.223	-0.727	-0.302	-0.213
-400.209	276.637	0.026	0.045
-399.194	-200.000	0.026	0.121
-398.179	677.289	-0.085	-0.220
-397.165	24.333	-0.257	0.211
-396.150	-200.000	0.028	-0.188
-395.136	-4.676	-0.217	-0.149
-394.121	-200.000	0.008	-0.212
-393.106	18.331	0.128	-0.102
-392.092	14.322	-0.213	0.166
-391.077	-200.000	-0.038	0.308
-390.063	-200.000	0.033	0.707
-389.048	-200.000	0.031	-0.214
-388.033	241.222	-0.095	-0.158
-387.019	800.000	0.080	0.323
-386.004	-79.216	0.235	0.079
-384.990	146.893	-0.181	-0.243
-383.975	-158.775	-0.129	-0.007
-382.960	-81.802	-0.113	0.037
-381.946	-106.419	-0.207	0.046
-380.931	-200.000	-0.069	0.374
-379.917	8.734	-0.180	-0.135
-378.902	-103.994	-0.117	-0.027
-377.888	109.574	-0.114	-0.135
-376.873	-200.000	-0.046	0.301
-375.858	800.000	-0.068	0.252
-374.844	-152.797	0.090	-0.006
-373.829	-103.356	-0.338	0.079
-372.815	159.551	0.049	0.067
-371.800	-200.000	-0.008	-0.072
-370.785	-200.000	-0.046	-0.306
-369.771	-105.391	0.228	-0.052
-368.756	-133.233	-0.249	-0.031
-367.742	800.000	0.035	0.095
-366.727	-103.578	0.099	0.023
-365.712	-3.433	-0.086	-0.060
-364.698	169.810	-0.082	-0.117
-363.683	193.640	-0.048	0.072
-362.669	372.518	0.153	-0.309
-361.654	-32.047	-0.351	0.195
-360.639	800.000	0.119	0.375
-359.625	27.839	0.212	0.177
-358.610	-92.521	-0.303	0.084
-357.596	-25.436	0.010	-0.006
-356.581	-200.000	-0.012	-0.462
-355.566	800.000	0.004	0.013
-354.552	-200.000	0.011	-0.071
-353.537	188.267	-0.132	-0.197
-352.523	-147.733	0.214	0.018
-351.508	-155.099	-0.297	-0.019
-350.493	-193.629	0.146	0.001
-349.479	800.000	-0.073	-0.288
-348.464	8.200	0.050	0.038
-347.450	800.000	-0.143	-0.419
-346.435	-107.730	0.164	0.035
-345.420	13.428	0.247	0.190
-344.406	-132.614	0.278	-0.035
-343.391	-200.000	0.004	-0.341
-342.377	-200.000	-0.016	-0.125
-341.362	-137.842	-0.275	-0.031
-340.348	-200.000	-0.057	-0.263
-339.333	-65.224	0.078	0.031
-338.318	425.023	0.111	0.236
-337.304	459.635	-0.038	0.083
-336.289	-179.218	-0.045	-0.001
-335.275	12.996	0.059	-0.045
-334.260	13.611	-0.053	-0.041
-333.245	-200.000	-0.007	0.288
-332.231	-36.995	-0.222	0.118
-331.216	-134.405	0.380	-0.046
-330.202	-172.774	-0.261	-0.008
-329.187	502.981	0.096	-0.221
-328.172	800.000	-0.037	0.149
-327.158	800.000	0.090	-0.302
-326.143	172.549	0.047	0.067
-325.129	-200.000	0.020	0.231
-324.114	-200.000	0.017	0.325
-323.099	-128.828	-0.128	-0.018
-322.085	-144.282	-0.586	0.054
-321.070	-111.557	-0.423	0.085
-320.056	316.621	0.053	0.099
-319.041	-95.192	0.059	0.016
-318.026	-90.525	0.294	-0.084
-317.012	800.000	-0.111	0.310
-315.997	-71.932	-0.163	-0.060
-314.983	800.000	-0.065	0.261
-313.968	244.972	0.028	-0.047
-312.953	11.722	-0.185	0.141
-311.939	800.000	-0.061	0.260
-310.924	68.343	0.143	0.145
-309.910	11.050	-0.138	-0.105
-308.895	-47.336	-0.102	-0.049
-307.880	-200.000	-0.002	0.226
-306.866	-177.654	-0.057	-0.001
-305.851	-200.000	-0.027	0.251
-304.837	44.261	-0.089	0.081
-303.822	800.000	-0.125	0.373
-302.807	-200.000	-0.002	0.018
-301.793	-113.626	-0.185	-0.036
-300.778	-200.000	-0.017	0.235
-299.764	-200.000	0.042	0.276
-298.749	-200.000	-0.044	0.459
-297.735	40.527	-0.220	0.196
-296.720	-184.211	-0.033	0.001
-295.705	-94.224	0.199	-0.054
-294.691	800.000	-0.102	0.284
-293.676	-200.000	0.024	0.142
-292.662	599.939	0.091	-0.224
-291.647	7.617	0.068	0.050
-290.632	-132.867	-0.042	0.005
-289.618	800.000	0.022	-0.080
-288.603	-129.839	0.107	-0.015
-287.589	-84.425	-0.318	-0.100
-286.574	-141.446	0.187	0.019
-285.559	-77.277	-0.166	0.057
-284.545	260.187	0.034	0.059
-283.530	-50.963	0.068	0.032
-282.516	38.405	-0.187	-0.165
-281.501	44.491	-0.151	-0.137
-280.486	-89.841	0.150	-0.043
-279.472	800.000	0.091	0.292
-278.457	629.621	0.068	-0.169
-277.443	800.000	0.027	-0.083
-276.428	800.000	-0.094	-0.365
-275.413	-64.913	0.157	-0.063
-274.399	-145.222	0.251	0.022
-273.384	-117.021	-0.146	0.026
-272.370	-200.000	0.021	-0.158
-271.355	768.360	-0.121	0.327
-270.340	-145.700	0.096	-0.008
-269.326	34.193	0.233	-0.201
-268.311	124.148	0.201	0.251
-267.297	-75.850	0.391	0.137
-266.282	38.150	-0.220	0.194
-265.267	800.000	0.040	-0.135
-264.253	57.724	-0.122	-0.118
-263.238	800.000	0.045	-0.153
-262.224	-21.182	0.270	0.163
-261.209	30.971	0.167	0.142
-260.195	-6.851	-0.243	0.164
-259.180	126.868	0.055	-0.069
-258.165	293.610	-0.086	-0.155
-257.151	430.781	-0.043	-0.092
-256.136	-200.000	-0.003	-0.167
-255.122	176.962	0.111	-0.160
-254.107	-41.305	0.265	-0.135
-253.092	109.911	0.320	0.380
-252.078	-96.550	-0.376	-0.098
-251.063	97.969	-0.059	-0.068
-250.049	800.000	0.092	-0.277
-249.034	45.460	-0.109	-0.099
-248.019	25.299	-0.138	0.114
-247.005	-46.550	0.385	-0.187
-245.990	-90.684	0.121	-0.034
-244.976	156.154	0.169	-0.231
-243.961	-200.000	0.039	-0.174
-242.946	98.674	-0.052	0.059
-241.932	115.729	0.270	-0.326
-240.917	-54.885	0.102	-0.046
-239.903	50.154	0.093	0.087
-238.888	-112.971	-0.168	-0.033
-237.873	264.161	-0.059	0.101
-236.859	-72.493	-0.115	0.042
-235.844	68.667	0.154	-0.156
-234.830	2.504	0.272	0.194
-233.815	-200.000	0.014	0.209
-232.800	263.153	-0.083	-0.142
-231.786	36.797	0.010	0.009
-230.771	-75.409	-0.178	-0.063
-229.757	800.000	-0.084	-0.324
-228.742	-101.055	0.269	-0.065
-227.727	-100.390	-0.301	0.074
-226.713	-40.930	-0.257	0.131
-225.698	-101.301	0.197	0.048
-224.684	-79.326	0.451	-0.151
-223.669	-200.000	0.029	-0.171
-222.655	-130.877	-0.135	0.018
-221.640	626.567	-0.087	0.216
-220.625	47.503	0.172	0.158
-219.611	-200.000	0.043	0.232
-218.596	67.074	-0.066	0.066
-217.582	12.624	0.157	-0.120
-216.567	314.592	-0.150	0.280
-215.552	272.165	0.248	-0.433
-214.538	55.915	-0.180	0.173
-213.523	-70.572	-0.161	-0.060
-212.509	-200.000	-0.015	-0.093
-211.494	-113.338	0.172	0.033
-210.479	-200.000	0.176	-0.000
-209.465	2.899	0.309	-0.222
-208.450	-200.000	0.004	0.111
-207.436	-147.719	0.300	-0.025
-206.421	-11.944	0.067	0.044
-205.406	800.000	0.109	0.429
-204.392	341.137	-0.054	-0.104
-203.377	-69.383	-0.012	0.005
-202.363	40.199	0.275	-0.244
-201.348	-200.000	-0.040	0.192
-200.333	-33.528	-0.264	0.144
-199.319	136.042	0.224	0.288
-198.304	462.138	0.101	0.222
-197.290	-200.000	0.019	-0.151
-196.275	800.000	0.032	-0.139
-195.260	-77.490	-0.209	0.072
-194.246	-200.000	0.010	-0.140
-193.231	-84.804	0.140	0.043
-192.217	-200.000	-0.003	-0.353
-191.202	202.080	0.002	-0.003
-190.187	800.000	-0.050	0.171
-189.173	-129.302	0.131	-0.018
-188.158	-195.246	0.253	-0.002
-187.144	-31.879	0.439	-0.243
-186.129	-56.323	-0.100	-0.044
-185.114	-8.701	-0.142	0.094
-184.100	-200.000	0.022	-0.177
-183.085	39.965	0.130	0.115
-182.071	-200.000	0.012	-0.316
-181.056	153.514	0.089	0.120
-180.042	-200.000	-0.020	0.193
-179.027	336.518	-0.150	0.287
-178.012	-200.000	-0.033	0.295
-176.998	243.521	-0.032	0.054
-175.983	800.000	-0.083	-0.324
-174.969	622.741	0.101	0.251
-173.954	-200.000	-0.002	-0.096
-172.939	269.548	-0.144	-0.249
-171.925	25.490	0.099	0.081
-170.910	-117.982	-0.056	-0.010
-169.896	800.000	0.146	-0.450
-168.881	32.628	0.178	-0.152
-167.866	-69.802	0.254	-0.095
-166.852	800.000	-0.027	-0.104
-165.837	-170.953	0.329	-0.011
-164.823	-200.000	0.048	0.210
-163.808	-200.000	-0.010	-0.081
-162.793	78.735	-0.449	-0.473
-161.779	-51.850	0.056	-0.026
-160.764	-7.677	0.177	0.118
-159.750	-183.850	0.261	0.004
-158.735	-19.002	-0.109	-0.067
-157.720	800.000	-0.034	0.144
-156.706	153.578	-0.105	-0.142
-155.691	-77.988	0.228	-0.077
-154.677	-90.038	0.371	-0.107
-153.662	-55.015	0.022	0.010
-152.647	-107.432	0.244	0.053
-151.633	-13.048	0.386	-0.248
-150.618	-39.264	0.179	0.093
-149.604	-200.000	-0.105	0.458
-148.589	134.816	0.111	-0.142
-147.574	-200.000	-0.010	-0.237
-146.560	85.797	-0.249	0.270
-145.545	-200.000	-0.014	0.284
-144.531	-52.908	-0.246	-0.112
-143.516	-200.000	-0.031	0.153
-142.502	-114.418	-0.183	-0.035
-141.487	521.363	0.071	-0.164
-140.472	-107.077	-0.142	0.031
-139.458	800.000	0.063	0.183
-138.443	65.363	-0.256	-0.255
-137.429	65.151	0.139	0.138
-136.414	-200.000	-0.012	0.187
-135.399	-80.121	0.278	0.092
-134.385	-200.000	-0.029	-0.356
-133.370	481.514	-0.014	0.031
-132.356	49.312	0.306	0.283
-131.341	361.840	0.083	0.163
-130.326	2.586	-0.005	-0.003
-129.312	241.484	0.152	0.251
-128.297	-80.010	-0.131	-0.043
-127.283	380.674	-0.128	0.258
-126.268	36.293	-0.194	0.168
-125.253	3.749	-0.093	-0.067
-124.239	-121.240	-0.305	-0.050
-123.224	800.000	-0.015	0.050
-122.210	-57.015	-0.545	-0.237
