DTS Sentinel unit serial number:	SN413079Multiplexer serial number:	ORYXHardware model number:	OX4-SRSoftware version number:	ORYX F/W v4.00 Oryx Data Collector v3.7.2.0data status	okinstallation	princeton_trtdifferential loss correction	single-endedforward channel	channel 3reverse channel	N/Adate	2019/09/15time	01:16:35forward acquisition time	60.00reverse acquisition time	0.00gamma	496.2192k internal	0.2321k external	0.2321temperature offset calibration	0.9962default loss term (dB/km)	0.3790temperature slope calibration	1.0000multiplexer offset coefficient	1.0000multiplexer slope coefficient	1.0000fibre end	0.00T internal ref (°C)	31.94T ext. ref 1 (°C)	4.51T ext. ref 2 (°C)	26.85length (m)	temperature (°C)	Stokes	anti-Stokes-747.200	294.879	0.053	-0.098
-746.185	800.000	-0.109	0.381
-745.171	-19.299	-0.092	0.058
-744.156	-172.353	0.093	-0.003
-743.142	49.612	-0.154	-0.147
-742.127	554.124	0.128	0.311
-741.112	800.000	-0.049	-0.187
-740.098	64.100	-0.076	0.077
-739.083	-97.710	-0.300	0.078
-738.069	411.363	-0.118	0.254
-737.054	-59.506	0.251	-0.109
-736.039	263.632	-0.102	-0.180
-735.025	26.929	0.167	0.142
-734.010	800.000	-0.124	-0.411
-732.996	-93.239	0.136	-0.038
-731.981	220.490	0.069	-0.112
-730.966	253.489	-0.074	0.128
-729.952	800.000	0.072	-0.216
-728.937	95.473	0.036	0.041
-727.923	-200.000	0.032	-0.269
-726.908	61.014	0.083	-0.084
-725.894	800.000	0.071	-0.316
-724.879	-118.633	0.069	0.012
-723.864	211.123	-0.090	-0.144
-722.850	-112.422	0.379	0.077
-721.835	63.780	0.044	-0.044
-720.821	16.627	0.086	0.069
-719.806	800.000	-0.079	0.263
-718.791	130.351	-0.197	0.255
-717.777	797.287	-0.110	-0.307
-716.762	599.311	-0.183	-0.458
-715.748	149.305	-0.323	-0.441
-714.733	-93.914	0.093	0.026
-713.718	9.954	0.178	-0.137
-712.704	-63.577	-0.184	-0.076
-711.689	250.982	-0.098	0.168
-710.675	-101.484	-0.336	0.082
-709.660	77.231	-0.122	-0.131
-708.645	280.212	0.090	0.162
-707.631	55.441	-0.115	-0.113
-706.616	10.356	-0.184	-0.142
-705.602	-51.328	-0.202	-0.096
-704.587	-197.057	0.369	0.002
-703.572	82.742	0.174	-0.190
-702.558	707.911	-0.118	-0.316
-701.543	432.435	-0.117	-0.256
-700.529	121.114	0.141	0.177
-699.514	-155.787	0.234	0.015
-698.499	-200.000	0.013	0.265
-697.485	-200.000	0.011	-0.063
-696.470	30.318	-0.134	0.115
-695.456	783.771	0.032	0.089
-694.441	16.395	0.191	-0.152
-693.426	201.710	-0.201	-0.312
-692.412	260.269	0.015	0.027
-691.397	-6.355	0.312	-0.215
-690.383	-82.196	-0.358	-0.118
-689.368	800.000	0.121	0.464
-688.354	-59.009	0.125	0.055
-687.339	234.761	0.097	-0.162
-686.324	-200.000	-0.002	-0.094
-685.310	554.472	-0.161	-0.392
-684.295	11.696	-0.239	-0.185
-683.281	-161.466	-0.272	-0.014
-682.266	-61.202	0.155	-0.066
-681.251	-31.374	-0.112	-0.064
-680.237	15.060	0.219	-0.173
-679.222	-105.309	-0.098	-0.022
-678.208	-184.149	-0.052	-0.001
-677.193	-49.347	-0.137	-0.066
-676.178	-13.480	0.095	0.062
-675.164	-29.835	0.409	0.235
-674.149	-62.497	-0.153	0.064
-673.135	131.746	0.068	-0.088
-672.120	-91.399	-0.378	0.109
-671.105	654.047	0.114	0.294
-670.091	31.084	0.223	-0.192
-669.076	-127.493	-0.236	0.035
-668.062	800.000	0.064	-0.182
-667.047	-13.077	0.507	-0.332
-666.032	35.985	0.121	-0.108
-665.018	-111.874	0.257	0.052
-664.003	-200.000	0.008	-0.163
-662.989	-70.827	-0.247	0.094
-661.974	-200.000	-0.004	-0.095
-660.959	-86.656	-0.343	0.106
-659.945	-25.350	0.140	-0.083
-658.930	800.000	-0.108	-0.364
-657.916	4.541	0.120	-0.089
-656.901	461.195	-0.159	-0.356
-655.886	-125.752	0.361	-0.055
-654.872	24.514	-0.063	0.052
-653.857	800.000	-0.076	0.304
-652.843	111.259	0.104	0.126
-651.828	68.104	-0.237	0.244
-650.814	571.020	-0.063	-0.155
-649.799	-167.747	-0.174	-0.007
-648.784	800.000	-0.079	-0.224
-647.770	800.000	-0.094	-0.317
-646.755	173.234	-0.110	0.160
-645.741	102.249	-0.211	0.249
-644.726	533.133	0.071	-0.170
-643.711	13.461	0.075	0.058
-642.697	-115.563	-0.164	0.031
-641.682	198.024	0.159	-0.245
-640.668	800.000	-0.096	0.295
-639.653	-41.353	0.251	0.130
-638.638	501.140	-0.081	-0.187
-637.624	800.000	0.072	0.209
-636.609	-200.000	-0.011	-0.160
-635.595	127.652	0.120	0.153
-634.580	119.261	0.275	0.342
-633.565	-92.532	-0.253	0.072
-632.551	-109.119	0.095	0.020
-631.536	181.450	0.047	-0.069
-630.522	-111.171	0.261	-0.054
-629.507	-56.668	-0.319	-0.142
-628.492	60.329	-0.430	0.428
-627.478	594.273	-0.145	-0.362
-626.463	-200.000	0.050	0.295
-625.449	-80.117	0.244	0.082
-624.434	293.430	-0.143	0.262
-623.419	800.000	-0.035	-0.121
-622.405	-99.365	0.285	-0.072
-621.390	-95.108	0.286	-0.078
-620.376	-67.175	0.156	-0.062
-619.361	39.519	0.252	-0.227
-618.346	-144.338	-0.213	-0.020
-617.332	-19.413	-0.150	-0.094
-616.317	800.000	0.092	-0.310
-615.303	-12.605	0.095	0.062
-614.288	-105.483	-0.355	-0.081
-613.273	-200.000	-0.063	0.301
-612.259	197.803	0.061	-0.093
-611.244	-29.646	-0.240	0.138
-610.230	1.895	-0.103	-0.075
-609.215	21.404	0.102	0.083
-608.201	690.185	-0.076	0.199
-607.186	601.986	-0.052	-0.130
-606.171	-200.000	-0.010	-0.120
-605.157	210.446	-0.119	0.187
-604.142	-200.000	0.013	0.213
-603.128	188.157	0.103	0.155
-602.113	749.967	-0.046	0.125
-601.098	66.119	-0.033	0.034
-600.084	-5.459	-0.185	-0.128
-599.069	800.000	-0.025	0.090
-598.055	-74.334	0.191	0.069
-597.040	-59.025	0.128	0.055
-596.025	42.116	-0.120	-0.110
-595.011	-93.106	-0.312	0.087
-593.996	-200.000	-0.023	0.113
-592.982	44.305	-0.150	0.138
-591.967	800.000	0.052	-0.189
-590.952	-142.213	-0.209	0.021
-589.938	800.000	0.037	-0.135
-588.923	113.057	0.090	0.109
-587.909	-131.118	-0.086	-0.011
-586.894	-200.000	-0.023	0.213
-585.879	-11.648	-0.228	-0.150
-584.865	800.000	-0.041	0.139
-583.850	139.583	0.093	-0.123
-582.836	-122.087	0.097	0.016
-581.821	-55.512	-0.282	-0.127
-580.806	80.522	-0.045	-0.049
-579.792	138.083	-0.134	-0.176
-578.777	162.346	-0.138	-0.194
-577.763	168.131	0.244	-0.349
-576.748	-99.215	-0.137	0.035
-575.733	-82.482	-0.280	-0.091
-574.719	-154.827	0.147	-0.010
-573.704	-48.874	0.225	0.108
-572.690	5.992	-0.169	-0.126
-571.675	11.360	-0.258	0.199
-570.661	73.891	0.417	0.439
-569.646	248.623	-0.093	0.157
-568.631	-200.000	0.000	0.114
-567.617	-19.870	-0.077	0.048
-566.602	509.937	-0.166	-0.387
-565.588	-109.106	-0.392	0.084
-564.573	14.186	-0.305	-0.238
-563.558	32.350	-0.255	-0.221
-562.544	800.000	-0.107	0.323
-561.529	8.564	0.177	0.134
-560.515	-91.355	-0.300	-0.086
-559.500	45.720	0.148	0.137
-558.485	119.464	0.283	-0.352
-557.471	-3.016	0.238	-0.167
-556.456	-175.289	-0.074	-0.002
-555.442	-200.000	-0.043	0.376
-554.427	200.991	0.234	0.361
-553.412	-200.000	0.020	0.364
-552.398	86.669	-0.191	0.211
-551.383	-100.440	0.171	-0.043
-550.369	344.485	0.032	-0.063
-549.354	800.000	-0.090	-0.299
-548.339	274.119	-0.103	-0.182
-547.325	-106.900	-0.232	-0.052
-546.310	800.000	-0.085	0.319
-545.296	-200.000	-0.029	-0.149
-544.281	800.000	0.019	0.053
-543.266	269.526	0.093	0.163
-542.252	-200.000	0.046	-0.259
-541.237	-48.545	-0.361	-0.174
-540.223	-69.552	0.027	0.011
-539.208	327.996	0.060	-0.116
-538.193	-126.605	0.330	0.049
-537.179	-164.734	-0.121	0.005
-536.164	-200.000	-0.014	-0.204
-535.150	119.364	0.128	0.159
-534.135	-200.000	0.003	-0.087
-533.121	-183.422	-0.359	-0.006
-532.106	-200.000	0.051	0.333
-531.091	-193.132	-0.403	-0.004
-530.077	800.000	-0.040	-0.155
-529.062	117.161	0.152	0.187
-528.048	-88.891	-0.167	0.050
-527.033	-26.023	0.301	0.177
-526.018	153.164	-0.125	0.171
-525.004	-100.712	-0.183	-0.045
-523.989	800.000	0.060	-0.177
-522.975	221.488	-0.034	0.055
-521.960	421.256	0.128	-0.274
-520.945	679.290	-0.106	0.278
-519.931	380.973	-0.207	-0.425
-518.916	180.468	-0.135	0.198
-517.902	54.870	0.145	0.141
-516.887	-200.000	-0.019	-0.090
-515.872	-62.842	-0.054	-0.022
-514.858	-15.929	-0.008	0.005
-513.843	-73.922	-0.088	-0.032
-512.829	243.833	-0.051	0.086
-511.814	-104.505	-0.532	-0.123
-510.799	-200.000	0.027	-0.188
-509.785	113.014	0.029	-0.036
-508.770	94.353	-0.207	-0.236
-507.756	4.514	0.273	-0.201
-506.741	800.000	0.075	-0.314
-505.726	545.094	-0.067	0.161
-504.712	214.668	-0.098	-0.156
-503.697	-200.000	0.029	0.288
-502.683	800.000	0.093	0.390
-501.668	-145.049	-0.261	0.024
-500.653	623.088	0.051	0.129
-499.639	-109.837	-0.324	-0.068
-498.624	22.826	-0.086	0.071
-497.610	-39.756	0.103	-0.054
-496.595	-87.807	0.173	-0.052
-495.581	-200.000	0.041	0.252
-494.566	126.839	0.069	-0.087
-493.551	-105.810	-0.172	0.039
-492.537	258.569	-0.024	-0.041
-491.522	174.512	-0.118	-0.171
-490.508	-167.636	0.124	-0.005
-489.493	-31.808	-0.156	-0.088
-488.478	-200.000	0.007	-0.094
-487.464	207.101	0.097	0.152
-486.449	-113.429	0.406	0.080
-485.435	-133.090	0.271	0.034
-484.420	800.000	-0.116	0.333
-483.405	-8.241	0.212	-0.143
-482.391	-200.000	-0.007	0.195
-481.376	-138.674	0.159	0.017
-480.362	-200.000	0.050	-0.270
-479.347	116.354	0.045	0.055
-478.332	-91.541	0.315	-0.090
-477.318	-148.987	-0.221	0.018
-476.303	-11.929	0.078	-0.051
-475.289	77.000	-0.113	0.120
-474.274	516.627	-0.135	0.316
-473.259	-200.000	-0.080	0.405
-472.245	-70.135	0.210	0.080
-471.230	-123.186	0.242	-0.039
-470.216	800.000	0.165	0.522
-469.201	124.656	0.252	-0.318
-468.186	15.074	-0.384	-0.301
-467.172	-16.204	0.252	0.160
-466.157	-86.951	-0.163	0.050
-465.143	-158.493	-0.170	0.010
-464.128	-87.181	0.051	-0.015
-463.113	484.296	-0.068	-0.154
-462.099	94.346	-0.140	-0.159
-461.084	-11.448	-0.409	0.269
-460.070	-48.547	0.125	0.060
-459.055	53.819	0.192	-0.185
-458.040	287.657	-0.044	0.079
-457.026	-200.000	-0.029	0.293
-456.011	-200.000	-0.013	0.092
-454.997	800.000	-0.064	0.229
-453.982	-103.179	0.235	0.056
-452.968	-200.000	-0.022	0.098
-451.953	-164.098	0.190	-0.009
-450.938	-35.846	-0.186	-0.101
-449.924	800.000	-0.047	0.179
-448.909	92.885	0.057	0.065
-447.895	-53.244	-0.225	-0.103
-446.880	-31.648	-0.220	0.123
-445.865	-177.595	0.072	0.002
-444.851	215.211	0.207	0.327
-443.836	-129.251	-0.212	-0.030
-442.822	800.000	0.103	0.289
-441.807	-105.535	-0.186	0.042
-440.792	-200.000	0.063	-0.428
-439.778	-49.738	-0.072	0.034
-438.763	-160.401	0.301	-0.016
-437.749	165.836	-0.090	0.127
-436.734	34.831	-0.063	0.055
-435.719	-200.000	-0.045	0.404
-434.705	42.712	0.302	0.275
-433.690	-101.257	0.314	-0.077
-432.676	-57.218	-0.193	0.085
-431.661	28.505	-0.300	0.253
-430.646	-26.103	-0.020	-0.012
-429.632	191.467	0.119	0.178
-428.617	715.675	0.061	0.162
-427.603	76.182	0.170	-0.180
-426.588	-97.917	0.043	-0.011
-425.573	-200.000	0.032	-0.161
-424.559	800.000	-0.041	-0.170
-423.544	-54.552	0.133	-0.060
-422.530	532.866	0.025	0.059
-421.515	-20.180	0.281	-0.173
-420.500	-134.580	-0.180	-0.022
-419.486	-200.000	-0.012	-0.187
-418.471	211.490	0.074	-0.116
-417.457	107.946	-0.097	0.115
-416.442	-142.579	0.115	-0.011
-415.428	190.659	-0.160	0.240
-414.413	19.847	-0.252	-0.202
-413.398	2.099	-0.167	-0.120
-412.384	224.807	0.059	0.096
-411.369	151.684	0.129	0.176
-410.355	-200.000	0.018	-0.110
-409.340	65.410	0.332	-0.335
-408.325	13.492	0.113	-0.087
-407.311	-17.381	0.024	0.015
-406.296	46.777	-0.031	0.029
-405.282	188.689	-0.200	0.299
-404.267	-108.289	0.112	0.024
-403.252	-44.344	0.104	-0.052
-402.238	-200.000	-0.008	-0.125
-401.223	24.645	0.279	0.231
-400.209	217.754	0.089	0.141
-399.194	138.589	0.281	-0.368
-398.179	86.860	0.064	0.071
-397.165	348.414	0.114	-0.224
-396.150	-22.665	0.234	-0.141
-395.136	375.389	0.137	-0.279
-394.121	154.834	-0.146	0.201
-393.106	-180.621	-0.324	0.007
-392.092	-200.000	0.060	-0.311
-391.077	-200.000	0.096	-0.479
-390.063	-200.000	0.100	0.000
-389.048	715.216	0.040	-0.106
-388.033	115.383	0.074	-0.091
-387.019	298.574	-0.111	-0.203
-386.004	800.000	-0.078	0.234
-384.990	0.777	0.327	-0.233
-383.975	-200.000	-0.057	-0.254
-382.960	73.687	0.258	-0.270
-381.946	-72.331	0.207	0.076
-380.931	-47.125	0.072	-0.035
-379.917	120.091	-0.202	0.250
-378.902	-56.750	-0.226	-0.100
-377.888	-200.000	-0.015	-0.530
-376.873	800.000	-0.011	-0.045
-375.858	800.000	0.088	-0.244
-374.844	321.194	0.039	-0.073
-373.829	-31.894	0.017	-0.009
-372.815	-200.000	-0.032	-0.350
-371.800	-200.000	0.014	0.164
-370.785	195.390	0.199	0.302
-369.771	115.754	-0.122	-0.148
-368.756	-44.069	0.176	0.088
-367.742	-200.000	0.047	0.218
-366.727	152.081	0.122	0.166
-365.712	-200.000	0.006	-0.099
-364.698	800.000	-0.096	0.290
-363.683	-123.659	0.105	-0.017
-362.669	303.975	0.083	-0.153
-361.654	-71.535	0.207	0.077
-360.639	-200.000	0.055	0.492
-359.625	800.000	-0.110	0.414
-358.610	-200.000	-0.008	0.127
-357.596	-132.362	-0.240	-0.031
-356.581	-200.000	0.036	0.160
-355.566	-34.941	0.132	-0.072
-354.552	-200.000	-0.034	-0.195
-353.537	24.676	-0.186	-0.153
-352.523	29.495	-0.273	0.231
-351.508	800.000	-0.146	-0.444
-350.493	-50.272	0.206	0.097
-349.479	-87.190	-0.324	-0.098
-348.464	525.150	0.191	0.448
-347.450	800.000	0.019	0.074
-346.435	201.915	0.086	0.132
-345.420	-11.557	0.204	0.133
-344.406	-14.359	-0.266	-0.171
-343.391	-142.110	-0.255	0.025
-342.377	-123.078	0.167	-0.027
-341.362	-200.000	-0.023	-0.265
-340.348	-15.938	0.202	0.128
-339.333	-200.000	-0.024	-0.159
-338.318	3.089	-0.160	0.116
-337.304	148.648	-0.170	0.228
-336.289	264.314	-0.053	-0.091
-335.275	-200.000	0.034	0.181
-334.260	-22.463	-0.158	0.095
-333.245	52.239	0.200	-0.190
-332.231	-196.438	-0.290	-0.002
-331.216	153.793	-0.129	-0.175
-330.202	-200.000	0.035	0.187
-329.187	-56.968	0.132	-0.058
-328.172	-200.000	-0.022	-0.246
-327.158	-132.893	0.264	0.033
-326.143	-64.602	-0.115	0.046
-325.129	-84.027	0.177	0.056
-324.114	-6.614	0.080	-0.054
-323.099	-200.000	0.004	-0.120
-322.085	-200.000	0.051	0.277
-321.070	-181.072	-0.267	-0.005
-320.056	482.251	0.065	0.148
-319.041	-22.660	0.030	0.018
-318.026	-86.500	0.102	-0.031
-317.012	603.233	-0.075	-0.187
-315.997	800.000	0.048	-0.200
-314.983	-191.739	0.179	-0.002
-313.968	105.024	-0.071	-0.084
-312.953	172.843	-0.159	0.228
-311.939	800.000	0.060	-0.232
-310.924	-200.000	-0.005	-0.029
-309.910	-79.480	-0.082	0.027
-308.895	-105.509	-0.247	0.056
-307.880	-200.000	0.057	0.266
-306.866	-18.398	0.134	-0.083
-305.851	263.641	0.033	-0.058
-304.837	-169.479	-0.134	-0.005
-303.822	286.291	-0.182	0.326
-302.807	-5.502	0.091	0.062
-301.793	-157.658	0.381	-0.023
-300.778	79.765	0.152	0.163
-299.764	25.983	-0.112	-0.093
-298.749	-200.000	-0.016	-0.071
-297.735	335.512	0.215	0.414
-296.720	-200.000	-0.043	0.284
-295.705	-200.000	-0.023	-0.209
-294.691	662.382	-0.114	0.291
-293.676	800.000	0.083	-0.231
-292.662	1.640	-0.162	0.116
-291.647	-98.872	0.493	-0.124
-290.632	-94.788	0.251	0.068
-289.618	178.795	-0.193	0.281
-288.603	280.870	-0.130	-0.231
-287.589	-200.000	-0.030	0.363
-286.574	-186.862	-0.356	0.005
-285.559	498.209	0.067	-0.153
-284.545	800.000	0.104	0.295
-283.530	-3.515	-0.163	-0.113
-282.516	417.542	-0.017	0.036
-281.501	-100.040	-0.074	0.018
-280.486	560.282	0.099	-0.238
-279.472	22.753	0.155	0.126
-278.457	88.235	-0.078	0.086
-277.443	-183.596	-0.172	0.003
-276.428	62.031	0.329	0.326
-275.413	-33.304	-0.172	0.094
-274.399	-200.000	-0.014	0.236
-273.384	-134.357	0.044	0.005
-272.370	419.123	0.150	-0.319
-271.355	137.469	-0.038	-0.050
-270.340	800.000	-0.073	-0.268
-269.326	-200.000	0.022	-0.153
-268.311	584.961	0.141	-0.344
-267.297	800.000	0.086	-0.271
-266.282	800.000	-0.056	-0.222
-265.267	156.964	0.149	-0.205
-264.253	-101.818	0.105	-0.025
-263.238	-110.453	-0.358	0.074
-262.224	141.485	0.216	0.283
-261.209	76.459	0.143	-0.150
-260.195	438.703	-0.094	-0.204
-259.180	782.507	0.219	-0.595
-258.165	800.000	-0.091	0.256
-257.151	800.000	-0.043	-0.140
-256.136	27.482	-0.085	-0.071
-255.122	-200.000	-0.002	-0.276
-254.107	-112.758	-0.096	0.019
-253.092	800.000	0.031	-0.093
-252.078	-98.664	-0.369	-0.093
-251.063	247.591	-0.055	0.092
-250.049	800.000	0.054	-0.208
-249.034	109.683	-0.074	0.089
-248.019	-200.000	-0.056	-0.291
-247.005	376.567	-0.160	-0.325
-245.990	-200.000	-0.003	-0.103
-244.976	-63.424	-0.169	0.069
-243.961	275.634	-0.048	0.084
-242.946	-69.646	-0.102	0.039
-241.932	442.898	0.045	-0.098
-240.917	165.675	-0.035	-0.049
-239.903	-98.475	0.409	-0.104
-238.888	-200.000	0.036	-0.284
-237.873	13.052	0.217	-0.167
-236.859	800.000	-0.148	-0.432
-235.844	-50.356	-0.369	0.173
-234.830	-99.508	0.469	0.117
-233.815	586.356	0.125	0.304
-232.800	567.027	-0.060	-0.143
-231.786	2.783	-0.121	0.087
-230.771	-17.007	-0.316	0.198
-229.757	-138.571	0.108	0.012
-228.742	800.000	-0.014	0.051
-227.727	656.584	0.112	0.285
-226.713	-200.000	-0.001	0.197
-225.698	56.689	0.139	-0.134
-224.684	-180.039	0.048	0.001
-223.669	15.105	0.196	0.152
-222.655	354.913	0.095	-0.187
-221.640	318.265	-0.136	0.255
-220.625	640.778	0.042	-0.105
-219.611	-163.105	-0.053	0.003
-218.596	-5.527	-0.291	-0.198
-217.582	-59.015	0.079	0.034
-216.567	-21.104	0.149	0.090
-215.552	-200.000	0.020	-0.219
-214.538	-5.629	0.222	-0.151
-213.523	-200.000	0.009	0.081
-212.509	800.000	0.054	0.189
-211.494	800.000	0.084	-0.241
-210.479	98.281	0.259	0.295
-209.465	-24.250	-0.247	-0.146
-208.450	-88.152	-0.241	0.072
-207.436	-200.000	0.043	-0.199
-206.421	-200.000	-0.058	-0.275
-205.406	-109.215	0.045	0.010
-204.392	66.284	0.421	0.423
-203.377	-182.498	-0.129	-0.002
-202.363	741.226	0.042	0.111
-201.348	-35.773	0.390	0.209
-200.333	86.059	0.109	0.119
-199.319	183.908	-0.048	-0.071
-198.304	-152.183	-0.229	0.016
-197.290	-80.454	0.260	-0.086
-196.275	-114.022	-0.310	0.059
-195.260	546.812	-0.156	0.368
-194.246	800.000	0.103	0.321
-193.231	41.610	0.394	-0.353
-192.217	-91.684	-0.133	-0.037
-191.202	318.338	0.037	-0.070
-190.187	-200.000	-0.015	-0.252
-189.173	104.157	-0.052	-0.060
-188.158	-200.000	0.033	0.183
-187.144	-40.605	-0.165	-0.085
-186.129	-152.243	-0.193	-0.014
-185.114	-109.011	0.435	0.092
-184.100	249.376	-0.282	-0.473
-183.085	-200.000	-0.001	-0.280
-182.071	-176.929	0.275	-0.007
-181.056	31.968	0.214	-0.182
-180.042	800.000	-0.032	-0.110
-179.027	-102.386	0.230	0.054
-178.012	95.560	-0.292	-0.330
-176.998	-99.561	-0.153	-0.038
-175.983	-48.074	0.128	-0.061
-174.969	800.000	0.096	0.308
-173.954	800.000	0.033	-0.120
-172.939	-164.594	-0.325	0.015
-171.925	-146.904	0.099	0.008
-170.910	-100.847	-0.067	-0.016
-169.896	2.403	0.126	0.090
-168.881	-31.928	0.186	-0.103
-167.866	52.828	0.116	0.110
-166.852	-44.009	0.104	-0.051
-165.837	763.737	-0.096	0.257
-164.823	-54.286	0.144	0.065
-163.808	658.926	0.038	-0.098
-162.793	-133.880	-0.241	-0.030
-161.779	-133.699	0.113	-0.014
-160.764	-27.323	-0.123	0.071
-159.750	-161.569	-0.159	-0.008
-158.735	-125.706	0.139	0.021
-157.720	417.993	-0.042	0.089
-156.706	89.297	-0.119	-0.131
-155.691	314.227	-0.024	0.044
-154.677	206.580	0.105	0.161
-153.662	-102.262	0.293	0.070
-152.647	800.000	-0.091	-0.272
-151.633	2.861	0.231	-0.166
-150.618	26.312	0.153	-0.126
-149.604	501.035	-0.129	0.293
-148.589	-6.953	0.255	-0.171
-147.574	-200.000	-0.001	0.520
-146.560	800.000	0.081	0.306
-145.545	-170.148	0.234	-0.008
-144.531	-200.000	-0.025	0.124
-143.516	-200.000	-0.044	0.395
-142.502	-124.008	-0.247	-0.038
-141.487	-117.272	-0.265	0.048
-140.472	800.000	0.031	-0.132
-139.458	-200.000	0.019	0.101
-138.443	82.827	0.071	0.076
-137.429	15.512	-0.153	-0.119
-136.414	-48.251	-0.098	0.046
-135.399	-18.323	-0.316	-0.195
-134.385	-149.872	0.441	-0.034
-133.370	-69.639	-0.180	-0.068
-132.356	-23.494	0.287	-0.170
-131.341	-200.000	0.029	-0.127
-130.326	0.383	-0.302	-0.213
-129.312	-200.000	0.022	0.226
-128.297	608.054	-0.041	-0.100
-127.283	-78.050	0.158	-0.054
-126.268	122.395	0.150	-0.185
-125.253	-200.000	0.002	-0.067
-124.239	800.000	0.086	0.327
-123.224	257.822	-0.074	0.125
-122.210	89.674	0.092	-0.101
-121.195	48.004	0.176	-0.162
