DTS Sentinel unit serial number:	SN413079Multiplexer serial number:	ORYXHardware model number:	OX4-SRSoftware version number:	ORYX F/W v4.00 Oryx Data Collector v3.7.2.0data status	okinstallation	princeton_trtdifferential loss correction	single-endedforward channel	channel 3reverse channel	N/Adate	2019/09/17time	03:00:35forward acquisition time	60.00reverse acquisition time	0.00gamma	496.2192k internal	0.2323k external	0.2323temperature offset calibration	0.9940default loss term (dB/km)	0.3790temperature slope calibration	1.0000multiplexer offset coefficient	1.0000multiplexer slope coefficient	1.0000fibre end	0.00T internal ref (°C)	29.94T ext. ref 1 (°C)	0.13T ext. ref 2 (°C)	24.83length (m)	temperature (°C)	Stokes	anti-Stokes-747.200	-86.511	0.221	0.068
-746.185	800.000	0.109	0.331
-745.171	-200.000	-0.029	0.265
-744.156	63.138	-0.162	0.164
-743.142	-57.709	0.090	-0.040
-742.127	98.655	-0.037	0.043
-741.112	800.000	0.068	0.291
-740.098	-50.586	-0.225	0.107
-739.083	-200.000	0.034	-0.173
-738.069	800.000	0.038	-0.141
-737.054	172.486	0.067	-0.098
-736.039	763.792	-0.154	-0.421
-735.025	-200.000	-0.000	-0.024
-734.010	-200.000	0.016	-0.261
-732.996	-75.098	0.130	0.047
-731.981	-104.559	-0.378	-0.088
-730.966	93.375	0.258	0.294
-729.952	218.388	0.047	0.076
-728.937	-65.847	-0.249	-0.101
-727.923	79.418	-0.223	0.242
-726.908	800.000	-0.099	-0.307
-725.894	122.913	-0.075	0.095
-724.879	-80.873	-0.451	-0.151
-723.864	85.546	-0.164	0.182
-722.850	-29.496	-0.154	-0.089
-721.835	-200.000	0.050	-0.288
-720.821	-149.733	-0.265	0.021
-719.806	800.000	-0.057	-0.225
-718.791	-200.000	0.005	-0.183
-717.777	800.000	-0.053	-0.191
-716.762	-133.217	-0.078	0.010
-715.748	-108.722	-0.211	0.046
-714.733	-25.774	-0.241	-0.143
-713.718	-67.865	0.074	0.029
-712.704	745.098	-0.145	0.393
-711.689	-149.849	-0.293	-0.023
-710.675	-111.036	-0.119	-0.025
-709.660	34.568	-0.307	-0.270
-708.645	-200.000	0.004	-0.220
-707.631	-200.000	0.056	-0.585
-706.616	-32.542	0.420	-0.236
-705.602	800.000	0.041	-0.154
-704.587	-150.180	-0.254	0.020
-703.572	-17.209	0.175	-0.111
-702.558	-68.883	-0.099	-0.038
-701.543	74.773	0.213	0.226
-700.529	-27.997	-0.083	-0.048
-699.514	167.666	-0.345	0.494
-698.499	18.330	0.240	-0.193
-697.485	128.907	-0.083	0.107
-696.470	-26.790	0.395	0.233
-695.456	69.711	-0.175	0.182
-694.441	-38.486	0.299	-0.159
-693.426	-147.990	-0.113	-0.009
-692.412	22.554	-0.202	0.166
-691.397	800.000	-0.068	0.272
-690.383	-70.231	0.073	0.028
-689.368	697.728	0.117	-0.310
-688.354	-200.000	-0.049	-0.258
-687.339	-200.000	0.020	0.161
-686.324	-162.524	0.166	0.008
-685.310	800.000	-0.079	-0.234
-684.295	-200.000	-0.073	0.417
-683.281	800.000	-0.088	-0.331
-682.266	-106.332	0.105	0.024
-681.251	121.085	0.066	0.083
-680.237	800.000	0.077	-0.231
-679.222	-140.344	0.305	0.032
-678.208	167.970	0.210	-0.301
-677.193	-200.000	-0.017	0.205
-676.178	-189.532	-0.326	0.004
-675.164	133.802	0.112	-0.146
-674.149	-100.997	-0.056	-0.014
-673.135	-9.149	-0.142	0.096
-672.120	-188.702	-0.308	0.004
-671.105	-4.627	0.063	-0.044
-670.091	269.110	-0.045	-0.080
-669.076	417.517	-0.077	-0.165
-668.062	95.653	0.042	0.049
-667.047	404.146	-0.086	-0.182
-666.032	-99.741	-0.193	-0.049
-665.018	-153.857	0.272	0.019
-664.003	-115.159	0.187	0.036
-662.989	429.986	-0.122	0.266
-661.974	212.793	-0.130	-0.207
-660.959	-25.392	-0.216	-0.129
-659.945	118.906	-0.041	-0.050
-658.930	-2.499	-0.125	0.088
-657.916	-48.984	-0.203	-0.098
-656.901	10.215	0.136	0.104
-655.886	21.021	0.171	0.140
-654.872	-200.000	-0.009	-0.312
-653.857	800.000	-0.073	-0.266
-652.843	-110.758	-0.261	0.054
-651.828	800.000	0.039	-0.162
-650.814	-200.000	0.053	-0.283
-649.799	122.411	0.247	-0.311
-648.784	-200.000	-0.024	-0.291
-647.770	4.377	-0.133	0.098
-646.755	65.336	0.184	0.187
-645.741	-94.102	-0.107	-0.030
-644.726	-17.324	0.302	-0.192
-643.711	735.938	0.063	-0.170
-642.697	-74.425	-0.138	0.050
-641.682	800.000	0.062	-0.270
-640.668	-66.281	0.154	-0.062
-639.653	220.723	-0.269	-0.434
-638.638	-200.000	-0.003	-0.078
-637.624	-57.203	0.346	0.153
-636.609	-200.000	-0.002	-0.013
-635.595	-21.298	0.227	-0.140
-634.580	115.950	0.142	-0.175
-633.565	219.721	-0.104	-0.167
-632.551	-200.000	0.017	0.250
-631.536	800.000	0.076	0.307
-630.522	89.489	0.170	0.191
-629.507	49.231	0.338	-0.319
-628.492	-0.866	-0.289	0.206
-627.478	275.840	-0.119	-0.212
-626.463	-29.342	0.047	0.027
-625.449	201.339	0.117	-0.181
-624.434	-69.564	-0.137	0.053
-623.419	54.041	0.154	-0.149
-622.405	-102.560	-0.489	0.118
-621.390	-138.981	0.287	-0.031
-620.376	25.450	0.100	-0.084
-619.361	57.535	0.064	-0.063
-618.346	-43.062	-0.188	0.096
-617.332	-124.327	0.254	-0.040
-616.317	572.224	-0.083	-0.203
-615.303	-92.645	0.339	-0.095
-614.288	-200.000	0.003	0.206
-613.273	-40.568	-0.214	0.112
-612.259	238.005	-0.023	0.039
-611.244	131.352	0.086	0.111
-610.230	-84.712	-0.270	-0.085
-609.215	-58.120	-0.209	0.091
-608.201	710.174	-0.109	-0.290
-607.186	800.000	0.043	-0.153
-606.171	-110.469	-0.277	-0.058
-605.157	10.433	-0.254	-0.194
-604.142	-133.149	-0.081	-0.010
-603.128	206.165	-0.048	-0.074
-602.113	185.759	0.069	-0.103
-601.098	10.693	-0.042	0.032
-600.084	64.226	0.120	0.121
-599.069	351.800	0.107	-0.212
-598.055	-73.917	0.283	-0.103
-597.040	501.157	0.026	-0.061
-596.025	-89.384	-0.353	-0.104
-595.011	-200.000	-0.050	-0.377
-593.996	11.451	-0.408	0.314
-592.982	31.891	0.094	-0.081
-591.967	311.865	-0.039	-0.073
-590.952	-122.257	-0.372	-0.061
-589.938	125.599	0.025	-0.031
-588.923	-98.969	0.177	0.045
-587.909	10.786	0.207	-0.158
-586.894	104.091	0.357	0.422
-585.879	800.000	-0.010	0.034
-584.865	502.955	-0.056	0.129
-583.850	-182.789	-0.309	-0.006
-582.836	-200.000	-0.037	-0.200
-581.821	-43.387	-0.011	0.006
-580.806	351.651	0.134	0.267
-579.792	-21.796	-0.202	0.123
-578.777	-200.000	-0.046	-0.335
-577.763	-77.985	0.196	0.068
-576.748	-10.808	0.046	-0.030
-575.733	92.741	0.084	-0.095
-574.719	800.000	-0.058	0.180
-573.704	-200.000	0.027	-0.163
-572.690	800.000	-0.035	-0.110
-571.675	-200.000	-0.021	-0.171
-570.661	-200.000	0.030	0.199
-569.646	-6.133	-0.194	0.133
-568.631	191.062	0.093	-0.140
-567.617	518.379	-0.078	-0.184
-566.602	-79.627	-0.101	0.034
-565.588	-94.377	-0.147	-0.040
-564.573	800.000	0.115	-0.352
-563.558	71.844	0.133	-0.139
-562.544	494.330	-0.121	0.279
-561.529	-200.000	-0.024	-0.140
-560.515	-161.518	-0.145	-0.007
-559.500	72.121	0.118	0.123
-558.485	800.000	-0.051	-0.197
-557.471	-200.000	0.073	-0.378
-556.456	-102.735	-0.087	0.021
-555.442	188.036	0.129	-0.193
-554.427	84.155	-0.163	0.179
-553.412	-176.832	0.285	-0.007
-552.398	238.100	0.032	-0.054
-551.383	80.883	0.374	0.405
-550.369	-152.726	-0.070	0.005
-549.354	-200.000	-0.021	0.219
-548.339	-29.739	-0.075	0.043
-547.325	-109.986	0.385	0.081
-546.310	15.700	-0.279	0.220
-545.296	367.511	-0.090	0.181
-544.281	693.154	0.087	-0.228
-543.266	-172.529	0.355	-0.011
-542.252	130.192	0.193	0.248
-541.237	-154.666	0.074	0.005
-540.223	-176.872	0.108	-0.003
-539.208	-103.535	0.106	0.025
-538.193	-52.674	0.387	-0.179
-537.179	-200.000	0.020	0.169
-536.164	204.206	0.288	0.447
-535.150	-117.918	0.146	-0.026
-534.135	800.000	-0.039	-0.132
-533.121	800.000	-0.056	0.190
-532.106	202.315	0.049	-0.076
-531.091	44.977	0.050	0.046
-530.077	-186.306	-0.291	-0.004
-529.062	123.026	-0.060	-0.076
-528.048	36.334	0.122	0.108
-527.033	587.033	-0.046	-0.113
-526.018	13.194	0.087	-0.068
-525.004	-28.785	-0.131	-0.076
-523.989	135.211	-0.020	-0.027
-522.975	188.649	0.178	-0.267
-521.960	86.955	-0.191	0.211
-520.945	-100.497	-0.267	-0.066
-519.931	-200.000	-0.095	0.421
-518.916	704.060	0.055	-0.144
-517.902	-37.934	-0.134	0.071
-516.887	119.940	-0.157	-0.194
-515.872	-11.585	-0.294	-0.194
-514.858	64.862	0.040	0.040
-513.843	-200.000	0.008	0.191
-512.829	423.435	0.044	-0.095
-511.814	-162.004	-0.364	0.018
-510.799	394.946	-0.111	-0.233
-509.785	-163.971	0.334	0.016
-508.770	175.416	0.171	-0.247
-507.756	88.415	-0.006	-0.007
-506.741	73.910	-0.147	0.154
-505.726	-154.700	0.207	0.014
-504.712	800.000	-0.104	0.317
-503.697	-111.904	0.345	0.070
-502.683	-60.340	-0.198	0.084
-501.668	800.000	-0.047	-0.199
-500.653	-48.252	0.276	0.133
-499.639	625.708	0.210	0.531
-498.624	800.000	-0.074	0.281
-497.610	-158.284	0.261	-0.015
-496.595	37.799	0.060	0.054
-495.581	175.139	-0.130	-0.188
-494.566	60.835	0.158	-0.157
-493.551	-75.951	-0.158	-0.056
-492.537	800.000	0.103	0.346
-491.522	-105.374	-0.154	0.035
-490.508	-35.281	-0.309	-0.168
-489.493	515.070	0.080	0.186
-488.478	-15.224	-0.125	-0.080
-487.464	-144.846	-0.082	0.008
-486.449	-121.828	-0.157	0.026
-485.435	-18.803	-0.272	0.169
-484.420	52.171	-0.108	0.103
-483.405	800.000	0.083	0.290
-482.391	-29.913	0.420	-0.239
-481.376	23.437	0.143	0.118
-480.362	-200.000	-0.010	-0.246
-479.347	-61.115	-0.062	-0.026
-478.332	165.247	-0.052	0.074
-477.318	28.913	0.058	-0.049
-476.303	47.922	0.163	-0.152
-475.289	42.916	0.088	-0.080
-474.274	-9.113	-0.058	-0.039
-473.259	406.223	-0.038	0.080
-472.245	-49.225	0.059	-0.028
-471.230	49.881	0.158	0.149
-470.216	248.051	0.081	-0.138
-469.201	-122.820	-0.382	-0.062
-468.186	-159.898	0.167	-0.009
-467.172	137.480	0.161	-0.211
-466.157	-33.671	0.038	0.021
-465.143	-97.611	-0.203	0.053
-464.128	800.000	0.046	-0.168
-463.113	-200.000	-0.032	-0.220
-462.099	90.592	-0.222	-0.248
-461.084	800.000	0.071	-0.232
-460.070	-200.000	-0.037	0.273
-459.055	-200.000	0.085	0.592
-458.040	364.145	-0.134	-0.270
-457.026	22.295	0.130	-0.106
-456.011	197.170	0.096	0.146
-454.997	-101.647	0.226	-0.055
-453.982	-68.807	0.079	0.030
-452.968	-16.207	0.164	0.104
-451.953	-200.000	-0.019	0.308
-450.938	211.435	-0.091	0.143
-449.924	-200.000	-0.018	0.387
-448.909	289.523	-0.083	-0.151
-447.895	-200.000	0.006	-0.155
-446.880	312.771	-0.066	-0.123
-445.865	800.000	0.079	-0.343
-444.851	-200.000	0.018	0.129
-443.836	79.462	0.135	-0.145
-442.822	71.131	0.086	-0.089
-441.807	-200.000	0.046	0.248
-440.792	800.000	0.040	-0.154
-439.778	118.451	-0.113	-0.139
-438.763	-200.000	-0.052	0.366
-437.749	-200.000	-0.004	-0.045
-436.734	-143.893	0.132	0.012
-435.719	-3.444	-0.389	-0.270
-434.705	233.549	-0.070	-0.115
-433.690	-80.551	-0.363	0.121
-432.676	-200.000	0.003	-0.036
-431.661	29.986	-0.137	-0.116
-430.646	-200.000	-0.005	-0.062
-429.632	-24.865	-0.213	-0.126
-428.617	-200.000	-0.025	0.341
-427.603	26.183	0.303	0.253
-426.588	-54.513	-0.174	0.079
-425.573	-200.000	-0.023	-0.211
-424.559	-113.096	-0.139	-0.027
-423.544	306.239	0.065	-0.121
-422.530	26.420	0.106	0.088
-421.515	64.743	-0.191	0.192
-420.500	800.000	-0.047	-0.141
-419.486	28.678	0.115	0.097
-418.471	-200.000	-0.005	0.162
-417.457	-76.036	-0.321	-0.113
-416.442	-107.869	-0.260	-0.056
-415.428	-91.134	0.251	-0.072
-414.413	-54.263	-0.248	-0.112
-413.398	-153.726	0.213	0.015
-412.384	68.675	0.088	0.090
-411.369	-185.404	-0.216	0.003
-410.355	557.002	0.026	0.061
-409.340	-155.470	0.107	0.007
-408.325	11.469	-0.260	0.199
-407.311	56.305	0.255	0.247
-406.296	60.595	-0.157	-0.155
-405.282	84.429	0.084	0.091
-404.267	-124.745	0.228	-0.035
-403.252	-10.858	0.203	-0.133
-402.238	-62.846	-0.028	0.011
-401.223	-182.819	-0.229	-0.004
-400.209	-159.195	-0.133	-0.007
-399.194	-95.630	0.141	-0.038
-398.179	168.370	-0.167	0.236
-397.165	218.991	0.172	0.273
-396.150	-36.660	-0.224	-0.120
-395.136	-101.337	0.286	-0.069
-394.121	144.932	-0.193	0.257
-393.106	-200.000	0.001	-0.025
-392.092	213.717	-0.039	-0.061
-391.077	800.000	-0.055	-0.157
-390.063	2.758	-0.069	-0.050
-389.048	-72.433	0.194	0.072
-388.033	800.000	0.032	0.114
-387.019	20.193	0.213	-0.171
-386.004	-28.716	-0.150	0.086
-384.990	-200.000	0.008	-0.038
-383.975	-200.000	0.003	0.104
-382.960	436.722	0.103	0.224
-381.946	275.765	-0.116	0.205
-380.931	-85.061	-0.248	0.077
-379.917	-117.257	0.061	-0.011
-378.902	633.134	-0.169	0.426
-377.888	-200.000	0.003	-0.140
-376.873	-200.000	-0.062	0.389
-375.858	173.304	0.224	-0.321
-374.844	-70.151	-0.219	0.083
-373.829	270.101	-0.165	-0.289
-372.815	-89.646	0.120	0.035
-371.800	33.818	-0.018	-0.016
-370.785	-61.648	0.079	-0.033
-369.771	92.531	0.120	-0.135
-368.756	648.391	-0.088	0.224
-367.742	380.492	-0.046	-0.095
-366.727	-108.056	-0.255	0.055
-365.712	56.409	0.094	-0.091
-364.698	-200.000	-0.016	0.118
-363.683	209.062	0.081	0.125
-362.669	800.000	-0.074	-0.259
-361.654	800.000	0.025	-0.084
-360.639	302.997	-0.246	0.454
-359.625	800.000	-0.064	-0.180
-358.610	-200.000	-0.004	-0.099
-357.596	-10.518	-0.415	0.273
-356.581	147.569	-0.294	-0.394
-355.566	16.523	0.247	-0.194
-354.552	125.558	0.425	-0.533
-353.537	-27.402	-0.072	0.042
-352.523	800.000	-0.102	0.349
-351.508	800.000	-0.032	0.124
-350.493	-63.842	-0.177	-0.072
-349.479	-175.708	0.318	-0.009
-348.464	210.731	-0.186	0.290
-347.450	-200.000	0.045	0.272
-346.435	27.496	0.126	-0.105
-345.420	27.553	0.136	-0.114
-344.406	113.123	-0.114	0.137
-343.391	206.910	-0.095	-0.147
-342.377	-200.000	-0.026	0.226
-341.362	466.622	-0.042	0.093
-340.348	800.000	-0.090	-0.268
-339.333	800.000	-0.040	0.127
-338.318	-118.546	-0.370	-0.065
-337.304	800.000	0.044	-0.150
-336.289	324.461	-0.027	-0.051
-335.275	-35.855	-0.304	0.163
-334.260	165.480	0.278	-0.390
-333.245	-128.518	0.105	0.015
-332.231	800.000	-0.028	0.103
-331.216	83.831	0.160	-0.174
-330.202	-101.083	0.167	0.041
-329.187	-59.706	-0.244	0.104
-328.172	-55.336	0.305	-0.136
-327.158	-41.891	-0.200	-0.102
-326.143	-44.431	-0.160	0.079
-325.129	111.126	0.011	-0.014
-324.114	148.497	-0.261	-0.351
-323.099	109.279	-0.099	-0.117
-322.085	-155.888	-0.266	0.017
-321.070	-108.466	0.088	0.019
-320.056	-37.904	0.244	-0.129
-319.041	-153.774	-0.044	-0.003
-318.026	-161.560	0.355	-0.018
-317.012	-65.760	-0.183	0.073
-315.997	207.933	-0.107	-0.166
-314.983	268.889	0.096	-0.166
-313.968	119.842	0.139	0.171
-312.953	-86.802	0.201	0.061
-311.939	-86.015	0.366	0.112
-310.924	-112.417	0.417	0.083
-309.910	172.902	-0.283	0.404
-308.895	-199.613	0.280	0.001
-307.880	495.026	-0.105	0.239
-306.866	189.240	-0.194	0.289
-305.851	-121.346	0.175	-0.029
-304.837	-24.643	-0.167	0.099
-303.822	-52.178	0.088	-0.041
-302.807	-71.946	-0.218	-0.081
-301.793	-155.570	-0.106	-0.007
-300.778	-200.000	-0.011	0.063
-299.764	760.752	0.130	0.350
-298.749	-25.148	-0.149	0.088
-297.735	275.568	0.172	-0.302
-296.720	-167.774	0.222	0.009
-295.705	-123.276	0.259	-0.041
-294.691	31.699	0.199	0.170
-293.676	22.432	-0.223	0.181
-292.662	-200.000	-0.039	0.224
-291.647	-50.622	-0.189	0.089
-290.632	-200.000	0.022	-0.290
-289.618	800.000	0.052	0.162
-288.603	-200.000	-0.047	0.253
-287.589	42.039	-0.167	-0.150
-286.574	634.102	0.125	-0.315
-285.559	-99.614	-0.168	0.042
-284.545	75.581	0.161	0.169
-283.530	528.428	-0.072	-0.168
-282.516	-126.750	0.196	0.029
-281.501	-156.591	0.106	-0.006
-280.486	3.233	-0.208	-0.150
-279.472	-200.000	0.023	0.120
-278.457	-200.000	-0.001	0.247
-277.443	800.000	0.019	0.072
-276.428	-86.814	0.234	0.071
-275.413	229.214	-0.096	-0.155
-274.399	800.000	-0.095	0.268
-273.384	-200.000	0.021	0.169
-272.370	334.573	0.078	-0.149
-271.355	217.230	0.104	-0.165
-270.340	-131.215	-0.282	0.037
-269.326	-60.678	0.086	-0.036
-268.311	-65.099	0.073	0.029
-267.297	-83.679	0.083	-0.026
-266.282	-200.000	-0.005	-0.162
-265.267	-68.437	-0.107	0.041
-264.253	109.888	-0.164	0.195
-263.238	-79.154	0.301	-0.101
-262.224	-200.000	0.001	-0.180
-261.209	-200.000	0.003	0.081
-260.195	-200.000	-0.030	-0.159
-259.180	1.288	0.075	0.054
-258.165	-97.516	-0.204	0.053
-257.151	-50.606	-0.276	-0.129
-256.136	-148.053	-0.225	-0.018
-255.122	-15.854	-0.279	0.176
-254.107	-200.000	-0.002	-0.063
-253.092	-200.000	0.029	-0.259
-252.078	-113.873	0.167	0.032
-251.063	-160.309	-0.017	0.001
-250.049	-200.000	-0.014	0.101
-249.034	687.471	-0.141	-0.365
-248.019	800.000	-0.032	0.132
-247.005	800.000	0.040	0.132
-245.990	445.029	-0.203	0.440
-244.976	800.000	0.040	0.116
-243.961	196.389	0.176	-0.265
-242.946	-200.000	-0.021	-0.321
-241.932	-135.649	-0.218	-0.026
-240.917	238.100	-0.070	0.116
-239.903	-106.784	0.078	0.017
-238.888	-144.672	-0.364	0.033
-237.873	-39.678	0.129	0.067
-236.859	-6.643	0.087	0.058
-235.844	-15.346	0.075	-0.048
-234.830	-139.557	0.226	-0.024
-233.815	177.425	-0.058	0.083
-232.800	-200.000	-0.066	0.340
-231.786	740.453	0.020	-0.052
-230.771	-2.029	-0.118	0.082
-229.757	160.682	0.186	-0.257
-228.742	800.000	0.031	-0.105
-227.727	89.894	-0.043	-0.048
-226.713	800.000	0.100	-0.329
-225.698	103.878	-0.144	-0.167
-224.684	-200.000	-0.020	0.356
-223.669	800.000	0.066	-0.246
-222.655	59.985	0.124	-0.121
-221.640	-63.179	-0.392	0.160
-220.625	-200.000	0.064	-0.386
-219.611	800.000	0.096	0.381
-218.596	490.960	-0.069	0.157
-217.582	87.630	0.284	0.311
-216.567	316.430	-0.034	-0.064
-215.552	-88.722	-0.142	0.042
-214.538	200.512	-0.286	0.435
-213.523	13.557	0.362	0.278
-212.509	-41.005	0.074	0.038
-211.494	-88.366	-0.166	0.049
-210.479	-171.521	-0.324	-0.011
-209.465	-158.530	-0.303	-0.017
-208.450	95.322	-0.090	0.101
-207.436	339.992	-0.109	-0.211
-206.421	44.914	0.279	0.254
-205.406	-93.179	0.087	0.024
-204.392	480.711	0.101	-0.227
-203.377	-157.284	0.115	-0.007
-202.363	60.656	-0.141	0.138
-201.348	-116.771	0.195	-0.035
-200.333	138.238	0.190	-0.246
-199.319	-165.776	-0.266	-0.011
-198.304	-132.664	0.104	-0.013
-197.290	-200.000	-0.031	-0.230
-196.275	382.537	-0.057	0.116
-195.260	-200.000	0.009	0.175
-194.246	4.008	0.216	-0.156
-193.231	-79.813	0.200	-0.066
-192.217	-200.000	0.018	-0.202
-191.202	800.000	0.085	-0.325
-190.187	-200.000	0.023	0.152
-189.173	800.000	0.012	0.051
-188.158	-8.827	0.049	0.032
-187.144	315.668	-0.177	0.330
-186.129	-69.092	0.471	0.179
-185.114	-43.094	-0.086	-0.043
-184.100	-153.865	-0.029	0.002
-183.085	-200.000	-0.026	-0.218
-182.071	-0.526	0.080	-0.056
-181.056	-0.865	-0.160	-0.112
-180.042	336.296	-0.078	-0.149
-179.027	159.991	0.144	0.198
-178.012	-36.744	0.078	-0.041
-176.998	-54.255	0.399	-0.179
-175.983	800.000	0.039	-0.144
-174.969	-10.848	0.089	-0.058
-173.954	71.789	0.318	-0.327
-172.939	306.519	-0.094	0.172
-171.925	-200.000	-0.056	0.245
-170.910	-158.645	0.166	-0.009
-169.896	800.000	0.107	-0.362
-168.881	-200.000	-0.016	-0.159
-167.866	-200.000	0.015	0.180
-166.852	13.136	-0.278	-0.213
-165.837	535.423	-0.063	-0.147
-164.823	-124.538	-0.194	-0.030
-163.808	-200.000	-0.009	0.247
-162.793	-200.000	-0.032	-0.181
-161.779	-65.787	-0.333	0.131
-160.764	365.368	0.060	0.119
-159.750	490.531	0.191	0.431
-158.735	-146.678	0.265	0.023
-157.720	-52.244	0.080	0.037
-156.706	800.000	-0.035	-0.101
-155.691	-7.299	0.121	-0.081
-154.677	43.513	0.059	-0.053
-153.662	-200.000	0.018	0.301
-152.647	800.000	-0.034	-0.141
-151.633	-89.693	-0.284	-0.082
-150.618	-58.278	0.076	-0.033
-149.604	800.000	0.031	-0.086
-148.589	-129.814	-0.022	0.003
-147.574	141.996	-0.057	0.075
-146.560	800.000	0.086	-0.365
-145.545	71.492	0.136	-0.139
-144.531	-200.000	-0.026	0.355
-143.516	-83.999	0.433	0.136
-142.502	800.000	0.132	0.392
-141.487	17.703	0.200	0.157
-140.472	-200.000	0.001	-0.026
-139.458	-82.964	-0.331	-0.105
-138.443	-93.828	-0.255	-0.069
-137.429	-183.039	-0.175	-0.003
-136.414	-200.000	-0.039	0.225
-135.399	265.244	-0.224	0.386
-134.385	274.255	-0.297	-0.519
-133.370	-148.570	-0.161	0.013
-132.356	322.852	-0.117	0.219
-131.341	-43.329	-0.057	-0.028
-130.326	-83.480	0.301	0.095
-129.312	193.219	-0.086	0.129
-128.297	47.427	0.128	-0.117
-127.283	50.430	0.194	-0.181
-126.268	192.650	0.124	0.185
-125.253	97.203	-0.182	-0.205
-124.239	-200.000	-0.020	0.248
-123.224	-200.000	-0.002	-0.102
-122.210	222.605	-0.052	0.082
