DTS Sentinel unit serial number:	SN413079Multiplexer serial number:	ORYXHardware model number:	OX4-SRSoftware version number:	ORYX F/W v4.00 Oryx Data Collector v3.7.2.0data status	okinstallation	princeton_trtdifferential loss correction	single-endedforward channel	channel 3reverse channel	N/Adate	2019/09/13time	06:00:35forward acquisition time	60.00reverse acquisition time	0.00gamma	496.2192k internal	0.2338k external	0.2338temperature offset calibration	1.0140default loss term (dB/km)	0.3790temperature slope calibration	1.0000multiplexer offset coefficient	1.0000multiplexer slope coefficient	1.0000fibre end	0.00T internal ref (°C)	26.12T ext. ref 1 (°C)	4.07T ext. ref 2 (°C)	20.96length (m)	temperature (°C)	Stokes	anti-Stokes-747.200	-200.000	0.047	-0.334
-746.185	-100.765	0.251	-0.062
-745.171	19.337	0.377	-0.304
-744.156	32.949	0.168	0.146
-743.142	-178.129	0.399	0.009
-742.127	-200.000	0.025	-0.128
-741.112	609.289	0.089	-0.222
-740.098	-131.164	-0.083	-0.011
-739.083	-53.165	0.213	-0.098
-738.069	-200.000	-0.041	0.502
-737.054	-142.508	-0.101	0.010
-736.039	191.118	-0.076	0.114
-735.025	17.366	0.136	0.108
-734.010	430.344	-0.026	-0.056
-732.996	-65.849	-0.202	-0.081
-731.981	70.527	-0.101	-0.105
-730.966	-7.909	0.265	-0.179
-729.952	-46.724	0.162	-0.080
-728.937	-92.434	-0.282	-0.080
-727.923	160.366	-0.176	-0.246
-726.908	800.000	-0.055	-0.240
-725.894	-41.713	-0.203	-0.105
-724.879	800.000	-0.096	-0.304
-723.864	-84.223	-0.244	0.078
-722.850	74.432	0.120	0.126
-721.835	-150.852	-0.190	-0.014
-720.821	-63.558	-0.207	-0.085
-719.806	-59.683	0.225	0.096
-718.791	59.955	0.168	-0.166
-717.777	-200.000	-0.094	0.466
-716.762	87.615	0.183	-0.203
-715.748	-91.161	-0.216	-0.062
-714.733	-200.000	-0.050	0.241
-713.718	82.896	0.342	0.373
-712.704	-9.318	0.141	-0.095
-711.689	15.516	-0.210	-0.165
-710.675	159.661	0.153	-0.214
-709.660	-62.412	0.265	0.110
-708.645	-85.072	-0.541	-0.170
-707.631	132.838	0.173	0.223
-706.616	-60.344	0.177	-0.076
-705.602	800.000	-0.126	0.431
-704.587	119.912	-0.068	0.084
-703.572	-75.362	0.155	-0.055
-702.558	115.675	0.143	0.176
-701.543	-65.560	0.203	-0.082
-700.529	-95.849	-0.069	0.019
-699.514	113.780	0.071	-0.087
-698.499	679.273	0.050	0.132
-697.485	-200.000	-0.016	0.197
-696.470	143.695	0.137	0.183
-695.456	-200.000	0.022	-0.260
-694.441	-147.960	0.440	-0.037
-693.426	-75.738	-0.194	0.069
-692.412	20.870	-0.086	0.070
-691.397	-200.000	-0.020	-0.300
-690.383	-200.000	-0.043	0.321
-689.368	-10.850	0.091	0.060
-688.354	-14.832	0.059	-0.038
-687.339	27.122	0.178	-0.150
-686.324	81.321	0.170	-0.184
-685.310	-200.000	-0.021	-0.116
-684.295	-14.470	-0.168	0.109
-683.281	99.762	-0.096	-0.112
-682.266	-30.555	-0.132	0.075
-681.251	-54.731	-0.302	-0.137
-680.237	406.813	0.058	0.122
-679.222	746.638	0.043	-0.117
-678.208	51.509	0.141	0.134
-677.193	-200.000	-0.008	0.063
-676.178	-142.034	-0.383	-0.038
-675.164	-66.674	-0.276	0.109
-674.149	-200.000	0.034	0.210
-673.135	-200.000	-0.049	-0.361
-672.120	55.567	-0.130	0.126
-671.105	-132.280	-0.157	0.020
-670.091	-200.000	-0.010	-0.288
-669.076	-96.965	-0.063	0.017
-668.062	755.686	0.076	0.205
-667.047	-15.605	-0.096	0.061
-666.032	-77.497	0.074	-0.026
-665.018	-153.708	0.397	-0.027
-664.003	-49.035	0.245	-0.117
-662.989	424.511	0.068	-0.147
-661.974	800.000	0.026	0.084
-660.959	800.000	0.071	0.222
-659.945	-28.415	0.186	-0.107
-658.930	572.095	-0.127	-0.309
-657.916	-170.133	0.185	-0.007
-656.901	21.478	0.123	0.100
-655.886	800.000	0.117	-0.416
-654.872	412.490	0.140	-0.298
-653.857	179.552	0.215	-0.315
-652.843	253.630	-0.070	-0.119
-651.828	182.115	-0.072	-0.106
-650.814	-79.043	0.225	0.077
-649.799	-200.000	-0.008	-0.129
-648.784	-134.542	-0.285	0.035
-647.770	-200.000	0.002	0.013
-646.755	-91.154	-0.353	0.101
-645.741	800.000	-0.052	-0.185
-644.726	-143.895	0.468	-0.044
-643.711	-123.901	-0.159	-0.025
-642.697	-88.674	-0.305	0.091
-641.682	20.944	0.036	-0.029
-640.668	-200.000	-0.028	-0.170
-639.653	-32.729	-0.333	-0.185
-638.638	42.524	0.158	-0.144
-637.624	-153.715	0.254	0.017
-636.609	-64.672	-0.130	0.053
-635.595	-200.000	-0.003	-0.096
-634.580	226.248	-0.101	0.164
-633.565	100.278	0.129	0.150
-632.551	800.000	0.067	0.234
-631.536	-102.057	0.195	-0.047
-630.522	-72.940	0.061	-0.022
-629.507	-15.358	-0.051	-0.033
-628.492	-106.004	-0.176	-0.040
-627.478	233.795	0.024	0.039
-626.463	-149.644	-0.493	0.039
-625.449	-200.000	0.006	-0.248
-624.434	-3.631	-0.294	-0.204
-623.419	23.475	0.070	-0.057
-622.405	-158.762	0.165	0.009
-621.390	-102.269	-0.189	0.045
-620.376	-200.000	0.030	0.189
-619.361	-130.043	-0.402	0.055
-618.346	-30.127	0.074	-0.042
-617.332	-3.268	-0.144	-0.100
-616.317	-200.000	0.010	-0.119
-615.303	492.963	0.225	-0.514
-614.288	21.364	-0.221	0.179
-613.273	-200.000	0.032	0.228
-612.259	-122.855	-0.048	0.008
-611.244	-21.845	-0.120	0.073
-610.230	108.867	-0.102	0.122
-609.215	106.974	-0.055	-0.066
-608.201	-50.066	0.232	-0.110
-607.186	80.311	0.249	0.267
-606.171	229.213	-0.066	-0.107
-605.157	425.852	0.193	-0.416
-604.142	-172.412	0.199	0.006
-603.128	-138.456	-0.182	0.020
-602.113	697.942	-0.019	-0.051
-601.098	48.523	0.123	-0.115
-600.084	-35.298	0.146	-0.079
-599.069	-87.416	0.235	0.071
-598.055	679.601	0.053	-0.137
-597.040	-113.943	0.203	0.039
-596.025	-87.549	-0.200	-0.060
-595.011	344.456	0.162	0.318
-593.996	-200.000	0.034	-0.155
-592.982	23.924	0.068	-0.056
-591.967	800.000	0.047	0.193
-590.952	332.872	0.075	0.144
-589.938	-39.860	-0.035	-0.018
-588.923	-106.816	0.248	0.055
-587.909	-179.906	0.072	-0.002
-586.894	633.353	0.036	-0.092
-585.879	-15.371	0.307	0.196
-584.865	174.435	-0.116	0.168
-583.850	-30.784	-0.280	-0.158
-582.836	151.216	-0.154	0.209
-581.821	-106.557	-0.106	-0.024
-580.806	-200.000	-0.035	-0.178
-579.792	-200.000	-0.027	-0.235
-578.777	800.000	0.074	0.292
-577.763	118.017	0.275	0.338
-576.748	-126.483	-0.329	-0.049
-575.733	-99.294	0.163	-0.041
-574.719	9.946	-0.303	0.230
-573.704	-2.884	-0.231	0.161
-572.690	-10.552	-0.112	-0.074
-571.675	-200.000	0.017	0.102
-570.661	92.651	0.074	-0.083
-569.646	162.465	-0.053	0.074
-568.631	28.492	-0.094	-0.079
-567.617	1.565	-0.045	0.032
-566.602	114.802	-0.074	0.090
-565.588	-119.458	0.070	-0.012
-564.573	216.772	0.165	-0.262
-563.558	-180.548	-0.120	0.002
-562.544	-7.013	-0.050	-0.034
-561.529	257.901	0.051	-0.088
-560.515	52.442	0.164	0.156
-559.500	-80.060	-0.184	-0.062
-558.485	-39.070	0.362	-0.190
-557.471	105.552	-0.147	0.173
-556.456	1.423	-0.265	-0.190
-555.442	-173.812	-0.269	0.008
-554.427	107.800	0.212	-0.251
-553.412	414.045	-0.178	0.377
-552.398	348.152	-0.120	-0.236
-551.383	-200.000	-0.052	-0.245
-550.369	-48.781	0.147	0.070
-549.354	-200.000	-0.031	-0.258
-548.339	75.211	-0.211	-0.222
-547.325	232.945	-0.077	-0.126
-546.310	-1.190	-0.202	-0.142
-545.296	800.000	0.077	-0.308
-544.281	800.000	0.125	-0.374
-543.266	250.912	-0.043	-0.073
-542.252	-105.866	-0.261	0.059
-541.237	89.908	-0.143	0.159
-540.223	-200.000	0.007	-0.115
-539.208	125.617	0.124	-0.155
-538.193	-106.926	0.021	0.005
-537.179	65.462	0.044	-0.044
-536.164	-73.555	0.112	0.041
-535.150	-136.129	-0.147	0.017
-534.135	-167.688	-0.189	-0.007
-533.121	425.396	-0.085	0.182
-532.106	-200.000	0.015	-0.343
-531.091	-107.484	-0.165	-0.036
-530.077	31.306	-0.171	0.146
-529.062	35.943	-0.171	0.149
-528.048	14.212	-0.487	-0.378
-527.033	92.403	-0.401	-0.450
-526.018	-75.501	-0.459	-0.163
-525.004	-110.929	0.431	-0.088
-523.989	-200.000	0.011	0.084
-522.975	-200.000	-0.013	-0.287
-521.960	36.537	0.073	0.064
-520.945	47.151	-0.290	0.269
-519.931	-200.000	0.079	0.485
-518.916	-200.000	-0.047	0.322
-517.902	212.735	0.145	0.227
-516.887	-147.284	-0.024	0.002
-515.872	536.253	-0.088	-0.208
-514.858	11.830	0.091	0.070
-513.843	800.000	0.065	0.245
-512.829	-80.482	0.124	-0.041
-511.814	-48.171	0.222	-0.107
-510.799	800.000	-0.076	0.223
-509.785	-178.195	0.125	0.003
-508.770	720.498	0.022	-0.058
-507.756	146.718	0.096	0.129
-506.741	-200.000	0.004	-0.060
-505.726	557.176	0.035	0.083
-504.712	800.000	0.099	0.279
-503.697	800.000	0.106	-0.414
-502.683	132.288	0.093	-0.119
-501.668	51.625	-0.208	0.197
-500.653	-200.000	0.005	-0.047
-499.639	618.701	0.098	0.244
-498.624	-2.853	0.299	-0.208
-497.610	-158.593	-0.249	-0.014
-496.595	800.000	0.059	-0.235
-495.581	-200.000	-0.040	-0.370
-494.566	800.000	0.065	-0.186
-493.551	-200.000	-0.004	-0.143
-492.537	800.000	-0.063	0.206
-491.522	90.744	0.182	-0.202
-490.508	302.373	-0.066	-0.122
-489.493	-83.924	-0.119	-0.038
-488.478	800.000	-0.074	-0.293
-487.464	-200.000	0.017	0.123
-486.449	18.845	0.144	-0.115
-485.435	-200.000	-0.042	0.196
-484.420	-200.000	-0.010	-0.110
-483.405	-45.110	0.353	-0.175
-482.391	-0.697	-0.173	0.122
-481.376	800.000	-0.062	0.178
-480.362	109.944	-0.106	0.126
-479.347	294.781	-0.086	0.155
-478.332	-81.080	-0.249	-0.082
-477.318	-45.980	-0.183	0.090
-476.303	-160.137	-0.207	-0.011
-475.289	800.000	0.047	-0.180
-474.274	98.756	0.065	-0.075
-473.259	62.063	-0.166	0.164
-472.245	-52.119	0.027	-0.013
-471.230	4.015	-0.371	0.270
-470.216	-64.233	0.308	-0.125
-469.201	57.570	-0.065	0.063
-468.186	800.000	0.079	-0.313
-467.172	323.200	-0.076	0.144
-466.157	-142.362	-0.378	0.037
-465.143	-121.791	0.221	0.036
-464.128	36.904	0.270	-0.237
-463.113	-100.671	0.131	0.032
-462.099	-47.104	0.213	-0.103
-461.084	-120.818	-0.135	0.023
-460.070	-31.428	-0.073	0.041
-459.055	-145.324	-0.359	0.032
-458.040	-118.384	-0.366	0.064
-457.026	143.532	0.143	-0.189
-456.011	-52.743	0.192	-0.088
-454.997	-90.782	-0.100	-0.029
-453.982	-200.000	-0.003	-0.256
-452.968	58.745	-0.392	-0.382
-451.953	201.997	0.107	0.163
-450.938	-26.995	-0.134	0.078
-449.924	-28.590	0.356	0.204
-448.909	324.892	0.060	-0.114
-447.895	-200.000	-0.028	0.131
-446.880	282.283	0.056	-0.100
-445.865	-115.763	0.271	0.050
-444.851	800.000	0.031	-0.092
-443.836	800.000	0.048	0.203
-442.822	-17.800	-0.140	-0.087
-441.807	449.537	0.054	0.119
-440.792	-32.138	-0.267	0.148
-439.778	56.297	-0.159	0.153
-438.763	-200.000	-0.014	-0.268
-437.749	30.375	-0.144	-0.122
-436.734	-200.000	0.029	-0.178
-435.719	-19.486	0.204	-0.125
-434.705	94.832	-0.213	-0.240
-433.690	-95.655	-0.246	-0.065
-432.676	2.085	-0.104	0.074
-431.661	187.176	-0.173	-0.255
-430.646	554.366	-0.090	-0.216
-429.632	-53.576	0.265	0.120
-428.617	-47.446	0.192	-0.092
-427.603	-28.627	-0.171	-0.097
-426.588	-109.651	-0.308	-0.064
-425.573	800.000	0.130	0.500
-424.559	-178.496	0.489	0.011
-423.544	-9.434	-0.017	-0.011
-422.530	800.000	-0.106	-0.374
-421.515	573.480	0.102	0.247
-420.500	56.043	0.137	0.132
-419.486	800.000	0.040	-0.125
-418.471	-11.104	-0.099	0.065
-417.457	-141.544	-0.140	-0.014
-416.442	800.000	0.118	0.415
-415.428	-124.039	0.212	0.033
-414.413	800.000	-0.010	-0.033
-413.398	102.771	-0.149	0.172
-412.384	362.273	0.055	0.110
-411.369	54.451	0.099	0.094
-410.355	800.000	-0.013	-0.048
-409.340	45.015	0.198	-0.180
-408.325	-200.000	-0.006	-0.089
-407.311	-114.390	0.187	-0.036
-406.296	25.318	0.225	0.185
-405.282	-90.695	0.089	-0.025
-404.267	203.378	-0.040	-0.061
-403.252	800.000	-0.033	-0.116
-402.238	-138.645	0.124	0.013
-401.223	88.159	0.338	-0.372
-400.209	62.387	0.071	0.070
-399.194	800.000	0.135	0.463
-398.179	235.739	0.071	-0.117
-397.165	800.000	-0.008	0.029
-396.150	-200.000	0.018	-0.167
-395.136	-98.014	0.168	-0.043
-394.121	-127.254	0.311	0.045
-393.106	-141.732	0.104	0.010
-392.092	-96.613	-0.270	0.070
-391.077	787.514	0.105	0.286
-390.063	-200.000	0.018	0.196
-389.048	-36.480	-0.135	-0.072
-388.033	36.989	0.153	0.134
-387.019	-67.206	0.103	0.040
-386.004	-119.625	0.045	-0.008
-384.990	59.391	-0.102	0.099
-383.975	247.045	0.110	-0.183
-382.960	155.399	0.163	-0.222
-381.946	-17.528	0.091	0.057
-380.931	-28.861	-0.186	0.106
-379.917	-131.320	0.235	0.031
-378.902	-200.000	0.004	-0.181
-377.888	183.055	0.096	-0.141
-376.873	-90.273	0.149	-0.043
-375.858	-13.799	-0.193	0.123
-374.844	-124.210	0.076	-0.012
-373.829	-200.000	-0.002	0.132
-372.815	-200.000	-0.007	0.259
-371.800	4.611	0.109	-0.079
-370.785	-101.501	-0.315	-0.076
-369.771	-52.938	0.228	0.104
-368.756	-73.505	-0.112	0.040
-367.742	-67.104	-0.160	0.062
-366.727	-200.000	0.035	0.155
-365.712	-50.908	-0.139	-0.065
-364.698	-200.000	0.003	0.367
-363.683	-91.792	-0.157	0.044
-362.669	78.233	0.400	-0.422
-361.654	-112.708	0.172	-0.034
-360.639	-200.000	-0.003	-0.143
-359.625	-184.749	-0.392	0.006
-358.610	228.677	-0.143	-0.231
-357.596	169.705	0.164	-0.232
-356.581	-81.863	0.123	-0.040
-355.566	230.510	-0.152	-0.245
-354.552	174.714	0.203	0.290
-353.537	312.632	-0.203	0.377
-352.523	-33.973	0.146	-0.080
-351.508	336.690	0.118	-0.226
-350.493	-62.723	-0.098	0.040
-349.479	124.759	-0.147	-0.183
-348.464	214.876	-0.161	-0.252
-347.450	800.000	0.067	0.244
-346.435	-28.699	-0.133	0.076
-345.420	17.500	0.247	0.194
-344.406	68.301	-0.250	-0.253
-343.391	156.698	-0.083	-0.113
-342.377	-186.484	-0.385	0.005
-341.362	-200.000	0.007	0.122
-340.348	87.775	-0.064	0.070
-339.333	51.426	0.119	0.111
-338.318	-97.123	0.050	-0.013
-337.304	800.000	0.064	0.205
-336.289	-67.781	-0.156	0.060
-335.275	-21.419	-0.459	0.277
-334.260	10.565	0.191	-0.143
-333.245	-120.718	-0.176	-0.029
-332.231	254.070	-0.091	-0.154
-331.216	513.614	0.109	0.252
-330.202	10.713	-0.126	0.095
-329.187	264.074	0.069	0.119
-328.172	26.453	-0.021	-0.017
-327.158	-127.707	0.308	-0.044
-326.143	-178.249	-0.311	0.007
-325.129	432.463	-0.014	0.029
-324.114	800.000	-0.054	-0.198
-323.099	399.879	0.048	0.099
-322.085	800.000	0.021	-0.088
-321.070	185.151	-0.223	-0.326
-320.056	-14.644	-0.340	-0.216
-319.041	710.328	-0.107	0.280
-318.026	-164.510	0.417	-0.019
-317.012	12.484	0.195	-0.149
-315.997	113.437	0.077	0.092
-314.983	447.040	0.044	0.095
-313.968	-169.720	0.263	-0.009
-312.953	-200.000	0.013	0.065
-311.939	-20.791	0.093	0.056
-310.924	-94.875	0.240	0.064
-309.910	342.046	-0.303	-0.584
-308.895	281.441	0.055	0.097
-307.880	-8.573	0.303	0.201
-306.866	525.370	0.030	0.069
-305.851	-139.320	0.303	-0.032
-304.837	-200.000	-0.035	0.270
-303.822	4.883	0.127	-0.092
-302.807	111.774	0.342	0.407
-301.793	235.032	-0.069	0.112
-300.778	66.811	0.301	-0.302
-299.764	24.865	0.147	0.121
-298.749	800.000	-0.070	-0.277
-297.735	800.000	-0.076	0.263
-296.720	77.929	0.035	-0.037
-295.705	-200.000	0.031	-0.191
-294.691	267.323	-0.135	0.232
-293.676	-23.352	0.144	-0.086
-292.662	-200.000	-0.029	0.147
-291.647	374.708	0.026	0.051
-290.632	-64.059	0.159	0.064
-289.618	-115.015	0.271	0.051
-288.603	78.020	-0.186	-0.195
-287.589	-92.417	-0.146	-0.040
-286.574	-93.279	-0.152	-0.042
-285.559	-10.150	0.091	0.059
-284.545	-200.000	-0.029	0.233
-283.530	-200.000	0.032	-0.239
-282.516	-197.291	0.161	0.001
-281.501	-200.000	0.034	0.191
-280.486	-93.018	-0.060	0.017
-279.472	-128.009	0.160	-0.023
-278.457	257.514	-0.229	0.389
-277.443	356.737	-0.039	-0.076
-276.428	-156.956	0.110	0.007
-275.413	-45.216	-0.116	0.057
-274.399	96.537	-0.070	0.078
-273.384	4.506	0.176	-0.127
-272.370	334.452	0.059	-0.113
-271.355	-113.178	-0.153	0.030
-270.340	-117.103	0.116	-0.021
-269.326	51.300	0.150	0.140
-268.311	-130.801	0.239	-0.032
-267.297	800.000	0.031	-0.101
-266.282	198.857	-0.152	-0.229
-265.267	-123.890	-0.150	-0.023
-264.253	-189.063	0.216	-0.003
-263.238	138.914	-0.188	-0.243
-262.224	-200.000	-0.026	0.210
-261.209	800.000	-0.040	-0.142
-260.195	-168.869	-0.231	0.009
-259.180	23.001	-0.128	-0.103
-258.165	72.152	0.221	0.227
-257.151	-10.737	-0.110	0.072
-256.136	-200.000	-0.001	-0.156
-255.122	-81.465	-0.265	0.086
-254.107	800.000	0.081	0.228
-253.092	800.000	0.125	0.400
-252.078	800.000	0.041	0.173
-251.063	-200.000	-0.014	-0.214
-250.049	800.000	-0.011	-0.034
-249.034	-117.091	0.239	0.043
-248.019	-56.183	0.467	0.205
-247.005	800.000	-0.065	-0.191
-245.990	-114.238	0.336	0.064
-244.976	-200.000	0.042	-0.226
-243.961	-45.571	0.195	-0.095
-242.946	-64.184	0.202	0.081
-241.932	-56.031	-0.190	0.083
-240.917	-44.410	0.095	-0.047
-239.903	-46.109	-0.059	0.029
-238.888	800.000	0.055	0.171
-237.873	800.000	-0.053	0.166
-236.859	-64.822	0.373	-0.149
-235.844	19.592	-0.285	-0.226
-234.830	-9.673	-0.225	0.147
-233.815	-27.933	-0.247	0.141
-232.800	-200.000	0.020	0.130
-231.786	8.262	-0.191	-0.141
-230.771	-200.000	0.019	-0.186
-229.757	-59.628	-0.280	0.118
-228.742	-178.814	-0.267	-0.006
-227.727	-200.000	0.003	0.070
-226.713	141.304	0.078	0.102
-225.698	29.656	0.234	-0.195
-224.684	800.000	0.090	0.281
-223.669	-200.000	0.046	0.229
-222.655	42.405	0.093	0.083
-221.640	142.624	0.146	0.190
-220.625	-200.000	-0.030	0.415
-219.611	36.957	-0.117	-0.101
-218.596	-200.000	-0.001	-0.077
-217.582	39.882	-0.178	0.157
-216.567	-200.000	-0.044	0.278
-215.552	291.714	-0.027	0.048
-214.538	332.426	0.032	-0.061
-213.523	-200.000	0.014	-0.236
-212.509	84.805	0.040	0.043
-211.494	-57.127	0.053	-0.023
-210.479	30.740	-0.238	0.201
-209.465	-40.456	0.250	-0.128
-208.450	18.192	-0.248	0.195
-207.436	-65.371	0.215	0.085
-206.421	-93.005	0.310	0.085
-205.406	-91.947	0.156	-0.043
-204.392	-200.000	0.057	-0.298
-203.377	-69.791	-0.164	0.061
-202.363	-200.000	0.046	0.249
-201.348	24.739	0.055	-0.045
-200.333	-200.000	0.012	-0.315
-199.319	258.329	-0.078	0.132
-198.304	800.000	0.058	0.177
-197.290	800.000	-0.095	0.274
-196.275	-145.414	0.257	-0.023
-195.260	41.599	-0.113	0.100
-194.246	-200.000	-0.033	-0.145
-193.231	435.257	-0.126	-0.269
-192.217	-66.047	-0.365	0.143
-191.202	-28.312	-0.167	0.095
-190.187	-88.031	0.154	0.045
-189.173	688.259	-0.112	-0.287
-188.158	-40.857	0.187	-0.095
-187.144	-133.467	0.208	-0.026
-186.129	-45.686	-0.183	0.089
-185.114	39.387	0.078	0.068
-184.100	800.000	0.012	0.040
-183.085	-128.431	-0.166	0.023
-182.071	-200.000	-0.084	-0.000
-181.056	-101.129	0.326	0.078
-180.042	-53.698	0.499	0.224
-179.027	-55.932	-0.205	0.090
-178.012	34.403	-0.103	-0.088
-176.998	-11.633	-0.077	-0.050
-175.983	5.631	0.176	0.128
-174.969	-188.799	0.257	0.003
-173.954	-101.015	-0.236	0.057
-172.939	650.705	0.180	-0.453
-171.925	-162.662	-0.281	-0.014
-170.910	785.094	-0.125	0.337
-169.896	410.117	0.137	0.284
-168.881	-92.150	-0.127	0.035
-167.866	-16.828	-0.229	-0.142
-166.852	100.593	0.140	-0.160
-165.837	-200.000	-0.002	0.099
-164.823	-93.049	0.106	-0.029
-163.808	-18.595	-0.126	0.077
-162.793	-96.925	0.086	0.022
-161.779	312.850	-0.050	0.092
-160.764	34.269	0.192	0.165
-159.750	800.000	0.022	0.066
-158.735	-200.000	-0.038	-0.350
-157.720	-97.267	0.211	-0.054
-156.706	0.201	-0.036	0.025
-155.691	109.775	-0.109	0.129
-154.677	-200.000	-0.011	0.059
-153.662	-11.516	0.218	0.140
-152.647	-200.000	0.017	-0.211
-151.633	440.074	0.059	-0.127
-150.618	-149.146	-0.119	-0.009
-149.604	97.360	0.171	0.192
-148.589	-200.000	-0.014	-0.115
-147.574	-29.710	-0.272	0.152
-146.560	-200.000	-0.019	-0.300
-145.545	-15.921	0.268	0.167
-144.531	800.000	0.014	0.040
-143.516	-63.999	-0.228	0.091
-142.502	233.766	-0.057	0.092
-141.487	-131.133	-0.056	0.007
-140.472	52.364	0.202	0.189
-139.458	-200.000	0.012	-0.223
-138.443	-48.535	0.474	-0.224
-137.429	-200.000	0.016	-0.170
-136.414	441.162	0.090	-0.192
-135.399	800.000	0.059	0.205
-134.385	-106.365	-0.419	0.092
-133.370	118.899	0.136	-0.165
-132.356	338.851	0.048	0.091
-131.341	79.736	-0.112	-0.118
-130.326	-24.854	0.189	0.110
-129.312	-29.816	-0.506	0.282
-128.297	119.961	0.223	-0.271
-127.283	-200.000	-0.001	0.237
-126.268	32.340	0.020	0.017
-125.253	66.013	0.160	-0.159
-124.239	-191.642	0.362	0.004
-123.224	-62.263	-0.279	-0.114
-122.210	800.000	-0.069	0.237
-121.195	-53.955	0.134	-0.060
-120.180	-95.545	-0.178	0.047
