DTS Sentinel unit serial number:	SN413079Multiplexer serial number:	ORYXHardware model number:	OX4-SRSoftware version number:	ORYX F/W v4.00 Oryx Data Collector v3.7.2.0data status	okinstallation	princeton_trtdifferential loss correction	single-endedforward channel	channel 3reverse channel	N/Adate	2019/09/14time	16:40:35forward acquisition time	60.00reverse acquisition time	0.00gamma	496.2192k internal	0.2295k external	0.2295temperature offset calibration	1.0039default loss term (dB/km)	0.3790temperature slope calibration	1.0000multiplexer offset coefficient	1.0000multiplexer slope coefficient	1.0000fibre end	0.00T internal ref (°C)	38.00T ext. ref 1 (°C)	5.04T ext. ref 2 (°C)	33.61length (m)	temperature (°C)	Stokes	anti-Stokes-747.200	800.000	-0.076	0.221
-746.185	-63.554	-0.198	-0.083
-745.171	194.263	-0.107	-0.165
-744.156	422.556	0.079	0.173
-743.142	-71.430	0.199	0.076
-742.127	232.740	-0.111	-0.187
-741.112	-77.572	0.085	0.030
-740.098	57.125	0.086	0.086
-739.083	290.973	0.139	0.259
-738.069	-13.970	-0.382	-0.252
-737.054	-200.000	0.040	-0.254
-736.039	-200.000	-0.018	-0.179
-735.025	-97.831	-0.249	0.066
-734.010	-65.859	-0.147	0.060
-732.996	-200.000	0.132	-0.637
-731.981	800.000	0.171	-0.545
-730.966	800.000	0.070	-0.202
-729.952	-2.351	-0.237	-0.170
-728.937	166.653	0.013	-0.019
-727.923	-102.358	-0.154	0.038
-726.908	-66.323	0.093	0.038
-725.894	233.424	0.173	-0.291
-724.879	-150.369	-0.371	-0.029
-723.864	-200.000	0.026	-0.116
-722.850	-200.000	-0.028	-0.270
-721.835	-200.000	-0.011	-0.061
-720.821	-200.000	-0.022	0.128
-719.806	800.000	0.056	-0.179
-718.791	-126.786	-0.160	0.024
-717.777	-40.854	-0.325	0.172
-716.762	-171.221	0.180	0.006
-715.748	154.637	-0.219	-0.307
-714.733	-178.054	0.384	0.009
-713.718	-70.329	0.372	-0.144
-712.704	-87.344	-0.336	0.104
-711.689	99.909	-0.272	-0.322
-710.675	800.000	0.050	-0.184
-709.660	-200.000	-0.007	-0.171
-708.645	90.558	-0.141	0.161
-707.631	32.992	0.349	-0.308
-706.616	225.110	0.083	-0.137
-705.602	5.184	-0.366	-0.275
-704.587	124.668	-0.240	0.309
-703.572	90.562	-0.228	0.260
-702.558	11.760	0.183	-0.143
-701.543	-77.382	0.027	0.010
-700.529	-200.000	-0.014	-0.322
-699.514	207.907	-0.150	0.239
-698.499	150.422	-0.130	-0.180
-697.485	304.942	0.112	0.213
-696.470	800.000	0.018	-0.067
-695.456	81.249	0.198	-0.219
-694.441	283.924	-0.034	-0.063
-693.426	-75.754	-0.108	0.039
-692.412	326.663	-0.060	-0.118
-691.397	181.683	-0.142	-0.213
-690.383	-79.836	-0.211	-0.073
-689.368	-27.683	0.194	-0.115
-688.354	757.242	-0.123	-0.339
-687.339	-162.191	0.031	0.002
-686.324	-137.078	0.449	0.052
-685.310	-188.243	-0.329	0.004
-684.295	800.000	-0.050	-0.192
-683.281	-200.000	-0.012	-0.259
-682.266	37.611	0.321	-0.290
-681.251	800.000	-0.034	-0.129
-680.237	800.000	0.055	-0.219
-679.222	9.627	-0.102	-0.079
-678.208	-200.000	-0.011	0.139
-677.193	673.979	0.073	-0.194
-676.178	800.000	-0.037	-0.130
-675.164	124.270	-0.103	0.132
-674.149	-200.000	0.008	0.343
-673.135	-70.129	-0.191	0.074
-672.120	101.038	0.125	-0.148
-671.105	-104.385	-0.186	0.044
-670.091	-5.043	0.098	0.069
-669.076	35.741	0.052	0.047
-668.062	-118.429	0.263	0.048
-667.047	-124.575	-0.082	-0.013
-666.032	-152.481	0.129	0.009
-665.018	-152.214	0.114	0.008
-664.003	230.719	0.158	0.264
-662.989	-63.534	-0.207	-0.087
-661.974	46.871	-0.169	0.160
-660.959	122.751	-0.035	-0.045
-659.945	59.289	0.227	0.228
-658.930	-117.784	-0.232	-0.043
-657.916	-142.883	0.202	-0.020
-656.901	-183.806	0.363	-0.006
-655.886	-55.414	-0.194	0.089
-654.872	92.078	-0.023	-0.026
-653.857	-116.156	-0.296	0.056
-652.843	800.000	-0.082	-0.295
-651.828	-200.000	0.029	0.302
-650.814	9.846	-0.183	0.141
-649.799	-21.918	-0.150	0.093
-648.784	-135.172	-0.327	0.040
-647.770	108.946	-0.081	-0.098
-646.755	-161.166	-0.135	-0.007
-645.741	-200.000	0.021	0.110
-644.726	67.394	0.088	0.091
-643.711	77.762	-0.183	-0.198
-642.697	-114.186	-0.344	-0.068
-641.682	-200.000	-0.080	0.400
-640.668	-200.000	-0.008	-0.126
-639.653	66.758	0.150	0.155
-638.638	-200.000	-0.010	0.057
-637.624	312.404	0.041	0.079
-636.609	634.743	0.032	0.081
-635.595	-23.831	0.105	0.064
-634.580	-113.617	0.154	-0.031
-633.565	61.986	-0.217	-0.220
-632.551	-200.000	-0.022	-0.223
-631.536	309.427	-0.119	0.227
-630.522	-200.000	0.020	-0.497
-629.507	-22.682	-0.269	0.165
-628.492	85.944	0.178	-0.200
-627.478	182.753	-0.042	0.064
-626.463	425.565	-0.108	0.237
-625.449	-198.510	0.223	0.001
-624.434	0.438	0.192	-0.140
-623.419	-118.116	-0.149	-0.027
-622.405	-31.706	0.218	-0.124
-621.390	126.069	0.123	-0.158
-620.376	800.000	0.079	0.328
-619.361	316.647	0.127	0.244
-618.346	115.126	0.167	0.208
-617.332	-116.184	0.119	0.023
-616.317	36.599	-0.150	0.135
-615.303	-11.332	0.137	0.092
-614.288	-73.762	-0.138	-0.051
-613.273	-41.899	0.259	-0.135
-612.259	-200.000	0.001	0.071
-611.244	640.605	0.141	0.366
-610.230	72.009	0.068	-0.072
-609.215	-200.000	0.022	-0.391
-608.201	-69.430	0.242	-0.094
-607.186	45.646	-0.332	0.312
-606.171	354.774	0.088	0.177
-605.157	-63.156	0.092	0.039
-604.142	-200.000	0.027	-0.131
-603.128	-47.108	-0.063	0.031
-602.113	800.000	-0.079	0.250
-601.098	-70.442	0.138	0.053
-600.084	4.590	0.105	0.078
-599.069	-158.887	-0.115	0.007
-598.055	173.695	0.160	-0.235
-597.040	-200.000	-0.004	0.017
-596.025	800.000	0.102	-0.346
-595.011	233.318	-0.102	-0.171
-593.996	800.000	0.042	0.142
-592.982	11.083	0.161	-0.125
-591.967	-148.794	-0.167	0.014
-590.952	29.246	0.186	-0.161
-589.938	363.608	-0.033	0.068
-588.923	-200.000	0.037	0.352
-587.909	380.425	-0.045	0.095
-586.894	-194.114	0.190	0.002
-585.879	467.940	0.066	0.150
-584.865	800.000	0.025	0.090
-583.850	169.115	0.065	0.094
-582.836	34.951	0.274	0.244
-581.821	-200.000	0.056	0.348
-580.806	6.967	-0.109	-0.083
-579.792	-200.000	0.024	0.219
-578.777	-200.000	-0.031	-0.144
-577.763	1.463	-0.153	0.111
-576.748	437.639	0.152	-0.336
-575.733	274.852	-0.069	-0.124
-574.719	-200.000	-0.013	-0.303
-573.704	85.326	-0.144	0.160
-572.690	81.107	0.203	-0.223
-571.675	-121.449	-0.116	0.020
-570.661	60.941	-0.128	-0.129
-569.646	3.519	-0.225	-0.167
-568.631	-1.624	0.112	-0.080
-567.617	-200.000	0.011	-0.486
-566.602	-95.818	-0.243	-0.066
-565.588	170.330	-0.092	-0.133
-564.573	-138.988	0.510	-0.056
-563.558	411.867	0.020	0.043
-562.544	562.477	-0.155	-0.381
-561.529	13.598	0.163	-0.129
-560.515	70.994	-0.074	0.078
-559.500	-100.891	-0.097	-0.024
-558.485	800.000	0.049	-0.197
-557.471	-200.000	-0.047	-0.223
-556.456	-74.902	0.136	0.049
-555.442	212.589	0.151	-0.242
-554.427	334.558	-0.055	0.109
-553.412	-133.704	0.273	0.035
-552.398	800.000	0.057	0.233
-551.383	144.328	0.099	0.134
-550.369	83.818	-0.105	-0.116
-549.354	144.189	0.056	-0.075
-548.339	119.916	0.095	-0.120
-547.325	-100.963	0.170	-0.042
-546.310	800.000	0.013	-0.057
-545.296	-158.096	-0.118	-0.007
-544.281	-128.139	-0.291	0.042
-543.266	-164.025	-0.272	-0.013
-542.252	417.338	-0.240	-0.520
-541.237	-165.982	-0.166	-0.007
-540.223	-87.973	-0.324	0.099
-539.208	-140.724	0.141	-0.015
-538.193	-67.413	0.323	0.129
-537.179	-200.000	0.001	0.106
-536.164	800.000	-0.048	-0.199
-535.150	-23.970	-0.209	0.127
-534.135	-74.383	-0.214	0.078
-533.121	-200.000	-0.047	0.328
-532.106	-186.770	0.118	-0.002
-531.091	-42.396	0.271	0.140
-530.077	85.079	-0.133	-0.148
-529.062	-121.427	-0.458	-0.077
-528.048	-200.000	-0.000	0.310
-527.033	-57.518	-0.270	-0.120
-526.018	-81.311	0.235	-0.078
-525.004	-148.054	0.389	-0.033
-523.989	-200.000	0.062	-0.430
-522.975	800.000	-0.038	-0.116
-521.960	-121.170	-0.259	-0.044
-520.945	800.000	-0.040	-0.114
-519.931	-138.523	0.284	0.032
-518.916	800.000	-0.072	-0.224
-517.902	-200.000	-0.017	0.174
-516.887	-89.416	-0.201	0.060
-515.872	-97.171	0.092	0.024
-514.858	-90.072	-0.417	-0.123
-513.843	-200.000	-0.037	0.370
-512.829	-92.910	0.198	0.056
-511.814	63.808	-0.049	0.049
-510.799	-35.431	-0.095	0.053
-509.785	19.064	-0.080	-0.065
-508.770	-17.338	-0.181	0.116
-507.756	109.954	-0.121	-0.147
-506.741	41.385	0.067	0.061
-505.726	-67.378	0.192	-0.076
-504.712	-200.000	0.018	-0.201
-503.697	-89.284	0.143	-0.043
-502.683	371.666	0.151	-0.310
-501.668	124.162	0.071	-0.090
-500.653	135.133	0.175	-0.230
-499.639	667.988	0.098	-0.256
-498.624	-140.109	0.180	-0.019
-497.610	128.717	-0.140	0.181
-496.595	86.664	-0.216	0.241
-495.581	-200.000	0.042	0.291
-494.566	-95.595	-0.345	-0.093
-493.551	279.009	-0.091	-0.165
-492.537	133.590	-0.190	-0.249
-491.522	800.000	0.036	0.156
-490.508	-69.553	0.025	-0.010
-489.493	358.519	0.070	0.142
-488.478	800.000	0.057	0.216
-487.464	87.402	-0.203	0.227
-486.449	47.963	0.077	-0.073
-485.435	800.000	0.035	0.140
-484.420	-100.644	0.119	0.030
-483.405	4.106	0.203	0.150
-482.391	800.000	-0.042	0.120
-481.376	-72.845	0.338	0.126
-480.362	20.662	-0.155	-0.127
-479.347	-62.054	0.265	-0.112
-478.332	800.000	-0.033	0.125
-477.318	-163.517	-0.131	-0.006
-476.303	360.103	0.047	0.094
-475.289	-200.000	0.009	-0.095
-474.274	-174.184	-0.235	0.007
-473.259	800.000	0.074	-0.219
-472.245	-98.021	-0.255	0.066
-471.230	-53.405	0.158	0.073
-470.216	170.980	0.163	-0.236
-469.201	-136.566	0.098	0.012
-468.186	78.844	-0.352	-0.381
-467.172	-16.971	-0.021	-0.013
-466.157	-92.747	0.332	-0.094
-465.143	27.850	-0.411	-0.351
-464.128	118.674	-0.089	0.111
-463.113	265.269	0.117	0.206
-462.099	518.595	-0.038	0.091
-461.084	-35.116	0.146	-0.081
-460.070	-200.000	0.033	-0.319
-459.055	-97.880	-0.053	0.014
-458.040	44.603	0.074	-0.069
-457.026	-127.056	0.030	0.004
-456.011	-92.665	-0.083	0.023
-454.997	-72.144	-0.395	0.148
-453.982	297.097	-0.092	0.170
-452.968	-118.945	0.564	0.100
-451.953	-33.380	-0.294	-0.164
-450.938	-49.918	0.038	-0.018
-449.924	113.672	-0.134	0.164
-448.909	-78.340	-0.193	0.067
-447.895	493.407	0.071	-0.165
-446.880	89.898	0.237	-0.267
-445.865	-92.116	-0.243	0.069
-444.851	-200.000	0.023	-0.177
-443.836	-42.410	0.336	0.173
-442.822	-50.098	-0.216	-0.103
-441.807	-22.669	-0.398	0.243
-440.792	-200.000	-0.007	-0.100
-439.778	-3.477	-0.221	-0.155
-438.763	179.683	0.135	-0.199
-437.749	-147.798	0.236	-0.020
-436.734	108.337	0.202	-0.243
-435.719	110.888	-0.096	0.117
-434.705	-51.819	-0.083	-0.039
-433.690	-200.000	-0.009	-0.146
-432.676	526.360	0.041	-0.097
-431.661	-200.000	0.175	-0.001
-430.646	-9.406	-0.074	-0.050
-429.632	-17.983	0.249	-0.158
-428.617	146.196	-0.086	-0.116
-427.603	-113.784	0.219	0.043
-426.588	-145.939	0.132	-0.012
-425.573	481.099	0.125	-0.285
-424.559	800.000	0.035	-0.115
-423.544	800.000	0.016	-0.045
-422.530	-21.787	0.039	0.024
-421.515	-200.000	-0.077	0.368
-420.500	102.653	0.210	0.248
-419.486	671.292	0.055	0.143
-418.471	-136.648	0.171	-0.020
-417.457	735.433	0.074	-0.201
-416.442	121.711	-0.054	0.069
-415.428	1.683	0.196	0.143
-414.413	-200.000	-0.004	-0.134
-413.398	197.046	0.059	0.090
-412.384	208.774	-0.054	0.086
-411.369	-76.927	0.388	-0.137
-410.355	-5.352	-0.217	-0.150
-409.340	800.000	0.015	0.056
-408.325	-96.163	0.372	-0.100
-407.311	-131.623	0.263	-0.035
-406.296	30.205	0.114	0.098
-405.282	225.773	-0.146	-0.238
-404.267	-200.000	-0.012	0.115
-403.252	-200.000	0.023	-0.326
-402.238	296.651	0.066	0.122
-401.223	72.970	-0.088	-0.092
-400.209	-200.000	-0.012	0.066
-399.194	563.344	-0.018	0.045
-398.179	105.941	0.092	-0.110
-397.165	-89.366	-0.196	-0.058
-396.150	580.446	0.093	0.231
-395.136	-60.620	0.259	0.111
-394.121	-144.705	-0.061	-0.006
-393.106	-143.598	-0.302	-0.029
-392.092	-200.000	0.027	-0.140
-391.077	9.082	0.085	0.065
-390.063	168.167	-0.064	-0.092
-389.048	800.000	0.107	0.321
-388.033	-200.000	-0.011	-0.132
-387.019	8.833	-0.039	-0.029
-386.004	3.344	0.047	-0.035
-384.990	200.676	0.137	0.212
-383.975	213.944	-0.080	0.127
-382.960	-21.224	0.276	0.170
-381.946	-103.994	-0.219	-0.052
-380.931	71.831	-0.121	0.127
-379.917	52.442	-0.119	-0.115
-378.902	-118.326	0.132	-0.024
-377.888	-200.000	0.022	-0.231
-376.873	-2.537	0.304	0.215
-375.858	-108.129	-0.225	0.049
-374.844	-133.974	-0.168	0.021
-373.829	4.740	-0.032	-0.024
-372.815	-78.052	-0.168	0.058
-371.800	75.543	0.019	-0.020
-370.785	-88.795	0.335	0.100
-369.771	-59.714	0.124	0.053
-368.756	221.256	0.206	0.333
-367.742	-52.442	-0.226	0.105
-366.727	-125.511	-0.069	-0.011
-365.712	-116.735	-0.271	-0.050
-364.698	148.434	0.046	-0.063
-363.683	800.000	0.047	0.178
-362.669	62.811	0.218	0.220
-361.654	-73.762	-0.243	-0.089
-360.639	-124.795	-0.281	0.044
-359.625	99.365	-0.118	0.137
-358.610	800.000	0.038	-0.115
-357.596	-167.680	0.367	0.015
-356.581	-59.892	-0.349	0.150
-355.566	-133.720	0.254	0.032
-354.552	193.756	0.101	0.154
-353.537	-62.899	-0.212	0.088
-352.523	-126.893	0.185	0.027
-351.508	-200.000	0.027	-0.158
-350.493	135.134	0.055	0.072
-349.479	-41.387	-0.284	0.147
-348.464	8.706	0.155	0.118
-347.450	-32.450	0.194	0.109
-346.435	110.784	0.317	0.384
-345.420	-200.000	0.076	0.505
-344.406	-58.445	0.077	0.034
-343.391	-39.362	0.171	-0.090
-342.377	-200.000	-0.048	-0.232
-341.362	800.000	0.185	-0.519
-340.348	433.912	0.111	-0.244
-339.333	800.000	0.052	-0.208
-338.318	-67.099	-0.249	0.099
-337.304	-69.125	0.267	0.103
-336.289	-84.458	0.213	-0.068
-335.275	48.439	-0.089	-0.084
-334.260	-109.178	0.155	-0.033
-333.245	-193.632	-0.098	0.001
-332.231	190.414	0.118	0.178
-331.216	-153.358	0.154	0.011
-330.202	0.298	-0.386	0.277
-329.187	-200.000	0.038	-0.202
-328.172	241.480	0.096	0.162
-327.158	-13.732	-0.192	0.125
-326.143	613.954	-0.157	-0.394
-325.129	-63.974	0.143	-0.059
-324.114	193.510	-0.051	-0.078
-323.099	-75.558	-0.532	0.190
-322.085	-17.999	0.176	-0.111
-321.070	2.515	-0.159	-0.116
-320.056	-176.739	0.210	-0.005
-319.041	154.452	0.332	0.458
-318.026	62.133	-0.091	-0.091
-317.012	91.876	-0.088	-0.099
-315.997	-137.278	-0.130	0.015
-314.983	-200.000	-0.005	0.044
-313.968	800.000	0.003	0.008
-312.953	27.374	-0.177	0.150
-311.939	64.319	-0.304	0.307
-310.924	-91.260	-0.299	0.086
-309.910	-38.008	-0.298	0.159
-308.895	206.701	0.057	0.090
-307.880	459.038	-0.066	-0.148
-306.866	38.476	0.326	0.292
-305.851	-59.172	0.119	-0.051
-304.837	-200.000	0.042	0.191
-303.822	800.000	0.084	-0.307
-302.807	168.309	0.114	0.163
-301.793	-200.000	0.002	0.150
-300.778	10.309	-0.288	0.220
-299.764	-58.422	0.226	0.099
-298.749	181.482	-0.057	-0.084
-297.735	43.332	0.164	0.150
-296.720	-24.619	-0.186	0.111
-295.705	-85.289	-0.216	-0.068
-294.691	-200.000	0.033	-0.217
-293.676	162.272	0.193	0.272
-292.662	219.128	-0.215	0.345
-291.647	-200.000	0.040	-0.216
-290.632	-110.426	0.116	0.024
-289.618	-54.794	-0.208	0.094
-288.603	-200.000	0.066	-0.476
-287.589	177.053	-0.220	-0.322
-286.574	-43.035	0.395	-0.201
-285.559	-63.965	-0.286	-0.117
-284.545	-112.683	-0.480	-0.096
-283.530	15.703	0.134	0.106
-282.516	-142.857	-0.294	-0.029
-281.501	150.679	0.135	0.184
-280.486	-75.578	-0.181	0.065
-279.472	-29.445	0.178	-0.102
-278.457	800.000	0.086	0.264
-277.443	-147.619	-0.165	0.014
-276.428	-26.656	0.214	-0.126
-275.413	-109.633	0.165	-0.035
-274.399	-73.852	0.326	0.119
-273.384	-148.040	0.085	0.007
-272.370	-151.650	-0.408	0.030
-271.355	78.852	0.237	-0.254
-270.340	-200.000	-0.065	0.331
-269.326	800.000	-0.129	-0.362
-268.311	-162.901	-0.136	0.007
-267.297	-200.000	0.147	0.000
-266.282	-200.000	0.006	-0.161
-265.267	-200.000	0.037	0.169
-264.253	-21.570	0.120	0.073
-263.238	283.702	-0.167	-0.302
-262.224	14.105	0.067	-0.052
-261.209	-54.350	0.157	0.072
-260.195	-134.377	0.558	0.069
-259.180	-39.162	0.125	0.066
-258.165	83.665	-0.272	-0.298
-257.151	-131.964	0.173	0.023
-256.136	800.000	0.020	-0.071
-255.122	638.390	-0.041	0.105
-254.107	-49.496	-0.209	-0.100
-253.092	-47.022	0.302	0.148
-252.078	-57.131	0.209	-0.092
-251.063	83.651	0.103	-0.112
-250.049	286.909	0.128	-0.231
-249.034	-126.790	0.142	-0.021
-248.019	16.057	0.216	-0.170
-247.005	16.522	0.230	0.182
-245.990	-186.328	0.028	0.000
-244.976	-200.000	0.037	-0.294
-243.961	-36.002	-0.072	0.039
-242.946	-200.000	0.034	0.206
-241.932	-159.749	0.127	-0.007
-240.917	21.304	-0.104	-0.085
-239.903	800.000	-0.060	0.205
-238.888	-72.996	-0.170	-0.063
-237.873	65.588	-0.253	-0.257
-236.859	800.000	-0.038	0.153
-235.844	499.846	-0.069	-0.158
-234.830	-80.841	0.027	0.009
-233.815	87.879	0.037	0.041
-232.800	656.499	0.081	-0.208
-231.786	-126.391	0.094	0.014
-230.771	-33.764	0.061	-0.034
-229.757	-42.665	-0.057	0.029
-228.742	-54.277	-0.156	-0.071
-227.727	478.066	-0.051	0.116
-226.713	-115.274	-0.138	0.026
-225.698	-25.719	-0.123	0.073
-224.684	52.663	0.101	-0.097
-223.669	411.381	-0.077	-0.164
-222.655	23.274	0.287	-0.236
-221.640	-40.376	-0.251	-0.131
-220.625	609.474	-0.099	-0.248
-219.611	800.000	-0.132	-0.522
-218.596	-109.810	0.212	0.045
-217.582	800.000	0.042	0.134
-216.567	-74.092	-0.248	0.090
-215.552	371.776	-0.280	0.570
-214.538	-82.883	-0.155	0.050
-213.523	453.963	-0.100	0.221
-212.509	300.290	0.159	-0.293
-211.494	-119.587	0.309	0.054
-210.479	-148.017	0.237	0.020
-209.465	-56.402	-0.203	0.090
-208.450	103.749	-0.242	-0.285
-207.436	267.538	0.081	0.141
-206.421	-16.474	-0.096	-0.061
-205.406	-5.013	0.159	0.110
-204.392	-139.691	-0.262	0.028
-203.377	195.499	-0.171	0.260
-202.363	-136.238	-0.078	0.009
-201.348	126.528	-0.104	-0.132
-200.333	181.993	-0.135	-0.198
-199.319	92.969	0.225	-0.254
-198.304	-99.328	-0.284	-0.072
-197.290	800.000	0.043	-0.141
-196.275	-101.630	0.196	-0.048
-195.260	55.101	0.148	-0.143
-194.246	-200.000	0.018	0.143
-193.231	-40.892	0.255	-0.132
-192.217	169.089	0.147	0.210
-191.202	-200.000	0.044	0.272
-190.187	2.760	0.112	0.082
-189.173	-83.733	-0.189	-0.060
-188.158	438.825	0.067	-0.146
-187.144	-16.922	0.113	0.072
-186.129	35.901	-0.251	0.221
-185.114	800.000	0.090	-0.313
-184.100	385.878	-0.066	0.137
-183.085	-101.581	-0.186	0.045
-182.071	233.191	0.010	-0.016
-181.056	-100.347	-0.203	-0.050
-180.042	-200.000	-0.051	0.316
-179.027	433.331	-0.083	0.179
-178.012	-80.699	0.157	-0.052
-176.998	71.121	0.114	-0.118
-175.983	-200.000	0.030	-0.227
-174.969	65.730	0.092	-0.093
-173.954	48.865	0.139	0.130
-172.939	181.518	-0.285	0.419
-171.925	-185.148	-0.336	-0.005
-170.910	641.530	0.129	0.329
-169.896	136.080	-0.164	0.213
-168.881	-200.000	-0.006	-0.137
-167.866	-200.000	0.010	0.104
-166.852	-34.511	0.057	0.031
-165.837	115.152	-0.099	-0.121
-164.823	-200.000	0.003	0.184
-163.808	226.501	-0.093	-0.151
-162.793	-108.828	-0.131	0.028
-161.779	599.480	0.087	0.216
-160.764	-172.077	-0.334	0.011
-159.750	199.416	0.040	-0.061
-158.735	-168.978	-0.245	0.009
-157.720	-168.769	-0.510	0.019
-156.706	-115.377	0.152	0.029
-155.691	47.899	-0.124	0.116
-154.677	-57.036	-0.181	0.080
-153.662	800.000	-0.084	0.253
-152.647	-32.439	-0.160	-0.089
-151.633	420.365	0.155	0.331
-150.618	-121.958	0.154	-0.025
-149.604	118.966	0.219	0.271
-148.589	-200.000	0.035	-0.215
-147.574	-200.000	-0.001	-0.025
-146.560	-200.000	-0.003	-0.317
-145.545	-108.913	-0.414	0.088
-144.531	376.372	-0.113	0.230
-143.516	248.398	-0.077	-0.131
-142.502	156.410	0.100	0.137
-141.487	-87.379	-0.148	-0.045
-140.472	-57.834	-0.115	-0.050
-139.458	50.017	0.152	-0.143
-138.443	52.104	0.105	0.100
-137.429	-124.951	0.401	0.062
-136.414	-200.000	0.006	0.112
-135.399	-91.756	-0.157	-0.045
-134.385	71.327	-0.143	-0.148
-133.370	-200.000	-0.008	0.266
-132.356	166.718	-0.057	-0.081
-131.341	506.684	0.051	-0.118
-130.326	-61.432	-0.157	0.066
-129.312	-200.000	0.031	0.178
-128.297	-62.016	0.211	-0.088
-127.283	27.526	-0.098	0.082
-126.268	-23.548	0.056	0.033
-125.253	-200.000	0.001	0.122
-124.239	800.000	-0.011	0.031
-123.224	-194.152	-0.024	-0.000
-122.210	38.755	-0.087	0.078
-121.195	694.961	-0.046	-0.120
-120.180	-91.685	0.523	0.148
