DTS Sentinel unit serial number:	SN413079Multiplexer serial number:	ORYXHardware model number:	OX4-SRSoftware version number:	ORYX F/W v4.00 Oryx Data Collector v3.7.2.0data status	okinstallation	princeton_trtdifferential loss correction	single-endedforward channel	channel 3reverse channel	N/Adate	2019/09/15time	02:08:35forward acquisition time	60.00reverse acquisition time	0.00gamma	496.2192k internal	0.2321k external	0.2321temperature offset calibration	0.9966default loss term (dB/km)	0.3790temperature slope calibration	1.0000multiplexer offset coefficient	1.0000multiplexer slope coefficient	1.0000fibre end	0.00T internal ref (°C)	31.69T ext. ref 1 (°C)	4.55T ext. ref 2 (°C)	26.36length (m)	temperature (°C)	Stokes	anti-Stokes-747.200	800.000	-0.056	-0.184
-746.185	-200.000	0.027	-0.197
-745.171	40.160	0.195	-0.177
-744.156	-38.649	0.302	0.161
-743.142	-28.139	-0.354	0.207
-742.127	-39.531	-0.228	0.121
-741.112	25.147	-0.090	0.076
-740.098	-18.966	0.446	0.280
-739.083	193.474	-0.128	-0.196
-738.069	81.357	0.287	0.313
-737.054	73.668	-0.041	-0.043
-736.039	-138.352	-0.331	-0.037
-735.025	-19.159	0.262	-0.164
-734.010	-50.633	-0.069	-0.033
-732.996	-109.197	-0.239	-0.051
-731.981	-200.000	0.007	-0.165
-730.966	800.000	-0.141	-0.457
-729.952	569.278	-0.158	-0.387
-728.937	-57.419	-0.073	-0.032
-727.923	-138.235	-0.417	0.047
-726.908	-139.371	0.068	0.007
-725.894	-200.000	-0.007	-0.193
-724.879	800.000	-0.108	0.333
-723.864	529.665	0.091	0.217
-722.850	6.420	-0.159	-0.120
-721.835	195.143	-0.017	-0.027
-720.821	-56.511	0.135	-0.061
-719.806	-180.440	-0.221	0.005
-718.791	-200.000	0.013	0.138
-717.777	29.173	-0.258	-0.221
-716.762	204.548	-0.181	-0.283
-715.748	69.987	0.125	0.130
-714.733	-200.000	-0.017	-0.366
-713.718	7.177	-0.279	0.210
-712.704	-151.614	0.114	0.009
-711.689	-150.600	0.311	-0.024
-710.675	-200.000	-0.012	-0.135
-709.660	130.094	-0.092	0.119
-708.645	17.474	0.123	0.099
-707.631	-32.848	0.110	0.062
-706.616	-10.293	-0.309	-0.207
-705.602	152.274	0.243	-0.334
-704.587	-6.728	0.106	-0.073
-703.572	35.885	-0.085	0.076
-702.558	506.691	0.033	-0.078
-701.543	-138.816	-0.091	0.010
-700.529	330.609	0.040	-0.078
-699.514	-200.000	-0.017	-0.350
-698.499	54.160	-0.222	-0.215
-697.485	-3.399	0.261	-0.183
-696.470	-60.150	-0.272	0.117
-695.456	-200.000	0.005	0.329
-694.441	-111.561	-0.288	-0.059
-693.426	75.350	0.063	0.067
-692.412	-9.499	-0.087	0.059
-691.397	-69.038	-0.201	0.078
-690.383	800.000	-0.098	0.292
-689.368	208.162	-0.167	-0.262
-688.354	-82.047	-0.242	-0.080
-687.339	-200.000	0.015	0.133
-686.324	237.476	-0.049	-0.082
-685.310	182.039	-0.061	-0.091
-684.295	-200.000	-0.021	-0.224
-683.281	130.176	-0.217	-0.280
-682.266	-200.000	-0.014	0.134
-681.251	-141.040	0.108	0.011
-680.237	-22.452	0.243	0.148
-679.222	154.159	0.170	-0.235
-678.208	-63.011	0.201	0.084
-677.193	-200.000	-0.053	0.393
-676.178	-23.580	-0.326	-0.197
-675.164	-116.267	0.234	-0.044
-674.149	-200.000	0.004	0.145
-673.135	-113.088	-0.323	-0.064
-672.120	24.769	0.081	-0.067
-671.105	571.582	-0.054	0.132
-670.091	90.051	-0.148	-0.167
-669.076	14.032	-0.207	-0.163
-668.062	-200.000	-0.013	-0.068
-667.047	135.590	0.163	0.214
-666.032	800.000	0.024	0.073
-665.018	-200.000	-0.022	0.543
-664.003	-167.767	-0.181	-0.007
-662.989	120.024	-0.112	-0.140
-661.974	540.608	-0.070	0.169
-660.959	-70.499	0.061	0.023
-659.945	800.000	0.112	-0.323
-658.930	-139.771	0.077	0.008
-657.916	171.223	0.082	0.118
-656.901	56.241	-0.076	-0.075
-655.886	48.590	-0.209	-0.197
-654.872	800.000	0.049	-0.191
-653.857	-200.000	-0.033	0.311
-652.843	-200.000	-0.055	0.309
-651.828	779.191	-0.090	-0.248
-650.814	800.000	0.040	0.121
-649.799	-200.000	-0.045	0.221
-648.784	-96.800	-0.279	0.074
-647.770	172.539	0.075	0.109
-646.755	800.000	0.126	0.500
-645.741	-200.000	0.025	-0.183
-644.726	-200.000	-0.003	-0.027
-643.711	231.968	-0.176	-0.291
-642.697	-101.383	-0.329	-0.081
-641.682	-200.000	-0.098	0.434
-640.668	800.000	0.073	0.293
-639.653	494.284	-0.085	-0.197
-638.638	-127.745	0.279	-0.041
-637.624	800.000	0.113	0.456
-636.609	800.000	-0.132	0.376
-635.595	-57.963	-0.227	-0.100
-634.580	-200.000	-0.003	0.310
-633.565	-74.260	-0.166	-0.060
-632.551	800.000	0.094	-0.337
-631.536	342.639	0.046	-0.090
-630.522	800.000	0.038	-0.168
-629.507	292.045	-0.089	0.163
-628.492	-26.217	0.316	-0.187
-627.478	12.340	-0.090	-0.069
-626.463	-98.938	-0.092	-0.023
-625.449	800.000	0.087	0.272
-624.434	125.087	-0.155	-0.196
-623.419	-200.000	0.004	0.317
-622.405	-139.487	0.210	0.023
-621.390	484.612	0.158	-0.362
-620.376	-200.000	-0.035	-0.253
-619.361	-200.000	-0.002	0.273
-618.346	800.000	0.045	0.184
-617.332	107.292	-0.148	0.177
-616.317	-200.000	-0.044	-0.263
-615.303	159.656	-0.167	0.233
-614.288	316.164	0.051	0.097
-613.273	-1.077	-0.087	0.062
-612.259	95.217	0.214	0.245
-611.244	179.314	0.065	-0.096
-610.230	800.000	-0.043	0.163
-609.215	800.000	-0.094	-0.393
-608.201	-35.030	0.270	0.148
-607.186	134.872	0.133	-0.174
-606.171	-68.724	0.287	0.111
-605.157	-183.259	-0.163	0.003
-604.142	-114.708	0.346	-0.066
-603.128	177.713	0.116	0.170
-602.113	-155.961	0.112	0.007
-601.098	-22.424	0.241	0.146
-600.084	-25.984	-0.335	-0.198
-599.069	777.951	-0.136	-0.374
-598.055	-170.427	-0.258	0.009
-597.040	-77.506	0.090	0.031
-596.025	528.339	0.073	0.173
-595.011	387.993	0.090	-0.187
-593.996	-157.439	0.135	-0.008
-592.982	-200.000	-0.039	0.276
-591.967	-200.000	-0.023	0.142
-590.952	328.086	-0.032	-0.062
-589.938	-40.506	0.418	-0.218
-588.923	-57.685	0.263	-0.116
-587.909	122.836	0.137	0.172
-586.894	500.159	-0.053	0.122
-585.879	-200.000	0.004	-0.097
-584.865	-1.385	-0.164	0.116
-583.850	52.395	-0.117	0.112
-582.836	151.579	0.249	-0.340
-581.821	-122.331	-0.403	-0.066
-580.806	-72.042	-0.227	0.085
-579.792	-200.000	0.036	0.176
-578.777	-11.207	0.133	-0.088
-577.763	-200.000	-0.014	0.263
-576.748	-120.620	0.119	-0.020
-575.733	-134.784	-0.221	-0.027
-574.719	314.966	0.114	0.215
-573.704	-169.653	-0.086	0.003
-572.690	-200.000	0.060	0.297
-571.675	189.783	-0.133	0.200
-570.661	-90.560	-0.093	0.027
-569.646	-116.077	-0.412	0.077
-568.631	-1.079	-0.116	-0.083
-567.617	627.982	0.079	0.199
-566.602	-200.000	-0.041	-0.302
-565.588	-200.000	-0.005	-0.402
-564.573	75.203	0.170	0.180
-563.558	60.483	-0.300	0.298
-562.544	561.563	0.144	0.350
-561.529	800.000	0.010	0.034
-560.515	37.327	0.158	0.141
-559.500	48.993	-0.290	-0.273
-558.485	-56.076	0.132	-0.059
-557.471	-110.835	-0.300	0.062
-556.456	-200.000	0.006	0.288
-555.442	800.000	0.081	0.258
-554.427	82.846	-0.096	0.105
-553.412	-123.150	0.351	-0.056
-552.398	12.091	0.145	0.112
-551.383	120.514	-0.192	-0.239
-550.369	127.137	-0.169	-0.216
-549.354	103.259	-0.042	0.049
-548.339	237.681	-0.056	0.094
-547.325	163.563	-0.082	0.115
-546.310	221.197	0.037	-0.060
-545.296	-104.126	-0.176	0.041
-544.281	385.625	0.003	0.006
-543.266	299.889	0.035	-0.064
-542.252	-93.815	0.275	0.076
-541.237	800.000	0.055	0.220
-540.223	166.958	-0.075	0.106
-539.208	662.371	-0.052	0.135
-538.193	-80.306	-0.206	0.069
-537.179	800.000	-0.044	0.156
-536.164	-200.000	0.021	-0.104
-535.150	-200.000	0.001	-0.031
-534.135	-148.062	-0.071	-0.006
-533.121	-200.000	-0.019	0.259
-532.106	-124.744	0.084	0.013
-531.091	-85.091	-0.478	-0.150
-530.077	466.727	-0.164	0.369
-529.062	12.780	-0.421	-0.326
-528.048	-160.706	-0.129	0.007
-527.033	82.573	-0.041	0.044
-526.018	800.000	-0.028	-0.088
-525.004	800.000	-0.040	-0.147
-523.989	427.925	-0.033	0.071
-522.975	-73.732	-0.434	-0.158
-521.960	218.457	-0.026	-0.041
-520.945	-94.370	-0.216	-0.059
-519.931	92.436	0.002	-0.003
-518.916	-63.549	0.065	-0.027
-517.902	-184.200	0.111	0.002
-516.887	67.524	0.195	0.200
-515.872	-200.000	-0.071	0.408
-514.858	181.543	0.081	0.120
-513.843	456.494	0.127	-0.283
-512.829	93.938	0.183	-0.208
-511.814	10.499	-0.196	0.150
-510.799	-200.000	0.013	-0.151
-509.785	-200.000	0.054	-0.264
-508.770	736.150	-0.096	-0.258
-507.756	-200.000	0.038	0.187
-506.741	-200.000	0.031	0.146
-505.726	-200.000	0.021	-0.275
-504.712	768.654	0.069	-0.187
-503.697	-173.831	-0.207	0.006
-502.683	69.967	-0.072	-0.074
-501.668	-137.110	0.316	0.036
-500.653	504.001	-0.006	-0.013
-499.639	613.002	-0.108	0.271
-498.624	-82.233	0.316	0.103
-497.610	81.806	-0.163	-0.177
-496.595	-184.045	0.152	0.003
-495.581	-200.000	-0.021	-0.121
-494.566	-200.000	-0.230	0.001
-493.551	800.000	-0.054	0.197
-492.537	359.722	-0.101	0.203
-491.522	-45.767	0.221	-0.109
-490.508	-106.425	-0.023	0.005
-489.493	-200.000	0.012	-0.122
-488.478	-103.966	-0.007	0.002
-487.464	61.327	0.083	0.083
-486.449	293.817	-0.108	0.197
-485.435	-80.131	0.191	-0.064
-484.420	-168.640	-0.410	0.016
-483.405	-81.886	-0.080	-0.026
-482.391	800.000	-0.071	0.276
-481.376	152.176	0.291	0.398
-480.362	-200.000	0.011	-0.157
-479.347	800.000	-0.060	0.176
-478.332	-152.020	-0.252	-0.018
-477.318	-83.231	-0.362	-0.116
-476.303	-200.000	0.008	-0.095
-475.289	-2.431	0.091	0.064
-474.274	-14.472	0.279	0.180
-473.259	-80.412	0.163	0.054
-472.245	-200.000	-0.027	0.333
-471.230	800.000	-0.073	-0.228
-470.216	681.608	-0.094	-0.244
-469.201	267.694	0.117	-0.205
-468.186	-16.859	0.220	0.139
-467.172	666.331	-0.067	-0.172
-466.157	-67.606	-0.116	0.045
-465.143	2.684	-0.038	0.028
-464.128	-163.541	-0.369	-0.017
-463.113	194.666	-0.148	-0.224
-462.099	800.000	-0.058	-0.167
-461.084	-107.926	-0.244	-0.053
-460.070	-200.000	-0.015	-0.131
-459.055	94.913	-0.110	0.125
-458.040	-100.956	-0.291	0.072
-457.026	179.906	-0.008	0.012
-456.011	44.049	-0.159	0.145
-454.997	92.701	0.268	0.302
-453.982	20.798	0.228	0.185
-452.968	800.000	0.094	-0.308
-451.953	-130.881	-0.182	0.024
-450.938	-136.623	0.311	0.036
-449.924	800.000	-0.126	-0.359
-448.909	57.909	-0.209	0.204
-447.895	-115.301	0.418	-0.079
-446.880	43.290	0.221	-0.202
-445.865	-97.095	0.120	0.031
-444.851	67.424	-0.022	0.022
-443.836	225.271	0.035	-0.057
-442.822	43.122	-0.208	-0.189
-441.807	-200.000	0.036	-0.282
-440.792	-158.176	0.298	0.017
-439.778	126.059	-0.124	0.157
-438.763	-92.371	-0.515	0.145
-437.749	26.204	-0.254	0.212
-436.734	266.543	-0.162	0.282
-435.719	-115.862	0.175	-0.033
-434.705	52.767	-0.143	-0.137
-433.690	-19.660	0.357	0.220
-432.676	436.757	0.085	-0.184
-431.661	178.814	-0.194	0.282
-430.646	-44.883	0.250	-0.124
-429.632	-104.201	0.524	0.121
-428.617	800.000	0.043	0.139
-427.603	70.880	0.174	-0.180
-426.588	19.402	0.159	-0.127
-425.573	800.000	-0.063	0.190
-424.559	-137.836	0.182	0.020
-423.544	207.060	0.094	-0.147
-422.530	-51.503	-0.126	0.059
-421.515	223.354	0.013	0.021
-420.500	72.819	-0.184	-0.192
-419.486	183.248	-0.061	0.090
-418.471	-200.000	-0.001	-0.204
-417.457	-14.657	-0.277	-0.177
-416.442	526.615	0.067	0.157
-415.428	-56.488	-0.190	-0.084
-414.413	-200.000	-0.011	0.214
-413.398	800.000	-0.115	-0.392
-412.384	-85.216	0.240	-0.075
-411.369	-45.600	-0.257	0.127
-410.355	800.000	0.138	-0.421
-409.340	-62.523	0.191	0.079
-408.325	-10.993	-0.235	-0.155
-407.311	-200.000	-0.004	-0.285
-406.296	-112.427	0.112	-0.022
-405.282	-200.000	0.003	-0.093
-404.267	-124.505	-0.097	0.015
-403.252	169.293	0.228	0.325
-402.238	-95.591	-0.223	0.060
-401.223	-143.519	0.169	0.016
-400.209	-200.000	-0.004	-0.040
-399.194	-1.584	0.125	-0.088
-398.179	-200.000	0.014	0.176
-397.165	-200.000	0.016	-0.085
-396.150	-13.130	0.118	0.077
-395.136	-200.000	0.031	0.307
-394.121	-94.679	0.142	0.038
-393.106	-63.011	0.212	0.087
-392.092	-200.000	0.021	-0.123
-391.077	183.950	0.129	-0.191
-390.063	93.360	-0.120	-0.135
-389.048	-61.925	-0.198	0.082
-388.033	-75.282	0.081	0.029
-387.019	-200.000	0.000	0.091
-386.004	-133.775	0.293	0.036
-384.990	800.000	0.121	-0.346
-383.975	-148.271	0.060	0.005
-382.960	-102.387	0.117	0.028
-381.946	111.264	-0.061	0.073
-380.931	-200.000	0.025	-0.331
-379.917	800.000	0.082	-0.282
-378.902	573.645	-0.052	0.126
-377.888	10.663	-0.343	-0.261
-376.873	109.857	-0.044	0.053
-375.858	800.000	0.074	0.249
-374.844	-126.056	0.358	-0.054
-373.829	-149.032	0.302	0.024
-372.815	85.658	0.211	0.231
-371.800	-200.000	0.044	-0.268
-370.785	-3.017	-0.266	-0.185
-369.771	-200.000	-0.022	0.209
-368.756	-116.888	0.110	-0.020
-367.742	145.025	-0.272	-0.363
-366.727	130.168	-0.132	-0.168
-365.712	-200.000	0.013	-0.229
-364.698	-200.000	0.180	0.000
-363.683	800.000	-0.024	-0.078
-362.669	348.385	0.159	0.312
-361.654	308.884	0.153	-0.284
-360.639	-200.000	0.011	0.126
-359.625	455.543	0.066	0.146
-358.610	407.019	0.128	0.269
-357.596	42.309	-0.173	-0.156
-356.581	275.225	-0.174	0.308
-355.566	183.699	0.060	0.089
-354.552	-200.000	-0.044	0.199
-353.537	-196.243	-0.094	0.001
-352.523	-200.000	-0.016	-0.323
-351.508	-40.238	-0.083	0.043
-350.493	-181.889	-0.249	-0.005
-349.479	115.957	0.219	0.267
-348.464	-137.790	-0.246	-0.027
-347.450	-55.672	0.056	-0.025
-346.435	-200.000	0.001	0.182
-345.420	-138.817	0.154	-0.017
-344.406	407.173	0.021	-0.045
-343.391	208.698	-0.091	0.141
-342.377	-200.000	0.012	-0.133
-341.362	322.306	-0.196	-0.371
-340.348	750.530	0.129	-0.346
-339.333	17.723	0.190	0.150
-338.318	39.939	-0.162	0.145
-337.304	375.972	0.022	0.045
-336.289	-29.865	0.186	-0.105
-335.275	46.378	0.126	0.116
-334.260	-33.932	-0.417	0.228
-333.245	-64.747	0.135	-0.054
-332.231	331.554	0.103	0.198
-331.216	-200.000	0.049	0.248
-330.202	-99.330	-0.279	-0.070
-329.187	-200.000	0.036	-0.171
-328.172	-66.050	0.356	-0.141
-327.158	-100.350	-0.209	-0.052
-326.143	-200.000	-0.021	0.146
-325.129	150.022	-0.003	-0.004
-324.114	48.614	-0.163	0.152
-323.099	-200.000	-0.041	-0.387
-322.085	-200.000	-0.011	-0.367
-321.070	-113.047	-0.223	-0.044
-320.056	23.229	0.122	0.100
-319.041	-146.703	0.242	0.021
-318.026	99.472	-0.238	-0.274
-317.012	800.000	0.025	-0.076
-315.997	158.047	0.180	-0.248
-314.983	-52.450	-0.033	0.015
-313.968	597.993	0.105	-0.260
-312.953	156.538	0.111	0.153
-311.939	8.955	0.319	-0.239
-310.924	39.468	-0.131	0.117
-309.910	36.271	-0.333	-0.292
-308.895	-48.867	0.270	0.128
-307.880	136.672	0.184	0.239
-306.866	208.791	-0.013	-0.020
-305.851	800.000	-0.065	0.279
-304.837	-107.050	0.181	-0.040
-303.822	292.060	0.075	-0.136
-302.807	10.246	-0.124	-0.094
-301.793	98.811	0.176	-0.202
-300.778	-56.058	0.093	-0.041
-299.764	155.468	0.055	-0.075
-298.749	-133.536	-0.198	-0.025
-297.735	-125.249	0.099	0.015
-296.720	59.310	-0.061	-0.059
-295.705	131.211	0.125	-0.159
-294.691	202.067	-0.103	-0.157
-293.676	332.880	0.178	-0.341
-292.662	105.321	0.314	-0.369
-291.647	-200.000	0.026	-0.203
-290.632	-139.952	0.100	-0.010
-289.618	-200.000	0.004	-0.059
-288.603	634.223	-0.045	-0.112
-287.589	251.316	-0.118	0.199
-286.574	-157.163	0.402	0.024
-285.559	-77.074	0.304	-0.105
-284.545	-5.297	-0.112	0.076
-283.530	800.000	-0.054	0.170
-282.516	800.000	-0.100	-0.398
-281.501	-110.129	0.312	-0.065
-280.486	-200.000	-0.019	0.117
-279.472	-148.864	-0.311	0.025
-278.457	-200.000	0.026	-0.329
-277.443	237.739	-0.051	-0.084
-276.428	257.842	-0.068	0.116
-275.413	-200.000	-0.003	-0.056
-274.399	-116.755	-0.336	0.061
-273.384	-57.398	0.073	-0.032
-272.370	-104.244	0.217	-0.050
-271.355	-179.390	0.239	0.005
-270.340	-200.000	-0.006	-0.151
-269.326	707.426	0.044	-0.116
-268.311	178.049	0.031	-0.045
-267.297	155.290	-0.135	-0.185
-266.282	-125.615	-0.129	0.019
-265.267	800.000	-0.072	0.229
-264.253	-200.000	-0.009	-0.048
-263.238	101.040	0.104	-0.120
-262.224	51.980	0.120	-0.113
-261.209	800.000	0.087	0.354
-260.195	-55.743	-0.212	0.094
-259.180	36.251	-0.211	-0.184
-258.165	345.133	0.032	-0.062
-257.151	-200.000	-0.023	-0.170
-256.136	-171.099	-0.175	-0.006
-255.122	-136.349	0.156	0.018
-254.107	-131.246	-0.322	0.042
-253.092	23.012	-0.324	0.263
-252.078	-200.000	-0.001	-0.083
-251.063	-12.198	-0.144	-0.093
-250.049	328.144	-0.058	0.110
-249.034	-20.855	-0.303	0.184
-248.019	-200.000	0.010	-0.262
-247.005	-20.016	-0.108	0.066
-245.990	800.000	0.114	0.445
-244.976	383.213	-0.153	0.312
-243.961	-68.969	-0.292	0.112
-242.946	85.271	0.029	0.031
-241.932	57.419	0.041	-0.040
-240.917	-148.846	-0.061	0.005
-239.903	-47.060	-0.123	-0.060
-238.888	-8.484	0.238	0.159
-237.873	119.767	0.228	-0.281
-236.859	-79.054	-0.339	-0.114
-235.844	-96.048	0.102	-0.027
-234.830	-162.469	0.075	-0.004
-233.815	-6.849	0.079	-0.053
-232.800	-170.469	0.177	0.006
-231.786	55.363	-0.018	0.018
-230.771	-55.665	-0.045	-0.020
-229.757	191.498	0.133	0.198
-228.742	-193.433	0.176	0.002
-227.727	-81.060	-0.173	0.057
-226.713	-200.000	0.047	-0.205
-225.698	-48.045	-0.064	-0.030
-224.684	800.000	-0.019	0.073
-223.669	800.000	-0.040	0.161
-222.655	-200.000	0.006	0.168
-221.640	-2.906	0.102	-0.071
-220.625	-200.000	0.011	-0.585
-219.611	800.000	0.016	-0.045
-218.596	-67.675	0.191	0.074
-217.582	252.881	0.143	0.242
-216.567	545.160	0.067	0.159
-215.552	781.531	0.085	-0.230
-214.538	177.394	-0.068	-0.098
-213.523	183.698	-0.054	-0.079
-212.509	266.310	-0.069	0.120
-211.494	-200.000	-0.045	0.213
-210.479	-146.476	0.099	-0.009
-209.465	-200.000	0.045	0.303
-208.450	162.003	0.195	0.270
-207.436	-43.546	-0.490	-0.245
-206.421	-36.339	0.325	-0.173
-205.406	411.131	-0.172	0.360
-204.392	-200.000	-0.062	-0.323
-203.377	800.000	-0.116	-0.329
-202.363	-200.000	-0.060	-0.321
-201.348	573.799	0.054	0.131
-200.333	-3.419	-0.053	-0.036
-199.319	-25.201	0.320	0.187
-198.304	212.200	0.130	0.203
-197.290	-25.968	-0.254	0.148
-196.275	800.000	0.030	0.082
-195.260	800.000	-0.052	0.196
-194.246	16.419	0.149	-0.117
-193.231	-140.538	-0.219	-0.022
-192.217	-200.000	0.022	-0.179
-191.202	-159.261	0.175	-0.010
-190.187	-45.539	-0.237	0.116
-189.173	570.945	0.066	0.159
-188.158	92.824	0.191	-0.214
-187.144	-91.330	-0.098	0.028
-186.129	-132.153	-0.198	0.025
-185.114	372.511	-0.043	-0.086
-184.100	-200.000	0.106	-0.532
-183.085	-58.352	0.110	0.047
-182.071	-54.477	-0.227	-0.102
-181.056	125.246	0.144	-0.180
-180.042	48.695	0.091	0.085
-179.027	-200.000	-0.052	0.303
-178.012	-109.627	0.071	0.015
-176.998	-200.000	-0.013	-0.266
-175.983	13.474	-0.036	-0.028
-174.969	-26.693	-0.257	0.149
-173.954	11.347	0.248	0.187
-172.939	324.276	0.118	0.222
-171.925	-125.267	-0.125	-0.019
-170.910	-143.500	0.251	-0.024
-169.896	-133.349	-0.180	-0.022
-168.881	-33.054	0.160	-0.088
-167.866	-89.144	0.118	-0.034
-166.852	800.000	0.068	-0.190
-165.837	-74.141	0.222	-0.079
-164.823	244.587	0.066	-0.109
-163.808	113.317	-0.375	0.450
-162.793	363.016	-0.054	0.106
-161.779	105.020	0.113	0.132
-160.764	60.256	0.045	-0.044
-159.750	-146.211	0.159	-0.014
-158.735	463.294	-0.049	-0.107
-157.720	0.090	0.211	0.148
-156.706	47.702	-0.104	0.096
-155.691	124.781	0.135	-0.168
-154.677	124.125	-0.095	0.118
-153.662	33.392	0.086	-0.073
-152.647	-2.494	-0.191	0.132
-151.633	-105.538	0.179	0.040
-150.618	-123.305	0.035	-0.006
-149.604	-63.576	-0.151	-0.061
-148.589	-86.057	-0.072	0.022
-147.574	-38.772	0.088	-0.046
-146.560	45.166	-0.243	0.221
-145.545	-31.422	-0.309	0.171
-144.531	160.098	0.063	0.086
-143.516	160.032	-0.010	0.014
-142.502	-117.125	0.128	-0.023
-141.487	51.096	0.147	-0.138
-140.472	-90.961	0.315	0.089
-139.458	178.158	0.074	0.107
-138.443	800.000	0.113	0.425
-137.429	-115.257	-0.064	0.012
-136.414	154.882	0.094	0.127
-135.399	-200.000	-0.020	-0.274
-134.385	-73.479	-0.269	0.097
-133.370	-42.708	0.244	-0.122
-132.356	-189.145	-0.232	0.003
-131.341	499.257	0.034	0.076
-130.326	275.758	0.212	0.370
-129.312	-154.792	0.332	0.022
-128.297	-54.308	-0.252	-0.113
-127.283	43.533	0.191	-0.173
-126.268	800.000	-0.087	-0.310
-125.253	-118.078	0.577	-0.102
-124.239	-88.729	0.095	0.028
-123.224	-151.327	0.264	0.019
-122.210	-33.771	-0.106	-0.058
