DTS Sentinel unit serial number:	SN413079Multiplexer serial number:	ORYXHardware model number:	OX4-SRSoftware version number:	ORYX F/W v4.00 Oryx Data Collector v3.7.2.0data status	okinstallation	princeton_trtdifferential loss correction	single-endedforward channel	channel 3reverse channel	N/Adate	2019/09/13time	11:40:35forward acquisition time	60.00reverse acquisition time	0.00gamma	496.2192k internal	0.2312k external	0.2312temperature offset calibration	1.0143default loss term (dB/km)	0.3790temperature slope calibration	1.0000multiplexer offset coefficient	1.0000multiplexer slope coefficient	1.0000fibre end	0.00T internal ref (°C)	33.03T ext. ref 1 (°C)	4.48T ext. ref 2 (°C)	30.29length (m)	temperature (°C)	Stokes	anti-Stokes-747.200	-36.733	0.176	0.096
-746.185	23.626	0.229	0.192
-745.171	-32.794	-0.117	0.066
-744.156	-34.262	0.346	0.193
-743.142	-16.292	0.157	0.101
-742.127	-137.617	-0.245	0.028
-741.112	143.393	-0.210	-0.283
-740.098	800.000	-0.035	0.106
-739.083	-58.708	-0.232	-0.102
-738.069	194.645	0.052	0.079
-737.054	-9.866	0.089	0.060
-736.039	-200.000	0.038	-0.186
-735.025	48.028	-0.114	0.108
-734.010	129.932	-0.185	-0.240
-732.996	-57.843	-0.413	0.183
-731.981	-104.063	-0.186	-0.044
-730.966	22.577	0.100	-0.083
-729.952	362.501	-0.192	0.392
-728.937	800.000	-0.073	-0.241
-727.923	439.310	-0.164	-0.364
-726.908	52.067	0.399	0.385
-725.894	-121.820	-0.104	0.017
-724.879	800.000	0.010	0.041
-723.864	-200.000	-0.006	-0.039
-722.850	-200.000	-0.005	0.160
-721.835	-200.000	-0.029	-0.211
-720.821	-13.669	-0.126	0.083
-719.806	110.925	-0.012	0.015
-718.791	-200.000	0.036	0.175
-717.777	-200.000	-0.017	-0.291
-716.762	-97.626	-0.155	-0.041
-715.748	129.762	-0.097	-0.126
-714.733	-135.911	-0.168	0.020
-713.718	-184.185	-0.283	0.005
-712.704	-96.450	-0.219	0.059
-711.689	-154.252	0.132	-0.009
-710.675	-200.000	-0.014	-0.450
-709.660	217.800	0.057	0.092
-708.645	-167.347	0.146	0.006
-707.631	-149.167	-0.386	-0.031
-706.616	-61.746	-0.114	-0.048
-705.602	750.091	-0.132	-0.362
-704.587	222.136	0.112	-0.182
-703.572	-37.380	0.125	0.068
-702.558	-200.000	-0.026	-0.184
-701.543	475.043	0.133	-0.303
-700.529	-93.984	-0.061	-0.017
-699.514	49.288	-0.142	-0.135
-698.499	254.052	-0.149	-0.258
-697.485	-84.050	-0.266	0.086
-696.470	-200.000	-0.028	0.292
-695.456	-26.113	-0.078	-0.047
-694.441	-121.159	-0.150	-0.025
-693.426	389.633	-0.131	-0.275
-692.412	16.134	-0.109	0.087
-691.397	-73.357	-0.662	0.245
-690.383	-55.669	0.204	-0.093
-689.368	197.357	0.016	0.025
-688.354	-200.000	-0.027	-0.385
-687.339	609.267	0.031	0.078
-686.324	538.328	0.035	-0.083
-685.310	68.464	0.048	-0.050
-684.295	-200.000	-0.021	-0.104
-683.281	681.798	-0.017	-0.044
-682.266	-164.415	0.067	-0.003
-681.251	50.254	-0.252	0.241
-680.237	-53.886	-0.135	-0.062
-679.222	-122.048	0.082	0.014
-678.208	-33.564	0.178	-0.100
-677.193	36.594	0.115	-0.103
-676.178	582.698	-0.047	0.117
-675.164	194.480	0.133	-0.204
-674.149	-135.105	-0.324	-0.039
-673.135	-200.000	-0.038	0.206
-672.120	800.000	-0.021	0.064
-671.105	-50.460	0.233	0.111
-670.091	41.228	0.321	0.294
-669.076	-143.472	-0.358	-0.035
-668.062	-65.568	-0.275	-0.112
-667.047	-107.575	-0.183	0.040
-666.032	-200.000	0.004	-0.217
-665.018	-175.391	0.332	-0.009
-664.003	-44.350	0.086	-0.044
-662.989	800.000	-0.103	-0.357
-661.974	-169.543	-0.112	-0.004
-660.959	-48.078	0.025	-0.012
-659.945	-200.000	0.025	-0.189
-658.930	583.866	0.151	0.374
-657.916	800.000	0.109	-0.323
-656.901	487.485	-0.150	-0.345
-655.886	-41.479	0.033	0.017
-654.872	-62.228	0.120	-0.050
-653.857	-79.844	-0.178	0.060
-652.843	-38.218	-0.169	0.090
-651.828	-78.341	-0.366	0.127
-650.814	800.000	0.046	-0.145
-649.799	423.743	0.083	-0.180
-648.784	-93.036	-0.364	-0.102
-647.770	405.496	-0.102	-0.218
-646.755	-56.693	0.256	0.115
-645.741	-200.000	0.018	-0.287
-644.726	-149.376	0.190	0.015
-643.711	-104.528	-0.179	0.042
-642.697	-189.134	-0.295	-0.004
-641.682	-200.000	-0.015	-0.167
-640.668	130.778	0.181	-0.235
-639.653	-200.000	0.019	-0.154
-638.638	800.000	0.095	-0.272
-637.624	522.374	-0.089	-0.210
-636.609	388.126	-0.148	0.309
-635.595	-3.938	-0.225	-0.158
-634.580	-58.287	-0.234	-0.103
-633.565	108.201	-0.269	-0.324
-632.551	-200.000	0.047	-0.233
-631.536	-130.502	0.237	0.032
-630.522	-200.000	-0.035	-0.462
-629.507	372.364	0.153	-0.314
-628.492	-178.411	-0.133	0.003
-627.478	-200.000	0.000	-0.057
-626.463	-35.776	0.207	0.113
-625.449	-54.511	-0.034	0.016
-624.434	166.549	-0.127	-0.182
-623.419	-102.771	-0.208	-0.050
-622.405	-200.000	-0.009	-0.297
-621.390	-71.665	-0.031	-0.012
-620.376	-0.966	0.123	-0.088
-619.361	800.000	-0.020	-0.081
-618.346	-200.000	0.066	-0.462
-617.332	-200.000	-0.039	0.422
-616.317	-169.162	-0.360	-0.013
-615.303	381.379	-0.108	0.225
-614.288	0.237	-0.089	-0.064
-613.273	-49.871	0.148	-0.071
-612.259	-127.805	0.158	-0.023
-611.244	-123.448	-0.357	0.057
-610.230	800.000	0.117	-0.507
-609.215	282.069	-0.040	-0.073
-608.201	-12.020	-0.033	0.022
-607.186	-200.000	-0.003	0.136
-606.171	-200.000	-0.006	-0.038
-605.157	203.845	-0.145	0.227
-604.142	-34.534	0.255	-0.141
-603.128	380.466	-0.169	0.349
-602.113	-112.906	-0.465	0.093
-601.098	-134.510	-0.244	-0.030
-600.084	-200.000	-0.018	0.256
-599.069	-72.424	0.090	-0.034
-598.055	156.302	0.212	-0.295
-597.040	-0.746	0.167	0.119
-596.025	800.000	-0.079	-0.324
-595.011	-42.867	-0.124	-0.064
-593.996	43.123	-0.187	-0.172
-592.982	6.856	0.133	-0.100
-591.967	-69.446	-0.199	-0.077
-590.952	-49.995	-0.280	-0.134
-589.938	363.586	0.193	-0.392
-588.923	514.379	-0.159	0.373
-587.909	-20.042	0.167	-0.104
-586.894	-200.000	0.046	0.619
-585.879	-59.640	0.240	0.104
-584.865	35.833	0.106	0.094
-583.850	-122.234	-0.173	0.028
-582.836	-153.012	-0.148	0.011
-581.821	45.935	-0.149	-0.139
-580.806	-188.184	0.230	-0.003
-579.792	-200.000	0.020	0.176
-578.777	800.000	0.055	-0.243
-577.763	-200.000	0.013	-0.227
-576.748	27.307	-0.169	0.144
-575.733	363.787	-0.102	-0.206
-574.719	-5.484	0.131	-0.091
-573.704	800.000	-0.052	-0.179
-572.690	-121.030	0.287	-0.048
-571.675	-152.269	0.189	-0.014
-570.661	-4.365	0.188	-0.131
-569.646	585.392	-0.055	-0.136
-568.631	-87.622	-0.085	0.026
-567.617	-3.437	0.042	-0.030
-566.602	63.329	0.268	-0.271
-565.588	130.234	-0.251	0.324
-564.573	-108.438	-0.048	0.010
-563.558	-15.373	-0.211	0.136
-562.544	3.002	-0.052	-0.038
-561.529	31.229	-0.096	0.083
-560.515	-37.261	-0.359	-0.193
-559.500	-26.891	0.332	0.195
-558.485	131.389	0.206	-0.266
-557.471	88.990	0.161	0.180
-556.456	-103.885	0.289	-0.068
-555.442	-112.029	-0.242	-0.049
-554.427	-51.436	0.202	0.095
-553.412	-131.445	0.258	0.034
-552.398	-145.373	0.283	0.026
-551.383	-132.581	-0.239	-0.031
-550.369	-6.133	0.222	0.153
-549.354	278.171	0.130	0.234
-548.339	-119.862	-0.188	-0.033
-547.325	-153.946	-0.276	0.019
-546.310	38.818	-0.223	0.201
-545.296	508.227	0.191	0.447
-544.281	217.823	0.162	0.260
-543.266	-200.000	-0.005	0.176
-542.252	39.329	-0.038	-0.034
-541.237	-200.000	-0.052	-0.349
-540.223	10.858	-0.102	0.079
-539.208	800.000	0.056	0.235
-538.193	183.406	-0.111	0.165
-537.179	211.291	0.173	0.274
-536.164	-133.616	0.203	0.026
-535.150	-200.000	0.053	0.414
-534.135	-147.869	0.152	0.013
-533.121	25.397	0.176	0.147
-532.106	404.262	-0.063	0.135
-531.091	110.935	-0.045	0.054
-530.077	800.000	0.149	-0.447
-529.062	347.203	0.074	-0.147
-528.048	-102.554	0.103	-0.025
-527.033	-89.387	0.384	0.114
-526.018	-200.000	0.014	-0.318
-525.004	489.007	0.067	0.154
-523.989	-79.800	0.326	-0.110
-522.975	-92.735	-0.455	-0.128
-521.960	-142.623	-0.190	-0.019
-520.945	264.201	0.181	-0.318
-519.931	264.922	-0.113	0.197
-518.916	139.692	0.213	0.282
-517.902	-156.488	0.351	0.022
-516.887	-185.251	-0.381	0.006
-515.872	800.000	-0.005	-0.015
-514.858	-174.476	-0.149	0.004
-513.843	-124.199	0.044	0.007
-512.829	117.124	0.073	-0.090
-511.814	35.821	0.132	0.117
-510.799	-200.000	-0.010	-0.124
-509.785	800.000	-0.048	0.212
-508.770	-72.084	0.091	0.034
-507.756	351.669	-0.079	0.157
-506.741	-47.131	-0.079	0.039
-505.726	176.729	-0.073	0.107
-504.712	62.439	-0.317	-0.318
-503.697	1.925	-0.286	-0.207
-502.683	-200.000	-0.071	-0.479
-501.668	-69.709	0.112	0.043
-500.653	199.957	0.233	-0.360
-499.639	85.744	0.037	0.041
-498.624	513.427	0.090	-0.210
-497.610	-46.915	-0.132	0.065
-496.595	-76.745	0.032	-0.011
-495.581	800.000	0.088	-0.253
-494.566	-96.526	0.042	-0.011
-493.551	193.496	-0.124	-0.189
-492.537	-150.694	-0.380	0.029
-491.522	-200.000	-0.057	0.335
-490.508	366.972	-0.109	0.221
-489.493	151.800	0.054	-0.074
-488.478	-152.984	-0.249	0.018
-487.464	175.803	-0.171	-0.249
-486.449	145.950	-0.132	0.178
-485.435	-200.000	0.012	0.167
-484.420	123.497	-0.163	0.205
-483.405	-200.000	0.001	-0.048
-482.391	-200.000	-0.009	0.335
-481.376	-39.506	0.049	0.026
-480.362	23.873	-0.165	0.136
-479.347	31.063	0.126	-0.109
-478.332	-198.260	0.254	-0.001
-477.318	-200.000	0.000	0.248
-476.303	578.120	0.085	0.210
-475.289	164.562	-0.160	0.227
-474.274	-200.000	0.014	0.210
-473.259	-131.883	0.416	0.055
-472.245	22.959	-0.194	0.160
-471.230	-7.329	0.253	0.172
-470.216	-87.003	-0.037	-0.011
-469.201	-31.168	-0.193	-0.109
-468.186	11.245	-0.095	-0.073
-467.172	800.000	-0.066	0.196
-466.157	-129.125	-0.168	-0.024
-465.143	-200.000	0.035	-0.308
-464.128	800.000	0.051	-0.156
-463.113	169.002	0.034	-0.049
-462.099	-42.453	0.298	-0.153
-461.084	-200.000	-0.008	-0.038
-460.070	399.737	-0.085	-0.179
-459.055	-106.294	0.147	-0.033
-458.040	-76.081	0.197	-0.070
-457.026	-71.403	-0.240	0.090
-456.011	-73.065	0.091	0.034
-454.997	-113.257	0.152	-0.030
-453.982	86.001	0.107	0.118
-452.968	-110.965	0.308	-0.064
-451.953	612.547	-0.046	-0.115
-450.938	-162.097	-0.167	-0.008
-449.924	709.765	0.074	0.195
-448.909	31.629	-0.300	-0.259
-447.895	143.404	-0.183	-0.245
-446.880	-200.000	0.020	-0.193
-445.865	-102.218	-0.426	-0.103
-444.851	-200.000	-0.002	-0.056
-443.836	150.718	-0.170	-0.231
-442.822	382.928	-0.102	0.211
-441.807	-52.147	0.147	0.068
-440.792	800.000	0.147	0.467
-439.778	381.110	0.089	0.183
-438.763	-200.000	0.011	0.087
-437.749	-49.486	0.142	0.068
-436.734	800.000	-0.059	-0.180
-435.719	646.032	-0.073	-0.187
-434.705	-144.768	-0.221	-0.020
-433.690	-76.225	0.008	-0.003
-432.676	206.479	0.164	-0.256
-431.661	5.390	0.245	0.181
-430.646	439.230	0.044	0.096
-429.632	-39.537	-0.248	-0.130
-428.617	-141.633	0.127	0.013
-427.603	800.000	-0.047	-0.136
-426.588	-200.000	0.005	0.047
-425.573	250.562	0.079	-0.135
-424.559	26.931	-0.063	-0.053
-423.544	-49.907	-0.331	0.158
-422.530	800.000	0.119	0.463
-421.515	-40.302	-0.213	0.111
-420.500	-62.704	0.348	0.144
-419.486	-138.192	-0.331	-0.037
-418.471	-150.561	-0.279	0.021
-417.457	634.067	-0.113	-0.286
-416.442	-160.591	0.127	-0.007
-415.428	-200.000	-0.013	0.076
-414.413	140.487	0.048	-0.063
-413.398	-72.537	-0.150	0.055
-412.384	800.000	-0.043	0.168
-411.369	312.413	0.112	0.211
-410.355	118.405	0.098	-0.121
-409.340	-164.108	0.272	-0.013
-408.325	-95.342	-0.412	-0.111
-407.311	177.875	-0.073	-0.107
-406.296	374.135	-0.108	-0.220
-405.282	203.827	-0.194	-0.301
-404.267	-200.000	0.005	-0.092
-403.252	-78.113	0.090	0.031
-402.238	120.927	0.030	-0.037
-401.223	-184.145	-0.205	-0.003
-400.209	58.559	0.163	0.161
-399.194	494.058	0.123	-0.284
-398.179	-79.616	-0.300	-0.101
-397.165	299.102	0.098	0.180
-396.150	-135.639	0.225	-0.027
-395.136	136.582	-0.057	0.075
-394.121	-62.381	-0.115	-0.048
-393.106	800.000	0.014	-0.044
-392.092	52.899	0.237	-0.227
-391.077	-77.851	-0.157	0.054
-390.063	-200.000	0.020	-0.296
-389.048	-121.273	-0.304	-0.051
-388.033	178.163	0.083	-0.121
-387.019	-200.000	0.024	0.145
-386.004	-89.923	-0.355	-0.104
-384.990	51.026	0.190	-0.180
-383.975	800.000	0.075	-0.244
-382.960	-200.000	0.013	-0.164
-381.946	-36.325	-0.105	-0.057
-380.931	49.522	0.175	-0.165
-379.917	186.626	-0.098	0.146
-378.902	98.737	-0.130	0.149
-377.888	-153.400	-0.309	0.022
-376.873	-124.541	-0.197	0.031
-375.858	800.000	-0.085	-0.301
-374.844	60.101	0.021	0.021
-373.829	800.000	-0.066	0.195
-372.815	218.644	-0.069	0.110
-371.800	60.547	-0.328	-0.325
-370.785	-200.000	0.001	-0.113
-369.771	-3.099	-0.258	-0.180
-368.756	-200.000	-0.045	0.277
-367.742	-126.649	-0.443	0.066
-366.727	-200.000	-0.011	0.191
-365.712	556.820	-0.152	0.366
-364.698	-19.048	-0.280	-0.174
-363.683	-200.000	0.023	-0.116
-362.669	-200.000	0.008	-0.040
-361.654	-170.703	0.159	0.006
-360.639	800.000	0.026	0.099
-359.625	147.137	0.094	0.127
-358.610	-48.496	0.054	-0.026
-357.596	-144.435	0.322	0.030
-356.581	-78.245	-0.108	0.037
-355.566	-28.281	0.155	-0.090
-354.552	21.637	-0.324	-0.263
-353.537	154.590	0.177	-0.243
-352.523	172.484	0.103	0.148
-351.508	-115.500	-0.138	-0.026
-350.493	496.524	-0.102	0.234
-349.479	4.086	-0.248	0.181
-348.464	294.221	0.082	0.150
-347.450	27.490	0.175	-0.147
-346.435	50.599	-0.093	-0.088
-345.420	5.233	0.308	-0.227
-344.406	-38.101	0.161	-0.085
-343.391	-87.280	0.069	0.021
-342.377	-42.240	-0.140	-0.072
-341.362	-3.839	0.054	0.038
-340.348	-125.248	0.167	-0.026
-339.333	-76.818	-0.250	-0.087
-338.318	-31.707	0.115	0.064
-337.304	-17.570	0.016	0.010
-336.289	800.000	0.060	0.180
-335.275	22.710	0.219	0.179
-334.260	178.285	-0.002	-0.003
-333.245	-200.000	-0.023	-0.211
-332.231	800.000	0.031	-0.087
-331.216	141.768	-0.128	0.169
-330.202	-96.868	-0.060	-0.016
-329.187	47.443	-0.342	-0.318
-328.172	800.000	-0.044	0.192
-327.158	-110.158	-0.137	0.029
-326.143	-65.827	-0.280	0.112
-325.129	89.543	-0.209	0.233
-324.114	-200.000	0.007	0.203
-323.099	800.000	-0.037	-0.130
-322.085	-200.000	0.017	0.138
-321.070	800.000	0.031	0.113
-320.056	-153.333	0.286	0.020
-319.041	190.397	0.184	0.276
-318.026	40.254	0.133	0.119
-317.012	91.294	0.171	0.192
-315.997	113.637	0.127	-0.154
-314.983	-21.516	-0.058	-0.035
-313.968	-200.000	0.010	-0.104
-312.953	126.179	0.019	0.024
-311.939	124.825	0.118	-0.148
-310.924	-142.029	-0.308	0.031
-309.910	-200.000	0.034	-0.496
-308.895	800.000	0.066	-0.218
-307.880	800.000	0.070	0.297
-306.866	-94.753	0.239	-0.065
-305.851	665.135	-0.038	0.097
-304.837	55.814	0.099	0.095
-303.822	11.295	0.082	0.063
-302.807	800.000	-0.041	-0.132
-301.793	-107.625	-0.241	0.053
-300.778	101.806	-0.151	-0.175
-299.764	-200.000	0.021	0.397
-298.749	101.651	0.145	0.169
-297.735	-19.041	0.255	0.158
-296.720	-101.010	-0.382	0.093
-295.705	130.772	0.183	0.234
-294.691	-150.211	0.319	-0.025
-293.676	-19.550	-0.261	0.161
-292.662	-18.010	0.148	0.093
-291.647	-108.104	-0.546	0.118
-290.632	279.946	-0.020	-0.036
-289.618	115.181	0.149	-0.182
-288.603	-200.000	-0.053	0.519
-287.589	-76.909	-0.252	0.088
-286.574	-133.883	-0.295	-0.036
-285.559	412.889	0.177	0.375
-284.545	528.008	-0.082	0.192
-283.530	-71.989	0.179	0.066
-282.516	-44.279	0.281	0.140
-281.501	-200.000	0.018	-0.087
-280.486	800.000	0.112	0.351
-279.472	182.284	0.222	-0.326
-278.457	-136.871	0.118	-0.013
-277.443	82.109	-0.090	0.097
-276.428	800.000	0.008	-0.029
-275.413	383.950	0.071	-0.146
-274.399	226.157	0.288	-0.466
-273.384	-62.565	0.213	0.088
-272.370	-200.000	0.040	0.185
-271.355	800.000	0.065	0.256
-270.340	272.924	-0.110	-0.193
-269.326	617.534	-0.136	-0.341
-268.311	-200.000	-0.008	-0.174
-267.297	64.903	-0.205	-0.206
-266.282	-137.899	0.268	-0.030
-265.267	-81.031	-0.208	0.069
-264.253	800.000	0.091	0.292
-263.238	-140.453	-0.186	-0.019
-262.224	800.000	-0.046	0.165
-261.209	-75.047	-0.089	0.032
-260.195	180.025	-0.117	-0.171
-259.180	-35.171	0.304	0.165
-258.165	-117.262	-0.400	-0.072
-257.151	800.000	0.040	0.155
-256.136	61.855	-0.069	0.069
-255.122	-200.000	-0.011	-0.091
-254.107	-74.726	0.037	0.013
-253.092	78.240	0.174	-0.185
-252.078	35.730	-0.294	-0.257
-251.063	-200.000	-0.001	-0.034
-250.049	-93.244	-0.075	-0.021
-249.034	800.000	-0.058	-0.169
-248.019	233.886	0.083	-0.135
-247.005	40.099	0.059	0.052
-245.990	582.902	0.119	0.292
-244.976	-200.000	-0.009	0.229
-243.961	-94.452	0.478	0.130
-242.946	-17.299	-0.151	-0.095
-241.932	-106.177	-0.447	0.100
-240.917	-200.000	0.004	-0.381
-239.903	-200.000	0.009	-0.124
-238.888	-66.932	0.191	0.075
-237.873	-76.652	0.166	0.058
-236.859	-3.551	0.294	0.203
-235.844	104.627	-0.178	-0.208
-234.830	-23.397	0.129	-0.077
-233.815	86.200	0.463	-0.507
-232.800	-79.149	-0.156	-0.053
-231.786	-200.000	-0.000	-0.136
-230.771	255.236	-0.211	0.360
-229.757	-38.144	-0.331	-0.175
-228.742	-10.248	-0.166	0.110
-227.727	-40.980	0.328	0.169
-226.713	442.690	0.087	0.190
-225.698	20.561	0.261	-0.210
-224.684	217.088	0.236	-0.373
-223.669	478.628	0.145	-0.328
-222.655	271.999	-0.021	0.038
-221.640	142.225	-0.138	0.182
-220.625	-70.039	0.302	0.114
-219.611	800.000	-0.051	0.190
-218.596	-122.862	0.286	-0.046
-217.582	-154.947	0.206	-0.013
-216.567	79.842	0.189	-0.201
-215.552	-200.000	0.040	0.189
-214.538	800.000	0.013	0.052
-213.523	297.680	0.066	-0.120
-212.509	800.000	-0.083	-0.266
-211.494	101.423	0.143	0.166
-210.479	-176.637	0.344	0.009
-209.465	114.824	0.096	-0.116
-208.450	-200.000	0.033	-0.163
-207.436	98.562	-0.217	0.248
-206.421	144.185	-0.199	-0.264
-205.406	-186.626	-0.094	-0.001
-204.392	638.472	-0.147	0.371
-203.377	34.062	0.094	0.081
-202.363	-200.000	0.021	0.299
-201.348	-85.961	0.128	0.039
-200.333	-200.000	-0.023	-0.203
-199.319	-58.720	0.103	-0.044
-198.304	286.637	-0.075	-0.135
-197.290	-0.350	0.136	-0.096
-196.275	116.590	-0.016	-0.020
-195.260	122.719	0.150	-0.187
-194.246	-200.000	-0.048	0.278
-193.231	-31.701	0.265	-0.148
-192.217	1.426	0.322	0.230
-191.202	237.559	-0.185	0.304
-190.187	157.106	0.099	0.136
-189.173	-56.903	-0.208	0.091
-188.158	-135.344	0.219	0.026
-187.144	-122.799	0.097	-0.016
-186.129	764.171	0.102	0.274
-185.114	176.334	0.086	-0.125
-184.100	-200.000	-0.002	0.258
-183.085	800.000	0.034	0.113
-182.071	184.937	0.147	0.217
-181.056	53.331	-0.259	0.246
-180.042	-29.340	-0.263	0.149
-179.027	16.361	0.249	0.195
-178.012	-200.000	-0.003	-0.227
-176.998	-76.949	-0.319	0.111
-175.983	-200.000	-0.040	0.193
-174.969	32.095	0.081	0.069
-173.954	45.162	0.232	0.213
-172.939	-200.000	0.031	0.422
-171.925	-118.974	0.215	0.037
-170.910	-200.000	-0.048	0.248
-169.896	-116.415	-0.159	-0.029
-168.881	800.000	0.101	-0.284
-167.866	-48.941	0.231	-0.110
-166.852	-200.000	0.208	0.000
-165.837	205.096	0.029	-0.045
-164.823	713.929	0.034	0.090
-163.808	-64.086	-0.135	-0.055
-162.793	228.976	-0.121	-0.196
-161.779	5.086	0.261	-0.191
-160.764	-200.000	0.062	0.287
-159.750	800.000	-0.057	-0.155
-158.735	518.114	0.071	-0.165
-157.720	-200.000	0.040	0.254
-156.706	26.908	-0.355	0.295
-155.691	-78.943	0.193	0.065
-154.677	-95.941	-0.352	0.093
-153.662	-63.767	0.244	0.099
-152.647	730.935	-0.012	-0.031
-151.633	-122.360	0.402	0.065
-150.618	-182.523	0.113	-0.002
-149.604	-29.150	0.239	-0.136
-148.589	-200.000	-0.043	0.300
-147.574	87.926	0.041	-0.045
-146.560	-132.733	0.551	-0.070
-145.545	265.437	-0.115	0.198
-144.531	151.141	0.140	0.188
-143.516	-200.000	0.056	0.380
-142.502	48.947	-0.164	-0.153
-141.487	800.000	-0.019	-0.057
-140.472	-148.872	0.019	0.001
-139.458	-200.000	-0.025	-0.497
-138.443	-66.962	0.196	0.077
-137.429	-20.875	0.118	0.071
-136.414	38.568	-0.060	0.053
-135.399	-181.519	0.138	0.003
-134.385	762.363	0.048	-0.130
-133.370	800.000	0.031	-0.119
-132.356	-200.000	0.007	0.056
-131.341	-16.388	0.145	0.091
-130.326	498.988	0.125	-0.285
-129.312	59.107	0.210	-0.205
-128.297	-109.020	0.223	0.047
-127.283	260.870	0.119	0.205
-126.268	357.286	0.104	-0.205
-125.253	-40.811	-0.143	-0.073
-124.239	-102.482	-0.223	-0.053
-123.224	0.874	0.167	0.118
-122.210	137.918	0.195	0.253
