DTS Sentinel unit serial number:	SN413079Multiplexer serial number:	ORYXHardware model number:	OX4-SRSoftware version number:	ORYX F/W v4.00 Oryx Data Collector v3.7.2.0data status	okinstallation	princeton_trtdifferential loss correction	single-endedforward channel	channel 3reverse channel	N/Adate	2019/09/18time	23:28:35forward acquisition time	60.00reverse acquisition time	0.00gamma	496.2192k internal	0.2345k external	0.2345temperature offset calibration	0.9992default loss term (dB/km)	0.3790temperature slope calibration	1.0000multiplexer offset coefficient	1.0000multiplexer slope coefficient	1.0000fibre end	0.00T internal ref (°C)	23.72T ext. ref 1 (°C)	0.77T ext. ref 2 (°C)	16.70length (m)	temperature (°C)	Stokes	anti-Stokes-747.200	-81.424	0.169	0.056
-746.185	800.000	-0.137	-0.401
-745.171	205.236	0.051	-0.080
-744.156	622.055	-0.123	-0.311
-743.142	-48.562	0.227	0.109
-742.127	-53.817	-0.317	0.144
-741.112	-145.993	-0.170	0.015
-740.098	-62.155	-0.357	-0.149
-739.083	304.813	0.170	-0.316
-738.069	297.657	-0.167	0.308
-737.054	567.438	0.044	-0.107
-736.039	227.123	-0.240	0.389
-735.025	-200.000	0.014	0.183
-734.010	-72.382	0.239	0.088
-732.996	314.890	-0.106	-0.201
-731.981	-64.712	-0.407	0.165
-730.966	-8.055	-0.282	-0.190
-729.952	800.000	0.014	0.054
-728.937	526.692	-0.024	0.056
-727.923	-106.967	-0.072	-0.016
-726.908	-117.594	-0.226	-0.041
-725.894	-105.742	-0.306	0.069
-724.879	-59.864	-0.174	-0.074
-723.864	-200.000	-0.017	0.140
-722.850	368.326	0.189	0.382
-721.835	-56.248	-0.242	-0.108
-720.821	68.618	-0.297	-0.305
-719.806	800.000	-0.055	0.198
-718.791	64.451	-0.012	-0.013
-717.777	800.000	0.146	0.473
-716.762	-139.937	-0.351	0.037
-715.748	625.228	0.152	0.383
-714.733	-125.190	0.350	-0.054
-713.718	397.543	0.042	-0.087
-712.704	85.124	0.128	0.140
-711.689	76.273	-0.279	0.295
-710.675	-70.617	0.246	-0.093
-709.660	-17.034	-0.181	0.114
-708.645	-200.000	-0.030	-0.175
-707.631	77.698	-0.156	0.166
-706.616	-43.380	0.278	-0.140
-705.602	-200.000	-0.229	-0.001
-704.587	226.182	-0.192	0.310
-703.572	82.677	-0.195	0.212
-702.558	-83.880	-0.241	0.077
-701.543	205.414	-0.151	-0.234
-700.529	183.085	0.048	0.071
-699.514	-142.057	-0.173	-0.017
-698.499	703.409	0.100	0.264
-697.485	-54.260	-0.032	-0.015
-696.470	385.700	0.084	0.174
-695.456	457.868	-0.163	0.362
-694.441	-99.046	0.063	-0.016
-693.426	-200.000	-0.030	0.178
-692.412	653.496	-0.022	-0.056
-691.397	18.739	-0.236	0.189
-690.383	39.721	0.229	0.205
-689.368	152.980	0.032	-0.044
-688.354	800.000	0.021	0.083
-687.339	-200.000	-0.058	-0.373
-686.324	35.615	-0.155	0.136
-685.310	563.896	0.063	0.151
-684.295	-159.173	0.120	-0.007
-683.281	-34.994	0.263	0.143
-682.266	-74.087	-0.034	-0.012
-681.251	523.541	0.028	-0.065
-680.237	-46.060	0.336	-0.165
-679.222	-70.844	-0.236	-0.089
-678.208	-9.769	0.055	0.036
-677.193	-173.884	-0.141	0.004
-676.178	-102.613	-0.148	0.035
-675.164	75.150	0.164	0.172
-674.149	-200.000	-0.054	0.249
-673.135	-139.164	0.353	0.038
-672.120	37.062	0.240	0.212
-671.105	800.000	-0.038	0.155
-670.091	-32.422	-0.232	-0.129
-669.076	-200.000	-0.039	-0.330
-668.062	-30.547	-0.158	-0.089
-667.047	-200.000	-0.007	0.116
-666.032	-131.262	0.297	0.039
-665.018	-153.501	-0.341	-0.024
-664.003	-102.787	0.102	0.024
-662.989	-11.093	-0.299	-0.197
-661.974	800.000	0.079	-0.230
-660.959	800.000	0.041	-0.160
-659.945	-200.000	0.023	0.104
-658.930	31.431	-0.179	0.153
-657.916	295.134	0.130	-0.237
-656.901	800.000	-0.054	-0.218
-655.886	550.143	0.086	-0.207
-654.872	-162.195	-0.294	-0.015
-653.857	23.883	-0.136	0.111
-652.843	-70.728	0.242	0.091
-651.828	-38.018	0.092	-0.049
-650.814	400.557	0.096	-0.201
-649.799	14.480	-0.208	0.162
-648.784	-72.815	-0.186	0.068
-647.770	-101.817	0.319	-0.077
-646.755	-146.989	-0.222	0.019
-645.741	-55.676	0.097	-0.043
-644.726	-200.000	0.005	-0.112
-643.711	75.878	-0.196	-0.206
-642.697	187.271	-0.074	-0.111
-641.682	313.800	0.169	-0.317
-640.668	-36.410	-0.192	-0.103
-639.653	-76.331	-0.046	0.016
-638.638	53.214	0.146	0.139
-637.624	-147.772	0.364	0.030
-636.609	83.900	0.134	0.146
-635.595	-78.826	0.085	-0.029
-634.580	800.000	0.102	-0.444
-633.565	55.037	-0.249	-0.239
-632.551	800.000	0.080	0.261
-631.536	-200.000	-0.080	0.405
-630.522	-84.143	-0.283	-0.089
-629.507	-97.274	0.386	-0.100
-628.492	103.886	0.132	-0.155
-627.478	18.053	-0.185	-0.147
-626.463	338.726	0.124	-0.241
-625.449	-200.000	-0.052	-0.358
-624.434	-48.981	-0.185	0.088
-623.419	-99.383	0.449	-0.113
-622.405	-200.000	-0.003	-0.124
-621.390	-200.000	-0.014	0.260
-620.376	-107.144	-0.541	0.119
-619.361	-92.027	0.185	0.052
-618.346	-112.863	-0.147	-0.029
-617.332	797.968	-0.013	-0.035
-616.317	-92.125	0.064	0.018
-615.303	-158.795	-0.199	-0.011
-614.288	-200.000	0.012	0.374
-613.273	800.000	-0.025	0.070
-612.259	-91.535	-0.253	-0.072
-611.244	405.272	0.107	0.225
-610.230	800.000	0.027	0.097
-609.215	34.534	-0.244	-0.212
-608.201	-200.000	0.041	0.242
-607.186	306.001	-0.083	0.154
-606.171	292.079	0.137	-0.249
-605.157	133.970	0.063	-0.081
-604.142	104.170	0.045	0.053
-603.128	-120.087	-0.254	-0.043
-602.113	-85.428	0.444	0.138
-601.098	445.961	-0.072	-0.157
-600.084	101.374	-0.087	0.101
-599.069	179.562	0.076	0.110
-598.055	-100.584	-0.255	-0.063
-597.040	800.000	-0.006	-0.019
-596.025	-200.000	0.060	-0.321
-595.011	-200.000	0.024	0.267
-593.996	800.000	-0.157	0.515
-592.982	256.598	0.082	-0.140
-591.967	800.000	0.100	0.421
-590.952	294.585	-0.089	-0.162
-589.938	-129.858	0.145	-0.020
-588.923	-200.000	0.002	0.164
-587.909	-200.000	-0.102	-0.457
-586.894	113.120	-0.161	-0.194
-585.879	201.753	0.283	-0.434
-584.865	686.082	-0.097	-0.253
-583.850	-113.509	0.075	0.015
-582.836	293.084	-0.060	-0.110
-581.821	-16.709	-0.165	0.104
-580.806	-97.406	-0.191	-0.049
-579.792	555.899	-0.155	0.370
-578.777	-61.281	0.209	0.087
-577.763	234.952	-0.107	0.175
-576.748	-200.000	0.001	-0.070
-575.733	800.000	0.080	-0.221
-574.719	-126.369	-0.476	0.071
-573.704	-2.211	-0.195	0.136
-572.690	-200.000	0.028	-0.156
-571.675	-200.000	-0.000	0.144
-570.661	0.052	-0.272	0.193
-569.646	207.161	-0.152	-0.235
-568.631	217.492	-0.114	-0.181
-567.617	227.808	0.058	0.094
-566.602	118.835	-0.069	0.085
-565.588	15.121	-0.139	0.108
-564.573	-200.000	0.084	0.398
-563.558	-160.373	0.247	0.013
-562.544	-200.000	0.012	0.159
-561.529	242.153	-0.054	0.089
-560.515	-200.000	-0.020	-0.211
-559.500	-59.786	0.142	-0.060
-558.485	202.417	-0.155	-0.237
-557.471	162.130	0.192	-0.267
-556.456	23.006	-0.111	-0.091
-555.442	82.317	0.257	-0.277
-554.427	-200.000	-0.035	-0.155
-553.412	8.519	-0.282	-0.210
-552.398	38.973	0.238	0.211
-551.383	687.179	-0.036	-0.093
-550.369	-200.000	0.017	0.125
-549.354	-16.078	0.429	-0.271
-548.339	128.773	0.125	0.159
-547.325	58.947	0.131	-0.128
-546.310	800.000	0.057	-0.228
-545.296	-200.000	0.010	-0.298
-544.281	-47.779	-0.419	0.202
-543.266	-119.431	-0.241	0.042
-542.252	40.370	0.261	-0.233
-541.237	150.532	-0.148	-0.199
-540.223	-200.000	-0.075	0.354
-539.208	198.848	-0.128	-0.195
-538.193	-116.639	0.222	0.041
-537.179	7.895	-0.172	0.128
-536.164	40.563	0.148	-0.132
-535.150	-61.695	-0.307	0.128
-534.135	-200.000	-0.067	0.425
-533.121	-15.294	-0.020	-0.013
-532.106	-200.000	-0.034	0.178
-531.091	-200.000	-0.001	-0.151
-530.077	-42.373	0.125	-0.063
-529.062	138.740	-0.119	-0.155
-528.048	246.484	0.107	0.179
-527.033	600.883	-0.045	-0.110
-526.018	275.954	0.078	0.138
-525.004	-8.193	-0.278	-0.186
-523.989	-200.000	-0.009	-0.252
-522.975	-113.142	0.315	0.062
-521.960	-200.000	0.008	0.047
-520.945	580.754	-0.081	0.198
-519.931	-58.905	0.324	0.139
-518.916	-56.424	0.052	-0.023
-517.902	-200.000	0.003	0.130
-516.887	37.982	0.105	-0.093
-515.872	-88.424	-0.196	-0.058
-514.858	-7.840	0.099	0.066
-513.843	-112.028	0.144	-0.029
-512.829	618.081	0.130	-0.324
-511.814	222.134	0.019	-0.030
-510.799	165.480	0.165	-0.231
-509.785	800.000	-0.034	0.131
-508.770	-133.549	0.081	-0.010
-507.756	-200.000	0.026	-0.129
-506.741	-180.998	-0.126	-0.003
-505.726	-200.000	0.007	0.173
-504.712	53.102	-0.388	0.368
-503.697	94.418	-0.225	0.254
-502.683	63.399	0.144	0.143
-501.668	800.000	0.079	-0.224
-500.653	-47.360	-0.341	-0.165
-499.639	761.314	0.003	-0.007
-498.624	10.218	0.060	-0.045
-497.610	110.634	0.135	0.161
-496.595	-62.096	-0.406	-0.168
-495.581	106.143	0.205	0.240
-494.566	-200.000	0.016	0.548
-493.551	-108.413	-0.293	-0.062
-492.537	-75.362	0.158	0.056
-491.522	-12.362	-0.310	-0.201
-490.508	800.000	-0.084	-0.269
-489.493	24.740	0.262	-0.215
-488.478	-41.390	-0.258	-0.132
-487.464	32.579	0.078	0.067
-486.449	-200.000	0.003	-0.083
-485.435	21.322	-0.201	-0.161
-484.420	-112.229	0.098	-0.020
-483.405	709.521	0.060	-0.158
-482.391	-76.195	0.294	-0.103
-481.376	-21.944	-0.125	-0.075
-480.362	512.586	0.125	0.288
-479.347	141.971	-0.136	0.179
-478.332	-19.981	-0.277	-0.169
-477.318	-50.033	0.180	0.085
-476.303	96.989	-0.279	0.317
-475.289	216.302	0.123	0.194
-474.274	-33.562	-0.291	0.159
-473.259	188.232	0.234	-0.346
-472.245	10.839	-0.061	0.046
-471.230	-72.271	-0.388	-0.142
-470.216	42.702	-0.120	0.108
-469.201	-92.661	0.260	-0.072
-468.186	-85.255	0.199	-0.061
-467.172	303.664	-0.072	0.133
-466.157	-67.792	0.290	0.112
-465.143	146.693	-0.134	0.179
-464.128	62.082	0.221	0.218
-463.113	-140.761	0.537	0.055
-462.099	-200.000	0.029	-0.187
-461.084	36.210	0.130	0.113
-460.070	0.218	-0.080	0.057
-459.055	800.000	-0.091	-0.297
-458.040	-200.000	-0.034	-0.308
-457.026	190.865	-0.124	0.185
-456.011	64.860	0.194	-0.193
-454.997	136.702	0.113	-0.146
-453.982	64.941	-0.121	-0.121
-452.968	-109.232	-0.249	0.052
-451.953	-200.000	0.004	0.124
-450.938	194.556	-0.187	-0.281
-449.924	-87.973	0.229	-0.068
-448.909	571.144	0.069	-0.166
-447.895	86.985	0.222	0.242
-446.880	-111.228	0.390	0.079
-445.865	-200.000	-0.041	-0.223
-444.851	331.753	0.141	-0.269
-443.836	-179.215	-0.215	-0.005
-442.822	302.384	0.214	-0.392
-441.807	800.000	0.076	-0.304
-440.792	-128.138	0.200	0.028
-439.778	145.284	0.059	-0.078
-438.763	-33.238	-0.180	-0.098
-437.749	-200.000	-0.029	0.290
-436.734	-33.982	0.506	-0.275
-435.719	-168.685	0.103	0.004
-434.705	132.943	-0.142	-0.181
-433.690	245.648	0.021	-0.035
-432.676	800.000	-0.086	0.353
-431.661	800.000	0.043	0.154
-430.646	-176.136	0.277	0.007
-429.632	41.649	0.181	0.162
-428.617	-102.579	0.419	-0.099
-427.603	157.383	0.016	-0.021
-426.588	-50.785	-0.199	0.092
-425.573	800.000	0.103	-0.282
-424.559	417.721	-0.255	0.538
-423.544	-200.000	-0.039	0.235
-422.530	236.087	-0.025	0.041
-421.515	-35.669	-0.377	-0.202
-420.500	-200.000	-0.003	-0.037
-419.486	-200.000	0.025	-0.322
-418.471	-107.335	-0.212	-0.046
-417.457	-55.895	0.212	0.093
-416.442	800.000	-0.036	0.130
-415.428	-200.000	-0.017	0.105
-414.413	-101.865	-0.054	-0.013
-413.398	-89.236	-0.326	-0.095
-412.384	-112.374	-0.050	-0.010
-411.369	-200.000	0.027	0.170
-410.355	73.090	0.206	0.212
-409.340	800.000	0.080	-0.273
-408.325	-57.962	0.224	0.096
-407.311	-73.992	-0.114	0.041
-406.296	537.128	0.102	0.239
-405.282	-200.000	0.037	-0.272
-404.267	-200.000	-0.027	0.235
-403.252	-44.032	0.220	-0.109
-402.238	-177.096	0.230	-0.006
-401.223	-148.846	-0.070	-0.006
-400.209	149.009	0.128	-0.170
-399.194	221.857	-0.035	-0.055
-398.179	-125.500	-0.091	0.014
-397.165	800.000	0.060	0.175
-396.150	-200.000	-0.064	-0.368
-395.136	84.616	0.089	-0.096
-394.121	800.000	-0.008	-0.036
-393.106	-107.812	0.353	0.076
-392.092	-77.607	0.098	0.034
-391.077	-155.085	-0.030	-0.002
-390.063	366.563	-0.103	0.205
-389.048	-29.174	0.238	0.135
-388.033	87.878	-0.260	0.284
-387.019	5.303	-0.308	0.224
-386.004	-98.108	-0.171	-0.043
-384.990	-200.000	0.018	-0.109
-383.975	-200.000	-0.033	-0.176
-382.960	29.372	0.254	-0.213
-381.946	-28.212	-0.197	0.112
-380.931	-137.701	0.234	0.026
-379.917	35.813	-0.182	-0.158
-378.902	124.479	-0.287	0.357
-377.888	178.092	-0.149	0.214
-376.873	-200.000	-0.066	-0.363
-375.858	159.497	-0.125	0.171
-374.844	535.258	0.076	-0.177
-373.829	9.773	-0.115	-0.086
-372.815	194.570	0.060	0.090
-371.800	-85.928	-0.150	-0.046
-370.785	-200.000	0.088	0.476
-369.771	-159.782	0.313	0.017
-368.756	-200.000	0.009	0.211
-367.742	-200.000	-0.001	0.229
-366.727	100.443	-0.115	0.132
-365.712	-23.102	-0.225	-0.134
-364.698	-4.323	0.201	-0.137
-363.683	-99.133	0.241	-0.060
-362.669	800.000	0.093	-0.369
-361.654	800.000	0.074	0.251
-360.639	800.000	0.088	-0.298
-359.625	449.438	-0.046	0.099
-358.610	-34.208	-0.038	0.021
-357.596	-29.510	0.079	-0.045
-356.581	358.324	-0.169	-0.333
-355.566	-200.000	0.011	-0.165
-354.552	-165.786	-0.273	0.012
-353.537	-148.557	-0.148	-0.012
-352.523	581.303	0.130	0.313
-351.508	-104.453	0.300	0.068
-350.493	220.096	-0.104	-0.164
-349.479	-114.860	-0.224	0.042
-348.464	-200.000	0.062	0.502
-347.450	724.510	-0.092	-0.242
-346.435	-200.000	0.011	0.109
-345.420	89.531	0.358	-0.394
-344.406	-200.000	0.040	0.340
-343.391	-113.643	0.257	0.049
-342.377	45.263	-0.195	0.177
-341.362	-28.078	-0.054	-0.031
-340.348	11.783	0.375	-0.284
-339.333	-200.000	0.007	0.234
-338.318	-45.714	0.315	-0.153
-337.304	86.290	-0.148	-0.161
-336.289	-40.460	-0.237	0.121
-335.275	450.533	-0.092	0.200
-334.260	-200.000	-0.005	0.067
-333.245	211.424	-0.201	0.312
-332.231	-13.141	-0.086	0.055
-331.216	-82.675	0.119	-0.038
-330.202	90.773	0.153	0.168
-329.187	-13.663	-0.205	-0.131
-328.172	800.000	-0.088	0.286
-327.158	79.234	0.169	0.178
-326.143	-143.600	0.100	0.009
-325.129	-200.000	-0.035	-0.149
-324.114	-110.753	0.055	-0.011
-323.099	-62.341	0.112	-0.046
-322.085	-10.230	-0.264	0.172
-321.070	-200.000	-0.032	-0.366
-320.056	44.716	0.201	-0.182
-319.041	-36.252	-0.350	-0.186
-318.026	-200.000	-0.016	0.231
-317.012	-25.383	-0.196	0.114
-315.997	121.757	-0.165	-0.203
-314.983	349.618	-0.080	0.156
-313.968	66.963	0.236	0.237
-312.953	-18.969	0.161	-0.098
-311.939	168.215	-0.102	0.143
-310.924	-2.922	0.121	-0.083
-309.910	-135.832	-0.441	0.051
-308.895	405.142	0.145	-0.301
-307.880	12.711	-0.192	-0.146
-306.866	8.687	-0.096	-0.071
-305.851	800.000	0.032	-0.104
-304.837	758.958	0.069	-0.184
-303.822	44.750	0.222	0.201
-302.807	-200.000	-0.010	0.123
-301.793	134.774	-0.145	0.186
-300.778	-200.000	0.024	-0.251
-299.764	800.000	0.021	-0.079
-298.749	323.790	0.265	0.497
-297.735	-200.000	0.004	-0.177
-296.720	125.307	0.042	0.052
-295.705	-79.893	0.239	-0.079
-294.691	266.123	0.154	-0.264
-293.676	-105.047	-0.171	0.039
-292.662	-200.000	0.038	0.250
-291.647	-97.636	-0.098	-0.025
-290.632	30.223	0.164	-0.137
-289.618	-8.917	-0.165	0.109
-288.603	30.304	0.231	0.194
-287.589	-47.867	-0.275	0.131
-286.574	161.890	-0.053	0.073
-285.559	-36.182	0.218	0.116
-284.545	-153.679	-0.137	-0.009
-283.530	-87.669	0.510	0.151
-282.516	-92.286	0.140	-0.039
-281.501	-200.000	0.034	-0.246
-280.486	-200.000	-0.007	0.295
-279.472	221.226	-0.019	0.030
-278.457	59.326	-0.138	0.133
-277.443	-200.000	-0.007	-0.177
-276.428	800.000	-0.082	0.251
-275.413	-200.000	-0.005	-0.075
-274.399	-92.686	0.140	0.039
-273.384	-40.904	-0.066	0.034
-272.370	285.021	0.071	0.126
-271.355	800.000	0.139	-0.427
-270.340	-82.767	-0.068	0.022
-269.326	41.805	0.139	0.124
-268.311	65.089	0.054	-0.054
-267.297	22.589	0.157	0.126
-266.282	441.769	0.175	0.377
-265.267	514.208	0.073	-0.167
-264.253	55.688	-0.155	0.148
-263.238	158.084	-0.194	-0.264
-262.224	-54.654	0.206	-0.091
-261.209	800.000	0.085	0.256
-260.195	-200.000	0.052	0.232
-259.180	-17.905	0.105	-0.064
-258.165	754.223	-0.015	0.039
-257.151	-99.791	-0.132	-0.032
-256.136	800.000	0.142	-0.516
-255.122	220.079	-0.132	-0.208
-254.107	-58.259	0.215	-0.092
-253.092	-136.693	-0.157	0.018
-252.078	800.000	-0.022	0.077
-251.063	349.015	0.072	0.140
-250.049	-200.000	-0.001	-0.202
-249.034	-124.524	0.323	0.049
-248.019	-51.718	-0.319	-0.146
-247.005	32.712	0.036	-0.031
-245.990	-112.997	0.382	0.074
-244.976	554.315	-0.033	-0.079
-243.961	198.053	-0.204	-0.306
-242.946	207.240	-0.015	-0.022
-241.932	-44.779	0.094	-0.046
-240.917	773.373	0.026	0.068
-239.903	-15.055	-0.241	-0.151
-238.888	-200.000	0.039	0.177
-237.873	-75.892	-0.281	-0.098
-236.859	-84.521	0.188	0.058
-235.844	83.262	0.080	0.085
-234.830	339.930	-0.158	-0.302
-233.815	456.116	0.063	0.136
-232.800	-110.002	-0.066	-0.014
-231.786	-72.184	-0.075	0.027
-230.771	800.000	0.141	-0.479
-229.757	-107.876	0.125	-0.027
-228.742	148.359	0.176	0.233
-227.727	55.478	-0.055	0.053
-226.713	20.521	-0.155	0.123
-225.698	69.927	-0.252	0.255
-224.684	-64.187	0.335	-0.134
-223.669	-200.000	0.047	0.282
-222.655	-7.255	0.222	-0.147
-221.640	-200.000	-0.039	0.296
-220.625	800.000	-0.154	-0.489
-219.611	-6.445	-0.086	0.058
-218.596	-39.677	-0.341	0.175
-217.582	-139.401	0.365	-0.038
-216.567	136.110	-0.144	-0.184
-215.552	317.232	-0.108	-0.200
-214.538	-99.586	0.064	0.016
-213.523	86.662	0.133	0.143
-212.509	125.724	-0.312	-0.386
-211.494	75.195	-0.210	-0.217
-210.479	-97.883	0.140	0.035
-209.465	-200.000	-0.020	-0.348
-208.450	-129.916	-0.011	0.001
-207.436	71.845	0.219	0.223
-206.421	-176.014	0.023	0.001
-205.406	-46.883	-0.288	-0.138
-204.392	-200.000	-0.067	0.333
-203.377	47.721	0.148	-0.135
-202.363	-6.080	-0.189	0.127
-201.348	-52.281	0.155	0.071
-200.333	800.000	-0.053	0.158
-199.319	-39.337	-0.514	-0.264
-198.304	368.524	-0.059	0.116
-197.290	-120.829	-0.291	0.048
-196.275	-82.337	-0.057	-0.018
-195.260	-127.762	-0.385	0.054
-194.246	-45.426	0.222	0.108
-193.231	-200.000	0.052	-0.299
-192.217	55.183	-0.047	-0.045
-191.202	-54.131	-0.158	0.071
-190.187	280.720	0.209	0.366
-189.173	4.849	-0.265	-0.191
-188.158	-200.000	0.026	0.141
-187.144	129.453	-0.201	0.251
-186.129	-15.436	-0.375	0.234
-185.114	800.000	-0.054	0.192
-184.100	-200.000	-0.015	0.236
-183.085	83.171	-0.136	-0.144
-182.071	391.426	-0.009	-0.018
-181.056	-200.000	-0.006	0.213
-180.042	-55.594	-0.501	-0.220
-179.027	263.792	0.015	0.026
-178.012	800.000	0.028	0.106
-176.998	-38.041	0.376	-0.195
-175.983	58.128	0.268	-0.257
-174.969	-200.000	-0.030	0.245
-173.954	-96.985	-0.284	0.073
-172.939	148.195	0.123	0.162
-171.925	-200.000	-0.017	0.243
-170.910	94.068	-0.150	0.166
-169.896	-58.280	0.185	0.079
-168.881	-122.897	-0.227	-0.036
-167.866	800.000	0.088	-0.303
-166.852	-73.302	0.374	-0.134
-165.837	-200.000	-0.017	0.259
-164.823	-31.588	0.113	-0.062
-163.808	72.151	0.213	0.217
-162.793	192.992	-0.093	0.137
-161.779	749.702	-0.071	0.187
-160.764	16.564	-0.270	-0.208
-159.750	-149.201	0.250	0.020
-158.735	-171.044	0.122	-0.004
-157.720	225.799	0.137	0.217
-156.706	-200.000	-0.005	-0.206
-155.691	-52.665	0.184	-0.083
-154.677	274.119	0.034	-0.058
-153.662	295.454	0.101	0.180
-152.647	-200.000	0.011	-0.049
-151.633	-32.968	0.192	0.104
-150.618	33.220	0.048	-0.040
-149.604	-46.175	-0.118	-0.057
-148.589	-72.629	0.278	-0.100
-147.574	86.846	0.096	-0.103
-146.560	332.536	-0.037	-0.070
-145.545	417.230	0.108	0.225
-144.531	392.630	0.047	0.096
-143.516	800.000	-0.087	0.248
-142.502	-142.346	-0.207	-0.020
-141.487	-85.261	-0.145	0.044
-140.472	36.034	-0.237	0.204
-139.458	-11.350	0.365	-0.234
-138.443	800.000	0.058	-0.157
-137.429	-134.875	-0.051	-0.006
-136.414	738.394	0.193	0.506
-135.399	46.328	-0.223	-0.202
-134.385	800.000	0.034	-0.114
-133.370	-1.191	-0.195	-0.134
-132.356	-24.664	0.462	0.268
-131.341	-23.882	-0.174	0.102
-130.326	800.000	0.051	0.187
-129.312	-177.132	0.206	-0.005
-128.297	-9.650	0.207	-0.135
-127.283	-99.037	0.395	0.098
-126.268	800.000	-0.033	-0.110
-125.253	-200.000	-0.042	-0.269
-124.239	-97.722	0.252	-0.064
-123.224	-40.656	0.290	0.147
-122.210	800.000	0.078	-0.319
-121.195	383.040	-0.057	0.114
