DTS Sentinel unit serial number:	SN413079Multiplexer serial number:	ORYXHardware model number:	OX4-SRSoftware version number:	ORYX F/W v4.00 Oryx Data Collector v3.7.2.0data status	okinstallation	princeton_trtdifferential loss correction	single-endedforward channel	channel 3reverse channel	N/Adate	2019/09/17time	20:04:34forward acquisition time	60.00reverse acquisition time	0.00gamma	496.2192k internal	0.2326k external	0.2326temperature offset calibration	0.9948default loss term (dB/km)	0.3790temperature slope calibration	1.0000multiplexer offset coefficient	1.0000multiplexer slope coefficient	1.0000fibre end	0.00T internal ref (°C)	32.86T ext. ref 1 (°C)	0.22T ext. ref 2 (°C)	22.75length (m)	temperature (°C)	Stokes	anti-Stokes-747.200	354.834	0.106	-0.213
-746.185	19.913	-0.175	-0.143
-745.171	-97.127	0.300	0.079
-744.156	-200.000	0.052	0.292
-743.142	-73.001	0.159	-0.059
-742.127	-200.000	-0.044	-0.000
-741.112	-200.000	0.028	0.515
-740.098	-200.000	-0.018	0.159
-739.083	439.712	0.092	0.203
-738.069	132.620	-0.141	0.183
-737.054	-62.691	0.030	-0.013
-736.039	-23.596	0.064	0.039
-735.025	-1.527	0.075	0.053
-734.010	158.722	-0.235	-0.329
-732.996	124.926	0.217	0.276
-731.981	800.000	-0.033	-0.112
-730.966	-162.848	-0.345	0.017
-729.952	-111.622	-0.523	-0.107
-728.937	17.696	0.120	0.096
-727.923	-200.000	-0.007	-0.105
-726.908	800.000	0.033	0.114
-725.894	-137.184	-0.306	-0.035
-724.879	800.000	-0.008	-0.033
-723.864	194.944	-0.282	-0.432
-722.850	-12.839	-0.038	-0.025
-721.835	-134.746	0.068	0.008
-720.821	-200.000	-0.021	-0.124
-719.806	-34.079	-0.225	-0.124
-718.791	-200.000	-0.059	-0.359
-717.777	353.100	0.221	-0.442
-716.762	117.657	-0.015	0.018
-715.748	-55.021	-0.118	0.054
-714.733	-200.000	0.004	0.109
-713.718	93.989	-0.143	0.163
-712.704	85.151	0.090	-0.100
-711.689	-109.348	-0.257	0.055
-710.675	800.000	0.035	-0.144
-709.660	-120.317	-0.138	-0.024
-708.645	-125.438	-0.419	-0.064
-707.631	-62.160	0.333	-0.140
-706.616	-68.804	0.127	-0.050
-705.602	-58.302	-0.214	-0.094
-704.587	-28.640	0.058	0.033
-703.572	317.281	-0.068	0.129
-702.558	-200.000	0.017	-0.145
-701.543	-200.000	0.006	-0.165
-700.529	-92.514	0.198	-0.056
-699.514	-41.812	-0.235	0.122
-698.499	-30.728	0.224	0.128
-697.485	-200.000	-0.001	-0.190
-696.470	-112.326	0.330	0.066
-695.456	246.500	-0.187	-0.317
-694.441	154.159	0.089	0.123
-693.426	-126.272	0.064	-0.010
-692.412	-1.622	-0.157	-0.111
-691.397	19.317	0.213	-0.172
-690.383	489.017	-0.116	0.267
-689.368	-63.087	0.228	-0.095
-688.354	370.249	-0.029	0.060
-687.339	-173.328	-0.063	0.002
-686.324	71.452	-0.139	0.145
-685.310	-107.681	-0.129	-0.028
-684.295	204.845	0.065	-0.102
-683.281	-200.000	-0.016	-0.330
-682.266	-74.673	-0.352	-0.127
-681.251	800.000	-0.093	-0.293
-680.237	40.455	-0.391	0.354
-679.222	530.715	-0.077	0.182
-678.208	-117.249	-0.287	-0.052
-677.193	-184.745	-0.268	-0.004
-676.178	28.457	0.296	-0.252
-675.164	184.507	0.214	0.319
-674.149	79.366	-0.149	0.161
-673.135	26.643	0.035	0.029
-672.120	20.206	-0.069	0.056
-671.105	64.379	-0.143	-0.145
-670.091	-200.000	-0.091	-0.430
-669.076	-200.000	0.004	-0.115
-668.062	-57.429	0.096	0.043
-667.047	425.998	0.128	-0.277
-666.032	-83.487	-0.377	-0.121
-665.018	800.000	0.050	0.188
-664.003	-149.389	-0.179	-0.014
-662.989	431.699	0.059	0.129
-661.974	-64.891	0.399	0.162
-660.959	4.422	0.124	-0.091
-659.945	-48.415	0.247	-0.120
-658.930	-107.801	0.279	0.061
-657.916	73.912	-0.213	0.224
-656.901	-156.812	-0.218	0.013
-655.886	-128.020	0.179	-0.026
-654.872	-82.476	0.056	0.018
-653.857	-179.176	0.446	0.010
-652.843	89.574	-0.068	-0.076
-651.828	-108.047	0.234	-0.051
-650.814	88.278	-0.182	-0.203
-649.799	155.269	0.107	0.148
-648.784	-30.257	0.165	0.094
-647.770	-200.000	-0.031	0.184
-646.755	477.437	-0.058	-0.131
-645.741	-180.553	0.218	0.005
-644.726	-200.000	0.019	0.168
-643.711	-200.000	0.030	0.189
-642.697	-200.000	-0.050	-0.294
-641.682	-200.000	-0.004	0.079
-640.668	161.085	0.139	-0.195
-639.653	-31.828	-0.195	-0.110
-638.638	710.143	-0.016	0.043
-637.624	26.268	0.215	0.181
-636.609	-17.275	-0.265	0.168
-635.595	102.671	0.088	-0.103
-634.580	800.000	-0.017	0.062
-633.565	462.562	0.067	0.150
-632.551	800.000	0.063	-0.246
-631.536	-188.941	0.176	0.002
-630.522	-47.603	-0.235	0.115
-629.507	192.748	-0.150	0.228
-628.492	-76.205	-0.031	-0.011
-627.478	311.592	-0.033	0.063
-626.463	800.000	-0.104	0.306
-625.449	-37.213	0.185	-0.099
-624.434	404.083	0.058	-0.123
-623.419	-32.368	-0.203	0.114
-622.405	31.492	-0.253	-0.219
-621.390	-106.578	-0.181	-0.041
-620.376	-106.235	0.103	-0.023
-619.361	79.924	-0.095	-0.102
-618.346	800.000	0.060	-0.223
-617.332	68.054	-0.180	0.185
-616.317	-92.904	0.520	-0.146
-615.303	-73.826	-0.131	-0.048
-614.288	240.718	0.162	-0.271
-613.273	800.000	0.061	-0.236
-612.259	-133.779	-0.205	0.026
-611.244	-40.453	-0.173	0.090
-610.230	58.676	0.285	0.281
-609.215	-77.440	0.013	-0.005
-608.201	21.971	-0.174	-0.142
-607.186	529.033	-0.151	-0.357
-606.171	-82.625	-0.245	-0.080
-605.157	-28.991	0.284	0.164
-604.142	800.000	-0.020	0.066
-603.128	-190.368	0.330	0.004
-602.113	-200.000	-0.008	-0.233
-601.098	-52.296	-0.299	-0.139
-600.084	-117.635	0.206	-0.037
-599.069	-164.426	0.225	0.010
-598.055	48.626	-0.170	0.159
-597.040	-104.288	-0.215	0.050
-596.025	800.000	0.048	0.193
-595.011	97.824	0.166	0.192
-593.996	-81.845	-0.155	0.051
-592.982	-36.676	0.170	-0.092
-591.967	-111.734	0.161	0.033
-590.952	-147.117	-0.183	-0.016
-589.938	118.128	0.071	0.087
-588.923	800.000	0.010	-0.036
-587.909	800.000	0.048	-0.155
-586.894	98.815	0.259	-0.300
-585.879	-45.257	0.154	-0.077
-584.865	510.141	0.119	-0.277
-583.850	273.926	-0.136	0.241
-582.836	3.180	-0.257	-0.187
-581.821	-130.125	0.112	0.015
-580.806	-81.756	-0.256	-0.084
-579.792	26.206	0.103	0.086
-578.777	-160.926	-0.179	-0.009
-577.763	19.351	0.335	0.269
-576.748	45.441	0.038	-0.035
-575.733	-200.000	0.032	-0.217
-574.719	84.352	-0.104	-0.114
-573.704	44.721	0.243	-0.224
-572.690	109.154	0.230	0.276
-571.675	-143.444	0.197	-0.019
-570.661	-200.000	0.031	-0.272
-569.646	267.887	-0.203	0.357
-568.631	-200.000	0.047	0.350
-567.617	-111.326	-0.264	-0.054
-566.602	-120.570	0.390	0.066
-565.588	-200.000	-0.024	-0.290
-564.573	800.000	-0.109	-0.312
-563.558	154.006	0.108	-0.148
-562.544	-200.000	0.015	0.128
-561.529	-121.376	0.212	-0.035
-560.515	-101.421	-0.146	0.036
-559.500	-25.668	0.255	-0.151
-558.485	800.000	0.086	0.323
-557.471	321.151	0.064	-0.121
-556.456	-200.000	-0.042	-0.261
-555.442	-120.521	0.219	0.037
-554.427	778.240	0.142	0.388
-553.412	-39.389	0.384	0.202
-552.398	220.455	0.013	-0.022
-551.383	-113.281	-0.131	-0.026
-550.369	-30.481	-0.047	0.026
-549.354	161.619	0.086	-0.120
-548.339	-31.272	-0.184	0.104
-547.325	-200.000	0.009	0.139
-546.310	800.000	-0.086	0.321
-545.296	-200.000	-0.039	-0.228
-544.281	316.618	0.061	-0.115
-543.266	12.448	-0.153	-0.118
-542.252	800.000	0.074	-0.288
-541.237	-164.701	0.230	-0.010
-540.223	-6.517	0.312	0.212
-539.208	-107.377	0.204	-0.045
-538.193	399.452	-0.046	-0.096
-537.179	-118.115	-0.158	-0.028
-536.164	-70.489	0.116	0.044
-535.150	61.532	0.086	0.086
-534.135	-111.738	-0.288	-0.058
-533.121	-139.436	0.207	0.022
-532.106	-85.544	-0.103	0.032
-531.091	-107.026	-0.172	-0.038
-530.077	-200.000	0.024	-0.318
-529.062	-87.980	0.127	-0.038
-528.048	-200.000	-0.021	-0.121
-527.033	-45.509	-0.283	-0.140
-526.018	-21.468	0.166	-0.101
-525.004	96.742	-0.191	-0.219
-523.989	203.220	0.062	0.096
-522.975	-125.312	-0.388	0.059
-521.960	249.509	-0.218	0.370
-520.945	-101.561	0.119	-0.029
-519.931	306.793	0.145	-0.270
-518.916	515.582	-0.188	-0.438
-517.902	800.000	0.059	-0.169
-516.887	258.300	0.097	0.167
-515.872	-71.235	0.176	-0.066
-514.858	423.236	0.244	0.524
-513.843	14.735	-0.178	-0.139
-512.829	-108.878	0.327	0.070
-511.814	597.563	0.018	0.045
-510.799	-124.327	-0.124	-0.019
-509.785	82.935	-0.273	0.297
-508.770	-200.000	0.069	-0.460
-507.756	202.659	-0.188	-0.291
-506.741	130.829	-0.115	-0.147
-505.726	-120.625	0.725	-0.123
-504.712	-93.076	-0.314	0.087
-503.697	800.000	0.033	0.126
-502.683	135.455	-0.073	-0.094
-501.668	800.000	0.041	0.131
-500.653	146.489	0.119	-0.159
-499.639	506.456	0.106	-0.246
-498.624	12.463	-0.548	-0.422
-497.610	128.182	0.097	-0.124
-496.595	-72.911	-0.240	-0.088
-495.581	-128.262	0.516	0.073
-494.566	-63.753	-0.118	0.048
-493.551	212.371	0.137	-0.216
-492.537	-51.216	-0.087	0.040
-491.522	-73.901	-0.225	-0.082
-490.508	43.686	0.225	-0.206
-489.493	-19.476	0.251	-0.155
-488.478	148.990	0.081	-0.110
-487.464	60.414	-0.309	0.305
-486.449	96.533	0.267	-0.305
-485.435	-200.000	0.032	-0.214
-484.420	-11.684	0.110	-0.072
-483.405	-136.723	0.146	0.017
-482.391	-200.000	-0.067	-0.411
-481.376	-200.000	-0.001	-0.205
-480.362	-140.572	0.232	0.024
-479.347	-30.500	0.161	-0.091
-478.332	174.907	-0.050	-0.072
-477.318	-114.399	-0.165	0.032
-476.303	800.000	0.046	-0.152
-475.289	758.635	-0.014	-0.037
-474.274	-17.491	0.130	-0.082
-473.259	-108.707	-0.176	-0.038
-472.245	22.806	-0.065	0.054
-471.230	-200.000	-0.002	-0.026
-470.216	-16.672	0.106	-0.067
-469.201	-8.464	-0.226	0.152
-468.186	65.876	0.155	0.157
-467.172	800.000	0.133	-0.539
-466.157	113.655	0.133	-0.161
-465.143	-163.107	-0.217	0.010
-464.128	585.902	-0.030	0.074
-463.113	800.000	0.073	-0.210
-462.099	22.784	0.080	-0.065
-461.084	248.572	0.087	0.147
-460.070	-156.603	-0.172	0.011
-459.055	127.390	0.053	0.067
-458.040	-122.577	0.256	0.042
-457.026	159.080	0.161	0.223
-456.011	-200.000	-0.001	-0.058
-454.997	22.918	-0.159	0.130
-453.982	800.000	-0.038	-0.107
-452.968	-200.000	0.007	-0.191
-451.953	-75.489	-0.111	0.039
-450.938	-107.805	0.138	-0.030
-449.924	-49.545	0.141	-0.067
-448.909	800.000	0.034	-0.107
-447.895	-2.433	0.149	0.104
-446.880	-79.131	0.029	-0.010
-445.865	-77.765	-0.087	-0.030
-444.851	-177.977	-0.171	0.004
-443.836	-111.538	0.165	0.033
-442.822	-9.282	0.159	-0.106
-441.807	118.247	-0.286	0.351
-440.792	-45.183	0.232	-0.115
-439.778	-172.452	-0.182	0.006
-438.763	-178.926	0.274	-0.006
-437.749	-11.206	-0.240	-0.158
-436.734	127.557	0.124	-0.157
-435.719	-128.886	-0.189	0.027
-434.705	35.486	-0.172	0.150
-433.690	800.000	0.116	0.319
-432.676	104.638	-0.303	0.355
-431.661	-156.675	0.036	-0.002
-430.646	131.049	0.255	-0.327
-429.632	175.493	0.048	-0.069
-428.617	-89.222	0.300	0.088
-427.603	-89.834	0.076	-0.022
-426.588	108.380	-0.185	0.220
-425.573	-48.834	-0.121	-0.058
-424.559	-8.879	-0.086	0.057
-423.544	-43.840	-0.311	-0.156
-422.530	541.552	-0.061	-0.144
-421.515	-20.372	-0.082	0.050
-420.500	102.546	0.218	-0.254
-419.486	35.678	-0.151	-0.132
-418.471	-182.914	-0.113	-0.002
-417.457	27.374	0.028	0.023
-416.442	800.000	0.079	-0.238
-415.428	-31.507	-0.265	0.148
-414.413	-172.413	-0.096	-0.003
-413.398	-24.302	-0.038	-0.022
-412.384	21.182	-0.095	-0.077
-411.369	370.518	-0.085	-0.171
-410.355	56.146	0.223	-0.216
-409.340	-14.211	0.196	-0.126
-408.325	-200.000	-0.017	-0.102
-407.311	-18.850	-0.096	-0.060
-406.296	-80.473	0.018	0.006
-405.282	-53.793	-0.138	-0.063
-404.267	586.378	0.030	0.073
-403.252	-200.000	-0.028	0.324
-402.238	0.345	-0.258	0.184
-401.223	-200.000	-0.055	0.277
-400.209	32.798	-0.092	-0.079
-399.194	-200.000	0.031	-0.312
-398.179	110.957	0.078	0.094
-397.165	-133.079	-0.162	-0.020
-396.150	-200.000	-0.007	0.139
-395.136	-101.176	0.385	-0.094
-394.121	-86.015	-0.121	0.037
-393.106	55.436	-0.030	0.029
-392.092	-152.030	-0.314	-0.023
-391.077	1.054	-0.206	-0.147
-390.063	52.880	-0.219	-0.209
-389.048	800.000	-0.051	0.143
-388.033	0.413	-0.253	0.180
-387.019	-0.102	-0.175	0.124
-386.004	-190.076	-0.152	0.002
-384.990	244.509	0.033	-0.055
-383.975	-200.000	-0.084	-0.422
-382.960	-200.000	0.207	-0.000
-381.946	-87.283	0.078	-0.024
-380.931	136.439	0.063	-0.081
-379.917	-200.000	0.012	0.086
-378.902	586.151	0.133	0.326
-377.888	-49.394	-0.198	0.094
-376.873	284.104	0.047	0.083
-375.858	-82.182	-0.121	-0.039
-374.844	-98.877	0.149	-0.038
-373.829	-88.028	0.131	0.039
-372.815	-200.000	0.036	0.335
-371.800	-200.000	-0.003	-0.016
-370.785	647.380	0.047	-0.120
-369.771	-167.626	-0.137	0.005
-368.756	403.523	0.085	-0.178
-367.742	-140.535	0.173	-0.018
-366.727	5.901	-0.357	0.263
-365.712	-69.793	-0.218	0.083
-364.698	299.120	-0.098	0.180
-363.683	-59.998	-0.315	0.134
-362.669	-127.277	-0.058	0.008
-361.654	-76.470	0.214	-0.075
-360.639	703.394	0.152	-0.398
-359.625	-45.070	0.150	-0.074
-358.610	-200.000	0.047	-0.311
-357.596	-136.581	0.256	0.029
-356.581	-200.000	0.024	0.122
-355.566	-127.518	0.423	0.061
-354.552	-200.000	0.006	0.063
-353.537	127.539	-0.168	-0.212
-352.523	-175.663	0.171	0.005
-351.508	-117.842	0.038	0.007
-350.493	-7.417	-0.280	-0.189
-349.479	800.000	-0.029	0.099
-348.464	-74.346	-0.266	0.095
-347.450	800.000	0.089	-0.289
-346.435	800.000	0.029	0.113
-345.420	-200.000	-0.011	-0.051
-344.406	-72.182	-0.135	-0.050
-343.391	207.337	-0.246	0.381
-342.377	-84.149	-0.285	0.090
-341.362	100.305	-0.131	0.151
-340.348	193.997	0.041	-0.062
-339.333	-19.567	0.122	-0.075
-338.318	182.793	0.076	-0.111
-337.304	-123.856	-0.180	0.028
-336.289	-59.265	0.184	0.079
-335.275	-94.264	-0.202	-0.055
-334.260	-200.000	0.035	0.196
-333.245	7.424	-0.198	0.147
-332.231	-200.000	0.006	0.108
-331.216	35.936	-0.031	0.027
-330.202	-200.000	-0.066	0.339
-329.187	-34.276	-0.235	0.128
-328.172	-37.408	0.194	0.103
-327.158	-73.774	0.066	-0.024
-326.143	-94.389	-0.130	0.035
-325.129	-200.000	-0.002	0.169
-324.114	-128.713	0.107	0.015
-323.099	-91.779	-0.097	-0.027
-322.085	-108.546	0.118	-0.025
-321.070	-74.717	0.242	-0.086
-320.056	293.574	0.135	0.245
-319.041	243.341	0.146	0.242
-318.026	-34.726	0.126	0.069
-317.012	-69.775	-0.030	0.011
-315.997	-3.290	-0.223	-0.154
-314.983	3.237	-0.434	0.313
-313.968	-90.337	-0.161	0.046
-312.953	525.203	0.178	0.416
-311.939	-110.124	-0.293	-0.061
-310.924	779.182	-0.052	0.142
-309.910	-200.000	-0.033	-0.215
-308.895	135.389	0.196	0.253
-307.880	-63.784	-0.048	0.019
-306.866	372.764	-0.143	0.289
-305.851	800.000	-0.059	0.233
-304.837	-61.094	-0.098	-0.041
-303.822	453.156	0.092	-0.201
-302.807	13.522	-0.264	-0.203
-301.793	36.219	0.186	0.163
-300.778	-81.083	0.281	0.092
-299.764	-122.672	0.053	0.009
-298.749	132.265	-0.280	-0.357
-297.735	40.873	-0.175	-0.156
-296.720	122.984	-0.080	-0.099
-295.705	-179.517	0.211	0.005
-294.691	69.960	0.097	0.099
-293.676	-184.436	-0.449	0.007
-292.662	259.560	0.050	-0.085
-291.647	-89.432	0.179	0.052
-290.632	212.943	-0.084	0.131
-289.618	257.938	-0.084	0.143
-288.603	16.311	-0.030	0.023
-287.589	-7.909	0.165	0.110
-286.574	-200.000	0.041	0.208
-285.559	33.466	-0.209	-0.180
-284.545	-160.860	-0.299	-0.016
-283.530	119.012	-0.087	0.106
-282.516	-98.399	0.069	0.018
-281.501	-164.497	0.177	0.008
-280.486	-33.373	0.152	0.083
-279.472	-87.921	0.132	0.039
-278.457	506.041	-0.085	-0.195
-277.443	-3.419	-0.016	-0.011
-276.428	-96.884	-0.106	0.027
-275.413	490.622	0.128	0.290
-274.399	-33.157	-0.283	0.155
-273.384	5.822	0.037	0.027
-272.370	-48.904	-0.274	0.130
-271.355	-124.537	0.128	-0.020
-270.340	335.116	-0.059	-0.112
-269.326	51.189	0.090	-0.084
-268.311	-66.989	-0.381	-0.149
-267.297	-200.000	0.030	0.138
-266.282	765.547	0.075	-0.203
-265.267	511.734	-0.135	0.311
-264.253	306.331	-0.069	0.127
-263.238	46.757	0.202	-0.186
-262.224	-68.545	0.093	-0.036
-261.209	219.131	0.165	0.262
-260.195	800.000	-0.027	0.111
-259.180	-22.880	-0.338	0.202
-258.165	-150.576	0.046	-0.003
-257.151	800.000	-0.050	0.155
-256.136	-78.130	-0.183	-0.062
-255.122	800.000	-0.056	-0.214
-254.107	50.433	0.307	0.287
-253.092	-31.645	-0.056	-0.031
-252.078	-0.457	0.154	-0.108
-251.063	343.956	-0.140	0.273
-250.049	-15.649	0.304	-0.192
-249.034	-166.634	-0.329	-0.014
-248.019	-200.000	-0.399	-0.002
-247.005	-78.508	-0.087	0.029
-245.990	234.486	0.216	-0.353
-244.976	221.429	-0.061	0.097
-243.961	-23.690	-0.282	0.167
-242.946	800.000	-0.132	0.455
-241.932	428.696	0.185	-0.396
-240.917	-86.921	0.412	-0.124
-239.903	25.659	-0.127	-0.105
-238.888	-200.000	0.022	-0.096
-237.873	-6.637	-0.277	-0.187
-236.859	-200.000	0.062	0.475
-235.844	287.957	0.174	0.311
-234.830	264.716	0.084	-0.145
-233.815	1.831	0.113	-0.080
-232.800	249.286	-0.103	0.172
-231.786	-94.310	0.185	-0.050
-230.771	800.000	-0.043	0.151
-229.757	800.000	0.049	0.198
-228.742	800.000	0.046	-0.153
-227.727	553.141	0.073	-0.174
-226.713	52.921	-0.140	0.133
-225.698	35.298	-0.265	0.230
-224.684	-22.021	0.179	-0.108
-223.669	-69.925	0.310	-0.117
-222.655	199.185	-0.087	-0.132
-221.640	46.569	0.115	-0.105
-220.625	240.161	0.093	-0.153
-219.611	12.561	-0.117	-0.089
-218.596	-157.158	-0.376	-0.023
-217.582	-25.632	0.238	0.139
-216.567	13.984	-0.023	0.017
-215.552	-160.671	-0.092	-0.005
-214.538	659.219	-0.178	0.452
-213.523	-200.000	-0.011	-0.434
-212.509	-51.325	0.114	0.052
-211.494	-93.655	0.497	-0.135
-210.479	708.354	-0.052	0.136
-209.465	-200.000	0.018	0.424
-208.450	-16.429	-0.288	-0.180
-207.436	718.278	0.042	-0.111
-206.421	-3.406	0.110	0.075
-205.406	-200.000	0.017	0.085
-204.392	-107.488	-0.054	-0.012
-203.377	42.855	-0.145	0.131
-202.363	132.274	0.129	-0.164
-201.348	-200.000	0.032	-0.160
-200.333	-78.769	-0.269	0.091
-199.319	143.403	0.118	0.155
-198.304	-94.087	0.416	0.113
-197.290	-200.000	-0.005	0.092
-196.275	-200.000	0.008	-0.040
-195.260	-149.553	0.278	-0.022
-194.246	-132.062	-0.349	-0.045
-193.231	-200.000	0.045	0.539
-192.217	130.201	0.062	0.078
-191.202	86.180	0.205	0.223
-190.187	133.876	0.117	0.149
-189.173	-200.000	0.033	0.367
-188.158	156.928	-0.086	-0.118
-187.144	387.010	0.046	-0.094
-186.129	374.879	-0.087	-0.176
-185.114	-142.488	0.305	0.030
-184.100	-28.662	-0.186	0.105
-183.085	-154.209	0.095	-0.006
-182.071	-120.748	0.274	-0.046
-181.056	-73.347	-0.075	-0.027
-180.042	-200.000	0.015	0.153
-179.027	-113.505	0.237	0.046
-178.012	-200.000	0.013	-0.079
-176.998	-62.961	-0.240	0.098
-175.983	-57.241	0.177	-0.077
-174.969	-200.000	-0.014	0.169
-173.954	10.481	0.343	0.258
-172.939	-5.830	-0.103	-0.070
-171.925	-137.573	0.177	-0.020
-170.910	-32.237	0.325	-0.179
-169.896	-36.695	-0.361	-0.191
-168.881	-103.669	-0.397	-0.092
-167.866	-63.931	0.165	-0.067
-166.852	800.000	0.039	0.138
-165.837	181.228	-0.225	0.326
-164.823	339.337	-0.167	-0.321
-163.808	285.822	-0.080	0.143
-162.793	-152.995	0.189	-0.013
-161.779	800.000	0.121	0.379
-160.764	383.714	0.080	0.163
-159.750	260.719	-0.163	-0.278
-158.735	-200.000	0.033	-0.155
-157.720	-51.976	0.130	-0.060
-156.706	-55.911	-0.337	0.148
-155.691	404.489	0.052	-0.107
-154.677	-13.473	-0.227	-0.145
-153.662	-89.823	0.198	-0.057
-152.647	539.195	-0.057	0.134
-151.633	-38.527	0.129	-0.067
-150.618	297.055	-0.099	-0.178
-149.604	-100.409	-0.318	0.078
-148.589	-101.271	0.276	-0.067
-147.574	-200.000	0.009	-0.109
-146.560	-96.421	0.217	-0.057
-145.545	-176.989	-0.215	0.005
-144.531	120.611	0.058	-0.071
-143.516	154.675	-0.172	0.233
-142.502	-200.000	0.029	-0.263
-141.487	391.088	0.058	0.118
-140.472	12.727	-0.285	0.217
-139.458	-7.984	-0.129	0.086
-138.443	-200.000	0.014	0.095
-137.429	-200.000	-0.039	0.281
-136.414	263.700	-0.228	0.390
-135.399	757.175	-0.069	-0.185
-134.385	-200.000	-0.056	-0.433
-133.370	137.902	-0.179	-0.231
-132.356	-200.000	0.082	0.413
-131.341	323.163	-0.060	-0.113
-130.326	195.980	0.040	-0.060
-129.312	-200.000	-0.022	0.097
-128.297	-86.104	0.458	0.139
-127.283	48.507	-0.039	-0.036
-126.268	-52.935	0.283	-0.128
-125.253	150.705	0.076	0.101
-124.239	-200.000	0.073	-0.347
-123.224	92.083	0.190	-0.211
-122.210	215.648	0.117	0.184
