DTS Sentinel unit serial number:	SN413079Multiplexer serial number:	ORYXHardware model number:	OX4-SRSoftware version number:	ORYX F/W v4.00 Oryx Data Collector v3.7.2.0data status	okinstallation	princeton_trtdifferential loss correction	single-endedforward channel	channel 3reverse channel	N/Adate	2019/09/13time	22:24:34forward acquisition time	60.00reverse acquisition time	0.00gamma	496.2192k internal	0.2336k external	0.2336temperature offset calibration	1.0066default loss term (dB/km)	0.3790temperature slope calibration	1.0000multiplexer offset coefficient	1.0000multiplexer slope coefficient	1.0000fibre end	0.00T internal ref (°C)	27.81T ext. ref 1 (°C)	3.24T ext. ref 2 (°C)	22.45length (m)	temperature (°C)	Stokes	anti-Stokes-747.200	-35.925	0.430	-0.234
-746.185	-33.465	-0.121	-0.067
-745.171	-80.702	0.056	-0.019
-744.156	-200.000	-0.013	0.204
-743.142	-126.950	0.163	-0.024
-742.127	145.065	0.165	0.222
-741.112	-101.734	-0.386	-0.094
-740.098	55.328	0.300	0.291
-739.083	-19.388	0.137	-0.085
-738.069	-200.000	-0.021	-0.179
-737.054	68.231	0.088	0.090
-736.039	52.407	-0.179	-0.172
-735.025	50.516	0.183	0.174
-734.010	-65.754	0.163	-0.066
-732.996	32.475	-0.110	-0.095
-731.981	-144.931	-0.087	-0.008
-730.966	-25.675	-0.083	0.049
-729.952	-69.423	0.060	0.023
-728.937	-41.099	-0.246	0.128
-727.923	800.000	0.046	-0.158
-726.908	-149.616	-0.353	-0.028
-725.894	-200.000	0.021	-0.122
-724.879	-159.150	0.019	0.001
-723.864	-4.040	-0.088	-0.061
-722.850	800.000	0.064	-0.227
-721.835	72.935	-0.069	-0.073
-720.821	-71.970	0.172	-0.064
-719.806	-200.000	-0.048	-0.304
-718.791	-200.000	0.006	0.080
-717.777	-76.126	0.097	-0.034
-716.762	-200.000	-0.019	-0.336
-715.748	-132.709	-0.079	0.010
-714.733	-94.489	0.166	0.045
-713.718	800.000	-0.063	-0.227
-712.704	-200.000	0.028	-0.145
-711.689	-51.277	-0.079	0.037
-710.675	-200.000	0.001	-0.057
-709.660	-39.646	-0.201	0.106
-708.645	-122.081	-0.168	0.028
-707.631	82.281	-0.240	0.261
-706.616	-20.949	-0.038	0.023
-705.602	23.918	0.003	-0.002
-704.587	173.993	0.206	0.298
-703.572	122.184	0.156	0.195
-702.558	105.858	0.108	0.128
-701.543	122.361	-0.109	0.136
-700.529	-36.216	-0.036	-0.019
-699.514	633.403	0.096	0.244
-698.499	-177.059	0.175	-0.004
-697.485	-200.000	0.022	-0.421
-696.470	13.140	0.471	0.365
-695.456	129.697	0.197	-0.253
-694.441	-78.854	0.103	0.035
-693.426	-63.223	0.365	-0.151
-692.412	800.000	0.047	-0.173
-691.397	-98.077	-0.301	-0.078
-690.383	148.480	0.105	-0.143
-689.368	-104.290	-0.093	0.022
-688.354	800.000	-0.040	-0.115
-687.339	-113.552	-0.175	0.034
-686.324	-173.635	0.325	-0.010
-685.310	-200.000	-0.059	-0.382
-684.295	-200.000	0.003	0.119
-683.281	-74.170	0.074	-0.027
-682.266	63.173	0.085	-0.085
-681.251	107.121	0.039	-0.047
-680.237	-61.099	0.183	-0.077
-679.222	22.333	-0.121	-0.099
-678.208	218.425	-0.070	0.111
-677.193	800.000	0.147	0.425
-676.178	-74.789	0.141	0.051
-675.164	-143.701	-0.240	-0.023
-674.149	324.929	-0.117	-0.224
-673.135	346.471	-0.148	-0.291
-672.120	-178.901	-0.384	-0.009
-671.105	246.400	0.061	-0.103
-670.091	-55.495	-0.318	-0.143
-669.076	484.279	0.044	-0.101
-668.062	-6.363	-0.153	-0.105
-667.047	-54.929	0.142	-0.064
-666.032	-152.751	-0.141	-0.010
-665.018	168.980	0.178	0.254
-664.003	-113.624	0.293	-0.057
-662.989	59.678	-0.082	0.081
-661.974	132.129	0.162	-0.209
-660.959	271.209	-0.088	0.154
-659.945	-115.770	-0.062	0.012
-658.930	-200.000	0.013	0.103
-657.916	184.561	-0.168	-0.249
-656.901	25.882	0.066	0.055
-655.886	-200.000	-0.018	-0.119
-654.872	104.311	0.112	-0.132
-653.857	-125.828	0.192	0.029
-652.843	-12.481	-0.050	0.032
-651.828	-200.000	0.031	0.222
-650.814	-101.687	0.198	0.048
-649.799	-19.603	0.140	0.087
-648.784	-200.000	0.056	-0.327
-647.770	-92.507	0.056	0.016
-646.755	-133.968	0.145	-0.018
-645.741	46.235	0.110	0.102
-644.726	148.110	-0.190	0.256
-643.711	85.311	0.122	0.134
-642.697	-200.000	-0.018	0.126
-641.682	54.333	0.243	0.234
-640.668	367.450	-0.155	0.313
-639.653	-200.000	-0.037	0.244
-638.638	-6.388	-0.387	-0.264
-637.624	-80.274	-0.254	0.085
-636.609	606.450	0.092	-0.229
-635.595	-130.379	-0.051	-0.007
-634.580	-91.457	0.340	-0.097
-633.565	-200.000	-0.049	0.289
-632.551	-200.000	-0.023	-0.142
-631.536	175.575	0.099	-0.144
-630.522	800.000	0.016	-0.060
-629.507	84.734	0.134	0.147
-628.492	345.014	0.205	0.402
-627.478	800.000	0.085	0.319
-626.463	-91.157	-0.237	0.068
-625.449	800.000	0.120	0.386
-624.434	10.731	-0.303	-0.231
-623.419	-200.000	0.028	-0.145
-622.405	-200.000	-0.028	0.148
-621.390	133.092	0.031	0.041
-620.376	102.872	0.202	0.237
-619.361	-56.321	-0.195	0.087
-618.346	-97.122	0.165	0.043
-617.332	551.289	-0.169	-0.404
-616.317	-23.518	0.218	0.131
-615.303	-129.915	-0.221	0.030
-614.288	800.000	0.055	-0.217
-613.273	800.000	0.068	0.272
-612.259	-89.263	-0.280	0.083
-611.244	12.719	0.257	0.199
-610.230	193.944	0.182	0.276
-609.215	-10.974	0.145	-0.096
-608.201	96.783	0.149	0.170
-607.186	202.055	0.222	-0.342
-606.171	106.829	-0.112	-0.133
-605.157	-57.619	0.048	-0.021
-604.142	83.227	0.112	0.122
-603.128	-200.000	0.000	-0.110
-602.113	4.807	0.225	0.165
-601.098	-200.000	-0.001	0.115
-600.084	800.000	-0.018	-0.068
-599.069	551.063	0.053	0.127
-598.055	800.000	0.023	-0.090
-597.040	124.496	-0.070	0.088
-596.025	-44.529	0.194	-0.097
-595.011	-200.000	0.001	-0.281
-593.996	-200.000	0.048	-0.252
-592.982	-40.387	-0.191	-0.099
-591.967	-106.410	-0.056	-0.012
-590.952	-95.342	-0.201	-0.054
-589.938	135.224	0.191	-0.248
-588.923	543.198	-0.064	-0.152
-587.909	-200.000	0.003	-0.300
-586.894	259.966	0.281	-0.485
-585.879	-115.974	-0.315	0.059
-584.865	-200.000	0.009	0.187
-583.850	-143.655	0.348	0.033
-582.836	9.412	0.158	0.119
-581.821	800.000	-0.088	0.261
-580.806	-88.110	0.485	0.145
-579.792	-5.615	-0.201	-0.138
-578.777	59.226	-0.110	-0.108
-577.763	378.234	-0.052	-0.107
-576.748	473.074	0.078	0.175
-575.733	-200.000	-0.002	-0.214
-574.719	-103.780	-0.161	0.038
-573.704	184.995	-0.147	0.218
-572.690	240.912	-0.123	-0.205
-571.675	-136.821	0.157	0.018
-570.661	77.314	-0.241	-0.256
-569.646	-200.000	0.096	-0.572
-568.631	-34.532	-0.280	-0.153
-567.617	218.350	-0.048	-0.077
-566.602	29.017	0.218	0.184
-565.588	-147.867	-0.138	-0.012
-564.573	-100.343	-0.166	0.041
-563.558	-69.163	-0.067	0.026
-562.544	800.000	-0.098	0.339
-561.529	-107.639	0.159	0.035
-560.515	800.000	-0.031	-0.087
-559.500	-151.933	0.260	-0.019
-558.485	196.767	-0.118	0.179
-557.471	-200.000	0.033	-0.273
-556.456	-91.361	-0.139	0.040
-555.442	-55.280	0.348	-0.156
-554.427	-200.000	0.004	0.195
-553.412	-99.335	0.246	-0.062
-552.398	153.923	0.210	-0.288
-551.383	112.338	-0.104	-0.125
-550.369	3.676	-0.092	-0.067
-549.354	-200.000	0.025	0.337
-548.339	235.988	0.143	-0.236
-547.325	-200.000	-0.040	-0.268
-546.310	-34.305	-0.175	0.096
-545.296	22.831	0.107	-0.087
-544.281	164.198	0.088	0.124
-543.266	161.636	0.270	-0.377
-542.252	-200.000	0.001	-0.399
-541.237	-200.000	0.274	-0.000
-540.223	800.000	-0.064	-0.269
-539.208	-98.729	-0.099	0.025
-538.193	-200.000	-0.027	0.275
-537.179	-5.153	-0.016	-0.011
-536.164	-200.000	-0.014	0.078
-535.150	128.482	-0.239	-0.303
-534.135	611.136	-0.115	0.285
-533.121	-92.787	0.303	-0.084
-532.106	-71.116	-0.295	-0.110
-531.091	38.209	-0.183	-0.162
-530.077	16.029	0.061	0.048
-529.062	-200.000	-0.051	-0.238
-528.048	-126.213	0.088	-0.013
-527.033	-94.107	0.235	0.064
-526.018	-90.489	-0.269	0.077
-525.004	-200.000	-0.039	-0.360
-523.989	-115.174	0.120	0.023
-522.975	18.745	-0.130	0.104
-521.960	-40.364	-0.260	-0.134
-520.945	800.000	-0.075	-0.208
-519.931	8.157	0.208	-0.156
-518.916	-166.055	0.197	0.008
-517.902	800.000	0.140	-0.412
-516.887	-129.878	0.030	0.004
-515.872	-195.152	0.360	0.003
-514.858	0.322	0.344	-0.244
-513.843	-52.224	0.343	-0.158
-512.829	-134.767	-0.114	0.014
-511.814	800.000	-0.042	0.151
-510.799	227.777	-0.062	-0.101
-509.785	399.279	0.044	0.093
-508.770	800.000	-0.034	-0.112
-507.756	-116.500	-0.242	-0.044
-506.741	-95.833	-0.093	0.025
-505.726	82.083	0.258	0.278
-504.712	-69.124	-0.367	-0.141
-503.697	-200.000	-0.026	-0.259
-502.683	-200.000	0.017	-0.113
-501.668	-10.650	-0.337	0.222
-500.653	-200.000	0.000	0.112
-499.639	-200.000	-0.028	-0.152
-498.624	-80.654	0.216	0.071
-497.610	800.000	0.045	0.190
-496.595	-9.791	0.113	-0.075
-495.581	-200.000	-0.018	0.131
-494.566	37.714	-0.112	-0.099
-493.551	382.402	-0.098	-0.201
-492.537	-200.000	-0.018	-0.114
-491.522	501.235	0.123	-0.283
-490.508	482.141	-0.170	0.383
-489.493	80.736	0.173	-0.186
-488.478	-46.720	-0.157	-0.077
-487.464	800.000	0.043	0.120
-486.449	330.635	0.055	0.106
-485.435	-47.976	-0.281	0.135
-484.420	800.000	-0.062	-0.252
-483.405	-55.479	0.200	-0.089
-482.391	-200.000	0.009	0.184
-481.376	359.638	-0.025	0.050
-480.362	0.767	-0.055	-0.039
-479.347	-200.000	-0.008	-0.071
-478.332	35.358	0.114	-0.099
-477.318	171.314	0.098	-0.140
-476.303	-200.000	-0.028	-0.298
-475.289	-162.889	-0.140	-0.007
-474.274	-200.000	0.052	0.234
-473.259	-155.772	-0.216	-0.014
-472.245	-11.605	-0.095	-0.062
-471.230	403.766	0.154	-0.323
-470.216	800.000	0.140	0.393
-469.201	2.239	0.104	-0.074
-468.186	-31.707	-0.370	-0.206
-467.172	344.336	-0.041	0.079
-466.157	180.808	-0.225	0.328
-465.143	12.655	0.049	-0.038
-464.128	-200.000	0.067	-0.466
-463.113	-200.000	-0.008	-0.157
-462.099	2.723	-0.192	0.138
-461.084	40.803	0.191	-0.171
-460.070	-17.740	-0.230	-0.144
-459.055	-83.708	-0.214	-0.068
-458.040	181.069	-0.044	-0.064
-457.026	5.870	-0.407	-0.300
-456.011	277.309	0.161	-0.285
-454.997	800.000	0.051	0.178
-453.982	800.000	-0.104	-0.315
-452.968	-200.000	0.028	-0.418
-451.953	-146.598	-0.085	-0.007
-450.938	-135.218	0.221	0.026
-449.924	-20.767	0.181	0.110
-448.909	800.000	-0.020	-0.083
-447.895	625.478	-0.051	-0.128
-446.880	233.299	0.079	-0.129
-445.865	23.480	-0.075	-0.062
-444.851	16.495	0.166	0.131
-443.836	-18.533	0.298	0.185
-442.822	-52.657	-0.252	-0.116
-441.807	-151.762	0.135	0.010
-440.792	386.457	0.187	-0.384
-439.778	1.911	0.066	0.047
-438.763	41.199	-0.136	0.122
-437.749	237.816	-0.043	0.070
-436.734	69.261	0.059	-0.060
-435.719	-130.896	0.206	-0.027
-434.705	129.664	0.150	0.190
-433.690	126.753	-0.021	0.026
-432.676	661.821	-0.043	-0.111
-431.661	-187.056	0.225	-0.003
-430.646	-200.000	0.016	0.283
-429.632	403.400	0.025	-0.052
-428.617	-87.147	0.056	0.017
-427.603	-1.554	-0.361	-0.252
-426.588	-200.000	0.033	0.395
-425.573	-161.237	0.284	-0.015
-424.559	800.000	0.036	0.115
-423.544	50.347	0.165	0.155
-422.530	-171.977	-0.360	0.012
-421.515	-200.000	0.031	0.147
-420.500	153.241	-0.070	-0.095
-419.486	-31.359	0.195	0.109
-418.471	800.000	0.050	0.198
-417.457	-32.772	0.143	-0.079
-416.442	-95.451	0.152	-0.040
-415.428	800.000	-0.035	0.138
-414.413	-200.000	0.006	-0.105
-413.398	800.000	-0.037	-0.140
-412.384	-48.342	-0.393	0.188
-411.369	-73.925	0.208	-0.075
-410.355	19.036	-0.270	-0.214
-409.340	-17.295	-0.122	0.076
-408.325	251.745	0.051	0.086
-407.311	-200.000	0.005	0.113
-406.296	-39.250	-0.241	-0.125
-405.282	360.694	0.063	-0.125
-404.267	316.706	0.191	-0.358
-403.252	443.905	-0.212	0.460
-402.238	47.385	-0.164	0.151
-401.223	-19.564	-0.470	0.288
-400.209	-200.000	0.013	0.234
-399.194	160.789	0.223	-0.309
-398.179	151.639	-0.170	-0.229
-397.165	-200.000	0.050	0.308
-396.150	800.000	-0.022	0.085
-395.136	330.132	-0.174	0.332
-394.121	-72.475	-0.411	-0.151
-393.106	-200.000	0.005	0.065
-392.092	336.185	0.021	-0.041
-391.077	66.692	-0.198	-0.199
-390.063	-148.319	-0.199	0.016
-389.048	-20.237	-0.109	-0.066
-388.033	800.000	0.026	0.085
-387.019	-29.016	-0.184	0.105
-386.004	278.914	0.094	-0.166
-384.990	-200.000	-0.000	0.296
-383.975	-114.034	0.167	-0.032
-382.960	800.000	0.024	-0.074
-381.946	-200.000	0.044	0.309
-380.931	-200.000	0.011	-0.154
-379.917	-200.000	-0.029	0.328
-378.902	-95.847	-0.181	0.048
-377.888	209.796	-0.103	0.161
-376.873	-32.067	0.227	-0.126
-375.858	35.040	-0.237	0.205
-374.844	327.400	0.157	-0.298
-373.829	800.000	0.024	-0.092
-372.815	5.280	0.086	0.063
-371.800	-200.000	-0.028	-0.132
-370.785	-102.042	-0.178	-0.042
-369.771	-200.000	0.005	-0.151
-368.756	7.472	-0.148	0.110
-367.742	-16.719	-0.116	0.072
-366.727	-44.120	-0.151	0.075
-365.712	800.000	-0.019	-0.068
-364.698	-55.365	-0.231	-0.103
-363.683	25.302	-0.311	-0.256
-362.669	-200.000	-0.040	0.265
-361.654	-13.125	-0.267	-0.172
-360.639	32.719	-0.126	-0.108
-359.625	-101.287	-0.281	0.068
-358.610	800.000	0.054	0.151
-357.596	-87.114	0.146	-0.044
-356.581	-131.911	0.140	-0.018
-355.566	286.957	-0.043	0.076
-354.552	280.063	-0.114	-0.201
-353.537	800.000	-0.090	-0.274
-352.523	-154.234	-0.261	-0.017
-351.508	81.905	-0.229	-0.245
-350.493	354.934	0.126	-0.249
-349.479	-67.189	0.168	0.066
-348.464	-66.091	0.256	0.101
-347.450	-149.500	-0.096	-0.008
-346.435	427.775	-0.062	0.132
-345.420	601.148	0.130	0.320
-344.406	-200.000	-0.028	0.196
-343.391	-200.000	-0.034	0.181
-342.377	-200.000	0.030	-0.309
-341.362	-60.243	-0.404	-0.170
-340.348	-173.952	-0.151	-0.004
-339.333	-119.129	0.359	-0.062
-338.318	268.186	0.100	-0.173
-337.304	62.763	-0.118	-0.116
-336.289	0.374	0.281	0.198
-335.275	231.225	0.048	-0.078
-334.260	-81.376	0.221	0.072
-333.245	800.000	0.066	-0.278
-332.231	-200.000	0.032	-0.146
-331.216	51.873	0.190	-0.179
-330.202	-111.328	-0.091	-0.018
-329.187	19.678	-0.220	0.175
-328.172	0.159	0.104	-0.073
-327.158	-200.000	-0.030	-0.313
-326.143	-143.866	0.363	0.034
-325.129	-60.473	-0.220	-0.092
-324.114	-200.000	-0.019	0.182
-323.099	111.975	0.144	0.172
-322.085	335.710	-0.095	-0.181
-321.070	193.472	-0.061	-0.091
-320.056	154.871	0.043	-0.058
-319.041	13.367	-0.347	0.266
-318.026	-200.000	-0.027	0.186
-317.012	-39.198	-0.246	0.127
-315.997	218.102	-0.067	-0.106
-314.983	424.375	0.111	0.236
-313.968	126.304	0.145	0.181
-312.953	146.908	0.229	-0.305
-311.939	-200.000	0.077	0.345
-310.924	157.298	-0.025	0.034
-309.910	657.824	0.058	0.148
-308.895	-200.000	-0.051	-0.294
-307.880	-140.456	0.054	0.006
-306.866	-114.656	0.385	0.073
-305.851	-167.543	-0.208	0.008
-304.837	-13.873	0.365	-0.233
-303.822	800.000	-0.058	0.164
-302.807	-200.000	-0.035	0.294
-301.793	189.024	0.183	-0.271
-300.778	800.000	-0.108	0.319
-299.764	-2.443	0.365	-0.252
-298.749	643.642	0.079	0.199
-297.735	-66.693	0.021	-0.008
-296.720	-95.089	0.150	0.040
-295.705	-104.741	0.201	0.046
-294.691	128.048	0.110	0.138
-293.676	-200.000	-0.019	0.261
-292.662	145.492	-0.150	-0.198
-291.647	800.000	-0.011	-0.044
-290.632	109.770	0.026	-0.031
-289.618	-152.359	-0.349	0.025
-288.603	274.780	-0.060	-0.104
-287.589	8.808	-0.193	0.144
-286.574	-122.030	-0.319	0.052
-285.559	790.000	-0.093	0.251
-284.545	13.884	-0.169	-0.130
-283.530	214.665	0.126	-0.197
-282.516	-200.000	-0.023	-0.242
-281.501	129.403	0.117	0.147
-280.486	-13.936	0.211	-0.135
-279.472	-115.347	0.167	-0.031
-278.457	-43.570	-0.164	0.082
-277.443	135.659	0.165	-0.212
-276.428	-200.000	0.006	0.044
-275.413	18.364	-0.156	0.123
-274.399	-125.562	-0.069	-0.010
-273.384	-200.000	0.010	0.091
-272.370	-115.601	0.297	0.055
-271.355	-115.896	-0.166	-0.031
-270.340	-76.495	-0.185	0.064
-269.326	-200.000	-0.008	0.443
-268.311	-131.621	-0.114	0.015
-267.297	78.744	0.061	0.064
-266.282	-138.829	-0.170	0.018
-265.267	-200.000	0.001	0.104
-264.253	334.454	0.139	0.265
-263.238	-126.781	0.225	-0.033
-262.224	-139.577	-0.129	0.014
-261.209	181.017	-0.124	0.180
-260.195	-63.225	0.188	0.076
-259.180	-85.795	-0.224	0.069
-258.165	57.941	0.165	0.159
-257.151	92.326	-0.216	0.240
-256.136	-117.401	0.170	0.030
-255.122	39.529	-0.177	-0.156
-254.107	800.000	-0.063	0.204
-253.092	800.000	0.061	-0.169
-252.078	-55.187	-0.120	-0.053
-251.063	273.946	0.050	0.087
-250.049	-8.555	0.188	-0.125
-249.034	118.781	-0.075	0.092
-248.019	161.441	0.101	0.139
-247.005	-10.854	-0.405	-0.264
-245.990	-200.000	0.009	0.181
-244.976	677.185	0.059	-0.152
-243.961	-90.300	0.306	-0.087
-242.946	213.236	-0.056	0.088
-241.932	-78.440	0.208	0.070
-240.917	356.509	-0.025	-0.049
-239.903	-200.000	-0.004	0.380
-238.888	-2.882	-0.196	0.135
-237.873	-99.089	0.211	-0.053
-236.859	217.865	-0.108	0.169
-235.844	-110.506	0.107	0.022
-234.830	15.639	-0.338	0.262
-233.815	19.976	-0.185	-0.147
-232.800	79.189	-0.277	-0.292
-231.786	-200.000	-0.039	-0.308
-230.771	-42.662	0.244	-0.122
-229.757	20.605	-0.101	-0.081
-228.742	266.940	-0.023	-0.039
-227.727	-99.744	0.367	-0.091
-226.713	-64.044	-0.023	0.009
-225.698	-74.311	-0.125	0.044
-224.684	66.794	0.136	-0.136
-223.669	167.893	0.100	-0.140
-222.655	-200.000	0.041	0.433
-221.640	185.662	0.050	-0.074
-220.625	-83.363	0.128	0.041
-219.611	-43.473	0.247	-0.123
-218.596	51.823	-0.108	-0.101
-217.582	481.769	-0.063	0.140
-216.567	-200.000	0.009	-0.254
-215.552	800.000	-0.061	0.231
-214.538	-188.627	0.236	0.003
-213.523	-13.043	-0.270	-0.173
-212.509	-101.344	-0.183	-0.044
-211.494	89.614	-0.078	-0.085
-210.479	-13.647	-0.186	-0.118
-209.465	-44.753	-0.114	-0.056
-208.450	-91.605	-0.024	-0.007
-207.436	156.601	-0.081	-0.110
-206.421	-18.015	0.096	0.059
-205.406	22.707	0.234	0.189
-204.392	64.972	-0.235	0.233
-203.377	-71.667	0.339	0.124
-202.363	27.943	-0.102	0.085
-201.348	-28.720	0.041	0.023
-200.333	800.000	0.038	0.142
-199.319	-106.554	-0.224	0.049
-198.304	-137.639	-0.042	0.005
-197.290	-200.000	0.004	0.112
-196.275	-151.689	-0.245	-0.018
-195.260	-147.838	0.454	0.037
-194.246	-110.171	0.136	-0.028
-193.231	-114.636	0.324	-0.061
-192.217	-200.000	-0.042	-0.341
-191.202	-200.000	-0.002	0.043
-190.187	248.312	0.025	0.041
-189.173	-31.626	-0.093	-0.051
-188.158	-200.000	-0.011	-0.071
-187.144	46.903	-0.175	-0.160
-186.129	-183.133	0.100	-0.002
-185.114	-118.404	0.296	0.052
-184.100	-31.723	0.191	-0.105
-183.085	-64.938	-0.030	0.012
-182.071	129.470	-0.194	0.243
-181.056	-200.000	0.064	0.282
-180.042	-83.240	0.053	-0.017
-179.027	-133.712	0.550	-0.067
-178.012	101.675	-0.172	0.198
-176.998	-200.000	-0.023	0.166
-175.983	-12.817	0.231	0.148
-174.969	189.992	0.233	0.344
-173.954	-200.000	0.009	0.136
-172.939	172.140	-0.112	0.158
-171.925	483.069	0.199	0.444
-170.910	-200.000	0.053	0.290
-169.896	-141.466	-0.244	-0.024
-168.881	-106.142	0.136	-0.030
-167.866	220.885	-0.202	-0.318
-166.852	10.314	-0.163	0.122
-165.837	-200.000	0.057	0.375
-164.823	-112.597	0.143	0.028
-163.808	-200.000	-0.055	0.237
-162.793	87.115	0.049	-0.053
-161.779	800.000	0.051	0.211
-160.764	800.000	-0.050	-0.175
-159.750	800.000	0.070	0.207
-158.735	800.000	-0.030	0.089
-157.720	164.085	0.079	0.109
-156.706	92.626	0.138	-0.153
-155.691	-200.000	-0.010	-0.142
-154.677	-82.500	-0.457	-0.145
-153.662	-18.689	-0.026	0.016
-152.647	-10.619	-0.085	0.055
-151.633	316.452	0.096	0.178
-150.618	66.890	0.033	0.033
-149.604	-200.000	0.070	0.398
-148.589	-109.867	-0.457	0.094
-147.574	184.351	0.083	0.121
-146.560	338.077	0.075	-0.144
-145.545	-7.009	-0.275	-0.183
-144.531	-96.567	0.389	-0.101
-143.516	-90.720	0.211	-0.060
-142.502	-63.015	-0.201	0.082
-141.487	93.960	0.085	0.094
-140.472	-200.000	-0.022	-0.279
-139.458	140.080	-0.103	-0.134
-138.443	-200.000	-0.054	-0.396
-137.429	72.217	-0.125	0.128
-136.414	80.161	0.107	0.113
-135.399	22.424	-0.146	0.117
-134.385	353.070	0.077	-0.149
-133.370	-200.000	-0.040	0.233
-132.356	800.000	0.028	0.095
-131.341	31.721	0.197	-0.166
-130.326	-142.425	0.054	0.005
-129.312	-31.356	-0.059	-0.033
-128.297	132.580	-0.162	-0.205
-127.283	242.709	-0.026	0.043
-126.268	174.017	-0.062	0.088
-125.253	403.233	-0.027	0.055
-124.239	-19.256	-0.310	0.188
-123.224	376.451	0.179	0.359
-122.210	3.312	0.321	0.229
-121.195	-200.000	0.004	-0.092
