DTS Sentinel unit serial number:	SN413079Multiplexer serial number:	ORYXHardware model number:	OX4-SRSoftware version number:	ORYX F/W v4.00 Oryx Data Collector v3.7.2.0data status	okinstallation	princeton_trtdifferential loss correction	single-endedforward channel	channel 3reverse channel	N/Adate	2019/09/16time	16:20:34forward acquisition time	60.00reverse acquisition time	0.00gamma	496.2192k internal	0.2294k external	0.2294temperature offset calibration	0.9947default loss term (dB/km)	0.3790temperature slope calibration	1.0000multiplexer offset coefficient	1.0000multiplexer slope coefficient	1.0000fibre end	0.00T internal ref (°C)	40.50T ext. ref 1 (°C)	15.02T ext. ref 2 (°C)	34.49length (m)	temperature (°C)	Stokes	anti-Stokes-747.200	-80.274	-0.170	0.058
-746.185	-152.223	-0.166	0.012
-745.171	20.225	0.233	-0.193
-744.156	-200.000	0.019	0.258
-743.142	-200.000	-0.042	0.212
-742.127	14.733	0.403	0.322
-741.112	-44.175	0.134	0.069
-740.098	263.876	-0.154	-0.273
-739.083	-180.920	-0.080	0.002
-738.069	-200.000	0.021	0.233
-737.054	88.205	-0.089	0.101
-736.039	800.000	-0.014	-0.046
-735.025	39.791	0.083	-0.076
-734.010	74.549	-0.150	-0.161
-732.996	-99.467	-0.114	0.029
-731.981	93.029	0.117	0.136
-730.966	-47.915	0.118	0.058
-729.952	20.328	-0.125	-0.103
-728.937	-92.876	-0.214	-0.061
-727.923	-200.000	-0.005	-0.071
-726.908	800.000	0.074	-0.303
-725.894	283.678	0.074	-0.136
-724.879	-30.910	-0.043	-0.025
-723.864	150.528	-0.035	-0.048
-722.850	-200.000	0.047	-0.597
-721.835	71.656	0.244	-0.259
-720.821	-200.000	0.052	0.330
-719.806	251.971	-0.211	0.367
-718.791	800.000	-0.143	-0.554
-717.777	-158.995	-0.218	-0.013
-716.762	-74.115	-0.118	0.044
-715.748	-74.331	-0.367	0.135
-714.733	247.494	0.189	-0.327
-713.718	11.630	-0.146	-0.115
-712.704	5.338	-0.114	0.086
-711.689	-80.031	-0.207	-0.071
-710.675	800.000	-0.096	0.276
-709.660	107.055	0.038	-0.046
-708.645	731.190	-0.108	0.295
-707.631	-123.840	-0.313	-0.050
-706.616	-24.319	0.171	0.104
-705.602	-27.877	-0.103	0.061
-704.587	-27.633	-0.093	-0.055
-703.572	162.161	0.295	-0.422
-702.558	-93.178	-0.285	-0.081
-701.543	180.323	0.164	-0.246
-700.529	-200.000	-0.073	-0.477
-699.514	-200.000	0.047	-0.276
-698.499	97.236	-0.123	-0.144
-697.485	-46.826	-0.245	0.123
-696.470	-27.201	-0.093	0.055
-695.456	424.630	0.111	0.244
-694.441	-137.394	-0.190	0.022
-693.426	-92.945	0.300	-0.086
-692.412	-169.192	-0.195	-0.007
-691.397	106.436	0.042	0.051
-690.383	-65.006	-0.383	-0.158
-689.368	-19.308	-0.155	-0.098
-688.354	285.384	-0.160	-0.294
-687.339	-154.872	0.140	0.009
-686.324	-29.291	-0.286	0.167
-685.310	6.616	-0.118	-0.090
-684.295	-200.000	0.021	-0.126
-683.281	34.175	-0.138	-0.123
-682.266	101.163	-0.137	0.162
-681.251	529.924	-0.054	-0.131
-680.237	-53.948	0.348	-0.162
-679.222	619.007	0.074	-0.190
-678.208	-73.534	-0.227	-0.084
-677.193	-200.000	0.003	0.246
-676.178	360.784	0.080	-0.164
-675.164	-52.963	0.158	0.074
-674.149	800.000	-0.044	-0.149
-673.135	800.000	0.111	0.467
-672.120	-200.000	-0.054	0.364
-671.105	-33.542	-0.222	0.125
-670.091	-200.000	-0.110	-0.499
-669.076	84.265	0.038	-0.043
-668.062	149.230	0.100	0.138
-667.047	493.229	0.116	0.272
-666.032	-61.331	0.254	0.109
-665.018	-200.000	0.034	-0.290
-664.003	-200.000	-0.024	0.114
-662.989	50.179	-0.080	-0.077
-661.974	-100.217	0.485	0.123
-660.959	800.000	-0.110	-0.332
-659.945	148.892	-0.152	-0.210
-658.930	-36.374	0.215	-0.118
-657.916	-200.000	0.009	0.098
-656.901	-95.953	0.209	-0.057
-655.886	504.700	0.197	0.464
-654.872	-63.773	0.219	0.091
-653.857	-200.000	-0.017	-0.241
-652.843	800.000	-0.034	0.149
-651.828	-200.000	-0.025	-0.163
-650.814	236.561	-0.161	0.271
-649.799	-136.810	-0.127	0.015
-648.784	370.618	-0.220	-0.455
-647.770	-127.095	-0.159	0.024
-646.755	800.000	-0.065	-0.218
-645.741	-46.406	0.121	0.061
-644.726	9.430	0.142	-0.110
-643.711	-200.000	-0.033	0.266
-642.697	-53.619	0.193	-0.090
-641.682	128.071	0.249	-0.323
-640.668	-20.797	-0.185	-0.116
-639.653	800.000	0.050	-0.151
-638.638	-150.282	-0.570	-0.045
-637.624	-171.845	0.224	0.007
-636.609	-131.114	-0.089	-0.012
-635.595	28.487	0.205	0.176
-634.580	9.181	0.189	-0.145
-633.565	-200.000	-0.026	0.218
-632.551	145.418	-0.063	0.086
-631.536	85.539	0.174	-0.194
-630.522	149.322	0.150	-0.207
-629.507	120.250	0.320	-0.404
-628.492	58.415	-0.084	0.084
-627.478	-97.183	-0.181	-0.048
-626.463	-50.752	0.399	0.191
-625.449	106.339	-0.072	0.087
-624.434	13.991	0.009	-0.007
-623.419	157.455	0.285	-0.402
-622.405	-65.601	0.334	0.136
-621.390	94.799	0.219	0.254
-620.376	-154.612	-0.224	-0.015
-619.361	-119.946	-0.315	-0.055
-618.346	-200.000	-0.042	0.468
-617.332	61.568	0.077	0.077
-616.317	55.594	0.135	0.133
-615.303	357.260	-0.106	-0.215
-614.288	-200.000	0.006	0.275
-613.273	278.625	-0.166	0.300
-612.259	-118.840	-0.146	-0.026
-611.244	124.781	-0.122	0.157
-610.230	40.216	-0.199	-0.182
-609.215	-157.921	0.116	-0.007
-608.201	-200.000	0.017	0.142
-607.186	-33.152	-0.260	-0.147
-606.171	116.474	-0.125	0.156
-605.157	-200.000	-0.018	-0.179
-604.142	-26.861	-0.193	0.114
-603.128	800.000	-0.015	-0.065
-602.113	538.908	-0.046	0.111
-601.098	176.898	-0.057	0.085
-600.084	-164.033	0.149	-0.007
-599.069	-200.000	-0.002	0.116
-598.055	32.276	0.236	-0.207
-597.040	159.710	-0.069	-0.098
-596.025	800.000	-0.088	0.255
-595.011	-114.115	0.106	0.021
-593.996	93.600	-0.127	-0.146
-592.982	-60.828	-0.121	-0.052
-591.967	-187.017	-0.304	0.004
-590.952	321.132	-0.165	0.319
-589.938	149.628	-0.181	-0.249
-588.923	-94.904	0.268	-0.074
-587.909	134.931	-0.046	0.061
-586.894	627.770	-0.051	-0.132
-585.879	-200.000	0.018	0.217
-584.865	-200.000	-0.003	-0.440
-583.850	-118.984	0.086	-0.015
-582.836	-83.707	0.167	0.054
-581.821	58.008	0.219	0.218
-580.806	-85.564	0.230	0.073
-579.792	414.437	0.042	0.091
-578.777	-135.106	-0.206	0.025
-577.763	-65.353	0.326	-0.133
-576.748	-21.239	-0.086	-0.053
-575.733	-57.187	-0.107	-0.048
-574.719	-200.000	-0.070	-0.404
-573.704	-14.295	0.088	0.057
-572.690	-200.000	-0.034	-0.186
-571.675	800.000	0.152	-0.465
-570.661	-86.670	0.138	0.043
-569.646	-200.000	0.022	-0.215
-568.631	-200.000	-0.054	-0.359
-567.617	169.485	0.138	-0.200
-566.602	301.792	-0.128	-0.241
-565.588	-142.245	0.214	-0.022
-564.573	314.696	-0.133	-0.255
-563.558	582.976	0.080	-0.199
-562.544	800.000	0.090	0.321
-561.529	-200.000	-0.115	0.536
-560.515	-200.000	-0.006	-0.043
-559.500	3.951	0.326	0.242
-558.485	-47.862	-0.321	-0.158
-557.471	82.993	-0.077	0.085
-556.456	729.024	0.105	-0.284
-555.442	21.740	0.066	0.055
-554.427	-62.351	0.178	-0.075
-553.412	-134.712	-0.446	-0.055
-552.398	34.487	-0.076	0.067
-551.383	-84.078	-0.233	-0.075
-550.369	76.491	0.108	-0.116
-549.354	129.095	0.186	-0.241
-548.339	800.000	-0.059	0.209
-547.325	-110.910	0.080	-0.017
-546.310	-200.000	-0.014	0.155
-545.296	39.699	-0.243	0.221
-544.281	-90.325	0.097	0.029
-543.266	69.178	-0.131	0.136
-542.252	-200.000	-0.050	-0.436
-541.237	800.000	-0.041	0.182
-540.223	-41.400	-0.205	-0.107
-539.208	800.000	-0.015	0.062
-538.193	-133.302	-0.583	-0.075
-537.179	14.978	-0.484	0.385
-536.164	-69.362	0.181	0.070
-535.150	144.073	0.036	0.048
-534.135	-29.324	-0.319	-0.185
-533.121	-200.000	-0.022	0.365
-532.106	624.401	0.099	0.253
-531.091	-68.623	-0.034	-0.013
-530.077	-120.179	-0.381	-0.066
-529.062	-200.000	-0.022	-0.192
-528.048	686.198	-0.052	0.138
-527.033	-115.130	-0.146	-0.028
-526.018	-124.621	-0.248	-0.039
-525.004	62.116	0.163	-0.165
-523.989	-81.860	0.231	-0.077
-522.975	486.111	-0.131	-0.304
-521.960	-51.739	-0.164	-0.077
-520.945	-28.601	-0.235	-0.137
-519.931	-66.283	-0.221	-0.089
-518.916	8.795	0.230	0.176
-517.902	251.430	0.076	0.130
-516.887	-200.000	0.001	-0.413
-515.872	-200.000	-0.036	-0.173
-514.858	25.575	-0.161	-0.136
-513.843	-137.274	-0.367	0.042
-512.829	-126.704	0.216	-0.032
-511.814	800.000	-0.025	-0.094
-510.799	-79.406	-0.282	-0.097
-509.785	240.739	-0.032	-0.054
-508.770	304.199	-0.032	0.060
-507.756	-42.139	-0.208	-0.108
-506.741	-71.676	0.266	0.101
-505.726	-199.643	0.309	-0.002
-504.712	266.284	0.186	-0.328
-503.697	34.209	0.165	0.146
-502.683	-84.791	-0.280	-0.089
-501.668	-200.000	-0.031	-0.361
-500.653	-121.778	-0.051	-0.008
-499.639	26.517	0.274	-0.232
-498.624	8.058	-0.301	0.229
-497.610	800.000	-0.053	0.153
-496.595	-48.606	0.303	0.148
-495.581	-200.000	-0.025	0.128
-494.566	-132.049	-0.167	0.022
-493.551	57.190	-0.295	-0.292
-492.537	-186.275	-0.185	-0.003
-491.522	-148.175	0.153	0.013
-490.508	128.748	-0.057	-0.073
-489.493	-58.153	-0.205	0.090
-488.478	800.000	-0.093	-0.304
-487.464	-32.170	0.082	-0.046
-486.449	181.055	0.128	0.190
-485.435	236.666	-0.050	-0.084
-484.420	65.733	0.263	0.270
-483.405	-162.880	0.070	0.003
-482.391	165.933	-0.088	0.126
-481.376	136.186	-0.083	0.110
-480.362	-200.000	-0.016	-0.259
-479.347	-117.904	-0.098	0.018
-478.332	-200.000	-0.048	0.247
-477.318	11.102	0.148	-0.115
-476.303	-4.060	0.157	-0.110
-475.289	787.277	0.028	-0.078
-474.274	491.596	-0.080	0.185
-473.259	-80.283	0.300	0.101
-472.245	800.000	-0.043	0.175
-471.230	-200.000	-0.002	-0.090
-470.216	169.356	-0.233	-0.336
-469.201	307.613	0.054	-0.103
-468.186	-200.000	-0.005	-0.240
-467.172	-200.000	0.054	-0.526
-466.157	43.875	-0.088	0.082
-465.143	0.997	0.177	-0.128
-464.128	20.770	0.085	0.070
-463.113	-200.000	-0.038	0.398
-462.099	800.000	0.044	-0.161
-461.084	71.611	-0.179	-0.188
-460.070	87.420	0.130	-0.146
-459.055	66.508	-0.177	0.182
-458.040	221.170	-0.079	0.128
-457.026	130.958	-0.102	-0.133
-456.011	-62.369	-0.308	0.130
-454.997	-26.911	0.440	0.260
-453.982	-200.000	-0.010	-0.261
-452.968	-110.330	0.190	-0.040
-451.953	-47.456	-0.159	0.078
-450.938	-39.702	0.357	0.189
-449.924	32.841	-0.170	-0.149
-448.909	800.000	-0.050	0.144
-447.895	-101.052	-0.089	-0.022
-446.880	-193.487	-0.037	0.000
-445.865	-200.000	0.017	-0.376
-444.851	-161.192	0.422	-0.022
-443.836	-124.034	-0.082	-0.013
-442.822	23.855	-0.154	-0.129
-441.807	-73.978	-0.259	-0.095
-440.792	-106.170	0.198	0.045
-439.778	-44.197	0.008	0.004
-438.763	19.675	-0.247	0.201
-437.749	-52.708	0.183	0.085
-436.734	-110.555	-0.199	0.042
-435.719	800.000	-0.027	0.109
-434.705	247.099	0.012	0.020
-433.690	73.810	0.102	0.109
-432.676	6.494	-0.147	-0.111
-431.661	-112.544	0.134	0.027
-430.646	296.406	-0.087	0.161
-429.632	66.515	0.352	-0.362
-428.617	-146.081	-0.111	-0.010
-427.603	-200.000	-0.028	0.332
-426.588	116.317	0.014	0.017
-425.573	-15.823	0.231	0.149
-424.559	151.687	-0.289	0.398
-423.544	16.907	0.091	-0.073
-422.530	194.365	0.104	-0.159
-421.515	173.273	0.057	-0.083
-420.500	-55.878	0.268	0.121
-419.486	-98.697	0.091	0.023
-418.471	800.000	-0.062	0.179
-417.457	-24.418	0.150	-0.090
-416.442	170.994	-0.260	0.377
-415.428	257.295	-0.124	-0.215
-414.413	702.924	-0.046	0.122
-413.398	-200.000	0.346	0.000
-412.384	-122.319	0.087	0.014
-411.369	-121.313	0.111	-0.019
-410.355	191.861	-0.155	0.235
-409.340	38.290	-0.127	0.114
-408.325	-128.236	-0.241	0.035
-407.311	-200.000	-0.027	0.193
-406.296	-200.000	-0.009	0.074
-405.282	729.317	0.114	0.307
-404.267	641.347	0.082	-0.212
-403.252	89.125	-0.106	0.119
-402.238	-200.000	0.036	0.269
-401.223	-89.575	0.402	0.119
-400.209	266.436	-0.182	0.322
-399.194	111.004	0.058	-0.070
-398.179	800.000	0.017	-0.065
-397.165	108.425	-0.037	-0.045
-396.150	-77.944	-0.281	0.098
-395.136	-152.556	0.170	0.012
-394.121	-33.201	0.116	-0.065
-393.106	-66.298	-0.300	0.120
-392.092	-121.372	-0.168	0.028
-391.077	86.803	0.114	-0.127
-390.063	213.344	-0.106	0.169
-389.048	-95.964	-0.246	-0.066
-388.033	18.621	0.110	-0.089
-387.019	60.631	-0.153	0.152
-386.004	21.849	-0.340	0.280
-384.990	339.649	-0.236	-0.464
-383.975	455.124	-0.082	0.182
-382.960	52.247	0.191	-0.184
-381.946	-128.719	-0.189	0.027
-380.931	434.869	-0.050	0.110
-379.917	437.552	0.067	0.146
-378.902	-80.288	-0.204	0.069
-377.888	49.930	-0.090	-0.085
-376.873	21.520	0.188	-0.154
-375.858	43.837	-0.122	0.113
-374.844	-64.942	-0.070	-0.029
-373.829	-126.902	-0.149	-0.022
-372.815	-132.558	0.052	-0.007
-371.800	-4.181	0.082	-0.057
-370.785	-200.000	-0.012	-0.148
-369.771	-200.000	-0.004	-0.143
-368.756	-200.000	0.049	-0.258
-367.742	508.455	-0.170	0.397
-366.727	-200.000	0.017	0.274
-365.712	-95.506	0.379	-0.102
-364.698	800.000	0.041	-0.177
-363.683	-200.000	-0.015	-0.190
-362.669	-98.811	0.374	0.096
-361.654	-11.598	0.053	0.035
-360.639	800.000	0.131	0.573
-359.625	-130.846	0.462	-0.062
-358.610	-39.578	-0.294	-0.155
-357.596	-200.000	-0.007	-0.236
-356.581	800.000	0.089	-0.259
-355.566	-75.228	-0.279	0.100
-354.552	28.476	-0.116	0.099
-353.537	25.816	0.137	0.115
-352.523	-133.274	0.115	0.015
-351.508	-98.170	0.665	0.172
-350.493	-42.490	0.442	-0.227
-349.479	-114.416	0.342	0.066
-348.464	-150.561	-0.344	0.027
-347.450	-46.226	-0.114	0.057
-346.435	589.974	0.035	0.088
-345.420	-200.000	-0.086	-0.380
-344.406	800.000	0.108	0.331
-343.391	-74.474	0.078	0.028
-342.377	-60.175	0.175	-0.075
-341.362	-110.929	0.173	-0.036
-340.348	479.935	-0.063	0.143
-339.333	124.817	-0.215	-0.273
-338.318	90.483	0.285	0.321
-337.304	-200.000	-0.071	0.311
-336.289	-146.512	-0.255	0.022
-335.275	-61.617	0.259	-0.109
-334.260	306.958	0.110	-0.207
-333.245	-73.925	-0.221	0.081
-332.231	-7.317	-0.098	-0.067
-331.216	-23.739	-0.134	0.081
-330.202	-200.000	0.015	0.075
-329.187	-112.123	-0.160	-0.032
-328.172	115.016	0.154	-0.189
-327.158	-47.623	-0.229	-0.112
-326.143	-118.045	0.342	0.062
-325.129	224.607	0.045	-0.073
-324.114	-63.691	-0.090	0.037
-323.099	93.787	0.218	0.249
-322.085	-90.174	0.222	-0.065
-321.070	800.000	-0.015	-0.056
-320.056	118.753	0.043	0.054
-319.041	157.380	-0.265	-0.369
-318.026	94.663	0.292	0.334
-317.012	114.333	-0.109	-0.134
-315.997	437.401	0.169	-0.370
-314.983	11.052	-0.110	-0.085
-313.968	306.390	0.070	0.132
-312.953	250.060	0.198	0.337
-311.939	-124.951	-0.063	0.010
-310.924	-200.000	-0.023	0.118
-309.910	203.357	0.213	-0.331
-308.895	232.969	-0.062	-0.103
-307.880	-51.314	0.194	0.091
-306.866	800.000	-0.101	-0.338
-305.851	6.201	0.157	0.117
-304.837	-200.000	-0.015	0.144
-303.822	-200.000	-0.019	-0.184
-302.807	-200.000	-0.087	-0.454
-301.793	41.212	0.283	-0.257
-300.778	-103.918	0.246	-0.058
-299.764	-113.370	-0.350	0.069
-298.749	-200.000	-0.043	0.252
-297.735	11.167	-0.160	0.123
-296.720	-86.502	-0.173	0.053
-295.705	800.000	-0.010	0.040
-294.691	-69.226	-0.178	-0.069
-293.676	800.000	0.112	-0.338
-292.662	-76.903	0.366	0.129
-291.647	290.633	-0.079	0.145
-290.632	800.000	-0.029	0.127
-289.618	-84.747	-0.168	-0.053
-288.603	-132.056	0.080	-0.011
-287.589	-174.079	0.392	0.012
-286.574	37.628	-0.178	0.159
-285.559	-93.505	-0.266	0.074
-284.545	8.123	0.140	0.106
-283.530	-64.606	-0.124	0.051
-282.516	70.306	0.292	0.303
-281.501	-5.576	-0.293	-0.202
-280.486	-29.684	-0.157	-0.090
-279.472	-200.000	0.032	0.478
-278.457	800.000	-0.057	0.210
-277.443	800.000	-0.041	-0.153
-276.428	374.530	0.065	0.133
-275.413	609.697	0.053	0.133
-274.399	-200.000	0.009	0.090
-273.384	288.719	0.148	-0.269
-272.370	-127.366	0.185	-0.027
-271.355	-142.710	0.290	-0.028
-270.340	-200.000	0.011	-0.078
-269.326	-34.747	0.112	-0.062
-268.311	33.080	-0.171	0.148
-267.297	468.051	-0.073	-0.164
-266.282	-171.855	0.180	-0.006
-265.267	-111.350	-0.204	0.042
-264.253	126.327	-0.131	0.167
-263.238	-59.619	0.222	-0.096
-262.224	-34.308	0.195	0.108
-261.209	-107.476	0.103	-0.023
-260.195	-54.103	-0.529	-0.242
-259.180	800.000	0.021	-0.065
-258.165	-41.299	0.150	-0.078
-257.151	-40.939	-0.209	-0.108
-256.136	-108.652	0.324	0.070
-255.122	-140.245	-0.370	-0.039
-254.107	-66.267	0.125	0.050
-253.092	-14.972	-0.103	0.066
-252.078	-50.953	0.070	0.033
-251.063	-187.185	-0.051	0.001
-250.049	148.161	0.137	-0.186
-249.034	-30.115	-0.207	-0.118
-248.019	800.000	0.105	-0.312
-247.005	410.449	0.104	0.222
-245.990	-23.526	0.422	0.254
-244.976	-200.000	-0.001	0.239
-243.961	-49.666	0.069	0.033
-242.946	-200.000	-0.033	0.290
-241.932	-1.649	0.131	-0.093
-240.917	-134.996	-0.055	0.007
-239.903	641.879	-0.025	0.065
-238.888	5.271	0.143	0.106
-237.873	191.319	0.149	0.225
-236.859	179.418	0.096	0.141
-235.844	-200.000	-0.011	0.218
-234.830	-30.389	0.195	-0.111
-233.815	-76.016	0.138	0.049
-232.800	-18.735	-0.143	0.090
-231.786	40.451	0.168	0.152
-230.771	-64.395	0.280	0.114
-229.757	-37.762	-0.228	-0.122
-228.742	167.847	0.057	-0.082
-227.727	-198.108	0.397	-0.002
-226.713	57.524	-0.177	0.173
-225.698	355.031	0.101	-0.202
-224.684	-200.000	-0.002	-0.017
-223.669	-200.000	0.049	-0.321
-222.655	800.000	0.070	0.198
-221.640	-3.067	0.035	0.025
-220.625	172.483	-0.194	-0.279
-219.611	-1.269	0.247	-0.175
-218.596	-184.301	-0.249	0.004
-217.582	-85.351	0.253	-0.079
-216.567	-76.982	0.126	-0.044
-215.552	-200.000	0.007	0.184
-214.538	450.431	-0.141	0.311
-213.523	297.151	-0.064	0.118
-212.509	-101.956	0.212	-0.051
-211.494	-120.348	-0.434	-0.074
-210.479	800.000	-0.025	0.104
-209.465	-3.304	0.292	0.204
-208.450	800.000	-0.010	-0.033
-207.436	-95.365	0.055	-0.015
-206.421	59.195	0.248	-0.245
-205.406	-200.000	0.003	0.053
-204.392	-63.529	-0.130	0.054
-203.377	270.915	-0.079	-0.139
-202.363	-71.558	-0.423	-0.158
-201.348	-70.723	0.116	-0.044
-200.333	39.694	0.229	-0.206
-199.319	-81.125	0.049	-0.016
-198.304	-123.749	-0.214	-0.034
-197.290	-199.179	-0.438	-0.002
-196.275	-115.250	0.126	-0.024
-195.260	800.000	0.004	-0.014
-194.246	-0.912	-0.021	-0.015
-193.231	-200.000	-0.045	0.238
-192.217	-83.864	-0.281	-0.090
-191.202	800.000	-0.100	0.370
-190.187	-87.060	-0.174	-0.053
-189.173	-200.000	0.033	-0.256
-188.158	-2.327	-0.148	0.104
-187.144	159.363	0.126	-0.175
-186.129	11.688	0.039	-0.030
-185.114	-200.000	0.001	0.184
-184.100	-118.740	-0.111	-0.020
-183.085	-86.845	-0.137	0.042
-182.071	227.907	0.144	0.235
-181.056	-193.917	-0.068	-0.001
-180.042	211.893	0.149	0.234
-179.027	241.985	-0.139	0.232
-178.012	-177.320	-0.260	-0.006
-176.998	142.513	-0.173	-0.230
-175.983	-200.000	-0.015	0.281
-174.969	-200.000	-0.039	0.281
-173.954	147.876	-0.118	-0.159
-172.939	-61.912	0.292	0.122
-171.925	-51.682	-0.237	-0.111
-170.910	469.162	0.135	-0.304
-169.896	163.593	-0.075	0.105
-168.881	44.146	-0.062	-0.057
-167.866	-92.864	0.404	0.113
-166.852	-47.494	0.203	0.099
-165.837	-158.213	0.173	-0.010
-164.823	99.060	-0.112	0.129
-163.808	-129.057	0.173	-0.024
-162.793	32.958	0.115	0.099
-161.779	411.219	-0.070	0.148
-160.764	40.758	0.037	-0.034
-159.750	7.118	-0.027	0.020
-158.735	153.059	0.094	-0.129
-157.720	-63.206	0.133	-0.055
-156.706	181.108	0.054	-0.079
-155.691	590.202	-0.062	-0.152
-154.677	89.862	-0.168	-0.187
-153.662	29.520	-0.086	0.073
-152.647	-2.250	-0.238	0.167
-151.633	630.851	0.036	-0.091
-150.618	693.513	-0.069	-0.182
-149.604	-101.365	0.134	0.033
-148.589	-29.218	0.242	0.138
-147.574	-144.700	0.272	0.025
-146.560	-71.894	0.198	0.074
-145.545	32.279	-0.105	0.091
-144.531	-160.959	-0.198	0.010
-143.516	-91.075	-0.269	0.077
-142.502	-200.000	-0.019	-0.342
-141.487	28.045	-0.028	0.024
-140.472	-12.508	0.215	-0.140
-139.458	-148.245	0.158	0.013
-138.443	70.807	0.401	0.415
-137.429	133.534	-0.116	-0.150
-136.414	148.013	-0.097	0.131
-135.399	291.712	0.038	-0.070
-134.385	64.868	0.057	-0.057
-133.370	564.285	-0.006	0.014
-132.356	-136.497	0.192	-0.022
-131.341	120.973	0.187	0.233
-130.326	496.674	0.264	0.606
-129.312	94.674	0.277	-0.314
-128.297	5.021	-0.069	-0.050
-127.283	174.739	0.189	0.273
-126.268	496.665	0.068	0.156
-125.253	-120.351	0.110	-0.019
-124.239	-166.976	0.010	-0.000
-123.224	-200.000	0.003	-0.073
-122.210	192.931	0.163	0.245
-121.195	238.075	0.155	0.257
