DTS Sentinel unit serial number:	SN413079Multiplexer serial number:	ORYXHardware model number:	OX4-SRSoftware version number:	ORYX F/W v4.00 Oryx Data Collector v3.7.2.0data status	okinstallation	princeton_trtdifferential loss correction	single-endedforward channel	channel 3reverse channel	N/Adate	2019/09/12time	07:14:10forward acquisition time	60.00reverse acquisition time	0.00gamma	496.2192k internal	0.2319k external	0.2319temperature offset calibration	1.0030default loss term (dB/km)	0.3790temperature slope calibration	1.0000multiplexer offset coefficient	1.0000multiplexer slope coefficient	1.0000fibre end	0.00T internal ref (°C)	32.23T ext. ref 1 (°C)	1.61T ext. ref 2 (°C)	28.20length (m)	temperature (°C)	Stokes	anti-Stokes-747.200	-162.204	-0.480	0.024
-746.185	207.741	-0.192	0.303
-745.171	-96.133	-0.151	-0.041
-744.156	-81.335	0.007	-0.002
-743.142	-200.000	0.024	0.151
-742.127	-55.147	-0.060	-0.027
-741.112	-200.000	0.010	-0.200
-740.098	163.510	-0.176	0.250
-739.083	-79.221	0.256	-0.088
-738.069	800.000	0.023	0.088
-737.054	-87.622	0.466	0.142
-736.039	800.000	-0.046	0.148
-735.025	-118.871	0.167	-0.030
-734.010	-49.495	-0.391	0.188
-732.996	-200.000	0.027	0.275
-731.981	7.237	-0.331	0.250
-730.966	-200.000	0.025	0.131
-729.952	800.000	-0.041	0.137
-728.937	107.759	-0.315	0.379
-727.923	23.166	-0.301	0.250
-726.908	64.771	0.195	0.199
-725.894	82.551	-0.058	0.064
-724.879	-139.361	-0.038	-0.004
-723.864	-148.615	-0.311	0.026
-722.850	96.646	0.229	0.265
-721.835	-131.341	-0.295	0.039
-720.821	-147.959	0.358	-0.030
-719.806	125.532	-0.245	-0.313
-718.791	-53.314	-0.124	-0.057
-717.777	-200.000	0.007	-0.162
-716.762	21.156	-0.310	-0.254
-715.748	800.000	-0.080	-0.327
-714.733	-40.923	0.440	-0.230
-713.718	-152.928	0.115	-0.008
-712.704	-17.526	0.348	0.221
-711.689	27.186	-0.133	0.113
-710.675	548.957	-0.067	-0.162
-709.660	-200.000	0.052	0.286
-708.645	-121.852	-0.427	0.071
-707.631	-6.069	-0.242	-0.167
-706.616	119.404	0.122	-0.153
-705.602	-29.292	0.090	0.052
-704.587	-39.004	-0.228	0.121
-703.572	800.000	0.060	-0.181
-702.558	-149.242	0.224	0.018
-701.543	-200.000	-0.036	0.290
-700.529	103.458	0.083	-0.098
-699.514	-82.934	-0.080	-0.026
-698.499	-109.796	0.316	-0.067
-697.485	281.264	-0.118	0.214
-696.470	222.530	0.067	0.108
-695.456	-200.000	-0.021	-0.199
-694.441	-123.469	0.056	-0.009
-693.426	-200.000	0.037	0.424
-692.412	336.808	-0.109	-0.213
-691.397	252.859	0.196	0.337
-690.383	800.000	-0.038	0.122
-689.368	263.581	-0.056	0.099
-688.354	-68.418	-0.208	0.082
-687.339	220.033	-0.196	-0.316
-686.324	363.219	0.084	0.171
-685.310	304.053	-0.171	-0.321
-684.295	56.789	0.304	-0.299
-683.281	-93.587	-0.097	-0.027
-682.266	31.716	-0.179	0.155
-681.251	-41.170	0.444	-0.231
-680.237	282.089	-0.105	0.189
-679.222	9.963	0.148	-0.113
-678.208	-26.295	0.179	-0.106
-677.193	-200.000	-0.005	0.029
-676.178	800.000	-0.081	-0.302
-675.164	-58.532	-0.263	-0.115
-674.149	-109.926	-0.152	-0.032
-673.135	-200.000	0.024	0.169
-672.120	679.078	0.113	0.296
-671.105	-172.912	0.393	0.012
-670.091	-200.000	0.021	-0.165
-669.076	-200.000	0.138	0.000
-668.062	800.000	-0.064	0.219
-667.047	-120.505	0.291	-0.050
-666.032	-200.000	0.389	0.001
-665.018	160.204	0.065	-0.092
-664.003	198.742	-0.182	0.281
-662.989	-15.112	0.208	0.134
-661.974	445.645	-0.061	0.136
-660.959	800.000	-0.071	0.253
-659.945	214.135	0.215	-0.342
-658.930	-200.000	0.021	0.239
-657.916	-37.913	0.056	0.030
-656.901	-112.023	-0.222	-0.045
-655.886	-1.569	0.153	0.108
-654.872	-155.113	-0.239	-0.016
-653.857	-118.736	-0.162	0.029
-652.843	-200.000	-0.019	0.181
-651.828	-115.973	-0.050	0.009
-650.814	-7.999	-0.142	0.097
-649.799	-150.570	-0.187	-0.014
-648.784	295.255	0.092	0.170
-647.770	-127.610	0.269	-0.039
-646.755	-2.323	0.253	0.179
-645.741	-83.271	-0.375	-0.121
-644.726	176.123	-0.118	-0.172
-643.711	-89.006	-0.169	-0.050
-642.697	-27.099	0.059	0.035
-641.682	-200.000	0.027	0.195
-640.668	-60.502	0.113	-0.049
-639.653	-111.150	0.125	0.026
-638.638	800.000	-0.026	-0.110
-637.624	-200.000	0.010	0.400
-636.609	460.679	-0.170	-0.382
-635.595	480.201	-0.052	-0.118
-634.580	88.706	0.100	-0.112
-633.565	-112.854	-0.332	-0.066
-632.551	-89.873	0.111	0.033
-631.536	-119.879	-0.254	0.044
-630.522	-70.517	-0.227	0.087
-629.507	-32.046	-0.095	0.054
-628.492	-28.249	0.276	0.161
-627.478	354.928	0.069	-0.138
-626.463	336.153	0.018	-0.035
-625.449	800.000	0.042	-0.142
-624.434	-135.259	0.170	-0.020
-623.419	-165.879	-0.357	-0.015
-622.405	-59.483	0.146	-0.063
-621.390	-154.952	0.276	-0.018
-620.376	-67.644	-0.224	0.089
-619.361	37.458	-0.136	0.122
-618.346	4.708	0.187	0.139
-617.332	139.746	-0.095	0.126
-616.317	-4.577	-0.274	0.190
-615.303	46.067	0.117	0.109
-614.288	77.868	-0.149	0.160
-613.273	-195.360	0.096	0.001
-612.259	-47.686	-0.312	0.152
-611.244	-200.000	-0.027	-0.419
-610.230	-16.726	-0.387	-0.246
-609.215	74.707	-0.097	0.103
-608.201	800.000	-0.039	0.165
-607.186	-200.000	-0.027	-0.149
-606.171	-21.264	0.168	-0.103
-605.157	626.067	-0.028	0.071
-604.142	-200.000	-0.316	0.001
-603.128	-121.951	0.252	0.042
-602.113	-30.556	-0.301	0.172
-601.098	101.134	0.195	-0.229
-600.084	-200.000	-0.079	0.404
-599.069	-69.999	0.312	-0.119
-598.055	455.707	0.052	0.115
-597.040	43.048	-0.186	0.171
-596.025	-79.318	-0.257	0.088
-595.011	17.751	-0.135	0.108
-593.996	93.447	0.362	-0.413
-592.982	61.399	-0.158	-0.158
-591.967	78.193	-0.143	-0.153
-590.952	-137.643	-0.187	0.021
-589.938	-68.275	-0.300	-0.117
-588.923	-87.258	0.123	0.038
-587.909	464.039	-0.069	0.155
-586.894	341.390	0.131	0.257
-585.879	50.866	0.092	0.087
-584.865	-91.191	-0.053	0.015
-583.850	-41.229	0.271	0.141
-582.836	-82.861	-0.084	0.027
-581.821	-200.000	0.002	0.237
-580.806	-86.485	-0.122	0.037
-579.792	503.414	-0.095	-0.221
-578.777	-71.901	-0.193	0.072
-577.763	-59.097	-0.211	0.091
-576.748	-19.439	0.191	-0.119
-575.733	161.383	-0.130	0.183
-574.719	336.926	-0.200	-0.391
-573.704	-120.541	-0.122	0.021
-572.690	449.843	-0.042	0.094
-571.675	16.455	-0.069	0.055
-570.661	133.184	-0.033	-0.042
-569.646	224.203	0.104	-0.168
-568.631	-62.087	-0.040	-0.017
-567.617	800.000	0.050	-0.151
-566.602	278.724	-0.120	-0.214
-565.588	-16.203	0.284	-0.181
-564.573	-200.000	0.035	-0.306
-563.558	-200.000	-0.010	-0.128
-562.544	-38.287	-0.194	-0.103
-561.529	66.480	-0.060	-0.061
-560.515	800.000	-0.034	-0.102
-559.500	800.000	0.078	-0.283
-558.485	-198.188	-0.249	0.001
-557.471	354.493	-0.014	0.029
-556.456	-122.465	-0.269	-0.044
-555.442	14.961	0.228	-0.179
-554.427	-93.371	-0.304	0.085
-553.412	-200.000	-0.016	-0.351
-552.398	165.052	-0.148	0.210
-551.383	-200.000	0.012	0.173
-550.369	50.972	0.136	-0.129
-549.354	450.544	-0.023	0.051
-548.339	191.637	0.133	0.202
-547.325	800.000	0.027	0.102
-546.310	333.692	0.129	-0.251
-545.296	23.058	-0.034	-0.028
-544.281	-200.000	0.001	0.073
-543.266	-67.622	-0.253	-0.100
-542.252	-72.584	0.063	-0.023
-541.237	-158.331	0.147	0.009
-540.223	-118.388	0.128	-0.023
-539.208	341.941	-0.143	0.281
-538.193	-77.386	-0.078	0.027
-537.179	-200.000	-0.015	0.176
-536.164	-113.712	0.243	-0.047
-535.150	-200.000	0.051	-0.244
-534.135	-64.414	0.248	-0.101
-533.121	800.000	-0.051	-0.171
-532.106	-103.204	-0.230	0.055
-531.091	800.000	0.060	0.265
-530.077	-23.489	-0.182	0.110
-529.062	318.089	-0.082	-0.156
-528.048	60.046	0.175	-0.174
-527.033	-60.537	0.113	-0.048
-526.018	-52.737	-0.192	-0.089
-525.004	82.750	0.098	0.107
-523.989	42.619	-0.155	-0.142
-522.975	-64.926	0.058	0.024
-521.960	-169.999	-0.103	0.004
-520.945	-117.279	-0.165	-0.030
-519.931	-200.000	-0.011	-0.060
-518.916	-51.531	0.367	0.172
-517.902	-160.338	0.036	-0.002
-516.887	138.565	0.087	-0.114
-515.872	48.690	0.137	-0.129
-514.858	800.000	-0.051	0.207
-513.843	-171.118	-0.101	-0.003
-512.829	5.767	-0.041	0.030
-511.814	508.927	-0.092	-0.215
-510.799	-105.910	0.453	0.102
-509.785	-49.579	0.261	-0.125
-508.770	-115.842	-0.120	-0.022
-507.756	-197.721	0.125	-0.001
-506.741	139.694	0.055	0.072
-505.726	300.890	0.176	-0.325
-504.712	133.357	0.061	0.079
-503.697	159.869	0.199	0.278
-502.683	269.515	-0.039	-0.069
-501.668	21.642	0.243	-0.198
-500.653	-147.405	0.164	0.014
-499.639	-25.554	-0.178	0.105
-498.624	301.002	0.038	0.071
-497.610	204.175	0.196	0.304
-496.595	-88.265	0.347	0.104
-495.581	-11.288	0.192	0.126
-494.566	63.690	0.211	0.212
-493.551	-53.127	-0.292	0.134
-492.537	-67.883	0.183	-0.072
-491.522	800.000	0.058	0.166
-490.508	-200.000	-0.012	0.086
-489.493	164.006	-0.092	0.130
-488.478	191.384	-0.060	-0.090
-487.464	491.601	0.042	-0.097
-486.449	16.955	-0.127	0.101
-485.435	-62.659	0.046	-0.019
-484.420	-67.855	0.161	0.063
-483.405	800.000	0.131	-0.442
-482.391	-72.121	0.067	-0.025
-481.376	74.462	0.276	-0.291
-480.362	256.088	0.073	-0.126
-479.347	559.151	-0.057	0.138
-478.332	284.148	0.010	0.019
-477.318	-116.587	0.191	-0.035
-476.303	-200.000	-0.007	-0.157
-475.289	-55.387	0.098	-0.044
-474.274	-71.221	0.391	-0.147
-473.259	-96.726	0.197	0.052
-472.245	153.214	-0.111	-0.151
-471.230	-141.296	-0.271	-0.028
-470.216	75.017	-0.187	-0.197
-469.201	115.534	0.229	0.280
-468.186	265.759	-0.175	-0.305
-467.172	302.342	-0.141	0.260
-466.157	-106.933	-0.394	0.087
-465.143	800.000	-0.095	0.310
-464.128	-200.000	-0.036	-0.225
-463.113	63.440	0.215	0.216
-462.099	-84.265	0.233	0.074
-461.084	-200.000	0.023	-0.181
-460.070	-129.187	-0.102	-0.014
-459.055	-102.372	-0.367	-0.088
-458.040	37.789	-0.236	-0.210
-457.026	800.000	0.040	-0.155
-456.011	800.000	0.070	-0.234
-454.997	-200.000	0.036	0.202
-453.982	-164.778	0.066	-0.003
-452.968	-20.205	0.068	-0.042
-451.953	-172.664	-0.189	-0.006
-450.938	-200.000	-0.014	-0.174
-449.924	-33.943	-0.248	-0.136
-448.909	126.613	0.161	0.204
-447.895	269.986	0.146	0.256
-446.880	-63.772	0.143	0.059
-445.865	-200.000	-0.015	0.216
-444.851	413.004	-0.090	0.191
-443.836	391.235	-0.087	0.181
-442.822	-200.000	0.040	0.185
-441.807	-200.000	-0.005	0.238
-440.792	-46.647	-0.212	-0.104
-439.778	414.340	0.092	0.195
-438.763	261.504	0.151	-0.261
-437.749	800.000	-0.060	0.190
-436.734	318.878	0.129	-0.244
-435.719	618.746	-0.096	0.241
-434.705	-200.000	-0.015	0.113
-433.690	-200.000	0.006	0.170
-432.676	395.886	-0.212	0.441
-431.661	800.000	-0.119	0.413
-430.646	-200.000	0.007	0.099
-429.632	-136.171	-0.156	0.018
-428.617	-115.025	0.198	-0.038
-427.603	800.000	0.015	-0.057
-426.588	-200.000	-0.006	0.171
-425.573	255.596	0.192	-0.328
-424.559	-73.357	0.141	-0.051
-423.544	103.166	-0.238	-0.279
-422.530	-132.619	-0.061	0.008
-421.515	-200.000	-0.008	-0.207
-420.500	-200.000	-0.018	0.173
-419.486	103.316	0.367	-0.430
-418.471	-88.556	-0.424	0.126
-417.457	-33.326	-0.206	-0.114
-416.442	373.867	-0.176	-0.358
-415.428	64.226	-0.120	0.121
-414.413	41.174	-0.090	-0.081
-413.398	-81.662	0.329	-0.108
-412.384	164.785	-0.080	0.113
-411.369	800.000	0.020	-0.063
-410.355	800.000	-0.055	-0.154
-409.340	37.685	-0.164	-0.145
-408.325	-139.524	0.179	0.019
-407.311	570.643	0.057	0.138
-406.296	78.299	-0.301	-0.321
-405.282	174.954	-0.096	0.139
-404.267	-54.410	-0.056	-0.026
-403.252	800.000	0.036	-0.134
-402.238	800.000	-0.080	-0.235
-401.223	180.424	-0.089	-0.130
-400.209	-20.460	-0.202	0.124
-399.194	87.029	-0.021	0.023
-398.179	292.116	0.076	-0.137
-397.165	-97.784	-0.378	0.098
-396.150	-60.300	0.123	-0.052
-395.136	486.637	0.107	0.244
-394.121	-200.000	-0.095	0.459
-393.106	48.210	0.068	0.063
-392.092	-154.072	-0.453	0.031
-391.077	-54.495	-0.180	0.081
-390.063	-82.819	0.135	0.044
-389.048	173.747	0.153	-0.220
-388.033	-55.732	-0.142	-0.063
-387.019	53.141	-0.296	-0.283
-386.004	267.903	-0.053	0.093
-384.990	96.550	0.261	-0.298
-383.975	532.007	0.071	0.167
-382.960	-37.525	0.420	-0.223
-381.946	-200.000	0.024	-0.125
-380.931	342.228	-0.097	-0.190
-379.917	40.047	0.172	-0.154
-378.902	-57.234	0.327	-0.144
-377.888	-72.756	-0.217	0.080
-376.873	16.668	-0.298	-0.235
-375.858	12.320	0.279	0.215
-374.844	385.201	0.091	0.186
-373.829	-85.388	0.114	0.036
-372.815	-200.000	0.021	0.107
-371.800	338.942	0.112	-0.218
-370.785	657.843	0.092	-0.236
-369.771	-39.155	0.214	0.112
-368.756	-173.049	0.081	0.003
-367.742	-126.497	0.349	0.052
-366.727	-29.143	0.246	0.141
-365.712	98.965	-0.046	0.052
-364.698	-14.181	-0.100	0.064
-363.683	154.988	0.101	-0.138
-362.669	-81.849	-0.079	-0.026
-361.654	-44.852	-0.384	0.191
-360.639	-200.000	-0.011	0.159
-359.625	-108.594	0.265	-0.057
-358.610	-98.373	0.253	0.065
-357.596	-12.071	-0.246	-0.161
-356.581	53.330	0.038	0.036
-355.566	63.501	-0.141	-0.141
-354.552	800.000	-0.062	0.229
-353.537	166.570	0.135	0.191
-352.523	240.277	-0.086	-0.143
-351.508	5.990	0.294	0.217
-350.493	-116.703	-0.510	0.093
-349.479	800.000	0.014	0.045
-348.464	-76.349	0.329	0.116
-347.450	800.000	-0.060	0.216
-346.435	485.858	-0.003	-0.007
-345.420	751.080	-0.132	-0.354
-344.406	14.187	-0.280	0.217
-343.391	-40.412	-0.133	0.069
-342.377	800.000	0.065	0.192
-341.362	-200.000	0.036	0.206
-340.348	-200.000	-0.024	0.158
-339.333	-200.000	0.007	-0.341
-338.318	196.227	0.053	-0.081
-337.304	381.960	-0.253	-0.518
-336.289	-200.000	-0.031	-0.198
-335.275	-62.093	-0.205	0.085
-334.260	-200.000	-0.020	0.268
-333.245	-52.390	0.479	0.221
-332.231	-62.055	0.076	-0.031
-331.216	259.106	-0.142	0.245
-330.202	-35.509	-0.106	-0.057
-329.187	-85.353	-0.062	0.019
-328.172	197.664	0.103	0.157
-327.158	-162.972	0.185	-0.009
-326.143	-67.990	-0.209	0.081
-325.129	-164.463	0.229	-0.010
-324.114	393.521	-0.116	0.240
-323.099	-200.000	-0.109	-0.519
-322.085	-200.000	0.022	-0.143
-321.070	50.682	-0.082	-0.077
-320.056	471.832	0.086	-0.193
-319.041	-171.338	-0.026	0.001
-318.026	800.000	0.068	0.188
-317.012	17.486	0.119	-0.094
-315.997	800.000	-0.040	0.127
-314.983	-63.366	-0.081	0.033
-313.968	-200.000	-0.008	-0.163
-312.953	-151.879	-0.173	-0.013
-311.939	-200.000	0.011	0.076
-310.924	16.750	-0.278	0.219
-309.910	-32.247	0.184	0.102
-308.895	333.093	-0.143	0.274
-307.880	14.809	-0.082	-0.064
-306.866	-32.093	0.334	0.186
-305.851	-104.018	-0.150	-0.035
-304.837	-84.935	0.042	0.013
-303.822	-200.000	-0.079	0.376
-302.807	-76.033	0.172	0.060
-301.793	-32.324	-0.214	-0.119
-300.778	14.448	-0.173	-0.134
-299.764	-200.000	0.007	0.038
-298.749	55.241	-0.016	-0.016
-297.735	-72.217	0.064	0.023
-296.720	-112.373	0.154	-0.031
-295.705	-56.866	0.355	0.156
-294.691	-44.793	-0.107	-0.053
-293.676	95.902	0.114	-0.129
-292.662	-42.174	-0.045	-0.023
-291.647	33.225	-0.195	-0.168
-290.632	80.529	0.138	-0.148
-289.618	-30.948	-0.177	0.099
-288.603	-57.290	0.268	0.117
-287.589	-67.126	0.132	0.052
-286.574	203.158	-0.124	0.191
-285.559	-32.043	-0.260	0.145
-284.545	-151.967	0.323	0.023
-283.530	800.000	-0.047	0.175
-282.516	-65.420	0.085	0.034
-281.501	-20.255	-0.185	-0.113
-280.486	-200.000	0.007	0.215
-279.472	110.497	-0.208	-0.248
-278.457	-60.329	-0.122	0.051
-277.443	5.126	-0.146	0.107
-276.428	-41.843	0.360	0.183
-275.413	236.735	-0.077	-0.127
-274.399	-16.631	-0.158	0.100
-273.384	800.000	-0.031	-0.109
-272.370	98.255	0.121	0.138
-271.355	-4.377	-0.188	-0.129
-270.340	84.540	-0.174	-0.189
-269.326	-200.000	0.050	-0.240
-268.311	90.874	0.285	-0.318
-267.297	-132.648	-0.298	0.038
-266.282	20.805	0.060	-0.048
-265.267	-52.756	0.449	0.206
-264.253	-63.643	0.276	0.112
-263.238	596.446	0.048	0.118
-262.224	560.429	0.134	-0.322
-261.209	-200.000	0.001	-0.044
-260.195	212.429	0.168	-0.263
-259.180	-30.639	0.390	-0.219
-258.165	61.226	0.271	0.268
-257.151	800.000	0.017	0.061
-256.136	-6.786	-0.093	-0.063
-255.122	-123.695	-0.221	-0.035
-254.107	-52.501	-0.304	-0.140
-253.092	555.584	0.094	-0.224
-252.078	-93.323	-0.067	0.019
-251.063	382.515	-0.084	0.172
-250.049	-200.000	0.035	0.169
-249.034	226.914	-0.129	0.208
-248.019	343.063	-0.078	0.152
-247.005	335.197	-0.117	-0.226
-245.990	-99.401	0.097	0.024
-244.976	-200.000	0.019	0.114
-243.961	70.692	0.194	-0.199
-242.946	-47.570	0.193	0.093
-241.932	-167.640	-0.046	-0.002
-240.917	-65.659	-0.057	-0.023
-239.903	-200.000	-0.018	-0.101
-238.888	153.054	0.143	-0.195
-237.873	800.000	-0.085	-0.260
-236.859	-40.771	-0.085	-0.044
-235.844	287.991	-0.132	0.237
-234.830	-102.422	0.175	0.042
-233.815	-127.398	0.122	-0.018
-232.800	-12.383	0.288	-0.186
-231.786	800.000	-0.075	0.250
-230.771	-86.963	-0.281	-0.085
-229.757	-200.000	-0.000	0.030
-228.742	-89.227	-0.040	0.012
-227.727	-200.000	0.030	-0.214
-226.713	27.937	0.196	-0.164
-225.698	-200.000	0.016	-0.133
-224.684	709.279	-0.016	0.041
-223.669	-46.490	0.219	-0.107
-222.655	631.742	-0.039	-0.098
-221.640	41.537	-0.132	0.119
-220.625	-74.853	-0.186	-0.066
-219.611	170.411	0.107	-0.152
-218.596	-200.000	-0.018	0.375
-217.582	-74.825	0.064	0.023
-216.567	-136.070	-0.125	0.015
-215.552	-200.000	0.008	0.216
-214.538	14.930	0.227	-0.176
-213.523	133.176	0.168	-0.215
-212.509	-22.777	0.390	0.233
-211.494	-136.616	0.171	0.020
-210.479	77.387	0.082	-0.086
-209.465	-138.339	0.250	-0.027
-208.450	-200.000	-0.025	-0.133
-207.436	-115.126	-0.235	-0.044
-206.421	115.979	0.148	0.180
-205.406	5.386	-0.176	-0.129
-204.392	262.384	0.105	-0.181
-203.377	800.000	0.061	0.193
-202.363	334.786	-0.102	-0.196
-201.348	-200.000	0.013	-0.498
-200.333	633.441	0.108	-0.271
-199.319	-121.420	-0.435	0.072
-198.304	750.989	0.126	0.337
-197.290	-80.232	-0.048	-0.016
-196.275	82.510	0.140	0.150
-195.260	-93.813	-0.365	0.099
-194.246	174.393	0.089	0.127
-193.231	328.355	-0.061	0.117
-192.217	-200.000	-0.029	-0.363
-191.202	-200.000	0.014	-0.069
-190.187	800.000	-0.008	0.025
-189.173	224.280	-0.154	0.246
-188.158	-149.780	0.094	-0.007
-187.144	102.357	-0.087	0.101
-186.129	125.567	-0.222	0.277
-185.114	178.764	0.113	0.164
-184.100	29.730	-0.327	-0.276
-183.085	122.584	0.174	-0.215
-182.071	-123.513	-0.138	-0.022
-181.056	124.191	0.117	-0.145
-180.042	-175.907	0.179	0.005
-179.027	800.000	-0.143	0.396
-178.012	-200.000	-0.039	0.270
-176.998	297.738	-0.110	-0.199
-175.983	-19.325	0.147	-0.090
-174.969	-99.838	0.090	0.022
-173.954	50.716	-0.230	-0.215
-172.939	-137.101	-0.188	-0.021
-171.925	710.815	-0.043	-0.112
-170.910	-109.759	-0.177	-0.037
-169.896	-200.000	0.014	0.203
-168.881	-155.793	-0.209	0.013
-167.866	357.361	0.005	0.009
-166.852	-156.530	0.418	-0.026
-165.837	316.531	0.152	0.285
-164.823	-155.917	0.342	0.021
-163.808	-143.078	0.227	-0.022
-162.793	-200.000	-0.089	0.394
-161.779	-200.000	-0.019	0.270
-160.764	417.361	-0.035	-0.074
-159.750	-63.670	0.344	-0.139
-158.735	-200.000	-0.013	0.193
-157.720	-12.748	-0.116	0.075
-156.706	800.000	-0.099	0.355
-155.691	71.925	-0.207	-0.213
-154.677	65.260	0.209	0.209
-153.662	250.677	0.099	-0.166
-152.647	51.462	0.293	-0.275
-151.633	-200.000	0.032	0.250
-150.618	800.000	-0.058	0.207
-149.604	-68.372	-0.414	0.159
-148.589	-89.006	0.102	0.030
-147.574	-5.603	-0.150	0.102
-146.560	-200.000	0.038	0.348
-145.545	101.970	0.120	-0.138
-144.531	353.283	-0.116	-0.227
-143.516	800.000	0.051	-0.145
-142.502	183.376	0.068	0.100
-141.487	-147.826	0.239	0.020
-140.472	-200.000	0.033	0.147
-139.458	800.000	0.089	-0.297
-138.443	190.835	-0.071	-0.106
-137.429	51.484	0.049	0.046
-136.414	191.037	0.122	0.181
-135.399	214.369	0.065	0.101
-134.385	-200.000	0.030	0.147
-133.370	-157.992	-0.090	-0.005
-132.356	-2.073	0.380	0.264
-131.341	-14.768	0.176	0.112
-130.326	91.335	-0.060	0.067
-129.312	-106.937	-0.417	-0.091
-128.297	102.192	-0.155	0.179
-127.283	800.000	0.083	-0.307
-126.268	-58.803	0.239	-0.102
-125.253	-139.421	0.135	-0.014
-124.239	56.702	0.249	-0.239
-123.224	-105.396	0.252	-0.057
-122.210	-62.325	-0.192	0.079
-121.195	-133.545	-0.307	-0.038
