DTS Sentinel unit serial number:	SN413079Multiplexer serial number:	ORYXHardware model number:	OX4-SRSoftware version number:	ORYX F/W v4.00 Oryx Data Collector v3.7.2.0data status	okinstallation	princeton_trtdifferential loss correction	single-endedforward channel	channel 3reverse channel	N/Adate	2019/09/18time	18:16:35forward acquisition time	60.00reverse acquisition time	0.00gamma	496.2192k internal	0.2292k external	0.2292temperature offset calibration	1.0003default loss term (dB/km)	0.3790temperature slope calibration	1.0000multiplexer offset coefficient	1.0000multiplexer slope coefficient	1.0000fibre end	0.00T internal ref (°C)	38.87T ext. ref 1 (°C)	0.93T ext. ref 2 (°C)	32.16length (m)	temperature (°C)	Stokes	anti-Stokes-747.200	-89.476	0.133	0.040
-746.185	-49.397	-0.168	0.082
-745.171	-134.204	-0.271	-0.034
-744.156	38.769	0.176	0.161
-743.142	2.795	-0.143	-0.106
-742.127	-89.938	-0.363	-0.108
-741.112	601.241	-0.059	-0.149
-740.098	-121.278	-0.194	-0.033
-739.083	-200.000	0.007	-0.164
-738.069	-17.725	0.167	0.107
-737.054	177.506	0.134	-0.200
-736.039	90.882	0.210	0.241
-735.025	-200.000	-0.020	-0.148
-734.010	72.852	-0.148	0.158
-732.996	274.086	-0.073	-0.133
-731.981	100.406	-0.230	0.273
-730.966	57.346	-0.167	0.167
-729.952	338.836	0.013	-0.025
-728.937	-48.961	-0.251	0.123
-727.923	32.379	-0.149	0.131
-726.908	-26.740	-0.234	0.140
-725.894	-200.000	-0.029	-0.157
-724.879	37.531	-0.209	0.189
-723.864	178.576	-0.088	0.131
-722.850	50.817	0.083	-0.080
-721.835	800.000	0.059	-0.179
-720.821	-200.000	-0.008	0.235
-719.806	800.000	-0.010	-0.035
-718.791	-127.584	-0.096	0.014
-717.777	-153.139	-0.523	-0.037
-716.762	-200.000	0.005	-0.264
-715.748	-200.000	0.005	-0.242
-714.733	184.151	-0.180	-0.272
-713.718	-83.772	-0.057	0.019
-712.704	800.000	0.086	0.344
-711.689	-133.136	-0.420	0.054
-710.675	-3.965	-0.260	-0.184
-709.660	-200.000	0.025	-0.495
-708.645	257.231	-0.072	0.126
-707.631	-16.719	-0.034	0.022
-706.616	-7.184	-0.126	0.088
-705.602	800.000	0.075	0.247
-704.587	142.900	-0.105	0.143
-703.572	-200.000	0.032	0.145
-702.558	-119.028	0.237	-0.042
-701.543	-22.223	-0.232	-0.144
-700.529	322.844	-0.156	-0.305
-699.514	-101.976	0.270	-0.067
-698.499	-200.000	-0.041	0.280
-697.485	26.079	-0.285	0.243
-696.470	-98.658	0.220	0.057
-695.456	-200.000	-0.010	-0.067
-694.441	-169.593	-0.162	0.006
-693.426	204.888	-0.180	0.286
-692.412	-199.784	-0.155	-0.001
-691.397	-58.596	-0.278	-0.123
-690.383	-133.800	-0.200	-0.025
-689.368	-128.104	-0.149	0.022
-688.354	-66.696	-0.091	0.037
-687.339	139.678	-0.160	0.215
-686.324	-1.908	0.183	-0.131
-685.310	-200.000	0.080	-0.475
-684.295	-95.458	-0.241	0.066
-683.281	-149.552	0.196	-0.016
-682.266	-71.049	0.256	0.098
-681.251	-200.000	-0.002	-0.204
-680.237	-61.254	-0.313	0.135
-679.222	-173.038	-0.050	-0.002
-678.208	-6.778	0.115	-0.080
-677.193	-105.662	0.067	-0.015
-676.178	548.626	-0.186	-0.456
-675.164	314.424	0.112	-0.215
-674.149	-200.000	0.015	-0.081
-673.135	-52.629	-0.046	0.022
-672.120	-77.544	-0.237	-0.084
-671.105	-56.448	-0.307	-0.139
-670.091	-200.000	0.014	0.282
-669.076	800.000	-0.035	0.131
-668.062	145.787	-0.039	0.054
-667.047	-200.000	0.006	0.102
-666.032	-200.000	0.000	0.284
-665.018	-95.372	-0.327	-0.090
-664.003	763.243	0.128	0.355
-662.989	288.710	0.113	0.208
-661.974	533.333	-0.170	-0.411
-660.959	-136.968	0.179	-0.021
-659.945	113.263	0.173	-0.214
-658.930	-79.698	-0.127	-0.044
-657.916	293.168	0.049	0.092
-656.901	161.199	-0.310	0.443
-655.886	-200.000	0.079	0.515
-654.872	366.555	0.127	0.260
-653.857	131.546	0.016	-0.022
-652.843	-132.924	0.039	-0.005
-651.828	800.000	-0.059	-0.255
-650.814	-94.055	-0.192	0.054
-649.799	800.000	-0.120	-0.358
-648.784	148.568	-0.117	-0.160
-647.770	-200.000	0.019	-0.159
-646.755	-200.000	0.034	-0.177
-645.741	794.558	0.069	-0.192
-644.726	109.162	0.200	0.244
-643.711	-184.906	-0.215	-0.003
-642.697	98.699	-0.225	0.265
-641.682	273.780	0.128	-0.231
-640.668	89.150	-0.027	-0.030
-639.653	-19.790	0.101	0.064
-638.638	167.544	0.018	-0.026
-637.624	-15.842	0.051	0.033
-636.609	-200.000	-0.082	-0.529
-635.595	-50.927	0.088	-0.042
-634.580	4.329	-0.231	-0.173
-633.565	-116.177	0.465	-0.088
-632.551	248.955	0.232	-0.401
-631.536	3.732	-0.262	-0.195
-630.522	16.837	-0.128	0.103
-629.507	312.030	-0.117	0.224
-628.492	-196.720	-0.072	0.000
-627.478	-77.852	0.175	-0.062
-626.463	44.245	0.093	-0.087
-625.449	-200.000	-0.090	0.414
-624.434	-69.829	-0.043	-0.017
-623.419	-148.432	0.139	-0.012
-622.405	-38.336	0.205	0.111
-621.390	800.000	-0.093	0.355
-620.376	-186.851	0.206	-0.003
-619.361	501.518	0.075	-0.176
-618.346	-37.378	0.196	-0.106
-617.332	-200.000	0.027	0.353
-616.317	292.301	-0.115	0.214
-615.303	800.000	-0.067	-0.246
-614.288	-200.000	0.021	0.194
-613.273	-50.245	-0.074	-0.036
-612.259	-200.000	-0.025	0.143
-611.244	-44.307	-0.088	0.045
-610.230	-142.442	0.209	0.021
-609.215	-200.000	-0.077	0.353
-608.201	800.000	0.059	0.203
-607.186	-109.788	-0.314	-0.067
-606.171	-200.000	-0.022	0.162
-605.157	377.392	0.042	0.088
-604.142	-26.328	-0.094	0.056
-603.128	192.265	0.130	-0.199
-602.113	-50.599	-0.287	0.138
-601.098	-173.402	0.393	0.012
-600.084	-128.088	0.213	-0.031
-599.069	59.626	-0.246	-0.247
-598.055	800.000	0.106	0.350
-597.040	190.126	0.151	0.231
-596.025	-13.548	-0.170	-0.112
-595.011	587.250	-0.062	0.155
-593.996	-200.000	0.007	0.169
-592.982	-68.809	0.150	0.059
-591.967	63.532	-0.254	0.259
-590.952	290.333	0.142	0.262
-589.938	60.277	0.210	-0.212
-588.923	-118.748	-0.235	-0.042
-587.909	42.755	0.057	0.053
-586.894	-6.512	-0.168	0.116
-585.879	-43.231	-0.215	-0.111
-584.865	-116.850	-0.122	0.023
-583.850	-125.530	-0.144	0.022
-582.836	48.721	0.107	-0.102
-581.821	120.391	-0.022	0.028
-580.806	191.612	0.182	0.279
-579.792	10.735	0.107	-0.083
-578.777	800.000	0.019	0.073
-577.763	-51.531	-0.217	-0.103
-576.748	-170.359	-0.556	0.020
-575.733	53.362	0.105	-0.102
-574.719	245.678	0.134	0.229
-573.704	662.357	-0.053	-0.140
-572.690	800.000	-0.104	-0.295
-571.675	15.378	-0.180	-0.144
-570.661	21.832	-0.079	-0.066
-569.646	127.225	0.148	0.191
-568.631	800.000	0.032	0.122
-567.617	122.953	-0.076	-0.097
-566.602	-49.295	0.147	-0.071
-565.588	148.659	0.054	-0.074
-564.573	-146.484	0.152	0.013
-563.558	-5.531	-0.151	0.105
-562.544	-86.512	-0.189	-0.059
-561.529	800.000	-0.086	-0.274
-560.515	563.750	-0.141	0.347
-559.500	-92.184	-0.061	-0.017
-558.485	-70.097	-0.206	0.080
-557.471	581.986	0.072	0.179
-556.456	393.822	0.138	-0.292
-555.442	204.945	0.066	-0.104
-554.427	-79.592	-0.365	-0.125
-553.412	406.878	0.088	-0.189
-552.398	118.667	-0.288	-0.361
-551.383	230.542	0.026	0.044
-550.369	-151.838	0.089	0.007
-549.354	104.552	0.101	0.121
-548.339	-200.000	0.043	-0.204
-547.325	30.465	0.294	0.255
-546.310	176.407	0.163	0.240
-545.296	-25.208	0.179	0.108
-544.281	109.681	0.094	-0.114
-543.266	-94.859	-0.228	-0.063
-542.252	522.880	0.078	0.187
-541.237	800.000	0.025	0.079
-540.223	-38.534	0.243	0.131
-539.208	-82.309	-0.240	0.079
-538.193	-97.540	-0.129	-0.034
-537.179	83.093	-0.172	-0.190
-536.164	-200.000	-0.028	-0.145
-535.150	-97.408	-0.099	0.026
-534.135	63.044	0.067	-0.068
-533.121	-200.000	0.040	-0.238
-532.106	428.467	0.035	-0.077
-531.091	-170.877	0.283	0.010
-530.077	-200.000	0.000	0.047
-529.062	178.943	-0.121	0.179
-528.048	-200.000	-0.050	0.362
-527.033	308.029	-0.035	0.067
-526.018	-81.121	0.222	0.074
-525.004	-118.860	-0.258	-0.046
-523.989	-41.946	0.235	-0.122
-522.975	-23.043	-0.192	0.117
-521.960	-115.049	-0.167	0.032
-520.945	-123.160	-0.484	0.079
-519.931	22.314	-0.152	-0.126
-518.916	-200.000	0.003	-0.063
-517.902	108.531	-0.169	-0.205
-516.887	-120.057	0.450	-0.078
-515.872	-114.650	0.350	0.068
-514.858	482.027	-0.042	0.098
-513.843	17.288	-0.152	-0.122
-512.829	800.000	0.077	-0.323
-511.814	24.380	0.221	0.185
-510.799	-200.000	-0.122	-0.001
-509.785	-61.606	-0.232	-0.099
-508.770	123.411	0.085	0.107
-507.756	92.303	0.051	0.058
-506.741	800.000	-0.054	-0.200
-505.726	-125.028	0.266	0.041
-504.712	17.441	-0.313	0.252
-503.697	-200.000	0.057	0.437
-502.683	30.168	-0.353	0.306
-501.668	661.204	-0.057	0.148
-500.653	326.573	-0.009	0.017
-499.639	-162.551	0.073	0.004
-498.624	525.460	-0.192	-0.459
-497.610	800.000	-0.172	-0.482
-496.595	29.329	-0.179	-0.154
-495.581	800.000	-0.029	-0.095
-494.566	800.000	-0.061	0.207
-493.551	-96.642	-0.105	0.028
-492.537	12.168	0.121	-0.094
-491.522	-64.826	0.141	0.058
-490.508	27.285	-0.145	0.123
-489.493	-157.649	-0.332	-0.020
-488.478	-200.000	-0.028	0.264
-487.464	14.730	-0.151	0.120
-486.449	239.545	-0.094	-0.158
-485.435	98.705	-0.142	-0.166
-484.420	-24.923	0.319	0.192
-483.405	-200.000	0.009	-0.243
-482.391	543.357	0.029	0.071
-481.376	8.297	0.197	0.150
-480.362	-74.450	-0.029	-0.011
-479.347	137.468	-0.162	0.214
-478.332	-200.000	-0.015	-0.291
-477.318	21.173	-0.080	0.066
-476.303	-58.330	0.128	-0.056
-475.289	213.449	0.166	-0.266
-474.274	800.000	0.065	-0.232
-473.259	-110.722	-0.058	-0.012
-472.245	95.043	0.083	-0.096
-471.230	-200.000	0.009	0.128
-470.216	172.463	-0.149	0.217
-469.201	800.000	-0.034	-0.141
-468.186	-200.000	-0.096	0.542
-467.172	-74.345	-0.304	-0.111
-466.157	-200.000	-0.064	-0.458
-465.143	313.192	0.071	-0.135
-464.128	132.384	-0.214	0.279
-463.113	-200.000	-0.023	0.162
-462.099	75.241	-0.108	0.115
-461.084	-74.335	-0.085	0.031
-460.070	800.000	-0.069	-0.213
-459.055	112.533	0.071	0.087
-458.040	-55.851	0.170	-0.077
-457.026	-52.986	0.101	-0.047
-456.011	-92.038	0.217	-0.062
-454.997	198.753	-0.130	-0.202
-453.982	-5.389	-0.190	-0.132
-452.968	436.623	-0.023	-0.052
-451.953	373.265	-0.203	0.417
-450.938	-94.265	0.247	-0.068
-449.924	400.456	-0.150	0.319
-448.909	-7.352	0.083	-0.057
-447.895	479.324	-0.019	-0.044
-446.880	-200.000	-0.024	-0.309
-445.865	-200.000	0.027	0.163
-444.851	-97.909	0.219	-0.057
-443.836	800.000	-0.061	-0.260
-442.822	656.030	-0.069	0.178
-441.807	111.617	-0.078	-0.096
-440.792	113.865	-0.069	0.085
-439.778	-125.861	-0.503	-0.077
-438.763	18.222	0.213	-0.172
-437.749	116.782	-0.086	0.106
-436.734	123.867	0.117	-0.149
-435.719	-200.000	-0.011	-0.067
-434.705	-25.818	-0.173	0.103
-433.690	197.635	0.019	-0.029
-432.676	-200.000	0.027	-0.517
-431.661	-5.806	0.129	-0.089
-430.646	-61.211	-0.310	-0.132
-429.632	-54.289	0.117	0.054
-428.617	-167.666	-0.394	0.016
-427.603	800.000	0.098	-0.339
-426.588	-76.102	-0.314	-0.112
-425.573	-97.054	-0.152	-0.040
-424.559	11.985	-0.227	0.177
-423.544	26.405	-0.064	0.054
-422.530	469.746	0.078	-0.178
-421.515	-89.895	-0.094	-0.028
-420.500	-132.036	-0.073	0.010
-419.486	57.318	0.218	-0.216
-418.471	-200.000	0.040	-0.316
-417.457	281.586	-0.067	0.122
-416.442	-200.000	0.042	-0.280
-415.428	160.802	-0.120	-0.170
-414.413	-93.426	-0.307	0.086
-413.398	68.818	0.261	0.271
-412.384	-57.598	0.147	-0.065
-411.369	-79.824	0.334	0.113
-410.355	-200.000	0.007	-0.058
-409.340	391.481	0.214	-0.450
-408.325	800.000	-0.088	-0.291
-407.311	-74.398	0.426	-0.155
-406.296	64.673	-0.282	0.287
-405.282	-47.459	0.282	-0.139
-404.267	400.342	-0.100	0.211
-403.252	-111.827	0.239	0.049
-402.238	343.030	0.102	-0.202
-401.223	-116.681	-0.247	-0.046
-400.209	193.749	0.196	0.299
-399.194	150.419	-0.152	0.208
-398.179	-200.000	-0.000	0.218
-397.165	-200.000	-0.017	0.084
-396.150	-182.218	-0.145	-0.003
-395.136	-4.800	-0.297	0.207
-394.121	-79.086	0.210	0.072
-393.106	800.000	0.106	0.345
-392.092	-164.801	-0.074	0.003
-391.077	-200.000	-0.042	-0.229
-390.063	-33.038	-0.149	0.083
-389.048	-150.834	-0.259	-0.020
-388.033	8.872	0.194	0.148
-387.019	238.598	-0.074	0.123
-386.004	0.184	-0.222	-0.160
-384.990	140.252	-0.035	0.046
-383.975	154.968	-0.044	0.061
-382.960	31.024	0.130	-0.112
-381.946	322.689	0.052	0.100
-380.931	576.907	0.041	0.102
-379.917	800.000	-0.043	-0.133
-378.902	189.057	0.097	-0.147
-377.888	800.000	0.041	-0.168
-376.873	-88.752	0.058	-0.017
-375.858	362.358	-0.128	-0.259
-374.844	129.891	0.111	-0.144
-373.829	602.319	0.091	-0.229
-372.815	-200.000	0.078	-0.360
-371.800	-32.922	-0.155	-0.087
-370.785	559.050	-0.136	0.331
-369.771	-200.000	0.011	0.223
-368.756	800.000	0.019	0.058
-367.742	-92.609	0.377	-0.107
-366.727	149.200	0.144	-0.197
-365.712	-49.514	-0.327	-0.157
-364.698	-97.092	0.301	0.079
-363.683	87.721	0.086	-0.096
-362.669	-63.669	-0.140	0.058
-361.654	-39.607	0.203	-0.107
-360.639	-200.000	-0.013	-0.195
-359.625	-8.570	0.019	0.013
-358.610	30.095	-0.210	0.180
-357.596	-84.983	0.148	-0.047
-356.581	-52.065	0.119	0.056
-355.566	-147.173	0.130	-0.011
-354.552	-171.918	-0.173	0.006
-353.537	-119.312	-0.237	0.042
-352.523	-200.000	0.016	-0.081
-351.508	235.483	0.068	0.113
-350.493	453.027	-0.144	0.321
-349.479	800.000	0.034	0.103
-348.464	-1.171	0.129	0.092
-347.450	-200.000	-0.005	-0.084
-346.435	800.000	-0.105	0.335
-345.420	800.000	-0.074	-0.258
-344.406	-34.435	-0.371	-0.205
-343.391	176.938	-0.149	-0.218
-342.377	-73.480	-0.127	0.047
-341.362	-67.386	0.241	0.095
-340.348	31.910	0.181	0.157
-339.333	-68.029	-0.080	0.031
-338.318	-200.000	0.012	-0.081
-337.304	42.532	-0.138	0.126
-336.289	-200.000	-0.027	0.317
-335.275	-6.549	0.085	-0.058
-334.260	-117.887	0.285	-0.051
-333.245	28.533	0.097	0.083
-332.231	-200.000	0.032	-0.219
-331.216	800.000	-0.012	0.050
-330.202	14.312	-0.114	0.090
-329.187	150.430	0.243	0.332
-328.172	-26.191	0.202	-0.120
-327.158	345.580	0.188	-0.372
-326.143	-200.000	0.177	-0.001
-325.129	-116.176	-0.148	-0.028
-324.114	-30.517	-0.088	0.050
-323.099	-129.984	-0.278	-0.038
-322.085	222.324	-0.038	0.062
-321.070	-133.081	-0.273	0.035
-320.056	41.988	-0.147	-0.134
-319.041	133.660	-0.047	0.062
-318.026	-200.000	-0.017	-0.208
-317.012	230.995	0.041	-0.067
-315.997	-167.497	0.198	-0.008
-314.983	140.324	0.352	0.468
-313.968	-77.036	0.237	-0.083
-312.953	-80.088	0.260	-0.088
-311.939	-200.000	-0.043	0.450
-310.924	-128.717	-0.366	0.052
-309.910	-114.069	0.052	-0.010
-308.895	383.415	0.111	0.230
-307.880	800.000	-0.058	-0.191
-306.866	-50.402	0.322	-0.153
-305.851	-115.952	0.409	0.077
-304.837	-78.917	-0.210	-0.072
-303.822	-98.375	-0.081	0.021
-302.807	45.752	-0.122	-0.114
-301.793	137.003	0.059	-0.078
-300.778	-200.000	-0.059	0.383
-299.764	-200.000	-0.001	-0.109
-298.749	1.681	0.222	-0.161
-297.735	485.382	-0.025	-0.056
-296.720	333.754	0.147	0.287
-295.705	22.056	-0.018	-0.015
-294.691	-19.130	0.084	-0.053
-293.676	-44.483	0.143	0.072
-292.662	-28.423	0.209	0.121
-291.647	-200.000	0.001	0.204
-290.632	34.636	0.043	0.038
-289.618	4.420	0.084	0.062
-288.603	2.742	-0.074	-0.054
-287.589	-51.372	0.269	0.126
-286.574	79.368	0.247	0.266
-285.559	-11.261	0.059	-0.039
-284.545	-28.387	0.102	-0.059
-283.530	-30.396	0.324	0.185
-282.516	-170.779	-0.203	-0.007
-281.501	800.000	-0.127	0.410
-280.486	236.245	0.027	-0.045
-279.472	800.000	-0.116	0.329
-278.457	-200.000	-0.005	-0.027
-277.443	800.000	-0.077	-0.300
-276.428	17.008	-0.059	0.047
-275.413	84.658	0.239	0.263
-274.399	-104.968	0.140	-0.032
-273.384	800.000	-0.020	-0.059
-272.370	322.590	-0.157	-0.300
-271.355	-28.552	-0.413	-0.239
-270.340	-75.296	0.066	-0.024
-269.326	-200.000	-0.085	-0.448
-268.311	-165.145	0.021	-0.001
-267.297	534.384	-0.199	-0.473
-266.282	-157.447	-0.267	0.016
-265.267	-49.185	-0.272	-0.131
-264.253	163.295	0.311	0.439
-263.238	158.322	0.203	-0.283
-262.224	-45.142	-0.304	0.152
-261.209	-94.792	-0.090	-0.025
-260.195	-128.631	-0.131	-0.019
-259.180	238.987	0.101	0.168
-258.165	800.000	-0.036	-0.138
-257.151	362.086	0.075	-0.151
-256.136	-47.710	0.302	-0.147
-255.122	-81.741	-0.219	-0.072
-254.107	-107.147	-0.197	0.044
-253.092	369.579	0.209	0.424
-252.078	42.375	0.251	-0.229
-251.063	-100.709	-0.256	0.063
-250.049	-200.000	-0.010	-0.095
-249.034	144.254	0.259	0.347
-248.019	2.612	-0.144	-0.105
-247.005	-2.351	-0.203	-0.143
-245.990	-3.998	0.179	0.125
-244.976	253.979	-0.073	-0.126
-243.961	-145.941	-0.299	-0.027
-242.946	-99.688	0.093	-0.023
-241.932	-200.000	0.068	0.666
-240.917	-105.688	-0.315	-0.072
-239.903	-200.000	-0.003	-0.054
-238.888	-37.568	0.053	0.028
-237.873	290.119	-0.113	0.206
-236.859	-141.586	0.347	-0.035
-235.844	-169.479	-0.225	0.008
-234.830	-58.557	0.201	-0.087
-233.815	-86.045	0.316	-0.098
-232.800	-58.699	0.396	-0.172
-231.786	-15.778	-0.116	0.074
-230.771	800.000	0.059	-0.212
-229.757	-121.733	-0.322	-0.053
-228.742	-44.759	-0.181	-0.090
-227.727	33.114	0.120	0.104
-226.713	182.156	-0.034	0.051
-225.698	-85.521	-0.122	0.038
-224.684	-164.601	0.094	-0.004
-223.669	-200.000	0.118	0.000
-222.655	157.010	0.118	0.163
-221.640	-200.000	-0.004	0.160
-220.625	800.000	-0.060	-0.177
-219.611	12.510	-0.132	0.102
-218.596	-200.000	-0.001	-0.148
-217.582	-69.545	0.239	-0.092
-216.567	-45.584	0.246	-0.122
-215.552	-44.830	0.048	-0.024
-214.538	-79.823	0.106	-0.036
-213.523	-6.581	-0.227	0.155
-212.509	800.000	0.026	-0.080
-211.494	-119.010	-0.093	0.016
-210.479	17.571	0.067	-0.054
-209.465	-172.994	0.280	-0.009
-208.450	-200.000	0.015	-0.091
-207.436	93.361	0.141	-0.160
-206.421	-200.000	-0.013	-0.139
-205.406	20.462	-0.130	0.105
-204.392	-116.618	0.257	-0.047
-203.377	60.113	-0.136	-0.135
-202.363	-22.431	0.332	-0.201
-201.348	12.147	-0.090	0.069
-200.333	129.140	-0.108	0.138
-199.319	377.327	0.141	0.289
-198.304	310.044	0.135	0.253
-197.290	-140.699	0.157	0.016
-196.275	-17.529	0.141	0.089
-195.260	-200.000	0.023	0.156
-194.246	229.309	-0.202	-0.331
-193.231	-134.952	0.132	0.016
-192.217	411.585	0.056	0.120
-191.202	146.886	0.051	-0.068
-190.187	115.661	-0.067	-0.082
-189.173	453.860	0.029	0.065
-188.158	-72.389	0.296	-0.110
-187.144	-157.659	-0.039	0.002
-186.129	218.293	-0.079	0.126
-185.114	-42.101	0.050	0.026
-184.100	-177.930	0.122	-0.003
-183.085	696.654	0.050	-0.131
-182.071	-157.965	-0.070	-0.004
-181.056	-200.000	0.021	0.185
-180.042	-2.455	-0.262	0.184
-179.027	371.645	0.060	0.121
-178.012	67.474	-0.359	0.367
-176.998	108.200	0.157	0.187
-175.983	154.740	0.099	0.136
-174.969	-18.495	0.196	0.123
-173.954	-140.627	-0.147	-0.015
-172.939	13.426	0.114	-0.089
-171.925	-200.000	-0.033	0.343
-170.910	63.475	-0.091	0.091
-169.896	62.059	0.270	-0.270
-168.881	800.000	-0.026	0.084
-167.866	-125.521	-0.389	-0.059
-166.852	-119.542	-0.216	0.037
-165.837	-94.633	0.202	0.055
-164.823	-128.214	0.298	0.043
-163.808	800.000	0.047	0.149
-162.793	504.056	0.054	-0.125
-161.779	-154.065	-0.241	0.016
-160.764	290.336	0.059	-0.108
-159.750	267.277	-0.091	-0.160
-158.735	-200.000	0.013	-0.169
-157.720	-68.929	0.223	0.086
-156.706	800.000	-0.036	-0.104
-155.691	-200.000	-0.023	0.196
-154.677	255.006	0.187	-0.320
-153.662	-135.286	-0.054	0.006
-152.647	-83.276	0.259	0.083
-151.633	-78.622	0.206	-0.071
-150.618	-29.249	-0.205	0.117
-149.604	21.623	0.139	-0.113
-148.589	-87.509	0.097	-0.029
-147.574	257.192	-0.077	0.133
-146.560	800.000	-0.068	0.273
-145.545	30.679	0.278	0.238
-144.531	-158.223	0.217	0.013
-143.516	-200.000	-0.027	-0.216
-142.502	333.496	-0.170	-0.329
-141.487	502.300	-0.040	-0.092
-140.472	-39.166	-0.222	-0.117
-139.458	-200.000	0.015	-0.418
-138.443	-38.857	-0.258	0.136
-137.429	-88.055	0.197	0.059
-136.414	56.428	-0.145	-0.141
-135.399	-68.779	0.134	0.052
-134.385	87.070	0.108	0.119
-133.370	-21.002	-0.104	-0.064
-132.356	-200.000	-0.013	0.132
-131.341	-21.989	-0.145	-0.088
-130.326	-24.946	-0.317	0.188
-129.312	-35.711	-0.106	0.057
-128.297	-83.131	-0.341	-0.110
-127.283	134.501	0.116	0.150
-126.268	800.000	-0.114	-0.325
-125.253	-2.889	0.260	0.182
-124.239	194.540	0.107	0.162
-123.224	-77.453	-0.040	-0.014
-122.210	2.660	0.163	-0.118
