DTS Sentinel unit serial number:	SN413079Multiplexer serial number:	ORYXHardware model number:	OX4-SRSoftware version number:	ORYX F/W v4.00 Oryx Data Collector v3.7.2.0data status	okinstallation	princeton_trtdifferential loss correction	single-endedforward channel	channel 3reverse channel	N/Adate	2019/09/13time	17:16:35forward acquisition time	60.00reverse acquisition time	0.00gamma	496.2192k internal	0.2293k external	0.2293temperature offset calibration	1.0124default loss term (dB/km)	0.3790temperature slope calibration	1.0000multiplexer offset coefficient	1.0000multiplexer slope coefficient	1.0000fibre end	0.00T internal ref (°C)	35.77T ext. ref 1 (°C)	4.78T ext. ref 2 (°C)	35.26length (m)	temperature (°C)	Stokes	anti-Stokes-747.200	-51.594	-0.074	0.035
-746.185	33.634	-0.477	0.424
-745.171	448.584	0.079	0.179
-744.156	-106.875	-0.234	0.053
-743.142	-162.235	-0.403	-0.021
-742.127	-17.615	-0.232	-0.149
-741.112	413.050	-0.093	-0.203
-740.098	-200.000	0.011	0.073
-739.083	-200.000	0.000	0.084
-738.069	94.001	-0.136	0.158
-737.054	-200.000	0.062	0.288
-736.039	-200.000	0.089	-0.000
-735.025	-14.940	0.178	0.117
-734.010	275.784	0.027	-0.048
-732.996	204.098	-0.162	-0.257
-731.981	723.351	-0.091	-0.249
-730.966	-200.000	-0.032	-0.189
-729.952	201.902	0.109	-0.171
-728.937	-31.738	-0.441	0.253
-727.923	461.127	-0.048	-0.110
-726.908	-46.043	-0.273	0.137
-725.894	-28.178	-0.283	0.167
-724.879	110.516	-0.093	0.114
-723.864	49.164	-0.116	-0.111
-722.850	183.901	-0.105	0.159
-721.835	-200.000	-0.005	-0.068
-720.821	-11.968	-0.089	-0.060
-719.806	44.566	-0.179	0.168
-718.791	549.166	0.051	0.124
-717.777	260.187	0.049	-0.087
-716.762	98.412	-0.138	-0.162
-715.748	-48.548	0.070	-0.034
-714.733	-133.510	0.110	0.014
-713.718	144.964	-0.010	0.014
-712.704	-200.000	0.024	-0.167
-711.689	-83.607	-0.161	0.053
-710.675	-94.526	0.155	-0.043
-709.660	63.615	0.059	-0.061
-708.645	-10.632	0.261	0.176
-707.631	-91.613	0.342	-0.099
-706.616	-41.280	-0.209	-0.110
-705.602	800.000	-0.117	-0.431
-704.587	-7.291	0.197	-0.137
-703.572	207.926	0.088	-0.141
-702.558	45.030	-0.110	0.103
-701.543	30.313	-0.145	-0.126
-700.529	46.940	-0.171	-0.162
-699.514	-66.441	0.211	0.086
-698.499	225.619	-0.098	0.162
-697.485	181.995	0.054	-0.081
-696.470	-98.787	-0.280	0.073
-695.456	800.000	-0.025	-0.075
-694.441	271.775	0.037	-0.067
-693.426	214.091	0.235	0.379
-692.412	-52.393	-0.444	-0.210
-691.397	-200.000	-0.036	-0.399
-690.383	-200.000	-0.013	-0.119
-689.368	-57.986	-0.103	0.046
-688.354	66.582	-0.354	-0.367
-687.339	-27.817	0.053	0.031
-686.324	418.142	-0.173	0.378
-685.310	-148.141	-0.179	-0.015
-684.295	-131.809	-0.270	-0.036
-683.281	800.000	0.035	-0.148
-682.266	800.000	0.084	-0.304
-681.251	662.577	0.119	0.313
-680.237	277.136	0.108	0.195
-679.222	513.394	-0.125	-0.297
-678.208	-200.000	-0.043	-0.310
-677.193	-200.000	-0.019	-0.205
-676.178	-137.030	0.108	0.013
-675.164	20.243	-0.265	0.218
-674.149	-200.000	0.042	-0.245
-673.135	800.000	-0.065	0.250
-672.120	245.765	-0.169	-0.290
-671.105	-200.000	0.016	-0.075
-670.091	-92.543	0.246	-0.071
-669.076	-40.541	-0.172	-0.091
-668.062	-191.365	-0.170	-0.002
-667.047	-88.014	-0.317	-0.097
-666.032	-200.000	-0.001	-0.124
-665.018	-67.195	-0.287	0.115
-664.003	-21.342	-0.147	0.092
-662.989	-156.692	-0.110	-0.007
-661.974	-145.645	-0.223	-0.020
-660.959	123.437	0.040	-0.051
-659.945	800.000	0.101	0.311
-658.930	-120.502	-0.255	0.044
-657.916	800.000	0.073	-0.268
-656.901	-200.000	-0.017	0.171
-655.886	248.326	0.242	-0.417
-654.872	370.457	-0.036	-0.073
-653.857	-200.000	-0.018	-0.163
-652.843	-33.484	0.083	-0.047
-651.828	611.852	-0.070	0.179
-650.814	-200.000	0.026	-0.120
-649.799	27.767	0.102	-0.088
-648.784	-200.000	0.011	-0.130
-647.770	-54.784	0.124	-0.057
-646.755	800.000	0.049	-0.187
-645.741	-27.157	0.294	0.175
-644.726	-107.388	-0.218	-0.049
-643.711	-184.934	-0.515	-0.008
-642.697	26.478	-0.041	0.035
-641.682	390.370	0.096	0.203
-640.668	4.236	0.202	-0.151
-639.653	-98.698	0.296	-0.077
-638.638	-200.000	0.000	0.077
-637.624	800.000	0.055	0.216
-636.609	276.131	0.259	-0.469
-635.595	49.310	0.097	-0.093
-634.580	-200.000	0.005	0.204
-633.565	472.806	0.119	0.272
-632.551	214.884	-0.201	-0.324
-631.536	364.772	-0.051	0.105
-630.522	-43.670	-0.131	0.068
-629.507	-146.571	-0.318	-0.028
-628.492	-200.000	-0.004	-0.305
-627.478	135.991	-0.093	0.123
-626.463	-200.000	-0.003	-0.226
-625.449	-112.864	-0.281	-0.057
-624.434	-108.352	0.234	-0.051
-623.419	-114.584	-0.095	-0.019
-622.405	111.145	0.050	-0.061
-621.390	-200.000	0.011	0.140
-620.376	12.685	0.277	0.218
-619.361	124.126	0.085	0.109
-618.346	-200.000	0.009	0.190
-617.332	-151.062	-0.151	0.012
-616.317	50.121	0.041	-0.039
-615.303	163.461	-0.040	0.058
-614.288	-75.752	0.112	0.041
-613.273	-138.031	-0.192	-0.022
-612.259	-200.000	-0.018	-0.317
-611.244	-151.293	-0.054	-0.004
-610.230	-95.944	0.215	-0.058
-609.215	-25.520	0.103	0.062
-608.201	800.000	0.032	0.140
-607.186	-113.544	-0.294	0.059
-606.171	136.698	-0.129	0.171
-605.157	800.000	0.107	0.307
-604.142	-200.000	-0.010	-0.055
-603.128	800.000	0.066	0.229
-602.113	7.812	-0.084	-0.064
-601.098	121.138	0.144	-0.182
-600.084	-114.543	-0.186	-0.036
-599.069	334.643	0.052	-0.103
-598.055	170.677	0.184	-0.268
-597.040	161.380	-0.132	0.187
-596.025	356.812	0.092	0.187
-595.011	-156.224	0.334	0.021
-593.996	176.490	0.061	-0.090
-592.982	-81.770	0.220	0.073
-591.967	-75.689	0.253	0.091
-590.952	320.568	0.070	0.136
-589.938	463.948	-0.053	0.120
-588.923	-200.000	0.042	-0.456
-587.909	243.302	0.090	-0.153
-586.894	-137.729	-0.277	0.032
-585.879	-155.861	-0.217	-0.014
-584.865	27.353	0.207	-0.177
-583.850	-200.000	0.017	0.154
-582.836	-49.164	-0.144	-0.070
-581.821	362.555	-0.110	0.224
-580.806	-200.000	-0.026	-0.121
-579.792	1.588	-0.100	-0.073
-578.777	180.435	0.138	-0.206
-577.763	78.445	0.175	-0.190
-576.748	798.848	-0.093	-0.261
-575.733	-200.000	0.013	0.273
-574.719	-21.342	0.110	-0.068
-573.704	-117.034	-0.093	-0.017
-572.690	63.990	0.108	0.110
-571.675	332.447	-0.121	0.238
-570.661	-1.794	-0.130	0.093
-569.646	-200.000	-0.002	-0.046
-568.631	-116.838	-0.239	-0.044
-567.617	800.000	0.104	0.307
-566.602	-41.522	0.077	-0.040
-565.588	30.681	-0.242	0.211
-564.573	57.107	0.113	0.112
-563.558	-4.894	-0.195	-0.136
-562.544	800.000	-0.107	0.380
-561.529	44.804	-0.179	-0.167
-560.515	128.309	0.165	-0.213
-559.500	61.432	-0.070	0.071
-558.485	-35.055	0.177	0.098
-557.471	213.495	-0.237	-0.381
-556.456	800.000	-0.097	0.315
-555.442	-200.000	-0.002	0.169
-554.427	-92.430	-0.361	0.103
-553.412	-166.236	-0.025	0.001
-552.398	-55.667	-0.327	-0.148
-551.383	-200.000	0.013	-0.138
-550.369	-9.203	-0.225	0.153
-549.354	-97.394	0.313	-0.083
-548.339	-107.468	0.069	-0.015
-547.325	375.662	0.044	0.092
-546.310	-49.939	0.137	0.066
-545.296	-68.724	-0.447	0.175
-544.281	-65.018	-0.226	0.093
-543.266	-72.038	0.393	-0.148
-542.252	800.000	-0.061	0.176
-541.237	536.429	-0.170	0.410
-540.223	-71.078	-0.352	0.134
-539.208	31.977	0.282	0.246
-538.193	-72.895	0.158	0.059
-537.179	-200.000	-0.073	-0.341
-536.164	95.793	0.237	-0.275
-535.150	-200.000	0.009	-0.371
-534.135	-63.832	-0.235	-0.098
-533.121	323.237	0.114	-0.221
-532.106	-65.781	-0.344	-0.140
-531.091	-200.000	-0.004	-0.169
-530.077	-24.337	-0.310	-0.188
-529.062	-200.000	0.056	-0.323
-528.048	67.438	0.133	0.138
-527.033	-104.221	-0.175	-0.041
-526.018	18.839	-0.167	0.136
-525.004	477.620	0.016	-0.037
-523.989	-88.431	-0.203	-0.061
-522.975	-21.749	0.123	0.076
-521.960	-76.860	0.391	0.139
-520.945	-50.395	0.226	0.108
-519.931	-83.998	0.138	-0.045
-518.916	-200.000	0.024	-0.158
-517.902	575.444	0.020	0.051
-516.887	-93.153	0.305	0.086
-515.872	800.000	0.012	-0.045
-514.858	-200.000	0.027	0.258
-513.843	-135.430	-0.236	-0.029
-512.829	2.306	-0.204	-0.150
-511.814	800.000	-0.020	0.085
-510.799	-38.655	-0.307	-0.164
-509.785	800.000	0.085	-0.298
-508.770	800.000	-0.044	-0.166
-507.756	-200.000	-0.006	-0.498
-506.741	-99.773	-0.283	0.072
-505.726	-66.582	0.136	0.055
-504.712	-137.752	0.133	0.015
-503.697	-200.000	-0.079	-0.360
-502.683	41.677	-0.054	-0.049
-501.668	800.000	-0.074	0.311
-500.653	-139.911	0.092	-0.010
-499.639	-174.647	0.272	-0.008
-498.624	324.398	-0.101	-0.196
-497.610	-114.647	-0.188	0.036
-496.595	-136.266	-0.243	0.029
-495.581	-57.025	0.311	-0.139
-494.566	-200.000	-0.004	-0.202
-493.551	800.000	0.042	0.182
-492.537	-62.539	-0.397	0.167
-491.522	-19.446	-0.170	0.106
-490.508	48.787	-0.105	0.100
-489.493	664.984	0.028	0.073
-488.478	-164.106	-0.183	-0.009
-487.464	800.000	0.097	-0.337
-486.449	-200.000	0.012	0.211
-485.435	-50.556	-0.585	-0.279
-484.420	103.554	0.223	-0.266
-483.405	800.000	-0.002	0.007
-482.391	800.000	-0.111	0.322
-481.376	35.986	0.281	-0.251
-480.362	-111.380	-0.181	-0.037
-479.347	-185.807	-0.423	0.006
-478.332	-21.551	0.078	0.048
-477.318	5.924	0.087	-0.065
-476.303	-113.958	0.047	0.009
-475.289	68.661	-0.084	-0.088
-474.274	626.598	-0.103	0.264
-473.259	-37.917	0.101	0.055
-472.245	-104.702	0.150	-0.035
-471.230	-14.048	0.168	0.110
-470.216	-99.713	0.112	0.028
-469.201	-130.517	-0.087	0.012
-468.186	-143.978	0.128	0.012
-467.172	94.729	-0.098	-0.113
-466.157	-34.078	0.217	-0.121
-465.143	-65.261	0.177	-0.072
-464.128	-27.232	0.256	0.151
-463.113	800.000	-0.040	-0.161
-462.099	-200.000	0.003	0.152
-461.084	-128.587	0.269	0.039
-460.070	352.662	-0.221	0.444
-459.055	163.693	-0.241	-0.342
-458.040	273.121	-0.066	-0.117
-457.026	129.884	0.122	-0.158
-456.011	-153.868	-0.373	-0.026
-454.997	-5.427	0.107	-0.074
-453.982	33.014	-0.190	-0.167
-452.968	800.000	0.019	0.072
-451.953	427.189	0.003	0.007
-450.938	75.421	0.163	0.174
-449.924	187.088	-0.154	0.232
-448.909	432.252	-0.121	0.265
-447.895	-159.361	-0.048	0.003
-446.880	322.259	-0.049	0.094
-445.865	161.308	0.110	-0.156
-444.851	176.568	-0.034	-0.050
-443.836	-200.000	-0.059	-0.306
-442.822	-160.585	0.250	0.014
-441.807	-75.463	0.152	0.055
-440.792	-101.150	0.068	0.017
-439.778	266.456	-0.077	0.136
-438.763	-120.567	0.222	0.038
-437.749	418.585	0.057	-0.122
-436.734	632.223	-0.027	-0.068
-435.719	-31.364	0.223	0.127
-434.705	-141.857	0.053	0.005
-433.690	95.648	0.053	-0.062
-432.676	-45.024	-0.279	0.140
-431.661	-200.000	0.051	0.257
-430.646	-79.117	-0.114	-0.039
-429.632	378.913	-0.177	0.367
-428.617	-87.036	0.089	0.027
-427.603	-45.191	-0.101	0.051
-426.588	530.493	-0.091	0.218
-425.573	800.000	-0.126	0.493
-424.559	443.902	0.125	0.276
-423.544	-11.272	-0.112	-0.074
-422.530	-105.834	0.229	-0.052
-421.515	-111.732	0.207	0.042
-420.500	-60.133	-0.112	0.048
-419.486	-200.000	0.011	-0.105
-418.471	73.134	0.095	0.100
-417.457	393.388	-0.055	-0.115
-416.442	-26.250	-0.224	0.133
-415.428	28.226	0.060	0.051
-414.413	-125.627	-0.120	-0.018
-413.398	-38.963	-0.210	-0.112
-412.384	-88.469	0.256	0.077
-411.369	-47.154	-0.274	0.135
-410.355	-200.000	-0.028	0.158
-409.340	188.415	0.045	-0.067
-408.325	800.000	-0.045	-0.193
-407.311	15.605	0.154	-0.122
-406.296	-140.030	-0.279	0.030
-405.282	800.000	0.068	0.290
-404.267	-124.932	0.217	-0.034
-403.252	289.100	0.237	0.434
-402.238	-97.436	-0.231	-0.061
-401.223	-9.700	0.164	0.110
-400.209	64.246	0.070	-0.072
-399.194	-18.482	0.398	0.251
-398.179	-5.484	-0.137	-0.095
-397.165	15.698	0.157	-0.125
-396.150	3.271	0.389	0.286
-395.136	-13.642	0.140	0.092
-394.121	55.136	-0.306	-0.299
-393.106	-200.000	0.032	-0.155
-392.092	-112.566	0.157	-0.032
-391.077	800.000	0.097	0.296
-390.063	800.000	-0.059	0.200
-389.048	-200.000	0.020	-0.216
-388.033	-17.953	-0.099	0.062
-387.019	99.090	-0.213	0.248
-386.004	90.634	0.213	-0.241
-384.990	162.324	-0.006	-0.008
-383.975	221.575	0.074	-0.120
-382.960	272.591	-0.063	0.112
-381.946	800.000	0.107	-0.349
-380.931	800.000	-0.081	0.311
-379.917	-200.000	-0.001	0.065
-378.902	451.758	-0.085	-0.191
-377.888	51.449	-0.321	0.308
-376.873	-38.178	0.140	0.075
-375.858	27.986	-0.222	-0.189
-374.844	-49.908	0.111	0.053
-373.829	-57.149	0.101	0.045
-372.815	495.492	-0.083	0.191
-371.800	-144.532	0.335	-0.031
-370.785	-141.110	0.027	-0.003
-369.771	-14.505	0.268	-0.174
-368.756	-20.214	0.349	-0.217
-367.742	-60.917	-0.280	0.120
-366.727	44.828	-0.044	-0.041
-365.712	-200.000	-0.045	-0.500
-364.698	627.916	-0.114	-0.289
-363.683	-200.000	0.004	0.069
-362.669	-200.000	0.044	-0.263
-361.654	800.000	0.054	0.160
-360.639	29.015	0.209	-0.179
-359.625	-4.241	0.144	0.100
-358.610	-77.386	-0.233	0.082
-357.596	-129.291	-0.145	-0.020
-356.581	-9.394	-0.053	0.036
-355.566	254.498	0.069	0.120
-354.552	-64.145	0.121	0.050
-353.537	172.471	0.070	0.101
-352.523	92.166	0.048	-0.054
-351.508	-14.516	0.108	-0.070
-350.493	-200.000	-0.005	0.027
-349.479	-38.876	0.428	0.227
-348.464	-166.394	0.150	-0.006
-347.450	-126.649	0.047	-0.007
-346.435	321.525	-0.070	0.135
-345.420	-94.792	-0.242	0.066
-344.406	-11.903	-0.188	-0.124
-343.391	-38.859	0.335	0.178
-342.377	-104.904	0.220	0.051
-341.362	-108.733	0.269	-0.058
-340.348	-76.460	0.141	-0.050
-339.333	-125.943	0.346	-0.052
-338.318	-200.000	0.030	0.185
-337.304	-8.469	0.132	0.089
-336.289	-64.209	-0.225	0.092
-335.275	52.950	-0.144	0.139
-334.260	-67.188	-0.033	-0.013
-333.245	-5.146	0.086	0.059
-332.231	-145.452	0.217	-0.020
-331.216	-29.514	-0.247	-0.142
-330.202	63.387	0.087	0.088
-329.187	-86.999	-0.160	-0.049
-328.172	78.775	-0.181	0.195
-327.158	18.728	0.088	-0.071
-326.143	292.391	-0.030	-0.056
-325.129	515.300	-0.013	0.031
-324.114	-200.000	0.073	-0.384
-323.099	-73.636	0.101	0.037
-322.085	-90.735	-0.169	0.049
-321.070	-58.602	-0.076	0.033
-320.056	-60.666	-0.172	0.073
-319.041	800.000	0.069	0.281
-318.026	-49.586	0.223	-0.107
-317.012	-59.349	0.162	-0.070
-315.997	185.725	-0.086	-0.128
-314.983	679.619	-0.039	0.103
-313.968	-200.000	0.025	-0.208
-312.953	800.000	0.078	0.258
-311.939	-105.160	0.239	-0.055
-310.924	-200.000	0.004	0.031
-309.910	94.542	0.211	-0.241
-308.895	0.553	0.155	-0.111
-307.880	23.658	-0.189	0.157
-306.866	178.794	-0.190	0.280
-305.851	75.021	0.165	-0.175
-304.837	-10.731	-0.040	0.027
-303.822	-56.196	-0.406	-0.182
-302.807	-149.396	-0.204	-0.016
-301.793	-60.675	0.134	-0.057
-300.778	-200.000	-0.107	-0.000
-299.764	-200.000	0.017	0.083
-298.749	399.914	0.107	0.226
-297.735	-83.000	0.209	-0.068
-296.720	-172.125	0.031	-0.001
-295.705	800.000	-0.084	0.266
-294.691	-29.712	0.199	0.114
-293.676	-200.000	-0.024	0.227
-292.662	-200.000	-0.003	0.299
-291.647	800.000	0.050	0.150
-290.632	-200.000	-0.011	-0.170
-289.618	-199.547	-0.194	-0.001
-288.603	-163.271	0.098	-0.005
-287.589	222.597	0.027	-0.044
-286.574	-34.914	0.063	0.034
-285.559	17.074	0.270	0.215
-284.545	-139.313	-0.095	0.010
-283.530	-200.000	-0.009	-0.192
-282.516	107.449	0.093	-0.111
-281.501	-135.778	-0.330	-0.039
-280.486	37.885	-0.259	0.231
-279.472	32.481	0.204	0.177
-278.457	78.100	-0.211	0.226
-277.443	800.000	0.049	0.144
-276.428	187.831	-0.182	-0.273
-275.413	-109.790	-0.025	0.005
-274.399	103.851	-0.243	0.287
-273.384	-50.383	-0.173	-0.082
-272.370	-200.000	-0.053	-0.248
-271.355	126.743	0.263	0.335
-270.340	-200.000	-0.014	0.206
-269.326	-200.000	0.020	0.105
-268.311	-200.000	-0.027	-0.120
-267.297	-200.000	-0.034	-0.195
-266.282	-200.000	0.028	-0.210
-265.267	-15.836	-0.132	-0.085
-264.253	327.280	0.084	-0.162
-263.238	264.580	-0.055	0.096
-262.224	-115.406	-0.232	-0.044
-261.209	-82.207	0.479	-0.157
-260.195	241.645	0.132	0.222
-259.180	-34.754	-0.134	0.073
-258.165	64.319	0.285	0.288
-257.151	507.137	-0.080	0.187
-256.136	-119.672	-0.203	-0.035
-255.122	800.000	0.081	0.338
-254.107	-39.900	0.282	0.148
-253.092	157.468	-0.078	0.108
-252.078	107.091	-0.199	-0.237
-251.063	94.761	0.238	-0.272
-250.049	-200.000	0.010	-0.152
-249.034	-66.970	0.314	0.124
-248.019	-142.564	-0.287	0.028
-247.005	-32.071	0.254	-0.143
-245.990	-131.684	-0.130	0.017
-244.976	522.981	-0.108	-0.255
-243.961	-200.000	0.023	-0.128
-242.946	145.833	-0.093	0.125
-241.932	214.736	0.132	-0.211
-240.917	531.885	0.027	-0.064
-239.903	197.408	0.109	0.167
-238.888	-194.014	0.128	0.001
-237.873	185.683	-0.090	-0.134
-236.859	542.479	-0.179	-0.427
-235.844	-136.717	0.136	0.016
-234.830	285.997	-0.054	-0.099
-233.815	800.000	0.078	-0.295
-232.800	698.009	-0.083	-0.219
-231.786	-200.000	0.008	-0.202
-230.771	-3.243	-0.136	0.095
-229.757	800.000	0.076	0.320
-228.742	800.000	0.026	0.083
-227.727	-12.008	0.248	-0.163
-226.713	418.172	-0.038	0.081
-225.698	90.188	0.125	-0.140
-224.684	-75.540	-0.232	-0.083
-223.669	184.289	-0.114	-0.169
-222.655	-200.000	-0.064	-0.361
-221.640	-59.558	0.083	-0.036
-220.625	114.531	-0.124	-0.151
-219.611	15.130	-0.201	-0.158
-218.596	120.171	0.306	0.381
-217.582	-7.341	0.293	0.199
-216.567	-86.511	0.151	0.047
-215.552	-200.000	0.052	0.334
-214.538	43.752	-0.125	-0.115
-213.523	-200.000	0.001	0.277
-212.509	-109.274	-0.202	-0.043
-211.494	-130.172	0.225	-0.031
-210.479	-45.666	-0.082	-0.041
-209.465	-57.787	-0.276	0.121
-208.450	-39.328	-0.158	0.083
-207.436	344.199	-0.232	-0.456
-206.421	22.200	-0.101	-0.082
-205.406	516.825	0.192	0.451
-204.392	800.000	-0.043	0.122
-203.377	-129.221	0.254	0.035
-202.363	800.000	0.028	-0.114
-201.348	157.278	-0.241	-0.334
-200.333	-200.000	0.010	-0.219
-199.319	251.808	-0.192	-0.327
-198.304	-139.151	0.072	0.008
-197.290	-11.640	0.083	-0.055
-196.275	800.000	0.159	-0.481
-195.260	800.000	0.096	0.404
-194.246	-66.007	-0.130	-0.052
-193.231	-75.810	-0.196	-0.070
-192.217	-51.282	-0.104	-0.049
-191.202	-200.000	-0.035	-0.183
-190.187	800.000	0.043	0.149
-189.173	-1.058	-0.255	0.180
-188.158	40.545	0.235	0.212
-187.144	-88.860	-0.204	-0.061
-186.129	53.022	-0.040	0.038
-185.114	268.207	0.071	0.125
-184.100	800.000	-0.073	0.245
-183.085	800.000	-0.094	-0.333
-182.071	-138.724	0.473	-0.052
-181.056	-200.000	-0.068	-0.606
-180.042	306.737	-0.085	-0.158
-179.027	585.669	0.147	-0.361
-178.012	-200.000	0.014	-0.186
-176.998	88.922	0.188	-0.209
-175.983	-146.482	0.082	0.007
-174.969	254.250	-0.052	-0.089
-173.954	228.376	-0.219	-0.357
-172.939	-200.000	-0.003	0.415
-171.925	55.024	-0.240	0.232
-170.910	263.267	0.211	0.366
-169.896	-157.068	-0.286	-0.017
-168.881	800.000	0.069	0.223
-167.866	-103.258	0.394	0.093
-166.852	800.000	0.021	-0.061
-165.837	72.819	-0.051	-0.054
-164.823	7.835	0.070	-0.052
-163.808	-109.192	-0.211	-0.045
-162.793	-161.406	-0.169	-0.009
-161.779	-45.827	-0.010	-0.005
-160.764	-200.000	-0.003	-0.234
-159.750	-200.000	-0.013	-0.107
-158.735	-69.054	0.070	0.027
-157.720	-200.000	-0.026	0.280
-156.706	-59.029	-0.150	-0.065
-155.691	486.527	-0.142	0.323
-154.677	-200.000	-0.012	-0.269
-153.662	346.667	-0.055	-0.107
-152.647	-19.277	0.223	-0.138
-151.633	119.371	-0.214	0.265
-150.618	-22.097	-0.112	-0.068
-149.604	-84.821	0.258	0.081
-148.589	43.295	-0.202	0.184
-147.574	178.673	0.075	0.110
-146.560	114.699	-0.203	0.248
-145.545	10.309	-0.084	-0.064
-144.531	-116.325	-0.076	-0.014
-143.516	-37.756	-0.479	-0.255
-142.502	800.000	-0.012	-0.045
-141.487	174.384	-0.204	-0.294
-140.472	121.410	-0.184	-0.229
-139.458	-200.000	-0.046	-0.237
-138.443	117.418	-0.017	-0.021
-137.429	-178.436	-0.148	0.003
-136.414	-53.936	-0.272	0.124
-135.399	289.934	0.126	0.229
-134.385	235.763	-0.055	-0.091
-133.370	800.000	0.092	0.257
-132.356	-40.910	-0.237	0.123
-131.341	800.000	0.078	0.338
-130.326	206.262	-0.076	0.118
-129.312	-132.094	0.320	-0.041
-128.297	-111.358	-0.362	0.074
-127.283	-77.311	-0.287	-0.100
-126.268	146.756	-0.128	0.171
-125.253	-67.856	-0.218	0.085
-124.239	442.387	-0.168	0.367
-123.224	66.634	-0.088	-0.090
-122.210	-74.856	-0.195	0.070
