DTS Sentinel unit serial number:	SN413079Multiplexer serial number:	ORYXHardware model number:	OX4-SRSoftware version number:	ORYX F/W v4.00 Oryx Data Collector v3.7.2.0data status	okinstallation	princeton_trtdifferential loss correction	single-endedforward channel	channel 3reverse channel	N/Adate	2019/09/14time	18:48:35forward acquisition time	60.00reverse acquisition time	0.00gamma	496.2192k internal	0.2305k external	0.2305temperature offset calibration	1.0017default loss term (dB/km)	0.3790temperature slope calibration	1.0000multiplexer offset coefficient	1.0000multiplexer slope coefficient	1.0000fibre end	0.00T internal ref (°C)	36.02T ext. ref 1 (°C)	4.90T ext. ref 2 (°C)	29.76length (m)	temperature (°C)	Stokes	anti-Stokes-747.200	520.574	0.104	0.248
-746.185	275.667	0.112	-0.202
-745.171	-11.806	-0.164	0.110
-744.156	55.917	-0.106	-0.105
-743.142	-154.450	0.312	0.021
-742.127	-200.000	-0.031	0.465
-741.112	632.984	0.094	-0.242
-740.098	-200.000	0.004	0.181
-739.083	-200.000	-0.002	-0.314
-738.069	52.469	0.281	0.273
-737.054	66.501	0.333	0.344
-736.039	800.000	-0.089	-0.324
-735.025	393.523	-0.101	-0.214
-734.010	78.638	-0.147	-0.160
-732.996	-51.683	0.322	-0.153
-731.981	-58.294	-0.433	0.192
-730.966	-52.033	-0.218	0.103
-729.952	26.082	-0.073	-0.062
-728.937	800.000	-0.079	-0.277
-727.923	244.887	0.158	0.269
-726.908	269.345	0.136	-0.243
-725.894	-148.598	-0.434	-0.036
-724.879	-200.000	0.032	0.244
-723.864	-200.000	-0.059	-0.405
-722.850	39.322	-0.109	-0.099
-721.835	-129.447	-0.367	-0.052
-720.821	75.872	-0.119	-0.128
-719.806	49.192	-0.141	-0.135
-718.791	-101.655	-0.051	0.013
-717.777	13.923	-0.210	0.166
-716.762	441.437	0.044	0.097
-715.748	-96.436	-0.148	0.040
-714.733	-200.000	0.021	0.099
-713.718	251.740	0.090	0.156
-712.704	231.210	0.125	-0.208
-711.689	224.798	-0.081	-0.134
-710.675	-89.461	-0.152	-0.045
-709.660	800.000	-0.065	-0.198
-708.645	687.157	0.087	-0.230
-707.631	-133.993	-0.250	0.031
-706.616	517.265	0.068	0.163
-705.602	77.961	0.105	-0.114
-704.587	297.311	0.121	-0.225
-703.572	-200.000	-0.008	-0.273
-702.558	-200.000	-0.048	0.227
-701.543	-154.559	0.243	-0.016
-700.529	-200.000	0.054	-0.276
-699.514	-0.230	0.223	-0.161
-698.499	-200.000	-0.036	-0.410
-697.485	-54.677	-0.100	0.046
-696.470	-42.841	-0.354	-0.183
-695.456	267.482	-0.228	-0.404
-694.441	3.058	-0.291	-0.215
-693.426	-200.000	-0.348	0.001
-692.412	800.000	0.087	-0.295
-691.397	-200.000	-0.005	-0.282
-690.383	-200.000	-0.027	-0.236
-689.368	197.323	-0.084	-0.130
-688.354	-55.022	-0.125	0.057
-687.339	152.391	0.131	0.182
-686.324	-68.792	0.148	-0.058
-685.310	44.423	0.146	-0.137
-684.295	628.403	-0.070	0.179
-683.281	306.367	0.034	0.064
-682.266	364.150	0.148	-0.301
-681.251	-109.559	-0.471	-0.101
-680.237	-28.330	0.388	0.227
-679.222	-117.405	0.361	0.066
-678.208	800.000	-0.116	-0.359
-677.193	-200.000	0.049	-0.318
-676.178	800.000	-0.057	-0.233
-675.164	575.488	0.039	0.097
-674.149	624.742	-0.054	-0.139
-673.135	-98.547	-0.215	0.056
-672.120	-200.000	-0.005	-0.249
-671.105	-31.660	0.187	-0.106
-670.091	-52.357	0.221	-0.104
-669.076	351.159	0.104	0.209
-668.062	136.025	-0.116	-0.153
-667.047	297.934	-0.125	-0.234
-666.032	-128.729	-0.360	0.052
-665.018	2.431	-0.134	0.098
-664.003	-102.053	0.246	-0.060
-662.989	-200.000	0.015	0.284
-661.974	-19.012	0.103	0.065
-660.959	-73.860	-0.313	0.115
-659.945	149.908	-0.187	0.257
-658.930	800.000	-0.145	-0.408
-657.916	-102.562	-0.265	-0.064
-656.901	-86.494	-0.048	0.015
-655.886	-200.000	0.012	0.110
-654.872	-125.113	-0.110	0.017
-653.857	62.248	-0.164	-0.166
-652.843	57.261	-0.104	-0.102
-651.828	-133.418	0.090	-0.011
-650.814	26.675	-0.193	-0.164
-649.799	-106.205	0.323	0.073
-648.784	609.716	-0.135	-0.341
-647.770	-200.000	-0.060	-0.280
-646.755	-164.008	-0.227	-0.011
-645.741	15.479	-0.035	-0.028
-644.726	122.536	-0.115	0.145
-643.711	-3.180	-0.200	-0.141
-642.697	-131.469	-0.316	0.042
-641.682	-29.362	-0.105	-0.061
-640.668	202.395	0.096	0.150
-639.653	-200.000	-0.021	-0.371
-638.638	20.712	-0.214	0.176
-637.624	490.156	-0.092	0.213
-636.609	7.510	-0.120	-0.091
-635.595	593.582	0.047	0.118
-634.580	-54.985	-0.218	-0.099
-633.565	122.286	-0.108	0.137
-632.551	-65.853	-0.341	-0.138
-631.536	-200.000	-0.007	-0.285
-630.522	-100.587	0.174	0.044
-629.507	800.000	-0.052	-0.167
-628.492	348.612	0.120	0.240
-627.478	227.947	0.106	0.176
-626.463	800.000	-0.016	0.061
-625.449	-200.000	0.029	0.376
-624.434	346.725	0.095	-0.190
-623.419	-200.000	0.039	-0.202
-622.405	-200.000	0.028	-0.232
-621.390	609.537	-0.104	-0.264
-620.376	-103.792	-0.242	-0.057
-619.361	79.683	-0.177	-0.193
-618.346	-200.000	-0.011	-0.083
-617.332	161.552	-0.102	-0.145
-616.317	-159.231	-0.175	0.010
-615.303	-200.000	0.316	-0.001
-614.288	800.000	0.097	0.296
-613.273	-53.375	0.171	-0.079
-612.259	-76.031	0.256	-0.092
-611.244	-74.090	-0.098	-0.036
-610.230	-200.000	-0.001	-0.031
-609.215	158.189	-0.104	0.146
-608.201	-200.000	-0.073	0.342
-607.186	228.213	-0.050	0.083
-606.171	542.843	0.105	-0.254
-605.157	800.000	-0.035	0.105
-604.142	-200.000	0.029	0.258
-603.128	800.000	-0.097	-0.306
-602.113	-100.744	0.326	0.081
-601.098	424.390	0.192	-0.419
-600.084	78.367	-0.224	-0.242
-599.069	-156.789	0.179	-0.011
-598.055	-11.338	0.148	0.099
-597.040	409.684	-0.092	-0.197
-596.025	-200.000	0.057	-0.307
-595.011	259.537	0.026	0.045
-593.996	-172.280	-0.298	-0.010
-592.982	-35.236	0.127	-0.070
-591.967	0.511	-0.079	0.057
-590.952	49.263	0.208	-0.197
-589.938	-23.166	0.136	-0.083
-588.923	47.457	0.242	0.228
-587.909	78.632	0.046	-0.050
-586.894	396.699	0.038	-0.080
-585.879	-64.956	-0.209	-0.085
-584.865	-138.149	-0.319	-0.036
-583.850	-100.948	-0.249	0.062
-582.836	-29.647	0.228	-0.132
-581.821	53.890	0.203	-0.197
-580.806	-19.808	-0.272	-0.170
-579.792	-200.000	0.014	0.147
-578.777	-122.600	0.177	-0.029
-577.763	800.000	0.071	0.278
-576.748	-90.353	0.267	-0.078
-575.733	-200.000	0.016	0.074
-574.719	176.561	0.122	0.179
-573.704	42.170	-0.151	0.138
-572.690	-100.215	0.225	0.056
-571.675	-87.300	0.117	-0.036
-570.661	63.420	-0.077	-0.078
-569.646	-120.230	-0.191	-0.033
-568.631	-200.000	0.005	-0.189
-567.617	-200.000	-0.027	-0.216
-566.602	-200.000	-0.019	-0.152
-565.588	26.442	-0.177	0.150
-564.573	-200.000	0.049	0.220
-563.558	-200.000	-0.078	-0.418
-562.544	158.902	0.187	-0.262
-561.529	-200.000	-0.020	-0.381
-560.515	-144.981	0.295	-0.027
-559.500	-171.362	-0.162	-0.005
-558.485	656.986	-0.069	0.179
-557.471	-200.000	-0.009	0.235
-556.456	36.521	0.185	-0.165
-555.442	233.988	0.224	0.372
-554.427	-69.219	-0.334	0.130
-553.412	800.000	0.031	0.112
-552.398	172.948	0.197	0.286
-551.383	153.168	-0.145	0.200
-550.369	-111.705	-0.315	-0.064
-549.354	84.333	0.289	-0.319
-548.339	11.330	0.237	0.183
-547.325	-23.341	-0.208	-0.126
-546.310	528.152	-0.042	-0.100
-545.296	800.000	-0.045	-0.142
-544.281	-200.000	-0.048	-0.293
-543.266	-200.000	-0.012	-0.095
-542.252	-174.702	-0.273	0.008
-541.237	-131.166	0.179	0.024
-540.223	-101.267	-0.160	-0.039
-539.208	35.416	-0.161	-0.143
-538.193	524.759	0.056	0.132
-537.179	-121.879	0.134	0.022
-536.164	349.033	0.102	-0.203
-535.150	800.000	0.074	0.249
-534.135	-79.041	0.203	-0.070
-533.121	17.598	-0.228	0.183
-532.106	-96.095	0.374	-0.100
-531.091	800.000	-0.069	0.208
-530.077	-88.500	0.125	-0.038
-529.062	-3.892	0.259	-0.181
-528.048	-153.472	-0.044	0.003
-527.033	284.412	0.153	-0.278
-526.018	87.986	-0.260	-0.291
-525.004	-150.869	-0.033	-0.003
-523.989	175.387	-0.100	0.147
-522.975	800.000	0.061	0.240
-521.960	-43.245	-0.172	-0.088
-520.945	-69.863	-0.146	-0.056
-519.931	800.000	0.041	-0.117
-518.916	-2.403	-0.115	0.081
-517.902	-56.347	0.085	-0.038
-516.887	73.232	0.106	-0.112
-515.872	-100.890	-0.261	-0.065
-514.858	-57.235	-0.215	0.096
-513.843	-119.089	-0.261	0.046
-512.829	-87.040	0.139	0.043
-511.814	800.000	-0.014	0.042
-510.799	-200.000	0.204	-0.000
-509.785	-200.000	0.015	-0.097
-508.770	-200.000	0.010	0.162
-507.756	800.000	-0.090	0.334
-506.741	153.669	-0.055	-0.077
-505.726	222.852	-0.139	-0.225
-504.712	17.090	-0.110	0.088
-503.697	-200.000	-0.016	0.168
-502.683	-0.912	0.124	0.088
-501.668	713.711	-0.010	0.027
-500.653	-99.922	0.111	0.028
-499.639	-57.372	-0.310	0.137
-498.624	-29.456	0.282	-0.162
-497.610	289.795	-0.128	0.234
-496.595	-178.852	0.311	0.007
-495.581	-153.568	0.259	0.018
-494.566	770.114	-0.046	-0.125
-493.551	-90.867	0.480	0.139
-492.537	-200.000	-0.027	-0.212
-491.522	-61.288	-0.301	0.128
-490.508	-200.000	-0.036	0.183
-489.493	-200.000	0.020	-0.135
-488.478	-90.936	-0.345	-0.100
-487.464	-200.000	0.026	-0.146
-486.449	103.556	0.176	-0.208
-485.435	580.141	0.054	-0.134
-484.420	-57.571	-0.115	0.051
-483.405	-85.014	-0.424	0.134
-482.391	800.000	-0.051	0.145
-481.376	-74.888	-0.143	-0.052
-480.362	146.244	-0.185	-0.250
-479.347	272.890	0.088	0.156
-478.332	-200.000	-0.003	-0.126
-477.318	151.187	-0.105	-0.144
-476.303	-114.748	0.221	-0.043
-475.289	-43.858	-0.326	-0.165
-474.274	138.207	0.011	-0.015
-473.259	398.853	-0.188	0.397
-472.245	-18.222	0.368	0.232
-471.230	246.504	-0.043	0.074
-470.216	8.850	-0.045	0.034
-469.201	-128.966	-0.306	-0.043
-468.186	198.397	-0.201	0.309
-467.172	122.676	0.012	-0.015
-466.157	-57.928	0.049	-0.021
-465.143	-9.140	0.502	-0.338
-464.128	-113.909	-0.238	0.047
-463.113	-65.543	-0.170	0.069
-462.099	-200.000	0.011	-0.312
-461.084	69.156	-0.130	0.135
-460.070	-172.474	-0.158	0.005
-459.055	196.034	0.094	0.144
-458.040	45.258	0.187	-0.173
-457.026	-200.000	-0.001	0.237
-456.011	1.041	-0.047	-0.034
-454.997	-46.172	0.223	-0.110
-453.982	144.312	-0.097	0.130
-452.968	311.393	-0.076	0.144
-451.953	16.100	0.200	-0.158
-450.938	800.000	-0.092	0.403
-449.924	-153.997	-0.245	0.017
-448.909	-55.036	-0.497	0.225
-447.895	489.130	0.117	-0.269
-446.880	547.998	0.111	-0.266
-445.865	-93.427	0.352	-0.098
-444.851	-200.000	-0.026	0.170
-443.836	561.950	-0.044	0.108
-442.822	-200.000	-0.014	0.111
-441.807	48.922	0.147	-0.139
-440.792	56.950	-0.161	-0.158
-439.778	-175.462	0.265	-0.007
-438.763	134.726	-0.120	-0.157
-437.749	68.155	-0.125	0.128
-436.734	-200.000	0.000	-0.250
-435.719	725.102	0.062	0.165
-434.705	362.395	-0.053	0.108
-433.690	121.017	0.189	-0.236
-432.676	-200.000	-0.008	-0.239
-431.661	315.002	0.193	0.366
-430.646	-200.000	0.015	-0.125
-429.632	-200.000	-0.019	0.184
-428.617	800.000	-0.056	0.231
-427.603	-150.364	0.205	0.016
-426.588	-3.121	-0.138	0.096
-425.573	234.825	0.116	0.192
-424.559	25.416	0.206	-0.172
-423.544	-84.806	-0.324	-0.102
-422.530	41.340	-0.186	0.169
-421.515	9.246	-0.228	0.173
-420.500	578.787	0.052	-0.128
-419.486	341.063	0.121	-0.237
-418.471	-98.821	-0.330	0.084
-417.457	-200.000	-0.033	0.188
-416.442	-21.616	-0.183	-0.112
-415.428	69.615	0.095	-0.098
-414.413	-138.936	0.100	0.011
-413.398	-114.305	0.119	-0.023
-412.384	-186.553	-0.110	0.002
-411.369	22.470	-0.254	-0.209
-410.355	-8.543	-0.263	-0.178
-409.340	-200.000	-0.052	-0.250
-408.325	-200.000	-0.031	-0.187
-407.311	293.564	-0.074	-0.136
-406.296	90.933	0.230	0.259
-405.282	204.097	-0.048	0.075
-404.267	-20.518	0.086	0.053
-403.252	-200.000	-0.003	-0.171
-402.238	130.559	-0.244	-0.314
-401.223	109.204	-0.136	0.163
-400.209	48.411	0.201	0.189
-399.194	384.753	0.070	-0.144
-398.179	-99.022	0.177	-0.045
-397.165	-5.674	0.114	-0.079
-396.150	-200.000	-0.001	-0.265
-395.136	555.342	0.075	0.181
-394.121	-200.000	0.011	0.212
-393.106	-200.000	-0.009	0.176
-392.092	667.122	0.078	-0.202
-391.077	-136.499	-0.178	0.021
-390.063	232.554	-0.077	0.128
-389.048	96.982	-0.054	0.062
-388.033	-101.509	0.078	0.019
-387.019	-91.360	-0.157	0.045
-386.004	800.000	-0.042	0.171
-384.990	-111.508	0.262	0.053
-383.975	-96.342	0.389	0.103
-382.960	800.000	0.058	-0.201
-381.946	800.000	0.077	0.232
-380.931	435.031	0.067	0.145
-379.917	-154.424	-0.148	-0.010
-378.902	202.614	-0.120	0.186
-377.888	101.898	-0.236	0.276
-376.873	-47.467	0.208	-0.101
-375.858	-66.743	-0.356	0.141
-374.844	-200.000	0.009	-0.116
-373.829	-136.562	-0.174	0.020
-372.815	800.000	0.081	0.272
-371.800	-50.398	0.458	-0.217
-370.785	345.491	-0.073	-0.143
-369.771	-130.619	0.188	0.025
-368.756	106.526	-0.120	-0.142
-367.742	101.816	-0.235	-0.275
-366.727	272.452	0.109	-0.193
-365.712	183.225	0.184	-0.272
-364.698	414.733	-0.055	-0.118
-363.683	-200.000	-0.008	0.142
-362.669	-200.000	-0.003	0.019
-361.654	182.200	-0.095	0.140
-360.639	-200.000	0.051	0.252
-359.625	-8.080	0.263	-0.177
-358.610	-95.932	0.096	-0.026
-357.596	43.701	0.252	-0.231
-356.581	37.142	0.192	0.170
-355.566	-37.772	0.305	0.163
-354.552	-200.000	-0.009	0.153
-353.537	274.581	0.152	0.270
-352.523	-200.000	0.002	0.144
-351.508	103.852	0.148	-0.174
-350.493	-98.906	0.281	0.072
-349.479	-200.000	-0.012	0.254
-348.464	-44.271	0.174	0.088
-347.450	117.062	0.093	-0.114
-346.435	606.419	-0.090	-0.226
-345.420	800.000	0.091	-0.380
-344.406	-147.153	0.120	-0.010
-343.391	-27.983	-0.127	-0.073
-342.377	-124.994	-0.587	-0.090
-341.362	282.354	0.023	0.041
-340.348	-86.523	-0.236	-0.073
-339.333	436.477	-0.065	-0.141
-338.318	-97.141	-0.178	-0.047
-337.304	800.000	-0.082	0.294
-336.289	-200.000	-0.045	0.268
-335.275	-109.990	-0.348	0.073
-334.260	-144.058	0.129	-0.012
-333.245	-58.050	0.125	-0.054
-332.231	-166.297	-0.207	0.009
-331.216	217.682	-0.195	0.312
-330.202	-7.211	-0.163	-0.110
-329.187	141.553	-0.090	0.119
-328.172	-51.919	-0.134	-0.063
-327.158	800.000	0.077	0.318
-326.143	-200.000	-0.002	0.146
-325.129	-4.413	-0.268	-0.185
-324.114	800.000	0.037	-0.124
-323.099	794.185	-0.114	-0.315
-322.085	800.000	0.054	0.156
-321.070	-194.988	0.264	0.002
-320.056	-200.000	-0.044	0.207
-319.041	800.000	-0.042	-0.136
-318.026	34.785	0.132	-0.115
-317.012	100.880	-0.221	-0.257
-315.997	-200.000	0.027	-0.176
-314.983	-119.847	0.349	0.060
-313.968	396.697	0.031	-0.064
-312.953	-102.966	0.329	0.078
-311.939	706.129	-0.071	-0.187
-310.924	-200.000	0.032	-0.238
-309.910	-130.856	-0.090	0.012
-308.895	123.631	0.074	0.092
-307.880	-71.828	0.306	0.114
-306.866	19.081	-0.274	-0.220
-305.851	176.041	-0.144	-0.209
-304.837	-11.122	0.181	-0.119
-303.822	54.454	0.129	0.125
-302.807	800.000	-0.124	-0.388
-301.793	84.979	-0.103	-0.113
-300.778	-89.883	-0.450	0.132
-299.764	800.000	0.092	0.306
-298.749	-26.485	-0.160	0.094
-297.735	319.372	-0.062	0.118
-296.720	-200.000	-0.004	-0.025
-295.705	-59.632	-0.244	-0.105
-294.691	-200.000	-0.013	0.664
-293.676	800.000	0.036	0.107
-292.662	-200.000	-0.027	0.143
-291.647	-99.951	-0.211	0.053
-290.632	-68.918	-0.248	0.096
-289.618	-136.200	0.068	-0.008
-288.603	-72.109	0.458	0.170
-287.589	-90.415	-0.096	0.028
-286.574	71.841	-0.190	0.198
-285.559	56.788	0.160	0.155
-284.545	83.380	0.183	0.200
-283.530	-200.000	-0.053	0.277
-282.516	108.987	0.135	0.161
-281.501	-97.680	-0.265	0.069
-280.486	430.365	-0.054	-0.116
-279.472	-83.171	0.332	0.107
-278.457	800.000	-0.050	0.173
-277.443	-8.925	0.212	0.142
-276.428	43.230	-0.148	-0.135
-275.413	-150.941	-0.281	-0.021
-274.399	-200.000	0.007	0.175
-273.384	79.117	-0.088	-0.094
-272.370	28.614	-0.274	-0.232
-271.355	666.750	0.025	-0.064
-270.340	-200.000	0.005	-0.278
-269.326	-200.000	-0.025	0.163
-268.311	-150.282	0.145	0.011
-267.297	48.138	-0.174	0.162
-266.282	24.865	0.192	0.159
-265.267	183.501	0.079	-0.116
-264.253	29.300	-0.077	-0.065
-263.238	111.796	-0.038	-0.046
-262.224	-200.000	0.017	-0.218
-261.209	-200.000	-0.012	-0.298
-260.195	70.666	-0.181	0.187
-259.180	302.274	0.078	-0.144
-258.165	155.297	-0.178	0.245
-257.151	-26.169	0.118	-0.069
-256.136	-200.000	-0.046	0.350
-255.122	-134.506	-0.120	0.015
-254.107	604.119	-0.107	0.265
-253.092	-200.000	0.009	-0.280
-252.078	-190.879	0.108	0.001
-251.063	-151.154	0.075	0.006
-250.049	800.000	0.061	0.210
-249.034	-111.499	-0.170	-0.035
-248.019	-68.361	0.281	-0.109
-247.005	-104.209	-0.272	-0.063
-245.990	677.075	-0.217	0.562
-244.976	800.000	-0.094	-0.284
-243.961	85.949	-0.036	0.039
-242.946	-86.950	0.262	0.080
-241.932	800.000	-0.080	-0.331
-240.917	652.730	0.117	0.299
-239.903	800.000	-0.061	0.259
-238.888	73.223	0.052	-0.054
-237.873	394.268	0.045	0.094
-236.859	-40.628	0.283	0.147
-235.844	51.645	0.221	-0.209
-234.830	-56.261	0.369	-0.164
-233.815	61.610	-0.176	-0.175
-232.800	-35.204	-0.156	-0.085
-231.786	65.777	-0.021	0.021
-230.771	59.248	0.246	0.242
-229.757	-41.073	0.415	0.214
-228.742	297.551	0.059	-0.107
-227.727	90.388	-0.207	0.231
-226.713	-200.000	0.073	0.442
-225.698	555.807	0.077	-0.185
-224.684	-200.000	0.064	-0.356
-223.669	28.656	-0.113	-0.095
-222.655	54.782	0.143	0.138
-221.640	-200.000	-0.015	-0.148
-220.625	-109.593	0.351	-0.074
-219.611	-200.000	0.090	-0.495
-218.596	282.290	-0.088	-0.158
-217.582	541.522	-0.172	0.408
-216.567	-85.817	0.257	-0.079
-215.552	-177.864	0.258	0.006
-214.538	115.654	0.105	0.128
-213.523	-50.492	-0.076	-0.036
-212.509	11.200	0.050	0.038
-211.494	800.000	0.046	-0.163
-210.479	261.752	-0.088	-0.152
-209.465	93.793	0.048	0.054
-208.450	69.862	-0.149	0.153
-207.436	-160.654	0.239	-0.013
-206.421	-166.289	-0.201	-0.008
-205.406	158.348	0.118	-0.164
-204.392	692.047	-0.100	0.261
-203.377	-200.000	-0.060	0.396
-202.363	46.752	0.049	-0.046
-201.348	87.103	0.116	0.127
-200.333	-7.895	-0.128	0.086
-199.319	192.881	0.090	-0.136
-198.304	-200.000	-0.026	-0.240
-197.290	-61.154	0.203	-0.085
-196.275	800.000	-0.044	-0.184
-195.260	-200.000	0.050	0.276
-194.246	-35.994	0.172	0.093
-193.231	-200.000	-0.033	-0.180
-192.217	-93.324	0.227	-0.063
-191.202	-106.218	-0.155	-0.035
-190.187	800.000	-0.041	-0.162
-189.173	429.700	-0.043	-0.092
-188.158	-200.000	-0.021	0.313
-187.144	-108.528	0.369	-0.079
-186.129	50.376	0.057	-0.054
-185.114	-137.713	-0.164	-0.018
-184.100	98.193	0.253	-0.290
-183.085	97.744	0.130	-0.148
-182.071	87.164	0.045	0.049
-181.056	495.472	-0.026	0.058
-180.042	-143.252	-0.290	-0.028
-179.027	-113.095	0.245	0.048
-178.012	-200.000	0.000	-0.270
-176.998	36.304	0.063	0.055
-175.983	527.663	-0.089	-0.208
-174.969	648.419	0.163	-0.416
-173.954	-200.000	0.012	0.178
-172.939	-135.333	-0.035	-0.004
-171.925	86.159	-0.185	0.203
-170.910	-158.596	-0.266	0.015
-169.896	233.022	0.116	0.189
-168.881	-182.942	-0.330	0.006
-167.866	168.783	0.071	-0.101
-166.852	84.087	0.258	0.280
-165.837	58.080	0.109	-0.106
-164.823	-200.000	0.066	-0.334
-163.808	-200.000	-0.025	0.323
-162.793	-20.707	0.228	0.139
-161.779	-168.689	-0.102	-0.004
-160.764	-139.119	0.515	-0.055
-159.750	-200.000	0.053	-0.307
-158.735	117.790	-0.205	0.251
-157.720	53.528	0.177	-0.168
-156.706	92.171	-0.078	0.088
-155.691	800.000	-0.078	0.318
-154.677	13.729	0.195	0.150
-153.662	175.980	-0.080	0.115
-152.647	800.000	-0.103	0.313
-151.633	634.174	-0.131	0.329
-150.618	-200.000	0.064	-0.282
-149.604	-200.000	-0.012	-0.076
-148.589	-45.278	-0.329	-0.162
-147.574	301.703	0.092	-0.170
-146.560	467.569	-0.060	-0.133
-145.545	-105.663	0.394	-0.089
-144.531	667.799	-0.074	0.191
-143.516	-200.000	-0.015	0.129
-142.502	131.834	-0.102	0.131
-141.487	119.969	-0.134	-0.166
-140.472	-126.002	0.199	-0.030
-139.458	-200.000	0.011	-0.087
-138.443	27.434	-0.129	-0.108
-137.429	136.600	0.124	-0.161
-136.414	320.858	-0.062	-0.118
-135.399	-117.545	0.268	0.048
-134.385	36.757	-0.247	0.217
-133.370	-52.113	0.360	-0.166
-132.356	-200.000	0.020	0.085
-131.341	-200.000	-0.020	-0.383
-130.326	-200.000	0.006	-0.076
-129.312	-145.931	0.040	0.004
-128.297	-68.190	0.120	-0.046
-127.283	-28.505	0.165	-0.094
-126.268	798.211	-0.056	-0.154
-125.253	-200.000	-0.010	0.056
-124.239	-4.979	0.237	-0.162
-123.224	-46.173	0.318	-0.156
