DTS Sentinel unit serial number:	SN413079Multiplexer serial number:	ORYXHardware model number:	OX4-SRSoftware version number:	ORYX F/W v4.00 Oryx Data Collector v3.7.2.0data status	okinstallation	princeton_trtdifferential loss correction	single-endedforward channel	channel 3reverse channel	N/Adate	2019/09/17time	06:28:35forward acquisition time	60.00reverse acquisition time	0.00gamma	496.2192k internal	0.2331k external	0.2331temperature offset calibration	0.9944default loss term (dB/km)	0.3790temperature slope calibration	1.0000multiplexer offset coefficient	1.0000multiplexer slope coefficient	1.0000fibre end	0.00T internal ref (°C)	28.19T ext. ref 1 (°C)	0.13T ext. ref 2 (°C)	21.54length (m)	temperature (°C)	Stokes	anti-Stokes-747.200	80.063	-0.442	-0.478
-746.185	332.842	-0.144	0.280
-745.171	-38.743	-0.199	-0.106
-744.156	775.807	0.113	0.311
-743.142	-200.000	0.050	0.261
-742.127	21.276	0.254	0.208
-741.112	-139.174	0.312	-0.034
-740.098	99.144	-0.070	-0.082
-739.083	108.754	-0.048	0.058
-738.069	-200.000	0.036	0.251
-737.054	-96.080	-0.435	-0.116
-736.039	-83.457	-0.347	-0.112
-735.025	-145.906	-0.133	0.012
-734.010	-200.000	-0.022	0.145
-732.996	-68.517	0.297	-0.116
-731.981	365.923	-0.188	0.382
-730.966	0.619	-0.071	0.051
-729.952	-72.167	-0.387	-0.144
-728.937	71.772	-0.113	-0.118
-727.923	36.707	0.133	-0.118
-726.908	-121.808	-0.299	0.050
-725.894	-180.855	-0.159	0.003
-724.879	520.515	0.086	0.203
-723.864	-200.000	-0.024	0.390
-722.850	-126.082	-0.167	0.025
-721.835	-86.401	-0.038	0.012
-720.821	-200.000	-0.046	0.260
-719.806	-49.518	0.143	0.068
-718.791	211.034	-0.085	-0.135
-717.777	30.052	0.249	0.214
-716.762	-200.000	-0.001	0.155
-715.748	-200.000	-0.008	-0.260
-714.733	-46.272	-0.167	0.082
-713.718	-200.000	0.037	0.324
-712.704	86.664	-0.134	-0.149
-711.689	-12.088	-0.082	0.054
-710.675	-128.662	-0.162	0.023
-709.660	-200.000	0.073	-0.404
-708.645	116.424	0.163	0.201
-707.631	-51.467	0.086	0.040
-706.616	93.037	0.136	-0.155
-705.602	-15.204	0.169	-0.109
-704.587	-150.963	-0.149	0.011
-703.572	39.321	-0.170	-0.153
-702.558	-200.000	0.013	-0.101
-701.543	-89.350	-0.046	0.014
-700.529	-11.751	-0.023	0.015
-699.514	-200.000	-0.004	-0.080
-698.499	-120.437	-0.259	0.044
-697.485	-200.000	0.031	-0.143
-696.470	-7.853	-0.132	0.089
-695.456	-140.268	-0.017	-0.002
-694.441	-6.708	-0.132	-0.090
-693.426	14.351	0.192	-0.150
-692.412	-129.767	-0.233	-0.032
-691.397	-200.000	0.037	0.515
-690.383	-119.172	-0.135	0.024
-689.368	234.350	-0.264	-0.438
-688.354	-200.000	0.017	0.236
-687.339	800.000	0.083	-0.249
-686.324	-86.303	0.198	-0.061
-685.310	-200.000	-0.045	-0.289
-684.295	800.000	-0.076	0.220
-683.281	296.600	0.141	-0.260
-682.266	-200.000	-0.020	0.185
-681.251	208.267	-0.019	0.031
-680.237	-53.036	0.189	0.087
-679.222	800.000	0.040	-0.167
-678.208	145.428	-0.229	-0.308
-677.193	308.956	0.077	-0.144
-676.178	13.669	0.135	0.105
-675.164	-200.000	-0.062	0.305
-674.149	800.000	0.112	-0.406
-673.135	-200.000	-0.041	-0.255
-672.120	-200.000	-0.004	-0.039
-671.105	30.123	-0.164	0.141
-670.091	-62.986	-0.183	0.076
-669.076	-200.000	-0.021	-0.293
-668.062	258.901	-0.095	-0.164
-667.047	800.000	0.037	0.135
-666.032	-101.940	0.252	-0.061
-665.018	46.313	0.369	-0.343
-664.003	-143.157	-0.346	0.033
-662.989	-136.502	-0.331	-0.039
-661.974	-107.472	0.173	0.038
-660.959	800.000	0.093	0.277
-659.945	125.181	0.185	0.234
-658.930	111.080	0.081	0.098
-657.916	142.304	0.170	-0.226
-656.901	129.494	-0.150	-0.192
-655.886	-200.000	0.011	-0.080
-654.872	-105.572	0.097	-0.022
-653.857	-87.015	0.155	-0.047
-652.843	359.034	0.127	0.254
-651.828	-61.394	-0.276	-0.116
-650.814	-200.000	-0.000	-0.295
-649.799	569.943	-0.134	-0.327
-648.784	-53.505	-0.226	0.104
-647.770	127.681	-0.226	-0.288
-646.755	-99.890	0.439	0.110
-645.741	600.204	0.065	0.162
-644.726	259.360	0.098	-0.170
-643.711	-65.161	0.194	-0.078
-642.697	-117.075	-0.371	-0.068
-641.682	800.000	-0.002	-0.009
-640.668	8.332	-0.019	0.014
-639.653	-53.398	-0.177	0.081
-638.638	244.463	0.151	-0.255
-637.624	-127.300	-0.067	0.010
-636.609	-42.342	0.138	0.071
-635.595	631.180	-0.051	0.129
-634.580	-49.395	0.171	-0.082
-633.565	-3.184	-0.347	0.243
-632.551	194.082	-0.118	-0.179
-631.536	-101.524	0.260	0.063
-630.522	-84.370	-0.063	0.020
-629.507	800.000	-0.026	-0.107
-628.492	-55.647	-0.323	-0.145
-627.478	-55.275	0.252	-0.114
-626.463	-62.574	0.253	-0.105
-625.449	-14.955	-0.297	-0.191
-624.434	89.102	0.208	-0.232
-623.419	533.353	-0.048	-0.114
-622.405	-65.440	-0.235	0.095
-621.390	-94.873	-0.243	0.066
-620.376	47.501	0.136	-0.127
-619.361	800.000	-0.077	0.232
-618.346	-52.648	-0.287	0.133
-617.332	-200.000	0.049	0.281
-616.317	-200.000	-0.050	0.239
-615.303	513.090	-0.048	-0.113
-614.288	647.824	-0.054	0.139
-613.273	507.478	-0.061	-0.142
-612.259	5.342	0.091	-0.067
-611.244	800.000	0.086	-0.288
-610.230	81.882	-0.111	-0.120
-609.215	-136.117	-0.333	0.039
-608.201	108.051	-0.068	0.081
-607.186	-20.219	0.244	-0.150
-606.171	-200.000	0.011	0.136
-605.157	-117.296	-0.162	0.029
-604.142	800.000	0.049	-0.209
-603.128	-200.000	-0.072	-0.334
-602.113	-93.512	0.126	-0.035
-601.098	-4.437	-0.104	-0.072
-600.084	197.710	0.157	0.240
-599.069	21.547	0.043	-0.035
-598.055	-155.160	0.184	-0.012
-597.040	258.650	-0.117	-0.201
-596.025	-38.921	-0.367	-0.194
-595.011	189.018	-0.126	0.189
-593.996	-200.000	0.003	-0.137
-592.982	-105.354	-0.214	-0.049
-591.967	-92.629	0.176	-0.049
-590.952	-162.296	0.399	0.020
-589.938	-19.798	-0.221	-0.136
-588.923	35.508	0.118	0.104
-587.909	-82.873	0.324	0.105
-586.894	-10.091	0.067	-0.044
-585.879	-96.384	0.109	-0.029
-584.865	-200.000	-0.052	0.330
-583.850	728.970	0.068	0.181
-582.836	-200.000	-0.007	-0.058
-581.821	-3.866	0.140	0.097
-580.806	-136.700	-0.169	0.019
-579.792	-98.534	0.234	0.060
-578.777	800.000	0.065	-0.221
-577.763	-5.145	0.185	0.127
-576.748	-51.520	0.264	0.123
-575.733	-21.884	-0.179	0.109
-574.719	-158.205	-0.386	0.023
-573.704	-200.000	0.008	-0.081
-572.690	58.272	0.253	0.248
-571.675	-200.000	0.039	-0.182
-570.661	-90.310	-0.254	-0.074
-569.646	-111.694	-0.323	-0.065
-568.631	65.919	-0.051	-0.052
-567.617	6.916	-0.187	-0.139
-566.602	-54.723	-0.210	0.095
-565.588	71.745	0.028	-0.029
-564.573	800.000	-0.074	0.221
-563.558	155.990	0.060	0.082
-562.544	13.529	0.079	-0.062
-561.529	-132.843	-0.353	0.045
-560.515	800.000	-0.059	-0.251
-559.500	-200.000	-0.021	0.245
-558.485	-102.442	-0.028	-0.007
-557.471	139.981	0.062	0.082
-556.456	800.000	0.023	0.064
-555.442	-128.006	0.224	-0.032
-554.427	-200.000	0.007	0.155
-553.412	-15.870	-0.258	-0.164
-552.398	-200.000	-0.008	-0.067
-551.383	-25.077	-0.295	-0.175
-550.369	-11.374	0.154	0.101
-549.354	47.765	-0.099	-0.092
-548.339	222.596	-0.247	-0.397
-547.325	649.490	0.151	-0.385
-546.310	800.000	0.067	-0.196
-545.296	-200.000	-0.007	-0.158
-544.281	-145.679	-0.241	0.022
-543.266	-2.442	-0.345	0.241
-542.252	-37.368	0.123	0.066
-541.237	21.722	0.147	0.119
-540.223	26.373	-0.172	-0.143
-539.208	224.007	-0.036	-0.057
-538.193	481.072	-0.160	-0.362
-537.179	104.448	0.099	0.116
-536.164	73.139	-0.283	-0.296
-535.150	-200.000	-0.014	-0.416
-534.135	97.100	0.095	-0.109
-533.121	-200.000	0.008	0.544
-532.106	-200.000	-0.007	-0.050
-531.091	800.000	0.089	0.271
-530.077	-162.037	-0.433	-0.022
-529.062	-200.000	-0.041	-0.228
-528.048	533.180	0.124	-0.292
-527.033	-97.492	0.320	-0.083
-526.018	-200.000	-0.004	0.244
-525.004	209.484	-0.197	-0.308
-523.989	322.565	-0.236	-0.448
-522.975	800.000	-0.032	-0.096
-521.960	-13.952	0.083	0.054
-520.945	-179.433	-0.411	0.009
-519.931	-45.795	0.405	-0.199
-518.916	-138.417	-0.425	-0.047
-517.902	689.994	-0.084	-0.220
-516.887	-200.000	-0.004	0.215
-515.872	-41.692	0.238	0.122
-514.858	800.000	-0.038	-0.163
-513.843	800.000	-0.031	0.110
-512.829	-135.251	-0.147	0.018
-511.814	612.120	0.131	0.326
-510.799	45.952	0.116	0.107
-509.785	115.894	-0.206	-0.251
-508.770	-135.235	0.282	0.034
-507.756	-149.050	-0.218	-0.017
-506.741	-200.000	0.035	0.160
-505.726	128.511	-0.077	-0.097
-504.712	-106.669	0.340	-0.076
-503.697	-24.085	0.084	0.050
-502.683	-200.000	0.052	0.230
-501.668	-149.359	-0.105	0.008
-500.653	-134.270	-0.513	-0.063
-499.639	800.000	0.038	0.163
-498.624	-200.000	-0.043	-0.214
-497.610	-28.833	-0.251	0.144
-496.595	-5.870	-0.155	0.106
-495.581	40.605	-0.151	-0.135
-494.566	-133.289	-0.316	0.040
-493.551	-73.581	-0.157	-0.057
-492.537	185.243	-0.111	0.164
-491.522	-55.507	0.090	0.040
-490.508	-78.824	0.219	0.074
-489.493	-80.460	0.071	0.024
-488.478	-161.321	0.276	-0.014
-487.464	-12.926	0.295	-0.191
-486.449	-162.428	-0.061	-0.003
-485.435	564.157	-0.054	0.130
-484.420	-40.711	0.030	0.016
-483.405	-200.000	-0.001	-0.319
-482.391	533.784	-0.107	0.253
-481.376	-89.295	0.325	-0.095
-480.362	-152.475	-0.201	0.014
-479.347	779.450	0.047	-0.129
-478.332	800.000	-0.058	-0.163
-477.318	-200.000	-0.004	0.130
-476.303	-75.393	0.255	-0.091
-475.289	14.952	-0.111	-0.087
-474.274	267.980	0.080	0.140
-473.259	373.192	0.034	-0.069
-472.245	800.000	0.083	-0.264
-471.230	800.000	-0.075	-0.217
-470.216	-141.116	0.411	-0.042
-469.201	8.076	0.291	-0.217
-468.186	18.539	-0.195	0.155
-467.172	-66.110	-0.059	0.023
-466.157	-50.640	0.049	-0.023
-465.143	-39.840	0.320	-0.166
-464.128	66.179	-0.347	-0.350
-463.113	138.811	-0.157	-0.206
-462.099	73.386	0.276	0.288
-461.084	214.405	0.317	-0.500
-460.070	107.904	-0.329	-0.390
-459.055	-200.000	-0.006	-0.154
-458.040	320.191	-0.110	0.207
-457.026	-98.425	0.324	-0.083
-456.011	51.420	0.044	0.041
-454.997	263.866	0.035	-0.060
-453.982	-105.774	-0.300	0.067
-452.968	127.128	0.224	-0.282
-451.953	-88.521	-0.408	0.121
-450.938	352.409	-0.101	0.199
-449.924	197.644	0.120	-0.182
-448.909	800.000	0.033	-0.119
-447.895	-36.294	-0.131	-0.070
-446.880	-24.560	0.106	0.063
-445.865	800.000	0.037	-0.113
-444.851	-111.682	0.195	0.039
-443.836	73.232	0.165	0.171
-442.822	-133.434	-0.175	0.022
-441.807	105.344	-0.148	0.174
-440.792	-7.873	-0.113	0.076
-439.778	31.165	-0.091	0.078
-438.763	-104.789	0.101	-0.023
-437.749	-7.754	0.044	0.029
-436.734	-139.785	-0.184	-0.019
-435.719	402.764	-0.026	-0.054
-434.705	141.518	0.026	-0.034
-433.690	400.888	0.022	0.046
-432.676	-20.800	-0.253	-0.154
-431.661	-124.331	0.281	-0.044
-430.646	-98.570	-0.282	-0.072
-429.632	-200.000	0.016	0.082
-428.617	800.000	0.059	0.224
-427.603	-200.000	0.065	0.304
-426.588	281.814	0.139	-0.248
-425.573	69.743	0.032	-0.033
-424.559	104.209	-0.022	0.026
-423.544	87.818	0.141	0.156
-422.530	42.671	0.040	0.036
-421.515	441.970	0.091	0.198
-420.500	-200.000	0.040	0.343
-419.486	261.713	0.076	0.130
-418.471	-200.000	0.003	-0.199
-417.457	303.101	0.145	-0.266
-416.442	-127.856	-0.350	-0.050
-415.428	-200.000	0.055	0.328
-414.413	-143.011	-0.340	-0.033
-413.398	-35.917	0.236	0.127
-412.384	-122.524	0.198	0.032
-411.369	-99.152	0.584	0.147
-410.355	356.823	0.115	-0.227
-409.340	11.291	0.274	-0.208
-408.325	-41.296	0.133	-0.068
-407.311	62.521	0.173	-0.171
-406.296	-77.137	0.353	0.122
-405.282	-91.227	0.112	0.032
-404.267	-139.294	0.175	-0.019
-403.252	174.013	-0.105	0.151
-402.238	104.029	-0.235	0.275
-401.223	-129.486	-0.236	0.032
-400.209	-97.629	0.325	-0.084
-399.194	-129.008	0.088	0.012
-398.179	-151.859	-0.204	0.015
-397.165	14.113	-0.171	0.132
-396.150	-90.239	0.244	0.070
-395.136	140.147	-0.230	-0.302
-394.121	800.000	-0.046	-0.146
-393.106	-96.179	-0.192	0.051
-392.092	212.603	-0.077	-0.120
-391.077	260.791	0.101	-0.173
-390.063	295.739	0.081	-0.147
-389.048	185.868	0.046	-0.068
-388.033	-200.000	0.030	-0.204
-387.019	-120.132	-0.067	0.011
-386.004	594.906	-0.071	-0.174
-384.990	-112.285	-0.089	0.018
-383.975	297.025	-0.067	-0.123
-382.960	589.415	0.066	-0.162
-381.946	-94.893	0.225	0.061
-380.931	116.368	-0.135	0.164
-379.917	124.701	-0.183	-0.228
-378.902	-163.563	-0.320	-0.015
-377.888	-144.071	-0.251	0.023
-376.873	800.000	-0.030	0.111
-375.858	1.020	0.195	0.139
-374.844	-200.000	0.034	-0.178
-373.829	-86.485	0.342	0.104
-372.815	-200.000	-0.030	0.199
-371.800	-81.005	-0.034	0.011
-370.785	2.728	-0.140	-0.101
-369.771	-200.000	0.003	0.140
-368.756	28.266	0.121	-0.102
-367.742	-164.859	0.099	-0.004
-366.727	-142.165	0.260	-0.026
-365.712	-162.741	0.021	-0.001
-364.698	332.115	0.090	0.172
-363.683	513.797	0.122	0.282
-362.669	607.979	0.123	-0.305
-361.654	-200.000	0.035	-0.187
-360.639	-159.076	-0.237	0.013
-359.625	-183.804	0.218	-0.004
-358.610	25.855	-0.115	-0.095
-357.596	427.958	0.082	-0.176
-356.581	68.319	-0.161	-0.163
-355.566	140.439	0.077	0.100
-354.552	-200.000	-0.031	0.230
-353.537	42.513	-0.162	-0.146
-352.523	-200.000	-0.024	0.316
-351.508	-94.243	-0.207	-0.056
-350.493	800.000	-0.048	-0.149
-349.479	-76.827	-0.476	0.165
-348.464	-200.000	0.002	-0.017
-347.450	172.829	0.132	-0.189
-346.435	-64.223	0.155	-0.063
-345.420	-19.883	-0.181	-0.111
-344.406	-200.000	-0.008	0.138
-343.391	800.000	0.062	0.182
-342.377	-42.909	0.350	0.176
-341.362	-19.645	0.369	0.226
-340.348	-200.000	-0.057	0.440
-339.333	-107.267	-0.155	0.034
-338.318	153.022	0.185	0.251
-337.304	-200.000	-0.008	0.374
-336.289	-149.123	-0.255	0.020
-335.275	-60.951	0.053	-0.022
-334.260	-74.424	-0.073	-0.026
-333.245	627.200	0.096	-0.239
-332.231	17.008	0.163	-0.128
-331.216	-200.000	-0.010	0.168
-330.202	-87.627	-0.307	-0.092
-329.187	-15.146	0.088	-0.056
-328.172	24.306	-0.224	-0.184
-327.158	203.079	0.144	0.220
-326.143	800.000	0.014	-0.041
-325.129	800.000	-0.103	-0.325
-324.114	-200.000	0.032	0.176
-323.099	-39.527	-0.121	-0.063
-322.085	-128.288	0.437	-0.062
-321.070	800.000	-0.059	0.213
-320.056	79.267	-0.159	0.169
-319.041	249.923	-0.070	0.118
-318.026	336.389	0.299	-0.574
-317.012	-159.289	-0.178	-0.010
-315.997	-118.922	-0.430	-0.075
-314.983	-173.959	-0.223	-0.006
-313.968	-18.959	-0.213	-0.131
-312.953	800.000	-0.052	-0.181
-311.939	-2.057	-0.161	-0.112
-310.924	800.000	0.027	0.087
-309.910	-149.341	-0.184	0.015
-308.895	406.347	-0.150	0.314
-307.880	-7.411	-0.196	-0.131
-306.866	-120.605	0.169	-0.028
-305.851	-200.000	0.005	-0.022
-304.837	-20.278	-0.325	0.198
-303.822	-72.654	0.183	-0.067
-302.807	-17.295	-0.109	-0.068
-301.793	70.390	0.081	-0.083
-300.778	-110.201	-0.281	0.058
-299.764	366.100	-0.080	-0.159
-298.749	133.207	-0.050	-0.064
-297.735	76.932	0.224	0.235
-296.720	-200.000	0.040	0.295
-295.705	-27.381	-0.132	-0.076
-294.691	-13.786	0.220	0.141
-293.676	41.586	-0.209	-0.187
-292.662	7.389	-0.081	-0.060
-291.647	-100.329	-0.080	0.020
-290.632	-149.183	-0.256	-0.020
-289.618	3.920	0.073	-0.053
-288.603	-133.704	-0.116	0.014
-287.589	-36.955	0.248	0.132
-286.574	800.000	-0.026	0.078
-285.559	-152.747	-0.213	0.015
-284.545	106.252	-0.034	-0.040
-283.530	759.867	-0.041	0.109
-282.516	298.733	0.055	0.101
-281.501	800.000	0.079	0.240
-280.486	-111.597	0.288	0.058
-279.472	-16.993	-0.158	0.099
-278.457	90.951	0.185	0.205
-277.443	-14.919	0.052	0.033
-276.428	-200.000	0.013	-0.146
-275.413	51.282	0.063	0.059
-274.399	636.317	0.140	0.352
-273.384	74.927	0.056	-0.058
-272.370	-131.843	-0.066	0.008
-271.355	-121.923	0.254	-0.041
-270.340	-44.524	0.056	0.028
-269.326	-200.000	0.021	0.123
-268.311	-115.035	-0.248	0.046
-267.297	33.384	-0.141	0.121
-266.282	800.000	0.052	0.181
-265.267	-200.000	-0.012	0.149
-264.253	800.000	0.126	0.506
-263.238	77.859	-0.235	0.247
-262.224	800.000	-0.028	-0.108
-261.209	264.625	0.150	0.258
-260.195	-200.000	-0.014	0.076
-259.180	354.425	0.066	-0.129
-258.165	-200.000	-0.046	0.371
-257.151	-58.438	-0.313	0.134
-256.136	-200.000	-0.025	0.298
-255.122	563.369	0.116	-0.276
-254.107	2.675	0.209	0.149
-253.092	103.054	0.234	0.271
-252.078	-5.061	0.243	0.165
-251.063	-2.332	-0.101	-0.070
-250.049	-132.976	0.256	0.032
-249.034	51.224	-0.084	-0.079
-248.019	-140.772	0.295	-0.030
-247.005	-35.069	0.502	0.270
-245.990	800.000	-0.114	0.469
-244.976	-200.000	-0.004	-0.199
-243.961	-200.000	-0.211	0.001
-242.946	161.139	-0.065	0.090
-241.932	740.476	0.054	-0.144
-240.917	-135.268	-0.204	0.024
-239.903	135.397	0.306	-0.393
-238.888	-69.202	-0.362	-0.138
-237.873	572.745	-0.096	0.230
-236.859	-73.925	0.154	0.055
-235.844	13.862	0.246	0.189
-234.830	583.049	0.079	0.192
-233.815	55.517	-0.099	0.094
-232.800	24.785	-0.088	-0.072
-231.786	-34.355	-0.201	0.109
-230.771	194.435	-0.104	-0.156
-229.757	345.325	0.192	0.373
-228.742	-200.000	0.018	-0.143
-227.727	-104.547	-0.335	0.076
-226.713	-200.000	-0.011	-0.311
-225.698	346.359	-0.054	0.104
-224.684	-79.001	0.265	0.089
-223.669	-200.000	-0.027	0.216
-222.655	-200.000	-0.002	-0.253
-221.640	114.360	0.173	-0.207
-220.625	-128.492	-0.011	0.002
-219.611	-64.430	-0.265	0.106
-218.596	-155.204	0.136	0.009
-217.582	-24.520	0.158	-0.093
-216.567	388.435	-0.055	-0.111
-215.552	-200.000	-0.020	-0.224
-214.538	-48.103	0.217	-0.104
-213.523	710.652	-0.040	-0.104
-212.509	42.778	-0.110	0.098
-211.494	-21.643	0.466	0.280
-210.479	-96.163	0.422	-0.110
-209.465	392.439	0.217	0.445
-208.450	800.000	-0.031	0.107
-207.436	800.000	-0.057	0.177
-206.421	-36.071	-0.245	-0.130
-205.406	40.140	0.019	-0.016
-204.392	-200.000	0.009	0.319
-203.377	30.671	-0.105	-0.089
-202.363	-53.221	0.022	0.010
-201.348	-6.735	-0.200	-0.134
-200.333	-77.575	-0.214	0.073
-199.319	-200.000	-0.031	-0.135
-198.304	179.029	-0.116	0.168
-197.290	-200.000	-0.023	0.228
-196.275	-200.000	0.037	0.180
-195.260	31.308	0.247	-0.209
-194.246	-15.400	0.324	0.204
-193.231	-200.000	0.019	0.158
-192.217	-77.336	-0.123	-0.042
-191.202	504.436	0.156	-0.355
-190.187	-91.088	0.044	0.013
-189.173	-124.074	-0.145	-0.023
-188.158	-98.345	-0.131	-0.033
-187.144	800.000	0.018	0.051
-186.129	800.000	-0.130	-0.483
-185.114	-3.473	0.341	-0.234
-184.100	-122.345	0.417	0.067
-183.085	-200.000	0.053	0.413
-182.071	-1.834	0.270	-0.187
-181.056	-41.969	0.265	0.134
-180.042	-200.000	-0.021	0.122
-179.027	4.516	0.035	-0.025
-178.012	-55.860	0.149	-0.066
-176.998	256.313	0.038	0.064
-175.983	-189.003	-0.278	-0.003
-174.969	301.824	-0.172	0.312
-173.954	-200.000	-0.002	0.088
-172.939	34.738	0.200	-0.172
-171.925	-200.000	-0.029	-0.261
-170.910	28.652	0.045	-0.037
-169.896	139.099	0.153	0.198
-168.881	210.047	0.073	-0.113
-167.866	244.189	0.051	-0.085
-166.852	-200.000	-0.049	0.314
-165.837	-78.062	0.150	-0.051
-164.823	69.307	-0.147	0.148
-163.808	-53.866	0.181	0.081
-162.793	-42.932	-0.354	0.177
-161.779	-200.000	-0.003	0.033
-160.764	-151.804	-0.277	-0.020
-159.750	-154.177	-0.083	-0.006
-158.735	-33.214	0.314	-0.171
-157.720	175.371	-0.080	-0.114
-156.706	470.167	0.112	0.248
-155.691	-49.524	0.244	0.114
-154.677	229.271	0.305	-0.490
-153.662	-200.000	0.054	-0.386
-152.647	93.153	0.061	0.068
-151.633	31.598	0.229	0.194
-150.618	316.752	-0.110	-0.204
-149.604	-200.000	-0.037	-0.426
-148.589	72.854	0.181	-0.185
-147.574	-200.000	0.023	-0.123
-146.560	153.475	-0.080	-0.108
-145.545	-200.000	0.410	-0.002
-144.531	-49.920	-0.156	-0.073
-143.516	-36.133	-0.061	-0.032
-142.502	-19.391	-0.352	0.214
-141.487	-18.514	0.173	-0.106
-140.472	-17.554	-0.275	0.170
-139.458	-121.419	0.210	-0.034
-138.443	365.464	0.013	0.026
-137.429	-164.334	0.323	-0.015
-136.414	-87.445	0.223	-0.066
-135.399	51.321	-0.116	0.108
-134.385	-24.580	-0.254	0.149
-133.370	120.904	0.106	-0.129
-132.356	21.735	0.369	0.295
-131.341	35.053	-0.125	0.107
-130.326	40.478	-0.380	0.336
-129.312	163.170	0.124	0.171
-128.297	-200.000	-0.031	0.327
-127.283	-26.144	0.115	-0.067
-126.268	-98.802	-0.066	-0.017
-125.253	-71.559	0.126	-0.046
-124.239	-200.000	0.061	0.286
-123.224	-55.068	0.278	-0.123
-122.210	42.771	-0.086	0.077
