DTS Sentinel unit serial number:	SN413079Multiplexer serial number:	ORYXHardware model number:	OX4-SRSoftware version number:	ORYX F/W v4.00 Oryx Data Collector v3.7.2.0data status	okinstallation	princeton_trtdifferential loss correction	single-endedforward channel	channel 3reverse channel	N/Adate	2019/09/10time	22:26:11forward acquisition time	60.00reverse acquisition time	0.00gamma	496.2192k internal	0.2330k external	0.2330temperature offset calibration	0.9919default loss term (dB/km)	0.3790temperature slope calibration	1.0000multiplexer offset coefficient	1.0000multiplexer slope coefficient	1.0000fibre end	0.00T internal ref (°C)	30.39T ext. ref 1 (°C)	-0.31T ext. ref 2 (°C)	23.72length (m)	temperature (°C)	Stokes	anti-Stokes-747.200	-95.459	0.462	0.125
-746.185	170.488	-0.261	0.376
-745.171	117.952	0.205	0.254
-744.156	365.764	-0.108	0.218
-743.142	136.347	-0.191	0.250
-742.127	-64.889	0.165	0.067
-741.112	-138.133	-0.171	-0.019
-740.098	-146.992	0.426	0.037
-739.083	-70.945	0.100	0.038
-738.069	-83.673	0.272	0.088
-737.054	-65.778	0.387	0.156
-736.039	-179.549	-0.270	-0.006
-735.025	-115.165	0.164	0.031
-734.010	321.037	-0.150	-0.287
-732.996	-128.831	-0.490	0.069
-731.981	-200.000	0.007	0.107
-730.966	800.000	-0.061	-0.269
-729.952	-101.587	-0.106	0.026
-728.937	-81.562	-0.182	0.060
-727.923	-77.539	-0.404	0.141
-726.908	-200.000	0.081	-0.399
-725.894	800.000	-0.036	-0.156
-724.879	265.128	-0.099	0.174
-723.864	35.170	0.253	-0.223
-722.850	800.000	-0.042	-0.167
-721.835	582.498	-0.029	-0.072
-720.821	-143.458	0.126	-0.012
-719.806	-13.838	-0.461	-0.300
-718.791	131.881	0.142	0.184
-717.777	111.655	0.120	-0.145
-716.762	71.678	0.097	0.102
-715.748	-119.675	0.279	-0.049
-714.733	36.436	0.257	0.228
-713.718	-113.538	-0.143	0.028
-712.704	38.809	-0.106	0.095
-711.689	35.764	-0.166	0.147
-710.675	-101.051	-0.047	0.012
-709.660	-106.179	-0.303	-0.068
-708.645	139.709	0.049	0.065
-707.631	-164.942	-0.281	0.013
-706.616	-53.114	0.261	0.121
-705.602	800.000	0.150	-0.458
-704.587	201.097	0.170	-0.264
-703.572	800.000	0.026	-0.107
-702.558	78.571	0.120	-0.129
-701.543	800.000	-0.140	-0.463
-700.529	-168.211	-0.199	0.008
-699.514	158.888	0.141	0.196
-698.499	271.667	0.148	-0.262
-697.485	800.000	-0.084	0.261
-696.470	-144.611	0.311	0.029
-695.456	-167.452	-0.125	-0.005
-694.441	-178.025	-0.101	0.002
-693.426	-33.077	0.092	0.052
-692.412	41.676	-0.251	0.229
-691.397	-82.228	0.114	-0.037
-690.383	-108.932	0.264	0.057
-689.368	16.535	-0.131	-0.104
-688.354	-41.740	0.256	0.132
-687.339	-200.000	0.001	0.124
-686.324	-149.230	-0.099	-0.008
-685.310	-200.000	-0.034	-0.176
-684.295	-38.416	-0.248	0.132
-683.281	-72.426	-0.107	-0.040
-682.266	-41.257	-0.214	-0.111
-681.251	-29.682	0.288	-0.165
-680.237	800.000	-0.102	-0.333
-679.222	-0.179	-0.195	-0.140
-678.208	800.000	0.106	-0.314
-677.193	140.630	0.127	-0.169
-676.178	-46.684	0.272	-0.134
-675.164	-136.651	0.176	-0.020
-674.149	-200.000	-0.001	0.010
-673.135	159.961	-0.178	0.249
-672.120	-200.000	-0.002	0.171
-671.105	634.425	0.066	0.168
-670.091	-182.130	0.458	0.009
-669.076	-15.612	-0.199	-0.127
-668.062	-125.186	0.072	0.011
-667.047	-7.904	0.272	-0.184
-666.032	-129.781	-0.110	0.015
-665.018	-200.000	-0.010	0.188
-664.003	800.000	-0.048	-0.184
-662.989	78.116	0.198	-0.212
-661.974	800.000	0.063	0.183
-660.959	-87.324	-0.222	0.068
-659.945	336.502	0.083	0.162
-658.930	198.022	-0.064	0.098
-657.916	800.000	-0.089	-0.249
-656.901	-200.000	0.024	0.186
-655.886	253.275	-0.115	0.198
-654.872	800.000	0.032	0.124
-653.857	19.108	0.129	-0.104
-652.843	-65.100	0.212	0.086
-651.828	22.730	-0.098	-0.080
-650.814	-106.198	-0.049	-0.011
-649.799	-200.000	-0.005	0.073
-648.784	-112.463	-0.141	-0.028
-647.770	-126.507	0.054	0.008
-646.755	-136.269	0.057	0.007
-645.741	-200.000	-0.016	0.314
-644.726	102.767	-0.167	0.196
-643.711	41.747	-0.178	-0.162
-642.697	618.348	-0.088	-0.221
-641.682	47.263	-0.276	-0.258
-640.668	-139.482	-0.347	-0.037
-639.653	-183.204	-0.074	-0.001
-638.638	-45.831	-0.201	-0.099
-637.624	187.831	0.061	-0.091
-636.609	-35.277	0.216	0.118
-635.595	800.000	-0.065	-0.207
-634.580	-104.802	-0.276	-0.064
-633.565	-32.714	-0.061	-0.034
-632.551	64.085	0.251	-0.253
-631.536	82.165	-0.117	-0.127
-630.522	-32.028	-0.178	0.100
-629.507	-200.000	-0.085	0.389
-628.492	-111.292	-0.305	0.062
-627.478	-33.909	0.014	-0.008
-626.463	-200.000	-0.025	-0.109
-625.449	-28.504	0.209	-0.121
-624.434	-200.000	0.051	0.353
-623.419	800.000	-0.036	0.152
-622.405	-60.315	-0.191	-0.081
-621.390	-200.000	-0.014	-0.132
-620.376	-65.033	-0.126	0.051
-619.361	-200.000	-0.055	0.262
-618.346	-153.307	0.159	-0.011
-617.332	-37.714	0.151	-0.081
-616.317	514.850	-0.056	0.130
-615.303	-68.234	-0.079	-0.031
-614.288	265.457	-0.116	0.203
-613.273	23.971	0.158	-0.130
-612.259	-39.648	0.180	0.094
-611.244	129.471	-0.129	0.165
-610.230	-114.048	-0.253	-0.049
-609.215	-111.727	0.242	0.049
-608.201	800.000	-0.037	-0.106
-607.186	233.543	-0.159	0.262
-606.171	-200.000	0.016	-0.448
-605.157	-84.449	-0.089	0.028
-604.142	447.667	0.059	0.130
-603.128	153.655	0.058	0.080
-602.113	800.000	0.058	-0.176
-601.098	-200.000	0.026	-0.138
-600.084	-5.869	0.287	0.197
-599.069	-38.223	-0.358	-0.190
-598.055	-182.481	0.178	0.003
-597.040	-101.543	0.092	-0.022
-596.025	100.543	0.220	0.255
-595.011	-84.991	0.370	0.116
-593.996	50.046	0.293	0.277
-592.982	475.210	0.036	-0.081
-591.967	235.593	-0.032	-0.053
-590.952	-55.575	-0.225	0.101
-589.938	-159.043	0.278	0.016
-588.923	-60.106	0.339	0.145
-587.909	800.000	-0.033	-0.134
-586.894	-145.278	-0.189	0.017
-585.879	-200.000	-0.057	0.363
-584.865	-200.000	0.110	0.528
-583.850	-72.891	0.164	0.060
-582.836	-107.857	0.082	-0.018
-581.821	1.536	0.073	0.053
-580.806	88.276	0.227	-0.252
-579.792	-200.000	-0.009	-0.156
-578.777	-91.809	0.294	-0.084
-577.763	-200.000	0.002	-0.104
-576.748	17.960	-0.155	-0.123
-575.733	80.444	-0.195	0.210
-574.719	-200.000	-0.027	-0.170
-573.704	267.369	0.037	-0.064
-572.690	-142.666	-0.322	0.031
-571.675	-200.000	0.036	0.325
-570.661	-34.337	0.027	0.015
-569.646	-97.158	0.300	-0.078
-568.631	-81.806	0.421	-0.138
-567.617	-85.628	0.124	0.038
-566.602	-55.160	0.375	0.169
-565.588	-58.653	-0.324	-0.140
-564.573	235.338	-0.121	-0.200
-563.558	350.812	0.032	-0.062
-562.544	-200.000	0.021	0.214
-561.529	108.188	-0.298	-0.355
-560.515	419.796	-0.191	0.410
-559.500	299.326	-0.094	-0.173
-558.485	-88.556	-0.147	0.044
-557.471	-75.894	-0.051	0.018
-556.456	2.750	-0.426	0.309
-555.442	80.912	0.162	0.175
-554.427	531.222	-0.129	-0.305
-553.412	311.819	0.027	-0.051
-552.398	104.192	0.031	-0.037
-551.383	-104.498	0.178	0.041
-550.369	117.827	0.046	-0.056
-549.354	-153.250	-0.123	-0.009
-548.339	11.283	0.215	0.165
-547.325	-127.939	-0.277	-0.040
-546.310	-84.049	-0.062	-0.020
-545.296	-66.794	-0.121	-0.048
-544.281	-200.000	0.020	-0.257
-543.266	-43.476	-0.180	-0.091
-542.252	-55.186	-0.262	0.118
-541.237	-27.563	0.300	0.174
-540.223	-133.803	-0.127	0.016
-539.208	-80.837	-0.263	0.087
-538.193	148.340	-0.021	0.029
-537.179	28.580	-0.290	0.245
-536.164	-83.655	-0.134	-0.043
-535.150	-175.093	0.278	-0.008
-534.135	194.357	0.112	0.169
-533.121	-200.000	0.064	-0.341
-532.106	-200.000	-0.001	-0.155
-531.091	-138.488	0.218	-0.024
-530.077	-67.862	0.049	0.019
-529.062	800.000	-0.099	0.299
-528.048	-44.467	0.142	-0.071
-527.033	-200.000	0.033	0.281
-526.018	-78.411	-0.304	-0.104
-525.004	800.000	0.056	0.200
-523.989	800.000	-0.015	0.054
-522.975	237.181	0.064	-0.106
-521.960	145.000	0.107	0.143
-520.945	67.534	-0.054	0.055
-519.931	-200.000	-0.002	0.024
-518.916	163.162	-0.065	0.091
-517.902	-110.467	-0.189	0.039
-516.887	728.778	0.079	0.210
-515.872	-200.000	0.009	-0.039
-514.858	-87.502	0.118	-0.036
-513.843	-91.933	-0.200	-0.057
-512.829	41.029	0.127	-0.115
-511.814	800.000	0.084	0.303
-510.799	-157.594	0.201	-0.012
-509.785	-113.293	0.240	-0.047
-508.770	96.654	-0.192	-0.219
-507.756	415.380	0.123	0.260
-506.741	362.600	0.078	-0.157
-505.726	53.345	0.060	-0.058
-504.712	183.921	-0.095	0.140
-503.697	141.211	-0.164	0.217
-502.683	800.000	0.109	0.313
-501.668	-74.435	0.257	0.092
-500.653	-33.958	-0.173	0.095
-499.639	431.508	0.114	0.245
-498.624	-200.000	-0.000	0.084
-497.610	-48.447	-0.259	-0.124
-496.595	129.576	0.181	0.231
-495.581	6.859	0.142	-0.105
-494.566	76.249	0.083	0.088
-493.551	800.000	-0.093	-0.343
-492.537	5.901	-0.203	-0.150
-491.522	-101.791	-0.381	-0.092
-490.508	-29.902	-0.174	0.099
-489.493	-67.164	-0.119	-0.047
-488.478	22.172	0.313	-0.255
-487.464	-126.317	0.179	0.027
-486.449	683.094	-0.130	0.339
-485.435	-86.555	0.184	-0.056
-484.420	-36.811	0.179	-0.096
-483.405	-25.141	0.019	-0.011
-482.391	-197.889	0.275	0.002
-481.376	-200.000	0.044	0.245
-480.362	800.000	-0.122	-0.386
-479.347	103.590	0.219	-0.256
-478.332	-200.000	-0.021	0.095
-477.318	-155.111	0.107	-0.007
-476.303	-2.068	0.069	-0.048
-475.289	-1.758	-0.186	-0.130
-474.274	-82.516	0.064	-0.021
-473.259	-69.447	-0.234	-0.089
-472.245	-82.366	-0.083	0.027
-471.230	-82.228	0.195	0.063
-470.216	-200.000	0.033	-0.167
-469.201	-134.038	0.129	-0.016
-468.186	-60.474	-0.062	-0.026
-467.172	-164.971	0.061	0.003
-466.157	75.128	0.090	-0.094
-465.143	-84.286	0.253	-0.080
-464.128	16.396	-0.217	-0.171
-463.113	261.522	-0.139	0.240
-462.099	-11.286	0.236	-0.155
-461.084	255.649	0.016	-0.027
-460.070	-200.000	0.065	-0.319
-459.055	-44.443	0.258	0.129
-458.040	-200.000	-0.018	-0.158
-457.026	-200.000	0.045	0.210
-456.011	-93.869	0.474	-0.130
-454.997	-13.154	-0.244	-0.158
-453.982	150.375	0.093	0.125
-452.968	206.914	-0.202	0.314
-451.953	-173.975	-0.507	-0.015
-450.938	-65.110	0.032	-0.013
-449.924	-70.790	0.235	0.088
-448.909	440.842	-0.089	-0.193
-447.895	582.666	0.076	-0.185
-446.880	-54.267	-0.419	-0.189
-445.865	800.000	0.050	-0.154
-444.851	463.431	0.019	-0.042
-443.836	-200.000	-0.003	0.161
-442.822	239.708	-0.015	-0.026
-441.807	-200.000	0.036	-0.318
-440.792	155.189	0.201	-0.275
-439.778	-53.355	-0.101	0.046
-438.763	4.065	-0.225	0.163
-437.749	800.000	-0.057	0.194
-436.734	800.000	-0.051	0.197
-435.719	-200.000	-0.036	-0.377
-434.705	94.472	-0.111	-0.126
-433.690	-200.000	0.034	-0.149
-432.676	-37.086	-0.090	-0.048
-431.661	-17.608	0.272	-0.170
-430.646	107.983	-0.117	-0.139
-429.632	-200.000	-0.018	0.124
-428.617	17.612	-0.226	0.179
-427.603	-152.700	-0.271	0.019
-426.588	-65.739	0.039	-0.016
-425.573	-20.191	0.302	-0.185
-424.559	-50.016	-0.178	-0.084
-423.544	24.246	0.075	0.062
-422.530	-27.631	0.195	-0.113
-421.515	92.072	-0.222	0.249
-420.500	579.827	0.092	-0.225
-419.486	611.022	0.090	-0.223
-418.471	-200.000	-0.013	-0.070
-417.457	181.131	-0.199	0.291
-416.442	800.000	-0.027	0.089
-415.428	-47.416	-0.166	-0.080
-414.413	162.453	-0.158	-0.220
-413.398	376.215	0.044	0.090
-412.384	165.307	-0.072	-0.101
-411.369	41.295	0.221	0.198
-410.355	-77.196	0.293	0.101
-409.340	99.076	0.237	0.272
-408.325	-110.805	-0.152	0.031
-407.311	-145.612	0.090	0.008
-406.296	-76.861	0.188	-0.065
-405.282	-200.000	-0.027	-0.167
-404.267	-62.258	-0.195	0.081
-403.252	-103.680	0.156	-0.036
-402.238	184.118	0.061	-0.090
-401.223	267.309	-0.063	-0.109
-400.209	18.846	-0.192	0.153
-399.194	277.473	-0.109	0.193
-398.179	-200.000	-0.005	-0.023
-397.165	-94.554	-0.103	-0.028
-396.150	-55.196	-0.219	0.098
-395.136	800.000	-0.053	0.224
-394.121	800.000	0.052	-0.155
-393.106	-43.252	-0.228	-0.114
-392.092	-89.658	0.087	-0.025
-391.077	32.848	0.189	0.162
-390.063	-78.473	0.339	0.115
-389.048	800.000	-0.035	0.137
-388.033	29.413	-0.222	-0.187
-387.019	197.833	-0.186	0.282
-386.004	-6.040	-0.227	-0.154
-384.990	528.445	0.090	-0.211
-383.975	51.746	-0.125	0.118
-382.960	-200.000	-0.071	0.333
-381.946	-79.824	-0.176	-0.059
-380.931	-113.495	-0.297	0.058
-379.917	149.436	-0.100	0.134
-378.902	29.791	-0.207	-0.175
-377.888	-200.000	0.001	0.227
-376.873	395.465	0.077	-0.159
-375.858	-200.000	0.038	0.178
-374.844	148.691	0.048	-0.064
-373.829	-134.446	0.396	0.048
-372.815	308.648	-0.342	0.633
-371.800	45.298	0.156	0.143
-370.785	215.136	0.096	0.150
-369.771	-200.000	0.008	0.228
-368.756	-88.850	0.241	0.071
-367.742	-200.000	-0.052	0.275
-366.727	115.814	-0.156	-0.189
-365.712	800.000	-0.028	-0.078
-364.698	-96.445	0.378	0.099
-363.683	-5.212	0.179	0.122
-362.669	458.987	0.069	-0.153
-361.654	800.000	-0.087	0.250
-360.639	-200.000	-0.008	0.344
-359.625	-105.662	0.373	0.084
-358.610	-200.000	-0.004	-0.117
-357.596	800.000	-0.046	0.193
-356.581	-167.527	-0.315	-0.012
-355.566	800.000	-0.025	0.098
-354.552	380.455	0.077	-0.156
-353.537	-86.438	-0.199	0.061
-352.523	55.295	0.187	0.179
-351.508	-139.850	0.007	-0.001
-350.493	800.000	-0.110	-0.313
-349.479	555.592	0.158	-0.376
-348.464	-87.396	-0.170	-0.051
-347.450	732.961	-0.044	-0.118
-346.435	-200.000	-0.006	-0.104
-345.420	-163.898	-0.094	0.004
-344.406	-50.184	-0.022	0.010
-343.391	800.000	0.114	-0.377
-342.377	42.817	-0.141	0.127
-341.362	116.413	-0.037	0.044
-340.348	313.127	-0.068	0.127
-339.333	800.000	-0.015	0.046
-338.318	696.023	-0.031	0.081
-337.304	97.460	0.155	0.177
-336.289	104.821	-0.107	0.125
-335.275	503.246	0.060	-0.137
-334.260	172.398	-0.022	-0.032
-333.245	-78.205	0.208	0.071
-332.231	-121.321	0.161	-0.027
-331.216	-200.000	0.015	-0.261
-330.202	-1.360	-0.056	0.039
-329.187	-200.000	0.014	0.251
-328.172	66.097	0.122	0.122
-327.158	800.000	-0.046	0.133
-326.143	-1.062	-0.251	-0.176
-325.129	325.331	0.083	0.156
-324.114	34.536	-0.337	0.292
-323.099	41.709	-0.102	-0.091
-322.085	-102.675	-0.258	-0.061
-321.070	482.141	-0.040	0.091
-320.056	288.678	0.064	0.114
-319.041	197.629	-0.071	0.108
-318.026	-32.580	-0.374	-0.206
-317.012	29.303	0.204	-0.172
-315.997	-177.145	-0.222	-0.005
-314.983	-200.000	-0.033	-0.184
-313.968	55.771	0.095	-0.091
-312.953	399.226	0.088	-0.182
-311.939	257.308	0.062	0.105
-310.924	46.641	0.138	0.127
-309.910	-200.000	0.017	-0.206
-308.895	-156.673	0.196	-0.012
-307.880	-89.895	0.085	-0.025
-306.866	-200.000	0.020	-0.121
-305.851	800.000	0.035	0.107
-304.837	800.000	-0.071	-0.283
-303.822	-200.000	-0.033	-0.270
-302.807	800.000	-0.173	-0.517
-301.793	-93.651	0.063	0.017
-300.778	-114.066	0.168	-0.032
-299.764	-101.064	-0.315	0.076
-298.749	800.000	0.069	-0.252
-297.735	-145.612	-0.340	0.030
-296.720	182.170	0.135	-0.197
-295.705	-158.032	0.110	-0.006
-294.691	148.820	-0.106	-0.142
-293.676	-93.961	-0.178	0.048
-292.662	-7.705	-0.149	0.100
-291.647	-113.376	-0.281	0.054
-290.632	-159.524	-0.338	0.019
-289.618	-127.483	0.280	-0.040
-288.603	46.164	-0.227	-0.208
-287.589	-71.013	0.103	0.038
-286.574	-50.899	0.250	0.116
-285.559	-21.219	-0.135	0.082
-284.545	-16.564	0.178	-0.111
-283.530	-147.790	0.194	-0.016
-282.516	-200.000	-0.017	-0.353
-281.501	-200.000	0.002	-0.027
-280.486	220.021	0.357	-0.565
-279.472	71.553	-0.144	-0.147
-278.457	39.434	0.253	-0.224
-277.443	-200.000	0.008	-0.303
-276.428	-200.000	-0.023	0.251
-275.413	72.358	-0.064	0.066
-274.399	-98.199	0.447	-0.113
-273.384	-200.000	-0.013	-0.080
-272.370	-200.000	-0.095	0.435
-271.355	-95.889	0.191	0.050
-270.340	-200.000	-0.004	-0.051
-269.326	300.646	-0.079	0.144
-268.311	182.321	0.146	0.212
-267.297	-200.000	-0.014	-0.223
-266.282	-200.000	-0.003	0.135
-265.267	-114.203	0.072	-0.014
-264.253	219.506	-0.013	0.021
-263.238	-192.615	0.227	-0.002
-262.224	58.652	0.142	0.137
-261.209	156.613	0.158	-0.215
-260.195	-200.000	0.014	-0.284
-259.180	447.480	0.082	0.179
-258.165	112.779	0.204	0.244
-257.151	47.425	0.082	0.075
-256.136	-200.000	0.111	-0.000
-255.122	-27.140	0.202	0.116
-254.107	-120.019	-0.209	0.035
-253.092	-26.577	-0.206	-0.119
-252.078	-12.383	-0.208	0.134
-251.063	-200.000	-0.004	-0.325
-250.049	-22.772	-0.274	0.163
-249.034	-0.589	0.221	-0.154
-248.019	40.043	0.206	0.183
-247.005	-31.007	0.276	-0.154
-245.990	-82.699	0.220	-0.070
-244.976	442.939	0.029	0.064
-243.961	184.056	0.081	0.119
-242.946	385.140	-0.083	-0.169
-241.932	456.600	-0.072	0.157
-240.917	2.636	-0.324	-0.232
-239.903	-119.370	-0.267	-0.046
-238.888	-49.383	0.297	0.140
-237.873	-200.000	0.009	0.071
-236.859	800.000	0.028	-0.096
-235.844	-200.000	0.039	0.218
-234.830	-59.209	0.238	0.101
-233.815	-132.591	-0.258	-0.033
-232.800	-154.612	-0.364	0.024
-231.786	251.515	-0.159	-0.267
-230.771	800.000	-0.044	0.126
-229.757	653.974	0.133	0.336
-228.742	2.042	-0.064	-0.045
-227.727	-48.045	0.225	0.107
-226.713	129.265	0.058	0.073
-225.698	-56.478	-0.201	-0.088
-224.684	-84.954	-0.175	-0.054
-223.669	361.853	0.131	0.260
-222.655	-5.642	-0.312	0.211
-221.640	131.596	0.266	-0.338
-220.625	102.679	0.199	-0.229
-219.611	-159.449	-0.491	-0.027
-218.596	-200.000	-0.010	-0.200
-217.582	-200.000	-0.006	0.377
-216.567	-132.050	0.206	-0.026
-215.552	-22.459	-0.162	-0.097
-214.538	719.022	-0.041	0.108
-213.523	-131.797	0.195	0.025
-212.509	15.132	-0.178	-0.138
-211.494	200.364	0.158	-0.240
-210.479	-200.000	-0.022	-0.152
-209.465	-161.440	-0.147	0.007
-208.450	-105.282	0.296	0.066
-207.436	-200.000	0.000	0.083
-206.421	9.342	-0.119	0.089
-205.406	-107.780	-0.390	0.084
-204.392	-200.000	-0.023	-0.533
-203.377	-200.000	-0.037	-0.200
-202.363	-182.214	0.137	0.003
-201.348	-153.967	-0.316	0.021
-200.333	-200.000	0.012	0.058
-199.319	-31.809	-0.130	-0.072
-198.304	354.632	0.085	0.167
-197.290	-3.410	-0.210	0.144
-196.275	-83.662	-0.237	-0.075
-195.260	91.362	0.202	-0.224
-194.246	-136.915	0.116	0.013
-193.231	-17.190	-0.219	-0.136
-192.217	11.187	-0.317	0.239
-191.202	-200.000	0.098	-0.429
-190.187	139.120	-0.206	-0.267
-189.173	800.000	0.022	-0.090
-188.158	-20.713	-0.182	-0.110
-187.144	153.703	-0.215	0.290
-186.129	780.643	0.050	-0.136
-185.114	-101.133	0.129	0.031
-184.100	164.513	0.202	0.280
-183.085	-23.675	0.019	-0.011
-182.071	-113.747	-0.305	-0.058
-181.056	68.998	0.334	0.338
-180.042	-55.130	0.180	0.080
-179.027	48.648	-0.169	-0.156
-178.012	-57.875	0.187	0.081
-176.998	31.124	-0.164	-0.138
-175.983	-141.840	0.138	-0.014
-174.969	800.000	-0.101	0.322
-173.954	-32.104	0.194	-0.107
-172.939	-200.000	-0.010	-0.367
-171.925	-54.455	0.185	0.083
-170.910	-129.071	0.170	-0.023
-169.896	-200.000	0.007	0.222
-168.881	-159.391	0.064	-0.004
-167.866	-62.143	0.254	0.104
-166.852	-107.378	0.126	0.027
-165.837	-73.864	0.207	0.074
-164.823	118.000	0.117	-0.142
-163.808	-200.000	0.032	0.164
-162.793	58.282	-0.059	0.057
-161.779	33.063	-0.260	0.222
-160.764	24.867	-0.089	-0.073
-159.750	-48.744	0.219	0.104
-158.735	-200.000	-0.008	-0.076
-157.720	71.466	0.187	-0.191
-156.706	122.657	0.243	-0.300
-155.691	-200.000	-0.025	-0.313
-154.677	-41.873	0.236	0.119
-153.662	26.443	0.154	0.126
-152.647	174.975	0.248	0.354
-151.633	108.939	0.125	-0.147
-150.618	-15.580	0.077	0.048
-149.604	-133.484	-0.444	0.055
-148.589	-78.907	-0.221	-0.074
-147.574	800.000	-0.045	0.128
-146.560	-108.013	0.117	-0.025
-145.545	94.106	-0.005	0.006
-144.531	28.787	-0.409	0.341
-143.516	-128.281	-0.171	-0.024
-142.502	137.573	-0.198	0.255
-141.487	37.077	-0.182	-0.158
-140.472	-65.478	0.372	0.147
-139.458	-171.582	0.101	0.003
-138.443	-3.985	-0.214	0.146
-137.429	-200.000	-0.003	0.062
-136.414	58.876	0.260	-0.251
-135.399	-179.809	0.224	-0.005
-134.385	800.000	-0.048	0.157
-133.370	-16.202	0.112	-0.070
-132.356	-40.024	0.123	0.063
-131.341	418.891	0.102	0.214
-130.326	84.776	-0.188	0.202
-129.312	-6.419	0.137	0.092
-128.297	-50.554	0.205	0.095
-127.283	386.561	-0.110	-0.222
-126.268	-37.365	0.131	-0.069
-125.253	-81.144	0.128	-0.042
-124.239	59.905	-0.298	-0.289
-123.224	56.894	0.176	0.169
-122.210	-126.705	0.075	0.011
