DTS Sentinel unit serial number:	SN413079Multiplexer serial number:	ORYXHardware model number:	OX4-SRSoftware version number:	ORYX F/W v4.00 Oryx Data Collector v3.7.2.0data status	okinstallation	princeton_trtdifferential loss correction	single-endedforward channel	channel 3reverse channel	N/Adate	2019/09/11time	19:42:11forward acquisition time	60.00reverse acquisition time	0.00gamma	496.2192k internal	0.2298k external	0.2298temperature offset calibration	1.0020default loss term (dB/km)	0.3790temperature slope calibration	1.0000multiplexer offset coefficient	1.0000multiplexer slope coefficient	1.0000fibre end	0.00T internal ref (°C)	39.73T ext. ref 1 (°C)	1.36T ext. ref 2 (°C)	32.44length (m)	temperature (°C)	Stokes	anti-Stokes-747.200	150.554	0.129	-0.179
-746.185	-200.000	0.028	0.454
-745.171	-200.000	-0.014	0.074
-744.156	-99.400	-0.347	0.089
-743.142	-136.194	-0.492	0.059
-742.127	-152.473	-0.275	0.020
-741.112	-123.069	0.290	-0.047
-740.098	242.073	0.202	0.345
-739.083	370.254	-0.022	-0.046
-738.069	150.970	0.214	0.297
-737.054	-196.294	0.097	-0.001
-736.039	-164.360	-0.241	0.011
-735.025	104.969	0.118	0.142
-734.010	-16.998	-0.173	0.112
-732.996	-141.023	-0.035	-0.004
-731.981	-109.492	0.284	-0.061
-730.966	-200.000	-0.003	0.077
-729.952	800.000	0.052	-0.172
-728.937	58.323	-0.049	0.049
-727.923	-51.498	-0.430	-0.205
-726.908	311.201	-0.127	-0.242
-725.894	-133.745	0.196	0.025
-724.879	-200.000	0.020	-0.137
-723.864	-6.310	0.311	0.217
-722.850	-25.377	0.276	0.166
-721.835	-44.648	-0.241	-0.123
-720.821	196.355	-0.080	0.124
-719.806	-12.907	0.068	-0.045
-718.791	800.000	0.029	0.102
-717.777	-81.964	0.058	0.019
-716.762	-200.000	-0.028	0.267
-715.748	-5.113	-0.019	-0.013
-714.733	190.539	-0.252	-0.386
-713.718	-73.307	-0.255	-0.095
-712.704	64.238	0.302	0.310
-711.689	-200.000	0.003	0.144
-710.675	-200.000	-0.096	-0.621
-709.660	-113.384	-0.243	-0.049
-708.645	182.304	0.057	-0.085
-707.631	800.000	0.129	-0.465
-706.616	800.000	0.080	0.312
-705.602	235.435	0.047	0.080
-704.587	279.506	0.146	-0.265
-703.572	25.097	0.301	-0.254
-702.558	106.523	-0.233	0.281
-701.543	-76.815	0.476	0.170
-700.529	-161.883	-0.197	-0.010
-699.514	-54.823	0.295	-0.136
-698.499	-200.000	-0.007	-0.158
-697.485	65.441	-0.140	-0.145
-696.470	800.000	0.018	-0.061
-695.456	39.425	0.154	0.140
-694.441	800.000	0.069	-0.224
-693.426	-45.518	0.148	0.075
-692.412	-195.949	0.214	0.002
-691.397	-200.000	-0.021	-0.222
-690.383	15.444	-0.112	-0.089
-689.368	63.527	-0.260	0.266
-688.354	521.842	-0.049	0.118
-687.339	-7.581	0.104	0.072
-686.324	800.000	0.056	0.244
-685.310	58.067	0.091	0.091
-684.295	-200.000	0.028	0.132
-683.281	39.397	-0.080	-0.073
-682.266	221.570	-0.127	-0.209
-681.251	-81.505	-0.208	-0.070
-680.237	65.264	-0.191	0.197
-679.222	350.454	-0.070	0.141
-678.208	-200.000	0.000	0.037
-677.193	8.114	-0.033	0.026
-676.178	305.137	-0.191	-0.362
-675.164	-28.507	-0.346	-0.203
-674.149	-54.848	-0.319	-0.146
-673.135	-134.502	0.295	-0.037
-672.120	126.172	-0.137	0.176
-671.105	800.000	-0.064	0.212
-670.091	-200.000	0.003	-0.155
-669.076	800.000	-0.010	-0.043
-668.062	-63.448	-0.151	0.063
-667.047	-200.000	-0.032	0.298
-666.032	-200.000	-0.042	-0.193
-665.018	-118.292	-0.160	-0.029
-664.003	800.000	0.041	0.177
-662.989	800.000	0.064	0.242
-661.974	-184.554	0.177	-0.003
-660.959	739.393	0.059	0.160
-659.945	-103.957	0.022	-0.005
-658.930	-108.351	0.125	-0.027
-657.916	224.485	-0.098	-0.161
-656.901	-200.000	0.028	-0.145
-655.886	221.900	0.103	-0.169
-654.872	207.284	0.167	0.264
-653.857	-8.367	-0.177	0.121
-652.843	800.000	-0.102	0.353
-651.828	69.841	0.370	0.388
-650.814	-56.330	0.154	0.070
-649.799	43.751	-0.122	-0.114
-648.784	-182.780	0.252	-0.005
-647.770	-200.000	0.005	-0.087
-646.755	72.525	-0.071	0.076
-645.741	133.267	-0.050	-0.065
-644.726	-200.000	0.046	-0.264
-643.711	178.162	-0.127	-0.188
-642.697	-200.000	0.001	-0.144
-641.682	450.998	0.079	0.177
-640.668	124.470	0.030	-0.039
-639.653	-21.406	0.254	-0.158
-638.638	32.739	-0.115	-0.101
-637.624	179.790	-0.150	-0.224
-636.609	800.000	0.062	0.260
-635.595	-138.340	0.274	0.031
-634.580	-91.568	-0.230	0.066
-633.565	-200.000	0.009	-0.149
-632.551	177.230	-0.043	0.064
-631.536	-76.649	-0.216	0.077
-630.522	251.698	0.124	0.215
-629.507	-116.204	-0.141	0.027
-628.492	140.976	-0.062	-0.083
-627.478	-73.024	0.071	-0.027
-626.463	219.998	-0.206	-0.336
-625.449	151.267	-0.207	-0.287
-624.434	-106.230	0.159	-0.036
-623.419	-159.330	-0.064	-0.004
-622.405	-149.977	-0.169	-0.013
-621.390	-85.495	-0.215	0.068
-620.376	-121.602	-0.300	-0.051
-619.361	61.312	-0.235	0.237
-618.346	-57.784	0.223	0.099
-617.332	-122.361	-0.221	0.037
-616.317	132.068	-0.049	-0.065
-615.303	-95.798	-0.055	-0.015
-614.288	800.000	-0.086	0.307
-613.273	-89.498	-0.381	0.114
-612.259	-194.751	-0.295	0.002
-611.244	53.280	0.068	0.066
-610.230	518.405	-0.025	0.059
-609.215	-200.000	0.032	0.219
-608.201	-67.973	0.234	0.093
-607.186	107.142	0.056	0.067
-606.171	800.000	0.043	-0.133
-605.157	-25.347	-0.216	0.130
-604.142	49.292	-0.233	0.222
-603.128	42.440	-0.066	0.061
-602.113	10.204	0.206	0.159
-601.098	87.042	-0.336	-0.377
-600.084	800.000	-0.091	-0.362
-599.069	-163.834	0.267	0.013
-598.055	60.812	0.136	-0.137
-597.040	-200.000	-0.015	-0.291
-596.025	152.756	0.163	0.225
-595.011	91.637	-0.025	0.029
-593.996	247.468	0.090	0.155
-592.982	81.670	0.187	0.205
-591.967	320.542	-0.127	0.244
-590.952	176.955	0.171	0.253
-589.938	518.893	-0.204	-0.484
-588.923	-81.379	0.071	0.024
-587.909	59.657	0.083	0.083
-586.894	332.866	-0.124	0.243
-585.879	-66.271	0.283	-0.114
-584.865	14.080	-0.107	-0.084
-583.850	357.253	-0.098	0.199
-582.836	148.325	0.017	0.023
-581.821	-200.000	0.066	-0.356
-580.806	-200.000	-0.027	0.167
-579.792	-29.537	0.146	-0.084
-578.777	186.013	0.233	0.351
-577.763	-200.000	0.004	-0.018
-576.748	-107.576	0.060	-0.013
-575.733	57.845	0.222	0.220
-574.719	-109.930	0.243	0.052
-573.704	-200.000	0.018	0.244
-572.690	800.000	-0.067	0.216
-571.675	800.000	-0.066	0.262
-570.661	53.946	-0.081	0.079
-569.646	728.591	-0.090	-0.244
-568.631	151.819	-0.217	-0.301
-567.617	100.859	0.150	-0.176
-566.602	605.633	0.090	0.228
-565.588	-200.000	-0.077	-0.562
-564.573	-40.598	-0.079	0.042
-563.558	211.355	0.110	-0.176
-562.544	-6.217	-0.143	-0.099
-561.529	-74.305	0.246	0.090
-560.515	-130.326	0.080	0.011
-559.500	680.910	0.051	0.135
-558.485	45.736	-0.274	0.257
-557.471	-85.698	0.094	-0.030
-556.456	-75.836	-0.246	0.088
-555.442	-85.788	-0.308	-0.097
-554.427	800.000	0.100	-0.338
-553.412	800.000	0.044	0.165
-552.398	185.174	-0.124	0.187
-551.383	-40.298	0.081	0.042
-550.369	-150.359	-0.083	0.006
-549.354	30.796	-0.092	-0.080
-548.339	300.011	-0.131	0.245
-547.325	-200.000	-0.030	-0.286
-546.310	256.554	0.097	-0.169
-545.296	-200.000	-0.047	-0.245
-544.281	-198.575	-0.327	-0.002
-543.266	-200.000	0.000	-0.081
-542.252	49.559	-0.073	-0.069
-541.237	800.000	-0.078	-0.246
-540.223	-8.768	-0.108	-0.073
-539.208	-200.000	0.026	-0.197
-538.193	-88.072	-0.116	0.035
-537.179	-130.982	0.092	0.012
-536.164	-200.000	-0.015	0.139
-535.150	186.086	-0.118	0.178
-534.135	83.291	0.078	-0.086
-533.121	-62.475	-0.235	0.099
-532.106	773.386	-0.010	0.026
-531.091	-200.000	-0.032	-0.311
-530.077	166.105	0.068	0.098
-529.062	8.932	0.039	0.030
-528.048	154.360	0.158	-0.219
-527.033	-200.000	0.025	-0.145
-526.018	-121.015	0.201	-0.034
-525.004	-73.264	-0.239	-0.088
-523.989	228.436	-0.088	-0.145
-522.975	-80.079	-0.046	0.016
-521.960	-72.525	-0.202	-0.076
-520.945	-56.543	0.205	-0.092
-519.931	-200.000	0.026	0.326
-518.916	70.620	0.113	0.118
-517.902	-200.000	0.003	0.156
-516.887	26.488	-0.326	-0.276
-515.872	-121.536	0.145	-0.024
-514.858	-53.221	0.212	0.098
-513.843	-200.000	-0.027	-0.210
-512.829	6.160	0.077	-0.058
-511.814	309.863	-0.124	0.235
-510.799	-120.786	-0.299	-0.051
-509.785	-54.128	0.138	-0.064
-508.770	-152.065	-0.356	-0.026
-507.756	800.000	-0.047	-0.136
-506.741	99.501	0.146	0.171
-505.726	-200.000	-0.031	0.173
-504.712	-200.000	0.013	-0.075
-503.697	444.905	-0.084	0.187
-502.683	33.698	0.231	0.203
-501.668	-200.000	0.015	-0.105
-500.653	-106.184	0.262	-0.059
-499.639	800.000	0.038	-0.131
-498.624	-5.118	-0.185	-0.128
-497.610	800.000	-0.060	-0.173
-496.595	-153.226	0.136	0.010
-495.581	-44.522	-0.293	-0.148
-494.566	-53.886	-0.069	-0.032
-493.551	206.731	-0.037	0.058
-492.537	282.667	0.119	0.217
-491.522	161.531	0.122	0.173
-490.508	800.000	0.044	0.158
-489.493	800.000	0.083	-0.281
-488.478	-72.415	-0.128	0.048
-487.464	-140.570	0.474	-0.050
-486.449	-155.742	-0.045	0.003
-485.435	14.233	-0.122	0.096
-484.420	-72.572	0.209	-0.078
-483.405	190.818	-0.124	-0.188
-482.391	800.000	-0.065	0.187
-481.376	-200.000	0.047	0.415
-480.362	313.825	-0.118	0.224
-479.347	9.457	0.174	-0.133
-478.332	-200.000	-0.026	-0.198
-477.318	54.948	0.086	-0.084
-476.303	222.555	0.032	0.052
-475.289	337.499	0.086	-0.169
-474.274	750.777	0.012	-0.033
-473.259	-200.000	0.056	-0.263
-472.245	17.322	-0.130	0.105
-471.230	453.688	-0.060	-0.135
-470.216	-47.592	0.129	0.063
-469.201	800.000	-0.007	0.031
-468.186	269.576	-0.219	0.389
-467.172	800.000	0.148	-0.412
-466.157	133.404	-0.122	-0.159
-465.143	-106.924	0.183	-0.041
-464.128	248.027	0.101	0.172
-463.113	112.542	0.122	0.149
-462.099	419.124	-0.116	0.251
-461.084	95.406	0.200	-0.230
-460.070	432.201	0.035	0.076
-459.055	29.564	-0.208	0.179
-458.040	-107.250	0.297	0.066
-457.026	295.700	-0.096	-0.178
-456.011	180.678	-0.036	-0.054
-454.997	-153.462	0.167	-0.012
-453.982	-191.901	0.275	-0.003
-452.968	-159.603	-0.086	0.005
-451.953	33.772	-0.178	-0.157
-450.938	492.717	0.057	0.131
-449.924	-106.752	-0.335	-0.075
-448.909	185.765	-0.189	0.283
-447.895	800.000	-0.071	-0.204
-446.880	313.262	0.059	-0.112
-445.865	-117.072	-0.112	-0.021
-444.851	750.764	-0.044	0.120
-443.836	45.543	0.249	0.232
-442.822	485.562	-0.123	0.282
-441.807	48.846	0.316	0.299
-440.792	-200.000	-0.046	0.213
-439.778	250.055	-0.093	0.160
-438.763	33.877	0.037	0.032
-437.749	587.588	-0.072	-0.179
-436.734	800.000	0.053	-0.152
-435.719	-180.561	-0.123	-0.003
-434.705	199.427	0.054	0.083
-433.690	-66.523	0.070	-0.028
-432.676	800.000	0.201	0.598
-431.661	176.816	-0.019	0.028
-430.646	-11.935	0.175	-0.116
-429.632	800.000	-0.041	0.165
-428.617	424.797	0.176	-0.381
-427.603	-117.747	-0.248	-0.045
-426.588	651.057	0.084	0.217
-425.573	-24.642	0.082	-0.049
-424.559	646.111	0.028	0.072
-423.544	485.963	-0.107	-0.246
-422.530	-72.508	-0.243	0.090
-421.515	-200.000	-0.039	0.198
-420.500	-200.000	-0.024	-0.184
-419.486	54.094	-0.068	0.066
-418.471	556.072	0.084	0.204
-417.457	-9.031	-0.258	0.174
-416.442	-59.117	-0.148	-0.064
-415.428	112.294	0.154	0.188
-414.413	238.928	-0.193	-0.324
-413.398	-26.159	0.025	-0.015
-412.384	9.199	0.252	0.192
-411.369	15.411	0.121	0.096
-410.355	-112.477	0.324	-0.065
-409.340	396.994	0.094	-0.198
-408.325	-200.000	0.064	0.389
-407.311	800.000	-0.048	-0.168
-406.296	-20.691	0.255	0.158
-405.282	5.616	-0.119	0.089
-404.267	-200.000	-0.070	0.349
-403.252	296.214	0.076	0.140
-402.238	-200.000	0.015	0.392
-401.223	68.807	0.041	0.043
-400.209	-200.000	-0.019	-0.298
-399.194	-184.342	0.218	-0.004
-398.179	76.556	0.109	-0.117
-397.165	274.171	0.049	-0.087
-396.150	-86.373	-0.100	0.031
-395.136	-200.000	-0.030	-0.240
-394.121	800.000	0.029	-0.087
-393.106	262.942	-0.003	0.006
-392.092	-58.180	0.266	0.117
-391.077	-200.000	0.029	-0.302
-390.063	95.332	0.161	0.185
-389.048	56.881	0.259	0.254
-388.033	-200.000	-0.013	-0.317
-387.019	800.000	0.039	0.120
-386.004	86.210	-0.116	0.129
-384.990	-30.196	-0.240	-0.137
-383.975	800.000	-0.085	-0.285
-382.960	-200.000	-0.013	-0.158
-381.946	122.646	0.087	-0.110
-380.931	-80.558	0.211	-0.071
-379.917	-199.402	0.186	-0.001
-378.902	-84.088	-0.198	-0.063
-377.888	-11.055	0.231	-0.153
-376.873	105.918	-0.318	-0.379
-375.858	-164.475	0.196	-0.009
-374.844	-103.745	0.246	-0.058
-373.829	-70.374	-0.226	0.086
-372.815	762.093	0.016	-0.044
-371.800	-200.000	0.014	-0.090
-370.785	-200.000	-0.028	0.161
-369.771	-108.548	-0.315	0.068
-368.756	-18.136	0.342	0.215
-367.742	-12.177	-0.203	0.134
-366.727	261.661	0.197	0.344
-365.712	800.000	-0.056	-0.240
-364.698	18.664	0.208	-0.168
-363.683	141.992	-0.155	-0.207
-362.669	-200.000	-0.019	-0.095
-361.654	-200.000	0.012	0.351
-360.639	36.239	0.037	0.033
-359.625	-10.308	0.038	-0.026
-358.610	90.889	0.059	-0.067
-357.596	76.533	0.295	-0.314
-356.581	-200.000	0.018	-0.197
-355.566	-96.724	0.349	-0.092
-354.552	289.724	-0.154	-0.281
-353.537	-200.000	-0.020	0.210
-352.523	22.688	0.182	-0.150
-351.508	-133.259	0.389	0.049
-350.493	-136.090	0.218	0.026
-349.479	77.160	0.149	0.159
-348.464	278.823	-0.051	0.091
-347.450	47.369	-0.147	0.138
-346.435	387.723	0.089	0.186
-345.420	-53.700	-0.111	-0.051
-344.406	271.800	-0.029	-0.051
-343.391	12.706	0.169	0.131
-342.377	-200.000	0.065	-0.337
-341.362	-137.669	-0.324	-0.037
-340.348	-155.112	0.251	-0.017
-339.333	65.884	0.163	0.167
-338.318	-57.361	-0.075	0.033
-337.304	-200.000	-0.011	-0.213
-336.289	800.000	0.045	0.172
-335.275	87.062	-0.087	-0.096
-334.260	-59.585	-0.401	0.173
-333.245	-33.919	-0.099	-0.055
-332.231	-29.029	0.069	-0.040
-331.216	709.303	-0.115	0.305
-330.202	800.000	0.119	0.385
-329.187	-200.000	-0.058	-0.257
-328.172	-15.627	-0.201	0.129
-327.158	247.320	0.159	0.269
-326.143	228.328	0.086	-0.141
-325.129	129.205	0.123	0.158
-324.114	800.000	-0.042	-0.150
-323.099	-163.506	-0.079	0.004
-322.085	611.594	0.076	0.191
-321.070	408.790	0.132	-0.280
-320.056	800.000	0.134	0.399
-319.041	-37.861	-0.089	0.047
-318.026	-95.509	0.036	0.010
-317.012	82.947	-0.127	-0.138
-315.997	41.606	-0.169	-0.154
-314.983	111.234	-0.159	0.192
-313.968	39.035	-0.206	-0.185
-312.953	-167.171	0.225	-0.009
-311.939	0.367	-0.058	0.042
-310.924	-77.027	-0.276	-0.097
-309.910	135.300	-0.045	0.058
-308.895	23.200	-0.223	-0.183
-307.880	75.378	-0.078	0.083
-306.866	21.648	0.104	0.085
-305.851	-148.817	-0.283	0.023
-304.837	96.860	-0.204	0.235
-303.822	-84.019	-0.306	-0.097
-302.807	130.672	-0.287	0.369
-301.793	61.643	-0.263	-0.263
-300.778	-200.000	-0.005	-0.216
-299.764	206.210	-0.181	-0.282
-298.749	14.953	0.278	-0.218
-297.735	207.824	-0.125	-0.196
-296.720	-151.388	-0.106	0.008
-295.705	-90.486	0.110	0.032
-294.691	279.326	-0.091	-0.163
-293.676	508.653	-0.093	0.216
-292.662	708.422	-0.112	0.296
-291.647	-139.523	0.279	-0.030
-290.632	129.422	0.157	-0.202
-289.618	-200.000	-0.001	0.270
-288.603	168.907	-0.105	0.150
-287.589	48.026	0.051	0.048
-286.574	-55.958	-0.149	0.066
-285.559	-28.208	0.169	0.098
-284.545	800.000	0.043	-0.164
-283.530	-32.339	-0.038	-0.021
-282.516	520.004	-0.109	0.256
-281.501	7.800	0.075	-0.056
-280.486	453.668	-0.133	-0.295
-279.472	800.000	-0.016	0.055
-278.457	112.943	0.091	-0.111
-277.443	-103.174	0.296	-0.070
-276.428	10.137	-0.369	-0.281
-275.413	-200.000	-0.025	-0.123
-274.399	-58.476	0.305	-0.133
-273.384	-101.060	0.505	0.124
-272.370	304.550	-0.175	0.326
-271.355	370.863	-0.117	0.238
-270.340	-78.637	-0.187	-0.064
-269.326	-53.459	0.232	0.106
-268.311	4.035	0.158	0.115
-267.297	-200.000	0.025	0.375
-266.282	-28.871	0.200	-0.115
-265.267	-93.930	-0.262	0.072
-264.253	-27.357	0.406	-0.237
-263.238	-63.454	-0.207	-0.085
-262.224	212.667	-0.121	0.191
-261.209	-153.108	0.168	0.012
-260.195	-33.256	0.152	0.084
-259.180	-30.012	-0.162	0.092
-258.165	-200.000	-0.004	-0.046
-257.151	541.330	-0.039	-0.092
-256.136	-37.685	0.233	0.125
-255.122	30.602	0.224	0.192
-254.107	-200.000	-0.043	-0.266
-253.092	-93.200	0.195	0.054
-252.078	-200.000	-0.003	-0.164
-251.063	-153.404	0.377	0.026
-250.049	-184.145	0.182	0.003
-249.034	-146.873	0.376	-0.032
-248.019	44.181	-0.178	-0.163
-247.005	361.090	-0.079	0.159
-245.990	-52.527	-0.108	-0.050
-244.976	-138.634	0.196	0.021
-243.961	291.339	0.036	-0.065
-242.946	800.000	0.035	0.145
-241.932	-79.324	-0.148	0.050
-240.917	172.992	-0.097	-0.140
-239.903	-200.000	0.005	0.061
-238.888	-33.006	0.134	-0.075
-237.873	800.000	0.079	0.307
-236.859	-200.000	-0.027	0.344
-235.844	653.132	0.031	0.081
-234.830	66.214	0.083	-0.084
-233.815	-29.349	0.234	0.134
-232.800	111.128	-0.238	-0.287
-231.786	272.287	-0.063	0.112
-230.771	-80.171	-0.130	0.043
-229.757	-200.000	-0.042	-0.347
-228.742	292.523	-0.195	-0.356
-227.727	-64.964	-0.052	0.021
-226.713	-120.105	0.335	0.057
-225.698	-101.876	-0.127	-0.031
-224.684	-0.498	-0.255	0.181
-223.669	-194.244	0.226	0.002
-222.655	800.000	0.053	0.156
-221.640	-15.570	0.192	-0.122
-220.625	-141.061	-0.256	0.026
-219.611	100.351	-0.194	-0.225
-218.596	604.837	-0.032	-0.080
-217.582	-92.598	-0.196	-0.055
-216.567	-200.000	0.060	-0.348
-215.552	-37.479	0.047	0.025
-214.538	96.251	-0.054	0.062
-213.523	-128.698	0.182	-0.026
-212.509	-55.278	0.435	-0.195
-211.494	148.936	-0.109	0.148
-210.479	800.000	-0.076	0.271
-209.465	-185.588	0.163	-0.002
-208.450	-144.760	0.151	-0.014
-207.436	157.163	-0.134	-0.185
-206.421	48.665	-0.073	0.069
-205.406	800.000	-0.133	-0.467
-204.392	-125.134	-0.386	0.059
-203.377	60.491	-0.271	0.268
-202.363	161.526	-0.077	0.108
-201.348	100.829	-0.279	-0.325
-200.333	-24.324	-0.031	-0.018
-199.319	134.994	0.038	0.049
-198.304	800.000	0.007	0.019
-197.290	46.645	-0.433	0.402
-196.275	-200.000	-0.007	0.247
-195.260	-182.988	0.113	-0.002
-194.246	-200.000	0.010	0.060
-193.231	-68.052	-0.131	0.051
-192.217	220.571	-0.145	0.232
-191.202	106.280	0.195	0.231
-190.187	-200.000	-0.044	-0.469
-189.173	361.764	0.086	0.173
-188.158	245.600	0.037	0.062
-187.144	279.309	0.075	0.133
-186.129	-200.000	0.000	-0.055
-185.114	-38.515	0.280	-0.148
-184.100	174.515	0.079	0.114
-183.085	-146.144	-0.652	0.057
-182.071	156.178	0.180	-0.248
-181.056	-151.386	0.416	0.031
-180.042	800.000	-0.141	-0.438
-179.027	-100.295	0.165	-0.041
-178.012	-127.689	0.073	0.011
-176.998	-84.409	0.360	-0.114
-175.983	-39.791	-0.201	0.105
-174.969	-175.346	-0.018	0.001
-173.954	800.000	0.046	0.171
-172.939	402.453	-0.062	0.129
-171.925	800.000	-0.019	-0.057
-170.910	-27.821	0.268	-0.155
-169.896	184.010	0.059	0.088
-168.881	-7.283	-0.079	0.054
-167.866	569.888	0.147	0.358
-166.852	179.197	-0.077	-0.113
-165.837	-200.000	-0.082	0.000
-164.823	-73.329	0.249	-0.091
-163.808	569.575	-0.068	-0.165
-162.793	-69.276	-0.033	-0.013
-161.779	-58.463	-0.081	-0.035
-160.764	-200.000	0.004	-0.144
-159.750	5.804	-0.160	-0.118
-158.735	-49.278	0.243	0.116
-157.720	84.356	-0.203	-0.222
-156.706	239.056	0.170	-0.282
-155.691	-5.824	-0.109	-0.075
-154.677	800.000	0.024	-0.085
-153.662	800.000	-0.029	-0.119
-152.647	-200.000	0.037	-0.252
-151.633	242.202	-0.116	0.194
-150.618	-49.149	-0.117	0.056
-149.604	-81.615	-0.363	-0.119
-148.589	-200.000	-0.043	-0.423
-147.574	15.259	0.167	-0.131
-146.560	-110.558	-0.289	-0.060
-145.545	-200.000	0.003	-0.291
-144.531	52.524	-0.269	-0.256
-143.516	-200.000	0.028	-0.176
-142.502	-48.184	0.091	0.044
-141.487	800.000	-0.121	0.405
-140.472	-200.000	0.037	-0.269
-139.458	-77.643	-0.196	-0.068
-138.443	76.340	0.246	0.259
-137.429	-200.000	-0.006	-0.153
-136.414	-200.000	0.020	0.097
-135.399	800.000	-0.042	0.171
-134.385	800.000	0.046	0.191
-133.370	-122.866	-0.372	-0.060
-132.356	119.763	-0.027	0.033
-131.341	800.000	-0.054	0.185
-130.326	-200.000	-0.020	0.193
-129.312	66.040	0.080	-0.081
-128.297	-196.574	0.257	-0.002
-127.283	-98.037	-0.345	0.088
-126.268	105.391	-0.186	-0.219
-125.253	-161.393	0.210	0.011
-124.239	34.290	0.073	0.063
-123.224	-88.531	-0.314	0.093
-122.210	-139.009	0.336	0.036
-121.195	-103.459	-0.205	-0.048
