DTS Sentinel unit serial number:	SN413079Multiplexer serial number:	ORYXHardware model number:	OX4-SRSoftware version number:	ORYX F/W v4.00 Oryx Data Collector v3.7.2.0data status	okinstallation	princeton_trtdifferential loss correction	single-endedforward channel	channel 3reverse channel	N/Adate	2019/09/16time	02:24:34forward acquisition time	60.00reverse acquisition time	0.00gamma	496.2192k internal	0.2335k external	0.2335temperature offset calibration	0.9949default loss term (dB/km)	0.3790temperature slope calibration	1.0000multiplexer offset coefficient	1.0000multiplexer slope coefficient	1.0000fibre end	0.00T internal ref (°C)	27.62T ext. ref 1 (°C)	10.23T ext. ref 2 (°C)	22.63length (m)	temperature (°C)	Stokes	anti-Stokes-747.200	317.978	0.100	-0.191
-746.185	132.346	0.133	0.173
-745.171	51.054	-0.043	0.041
-744.156	487.374	0.151	0.346
-743.142	-200.000	-0.004	0.039
-742.127	-70.094	0.297	0.114
-741.112	-200.000	0.000	0.026
-740.098	-9.060	-0.207	0.139
-739.083	-33.003	-0.108	0.060
-738.069	75.353	-0.148	0.157
-737.054	203.454	0.025	0.038
-736.039	434.207	-0.020	0.044
-735.025	-70.655	0.671	0.255
-734.010	29.584	-0.239	-0.204
-732.996	800.000	-0.027	-0.084
-731.981	-184.735	-0.171	0.003
-730.966	711.517	0.095	0.253
-729.952	340.974	-0.158	0.310
-728.937	-91.869	-0.183	-0.052
-727.923	-200.000	-0.014	-0.325
-726.908	-2.527	0.103	-0.073
-725.894	-126.771	-0.268	-0.040
-724.879	696.958	0.028	-0.075
-723.864	-55.472	-0.098	0.044
-722.850	-85.818	-0.433	0.135
-721.835	-24.638	0.171	0.102
-720.821	83.069	0.205	-0.224
-719.806	800.000	-0.030	0.106
-718.791	276.871	0.089	0.160
-717.777	-128.829	0.030	-0.004
-716.762	800.000	-0.047	-0.185
-715.748	182.840	0.078	-0.116
-714.733	245.493	-0.105	-0.177
-713.718	-118.681	-0.142	0.025
-712.704	-168.351	0.247	-0.010
-711.689	11.796	0.167	-0.128
-710.675	404.081	0.103	0.219
-709.660	-200.000	0.018	-0.098
-708.645	-85.891	-0.190	-0.059
-707.631	-126.187	-0.406	0.061
-706.616	45.705	-0.224	0.207
-705.602	-53.211	0.220	0.101
-704.587	-163.159	-0.146	0.007
-703.572	170.197	-0.071	0.103
-702.558	421.542	0.180	0.387
-701.543	800.000	0.026	0.100
-700.529	-200.000	-0.030	0.208
-699.514	-182.535	-0.157	-0.003
-698.499	70.159	-0.129	-0.134
-697.485	-200.000	-0.013	0.148
-696.470	-38.306	0.284	0.151
-695.456	-45.740	-0.378	0.187
-694.441	-86.482	-0.197	-0.061
-693.426	-200.000	0.031	-0.281
-692.412	-200.000	-0.035	-0.244
-691.397	-129.648	0.153	-0.021
-690.383	-113.223	-0.067	0.013
-689.368	-19.488	-0.125	-0.078
-688.354	-200.000	-0.014	-0.157
-687.339	704.060	-0.050	-0.133
-686.324	-46.716	-0.241	-0.119
-685.310	-200.000	0.025	0.483
-684.295	-123.864	0.224	0.035
-683.281	-141.580	-0.148	0.015
-682.266	-77.105	0.227	-0.079
-681.251	178.008	0.192	-0.280
-680.237	614.452	-0.029	0.073
-679.222	285.952	-0.167	-0.302
-678.208	11.987	0.137	-0.105
-677.193	-0.734	0.082	0.058
-676.178	74.476	0.133	0.140
-675.164	678.089	0.059	0.153
-674.149	-172.007	0.093	-0.003
-673.135	-5.438	-0.169	-0.116
-672.120	800.000	-0.100	0.290
-671.105	792.436	-0.078	0.216
-670.091	-77.738	-0.184	-0.064
-669.076	-139.795	-0.295	0.031
-668.062	-34.067	-0.184	0.101
-667.047	1.323	0.170	-0.122
-666.032	159.233	0.139	-0.193
-665.018	-200.000	-0.053	0.413
-664.003	241.611	-0.144	0.240
-662.989	-41.109	-0.246	-0.127
-661.974	601.901	-0.112	-0.280
-660.959	-92.384	-0.273	-0.077
-659.945	-200.000	-0.010	0.043
-658.930	6.512	0.102	-0.076
-657.916	-59.835	-0.314	-0.135
-656.901	430.172	-0.176	-0.381
-655.886	-87.957	-0.369	-0.111
-654.872	125.950	-0.172	-0.217
-653.857	-29.352	-0.147	0.084
-652.843	800.000	-0.081	0.240
-651.828	-170.934	-0.145	-0.005
-650.814	-64.085	-0.153	-0.062
-649.799	-171.767	-0.084	0.003
-648.784	543.159	-0.048	0.116
-647.770	-110.300	-0.123	-0.026
-646.755	167.024	0.150	0.213
-645.741	-200.000	0.004	-0.062
-644.726	-91.032	0.180	0.052
-643.711	-137.585	-0.396	-0.045
-642.697	-200.000	0.016	0.111
-641.682	-150.723	0.141	-0.011
-640.668	800.000	0.117	-0.333
-639.653	-8.544	0.030	0.020
-638.638	48.776	-0.129	-0.121
-637.624	189.798	-0.263	-0.394
-636.609	-200.000	-0.025	-0.186
-635.595	800.000	-0.050	-0.188
-634.580	275.080	0.184	0.327
-633.565	109.705	-0.179	-0.215
-632.551	4.405	0.072	-0.053
-631.536	65.357	0.072	0.073
-630.522	-47.565	-0.167	-0.081
-629.507	-170.963	0.301	-0.010
-628.492	-102.967	0.131	-0.031
-627.478	-200.000	-0.049	-0.286
-626.463	193.347	0.089	-0.134
-625.449	87.741	-0.175	0.194
-624.434	-161.729	0.226	0.012
-623.419	-183.484	-0.166	-0.003
-622.405	104.281	-0.075	0.089
-621.390	-46.934	0.055	0.027
-620.376	-62.571	0.218	0.090
-619.361	-134.180	0.163	-0.020
-618.346	-90.263	-0.132	-0.038
-617.332	307.535	0.097	-0.182
-616.317	-81.373	-0.444	-0.146
-615.303	-63.358	-0.156	-0.064
-614.288	609.783	-0.085	-0.213
-613.273	288.054	0.153	0.277
-612.259	-127.575	-0.217	-0.032
-611.244	-200.000	-0.013	0.126
-610.230	296.987	-0.064	0.117
-609.215	-200.000	-0.145	-0.000
-608.201	-141.257	0.154	-0.016
-607.186	693.291	-0.195	0.512
-606.171	38.812	0.035	0.032
-605.157	11.390	0.150	-0.115
-604.142	-115.068	0.297	-0.056
-603.128	-141.949	0.182	-0.018
-602.113	800.000	0.114	-0.351
-601.098	-29.659	0.245	-0.140
-600.084	-94.790	0.289	0.078
-599.069	-86.264	0.133	-0.041
-598.055	-11.193	0.086	-0.057
-597.040	-171.298	-0.178	-0.006
-596.025	-7.254	-0.183	0.124
-595.011	800.000	0.096	0.366
-593.996	10.827	0.156	-0.119
-592.982	-9.283	0.022	0.015
-591.967	250.845	-0.131	-0.222
-590.952	25.340	0.155	-0.129
-589.938	-34.498	0.215	0.118
-588.923	518.498	-0.057	-0.134
-587.909	-153.637	0.309	-0.021
-586.894	-137.173	0.257	-0.029
-585.879	-41.972	-0.232	-0.119
-584.865	68.849	0.155	-0.159
-583.850	-68.745	-0.164	0.063
-582.836	-56.342	0.105	0.046
-581.821	-134.980	-0.143	0.017
-580.806	-37.125	0.040	0.021
-579.792	374.302	0.009	-0.019
-578.777	-200.000	0.008	0.090
-577.763	800.000	0.040	-0.172
-576.748	-140.371	0.016	-0.002
-575.733	-86.172	-0.107	0.033
-574.719	196.697	-0.181	0.275
-573.704	-200.000	0.011	-0.082
-572.690	-37.337	-0.077	-0.041
-571.675	24.371	-0.300	-0.247
-570.661	-200.000	-0.009	-0.191
-569.646	-0.799	-0.246	0.174
-568.631	-74.706	0.183	-0.066
-567.617	-74.672	-0.365	-0.131
-566.602	10.174	0.022	0.017
-565.588	430.219	-0.081	0.175
-564.573	55.197	0.027	-0.026
-563.558	5.905	0.059	0.044
-562.544	-200.000	-0.043	0.233
-561.529	800.000	-0.102	-0.296
-560.515	800.000	-0.073	-0.210
-559.500	-42.420	0.343	0.175
-558.485	-27.723	-0.109	0.063
-557.471	-200.000	-0.006	0.071
-556.456	192.329	0.090	-0.136
-555.442	709.466	0.106	-0.280
-554.427	38.456	-0.052	-0.046
-553.412	-75.054	-0.462	0.165
-552.398	89.524	0.363	-0.404
-551.383	78.826	0.177	-0.189
-550.369	-138.015	-0.335	0.037
-549.354	-25.401	0.365	-0.215
-548.339	-200.000	-0.003	-0.126
-547.325	-108.298	0.224	-0.048
-546.310	288.035	0.145	0.261
-545.296	-200.000	0.267	-0.001
-544.281	-11.223	0.024	-0.015
-543.266	-135.582	-0.056	-0.007
-542.252	328.178	0.193	0.369
-541.237	800.000	-0.047	-0.194
-540.223	-34.387	0.144	0.079
-539.208	-200.000	0.019	-0.090
-538.193	259.279	0.072	-0.123
-537.179	291.711	-0.106	-0.192
-536.164	152.585	-0.104	0.142
-535.150	-200.000	0.015	-0.201
-534.135	-200.000	0.007	-0.261
-533.121	-127.427	-0.172	0.025
-532.106	-69.751	0.043	-0.016
-531.091	-200.000	0.287	0.000
-530.077	800.000	-0.098	-0.340
-529.062	-200.000	-0.012	0.240
-528.048	-175.937	-0.248	-0.007
-527.033	-200.000	0.028	-0.194
-526.018	800.000	0.060	-0.218
-525.004	-111.174	0.185	0.038
-523.989	-41.199	-0.162	-0.083
-522.975	-10.381	-0.318	0.210
-521.960	-100.102	-0.341	0.085
-520.945	-159.152	0.247	-0.014
-519.931	189.484	-0.133	0.199
-518.916	-200.000	-0.001	0.232
-517.902	243.488	0.140	-0.234
-516.887	48.523	0.141	-0.132
-515.872	-116.090	0.081	0.015
-514.858	24.002	0.032	-0.026
-513.843	25.459	-0.077	-0.064
-512.829	83.698	-0.233	-0.254
-511.814	800.000	0.021	0.080
-510.799	-200.000	0.016	0.153
-509.785	139.351	0.037	0.048
-508.770	-200.000	0.004	-0.191
-507.756	-86.240	0.206	0.063
-506.741	-200.000	0.030	0.281
-505.726	255.071	-0.063	-0.108
-504.712	-150.170	-0.291	-0.022
-503.697	106.417	0.201	-0.237
-502.683	-52.057	0.051	0.024
-501.668	-59.763	0.072	0.031
-500.653	-200.000	0.015	-0.218
-499.639	-97.363	-0.344	0.089
-498.624	-200.000	0.014	0.254
-497.610	558.606	-0.109	0.263
-496.595	10.426	-0.266	-0.202
-495.581	-64.837	0.227	0.091
-494.566	-7.021	-0.257	-0.173
-493.551	-200.000	0.031	-0.276
-492.537	-200.000	0.012	0.105
-491.522	-200.000	0.004	0.099
-490.508	54.978	-0.153	-0.147
-489.493	-200.000	0.035	-0.240
-488.478	-200.000	-0.021	-0.244
-487.464	800.000	0.043	-0.169
-486.449	800.000	0.014	-0.055
-485.435	-54.477	-0.312	-0.140
-484.420	537.560	0.140	-0.332
-483.405	-137.918	-0.259	-0.029
-482.391	146.136	-0.108	0.144
-481.376	25.359	-0.033	-0.027
-480.362	-91.310	0.256	0.073
-479.347	222.529	-0.131	0.209
-478.332	-200.000	-0.018	-0.372
-477.318	460.916	0.070	0.155
-476.303	55.060	0.380	0.365
-475.289	-200.000	0.048	0.410
-474.274	-200.000	0.017	0.162
-473.259	452.297	-0.148	0.324
-472.245	445.462	0.142	0.310
-471.230	-21.088	0.026	-0.016
-470.216	800.000	-0.040	-0.142
-469.201	-200.000	0.002	0.228
-468.186	55.155	0.169	0.162
-467.172	-200.000	-0.016	0.160
-466.157	150.534	0.156	0.211
-465.143	290.959	-0.107	0.194
-464.128	224.723	0.098	-0.158
-463.113	-200.000	-0.021	-0.314
-462.099	18.400	0.077	0.061
-461.084	366.104	-0.039	-0.078
-460.070	144.137	0.095	-0.126
-459.055	95.062	0.137	-0.155
-458.040	-71.963	-0.157	0.058
-457.026	-78.222	0.410	0.140
-456.011	499.098	-0.106	-0.242
-454.997	800.000	0.037	0.147
-453.982	-115.796	-0.159	-0.030
-452.968	-50.390	-0.163	-0.076
-451.953	91.700	0.076	-0.085
-450.938	-183.528	-0.127	0.002
-449.924	321.245	-0.076	0.144
-448.909	-111.279	-0.367	-0.074
-447.895	127.291	0.197	-0.248
-446.880	-135.627	-0.454	0.053
-445.865	-138.641	0.242	-0.026
-444.851	6.208	-0.164	-0.121
-443.836	0.792	0.202	-0.144
-442.822	-200.000	-0.042	-0.188
-441.807	6.810	-0.173	-0.128
-440.792	115.501	-0.198	0.240
-439.778	276.006	-0.133	-0.235
-438.763	-56.481	-0.140	-0.062
-437.749	800.000	0.008	0.031
-436.734	25.538	0.126	-0.104
-435.719	0.361	0.200	-0.142
-434.705	-58.080	0.184	0.080
-433.690	370.804	0.014	0.028
-432.676	637.595	-0.058	-0.147
-431.661	1.539	0.070	0.050
-430.646	88.243	-0.035	-0.039
-429.632	-200.000	-0.004	-0.349
-428.617	-10.197	0.074	0.049
-427.603	464.603	0.006	-0.014
-426.588	-116.694	-0.222	0.040
-425.573	421.902	0.047	0.100
-424.559	-200.000	0.028	-0.198
-423.544	-200.000	-0.040	-0.220
-422.530	-88.983	0.229	-0.067
-421.515	-200.000	0.037	0.163
-420.500	-200.000	-0.004	0.274
-419.486	105.065	0.131	-0.154
-418.471	-46.672	0.292	-0.142
-417.457	43.773	-0.168	0.153
-416.442	-131.326	-0.090	0.012
-415.428	346.324	-0.076	-0.149
-414.413	-200.000	-0.068	-0.309
-413.398	-200.000	0.036	0.285
-412.384	-52.001	0.151	0.070
-411.369	78.122	-0.147	0.156
-410.355	60.937	0.215	0.212
-409.340	210.347	-0.164	0.256
-408.325	487.236	0.016	0.036
-407.311	-113.095	-0.110	0.021
-406.296	-174.721	-0.167	0.005
-405.282	-13.551	-0.288	0.185
-404.267	36.625	-0.233	0.204
-403.252	-174.975	-0.228	0.006
-402.238	-200.000	0.027	-0.116
-401.223	-104.552	0.272	0.062
-400.209	-59.096	0.404	-0.173
-399.194	-89.936	-0.255	0.074
-398.179	162.480	0.113	0.157
-397.165	-200.000	0.072	0.427
-396.150	280.584	-0.069	0.122
-395.136	-162.008	-0.141	-0.007
-394.121	109.835	-0.168	0.200
-393.106	351.384	0.171	0.336
-392.092	-73.466	-0.411	0.149
-391.077	14.941	0.144	0.112
-390.063	29.356	-0.336	0.283
-389.048	-200.000	-0.017	0.299
-388.033	150.004	0.124	-0.167
-387.019	633.391	-0.018	-0.045
-386.004	-146.480	0.184	-0.016
-384.990	3.587	-0.176	-0.127
-383.975	-85.149	-0.559	-0.173
-382.960	222.048	-0.135	0.215
-381.946	65.417	0.274	-0.275
-380.931	295.043	0.060	-0.109
-379.917	-200.000	-0.020	0.376
-378.902	-68.271	0.111	0.043
-377.888	-66.416	-0.338	-0.133
-376.873	7.478	0.068	0.050
-375.858	51.337	-0.114	-0.107
-374.844	-200.000	0.092	-0.508
-373.829	-122.946	-0.083	-0.013
-372.815	-55.125	0.171	0.076
-371.800	278.566	-0.063	-0.112
-370.785	-148.408	0.268	0.022
-369.771	-75.763	0.257	0.090
-368.756	-107.148	0.079	-0.017
-367.742	-200.000	-0.053	0.231
-366.727	-200.000	0.014	0.195
-365.712	-82.152	-0.336	0.108
-364.698	-200.000	0.013	0.097
-363.683	800.000	0.049	-0.190
-362.669	24.318	-0.116	0.095
-361.654	-7.000	-0.183	0.123
-360.639	-96.430	-0.120	-0.032
-359.625	132.979	0.270	0.345
-358.610	9.417	-0.108	-0.081
-357.596	28.896	0.282	-0.237
-356.581	25.702	-0.338	-0.278
-355.566	-137.400	0.236	-0.026
-354.552	249.227	0.126	0.212
-353.537	800.000	0.042	0.146
-352.523	224.342	0.355	0.569
-351.508	245.488	0.087	0.145
-350.493	119.513	-0.174	-0.213
-349.479	-57.169	-0.290	0.126
-348.464	-51.310	-0.162	-0.075
-347.450	505.652	0.173	-0.397
-346.435	709.773	-0.067	-0.176
-345.420	-200.000	0.005	-0.106
-344.406	-102.031	-0.176	0.042
-343.391	-131.715	0.161	0.021
-342.377	16.954	0.288	-0.225
-341.362	-105.908	0.135	-0.030
-340.348	-48.497	0.143	-0.068
-339.333	486.597	0.101	0.227
-338.318	-200.000	-0.064	0.297
-337.304	800.000	0.035	-0.101
-336.289	-52.382	-0.198	0.091
-335.275	-200.000	0.022	0.201
-334.260	-6.469	-0.132	-0.089
-333.245	-49.368	0.090	-0.042
-332.231	80.432	-0.008	-0.009
-331.216	-200.000	-0.015	-0.292
-330.202	88.617	0.246	0.271
-329.187	-17.980	0.274	-0.170
-328.172	26.085	0.052	0.043
-327.158	345.159	-0.192	0.372
-326.143	692.649	-0.123	-0.318
-325.129	800.000	0.002	-0.006
-324.114	-88.069	0.244	-0.072
-323.099	-10.566	0.128	0.084
-322.085	-75.807	-0.255	0.089
-321.070	204.535	-0.079	0.121
-320.056	332.791	-0.097	-0.185
-319.041	-20.996	0.353	-0.214
-318.026	-200.000	0.005	-0.104
-317.012	-43.395	-0.210	-0.105
-315.997	157.798	-0.115	-0.158
-314.983	657.040	-0.108	-0.274
-313.968	-200.000	-0.039	-0.344
-312.953	-198.072	-0.246	0.001
-311.939	611.349	-0.053	-0.131
-310.924	112.116	0.171	0.204
-309.910	49.629	-0.248	0.231
-308.895	139.127	0.048	-0.062
-307.880	-88.613	0.143	0.042
-306.866	-200.000	-0.059	0.318
-305.851	800.000	-0.086	0.363
-304.837	129.000	0.156	-0.197
-303.822	-200.000	0.042	-0.305
-302.807	-178.393	0.230	0.005
-301.793	384.340	0.017	-0.035
-300.778	-200.000	-0.010	0.206
-299.764	215.207	0.097	-0.153
-298.749	-38.236	-0.096	0.050
-297.735	-68.507	-0.235	-0.090
-296.720	152.526	-0.221	0.299
-295.705	28.013	0.112	-0.094
-294.691	-94.012	-0.092	0.025
-293.676	325.155	0.109	0.206
-292.662	50.315	-0.216	0.201
-291.647	-109.029	0.177	0.037
-290.632	1.258	-0.209	-0.148
-289.618	-178.203	-0.246	0.006
-288.603	-200.000	0.284	-0.001
-287.589	-200.000	-0.014	-0.168
-286.574	-200.000	-0.057	0.000
-285.559	-200.000	-0.012	0.325
-284.545	-32.532	-0.257	0.141
-283.530	198.702	-0.081	0.122
-282.516	37.047	0.134	0.117
-281.501	492.756	0.202	0.456
-280.486	47.279	0.187	0.172
-279.472	-56.488	0.398	0.174
-278.457	-200.000	0.021	0.116
-277.443	-200.000	-0.014	-0.380
-276.428	242.589	-0.079	-0.131
-275.413	-200.000	0.084	0.367
-274.399	437.921	-0.108	0.233
-273.384	-101.712	0.239	0.057
-272.370	-158.677	0.122	0.007
-271.355	159.119	-0.110	-0.151
-270.340	800.000	0.018	0.068
-269.326	-165.411	-0.341	-0.015
-268.311	71.972	0.241	-0.247
-267.297	-200.000	0.026	-0.152
-266.282	-161.305	-0.376	0.019
-265.267	-200.000	0.015	-0.068
-264.253	-105.726	-0.272	-0.061
-263.238	-10.899	0.181	-0.118
-262.224	-200.000	-0.028	0.128
-261.209	-14.377	0.092	-0.058
-260.195	-74.084	0.241	-0.086
-259.180	140.296	0.179	0.232
-258.165	-8.369	0.133	0.088
-257.151	-200.000	-0.015	-0.153
-256.136	-44.579	-0.080	0.040
-255.122	190.226	-0.163	0.241
-254.107	165.021	-0.031	-0.044
-253.092	-159.022	0.415	-0.023
-252.078	-200.000	0.009	0.128
-251.063	-200.000	-0.011	-0.336
-250.049	800.000	-0.081	0.260
-249.034	-173.497	-0.073	0.002
-248.019	-106.086	0.553	-0.123
-247.005	-94.782	-0.418	-0.112
-245.990	-200.000	-0.000	-0.092
-244.976	198.269	0.091	0.137
-243.961	-200.000	0.050	0.319
-242.946	90.299	-0.098	0.108
-241.932	800.000	-0.090	-0.305
-240.917	-3.619	0.141	-0.096
-239.903	-27.962	-0.318	-0.182
-238.888	583.725	0.135	0.325
-237.873	5.149	-0.020	0.014
-236.859	-13.384	0.200	-0.128
-235.844	170.661	-0.229	0.324
-234.830	6.625	0.477	0.349
-233.815	-75.676	0.202	-0.071
-232.800	-96.644	-0.248	0.064
-231.786	800.000	0.121	-0.431
-230.771	-154.043	0.187	-0.013
-229.757	800.000	0.064	-0.179
-228.742	58.371	0.147	-0.142
-227.727	252.119	-0.090	0.152
-226.713	800.000	-0.029	0.086
-225.698	800.000	0.030	-0.128
-224.684	800.000	-0.040	-0.115
-223.669	-86.816	0.140	-0.042
-222.655	-200.000	-0.009	0.167
-221.640	654.895	-0.053	0.133
-220.625	-177.287	-0.222	-0.005
-219.611	-23.201	0.255	0.151
-218.596	190.313	0.105	0.155
-217.582	-200.000	0.033	-0.264
-216.567	84.513	-0.103	-0.111
-215.552	-130.034	0.563	0.076
-214.538	-75.667	-0.299	0.104
-213.523	-200.000	-0.049	-0.221
-212.509	-200.000	-0.097	0.459
-211.494	-54.513	-0.111	-0.050
-210.479	-200.000	0.092	-0.497
-209.465	255.838	-0.151	-0.256
-208.450	147.317	0.114	0.151
-207.436	82.949	-0.225	0.241
-206.421	-88.540	-0.262	-0.077
-205.406	157.841	-0.177	0.242
-204.392	718.545	-0.075	-0.196
-203.377	-200.000	-0.024	0.306
-202.363	223.178	-0.101	-0.160
-201.348	-200.000	-0.004	-0.249
-200.333	183.690	-0.171	-0.249
-199.319	-200.000	0.047	-0.277
-198.304	4.949	0.255	0.185
-197.290	-29.253	0.365	0.206
-196.275	-183.590	0.083	-0.001
-195.260	-58.014	0.062	-0.027
-194.246	-200.000	0.066	-0.373
-193.231	45.168	0.142	-0.129
-192.217	47.235	-0.140	-0.128
-191.202	-200.000	-0.010	-0.114
-190.187	-22.631	-0.230	-0.137
-189.173	38.512	0.362	0.317
-188.158	50.121	0.043	0.040
-187.144	-200.000	0.012	-0.088
-186.129	-90.805	-0.289	0.082
-185.114	146.253	0.079	0.105
-184.100	-116.518	-0.125	-0.023
-183.085	-200.000	0.034	0.268
-182.071	-196.659	-0.284	0.002
-181.056	186.557	0.261	-0.382
-180.042	-200.000	-0.002	0.389
-179.027	267.088	0.120	-0.207
-178.012	-200.000	-0.024	-0.128
-176.998	43.642	0.149	0.134
-175.983	19.746	-0.251	-0.199
-174.969	672.334	0.026	-0.066
-173.954	12.724	0.084	-0.063
-172.939	-162.481	-0.240	0.012
-171.925	-138.061	0.166	0.018
-170.910	-117.271	-0.214	-0.038
-169.896	197.827	0.241	0.362
-168.881	-130.192	-0.138	-0.018
-167.866	28.221	0.307	0.255
-166.852	243.488	0.031	-0.051
-165.837	800.000	-0.080	0.331
-164.823	188.890	-0.020	-0.029
-163.808	800.000	0.048	0.158
-162.793	-161.244	-0.228	-0.012
-161.779	-152.009	-0.198	-0.014
-160.764	-77.986	0.268	0.091
-159.750	-115.572	-0.234	-0.043
-158.735	569.498	-0.121	-0.288
-157.720	510.168	-0.032	0.073
-156.706	800.000	0.054	-0.224
-155.691	62.115	-0.282	0.276
-154.677	-69.441	0.155	0.058
-153.662	742.726	-0.079	0.207
-152.647	28.469	-0.048	0.040
-151.633	800.000	0.147	0.400
-150.618	126.715	0.133	-0.165
-149.604	-187.341	0.208	0.003
-148.589	-98.054	0.181	0.046
-147.574	-4.294	-0.083	0.056
-146.560	354.960	-0.133	-0.260
-145.545	-140.910	0.124	0.013
-144.531	-2.179	0.027	-0.019
-143.516	-122.436	0.241	-0.038
-142.502	147.993	0.114	-0.151
-141.487	-85.159	-0.177	0.054
-140.472	240.549	-0.033	0.054
-139.458	-200.000	0.050	-0.301
-138.443	499.100	0.073	0.164
-137.429	121.839	0.276	0.338
-136.414	74.870	-0.243	0.251
-135.399	79.415	0.143	0.150
-134.385	-41.050	0.129	-0.065
-133.370	-86.675	-0.359	0.108
-132.356	200.392	-0.126	0.191
-131.341	-125.056	-0.084	-0.013
-130.326	-87.742	0.189	0.056
-129.312	-144.156	0.135	-0.012
-128.297	-59.645	0.094	-0.039
-127.283	0.475	0.348	0.244
-126.268	-38.644	0.239	-0.124
-125.253	-85.271	-0.231	0.071
-124.239	-45.572	0.044	0.021
-123.224	29.049	0.060	0.050
-122.210	-78.018	0.089	0.030
-121.195	-101.072	0.270	-0.065
