DTS Sentinel unit serial number:	SN413079Multiplexer serial number:	ORYXHardware model number:	OX4-SRSoftware version number:	ORYX F/W v4.00 Oryx Data Collector v3.7.2.0data status	okinstallation	princeton_trtdifferential loss correction	single-endedforward channel	channel 3reverse channel	N/Adate	2019/09/13time	09:56:35forward acquisition time	60.00reverse acquisition time	0.00gamma	496.2192k internal	0.2324k external	0.2324temperature offset calibration	1.0139default loss term (dB/km)	0.3790temperature slope calibration	1.0000multiplexer offset coefficient	1.0000multiplexer slope coefficient	1.0000fibre end	0.00T internal ref (°C)	30.12T ext. ref 1 (°C)	4.48T ext. ref 2 (°C)	27.09length (m)	temperature (°C)	Stokes	anti-Stokes-747.200	30.577	0.113	-0.098
-746.185	-126.948	0.104	0.015
-745.171	-88.006	0.108	-0.033
-744.156	499.240	-0.084	0.195
-743.142	-61.097	0.095	0.040
-742.127	86.030	-0.098	0.109
-741.112	800.000	0.060	-0.214
-740.098	-136.854	-0.241	-0.028
-739.083	-38.334	0.228	-0.122
-738.069	84.361	-0.129	0.143
-737.054	800.000	0.051	0.159
-736.039	-147.837	-0.252	0.021
-735.025	-141.547	0.078	0.008
-734.010	20.060	-0.090	-0.073
-732.996	161.977	0.037	0.053
-731.981	135.687	-0.212	-0.279
-730.966	67.457	0.267	-0.275
-729.952	-180.015	-0.350	-0.008
-728.937	-165.389	-0.292	-0.013
-727.923	25.452	-0.124	-0.104
-726.908	-94.917	0.057	-0.015
-725.894	14.839	-0.207	-0.163
-724.879	-117.569	0.227	-0.041
-723.864	800.000	-0.106	-0.381
-722.850	278.987	0.087	0.157
-721.835	-66.638	-0.428	0.171
-720.821	619.881	0.119	-0.301
-719.806	-149.374	0.219	-0.018
-718.791	-200.000	-0.008	-0.160
-717.777	-73.265	-0.144	-0.053
-716.762	-168.621	-0.127	0.005
-715.748	22.261	-0.203	-0.167
-714.733	-71.838	0.197	-0.074
-713.718	800.000	-0.098	-0.428
-712.704	-160.870	-0.137	-0.007
-711.689	-161.397	0.109	0.006
-710.675	-133.982	-0.171	0.021
-709.660	-200.000	0.046	-0.210
-708.645	223.691	0.189	-0.308
-707.631	537.827	-0.061	-0.145
-706.616	88.122	0.215	0.240
-705.602	-57.568	-0.334	-0.148
-704.587	36.555	-0.137	-0.122
-703.572	-84.210	-0.152	0.049
-702.558	241.943	-0.221	0.373
-701.543	343.065	0.031	0.062
-700.529	-200.000	0.036	-0.164
-699.514	53.364	-0.123	-0.119
-698.499	-9.758	-0.200	-0.134
-697.485	-64.245	0.187	-0.077
-696.470	560.032	0.081	0.197
-695.456	-112.559	-0.169	0.034
-694.441	243.509	0.068	-0.114
-693.426	800.000	0.028	-0.122
-692.412	159.267	0.137	-0.192
-691.397	-108.705	-0.205	-0.044
-690.383	102.236	0.080	0.094
-689.368	64.423	-0.225	0.229
-688.354	97.773	0.113	-0.131
-687.339	800.000	0.042	0.164
-686.324	-136.903	-0.337	0.039
-685.310	-176.044	0.230	0.006
-684.295	-43.038	0.152	-0.078
-683.281	-160.939	0.217	-0.012
-682.266	720.360	0.067	-0.180
-681.251	-51.819	-0.244	-0.114
-680.237	76.184	-0.068	0.073
-679.222	12.693	-0.334	0.259
-678.208	-200.000	-0.032	-0.360
-677.193	61.761	-0.157	-0.157
-676.178	-67.819	-0.239	-0.094
-675.164	116.910	-0.242	-0.300
-674.149	-98.488	0.191	-0.049
-673.135	-27.348	-0.250	-0.146
-672.120	-76.701	0.079	0.028
-671.105	-166.101	-0.148	-0.006
-670.091	800.000	0.033	-0.096
-669.076	-96.717	0.196	-0.052
-668.062	-58.692	-0.093	-0.041
-667.047	-110.092	-0.101	0.021
-666.032	800.000	0.055	0.210
-665.018	-99.930	-0.323	-0.081
-664.003	-67.628	0.174	0.068
-662.989	-31.053	-0.239	-0.136
-661.974	-37.518	0.350	-0.188
-660.959	-200.000	0.029	0.278
-659.945	-200.000	-0.011	0.070
-658.930	-200.000	-0.037	0.220
-657.916	724.316	-0.053	0.141
-656.901	-87.430	-0.139	0.042
-655.886	139.328	-0.203	0.269
-654.872	-42.161	-0.214	-0.110
-653.857	800.000	0.071	-0.280
-652.843	-200.000	-0.029	-0.506
-651.828	160.495	-0.075	-0.105
-650.814	-200.000	-0.013	-0.403
-649.799	472.354	0.064	-0.145
-648.784	113.316	-0.167	0.204
-647.770	-200.000	0.008	-0.259
-646.755	-83.089	0.256	0.083
-645.741	322.778	-0.061	-0.118
-644.726	-63.842	-0.260	-0.107
-643.711	-123.301	-0.125	-0.020
-642.697	-141.005	-0.165	-0.017
-641.682	-169.851	-0.233	0.008
-640.668	-158.313	0.214	0.013
-639.653	-200.000	0.010	-0.131
-638.638	212.988	0.103	0.163
-637.624	243.978	0.019	0.033
-636.609	113.996	-0.052	-0.063
-635.595	-167.525	-0.269	0.011
-634.580	-160.083	0.066	0.004
-633.565	-120.263	-0.218	0.037
-632.551	604.746	-0.042	-0.105
-631.536	-146.456	0.147	-0.013
-630.522	191.080	-0.107	-0.162
-629.507	41.857	-0.116	0.106
-628.492	-54.490	-0.073	0.033
-627.478	-10.836	0.063	-0.042
-626.463	-200.000	-0.026	0.133
-625.449	138.875	-0.096	-0.126
-624.434	117.352	-0.128	-0.158
-623.419	-73.716	-0.236	-0.086
-622.405	483.008	0.050	0.115
-621.390	255.463	-0.196	-0.338
-620.376	65.052	0.117	-0.118
-619.361	-200.000	0.021	0.230
-618.346	-95.201	-0.151	0.041
-617.332	-136.084	0.331	-0.039
-616.317	299.013	-0.163	0.302
-615.303	-114.251	-0.288	-0.056
-614.288	-67.345	0.215	-0.085
-613.273	-110.361	-0.320	-0.067
-612.259	-61.741	0.221	0.093
-611.244	-60.967	-0.226	0.096
-610.230	-200.000	0.039	-0.275
-609.215	-200.000	0.049	0.344
-608.201	-135.365	-0.060	-0.007
-607.186	-179.116	-0.104	0.002
-606.171	800.000	0.053	-0.213
-605.157	-200.000	-0.021	0.331
-604.142	141.924	-0.158	-0.210
-603.128	-49.224	0.138	0.066
-602.113	800.000	0.054	0.166
-601.098	-164.928	-0.462	0.021
-600.084	430.265	-0.058	-0.127
-599.069	129.316	0.114	-0.146
-598.055	-156.812	-0.194	-0.012
-597.040	-14.552	-0.247	0.160
-596.025	-113.653	-0.223	-0.044
-595.011	-37.945	-0.054	0.029
-593.996	201.579	0.338	0.522
-592.982	-111.702	-0.461	-0.094
-591.967	57.938	0.053	-0.052
-590.952	4.521	0.166	0.122
-589.938	-152.143	-0.252	-0.018
-588.923	-107.303	-0.239	-0.053
-587.909	800.000	-0.120	-0.392
-586.894	75.112	0.223	0.236
-585.879	299.763	0.082	0.151
-584.865	-71.811	-0.078	-0.029
-583.850	490.301	0.020	-0.047
-582.836	22.044	-0.216	-0.177
-581.821	-174.691	-0.018	0.001
-580.806	-102.392	0.131	0.032
-579.792	300.893	0.150	-0.278
-578.777	-200.000	0.009	-0.096
-577.763	-68.229	0.375	-0.146
-576.748	-200.000	-0.005	-0.116
-575.733	-104.913	0.259	0.060
-574.719	140.609	0.067	0.089
-573.704	150.693	0.134	0.183
-572.690	112.487	-0.121	-0.147
-571.675	-200.000	-0.016	0.231
-570.661	-200.000	0.012	0.418
-569.646	151.036	0.236	0.322
-568.631	-32.119	-0.225	-0.126
-567.617	130.526	0.081	-0.103
-566.602	-42.384	-0.280	0.143
-565.588	-91.992	-0.165	-0.047
-564.573	290.467	-0.055	-0.099
-563.558	-139.543	-0.250	-0.027
-562.544	471.235	-0.080	-0.180
-561.529	-145.762	0.124	0.011
-560.515	194.500	0.057	0.087
-559.500	5.365	-0.136	-0.101
-558.485	17.758	-0.293	0.234
-557.471	591.047	0.146	0.361
-556.456	800.000	-0.033	0.115
-555.442	-200.000	-0.003	-0.024
-554.427	-200.000	-0.007	-0.094
-553.412	511.899	-0.038	-0.089
-552.398	800.000	-0.125	-0.375
-551.383	800.000	0.084	0.336
-550.369	-200.000	-0.004	-0.065
-549.354	-18.401	-0.333	-0.208
-548.339	664.176	0.040	-0.104
-547.325	-157.882	-0.274	0.016
-546.310	-10.371	0.085	0.057
-545.296	-200.000	0.016	-0.399
-544.281	141.900	0.047	0.062
-543.266	800.000	-0.036	0.155
-542.252	-5.537	-0.278	-0.191
-541.237	800.000	0.061	0.172
-540.223	-118.968	-0.220	0.039
-539.208	24.939	-0.052	-0.043
-538.193	177.916	0.139	0.203
-537.179	198.915	-0.199	0.306
-536.164	-17.063	0.539	-0.340
-535.150	624.087	-0.086	0.216
-534.135	14.388	0.182	0.142
-533.121	259.442	-0.074	0.128
-532.106	-200.000	-0.012	-0.303
-531.091	12.373	0.053	-0.041
-530.077	-18.351	0.032	-0.020
-529.062	800.000	-0.019	0.071
-528.048	-86.707	0.115	0.035
-527.033	8.769	0.192	-0.145
-526.018	-92.029	-0.279	-0.079
-525.004	29.780	-0.049	0.042
-523.989	410.774	0.115	-0.245
-522.975	-53.776	-0.466	-0.213
-521.960	200.940	0.200	-0.307
-520.945	-138.558	-0.314	-0.034
-519.931	-5.632	0.237	-0.163
-518.916	247.586	-0.050	0.085
-517.902	139.595	0.193	-0.255
-516.887	-200.000	-0.001	-0.228
-515.872	-191.244	0.229	0.002
-514.858	-82.080	0.102	-0.033
-513.843	-25.611	0.215	0.127
-512.829	94.138	0.335	0.381
-511.814	665.656	0.102	0.263
-510.799	800.000	-0.021	0.089
-509.785	416.887	0.221	0.471
-508.770	-106.358	-0.175	0.039
-507.756	87.688	-0.037	-0.041
-506.741	96.907	0.241	0.276
-505.726	-200.000	-0.054	-0.295
-504.712	213.595	0.068	0.107
-503.697	-200.000	0.002	-0.128
-502.683	-164.310	-0.072	0.003
-501.668	-200.000	0.003	0.068
-500.653	-135.406	-0.102	0.012
-499.639	46.168	-0.039	-0.036
-498.624	1.282	0.091	0.066
-497.610	-7.647	-0.100	-0.068
-496.595	800.000	0.025	0.070
-495.581	150.479	0.069	0.093
-494.566	-161.135	0.308	0.016
-493.551	9.268	-0.044	0.033
-492.537	-200.000	0.028	0.198
-491.522	126.418	-0.219	0.277
-490.508	-115.607	-0.414	-0.078
-489.493	696.001	0.040	-0.105
-488.478	-89.337	-0.114	0.034
-487.464	-145.964	0.500	-0.044
-486.449	-92.568	-0.216	0.061
-485.435	800.000	-0.058	-0.174
-484.420	-150.429	0.077	-0.006
-483.405	-33.628	-0.238	0.131
-482.391	-200.000	-0.018	0.198
-481.376	51.442	0.261	0.248
-480.362	-141.217	0.164	0.017
-479.347	-95.484	0.062	-0.017
-478.332	-130.943	-0.277	0.037
-477.318	-73.043	0.245	-0.090
-476.303	-153.963	-0.160	0.011
-475.289	160.662	0.089	0.124
-474.274	-32.429	-0.178	0.099
-473.259	703.482	0.117	-0.309
-472.245	-37.930	-0.102	-0.054
-471.230	243.412	-0.070	0.118
-470.216	-60.087	-0.225	-0.096
-469.201	-163.557	0.103	0.005
-468.186	-200.000	0.020	0.141
-467.172	-95.630	-0.383	0.102
-466.157	-167.518	0.646	-0.026
-465.143	38.038	-0.104	0.093
-464.128	-68.286	0.195	0.076
-463.113	-143.289	0.167	0.016
-462.099	45.062	-0.169	0.156
-461.084	-36.847	0.242	0.129
-460.070	-98.992	0.064	-0.016
-459.055	800.000	-0.027	0.116
-458.040	489.937	0.138	0.314
-457.026	35.212	-0.109	0.095
-456.011	-200.000	-0.028	-0.232
-454.997	-200.000	0.009	-0.197
-453.982	-166.472	-0.137	-0.006
-452.968	-36.168	-0.148	0.080
-451.953	800.000	0.031	-0.134
-450.938	-200.000	0.020	-0.088
-449.924	205.238	-0.122	-0.188
-448.909	-129.019	0.218	0.031
-447.895	609.401	0.224	-0.558
-446.880	-200.000	-0.068	-0.313
-445.865	411.409	0.075	-0.160
-444.851	620.396	-0.077	-0.193
-443.836	90.294	0.071	0.079
-442.822	-113.689	0.053	-0.010
-441.807	138.855	0.211	-0.277
-440.792	-74.295	-0.230	-0.083
-439.778	118.124	-0.216	-0.266
-438.763	41.149	-0.183	0.165
-437.749	58.496	-0.179	0.175
-436.734	119.068	-0.066	0.082
-435.719	-200.000	0.040	-0.181
-434.705	411.757	0.138	0.292
-433.690	183.962	-0.089	0.131
-432.676	307.024	0.137	0.254
-431.661	-11.851	0.185	-0.121
-430.646	-145.762	0.167	-0.015
-429.632	-68.555	0.065	0.025
-428.617	16.623	-0.186	-0.146
-427.603	-200.000	-0.021	0.183
-426.588	142.744	-0.123	0.163
-425.573	726.567	0.062	0.165
-424.559	-200.000	-0.044	0.259
-423.544	36.305	0.176	-0.155
-422.530	155.865	-0.042	0.058
-421.515	436.814	-0.099	0.215
-420.500	-103.293	-0.173	0.041
-419.486	15.439	-0.084	0.066
-418.471	345.438	0.171	-0.335
-417.457	184.158	0.140	-0.207
-416.442	-120.172	0.211	-0.036
-415.428	-80.411	-0.132	0.044
-414.413	-120.218	-0.123	0.021
-413.398	-200.000	0.012	0.303
-412.384	-96.623	0.305	-0.080
-411.369	-200.000	-0.030	-0.166
-410.355	-143.932	0.087	0.008
-409.340	-119.354	-0.182	-0.032
-408.325	-21.310	0.236	-0.143
-407.311	-86.052	0.074	-0.023
-406.296	-48.461	-0.298	-0.143
-405.282	-200.000	0.023	0.184
-404.267	800.000	-0.031	-0.130
-403.252	30.161	-0.209	0.178
-402.238	153.654	-0.222	0.303
-401.223	122.251	-0.090	0.111
-400.209	369.561	-0.099	0.200
-399.194	800.000	0.075	0.242
-398.179	-200.000	0.016	0.144
-397.165	333.687	-0.117	-0.225
-396.150	326.830	-0.035	-0.067
-395.136	-200.000	-0.005	-0.133
-394.121	800.000	0.045	-0.142
-393.106	-200.000	0.019	-0.343
-392.092	176.607	0.167	0.242
-391.077	-59.797	0.280	-0.119
-390.063	-6.006	0.079	0.054
-389.048	-110.080	0.303	0.063
-388.033	81.040	0.064	0.069
-387.019	-9.212	-0.276	0.184
-386.004	-57.263	0.165	0.072
-384.990	-200.000	-0.066	0.366
-383.975	-28.572	0.251	0.144
-382.960	107.962	0.103	-0.123
-381.946	216.553	0.061	-0.096
-380.931	83.752	0.112	0.121
-379.917	-48.877	0.197	0.094
-378.902	76.929	0.180	-0.190
-377.888	-11.849	-0.126	-0.082
-376.873	800.000	0.092	-0.253
-375.858	-87.880	0.076	0.023
-374.844	-139.596	-0.058	0.006
-373.829	469.103	0.185	-0.413
-372.815	28.819	0.251	-0.212
-371.800	-117.152	0.039	-0.007
-370.785	-176.888	-0.110	-0.003
-369.771	-106.708	-0.337	-0.074
-368.756	-28.363	0.383	0.220
-367.742	-30.944	0.179	0.101
-366.727	-109.819	-0.336	-0.070
-365.712	277.951	-0.108	0.191
-364.698	611.068	0.030	-0.076
-363.683	261.472	0.071	0.122
-362.669	-200.000	-0.016	-0.077
-361.654	226.264	0.082	0.132
-360.639	-86.047	0.106	-0.033
-359.625	-200.000	-0.016	-0.193
-358.610	23.650	0.213	0.174
-357.596	42.711	0.242	0.219
-356.581	-11.789	0.097	0.063
-355.566	137.299	0.057	0.075
-354.552	-200.000	-0.000	-0.020
-353.537	800.000	-0.065	-0.201
-352.523	800.000	-0.039	-0.123
-351.508	106.012	0.086	0.101
-350.493	112.891	0.083	-0.100
-349.479	215.224	-0.105	0.165
-348.464	375.195	0.095	0.192
-347.450	-158.142	0.180	0.011
-346.435	-200.000	-0.000	0.039
-345.420	-101.016	-0.280	0.068
-344.406	114.379	-0.095	-0.115
-343.391	-31.178	0.113	-0.063
-342.377	700.784	-0.080	-0.208
-341.362	131.237	-0.191	0.243
-340.348	-48.701	-0.093	-0.045
-339.333	22.019	-0.072	0.058
-338.318	183.488	-0.141	0.208
-337.304	-107.412	-0.076	-0.017
-336.289	120.497	-0.094	-0.115
-335.275	30.360	-0.131	-0.111
-334.260	284.760	-0.264	0.472
-333.245	143.324	0.089	0.118
-332.231	800.000	0.059	-0.195
-331.216	-4.344	0.128	0.088
-330.202	22.696	-0.204	-0.166
-329.187	21.268	-0.063	0.051
-328.172	-152.336	0.297	0.021
-327.158	551.559	-0.190	-0.452
-326.143	75.845	-0.127	-0.133
-325.129	-144.655	0.123	-0.011
-324.114	-10.430	0.366	0.241
-323.099	103.100	-0.050	-0.059
-322.085	-76.297	0.078	-0.027
-321.070	-200.000	-0.003	0.066
-320.056	271.425	-0.111	-0.193
-319.041	800.000	-0.035	-0.109
-318.026	68.697	-0.084	-0.086
-317.012	-200.000	-0.032	0.169
-315.997	-85.235	-0.116	-0.036
-314.983	-195.522	0.241	0.002
-313.968	-200.000	0.063	-0.292
-312.953	-126.167	0.158	0.024
-311.939	-123.900	0.118	0.018
-310.924	225.379	-0.118	0.189
-309.910	-11.729	-0.020	-0.013
-308.895	491.377	0.123	0.280
-307.880	-38.890	-0.048	0.025
-306.866	-28.608	0.188	-0.107
-305.851	-70.865	-0.129	0.048
-304.837	-145.357	0.205	0.018
-303.822	-116.219	0.430	0.079
-302.807	422.817	-0.110	0.234
-301.793	391.750	-0.084	0.173
-300.778	-200.000	-0.029	-0.144
-299.764	-144.478	-0.154	0.014
-298.749	225.041	0.170	-0.274
-297.735	-137.076	-0.256	0.029
-296.720	-96.580	0.237	0.062
-295.705	84.649	0.044	0.048
-294.691	47.790	0.205	-0.190
-293.676	-8.010	-0.118	-0.079
-292.662	-3.148	0.354	0.245
-291.647	699.287	0.120	0.314
-290.632	-29.022	-0.229	-0.131
-289.618	267.334	-0.101	-0.175
-288.603	346.455	-0.026	-0.052
-287.589	-200.000	0.008	0.227
-286.574	-47.886	-0.230	-0.111
-285.559	800.000	-0.041	0.131
-284.545	800.000	0.087	0.284
-283.530	-176.067	0.139	-0.004
-282.516	-200.000	0.066	-0.291
-281.501	194.835	0.232	-0.348
-280.486	357.807	-0.062	0.123
-279.472	800.000	0.055	0.194
-278.457	3.781	-0.194	-0.141
-277.443	-200.000	-0.096	-0.432
-276.428	142.969	0.078	0.102
-275.413	247.395	0.139	0.233
-274.399	-119.652	0.270	-0.046
-273.384	71.462	-0.151	0.156
-272.370	-133.559	-0.275	-0.034
-271.355	-83.652	-0.156	-0.049
-270.340	27.984	0.161	0.135
-269.326	763.802	-0.044	0.119
-268.311	632.129	0.120	-0.301
-267.297	800.000	0.071	-0.231
-266.282	92.687	-0.064	0.072
-265.267	800.000	-0.047	0.165
-264.253	94.685	-0.131	0.147
-263.238	-200.000	-0.020	0.125
-262.224	60.977	0.133	-0.131
-261.209	445.769	-0.032	-0.071
-260.195	144.711	-0.078	0.103
-259.180	-9.539	0.193	0.128
-258.165	191.588	0.398	-0.594
-257.151	-200.000	-0.003	-0.269
-256.136	-200.000	-0.038	-0.314
-255.122	178.884	-0.110	-0.159
-254.107	797.649	-0.033	-0.089
-253.092	800.000	-0.047	0.173
-252.078	-9.905	-0.145	0.096
-251.063	33.831	0.059	-0.051
-250.049	-95.140	0.225	0.060
-249.034	370.813	-0.069	0.138
-248.019	66.142	-0.226	0.227
-247.005	-200.000	-0.023	-0.149
-245.990	57.248	0.125	0.121
-244.976	131.813	-0.195	-0.249
-243.961	800.000	-0.077	-0.325
-242.946	94.529	0.246	-0.276
-241.932	-200.000	-0.029	-0.170
-240.917	418.320	-0.090	0.191
-239.903	-137.032	0.299	-0.034
-238.888	-187.013	0.211	0.003
-237.873	-139.848	-0.065	-0.007
-236.859	-138.048	-0.246	0.027
-235.844	105.592	0.284	-0.332
-234.830	800.000	-0.075	-0.269
-233.815	-131.787	0.130	0.017
-232.800	677.585	-0.117	0.300
-231.786	-142.590	0.154	0.015
-230.771	-175.511	0.202	-0.005
-229.757	800.000	0.050	-0.138
-228.742	-132.544	0.394	0.050
-227.727	-189.245	-0.091	-0.001
-226.713	-54.198	0.318	0.143
-225.698	141.766	0.208	-0.272
-224.684	157.255	0.103	-0.141
-223.669	-146.119	0.060	-0.005
-222.655	-88.004	0.120	-0.036
-221.640	-44.380	-0.245	0.121
-220.625	-164.748	-0.055	-0.002
-219.611	-90.246	-0.188	-0.054
-218.596	136.689	-0.279	-0.360
-217.582	800.000	0.060	-0.195
-216.567	-68.661	0.053	-0.020
-215.552	800.000	-0.098	0.277
-214.538	311.885	0.173	-0.321
-213.523	-200.000	-0.024	0.110
-212.509	-81.207	0.175	-0.057
-211.494	-42.307	-0.065	0.033
-210.479	95.630	-0.184	-0.208
-209.465	-114.974	0.155	-0.029
-208.450	-115.784	0.121	0.022
-207.436	-151.151	-0.102	0.008
-206.421	73.979	0.187	0.194
-205.406	63.666	-0.104	-0.104
-204.392	-134.082	0.214	-0.026
-203.377	-99.240	-0.084	-0.021
-202.363	84.423	-0.115	-0.124
-201.348	800.000	-0.057	0.175
-200.333	-77.877	-0.161	0.055
-199.319	800.000	-0.076	0.259
-198.304	170.439	0.045	0.064
-197.290	609.409	0.068	-0.168
-196.275	158.998	-0.256	-0.352
-195.260	-156.522	0.055	0.003
-194.246	-115.751	-0.160	-0.030
-193.231	-200.000	-0.034	-0.258
-192.217	-96.053	0.118	-0.031
-191.202	-99.880	-0.058	-0.014
-190.187	800.000	-0.050	0.194
-189.173	201.312	0.072	0.110
-188.158	-17.857	-0.123	-0.076
-187.144	-200.000	0.064	-0.342
-186.129	-200.000	0.027	0.197
-185.114	-23.180	-0.119	-0.071
-184.100	17.100	0.135	0.106
-183.085	-154.245	0.382	0.025
-182.071	139.043	0.377	0.489
-181.056	80.265	0.036	0.039
-180.042	-90.606	-0.057	-0.016
-179.027	-126.759	-0.153	-0.022
-178.012	42.761	-0.164	0.148
-176.998	-200.000	0.025	0.146
-175.983	239.464	-0.210	0.345
-174.969	-63.344	-0.315	-0.128
-173.954	173.410	-0.162	-0.231
-172.939	-200.000	-0.089	0.427
-171.925	800.000	0.031	0.086
-170.910	800.000	-0.040	-0.110
-169.896	-58.321	0.107	0.046
-168.881	402.765	-0.094	0.196
-167.866	30.832	0.114	-0.097
-166.852	800.000	0.091	0.285
-165.837	373.566	0.053	-0.107
-164.823	388.312	0.148	0.303
-163.808	-200.000	-0.031	-0.282
-162.793	9.965	0.148	0.111
-161.779	-92.099	-0.057	0.016
-160.764	761.696	-0.049	0.131
-159.750	138.839	0.012	0.015
-158.735	-200.000	-0.001	0.056
-157.720	290.636	-0.119	-0.213
-156.706	-2.047	-0.304	0.211
-155.691	345.699	0.032	-0.062
-154.677	-5.601	-0.145	0.098
-153.662	-200.000	-0.047	-0.245
-152.647	1.881	-0.209	-0.148
-151.633	-5.134	-0.172	0.117
-150.618	800.000	-0.047	0.145
-149.604	-149.522	-0.303	0.024
-148.589	-88.344	0.329	-0.097
-147.574	-66.733	0.077	-0.030
-146.560	-140.436	-0.379	0.039
-145.545	-48.530	-0.176	-0.083
-144.531	-11.469	0.285	0.185
-143.516	-200.000	-0.016	0.101
-142.502	-112.738	0.185	-0.036
-141.487	-71.569	0.452	-0.166
-140.472	-200.000	0.021	0.165
-139.458	-200.000	-0.021	-0.236
-138.443	389.199	-0.074	0.151
-137.429	-200.000	0.014	0.111
-136.414	-200.000	-0.059	-0.303
-135.399	-200.000	-0.045	0.208
-134.385	-114.719	0.106	-0.020
-133.370	800.000	-0.061	-0.229
-132.356	-200.000	0.017	-0.387
-131.341	156.493	-0.131	-0.178
-130.326	28.756	0.117	0.098
-129.312	-100.357	-0.115	0.028
-128.297	-200.000	-0.008	0.333
-127.283	203.560	-0.079	-0.121
-126.268	-43.901	0.233	0.115
-125.253	800.000	-0.083	0.240
-124.239	-200.000	-0.034	0.205
-123.224	800.000	-0.113	0.396
