DTS Sentinel unit serial number:	SN413079Multiplexer serial number:	ORYXHardware model number:	OX4-SRSoftware version number:	ORYX F/W v4.00 Oryx Data Collector v3.7.2.0data status	okinstallation	princeton_trtdifferential loss correction	single-endedforward channel	channel 3reverse channel	N/Adate	2019/09/15time	13:40:35forward acquisition time	60.00reverse acquisition time	0.00gamma	496.2192k internal	0.2293k external	0.2293temperature offset calibration	0.9950default loss term (dB/km)	0.3790temperature slope calibration	1.0000multiplexer offset coefficient	1.0000multiplexer slope coefficient	1.0000fibre end	0.00T internal ref (°C)	37.87T ext. ref 1 (°C)	4.86T ext. ref 2 (°C)	35.04length (m)	temperature (°C)	Stokes	anti-Stokes-747.200	-4.629	0.082	-0.058
-746.185	451.501	-0.064	0.144
-745.171	-99.027	0.052	0.013
-744.156	194.098	0.123	0.191
-743.142	-144.438	0.074	-0.007
-742.127	-176.635	0.220	0.006
-741.112	-200.000	0.065	0.298
-740.098	-121.254	-0.313	0.054
-739.083	224.428	-0.088	0.145
-738.069	-96.186	-0.295	0.080
-737.054	-200.000	0.045	0.210
-736.039	-200.000	0.023	0.279
-735.025	602.345	0.101	0.256
-734.010	356.564	-0.125	0.255
-732.996	402.504	-0.080	-0.173
-731.981	32.331	-0.169	-0.149
-730.966	228.104	0.136	-0.227
-729.952	-113.909	-0.197	0.039
-728.937	-96.353	0.191	-0.052
-727.923	-36.322	-0.095	-0.053
-726.908	109.132	-0.237	0.289
-725.894	-90.000	-0.274	-0.082
-724.879	-200.000	0.006	-0.280
-723.864	21.040	0.090	-0.074
-722.850	-200.000	0.011	0.169
-721.835	-50.909	-0.185	-0.089
-720.821	-86.551	-0.031	-0.010
-719.806	-94.056	0.185	-0.052
-718.791	-200.000	-0.007	-0.186
-717.777	197.912	0.172	-0.269
-716.762	-200.000	-0.010	0.082
-715.748	800.000	0.090	-0.284
-714.733	-94.174	-0.159	-0.044
-713.718	-5.643	-0.109	-0.076
-712.704	165.355	0.040	-0.058
-711.689	-59.539	-0.104	0.046
-710.675	-124.532	0.328	0.052
-709.660	2.692	-0.036	-0.026
-708.645	158.786	0.153	-0.217
-707.631	-98.923	-0.051	0.013
-706.616	-76.600	0.196	-0.070
-705.602	-117.619	-0.487	0.090
-704.587	-31.840	0.153	-0.088
-703.572	-120.125	-0.169	0.029
-702.558	-200.000	0.017	0.146
-701.543	437.514	0.022	-0.050
-700.529	6.052	0.193	0.146
-699.514	124.191	-0.127	0.163
-698.499	-200.000	0.027	-0.123
-697.485	-166.431	-0.245	0.011
-696.470	800.000	-0.075	0.271
-695.456	330.251	-0.101	0.198
-694.441	-51.159	0.370	-0.177
-693.426	-116.978	-0.244	-0.046
-692.412	-0.086	-0.142	-0.103
-691.397	400.062	0.030	-0.063
-690.383	-41.816	0.135	-0.071
-689.368	207.441	-0.166	-0.265
-688.354	-200.000	-0.064	0.312
-687.339	-80.376	-0.045	-0.015
-686.324	800.000	-0.053	-0.180
-685.310	157.084	0.132	-0.186
-684.295	-109.586	0.073	-0.016
-683.281	-200.000	0.036	-0.210
-682.266	11.365	0.106	0.083
-681.251	31.754	-0.175	0.154
-680.237	-200.000	0.002	0.208
-679.222	-49.528	-0.333	-0.162
-678.208	-52.760	0.176	0.083
-677.193	-66.607	0.069	-0.028
-676.178	655.576	0.114	-0.300
-675.164	-138.693	0.107	0.012
-674.149	-200.000	-0.077	-0.346
-673.135	-79.540	0.101	-0.035
-672.120	800.000	0.064	-0.226
-671.105	344.836	0.098	0.196
-670.091	-115.710	-0.080	-0.015
-669.076	18.728	-0.177	0.144
-668.062	-18.196	0.270	0.173
-667.047	173.191	-0.328	0.482
-666.032	112.675	-0.149	0.184
-665.018	-109.414	0.192	-0.041
-664.003	-111.935	-0.231	0.048
-662.989	-200.000	0.011	0.095
-661.974	-129.302	0.251	-0.036
-660.959	180.587	-0.197	-0.295
-659.945	-200.000	-0.029	-0.321
-658.930	-200.000	-0.001	-0.043
-657.916	-128.295	0.056	0.008
-656.901	-96.836	0.167	-0.045
-655.886	-87.179	0.201	-0.062
-654.872	213.504	-0.249	0.401
-653.857	-200.000	-0.015	-0.089
-652.843	-56.279	0.319	-0.145
-651.828	34.354	0.123	-0.109
-650.814	-109.257	-0.077	-0.017
-649.799	123.746	0.107	0.137
-648.784	523.869	-0.057	-0.137
-647.770	569.690	0.060	-0.148
-646.755	-120.414	-0.205	-0.035
-645.741	800.000	0.035	-0.124
-644.726	106.513	-0.170	-0.205
-643.711	-200.000	-0.043	0.552
-642.697	-24.833	-0.241	-0.146
-641.682	-14.497	-0.049	0.032
-640.668	-23.470	-0.352	-0.215
-639.653	-200.000	-0.018	0.134
-638.638	800.000	0.008	0.033
-637.624	23.042	0.057	-0.048
-636.609	800.000	0.109	-0.441
-635.595	32.267	-0.189	0.166
-634.580	-72.471	-0.100	0.037
-633.565	-150.496	0.309	-0.024
-632.551	800.000	0.064	-0.219
-631.536	-103.690	-0.334	0.080
-630.522	411.756	-0.081	0.175
-629.507	410.967	-0.066	0.142
-628.492	-66.979	-0.441	0.177
-627.478	626.459	-0.124	-0.319
-626.463	800.000	0.039	-0.112
-625.449	800.000	-0.016	-0.055
-624.434	800.000	0.037	0.157
-623.419	800.000	-0.048	0.157
-622.405	-200.000	-0.075	0.364
-621.390	343.585	0.105	0.210
-620.376	800.000	-0.092	-0.406
-619.361	72.517	-0.042	0.044
-618.346	-141.406	-0.237	0.024
-617.332	-32.102	-0.055	0.032
-616.317	399.228	0.174	0.372
-615.303	266.970	0.067	-0.120
-614.288	800.000	-0.077	0.266
-613.273	-119.002	0.242	-0.043
-612.259	-42.927	-0.216	-0.112
-611.244	-200.000	0.031	0.221
-610.230	-200.000	0.013	0.277
-609.215	-30.048	-0.215	0.125
-608.201	-138.496	-0.415	-0.046
-607.186	-44.611	0.115	0.058
-606.171	-152.731	-0.463	0.033
-605.157	800.000	0.057	0.179
-604.142	-200.000	-0.010	0.183
-603.128	723.515	0.033	-0.090
-602.113	153.688	0.279	-0.389
-601.098	-92.594	-0.250	-0.071
-600.084	-200.000	0.075	-0.435
-599.069	-151.605	0.033	-0.002
-598.055	603.429	-0.227	-0.574
-597.040	-200.000	0.013	-0.143
-596.025	520.800	-0.115	0.275
-595.011	49.975	-0.069	-0.066
-593.996	800.000	0.046	0.167
-592.982	175.743	0.023	0.033
-591.967	-54.344	-0.319	-0.147
-590.952	-146.077	-0.262	-0.024
-589.938	139.275	-0.170	0.227
-588.923	-25.056	0.012	-0.007
-587.909	56.113	-0.100	0.099
-586.894	-73.463	0.053	0.020
-585.879	-19.160	-0.209	-0.132
-584.865	-108.132	-0.210	0.046
-583.850	-200.000	0.045	0.247
-582.836	-2.181	0.200	-0.142
-581.821	-76.693	-0.069	-0.024
-580.806	-123.948	-0.076	-0.012
-579.792	-200.000	-0.036	-0.194
-578.777	80.855	-0.151	-0.166
-577.763	191.103	-0.026	0.040
-576.748	-120.020	-0.216	-0.038
-575.733	800.000	0.154	0.486
-574.719	800.000	0.068	-0.247
-573.704	-200.000	-0.025	-0.221
-572.690	231.525	-0.085	-0.142
-571.675	72.778	-0.423	-0.449
-570.661	-200.000	0.100	-0.713
-569.646	-200.000	0.020	-0.202
-568.631	-85.103	0.108	-0.034
-567.617	-65.241	0.114	-0.047
-566.602	-97.848	0.130	0.034
-565.588	549.652	0.115	0.281
-564.573	-158.479	0.158	-0.009
-563.558	326.733	-0.039	0.076
-562.544	515.409	-0.034	0.081
-561.529	83.534	0.034	0.037
-560.515	237.211	0.193	-0.325
-559.500	-67.740	-0.148	0.059
-558.485	-200.000	0.054	-0.310
-557.471	656.987	-0.064	-0.168
-556.456	357.508	0.198	-0.401
-555.442	-200.000	-0.005	-0.133
-554.427	-200.000	-0.024	0.146
-553.412	95.164	-0.060	0.069
-552.398	199.499	0.190	0.295
-551.383	-192.663	-0.224	-0.002
-550.369	800.000	0.111	0.377
-549.354	538.628	0.033	0.079
-548.339	-4.857	0.243	-0.170
-547.325	-109.265	0.202	0.043
-546.310	-60.397	-0.362	-0.156
-545.296	180.313	-0.358	-0.533
-544.281	84.408	-0.113	-0.126
-543.266	6.525	0.351	0.265
-542.252	160.224	0.146	0.206
-541.237	-200.000	0.033	-0.244
-540.223	-21.895	0.107	0.066
-539.208	518.166	-0.069	0.165
-538.193	-84.288	0.154	-0.049
-537.179	-200.000	-0.063	-0.472
-536.164	304.343	0.047	0.089
-535.150	145.720	0.142	-0.193
-534.135	-200.000	0.035	0.201
-533.121	173.166	0.061	0.090
-532.106	-143.433	-0.178	0.017
-531.091	344.624	0.083	-0.165
-530.077	-200.000	0.015	-0.166
-529.062	284.529	0.285	-0.520
-528.048	-80.042	-0.207	-0.071
-527.033	-70.983	-0.143	-0.054
-526.018	-164.579	-0.301	0.014
-525.004	-200.000	-0.058	-0.367
-523.989	3.695	-0.182	0.135
-522.975	-200.000	0.014	-0.433
-521.960	-200.000	-0.031	-0.223
-520.945	-15.347	0.177	0.115
-519.931	7.944	0.217	0.165
-518.916	-20.524	0.373	-0.233
-517.902	299.368	0.085	0.159
-516.887	64.553	-0.189	0.193
-515.872	391.527	-0.055	-0.115
-514.858	-12.706	-0.232	0.153
-513.843	573.730	-0.106	-0.262
-512.829	20.366	0.317	0.260
-511.814	67.739	0.072	0.075
-510.799	356.668	-0.031	-0.062
-509.785	136.093	0.036	0.048
-508.770	448.734	0.092	-0.206
-507.756	110.820	-0.102	0.124
-506.741	15.125	0.100	-0.080
-505.726	-200.000	0.041	-0.277
-504.712	-17.151	-0.084	0.054
-503.697	400.656	-0.166	-0.352
-502.683	83.112	-0.101	0.112
-501.668	242.187	-0.080	-0.136
-500.653	-200.000	-0.001	-0.019
-499.639	1.400	-0.264	0.193
-498.624	800.000	0.127	0.385
-497.610	-18.586	0.290	0.183
-496.595	387.019	0.021	-0.043
-495.581	800.000	0.047	-0.172
-494.566	-200.000	0.003	-0.047
-493.551	-131.504	-0.153	-0.020
-492.537	-58.321	0.290	-0.128
-491.522	-200.000	-0.001	0.224
-490.508	-46.717	0.155	-0.077
-489.493	250.817	-0.173	-0.298
-488.478	-82.478	0.220	0.072
-487.464	67.406	-0.147	-0.151
-486.449	-72.708	0.106	0.040
-485.435	800.000	-0.055	-0.223
-484.420	800.000	-0.002	-0.007
-483.405	-170.703	-0.193	-0.007
-482.391	-82.842	0.064	-0.021
-481.376	97.689	-0.100	0.116
-480.362	2.521	-0.015	-0.011
-479.347	-200.000	-0.048	-0.244
-478.332	-200.000	-0.017	-0.275
-477.318	203.699	-0.160	-0.250
-476.303	-200.000	-0.032	-0.156
-475.289	19.027	-0.158	0.128
-474.274	-128.234	-0.392	0.057
-473.259	-126.839	-0.117	-0.017
-472.245	-32.507	0.059	-0.033
-471.230	26.261	-0.167	0.141
-470.216	-200.000	-0.018	0.184
-469.201	286.985	-0.110	0.201
-468.186	-99.144	-0.104	-0.027
-467.172	-200.000	0.099	-0.506
-466.157	155.341	-0.154	0.215
-465.143	-60.477	0.420	-0.180
-464.128	-13.416	0.337	-0.221
-463.113	-0.743	0.172	0.123
-462.099	-165.824	-0.122	0.005
-461.084	72.703	0.156	-0.164
-460.070	-0.115	0.108	0.078
-459.055	300.459	-0.129	0.240
-458.040	800.000	0.053	-0.203
-457.026	-84.178	0.223	-0.071
-456.011	-200.000	-0.006	0.138
-454.997	-90.719	0.168	0.049
-453.982	800.000	0.079	0.242
-452.968	-0.393	0.151	0.108
-451.953	-5.693	-0.294	0.204
-450.938	-2.442	0.130	0.092
-449.924	-100.001	0.286	0.072
-448.909	-50.701	0.224	0.107
-447.895	-20.562	0.043	-0.027
-446.880	-70.381	-0.247	-0.095
-445.865	-141.423	0.163	0.017
-444.851	-200.000	0.006	-0.175
-443.836	-200.000	-0.056	0.261
-442.822	186.561	0.076	-0.114
-441.807	-166.579	0.187	-0.008
-440.792	-122.798	0.074	0.012
-439.778	108.055	-0.209	-0.251
-438.763	773.701	0.050	-0.137
-437.749	-43.651	-0.197	-0.100
-436.734	-200.000	0.350	-0.000
-435.719	-10.592	0.226	0.151
-434.705	800.000	0.137	0.400
-433.690	12.996	-0.219	0.172
-432.676	755.560	0.088	0.241
-431.661	800.000	-0.037	-0.146
-430.646	-200.000	0.041	0.190
-429.632	12.618	-0.199	-0.155
-428.617	132.966	0.057	-0.074
-427.603	275.515	-0.116	0.207
-426.588	-111.118	0.207	0.043
-425.573	800.000	0.100	0.359
-424.559	-200.000	0.016	-0.201
-423.544	150.001	0.105	0.143
-422.530	-200.000	-0.006	-0.129
-421.515	200.004	-0.136	-0.211
-420.500	420.536	-0.029	-0.063
-419.486	-200.000	0.020	-0.276
-418.471	-127.443	-0.218	-0.032
-417.457	-200.000	0.023	0.286
-416.442	-71.305	-0.361	-0.137
-415.428	40.477	0.291	0.265
-414.413	800.000	-0.052	-0.172
-413.398	-109.176	-0.175	-0.038
-412.384	800.000	-0.046	0.170
-411.369	-200.000	0.041	0.183
-410.355	-200.000	0.013	0.137
-409.340	-34.410	0.343	-0.190
-408.325	83.133	-0.227	0.249
-407.311	6.171	-0.313	-0.234
-406.296	-70.200	0.224	-0.086
-405.282	34.863	-0.163	-0.144
-404.267	800.000	0.076	0.301
-403.252	-77.330	0.056	0.020
-402.238	156.224	0.128	0.178
-401.223	26.096	-0.171	-0.144
-400.209	-152.909	-0.396	0.028
-399.194	-78.340	-0.091	-0.032
-398.179	687.996	-0.063	-0.166
-397.165	69.719	0.065	-0.067
-396.150	800.000	-0.051	-0.169
-395.136	-200.000	0.029	0.226
-394.121	-156.294	-0.247	0.016
-393.106	-72.646	-0.114	-0.043
-392.092	134.484	-0.171	-0.223
-391.077	800.000	0.052	0.214
-390.063	-200.000	-0.049	0.307
-389.048	-200.000	0.010	0.071
-388.033	24.941	-0.082	-0.069
-387.019	-52.509	0.245	0.114
-386.004	20.811	-0.221	0.180
-384.990	-174.939	0.316	-0.009
-383.975	55.797	-0.025	0.024
-382.960	-139.534	0.145	-0.016
-381.946	-200.000	-0.034	-0.396
-380.931	235.468	-0.075	-0.125
-379.917	-170.445	-0.141	-0.005
-378.902	-200.000	-0.019	-0.132
-377.888	458.792	0.127	-0.284
-376.873	12.429	-0.166	0.129
-375.858	73.838	0.276	0.291
-374.844	-88.130	0.225	-0.068
-373.829	-24.941	-0.313	0.187
-372.815	-30.936	-0.314	-0.179
-371.800	-53.345	-0.251	0.116
-370.785	54.391	-0.068	-0.066
-369.771	-136.433	0.092	-0.011
-368.756	42.808	0.121	-0.111
-367.742	217.283	0.005	-0.009
-366.727	84.616	0.198	0.219
-365.712	800.000	-0.109	0.348
-364.698	83.389	-0.189	0.208
-363.683	83.449	0.069	0.076
-362.669	42.271	-0.066	0.061
-361.654	0.264	0.161	-0.116
-360.639	12.118	0.178	0.138
-359.625	732.028	-0.139	-0.374
-358.610	70.361	-0.051	0.054
-357.596	-85.657	0.125	-0.039
-356.581	-16.084	0.127	-0.081
-355.566	-112.010	0.152	0.031
-354.552	-19.661	0.356	0.222
-353.537	-200.000	-0.014	-0.196
-352.523	800.000	-0.076	0.253
-351.508	-51.311	0.223	0.105
-350.493	-112.204	0.227	-0.046
-349.479	-18.670	-0.307	-0.193
-348.464	800.000	0.072	0.254
-347.450	-16.281	0.102	-0.065
-346.435	5.120	0.056	0.042
-345.420	71.492	-0.062	-0.065
-344.406	-0.745	0.159	-0.114
-343.391	-124.007	0.306	0.048
-342.377	-75.807	-0.044	0.016
-341.362	-200.000	0.005	0.147
-340.348	16.143	-0.169	0.134
-339.333	-55.631	-0.076	-0.034
-338.318	-12.774	-0.190	0.125
-337.304	-105.915	-0.283	0.064
-336.289	-8.012	-0.123	0.084
-335.275	-200.000	0.025	0.489
-334.260	-76.893	-0.103	-0.036
-333.245	591.436	0.105	0.260
-332.231	779.761	0.069	-0.191
-331.216	800.000	-0.053	0.163
-330.202	800.000	-0.006	0.017
-329.187	-200.000	-0.026	-0.150
-328.172	-119.525	0.309	0.054
-327.158	-61.247	0.232	-0.099
-326.143	-37.923	0.116	-0.062
-325.129	-61.411	-0.157	-0.066
-324.114	476.200	0.034	0.078
-323.099	153.189	0.163	0.225
-322.085	800.000	-0.048	0.158
-321.070	80.820	-0.126	0.136
-320.056	-28.580	-0.174	0.101
-319.041	-136.761	-0.152	-0.018
-318.026	60.160	-0.096	-0.096
-317.012	286.330	0.216	0.393
-315.997	800.000	-0.103	-0.427
-314.983	324.339	0.049	-0.095
-313.968	42.718	0.225	-0.207
-312.953	-200.000	-0.058	0.304
-311.939	155.408	-0.048	-0.066
-310.924	325.969	-0.198	0.382
-309.910	-142.277	0.183	0.018
-308.895	-200.000	-0.038	-0.200
-307.880	469.021	-0.033	-0.074
-306.866	729.934	0.024	-0.065
-305.851	-200.000	0.142	-0.001
-304.837	99.538	0.126	0.147
-303.822	-144.598	-0.205	-0.019
-302.807	41.785	0.185	0.169
-301.793	-200.000	-0.003	0.403
-300.778	-92.966	0.346	0.097
-299.764	86.352	0.260	-0.288
-298.749	28.886	0.195	-0.166
-297.735	-8.844	0.206	-0.139
-296.720	-83.410	-0.333	-0.107
-295.705	29.620	-0.219	0.187
-294.691	-29.106	-0.403	0.233
-293.676	-12.475	-0.263	0.173
-292.662	-110.606	0.085	-0.018
-291.647	800.000	-0.099	-0.338
-290.632	209.452	0.038	-0.060
-289.618	479.744	0.082	0.187
-288.603	-200.000	0.032	-0.267
-287.589	98.713	0.120	0.139
-286.574	-34.011	-0.164	0.091
-285.559	-69.044	-0.193	-0.075
-284.545	474.197	-0.206	0.468
-283.530	39.611	0.257	0.232
-282.516	-88.822	0.048	0.014
-281.501	-200.000	0.035	-0.450
-280.486	2.554	-0.170	-0.124
-279.472	-55.259	-0.196	-0.088
-278.457	-101.159	-0.197	-0.048
-277.443	-170.775	0.072	0.002
-276.428	192.106	-0.091	-0.138
-275.413	-200.000	-0.005	-0.267
-274.399	21.134	0.154	-0.126
-273.384	-52.693	-0.118	-0.055
-272.370	353.483	-0.113	-0.225
-271.355	-95.587	-0.290	-0.078
-270.340	58.266	-0.161	0.159
-269.326	-99.183	-0.385	0.098
-268.311	-200.000	0.020	-0.142
-267.297	-110.993	-0.232	-0.048
-266.282	-67.926	0.142	-0.056
-265.267	314.544	0.052	-0.098
-264.253	800.000	0.063	-0.261
-263.238	-28.490	0.165	-0.096
-262.224	141.089	-0.111	0.147
-261.209	-16.669	0.177	-0.113
-260.195	-150.290	0.146	0.011
-259.180	-74.673	0.511	0.184
-258.165	46.022	0.116	0.108
-257.151	-4.375	-0.202	-0.140
-256.136	-93.223	0.072	-0.020
-255.122	434.466	-0.040	-0.088
-254.107	36.149	-0.147	-0.130
-253.092	98.486	0.179	0.207
-252.078	-120.558	0.352	0.060
-251.063	-83.475	0.368	-0.118
-250.049	800.000	0.117	0.414
-249.034	-101.692	-0.464	0.113
-248.019	-104.234	0.100	-0.023
-247.005	-39.957	0.211	0.111
-245.990	84.849	-0.144	0.158
-244.976	-118.548	0.068	0.012
-243.961	-60.025	-0.161	-0.069
-242.946	-200.000	-0.065	0.395
-241.932	613.274	0.090	0.226
-240.917	-130.893	-0.165	-0.022
-239.903	331.752	0.074	0.143
-238.888	-16.283	-0.032	0.020
-237.873	-182.181	-0.312	-0.006
-236.859	54.340	0.124	0.120
-235.844	630.956	0.100	0.254
-234.830	20.429	0.294	0.239
-233.815	187.341	0.080	-0.120
-232.800	310.113	0.083	0.156
-231.786	75.869	-0.065	-0.069
-230.771	197.848	-0.113	-0.173
-229.757	355.524	-0.094	0.188
-228.742	-32.806	0.224	0.125
-227.727	60.067	0.218	-0.216
-226.713	-139.948	-0.101	0.011
-225.698	-174.723	0.248	0.007
-224.684	-73.980	-0.202	-0.073
-223.669	217.776	-0.106	-0.170
-222.655	69.748	0.216	-0.224
-221.640	-134.836	-0.069	-0.008
-220.625	-200.000	-0.005	0.138
-219.611	41.485	-0.044	-0.040
-218.596	-75.054	0.251	-0.090
-217.582	553.377	-0.059	-0.142
-216.567	-177.629	0.249	0.006
-215.552	-200.000	0.062	0.402
-214.538	-90.468	0.210	0.061
-213.523	-74.759	0.202	-0.073
-212.509	12.223	0.233	0.180
-211.494	602.772	0.098	-0.245
-210.479	-200.000	-0.008	-0.106
-209.465	198.296	-0.100	-0.153
-208.450	274.832	0.072	-0.129
-207.436	-200.000	0.004	-0.050
-206.421	154.027	0.250	0.344
-205.406	-200.000	-0.099	-0.455
-204.392	148.730	-0.062	0.084
-203.377	-38.716	0.218	0.115
-202.363	-78.262	-0.176	0.061
-201.348	-105.917	-0.237	-0.054
-200.333	68.425	-0.097	0.099
-199.319	-200.000	0.053	-0.369
-198.304	-50.566	-0.207	0.098
-197.290	42.274	-0.120	0.109
-196.275	109.457	-0.066	-0.079
-195.260	-200.000	-0.044	0.239
-194.246	233.239	0.155	0.255
-193.231	800.000	0.114	0.373
-192.217	-9.190	-0.199	-0.133
-191.202	-22.667	-0.274	-0.166
-190.187	-200.000	0.020	0.089
-189.173	-65.601	0.220	-0.088
-188.158	90.809	-0.122	0.137
-187.144	-133.611	0.275	-0.034
-186.129	122.120	0.123	0.154
-185.114	124.655	0.105	-0.132
-184.100	6.582	-0.127	0.094
-183.085	475.443	0.049	0.111
-182.071	72.834	0.116	0.121
-181.056	-30.642	0.206	0.117
-180.042	-152.829	0.096	-0.007
-179.027	-27.026	-0.209	0.122
-178.012	800.000	0.038	0.144
-176.998	106.987	-0.176	0.209
-175.983	429.530	-0.097	0.209
-174.969	98.259	0.236	-0.272
-173.954	563.614	-0.131	-0.317
-172.939	275.279	-0.152	-0.270
-171.925	27.351	-0.227	-0.191
-170.910	120.067	0.256	-0.317
-169.896	-200.000	0.039	-0.223
-168.881	-200.000	0.046	0.207
-167.866	-15.136	-0.110	0.071
-166.852	88.271	0.119	0.132
-165.837	-83.608	0.200	-0.064
-164.823	9.141	-0.199	0.151
-163.808	-200.000	-0.003	0.018
-162.793	-97.702	-0.195	0.051
-161.779	73.916	0.228	0.239
-160.764	44.580	0.092	0.085
-159.750	64.151	0.148	0.149
-158.735	800.000	0.016	-0.058
-157.720	-151.951	0.122	0.009
-156.706	-101.309	0.379	-0.092
-155.691	21.984	0.103	-0.084
-154.677	-83.758	0.200	-0.064
-153.662	-200.000	-0.020	0.165
-152.647	6.885	0.177	0.132
-151.633	-92.972	0.463	0.129
-150.618	-200.000	0.019	0.328
-149.604	474.594	-0.166	0.375
-148.589	537.974	0.107	0.255
-147.574	52.513	0.115	-0.110
-146.560	-200.000	-0.043	-0.213
-145.545	85.755	0.044	-0.049
-144.531	-38.498	0.126	0.066
-143.516	800.000	-0.016	-0.047
-142.502	182.419	0.249	0.367
-141.487	679.629	0.066	0.172
-140.472	101.435	0.115	0.134
-139.458	-200.000	-0.004	0.071
-138.443	37.279	-0.221	-0.195
-137.429	143.091	-0.096	-0.127
-136.414	800.000	0.033	-0.105
-135.399	-43.322	0.151	-0.076
-134.385	-28.490	-0.145	-0.084
-133.370	-200.000	-0.001	-0.234
-132.356	184.294	-0.081	0.120
-131.341	-200.000	0.009	-0.113
-130.326	457.367	-0.121	0.269
-129.312	-160.979	0.449	0.024
-128.297	54.103	-0.169	0.162
-127.283	-129.836	0.242	0.033
-126.268	-51.875	-0.080	0.037
-125.253	-84.650	0.230	-0.072
-124.239	8.162	0.359	0.269
-123.224	-69.162	-0.148	0.057
-122.210	131.592	0.130	-0.167
-121.195	-79.074	0.199	0.068
-120.180	-54.025	0.200	-0.091
