DTS Sentinel unit serial number:	SN413079Multiplexer serial number:	ORYXHardware model number:	OX4-SRSoftware version number:	ORYX F/W v4.00 Oryx Data Collector v3.7.2.0data status	okinstallation	princeton_trtdifferential loss correction	single-endedforward channel	channel 3reverse channel	N/Adate	2019/09/16time	07:12:34forward acquisition time	60.00reverse acquisition time	0.00gamma	496.2192k internal	0.2334k external	0.2334temperature offset calibration	0.9962default loss term (dB/km)	0.3790temperature slope calibration	1.0000multiplexer offset coefficient	1.0000multiplexer slope coefficient	1.0000fibre end	0.00T internal ref (°C)	27.37T ext. ref 1 (°C)	11.55T ext. ref 2 (°C)	22.07length (m)	temperature (°C)	Stokes	anti-Stokes-747.200	-200.000	-0.052	0.268
-746.185	-179.222	-0.266	0.006
-745.171	-89.126	0.150	-0.044
-744.156	-180.061	-0.160	-0.003
-743.142	121.778	-0.164	0.206
-742.127	-200.000	-0.001	-0.134
-741.112	-8.998	0.030	-0.020
-740.098	-90.326	-0.175	0.051
-739.083	800.000	0.056	-0.222
-738.069	53.181	0.071	0.069
-737.054	-154.531	0.224	0.015
-736.039	800.000	-0.077	-0.258
-735.025	85.860	0.248	0.275
-734.010	494.727	-0.060	0.139
-732.996	-111.068	0.176	0.036
-731.981	-200.000	0.030	-0.277
-730.966	800.000	-0.101	-0.321
-729.952	64.785	-0.263	-0.267
-728.937	-194.202	0.158	-0.001
-727.923	12.562	-0.331	-0.256
-726.908	87.319	0.110	0.122
-725.894	396.190	-0.079	-0.165
-724.879	463.461	-0.088	-0.199
-723.864	-39.095	-0.114	0.060
-722.850	104.856	-0.118	-0.139
-721.835	-174.935	0.222	0.006
-720.821	56.146	-0.236	-0.231
-719.806	-96.941	0.243	0.064
-718.791	60.811	-0.117	0.117
-717.777	-200.000	0.018	-0.325
-716.762	109.333	-0.263	0.316
-715.748	-200.000	0.018	0.172
-714.733	758.210	-0.129	0.351
-713.718	797.392	0.067	-0.186
-712.704	-141.719	-0.174	0.018
-711.689	-75.624	0.151	0.054
-710.675	-80.436	-0.275	0.092
-709.660	-102.832	0.181	0.043
-708.645	-86.453	-0.374	0.115
-707.631	218.578	-0.181	-0.290
-706.616	-106.706	0.390	0.087
-705.602	800.000	-0.068	-0.202
-704.587	-200.000	-0.012	0.095
-703.572	91.902	-0.168	0.190
-702.558	800.000	0.072	0.239
-701.543	-1.760	-0.145	0.103
-700.529	-125.090	-0.231	-0.036
-699.514	-1.384	0.066	-0.047
-698.499	800.000	0.043	0.148
-697.485	-200.000	-0.038	0.238
-696.470	-44.282	-0.127	0.064
-695.456	-24.347	-0.350	-0.209
-694.441	-28.223	-0.125	0.072
-693.426	-200.000	-0.038	-0.279
-692.412	392.116	0.014	-0.030
-691.397	252.317	0.054	0.092
-690.383	-83.643	-0.092	0.029
-689.368	-39.844	0.196	0.103
-688.354	537.357	0.131	0.313
-687.339	-58.079	0.087	-0.038
-686.324	800.000	0.056	-0.245
-685.310	800.000	0.113	0.363
-684.295	800.000	0.088	0.266
-683.281	-33.086	-0.236	-0.131
-682.266	20.531	0.185	-0.150
-681.251	186.625	-0.099	-0.148
-680.237	800.000	0.044	-0.136
-679.222	13.608	0.006	0.005
-678.208	268.586	-0.064	-0.113
-677.193	249.634	-0.113	0.192
-676.178	119.389	0.220	-0.273
-675.164	411.962	0.069	-0.146
-674.149	204.420	-0.191	-0.297
-673.135	-200.000	0.065	-0.347
-672.120	-66.756	0.101	0.040
-671.105	123.581	-0.061	-0.077
-670.091	-43.439	-0.068	0.034
-669.076	-27.395	-0.391	-0.228
-668.062	-47.862	-0.252	-0.122
-667.047	646.998	0.072	-0.185
-666.032	-200.000	-0.002	0.138
-665.018	62.776	0.128	0.128
-664.003	-200.000	0.036	0.209
-662.989	-155.755	0.287	0.018
-661.974	-66.971	0.267	0.106
-660.959	800.000	0.041	-0.139
-659.945	648.442	-0.165	0.424
-658.930	-200.000	0.018	0.107
-657.916	2.583	0.082	0.060
-656.901	677.420	-0.117	-0.305
-655.886	31.180	-0.198	-0.170
-654.872	-200.000	0.029	-0.183
-653.857	76.640	-0.563	-0.598
-652.843	-108.109	0.266	-0.058
-651.828	147.046	-0.203	-0.274
-650.814	-179.763	-0.164	-0.004
-649.799	14.698	-0.208	-0.163
-648.784	-200.000	-0.031	0.282
-647.770	800.000	0.010	0.036
-646.755	17.689	0.060	-0.048
-645.741	-200.000	-0.009	-0.191
-644.726	246.925	-0.068	0.114
-643.711	-119.206	-0.314	0.055
-642.697	-59.564	-0.140	0.060
-641.682	112.851	-0.123	0.149
-640.668	-200.000	-0.007	-0.085
-639.653	-40.348	-0.185	-0.096
-638.638	179.349	0.033	0.048
-637.624	124.376	0.089	-0.112
-636.609	767.033	0.070	0.191
-635.595	-200.000	0.058	-0.461
-634.580	-87.154	0.104	0.032
-633.565	19.546	-0.052	0.042
-632.551	239.857	0.135	-0.225
-631.536	-200.000	-0.040	0.342
-630.522	-37.987	-0.293	0.156
-629.507	71.711	0.287	0.298
-628.492	800.000	0.071	0.258
-627.478	-61.632	-0.235	-0.099
-626.463	484.546	-0.028	-0.064
-625.449	-9.467	0.119	0.080
-624.434	800.000	0.079	-0.316
-623.419	68.625	-0.122	0.125
-622.405	800.000	0.061	-0.230
-621.390	765.948	-0.049	0.135
-620.376	52.654	0.151	0.144
-619.361	-120.756	-0.378	-0.064
-618.346	-30.454	-0.083	-0.047
-617.332	-177.173	0.091	0.002
-616.317	-179.814	-0.268	-0.006
-615.303	-140.966	0.091	0.009
-614.288	71.094	-0.094	0.098
-613.273	130.432	0.164	-0.210
-612.259	-47.334	-0.132	0.064
-611.244	104.223	0.121	-0.142
-610.230	372.687	0.171	-0.348
-609.215	11.754	0.250	-0.192
-608.201	448.419	0.101	0.222
-607.186	624.068	0.081	0.204
-606.171	52.559	0.073	-0.069
-605.157	-200.000	0.003	-0.013
-604.142	-96.258	0.325	0.086
-603.128	800.000	-0.064	-0.226
-602.113	-200.000	0.025	-0.346
-601.098	-112.492	0.465	-0.093
-600.084	-107.836	-0.314	-0.068
-599.069	-200.000	-0.026	0.301
-598.055	4.211	-0.231	0.169
-597.040	-200.000	-0.039	-0.398
-596.025	-43.020	-0.077	-0.039
-595.011	515.773	-0.042	0.098
-593.996	3.906	-0.071	0.052
-592.982	-82.747	-0.318	-0.103
-591.967	79.397	0.226	0.242
-590.952	-108.154	0.323	-0.070
-589.938	3.534	-0.268	0.195
-588.923	-14.639	0.171	-0.110
-587.909	-133.562	0.391	-0.049
-586.894	-161.606	-0.385	-0.020
-585.879	800.000	-0.098	-0.280
-584.865	174.223	0.204	-0.294
-583.850	94.997	0.075	0.085
-582.836	800.000	0.021	0.065
-581.821	153.637	-0.068	-0.093
-580.806	-123.390	-0.094	-0.015
-579.792	47.228	-0.097	-0.090
-578.777	173.148	-0.179	-0.258
-577.763	45.619	0.176	-0.163
-576.748	-64.821	-0.139	-0.056
-575.733	217.707	0.205	0.327
-574.719	61.130	0.112	-0.111
-573.704	121.013	-0.181	-0.225
-572.690	49.371	-0.204	-0.192
-571.675	-84.235	0.332	-0.105
-570.661	-27.669	0.348	0.201
-569.646	83.292	0.298	0.324
-568.631	168.124	-0.164	-0.233
-567.617	54.517	0.137	0.131
-566.602	-200.000	0.030	0.172
-565.588	87.250	0.150	0.166
-564.573	-20.136	0.252	-0.155
-563.558	-182.013	-0.267	0.005
-562.544	-146.512	0.225	-0.020
-561.529	-200.000	0.052	-0.229
-560.515	-200.000	0.000	0.118
-559.500	-92.633	-0.237	0.066
-558.485	-200.000	0.006	-0.050
-557.471	-200.000	0.012	0.056
-556.456	-97.286	0.065	-0.017
-555.442	-70.944	-0.110	0.041
-554.427	-61.836	0.169	-0.071
-553.412	-175.145	-0.172	0.005
-552.398	-171.240	-0.036	0.001
-551.383	-97.493	-0.237	-0.061
-550.369	215.753	0.043	-0.068
-549.354	-37.415	-0.065	0.034
-548.339	23.678	0.104	0.085
-547.325	-186.904	-0.171	-0.002
-546.310	-113.543	0.239	-0.047
-545.296	32.876	0.392	-0.339
-544.281	-119.531	-0.249	-0.043
-543.266	-77.692	0.117	-0.040
-542.252	-200.000	-0.015	-0.075
-541.237	-66.349	0.399	-0.158
-540.223	1.251	0.016	0.012
-539.208	-99.249	0.215	-0.054
-538.193	-91.598	0.157	0.045
-537.179	175.811	-0.035	0.051
-536.164	41.952	0.054	0.049
-535.150	563.056	-0.129	-0.311
-534.135	-200.000	-0.027	0.219
-533.121	-200.000	0.065	0.427
-532.106	153.437	-0.156	0.213
-531.091	-200.000	-0.001	0.216
-530.077	-71.854	0.116	0.043
-529.062	800.000	-0.027	-0.101
-528.048	16.667	0.080	-0.063
-527.033	18.967	-0.203	0.162
-526.018	443.083	0.107	-0.233
-525.004	437.497	-0.034	-0.074
-523.989	5.761	0.245	-0.181
-522.975	-200.000	-0.004	-0.150
-521.960	500.575	-0.155	0.357
-520.945	-133.449	0.173	0.022
-519.931	128.339	-0.061	-0.078
-518.916	-200.000	0.029	-0.138
-517.902	37.291	-0.138	0.122
-516.887	146.082	-0.210	-0.281
-515.872	-83.670	0.041	0.013
-514.858	-200.000	0.025	-0.124
-513.843	-130.853	0.078	0.010
-512.829	-119.199	0.188	0.033
-511.814	-141.216	0.102	-0.010
-510.799	-152.488	0.131	-0.009
-509.785	-200.000	0.032	0.400
-508.770	561.204	0.083	-0.200
-507.756	-56.963	-0.288	0.127
-506.741	514.540	-0.059	0.137
-505.726	-160.448	0.091	-0.005
-504.712	68.480	0.213	0.218
-503.697	364.196	0.041	0.081
-502.683	23.100	-0.268	-0.219
-501.668	-200.000	-0.009	-0.304
-500.653	501.999	-0.033	0.076
-499.639	-61.479	-0.120	-0.050
-498.624	800.000	0.147	0.474
-497.610	-18.227	0.074	0.046
-496.595	383.695	-0.080	-0.164
-495.581	161.988	0.080	0.112
-494.566	800.000	0.169	-0.513
-493.551	636.888	0.099	0.251
-492.537	-200.000	-0.043	-0.389
-491.522	95.368	0.151	-0.171
-490.508	223.844	-0.045	0.072
-489.493	170.415	0.033	-0.047
-488.478	800.000	-0.085	0.270
-487.464	-163.614	0.462	0.022
-486.449	-164.676	-0.270	-0.012
-485.435	-49.636	-0.271	-0.128
-484.420	112.783	-0.121	0.146
-483.405	348.827	0.135	-0.265
-482.391	-83.854	0.192	0.061
-481.376	800.000	0.104	-0.424
-480.362	148.774	0.115	-0.155
-479.347	-74.022	-0.221	0.080
-478.332	-200.000	-0.046	-0.386
-477.318	-200.000	0.004	0.290
-476.303	-170.033	0.025	0.001
-475.289	-24.322	0.160	-0.095
-474.274	-87.288	0.099	0.030
-473.259	-53.134	0.159	0.073
-472.245	-84.516	-0.409	-0.128
-471.230	-106.972	-0.296	-0.065
-470.216	41.007	0.103	-0.093
-469.201	-44.122	0.226	0.113
-468.186	-200.000	0.040	-0.284
-467.172	-200.000	-0.020	-0.248
-466.157	800.000	0.086	-0.310
-465.143	-200.000	0.014	-0.080
-464.128	206.856	0.114	-0.176
-463.113	-83.903	-0.168	-0.053
-462.099	279.454	0.146	0.259
-461.084	293.104	-0.137	0.249
-460.070	55.187	0.058	-0.055
-459.055	-28.678	-0.092	0.053
-458.040	19.516	0.264	-0.211
-457.026	-192.298	-0.240	0.002
-456.011	372.644	-0.080	0.162
-454.997	57.773	0.048	0.046
-453.982	-53.778	-0.081	-0.037
-452.968	387.722	-0.060	-0.124
-451.953	-25.180	-0.323	-0.190
-450.938	-40.468	-0.254	0.131
-449.924	-91.619	-0.341	-0.097
-448.909	-200.000	0.000	-0.113
-447.895	-177.093	-0.126	0.003
-446.880	-90.006	-0.072	-0.021
-445.865	-24.764	-0.270	-0.159
-444.851	602.744	-0.183	-0.452
-443.836	59.886	-0.169	0.165
-442.822	-200.000	0.001	0.025
-441.807	-73.225	-0.334	0.122
-440.792	-4.531	-0.080	0.055
-439.778	34.470	-0.012	-0.011
-438.763	800.000	0.054	-0.159
-437.749	-114.049	-0.103	0.020
-436.734	-145.394	-0.127	-0.011
-435.719	-77.234	0.157	0.054
-434.705	425.231	0.041	-0.088
-433.690	-102.910	-0.307	-0.072
-432.676	-43.945	0.073	0.036
-431.661	800.000	0.034	0.131
-430.646	-4.555	0.093	-0.064
-429.632	-54.420	0.153	-0.069
-428.617	-114.114	-0.192	0.037
-427.603	20.713	0.120	-0.097
-426.588	-76.375	-0.230	-0.080
-425.573	-178.656	-0.279	-0.006
-424.559	-200.000	0.025	0.190
-423.544	126.164	0.155	0.195
-422.530	-86.340	-0.333	0.102
-421.515	77.708	-0.086	0.091
-420.500	-178.953	-0.157	-0.004
-419.486	-150.650	-0.204	0.015
-418.471	-88.361	0.261	0.077
-417.457	127.794	-0.242	-0.305
-416.442	-40.117	-0.113	-0.058
-415.428	-100.752	-0.224	0.055
-414.413	58.533	0.116	-0.113
-413.398	504.942	-0.132	0.304
-412.384	26.965	0.353	-0.294
-411.369	200.560	0.058	-0.088
-410.355	289.204	0.114	-0.205
-409.340	255.102	-0.162	-0.276
-408.325	-200.000	0.007	0.038
-407.311	-138.251	-0.142	-0.016
-406.296	-200.000	-0.048	-0.221
-405.282	475.670	-0.063	0.142
-404.267	-83.312	-0.271	-0.086
-403.252	53.424	-0.072	-0.069
-402.238	27.597	-0.227	0.190
-401.223	147.302	0.166	-0.222
-400.209	-200.000	0.017	0.080
-399.194	35.809	-0.153	-0.133
-398.179	-200.000	-0.024	-0.206
-397.165	800.000	-0.063	-0.191
-396.150	297.001	0.096	0.175
-395.136	106.466	-0.155	0.182
-394.121	-57.924	0.193	0.083
-393.106	111.962	-0.272	0.326
-392.092	800.000	0.007	-0.023
-391.077	34.109	0.065	-0.056
-390.063	-23.789	-0.148	-0.088
-389.048	683.939	-0.116	0.299
-388.033	-110.129	0.283	0.058
-387.019	-200.000	-0.003	0.144
-386.004	-200.000	0.001	0.073
-384.990	-18.045	-0.037	-0.023
-383.975	-82.493	-0.298	-0.096
-382.960	52.919	0.103	0.097
-381.946	-115.318	0.306	-0.057
-380.931	340.921	0.250	0.483
-379.917	3.866	0.069	0.050
-378.902	-132.945	-0.101	0.013
-377.888	800.000	0.021	0.089
-376.873	-200.000	-0.003	0.043
-375.858	145.411	0.060	0.079
-374.844	-200.000	-0.051	0.354
-373.829	-200.000	-0.051	-0.466
-372.815	17.196	0.131	-0.103
-371.800	65.194	0.117	0.117
-370.785	221.310	0.127	0.202
-369.771	-153.459	0.166	-0.011
-368.756	-97.633	0.199	-0.051
-367.742	800.000	0.054	0.180
-366.727	800.000	-0.086	-0.269
-365.712	61.257	-0.046	-0.045
-364.698	64.138	-0.153	0.153
-363.683	348.008	0.114	0.223
-362.669	-45.153	0.174	-0.085
-361.654	9.069	-0.240	0.179
-360.639	-200.000	0.010	0.238
-359.625	63.832	-0.158	0.157
-358.610	133.166	0.212	-0.271
-357.596	800.000	-0.047	0.128
-356.581	3.777	0.372	-0.269
-355.566	-136.272	0.230	0.027
-354.552	-5.919	-0.199	0.135
-353.537	153.730	-0.203	0.275
-352.523	-200.000	-0.066	-0.308
-351.508	480.966	-0.093	0.208
-350.493	278.849	0.070	0.123
-349.479	59.560	0.163	-0.159
-348.464	-154.354	0.225	-0.015
-347.450	456.020	0.079	-0.174
-346.435	-166.069	-0.144	-0.006
-345.420	16.247	-0.269	0.210
-344.406	185.542	-0.113	-0.167
-343.391	-75.180	-0.185	-0.065
-342.377	414.332	0.110	-0.231
-341.362	-200.000	-0.072	0.385
-340.348	-73.244	0.286	0.104
-339.333	65.209	-0.080	-0.080
-338.318	800.000	-0.014	0.061
-337.304	-200.000	-0.079	-0.513
-336.289	-111.731	0.508	0.102
-335.275	-34.873	0.223	-0.120
-334.260	73.650	-0.075	0.078
-333.245	246.926	0.083	-0.139
-332.231	800.000	0.090	-0.305
-331.216	-48.894	-0.378	0.179
-330.202	164.678	-0.159	-0.221
-329.187	491.766	0.074	0.168
-328.172	138.246	-0.090	0.116
-327.158	-156.229	0.175	0.011
-326.143	-9.243	-0.123	0.081
-325.129	-96.740	0.209	-0.054
-324.114	300.833	-0.207	0.378
-323.099	-200.000	-0.036	0.446
-322.085	-166.880	-0.267	0.011
-321.070	-200.000	-0.004	-0.114
-320.056	-200.000	-0.036	0.195
-319.041	204.369	-0.128	0.196
-318.026	800.000	0.123	0.349
-317.012	-200.000	-0.024	0.221
-315.997	32.596	0.092	0.078
-314.983	7.992	0.173	-0.129
-313.968	253.022	0.055	-0.093
-312.953	310.061	-0.085	-0.158
-311.939	33.170	-0.034	0.029
-310.924	-136.370	0.123	-0.014
-309.910	-82.597	0.363	0.116
-308.895	444.308	-0.180	0.390
-307.880	-71.891	-0.180	0.066
-306.866	26.708	0.111	0.092
-305.851	328.103	0.145	0.275
-304.837	-148.645	0.099	-0.008
-303.822	-200.000	0.005	0.109
-302.807	41.709	-0.076	0.068
-301.793	-21.060	0.256	-0.155
-300.778	800.000	-0.037	0.132
-299.764	297.335	0.143	-0.260
-298.749	62.457	0.149	-0.147
-297.735	24.548	-0.007	0.006
-296.720	-200.000	0.006	0.043
-295.705	-87.390	-0.137	0.041
-294.691	-200.000	0.002	0.162
-293.676	800.000	0.072	0.240
-292.662	-17.480	0.373	0.232
-291.647	-67.315	-0.180	0.070
-290.632	-18.452	0.218	-0.135
-289.618	-200.000	0.015	0.074
-288.603	-200.000	-0.003	-0.041
-287.589	170.441	0.070	-0.099
-286.574	-21.172	0.052	0.032
-285.559	86.213	0.258	-0.280
-284.545	115.581	0.194	-0.234
-283.530	-65.974	-0.322	0.127
-282.516	4.286	-0.134	-0.097
-281.501	-64.537	0.276	-0.111
-280.486	-200.000	0.006	-0.242
-279.472	327.775	0.102	0.194
-278.457	800.000	0.032	0.103
-277.443	331.518	-0.108	-0.206
-276.428	-68.797	-0.076	-0.029
-275.413	800.000	0.074	-0.244
-274.399	669.224	0.110	-0.280
-273.384	5.048	0.148	0.108
-272.370	447.465	0.079	-0.171
-271.355	-200.000	0.040	0.392
-270.340	216.976	0.107	0.168
-269.326	-159.691	0.457	0.025
-268.311	66.493	-0.133	0.133
-267.297	-130.994	-0.247	0.032
-266.282	21.987	-0.139	-0.112
-265.267	-14.844	-0.185	0.117
-264.253	57.417	-0.183	0.177
-263.238	155.093	0.210	-0.284
-262.224	603.533	-0.112	0.275
-261.209	-59.133	-0.069	-0.030
-260.195	-53.111	-0.176	0.080
-259.180	332.260	-0.093	0.178
-258.165	198.601	0.217	-0.327
-257.151	-200.000	0.022	-0.117
-256.136	-156.304	-0.065	0.004
-255.122	-105.007	-0.372	0.084
-254.107	-147.587	-0.461	0.038
-253.092	638.915	0.147	0.368
-252.078	-131.656	-0.218	0.028
-251.063	-114.552	0.191	-0.036
-250.049	-15.592	0.021	-0.013
-249.034	-26.842	-0.222	0.128
-248.019	581.122	-0.066	-0.160
-247.005	800.000	-0.105	0.306
-245.990	-108.655	0.193	-0.041
-244.976	155.750	0.189	-0.257
-243.961	-54.311	-0.184	0.082
-242.946	-200.000	-0.049	0.337
-241.932	-181.870	0.239	0.004
-240.917	-35.883	0.202	0.108
-239.903	84.476	0.217	0.233
-238.888	800.000	-0.057	0.184
-237.873	-85.807	0.081	-0.025
-236.859	-64.428	-0.106	-0.042
-235.844	-146.153	-0.309	-0.027
-234.830	800.000	0.063	0.242
-233.815	-102.063	-0.061	-0.014
-232.800	511.344	-0.037	-0.084
-231.786	-151.692	-0.220	-0.016
-230.771	20.199	0.159	-0.127
-229.757	123.455	-0.282	0.349
-228.742	-154.184	-0.347	0.023
-227.727	18.838	-0.073	0.058
-226.713	-25.800	0.202	-0.117
-225.698	-200.000	0.047	-0.273
-224.684	-116.664	-0.229	0.042
-223.669	-125.331	0.180	0.027
-222.655	-20.851	0.269	-0.163
-221.640	-108.552	0.135	0.029
-220.625	-172.485	-0.247	-0.008
-219.611	-200.000	-0.044	-0.256
-218.596	800.000	-0.120	-0.416
-217.582	-17.713	0.006	-0.004
-216.567	115.677	0.311	0.375
-215.552	227.739	0.063	-0.101
-214.538	-5.183	-0.122	0.083
-213.523	47.661	0.064	0.058
-212.509	-1.353	0.345	-0.239
-211.494	57.157	0.080	-0.077
-210.479	-176.116	0.240	-0.006
-209.465	650.816	-0.108	-0.272
-208.450	181.324	0.024	0.035
-207.436	-94.132	-0.080	-0.021
-206.421	15.971	-0.236	0.183
-205.406	729.030	-0.167	0.440
-204.392	-200.000	0.025	0.149
-203.377	32.700	0.286	0.243
-202.363	7.861	0.179	-0.132
-201.348	14.648	0.228	-0.175
-200.333	-147.456	-0.168	0.014
-199.319	-200.000	-0.070	0.325
-198.304	5.743	-0.087	0.064
-197.290	-114.914	0.092	-0.017
-196.275	100.278	0.095	-0.109
-195.260	-200.000	-0.019	-0.397
-194.246	-200.000	-0.005	-0.194
-193.231	79.816	0.218	0.230
-192.217	444.414	-0.017	-0.037
-191.202	-101.001	0.112	0.027
-190.187	-126.259	0.171	0.025
-189.173	295.050	-0.076	-0.137
-188.158	-49.682	-0.227	-0.106
-187.144	608.006	-0.018	-0.044
-186.129	198.452	-0.063	0.094
-185.114	489.098	0.173	0.388
-184.100	-11.704	0.303	-0.195
-183.085	800.000	0.052	0.149
-182.071	-94.068	0.066	0.018
-181.056	324.924	-0.099	0.187
-180.042	72.621	-0.129	0.132
-179.027	-64.654	-0.268	0.107
-178.012	-181.152	-0.363	-0.007
-176.998	-135.065	0.080	-0.009
-175.983	-167.786	0.195	0.008
-174.969	53.611	-0.223	0.211
-173.954	-29.581	0.098	-0.055
-172.939	800.000	0.081	-0.280
-171.925	-108.759	0.261	0.055
-170.910	-102.726	0.080	-0.019
-169.896	-2.006	0.245	0.169
-168.881	-67.743	-0.279	0.107
-167.866	-26.777	-0.317	-0.182
-166.852	-136.582	-0.094	-0.011
-165.837	607.465	0.101	-0.246
-164.823	331.332	0.108	0.205
-163.808	-26.134	-0.149	0.086
-162.793	-200.000	-0.011	-0.074
-161.779	338.197	0.046	0.088
-160.764	-14.551	0.296	-0.187
-159.750	-200.000	0.022	0.199
-158.735	-146.265	-0.257	0.022
-157.720	133.986	0.270	-0.343
-156.706	-56.515	0.014	-0.006
-155.691	-37.932	-0.129	-0.067
-154.677	-200.000	0.000	0.081
-153.662	190.753	-0.241	-0.356
-152.647	341.873	-0.052	0.101
-151.633	84.425	-0.165	0.177
-150.618	18.414	-0.446	-0.350
-149.604	-200.000	0.008	0.208
-148.589	-200.000	-0.003	0.097
-147.574	-135.305	-0.183	-0.021
-146.560	251.522	0.302	-0.505
-145.545	-122.271	-0.398	0.064
-144.531	-200.000	0.014	-0.159
-143.516	266.865	-0.226	0.389
-142.502	-101.840	-0.106	0.025
-141.487	54.809	0.158	-0.150
-140.472	-29.760	0.234	0.131
-139.458	-43.486	-0.170	-0.084
-138.443	291.111	0.061	0.109
-137.429	181.460	-0.081	-0.117
-136.414	-131.385	0.126	0.016
-135.399	-96.472	-0.108	-0.028
-134.385	-125.764	-0.050	0.007
-133.370	265.560	0.068	-0.117
-132.356	9.198	0.193	-0.143
-131.341	243.879	0.327	0.538
-130.326	469.526	0.051	-0.113
-129.312	107.242	0.133	-0.155
-128.297	-185.748	-0.149	-0.002
-127.283	85.731	-0.089	0.096
-126.268	395.709	0.046	0.095
-125.253	-132.601	0.299	0.038
-124.239	-200.000	-0.122	0.000
-123.224	296.052	-0.075	-0.135
-122.210	-193.307	-0.091	0.001
-121.195	-151.890	-0.033	0.002
