DTS Sentinel unit serial number:	SN413079Multiplexer serial number:	ORYXHardware model number:	OX4-SRSoftware version number:	ORYX F/W v4.00 Oryx Data Collector v3.7.2.0data status	okinstallation	princeton_trtdifferential loss correction	single-endedforward channel	channel 3reverse channel	N/Adate	2019/09/16time	19:32:35forward acquisition time	60.00reverse acquisition time	0.00gamma	496.2192k internal	0.2315k external	0.2315temperature offset calibration	0.9938default loss term (dB/km)	0.3790temperature slope calibration	1.0000multiplexer offset coefficient	1.0000multiplexer slope coefficient	1.0000fibre end	0.00T internal ref (°C)	34.41T ext. ref 1 (°C)	0.09T ext. ref 2 (°C)	27.28length (m)	temperature (°C)	Stokes	anti-Stokes-747.200	800.000	0.100	0.384
-746.185	60.065	0.049	0.049
-745.171	-161.365	-0.068	-0.004
-744.156	216.537	-0.104	0.167
-743.142	-65.461	0.093	-0.038
-742.127	-200.000	0.031	0.198
-741.112	800.000	-0.129	0.477
-740.098	-200.000	0.009	0.304
-739.083	-181.341	-0.126	-0.003
-738.069	-200.000	0.027	0.221
-737.054	219.191	0.142	0.231
-736.039	-54.631	-0.073	-0.033
-735.025	-145.703	0.385	0.035
-734.010	24.669	0.102	0.085
-732.996	-200.000	0.008	-0.165
-731.981	-1.166	0.234	0.167
-730.966	-78.828	0.106	0.037
-729.952	-200.000	-0.001	0.054
-728.937	550.037	-0.047	0.113
-727.923	-200.000	0.017	-0.079
-726.908	41.000	0.124	-0.114
-725.894	-153.885	-0.179	-0.012
-724.879	29.998	-0.145	0.125
-723.864	-146.133	0.159	-0.014
-722.850	55.194	-0.072	0.071
-721.835	176.005	-0.174	0.256
-720.821	175.733	-0.136	-0.199
-719.806	-74.712	-0.145	-0.053
-718.791	94.399	-0.099	-0.113
-717.777	151.012	-0.122	-0.169
-716.762	-19.626	0.197	-0.124
-715.748	195.722	-0.153	0.236
-714.733	-40.213	0.167	0.088
-713.718	-200.000	-0.044	-0.300
-712.704	800.000	0.042	0.150
-711.689	313.200	0.119	-0.227
-710.675	25.216	0.247	-0.208
-709.660	800.000	-0.083	0.276
-708.645	2.788	-0.356	0.261
-707.631	-60.978	0.392	0.168
-706.616	-86.830	0.320	0.099
-705.602	389.340	-0.064	0.134
-704.587	31.458	0.249	0.216
-703.572	59.658	-0.116	-0.116
-702.558	-200.000	-0.089	0.441
-701.543	-83.216	-0.172	0.056
-700.529	-4.792	-0.062	0.043
-699.514	367.559	0.088	0.180
-698.499	43.675	-0.106	0.098
-697.485	9.211	0.131	-0.100
-696.470	346.836	0.036	-0.072
-695.456	3.160	-0.273	0.201
-694.441	68.966	0.192	-0.199
-693.426	-4.938	-0.025	0.018
-692.412	-159.467	-0.272	0.015
-691.397	800.000	0.020	0.075
-690.383	24.730	0.021	-0.017
-689.368	37.387	-0.098	-0.088
-688.354	132.298	-0.059	0.077
-687.339	-200.000	-0.008	0.232
-686.324	367.074	0.076	0.155
-685.310	173.546	0.028	-0.041
-684.295	-60.951	0.058	-0.025
-683.281	237.410	-0.061	-0.102
-682.266	533.913	-0.170	0.406
-681.251	-127.160	-0.105	0.016
-680.237	-131.630	0.070	0.009
-679.222	-200.000	0.005	0.124
-678.208	-131.909	-0.173	-0.023
-677.193	136.264	-0.124	-0.163
-676.178	521.165	-0.074	-0.175
-675.164	0.292	0.128	-0.092
-674.149	-64.737	-0.264	-0.108
-673.135	-200.000	0.007	0.199
-672.120	-200.000	-0.005	-0.271
-671.105	-68.981	-0.105	0.041
-670.091	-100.708	0.097	0.024
-669.076	18.913	-0.195	-0.158
-668.062	800.000	-0.067	-0.199
-667.047	273.498	0.191	-0.341
-666.032	293.758	0.227	-0.419
-665.018	84.815	0.049	0.055
-664.003	-99.270	-0.362	-0.092
-662.989	-140.358	0.225	0.024
-661.974	-87.871	-0.187	-0.057
-660.959	-200.000	-0.006	0.045
-659.945	-15.656	-0.233	0.150
-658.930	138.507	0.164	0.217
-657.916	-143.806	-0.089	-0.008
-656.901	474.756	-0.163	-0.372
-655.886	-200.000	-0.001	-0.019
-654.872	99.747	-0.091	-0.106
-653.857	-133.539	0.238	-0.030
-652.843	24.625	-0.069	-0.058
-651.828	-103.810	0.115	-0.027
-650.814	207.832	0.176	0.278
-649.799	97.367	-0.084	0.097
-648.784	-200.000	-0.075	-0.405
-647.770	314.250	-0.095	0.181
-646.755	-13.266	-0.354	0.232
-645.741	575.629	0.108	0.266
-644.726	-6.679	-0.395	0.271
-643.711	-169.659	0.300	-0.011
-642.697	800.000	0.105	-0.323
-641.682	-200.000	-0.065	-0.463
-640.668	231.413	-0.159	0.262
-639.653	171.157	0.025	-0.037
-638.638	2.974	0.186	0.136
-637.624	-29.061	0.132	-0.076
-636.609	337.944	-0.119	0.233
-635.595	158.984	0.131	0.183
-634.580	-200.000	-0.034	0.190
-633.565	-200.000	0.000	0.357
-632.551	-200.000	0.042	0.255
-631.536	-135.692	-0.072	-0.009
-630.522	-200.000	0.057	0.253
-629.507	56.274	-0.069	0.068
-628.492	38.116	0.183	0.165
-627.478	611.850	-0.139	-0.351
-626.463	-94.409	-0.178	0.049
-625.449	-7.668	-0.223	-0.152
-624.434	-123.232	-0.313	-0.051
-623.419	-200.000	0.007	-0.079
-622.405	-43.036	-0.291	0.149
-621.390	382.242	-0.122	0.252
-620.376	-46.459	0.372	-0.184
-619.361	150.148	-0.112	0.153
-618.346	-152.369	-0.328	0.024
-617.332	725.029	0.021	-0.057
-616.317	207.556	-0.089	-0.140
-615.303	-99.985	-0.428	-0.108
-614.288	-88.072	0.237	-0.072
-613.273	27.676	-0.222	-0.189
-612.259	-200.000	0.005	-0.037
-611.244	139.531	-0.083	0.110
-610.230	-44.883	-0.126	-0.064
-609.215	-52.883	0.336	-0.156
-608.201	-152.889	-0.207	0.015
-607.186	-85.662	-0.237	0.074
-606.171	38.111	-0.127	0.114
-605.157	144.010	0.223	-0.300
-604.142	-28.101	-0.264	-0.154
-603.128	800.000	-0.052	0.149
-602.113	-80.381	-0.191	0.064
-601.098	109.542	0.141	0.170
-600.084	-83.236	0.137	0.044
-599.069	-170.228	-0.481	0.017
-598.055	26.575	0.089	0.075
-597.040	800.000	-0.042	0.121
-596.025	435.505	0.138	-0.302
-595.011	-17.626	0.136	-0.086
-593.996	-125.721	-0.251	0.038
-592.982	420.058	0.108	0.234
-591.967	274.470	0.140	-0.250
-590.952	800.000	-0.065	-0.226
-589.938	800.000	0.079	0.221
-588.923	209.085	-0.180	0.284
-587.909	-83.554	-0.241	-0.078
-586.894	310.837	-0.025	-0.047
-585.879	-200.000	-0.006	-0.116
-584.865	240.082	0.109	-0.182
-583.850	66.914	0.090	0.093
-582.836	150.955	-0.134	-0.183
-581.821	800.000	0.169	-0.501
-580.806	-200.000	-0.023	-0.242
-579.792	-106.364	0.142	0.032
-578.777	30.116	-0.037	0.032
-577.763	-30.200	0.099	0.057
-576.748	-99.991	0.241	0.061
-575.733	-184.574	-0.032	-0.001
-574.719	-79.560	-0.268	-0.091
-573.704	466.327	-0.053	0.119
-572.690	-98.033	0.251	-0.065
-571.675	-61.577	-0.281	0.119
-570.661	-200.000	-0.040	-0.194
-569.646	782.754	0.145	-0.400
-568.631	39.601	-0.103	-0.093
-567.617	788.665	-0.044	-0.121
-566.602	367.201	-0.156	-0.317
-565.588	-51.036	0.040	0.019
-564.573	31.067	0.226	0.195
-563.558	316.934	-0.171	0.326
-562.544	-158.382	0.374	0.022
-561.529	800.000	0.067	-0.231
-560.515	800.000	-0.049	0.155
-559.500	-200.000	0.041	-0.374
-558.485	430.250	-0.037	-0.081
-557.471	345.643	0.226	0.447
-556.456	-50.431	0.295	-0.140
-555.442	289.601	-0.096	0.174
-554.427	-72.582	0.220	0.082
-553.412	-55.297	-0.026	-0.012
-552.398	88.887	-0.035	0.039
-551.383	-127.290	-0.408	0.060
-550.369	-87.770	0.222	-0.067
-549.354	-200.000	-0.021	-0.147
-548.339	24.719	0.134	0.111
-547.325	549.488	0.067	-0.161
-546.310	-75.807	0.440	-0.157
-545.296	-131.916	-0.110	-0.014
-544.281	-131.166	-0.237	-0.032
-543.266	-55.320	-0.155	0.070
-542.252	800.000	0.084	-0.254
-541.237	-107.144	-0.059	0.013
-540.223	800.000	0.060	-0.203
-539.208	138.684	-0.131	0.172
-538.193	-200.000	0.012	0.067
-537.179	750.491	0.069	-0.188
-536.164	82.865	0.150	0.164
-535.150	90.565	0.112	-0.126
-534.135	-23.887	0.153	-0.092
-533.121	-200.000	-0.056	-0.335
-532.106	-17.470	-0.343	-0.217
-531.091	502.270	0.166	0.385
-530.077	-200.000	0.002	-0.261
-529.062	-1.167	0.159	0.113
-528.048	331.316	-0.170	0.329
-527.033	800.000	-0.017	0.064
-526.018	-122.697	0.088	0.014
-525.004	-115.571	0.270	0.051
-523.989	539.242	0.107	-0.257
-522.975	18.922	0.172	-0.139
-521.960	432.257	0.096	-0.208
-520.945	-151.667	0.352	0.026
-519.931	-101.983	0.090	0.022
-518.916	-134.145	-0.418	-0.052
-517.902	-99.343	0.053	0.013
-516.887	-5.454	0.101	0.070
-515.872	-70.295	0.077	-0.029
-514.858	329.217	0.052	0.101
-513.843	45.636	-0.427	0.396
-512.829	185.975	-0.226	0.338
-511.814	93.205	-0.147	0.166
-510.799	98.644	-0.079	-0.092
-509.785	800.000	-0.085	-0.240
-508.770	-95.859	-0.265	-0.071
-507.756	-81.434	0.115	0.038
-506.741	800.000	0.059	-0.192
-505.726	800.000	-0.102	-0.334
-504.712	154.231	0.223	0.307
-503.697	137.063	-0.085	0.111
-502.683	30.678	-0.208	0.179
-501.668	386.998	0.116	-0.240
-500.653	-200.000	-0.001	0.027
-499.639	70.460	-0.125	0.130
-498.624	80.202	0.124	0.134
-497.610	800.000	0.038	-0.161
-496.595	-177.327	0.177	0.004
-495.581	-24.223	0.331	-0.198
-494.566	132.831	-0.340	-0.441
-493.551	-109.107	-0.070	0.015
-492.537	-38.154	-0.148	0.078
-491.522	147.330	-0.251	-0.339
-490.508	-24.367	-0.287	-0.171
-489.493	-200.000	0.007	0.033
-488.478	209.079	-0.070	-0.110
-487.464	58.909	0.093	0.092
-486.449	-119.487	0.141	0.025
-485.435	262.202	0.016	-0.028
-484.420	-200.000	0.022	-0.248
-483.405	21.307	0.344	0.280
-482.391	-200.000	0.025	0.201
-481.376	-200.000	-0.034	0.211
-480.362	-155.250	0.147	0.010
-479.347	-102.740	-0.201	0.048
-478.332	-158.588	-0.209	0.012
-477.318	228.728	0.073	-0.120
-476.303	-117.963	-0.148	0.027
-475.289	-6.427	-0.108	-0.074
-474.274	-200.000	-0.025	0.274
-473.259	9.799	-0.079	-0.060
-472.245	237.708	0.171	0.285
-471.230	-17.919	0.084	-0.053
-470.216	-200.000	0.003	-0.015
-469.201	408.084	-0.223	0.473
-468.186	-200.000	0.014	0.108
-467.172	66.117	-0.117	0.119
-466.157	-0.855	0.064	-0.045
-465.143	-29.115	-0.372	0.214
-464.128	-133.154	0.068	0.009
-463.113	70.660	0.062	0.064
-462.099	311.933	-0.057	-0.106
-461.084	177.203	0.181	-0.264
-460.070	-36.914	-0.057	0.031
-459.055	84.694	-0.117	0.128
-458.040	60.540	0.127	0.126
-457.026	-21.599	0.263	0.161
-456.011	-163.177	-0.199	0.010
-454.997	-200.000	0.030	-0.193
-453.982	-200.000	0.012	0.105
-452.968	800.000	-0.138	0.484
-451.953	-44.442	0.273	0.137
-450.938	800.000	-0.050	-0.218
-449.924	-84.315	0.254	-0.080
-448.909	800.000	0.077	-0.279
-447.895	42.170	0.029	-0.026
-446.880	-117.773	0.290	0.052
-445.865	-97.160	-0.146	0.038
-444.851	-200.000	-0.030	0.148
-443.836	37.001	0.154	-0.137
-442.822	-51.588	-0.281	-0.131
-441.807	-200.000	0.014	0.144
-440.792	-63.387	0.158	-0.065
-439.778	309.108	-0.078	-0.146
-438.763	800.000	-0.100	0.281
-437.749	-200.000	-0.003	-0.178
-436.734	332.524	-0.073	-0.142
-435.719	300.430	-0.100	-0.185
-434.705	-172.301	0.158	0.005
-433.690	-54.970	0.173	-0.078
-432.676	-100.075	-0.173	-0.043
-431.661	-57.578	-0.433	0.190
-430.646	94.890	-0.238	-0.271
-429.632	527.104	0.044	0.103
-428.617	-200.000	-0.015	0.275
-427.603	84.880	-0.127	-0.139
-426.588	695.929	-0.105	0.275
-425.573	721.609	-0.101	0.268
-424.559	800.000	-0.103	0.326
-423.544	-41.464	0.283	0.146
-422.530	-200.000	-0.019	0.462
-421.515	32.476	0.127	-0.109
-420.500	-109.963	0.318	-0.067
-419.486	-114.136	-0.165	-0.032
-418.471	10.089	-0.026	0.019
-417.457	-189.171	0.231	-0.003
-416.442	130.207	0.187	0.240
-415.428	800.000	0.138	-0.386
-414.413	525.718	-0.053	0.125
-413.398	-200.000	-0.014	-0.362
-412.384	118.610	-0.196	-0.242
-411.369	131.682	0.217	0.279
-410.355	-108.359	-0.345	0.074
-409.340	192.597	-0.022	-0.033
-408.325	10.158	0.059	0.045
-407.311	123.147	-0.350	-0.438
-406.296	64.166	-0.175	-0.176
-405.282	-70.769	0.225	0.085
-404.267	31.910	-0.203	-0.175
-403.252	-69.542	0.041	-0.016
-402.238	-48.825	-0.392	-0.188
-401.223	-151.921	0.475	-0.035
-400.209	800.000	0.028	-0.092
-399.194	-146.915	-0.274	-0.024
-398.179	212.124	0.104	0.163
-397.165	52.152	0.172	0.163
-396.150	252.600	0.120	0.204
-395.136	142.612	0.119	0.158
-394.121	203.005	-0.116	-0.179
-393.106	-134.825	-0.116	-0.014
-392.092	213.813	-0.101	-0.160
-391.077	105.015	0.179	0.211
-390.063	-200.000	-0.039	0.250
-389.048	-60.028	-0.115	0.049
-388.033	-60.410	-0.186	-0.079
-387.019	44.956	0.228	-0.210
-386.004	800.000	0.055	-0.208
-384.990	800.000	0.022	0.088
-383.975	-200.000	0.009	-0.062
-382.960	427.634	0.172	-0.370
-381.946	305.515	-0.096	-0.179
-380.931	32.863	-0.196	0.170
-379.917	106.605	0.145	0.172
-378.902	-52.332	0.085	-0.039
-377.888	133.149	0.094	0.121
-376.873	-60.728	-0.188	0.080
-375.858	-93.560	0.179	-0.049
-374.844	80.696	0.183	-0.197
-373.829	31.276	0.315	-0.270
-372.815	62.444	0.267	0.266
-371.800	37.435	0.245	0.217
-370.785	180.328	0.040	-0.058
-369.771	-200.000	0.012	-0.205
-368.756	-133.795	-0.407	-0.051
-367.742	-139.542	0.230	0.025
-366.727	-78.148	-0.247	0.085
-365.712	-28.885	0.159	0.091
-364.698	103.807	0.085	0.099
-363.683	182.940	0.169	-0.250
-362.669	-188.928	0.313	0.004
-361.654	-72.247	0.209	0.077
-360.639	800.000	0.007	-0.023
-359.625	155.959	0.084	-0.115
-358.610	-200.000	0.017	-0.220
-357.596	-66.664	0.353	-0.140
-356.581	218.675	0.088	0.140
-355.566	47.118	-0.124	0.115
-354.552	224.391	0.141	0.228
-353.537	-4.563	-0.227	0.156
-352.523	-20.146	0.068	-0.042
-351.508	-115.118	-0.455	-0.086
-350.493	381.203	0.153	0.313
-349.479	800.000	-0.057	0.185
-348.464	105.084	-0.053	-0.063
-347.450	-200.000	-0.025	0.110
-346.435	-200.000	0.043	0.288
-345.420	-200.000	0.056	-0.328
-344.406	-149.529	0.153	0.012
-343.391	-27.564	0.344	0.199
-342.377	-200.000	0.092	-0.457
-341.362	-193.446	-0.276	0.002
-340.348	1.450	0.257	-0.184
-339.333	-200.000	-0.069	-0.359
-338.318	94.018	-0.164	-0.185
-337.304	216.767	-0.128	0.203
-336.289	-200.000	-0.024	-0.137
-335.275	116.371	0.194	0.237
-334.260	210.952	-0.004	-0.007
-333.245	-111.322	-0.268	-0.055
-332.231	-85.652	-0.121	-0.037
-331.216	238.020	0.123	-0.204
-330.202	-8.888	0.399	-0.267
-329.187	128.991	-0.104	0.133
-328.172	-61.394	-0.352	-0.148
-327.158	227.424	0.090	-0.146
-326.143	324.021	-0.180	-0.342
-325.129	141.260	-0.036	0.047
-324.114	-103.425	0.276	-0.065
-323.099	-200.000	0.001	-0.147
-322.085	-83.653	-0.303	-0.096
-321.070	82.619	0.044	-0.047
-320.056	56.328	-0.116	-0.112
-319.041	-200.000	0.055	-0.272
-318.026	-172.740	0.331	-0.010
-317.012	-141.426	-0.256	0.026
-315.997	128.649	-0.087	0.111
-314.983	-62.852	-0.236	0.097
-313.968	195.978	-0.139	-0.211
-312.953	6.402	-0.031	-0.023
-311.939	236.610	0.086	-0.141
-310.924	-77.753	0.079	0.027
-309.910	-200.000	-0.063	0.274
-308.895	30.210	0.288	-0.244
-307.880	1.171	-0.473	-0.338
-306.866	800.000	-0.066	-0.261
-305.851	367.400	0.046	0.093
-304.837	29.468	-0.152	0.128
-303.822	-186.916	0.220	0.003
-302.807	-119.343	-0.345	0.060
-301.793	-149.839	0.199	0.016
-300.778	-91.027	0.273	-0.078
-299.764	361.590	0.065	0.130
-298.749	-148.143	-0.187	-0.015
-297.735	385.837	0.067	0.137
-296.720	14.105	-0.145	-0.113
-295.705	-109.420	-0.389	0.082
-294.691	132.032	-0.232	-0.298
-293.676	-200.000	0.047	-0.376
-292.662	-200.000	-0.020	0.108
-291.647	26.311	0.178	-0.148
-290.632	-141.882	0.091	0.009
-289.618	-53.863	0.056	-0.025
-288.603	-191.792	-0.196	-0.002
-287.589	62.684	-0.205	0.204
-286.574	-81.920	0.386	0.126
-285.559	-131.575	-0.130	-0.017
-284.545	34.839	-0.039	0.034
-283.530	517.855	0.035	0.082
-282.516	800.000	0.068	0.202
-281.501	460.192	0.098	-0.217
-280.486	-76.330	-0.088	-0.031
-279.472	-100.449	-0.053	0.013
-278.457	800.000	0.131	0.381
-277.443	198.875	-0.272	-0.415
-276.428	-175.978	0.276	0.007
-275.413	328.323	0.167	0.318
-274.399	-10.191	0.076	-0.050
-273.384	145.214	0.102	-0.136
-272.370	-22.232	-0.196	-0.118
-271.355	15.451	0.234	-0.183
-270.340	-117.431	0.431	0.078
-269.326	32.191	0.427	-0.367
-268.311	-7.604	-0.209	-0.141
-267.297	-122.587	0.175	0.028
-266.282	108.644	-0.205	0.244
-265.267	-67.582	0.220	-0.086
-264.253	184.173	0.077	0.113
-263.238	229.394	-0.242	0.392
-262.224	153.980	-0.104	0.142
-261.209	-20.005	0.175	-0.107
-260.195	800.000	-0.021	0.061
-259.180	527.986	-0.099	-0.232
-258.165	800.000	-0.034	-0.130
-257.151	-131.510	-0.156	-0.020
-256.136	111.389	-0.167	0.201
-255.122	-171.423	0.226	0.007
-254.107	-200.000	-0.008	0.215
-253.092	-45.675	0.214	0.105
-252.078	-200.000	-0.017	-0.198
-251.063	-136.478	0.120	0.014
-250.049	229.654	-0.090	0.146
-249.034	202.362	0.066	-0.102
-248.019	-99.569	-0.087	-0.022
-247.005	-200.000	0.060	0.329
-245.990	197.956	0.152	0.231
-244.976	29.500	-0.102	-0.086
-243.961	-5.870	-0.138	0.094
-242.946	-63.549	-0.238	0.097
-241.932	-101.363	0.127	0.031
-240.917	800.000	0.042	-0.170
-239.903	261.662	-0.054	0.092
-238.888	-2.156	0.240	0.167
-237.873	71.911	-0.034	0.035
-236.859	-18.938	0.503	0.311
-235.844	233.511	-0.152	0.249
-234.830	-6.793	0.143	-0.097
-233.815	766.781	-0.033	-0.089
-232.800	61.523	-0.168	-0.166
-231.786	-70.443	0.096	0.036
-230.771	-1.015	-0.228	-0.160
-229.757	-200.000	-0.057	-0.390
-228.742	-200.000	0.029	-0.177
-227.727	-35.673	0.070	-0.038
-226.713	-137.468	-0.252	-0.028
-225.698	-95.325	-0.035	0.009
-224.684	-14.615	0.044	-0.028
-223.669	-101.073	0.074	0.018
-222.655	469.065	-0.134	0.298
-221.640	126.018	0.107	0.135
-220.625	-101.895	-0.476	-0.114
-219.611	-11.413	-0.080	0.052
-218.596	-129.035	-0.331	0.046
-217.582	117.371	0.169	0.207
-216.567	52.428	0.018	-0.017
-215.552	-200.000	0.000	-0.142
-214.538	-103.341	-0.181	-0.042
-213.523	143.361	-0.075	0.099
-212.509	-78.190	0.276	-0.094
-211.494	-74.750	0.267	-0.095
-210.479	-200.000	0.014	0.399
-209.465	-41.185	-0.108	-0.055
-208.450	756.666	0.079	-0.212
-207.436	-50.279	0.317	-0.149
-206.421	232.479	0.064	0.105
-205.406	-200.000	-0.033	-0.390
-204.392	-74.370	0.259	-0.093
-203.377	262.234	0.065	-0.112
-202.363	-169.401	0.133	-0.005
-201.348	43.651	-0.277	0.251
-200.333	-105.296	0.243	-0.055
-199.319	108.167	-0.152	0.179
-198.304	191.371	0.056	0.083
-197.290	-89.577	0.316	0.092
-196.275	-200.000	0.017	-0.349
-195.260	-200.000	0.028	-0.139
-194.246	-85.786	-0.064	0.020
-193.231	-32.081	0.150	-0.083
-192.217	97.726	-0.153	0.175
-191.202	-73.734	0.126	-0.046
-190.187	-200.000	-0.008	0.202
-189.173	-200.000	0.033	-0.163
-188.158	800.000	0.074	0.236
-187.144	682.640	0.152	-0.393
-186.129	725.980	0.054	0.144
-185.114	-200.000	-0.011	0.199
-184.100	76.821	-0.098	-0.103
-183.085	-200.000	0.038	0.384
-182.071	201.273	0.134	-0.205
-181.056	800.000	0.088	0.324
-180.042	800.000	0.099	0.350
-179.027	228.979	-0.111	0.180
-178.012	-15.027	0.238	0.151
-176.998	299.013	-0.051	-0.094
-175.983	334.519	0.076	0.146
-174.969	-94.070	-0.127	0.035
-173.954	-144.684	-0.004	0.000
-172.939	-123.738	0.065	-0.010
-171.925	133.435	-0.114	0.146
-170.910	800.000	-0.025	-0.073
-169.896	-200.000	-0.015	0.193
-168.881	397.081	-0.138	0.285
-167.866	19.242	-0.196	0.156
-166.852	-94.058	0.292	0.079
-165.837	-200.000	-0.033	-0.319
-164.823	800.000	0.072	-0.211
-163.808	148.423	-0.165	0.220
-162.793	-200.000	-0.001	-0.090
-161.779	-200.000	-0.062	0.354
-160.764	386.553	-0.122	0.249
-159.750	800.000	0.030	0.103
-158.735	800.000	0.070	-0.195
-157.720	78.939	-0.174	-0.185
-156.706	-94.267	0.057	0.015
-155.691	546.265	-0.080	0.190
-154.677	-149.958	0.211	-0.016
-153.662	-186.009	-0.158	-0.002
-152.647	800.000	0.048	0.153
-151.633	-18.011	-0.118	0.073
-150.618	-200.000	-0.029	0.181
-149.604	-56.220	0.204	-0.090
-148.589	-116.645	0.432	0.079
-147.574	20.311	-0.121	-0.097
-146.560	149.001	0.227	-0.304
-145.545	-200.000	-0.007	0.180
-144.531	800.000	0.034	0.147
-143.516	800.000	-0.074	-0.215
-142.502	800.000	0.036	-0.114
-141.487	-73.215	0.169	0.061
-140.472	-107.797	0.350	0.075
-139.458	-82.076	-0.181	0.058
-138.443	800.000	-0.021	-0.062
-137.429	334.878	0.049	0.094
-136.414	-200.000	0.061	0.329
-135.399	-140.570	0.180	0.018
-134.385	155.449	-0.097	0.133
-133.370	280.374	-0.027	-0.048
-132.356	558.433	-0.064	-0.152
-131.341	115.484	-0.236	0.286
-130.326	-200.000	0.003	0.133
-129.312	-200.000	-0.011	0.173
-128.297	787.082	0.047	0.128
-127.283	-200.000	0.001	0.077
-126.268	-152.213	-0.222	0.016
-125.253	702.835	0.065	-0.170
-124.239	188.388	-0.126	0.187
-123.224	374.453	0.113	-0.227
-122.210	-120.041	-0.491	-0.083
-121.195	107.178	-0.281	0.330
-120.180	113.047	-0.051	0.062
