DTS Sentinel unit serial number:	SN413079Multiplexer serial number:	ORYXHardware model number:	OX4-SRSoftware version number:	ORYX F/W v4.00 Oryx Data Collector v3.7.2.0data status	okinstallation	princeton_trtdifferential loss correction	single-endedforward channel	channel 3reverse channel	N/Adate	2019/09/15time	10:04:35forward acquisition time	60.00reverse acquisition time	0.00gamma	496.2192k internal	0.2307k external	0.2307temperature offset calibration	0.9973default loss term (dB/km)	0.3790temperature slope calibration	1.0000multiplexer offset coefficient	1.0000multiplexer slope coefficient	1.0000fibre end	0.00T internal ref (°C)	34.16T ext. ref 1 (°C)	5.01T ext. ref 2 (°C)	30.01length (m)	temperature (°C)	Stokes	anti-Stokes-747.200	-44.766	-0.138	-0.070
-746.185	210.854	0.043	0.069
-745.171	800.000	0.054	-0.156
-744.156	-200.000	-0.015	0.099
-743.142	-200.000	-0.009	-0.231
-742.127	-94.935	-0.033	-0.009
-741.112	-0.732	-0.130	0.094
-740.098	20.260	-0.095	-0.078
-739.083	470.297	0.141	-0.323
-738.069	-200.000	0.038	0.000
-737.054	-65.717	0.076	-0.031
-736.039	594.193	0.106	0.267
-735.025	184.602	-0.217	0.327
-734.010	411.188	-0.140	-0.301
-732.996	48.891	0.204	-0.194
-731.981	312.268	-0.025	-0.048
-730.966	627.622	0.084	-0.216
-729.952	-17.438	0.114	0.073
-728.937	-33.770	-0.212	-0.119
-727.923	311.406	-0.068	-0.130
-726.908	-200.000	-0.013	0.245
-725.894	15.255	0.278	0.222
-724.879	-178.376	-0.369	0.009
-723.864	-64.455	-0.174	-0.072
-722.850	-200.000	-0.022	0.174
-721.835	-76.957	0.218	-0.077
-720.821	-200.000	0.003	0.311
-719.806	50.343	-0.236	-0.227
-718.791	154.043	-0.047	-0.066
-717.777	-151.460	-0.380	0.029
-716.762	-104.325	0.033	-0.008
-715.748	-28.811	-0.228	0.133
-714.733	246.830	0.064	0.109
-713.718	-164.960	0.265	0.012
-712.704	129.646	-0.289	0.375
-711.689	367.881	-0.102	0.208
-710.675	157.210	-0.138	-0.193
-709.660	-128.556	-0.109	0.016
-708.645	360.325	0.165	-0.335
-707.631	-30.863	0.045	0.026
-706.616	-161.397	0.093	0.005
-705.602	-105.514	0.232	0.054
-704.587	-107.097	-0.312	-0.070
-703.572	133.489	-0.099	0.130
-702.558	22.362	-0.127	-0.105
-701.543	-74.634	-0.233	-0.085
-700.529	430.375	-0.057	-0.126
-699.514	-146.886	0.053	-0.005
-698.499	-91.105	0.370	-0.108
-697.485	-122.463	-0.125	-0.021
-696.470	-114.661	-0.174	0.034
-695.456	-200.000	0.003	0.177
-694.441	5.845	0.126	-0.095
-693.426	20.301	-0.081	0.067
-692.412	-39.144	-0.194	0.104
-691.397	-61.526	0.105	0.045
-690.383	-89.413	-0.313	0.093
-689.368	695.352	0.065	0.173
-688.354	-89.757	-0.024	-0.007
-687.339	46.124	-0.110	0.103
-686.324	-7.992	-0.333	-0.228
-685.310	287.446	-0.144	-0.265
-684.295	-70.575	0.081	0.031
-683.281	357.494	0.080	-0.162
-682.266	258.731	0.187	0.327
-681.251	111.346	0.272	-0.332
-680.237	-200.000	-0.017	-0.119
-679.222	-200.000	-0.005	-0.219
-678.208	-200.000	-0.079	-0.441
-677.193	-13.025	-0.170	-0.112
-676.178	-29.751	0.311	0.180
-675.164	-87.798	-0.163	0.050
-674.149	210.241	-0.197	-0.313
-673.135	-200.000	0.037	-0.292
-672.120	648.204	0.113	0.292
-671.105	108.854	0.082	0.099
-670.091	-200.000	0.021	0.299
-669.076	800.000	0.040	-0.157
-668.062	88.047	0.218	-0.245
-667.047	449.596	0.106	-0.236
-666.032	-145.881	-0.376	-0.034
-665.018	-200.000	-0.004	-0.050
-664.003	84.919	0.141	-0.157
-662.989	-10.761	0.428	-0.287
-661.974	62.301	-0.071	-0.072
-660.959	-137.160	-0.071	0.008
-659.945	-96.264	0.304	0.082
-658.930	-132.072	-0.141	-0.019
-657.916	-99.290	-0.340	-0.087
-656.901	65.906	-0.104	0.107
-655.886	-39.257	0.302	0.161
-654.872	-200.000	-0.088	-0.434
-653.857	149.832	0.166	0.228
-652.843	190.517	-0.185	0.281
-651.828	241.792	0.181	-0.306
-650.814	-141.348	-0.107	-0.011
-649.799	800.000	0.097	-0.351
-648.784	237.428	-0.063	-0.105
-647.770	-20.594	-0.098	-0.061
-646.755	-200.000	0.002	-0.247
-645.741	800.000	-0.060	-0.169
-644.726	-200.000	0.017	-0.226
-643.711	28.975	-0.295	-0.254
-642.697	402.917	0.025	0.053
-641.682	-200.000	0.006	0.058
-640.668	-200.000	-0.043	-0.266
-639.653	800.000	-0.045	-0.173
-638.638	800.000	0.028	0.109
-637.624	52.622	-0.147	0.143
-636.609	-82.700	0.053	-0.018
-635.595	259.705	-0.096	0.168
-634.580	800.000	0.100	-0.417
-633.565	35.727	0.147	0.131
-632.551	-156.829	0.226	0.014
-631.536	9.455	-0.319	-0.245
-630.522	56.912	0.175	0.173
-629.507	-200.000	0.009	-0.133
-628.492	-14.759	0.139	-0.091
-627.478	800.000	-0.067	-0.195
-626.463	-56.510	-0.137	0.062
-625.449	-200.000	0.023	-0.149
-624.434	800.000	-0.098	-0.375
-623.419	-79.819	0.023	0.008
-622.405	-200.000	-0.023	-0.220
-621.390	242.237	-0.053	0.090
-620.376	-200.000	0.048	0.220
-619.361	-200.000	-0.014	0.116
-618.346	15.181	-0.277	0.220
-617.332	-155.942	-0.146	-0.009
-616.317	-115.033	0.148	-0.028
-615.303	-93.219	-0.207	0.058
-614.288	243.186	-0.124	0.210
-613.273	152.156	-0.036	-0.050
-612.259	800.000	0.051	0.160
-611.244	-63.965	-0.074	0.031
-610.230	49.380	-0.128	0.122
-609.215	-200.000	-0.021	-0.153
-608.201	-200.000	-0.025	0.113
-607.186	800.000	0.060	-0.232
-606.171	46.734	-0.310	0.291
-605.157	800.000	-0.105	0.309
-604.142	203.782	0.230	0.360
-603.128	367.956	0.024	0.049
-602.113	800.000	-0.023	-0.064
-601.098	-92.631	0.459	-0.130
-600.084	37.709	0.203	-0.182
-599.069	780.688	0.068	0.187
-598.055	82.646	-0.136	0.150
-597.040	168.521	-0.125	0.180
-596.025	-170.806	0.098	-0.003
-595.011	135.341	0.261	-0.343
-593.996	800.000	0.081	-0.325
-592.982	128.033	0.125	0.161
-591.967	-22.724	0.326	-0.199
-590.952	-200.000	-0.009	-0.173
-589.938	-127.612	0.102	-0.015
-588.923	-135.396	-0.112	-0.014
-587.909	-200.000	0.018	0.135
-586.894	188.494	-0.212	0.321
-585.879	-4.456	0.274	0.191
-584.865	104.018	0.152	-0.181
-583.850	-45.706	0.219	0.109
-582.836	800.000	-0.052	0.151
-581.821	-103.046	-0.151	0.036
-580.806	85.233	0.117	0.130
-579.792	36.391	-0.259	-0.231
-578.777	800.000	0.021	-0.062
-577.763	83.212	-0.222	-0.244
-576.748	173.722	0.137	0.200
-575.733	-123.052	-0.211	-0.034
-574.719	68.932	-0.109	-0.113
-573.704	800.000	0.063	0.205
-572.690	17.139	-0.119	-0.095
-571.675	-122.388	0.325	-0.054
-570.661	-80.665	-0.023	0.008
-569.646	226.614	-0.268	0.439
-568.631	-87.456	0.225	0.069
-567.617	11.024	0.165	-0.127
-566.602	-200.000	0.023	-0.113
-565.588	-76.656	-0.220	0.078
-564.573	-200.000	-0.004	0.339
-563.558	3.927	-0.243	-0.179
-562.544	-108.729	-0.045	-0.010
-561.529	-200.000	0.034	0.219
-560.515	248.762	-0.113	0.193
-559.500	-109.942	0.219	0.046
-558.485	-15.201	0.088	-0.057
-557.471	800.000	0.069	0.202
-556.456	-200.000	-0.038	-0.254
-555.442	-200.000	0.024	0.358
-554.427	33.882	-0.144	0.126
-553.412	-200.000	0.014	0.223
-552.398	276.927	-0.119	-0.213
-551.383	244.855	0.161	-0.274
-550.369	147.917	-0.048	0.066
-549.354	-97.754	0.432	0.113
-548.339	800.000	0.034	0.107
-547.325	186.853	-0.130	0.195
-546.310	-187.397	0.154	-0.002
-545.296	5.099	-0.112	-0.083
-544.281	-200.000	0.020	0.111
-543.266	-200.000	0.052	-0.277
-542.252	-2.611	0.154	-0.108
-541.237	-85.698	0.299	-0.094
-540.223	-200.000	0.005	-0.079
-539.208	-2.841	-0.129	0.091
-538.193	-161.059	0.253	0.013
-537.179	583.014	-0.066	-0.163
-536.164	800.000	0.070	-0.266
-535.150	362.108	0.023	0.046
-534.135	68.466	0.063	0.066
-533.121	432.801	-0.132	0.289
-532.106	-89.119	-0.173	0.052
-531.091	-18.017	0.058	-0.037
-530.077	60.158	0.066	-0.065
-529.062	35.808	-0.296	0.263
-528.048	763.807	-0.101	-0.278
-527.033	-95.254	-0.315	-0.085
-526.018	-59.125	-0.241	0.105
-525.004	-14.670	-0.023	0.015
-523.989	800.000	-0.052	0.208
-522.975	-8.483	0.099	0.067
-521.960	-200.000	0.032	-0.179
-520.945	173.058	0.104	-0.150
-519.931	-181.649	-0.144	0.003
-518.916	284.236	0.088	-0.160
-517.902	-145.057	-0.476	-0.044
-516.887	-94.147	0.257	0.071
-515.872	-200.000	0.011	-0.070
-514.858	-83.486	-0.216	-0.070
-513.843	-100.553	0.284	-0.071
-512.829	244.486	-0.085	0.144
-511.814	36.892	-0.131	-0.117
-510.799	-118.790	0.185	0.033
-509.785	745.215	-0.109	0.297
-508.770	-89.421	-0.269	-0.080
-507.756	-200.000	0.009	-0.274
-506.741	-200.000	0.034	0.412
-505.726	-67.027	-0.353	0.140
-504.712	-135.104	0.168	-0.020
-503.697	-56.751	0.104	-0.046
-502.683	-155.979	0.274	0.018
-501.668	106.241	-0.111	-0.132
-500.653	-200.000	0.016	0.192
-499.639	42.679	0.228	0.209
-498.624	800.000	-0.066	0.219
-497.610	378.567	-0.218	-0.450
-496.595	139.049	-0.197	-0.261
-495.581	-13.889	-0.157	-0.102
-494.566	800.000	0.112	-0.322
-493.551	800.000	0.113	0.316
-492.537	-176.181	0.264	-0.007
-491.522	170.349	0.076	-0.109
-490.508	-62.248	0.453	0.190
-489.493	88.227	-0.131	0.146
-488.478	800.000	-0.063	-0.208
-487.464	237.448	-0.095	0.158
-486.449	12.067	-0.200	0.155
-485.435	340.110	0.138	0.272
-484.420	186.420	0.163	-0.244
-483.405	50.919	-0.236	0.225
-482.391	149.223	-0.110	-0.150
-481.376	-200.000	-0.024	-0.437
-480.362	298.995	-0.113	-0.209
-479.347	800.000	-0.060	-0.197
-478.332	-49.905	-0.445	-0.212
-477.318	-116.417	-0.095	-0.018
-476.303	17.817	0.189	-0.151
-475.289	-90.644	-0.036	-0.011
-474.274	-200.000	0.002	-0.039
-473.259	61.013	0.053	0.053
-472.245	-127.239	-0.216	0.032
-471.230	-10.247	0.184	-0.123
-470.216	-200.000	-0.013	-0.348
-469.201	52.575	-0.190	-0.182
-468.186	-149.112	0.281	0.023
-467.172	558.857	-0.116	-0.281
-466.157	497.093	-0.027	0.063
-465.143	30.965	-0.086	0.074
-464.128	-82.179	0.215	-0.071
-463.113	574.186	0.194	0.476
-462.099	800.000	-0.049	-0.137
-461.084	45.641	0.064	0.059
-460.070	436.869	0.156	0.341
-459.055	-200.000	0.006	-0.068
-458.040	800.000	-0.066	0.276
-457.026	-109.852	0.524	-0.111
-456.011	-149.073	-0.307	-0.025
-454.997	-77.995	0.201	0.070
-453.982	-200.000	0.057	-0.393
-452.968	70.144	0.253	-0.263
-451.953	307.656	-0.227	0.426
-450.938	666.279	-0.069	0.179
-449.924	-21.154	-0.157	0.096
-448.909	-9.772	-0.282	0.189
-447.895	-74.131	0.137	-0.050
-446.880	-44.802	-0.039	-0.020
-445.865	-87.393	-0.135	0.041
-444.851	-79.470	-0.396	-0.134
-443.836	-125.670	-0.381	-0.058
-442.822	646.907	-0.037	0.094
-441.807	-200.000	-0.102	-0.551
-440.792	151.345	0.055	-0.075
-439.778	514.780	-0.073	0.171
-438.763	-200.000	0.015	-0.333
-437.749	-200.000	-0.010	0.077
-436.734	-200.000	-0.011	0.069
-435.719	481.079	0.007	-0.015
-434.705	163.837	-0.053	0.075
-433.690	-124.932	0.119	0.018
-432.676	496.673	-0.124	-0.285
-431.661	445.034	-0.023	0.050
-430.646	-200.000	-0.007	-0.091
-429.632	-61.273	-0.012	-0.005
-428.617	102.618	0.252	0.297
-427.603	204.442	0.211	-0.328
-426.588	-60.820	-0.226	0.096
-425.573	-200.000	0.179	0.000
-424.559	2.292	0.301	0.219
-423.544	153.793	-0.126	0.173
-422.530	-200.000	0.032	-0.246
-421.515	470.224	-0.088	0.199
-420.500	-64.716	0.524	0.213
-419.486	35.394	-0.206	0.182
-418.471	-68.109	0.267	0.105
-417.457	32.785	0.136	-0.118
-416.442	93.426	-0.170	0.193
-415.428	-136.269	0.353	-0.041
-414.413	-200.000	-0.013	0.154
-413.398	-200.000	-0.045	0.289
-412.384	53.005	0.275	-0.264
-411.369	189.010	-0.096	0.144
-410.355	-1.811	-0.271	0.191
-409.340	-127.854	0.084	0.012
-408.325	-127.804	-0.555	0.080
-407.311	289.485	0.107	0.194
-406.296	-200.000	0.037	0.341
-405.282	-12.919	0.194	0.127
-404.267	800.000	0.065	-0.208
-403.252	-105.526	0.132	-0.030
-402.238	36.502	0.134	0.119
-401.223	87.077	-0.089	-0.099
-400.209	-200.000	-0.044	-0.318
-399.194	-44.500	-0.049	0.025
-398.179	117.698	0.118	0.146
-397.165	-39.331	-0.201	-0.106
-396.150	561.668	-0.068	-0.165
-395.136	-200.000	0.011	0.186
-394.121	459.787	0.073	-0.164
-393.106	800.000	0.021	-0.060
-392.092	-86.721	0.197	0.061
-391.077	-200.000	0.022	-0.290
-390.063	42.272	0.140	0.127
-389.048	-123.224	0.361	0.058
-388.033	-79.372	-0.252	-0.086
-387.019	-132.671	-0.307	0.039
-386.004	-200.000	-0.001	-0.212
-384.990	32.510	-0.119	-0.103
-383.975	30.776	0.250	-0.214
-382.960	-36.470	0.082	-0.044
-381.946	-18.164	0.204	0.128
-380.931	-74.297	-0.365	0.132
-379.917	800.000	0.055	-0.225
-378.902	-30.469	-0.161	0.091
-377.888	-59.523	-0.239	-0.103
-376.873	-200.000	-0.021	0.254
-375.858	47.171	0.200	-0.186
-374.844	-87.338	0.192	-0.058
-373.829	70.875	-0.273	-0.283
-372.815	136.549	0.102	0.134
-371.800	-13.172	-0.059	-0.039
-370.785	-119.493	0.052	-0.009
-369.771	144.951	0.267	0.358
-368.756	102.662	-0.125	0.147
-367.742	-175.636	-0.264	-0.007
-366.727	-200.000	0.009	0.080
-365.712	304.012	0.070	-0.130
-364.698	-109.474	0.057	0.012
-363.683	800.000	0.100	-0.319
-362.669	9.699	0.073	-0.056
-361.654	-105.254	0.380	0.087
-360.639	-133.061	-0.208	0.026
-359.625	-15.244	-0.279	0.179
-358.610	-24.479	0.073	-0.043
-357.596	-200.000	-0.006	-0.201
-356.581	800.000	-0.064	0.246
-355.566	-3.981	-0.211	-0.146
-354.552	420.283	0.158	-0.339
-353.537	11.040	0.168	-0.129
-352.523	43.340	-0.372	-0.340
-351.508	81.304	0.119	-0.129
-350.493	6.962	-0.231	-0.172
-349.479	800.000	0.041	-0.165
-348.464	-200.000	0.021	0.101
-347.450	-71.768	-0.211	0.079
-346.435	-200.000	-0.045	-0.243
-345.420	312.472	0.037	0.070
-344.406	-200.000	0.021	-0.483
-343.391	-200.000	0.431	0.000
-342.377	-176.598	0.104	0.003
-341.362	-33.209	0.095	-0.053
-340.348	-141.243	-0.147	0.015
-339.333	800.000	-0.091	-0.351
-338.318	-17.355	-0.116	-0.073
-337.304	5.338	0.232	0.171
-336.289	-158.485	-0.159	-0.009
-335.275	-125.664	0.182	-0.028
-334.260	-155.203	-0.166	-0.011
-333.245	-200.000	0.023	0.365
-332.231	-186.670	-0.126	-0.002
-331.216	-200.000	0.025	0.176
-330.202	3.206	0.241	-0.175
-329.187	-200.000	-0.007	0.372
-328.172	-60.902	0.254	0.107
-327.158	415.195	0.237	0.505
-326.143	420.264	-0.075	-0.161
-325.129	222.686	0.072	0.117
-324.114	135.820	-0.042	-0.054
-323.099	200.704	0.156	0.240
-322.085	-200.000	-0.002	-0.134
-321.070	87.274	0.162	-0.179
-320.056	43.463	-0.139	-0.127
-319.041	-127.718	0.094	-0.014
-318.026	55.178	0.307	0.297
-317.012	-22.709	-0.198	0.119
-315.997	-84.220	0.196	-0.062
-314.983	800.000	-0.046	-0.184
-313.968	396.721	0.139	0.289
-312.953	-200.000	0.012	0.053
-311.939	-127.573	-0.390	0.057
-310.924	-34.814	0.089	0.049
-309.910	-98.690	0.348	-0.089
-308.895	-131.406	0.085	0.011
-307.880	205.786	0.112	-0.174
-306.866	-44.511	0.344	0.172
-305.851	-91.619	0.155	-0.044
-304.837	-117.711	-0.255	0.046
-303.822	-35.935	-0.074	-0.040
-302.807	-140.794	0.200	-0.021
-301.793	-146.233	-0.133	0.012
-300.778	-200.000	0.008	-0.199
-299.764	-20.823	-0.116	0.071
-298.749	-26.830	0.258	0.151
-297.735	800.000	0.054	-0.190
-296.720	258.181	0.061	0.105
-295.705	0.121	-0.155	0.110
-294.691	-4.857	-0.256	-0.176
-293.676	421.677	0.039	-0.084
-292.662	-40.948	0.169	-0.088
-291.647	-85.474	0.178	0.055
-290.632	-50.339	-0.260	-0.123
-289.618	-4.284	0.140	0.097
-288.603	181.709	-0.080	-0.118
-287.589	6.407	-0.223	-0.166
-286.574	-200.000	0.050	-0.300
-285.559	-200.000	0.043	0.465
-284.545	-140.423	-0.220	-0.023
-283.530	338.378	0.051	-0.099
-282.516	800.000	0.066	0.192
-281.501	-31.572	-0.309	0.174
-280.486	98.028	0.162	0.186
-279.472	147.057	-0.132	-0.177
-278.457	-16.991	-0.213	-0.134
-277.443	-162.062	0.077	-0.004
-276.428	83.007	0.037	-0.041
-275.413	-65.480	0.074	0.030
-274.399	-60.258	-0.050	-0.021
-273.384	-120.248	-0.329	-0.056
-272.370	-112.522	0.141	-0.028
-271.355	291.262	0.110	-0.200
-270.340	195.178	0.049	0.074
-269.326	-156.553	0.395	-0.024
-268.311	800.000	0.042	0.167
-267.297	-51.442	-0.156	0.073
-266.282	-200.000	-0.025	0.117
-265.267	800.000	0.054	-0.155
-264.253	-135.381	0.370	-0.044
-263.238	11.120	-0.101	0.077
-262.224	296.139	-0.032	-0.058
-261.209	550.384	-0.134	-0.320
-260.195	800.000	0.168	-0.628
-259.180	-63.694	0.421	0.172
-258.165	256.375	0.158	0.271
-257.151	800.000	0.127	0.490
-256.136	-61.903	0.056	0.023
-255.122	-200.000	-0.021	-0.126
-254.107	70.402	0.199	0.205
-253.092	-115.830	0.073	0.014
-252.078	800.000	0.109	0.336
-251.063	-166.306	0.201	-0.008
-250.049	421.258	-0.093	0.199
-249.034	800.000	0.044	-0.163
-248.019	-74.255	-0.356	0.128
-247.005	-200.000	-0.082	0.371
-245.990	226.033	-0.080	0.130
-244.976	-200.000	0.000	0.197
-243.961	800.000	0.064	0.270
-242.946	-138.205	0.318	-0.035
-241.932	129.654	0.095	0.121
-240.917	253.242	-0.110	-0.188
-239.903	-142.014	-0.118	-0.012
-238.888	216.201	0.153	0.243
-237.873	-200.000	0.025	-0.114
-236.859	131.025	-0.130	0.166
-235.844	68.571	-0.316	0.323
-234.830	775.187	0.055	-0.149
-233.815	50.606	0.084	-0.080
-232.800	-200.000	-0.002	0.062
-231.786	-162.645	-0.179	-0.009
-230.771	334.142	-0.130	-0.251
-229.757	800.000	-0.078	0.219
-228.742	3.868	0.218	-0.159
-227.727	-11.737	0.052	0.034
-226.713	-88.670	-0.079	-0.023
-225.698	334.289	-0.208	-0.401
-224.684	206.384	-0.144	-0.223
-223.669	-64.065	-0.019	-0.008
-222.655	-122.942	0.337	-0.054
-221.640	-81.018	-0.174	-0.057
-220.625	-65.932	-0.129	-0.051
-219.611	-79.253	-0.254	0.086
-218.596	-79.362	-0.443	-0.149
-217.582	800.000	0.057	-0.191
-216.567	293.544	0.096	-0.175
-215.552	-102.874	-0.137	-0.033
-214.538	40.336	-0.207	0.185
-213.523	-139.100	-0.095	-0.010
-212.509	-167.391	0.130	0.005
-211.494	82.690	-0.229	0.248
-210.479	582.734	-0.077	-0.188
-209.465	800.000	0.070	0.229
-208.450	-4.563	0.152	0.105
-207.436	800.000	-0.040	0.163
-206.421	800.000	0.007	0.023
-205.406	312.511	-0.025	0.047
-204.392	358.591	-0.137	-0.272
-203.377	-123.526	0.138	-0.022
-202.363	-200.000	-0.019	0.189
-201.348	273.581	0.162	0.285
-200.333	323.075	0.167	0.316
-199.319	-88.434	-0.305	-0.091
-198.304	595.847	-0.043	-0.105
-197.290	-200.000	-0.001	-0.059
-196.275	-27.679	-0.420	0.243
-195.260	2.994	-0.066	0.047
-194.246	34.270	0.174	0.151
-193.231	-200.000	0.007	0.080
-192.217	-15.659	0.093	-0.059
-191.202	-127.040	0.405	0.059
-190.187	8.578	0.239	-0.179
-189.173	123.288	0.070	-0.087
-188.158	-45.601	-0.281	-0.138
-187.144	-133.231	-0.234	-0.029
-186.129	145.804	0.090	0.120
-185.114	-58.506	-0.206	0.089
-184.100	212.630	-0.214	0.335
-183.085	800.000	0.071	-0.252
-182.071	-128.289	-0.130	-0.018
-181.056	-200.000	0.209	0.001
-180.042	-24.656	0.112	0.066
-179.027	35.605	0.146	0.128
-178.012	-25.380	0.135	-0.080
-176.998	-72.280	-0.330	0.122
-175.983	12.760	-0.294	-0.226
-174.969	27.619	-0.034	0.029
-173.954	22.758	-0.110	0.090
-172.939	80.314	-0.041	0.044
-171.925	328.757	-0.072	0.138
-170.910	-6.207	-0.151	-0.102
-169.896	-63.476	0.338	-0.138
-168.881	340.950	0.202	-0.393
-167.866	-200.000	0.015	0.224
-166.852	163.029	-0.150	-0.210
-165.837	-200.000	0.068	0.296
-164.823	26.266	0.179	0.148
-163.808	-118.545	-0.079	-0.014
-162.793	222.554	0.146	-0.234
-161.779	800.000	0.089	-0.304
-160.764	428.165	-0.052	-0.111
-159.750	64.776	-0.122	-0.122
-158.735	102.582	0.044	-0.052
-157.720	-60.857	-0.067	0.028
-156.706	-74.248	-0.175	-0.063
-155.691	14.809	0.047	-0.037
-154.677	469.412	0.110	0.244
-153.662	-200.000	0.002	0.019
-152.647	279.670	-0.184	0.326
-151.633	268.429	-0.104	0.181
-150.618	-200.000	0.003	-0.054
-149.604	-71.822	0.202	-0.075
-148.589	-200.000	-0.037	-0.249
-147.574	-146.675	0.043	0.004
-146.560	-18.294	-0.071	0.044
-145.545	800.000	-0.039	0.108
-144.531	102.517	-0.198	-0.230
-143.516	190.811	-0.181	0.271
-142.502	38.567	0.232	0.205
-141.487	-43.277	-0.337	0.169
-140.472	-200.000	-0.064	0.371
-139.458	404.455	-0.043	-0.089
-138.443	-72.919	-0.059	-0.022
-137.429	800.000	-0.066	0.233
-136.414	800.000	-0.026	0.090
-135.399	451.019	-0.076	-0.166
-134.385	130.318	-0.248	0.315
-133.370	800.000	-0.105	0.314
-132.356	800.000	0.081	0.308
-131.341	800.000	0.065	-0.197
-130.326	-16.716	0.406	-0.255
-129.312	-56.818	-0.455	0.200
-128.297	800.000	-0.025	0.073
-127.283	-25.879	0.204	-0.119
-126.268	271.477	-0.116	0.203
-125.253	-115.723	-0.185	-0.034
-124.239	33.503	0.115	0.099
-123.224	285.409	-0.078	0.139
-122.210	-200.000	0.044	-0.200
-121.195	-0.055	0.248	-0.175
