DTS Sentinel unit serial number:	SN413079Multiplexer serial number:	ORYXHardware model number:	OX4-SRSoftware version number:	ORYX F/W v4.00 Oryx Data Collector v3.7.2.0data status	okinstallation	princeton_trtdifferential loss correction	single-endedforward channel	channel 3reverse channel	N/Adate	2019/09/12time	19:52:03forward acquisition time	15.00reverse acquisition time	0.00gamma	496.2192k internal	0.2322k external	0.2322temperature offset calibration	1.0122default loss term (dB/km)	0.3790temperature slope calibration	1.0000multiplexer offset coefficient	1.0000multiplexer slope coefficient	1.0000fibre end	0.00T internal ref (°C)	31.87T ext. ref 1 (°C)	3.47T ext. ref 2 (°C)	26.45length (m)	temperature (°C)	Stokes	anti-Stokes-747.200	-200.000	0.046	-0.572
-746.185	-95.678	0.815	0.220
-745.171	-178.993	-0.951	-0.022
-744.156	7.056	0.311	0.234
-743.142	-14.448	0.399	0.260
-742.127	97.466	-0.262	-0.303
-741.112	113.691	-0.155	0.190
-740.098	-200.000	-0.027	0.137
-739.083	-15.240	-0.623	0.402
-738.069	-118.616	0.048	-0.009
-737.054	-195.530	0.488	-0.004
-736.039	39.937	0.655	0.594
-735.025	602.636	0.334	0.838
-734.010	-1.210	-0.744	-0.531
-732.996	26.992	-0.124	0.105
-731.981	-11.266	-0.757	-0.504
-730.966	787.372	0.069	0.191
-729.952	-102.470	-0.121	-0.029
-728.937	6.309	-0.412	0.309
-727.923	142.875	0.147	-0.197
-726.908	-200.000	0.109	0.588
-725.894	242.014	-0.079	0.133
-724.879	101.489	0.093	-0.109
-723.864	359.102	0.212	0.428
-722.850	10.562	-0.385	0.296
-721.835	-90.637	-0.753	-0.220
-720.821	260.494	0.254	-0.444
-719.806	-116.860	-0.453	0.084
-718.791	148.076	-0.395	0.538
-717.777	-72.978	-0.182	-0.067
-716.762	-52.438	-1.180	-0.551
-715.748	487.638	-0.090	-0.208
-714.733	292.534	-0.277	0.509
-713.718	-192.634	0.473	0.004
-712.704	-200.000	-0.000	0.166
-711.689	364.777	-0.164	-0.333
-710.675	-95.503	0.374	-0.101
-709.660	89.145	0.356	-0.400
-708.645	-88.572	-0.496	0.149
-707.631	-200.000	-0.014	-0.489
-706.616	-61.384	-1.010	-0.429
-705.602	800.000	0.131	0.488
-704.587	106.420	0.217	0.260
-703.572	-200.000	0.007	-0.500
-702.558	-200.000	0.009	-0.173
-701.543	492.411	0.124	0.286
-700.529	800.000	0.231	-0.693
-699.514	26.377	0.291	0.245
-698.499	-16.390	-0.134	0.086
-697.485	543.708	0.180	-0.434
-696.470	-89.301	0.818	-0.243
-695.456	800.000	-0.272	1.086
-694.441	-67.315	-0.562	-0.223
-693.426	800.000	0.109	-0.335
-692.412	342.942	0.336	0.663
-691.397	-200.000	-0.118	-0.701
-690.383	-161.715	0.780	0.040
-689.368	95.682	0.158	0.182
-688.354	-200.000	-0.088	0.433
-687.339	-33.346	0.490	-0.273
-686.324	-100.689	-0.360	-0.090
-685.310	7.110	0.089	-0.067
-684.295	-110.393	0.281	-0.059
-683.281	800.000	0.038	0.165
-682.266	-200.000	-0.018	-0.236
-681.251	64.417	-0.764	-0.775
-680.237	800.000	0.095	0.362
-679.222	800.000	0.084	0.273
-678.208	-59.567	0.907	0.392
-677.193	-114.027	-0.178	0.035
-676.178	-53.980	0.396	-0.181
-675.164	40.123	-0.177	0.161
-674.149	-200.000	0.116	0.535
-673.135	800.000	0.022	-0.073
-672.120	-35.697	-0.655	0.358
-671.105	-141.900	-0.291	-0.029
-670.091	-200.000	-0.002	-0.358
-669.076	26.535	-0.450	-0.379
-668.062	43.622	0.446	-0.411
-667.047	-36.359	0.269	-0.146
-666.032	-14.471	-0.298	0.193
-665.018	800.000	0.129	-0.398
-664.003	800.000	-0.187	0.712
-662.989	-200.000	-0.093	0.888
-661.974	-67.088	0.822	0.326
-660.959	765.771	-0.133	0.365
-659.945	200.817	-0.311	-0.482
-658.930	-152.710	0.552	-0.040
-657.916	67.609	0.281	0.289
-656.901	-62.408	-0.478	-0.200
-655.886	791.070	-0.318	-0.881
-654.872	41.672	0.307	-0.280
-653.857	-99.380	0.284	-0.072
-652.843	-120.558	-0.673	-0.115
-651.828	-200.000	0.010	-0.241
-650.814	-40.876	0.594	-0.310
-649.799	27.674	-0.310	-0.263
-648.784	48.639	0.365	0.344
-647.770	-57.513	-1.182	-0.522
-646.755	-36.285	0.494	0.268
-645.741	110.729	0.578	0.700
-644.726	266.178	-0.441	-0.775
-643.711	-59.264	0.654	0.284
-642.697	-96.844	-0.932	0.246
-641.682	195.731	0.237	0.362
-640.668	-200.000	-0.103	0.994
-639.653	-80.363	0.142	-0.048
-638.638	-116.758	-0.305	0.056
-637.624	15.949	0.496	0.393
-636.609	-57.961	1.001	-0.440
-635.595	-200.000	0.000	-0.305
-634.580	-200.000	0.226	-1.114
-633.565	50.516	-0.280	0.267
-632.551	162.989	-0.224	0.317
-631.536	800.000	-0.133	0.501
-630.522	522.746	0.419	0.989
-629.507	134.852	-0.335	-0.437
-628.492	-77.555	0.635	0.221
-627.478	-53.576	-0.464	0.213
-626.463	-200.000	0.051	-0.779
-625.449	800.000	0.233	-0.848
-624.434	-154.867	0.769	0.051
-623.419	-124.288	-0.422	-0.066
-622.405	-200.000	-0.057	0.566
-621.390	249.065	-0.215	0.366
-620.376	36.776	-0.474	-0.421
-619.361	-200.000	-0.006	-0.676
-618.346	-200.000	-0.265	-0.000
-617.332	-200.000	-0.805	0.003
-616.317	-200.000	-0.158	0.742
-615.303	59.049	0.322	0.319
-614.288	-200.000	0.498	-0.002
-613.273	557.567	-0.223	0.540
-612.259	800.000	-0.099	0.285
-611.244	-139.870	0.773	0.082
-610.230	1.687	-0.894	0.647
-609.215	-55.840	-0.598	-0.268
-608.201	-200.000	0.045	0.504
-607.186	-57.175	0.348	-0.154
-606.171	-61.946	0.646	-0.271
-605.157	-94.024	-0.797	-0.220
-604.142	800.000	0.367	1.459
-603.128	45.841	-0.020	0.018
-602.113	-16.190	-0.275	-0.175
-601.098	-3.015	0.378	0.265
-600.084	-94.402	0.602	0.165
-599.069	268.187	-0.417	0.734
-598.055	171.284	-0.158	-0.227
-597.040	-16.665	0.355	-0.226
-596.025	-75.184	1.174	0.421
-595.011	-54.315	-0.256	-0.116
-593.996	-200.000	-0.080	0.447
-592.982	-67.207	0.148	-0.058
-591.967	226.756	-0.450	-0.733
-590.952	-200.000	-0.165	-0.885
-589.938	-60.172	-1.469	-0.629
-588.923	-200.000	-0.045	-0.297
-587.909	-200.000	0.060	-0.422
-586.894	550.950	-0.460	-1.109
-585.879	142.944	-0.331	-0.442
-584.865	199.422	-0.814	1.253
-583.850	-58.390	-0.919	-0.401
-582.836	397.751	0.046	0.096
-581.821	44.527	-0.352	-0.325
-580.806	800.000	0.078	0.269
-579.792	-108.929	-0.460	-0.099
-578.777	5.799	0.543	0.403
-577.763	590.125	0.160	-0.397
-576.748	304.507	0.333	-0.621
-575.733	122.266	0.513	-0.643
-574.719	48.168	-0.217	-0.204
-573.704	-1.188	0.698	0.495
-572.690	311.408	-0.233	-0.439
-571.675	-32.962	0.396	-0.221
-570.661	307.834	-0.226	0.424
-569.646	800.000	0.266	-0.783
-568.631	510.123	-0.183	-0.427
-567.617	388.242	0.448	0.931
-566.602	-141.602	0.660	0.067
-565.588	26.036	-0.861	-0.720
-564.573	-13.513	-0.629	0.409
-563.558	800.000	0.011	-0.031
-562.544	-74.248	0.520	0.189
-561.529	-33.231	0.292	-0.162
-560.515	-33.542	0.638	-0.353
-559.500	-89.172	-0.586	-0.173
-558.485	-7.663	-0.345	-0.234
-557.471	-141.045	0.276	0.028
-556.456	45.452	-0.857	-0.793
-555.442	98.876	0.148	-0.171
-554.427	-158.765	-0.548	-0.031
-553.412	-180.312	-0.858	0.018
-552.398	-200.000	-0.127	-0.698
-551.383	212.220	0.456	-0.720
-550.369	-9.705	0.117	0.078
-549.354	-75.512	0.205	-0.073
-548.339	-54.618	-0.387	-0.175
-547.325	11.115	0.322	0.247
-546.310	494.096	-0.223	0.513
-545.296	91.954	-0.208	-0.234
-544.281	240.987	-0.507	-0.848
-543.266	-200.000	0.003	0.232
-542.252	-53.616	-0.520	-0.238
-541.237	112.491	0.485	-0.588
-540.223	-200.000	0.018	-0.102
-539.208	-65.897	-0.254	-0.102
-538.193	-200.000	0.014	-0.349
-537.179	-200.000	0.009	-0.545
-536.164	-80.011	0.187	0.063
-535.150	800.000	-0.217	0.834
-534.135	-200.000	0.064	0.951
-533.121	-85.236	0.491	0.154
-532.106	78.948	0.419	-0.449
-531.091	116.744	-0.078	0.096
-530.077	143.952	0.386	0.516
-529.062	586.386	0.013	-0.031
-528.048	170.177	0.369	-0.528
-527.033	800.000	0.075	-0.289
-526.018	74.433	0.396	-0.417
-525.004	172.095	-0.398	-0.574
-523.989	116.889	0.062	-0.077
-522.975	-200.000	0.010	-0.462
-521.960	-23.224	0.347	-0.209
-520.945	-200.000	0.001	-0.609
-519.931	177.329	0.425	-0.620
-518.916	468.074	0.214	0.482
-517.902	55.787	-0.532	-0.517
-516.887	-200.000	-0.014	-0.080
-515.872	-74.598	0.548	-0.197
-514.858	-200.000	-0.050	0.246
-513.843	-73.197	-0.627	-0.230
-512.829	-200.000	0.036	0.285
-511.814	-200.000	-0.041	-0.604
-510.799	41.844	0.625	0.567
-509.785	439.314	0.346	-0.756
-508.770	-200.000	0.037	-0.457
-507.756	-200.000	-0.174	-0.955
-506.741	-107.692	-0.333	-0.073
-505.726	-39.496	-0.577	0.303
-504.712	-177.850	0.721	0.017
-503.697	279.694	-0.398	0.711
-502.683	112.888	-0.290	0.352
-501.668	-16.289	0.044	0.028
-500.653	366.800	-0.173	0.349
-499.639	-60.405	-0.328	-0.140
-498.624	-133.639	0.703	-0.088
-497.610	800.000	-0.181	-0.695
-496.595	-110.192	0.910	0.190
-495.581	-80.306	0.591	-0.198
-494.566	134.573	-0.406	0.527
-493.551	-63.270	0.686	0.283
-492.537	-183.533	0.803	0.014
-491.522	-200.000	0.000	-0.720
-490.508	-152.857	0.637	0.045
-489.493	-25.323	0.703	0.416
-488.478	165.280	-0.207	-0.292
-487.464	174.017	-0.538	0.778
-486.449	398.009	-0.243	0.508
-485.435	-4.499	0.197	0.136
-484.420	-52.282	0.787	-0.364
-483.405	-58.428	0.505	0.219
-482.391	-144.138	0.188	-0.018
-481.376	433.135	0.417	-0.905
-480.362	-200.000	0.145	-0.643
-479.347	-200.000	-0.016	-0.620
-478.332	-200.000	-0.047	-0.735
-477.318	370.193	0.130	-0.263
-476.303	-20.557	-0.779	0.478
-475.289	-29.185	0.683	-0.391
-474.274	84.740	-0.225	0.246
-473.259	134.777	0.083	-0.108
-472.245	-200.000	0.164	0.731
-471.230	62.634	0.522	0.522
-470.216	339.315	0.163	0.317
-469.201	-16.499	0.325	0.206
-468.186	115.309	0.123	-0.151
-467.172	-200.000	0.138	1.123
-466.157	7.726	-0.235	0.176
-465.143	-34.056	0.351	-0.193
-464.128	-151.458	-0.356	-0.026
-463.113	-200.000	-0.076	0.436
-462.099	800.000	-0.205	-0.806
-461.084	-110.333	0.203	0.042
-460.070	62.082	-0.370	-0.369
-459.055	-81.842	0.732	-0.239
-458.040	182.871	0.156	0.230
-457.026	-200.000	0.041	0.253
-456.011	800.000	-0.223	0.745
-454.997	-111.222	-0.374	-0.076
-453.982	12.351	0.124	-0.096
-452.968	800.000	-0.124	-0.413
-451.953	229.111	-0.426	-0.693
-450.938	596.140	0.341	-0.844
-449.924	-150.340	-0.377	0.029
-448.909	49.335	0.275	0.258
-447.895	-17.908	-0.944	-0.591
-446.880	-131.431	0.134	0.018
-445.865	-171.730	-0.476	-0.016
-444.851	-102.661	-0.955	0.228
-443.836	37.382	0.446	-0.395
-442.822	-73.403	-0.198	-0.072
-441.807	229.062	-0.010	0.016
-440.792	2.152	-0.560	0.404
-439.778	76.272	-0.250	-0.265
-438.763	490.632	-0.173	0.395
-437.749	35.219	0.062	0.054
-436.734	12.253	-0.665	-0.511
-435.719	284.738	-0.491	-0.882
-434.705	475.164	0.096	-0.217
-433.690	18.393	0.302	-0.240
-432.676	299.639	-0.303	0.556
-431.661	616.128	-0.089	0.223
-430.646	360.053	0.448	-0.895
-429.632	-76.799	-0.538	0.188
-428.617	-200.000	-0.110	0.891
-427.603	70.465	0.506	-0.522
-426.588	519.293	0.054	0.126
-425.573	800.000	-0.272	-0.765
-424.559	93.557	0.343	0.388
-423.544	-200.000	0.023	0.194
-422.530	455.994	0.156	0.345
-421.515	-200.000	-0.041	0.297
-420.500	-91.178	0.087	0.025
-419.486	-115.970	0.306	-0.057
-418.471	158.626	-0.118	-0.164
-417.457	104.974	0.667	-0.785
-416.442	-200.000	-0.084	-0.709
-415.428	472.962	-0.107	-0.240
-414.413	-42.617	-0.280	-0.142
-413.398	288.369	-0.425	-0.767
-412.384	-8.751	0.249	-0.166
-411.369	760.552	-0.045	0.122
-410.355	-84.597	0.509	0.160
-409.340	-32.051	0.116	0.065
-408.325	-32.261	-0.064	0.035
-407.311	-17.689	-0.640	-0.401
-406.296	-200.000	0.080	0.479
-405.282	-19.479	-0.329	0.203
-404.267	725.375	0.275	-0.731
-403.252	-200.000	-0.042	0.469
-402.238	-115.716	0.380	-0.071
-401.223	440.635	0.291	0.633
-400.209	-200.000	-0.048	0.516
-399.194	253.780	-0.334	-0.569
-398.179	-200.000	0.052	0.634
-397.165	800.000	0.215	-0.816
-396.150	185.678	-0.156	0.230
-395.136	539.532	0.139	0.329
-394.121	-200.000	0.060	-0.303
-393.106	-200.000	0.011	-0.593
-392.092	-173.905	-0.512	-0.015
-391.077	800.000	0.267	0.871
-390.063	129.795	-0.473	0.602
-389.048	-88.090	-0.802	0.240
-388.033	72.432	-0.163	0.170
-387.019	-200.000	-0.064	0.631
-386.004	-20.119	-0.581	0.357
-384.990	-24.532	0.631	0.375
-383.975	20.148	0.435	0.350
-382.960	800.000	0.061	0.195
-381.946	-180.331	0.800	-0.017
-380.931	41.003	-0.232	-0.208
-379.917	631.833	-0.067	-0.169
-378.902	-71.492	0.758	-0.283
-377.888	700.156	0.348	0.912
-376.873	729.093	-0.421	1.119
-375.858	62.517	-0.854	0.850
-374.844	-112.227	-0.543	0.108
-373.829	10.338	-0.196	0.149
-372.815	-85.790	0.578	0.178
-371.800	-19.933	-0.718	-0.441
-370.785	26.589	-0.236	0.197
-369.771	-10.800	-0.418	0.275
-368.756	-43.788	0.490	0.246
-367.742	722.384	0.248	-0.657
-366.727	700.462	-0.204	-0.535
-365.712	-164.149	-0.500	0.023
-364.698	353.072	0.446	0.882
-363.683	800.000	0.278	1.052
-362.669	800.000	0.235	0.840
-361.654	-39.495	0.374	-0.195
-360.639	-100.709	-0.307	-0.075
-359.625	324.872	-0.261	0.497
-358.610	725.458	0.231	0.611
-357.596	92.186	0.389	0.436
-356.581	-200.000	0.030	0.189
-355.566	-129.010	0.887	0.124
-354.552	800.000	0.118	0.377
-353.537	-79.970	0.345	0.115
-352.523	-78.459	0.335	-0.114
-351.508	3.797	-0.199	0.144
-350.493	-25.074	-0.329	-0.194
-349.479	-146.891	-0.629	0.054
-348.464	136.446	0.311	-0.403
-347.450	6.867	-0.887	-0.657
-346.435	219.409	-0.605	0.962
-345.420	182.774	-0.220	-0.323
-344.406	-43.321	-0.740	-0.372
-343.391	-139.128	-0.369	0.040
-342.377	-102.327	-0.350	0.084
-341.362	-48.752	0.363	0.173
-340.348	-200.000	0.021	0.544
-339.333	-60.240	0.403	0.171
-338.318	653.135	-0.162	0.412
-337.304	197.715	0.623	-0.947
-336.289	-158.647	0.634	0.036
-335.275	-31.076	-0.516	0.289
-334.260	-200.000	-0.047	-0.418
-333.245	-57.315	0.922	0.403
-332.231	-55.350	0.414	0.185
-331.216	203.718	0.150	0.230
-330.202	37.653	0.496	-0.438
-329.187	-10.953	0.592	-0.389
-328.172	-110.913	0.766	0.157
-327.158	800.000	-0.237	-0.664
-326.143	-40.595	-0.172	-0.088
-325.129	-51.503	-0.451	0.209
-324.114	-92.438	-0.554	0.155
-323.099	-26.604	0.462	-0.269
-322.085	-200.000	0.051	0.247
-321.070	70.718	-0.324	0.333
-320.056	-121.898	-0.208	-0.034
-319.041	-200.000	0.049	0.234
-318.026	297.725	0.037	0.068
-317.012	-148.186	-0.473	-0.039
-315.997	566.692	-0.287	0.692
-314.983	382.255	-0.358	0.732
-313.968	48.781	0.226	-0.211
-312.953	-40.696	0.753	-0.388
-311.939	19.127	-0.300	-0.239
-310.924	548.536	0.196	0.467
-309.910	-77.126	0.410	0.142
-308.895	-200.000	-0.089	0.957
-307.880	-152.352	-0.530	0.038
-306.866	-200.000	-0.006	0.352
-305.851	-33.879	0.191	0.105
-304.837	800.000	0.069	0.243
-303.822	-200.000	0.203	-0.924
-302.807	-0.871	0.110	-0.078
-301.793	-22.185	0.533	0.321
-300.778	-84.437	-0.440	-0.138
-299.764	-200.000	0.005	-0.186
-298.749	251.262	-0.474	-0.800
-297.735	-23.878	-0.588	0.349
-296.720	-26.000	-0.299	0.174
-295.705	-51.643	0.611	0.283
-294.691	54.996	0.933	-0.894
-293.676	16.196	0.114	0.090
-292.662	-21.226	0.172	0.104
-291.647	138.905	0.224	-0.292
-290.632	-130.430	-0.362	0.049
-289.618	-200.000	-0.041	0.417
-288.603	738.934	0.424	-1.130
-287.589	-54.158	0.346	0.156
-286.574	800.000	-0.122	-0.517
-285.559	127.271	-0.595	-0.749
-284.545	-200.000	-0.063	-0.354
-283.530	57.493	-0.439	0.426
-282.516	-9.206	0.287	0.190
-281.501	-28.031	0.340	0.195
-280.486	-56.069	0.285	-0.126
-279.472	800.000	0.061	-0.242
-278.457	1.566	-0.208	0.148
-277.443	355.697	0.193	-0.380
-276.428	-27.798	0.645	0.371
-275.413	-42.541	-0.588	0.297
-274.399	94.405	-0.626	0.705
-273.384	145.903	-0.152	-0.203
-272.370	-200.000	0.132	-1.168
-271.355	115.040	-0.376	0.455
-270.340	-13.893	-0.184	-0.118
-269.326	16.668	0.615	-0.482
-268.311	-200.000	0.021	-0.465
-267.297	-93.042	0.250	-0.069
-266.282	-117.508	0.821	-0.147
-265.267	11.227	0.634	-0.481
-264.253	72.187	-0.246	0.254
-263.238	-65.326	-0.270	-0.108
-262.224	30.964	0.359	-0.305
-261.209	-200.000	-0.062	0.307
-260.195	-78.034	-0.863	0.295
-259.180	-72.389	-0.146	-0.053
-258.165	-200.000	-0.045	0.345
-257.151	-197.448	0.605	0.004
-256.136	-56.262	-0.257	0.113
-255.122	94.443	-0.283	-0.318
-254.107	421.948	-0.232	-0.494
-253.092	-184.206	0.133	0.002
-252.078	-62.427	-0.876	-0.361
-251.063	237.125	0.142	0.233
-250.049	1.574	0.633	0.452
-249.034	-74.962	-0.168	-0.060
-248.019	231.907	-0.130	0.211
-247.005	226.058	-0.096	-0.153
-245.990	-200.000	-0.046	0.337
-244.976	-9.859	0.148	-0.098
-243.961	474.156	0.150	-0.335
-242.946	443.750	-0.304	-0.660
-241.932	-91.108	0.568	0.162
-240.917	-119.258	-0.621	0.107
-239.903	516.203	0.357	0.826
-238.888	800.000	0.248	0.685
-237.873	167.775	-0.253	-0.356
-236.859	-110.547	0.814	-0.167
-235.844	-200.000	0.038	0.595
-234.830	-200.000	0.032	0.334
-233.815	-31.280	0.357	-0.199
-232.800	-200.000	0.024	-0.321
-231.786	452.133	0.299	-0.655
-230.771	-183.708	0.149	0.003
-229.757	-65.175	0.717	0.286
-228.742	29.204	-0.623	0.524
-227.727	215.252	-0.642	-1.009
-226.713	-37.677	-0.182	0.096
-225.698	-135.086	-0.098	0.012
-224.684	186.781	-0.506	0.746
-223.669	-169.228	-0.470	0.017
-222.655	90.839	-0.417	-0.463
-221.640	-32.102	-0.305	0.169
-220.625	24.444	0.475	0.389
-219.611	-200.000	-0.050	0.798
-218.596	-147.320	-0.560	-0.047
-217.582	-143.175	-0.594	0.057
-216.567	-200.000	-0.045	-0.495
-215.552	-152.543	-0.574	0.041
-214.538	645.635	0.404	-1.022
-213.523	414.336	-0.223	-0.470
-212.509	111.670	0.609	-0.727
-211.494	800.000	-0.036	0.141
-210.479	-200.000	0.069	-0.842
-209.465	-98.155	0.978	0.249
-208.450	-38.525	0.389	0.204
-207.436	-113.689	-0.617	0.119
-206.421	91.999	0.030	-0.033
-205.406	-56.776	0.173	0.076
-204.392	-42.126	-0.093	-0.047
-203.377	151.415	0.538	0.725
-202.363	-117.535	0.580	0.104
-201.348	-122.959	-0.558	-0.089
-200.333	-25.503	-0.510	0.298
-199.319	-200.000	0.074	1.083
-198.304	168.159	0.198	0.278
-197.290	189.945	-0.074	-0.110
-196.275	36.885	0.275	0.240
-195.260	-108.316	0.112	0.024
-194.246	76.415	-0.953	-0.998
-193.231	-200.000	0.002	-0.395
-192.217	-200.000	0.099	1.284
-191.202	-200.000	0.082	0.464
-190.187	-84.035	-0.407	-0.128
-189.173	384.243	-0.118	-0.240
-188.158	-89.332	1.233	0.359
-187.144	162.918	0.211	0.293
-186.129	-4.958	-0.561	-0.382
-185.114	-167.063	-0.344	0.014
-184.100	-10.857	-0.433	-0.283
-183.085	212.617	0.637	0.993
-182.071	375.948	-0.284	0.572
-181.056	-44.732	0.348	0.172
-180.042	24.584	-0.604	0.494
-179.027	61.060	-0.103	-0.101
-178.012	113.575	-0.610	-0.732
-176.998	-200.000	-0.006	0.126
-175.983	800.000	0.123	-0.390
-174.969	224.685	0.528	0.843
-173.954	-162.988	-0.922	0.044
-172.939	-200.000	0.175	-0.877
-171.925	363.408	-0.413	-0.819
-170.910	-15.301	0.137	-0.087
-169.896	-40.438	0.326	-0.167
-168.881	-90.131	0.523	-0.150
-167.866	-88.520	-0.704	0.207
-166.852	559.997	-0.306	0.729
-165.837	-57.838	-0.103	0.044
-164.823	-200.000	-0.055	-0.590
-163.808	-2.262	0.278	-0.193
-162.793	218.428	-0.349	0.551
-161.779	317.481	0.262	0.490
-160.764	-10.655	0.218	-0.143
-159.750	6.744	0.645	-0.474
-158.735	-2.191	-0.299	-0.207
-157.720	508.634	0.335	0.769
-156.706	-88.403	0.187	0.055
-155.691	145.833	-0.213	0.282
-154.677	-200.000	-0.028	0.124
-153.662	366.683	0.543	1.082
-152.647	21.361	-0.269	-0.216
-151.633	-30.480	-0.434	0.243
-150.618	141.854	0.261	0.341
-149.604	45.281	0.127	0.116
-148.589	-89.883	-0.158	-0.046
-147.574	-78.666	-0.422	-0.142
-146.560	81.186	0.321	0.342
-145.545	-117.028	-0.350	0.063
-144.531	-200.000	-0.018	-0.142
-143.516	-200.000	0.002	0.323
-142.502	-23.566	0.328	-0.194
-141.487	46.486	-0.638	-0.584
-140.472	-97.087	-0.505	-0.130
-139.458	-200.000	-0.039	-1.078
-138.443	800.000	-0.165	-0.617
-137.429	-158.837	-1.077	0.061
-136.414	-169.919	0.616	0.022
-135.399	-146.764	0.270	0.023
-134.385	23.707	0.355	0.289
-133.370	-112.229	0.766	0.152
-132.356	-103.987	-0.540	0.124
-131.341	-132.738	-0.353	0.044
-130.326	-200.000	0.102	0.461
-129.312	-90.336	-0.868	-0.249
-128.297	-150.313	-0.402	-0.031
-127.283	-88.221	0.253	-0.075
-126.268	-200.000	-0.045	-0.419
-125.253	-17.748	0.305	0.189
-124.239	-200.000	0.007	0.715
-123.224	145.246	0.482	-0.636
-122.210	11.033	0.292	0.220
-121.195	800.000	0.038	-0.127
-120.180	11.823	-0.542	0.410
