DTS Sentinel unit serial number:	SN413079Multiplexer serial number:	ORYXHardware model number:	OX4-SRSoftware version number:	ORYX F/W v4.00 Oryx Data Collector v3.7.2.0data status	okinstallation	princeton_trtdifferential loss correction	single-endedforward channel	channel 3reverse channel	N/Adate	2019/09/14time	03:44:34forward acquisition time	60.00reverse acquisition time	0.00gamma	496.2192k internal	0.2338k external	0.2338temperature offset calibration	1.0058default loss term (dB/km)	0.3790temperature slope calibration	1.0000multiplexer offset coefficient	1.0000multiplexer slope coefficient	1.0000fibre end	0.00T internal ref (°C)	26.62T ext. ref 1 (°C)	3.31T ext. ref 2 (°C)	21.67length (m)	temperature (°C)	Stokes	anti-Stokes-747.200	-89.440	0.158	0.047
-746.185	70.508	-0.112	0.116
-745.171	-200.000	0.027	-0.139
-744.156	164.472	-0.146	0.207
-743.142	-10.814	0.353	0.234
-742.127	-98.112	-0.277	0.071
-741.112	11.795	-0.186	-0.143
-740.098	-200.000	-0.005	0.184
-739.083	80.653	0.234	0.253
-738.069	-200.000	0.019	0.337
-737.054	319.242	-0.125	0.238
-736.039	-74.866	-0.393	0.141
-735.025	-200.000	-0.020	0.092
-734.010	-200.000	-0.223	0.001
-732.996	178.221	-0.089	-0.131
-731.981	800.000	-0.050	-0.212
-730.966	-38.436	0.069	-0.036
-729.952	-174.994	0.181	0.005
-728.937	-66.622	-0.376	0.149
-727.923	379.944	0.026	-0.054
-726.908	145.022	0.160	-0.214
-725.894	-177.382	-0.097	0.002
-724.879	129.814	-0.133	0.170
-723.864	253.698	-0.061	0.105
-722.850	195.440	-0.109	-0.165
-721.835	120.499	-0.024	-0.029
-720.821	-200.000	-0.047	-0.234
-719.806	91.787	0.225	-0.254
-718.791	133.991	-0.169	-0.220
-717.777	800.000	-0.039	-0.164
-716.762	-81.573	0.116	-0.038
-715.748	-182.318	-0.208	0.004
-714.733	78.414	-0.133	-0.142
-713.718	-58.957	0.296	0.128
-712.704	303.559	-0.103	-0.191
-711.689	365.245	0.156	0.315
-710.675	-35.550	-0.255	-0.139
-709.660	-200.000	-0.006	-0.139
-708.645	80.898	0.122	-0.132
-707.631	-117.161	0.006	-0.001
-706.616	-112.608	0.200	0.040
-705.602	114.113	0.022	0.027
-704.587	800.000	0.031	0.094
-703.572	-161.390	0.252	-0.013
-702.558	93.545	0.100	-0.114
-701.543	-200.000	0.007	-0.039
-700.529	-34.066	0.127	-0.070
-699.514	113.324	-0.115	0.140
-698.499	-41.561	-0.034	0.017
-697.485	-87.595	0.133	0.040
-696.470	270.746	0.083	0.147
-695.456	550.044	0.054	-0.129
-694.441	-200.000	0.016	0.104
-693.426	-93.015	0.175	-0.049
-692.412	-195.341	-0.188	-0.001
-691.397	-88.194	-0.021	-0.006
-690.383	-200.000	0.050	-0.243
-689.368	-179.472	0.109	0.002
-688.354	-122.215	0.086	-0.014
-687.339	-13.658	0.211	0.137
-686.324	-200.000	0.005	0.135
-685.310	142.245	0.208	-0.277
-684.295	-128.139	-0.127	-0.018
-683.281	-45.515	0.059	-0.029
-682.266	-200.000	0.045	-0.203
-681.251	23.868	-0.011	0.009
-680.237	-140.219	0.078	-0.008
-679.222	-61.661	-0.062	0.026
-678.208	-29.349	0.241	-0.138
-677.193	-44.780	0.298	-0.149
-676.178	-200.000	0.011	-0.120
-675.164	-15.975	-0.098	-0.062
-674.149	-11.975	0.306	0.201
-673.135	-101.385	-0.251	0.061
-672.120	-200.000	0.022	0.395
-671.105	490.125	0.078	0.178
-670.091	-200.000	-0.010	-0.192
-669.076	772.588	0.070	0.191
-668.062	-0.067	-0.092	-0.066
-667.047	391.771	-0.065	-0.135
-666.032	96.824	0.136	0.156
-665.018	313.402	0.031	-0.059
-664.003	698.147	-0.106	0.279
-662.989	46.124	0.167	-0.155
-661.974	-126.842	0.092	0.014
-660.959	-170.480	0.230	0.008
-659.945	-125.849	0.300	-0.045
-658.930	-104.151	0.420	0.098
-657.916	-43.121	-0.042	0.021
-656.901	101.152	-0.199	0.231
-655.886	58.801	0.086	0.085
-654.872	-116.406	0.152	-0.028
-653.857	-200.000	-0.013	-0.132
-652.843	420.722	0.125	-0.267
-651.828	213.275	0.183	-0.289
-650.814	-109.583	0.283	-0.060
-649.799	463.557	-0.221	-0.494
-648.784	87.921	0.023	-0.025
-647.770	-200.000	0.011	0.060
-646.755	725.564	0.116	-0.308
-645.741	-39.119	0.365	-0.192
-644.726	5.276	-0.141	0.104
-643.711	41.621	0.207	-0.187
-642.697	-124.710	-0.097	-0.015
-641.682	156.637	-0.166	-0.228
-640.668	-195.199	0.101	0.001
-639.653	-200.000	0.027	0.297
-638.638	23.186	0.260	-0.214
-637.624	427.896	0.118	-0.255
-636.609	326.828	0.154	0.295
-635.595	342.877	0.101	-0.198
-634.580	-140.895	-0.242	-0.025
-633.565	-162.018	-0.373	0.019
-632.551	29.428	-0.199	-0.169
-631.536	287.033	-0.049	-0.088
-630.522	-157.043	0.116	-0.007
-629.507	110.941	-0.150	-0.180
-628.492	410.862	0.098	0.207
-627.478	132.086	-0.142	0.182
-626.463	-200.000	-0.071	-0.448
-625.449	46.762	0.127	0.118
-624.434	-200.000	0.023	-0.374
-623.419	7.266	0.019	-0.014
-622.405	32.002	0.053	0.046
-621.390	-114.703	-0.170	-0.032
-620.376	-107.084	-0.260	0.057
-619.361	-13.745	-0.133	0.086
-618.346	-146.730	0.173	-0.015
-617.332	78.873	0.110	0.118
-616.317	-134.576	0.099	0.012
-615.303	72.331	-0.156	-0.162
-614.288	2.473	-0.223	0.161
-613.273	-86.288	-0.254	0.078
-612.259	-75.775	0.181	-0.064
-611.244	-12.152	-0.222	-0.145
-610.230	135.890	0.130	0.169
-609.215	121.754	0.121	0.150
-608.201	146.375	-0.114	-0.153
-607.186	-200.000	-0.046	-0.291
-606.171	-158.866	0.102	0.006
-605.157	-36.561	-0.217	-0.116
-604.142	-127.915	0.163	0.023
-603.128	-75.630	-0.099	0.035
-602.113	390.394	-0.103	-0.212
-601.098	11.027	0.111	-0.085
-600.084	-91.840	0.363	0.103
-599.069	460.734	0.037	-0.081
-598.055	18.560	0.308	0.245
-597.040	800.000	-0.010	-0.031
-596.025	-135.272	0.075	-0.009
-595.011	-124.127	-0.177	0.028
-593.996	396.208	-0.184	0.384
-592.982	800.000	0.038	-0.107
-591.967	-57.299	-0.280	0.123
-590.952	327.005	0.033	-0.064
-589.938	31.986	0.072	0.062
-588.923	-200.000	0.056	-0.294
-587.909	800.000	-0.069	0.238
-586.894	800.000	-0.108	0.307
-585.879	94.711	0.128	0.145
-584.865	-200.000	-0.070	-0.364
-583.850	236.497	-0.100	-0.166
-582.836	87.298	-0.099	0.109
-581.821	22.748	0.175	0.143
-580.806	-200.000	0.033	-0.277
-579.792	170.872	0.169	0.242
-578.777	39.119	-0.068	0.061
-577.763	-131.826	0.150	-0.020
-576.748	58.866	-0.167	0.163
-575.733	111.054	0.088	-0.106
-574.719	-58.435	-0.153	0.066
-573.704	179.554	0.256	0.374
-572.690	124.698	-0.037	-0.047
-571.675	-91.070	0.202	0.058
-570.661	-106.458	-0.088	0.020
-569.646	2.310	-0.314	0.226
-568.631	-42.749	0.104	0.053
-567.617	-51.951	0.249	-0.115
-566.602	800.000	-0.029	-0.106
-565.588	-43.790	0.161	-0.081
-564.573	354.626	0.060	-0.119
-563.558	-47.209	-0.131	0.063
-562.544	185.749	-0.199	-0.294
-561.529	800.000	0.077	-0.270
-560.515	-69.038	-0.103	-0.040
-559.500	183.063	0.017	-0.024
-558.485	22.375	0.255	0.207
-557.471	-200.000	-0.039	-0.355
-556.456	-104.054	-0.050	-0.012
-555.442	137.389	-0.194	0.252
-554.427	-79.728	-0.286	0.096
-553.412	-200.000	-0.040	0.259
-552.398	-200.000	-0.075	-0.339
-551.383	-200.000	0.008	-0.067
-550.369	-138.502	0.295	-0.032
-549.354	-101.148	-0.366	-0.089
-548.339	379.362	-0.106	-0.216
-547.325	-35.464	-0.231	-0.125
-546.310	57.769	-0.191	-0.186
-545.296	800.000	0.020	-0.070
-544.281	240.069	-0.098	-0.162
-543.266	-61.626	0.363	-0.152
-542.252	-200.000	0.010	0.416
-541.237	800.000	-0.056	-0.226
-540.223	19.271	-0.329	-0.263
-539.208	-129.389	-0.391	0.054
-538.193	99.370	0.193	-0.223
-537.179	-200.000	0.019	0.236
-536.164	57.822	-0.184	0.179
-535.150	-106.685	-0.196	0.043
-534.135	224.778	-0.111	-0.178
-533.121	-200.000	-0.007	0.047
-532.106	18.098	0.109	0.087
-531.091	-143.634	0.372	0.035
-530.077	-126.381	-0.317	-0.047
-529.062	-200.000	0.042	0.291
-528.048	-32.955	0.145	0.080
-527.033	-48.929	0.332	-0.158
-526.018	-48.894	-0.129	0.061
-525.004	-49.779	0.181	0.086
-523.989	-84.007	0.272	-0.086
-522.975	-148.212	0.170	-0.014
-521.960	-14.277	0.234	0.150
-520.945	-140.265	-0.402	0.042
-519.931	136.215	0.021	-0.027
-518.916	-200.000	0.007	-0.136
-517.902	-110.246	0.062	0.013
-516.887	800.000	-0.037	0.137
-515.872	18.597	-0.164	0.131
-514.858	-75.868	-0.313	0.110
-513.843	347.084	0.156	0.306
-512.829	-200.000	0.051	-0.454
-511.814	80.369	-0.199	-0.213
-510.799	42.133	0.141	-0.127
-509.785	54.080	-0.246	-0.235
-508.770	-200.000	0.011	-0.222
-507.756	97.680	0.232	0.265
-506.741	128.705	0.099	-0.125
-505.726	349.103	0.112	0.220
-504.712	245.311	-0.078	0.131
-503.697	-200.000	-0.032	-0.225
-502.683	649.539	0.186	-0.473
-501.668	-98.633	-0.093	0.024
-500.653	-38.828	0.167	-0.087
-499.639	238.533	0.204	0.337
-498.624	81.339	-0.225	0.242
-497.610	-50.647	0.275	0.129
-496.595	426.529	0.038	0.080
-495.581	546.793	0.040	-0.095
-494.566	64.609	-0.250	-0.250
-493.551	469.946	-0.208	-0.464
-492.537	-200.000	-0.003	0.322
-491.522	529.056	-0.184	0.431
-490.508	-70.091	-0.147	0.055
-489.493	-200.000	0.026	0.228
-488.478	-56.618	0.332	-0.146
-487.464	8.331	0.122	-0.091
-486.449	63.319	0.079	-0.079
-485.435	186.765	0.076	-0.113
-484.420	800.000	-0.100	-0.278
-483.405	4.104	-0.111	-0.081
-482.391	-200.000	0.010	-0.180
-481.376	9.817	0.155	0.117
-480.362	-141.183	0.110	-0.011
-479.347	-99.105	0.272	-0.068
-478.332	447.279	-0.064	0.141
-477.318	-64.412	0.352	0.142
-476.303	-20.221	-0.256	0.157
-475.289	28.669	-0.169	0.142
-474.274	-200.000	-0.009	-0.043
-473.259	-200.000	-0.070	0.587
-472.245	114.147	-0.112	0.135
-471.230	16.621	0.088	0.069
-470.216	173.984	-0.110	0.158
-469.201	350.271	-0.175	0.344
-468.186	230.917	0.057	-0.092
-467.172	-109.186	0.101	0.021
-466.157	18.768	-0.284	0.226
-465.143	215.730	0.263	0.415
-464.128	-80.899	0.171	0.056
-463.113	-200.000	-0.041	-0.298
-462.099	-60.674	0.128	-0.054
-461.084	168.853	-0.184	-0.261
-460.070	-134.532	-0.376	0.046
-459.055	-63.431	0.197	-0.080
-458.040	-200.000	-0.032	0.210
-457.026	82.408	-0.068	0.073
-456.011	361.148	0.086	0.172
-454.997	800.000	0.083	0.261
-453.982	-51.209	0.333	0.155
-452.968	-200.000	-0.022	-0.124
-451.953	-150.511	-0.225	0.017
-450.938	-13.910	0.170	0.109
-449.924	-109.508	-0.272	0.057
-448.909	428.465	-0.100	-0.214
-447.895	-143.324	-0.164	0.016
-446.880	455.811	0.030	0.065
-445.865	-200.000	-0.053	-0.240
-444.851	-69.642	0.236	0.090
-443.836	-130.823	-0.159	0.021
-442.822	-200.000	-0.004	-0.265
-441.807	-29.101	-0.151	-0.086
-440.792	407.189	-0.038	0.079
-439.778	-154.924	-0.461	0.030
-438.763	-200.000	0.019	-0.163
-437.749	-54.750	-0.464	0.208
-436.734	800.000	0.058	0.199
-435.719	423.518	-0.085	0.180
-434.705	9.387	0.032	0.024
-433.690	-106.920	-0.206	0.045
-432.676	800.000	-0.029	0.105
-431.661	-155.560	0.335	0.021
-430.646	-17.240	-0.190	0.119
-429.632	359.693	-0.184	-0.364
-428.617	-200.000	0.010	-0.170
-427.603	-200.000	-0.026	0.197
-426.588	-57.820	0.204	-0.089
-425.573	-140.881	0.249	-0.025
-424.559	-30.066	0.090	-0.051
-423.544	800.000	-0.095	-0.315
-422.530	-36.341	0.018	0.010
-421.515	-200.000	0.032	0.196
-420.500	-1.652	0.089	0.062
-419.486	-200.000	-0.019	0.183
-418.471	16.605	0.236	0.185
-417.457	385.424	-0.190	-0.388
-416.442	-200.000	0.060	0.415
-415.428	-37.269	0.112	-0.059
-414.413	32.704	-0.195	0.167
-413.398	8.472	-0.152	-0.114
-412.384	111.699	0.023	0.027
-411.369	800.000	-0.068	0.246
-410.355	-49.433	0.151	-0.071
-409.340	800.000	-0.098	0.369
-408.325	-172.374	-0.078	0.002
-407.311	-200.000	-0.018	-0.098
-406.296	-86.445	-0.179	-0.054
-405.282	234.355	-0.215	-0.351
-404.267	6.243	-0.287	0.211
-403.252	-58.126	0.220	0.095
-402.238	426.641	0.053	0.113
-401.223	88.419	-0.155	-0.170
-400.209	-200.000	0.187	0.001
-399.194	-101.929	-0.032	-0.008
-398.179	-95.897	0.445	0.118
-397.165	265.099	-0.192	0.331
-396.150	15.289	0.233	-0.181
-395.136	-106.057	0.384	0.085
-394.121	-188.097	-0.298	-0.004
-393.106	335.957	-0.052	-0.099
-392.092	-200.000	0.011	0.146
-391.077	557.481	-0.024	-0.057
-390.063	-117.985	0.126	-0.022
-389.048	106.957	-0.082	-0.097
-388.033	-84.121	-0.286	0.090
-387.019	-200.000	0.068	-0.404
-386.004	198.075	-0.110	0.167
-384.990	-49.857	0.353	-0.166
-383.975	-62.307	-0.111	-0.046
-382.960	21.891	-0.107	-0.086
-381.946	94.583	0.173	0.194
-380.931	-155.273	-0.481	-0.031
-379.917	626.366	0.108	0.269
-378.902	-129.901	0.115	0.016
-377.888	30.329	0.079	-0.066
-376.873	-10.236	-0.088	0.058
-375.858	-129.395	-0.158	0.022
-374.844	72.858	-0.104	-0.108
-373.829	-200.000	0.009	-0.106
-372.815	104.100	0.236	-0.274
-371.800	656.046	-0.124	0.316
-370.785	-63.023	0.167	0.068
-369.771	-67.888	-0.144	-0.056
-368.756	800.000	0.048	0.141
-367.742	132.316	-0.113	0.144
-366.727	234.458	-0.113	-0.185
-365.712	-20.913	0.160	0.097
-364.698	-103.343	-0.150	0.035
-363.683	-81.243	-0.112	-0.036
-362.669	-0.479	0.196	0.137
-361.654	571.035	0.023	-0.056
-360.639	-87.384	-0.224	-0.067
-359.625	101.856	0.137	0.158
-358.610	-200.000	-0.008	0.197
-357.596	86.456	-0.191	-0.208
-356.581	83.878	-0.174	0.188
-355.566	-8.425	0.185	0.123
-354.552	-72.573	-0.106	-0.039
-353.537	-62.310	-0.169	0.070
-352.523	186.117	-0.221	-0.324
-351.508	353.436	0.095	-0.185
-350.493	13.954	0.163	0.126
-349.479	190.290	0.101	-0.150
-348.464	-160.916	0.151	-0.008
-347.450	663.096	0.069	-0.176
-346.435	-38.959	0.227	-0.118
-345.420	317.226	-0.045	-0.084
-344.406	23.302	0.033	-0.027
-343.391	-30.934	0.076	-0.042
-342.377	69.644	-0.084	-0.086
-341.362	5.901	0.271	0.198
-340.348	258.958	0.073	-0.124
-339.333	-200.000	0.021	0.091
-338.318	-29.675	0.356	-0.201
-337.304	-40.637	-0.053	-0.027
-336.289	132.560	0.331	-0.421
-335.275	351.295	0.126	0.247
-334.260	-26.080	-0.282	0.164
-333.245	-86.741	0.153	-0.046
-332.231	-154.218	-0.107	0.007
-331.216	181.908	0.126	0.184
-330.202	15.880	-0.112	-0.087
-329.187	-2.823	0.102	0.071
-328.172	-200.000	-0.032	-0.404
-327.158	-93.532	0.195	-0.053
-326.143	372.031	0.169	-0.339
-325.129	-7.681	0.136	-0.090
-324.114	155.445	-0.094	0.127
-323.099	-66.629	0.235	0.092
-322.085	215.188	0.170	-0.266
-321.070	-29.479	0.168	0.095
-320.056	800.000	-0.083	0.342
-319.041	344.294	-0.161	0.311
-318.026	65.317	0.139	0.138
-317.012	-161.629	-0.263	-0.013
-315.997	354.763	0.069	0.136
-314.983	69.628	0.070	-0.071
-313.968	274.036	-0.031	-0.055
-312.953	800.000	0.085	-0.332
-311.939	800.000	-0.100	-0.395
-310.924	-64.644	-0.467	-0.187
-309.910	800.000	0.013	0.044
-308.895	800.000	0.020	-0.057
-307.880	-138.225	-0.099	-0.011
-306.866	800.000	-0.047	-0.132
-305.851	800.000	0.114	0.452
-304.837	108.783	0.075	-0.088
-303.822	-108.843	-0.322	0.068
-302.807	-75.362	0.257	-0.090
-301.793	-11.811	0.233	-0.151
-300.778	-35.610	0.090	0.048
-299.764	-200.000	0.015	-0.096
-298.749	-147.980	0.104	0.009
-297.735	-200.000	-0.007	0.100
-296.720	-20.496	-0.161	-0.097
-295.705	110.200	0.064	-0.076
-294.691	546.478	-0.099	0.234
-293.676	-124.050	0.405	-0.063
-292.662	21.986	0.111	-0.089
-291.647	156.294	-0.059	0.080
-290.632	-2.763	0.240	0.165
-289.618	429.550	-0.100	0.213
-288.603	551.351	-0.079	-0.187
-287.589	-200.000	0.016	0.100
-286.574	-200.000	0.052	0.260
-285.559	-164.959	0.317	0.014
-284.545	377.584	-0.158	-0.318
-283.530	136.330	-0.202	-0.259
-282.516	-106.074	0.302	0.067
-281.501	-28.967	-0.133	-0.075
-280.486	23.899	0.198	0.161
-279.472	-35.193	0.103	-0.055
-278.457	-113.624	-0.264	0.051
-277.443	-26.605	-0.215	-0.124
-276.428	13.219	-0.018	0.014
-275.413	-200.000	0.006	-0.106
-274.399	800.000	-0.071	0.197
-273.384	800.000	-0.114	0.353
-272.370	240.396	-0.036	-0.059
-271.355	800.000	-0.017	-0.052
-270.340	-163.282	0.143	0.007
-269.326	31.215	-0.191	0.162
-268.311	-160.996	-0.254	-0.013
-267.297	-200.000	-0.026	0.224
-266.282	127.798	0.234	0.293
-265.267	-134.321	0.114	0.014
-264.253	113.889	-0.091	-0.109
-263.238	-200.000	0.005	0.351
-262.224	800.000	0.056	-0.186
-261.209	742.159	0.177	-0.468
-260.195	-48.122	-0.170	-0.081
-259.180	-156.171	-0.400	0.025
-258.165	-32.217	-0.103	-0.057
-257.151	322.949	0.151	-0.284
-256.136	24.258	-0.313	-0.255
-255.122	-60.867	0.373	0.155
-254.107	-36.938	-0.275	0.145
-253.092	313.698	-0.082	0.153
-252.078	-112.785	-0.164	0.032
-251.063	592.497	0.057	0.138
-250.049	-145.402	0.429	0.038
-249.034	800.000	-0.022	0.072
-248.019	-117.702	0.093	0.017
-247.005	-161.526	0.074	0.004
-245.990	-27.611	-0.201	-0.115
-244.976	-200.000	-0.028	0.139
-243.961	800.000	0.053	0.197
-242.946	800.000	0.007	-0.027
-241.932	196.781	-0.111	-0.167
-240.917	-180.351	0.078	-0.002
-239.903	-89.268	-0.147	0.043
-238.888	208.175	-0.177	-0.273
-237.873	367.566	-0.166	-0.329
-236.859	20.558	0.282	-0.225
-235.844	-108.931	-0.137	-0.029
-234.830	83.758	-0.017	0.018
-233.815	-74.403	0.413	-0.146
-232.800	800.000	0.075	0.214
-231.786	800.000	-0.132	-0.395
-230.771	-62.589	0.211	-0.086
-229.757	72.919	-0.127	-0.131
-228.742	800.000	0.094	0.376
-227.727	-167.285	-0.222	0.009
-226.713	-200.000	0.051	0.269
-225.698	800.000	-0.070	-0.206
-224.684	237.230	0.053	0.086
-223.669	-127.301	0.170	-0.024
-222.655	241.803	-0.103	-0.169
-221.640	81.746	0.248	0.263
-220.625	278.355	0.152	-0.266
-219.611	209.610	-0.119	-0.183
-218.596	-200.000	0.055	0.247
-217.582	-126.698	0.253	-0.037
-216.567	-171.254	0.179	-0.006
-215.552	3.263	-0.332	-0.237
-214.538	-200.000	0.002	-0.175
-213.523	-67.472	-0.091	0.035
-212.509	-200.000	-0.003	-0.089
-211.494	390.641	-0.100	0.204
-210.479	-18.362	0.199	-0.122
-209.465	-200.000	0.087	-0.419
-208.450	-23.288	-0.042	0.025
-207.436	-26.874	-0.069	-0.040
-206.421	-101.856	0.360	-0.086
-205.406	-200.000	-0.005	0.049
-204.392	-200.000	-0.027	0.291
-203.377	-200.000	-0.031	0.238
-202.363	-200.000	-0.016	0.158
-201.348	-71.814	-0.093	-0.034
-200.333	333.647	0.109	0.208
-199.319	-38.809	0.142	-0.074
-198.304	800.000	-0.037	0.109
-197.290	-76.752	0.111	0.038
-196.275	800.000	-0.037	0.149
-195.260	12.907	0.157	0.119
-194.246	292.856	-0.163	-0.293
-193.231	-28.879	-0.239	0.135
-192.217	-34.369	0.377	-0.203
-191.202	15.582	-0.183	0.141
-190.187	-23.827	-0.191	-0.113
-189.173	800.000	-0.072	0.265
-188.158	-82.644	0.076	0.024
-187.144	-16.029	0.141	-0.088
-186.129	59.554	0.055	0.053
-185.114	-8.954	-0.263	-0.173
-184.100	657.301	-0.051	0.128
-183.085	-192.640	0.304	0.003
-182.071	216.657	0.255	-0.399
-181.056	56.776	0.342	-0.326
-180.042	133.851	-0.161	0.205
-179.027	291.169	0.167	-0.297
-178.012	132.984	-0.200	0.253
-176.998	23.071	-0.110	-0.089
-175.983	-73.727	-0.070	-0.025
-174.969	-106.289	-0.494	-0.108
-173.954	800.000	0.028	0.108
-172.939	551.193	0.178	0.420
-171.925	-200.000	0.011	0.389
-170.910	360.520	-0.204	0.400
-169.896	-200.000	-0.019	0.133
-168.881	453.709	0.064	0.139
-167.866	-108.241	0.309	0.066
-166.852	347.551	-0.090	-0.173
-165.837	-75.603	-0.216	-0.075
-164.823	111.254	0.085	0.100
-163.808	-171.921	0.219	0.007
-162.793	315.208	0.217	0.400
-161.779	677.131	-0.104	0.265
-160.764	723.172	0.069	-0.180
-159.750	-135.586	-0.242	-0.028
-158.735	330.187	0.028	-0.052
-157.720	800.000	0.055	-0.180
-156.706	-106.700	0.195	0.042
-155.691	-118.365	-0.231	-0.040
-154.677	100.337	0.106	0.121
-153.662	-98.486	-0.293	0.073
-152.647	-114.158	0.209	0.040
-151.633	-65.614	0.086	-0.034
-150.618	98.662	-0.055	0.062
-149.604	-72.312	0.147	-0.054
-148.589	-107.075	0.250	-0.054
-147.574	49.979	0.049	0.045
-146.560	472.345	-0.140	-0.310
-145.545	121.560	-0.250	-0.305
-144.531	-200.000	0.032	0.181
-143.516	-200.000	0.011	-0.273
-142.502	-98.352	0.142	0.036
-141.487	323.707	0.073	-0.137
-140.472	218.392	-0.061	0.096
-139.458	150.283	0.055	-0.073
-138.443	-200.000	0.013	-0.228
-137.429	12.915	-0.092	-0.070
-136.414	38.077	0.162	-0.141
-135.399	-200.000	0.012	0.055
-134.385	-148.478	0.221	0.018
-133.370	-132.719	-0.053	-0.007
-132.356	264.051	0.048	0.081
-131.341	-200.000	-0.044	0.000
-130.326	-62.402	-0.288	0.118
-129.312	-125.301	-0.389	0.058
-128.297	800.000	-0.062	0.251
-127.283	800.000	0.082	0.281
-126.268	-200.000	0.020	0.109
-125.253	-18.902	0.244	0.149
-124.239	-124.365	0.155	-0.024
-123.224	266.125	0.235	0.402
-122.210	-200.000	0.008	-0.377
-121.195	-109.891	-0.141	-0.029
