DTS Sentinel unit serial number:	SN413079Multiplexer serial number:	ORYXHardware model number:	OX4-SRSoftware version number:	ORYX F/W v4.00 Oryx Data Collector v3.7.2.0data status	okinstallation	princeton_trtdifferential loss correction	single-endedforward channel	channel 3reverse channel	N/Adate	2019/09/18time	17:20:35forward acquisition time	60.00reverse acquisition time	0.00gamma	496.2192k internal	0.2292k external	0.2292temperature offset calibration	0.9988default loss term (dB/km)	0.3790temperature slope calibration	1.0000multiplexer offset coefficient	1.0000multiplexer slope coefficient	1.0000fibre end	0.00T internal ref (°C)	39.91T ext. ref 1 (°C)	0.89T ext. ref 2 (°C)	36.52length (m)	temperature (°C)	Stokes	anti-Stokes-747.200	469.581	-0.086	-0.198
-746.185	-48.612	0.154	0.076
-745.171	-42.388	-0.076	0.040
-744.156	-114.316	-0.144	-0.028
-743.142	-200.000	0.006	0.320
-742.127	157.812	0.146	0.207
-741.112	-63.831	-0.038	-0.016
-740.098	800.000	-0.020	0.066
-739.083	-200.000	0.058	0.295
-738.069	800.000	-0.117	0.423
-737.054	-88.966	-0.372	-0.113
-736.039	134.866	-0.191	0.254
-735.025	-200.000	0.028	-0.206
-734.010	4.438	-0.338	0.253
-732.996	-135.284	-0.165	-0.020
-731.981	-200.000	-0.198	-0.001
-730.966	-60.797	-0.091	-0.039
-729.952	-167.929	-0.233	0.009
-728.937	-84.566	-0.215	0.069
-727.923	-167.700	0.421	0.017
-726.908	569.642	-0.069	-0.173
-725.894	248.418	0.038	0.066
-724.879	783.941	0.021	0.060
-723.864	-52.871	-0.111	-0.052
-722.850	182.978	-0.110	0.166
-721.835	134.211	-0.198	-0.263
-720.821	195.561	-0.114	-0.177
-719.806	-200.000	-0.004	-0.097
-718.791	-110.595	0.605	0.128
-717.777	31.273	0.009	0.008
-716.762	-138.485	-0.070	-0.008
-715.748	-200.000	-0.027	-0.281
-714.733	37.720	0.148	-0.135
-713.718	-134.140	-0.185	0.023
-712.704	140.046	-0.150	-0.202
-711.689	-200.000	0.012	0.138
-710.675	-64.359	0.201	0.084
-709.660	81.954	-0.209	-0.232
-708.645	42.499	0.082	0.076
-707.631	-200.000	0.046	0.256
-706.616	22.162	-0.151	-0.126
-705.602	-36.211	-0.381	-0.210
-704.587	-80.343	0.267	0.091
-703.572	3.334	0.072	0.054
-702.558	800.000	-0.086	-0.263
-701.543	-200.000	0.009	0.272
-700.529	800.000	-0.076	-0.262
-699.514	48.754	0.034	0.032
-698.499	28.320	0.344	-0.297
-697.485	-200.000	0.021	-0.439
-696.470	-107.298	0.200	-0.045
-695.456	198.932	-0.107	-0.168
-694.441	307.526	0.133	-0.253
-693.426	-169.272	-0.452	-0.017
-692.412	263.424	0.159	-0.281
-691.397	-139.147	0.175	0.019
-690.383	319.291	-0.115	-0.223
-689.368	-200.000	-0.053	-0.526
-688.354	3.211	-0.144	0.107
-687.339	28.105	0.215	-0.186
-686.324	-0.658	-0.180	0.130
-685.310	441.127	0.134	-0.300
-684.295	293.274	0.016	0.030
-683.281	463.010	0.187	-0.426
-682.266	279.152	0.052	-0.095
-681.251	42.072	0.113	-0.104
-680.237	800.000	-0.059	-0.254
-679.222	-12.747	0.042	-0.028
-678.208	75.653	-0.368	-0.397
-677.193	-123.145	-0.044	0.007
-676.178	-135.697	0.266	0.032
-675.164	49.886	-0.244	-0.235
-674.149	177.236	0.131	-0.195
-673.135	119.387	0.151	0.190
-672.120	153.507	-0.103	0.144
-671.105	800.000	0.019	-0.074
-670.091	73.965	0.128	-0.137
-669.076	-51.429	-0.182	0.087
-668.062	-13.597	-0.358	-0.237
-667.047	9.022	0.357	0.275
-666.032	-21.420	0.173	0.108
-665.018	-200.000	0.016	-0.134
-664.003	434.245	-0.092	-0.203
-662.989	314.214	-0.243	-0.467
-661.974	-3.426	0.273	-0.194
-660.959	-200.000	0.023	-0.337
-659.945	176.649	-0.170	0.252
-658.930	800.000	-0.046	0.147
-657.916	800.000	-0.023	0.102
-656.901	-195.338	0.156	0.001
-655.886	800.000	-0.060	0.204
-654.872	179.259	-0.082	-0.122
-653.857	-200.000	0.001	0.072
-652.843	131.882	0.105	0.138
-651.828	-130.678	0.285	0.039
-650.814	147.229	-0.105	0.144
-649.799	-131.517	-0.068	-0.009
-648.784	-78.949	0.117	-0.040
-647.770	141.839	0.080	-0.108
-646.755	-82.590	0.273	-0.090
-645.741	46.181	-0.172	-0.163
-644.726	-60.809	0.085	0.037
-643.711	-90.058	-0.306	-0.091
-642.697	85.164	0.318	0.355
-641.682	89.256	-0.147	0.167
-640.668	27.406	-0.347	0.297
-639.653	-101.622	0.319	0.079
-638.638	-136.113	-0.254	-0.030
-637.624	96.023	0.061	0.071
-636.609	105.526	-0.100	0.120
-635.595	-33.270	-0.061	0.034
-634.580	24.034	0.110	0.092
-633.565	-30.526	-0.066	-0.038
-632.551	800.000	-0.019	-0.076
-631.536	18.244	0.092	0.075
-630.522	54.825	-0.103	-0.101
-629.507	-35.613	-0.248	-0.137
-628.492	-42.197	-0.027	-0.014
-627.478	-39.888	0.107	0.057
-626.463	-114.723	-0.166	0.032
-625.449	-25.974	0.176	0.105
-624.434	549.905	-0.002	0.004
-623.419	-48.969	0.147	-0.072
-622.405	329.312	0.090	-0.176
-621.390	145.798	0.164	-0.224
-620.376	-103.899	-0.118	-0.028
-619.361	-121.403	-0.184	-0.031
-618.346	-16.021	-0.215	0.140
-617.332	110.814	0.201	-0.247
-616.317	-200.000	-0.001	0.048
-615.303	-88.345	-0.308	0.094
-614.288	800.000	-0.046	-0.134
-613.273	299.361	-0.045	0.084
-612.259	800.000	-0.050	-0.164
-611.244	555.832	0.141	0.346
-610.230	-200.000	-0.065	0.470
-609.215	-200.000	0.046	-0.270
-608.201	800.000	0.058	0.182
-607.186	-154.988	-0.125	-0.008
-606.171	43.825	-0.093	0.087
-605.157	-142.168	-0.125	-0.013
-604.142	800.000	-0.057	-0.217
-603.128	34.177	0.125	0.111
-602.113	-78.300	0.331	0.116
-601.098	800.000	-0.022	0.080
-600.084	800.000	0.084	-0.251
-599.069	-120.778	-0.047	0.008
-598.055	800.000	-0.050	-0.181
-597.040	167.050	0.042	-0.061
-596.025	304.584	-0.081	0.154
-595.011	-200.000	0.023	-0.405
-593.996	800.000	-0.059	0.214
-592.982	188.390	-0.085	0.129
-591.967	-19.101	-0.174	0.110
-590.952	-130.897	0.228	-0.031
-589.938	-123.698	-0.194	-0.031
-588.923	41.520	-0.154	0.142
-587.909	-200.000	0.006	0.057
-586.894	-200.000	0.029	-0.165
-585.879	-116.125	0.045	0.008
-584.865	800.000	0.054	-0.180
-583.850	-103.595	-0.111	0.026
-582.836	216.095	0.052	-0.084
-581.821	-200.000	0.131	-0.000
-580.806	62.184	-0.224	0.227
-579.792	1.959	-0.088	-0.065
-578.777	-81.903	-0.071	-0.024
-577.763	-31.644	-0.119	0.068
-576.748	16.725	-0.244	0.196
-575.733	-83.652	0.357	-0.116
-574.719	99.039	-0.218	-0.256
-573.704	234.834	0.052	-0.088
-572.690	137.622	0.078	-0.104
-571.675	-200.000	0.013	-0.060
-570.661	40.567	-0.354	0.325
-569.646	-200.000	-0.004	0.217
-568.631	800.000	-0.107	-0.326
-567.617	0.023	-0.288	-0.208
-566.602	-26.053	-0.050	-0.030
-565.588	800.000	0.112	-0.368
-564.573	-200.000	-0.077	-0.565
-563.558	139.499	0.117	0.157
-562.544	219.131	-0.073	-0.119
-561.529	-92.559	0.258	0.074
-560.515	-36.838	0.129	0.071
-559.500	-128.737	0.115	0.016
-558.485	-25.258	0.072	0.043
-557.471	800.000	-0.047	0.136
-556.456	131.607	0.145	-0.190
-555.442	800.000	-0.092	-0.281
-554.427	-60.977	-0.247	0.106
-553.412	294.121	-0.150	-0.279
-552.398	68.395	0.221	0.230
-551.383	-116.584	0.031	0.006
-550.369	248.039	-0.117	0.201
-549.354	-21.398	-0.334	-0.207
-548.339	-8.879	-0.105	0.072
-547.325	143.050	0.239	0.323
-546.310	-64.201	0.241	0.100
-545.296	101.019	0.146	-0.172
-544.281	-0.795	-0.063	0.046
-543.266	800.000	0.073	0.321
-542.252	-200.000	-0.021	0.285
-541.237	-200.000	0.002	0.071
-540.223	773.170	-0.094	-0.259
-539.208	91.613	0.307	-0.350
-538.193	46.063	0.278	0.262
-537.179	800.000	-0.076	0.297
-536.164	51.920	-0.197	-0.191
-535.150	800.000	0.146	-0.410
-534.135	-68.674	-0.289	0.114
-533.121	-182.577	0.168	0.003
-532.106	-70.849	-0.257	-0.099
-531.091	-200.000	0.010	-0.127
-530.077	19.839	-0.204	-0.167
-529.062	15.409	-0.194	-0.154
-528.048	70.037	0.112	-0.118
-527.033	562.614	-0.036	0.088
-526.018	-140.032	0.323	0.035
-525.004	800.000	0.080	0.276
-523.989	-137.408	0.036	0.004
-522.975	-200.000	0.028	-0.184
-521.960	-62.244	0.084	0.036
-520.945	-200.000	-0.031	-0.296
-519.931	151.520	0.049	-0.068
-518.916	18.413	-0.119	0.096
-517.902	171.336	-0.089	-0.130
-516.887	135.673	0.008	0.011
-515.872	-100.961	-0.304	0.076
-514.858	-200.000	-0.008	0.084
-513.843	57.156	-0.280	0.277
-512.829	-200.000	-0.034	0.246
-511.814	284.990	-0.070	-0.128
-510.799	-200.000	0.001	0.220
-509.785	-110.236	0.368	0.078
-508.770	-97.426	-0.224	0.059
-507.756	79.114	-0.096	0.105
-506.741	800.000	0.107	0.327
-505.726	310.270	0.046	-0.087
-504.712	-34.318	0.174	0.097
-503.697	118.412	0.079	-0.099
-502.683	551.083	0.123	0.299
-501.668	-80.109	0.080	-0.027
-500.653	-128.003	-0.252	-0.037
-499.639	-70.688	0.467	0.179
-498.624	-200.000	0.044	-0.247
-497.610	321.339	0.192	-0.370
-496.595	21.942	0.440	0.363
-495.581	315.483	0.114	0.218
-494.566	800.000	0.025	0.086
-493.551	-30.978	0.220	0.126
-492.537	-200.000	-0.014	-0.200
-491.522	-104.635	0.198	0.046
-490.508	-63.600	0.314	-0.131
-489.493	148.056	-0.210	-0.287
-488.478	-88.917	0.299	0.090
-487.464	51.219	-0.123	0.119
-486.449	800.000	-0.050	-0.188
-485.435	517.590	-0.074	0.176
-484.420	106.353	-0.262	-0.314
-483.405	275.688	-0.030	-0.054
-482.391	347.505	-0.134	-0.267
-481.376	189.851	-0.310	0.472
-480.362	-7.337	-0.065	-0.045
-479.347	-138.649	-0.192	-0.021
-478.332	1.787	0.268	-0.196
-477.318	507.927	-0.078	-0.183
-476.303	169.944	0.140	-0.202
-475.289	-162.905	0.395	-0.019
-474.274	68.123	-0.103	0.107
-473.259	315.604	0.181	-0.346
-472.245	-37.691	0.310	-0.167
-471.230	-9.757	0.186	-0.125
-470.216	595.690	0.085	0.213
-469.201	800.000	-0.006	-0.017
-468.186	-92.787	0.252	0.071
-467.172	-103.794	0.154	0.036
-466.157	800.000	0.067	-0.256
-465.143	243.142	0.091	0.155
-464.128	263.060	-0.138	0.243
-463.113	500.078	0.153	0.358
-462.099	230.478	-0.099	-0.163
-461.084	-95.964	-0.093	0.025
-460.070	51.682	-0.276	0.266
-459.055	178.225	-0.093	-0.137
-458.040	108.923	0.151	0.183
-457.026	-177.158	0.431	-0.011
-456.011	-81.042	-0.280	-0.094
-454.997	-179.098	0.348	-0.008
-453.982	597.414	-0.045	0.114
-452.968	800.000	-0.090	0.252
-451.953	-98.777	-0.233	-0.060
-450.938	150.064	-0.269	0.369
-449.924	800.000	0.087	-0.343
-448.909	288.204	0.091	0.166
-447.895	-188.850	-0.133	0.002
-446.880	-130.332	-0.336	-0.046
-445.865	-115.002	0.133	-0.026
-444.851	564.544	0.052	-0.128
-443.836	-200.000	-0.006	-0.192
-442.822	165.291	0.142	-0.203
-441.807	-93.746	-0.083	0.023
-440.792	-42.776	0.277	0.143
-439.778	29.518	-0.244	0.210
-438.763	13.652	0.077	0.061
-437.749	-59.278	-0.321	0.140
-436.734	13.583	-0.337	0.264
-435.719	-143.458	0.163	-0.016
-434.705	467.839	0.094	0.213
-433.690	65.164	0.178	-0.182
-432.676	-200.000	-0.083	-0.373
-431.661	-200.000	0.069	0.329
-430.646	-200.000	-0.004	0.020
-429.632	-200.000	-0.022	0.339
-428.617	-150.698	0.172	-0.013
-427.603	-59.654	-0.418	0.181
-426.588	800.000	0.035	0.145
-425.573	412.816	0.102	-0.218
-424.559	-139.767	0.303	-0.033
-423.544	-91.181	-0.138	0.040
-422.530	1.912	-0.217	0.158
-421.515	-14.840	0.110	0.071
-420.500	246.385	-0.226	-0.386
-419.486	-200.000	0.015	-0.194
-418.471	148.391	0.102	-0.139
-417.457	800.000	0.040	-0.169
-416.442	-136.285	-0.356	0.042
-415.428	-200.000	-0.049	0.525
-414.413	-200.000	0.002	-0.109
-413.398	235.811	0.096	0.160
-412.384	-15.285	-0.226	-0.146
-411.369	-4.915	-0.282	0.196
-410.355	-77.126	0.155	0.055
-409.340	-200.000	0.038	-0.328
-408.325	80.808	0.137	0.149
-407.311	-160.260	-0.378	-0.021
-406.296	800.000	0.102	0.341
-405.282	39.758	-0.075	0.068
-404.267	-200.000	0.044	-0.212
-403.252	92.313	0.118	0.135
-402.238	-93.361	-0.302	-0.085
-401.223	100.025	-0.091	-0.106
-400.209	54.407	-0.122	-0.118
-399.194	-116.521	-0.104	-0.019
-398.179	-115.702	0.309	0.059
-397.165	-117.830	-0.197	0.036
-396.150	21.099	0.118	-0.097
-395.136	800.000	0.053	-0.219
-394.121	-60.222	0.155	0.067
-393.106	-90.578	0.010	0.003
-392.092	-200.000	-0.016	-0.281
-391.077	561.882	-0.030	0.072
-390.063	800.000	0.055	-0.215
-389.048	-200.000	-0.046	0.296
-388.033	-200.000	-0.041	-0.289
-387.019	378.479	-0.153	-0.315
-386.004	-58.121	0.174	-0.077
-384.990	-125.913	0.059	-0.009
-383.975	-200.000	0.003	0.235
-382.960	-200.000	-0.023	0.163
-381.946	-14.214	0.095	-0.062
-380.931	-81.023	-0.163	0.054
-379.917	-56.091	0.314	-0.141
-378.902	-78.620	0.279	0.096
-377.888	-31.211	-0.211	0.120
-376.873	317.924	-0.203	0.387
-375.858	-200.000	0.028	0.256
-374.844	-20.761	-0.144	-0.089
-373.829	338.019	0.109	-0.214
-372.815	-126.891	0.102	0.015
-371.800	-200.000	0.004	-0.064
-370.785	800.000	0.010	-0.033
-369.771	800.000	0.052	-0.162
-368.756	-200.000	0.019	-0.163
-367.742	-57.885	0.230	-0.101
-366.727	800.000	-0.071	0.209
-365.712	-64.817	-0.413	0.169
-364.698	470.145	-0.100	-0.227
-363.683	-83.490	-0.144	0.046
-362.669	-106.354	0.351	-0.079
-361.654	147.358	-0.073	0.099
-360.639	-34.153	-0.067	0.037
-359.625	68.505	0.217	0.224
-358.610	-41.833	0.102	-0.053
-357.596	-135.170	-0.663	0.080
-356.581	-200.000	-0.036	0.184
-355.566	-155.278	-0.189	0.012
-354.552	-200.000	-0.028	0.165
-353.537	366.114	-0.227	0.461
-352.523	-200.000	-0.018	0.196
-351.508	-168.106	-0.131	0.005
-350.493	-113.694	0.344	-0.068
-349.479	47.508	0.121	-0.113
-348.464	-200.000	-0.016	0.278
-347.450	-96.611	0.061	0.016
-346.435	407.893	0.161	-0.343
-345.420	800.000	-0.109	-0.418
-344.406	800.000	-0.067	-0.236
-343.391	-181.290	0.248	-0.005
-342.377	-11.874	-0.322	-0.213
-341.362	-99.920	-0.402	0.101
-340.348	160.570	-0.150	0.211
-339.333	-132.441	0.308	-0.040
-338.318	-53.036	0.201	-0.093
-337.304	-200.000	0.044	-0.214
-336.289	-200.000	-0.017	0.457
-335.275	14.011	-0.160	-0.126
-334.260	-200.000	0.065	-0.320
-333.245	154.971	-0.164	0.227
-332.231	117.236	-0.159	-0.196
-331.216	-121.086	-0.326	-0.055
-330.202	156.572	0.075	0.104
-329.187	149.046	0.071	-0.096
-328.172	298.290	-0.096	0.178
-327.158	-200.000	0.023	0.176
-326.143	147.001	0.101	0.137
-325.129	165.417	0.180	0.256
-324.114	337.104	0.065	0.127
-323.099	654.804	0.096	0.249
-322.085	-114.393	-0.059	-0.011
-321.070	-21.598	-0.211	-0.129
-320.056	800.000	0.122	-0.342
-319.041	219.844	0.252	-0.406
-318.026	-200.000	0.036	-0.221
-317.012	800.000	-0.091	-0.326
-315.997	-143.897	-0.424	0.040
-314.983	6.021	0.152	-0.113
-313.968	491.351	-0.076	-0.174
-312.953	-200.000	-0.053	-0.254
-311.939	-200.000	-0.032	0.146
-310.924	-200.000	-0.015	0.195
-309.910	-200.000	-0.006	-0.217
-308.895	670.966	0.021	-0.056
-307.880	62.057	0.245	-0.246
-306.866	797.786	0.101	0.281
-305.851	-88.254	-0.322	-0.097
-304.837	-72.118	-0.233	-0.087
-303.822	800.000	-0.019	-0.074
-302.807	-200.000	-0.040	-0.225
-301.793	-200.000	-0.021	-0.148
-300.778	-126.420	-0.368	0.055
-299.764	-159.009	0.411	0.023
-298.749	800.000	0.082	0.276
-297.735	-23.686	-0.087	0.052
-296.720	-14.411	-0.106	0.069
-295.705	-20.581	0.170	-0.105
-294.691	-200.000	0.002	-0.063
-293.676	-200.000	0.037	0.187
-292.662	-33.999	0.322	-0.178
-291.647	-123.281	0.148	0.024
-290.632	800.000	0.092	-0.334
-289.618	-200.000	0.048	-0.215
-288.603	-100.430	-0.258	-0.064
-287.589	-105.532	0.229	-0.052
-286.574	-40.020	-0.180	0.094
-285.559	-200.000	0.004	0.178
-284.545	-83.929	0.638	0.204
-283.530	-85.369	0.181	-0.057
-282.516	32.054	-0.052	-0.045
-281.501	279.963	-0.144	-0.258
-280.486	238.932	0.180	0.301
-279.472	-134.913	-0.138	0.017
-278.457	305.628	-0.168	0.313
-277.443	299.502	-0.066	0.122
-276.428	170.685	-0.246	-0.354
-275.413	-200.000	-0.023	-0.127
-274.399	13.399	0.299	0.233
-273.384	-55.669	-0.233	-0.105
-272.370	-115.368	-0.215	-0.041
-271.355	301.678	0.113	0.210
-270.340	-83.476	-0.113	0.036
-269.326	-21.622	-0.160	0.098
-268.311	22.933	-0.157	0.130
-267.297	562.954	-0.008	0.019
-266.282	800.000	0.089	-0.248
-265.267	664.425	-0.041	-0.107
-264.253	-31.299	0.345	-0.195
-263.238	800.000	-0.061	-0.176
-262.224	-141.578	-0.042	0.004
-261.209	28.679	0.160	0.136
-260.195	-144.861	-0.283	0.026
-259.180	208.686	0.095	0.149
-258.165	375.486	0.101	-0.208
-257.151	-65.649	0.124	0.050
-256.136	-82.734	-0.232	-0.076
-255.122	800.000	-0.030	-0.117
-254.107	304.132	-0.119	-0.221
-253.092	156.716	-0.103	-0.143
-252.078	-102.774	-0.090	-0.022
-251.063	-200.000	0.003	0.149
-250.049	-64.337	0.193	0.079
-249.034	-142.067	0.221	0.022
-248.019	-39.360	-0.080	-0.042
-247.005	-200.000	-0.032	0.185
-245.990	585.328	0.128	0.316
-244.976	800.000	0.108	-0.471
-243.961	24.797	0.268	-0.223
-242.946	114.614	-0.111	0.135
-241.932	637.651	-0.109	0.279
-240.917	74.734	-0.118	0.124
-239.903	800.000	0.107	0.399
-238.888	-142.751	0.176	-0.017
-237.873	617.624	0.117	0.294
-236.859	-200.000	-0.042	0.240
-235.844	55.878	0.152	0.148
-234.830	759.280	-0.015	0.042
-233.815	97.096	0.219	0.252
-232.800	19.714	-0.110	0.089
-231.786	527.758	0.019	-0.045
-230.771	-61.697	-0.295	0.124
-229.757	800.000	0.034	-0.110
-228.742	-116.730	-0.262	-0.048
-227.727	-56.574	0.204	0.091
-226.713	-200.000	0.004	0.236
-225.698	382.727	-0.108	0.223
-224.684	-200.000	-0.014	0.199
-223.669	800.000	0.109	0.357
-222.655	-70.397	-0.403	-0.153
-221.640	-200.000	0.038	0.216
-220.625	-179.375	0.094	0.002
-219.611	130.465	0.179	-0.231
-218.596	93.338	-0.143	0.162
-217.582	-99.618	0.252	-0.064
-216.567	-200.000	-0.031	-0.176
-215.552	425.682	-0.134	-0.289
-214.538	355.932	0.078	-0.156
-213.523	-173.107	0.341	0.010
-212.509	-74.542	0.342	-0.124
-211.494	303.267	0.153	-0.284
-210.479	-132.030	0.330	0.043
-209.465	-52.450	-0.262	0.121
-208.450	-200.000	-0.014	0.134
-207.436	-29.526	-0.271	-0.155
-206.421	-200.000	0.009	-0.473
-205.406	-67.430	0.162	0.064
-204.392	286.319	-0.077	0.140
-203.377	240.704	-0.132	-0.221
-202.363	-113.108	0.483	-0.095
-201.348	42.916	-0.115	-0.105
-200.333	-69.963	-0.064	-0.024
-199.319	-200.000	0.021	-0.195
-198.304	143.904	0.077	-0.103
-197.290	-96.956	0.260	0.068
-196.275	-200.000	-0.016	0.121
-195.260	-200.000	0.041	0.204
-194.246	29.338	-0.125	-0.106
-193.231	-123.472	0.167	-0.027
-192.217	-175.882	0.233	0.006
-191.202	-55.402	0.120	0.054
-190.187	66.781	-0.103	0.105
-189.173	74.601	0.011	-0.011
-188.158	234.936	-0.158	0.262
-187.144	-148.525	-0.182	0.015
-186.129	-200.000	-0.030	0.409
-185.114	-51.765	-0.164	-0.076
-184.100	104.002	0.086	0.101
-183.085	-200.000	0.029	0.134
-182.071	-122.720	0.051	-0.008
-181.056	-130.088	-0.134	-0.018
-180.042	-78.972	0.266	0.091
-179.027	-106.304	-0.322	0.072
-178.012	13.902	-0.157	0.122
-176.998	-165.148	0.193	0.009
-175.983	-136.587	0.194	-0.023
-174.969	800.000	-0.010	-0.039
-173.954	-200.000	0.015	-0.178
-172.939	-200.000	-0.010	0.066
-171.925	33.713	0.296	-0.258
-170.910	105.140	-0.226	0.267
-169.896	-200.000	0.039	-0.257
-168.881	-69.359	-0.426	-0.164
-167.866	55.124	0.138	-0.133
-166.852	-200.000	-0.001	-0.194
-165.837	-55.557	-0.208	-0.093
-164.823	406.756	-0.047	-0.100
-163.808	347.439	-0.101	0.199
-162.793	-200.000	0.014	0.276
-161.779	-200.000	-0.002	-0.146
-160.764	-200.000	-0.060	-0.292
-159.750	800.000	0.067	-0.282
-158.735	-29.097	0.327	0.187
-157.720	444.155	0.108	-0.237
-156.706	62.726	0.177	0.177
-155.691	-106.636	-0.301	-0.067
-154.677	-152.991	0.185	0.013
-153.662	153.477	0.139	-0.190
-152.647	-100.284	-0.124	-0.031
-151.633	-200.000	0.024	0.254
-150.618	200.783	0.165	0.254
-149.604	481.216	-0.047	0.106
-148.589	114.807	0.066	-0.081
-147.574	-63.869	0.071	0.029
-146.560	118.818	0.042	0.052
-145.545	796.098	-0.168	0.463
-144.531	39.720	0.243	-0.218
-143.516	344.032	0.113	0.221
-142.502	800.000	-0.060	-0.180
-141.487	-59.445	-0.274	-0.118
-140.472	-91.301	-0.057	0.016
-139.458	-194.067	-0.233	-0.002
-138.443	-200.000	-0.004	-0.330
-137.429	397.586	-0.152	0.317
-136.414	-33.737	-0.246	0.136
-135.399	-118.701	0.234	0.041
-134.385	-156.971	0.139	-0.008
-133.370	-200.000	0.002	0.209
-132.356	110.565	-0.067	-0.081
-131.341	-200.000	-0.002	0.082
-130.326	67.870	0.241	0.246
-129.312	-200.000	0.051	0.432
-128.297	-58.334	-0.112	-0.049
-127.283	-155.759	-0.104	0.007
-126.268	-200.000	-0.019	0.339
-125.253	-119.264	0.460	-0.080
-124.239	-112.296	-0.100	-0.020
-123.224	434.547	0.061	-0.133
-122.210	75.310	0.272	0.286
