DTS Sentinel unit serial number:	SN413079Multiplexer serial number:	ORYXHardware model number:	OX4-SRSoftware version number:	ORYX F/W v4.00 Oryx Data Collector v3.7.2.0data status	okinstallation	princeton_trtdifferential loss correction	single-endedforward channel	channel 3reverse channel	N/Adate	2019/09/12time	14:30:11forward acquisition time	60.00reverse acquisition time	0.00gamma	496.2192k internal	0.2294k external	0.2294temperature offset calibration	1.0056default loss term (dB/km)	0.3790temperature slope calibration	1.0000multiplexer offset coefficient	1.0000multiplexer slope coefficient	1.0000fibre end	0.00T internal ref (°C)	40.06T ext. ref 1 (°C)	2.26T ext. ref 2 (°C)	35.71length (m)	temperature (°C)	Stokes	anti-Stokes-747.200	-200.000	-0.058	0.290
-746.185	-189.698	0.341	0.004
-745.171	-33.079	0.134	0.076
-744.156	636.985	-0.111	0.288
-743.142	109.296	-0.129	-0.158
-742.127	-200.000	0.035	0.363
-741.112	-104.979	-0.352	-0.082
-740.098	-17.418	-0.424	0.273
-739.083	9.964	0.106	-0.083
-738.069	-2.492	-0.123	-0.088
-737.054	-53.316	-0.364	0.171
-736.039	-200.000	-0.072	-0.334
-735.025	51.725	-0.003	-0.003
-734.010	646.599	0.068	-0.177
-732.996	126.170	0.137	-0.178
-731.981	83.889	0.039	0.044
-730.966	306.034	0.201	0.383
-729.952	-79.398	-0.186	-0.064
-728.937	17.740	-0.211	-0.171
-727.923	116.231	-0.190	-0.238
-726.908	12.619	-0.091	-0.072
-725.894	800.000	-0.055	0.186
-724.879	-10.493	-0.251	0.170
-723.864	-200.000	0.022	-0.105
-722.850	-137.324	0.097	0.011
-721.835	111.686	-0.383	-0.473
-720.821	247.005	0.033	-0.056
-719.806	800.000	0.030	0.106
-718.791	174.375	0.125	-0.184
-717.777	-96.312	-0.170	-0.046
-716.762	585.171	-0.078	-0.196
-715.748	138.880	0.075	0.101
-714.733	171.646	0.133	-0.195
-713.718	48.739	0.129	0.124
-712.704	-200.000	0.018	0.205
-711.689	306.069	0.034	-0.064
-710.675	217.070	0.095	0.155
-709.660	-129.754	-0.248	-0.035
-708.645	-113.045	-0.219	0.044
-707.631	-34.498	-0.160	-0.089
-706.616	-200.000	-0.039	-0.207
-705.602	-200.000	0.022	-0.147
-704.587	2.489	-0.118	0.087
-703.572	-39.693	-0.232	0.124
-702.558	196.774	-0.087	-0.136
-701.543	-57.269	-0.151	-0.068
-700.529	-64.308	0.045	0.019
-699.514	-29.511	0.109	0.063
-698.499	118.387	-0.159	-0.201
-697.485	-122.466	-0.281	0.047
-696.470	-101.154	-0.042	0.010
-695.456	-103.885	0.186	0.044
-694.441	76.267	0.182	-0.196
-693.426	484.734	0.179	-0.415
-692.412	-18.058	-0.172	-0.110
-691.397	80.711	-0.146	0.160
-690.383	226.134	-0.043	0.072
-689.368	224.691	-0.189	-0.311
-688.354	-178.136	0.067	0.002
-687.339	-44.217	-0.226	-0.115
-686.324	-200.000	0.071	-0.404
-685.310	-119.693	0.191	0.034
-684.295	32.954	-0.197	0.174
-683.281	-28.718	-0.390	-0.229
-682.266	-117.434	-0.204	-0.038
-681.251	-200.000	-0.025	-0.170
-680.237	-120.027	-0.230	-0.040
-679.222	677.979	-0.134	0.355
-678.208	43.753	0.175	-0.164
-677.193	131.663	-0.100	0.131
-676.178	327.141	0.095	0.186
-675.164	-94.324	0.168	0.047
-674.149	-182.846	0.082	-0.002
-673.135	-121.449	0.130	0.022
-672.120	-26.314	-0.017	0.010
-671.105	800.000	-0.148	0.447
-670.091	-200.000	0.042	-0.461
-669.076	-200.000	-0.059	-0.434
-668.062	800.000	-0.060	-0.170
-667.047	207.925	-0.219	-0.348
-666.032	-20.186	-0.270	-0.169
-665.018	-70.664	-0.291	-0.112
-664.003	800.000	0.105	-0.389
-662.989	-200.000	0.006	-0.302
-661.974	-200.000	0.019	0.212
-660.959	154.833	0.122	0.171
-659.945	-59.832	-0.217	0.094
-658.930	-26.796	-0.208	-0.124
-657.916	800.000	0.050	-0.151
-656.901	-135.418	-0.227	0.028
-655.886	-200.000	0.026	0.239
-654.872	-127.424	-0.508	-0.075
-653.857	-83.585	-0.036	-0.012
-652.843	139.967	-0.096	-0.129
-651.828	-174.566	-0.285	0.008
-650.814	-88.430	-0.148	-0.045
-649.799	-48.834	0.138	-0.068
-648.784	435.359	0.028	-0.063
-647.770	-200.000	-0.013	0.216
-646.755	-200.000	0.010	0.285
-645.741	-200.000	0.021	-0.322
-644.726	467.157	-0.125	-0.286
-643.711	-45.303	-0.072	-0.037
-642.697	-125.478	0.156	-0.024
-641.682	336.072	-0.142	-0.280
-640.668	-200.000	0.057	-0.387
-639.653	36.023	-0.252	0.226
-638.638	800.000	-0.062	-0.218
-637.624	632.111	0.023	0.059
-636.609	-192.849	0.163	-0.002
-635.595	-37.611	0.309	-0.168
-634.580	-146.986	-0.291	-0.025
-633.565	302.841	-0.226	-0.425
-632.551	-95.290	-0.011	0.003
-631.536	69.718	0.222	0.232
-630.522	247.078	0.117	0.202
-629.507	-18.016	-0.333	-0.212
-628.492	-106.474	0.165	0.037
-627.478	-46.305	0.232	0.116
-626.463	161.963	0.063	-0.090
-625.449	55.582	0.234	0.231
-624.434	-55.998	-0.099	0.045
-623.419	-145.823	-0.323	0.029
-622.405	45.372	0.163	0.153
-621.390	800.000	0.064	-0.256
-620.376	-200.000	0.032	0.383
-619.361	-96.248	-0.069	-0.019
-618.346	-200.000	-0.045	0.223
-617.332	82.554	-0.123	0.136
-616.317	409.858	0.133	-0.287
-615.303	-76.100	-0.119	-0.043
-614.288	38.532	0.152	0.138
-613.273	-16.888	-0.335	-0.215
-612.259	350.827	0.023	0.045
-611.244	68.941	-0.199	-0.208
-610.230	-132.925	0.147	0.019
-609.215	9.800	0.369	0.285
-608.201	-200.000	0.033	-0.341
-607.186	-200.000	-0.038	-0.230
-606.171	-22.929	0.044	0.027
-605.157	304.984	0.051	-0.097
-604.142	63.824	0.070	0.072
-603.128	94.095	-0.292	-0.337
-602.113	-95.586	-0.602	-0.164
-601.098	800.000	-0.059	0.222
-600.084	-159.551	-0.195	-0.011
-599.069	-103.036	0.169	0.041
-598.055	-69.611	0.225	-0.088
-597.040	-96.817	0.174	0.046
-596.025	800.000	-0.051	0.216
-595.011	535.153	-0.099	0.240
-593.996	-42.957	0.222	-0.115
-592.982	800.000	-0.039	0.142
-591.967	43.998	0.175	0.163
-590.952	800.000	0.074	-0.297
-589.938	-200.000	0.024	-0.271
-588.923	-9.973	-0.231	0.156
-587.909	-136.216	0.266	-0.032
-586.894	69.022	-0.134	0.140
-585.879	-62.585	-0.273	-0.115
-584.865	-20.870	-0.456	0.284
-583.850	800.000	0.065	0.203
-582.836	27.164	-0.044	0.038
-581.821	-57.698	-0.578	-0.257
-580.806	800.000	0.095	0.356
-579.792	-53.638	0.295	0.137
-578.777	-77.309	0.105	0.037
-577.763	-74.853	0.124	-0.045
-576.748	800.000	0.028	-0.121
-575.733	770.393	0.079	-0.219
-574.719	-147.368	-0.127	0.011
-573.704	242.933	0.021	0.037
-572.690	-96.939	-0.186	0.049
-571.675	-57.843	0.435	-0.193
-570.661	524.630	0.084	0.200
-569.646	-71.269	0.395	-0.150
-568.631	-98.646	0.238	-0.062
-567.617	800.000	-0.073	0.249
-566.602	-74.307	0.153	-0.056
-565.588	-128.251	-0.152	0.022
-564.573	375.871	-0.138	0.286
-563.558	800.000	0.004	0.013
-562.544	-61.578	-0.140	0.060
-561.529	-95.308	-0.358	-0.098
-560.515	414.020	0.143	0.310
-559.500	-200.000	-0.046	-0.334
-558.485	-200.000	0.026	0.177
-557.471	289.031	-0.077	0.142
-556.456	10.306	0.166	0.128
-555.442	800.000	0.065	-0.195
-554.427	800.000	-0.172	0.498
-553.412	-200.000	-0.015	0.240
-552.398	-200.000	-0.029	0.134
-551.383	-39.038	-0.176	-0.094
-550.369	-68.048	0.222	0.088
-549.354	-185.514	0.114	0.002
-548.339	-81.329	-0.110	0.037
-547.325	-105.360	0.098	-0.023
-546.310	-200.000	0.013	0.335
-545.296	-29.301	0.071	0.041
-544.281	637.808	-0.056	-0.145
-543.266	278.317	0.053	0.095
-542.252	145.016	0.022	-0.029
-541.237	42.334	-0.120	0.110
-540.223	772.098	-0.062	0.170
-539.208	-49.040	0.249	-0.121
-538.193	-131.640	-0.214	-0.029
-537.179	191.784	-0.106	0.162
-536.164	121.611	-0.158	0.200
-535.150	800.000	-0.040	-0.139
-534.135	377.188	-0.196	0.407
-533.121	-96.305	-0.255	0.068
-532.106	-12.493	-0.109	0.072
-531.091	-26.627	-0.123	-0.073
-530.077	763.091	-0.111	0.305
-529.062	-122.916	-0.192	0.031
-528.048	-132.040	0.100	-0.013
-527.033	-148.100	0.164	0.014
-526.018	-164.888	-0.173	0.008
-525.004	-126.054	-0.171	0.026
-523.989	-134.961	-0.311	-0.038
-522.975	222.447	-0.111	-0.181
-521.960	-40.958	-0.303	-0.159
-520.945	-65.062	-0.262	0.107
-519.931	-157.967	-0.112	0.007
-518.916	265.608	0.080	0.141
-517.902	-32.554	0.335	-0.189
-516.887	-116.328	0.173	0.033
-515.872	800.000	0.065	-0.253
-514.858	-23.495	-0.049	-0.030
-513.843	-18.700	0.182	-0.115
-512.829	22.167	0.030	0.025
-511.814	-20.987	0.157	0.097
-510.799	151.306	0.159	0.219
-509.785	-200.000	0.081	0.384
-508.770	56.572	0.077	-0.076
-507.756	102.371	0.167	0.198
-506.741	-88.071	0.164	-0.050
-505.726	39.968	0.149	-0.135
-504.712	315.480	0.209	-0.400
-503.697	-56.051	-0.211	0.095
-502.683	88.946	-0.129	0.145
-501.668	236.940	0.181	-0.303
-500.653	77.756	-0.297	-0.321
-499.639	-140.411	0.085	-0.009
-498.624	-86.094	0.028	0.009
-497.610	800.000	0.074	-0.275
-496.595	-200.000	-0.049	0.248
-495.581	-49.767	-0.300	-0.144
-494.566	28.036	-0.120	0.102
-493.551	800.000	-0.093	0.300
-492.537	191.837	-0.207	0.315
-491.522	-65.103	0.306	0.125
-490.508	-12.987	0.341	-0.225
-489.493	-148.439	-0.220	0.018
-488.478	-101.302	-0.144	-0.036
-487.464	628.070	0.056	-0.144
-486.449	92.584	0.277	-0.317
-485.435	-188.062	-0.287	-0.004
-484.420	-200.000	-0.082	0.399
-483.405	-200.000	-0.019	0.235
-482.391	-154.232	0.209	-0.014
-481.376	-200.000	0.032	-0.158
-480.362	-143.598	0.142	0.014
-479.347	-200.000	0.046	0.234
-478.332	800.000	-0.059	0.190
-477.318	-200.000	-0.089	-0.439
-476.303	282.761	-0.110	-0.200
-475.289	-200.000	0.015	0.202
-474.274	-92.354	0.342	0.097
-473.259	-100.997	-0.221	0.055
-472.245	-89.284	0.059	0.018
-471.230	800.000	0.056	0.196
-470.216	-64.195	0.208	0.086
-469.201	142.450	-0.062	-0.083
-468.186	95.304	-0.027	-0.031
-467.172	-109.076	-0.069	0.015
-466.157	471.547	0.045	0.103
-465.143	790.013	0.050	-0.140
-464.128	800.000	-0.042	0.139
-463.113	85.718	0.087	-0.097
-462.099	101.013	0.105	0.123
-461.084	800.000	-0.041	0.154
-460.070	-200.000	0.044	-0.519
-459.055	-200.000	-0.009	-0.081
-458.040	-189.205	-0.196	0.002
-457.026	-105.916	-0.263	0.060
-456.011	63.705	0.168	-0.171
-454.997	-1.860	-0.128	0.091
-453.982	-200.000	-0.007	0.317
-452.968	-200.000	-0.017	-0.150
-451.953	30.690	0.155	0.134
-450.938	100.766	-0.139	0.164
-449.924	-25.707	-0.167	-0.100
-448.909	-120.739	0.303	0.052
-447.895	51.806	0.122	-0.118
-446.880	-200.000	0.011	0.167
-445.865	-85.153	0.214	0.068
-444.851	-2.841	0.192	-0.135
-443.836	-200.000	0.016	0.078
-442.822	78.775	0.212	-0.229
-441.807	85.008	-0.139	0.154
-440.792	-56.346	0.186	-0.084
-439.778	-6.467	0.256	0.176
-438.763	-198.613	0.343	-0.002
-437.749	151.428	-0.144	-0.199
-436.734	-112.758	0.142	-0.029
-435.719	355.611	0.067	0.135
-434.705	800.000	0.044	0.134
-433.690	-84.895	-0.129	0.041
-432.676	-167.433	-0.305	-0.012
-431.661	-67.597	0.262	0.104
-430.646	-200.000	0.045	-0.317
-429.632	76.160	0.096	-0.102
-428.617	97.749	0.092	0.106
-427.603	386.128	-0.153	0.320
-426.588	-35.005	0.135	0.074
-425.573	-66.674	0.124	-0.050
-424.559	751.428	0.037	0.101
-423.544	50.400	-0.100	0.096
-422.530	-7.711	0.258	-0.176
-421.515	800.000	0.032	-0.093
-420.500	659.487	0.088	0.229
-419.486	-22.136	-0.136	0.084
-418.471	26.931	0.089	0.076
-417.457	-38.384	0.084	-0.045
-416.442	18.642	-0.137	0.110
-415.428	-22.349	0.087	-0.053
-414.413	121.642	0.241	-0.303
-413.398	55.680	-0.057	-0.056
-412.384	-22.225	0.070	-0.043
-411.369	231.789	0.164	-0.272
-410.355	-75.423	0.145	-0.052
-409.340	135.584	-0.109	-0.144
-408.325	-200.000	-0.018	0.309
-407.311	800.000	-0.123	0.379
-406.296	800.000	0.104	0.327
-405.282	122.431	0.066	-0.083
-404.267	591.826	-0.083	-0.206
-403.252	800.000	0.139	-0.411
-402.238	800.000	-0.094	-0.275
-401.223	-87.658	-0.329	0.100
-400.209	-28.347	-0.310	0.181
-399.194	-42.065	-0.242	0.125
-398.179	-200.000	0.021	-0.362
-397.165	-156.583	0.351	-0.022
-396.150	-26.476	-0.177	0.105
-395.136	63.335	0.172	0.174
-394.121	3.370	-0.222	-0.163
-393.106	-200.000	0.008	0.259
-392.092	-46.437	0.188	-0.093
-391.077	-200.000	-0.089	0.397
-390.063	-14.890	-0.033	-0.021
-389.048	92.401	-0.178	0.202
-388.033	-38.342	-0.163	-0.087
-387.019	-13.492	-0.109	-0.071
-386.004	-200.000	-0.051	-0.276
-384.990	791.129	0.097	0.268
-383.975	-122.968	-0.161	0.026
-382.960	164.560	-0.206	0.293
-381.946	-200.000	0.001	0.276
-380.931	-200.000	-0.017	0.292
-379.917	-87.912	0.032	0.010
-378.902	-55.179	0.059	-0.027
-377.888	-105.443	0.201	-0.046
-376.873	-110.328	0.117	-0.025
-375.858	800.000	0.061	-0.217
-374.844	207.157	0.307	-0.482
-373.829	137.478	0.175	0.231
-372.815	-2.936	0.173	-0.122
-371.800	53.232	0.078	-0.075
-370.785	20.036	-0.249	-0.203
-369.771	734.070	-0.088	0.237
-368.756	9.938	0.143	-0.109
-367.742	-110.345	0.110	-0.023
-366.727	-42.087	0.094	-0.049
-365.712	20.277	0.331	-0.269
-364.698	-200.000	0.009	-0.499
-363.683	31.982	-0.232	-0.201
-362.669	237.550	0.148	0.247
-361.654	19.556	-0.094	0.076
-360.639	79.209	-0.083	-0.090
-359.625	509.738	-0.087	-0.204
-358.610	346.031	-0.139	0.274
-357.596	-91.298	-0.283	0.082
-356.581	-84.711	0.131	-0.042
-355.566	-200.000	0.015	-0.258
-354.552	-92.377	0.167	-0.047
-353.537	-57.777	0.158	0.070
-352.523	-89.239	-0.283	0.084
-351.508	-75.425	0.266	0.095
-350.493	-35.150	0.095	0.052
-349.479	2.499	-0.275	0.200
-348.464	44.419	0.177	0.164
-347.450	726.864	-0.029	-0.078
-346.435	85.753	-0.195	-0.216
-345.420	7.195	0.174	-0.131
-344.406	241.781	0.125	-0.210
-343.391	800.000	0.044	-0.148
-342.377	-24.359	-0.205	0.123
-341.362	-89.453	0.458	-0.136
-340.348	8.674	0.264	-0.201
-339.333	31.013	0.041	-0.036
-338.318	-121.030	-0.056	-0.010
-337.304	135.084	0.132	-0.172
-336.289	-128.431	0.217	-0.031
-335.275	-200.000	-0.018	-0.148
-334.260	-200.000	-0.019	0.305
-333.245	800.000	0.049	0.180
-332.231	-95.501	-0.156	-0.042
-331.216	445.815	0.157	-0.346
-330.202	565.839	-0.085	-0.208
-329.187	-137.104	-0.185	-0.021
-328.172	-200.000	0.007	-0.370
-327.158	135.088	-0.150	-0.196
-326.143	-132.989	0.257	-0.033
-325.129	-140.253	0.144	-0.015
-324.114	-200.000	0.004	0.125
-323.099	-200.000	-0.022	-0.137
-322.085	-105.433	0.216	0.049
-321.070	513.829	0.131	0.307
-320.056	-84.039	0.147	0.047
-319.041	748.999	0.047	0.129
-318.026	81.236	-0.069	0.075
-317.012	37.556	0.076	0.068
-315.997	-115.674	-0.028	-0.005
-314.983	-200.000	0.030	-0.158
-313.968	-12.064	-0.095	0.063
-312.953	36.363	0.273	0.242
-311.939	-91.322	-0.110	-0.032
-310.924	-154.406	0.165	-0.011
-309.910	15.555	-0.200	-0.158
-308.895	-34.262	-0.129	-0.071
-307.880	155.082	0.231	0.320
-306.866	138.086	-0.227	0.299
-305.851	240.175	-0.063	0.105
-304.837	-31.832	-0.250	0.141
-303.822	-152.549	0.099	0.007
-302.807	188.904	0.015	0.023
-301.793	-45.989	-0.056	-0.028
-300.778	134.337	0.224	-0.292
-299.764	516.184	-0.094	0.221
-298.749	-148.760	-0.344	0.028
-297.735	546.234	0.027	-0.065
-296.720	32.237	0.201	0.174
-295.705	-200.000	0.020	0.500
-294.691	-107.632	0.433	-0.095
-293.676	-200.000	-0.038	-0.219
-292.662	121.677	0.030	0.037
-291.647	363.439	-0.092	0.186
-290.632	-74.117	0.179	0.065
-289.618	287.984	-0.092	-0.168
-288.603	242.472	0.091	-0.152
-287.589	31.981	0.082	-0.071
-286.574	6.395	0.029	0.022
-285.559	-106.127	-0.186	0.042
-284.545	115.496	0.013	-0.016
-283.530	207.108	0.128	0.201
-282.516	108.727	-0.066	-0.079
-281.501	0.386	-0.133	0.095
-280.486	81.567	-0.095	0.103
-279.472	462.100	0.047	-0.105
-278.457	264.602	0.009	-0.016
-277.443	-200.000	-0.051	0.370
-276.428	696.383	0.019	0.051
-275.413	-17.906	0.326	0.205
-274.399	10.773	-0.172	-0.132
-273.384	-153.871	-0.223	0.015
-272.370	30.092	0.110	-0.094
-271.355	365.575	0.071	0.144
-270.340	-107.573	-0.353	-0.078
-269.326	-125.957	-0.226	0.034
-268.311	20.059	-0.248	-0.201
-267.297	-114.719	-0.132	0.025
-266.282	-117.189	-0.120	-0.022
-265.267	-122.480	0.071	-0.012
-264.253	-200.000	-0.005	-0.240
-263.238	-200.000	0.020	-0.091
-262.224	45.195	-0.154	-0.143
-261.209	-120.811	-0.132	0.022
-260.195	-200.000	0.057	0.584
-259.180	-88.315	-0.185	-0.055
-258.165	-29.887	0.131	0.075
-257.151	-64.801	-0.366	-0.149
-256.136	123.950	-0.073	0.092
-255.122	-200.000	0.046	-0.219
-254.107	347.464	-0.195	-0.385
-253.092	103.221	-0.173	-0.204
-252.078	315.312	-0.054	-0.102
-251.063	-200.000	0.018	-0.102
-250.049	726.584	-0.013	-0.036
-249.034	-93.899	-0.240	-0.066
-248.019	-55.599	0.155	0.070
-247.005	-54.692	0.195	-0.088
-245.990	-117.256	0.245	-0.045
-244.976	800.000	0.078	0.270
-243.961	-125.219	-0.065	0.010
-242.946	105.066	0.213	-0.252
-241.932	161.358	0.258	-0.362
-240.917	113.515	-0.066	0.081
-239.903	-81.989	0.403	-0.132
-238.888	-11.404	-0.163	0.108
-237.873	215.092	0.188	0.299
-236.859	-118.344	-0.304	-0.054
-235.844	50.824	0.178	0.169
-234.830	-52.295	0.194	0.090
-233.815	61.676	-0.269	0.268
-232.800	110.249	0.210	-0.253
-231.786	800.000	0.071	-0.211
-230.771	60.483	0.268	0.266
-229.757	800.000	-0.056	-0.242
-228.742	-6.229	-0.237	-0.162
-227.727	-200.000	-0.015	0.175
-226.713	116.805	-0.138	0.170
-225.698	800.000	-0.084	0.251
-224.684	-86.752	-0.035	0.011
-223.669	-88.954	-0.367	0.109
-222.655	-41.089	0.246	-0.127
-221.640	48.973	-0.170	0.160
-220.625	-200.000	-0.015	0.230
-219.611	-200.000	-0.049	0.241
-218.596	-77.786	0.396	0.137
-217.582	800.000	0.023	0.096
-216.567	-200.000	-0.004	0.196
-215.552	319.230	-0.220	-0.419
-214.538	84.786	-0.115	-0.127
-213.523	-43.980	0.224	0.113
-212.509	626.813	0.083	-0.209
-211.494	356.908	-0.146	-0.292
-210.479	-145.085	-0.201	-0.018
-209.465	59.919	0.248	-0.246
-208.450	-85.905	-0.280	0.087
-207.436	106.571	0.077	-0.092
-206.421	116.036	-0.161	-0.198
-205.406	192.516	0.234	-0.353
-204.392	381.161	0.132	-0.272
-203.377	800.000	0.051	0.208
-202.363	800.000	0.021	0.069
-201.348	355.639	0.048	-0.096
-200.333	42.879	-0.204	-0.186
-199.319	800.000	-0.028	-0.096
-198.304	-74.802	0.155	-0.056
-197.290	-200.000	0.055	-0.389
-196.275	69.632	-0.202	-0.209
-195.260	800.000	0.059	0.176
-194.246	-31.163	0.147	0.083
-193.231	-91.533	-0.106	-0.030
-192.217	107.887	-0.311	-0.371
-191.202	563.201	-0.014	-0.034
-190.187	-200.000	0.024	-0.308
-189.173	-160.014	0.046	0.003
-188.158	36.534	-0.176	-0.155
-187.144	-116.708	0.266	0.049
-186.129	98.097	0.125	-0.144
-185.114	70.204	-0.109	-0.112
-184.100	-200.000	-0.013	0.267
-183.085	230.575	-0.150	-0.246
-182.071	648.749	0.062	0.159
-181.056	388.633	0.066	0.136
-180.042	-51.158	-0.134	-0.063
-179.027	-14.529	-0.185	0.119
-178.012	167.969	-0.203	0.289
-176.998	317.447	-0.050	-0.094
-175.983	-53.325	0.176	-0.081
-174.969	-200.000	-0.014	-0.219
-173.954	120.725	0.060	-0.074
-172.939	725.623	0.168	0.447
-171.925	22.535	-0.261	0.214
-170.910	-109.345	-0.295	0.063
-169.896	-112.602	-0.071	-0.014
-168.881	16.003	-0.147	0.116
-167.866	-200.000	-0.050	-0.296
-166.852	-135.890	0.223	0.026
-165.837	-32.224	0.151	0.084
-164.823	-129.275	0.070	0.010
-163.808	223.878	0.048	-0.078
-162.793	-200.000	0.010	0.046
-161.779	-17.338	-0.298	0.188
-160.764	72.731	-0.272	-0.284
-159.750	494.435	-0.153	-0.352
-158.735	-200.000	0.004	-0.034
-157.720	-187.332	-0.387	-0.005
-156.706	-101.236	0.296	-0.072
-155.691	800.000	-0.102	0.306
-154.677	137.964	-0.051	0.067
-153.662	13.520	-0.100	0.078
-152.647	109.815	-0.056	0.067
-151.633	-129.741	0.300	-0.041
-150.618	74.484	0.273	0.287
-149.604	800.000	-0.087	0.284
-148.589	130.267	0.279	0.357
-147.574	-11.379	-0.145	0.095
-146.560	-107.365	-0.074	0.016
-145.545	-94.213	-0.401	-0.110
-144.531	-83.170	0.408	0.131
-143.516	-25.128	0.059	0.035
-142.502	594.531	0.073	-0.181
-141.487	-22.427	0.186	0.112
-140.472	10.422	-0.088	-0.067
-139.458	-102.068	0.618	0.149
-138.443	-129.584	-0.070	-0.010
-137.429	284.479	0.061	-0.109
-136.414	190.001	-0.187	-0.281
-135.399	-122.564	0.443	-0.072
-134.385	168.075	0.204	-0.289
-133.370	30.550	-0.026	0.022
-132.356	-200.000	0.007	0.131
-131.341	7.784	-0.181	0.135
-130.326	-200.000	-0.036	0.187
-129.312	-59.176	0.226	-0.097
-128.297	800.000	-0.088	0.279
-127.283	22.840	0.132	0.108
-126.268	-0.226	0.362	0.257
-125.253	-200.000	0.044	0.235
-124.239	171.522	-0.058	0.083
-123.224	800.000	-0.086	0.239
-122.210	-69.649	-0.183	0.070
-121.195	-200.000	-0.098	0.440
