DTS Sentinel unit serial number:	SN413079Multiplexer serial number:	ORYXHardware model number:	OX4-SRSoftware version number:	ORYX F/W v4.00 Oryx Data Collector v3.7.2.0data status	okinstallation	princeton_trtdifferential loss correction	single-endedforward channel	channel 3reverse channel	N/Adate	2019/09/18time	01:56:35forward acquisition time	60.00reverse acquisition time	0.00gamma	496.2192k internal	0.2344k external	0.2344temperature offset calibration	0.9950default loss term (dB/km)	0.3790temperature slope calibration	1.0000multiplexer offset coefficient	1.0000multiplexer slope coefficient	1.0000fibre end	0.00T internal ref (°C)	22.94T ext. ref 1 (°C)	0.16T ext. ref 2 (°C)	16.72length (m)	temperature (°C)	Stokes	anti-Stokes-747.200	174.578	-0.124	-0.180
-746.185	717.021	0.104	0.277
-745.171	185.361	0.151	0.225
-744.156	-109.705	-0.432	0.091
-743.142	-68.054	-0.176	0.069
-742.127	45.323	-0.173	0.160
-741.112	135.743	0.058	0.075
-740.098	-200.000	-0.001	-0.092
-739.083	-200.000	-0.023	0.131
-738.069	7.856	-0.087	-0.066
-737.054	800.000	-0.061	0.196
-736.039	347.936	-0.124	0.244
-735.025	375.671	-0.134	0.273
-734.010	-138.823	-0.498	-0.054
-732.996	240.084	-0.045	0.075
-731.981	188.633	-0.048	0.072
-730.966	-105.074	0.089	0.020
-729.952	311.516	-0.073	-0.137
-728.937	-200.000	0.032	0.197
-727.923	3.760	0.133	0.097
-726.908	547.706	0.052	0.125
-725.894	-24.192	-0.382	-0.228
-724.879	-111.429	-0.410	0.083
-723.864	41.619	0.129	-0.117
-722.850	-114.158	-0.297	-0.057
-721.835	-110.339	-0.172	-0.036
-720.821	464.577	0.044	0.099
-719.806	-98.481	-0.063	0.016
-718.791	615.832	-0.108	-0.271
-717.777	-200.000	-0.020	-0.092
-716.762	-18.426	-0.329	-0.206
-715.748	-163.367	-0.047	-0.002
-714.733	93.693	-0.035	0.040
-713.718	-50.489	0.350	0.165
-712.704	75.332	0.246	-0.260
-711.689	128.747	0.107	-0.136
-710.675	397.648	-0.171	-0.357
-709.660	-115.089	0.353	0.067
-708.645	56.805	-0.228	-0.222
-707.631	-200.000	-0.013	0.280
-706.616	-200.000	0.015	0.525
-705.602	-41.322	-0.139	0.072
-704.587	-13.793	-0.288	-0.186
-703.572	-200.000	0.007	-0.040
-702.558	-105.977	0.209	-0.047
-701.543	-31.586	0.509	-0.285
-700.529	4.492	-0.067	-0.049
-699.514	-51.477	0.187	0.087
-698.499	800.000	0.020	-0.071
-697.485	100.170	0.217	0.251
-696.470	755.356	-0.078	0.211
-695.456	-128.402	-0.321	0.046
-694.441	-137.250	-0.159	0.018
-693.426	-200.000	0.027	0.361
-692.412	-148.955	-0.198	-0.016
-691.397	273.863	0.072	-0.126
-690.383	-91.250	0.300	-0.086
-689.368	-70.227	0.111	-0.042
-688.354	17.229	-0.247	-0.196
-687.339	800.000	0.096	-0.306
-686.324	-200.000	-0.047	0.421
-685.310	-41.555	-0.111	0.057
-684.295	-200.000	0.037	0.280
-683.281	-108.374	-0.305	0.066
-682.266	79.423	-0.239	-0.256
-681.251	209.148	-0.107	-0.167
-680.237	-200.000	-0.043	0.295
-679.222	-87.175	-0.131	0.040
-678.208	85.614	0.183	-0.200
-677.193	62.829	-0.089	0.089
-676.178	-55.736	-0.247	-0.110
-675.164	702.231	-0.053	-0.139
-674.149	-200.000	0.003	-0.186
-673.135	-98.654	0.352	-0.090
-672.120	84.417	0.223	-0.243
-671.105	-95.852	-0.452	0.120
-670.091	-58.376	0.399	0.173
-669.076	676.546	-0.051	0.131
-668.062	-7.690	0.155	-0.104
-667.047	-200.000	0.016	0.206
-666.032	-41.330	-0.243	-0.125
-665.018	-65.552	0.096	0.038
-664.003	89.160	-0.079	0.088
-662.989	152.136	0.276	-0.376
-661.974	619.255	-0.103	0.259
-660.959	96.062	-0.191	-0.218
-659.945	39.412	0.072	0.065
-658.930	800.000	0.017	0.053
-657.916	150.973	0.125	-0.170
-656.901	61.910	-0.157	-0.156
-655.886	-29.482	-0.096	0.055
-654.872	-42.966	-0.280	0.142
-653.857	-6.389	0.378	-0.257
-652.843	-23.320	-0.252	0.151
-651.828	629.300	-0.056	-0.142
-650.814	44.835	0.172	0.158
-649.799	-76.858	0.025	0.009
-648.784	-118.583	-0.295	0.052
-647.770	-40.550	-0.129	0.067
-646.755	-27.045	0.311	-0.181
-645.741	-53.372	0.078	-0.036
-644.726	328.325	0.157	-0.300
-643.711	173.232	0.044	0.064
-642.697	35.813	-0.102	0.089
-641.682	-39.499	0.348	-0.182
-640.668	-86.496	0.076	0.023
-639.653	48.448	-0.029	-0.027
-638.638	-200.000	-0.015	0.281
-637.624	124.351	0.096	0.120
-636.609	-94.610	-0.228	0.062
-635.595	10.290	0.065	-0.049
-634.580	1.839	-0.323	-0.232
-633.565	98.281	0.114	-0.131
-632.551	-84.633	-0.218	0.068
-631.536	-16.262	0.166	0.105
-630.522	800.000	-0.031	-0.112
-629.507	-200.000	-0.037	-0.227
-628.492	800.000	-0.145	-0.588
-627.478	-118.905	0.246	0.043
-626.463	-179.970	-0.239	-0.005
-625.449	-70.921	-0.485	-0.182
-624.434	-49.461	-0.212	0.101
-623.419	261.935	0.116	0.200
-622.405	151.208	-0.196	-0.266
-621.390	163.875	0.107	0.150
-620.376	246.387	0.173	0.290
-619.361	-78.639	-0.044	0.015
-618.346	-142.991	0.091	0.009
-617.332	-33.681	0.164	-0.090
-616.317	-74.307	-0.168	0.061
-615.303	-200.000	-0.035	0.274
-614.288	-119.507	0.239	0.041
-613.273	119.711	-0.133	-0.164
-612.259	-128.413	-0.328	0.046
-611.244	764.513	0.146	0.396
-610.230	-61.137	-0.210	-0.088
-609.215	-65.476	-0.267	-0.107
-608.201	-44.219	-0.033	-0.017
-607.186	-15.696	-0.259	0.164
-606.171	800.000	0.033	-0.136
-605.157	203.309	-0.049	0.075
-604.142	-23.218	-0.209	0.125
-603.128	279.555	0.063	0.112
-602.113	-61.511	-0.278	0.116
-601.098	-102.796	-0.291	0.069
-600.084	88.616	-0.166	-0.183
-599.069	-200.000	-0.051	0.242
-598.055	-154.576	0.177	-0.012
-597.040	-200.000	-0.006	-0.059
-596.025	411.857	0.132	-0.279
-595.011	-95.192	0.204	-0.055
-593.996	-21.953	-0.186	0.112
-592.982	199.429	0.082	0.126
-591.967	-36.274	-0.251	-0.135
-590.952	-200.000	-0.015	-0.255
-589.938	-130.772	-0.235	-0.031
-588.923	-200.000	0.009	0.135
-587.909	800.000	-0.037	-0.156
-586.894	-200.000	-0.011	-0.090
-585.879	-75.824	0.140	0.049
-584.865	-148.886	-0.170	-0.014
-583.850	302.864	-0.074	0.137
-582.836	800.000	0.100	-0.279
-581.821	-34.101	0.145	0.079
-580.806	4.184	-0.384	-0.279
-579.792	-142.887	0.194	-0.019
-578.777	-200.000	-0.014	0.069
-577.763	-79.458	0.420	-0.141
-576.748	-200.000	-0.046	-0.349
-575.733	-178.582	-0.303	0.007
-574.719	-67.261	0.089	0.035
-573.704	-14.796	-0.125	0.079
-572.690	-10.640	-0.062	0.041
-571.675	-143.604	0.127	0.012
-570.661	525.032	0.070	-0.164
-569.646	-137.026	0.090	0.010
-568.631	582.954	0.132	-0.321
-567.617	-100.279	-0.350	-0.086
-566.602	-15.387	-0.138	0.088
-565.588	-200.000	0.032	0.278
-564.573	102.888	-0.252	0.293
-563.558	800.000	-0.070	-0.264
-562.544	-36.969	-0.130	0.069
-561.529	-101.617	-0.350	0.085
-560.515	118.615	0.212	-0.260
-559.500	26.299	-0.293	0.244
-558.485	-173.986	0.118	-0.003
-557.471	740.981	-0.055	-0.146
-556.456	-94.426	-0.258	-0.070
-555.442	176.560	0.091	0.131
-554.427	-92.268	-0.208	0.058
-553.412	37.051	-0.088	0.077
-552.398	335.758	-0.167	0.323
-551.383	1.435	0.248	-0.177
-550.369	327.609	-0.161	0.307
-549.354	-43.200	-0.245	-0.123
-548.339	-119.866	0.374	0.064
-547.325	800.000	-0.081	0.271
-546.310	46.533	0.236	-0.217
-545.296	800.000	0.065	0.211
-544.281	-36.288	-0.059	-0.031
-543.266	800.000	-0.038	-0.151
-542.252	193.842	0.066	-0.100
-541.237	-98.488	0.267	-0.068
-540.223	282.698	-0.112	0.199
-539.208	-26.738	-0.328	0.191
-538.193	800.000	0.101	-0.322
-537.179	77.920	0.076	-0.080
-536.164	-200.000	0.050	-0.411
-535.150	422.639	0.122	-0.260
-534.135	-83.678	-0.356	-0.113
-533.121	150.489	0.265	-0.357
-532.106	800.000	-0.046	0.178
-531.091	-126.845	-0.020	0.003
-530.077	735.941	-0.175	-0.464
-529.062	-148.352	-0.087	0.007
-528.048	-62.208	-0.204	-0.085
-527.033	52.701	0.118	-0.112
-526.018	-200.000	-0.014	0.079
-525.004	-153.068	-0.251	-0.018
-523.989	3.599	-0.075	-0.054
-522.975	154.912	0.123	0.168
-521.960	-123.322	0.300	0.048
-520.945	-119.402	-0.149	0.026
-519.931	-200.000	0.028	0.245
-518.916	-176.610	0.174	0.004
-517.902	84.906	-0.330	-0.359
-516.887	-76.808	0.122	-0.042
-515.872	-56.062	-0.257	-0.114
-514.858	-200.000	0.015	0.160
-513.843	-10.190	-0.170	0.112
-512.829	115.556	-0.134	-0.162
-511.814	-107.100	0.154	0.034
-510.799	800.000	-0.083	-0.232
-509.785	56.793	0.171	-0.165
-508.770	800.000	-0.056	-0.175
-507.756	-115.513	0.125	0.023
-506.741	-95.458	-0.295	0.079
-505.726	-143.510	-0.389	-0.037
-504.712	-118.227	0.137	0.024
-503.697	-148.281	0.298	0.024
-502.683	486.383	-0.014	-0.032
-501.668	-133.056	0.209	0.026
-500.653	97.770	0.064	0.073
-499.639	-60.226	-0.206	0.087
-498.624	47.535	0.136	-0.125
-497.610	253.111	0.089	-0.150
-496.595	185.822	-0.083	0.123
-495.581	450.346	-0.016	-0.034
-494.566	26.409	-0.053	0.044
-493.551	47.040	-0.354	0.327
-492.537	627.633	0.106	-0.265
-491.522	535.589	-0.089	0.210
-490.508	136.152	0.210	0.272
-489.493	-200.000	-0.010	-0.228
-488.478	-106.611	0.360	0.079
-487.464	334.173	0.123	-0.236
-486.449	-200.000	0.044	-0.351
-485.435	-140.438	0.148	-0.015
-484.420	-96.902	-0.104	0.027
-483.405	493.708	-0.074	0.167
-482.391	111.530	0.070	0.083
-481.376	-99.314	-0.269	-0.067
-480.362	175.247	0.055	0.079
-479.347	68.371	-0.075	0.076
-478.332	-185.122	-0.289	-0.004
-477.318	37.256	-0.301	0.264
-476.303	-200.000	0.021	0.257
-475.289	800.000	0.147	-0.525
-474.274	800.000	-0.158	0.458
-473.259	-155.534	-0.310	-0.020
-472.245	-148.904	-0.152	0.012
-471.230	-56.939	-0.068	-0.030
-470.216	-200.000	-0.006	-0.379
-469.201	476.565	-0.188	-0.421
-468.186	-35.854	-0.322	0.173
-467.172	-128.094	0.120	0.017
-466.157	-52.079	0.118	-0.054
-465.143	-78.651	-0.203	0.069
-464.128	78.121	0.337	-0.356
-463.113	-127.291	-0.492	-0.071
-462.099	800.000	0.085	-0.240
-461.084	-21.549	-0.379	-0.229
-460.070	-29.185	-0.189	0.107
-459.055	281.536	-0.164	0.291
-458.040	-200.000	-0.049	0.249
-457.026	-200.000	-0.066	-0.328
-456.011	-106.408	0.142	-0.031
-454.997	-200.000	0.019	-0.130
-453.982	800.000	0.053	0.194
-452.968	129.171	-0.146	0.184
-451.953	-48.358	-0.260	-0.124
-450.938	-111.325	-0.161	-0.033
-449.924	-105.075	0.226	-0.051
-448.909	-200.000	0.004	-0.389
-447.895	-21.295	-0.265	-0.160
-446.880	-63.505	0.302	-0.123
-445.865	-200.000	0.327	0.001
-444.851	-53.961	0.127	-0.057
-443.836	-12.158	0.260	-0.168
-442.822	6.090	0.105	0.077
-441.807	42.378	-0.210	0.189
-440.792	-114.906	0.050	0.009
-439.778	36.913	0.286	0.250
-438.763	-33.580	0.033	-0.018
-437.749	-200.000	0.007	-0.061
-436.734	-147.200	0.598	0.050
-435.719	-158.458	0.304	-0.017
-434.705	800.000	-0.035	0.126
-433.690	-129.695	-0.150	-0.020
-432.676	800.000	-0.011	-0.038
-431.661	-40.729	0.036	-0.018
-430.646	-46.964	-0.146	0.071
-429.632	528.585	0.010	-0.024
-428.617	-72.124	0.154	0.056
-427.603	800.000	0.053	0.155
-426.588	-200.000	0.029	-0.213
-425.573	294.739	0.248	-0.448
-424.559	800.000	-0.092	-0.271
-423.544	271.912	-0.014	-0.024
-422.530	43.348	0.166	0.150
-421.515	680.573	0.107	0.274
-420.500	61.241	-0.147	-0.145
-419.486	-51.493	0.290	-0.134
-418.471	-34.313	-0.027	0.015
-417.457	32.839	-0.045	-0.038
-416.442	-200.000	0.151	0.000
-415.428	68.262	0.203	0.206
-414.413	-200.000	-0.044	-0.264
-413.398	-3.064	0.130	0.090
-412.384	149.098	-0.086	-0.115
-411.369	-77.705	0.359	-0.123
-410.355	439.129	-0.099	0.213
-409.340	-54.188	0.143	0.064
-408.325	-47.064	0.261	0.126
-407.311	100.320	0.078	-0.089
-406.296	-200.000	-0.022	0.175
-405.282	20.598	-0.272	0.217
-404.267	-200.000	-0.046	0.368
-403.252	551.027	0.141	-0.333
-402.238	47.233	-0.071	0.065
-401.223	-133.932	-0.115	-0.014
-400.209	21.360	-0.342	0.274
-399.194	90.777	0.033	0.036
-398.179	-88.474	-0.060	-0.018
-397.165	-77.189	-0.183	-0.063
-396.150	65.940	-0.186	0.186
-395.136	186.085	-0.049	0.073
-394.121	800.000	-0.091	-0.295
-393.106	119.423	-0.208	-0.254
-392.092	6.858	-0.134	0.098
-391.077	-200.000	0.181	-0.000
-390.063	-29.490	0.148	-0.084
-389.048	38.276	-0.306	0.269
-388.033	-200.000	0.025	0.146
-387.019	175.443	-0.142	-0.203
-386.004	-63.843	-0.034	-0.014
-384.990	-181.943	0.252	0.005
-383.975	-200.000	-0.014	0.081
-382.960	-67.320	-0.305	0.118
-381.946	311.656	-0.025	0.045
-380.931	-71.664	-0.301	0.111
-379.917	32.999	-0.157	-0.135
-378.902	-41.517	0.192	0.097
-377.888	704.303	-0.106	0.275
-376.873	493.854	0.020	-0.045
-375.858	-181.884	0.196	0.004
-374.844	-101.981	-0.355	0.085
-373.829	56.152	0.070	0.067
-372.815	-86.399	-0.156	-0.047
-371.800	-200.000	0.059	0.290
-370.785	141.048	0.156	0.204
-369.771	-13.144	0.255	-0.164
-368.756	-9.929	0.223	0.146
-367.742	-200.000	0.013	0.210
-366.727	-200.000	0.056	0.336
-365.712	800.000	0.016	0.053
-364.698	800.000	-0.087	0.267
-363.683	627.670	-0.109	-0.271
-362.669	-26.883	-0.090	-0.052
-361.654	-82.800	-0.269	-0.086
-360.639	479.600	-0.123	0.275
-359.625	-137.206	0.267	0.030
-358.610	-107.471	-0.207	0.045
-357.596	-200.000	-0.008	0.049
-356.581	-151.556	-0.287	-0.021
-355.566	800.000	0.042	0.125
-354.552	404.850	0.071	0.148
-353.537	66.162	0.013	0.013
-352.523	456.945	-0.128	-0.280
-351.508	21.154	0.077	-0.061
-350.493	29.313	0.189	0.158
-349.479	-35.625	-0.226	-0.121
-348.464	800.000	-0.044	0.125
-347.450	189.217	-0.050	0.074
-346.435	-132.021	0.171	0.022
-345.420	-28.378	0.072	-0.041
-344.406	195.344	0.166	-0.248
-343.391	-200.000	-0.018	-0.215
-342.377	-200.000	0.017	0.134
-341.362	329.039	0.135	0.255
-340.348	-200.000	-0.035	0.190
-339.333	-94.510	0.283	0.076
-338.318	719.180	0.045	-0.118
-337.304	169.804	-0.160	0.225
-336.289	-186.897	0.175	-0.002
-335.275	256.563	-0.197	0.334
-334.260	306.787	-0.098	0.179
-333.245	-40.351	0.164	-0.084
-332.231	800.000	-0.105	0.323
-331.216	149.773	-0.083	0.110
-330.202	-34.501	-0.183	0.098
-329.187	-86.193	0.278	-0.084
-328.172	209.451	-0.208	-0.320
-327.158	-128.776	0.291	-0.040
-326.143	352.351	-0.083	-0.162
-325.129	-175.086	0.330	0.009
-324.114	-122.295	0.153	0.025
-323.099	-159.606	0.052	-0.003
-322.085	-122.407	0.108	-0.017
-321.070	-21.048	-0.286	0.172
-320.056	254.975	-0.106	-0.178
-319.041	-200.000	-0.002	-0.255
-318.026	564.539	-0.012	-0.027
-317.012	-125.717	0.277	-0.041
-315.997	-90.482	-0.408	0.116
-314.983	199.045	0.051	0.078
-313.968	800.000	0.073	0.230
-312.953	631.943	0.136	-0.338
-311.939	-1.239	-0.061	0.043
-310.924	124.728	0.053	-0.066
-309.910	293.027	0.098	-0.176
-308.895	-103.644	-0.330	0.076
-307.880	29.517	-0.153	-0.128
-306.866	-200.000	-0.005	-0.370
-305.851	-8.382	0.090	0.060
-304.837	308.173	-0.066	-0.122
-303.822	157.435	0.075	-0.103
-302.807	-35.098	0.175	0.094
-301.793	349.527	-0.096	-0.186
-300.778	-134.126	0.074	0.009
-299.764	-27.915	0.195	0.111
-298.749	67.953	0.083	-0.084
-297.735	-117.838	-0.209	-0.037
-296.720	-24.604	0.113	0.066
-295.705	-29.072	0.342	-0.193
-294.691	661.121	-0.079	0.200
-293.676	-59.510	0.058	0.024
-292.662	96.950	-0.100	-0.113
-291.647	-68.213	-0.085	0.033
-290.632	-200.000	-0.017	-0.382
-289.618	80.535	0.102	-0.108
-288.603	274.141	0.093	-0.161
-287.589	-101.611	0.210	-0.050
-286.574	5.077	-0.138	-0.100
-285.559	-200.000	0.002	-0.266
-284.545	-61.076	0.291	0.121
-283.530	-54.679	0.185	0.082
-282.516	-200.000	0.003	-0.064
-281.501	106.222	0.103	-0.120
-280.486	-200.000	-0.020	0.164
-279.472	-173.270	0.326	0.010
-278.457	13.230	0.208	-0.158
-277.443	-200.000	0.005	-0.036
-276.428	584.123	-0.138	0.333
-275.413	-60.106	-0.091	0.038
-274.399	-149.613	-0.170	0.013
-273.384	-21.187	0.304	-0.183
-272.370	163.317	-0.130	-0.180
-271.355	-159.890	0.305	0.016
-270.340	87.546	0.152	0.166
-269.326	85.637	-0.219	-0.236
-268.311	497.585	0.052	0.117
-267.297	159.027	0.111	-0.152
-266.282	-102.446	-0.281	0.066
-265.267	-159.771	0.192	0.010
-264.253	-4.917	0.201	0.136
-263.238	540.593	0.081	0.190
-262.224	724.430	0.067	-0.175
-261.209	107.155	-0.241	0.281
-260.195	422.560	0.096	0.202
-259.180	-200.000	-0.002	0.195
-258.165	-200.000	0.013	0.148
-257.151	-200.000	0.353	-0.001
-256.136	255.632	-0.027	0.046
-255.122	-200.000	0.025	0.116
-254.107	800.000	-0.041	-0.118
-253.092	800.000	0.030	0.095
-252.078	-88.329	0.185	0.054
-251.063	147.277	0.124	0.164
-250.049	-161.651	0.259	0.013
-249.034	-142.300	0.156	0.015
-248.019	-98.320	-0.238	0.060
-247.005	-27.063	-0.273	-0.156
-245.990	281.287	-0.018	0.032
-244.976	-3.322	0.404	0.276
-243.961	-27.172	0.177	0.101
-242.946	-189.361	-0.221	-0.003
-241.932	-170.034	0.192	-0.007
-240.917	-106.762	0.021	-0.004
-239.903	-101.339	0.023	0.005
-238.888	-29.366	0.279	0.156
-237.873	-146.491	0.229	0.020
-236.859	419.284	-0.117	-0.247
-235.844	-17.868	-0.168	0.103
-234.830	-47.034	0.120	-0.057
-233.815	391.200	0.118	0.241
-232.800	-3.174	-0.083	0.057
-231.786	-38.708	0.348	0.180
-230.771	800.000	-0.085	0.290
-229.757	35.950	0.118	0.102
-228.742	214.457	0.200	0.310
-227.727	-174.126	0.165	0.005
-226.713	-154.147	0.301	0.020
-225.698	-76.528	0.172	0.059
-224.684	-60.871	-0.379	-0.157
-223.669	-200.000	0.071	0.537
-222.655	285.139	-0.078	0.139
-221.640	800.000	0.033	-0.092
-220.625	-44.556	-0.287	0.140
-219.611	-25.350	0.205	0.119
-218.596	-200.000	-0.028	0.423
-217.582	11.949	-0.134	-0.101
-216.567	-2.972	-0.319	0.219
-215.552	-49.884	0.024	0.011
-214.538	-118.858	-0.270	0.047
-213.523	-198.537	0.513	-0.003
-212.509	-67.587	-0.424	0.163
-211.494	-78.817	-0.135	-0.045
-210.479	-82.568	0.350	0.111
-209.465	-4.812	0.124	0.084
-208.450	276.718	-0.192	0.335
-207.436	125.960	0.240	-0.297
-206.421	-200.000	0.022	0.098
-205.406	-81.682	-0.138	-0.044
-204.392	273.396	-0.100	0.174
-203.377	255.894	-0.161	-0.271
-202.363	185.662	-0.093	0.135
-201.348	210.877	-0.091	0.139
-200.333	379.470	0.137	-0.274
-199.319	-18.098	0.486	-0.298
-198.304	126.351	-0.035	0.043
-197.290	800.000	-0.086	0.277
-196.275	-118.265	0.199	-0.035
-195.260	375.692	-0.148	-0.295
-194.246	-88.184	0.137	0.040
-193.231	545.825	0.080	-0.188
-192.217	539.125	-0.027	-0.063
-191.202	18.625	-0.442	0.346
-190.187	800.000	0.064	-0.212
-189.173	-79.796	-0.210	0.069
-188.158	-14.343	0.072	-0.045
-187.144	43.288	-0.008	-0.008
-186.129	582.617	-0.059	-0.141
-185.114	-99.881	-0.241	0.059
-184.100	193.643	-0.056	-0.082
-183.085	-54.768	0.232	-0.102
-182.071	66.873	-0.133	0.132
-181.056	285.766	0.180	0.318
-180.042	571.938	0.063	-0.149
-179.027	-159.776	0.244	0.013
-178.012	800.000	-0.134	-0.378
-176.998	220.947	0.185	-0.290
-175.983	-19.947	0.248	-0.150
-174.969	7.237	-0.159	-0.116
-173.954	-68.085	0.217	-0.083
-172.939	90.589	-0.077	0.084
-171.925	800.000	0.057	-0.155
-170.910	70.966	0.203	0.206
-169.896	-146.654	0.275	-0.023
-168.881	206.335	0.154	-0.234
-167.866	120.958	0.355	-0.432
-166.852	56.352	-0.097	-0.092
-165.837	-39.183	0.094	-0.048
-164.823	148.835	0.175	0.231
-163.808	-87.845	-0.369	0.109
-162.793	-164.580	-0.195	-0.009
-161.779	800.000	-0.059	-0.165
-160.764	113.051	-0.058	0.069
-159.750	-143.661	0.160	0.015
-158.735	697.834	0.017	-0.045
-157.720	37.544	0.147	-0.128
-156.706	14.524	-0.214	0.163
-155.691	125.625	0.261	0.323
-154.677	-33.510	-0.352	0.190
-153.662	-200.000	0.036	-0.322
-152.647	-163.718	0.272	-0.012
-151.633	-157.659	0.178	0.010
-150.618	-200.000	-0.019	0.096
-149.604	-200.000	0.002	-0.038
-148.589	800.000	0.081	0.260
-147.574	-200.000	-0.009	-0.123
-146.560	461.827	-0.139	0.303
-145.545	800.000	0.000	0.001
-144.531	-200.000	-0.016	0.088
-143.516	-5.389	0.178	0.119
-142.502	170.585	0.191	-0.268
-141.487	-200.000	0.031	-0.183
-140.472	-200.000	0.029	0.165
-139.458	-200.000	0.045	-0.263
-138.443	678.784	-0.143	0.363
-137.429	-74.502	0.254	-0.089
-136.414	800.000	-0.098	0.286
-135.399	600.195	0.044	0.107
-134.385	-9.978	-0.094	0.061
-133.370	-200.000	0.047	0.239
-132.356	-19.051	-0.089	0.054
-131.341	-160.783	-0.315	0.016
-130.326	21.599	-0.260	-0.207
-129.312	-127.914	0.184	-0.026
-128.297	-27.629	0.302	0.171
-127.283	-71.555	0.382	0.140
-126.268	-72.483	0.057	-0.021
-125.253	-200.000	0.011	-0.267
-124.239	-200.000	-0.049	0.331
-123.224	154.595	-0.149	0.201
-122.210	202.967	0.042	0.064
-121.195	-160.510	0.117	-0.006
