DTS Sentinel unit serial number:	SN413079Multiplexer serial number:	ORYXHardware model number:	OX4-SRSoftware version number:	ORYX F/W v4.00 Oryx Data Collector v3.7.2.0data status	okinstallation	princeton_trtdifferential loss correction	single-endedforward channel	channel 3reverse channel	N/Adate	2019/09/14time	17:36:35forward acquisition time	60.00reverse acquisition time	0.00gamma	496.2192k internal	0.2297k external	0.2297temperature offset calibration	1.0031default loss term (dB/km)	0.3790temperature slope calibration	1.0000multiplexer offset coefficient	1.0000multiplexer slope coefficient	1.0000fibre end	0.00T internal ref (°C)	37.56T ext. ref 1 (°C)	5.05T ext. ref 2 (°C)	32.30length (m)	temperature (°C)	Stokes	anti-Stokes-747.200	381.556	-0.035	0.074
-746.185	123.368	0.130	0.166
-745.171	-114.133	-0.240	-0.047
-744.156	-115.432	0.522	-0.101
-743.142	-200.000	-0.052	-0.363
-742.127	-172.195	-0.400	-0.013
-741.112	32.239	-0.129	0.114
-740.098	519.795	-0.185	0.442
-739.083	78.262	0.020	0.022
-738.069	276.624	-0.010	-0.018
-737.054	-86.640	-0.218	-0.068
-736.039	-141.253	-0.337	0.035
-735.025	187.693	0.116	0.177
-734.010	800.000	-0.099	-0.298
-732.996	-44.988	0.223	-0.114
-731.981	-44.950	-0.137	-0.070
-730.966	162.021	-0.091	0.129
-729.952	-102.826	0.057	-0.014
-728.937	315.969	0.121	-0.233
-727.923	84.131	-0.082	0.092
-726.908	0.835	0.170	-0.124
-725.894	-64.336	-0.078	-0.033
-724.879	-112.579	-0.136	0.028
-723.864	-34.505	0.106	0.059
-722.850	-77.034	-0.216	-0.077
-721.835	371.805	0.199	-0.413
-720.821	-144.224	0.093	0.009
-719.806	800.000	0.078	-0.340
-718.791	33.774	-0.270	0.240
-717.777	-77.449	-0.060	-0.021
-716.762	94.838	0.074	-0.086
-715.748	8.274	0.167	-0.128
-714.733	-94.652	-0.219	-0.061
-713.718	756.351	0.061	-0.170
-712.704	-200.000	0.019	-0.084
-711.689	320.247	-0.126	-0.244
-710.675	-200.000	0.033	0.247
-709.660	16.761	-0.185	0.150
-708.645	-172.820	-0.092	0.003
-707.631	-200.000	-0.009	-0.145
-706.616	136.806	0.211	0.282
-705.602	34.522	-0.301	0.268
-704.587	135.924	0.218	0.290
-703.572	800.000	0.084	0.264
-702.558	424.416	-0.135	-0.295
-701.543	125.910	-0.072	0.093
-700.529	-168.632	-0.328	0.013
-699.514	-200.000	0.043	-0.360
-698.499	163.633	0.226	-0.324
-697.485	222.730	-0.138	-0.226
-696.470	-116.520	-0.109	-0.021
-695.456	-110.262	-0.534	-0.113
-694.441	800.000	-0.029	-0.091
-693.426	-166.275	0.377	0.016
-692.412	428.671	-0.105	-0.232
-691.397	-29.507	-0.097	0.057
-690.383	313.094	0.170	-0.326
-689.368	549.344	0.108	-0.263
-688.354	122.976	-0.263	-0.335
-687.339	-200.000	-0.007	0.100
-686.324	-29.275	0.226	-0.132
-685.310	800.000	-0.023	0.076
-684.295	624.019	-0.015	-0.039
-683.281	-11.180	-0.139	0.094
-682.266	800.000	0.032	0.136
-681.251	48.170	-0.325	0.310
-680.237	-200.000	0.006	0.339
-679.222	3.877	-0.141	-0.105
-678.208	171.120	0.078	0.114
-677.193	35.374	0.340	-0.304
-676.178	-122.145	-0.137	0.023
-675.164	91.368	0.125	0.143
-674.149	-200.000	0.017	-0.141
-673.135	91.692	-0.148	0.169
-672.120	108.401	0.234	0.285
-671.105	800.000	-0.046	-0.180
-670.091	170.279	0.122	0.178
-669.076	-200.000	0.027	0.305
-668.062	57.382	-0.117	0.117
-667.047	800.000	-0.042	-0.176
-666.032	-40.167	0.078	0.042
-665.018	176.971	0.091	-0.134
-664.003	-91.808	0.196	0.057
-662.989	-200.000	-0.073	-0.357
-661.974	684.306	0.080	-0.213
-660.959	135.506	-0.091	0.120
-659.945	104.984	0.224	-0.269
-658.930	549.658	0.133	-0.325
-657.916	-159.402	0.187	0.011
-656.901	375.304	0.069	0.143
-655.886	-107.883	0.115	-0.026
-654.872	-163.233	0.281	-0.014
-653.857	-173.050	-0.027	0.001
-652.843	-164.467	-0.264	-0.012
-651.828	-122.426	0.194	-0.032
-650.814	-106.267	0.013	-0.003
-649.799	-200.000	0.020	-0.277
-648.784	97.914	-0.095	0.111
-647.770	-200.000	-0.070	-0.000
-646.755	800.000	-0.033	0.107
-645.741	-200.000	-0.053	0.440
-644.726	-58.411	0.095	0.042
-643.711	-200.000	0.068	-0.359
-642.697	273.510	-0.131	-0.236
-641.682	800.000	-0.060	0.171
-640.668	46.838	0.200	-0.189
-639.653	-106.803	0.280	-0.063
-638.638	103.622	-0.342	-0.408
-637.624	-200.000	-0.010	-0.214
-636.609	143.839	-0.198	-0.268
-635.595	58.919	-0.166	-0.166
-634.580	502.838	-0.054	-0.128
-633.565	3.157	-0.121	-0.089
-632.551	255.354	-0.077	0.134
-631.536	-25.569	-0.150	0.090
-630.522	-200.000	0.001	0.067
-629.507	-200.000	-0.064	0.000
-628.492	-96.921	0.241	-0.064
-627.478	145.092	0.329	-0.447
-626.463	-115.527	-0.503	-0.096
-625.449	405.335	0.021	-0.044
-624.434	225.087	0.115	-0.188
-623.419	-200.000	-0.080	-0.399
-622.405	-36.176	0.419	-0.230
-621.390	-200.000	-0.020	0.301
-620.376	-93.197	-0.386	0.109
-619.361	-119.881	0.215	0.038
-618.346	-117.394	0.219	-0.040
-617.332	291.552	-0.059	0.109
-616.317	-105.453	0.149	0.034
-615.303	-97.496	0.153	-0.041
-614.288	123.949	-0.158	0.202
-613.273	-52.586	-0.251	-0.118
-612.259	89.786	-0.090	-0.103
-611.244	-134.730	-0.161	0.020
-610.230	136.942	0.146	-0.193
-609.215	-200.000	0.020	-0.149
-608.201	325.523	-0.085	-0.166
-607.186	213.988	0.110	0.178
-606.171	800.000	0.103	-0.297
-605.157	319.742	0.046	0.089
-604.142	349.526	-0.107	-0.215
-603.128	-63.418	0.344	-0.143
-602.113	-16.971	-0.101	-0.065
-601.098	-93.201	0.211	-0.060
-600.084	-125.662	-0.454	0.070
-599.069	-58.654	0.125	0.055
-598.055	-60.199	0.084	0.037
-597.040	-116.228	0.094	0.018
-596.025	114.175	-0.224	-0.276
-595.011	103.034	-0.184	0.219
-593.996	212.561	-0.110	0.176
-592.982	706.313	-0.134	-0.359
-591.967	563.277	-0.018	-0.044
-590.952	11.787	0.264	0.206
-589.938	58.912	-0.238	-0.237
-588.923	-200.000	-0.034	-0.182
-587.909	-136.268	0.136	-0.016
-586.894	-59.203	-0.166	-0.072
-585.879	-167.466	-0.089	0.004
-584.865	12.058	0.231	0.181
-583.850	669.859	-0.161	-0.422
-582.836	-11.756	0.267	-0.178
-581.821	386.934	0.084	0.176
-580.806	72.248	-0.257	-0.272
-579.792	-84.095	-0.148	0.048
-578.777	-124.096	0.050	0.008
-577.763	70.023	-0.065	0.068
-576.748	260.257	0.089	0.157
-575.733	-57.637	-0.124	0.055
-574.719	-99.308	-0.166	0.042
-573.704	83.351	-0.034	-0.037
-572.690	-200.000	-0.032	-0.278
-571.675	-111.428	-0.140	0.029
-570.661	139.159	-0.099	-0.133
-569.646	-200.000	0.033	-0.246
-568.631	-128.524	-0.301	0.043
-567.617	-137.326	-0.266	-0.031
-566.602	-146.428	0.149	-0.013
-565.588	800.000	-0.075	0.231
-564.573	-141.307	-0.105	-0.011
-563.558	-52.718	0.271	0.127
-562.544	-79.598	-0.136	-0.046
-561.529	93.646	-0.194	-0.222
-560.515	-27.935	-0.372	-0.218
-559.500	-2.436	0.132	-0.094
-558.485	-200.000	-0.010	0.139
-557.471	139.649	-0.161	-0.216
-556.456	-94.051	0.140	-0.039
-555.442	-37.526	0.441	-0.238
-554.427	723.321	0.163	-0.441
-553.412	-85.809	0.284	0.089
-552.398	267.588	-0.029	0.051
-551.383	169.546	0.166	0.241
-550.369	598.672	-0.086	-0.216
-549.354	255.309	-0.124	-0.216
-548.339	109.585	0.172	0.209
-547.325	-69.382	0.290	0.113
-546.310	-144.229	-0.089	0.008
-545.296	-200.000	-0.016	-0.118
-544.281	366.016	0.113	0.230
-543.266	190.697	0.058	-0.089
-542.252	-200.000	0.016	0.159
-541.237	305.676	-0.164	0.310
-540.223	141.982	-0.298	-0.400
-539.208	-200.000	-0.062	-0.384
-538.193	800.000	-0.092	-0.304
-537.179	-14.092	0.307	0.200
-536.164	-11.933	-0.296	0.196
-535.150	-73.114	-0.171	0.063
-534.135	195.260	0.078	0.120
-533.121	279.887	-0.172	-0.311
-532.106	-200.000	-0.223	-0.000
-531.091	224.888	-0.021	0.035
-530.077	-200.000	0.005	-0.126
-529.062	-200.000	-0.005	0.124
-528.048	-200.000	0.031	-0.309
-527.033	265.948	0.098	-0.174
-526.018	129.344	-0.055	0.072
-525.004	-79.359	0.207	-0.071
-523.989	12.598	0.310	-0.242
-522.975	-19.543	-0.041	-0.025
-521.960	147.362	-0.110	-0.150
-520.945	66.388	0.187	0.192
-519.931	240.062	-0.046	0.077
-518.916	800.000	-0.082	-0.237
-517.902	-115.370	-0.305	-0.058
-516.887	-71.370	0.481	0.182
-515.872	-149.591	0.360	-0.029
-514.858	-81.447	-0.364	-0.121
-513.843	-200.000	0.025	-0.227
-512.829	-19.698	0.209	-0.131
-511.814	105.456	-0.282	-0.337
-510.799	-85.810	-0.183	-0.057
-509.785	215.879	-0.118	-0.190
-508.770	-49.734	0.139	0.067
-507.756	6.148	-0.233	0.175
-506.741	-85.297	-0.088	-0.028
-505.726	168.101	-0.189	-0.273
-504.712	-40.173	-0.120	-0.063
-503.697	-130.381	0.194	-0.027
-502.683	-170.421	-0.166	-0.006
-501.668	-50.986	0.258	0.122
-500.653	3.346	0.142	0.104
-499.639	530.014	0.113	0.269
-498.624	800.000	-0.025	0.085
-497.610	409.499	-0.069	-0.149
-496.595	-200.000	0.066	-0.436
-495.581	800.000	-0.035	-0.110
-494.566	-200.000	-0.046	0.225
-493.551	-200.000	0.012	0.409
-492.537	-95.285	0.265	0.072
-491.522	21.997	0.036	0.030
-490.508	-200.000	-0.003	0.174
-489.493	34.984	0.177	0.157
-488.478	-61.778	-0.236	0.100
-487.464	-129.473	0.195	0.027
-486.449	445.130	0.067	0.149
-485.435	175.893	0.193	0.282
-484.420	-200.000	0.001	-0.134
-483.405	62.948	-0.230	0.232
-482.391	25.588	0.155	0.130
-481.376	-65.409	0.227	-0.092
-480.362	-200.000	-0.008	0.364
-479.347	129.526	-0.170	0.220
-478.332	625.388	0.121	-0.309
-477.318	-95.145	-0.081	-0.022
-476.303	800.000	0.029	0.126
-475.289	-52.850	-0.290	0.135
-474.274	54.237	0.016	0.015
-473.259	-142.980	-0.153	-0.015
-472.245	1.652	0.407	0.296
-471.230	154.560	0.083	-0.115
-470.216	800.000	-0.085	0.303
-469.201	-123.811	0.346	0.055
-468.186	800.000	-0.092	-0.330
-467.172	-47.321	0.101	-0.050
-466.157	280.972	0.043	0.077
-465.143	-173.942	-0.148	0.004
-464.128	-87.922	0.133	-0.040
-463.113	47.990	0.349	0.329
-462.099	-200.000	-0.000	-0.361
-461.084	147.831	-0.170	0.231
-460.070	800.000	-0.055	0.158
-459.055	-51.116	0.127	-0.060
-458.040	-133.113	0.306	-0.039
-457.026	476.293	-0.100	-0.229
-456.011	369.184	0.085	-0.174
-454.997	198.522	-0.180	-0.278
-453.982	-200.000	-0.025	0.242
-452.968	-200.000	0.025	0.121
-451.953	28.499	0.155	0.133
-450.938	278.907	-0.143	-0.258
-449.924	-200.000	-0.013	0.098
-448.909	-178.908	-0.258	0.006
-447.895	125.764	-0.066	0.084
-446.880	-200.000	0.024	-0.141
-445.865	-200.000	-0.006	-0.199
-444.851	-95.393	0.291	0.079
-443.836	10.797	-0.105	0.081
-442.822	50.474	-0.165	0.157
-441.807	-51.176	0.193	0.091
-440.792	-200.000	-0.048	-0.308
-439.778	232.916	0.178	-0.296
-438.763	800.000	0.049	0.210
-437.749	241.648	0.042	0.070
-436.734	57.653	-0.094	0.093
-435.719	117.533	0.134	0.166
-434.705	99.529	-0.117	-0.136
-433.690	172.339	-0.051	0.073
-432.676	4.475	-0.170	0.126
-431.661	-76.092	-0.203	0.072
-430.646	353.615	0.137	0.274
-429.632	-109.192	-0.110	-0.024
-428.617	69.451	-0.192	-0.200
-427.603	226.390	0.055	0.090
-426.588	-151.576	-0.086	-0.006
-425.573	-200.000	-0.035	-0.214
-424.559	3.409	-0.152	0.112
-423.544	-179.959	-0.099	0.002
-422.530	-149.918	0.044	-0.003
-421.515	-200.000	0.040	-0.338
-420.500	-98.626	0.241	0.062
-419.486	22.482	0.198	0.163
-418.471	106.653	0.183	0.219
-417.457	-111.117	0.160	0.033
-416.442	-124.885	0.117	0.018
-415.428	-44.024	-0.036	0.018
-414.413	-200.000	-0.020	0.138
-413.398	207.764	0.034	0.053
-412.384	494.954	-0.025	0.057
-411.369	800.000	0.044	-0.156
-410.355	573.417	0.133	-0.327
-409.340	87.689	-0.223	-0.249
-408.325	800.000	-0.099	-0.279
-407.311	349.897	-0.120	0.239
-406.296	800.000	-0.049	-0.185
-405.282	-91.528	0.207	0.059
-404.267	-26.306	0.003	-0.002
-403.252	782.088	-0.164	-0.453
-402.238	-77.544	-0.220	-0.077
-401.223	-5.833	0.129	0.089
-400.209	283.418	-0.070	-0.127
-399.194	800.000	0.102	0.407
-398.179	-28.588	0.256	0.148
-397.165	-12.869	0.220	0.144
-396.150	-25.793	0.201	0.119
-395.136	62.352	-0.198	0.199
-394.121	123.934	-0.203	-0.256
-393.106	800.000	-0.101	-0.368
-392.092	800.000	0.040	-0.146
-391.077	-29.911	0.154	0.088
-390.063	800.000	-0.046	0.162
-389.048	800.000	-0.022	0.093
-388.033	-199.690	0.237	-0.001
-387.019	800.000	-0.101	-0.401
-386.004	373.868	-0.205	0.420
-384.990	-44.433	0.250	0.126
-383.975	-200.000	-0.013	0.124
-382.960	800.000	0.066	0.275
-381.946	800.000	-0.069	0.300
-380.931	-200.000	-0.011	0.159
-379.917	299.447	-0.031	0.058
-378.902	-23.472	0.131	0.079
-377.888	-6.374	-0.450	0.309
-376.873	-158.196	-0.082	-0.005
-375.858	45.733	0.047	0.043
-374.844	-36.067	0.219	-0.119
-373.829	-7.093	0.139	0.095
-372.815	-173.409	-0.353	-0.011
-371.800	-19.671	0.064	0.040
-370.785	55.004	-0.257	0.249
-369.771	-168.491	-0.325	-0.012
-368.756	9.416	-0.140	0.106
-367.742	-112.922	0.257	-0.051
-366.727	-200.000	-0.018	-0.337
-365.712	-176.587	-0.125	0.003
-364.698	76.514	0.176	0.188
-363.683	36.033	0.307	0.272
-362.669	-85.790	-0.163	0.051
-361.654	4.198	0.205	0.151
-360.639	250.787	0.158	-0.271
-359.625	-200.000	0.010	-0.047
-358.610	-123.629	0.027	0.004
-357.596	-12.709	0.148	-0.097
-356.581	71.820	-0.152	-0.159
-355.566	46.191	0.250	0.233
-354.552	-25.597	0.281	-0.167
-353.537	-137.578	-0.441	0.050
-352.523	103.940	-0.187	-0.221
-351.508	13.593	-0.129	-0.100
-350.493	0.947	-0.147	0.106
-349.479	-69.813	-0.073	0.028
-348.464	234.510	-0.076	-0.126
-347.450	-75.305	-0.223	-0.080
-346.435	800.000	0.039	0.165
-345.420	363.194	-0.060	0.122
-344.406	-177.306	-0.212	-0.005
-343.391	-200.000	-0.012	0.115
-342.377	200.631	0.137	0.211
-341.362	6.274	-0.164	-0.122
-340.348	31.960	-0.188	-0.163
-339.333	-137.753	-0.134	-0.015
-338.318	-45.276	-0.068	0.034
-337.304	222.151	0.197	-0.318
-336.289	-56.059	0.016	0.007
-335.275	-81.922	0.313	-0.103
-334.260	800.000	0.070	-0.254
-333.245	800.000	-0.075	-0.313
-332.231	425.342	-0.111	0.241
-331.216	-200.000	-0.008	-0.273
-330.202	521.134	-0.147	0.347
-329.187	-100.588	0.410	0.102
-328.172	107.574	-0.135	0.161
-327.158	125.047	-0.072	0.091
-326.143	-18.068	0.240	-0.151
-325.129	-112.594	-0.130	-0.026
-324.114	-200.000	0.007	-0.085
-323.099	32.365	0.100	-0.087
-322.085	-29.552	-0.182	0.104
-321.070	101.517	0.240	-0.281
-320.056	32.826	-0.054	-0.047
-319.041	92.420	0.127	0.143
-318.026	1.773	0.107	-0.078
-317.012	-25.518	-0.167	-0.099
-315.997	-104.967	0.074	0.017
-314.983	-186.963	0.094	0.001
-313.968	-200.000	-0.053	-0.286
-312.953	-200.000	-0.011	-0.201
-311.939	182.188	0.157	0.232
-310.924	-60.154	0.079	-0.034
-309.910	-200.000	0.006	-0.059
-308.895	136.907	-0.109	-0.143
-307.880	494.370	-0.113	-0.261
-306.866	-33.952	-0.325	0.179
-305.851	52.466	-0.243	0.233
-304.837	-32.006	-0.037	-0.021
-303.822	-68.290	0.184	0.072
-302.807	-92.216	0.276	-0.078
-301.793	-21.148	-0.054	0.033
-300.778	196.950	0.121	0.185
-299.764	3.464	-0.033	-0.024
-298.749	-36.499	-0.071	0.038
-297.735	-175.041	-0.168	-0.005
-296.720	73.551	-0.221	-0.232
-295.705	762.202	0.039	0.107
-294.691	800.000	0.101	0.436
-293.676	-97.171	-0.330	0.087
-292.662	800.000	0.044	-0.143
-291.647	51.589	0.278	-0.266
-290.632	-9.305	-0.095	-0.063
-289.618	-200.000	-0.030	-0.309
-288.603	7.462	-0.227	-0.170
-287.589	311.181	-0.125	0.235
-286.574	800.000	-0.008	0.027
-285.559	-200.000	0.019	-0.106
-284.545	-35.919	-0.099	0.054
-283.530	-75.337	0.265	-0.095
-282.516	91.178	-0.169	0.191
-281.501	-112.259	0.152	0.030
-280.486	-106.445	0.320	-0.072
-279.472	-100.297	0.176	-0.044
-278.457	32.840	0.164	-0.142
-277.443	-195.598	0.171	0.001
-276.428	-200.000	-0.006	-0.048
-275.413	487.912	-0.065	0.149
-274.399	58.160	0.151	0.149
-273.384	-94.412	0.249	-0.068
-272.370	-200.000	0.031	-0.193
-271.355	-100.621	0.150	-0.037
-270.340	-200.000	0.022	0.224
-269.326	-200.000	-0.035	0.306
-268.311	800.000	-0.013	0.037
-267.297	-3.414	0.155	0.108
-266.282	439.460	-0.112	0.246
-265.267	106.068	-0.074	0.087
-264.253	-139.117	0.253	0.027
-263.238	113.942	0.059	0.072
-262.224	-124.650	0.049	-0.008
-261.209	-130.942	-0.143	0.019
-260.195	-95.309	0.233	-0.063
-259.180	800.000	-0.111	0.343
-258.165	27.744	0.174	0.147
-257.151	89.155	-0.184	0.205
-256.136	800.000	-0.052	0.213
-255.122	-14.337	0.248	-0.160
-254.107	-105.532	-0.263	-0.060
-253.092	59.953	0.084	0.084
-252.078	-77.879	0.123	-0.043
-251.063	-125.801	-0.269	0.041
-250.049	-178.410	0.221	0.005
-249.034	-200.000	-0.048	0.243
-248.019	32.084	-0.192	0.166
-247.005	-150.063	0.142	0.011
-245.990	98.062	0.056	-0.064
-244.976	-103.105	-0.213	0.050
-243.961	-200.000	-0.012	0.161
-242.946	166.719	-0.138	0.195
-241.932	21.280	-0.095	-0.077
-240.917	-140.736	0.081	0.008
-239.903	-120.333	-0.235	0.040
-238.888	-174.547	0.221	-0.006
-237.873	-187.427	0.174	0.002
-236.859	350.376	0.108	-0.214
-235.844	8.475	-0.036	0.027
-234.830	-200.000	-0.005	0.266
-233.815	-200.000	-0.022	0.225
-232.800	-200.000	-0.031	0.142
-231.786	-156.506	0.245	0.015
-230.771	-200.000	-0.029	0.513
-229.757	599.046	-0.053	-0.132
-228.742	-200.000	-0.035	0.272
-227.727	-84.434	-0.180	0.057
-226.713	111.781	0.156	-0.189
-225.698	546.178	0.155	-0.371
-224.684	-49.014	0.171	-0.082
-223.669	-82.308	0.303	0.099
-222.655	-200.000	-0.000	0.126
-221.640	639.209	0.113	0.286
-220.625	253.916	0.044	-0.074
-219.611	-2.011	0.161	0.113
-218.596	800.000	-0.082	0.303
-217.582	-200.000	0.079	0.384
-216.567	74.936	-0.121	-0.128
-215.552	-144.652	0.377	-0.035
-214.538	195.829	0.060	-0.091
-213.523	-57.228	0.108	0.048
-212.509	-78.092	-0.100	-0.034
-211.494	-74.138	0.161	-0.058
-210.479	-59.111	-0.354	0.153
-209.465	-15.947	-0.381	0.243
-208.450	297.059	-0.049	0.089
-207.436	366.844	0.152	0.307
-206.421	193.222	-0.112	-0.170
-205.406	-122.333	-0.183	0.030
-204.392	-200.000	-0.073	-0.402
-203.377	-133.086	-0.216	-0.027
-202.363	-154.696	-0.059	0.004
-201.348	399.144	0.120	-0.251
-200.333	-69.860	0.419	-0.160
-199.319	-171.433	0.126	-0.004
-198.304	-200.000	0.032	-0.186
-197.290	139.043	0.137	-0.180
-196.275	89.168	0.135	-0.150
-195.260	-28.443	-0.416	0.240
-194.246	24.650	-0.267	0.221
-193.231	-78.297	-0.299	0.102
-192.217	-68.185	-0.058	-0.022
-191.202	-74.225	0.135	0.049
-190.187	49.983	-0.159	0.150
-189.173	-8.671	0.165	-0.110
-188.158	-114.772	0.069	0.013
-187.144	-135.972	0.197	-0.023
-186.129	248.876	0.167	0.283
-185.114	-200.000	-0.021	0.218
-184.100	800.000	0.039	0.161
-183.085	135.804	0.155	0.201
-182.071	156.564	0.162	-0.224
-181.056	-76.183	-0.256	0.090
-180.042	-15.102	-0.203	0.130
-179.027	-84.273	0.315	-0.100
-178.012	-108.279	0.315	0.068
-176.998	-85.403	-0.299	-0.093
-175.983	-200.000	-0.018	-0.187
-174.969	-200.000	-0.062	0.323
-173.954	-200.000	0.006	0.035
-172.939	-81.695	-0.306	0.100
-171.925	337.041	-0.124	0.241
-170.910	-85.256	0.047	0.015
-169.896	-200.000	0.043	0.321
-168.881	238.532	0.134	0.222
-167.866	-200.000	0.069	-0.343
-166.852	-58.337	-0.054	0.023
-165.837	-109.378	-0.249	0.053
-164.823	243.254	-0.102	-0.171
-163.808	144.570	-0.136	0.181
-162.793	74.491	0.202	-0.212
-161.779	-90.383	0.333	-0.096
-160.764	130.414	0.195	-0.250
-159.750	-30.099	-0.214	0.121
-158.735	-176.884	-0.345	0.009
-157.720	167.607	-0.125	-0.177
-156.706	-6.092	-0.125	-0.085
-155.691	75.315	0.076	0.080
-154.677	232.656	0.047	-0.076
-153.662	495.831	0.114	0.262
-152.647	674.501	-0.106	0.275
-151.633	-71.540	0.050	-0.019
-150.618	49.956	0.143	-0.134
-149.604	-77.602	0.374	0.129
-148.589	-126.506	0.316	-0.047
-147.574	310.554	0.177	0.331
-146.560	541.069	0.058	0.138
-145.545	-200.000	0.007	0.164
-144.531	-51.420	-0.096	0.045
-143.516	-89.121	-0.291	0.086
-142.502	459.425	0.056	0.123
-141.487	153.498	0.052	0.070
-140.472	-149.981	-0.091	0.007
-139.458	-134.576	-0.259	-0.032
-138.443	-200.000	0.013	-0.084
-137.429	-92.024	0.206	-0.058
-136.414	-200.000	-0.011	-0.196
-135.399	64.879	-0.087	-0.087
-134.385	-156.378	0.271	0.017
-133.370	-200.000	-0.016	-0.367
-132.356	-200.000	0.011	0.257
-131.341	26.467	0.136	0.113
-130.326	399.280	-0.125	-0.261
-129.312	800.000	0.027	0.094
-128.297	63.333	0.179	-0.179
-127.283	-200.000	-0.082	-0.445
-126.268	68.741	-0.147	-0.150
-125.253	594.821	-0.087	-0.215
-124.239	-96.127	0.129	0.034
-123.224	-200.000	0.002	-0.014
-122.210	-5.975	0.120	-0.081
-121.195	-200.000	0.019	-0.108
