DTS Sentinel unit serial number:	SN413079Multiplexer serial number:	ORYXHardware model number:	OX4-SRSoftware version number:	ORYX F/W v4.00 Oryx Data Collector v3.7.2.0data status	okinstallation	princeton_trtdifferential loss correction	single-endedforward channel	channel 3reverse channel	N/Adate	2019/09/14time	02:12:35forward acquisition time	60.00reverse acquisition time	0.00gamma	496.2192k internal	0.2339k external	0.2339temperature offset calibration	1.0052default loss term (dB/km)	0.3790temperature slope calibration	1.0000multiplexer offset coefficient	1.0000multiplexer slope coefficient	1.0000fibre end	0.00T internal ref (°C)	26.50T ext. ref 1 (°C)	3.21T ext. ref 2 (°C)	21.47length (m)	temperature (°C)	Stokes	anti-Stokes-747.200	344.859	0.141	-0.277
-746.185	147.230	-0.080	0.108
-745.171	-10.129	0.169	0.113
-744.156	513.349	-0.043	0.100
-743.142	39.880	0.097	0.088
-742.127	711.694	-0.047	0.124
-741.112	16.954	0.144	-0.114
-740.098	-84.284	-0.344	0.109
-739.083	-92.466	0.149	-0.042
-738.069	-132.171	-0.239	0.031
-737.054	-33.764	0.113	0.063
-736.039	-88.361	-0.139	-0.042
-735.025	297.099	0.071	0.131
-734.010	135.806	-0.305	-0.398
-732.996	232.103	0.112	-0.184
-731.981	595.120	-0.079	-0.196
-730.966	-3.883	0.229	-0.159
-729.952	-33.810	-0.311	-0.172
-728.937	800.000	0.053	-0.224
-727.923	417.346	-0.139	-0.298
-726.908	-135.636	-0.239	-0.028
-725.894	800.000	-0.069	-0.198
-724.879	800.000	-0.069	-0.291
-723.864	86.670	-0.260	-0.287
-722.850	177.687	0.045	0.066
-721.835	-200.000	0.028	-0.278
-720.821	18.504	0.043	0.034
-719.806	800.000	-0.097	-0.381
-718.791	32.704	0.220	0.190
-717.777	-66.056	0.234	0.093
-716.762	336.391	-0.140	-0.273
-715.748	-40.588	0.197	0.103
-714.733	-110.902	-0.178	0.037
-713.718	-25.581	0.211	0.125
-712.704	2.607	0.285	-0.207
-711.689	10.222	-0.144	-0.110
-710.675	13.553	0.086	0.067
-709.660	-200.000	0.049	-0.363
-708.645	-67.663	-0.125	0.049
-707.631	-56.478	0.023	-0.010
-706.616	35.307	-0.090	0.079
-705.602	164.060	-0.111	-0.157
-704.587	-84.107	-0.238	-0.075
-703.572	249.931	-0.196	0.333
-702.558	-142.405	-0.060	0.006
-701.543	278.796	-0.074	0.132
-700.529	43.464	-0.094	0.086
-699.514	-63.889	-0.186	-0.076
-698.499	-200.000	-0.035	0.218
-697.485	-200.000	0.053	0.246
-696.470	-200.000	-0.016	0.162
-695.456	-48.791	-0.138	0.066
-694.441	-40.975	-0.154	0.080
-693.426	351.327	0.154	0.306
-692.412	313.482	0.158	-0.297
-691.397	-76.090	-0.167	-0.059
-690.383	-141.579	-0.276	0.028
-689.368	-193.577	-0.182	-0.002
-688.354	-200.000	-0.011	0.072
-687.339	3.208	0.311	0.226
-686.324	-167.279	0.107	-0.004
-685.310	-200.000	-0.026	-0.157
-684.295	98.697	-0.108	-0.125
-683.281	349.761	-0.085	0.167
-682.266	84.496	0.045	-0.049
-681.251	-29.004	-0.216	-0.124
-680.237	-200.000	-0.008	-0.299
-679.222	-200.000	0.036	-0.200
-678.208	86.670	-0.152	-0.168
-677.193	553.976	0.040	-0.095
-676.178	-200.000	0.023	-0.195
-675.164	-54.384	-0.216	0.098
-674.149	-184.114	0.462	0.008
-673.135	800.000	0.081	-0.248
-672.120	206.608	-0.117	0.182
-671.105	800.000	0.116	0.333
-670.091	62.057	-0.040	0.039
-669.076	-52.315	0.180	0.084
-668.062	800.000	-0.108	-0.388
-667.047	476.624	-0.128	-0.289
-666.032	30.324	-0.273	-0.233
-665.018	-22.527	0.074	-0.045
-664.003	800.000	-0.139	-0.429
-662.989	190.107	0.152	-0.228
-661.974	800.000	-0.046	0.197
-660.959	800.000	-0.087	-0.323
-659.945	490.678	-0.166	-0.379
-658.930	335.251	0.134	-0.259
-657.916	-94.052	0.196	0.054
-656.901	59.067	-0.187	0.184
-655.886	274.303	-0.028	-0.050
-654.872	-149.751	0.211	0.017
-653.857	-90.733	-0.321	-0.093
-652.843	58.127	-0.162	-0.159
-651.828	-148.002	0.105	0.009
-650.814	-144.710	0.272	-0.025
-649.799	-134.826	0.029	0.004
-648.784	-16.967	0.108	0.068
-647.770	-107.258	0.235	0.052
-646.755	-44.712	0.319	0.159
-645.741	425.994	0.094	-0.202
-644.726	129.936	0.148	0.189
-643.711	-200.000	-0.068	0.623
-642.697	-42.217	-0.216	0.110
-641.682	263.326	-0.152	-0.264
-640.668	247.585	-0.092	0.156
-639.653	-30.640	0.204	0.116
-638.638	800.000	-0.039	0.164
-637.624	-29.304	-0.243	-0.139
-636.609	-200.000	-0.023	-0.130
-635.595	109.076	-0.157	-0.187
-634.580	121.808	-0.110	-0.137
-633.565	-140.645	0.133	0.014
-632.551	409.425	0.039	-0.083
-631.536	48.292	-0.092	-0.086
-630.522	-200.000	-0.001	-0.220
-629.507	-68.011	0.115	0.045
-628.492	-180.508	-0.069	-0.001
-627.478	74.709	-0.292	-0.307
-626.463	-129.465	0.247	0.034
-625.449	70.641	-0.128	0.132
-624.434	-9.174	-0.042	-0.028
-623.419	800.000	-0.022	0.065
-622.405	-69.822	-0.319	-0.121
-621.390	800.000	-0.061	-0.175
-620.376	-120.483	0.233	-0.040
-619.361	116.610	-0.275	-0.337
-618.346	800.000	0.107	0.324
-617.332	-200.000	0.002	0.181
-616.317	-48.422	-0.246	0.118
-615.303	-200.000	-0.002	-0.094
-614.288	-200.000	0.058	0.314
-613.273	55.332	0.116	-0.112
-612.259	693.752	-0.056	0.146
-611.244	800.000	0.052	-0.146
-610.230	303.301	-0.111	0.205
-609.215	800.000	-0.041	-0.136
-608.201	-200.000	-0.034	-0.246
-607.186	331.199	-0.034	0.065
-606.171	-200.000	0.026	-0.142
-605.157	-139.039	0.158	-0.017
-604.142	1.566	-0.450	-0.323
-603.128	-83.238	0.142	-0.045
-602.113	86.759	-0.028	-0.031
-601.098	-70.240	-0.153	0.058
-600.084	-69.001	-0.192	0.074
-599.069	-78.497	-0.049	0.017
-598.055	-200.000	-0.064	0.347
-597.040	119.355	0.076	0.094
-596.025	-94.056	0.233	0.064
-595.011	83.687	0.186	0.202
-593.996	444.400	0.085	-0.186
-592.982	800.000	-0.121	-0.392
-591.967	-200.000	-0.037	-0.177
-590.952	800.000	-0.030	0.099
-589.938	506.395	0.058	-0.134
-588.923	-99.387	-0.122	0.031
-587.909	-19.958	-0.175	0.107
-586.894	-123.550	-0.301	0.048
-585.879	800.000	0.103	0.347
-584.865	34.230	0.174	-0.151
-583.850	252.651	0.112	-0.190
-582.836	679.516	0.045	-0.116
-581.821	97.190	-0.082	-0.094
-580.806	175.347	0.189	-0.273
-579.792	266.861	0.057	-0.100
-578.777	559.051	0.053	0.127
-577.763	-25.626	0.136	-0.080
-576.748	150.673	-0.254	0.343
-575.733	-183.729	-0.179	0.003
-574.719	-19.888	-0.092	0.057
-573.704	-23.065	0.243	-0.146
-572.690	-84.577	-0.157	0.049
-571.675	-161.032	-0.115	-0.006
-570.661	-193.526	-0.119	0.001
-569.646	-200.000	0.007	0.231
-568.631	-89.448	-0.256	-0.075
-567.617	-200.000	-0.003	-0.088
-566.602	-129.632	-0.312	-0.043
-565.588	-32.353	0.373	-0.207
-564.573	161.762	-0.022	0.031
-563.558	152.230	-0.102	-0.139
-562.544	622.773	-0.072	0.181
-561.529	-200.000	0.040	-0.459
-560.515	-200.000	0.019	-0.140
-559.500	-44.936	0.063	-0.031
-558.485	-164.564	0.030	-0.001
-557.471	-105.751	-0.249	0.056
-556.456	355.105	0.079	0.157
-555.442	-53.254	0.314	-0.143
-554.427	-12.043	-0.236	0.154
-553.412	17.612	-0.105	-0.083
-552.398	291.133	-0.057	0.102
-551.383	220.185	-0.184	-0.293
-550.369	-106.297	0.094	0.021
-549.354	57.136	0.233	0.226
-548.339	-200.000	-0.040	-0.316
-547.325	52.157	0.098	0.093
-546.310	-200.000	0.019	-0.251
-545.296	381.995	0.122	0.249
-544.281	225.542	-0.224	0.362
-543.266	-84.675	-0.161	0.050
-542.252	135.410	0.178	0.231
-541.237	35.117	0.266	0.232
-540.223	137.352	-0.112	-0.146
-539.208	0.366	-0.186	-0.132
-538.193	91.666	0.224	-0.250
-537.179	-74.569	-0.193	-0.069
-536.164	-200.000	-0.032	-0.172
-535.150	-184.506	0.244	-0.004
-534.135	140.141	0.093	0.122
-533.121	109.678	0.324	0.386
-532.106	46.155	-0.143	0.131
-531.091	-119.013	0.314	0.055
-530.077	8.896	-0.120	0.090
-529.062	-53.334	-0.120	0.055
-528.048	-200.000	-0.021	0.138
-527.033	-51.345	0.088	-0.041
-526.018	-200.000	-0.011	0.144
-525.004	213.526	0.115	-0.181
-523.989	-179.682	-0.364	0.008
-522.975	-102.625	0.230	0.055
-521.960	157.521	0.137	-0.189
-520.945	-124.070	0.095	-0.015
-519.931	-87.763	0.288	-0.086
-518.916	-24.427	0.229	-0.136
-517.902	-88.160	-0.191	0.057
-516.887	800.000	-0.073	0.214
-515.872	-200.000	-0.037	0.304
-514.858	14.774	-0.182	0.142
-513.843	-77.880	0.066	-0.023
-512.829	163.925	-0.203	-0.284
-511.814	-44.231	-0.200	-0.100
-510.799	-17.586	0.191	-0.119
-509.785	3.536	0.054	-0.039
-508.770	-200.000	0.001	0.441
-507.756	155.392	-0.079	0.108
-506.741	290.375	0.018	-0.032
-505.726	13.925	-0.125	-0.097
-504.712	-200.000	-0.008	0.254
-503.697	115.739	-0.216	-0.263
-502.683	194.382	0.154	-0.232
-501.668	157.109	0.169	0.231
-500.653	81.673	-0.162	0.174
-499.639	-84.114	-0.153	0.048
-498.624	8.815	-0.214	0.160
-497.610	-200.000	0.005	0.132
-496.595	104.864	-0.114	-0.133
-495.581	-33.694	-0.161	0.088
-494.566	-30.145	0.125	0.071
-493.551	12.830	0.005	-0.004
-492.537	-200.000	0.033	0.640
-491.522	185.385	0.226	0.333
-490.508	800.000	-0.070	-0.238
-489.493	-65.949	-0.107	0.042
-488.478	411.168	0.091	0.191
-487.464	-200.000	0.020	-0.117
-486.449	-99.520	-0.378	0.094
-485.435	-158.390	0.201	-0.012
-484.420	-200.000	-0.019	0.370
-483.405	-128.033	0.213	0.030
-482.391	165.643	-0.201	-0.283
-481.376	-148.799	-0.185	-0.015
-480.362	-60.777	-0.247	-0.104
-479.347	-200.000	-0.001	0.162
-478.332	134.121	-0.181	-0.232
-477.318	800.000	-0.041	-0.132
-476.303	-160.690	0.254	0.013
-475.289	-6.328	-0.114	-0.077
-474.274	515.245	0.101	-0.234
-473.259	-141.488	-0.232	-0.023
-472.245	149.325	-0.074	-0.099
-471.230	388.480	-0.275	0.565
-470.216	800.000	0.107	-0.308
-469.201	44.036	-0.084	-0.077
-468.186	-92.105	0.387	-0.108
-467.172	-200.000	-0.037	-0.266
-466.157	189.085	-0.106	0.157
-465.143	-200.000	0.226	-0.001
-464.128	233.932	-0.105	-0.172
-463.113	295.543	-0.052	0.094
-462.099	-144.932	0.225	-0.020
-461.084	-200.000	0.050	-0.255
-460.070	157.007	-0.111	-0.152
-459.055	-142.242	0.113	-0.011
-458.040	-200.000	0.000	-0.266
-457.026	-52.164	0.134	-0.062
-456.011	253.534	-0.143	0.243
-454.997	740.892	0.072	0.192
-453.982	85.627	0.068	0.074
-452.968	136.837	0.024	0.031
-451.953	-172.027	0.224	0.007
-450.938	-25.419	-0.341	-0.200
-449.924	-200.000	0.084	0.388
-448.909	184.672	-0.041	-0.060
-447.895	3.794	0.157	0.114
-446.880	-117.837	0.377	0.067
-445.865	464.796	-0.086	0.190
-444.851	794.260	0.130	-0.354
-443.836	800.000	0.038	0.140
-442.822	-200.000	-0.026	-0.122
-441.807	293.413	0.068	-0.123
-440.792	-75.083	0.220	0.078
-439.778	-57.844	0.259	0.112
-438.763	3.536	-0.029	-0.021
-437.749	-4.004	-0.186	0.128
-436.734	-200.000	-0.021	-0.166
-435.719	-50.660	0.181	-0.085
-434.705	37.723	0.134	-0.117
-433.690	17.453	0.112	0.088
-432.676	-197.782	0.274	-0.002
-431.661	-200.000	-0.031	0.202
-430.646	259.468	-0.031	-0.053
-429.632	728.755	0.095	-0.252
-428.617	189.832	-0.044	0.065
-427.603	-162.398	0.137	0.007
-426.588	800.000	0.073	0.303
-425.573	800.000	-0.038	0.129
-424.559	-21.261	0.175	0.106
-423.544	-5.366	-0.228	0.155
-422.530	230.370	-0.119	0.194
-421.515	557.394	0.022	0.052
-420.500	724.001	0.171	0.452
-419.486	209.001	-0.032	0.049
-418.471	-135.959	-0.095	0.011
-417.457	269.251	-0.210	-0.365
-416.442	-200.000	0.018	0.114
-415.428	-200.000	0.008	0.124
-414.413	-123.982	0.197	-0.031
-413.398	-200.000	-0.001	0.204
-412.384	-41.889	-0.135	-0.069
-411.369	-200.000	0.017	-0.110
-410.355	800.000	0.115	-0.472
-409.340	-121.578	0.048	0.008
-408.325	-13.684	-0.092	0.059
-407.311	800.000	-0.063	-0.225
-406.296	140.651	-0.301	-0.394
-405.282	-18.529	-0.239	0.147
-404.267	-200.000	0.007	-0.032
-403.252	-200.000	0.022	-0.225
-402.238	204.502	-0.074	-0.113
-401.223	-73.771	-0.039	0.014
-400.209	544.572	0.101	-0.240
-399.194	800.000	0.035	-0.119
-398.179	16.245	-0.046	0.036
-397.165	3.666	-0.279	0.201
-396.150	261.291	0.110	0.189
-395.136	573.643	0.087	-0.209
-394.121	-116.418	0.256	0.047
-393.106	-5.979	-0.209	-0.141
-392.092	800.000	0.024	-0.081
-391.077	26.949	-0.154	0.128
-390.063	-96.835	-0.432	-0.112
-389.048	-107.323	-0.195	-0.042
-388.033	-116.116	0.202	-0.037
-387.019	49.298	0.125	0.116
-386.004	-200.000	-0.006	-0.053
-384.990	-64.411	-0.137	-0.055
-383.975	742.656	0.105	0.278
-382.960	-107.121	0.230	0.050
-381.946	-42.273	-0.393	-0.198
-380.931	-54.965	0.121	-0.054
-379.917	366.046	-0.118	0.235
-378.902	-200.000	-0.062	0.358
-377.888	160.717	0.196	0.270
-376.873	-200.000	-0.043	0.228
-375.858	-52.585	-0.134	-0.061
-374.844	125.435	-0.158	-0.197
-373.829	-165.967	0.271	-0.011
-372.815	-69.454	-0.240	0.091
-371.800	-200.000	0.032	0.632
-370.785	-92.272	0.153	0.043
-369.771	153.820	0.154	-0.209
-368.756	800.000	-0.029	0.119
-367.742	-2.626	-0.176	-0.122
-366.727	-200.000	-0.017	-0.079
-365.712	-3.315	0.160	0.110
-364.698	800.000	-0.063	-0.233
-363.683	-40.346	-0.116	-0.060
-362.669	425.810	0.167	-0.355
-361.654	-58.079	-0.177	0.076
-360.639	-200.000	0.010	-0.079
-359.625	800.000	-0.064	0.203
-358.610	103.211	0.027	-0.032
-357.596	303.542	0.175	-0.320
-356.581	-10.210	-0.137	0.090
-355.566	566.501	0.038	-0.090
-354.552	493.473	-0.150	-0.339
-353.537	800.000	0.136	0.436
-352.523	-200.000	0.050	-0.289
-351.508	100.128	0.241	-0.276
-350.493	644.248	0.085	0.215
-349.479	158.067	0.051	-0.070
-348.464	-71.167	0.067	0.025
-347.450	800.000	0.050	0.156
-346.435	11.937	-0.157	-0.119
-345.420	71.955	0.189	0.194
-344.406	800.000	0.082	0.244
-343.391	-200.000	-0.060	-0.328
-342.377	123.219	-0.075	0.093
-341.362	-145.065	0.348	0.031
-340.348	22.899	0.206	0.167
-339.333	358.288	-0.083	-0.164
-338.318	-132.613	-0.295	-0.037
-337.304	148.903	-0.100	-0.133
-336.289	-200.000	-0.059	-0.386
-335.275	-22.178	0.269	0.161
-334.260	-15.183	0.147	0.093
-333.245	525.511	0.071	-0.166
-332.231	185.341	-0.143	-0.209
-331.216	170.963	-0.061	-0.086
-330.202	-65.630	0.254	0.100
-329.187	-63.204	0.162	0.066
-328.172	-73.689	-0.088	-0.032
-327.158	-164.361	0.200	0.009
-326.143	-21.146	-0.125	-0.076
-325.129	124.206	-0.225	-0.279
-324.114	-197.795	0.163	-0.001
-323.099	112.084	0.147	-0.176
-322.085	19.064	0.278	0.220
-321.070	420.177	-0.106	-0.224
-320.056	-66.223	-0.077	0.030
-319.041	-200.000	-0.060	0.296
-318.026	-200.000	0.040	-0.304
-317.012	-106.384	-0.165	-0.036
-315.997	410.899	-0.044	0.093
-314.983	415.914	0.129	0.270
-313.968	486.943	0.100	0.225
-312.953	-200.000	-0.046	0.224
-311.939	-200.000	-0.030	0.169
-310.924	-200.000	-0.013	0.158
-309.910	-29.388	-0.145	0.082
-308.895	-145.104	0.224	-0.020
-307.880	-200.000	-0.006	-0.121
-306.866	61.291	0.025	0.024
-305.851	646.794	0.076	0.193
-304.837	-200.000	0.006	-0.119
-303.822	362.321	-0.159	0.315
-302.807	236.480	0.210	0.343
-301.793	-64.390	0.348	-0.139
-300.778	347.197	-0.018	-0.035
-299.764	-82.832	-0.176	0.056
-298.749	195.093	0.119	-0.179
-297.735	-103.724	0.074	-0.017
-296.720	-200.000	0.050	0.314
-295.705	800.000	-0.079	0.217
-294.691	-65.082	-0.237	-0.094
-293.676	773.850	-0.063	0.168
-292.662	-74.134	0.264	-0.094
-291.647	23.903	-0.112	0.091
-290.632	-175.101	0.299	-0.008
-289.618	-35.778	0.104	0.056
-288.603	697.215	-0.035	0.090
-287.589	671.489	0.074	0.188
-286.574	265.583	-0.060	0.103
-285.559	-154.790	-0.151	-0.010
-284.545	-28.234	-0.182	0.103
-283.530	-200.000	0.010	-0.219
-282.516	-84.634	-0.362	-0.112
-281.501	-14.928	0.101	0.064
-280.486	15.992	0.341	0.264
-279.472	800.000	-0.070	0.253
-278.457	44.254	0.050	0.045
-277.443	-200.000	0.035	0.181
-276.428	38.895	0.068	0.060
-275.413	-60.174	0.340	-0.143
-274.399	-156.201	-0.141	-0.009
-273.384	224.487	-0.021	-0.033
-272.370	800.000	0.037	-0.107
-271.355	800.000	-0.064	0.182
-270.340	-200.000	-0.012	0.131
-269.326	620.209	0.156	-0.386
-268.311	-200.000	0.021	-0.109
-267.297	-155.724	-0.138	0.009
-266.282	-40.122	0.225	-0.116
-265.267	154.034	0.203	-0.274
-264.253	-200.000	0.070	-0.437
-263.238	-134.607	-0.322	0.039
-262.224	323.240	-0.161	-0.302
-261.209	-106.448	-0.105	0.023
-260.195	-37.205	-0.193	-0.101
-259.180	-57.949	0.028	0.012
-258.165	91.377	0.111	-0.123
-257.151	82.030	0.040	0.043
-256.136	-133.124	0.099	0.012
-255.122	-132.752	0.217	0.027
-254.107	32.829	-0.173	-0.148
-253.092	-200.000	0.005	0.271
-252.078	442.243	0.131	0.282
-251.063	194.984	0.173	0.259
-250.049	-200.000	-0.241	-0.000
-249.034	-157.102	-0.152	-0.009
-248.019	-157.352	-0.333	-0.020
-247.005	140.939	-0.154	-0.200
-245.990	-107.332	0.230	-0.050
-244.976	-143.385	-0.255	-0.024
-243.961	10.435	0.356	0.266
-242.946	-200.000	-0.009	0.117
-241.932	-27.727	-0.077	0.044
-240.917	443.371	-0.117	-0.252
-239.903	-200.000	-0.026	-0.200
-238.888	537.283	-0.056	-0.132
-237.873	-182.360	0.357	0.007
-236.859	800.000	0.065	0.196
-235.844	262.518	-0.031	-0.054
-234.830	114.892	0.114	-0.137
-233.815	-65.710	0.275	0.108
-232.800	219.601	-0.150	-0.236
-231.786	393.158	-0.080	0.165
-230.771	106.950	0.099	-0.116
-229.757	332.349	-0.083	-0.158
-228.742	-200.000	-0.021	0.110
-227.727	359.876	-0.086	0.169
-226.713	-42.197	0.205	0.103
-225.698	-32.232	-0.334	-0.183
-224.684	714.887	-0.128	-0.334
-223.669	379.670	0.150	-0.302
-222.655	737.064	0.060	0.157
-221.640	-13.328	0.041	0.026
-220.625	-200.000	-0.006	-0.174
-219.611	-94.108	-0.192	0.052
-218.596	79.366	0.044	-0.047
-217.582	-44.469	0.197	0.097
-216.567	-200.000	0.001	-0.296
-215.552	-77.486	0.188	0.064
-214.538	157.654	0.186	0.252
-213.523	261.261	-0.059	0.100
-212.509	445.460	0.107	-0.231
-211.494	-2.452	-0.426	0.293
-210.479	238.103	0.089	0.145
-209.465	795.553	0.076	-0.206
-208.450	-200.000	-0.007	0.209
-207.436	-200.000	0.012	0.103
-206.421	-12.642	0.238	-0.153
-205.406	60.485	0.071	-0.069
-204.392	114.710	-0.295	0.353
-203.377	532.383	-0.041	0.095
-202.363	152.420	-0.198	-0.266
-201.348	800.000	-0.066	-0.224
-200.333	115.999	0.081	0.098
-199.319	-130.579	0.180	-0.024
-198.304	483.435	0.106	-0.237
-197.290	-101.612	-0.137	0.033
-196.275	800.000	-0.040	-0.114
-195.260	-96.207	-0.302	-0.079
-194.246	408.709	0.118	-0.245
-193.231	-12.670	-0.213	-0.136
-192.217	-138.064	-0.234	0.026
-191.202	-200.000	0.027	-0.161
-190.187	175.704	-0.096	0.137
-189.173	-99.536	0.223	-0.055
-188.158	73.041	-0.210	-0.216
-187.144	167.644	0.106	0.148
-186.129	524.133	0.103	0.238
-185.114	800.000	0.012	-0.050
-184.100	-62.193	0.257	-0.105
-183.085	-102.112	-0.184	-0.043
-182.071	-46.108	0.276	-0.133
-181.056	112.959	0.231	-0.275
-180.042	0.732	-0.057	-0.040
-179.027	-114.189	0.059	0.011
-178.012	-48.756	0.215	-0.101
-176.998	-117.365	-0.102	0.018
-175.983	56.529	0.039	0.037
-174.969	138.586	0.216	0.278
-173.954	-83.606	-0.400	-0.126
-172.939	-200.000	-0.001	-0.049
-171.925	-200.000	-0.070	0.371
-170.910	-149.444	-0.187	-0.015
-169.896	329.302	-0.117	-0.220
-168.881	144.868	-0.146	-0.192
-167.866	800.000	-0.013	-0.052
-166.852	316.321	0.085	0.158
-165.837	438.651	0.177	-0.379
-164.823	800.000	-0.090	-0.276
-163.808	-53.703	-0.397	-0.178
-162.793	580.462	-0.156	0.375
-161.779	800.000	-0.027	0.076
-160.764	800.000	-0.092	0.284
-159.750	-31.521	-0.170	0.093
-158.735	-12.148	0.150	-0.096
-157.720	-192.183	0.118	0.001
-156.706	800.000	-0.050	0.158
-155.691	-10.619	-0.151	-0.098
-154.677	-127.328	0.265	-0.038
-153.662	-28.993	-0.177	-0.100
-152.647	17.117	0.214	0.167
-151.633	-89.711	0.204	0.059
-150.618	599.434	-0.098	-0.239
-149.604	115.415	-0.157	-0.187
-148.589	313.552	-0.077	0.141
-147.574	-40.744	-0.075	-0.038
-146.560	698.062	-0.055	0.140
-145.545	-200.000	-0.027	0.136
-144.531	0.896	-0.040	0.028
-143.516	-102.392	-0.412	-0.097
-142.502	346.365	-0.106	0.204
-141.487	527.497	0.111	-0.256
-140.472	-53.302	0.277	-0.124
-139.458	-34.781	0.247	0.132
-138.443	-5.072	-0.100	-0.067
-137.429	-200.000	-0.033	0.271
-136.414	800.000	0.068	0.223
-135.399	-55.022	-0.226	0.100
-134.385	45.731	-0.192	-0.173
-133.370	-178.498	0.258	0.006
-132.356	80.315	-0.288	-0.303
-131.341	52.871	-0.212	-0.198
-130.326	800.000	-0.076	-0.228
-129.312	-51.666	0.093	0.042
-128.297	174.161	0.056	0.079
-127.283	343.496	-0.053	0.103
-126.268	-51.080	0.251	0.115
-125.253	-200.000	0.053	0.244
-124.239	-99.652	-0.287	0.070
-123.224	800.000	-0.099	0.382
-122.210	-71.670	0.205	-0.075
