DTS Sentinel unit serial number:	SN413079Multiplexer serial number:	ORYXHardware model number:	OX4-SRSoftware version number:	ORYX F/W v4.00 Oryx Data Collector v3.7.2.0data status	okinstallation	princeton_trtdifferential loss correction	single-endedforward channel	channel 3reverse channel	N/Adate	2019/09/12time	02:46:10forward acquisition time	60.00reverse acquisition time	0.00gamma	496.2192k internal	0.2321k external	0.2321temperature offset calibration	1.0065default loss term (dB/km)	0.3790temperature slope calibration	1.0000multiplexer offset coefficient	1.0000multiplexer slope coefficient	1.0000fibre end	0.00T internal ref (°C)	32.37T ext. ref 1 (°C)	2.09T ext. ref 2 (°C)	27.03length (m)	temperature (°C)	Stokes	anti-Stokes-747.200	-29.281	0.236	0.137
-746.185	318.337	0.119	-0.229
-745.171	31.859	0.055	0.048
-744.156	-48.082	-0.072	0.035
-743.142	800.000	-0.056	-0.188
-742.127	-200.000	0.020	-0.101
-741.112	507.780	0.115	-0.271
-740.098	-119.801	-0.202	0.035
-739.083	-158.288	0.140	0.008
-738.069	-137.806	0.190	-0.021
-737.054	-135.824	0.168	-0.020
-736.039	153.328	0.082	0.114
-735.025	-200.000	0.045	-0.264
-734.010	410.276	-0.013	0.028
-732.996	-200.000	-0.053	-0.383
-731.981	-200.000	-0.067	-0.421
-730.966	42.923	0.190	-0.175
-729.952	154.782	-0.092	0.128
-728.937	-200.000	0.013	-0.238
-727.923	800.000	-0.009	0.028
-726.908	-62.755	-0.052	-0.022
-725.894	800.000	0.053	0.214
-724.879	610.882	0.059	-0.149
-723.864	-69.599	0.129	-0.050
-722.850	-200.000	0.005	0.048
-721.835	201.829	-0.056	-0.088
-720.821	-61.920	0.008	-0.003
-719.806	-200.000	0.004	0.026
-718.791	800.000	0.084	-0.340
-717.777	177.728	-0.112	0.166
-716.762	13.363	0.302	-0.237
-715.748	-66.630	-0.034	-0.014
-714.733	-151.324	-0.105	-0.008
-713.718	-73.186	-0.162	-0.060
-712.704	-200.000	-0.057	-0.266
-711.689	-200.000	0.003	0.195
-710.675	359.872	-0.046	0.093
-709.660	285.257	-0.205	-0.373
-708.645	353.301	-0.164	0.329
-707.631	377.778	0.088	0.183
-706.616	62.817	-0.160	-0.161
-705.602	-102.059	0.221	0.054
-704.587	-87.054	0.361	0.111
-703.572	-149.858	-0.298	-0.024
-702.558	-111.969	-0.266	0.054
-701.543	800.000	-0.065	-0.187
-700.529	-72.384	0.480	0.179
-699.514	-68.653	-0.284	-0.111
-698.499	800.000	-0.066	-0.197
-697.485	-200.000	0.032	-0.260
-696.470	170.209	-0.125	-0.180
-695.456	-66.136	-0.159	0.064
-694.441	800.000	-0.033	-0.135
-693.426	118.565	0.178	-0.222
-692.412	65.826	0.064	0.066
-691.397	-121.430	-0.324	-0.054
-690.383	-89.234	0.126	-0.037
-689.368	-200.000	-0.058	0.327
-688.354	648.945	0.118	0.305
-687.339	358.569	0.152	-0.306
-686.324	105.861	-0.085	0.102
-685.310	-200.000	0.085	-0.444
-684.295	59.263	-0.286	-0.284
-683.281	623.653	-0.028	-0.071
-682.266	-13.905	-0.065	0.043
-681.251	-122.542	0.141	0.023
-680.237	316.928	0.028	-0.054
-679.222	0.999	0.185	0.134
-678.208	506.220	0.073	0.170
-677.193	-46.593	-0.094	-0.046
-676.178	-200.000	0.046	0.301
-675.164	-125.916	0.151	-0.023
-674.149	-77.649	0.119	0.042
-673.135	-70.087	0.290	-0.111
-672.120	-171.437	0.435	-0.015
-671.105	42.682	-0.134	-0.123
-670.091	-3.279	0.104	0.073
-669.076	-178.700	-0.399	0.009
-668.062	252.434	0.088	-0.151
-667.047	-33.477	-0.157	0.088
-666.032	-200.000	0.021	-0.193
-665.018	-200.000	-0.007	-0.140
-664.003	-113.368	-0.079	0.016
-662.989	-28.176	-0.139	-0.081
-661.974	-200.000	-0.032	-0.265
-660.959	329.933	0.105	-0.203
-659.945	-200.000	0.010	-0.090
-658.930	266.277	-0.052	-0.091
-657.916	800.000	0.006	0.018
-656.901	-200.000	-0.354	-0.001
-655.886	-200.000	-0.012	-0.120
-654.872	-57.518	-0.498	-0.220
-653.857	45.409	-0.291	0.271
-652.843	540.930	0.060	0.144
-651.828	-200.000	-0.007	-0.161
-650.814	189.459	0.134	-0.202
-649.799	282.909	0.144	0.260
-648.784	101.889	-0.050	-0.058
-647.770	-200.000	0.040	-0.481
-646.755	248.043	0.044	-0.074
-645.741	-129.728	-0.091	0.013
-644.726	-200.000	-0.027	-0.233
-643.711	-200.000	0.006	-0.094
-642.697	46.330	0.157	-0.146
-641.682	-19.066	-0.246	0.154
-640.668	-32.851	0.120	-0.067
-639.653	-152.617	-0.280	-0.020
-638.638	236.401	0.084	0.140
-637.624	-200.000	-0.003	-0.022
-636.609	-200.000	-0.006	-0.279
-635.595	116.424	-0.288	-0.356
-634.580	-133.830	-0.092	0.012
-633.565	-72.621	0.301	-0.112
-632.551	-17.078	-0.142	-0.090
-631.536	-59.372	0.141	0.061
-630.522	-200.000	0.053	0.349
-629.507	5.634	0.126	-0.093
-628.492	117.119	-0.232	0.286
-627.478	-40.426	-0.169	0.088
-626.463	151.374	-0.092	-0.126
-625.449	124.565	0.104	-0.132
-624.434	-97.276	-0.390	0.102
-623.419	50.825	0.070	0.067
-622.405	311.338	0.043	-0.082
-621.390	95.436	0.195	-0.223
-620.376	6.407	0.179	-0.134
-619.361	-37.852	-0.279	-0.149
-618.346	-73.818	0.314	0.115
-617.332	-200.000	-0.017	0.194
-616.317	-200.000	-0.040	0.284
-615.303	54.339	0.072	0.069
-614.288	38.599	0.109	0.098
-613.273	-109.189	-0.443	-0.095
-612.259	-128.246	-0.099	0.014
-611.244	-200.000	0.003	0.194
-610.230	-200.000	-0.029	-0.156
-609.215	-45.174	-0.260	0.130
-608.201	-59.830	-0.054	0.023
-607.186	-200.000	-0.023	-0.112
-606.171	187.516	0.066	-0.099
-605.157	800.000	0.097	-0.352
-604.142	14.944	-0.159	-0.125
-603.128	142.484	-0.072	-0.095
-602.113	-200.000	0.018	-0.130
-601.098	-41.007	-0.325	-0.169
-600.084	-200.000	0.011	0.072
-599.069	200.897	-0.080	0.123
-598.055	-141.147	0.134	0.014
-597.040	-200.000	0.010	-0.242
-596.025	800.000	-0.074	-0.250
-595.011	30.074	0.122	-0.104
-593.996	-70.140	0.083	-0.032
-592.982	-200.000	0.060	-0.375
-591.967	-115.967	-0.398	0.075
-590.952	632.964	-0.057	0.144
-589.938	-200.000	-0.037	0.272
-588.923	760.270	-0.159	-0.432
-587.909	129.893	0.049	0.062
-586.894	374.580	0.078	-0.159
-585.879	-82.231	0.086	-0.028
-584.865	-200.000	0.002	-0.067
-583.850	-1.131	-0.037	0.026
-582.836	301.651	-0.072	-0.134
-581.821	406.677	-0.117	0.249
-580.806	261.057	0.110	0.191
-579.792	142.409	-0.246	-0.327
-578.777	130.814	-0.162	0.209
-577.763	187.765	-0.082	0.122
-576.748	109.011	-0.180	0.216
-575.733	233.358	0.021	-0.035
-574.719	-47.169	0.147	0.072
-573.704	-88.417	-0.279	0.083
-572.690	-200.000	0.013	0.223
-571.675	-151.895	-0.246	0.018
-570.661	187.488	-0.085	-0.127
-569.646	-165.151	-0.394	-0.017
-568.631	498.985	-0.025	0.057
-567.617	28.939	-0.175	-0.149
-566.602	-102.794	0.390	0.093
-565.588	207.325	-0.119	-0.186
-564.573	800.000	-0.031	0.120
-563.558	58.173	-0.315	0.310
-562.544	39.375	0.027	-0.024
-561.529	54.564	0.220	0.213
-560.515	-120.783	-0.134	0.023
-559.500	-82.138	-0.198	-0.065
-558.485	800.000	-0.064	0.214
-557.471	-167.750	-0.295	0.012
-556.456	-120.078	0.431	-0.074
-555.442	-76.227	0.095	-0.034
-554.427	72.837	0.321	-0.336
-553.412	36.169	0.145	0.128
-552.398	800.000	0.086	0.301
-551.383	-200.000	-0.003	-0.148
-550.369	156.700	-0.178	0.246
-549.354	226.129	0.052	0.085
-548.339	-8.259	0.136	-0.092
-547.325	-200.000	0.013	0.277
-546.310	53.353	-0.110	0.106
-545.296	-200.000	0.047	0.222
-544.281	70.438	-0.066	0.068
-543.266	-95.305	0.327	0.088
-542.252	121.358	-0.218	0.272
-541.237	17.994	-0.228	0.182
-540.223	49.424	0.187	-0.176
-539.208	-45.730	0.181	-0.090
-538.193	-108.629	-0.217	0.047
-537.179	-115.732	0.197	-0.037
-536.164	-145.619	-0.116	0.010
-535.150	-91.323	0.242	-0.069
-534.135	-143.330	-0.343	0.033
-533.121	-200.000	0.017	-0.343
-532.106	83.575	-0.108	-0.118
-531.091	-98.920	0.061	0.016
-530.077	-134.931	0.185	0.022
-529.062	800.000	0.138	0.389
-528.048	-153.448	0.076	0.005
-527.033	158.072	-0.092	0.127
-526.018	800.000	-0.041	-0.138
-525.004	-129.136	0.262	0.037
-523.989	-37.832	-0.524	-0.279
-522.975	-66.261	0.162	0.065
-521.960	-129.401	-0.142	-0.020
-520.945	-23.728	-0.173	0.104
-519.931	264.046	-0.033	-0.057
-518.916	-200.000	-0.018	-0.126
-517.902	64.298	0.184	-0.186
-516.887	-57.351	0.190	-0.083
-515.872	-83.812	0.285	-0.091
-514.858	-79.939	0.070	0.023
-513.843	-200.000	-0.006	-0.074
-512.829	50.033	-0.074	0.070
-511.814	-29.373	-0.127	0.073
-510.799	800.000	0.090	0.252
-509.785	-54.264	-0.218	-0.099
-508.770	-60.701	-0.247	0.105
-507.756	48.434	-0.102	-0.095
-506.741	8.561	0.079	-0.059
-505.726	-72.822	0.141	0.052
-504.712	-48.688	-0.187	0.090
-503.697	-15.745	-0.057	-0.036
-502.683	800.000	0.028	0.089
-501.668	-6.435	0.265	0.181
-500.653	-38.458	0.210	0.111
-499.639	25.791	-0.150	-0.125
-498.624	800.000	-0.027	0.085
-497.610	800.000	-0.020	0.055
-496.595	-127.957	0.192	0.028
-495.581	-87.932	0.097	0.029
-494.566	14.674	-0.370	-0.289
-493.551	245.053	-0.059	-0.099
-492.537	-156.696	0.391	-0.024
-491.522	98.565	0.170	0.196
-490.508	503.084	-0.144	-0.333
-489.493	163.780	0.062	-0.088
-488.478	-7.628	0.351	-0.237
-487.464	-200.000	-0.006	-0.035
-486.449	39.242	0.053	0.048
-485.435	-56.049	-0.166	0.074
-484.420	-46.718	0.217	-0.106
-483.405	-73.473	-0.182	0.066
-482.391	707.860	0.099	0.261
-481.376	800.000	-0.067	0.278
-480.362	800.000	0.043	0.124
-479.347	-33.345	-0.109	-0.061
-478.332	-200.000	-0.018	0.260
-477.318	-200.000	0.033	0.187
-476.303	1.484	-0.275	0.198
-475.289	-130.400	0.123	0.017
-474.274	-200.000	0.023	0.257
-473.259	75.925	-0.150	0.159
-472.245	-45.624	-0.061	0.030
-471.230	-60.101	-0.050	0.021
-470.216	472.602	-0.084	-0.190
-469.201	800.000	-0.055	0.237
-468.186	-200.000	0.001	-0.061
-467.172	-109.907	0.189	-0.040
-466.157	-103.244	0.359	0.085
-465.143	-2.516	0.103	0.072
-464.128	16.372	0.111	-0.087
-463.113	57.144	0.245	0.239
-462.099	-47.729	-0.431	0.209
-461.084	-128.003	-0.321	0.046
-460.070	-48.084	-0.262	-0.127
-459.055	-191.385	0.140	-0.001
-458.040	-200.000	-0.006	-0.310
-457.026	208.037	-0.066	0.102
-456.011	178.551	0.167	0.244
-454.997	44.591	0.157	-0.144
-453.982	800.000	-0.041	-0.143
-452.968	800.000	-0.044	-0.142
-451.953	-91.270	-0.251	0.072
-450.938	-14.729	-0.204	0.131
-449.924	-0.123	-0.108	0.077
-448.909	-73.620	0.167	-0.061
-447.895	-135.237	-0.346	-0.042
-446.880	-82.614	0.226	-0.073
-445.865	-121.076	0.092	-0.015
-444.851	-129.961	-0.190	-0.026
-443.836	-200.000	-0.106	0.550
-442.822	-200.000	0.045	-0.196
-441.807	800.000	-0.122	-0.379
-440.792	-131.844	0.108	0.014
-439.778	-49.382	-0.331	0.158
-438.763	625.737	0.149	0.376
-437.749	-200.000	0.011	0.144
-436.734	-154.067	0.215	0.015
-435.719	178.801	-0.221	-0.322
-434.705	599.255	0.071	-0.175
-433.690	-156.980	-0.233	-0.014
-432.676	46.425	-0.132	0.122
-431.661	350.556	-0.096	0.189
-430.646	-200.000	0.012	0.195
-429.632	162.437	0.194	-0.272
-428.617	-200.000	0.046	-0.274
-427.603	-155.653	-0.118	0.008
-426.588	121.086	0.062	0.077
-425.573	-165.193	-0.074	0.003
-424.559	800.000	-0.023	-0.098
-423.544	800.000	-0.033	-0.113
-422.530	17.344	0.112	0.088
-421.515	-200.000	-0.021	-0.177
-420.500	-133.428	-0.189	-0.024
-419.486	-200.000	0.025	-0.199
-418.471	117.457	-0.335	0.411
-417.457	-39.282	-0.239	0.125
-416.442	-103.705	0.247	0.058
-415.428	309.189	0.076	0.141
-414.413	-77.881	-0.140	0.048
-413.398	257.936	-0.095	0.164
-412.384	-179.177	-0.430	-0.010
-411.369	-200.000	-0.003	-0.068
-410.355	75.526	-0.107	0.112
-409.340	-85.431	-0.372	-0.116
-408.325	-16.701	-0.326	-0.206
-407.311	-200.000	-0.039	0.185
-406.296	-22.885	-0.237	0.142
-405.282	166.687	-0.060	-0.084
-404.267	-179.622	0.223	-0.005
-403.252	-63.934	-0.086	0.035
-402.238	800.000	-0.015	-0.052
-401.223	800.000	0.069	-0.196
-400.209	-70.672	-0.401	-0.151
-399.194	40.696	-0.097	-0.087
-398.179	326.633	-0.147	-0.280
-397.165	-169.048	-0.120	-0.004
-396.150	800.000	-0.013	0.041
-395.136	-11.469	0.038	-0.025
-394.121	-5.450	0.030	0.021
-393.106	104.255	0.272	-0.319
-392.092	-59.794	-0.250	0.107
-391.077	-18.354	0.317	-0.197
-390.063	-77.361	-0.218	-0.076
-389.048	-170.416	-0.234	-0.008
-388.033	-120.745	0.341	0.057
-387.019	-122.469	-0.204	0.033
-386.004	-141.324	0.080	0.008
-384.990	-160.865	-0.307	-0.016
-383.975	-126.339	0.395	-0.059
-382.960	-104.508	0.168	0.039
-381.946	91.658	-0.243	-0.273
-380.931	-128.294	-0.064	-0.009
-379.917	773.605	0.095	-0.258
-378.902	-200.000	-0.025	-0.159
-377.888	12.204	0.043	-0.033
-376.873	601.360	-0.005	-0.013
-375.858	159.177	-0.113	-0.157
-374.844	537.139	0.084	0.199
-373.829	372.626	0.117	0.236
-372.815	163.653	-0.105	0.147
-371.800	-80.473	-0.158	-0.052
-370.785	131.816	0.047	-0.060
-369.771	-55.954	0.208	-0.093
-368.756	-19.296	0.124	-0.077
-367.742	-71.120	0.284	-0.106
-366.727	-47.391	-0.058	0.028
-365.712	-143.198	-0.194	0.019
-364.698	-40.379	0.162	0.084
-363.683	405.180	-0.123	0.257
-362.669	37.225	-0.247	-0.217
-361.654	-37.592	-0.064	0.034
-360.639	800.000	-0.043	-0.154
-359.625	-200.000	0.019	-0.200
-358.610	800.000	0.025	-0.080
-357.596	188.970	-0.076	0.113
-356.581	-156.173	0.125	-0.008
-355.566	-53.533	-0.150	-0.068
-354.552	-41.884	0.329	0.168
-353.537	-37.068	-0.132	0.070
-352.523	800.000	-0.048	0.176
-351.508	-15.516	0.257	0.163
-350.493	219.273	0.176	-0.280
-349.479	800.000	-0.133	0.473
-348.464	-98.262	-0.374	0.096
-347.450	-54.199	-0.078	0.035
-346.435	-200.000	0.014	-0.092
-345.420	311.079	-0.126	0.235
-344.406	99.166	0.156	0.179
-343.391	114.610	0.090	0.109
-342.377	436.490	-0.146	0.316
-341.362	154.187	-0.073	0.099
-340.348	468.672	-0.075	0.168
-339.333	-35.685	0.106	-0.057
-338.318	-128.181	-0.440	-0.063
-337.304	-137.769	0.232	-0.026
-336.289	90.780	0.213	0.237
-335.275	280.084	0.073	-0.130
-334.260	-95.799	0.230	0.061
-333.245	592.618	-0.106	0.261
-332.231	743.577	0.122	0.327
-331.216	-160.634	-0.349	0.018
-330.202	-43.558	0.174	-0.087
-329.187	143.020	-0.208	-0.275
-328.172	39.111	-0.149	-0.133
-327.158	2.461	0.138	-0.099
-326.143	800.000	0.117	-0.364
-325.129	519.046	-0.040	-0.093
-324.114	-35.199	0.069	-0.037
-323.099	628.803	-0.080	0.202
-322.085	86.286	-0.162	0.177
-321.070	-2.322	-0.135	0.094
-320.056	-21.953	-0.153	0.092
-319.041	-94.075	-0.099	0.027
-318.026	-200.000	-0.004	0.131
-317.012	714.830	0.088	-0.231
-315.997	-200.000	0.042	0.229
-314.983	-54.832	0.380	0.171
-313.968	800.000	-0.022	-0.070
-312.953	154.436	0.031	-0.043
-311.939	192.043	0.094	-0.141
-310.924	307.567	0.074	-0.138
-309.910	146.409	-0.281	-0.375
-308.895	79.195	0.103	-0.109
-307.880	73.346	0.009	0.009
-306.866	-32.207	-0.258	0.143
-305.851	44.616	0.133	-0.121
-304.837	-200.000	0.032	-0.303
-303.822	800.000	0.110	0.332
-302.807	-200.000	0.043	-0.227
-301.793	-108.306	-0.142	-0.031
-300.778	226.486	0.095	-0.153
-299.764	-107.635	0.058	0.013
-298.749	-42.887	-0.215	0.108
-297.735	63.531	-0.195	-0.194
-296.720	800.000	0.029	-0.087
-295.705	-197.658	0.318	0.002
-294.691	-64.499	-0.238	-0.096
-293.676	116.369	-0.118	-0.144
-292.662	-125.195	-0.110	-0.017
-291.647	800.000	0.008	-0.031
-290.632	-30.896	0.186	0.104
-289.618	-40.801	0.466	-0.240
-288.603	-200.000	0.001	0.046
-287.589	-200.000	0.019	-0.324
-286.574	-63.464	0.230	-0.094
-285.559	-200.000	0.007	-0.246
-284.545	27.669	0.447	0.373
-283.530	138.587	-0.101	-0.131
-282.516	-145.619	-0.111	-0.010
-281.501	800.000	0.039	0.164
-280.486	-62.911	0.197	0.081
-279.472	735.094	0.020	-0.053
-278.457	-41.319	0.294	0.150
-277.443	-200.000	-0.036	0.261
-276.428	-200.000	-0.043	0.239
-275.413	304.520	0.178	0.328
-274.399	-116.930	-0.345	0.063
-273.384	236.091	0.204	0.335
-272.370	-149.289	0.036	0.003
-271.355	-200.000	-0.021	0.103
-270.340	134.033	-0.130	-0.167
-269.326	-129.892	0.141	-0.019
-268.311	-92.477	0.141	-0.039
-267.297	-99.075	0.360	-0.090
-266.282	800.000	0.063	-0.185
-265.267	293.678	0.057	-0.103
-264.253	-37.143	-0.122	0.065
-263.238	-101.087	-0.108	-0.026
-262.224	-200.000	-0.016	0.084
-261.209	-109.843	0.267	0.056
-260.195	-125.704	0.170	0.026
-259.180	-79.804	-0.205	-0.068
-258.165	-45.046	-0.181	-0.089
-257.151	-92.984	0.040	0.011
-256.136	-64.452	-0.313	0.126
-255.122	485.215	0.041	-0.092
-254.107	138.071	-0.206	-0.268
-253.092	-24.912	-0.038	0.023
-252.078	-200.000	-0.027	-0.137
-251.063	163.520	-0.259	-0.361
-250.049	485.794	-0.127	-0.287
-249.034	86.615	-0.115	-0.126
-248.019	-200.000	0.075	0.327
-247.005	-200.000	0.045	0.266
-245.990	60.592	0.419	0.411
-244.976	651.938	0.068	-0.174
-243.961	-68.940	0.335	-0.128
-242.946	-200.000	0.369	0.001
-241.932	-40.628	0.247	-0.127
-240.917	9.594	0.197	-0.148
-239.903	-102.152	0.298	0.071
-238.888	800.000	-0.113	-0.360
-237.873	592.368	0.109	-0.266
-236.859	-101.708	0.404	-0.097
-235.844	-68.584	-0.423	-0.162
-234.830	98.307	-0.186	0.213
-233.815	-117.716	0.147	0.026
-232.800	-200.000	0.010	0.243
-231.786	-181.389	0.385	-0.007
-230.771	800.000	0.056	0.213
-229.757	-24.551	0.267	0.158
-228.742	-59.744	0.382	0.162
-227.727	-18.260	0.087	0.054
-226.713	756.624	-0.089	0.240
-225.698	-200.000	-0.045	0.267
-224.684	-143.750	-0.139	-0.013
-223.669	-131.370	0.064	0.008
-222.655	-200.000	-0.018	0.094
-221.640	-19.672	0.512	0.314
-220.625	-134.431	0.216	0.026
-219.611	800.000	-0.049	-0.174
-218.596	-26.491	-0.090	-0.052
-217.582	3.835	0.218	0.157
-216.567	765.011	-0.083	-0.222
-215.552	800.000	0.037	0.160
-214.538	69.605	-0.080	-0.082
-213.523	-77.804	-0.098	0.033
-212.509	-87.975	0.189	0.056
-211.494	-93.820	-0.122	-0.033
-210.479	436.575	0.090	0.195
-209.465	-20.539	0.257	0.156
-208.450	-200.000	-0.007	-0.160
-207.436	573.524	0.128	-0.308
-206.421	-200.000	-0.110	-0.493
-205.406	171.668	0.064	-0.091
-204.392	323.700	0.180	-0.341
-203.377	-27.717	-0.191	-0.110
-202.363	-19.249	0.267	0.164
-201.348	-56.359	0.325	-0.143
-200.333	-47.287	0.336	0.162
-199.319	-200.000	0.026	-0.159
-198.304	-4.195	-0.192	-0.132
-197.290	-189.118	0.258	-0.003
-196.275	800.000	-0.027	-0.078
-195.260	455.781	-0.044	-0.096
-194.246	207.332	-0.062	0.096
-193.231	180.312	0.049	-0.071
-192.217	-200.000	0.014	0.164
-191.202	-40.019	0.095	0.049
-190.187	607.686	-0.084	0.208
-189.173	275.594	0.074	0.130
-188.158	800.000	-0.028	0.110
-187.144	319.657	-0.061	0.114
-186.129	30.153	-0.081	-0.068
-185.114	800.000	0.023	-0.088
-184.100	-10.414	0.155	-0.101
-183.085	800.000	-0.015	-0.047
-182.071	166.526	0.210	-0.295
-181.056	-35.984	0.114	-0.061
-180.042	176.676	-0.168	-0.242
-179.027	-200.000	-0.007	0.087
-178.012	164.254	0.161	0.224
-176.998	-200.000	-0.010	0.141
-175.983	-18.111	0.353	0.218
-174.969	113.222	-0.152	-0.183
-173.954	800.000	0.119	-0.414
-172.939	-200.000	0.006	0.224
-171.925	-200.000	0.057	-0.386
-170.910	147.566	0.229	0.305
-169.896	20.921	0.132	0.106
-168.881	346.283	0.081	0.158
-167.866	800.000	0.039	0.128
-166.852	307.088	0.040	0.074
-165.837	-87.464	-0.159	0.048
-164.823	32.432	-0.382	-0.326
-163.808	-114.677	-0.138	0.026
-162.793	-200.000	-0.271	-0.000
-161.779	-58.382	0.339	-0.146
-160.764	-116.442	-0.166	-0.030
-159.750	1.035	0.280	0.198
-158.735	-117.446	0.444	0.079
-157.720	3.653	-0.035	0.025
-156.706	800.000	0.076	-0.267
-155.691	-102.522	-0.252	0.060
-154.677	-105.095	-0.097	0.022
-153.662	-36.354	-0.245	0.131
-152.647	-200.000	0.009	0.133
-151.633	160.297	0.092	-0.126
-150.618	-127.047	-0.387	-0.056
-149.604	406.195	0.086	0.179
-148.589	-45.072	0.140	-0.069
-147.574	71.905	-0.395	-0.405
-146.560	-137.214	-0.255	0.029
-145.545	-14.498	0.253	-0.161
-144.531	-12.377	-0.124	0.080
-143.516	206.800	-0.089	0.138
-142.502	-200.000	-0.006	0.132
-141.487	119.196	0.161	0.197
-140.472	-1.289	0.135	-0.094
-139.458	379.540	-0.050	0.101
-138.443	-200.000	0.016	0.072
-137.429	150.260	0.106	-0.142
-136.414	385.573	0.053	0.109
-135.399	224.763	0.154	0.246
-134.385	47.111	0.149	-0.137
-133.370	-92.958	0.256	-0.071
-132.356	-200.000	0.008	-0.245
-131.341	-186.881	0.194	-0.003
-130.326	-107.938	0.273	0.059
-129.312	-193.782	0.250	0.002
-128.297	-200.000	0.033	0.235
-127.283	395.993	-0.053	-0.110
-126.268	-51.271	-0.124	-0.057
-125.253	-200.000	-0.020	-0.326
-124.239	-48.783	0.083	0.039
-123.224	36.462	-0.299	0.260
-122.210	-185.998	0.371	0.005
