DTS Sentinel unit serial number:	SN413079Multiplexer serial number:	ORYXHardware model number:	OX4-SRSoftware version number:	ORYX F/W v4.00 Oryx Data Collector v3.7.2.0data status	okinstallation	princeton_trtdifferential loss correction	single-endedforward channel	channel 3reverse channel	N/Adate	2019/09/19time	10:32:35forward acquisition time	60.00reverse acquisition time	0.00gamma	496.2192k internal	0.2343k external	0.2343temperature offset calibration	0.9982default loss term (dB/km)	0.3790temperature slope calibration	1.0000multiplexer offset coefficient	1.0000multiplexer slope coefficient	1.0000fibre end	0.00T internal ref (°C)	24.44T ext. ref 1 (°C)	0.72T ext. ref 2 (°C)	19.85length (m)	temperature (°C)	Stokes	anti-Stokes-747.200	-200.000	-0.002	0.127
-746.185	-15.304	-0.229	-0.147
-745.171	-25.569	0.070	0.042
-744.156	-87.699	-0.331	0.100
-743.142	151.847	-0.222	0.303
-742.127	114.248	-0.194	0.236
-741.112	-10.222	0.174	0.116
-740.098	-26.653	0.188	0.110
-739.083	800.000	0.111	0.384
-738.069	-28.359	-0.430	0.248
-737.054	245.865	-0.192	0.323
-736.039	800.000	-0.057	0.170
-735.025	-24.892	-0.087	-0.052
-734.010	-200.000	-0.007	-0.339
-732.996	-50.686	-0.129	-0.061
-731.981	188.434	-0.252	0.377
-730.966	-200.000	0.031	-0.156
-729.952	-200.000	0.043	0.196
-728.937	800.000	-0.051	-0.164
-727.923	154.302	0.185	-0.254
-726.908	-99.009	0.218	-0.055
-725.894	40.261	0.246	0.221
-724.879	69.985	0.203	-0.209
-723.864	-95.819	-0.241	0.064
-722.850	152.589	-0.269	-0.368
-721.835	87.081	-0.072	-0.079
-720.821	-200.000	-0.467	0.000
-719.806	-141.585	0.262	-0.026
-718.791	-179.578	-0.242	-0.005
-717.777	-14.485	-0.234	0.151
-716.762	-36.474	-0.125	0.067
-715.748	-26.986	0.423	0.247
-714.733	54.515	0.196	-0.189
-713.718	-81.229	0.184	-0.061
-712.704	-2.094	-0.129	0.091
-711.689	15.593	0.139	0.110
-710.675	-141.112	-0.421	0.043
-709.660	91.762	0.307	0.346
-708.645	-200.000	0.053	0.285
-707.631	-173.367	-0.154	0.005
-706.616	-200.000	0.190	-0.000
-705.602	533.867	-0.125	-0.297
-704.587	127.259	0.078	-0.099
-703.572	-130.562	-0.330	-0.045
-702.558	-124.465	0.132	0.021
-701.543	106.062	0.389	-0.460
-700.529	-200.000	0.026	-0.148
-699.514	-200.000	0.059	0.353
-698.499	376.768	0.087	-0.178
-697.485	-174.543	-0.490	-0.014
-696.470	800.000	-0.015	0.046
-695.456	4.467	-0.187	-0.137
-694.441	145.407	0.065	0.087
-693.426	-118.792	0.213	0.037
-692.412	31.506	0.323	-0.277
-691.397	241.332	-0.082	-0.136
-690.383	196.731	-0.259	-0.395
-689.368	-88.924	0.189	-0.056
-688.354	30.123	-0.246	0.210
-687.339	-150.848	-0.175	-0.013
-686.324	178.623	0.122	-0.178
-685.310	800.000	-0.065	0.215
-684.295	566.649	0.070	0.169
-683.281	16.618	-0.204	0.161
-682.266	-200.000	0.024	0.493
-681.251	102.162	-0.102	0.119
-680.237	800.000	-0.072	-0.307
-679.222	130.657	0.146	-0.186
-678.208	800.000	-0.059	-0.198
-677.193	-33.883	-0.164	0.090
-676.178	22.532	0.164	0.134
-675.164	45.032	0.101	0.092
-674.149	22.547	-0.249	-0.204
-673.135	12.829	-0.200	0.154
-672.120	-139.168	0.325	0.035
-671.105	40.023	-0.281	-0.252
-670.091	-133.621	0.060	-0.008
-669.076	-179.023	-0.135	-0.003
-668.062	-200.000	-0.083	-0.390
-667.047	10.286	-0.215	-0.163
-666.032	-120.530	-0.123	0.021
-665.018	-153.479	0.140	-0.010
-664.003	-120.677	-0.178	-0.030
-662.989	800.000	-0.143	0.462
-661.974	-49.017	-0.126	-0.060
-660.959	-200.000	-0.028	0.400
-659.945	77.727	-0.358	-0.381
-658.930	50.409	-0.154	0.146
-657.916	-200.000	0.014	0.108
-656.901	-200.000	0.015	0.094
-655.886	800.000	0.068	-0.206
-654.872	-38.806	-0.186	0.098
-653.857	53.323	-0.151	0.145
-652.843	-200.000	0.022	0.333
-651.828	-200.000	-0.411	0.001
-650.814	-171.067	-0.230	-0.008
-649.799	329.490	0.064	0.123
-648.784	38.649	-0.077	-0.068
-647.770	-69.406	0.068	-0.026
-646.755	364.651	-0.094	-0.188
-645.741	389.148	-0.129	-0.267
-644.726	-200.000	-0.027	-0.308
-643.711	-200.000	-0.070	-0.308
-642.697	-151.818	0.181	0.013
-641.682	-177.758	0.107	0.003
-640.668	-200.000	-0.029	-0.177
-639.653	-177.990	0.439	0.010
-638.638	-148.834	0.227	0.018
-637.624	800.000	-0.066	-0.220
-636.609	-99.761	0.089	0.022
-635.595	800.000	0.070	-0.292
-634.580	-8.503	0.237	0.159
-633.565	-163.453	-0.208	-0.010
-632.551	221.049	0.181	-0.290
-631.536	22.850	-0.181	-0.148
-630.522	600.147	0.091	0.225
-629.507	-200.000	-0.038	0.468
-628.492	-72.256	0.180	0.067
-627.478	-171.411	-0.300	0.010
-626.463	-200.000	0.001	0.154
-625.449	16.694	-0.169	0.133
-624.434	103.574	-0.066	-0.078
-623.419	41.877	-0.224	0.203
-622.405	384.419	0.061	-0.125
-621.390	800.000	-0.025	-0.077
-620.376	-14.490	-0.162	-0.104
-619.361	-81.906	0.111	-0.036
-618.346	-90.458	0.137	-0.040
-617.332	-109.114	0.135	-0.029
-616.317	-200.000	0.008	-0.120
-615.303	265.372	0.132	-0.229
-614.288	388.244	0.070	-0.143
-613.273	-152.081	-0.320	0.023
-612.259	264.512	0.173	-0.300
-611.244	-200.000	-0.035	0.309
-610.230	-188.229	0.053	0.001
-609.215	-200.000	-0.013	0.203
-608.201	-148.143	0.181	-0.015
-607.186	-155.787	0.059	0.004
-606.171	-200.000	-0.024	-0.146
-605.157	-200.000	-0.057	0.376
-604.142	79.975	-0.232	0.248
-603.128	-79.776	0.343	-0.115
-602.113	-200.000	0.007	-0.291
-601.098	-77.227	0.299	-0.104
-600.084	800.000	-0.051	-0.193
-599.069	-146.854	0.084	0.007
-598.055	-200.000	-0.046	0.302
-597.040	21.498	0.249	0.202
-596.025	60.294	0.180	0.178
-595.011	-200.000	-0.029	0.145
-593.996	-97.489	0.102	-0.026
-592.982	-76.632	-0.306	0.107
-591.967	350.065	-0.041	-0.081
-590.952	-200.000	-0.009	0.155
-589.938	-200.000	-0.015	0.099
-588.923	-40.351	0.096	0.050
-587.909	-200.000	0.006	-0.238
-586.894	-200.000	0.011	0.361
-585.879	196.833	0.185	0.280
-584.865	-14.040	-0.112	-0.072
-583.850	29.199	-0.383	-0.324
-582.836	-200.000	-0.020	-0.314
-581.821	535.382	0.114	-0.268
-580.806	-95.457	-0.103	0.028
-579.792	192.911	-0.095	0.142
-578.777	69.476	0.136	-0.139
-577.763	-122.167	0.194	-0.032
-576.748	483.742	-0.042	-0.096
-575.733	-2.645	-0.246	0.172
-574.719	-200.000	0.036	0.232
-573.704	466.761	0.130	0.290
-572.690	34.753	0.356	0.310
-571.675	66.901	-0.208	-0.211
-570.661	-146.912	0.263	-0.022
-569.646	-42.389	-0.247	0.125
-568.631	604.821	0.041	0.102
-567.617	-13.420	-0.155	-0.100
-566.602	800.000	-0.062	0.210
-565.588	800.000	0.036	0.124
-564.573	197.611	0.086	-0.131
-563.558	-56.884	0.073	-0.032
-562.544	-83.626	0.070	0.022
-561.529	71.678	-0.117	0.121
-560.515	-200.000	0.015	-0.128
-559.500	508.634	0.037	-0.085
-558.485	680.546	0.047	-0.121
-557.471	-32.874	-0.103	-0.057
-556.456	251.164	0.160	-0.271
-555.442	800.000	-0.057	-0.174
-554.427	41.922	0.223	0.201
-553.412	-72.237	0.187	-0.069
-552.398	800.000	-0.083	-0.306
-551.383	23.603	0.212	-0.174
-550.369	800.000	0.061	0.196
-549.354	-127.021	0.242	-0.035
-548.339	-200.000	-0.028	0.151
-547.325	-127.893	-0.292	-0.042
-546.310	-200.000	-0.037	0.234
-545.296	-33.431	-0.097	0.053
-544.281	-200.000	-0.000	0.584
-543.266	133.456	0.216	0.278
-542.252	95.937	0.153	0.174
-541.237	-128.238	-0.349	0.049
-540.223	292.970	0.006	-0.011
-539.208	-159.362	-0.319	0.018
-538.193	-200.000	-0.016	0.246
-537.179	67.194	-0.199	0.202
-536.164	-115.585	-0.217	0.041
-535.150	573.083	-0.088	-0.213
-534.135	-72.579	-0.283	-0.104
-533.121	254.092	0.078	-0.133
-532.106	-79.952	-0.188	-0.063
-531.091	-200.000	0.034	0.169
-530.077	250.367	0.167	-0.281
-529.062	-200.000	-0.011	-0.096
-528.048	-17.613	-0.173	-0.108
-527.033	-155.751	0.228	0.014
-526.018	-91.234	-0.120	-0.034
-525.004	177.181	0.118	0.171
-523.989	435.601	-0.110	0.238
-522.975	93.994	0.089	-0.100
-521.960	57.711	-0.255	-0.248
-520.945	431.042	-0.098	0.211
-519.931	-200.000	0.000	0.115
-518.916	-101.375	-0.183	-0.044
-517.902	800.000	0.047	-0.134
-516.887	-33.281	-0.088	-0.048
-515.872	-200.000	0.009	-0.180
-514.858	51.713	-0.156	-0.147
-513.843	-39.574	0.076	-0.039
-512.829	-42.836	0.390	0.197
-511.814	-120.977	-0.168	-0.028
-510.799	-44.080	-0.184	0.092
-509.785	800.000	-0.120	-0.372
-508.770	239.627	-0.079	0.131
-507.756	-200.000	0.002	-0.165
-506.741	-143.102	0.308	0.029
-505.726	-7.211	0.182	-0.122
-504.712	211.568	-0.047	-0.073
-503.697	25.582	-0.275	0.227
-502.683	620.577	0.027	-0.067
-501.668	115.977	-0.079	-0.096
-500.653	519.359	0.021	-0.048
-499.639	550.729	0.087	-0.207
-498.624	800.000	-0.071	0.254
-497.610	616.333	0.079	0.196
-496.595	-200.000	0.020	0.270
-495.581	-200.000	0.086	0.534
-494.566	-12.892	-0.111	-0.072
-493.551	292.161	-0.120	0.216
-492.537	-200.000	-0.036	0.204
-491.522	-61.942	0.280	-0.116
-490.508	800.000	0.063	0.199
-489.493	220.312	0.149	0.236
-488.478	-16.809	-0.156	-0.098
-487.464	182.424	-0.173	-0.253
-486.449	-107.984	-0.106	-0.023
-485.435	-36.989	0.182	0.096
-484.420	260.201	-0.133	0.228
-483.405	12.035	0.159	0.121
-482.391	-200.000	0.023	0.152
-481.376	70.704	0.370	-0.380
-480.362	92.333	0.101	-0.113
-479.347	-200.000	0.007	-0.324
-478.332	-126.879	-0.240	-0.035
-477.318	-192.240	-0.164	0.002
-476.303	167.785	0.159	0.225
-475.289	-20.767	0.156	-0.095
-474.274	223.635	-0.162	-0.260
-473.259	-99.236	-0.173	-0.043
-472.245	173.684	-0.123	-0.176
-471.230	800.000	-0.113	-0.317
-470.216	-113.542	0.115	0.022
-469.201	-118.741	-0.469	-0.082
-468.186	-112.553	0.334	-0.066
-467.172	92.474	-0.164	-0.183
-466.157	97.880	0.107	-0.122
-465.143	320.833	-0.039	0.074
-464.128	-24.697	-0.078	0.046
-463.113	3.244	-0.234	0.169
-462.099	125.856	-0.099	-0.124
-461.084	-102.311	0.231	-0.055
-460.070	30.718	0.073	0.062
-459.055	-44.833	0.207	0.102
-458.040	392.914	-0.138	-0.285
-457.026	57.798	-0.059	0.057
-456.011	800.000	-0.053	0.188
-454.997	49.626	-0.251	-0.234
-453.982	333.693	-0.101	0.194
-452.968	-72.950	-0.163	0.059
-451.953	-200.000	-0.180	0.000
-450.938	-200.000	-0.039	-0.246
-449.924	-200.000	0.036	0.216
-448.909	-57.964	0.072	-0.031
-447.895	-31.591	0.150	-0.083
-446.880	-118.726	0.198	0.034
-445.865	27.323	-0.137	0.114
-444.851	-93.378	0.095	0.026
-443.836	-4.714	0.173	-0.118
-442.822	-83.718	0.059	0.019
-441.807	105.969	-0.140	0.164
-440.792	-200.000	0.053	-0.300
-439.778	186.149	0.080	0.117
-438.763	2.700	-0.298	0.214
-437.749	231.090	-0.032	-0.052
-436.734	-200.000	-0.008	0.183
-435.719	-200.000	-0.021	-0.168
-434.705	-82.371	-0.072	-0.023
-433.690	180.704	0.157	0.228
-432.676	-105.851	-0.184	-0.041
-431.661	800.000	-0.086	-0.315
-430.646	-184.079	0.167	-0.003
-429.632	-20.083	0.216	-0.132
-428.617	-200.000	-0.046	-0.397
-427.603	-200.000	-0.035	-0.280
-426.588	-129.168	-0.380	-0.052
-425.573	-123.187	-0.146	-0.023
-424.559	304.929	0.042	-0.076
-423.544	-152.090	0.160	0.012
-422.530	-200.000	-0.033	-0.199
-421.515	-200.000	0.053	-0.349
-420.500	68.880	0.269	0.274
-419.486	800.000	0.049	0.211
-418.471	-127.249	-0.094	0.014
-417.457	-61.055	-0.323	0.135
-416.442	82.154	-0.047	0.050
-415.428	187.805	0.082	-0.122
-414.413	570.305	-0.028	0.068
-413.398	-130.982	0.249	-0.033
-412.384	10.838	0.174	0.131
-411.369	-107.113	-0.335	0.073
-410.355	36.707	0.156	-0.136
-409.340	320.439	-0.210	0.395
-408.325	-132.418	-0.332	0.042
-407.311	29.156	0.133	0.111
-406.296	-94.612	-0.232	0.062
-405.282	346.508	-0.130	-0.253
-404.267	-16.745	0.092	-0.058
-403.252	-49.476	0.102	-0.048
-402.238	103.927	-0.200	0.232
-401.223	-104.961	-0.216	0.049
-400.209	-200.000	-0.044	-0.224
-399.194	-53.782	-0.175	-0.079
-398.179	119.275	0.055	0.068
-397.165	-70.367	-0.345	0.129
-396.150	-77.398	-0.290	0.099
-395.136	-51.374	0.175	0.081
-394.121	595.214	-0.059	0.144
-393.106	-200.000	-0.037	-0.298
-392.092	-19.528	0.178	-0.109
-391.077	-49.046	0.214	0.101
-390.063	-72.473	0.310	0.113
-389.048	-79.540	-0.100	0.033
-388.033	800.000	0.070	-0.282
-387.019	47.799	0.172	0.158
-386.004	-200.000	0.080	0.569
-384.990	800.000	-0.077	-0.303
-383.975	-107.511	0.058	0.013
-382.960	35.944	-0.198	-0.172
-381.946	295.856	-0.063	-0.114
-380.931	-52.175	0.162	0.074
-379.917	-100.277	-0.086	0.021
-378.902	4.971	0.113	0.082
-377.888	341.678	-0.104	-0.200
-376.873	-130.048	0.098	0.013
-375.858	-7.750	0.270	0.180
-374.844	359.368	-0.079	-0.156
-373.829	-101.209	0.285	-0.069
-372.815	800.000	0.087	0.276
-371.800	-126.311	0.202	0.030
-370.785	800.000	0.042	-0.147
-369.771	41.302	0.093	-0.083
-368.756	231.371	-0.136	-0.219
-367.742	-139.127	0.138	0.015
-366.727	-28.145	-0.508	0.290
-365.712	323.951	-0.149	0.281
-364.698	-17.957	-0.127	-0.079
-363.683	592.368	0.091	-0.222
-362.669	-200.000	-0.074	-0.409
-361.654	0.660	0.050	0.036
-360.639	-4.740	0.220	-0.150
-359.625	-89.743	0.373	-0.108
-358.610	-146.392	-0.477	0.041
-357.596	800.000	0.079	-0.248
-356.581	-126.014	-0.148	0.022
-355.566	2.388	0.274	0.196
-354.552	565.590	-0.121	-0.289
-353.537	-117.706	0.238	-0.042
-352.523	-200.000	-0.047	-0.350
-351.508	321.792	-0.167	-0.314
-350.493	800.000	-0.122	-0.418
-349.479	-200.000	-0.009	0.241
-348.464	-1.171	0.124	0.087
-347.450	800.000	0.019	-0.056
-346.435	-87.089	-0.123	0.037
-345.420	-95.844	0.095	0.025
-344.406	-144.218	0.110	0.010
-343.391	225.817	-0.339	-0.542
-342.377	-66.939	-0.157	-0.061
-341.362	155.487	-0.200	0.272
-340.348	-86.525	0.213	0.064
-339.333	-50.102	-0.053	-0.025
-338.318	800.000	0.038	0.134
-337.304	-14.604	0.150	-0.095
-336.289	303.015	-0.042	-0.077
-335.275	-44.256	0.037	-0.018
-334.260	-19.667	-0.223	0.136
-333.245	800.000	-0.013	0.055
-332.231	800.000	-0.110	0.416
-331.216	-200.000	-0.025	-0.145
-330.202	-33.638	-0.113	-0.061
-329.187	-200.000	0.030	0.259
-328.172	-43.032	-0.277	0.138
-327.158	256.679	-0.110	-0.186
-326.143	73.567	0.279	0.287
-325.129	743.666	-0.099	-0.262
-324.114	-43.481	0.228	0.113
-323.099	-128.809	-0.148	0.021
-322.085	1.362	-0.109	-0.077
-321.070	-166.356	-0.223	0.009
-320.056	-200.000	-0.050	0.386
-319.041	75.934	0.287	-0.299
-318.026	712.743	-0.130	0.339
-317.012	-41.594	-0.143	0.072
-315.997	-200.000	0.006	0.238
-314.983	387.301	-0.116	0.236
-313.968	33.719	0.196	0.168
-312.953	-200.000	-0.055	-0.259
-311.939	800.000	0.114	-0.437
-310.924	-200.000	-0.042	0.292
-309.910	353.428	0.132	0.259
-308.895	800.000	0.057	-0.193
-307.880	67.370	0.026	0.026
-306.866	529.579	0.014	-0.032
-305.851	-45.892	-0.053	0.026
-304.837	588.716	-0.102	-0.248
-303.822	182.345	-0.216	-0.314
-302.807	-6.149	-0.056	0.038
-301.793	-200.000	-0.016	-0.134
-300.778	42.570	-0.101	-0.091
-299.764	-200.000	0.048	-0.246
-298.749	800.000	0.087	0.289
-297.735	270.707	0.049	-0.085
-296.720	339.211	0.089	-0.172
-295.705	800.000	0.069	0.248
-294.691	-102.490	-0.423	0.100
-293.676	172.486	-0.309	-0.438
-292.662	800.000	0.031	-0.097
-291.647	-103.481	0.444	0.103
-290.632	-50.085	-0.096	0.045
-289.618	25.094	0.265	0.217
-288.603	445.212	-0.049	0.105
-287.589	118.950	0.251	0.305
-286.574	343.355	0.018	-0.034
-285.559	102.591	0.055	-0.063
-284.545	30.831	-0.271	-0.228
-283.530	-200.000	-0.003	0.220
-282.516	-200.000	-0.030	-0.176
-281.501	-59.370	-0.095	0.040
-280.486	-151.635	0.277	0.020
-279.472	60.805	-0.011	-0.010
-278.457	-65.789	0.178	-0.070
-277.443	-123.077	-0.168	-0.026
-276.428	-200.000	0.047	-0.282
-275.413	165.528	-0.054	0.075
-274.399	399.169	0.103	-0.212
-273.384	-107.191	0.119	0.026
-272.370	95.909	-0.114	0.128
-271.355	66.956	0.195	0.195
-270.340	800.000	-0.071	-0.202
-269.326	-200.000	-0.002	0.105
-268.311	515.588	0.185	0.425
-267.297	-57.758	-0.151	-0.065
-266.282	4.271	-0.037	-0.027
-265.267	-200.000	0.056	-0.289
-264.253	126.741	0.057	-0.070
-263.238	224.008	0.245	-0.388
-262.224	-117.929	0.209	-0.037
-261.209	94.233	-0.130	-0.145
-260.195	142.152	-0.125	-0.164
-259.180	495.612	0.021	0.047
-258.165	-48.953	0.257	0.121
-257.151	-26.852	0.290	-0.167
-256.136	-1.440	-0.171	0.118
-255.122	-200.000	-0.007	0.168
-254.107	12.265	-0.067	-0.050
-253.092	-108.659	0.083	0.017
-252.078	-98.798	-0.204	0.051
-251.063	250.676	0.133	-0.221
-250.049	796.706	0.032	0.086
-249.034	-200.000	-0.039	0.240
-248.019	458.950	-0.154	0.336
-247.005	286.537	-0.065	-0.116
-245.990	681.278	-0.044	-0.113
-244.976	104.002	-0.075	-0.087
-243.961	703.380	-0.060	0.155
-242.946	409.192	0.066	0.136
-241.932	-2.655	0.320	-0.220
-240.917	196.427	0.036	0.053
-239.903	-116.217	-0.379	0.069
-238.888	-27.458	0.191	-0.109
-237.873	-128.956	0.147	0.020
-236.859	-200.000	-0.048	0.211
-235.844	605.749	0.056	0.138
-234.830	127.019	-0.113	0.141
-233.815	-86.401	-0.081	-0.025
-232.800	-200.000	0.006	0.105
-231.786	-200.000	0.009	-0.123
-230.771	-117.819	0.193	-0.034
-229.757	330.090	0.123	-0.232
-228.742	-54.922	-0.265	0.117
-227.727	800.000	0.084	-0.343
-226.713	87.841	0.062	0.068
-225.698	-137.378	-0.225	-0.025
-224.684	195.427	0.087	-0.130
-223.669	-200.000	0.039	0.738
-222.655	-110.310	-0.366	0.075
-221.640	490.196	-0.012	0.027
-220.625	-200.000	0.017	0.136
-219.611	800.000	0.012	-0.035
-218.596	152.713	0.241	-0.323
-217.582	-32.564	-0.179	-0.098
-216.567	356.411	-0.097	0.190
-215.552	-127.768	-0.213	0.030
-214.538	233.438	0.277	-0.446
-213.523	-37.339	0.450	-0.236
-212.509	104.142	0.190	-0.219
-211.494	198.500	-0.072	-0.109
-210.479	800.000	0.072	0.221
-209.465	229.222	0.150	0.240
-208.450	-200.000	-0.063	0.324
-207.436	-200.000	0.002	0.093
-206.421	166.522	0.286	0.398
-205.406	19.132	0.030	0.024
-204.392	105.701	-0.189	-0.219
-203.377	23.893	-0.184	0.149
-202.363	334.252	-0.306	-0.582
-201.348	176.054	0.107	-0.152
-200.333	800.000	-0.169	0.565
-199.319	-104.849	-0.217	0.049
-198.304	-0.005	0.219	0.153
-197.290	333.451	-0.061	-0.116
-196.275	-10.426	0.259	-0.168
-195.260	157.509	-0.042	0.057
-194.246	153.858	-0.152	-0.205
-193.231	-56.158	0.149	0.065
-192.217	-131.278	0.085	-0.011
-191.202	-157.206	-0.181	0.011
-190.187	800.000	0.098	-0.268
-189.173	-29.272	0.198	0.111
-188.158	310.360	0.138	0.253
-187.144	-200.000	-0.027	0.161
-186.129	311.751	-0.083	0.153
-185.114	-6.634	0.181	-0.121
-184.100	48.440	0.240	-0.220
-183.085	-128.887	0.149	0.021
-182.071	147.414	0.034	-0.045
-181.056	-5.301	0.064	-0.043
-180.042	-24.956	0.131	0.076
-179.027	-91.213	-0.056	-0.016
-178.012	-143.086	0.148	-0.014
-176.998	-200.000	-0.025	0.373
-175.983	-51.678	0.216	0.099
-174.969	-72.657	-0.109	0.039
-173.954	800.000	0.030	-0.089
-172.939	-200.000	0.008	0.193
-171.925	-44.277	0.103	0.050
-170.910	-103.991	0.278	-0.064
-169.896	326.180	0.114	-0.213
-168.881	39.266	-0.126	0.111
-167.866	156.685	-0.099	-0.134
-166.852	-14.320	0.179	0.113
-165.837	-84.333	-0.155	-0.048
-164.823	-131.234	0.382	-0.050
-163.808	-149.165	-0.124	0.010
-162.793	11.059	-0.186	-0.139
-161.779	-28.987	-0.234	0.132
-160.764	800.000	0.073	0.253
-159.750	8.011	-0.154	0.113
-158.735	-64.726	0.090	0.036
-157.720	-27.604	0.266	0.151
-156.706	4.432	-0.119	-0.086
-155.691	533.503	-0.177	0.411
-154.677	-200.000	0.029	0.297
-153.662	-83.266	-0.092	0.029
-152.647	40.082	-0.187	-0.165
-151.633	619.249	0.057	0.140
-150.618	661.886	0.071	0.180
-149.604	-65.656	0.206	0.081
-148.589	693.416	0.070	0.180
-147.574	800.000	0.063	0.233
-146.560	800.000	-0.094	-0.313
-145.545	-61.512	0.421	-0.173
-144.531	337.939	0.171	0.325
-143.516	70.808	-0.178	0.180
-142.502	160.515	-0.138	-0.189
-141.487	-200.000	0.033	-0.181
-140.472	-200.000	-0.021	0.157
-139.458	-168.823	-0.288	0.011
-138.443	53.045	-0.260	-0.244
-137.429	81.433	0.108	0.114
-136.414	-39.089	0.268	0.138
-135.399	-121.421	0.280	-0.046
-134.385	-200.000	0.044	-0.376
-133.370	-95.398	0.237	0.062
-132.356	-64.383	-0.323	0.129
-131.341	306.963	0.031	0.056
-130.326	-14.352	-0.285	0.180
-129.312	591.841	0.044	-0.106
-128.297	-91.714	0.133	0.037
-127.283	800.000	0.032	0.100
-126.268	107.538	0.128	-0.148
-125.253	102.703	-0.151	-0.172
-124.239	33.464	-0.093	-0.079
-123.224	28.457	0.227	0.187
-122.210	800.000	-0.095	0.279
-121.195	-62.629	0.372	0.151
