DTS Sentinel unit serial number:	SN413079Multiplexer serial number:	ORYXHardware model number:	OX4-SRSoftware version number:	ORYX F/W v4.00 Oryx Data Collector v3.7.2.0data status	okinstallation	princeton_trtdifferential loss correction	single-endedforward channel	channel 3reverse channel	N/Adate	2019/09/11time	04:10:11forward acquisition time	60.00reverse acquisition time	0.00gamma	496.2192k internal	0.2330k external	0.2330temperature offset calibration	0.9907default loss term (dB/km)	0.3790temperature slope calibration	1.0000multiplexer offset coefficient	1.0000multiplexer slope coefficient	1.0000fibre end	0.00T internal ref (°C)	29.56T ext. ref 1 (°C)	-0.31T ext. ref 2 (°C)	23.45length (m)	temperature (°C)	Stokes	anti-Stokes-747.200	-93.840	-0.190	0.053
-746.185	62.710	-0.303	0.305
-745.171	118.634	0.330	0.410
-744.156	181.075	0.022	0.032
-743.142	202.384	0.185	-0.288
-742.127	800.000	-0.042	-0.130
-741.112	84.309	-0.169	-0.186
-740.098	5.217	-0.257	0.191
-739.083	468.193	0.105	0.236
-738.069	-133.083	-0.186	0.024
-737.054	-38.713	-0.283	-0.150
-736.039	97.516	0.138	-0.159
-735.025	-200.000	0.005	0.057
-734.010	-23.894	-0.172	0.103
-732.996	-200.000	0.010	-0.083
-731.981	34.743	-0.153	-0.134
-730.966	-13.755	-0.410	-0.267
-729.952	25.606	0.046	0.039
-728.937	800.000	0.049	0.136
-727.923	-49.433	0.072	-0.034
-726.908	40.067	0.187	-0.169
-725.894	-200.000	-0.000	-0.257
-724.879	-200.000	-0.015	-0.175
-723.864	700.472	0.155	-0.410
-722.850	-200.000	-0.042	-0.404
-721.835	26.883	-0.277	0.234
-720.821	-78.593	0.195	-0.067
-719.806	-119.814	-0.242	-0.042
-718.791	48.526	-0.067	-0.063
-717.777	216.938	-0.105	-0.168
-716.762	159.751	-0.106	-0.149
-715.748	800.000	0.066	0.216
-714.733	15.146	-0.111	-0.088
-713.718	-82.120	-0.243	-0.080
-712.704	-63.029	-0.153	0.064
-711.689	26.102	-0.385	0.323
-710.675	-44.147	0.361	0.182
-709.660	-90.922	0.516	-0.149
-708.645	349.032	-0.076	0.152
-707.631	18.133	0.163	0.130
-706.616	-200.000	0.005	-0.349
-705.602	800.000	-0.020	-0.078
-704.587	129.272	-0.114	0.146
-703.572	-125.563	0.282	0.043
-702.558	800.000	0.067	-0.245
-701.543	-153.461	0.270	0.019
-700.529	473.572	0.097	0.220
-699.514	-78.563	-0.233	0.080
-698.499	-5.211	-0.112	0.077
-697.485	-200.000	-0.060	-0.435
-696.470	81.962	-0.103	-0.113
-695.456	-144.992	-0.413	-0.038
-694.441	800.000	-0.060	-0.178
-693.426	121.088	0.277	0.346
-692.412	-49.016	-0.334	-0.160
-691.397	-200.000	0.042	-0.231
-690.383	-141.862	-0.146	-0.015
-689.368	-90.530	-0.109	-0.032
-688.354	770.198	-0.093	0.254
-687.339	-26.618	-0.200	-0.118
-686.324	59.081	-0.411	-0.406
-685.310	4.223	0.140	-0.103
-684.295	-96.635	-0.054	0.014
-683.281	800.000	-0.022	0.098
-682.266	-200.000	-0.016	0.332
-681.251	16.096	-0.135	0.106
-680.237	-200.000	-0.041	-0.327
-679.222	800.000	-0.042	-0.153
-678.208	-131.249	-0.134	0.018
-677.193	65.802	0.219	-0.223
-676.178	198.550	-0.255	-0.392
-675.164	78.199	0.016	0.017
-674.149	451.227	0.101	0.224
-673.135	-153.949	0.191	-0.013
-672.120	800.000	-0.060	-0.173
-671.105	-57.060	0.188	0.083
-670.091	-92.134	-0.449	-0.127
-669.076	-38.096	-0.260	0.139
-668.062	-54.645	0.209	-0.095
-667.047	260.139	0.066	-0.115
-666.032	800.000	0.071	-0.225
-665.018	-113.551	-0.189	-0.037
-664.003	-55.113	0.170	-0.077
-662.989	-58.278	-0.381	-0.167
-661.974	-200.000	-0.034	0.338
-660.959	37.925	0.187	0.167
-659.945	-144.772	0.373	-0.034
-658.930	-97.162	0.140	-0.037
-657.916	800.000	0.087	0.365
-656.901	-200.000	0.010	0.123
-655.886	800.000	0.063	-0.203
-654.872	-84.723	0.341	-0.108
-653.857	-109.107	0.440	0.094
-652.843	-91.157	0.086	0.025
-651.828	76.751	-0.202	-0.215
-650.814	166.478	-0.132	0.187
-649.799	-2.098	0.223	0.157
-648.784	-0.954	0.075	0.054
-647.770	142.402	0.059	0.079
-646.755	-22.445	0.316	0.192
-645.741	-2.326	0.201	-0.141
-644.726	-193.195	0.096	0.001
-643.711	-81.040	-0.315	0.105
-642.697	-200.000	-0.015	0.238
-641.682	799.372	-0.047	-0.129
-640.668	11.073	0.062	-0.047
-639.653	-200.000	-0.040	-0.198
-638.638	367.216	-0.080	0.162
-637.624	306.195	-0.090	-0.167
-636.609	-73.811	-0.356	-0.130
-635.595	-151.017	-0.326	-0.025
-634.580	129.861	0.227	-0.291
-633.565	800.000	-0.089	-0.348
-632.551	2.829	-0.295	0.215
-631.536	-200.000	-0.025	-0.171
-630.522	-144.737	0.107	-0.010
-629.507	-200.000	-0.044	-0.230
-628.492	196.757	0.103	-0.157
-627.478	-200.000	-0.023	0.146
-626.463	-123.487	0.143	-0.023
-625.449	408.567	-0.023	-0.049
-624.434	-96.584	0.213	0.056
-623.419	-1.674	0.109	0.077
-622.405	-44.689	0.095	0.048
-621.390	726.352	-0.079	-0.212
-620.376	-7.600	-0.224	-0.152
-619.361	800.000	-0.056	-0.234
-618.346	54.621	-0.059	-0.057
-617.332	-132.178	0.146	0.019
-616.317	91.334	-0.176	-0.198
-615.303	75.605	0.090	-0.095
-614.288	-200.000	0.022	0.134
-613.273	43.176	-0.089	-0.081
-612.259	169.077	-0.044	0.063
-611.244	-83.148	0.171	0.055
-610.230	-47.750	0.259	0.126
-609.215	169.897	-0.058	0.083
-608.201	-87.597	-0.306	-0.092
-607.186	-144.834	0.343	0.031
-606.171	-200.000	0.035	-0.282
-605.157	-200.000	-0.029	0.181
-604.142	764.738	-0.132	-0.359
-603.128	0.952	0.107	0.077
-602.113	-101.345	-0.179	0.044
-601.098	-174.997	-0.217	-0.006
-600.084	-78.132	-0.332	0.114
-599.069	186.700	0.105	-0.156
-598.055	-200.000	-0.008	-0.226
-597.040	-200.000	-0.046	-0.277
-596.025	800.000	0.072	-0.225
-595.011	267.428	-0.072	0.125
-593.996	-91.189	0.166	0.048
-592.982	-64.723	0.036	0.015
-591.967	-138.031	-0.172	-0.019
-590.952	-171.176	-0.057	-0.002
-589.938	-200.000	0.013	-0.148
-588.923	-200.000	-0.011	-0.384
-587.909	-200.000	0.034	-0.366
-586.894	83.535	-0.142	-0.155
-585.879	-200.000	-0.016	0.102
-584.865	286.438	-0.139	0.250
-583.850	-98.802	-0.124	-0.031
-582.836	800.000	-0.036	0.117
-581.821	-200.000	0.022	-0.259
-580.806	-87.831	0.184	0.055
-579.792	-200.000	-0.039	0.319
-578.777	-54.085	-0.379	0.172
-577.763	520.021	0.173	-0.406
-576.748	293.776	0.118	0.215
-575.733	-34.032	-0.174	0.096
-574.719	-12.149	-0.195	-0.128
-573.704	38.803	0.289	0.258
-572.690	-200.000	-0.033	0.194
-571.675	357.164	-0.073	0.146
-570.661	-87.522	-0.041	-0.012
-569.646	800.000	0.029	-0.098
-568.631	-13.763	-0.056	-0.036
-567.617	-62.994	0.280	-0.116
-566.602	-85.386	0.134	0.042
-565.588	800.000	0.065	-0.242
-564.573	-42.920	0.019	-0.010
-563.558	311.182	-0.051	-0.096
-562.544	526.718	0.055	-0.130
-561.529	27.816	0.136	-0.115
-560.515	680.342	-0.100	-0.260
-559.500	182.073	0.255	0.375
-558.485	800.000	0.082	-0.260
-557.471	-140.667	0.053	-0.006
-556.456	800.000	-0.102	-0.351
-555.442	-151.621	-0.218	-0.016
-554.427	279.479	-0.165	-0.294
-553.412	-85.800	0.328	-0.102
-552.398	-43.589	0.059	0.030
-551.383	58.620	-0.178	-0.174
-550.369	99.981	-0.021	0.024
-549.354	-137.833	-0.285	0.032
-548.339	80.762	-0.282	0.304
-547.325	-57.798	0.154	-0.067
-546.310	336.960	0.190	-0.369
-545.296	-56.903	-0.137	-0.060
-544.281	344.046	0.071	0.139
-543.266	5.030	-0.125	-0.092
-542.252	-51.573	-0.221	0.103
-541.237	77.573	0.031	-0.033
-540.223	226.018	0.231	-0.374
-539.208	51.960	0.163	-0.155
-538.193	207.027	-0.081	-0.127
-537.179	800.000	-0.082	0.243
-536.164	-200.000	0.047	0.282
-535.150	117.715	0.069	-0.085
-534.135	-67.345	0.299	0.117
-533.121	800.000	-0.032	0.091
-532.106	-174.734	0.063	0.002
-531.091	614.030	-0.035	-0.089
-530.077	-87.482	-0.281	-0.085
-529.062	-114.712	0.399	-0.076
-528.048	-200.000	-0.005	0.255
-527.033	519.315	0.128	0.299
-526.018	-200.000	-0.053	-0.290
-525.004	-59.411	0.304	0.130
-523.989	-100.206	-0.476	0.118
-522.975	280.305	0.238	0.425
-521.960	-64.552	0.272	-0.110
-520.945	198.583	-0.141	-0.215
-519.931	-200.000	0.008	0.206
-518.916	-111.110	-0.388	-0.079
-517.902	18.138	0.176	0.140
-516.887	800.000	-0.069	0.264
-515.872	-69.896	-0.050	-0.019
-514.858	99.102	-0.216	-0.249
-513.843	-146.359	-0.213	0.019
-512.829	-115.165	-0.195	0.037
-511.814	-200.000	-0.002	-0.142
-510.799	-86.896	0.259	-0.079
-509.785	128.197	-0.234	-0.298
-508.770	-151.902	-0.278	0.020
-507.756	-155.807	-0.184	-0.012
-506.741	379.076	-0.042	0.086
-505.726	-67.977	-0.128	-0.050
-504.712	7.129	-0.078	0.058
-503.697	-200.000	-0.374	-0.000
-502.683	-84.951	0.134	-0.042
-501.668	-200.000	0.009	0.100
-500.653	800.000	0.077	0.258
-499.639	133.139	-0.165	-0.213
-498.624	-110.987	-0.039	-0.008
-497.610	800.000	0.074	-0.225
-496.595	162.431	0.058	0.080
-495.581	-95.598	-0.290	0.077
-494.566	-112.136	0.307	-0.062
-493.551	705.471	-0.035	-0.091
-492.537	9.338	0.106	-0.080
-491.522	-93.210	0.239	-0.066
-490.508	800.000	0.111	-0.385
-489.493	128.254	0.215	-0.272
-488.478	-78.082	-0.222	-0.076
-487.464	425.981	0.067	-0.145
-486.449	-200.000	0.015	-0.138
-485.435	-133.207	-0.139	-0.017
-484.420	336.048	-0.131	-0.253
-483.405	22.471	0.335	0.273
-482.391	-85.312	0.462	-0.144
-481.376	-108.680	-0.298	-0.064
-480.362	-14.220	-0.093	0.059
-479.347	47.935	-0.375	0.349
-478.332	-78.562	0.435	0.148
-477.318	-35.985	-0.187	-0.101
-476.303	87.125	-0.158	0.174
-475.289	-137.843	0.168	0.019
-474.274	-169.196	-0.325	0.012
-473.259	-145.810	0.159	0.014
-472.245	800.000	0.131	0.486
-471.230	-200.000	0.018	0.118
-470.216	-200.000	0.003	0.172
-469.201	693.588	0.116	0.304
-468.186	-200.000	0.046	0.412
-467.172	-95.846	-0.216	0.057
-466.157	313.748	-0.273	0.512
-465.143	-11.254	-0.191	0.125
-464.128	-131.041	0.149	-0.020
-463.113	800.000	-0.040	0.128
-462.099	-88.318	-0.274	0.082
-461.084	-200.000	0.072	-0.334
-460.070	-71.573	0.307	-0.114
-459.055	800.000	0.071	-0.274
-458.040	-33.530	0.144	0.079
-457.026	-200.000	-0.002	0.171
-456.011	-123.085	0.211	0.034
-454.997	4.456	0.175	0.128
-453.982	3.735	-0.199	0.145
-452.968	72.435	-0.264	-0.274
-451.953	-200.000	0.011	0.139
-450.938	474.654	-0.033	0.074
-449.924	-200.000	-0.064	0.282
-448.909	663.552	0.080	-0.205
-447.895	-65.014	0.047	-0.019
-446.880	-69.570	0.389	0.148
-445.865	-49.837	-0.052	0.025
-444.851	-69.519	-0.424	-0.162
-443.836	-200.000	-0.020	0.279
-442.822	27.291	0.088	-0.073
-441.807	-200.000	0.015	-0.191
-440.792	177.265	-0.074	-0.108
-439.778	-10.405	-0.113	0.074
-438.763	-103.762	0.202	-0.047
-437.749	-100.851	-0.145	0.036
-436.734	-151.234	-0.355	0.026
-435.719	-200.000	-0.013	-0.232
-434.705	164.733	0.147	-0.206
-433.690	-29.936	0.154	-0.087
-432.676	-7.759	-0.145	0.097
-431.661	56.455	0.161	-0.156
-430.646	800.000	-0.100	0.276
-429.632	-200.000	0.021	-0.170
-428.617	306.981	0.149	0.277
-427.603	66.507	-0.155	-0.157
-426.588	800.000	0.071	-0.304
-425.573	-200.000	-0.005	-0.040
-424.559	21.148	-0.094	-0.076
-423.544	-54.433	0.228	0.103
-422.530	-81.929	-0.168	0.055
-421.515	800.000	-0.074	0.215
-420.500	-101.056	-0.209	0.051
-419.486	32.818	-0.377	0.325
-418.471	67.774	0.102	-0.104
-417.457	800.000	-0.121	0.479
-416.442	-200.000	0.077	0.622
-415.428	-75.468	-0.382	0.135
-414.413	-77.522	0.234	0.081
-413.398	32.646	0.152	0.131
-412.384	-123.358	0.117	0.019
-411.369	-116.068	0.037	-0.007
-410.355	-164.973	-0.061	0.003
-409.340	-39.056	-0.253	0.132
-408.325	-87.959	0.337	0.101
-407.311	282.176	0.136	-0.242
-406.296	-130.782	0.361	-0.048
-405.282	122.279	0.128	-0.159
-404.267	586.929	0.127	-0.310
-403.252	141.175	-0.290	-0.381
-402.238	-76.820	0.148	-0.052
-401.223	-69.838	-0.363	0.138
-400.209	800.000	0.098	0.359
-399.194	-200.000	0.057	0.330
-398.179	-145.278	0.183	0.016
-397.165	46.671	0.177	-0.163
-396.150	111.138	-0.082	-0.098
-395.136	-98.234	0.169	0.043
-394.121	-109.421	0.258	0.054
-393.106	150.303	-0.082	-0.111
-392.092	102.841	0.286	0.332
-391.077	-105.456	-0.350	0.079
-390.063	-200.000	0.061	-0.356
-389.048	-200.000	0.010	0.139
-388.033	146.890	0.118	0.157
-387.019	-200.000	-0.008	0.206
-386.004	-43.022	-0.162	-0.082
-384.990	564.257	-0.138	-0.332
-383.975	-91.087	0.085	0.024
-382.960	181.413	0.066	-0.097
-381.946	800.000	0.034	0.142
-380.931	-1.959	-0.218	0.152
-379.917	-37.130	0.409	0.217
-378.902	-56.449	0.305	-0.134
-377.888	227.166	-0.165	-0.267
-376.873	81.211	-0.292	-0.313
-375.858	695.416	-0.036	-0.094
-374.844	295.166	0.088	-0.159
-373.829	272.914	-0.073	0.128
-372.815	306.832	0.041	0.075
-371.800	800.000	-0.082	0.321
-370.785	124.851	-0.179	0.223
-369.771	-116.050	0.448	-0.083
-368.756	36.032	-0.228	-0.199
-367.742	-190.681	-0.307	-0.003
-366.727	139.355	-0.015	-0.020
-365.712	118.084	-0.229	0.280
-364.698	-18.192	-0.121	0.075
-363.683	-87.828	0.042	0.013
-362.669	1.425	-0.222	-0.158
-361.654	-38.044	-0.023	0.012
-360.639	217.569	-0.153	0.242
-359.625	181.016	0.188	0.274
-358.610	-200.000	-0.007	0.127
-357.596	95.060	0.354	-0.400
-356.581	10.811	0.287	-0.217
-355.566	-87.615	0.355	-0.106
-354.552	474.672	0.111	-0.247
-353.537	-186.056	-0.306	0.004
-352.523	-168.274	-0.049	0.002
-351.508	-146.032	0.466	0.041
-350.493	-200.000	0.000	-0.002
-349.479	800.000	-0.073	0.265
-348.464	-2.465	0.058	0.041
-347.450	-79.591	0.182	0.061
-346.435	62.265	-0.180	0.179
-345.420	304.647	-0.210	0.387
-344.406	-200.000	0.047	-0.250
-343.391	197.841	-0.096	-0.146
-342.377	85.064	-0.261	0.284
-341.362	-58.884	0.228	0.098
-340.348	31.394	0.415	-0.353
-339.333	49.492	-0.078	-0.072
-338.318	-93.961	-0.227	-0.062
-337.304	571.029	0.137	0.329
-336.289	-82.793	0.225	-0.072
-335.275	-200.000	0.045	-0.294
-334.260	219.085	0.358	-0.567
-333.245	114.799	-0.051	-0.062
-332.231	234.667	0.197	0.323
-331.216	757.644	0.068	0.182
-330.202	18.614	0.173	0.137
-329.187	322.114	-0.094	0.177
-328.172	-108.686	-0.158	0.033
-327.158	57.882	-0.368	-0.357
-326.143	-94.164	0.127	-0.034
-325.129	-54.826	-0.315	-0.141
-324.114	-115.214	0.080	-0.015
-323.099	-16.893	0.148	0.093
-322.085	-130.347	-0.097	-0.013
-321.070	264.289	-0.112	-0.193
-320.056	213.844	-0.129	0.202
-319.041	132.562	-0.121	0.155
-318.026	261.314	0.148	0.253
-317.012	226.919	0.120	0.193
-315.997	61.866	-0.277	-0.274
-314.983	-17.355	0.206	0.129
-313.968	-200.000	-0.035	-0.256
-312.953	-67.998	-0.276	-0.106
-311.939	88.665	-0.239	0.263
-310.924	51.981	0.077	0.073
-309.910	-64.626	0.235	-0.095
-308.895	469.386	0.113	0.252
-307.880	-147.546	-0.343	0.029
-306.866	-200.000	0.035	-0.184
-305.851	-73.767	0.267	-0.096
-304.837	-94.174	0.155	-0.042
-303.822	7.808	0.165	0.123
-302.807	-200.000	0.021	0.170
-301.793	142.547	-0.211	0.277
-300.778	63.090	-0.086	-0.086
-299.764	37.016	0.140	0.122
-298.749	-5.289	0.276	-0.188
-297.735	-200.000	0.037	0.184
-296.720	-91.018	-0.392	-0.112
-295.705	800.000	0.031	-0.089
-294.691	104.179	-0.232	0.270
-293.676	-167.889	-0.247	0.010
-292.662	-40.677	0.186	-0.096
-291.647	56.663	0.295	0.284
-290.632	-77.365	0.090	-0.031
-289.618	26.736	0.298	0.247
-288.603	-200.000	-0.022	0.281
-287.589	164.259	-0.116	0.161
-286.574	-200.000	-0.010	0.155
-285.559	-110.981	0.300	-0.061
-284.545	-84.865	0.101	0.031
-283.530	-90.509	0.131	-0.037
-282.516	136.506	0.051	0.065
-281.501	-73.791	0.107	-0.038
-280.486	109.601	0.039	-0.046
-279.472	-72.607	0.061	-0.022
-278.457	-144.491	0.235	-0.021
-277.443	0.981	-0.172	0.122
-276.428	-173.716	0.327	-0.010
-275.413	800.000	-0.076	-0.312
-274.399	220.788	0.024	-0.039
-273.384	-200.000	-0.033	0.153
-272.370	-128.755	-0.099	0.014
-271.355	-76.839	-0.364	0.126
-270.340	42.686	0.106	0.096
-269.326	-58.733	0.114	0.049
-268.311	-126.914	0.101	-0.015
-267.297	270.329	0.107	-0.186
-266.282	-200.000	0.017	0.269
-265.267	122.202	-0.073	-0.089
-264.253	306.139	0.014	0.026
-263.238	-97.731	-0.258	-0.066
-262.224	0.875	-0.298	0.211
-261.209	-42.098	0.225	-0.114
-260.195	16.231	0.307	0.240
-259.180	-200.000	-0.024	0.156
-258.165	800.000	0.063	-0.262
-257.151	-200.000	-0.002	0.172
-256.136	-14.888	-0.307	-0.195
-255.122	-200.000	-0.043	-0.272
-254.107	64.522	0.163	-0.162
-253.092	-200.000	-0.013	0.091
-252.078	-200.000	0.068	0.451
-251.063	-200.000	0.024	0.109
-250.049	-60.165	-0.182	0.077
-249.034	202.010	-0.183	-0.279
-248.019	88.692	0.047	0.052
-247.005	-200.000	0.027	0.148
-245.990	-172.986	-0.166	0.005
-244.976	-39.914	-0.095	0.049
-243.961	800.000	0.042	0.153
-242.946	162.527	0.197	-0.273
-241.932	4.794	0.259	-0.188
-240.917	-25.805	0.063	0.037
-239.903	677.419	-0.117	0.301
-238.888	800.000	-0.032	-0.127
-237.873	369.666	-0.032	-0.063
-236.859	-99.972	-0.150	0.037
-235.844	89.432	-0.238	0.262
-234.830	351.014	-0.153	0.300
-233.815	491.445	0.122	-0.276
-232.800	14.692	-0.340	0.262
-231.786	-157.448	0.340	0.020
-230.771	89.778	0.226	-0.249
-229.757	-15.543	0.102	-0.064
-228.742	447.911	0.042	0.091
-227.727	317.431	0.175	0.327
-226.713	292.258	0.218	-0.392
-225.698	-53.481	-0.191	0.086
-224.684	-200.000	0.011	0.070
-223.669	-62.567	-0.397	-0.163
-222.655	14.907	-0.189	0.146
-221.640	-49.744	-0.138	0.065
-220.625	193.570	0.039	-0.058
-219.611	-5.808	0.204	-0.138
-218.596	770.945	-0.045	0.122
-217.582	-12.266	-0.260	0.168
-216.567	-23.535	0.244	0.144
-215.552	-73.598	0.227	-0.082
-214.538	560.402	-0.157	-0.374
-213.523	21.866	0.188	-0.151
-212.509	800.000	-0.125	-0.345
-211.494	-179.113	0.404	0.009
-210.479	-44.411	-0.211	-0.104
-209.465	800.000	0.086	-0.248
-208.450	-8.581	0.403	-0.267
-207.436	29.532	0.122	-0.102
-206.421	-84.147	0.266	0.083
-205.406	-80.100	-0.245	-0.081
-204.392	317.848	-0.180	0.337
-203.377	148.486	-0.121	0.162
-202.363	66.158	-0.119	-0.119
-201.348	456.763	-0.087	-0.191
-200.333	-1.362	-0.211	0.146
-199.319	-82.330	0.222	-0.071
-198.304	-69.870	-0.203	-0.076
-197.290	545.275	-0.091	0.214
-196.275	-35.297	0.206	-0.111
-195.260	177.612	-0.216	-0.310
-194.246	-13.070	-0.229	0.146
-193.231	527.021	0.017	0.040
-192.217	8.735	0.252	0.187
-191.202	-176.753	0.094	-0.002
-190.187	8.641	0.186	-0.138
-189.173	-63.180	-0.264	-0.107
-188.158	-200.000	-0.016	0.111
-187.144	-200.000	0.034	0.186
-186.129	468.483	0.137	-0.304
-185.114	713.108	-0.060	-0.156
-184.100	800.000	0.075	-0.229
-183.085	-132.243	-0.225	0.029
-182.071	464.867	-0.070	-0.154
-181.056	37.402	-0.077	0.067
-180.042	-200.000	0.001	-0.033
-179.027	-180.408	-0.066	0.001
-178.012	-84.443	0.160	0.050
-176.998	-97.990	-0.226	-0.057
-175.983	577.834	-0.068	0.165
-174.969	-115.567	-0.311	0.058
-173.954	-38.132	0.244	-0.128
-172.939	358.300	-0.062	-0.122
-171.925	23.026	0.141	0.114
-170.910	179.948	0.172	0.248
-169.896	-45.139	-0.261	0.128
-168.881	455.170	-0.164	-0.358
-167.866	-50.535	-0.247	0.115
-166.852	299.920	-0.162	-0.293
-165.837	-200.000	0.000	-0.198
-164.823	572.518	0.067	0.161
-163.808	67.313	0.341	-0.342
-162.793	237.268	0.286	0.467
-161.779	-200.000	-0.002	-0.076
-160.764	-101.031	0.105	0.025
-159.750	-158.345	0.226	-0.013
-158.735	278.911	0.125	-0.220
-157.720	-200.000	-0.011	0.126
-156.706	800.000	0.023	0.078
-155.691	-126.909	-0.137	-0.020
-154.677	657.279	0.053	0.135
-153.662	800.000	-0.014	0.042
-152.647	-24.873	-0.158	-0.093
-151.633	-200.000	0.002	0.214
-150.618	-200.000	-0.026	0.290
-149.604	321.855	0.060	0.112
-148.589	-93.463	-0.081	-0.022
-147.574	-130.364	0.320	0.043
-146.560	306.295	0.057	-0.104
-145.545	-141.952	-0.154	0.015
-144.531	-48.387	0.186	0.088
-143.516	4.909	0.374	-0.271
-142.502	35.548	0.180	0.155
-141.487	100.377	-0.039	-0.045
-140.472	418.370	0.191	0.401
-139.458	144.860	-0.165	0.217
-138.443	-94.925	0.406	0.108
-137.429	-120.399	0.300	0.050
-136.414	-200.000	-0.003	-0.113
-135.399	-129.778	0.351	-0.047
-134.385	-200.000	0.002	-0.057
-133.370	-95.633	-0.051	0.013
-132.356	-0.301	-0.069	-0.048
-131.341	37.357	-0.169	-0.147
-130.326	39.885	0.202	-0.178
-129.312	52.070	0.221	-0.207
-128.297	-73.941	0.296	-0.106
-127.283	-104.454	0.173	0.039
-126.268	90.265	0.171	0.188
-125.253	-200.000	-0.017	0.234
-124.239	-167.045	0.055	-0.002
-123.224	73.593	0.046	-0.048
-122.210	177.929	0.234	-0.336
-121.195	37.514	-0.251	0.218
-120.180	106.610	0.074	-0.086
