DTS Sentinel unit serial number:	SN413079Multiplexer serial number:	ORYXHardware model number:	OX4-SRSoftware version number:	ORYX F/W v4.00 Oryx Data Collector v3.7.2.0data status	okinstallation	princeton_trtdifferential loss correction	single-endedforward channel	channel 3reverse channel	N/Adate	2019/09/17time	23:44:35forward acquisition time	60.00reverse acquisition time	0.00gamma	496.2192k internal	0.2344k external	0.2344temperature offset calibration	0.9954default loss term (dB/km)	0.3790temperature slope calibration	1.0000multiplexer offset coefficient	1.0000multiplexer slope coefficient	1.0000fibre end	0.00T internal ref (°C)	24.06T ext. ref 1 (°C)	0.17T ext. ref 2 (°C)	17.45length (m)	temperature (°C)	Stokes	anti-Stokes-747.200	-26.549	0.125	0.074
-746.185	-200.000	-0.007	0.345
-745.171	800.000	0.038	0.113
-744.156	-32.743	-0.519	0.289
-743.142	-98.090	-0.134	0.035
-742.127	166.332	0.099	0.141
-741.112	800.000	0.018	-0.056
-740.098	-122.990	0.217	0.035
-739.083	-113.732	0.053	-0.010
-738.069	-200.000	-0.062	0.285
-737.054	-36.493	0.236	-0.127
-736.039	-198.989	-0.285	0.002
-735.025	116.609	0.170	0.209
-734.010	90.305	-0.115	-0.129
-732.996	57.738	-0.420	-0.411
-731.981	-89.188	0.196	0.058
-730.966	-18.636	-0.259	0.162
-729.952	-200.000	0.019	-0.302
-728.937	507.613	-0.160	0.372
-727.923	68.287	0.204	0.209
-726.908	-50.521	-0.241	-0.114
-725.894	800.000	0.047	0.198
-724.879	78.440	-0.126	0.134
-723.864	-61.395	-0.106	0.045
-722.850	-135.471	-0.331	-0.039
-721.835	91.091	0.170	-0.191
-720.821	387.698	-0.206	-0.427
-719.806	-200.000	-0.047	0.240
-718.791	-3.617	-0.174	-0.121
-717.777	-169.453	-0.185	-0.007
-716.762	71.707	-0.312	-0.324
-715.748	-104.419	-0.098	0.023
-714.733	-53.057	-0.168	0.077
-713.718	800.000	-0.064	0.269
-712.704	-200.000	0.000	-0.151
-711.689	304.957	-0.075	0.140
-710.675	-105.534	-0.174	-0.040
-709.660	800.000	-0.037	-0.146
-708.645	133.362	0.187	-0.241
-707.631	70.164	-0.066	0.068
-706.616	-127.376	-0.273	-0.040
-705.602	677.769	0.114	-0.295
-704.587	-162.674	0.256	-0.013
-703.572	-200.000	-0.071	-0.319
-702.558	330.985	-0.227	-0.438
-701.543	-63.113	-0.347	0.143
-700.529	800.000	0.020	0.072
-699.514	-200.000	0.044	-0.457
-698.499	-200.000	0.025	-0.118
-697.485	169.987	-0.084	-0.119
-696.470	-142.900	-0.368	0.036
-695.456	-200.000	-0.044	0.339
-694.441	-27.173	-0.199	-0.116
-693.426	800.000	0.022	-0.092
-692.412	326.835	0.079	-0.151
-691.397	-66.309	-0.317	0.126
-690.383	-155.616	0.193	-0.012
-689.368	800.000	-0.046	0.129
-688.354	209.664	0.056	0.088
-687.339	-28.269	0.145	-0.083
-686.324	-200.000	0.057	-0.364
-685.310	156.225	0.066	0.090
-684.295	-14.141	-0.131	0.084
-683.281	-22.763	-0.097	0.059
-682.266	91.045	-0.199	0.223
-681.251	-145.108	0.151	0.014
-680.237	103.019	0.105	0.122
-679.222	-200.000	-0.070	0.438
-678.208	-108.217	0.225	0.049
-677.193	650.137	0.111	-0.284
-676.178	-200.000	-0.004	-0.129
-675.164	-200.000	0.024	-0.256
-674.149	-20.870	-0.057	0.035
-673.135	388.106	-0.087	-0.180
-672.120	-23.610	0.070	-0.042
-671.105	283.596	0.055	0.098
-670.091	-80.004	0.231	0.077
-669.076	-200.000	0.045	0.203
-668.062	-62.543	-0.344	-0.143
-667.047	-200.000	0.011	-0.145
-666.032	-111.300	-0.304	-0.062
-665.018	800.000	0.036	0.151
-664.003	-146.821	0.120	0.010
-662.989	-55.635	0.105	-0.047
-661.974	388.662	0.085	-0.174
-660.959	800.000	0.091	0.274
-659.945	97.806	-0.293	-0.337
-658.930	-113.543	-0.304	0.059
-657.916	104.274	-0.206	-0.242
-656.901	-19.998	0.261	-0.160
-655.886	-101.901	-0.396	-0.095
-654.872	409.750	0.095	-0.200
-653.857	800.000	-0.109	-0.311
-652.843	71.582	0.235	0.244
-651.828	-79.808	0.210	0.070
-650.814	114.247	0.322	0.391
-649.799	-200.000	-0.042	0.294
-648.784	-200.000	0.009	0.112
-647.770	-23.126	-0.216	0.130
-646.755	-200.000	-0.098	0.000
-645.741	89.143	0.356	-0.395
-644.726	-111.529	0.367	0.074
-643.711	544.756	-0.039	-0.094
-642.697	-103.149	0.212	0.050
-641.682	286.067	-0.147	-0.265
-640.668	326.183	0.040	0.077
-639.653	-93.692	-0.028	-0.008
-638.638	800.000	-0.059	0.184
-637.624	-106.551	0.043	-0.010
-636.609	-16.762	-0.080	-0.051
-635.595	-200.000	0.002	0.403
-634.580	-138.058	-0.159	-0.018
-633.565	105.955	0.058	0.069
-632.551	36.368	-0.085	-0.075
-631.536	-38.428	-0.280	-0.147
-630.522	-47.612	0.027	0.013
-629.507	-200.000	-0.047	0.284
-628.492	82.679	0.052	0.056
-627.478	-200.000	0.004	0.242
-626.463	-200.000	0.042	0.301
-625.449	167.123	0.100	0.141
-624.434	400.018	0.046	-0.095
-623.419	-200.000	0.035	0.169
-622.405	268.189	-0.067	0.117
-621.390	120.347	0.160	0.197
-620.376	-134.905	-0.251	-0.030
-619.361	-200.000	-0.006	-0.240
-618.346	-39.072	0.350	-0.184
-617.332	-200.000	0.004	0.314
-616.317	-92.798	0.070	-0.019
-615.303	-25.367	-0.187	-0.110
-614.288	-51.797	0.275	0.128
-613.273	-200.000	0.030	0.345
-612.259	247.737	-0.034	0.058
-611.244	121.125	0.184	0.228
-610.230	-85.110	0.238	0.074
-609.215	137.539	-0.051	0.067
-608.201	-102.666	-0.294	0.070
-607.186	-167.137	0.178	0.007
-606.171	-67.263	-0.072	0.028
-605.157	178.920	0.142	-0.206
-604.142	-112.526	0.073	0.014
-603.128	800.000	0.072	0.260
-602.113	-160.732	0.092	-0.005
-601.098	-200.000	0.129	-0.615
-600.084	-200.000	-0.003	-0.195
-599.069	-127.667	0.529	-0.076
-598.055	-120.245	0.194	0.033
-597.040	731.532	-0.061	0.163
-596.025	82.773	-0.081	0.087
-595.011	-47.764	0.114	-0.055
-593.996	-117.461	0.397	-0.071
-592.982	-78.498	0.186	0.063
-591.967	800.000	0.026	0.073
-590.952	-200.000	0.050	0.291
-589.938	-200.000	-0.025	0.110
-588.923	-101.793	0.199	-0.048
-587.909	-150.752	-0.262	-0.020
-586.894	44.920	-0.191	0.175
-585.879	134.096	0.070	-0.090
-584.865	-165.955	0.253	-0.011
-583.850	-18.298	-0.246	-0.153
-582.836	79.254	0.278	-0.296
-581.821	-168.775	0.354	0.013
-580.806	41.505	-0.244	-0.220
-579.792	166.984	-0.124	-0.175
-578.777	86.137	0.203	0.222
-577.763	-174.858	-0.257	0.007
-576.748	64.286	0.186	0.187
-575.733	122.995	-0.146	0.181
-574.719	183.875	0.080	-0.118
-573.704	800.000	0.074	0.253
-572.690	800.000	-0.033	0.094
-571.675	-24.540	0.161	-0.095
-570.661	-46.501	0.195	-0.095
-569.646	-159.475	0.200	0.011
-568.631	-200.000	-0.016	0.167
-567.617	800.000	-0.064	-0.267
-566.602	-131.567	0.195	-0.025
-565.588	725.446	-0.015	-0.041
-564.573	-0.668	-0.321	0.226
-563.558	-88.199	0.181	0.054
-562.544	-200.000	0.023	-0.141
-561.529	214.711	0.113	0.179
-560.515	-28.390	-0.231	-0.132
-559.500	-167.787	-0.320	0.013
-558.485	195.491	0.167	-0.252
-557.471	-200.000	0.128	-0.645
-556.456	-86.887	-0.392	-0.119
-555.442	-100.448	-0.180	0.044
-554.427	-158.009	-0.258	-0.015
-553.412	254.805	0.144	-0.245
-552.398	174.057	0.110	0.158
-551.383	146.760	-0.040	0.053
-550.369	280.596	0.086	-0.152
-549.354	800.000	-0.073	-0.234
-548.339	178.802	0.163	0.236
-547.325	88.893	0.090	-0.100
-546.310	104.744	-0.139	0.163
-545.296	-200.000	-0.012	0.182
-544.281	81.139	0.017	0.018
-543.266	156.128	0.108	-0.148
-542.252	-63.601	-0.154	-0.063
-541.237	61.214	-0.234	-0.231
-540.223	575.399	-0.083	-0.201
-539.208	-5.393	-0.101	0.069
-538.193	74.675	-0.176	-0.184
-537.179	95.489	0.164	-0.186
-536.164	-23.778	0.128	-0.076
-535.150	800.000	0.105	0.343
-534.135	-86.526	0.147	-0.045
-533.121	800.000	0.094	-0.378
-532.106	-200.000	-0.050	-0.437
-531.091	285.843	0.096	-0.172
-530.077	-11.340	0.190	-0.124
-529.062	15.096	-0.227	0.177
-528.048	-200.000	0.038	0.190
-527.033	-118.804	-0.164	0.029
-526.018	34.341	0.151	0.131
-525.004	-24.841	-0.080	-0.047
-523.989	-64.566	0.121	0.049
-522.975	-200.000	0.041	0.271
-521.960	3.666	-0.040	-0.029
-520.945	-200.000	0.050	0.285
-519.931	291.904	-0.213	-0.385
-518.916	-139.721	0.229	-0.024
-517.902	22.630	-0.074	0.060
-516.887	-175.631	0.169	0.005
-515.872	-129.936	0.453	-0.062
-514.858	800.000	-0.030	0.125
-513.843	-200.000	0.036	-0.321
-512.829	-200.000	-0.008	0.162
-511.814	-82.545	-0.149	0.048
-510.799	-154.523	0.053	0.003
-509.785	37.257	0.050	-0.044
-508.770	98.633	-0.098	-0.113
-507.756	800.000	-0.059	-0.203
-506.741	-91.497	-0.094	-0.027
-505.726	-200.000	-0.008	0.115
-504.712	800.000	-0.043	-0.168
-503.697	-4.558	0.157	0.107
-502.683	-22.601	0.250	0.150
-501.668	61.134	-0.126	0.124
-500.653	-200.000	0.023	-0.330
-499.639	536.934	0.104	0.245
-498.624	217.125	-0.049	-0.077
-497.610	-200.000	-0.062	-0.398
-496.595	-200.000	-0.008	-0.074
-495.581	67.942	-0.169	-0.172
-494.566	-200.000	-0.005	-0.191
-493.551	35.019	0.066	-0.057
-492.537	-60.311	-0.182	-0.077
-491.522	32.905	0.261	0.224
-490.508	45.031	-0.109	0.099
-489.493	-75.790	0.061	-0.021
-488.478	-200.000	0.072	-0.457
-487.464	-104.268	-0.500	-0.115
-486.449	-200.000	0.013	0.071
-485.435	23.086	0.166	-0.135
-484.420	-200.000	0.045	-0.296
-483.405	-129.598	-0.425	0.058
-482.391	-113.578	0.266	-0.051
-481.376	-35.114	-0.154	-0.083
-480.362	-97.260	0.472	-0.122
-479.347	72.918	0.023	0.024
-478.332	127.703	-0.070	-0.088
-477.318	-9.052	-0.275	-0.182
-476.303	349.930	-0.100	0.195
-475.289	-200.000	0.077	-0.398
-474.274	-200.000	-0.035	0.354
-473.259	-126.160	0.049	0.007
-472.245	-0.228	-0.241	0.170
-471.230	-160.143	-0.446	0.024
-470.216	118.069	0.160	0.195
-469.201	-200.000	0.036	-0.181
-468.186	21.082	-0.071	-0.057
-467.172	-85.736	-0.174	0.054
-466.157	-200.000	0.016	0.124
-465.143	800.000	-0.108	0.367
-464.128	-1.155	0.113	-0.079
-463.113	220.068	-0.104	0.164
-462.099	-107.971	0.281	-0.060
-461.084	349.896	-0.157	0.307
-460.070	389.235	0.101	-0.207
-459.055	673.577	0.070	-0.181
-458.040	158.546	-0.233	-0.319
-457.026	307.449	-0.262	-0.483
-456.011	153.203	-0.049	0.066
-454.997	-139.782	-0.216	0.023
-453.982	176.543	-0.090	0.129
-452.968	800.000	-0.116	-0.455
-451.953	-153.152	0.179	-0.012
-450.938	-155.904	-0.289	-0.018
-449.924	137.475	0.187	0.242
-448.909	-81.222	0.116	0.038
-447.895	-79.187	-0.117	-0.039
-446.880	50.141	0.240	0.224
-445.865	24.450	0.189	0.154
-444.851	145.538	-0.142	0.189
-443.836	-101.001	0.180	-0.044
-442.822	800.000	0.059	-0.168
-441.807	-60.654	-0.396	-0.166
-440.792	102.864	0.123	-0.143
-439.778	-145.032	0.093	-0.008
-438.763	-200.000	-0.004	0.184
-437.749	-189.757	-0.244	-0.003
-436.734	-85.010	0.209	-0.065
-435.719	202.029	0.206	0.314
-434.705	-63.050	-0.323	0.132
-433.690	-116.011	-0.089	-0.016
-432.676	193.318	-0.141	0.210
-431.661	-102.360	0.182	-0.043
-430.646	375.968	0.072	-0.144
-429.632	498.881	-0.183	-0.417
-428.617	63.970	-0.105	-0.104
-427.603	392.431	0.119	-0.245
-426.588	-84.044	-0.344	-0.108
-425.573	-57.705	0.079	-0.034
-424.559	340.371	0.133	0.257
-423.544	-173.789	-0.154	0.005
-422.530	-109.608	0.358	0.075
-421.515	-56.523	0.190	0.083
-420.500	800.000	0.109	-0.389
-419.486	68.239	-0.127	-0.129
-418.471	-121.942	-0.098	-0.016
-417.457	-103.839	-0.135	-0.031
-416.442	-72.130	0.075	0.027
-415.428	-155.397	-0.454	-0.029
-414.413	523.175	-0.074	-0.173
-413.398	-138.023	-0.445	-0.049
-412.384	200.331	0.208	0.316
-411.369	640.822	-0.118	0.297
-410.355	-200.000	0.014	0.198
-409.340	-50.936	-0.120	0.056
-408.325	6.624	-0.223	-0.164
-407.311	-32.795	-0.219	-0.120
-406.296	136.084	-0.257	0.331
-405.282	-42.328	0.235	0.119
-404.267	-200.000	0.024	-0.178
-403.252	207.466	0.111	-0.170
-402.238	-133.558	-0.157	-0.019
-401.223	800.000	0.088	-0.244
-400.209	-101.793	0.098	0.024
-399.194	-11.977	0.412	0.267
-398.179	-9.919	-0.084	0.055
-397.165	-200.000	-0.005	0.321
-396.150	800.000	-0.087	0.332
-395.136	-200.000	0.048	0.298
-394.121	-53.019	-0.256	0.116
-393.106	-41.517	-0.451	-0.229
-392.092	-200.000	0.010	0.116
-391.077	234.140	0.189	0.308
-390.063	-200.000	0.014	-0.123
-389.048	24.074	-0.294	0.240
-388.033	800.000	0.077	-0.304
-387.019	282.775	-0.067	0.118
-386.004	464.473	-0.119	0.262
-384.990	-132.324	-0.289	-0.037
-383.975	-200.000	-0.024	0.108
-382.960	-8.375	0.077	-0.051
-381.946	140.058	0.275	0.358
-380.931	-120.383	0.150	-0.025
-379.917	-89.807	0.319	-0.092
-378.902	-200.000	-0.063	-0.340
-377.888	427.200	-0.094	-0.199
-376.873	373.545	0.024	-0.048
-375.858	800.000	0.057	-0.200
-374.844	138.898	-0.058	-0.075
-373.829	45.035	-0.264	-0.240
-372.815	490.548	-0.050	-0.112
-371.800	101.418	0.165	0.189
-370.785	65.045	-0.193	0.193
-369.771	87.793	0.269	0.294
-368.756	513.365	-0.066	0.152
-367.742	-103.872	-0.103	0.024
-366.727	-200.000	0.012	0.107
-365.712	10.631	0.207	-0.156
-364.698	-104.705	-0.446	0.101
-363.683	30.616	-0.170	0.143
-362.669	-109.813	-0.172	0.036
-361.654	439.918	-0.127	-0.274
-360.639	125.998	0.037	0.046
-359.625	800.000	-0.028	0.088
-358.610	306.727	0.069	-0.127
-357.596	800.000	-0.035	-0.123
-356.581	800.000	0.178	0.498
-355.566	40.972	0.062	-0.055
-354.552	800.000	-0.151	-0.548
-353.537	-76.028	-0.059	0.020
-352.523	800.000	-0.038	-0.144
-351.508	-11.787	-0.390	0.252
-350.493	-200.000	-0.016	-0.119
-349.479	83.893	-0.080	0.086
-348.464	72.386	0.087	0.089
-347.450	-200.000	-0.024	0.149
-346.435	-75.084	0.253	-0.089
-345.420	128.017	-0.191	-0.239
-344.406	62.559	-0.103	-0.101
-343.391	70.585	0.283	-0.288
-342.377	-36.464	0.155	-0.082
-341.362	-58.924	-0.158	-0.067
-340.348	124.035	-0.108	0.133
-339.333	-90.091	-0.122	0.035
-338.318	134.752	0.282	0.360
-337.304	-53.275	0.268	0.121
-336.289	800.000	-0.039	-0.137
-335.275	401.948	-0.107	-0.222
-334.260	1.125	0.188	-0.133
-333.245	-200.000	-0.001	-0.309
-332.231	-148.982	-0.117	0.009
-331.216	-200.000	-0.006	-0.073
-330.202	647.347	0.101	-0.253
-329.187	26.657	-0.088	-0.073
-328.172	10.824	-0.183	0.138
-327.158	800.000	0.077	0.213
-326.143	-149.599	0.106	-0.008
-325.129	-72.497	0.223	0.081
-324.114	11.249	0.092	0.069
-323.099	247.868	0.129	-0.214
-322.085	-200.000	-0.034	-0.149
-321.070	70.933	-0.217	-0.221
-320.056	14.603	0.437	0.336
-319.041	-200.000	-0.005	0.131
-318.026	-200.000	-0.023	0.155
-317.012	-171.268	-0.070	0.002
-315.997	258.409	0.086	-0.146
-314.983	446.324	0.053	-0.114
-313.968	-191.186	-0.184	-0.002
-312.953	-200.000	-0.007	0.147
-311.939	7.792	0.416	0.306
-310.924	-178.611	0.200	0.005
-309.910	800.000	0.060	-0.167
-308.895	51.379	-0.276	0.258
-307.880	76.252	-0.178	0.186
-306.866	-40.114	0.199	-0.102
-305.851	39.002	0.027	-0.024
-304.837	-200.000	-0.016	-0.182
-303.822	-75.305	0.225	-0.079
-302.807	299.485	0.121	-0.220
-301.793	0.678	0.266	-0.187
-300.778	-84.090	-0.348	0.109
-299.764	-200.000	-0.130	-0.001
-298.749	-154.363	0.107	0.007
-297.735	-200.000	0.047	0.218
-296.720	54.360	0.022	-0.021
-295.705	-200.000	-0.027	0.350
-294.691	-200.000	-0.009	-0.042
-293.676	364.636	0.049	-0.096
-292.662	-141.846	-0.218	0.021
-291.647	-200.000	0.001	-0.140
-290.632	-21.635	0.234	0.140
-289.618	-141.586	-0.305	0.030
-288.603	-200.000	0.001	-0.050
-287.589	0.986	-0.379	-0.267
-286.574	800.000	-0.045	-0.154
-285.559	-84.730	0.125	0.039
-284.545	800.000	-0.141	-0.465
-283.530	800.000	-0.033	-0.118
-282.516	514.542	-0.250	0.574
-281.501	-31.428	-0.323	0.179
-280.486	272.774	-0.133	0.230
-279.472	-6.190	-0.153	0.103
-278.457	490.961	-0.079	0.177
-277.443	-139.036	0.119	-0.013
-276.428	131.831	0.189	0.239
-275.413	-51.818	-0.187	-0.085
-274.399	-181.740	0.129	-0.002
-273.384	-200.000	-0.018	0.297
-272.370	-200.000	0.086	-0.561
-271.355	800.000	0.035	-0.121
-270.340	189.523	-0.031	0.045
-269.326	108.839	-0.201	0.236
-268.311	-200.000	0.029	-0.450
-267.297	-200.000	0.029	-0.238
-266.282	492.058	0.065	0.146
-265.267	-17.378	0.365	-0.225
-264.253	-29.758	0.187	-0.105
-263.238	-121.383	0.130	0.021
-262.224	-200.000	0.019	0.365
-261.209	-200.000	-0.047	0.371
-260.195	-89.928	-0.114	-0.033
-259.180	-95.120	-0.043	0.011
-258.165	-39.068	-0.109	0.056
-257.151	800.000	-0.034	-0.100
-256.136	168.391	-0.082	0.115
-255.122	800.000	-0.093	0.304
-254.107	-182.084	-0.117	0.002
-253.092	-200.000	-0.006	-0.062
-252.078	800.000	0.083	-0.233
-251.063	-200.000	-0.065	-0.402
-250.049	-97.547	0.127	-0.032
-249.034	2.110	-0.128	0.091
-248.019	-98.097	-0.101	-0.025
-247.005	77.320	0.179	-0.187
-245.990	-13.057	0.109	0.070
-244.976	70.459	-0.176	-0.179
-243.961	-54.345	0.254	-0.113
-242.946	-115.233	0.216	-0.040
-241.932	-200.000	-0.024	0.154
-240.917	11.100	-0.343	0.257
-239.903	-31.080	0.381	0.211
-238.888	-200.000	-0.069	0.334
-237.873	-200.000	-0.012	-0.275
-236.859	-64.889	0.172	-0.068
-235.844	-54.693	0.191	-0.085
-234.830	126.647	-0.069	-0.085
-233.815	-161.737	0.162	-0.008
-232.800	222.573	0.117	0.185
-231.786	187.861	0.080	-0.117
-230.771	76.486	-0.084	-0.087
-229.757	-44.739	0.185	-0.091
-228.742	-200.000	0.271	0.001
-227.727	800.000	0.060	-0.231
-226.713	-200.000	-0.025	-0.251
-225.698	-152.560	0.280	0.020
-224.684	78.859	-0.250	0.263
-223.669	-124.562	0.183	0.028
-222.655	-130.088	0.183	0.025
-221.640	800.000	0.059	0.242
-220.625	51.125	0.142	-0.133
-219.611	-57.828	-0.052	0.022
-218.596	205.841	0.124	-0.189
-217.582	-42.989	0.093	-0.046
-216.567	-49.689	-0.115	0.054
-215.552	-41.689	-0.222	-0.112
-214.538	-73.323	0.074	0.026
-213.523	-49.116	0.108	-0.051
-212.509	800.000	-0.010	0.039
-211.494	504.622	-0.084	-0.190
-210.479	8.955	-0.089	0.066
-209.465	800.000	0.071	-0.218
-208.450	-200.000	-0.000	-0.059
-207.436	-200.000	-0.029	0.341
-206.421	-7.484	-0.140	-0.093
-205.406	-92.778	-0.063	-0.017
-204.392	-39.616	-0.200	0.103
-203.377	-49.431	-0.167	0.078
-202.363	800.000	0.039	0.126
-201.348	154.301	-0.051	0.068
-200.333	-140.502	0.092	0.009
-199.319	-153.680	0.243	-0.016
-198.304	800.000	-0.019	0.051
-197.290	-200.000	0.000	0.112
-196.275	800.000	0.050	-0.174
-195.260	-145.085	-0.193	0.017
-194.246	-200.000	0.018	0.098
-193.231	309.123	0.121	-0.221
-192.217	-109.301	-0.294	-0.061
-191.202	-33.720	-0.260	0.140
-190.187	-200.000	0.043	0.365
-189.173	344.919	0.025	0.047
-188.158	800.000	-0.057	-0.173
-187.144	143.098	0.125	0.163
-186.129	744.594	-0.092	0.243
-185.114	800.000	-0.008	0.027
-184.100	373.803	-0.056	-0.112
-183.085	-71.998	0.171	-0.062
-182.071	800.000	0.112	-0.310
-181.056	473.848	0.081	0.179
-180.042	-200.000	-0.026	0.164
-179.027	-133.839	-0.117	0.014
-178.012	19.855	0.405	-0.320
-176.998	-102.521	0.175	-0.041
-175.983	142.844	0.080	-0.104
-174.969	-66.582	0.112	0.044
-173.954	253.812	0.009	-0.014
-172.939	730.837	-0.159	0.416
-171.925	-62.890	0.217	-0.088
-170.910	-200.000	0.023	0.260
-169.896	-69.200	-0.052	-0.020
-168.881	-127.068	0.174	0.025
-167.866	96.621	-0.231	-0.259
-166.852	8.487	-0.284	0.209
-165.837	44.422	-0.149	0.134
-164.823	-27.422	-0.351	0.200
-163.808	-200.000	0.032	-0.191
-162.793	-137.713	-0.248	-0.027
-161.779	140.326	-0.158	0.204
-160.764	-121.061	0.057	0.009
-159.750	116.268	0.062	0.074
-158.735	-200.000	0.016	-0.104
-157.720	-200.000	0.040	0.347
-156.706	-76.886	0.273	0.093
-155.691	800.000	-0.092	0.375
-154.677	-67.146	-0.116	-0.045
-153.662	722.966	-0.023	0.061
-152.647	181.608	-0.045	0.065
-151.633	800.000	-0.045	-0.192
-150.618	41.110	0.026	0.023
-149.604	194.669	0.177	-0.262
-148.589	-200.000	0.039	0.266
-147.574	-200.000	-0.020	-0.098
-146.560	-116.656	0.234	0.042
-145.545	30.256	-0.230	-0.192
-144.531	-200.000	-0.028	0.139
-143.516	-87.328	-0.170	-0.050
-142.502	-200.000	-0.005	-0.059
-141.487	251.736	-0.036	0.060
-140.472	42.188	-0.088	-0.078
-139.458	662.643	-0.025	0.062
-138.443	-200.000	0.480	0.000
-137.429	123.256	0.179	-0.219
-136.414	800.000	0.047	0.136
-135.399	-161.843	-0.280	-0.014
-134.385	-103.048	-0.152	0.035
-133.370	67.641	0.259	-0.259
-132.356	763.851	-0.029	-0.076
-131.341	24.224	-0.084	-0.068
-130.326	132.066	-0.300	-0.377
-129.312	-31.789	0.157	0.086
-128.297	-139.073	-0.072	-0.008
-127.283	19.767	0.237	-0.187
-126.268	800.000	-0.019	0.069
-125.253	-103.528	-0.048	0.011
-124.239	181.976	-0.058	-0.084
-123.224	-200.000	-0.053	0.256
-122.210	214.515	-0.132	0.205
