DTS Sentinel unit serial number:	SN413079Multiplexer serial number:	ORYXHardware model number:	OX4-SRSoftware version number:	ORYX F/W v4.00 Oryx Data Collector v3.7.2.0data status	okinstallation	princeton_trtdifferential loss correction	single-endedforward channel	channel 3reverse channel	N/Adate	2019/09/14time	14:00:35forward acquisition time	60.00reverse acquisition time	0.00gamma	496.2192k internal	0.2293k external	0.2293temperature offset calibration	1.0058default loss term (dB/km)	0.3790temperature slope calibration	1.0000multiplexer offset coefficient	1.0000multiplexer slope coefficient	1.0000fibre end	0.00T internal ref (°C)	37.95T ext. ref 1 (°C)	4.97T ext. ref 2 (°C)	36.78length (m)	temperature (°C)	Stokes	anti-Stokes-747.200	55.908	-0.205	0.203
-746.185	114.588	-0.165	0.206
-745.171	-87.368	0.127	0.039
-744.156	-12.852	0.166	0.111
-743.142	-4.322	-0.139	-0.099
-742.127	-200.000	-0.045	0.216
-741.112	-200.000	-0.011	-0.286
-740.098	256.674	-0.152	0.266
-739.083	599.635	-0.077	-0.196
-738.069	-200.000	0.086	0.521
-737.054	800.000	-0.049	0.163
-736.039	-200.000	0.009	-0.124
-735.025	-160.740	-0.117	-0.006
-734.010	-200.000	0.035	-0.157
-732.996	66.249	-0.298	-0.309
-731.981	87.310	-0.059	0.067
-730.966	-200.000	-0.025	-0.260
-729.952	-45.761	-0.012	-0.006
-728.937	119.885	0.243	-0.308
-727.923	170.884	-0.083	0.122
-726.908	110.338	0.104	0.128
-725.894	199.488	-0.025	-0.039
-724.879	-142.180	0.132	0.013
-723.864	-67.616	-0.176	0.071
-722.850	-88.431	0.253	-0.077
-721.835	99.131	0.141	0.167
-720.821	132.900	0.161	-0.213
-719.806	33.905	-0.205	-0.182
-718.791	-153.396	-0.180	0.013
-717.777	266.655	0.116	-0.207
-716.762	9.076	-0.232	0.179
-715.748	-200.000	-0.011	-0.295
-714.733	800.000	-0.043	-0.150
-713.718	91.693	0.110	-0.126
-712.704	44.027	-0.083	0.077
-711.689	-136.122	0.264	0.032
-710.675	800.000	-0.049	-0.156
-709.660	31.726	0.360	-0.317
-708.645	258.514	-0.310	-0.545
-707.631	305.247	-0.144	-0.274
-706.616	30.379	-0.159	0.139
-705.602	-200.000	0.003	-0.052
-704.587	-83.700	-0.093	-0.030
-703.572	-200.000	-0.035	0.309
-702.558	-30.390	-0.170	0.099
-701.543	234.048	0.112	-0.189
-700.529	-88.239	-0.200	-0.061
-699.514	-86.142	0.398	0.126
-698.499	-21.852	0.335	0.208
-697.485	-115.303	-0.199	-0.038
-696.470	-98.522	0.582	0.152
-695.456	173.609	0.205	0.303
-694.441	800.000	0.093	-0.357
-693.426	279.424	-0.090	0.164
-692.412	536.046	-0.114	-0.276
-691.397	800.000	0.076	0.296
-690.383	-74.972	-0.377	0.138
-689.368	-54.634	-0.166	0.076
-688.354	-95.198	0.341	0.094
-687.339	-200.000	-0.055	-0.247
-686.324	-49.786	0.104	-0.050
-685.310	524.815	-0.074	-0.178
-684.295	-131.210	0.141	0.019
-683.281	619.885	0.105	-0.270
-682.266	-52.911	0.116	-0.054
-681.251	-80.041	0.184	-0.063
-680.237	800.000	-0.063	0.219
-679.222	201.430	0.017	-0.027
-678.208	-9.182	-0.263	-0.179
-677.193	-200.000	-0.021	-0.203
-676.178	-7.461	-0.265	0.183
-675.164	-200.000	0.021	-0.190
-674.149	-200.000	0.000	-0.227
-673.135	-144.289	-0.106	-0.010
-672.120	-13.611	0.162	0.107
-671.105	66.892	-0.086	0.089
-670.091	353.767	-0.019	-0.039
-669.076	-19.075	0.232	0.147
-668.062	-82.085	0.069	0.023
-667.047	-35.888	-0.084	-0.046
-666.032	423.749	-0.134	0.294
-665.018	132.232	-0.128	-0.168
-664.003	-125.350	-0.467	-0.073
-662.989	800.000	-0.047	-0.193
-661.974	74.963	0.270	-0.290
-660.959	-200.000	-0.063	0.281
-659.945	-200.000	0.079	0.462
-658.930	160.315	-0.047	0.067
-657.916	62.760	-0.049	-0.050
-656.901	800.000	0.133	-0.433
-655.886	-72.366	-0.313	0.118
-654.872	-200.000	0.035	0.317
-653.857	-83.354	0.387	-0.127
-652.843	-20.846	0.282	-0.176
-651.828	-200.000	0.014	0.377
-650.814	417.336	-0.097	-0.210
-649.799	-65.806	-0.244	0.099
-648.784	-142.227	0.261	0.026
-647.770	-134.036	-0.102	0.013
-646.755	-107.734	0.089	-0.020
-645.741	-14.180	-0.177	0.116
-644.726	109.054	0.199	0.242
-643.711	-165.051	0.438	-0.020
-642.697	-27.044	-0.045	-0.027
-641.682	-67.330	-0.126	-0.050
-640.668	41.457	0.271	0.250
-639.653	-49.953	-0.060	-0.029
-638.638	-32.933	-0.432	-0.245
-637.624	-61.914	0.132	-0.056
-636.609	-4.735	-0.311	-0.218
-635.595	71.310	0.050	-0.053
-634.580	288.074	-0.047	0.086
-633.565	-92.813	-0.055	0.016
-632.551	-200.000	-0.000	0.022
-631.536	-200.000	-0.040	-0.307
-630.522	130.446	-0.154	0.201
-629.507	141.286	-0.068	0.091
-628.492	128.433	0.159	0.206
-627.478	640.150	0.089	0.230
-626.463	575.341	0.064	0.158
-625.449	584.921	0.111	0.278
-624.434	-165.149	-0.405	0.018
-623.419	479.580	-0.086	0.199
-622.405	350.831	0.061	-0.124
-621.390	-200.000	-0.011	-0.153
-620.376	-79.151	0.068	-0.023
-619.361	-200.000	-0.021	-0.412
-618.346	-101.741	-0.406	-0.100
-617.332	133.762	-0.076	0.101
-616.317	156.020	0.210	-0.295
-615.303	-75.972	-0.195	0.070
-614.288	-86.414	-0.067	0.021
-613.273	-70.973	-0.381	0.146
-612.259	114.672	0.080	0.099
-611.244	-163.549	0.357	-0.017
-610.230	800.000	-0.044	-0.197
-609.215	617.670	0.085	0.218
-608.201	48.402	0.049	-0.047
-607.186	-53.960	-0.209	-0.097
-606.171	3.940	0.043	-0.032
-605.157	-40.655	0.183	-0.096
-604.142	582.881	0.037	-0.093
-603.128	54.191	0.106	-0.104
-602.113	-118.524	0.230	-0.042
-601.098	-112.840	-0.432	0.087
-600.084	-140.130	-0.047	-0.005
-599.069	-152.649	0.115	0.008
-598.055	143.796	0.103	0.139
-597.040	100.694	-0.234	0.276
-596.025	-138.647	-0.147	0.016
-595.011	-129.839	0.233	-0.033
-593.996	14.793	0.247	0.196
-592.982	-200.000	0.068	0.402
-591.967	-198.755	0.138	0.001
-590.952	29.935	0.225	-0.195
-589.938	69.841	-0.081	0.085
-588.923	-39.217	-0.352	0.188
-587.909	-200.000	-0.051	-0.344
-586.894	-200.000	-0.032	-0.344
-585.879	-138.665	-0.182	-0.020
-584.865	93.283	0.264	0.304
-583.850	223.238	0.072	-0.119
-582.836	122.203	0.108	-0.137
-581.821	49.134	0.238	-0.228
-580.806	-200.000	-0.032	-0.195
-579.792	-45.279	0.157	-0.079
-578.777	0.154	-0.175	-0.127
-577.763	-154.147	-0.177	0.012
-576.748	299.670	-0.090	-0.168
-575.733	-200.000	-0.042	-0.244
-574.719	62.428	0.158	-0.160
-573.704	-126.175	-0.197	0.030
-572.690	-48.731	0.047	0.023
-571.675	-73.311	0.377	0.140
-570.661	800.000	0.073	-0.205
-569.646	44.021	0.255	-0.237
-568.631	-19.134	0.263	0.166
-567.617	-11.498	-0.292	-0.195
-566.602	-10.870	0.140	-0.094
-565.588	-147.525	0.071	-0.006
-564.573	-6.796	0.235	0.162
-563.558	-3.124	-0.156	-0.111
-562.544	126.245	0.121	0.155
-561.529	-78.976	0.068	-0.023
-560.515	4.884	-0.185	-0.138
-559.500	-145.533	-0.165	0.015
-558.485	-109.727	0.251	0.054
-557.471	-124.120	0.125	0.020
-556.456	-17.336	-0.163	-0.104
-555.442	-90.588	0.215	-0.063
-554.427	62.295	-0.093	-0.094
-553.412	-74.985	-0.192	-0.070
-552.398	72.466	-0.251	0.266
-551.383	-117.867	0.252	0.046
-550.369	671.069	-0.164	-0.431
-549.354	-6.611	-0.194	0.134
-548.339	679.638	0.020	0.053
-547.325	-89.047	0.228	0.068
-546.310	-10.570	-0.032	0.022
-545.296	402.628	-0.040	0.084
-544.281	-200.000	-0.410	0.000
-543.266	-58.136	0.324	-0.143
-542.252	356.449	0.075	-0.152
-541.237	145.935	-0.117	0.159
-540.223	166.880	-0.202	0.291
-539.208	-200.000	-0.010	0.064
-538.193	-200.000	0.021	0.206
-537.179	-57.624	0.277	0.123
-536.164	317.894	-0.061	-0.117
-535.150	103.189	-0.281	-0.334
-534.135	-200.000	-0.045	-0.280
-533.121	30.993	0.214	-0.186
-532.106	-173.087	0.023	-0.001
-531.091	9.617	0.219	-0.169
-530.077	95.647	0.041	-0.047
-529.062	135.285	0.098	0.129
-528.048	-39.012	0.095	0.051
-527.033	14.645	-0.130	-0.103
-526.018	-99.590	0.307	-0.078
-525.004	-162.463	-0.176	-0.009
-523.989	291.331	-0.106	0.196
-522.975	182.891	0.127	0.191
-521.960	-4.088	-0.201	0.142
-520.945	59.222	0.191	-0.190
-519.931	23.113	0.292	0.243
-518.916	297.962	-0.057	-0.107
-517.902	-39.489	-0.244	-0.130
-516.887	-16.567	-0.039	-0.025
-515.872	-49.563	0.059	0.028
-514.858	-171.178	-0.177	-0.006
-513.843	-200.000	-0.090	-0.509
-512.829	-115.573	-0.234	0.045
-511.814	-91.768	0.292	-0.084
-510.799	-200.000	0.046	0.246
-509.785	101.839	-0.185	0.219
-508.770	-118.136	0.101	0.018
-507.756	-200.000	0.007	-0.270
-506.741	-98.001	-0.109	0.029
-505.726	-89.605	0.132	0.039
-504.712	-140.563	0.136	-0.014
-503.697	75.469	0.221	-0.236
-502.683	800.000	0.061	0.178
-501.668	11.817	-0.149	0.116
-500.653	282.006	0.062	0.112
-499.639	204.995	0.106	0.167
-498.624	65.643	-0.020	0.021
-497.610	5.585	-0.211	0.158
-496.595	436.925	-0.024	0.052
-495.581	800.000	0.017	0.064
-494.566	39.662	-0.219	0.199
-493.551	-118.292	-0.139	0.025
-492.537	-200.000	0.040	0.278
-491.522	483.079	-0.033	-0.077
-490.508	280.665	-0.192	-0.349
-489.493	-55.051	0.065	0.030
-488.478	-36.208	0.257	-0.141
-487.464	-119.941	0.311	-0.054
-486.449	-200.000	0.031	-0.289
-485.435	-150.490	-0.357	0.028
-484.420	-46.759	-0.056	0.028
-483.405	-52.708	-0.477	-0.223
-482.391	-36.758	0.438	0.238
-481.376	28.042	0.184	0.157
-480.362	-1.963	-0.260	-0.185
-479.347	-153.272	-0.120	0.008
-478.332	800.000	-0.031	-0.127
-477.318	800.000	0.049	-0.168
-476.303	-131.407	-0.283	0.038
-475.289	-116.368	0.174	0.032
-474.274	-140.968	-0.264	0.027
-473.259	188.492	-0.088	-0.134
-472.245	-29.934	-0.236	-0.136
-471.230	-43.813	-0.303	-0.154
-470.216	800.000	0.063	0.268
-469.201	-154.161	0.203	-0.014
-468.186	160.931	-0.145	-0.206
-467.172	-200.000	-0.047	-0.393
-466.157	-31.995	-0.322	-0.182
-465.143	179.247	-0.074	-0.109
-464.128	108.408	0.062	-0.074
-463.113	209.302	-0.059	0.094
-462.099	-83.115	-0.284	0.093
-461.084	800.000	-0.046	-0.173
-460.070	-11.180	0.246	0.164
-459.055	-86.579	0.166	0.051
-458.040	-200.000	-0.031	-0.240
-457.026	-200.000	0.018	-0.084
-456.011	-114.405	-0.361	0.070
-454.997	-87.850	-0.166	-0.051
-453.982	-26.970	0.071	-0.042
-452.968	-200.000	-0.056	0.387
-451.953	-200.000	0.027	-0.149
-450.938	-85.435	0.326	0.103
-449.924	72.084	0.203	-0.214
-448.909	-107.180	0.278	-0.062
-447.895	-96.044	-0.301	-0.081
-446.880	-200.000	-0.009	0.058
-445.865	157.464	0.327	-0.458
-444.851	-200.000	-0.028	0.151
-443.836	800.000	-0.094	0.289
-442.822	-200.000	-0.008	-0.062
-441.807	532.619	0.034	-0.082
-440.792	171.890	0.113	0.165
-439.778	28.707	-0.086	0.074
-438.763	-200.000	-0.055	-0.326
-437.749	-200.000	0.033	-0.283
-436.734	800.000	-0.061	0.258
-435.719	16.983	0.257	-0.206
-434.705	158.658	0.013	-0.018
-433.690	140.600	-0.033	0.044
-432.676	620.118	0.054	-0.138
-431.661	-7.314	0.177	-0.121
-430.646	-200.000	0.015	0.194
-429.632	-76.679	0.223	-0.079
-428.617	-50.495	-0.222	0.106
-427.603	46.519	-0.231	-0.217
-426.588	-18.700	0.176	-0.111
-425.573	658.889	-0.048	-0.126
-424.559	171.182	-0.126	0.182
-423.544	-165.438	0.107	-0.005
-422.530	165.747	-0.091	-0.131
-421.515	-200.000	0.003	-0.091
-420.500	-110.830	0.314	0.065
-419.486	747.303	-0.082	-0.223
-418.471	-86.257	-0.278	-0.086
-417.457	-109.305	0.263	0.056
-416.442	-88.177	0.171	-0.052
-415.428	-130.811	-0.133	0.018
-414.413	-95.151	0.121	0.033
-413.398	-99.481	0.237	0.060
-412.384	-10.446	0.098	-0.065
-411.369	17.491	-0.053	0.042
-410.355	-63.031	0.154	-0.064
-409.340	469.789	0.081	0.183
-408.325	800.000	-0.025	-0.106
-407.311	-200.000	-0.027	-0.274
-406.296	161.564	-0.112	0.159
-405.282	-200.000	0.001	-0.043
-404.267	-43.940	0.243	0.124
-403.252	37.630	-0.146	0.131
-402.238	-57.619	0.134	-0.059
-401.223	800.000	0.032	0.139
-400.209	-101.858	0.121	-0.030
-399.194	696.254	0.079	-0.210
-398.179	-13.560	-0.394	-0.258
-397.165	-149.204	-0.032	0.003
-396.150	120.832	-0.249	-0.313
-395.136	-164.130	0.292	-0.014
-394.121	800.000	0.027	-0.104
-393.106	-136.554	0.111	-0.013
-392.092	-151.550	-0.441	-0.033
-391.077	129.994	-0.309	-0.398
-390.063	-101.918	0.228	-0.056
-389.048	284.625	-0.123	0.223
-388.033	-21.255	0.252	-0.155
-387.019	-200.000	0.004	0.076
-386.004	-97.916	-0.321	-0.084
-384.990	26.780	-0.093	0.079
-383.975	-163.333	0.203	0.010
-382.960	4.695	-0.204	0.151
-381.946	-90.025	-0.174	0.051
-380.931	-200.000	-0.013	0.163
-379.917	800.000	-0.054	0.165
-378.902	133.914	-0.138	0.181
-377.888	-118.651	0.191	-0.034
-376.873	-102.907	0.334	-0.080
-375.858	20.427	0.118	-0.096
-374.844	232.748	-0.042	-0.069
-373.829	-20.184	0.128	-0.079
-372.815	-200.000	0.005	-0.162
-371.800	581.667	0.089	0.219
-370.785	69.181	-0.081	-0.084
-369.771	800.000	0.013	-0.054
-368.756	-37.860	-0.180	0.096
-367.742	41.020	-0.085	0.077
-366.727	-200.000	-0.004	-0.051
-365.712	216.644	0.130	0.208
-364.698	-59.506	-0.371	-0.161
-363.683	-163.087	0.244	0.012
-362.669	-40.122	0.303	-0.159
-361.654	56.875	-0.367	-0.360
-360.639	456.904	0.048	0.108
-359.625	29.824	0.103	-0.088
-358.610	-44.150	0.370	0.187
-357.596	-114.185	0.136	0.027
-356.581	-20.085	-0.109	-0.067
-355.566	29.052	0.140	0.119
-354.552	-18.245	-0.086	-0.054
-353.537	-33.725	-0.093	0.052
-352.523	800.000	0.037	0.106
-351.508	268.985	0.105	-0.186
-350.493	-7.859	-0.005	0.004
-349.479	200.182	-0.165	-0.256
-348.464	300.142	-0.150	-0.278
-347.450	5.877	0.290	0.216
-346.435	-9.747	-0.222	0.149
-345.420	-116.598	-0.216	-0.040
-344.406	-118.403	0.070	0.012
-343.391	-18.068	-0.191	0.121
-342.377	-200.000	0.030	0.210
-341.362	-200.000	0.021	0.327
-340.348	800.000	0.052	0.204
-339.333	40.760	0.314	-0.285
-338.318	800.000	0.052	0.189
-337.304	-60.186	0.373	-0.160
-336.289	372.547	-0.101	-0.207
-335.275	800.000	0.053	-0.218
-334.260	122.651	-0.210	0.265
-333.245	13.829	0.192	0.150
-332.231	-81.607	-0.124	-0.041
-331.216	275.749	-0.037	-0.067
-330.202	258.969	0.036	0.063
-329.187	25.854	0.203	0.171
-328.172	193.058	0.073	-0.112
-327.158	764.191	0.121	-0.331
-326.143	-32.427	-0.007	-0.004
-325.129	-118.269	0.147	0.026
-324.114	-159.883	0.222	-0.012
-323.099	180.498	-0.214	0.315
-322.085	149.880	0.117	-0.159
-321.070	-200.000	0.001	-0.009
-320.056	-200.000	-0.038	0.248
-319.041	-200.000	-0.003	-0.139
-318.026	-200.000	-0.159	-0.001
-317.012	-73.343	0.252	0.093
-315.997	-79.638	-0.258	-0.087
-314.983	-92.181	0.186	-0.053
-313.968	238.833	0.083	0.138
-312.953	800.000	-0.044	0.122
-311.939	-109.865	-0.221	0.047
-310.924	-41.858	-0.481	0.248
-309.910	54.210	-0.118	0.115
-308.895	-111.165	0.068	0.014
-307.880	427.836	-0.134	0.291
-306.866	676.739	-0.108	0.283
-305.851	414.826	-0.087	0.187
-304.837	381.460	-0.051	0.106
-303.822	800.000	-0.020	0.083
-302.807	-30.707	0.060	-0.034
-301.793	182.496	-0.278	0.412
-300.778	591.839	-0.097	0.240
-299.764	-200.000	-0.024	0.364
-298.749	323.108	-0.139	-0.266
-297.735	-119.669	-0.076	0.013
-296.720	-75.299	-0.122	0.044
-295.705	105.884	0.105	-0.125
-294.691	-27.294	-0.048	0.028
-293.676	-8.875	0.264	0.178
-292.662	-200.000	-0.030	0.279
-291.647	233.310	0.134	-0.222
-290.632	-200.000	-0.075	0.438
-289.618	11.527	0.082	0.063
-288.603	-9.988	-0.274	-0.183
-287.589	-56.888	-0.251	-0.111
-286.574	-200.000	-0.014	0.097
-285.559	-113.457	0.283	0.056
-284.545	95.039	0.365	-0.418
-283.530	79.757	-0.217	-0.234
-282.516	-30.637	0.245	-0.139
-281.501	266.231	0.197	-0.345
-280.486	-163.833	-0.511	0.024
-279.472	-123.585	0.079	0.013
-278.457	-157.893	-0.050	-0.003
-277.443	108.567	-0.035	-0.042
-276.428	225.767	-0.121	-0.197
-275.413	-33.762	-0.440	0.244
-274.399	21.276	-0.349	0.284
-273.384	-107.684	0.242	0.053
-272.370	-54.398	-0.152	0.069
-271.355	-200.000	-0.080	-0.372
-270.340	800.000	-0.067	-0.261
-269.326	-79.528	0.311	0.106
-268.311	-91.648	0.013	0.004
-267.297	-200.000	0.015	0.086
-266.282	218.346	0.198	-0.318
-265.267	-140.710	-0.030	0.003
-264.253	54.105	0.107	0.104
-263.238	-122.426	-0.105	0.017
-262.224	-200.000	0.013	0.234
-261.209	2.860	0.153	0.111
-260.195	-200.000	-0.072	0.448
-259.180	211.288	0.153	0.242
-258.165	42.932	-0.213	-0.195
-257.151	150.580	-0.059	0.080
-256.136	-65.250	0.151	-0.061
-255.122	328.380	-0.153	-0.295
-254.107	-140.869	0.280	-0.029
-253.092	61.206	0.031	-0.031
-252.078	800.000	0.039	-0.121
-251.063	-200.000	0.004	-0.061
-250.049	-200.000	-0.010	-0.091
-249.034	140.967	0.150	0.199
-248.019	-48.850	0.162	-0.078
-247.005	-56.566	-0.237	-0.105
-245.990	-68.038	0.102	-0.040
-244.976	-64.378	-0.198	0.081
-243.961	200.970	0.116	-0.179
-242.946	-200.000	0.075	-0.436
-241.932	770.185	-0.106	-0.291
-240.917	-113.573	-0.528	0.104
-239.903	300.562	0.066	-0.123
-238.888	306.384	-0.206	-0.385
-237.873	-133.391	0.026	-0.003
-236.859	800.000	0.057	0.226
-235.844	-165.113	0.220	-0.010
-234.830	126.245	-0.041	-0.052
-233.815	800.000	-0.031	-0.127
-232.800	365.573	0.135	-0.273
-231.786	563.392	0.074	-0.180
-230.771	-68.367	-0.101	-0.039
-229.757	-200.000	-0.036	0.219
-228.742	571.182	0.122	0.297
-227.727	-128.925	-0.309	-0.043
-226.713	-23.040	0.345	0.209
-225.698	-58.794	0.095	-0.041
-224.684	-36.235	0.094	0.051
-223.669	155.470	-0.222	0.306
-222.655	-35.762	0.241	0.131
-221.640	-3.172	-0.276	0.193
-220.625	10.684	-0.309	0.236
-219.611	104.378	0.086	0.101
-218.596	696.819	-0.082	-0.216
-217.582	-46.549	0.221	-0.109
-216.567	-25.610	0.176	-0.104
-215.552	-109.218	-0.079	0.017
-214.538	800.000	0.026	0.096
-213.523	-59.089	-0.148	0.064
-212.509	76.494	0.090	0.096
-211.494	197.384	0.030	0.046
-210.479	40.765	-0.294	0.265
-209.465	185.037	-0.039	-0.058
-208.450	-29.101	0.275	0.158
-207.436	361.431	0.096	0.194
-206.421	800.000	-0.093	-0.305
-205.406	-127.894	-0.604	0.087
-204.392	286.757	-0.191	0.345
-203.377	692.303	0.049	0.128
-202.363	47.453	-0.139	-0.129
-201.348	-5.852	0.126	0.087
-200.333	-107.066	0.271	0.060
-199.319	158.048	0.125	0.173
-198.304	71.461	0.176	-0.183
-197.290	-200.000	-0.024	-0.352
-196.275	59.645	0.137	0.136
-195.260	271.782	0.155	0.274
-194.246	800.000	-0.059	0.243
-193.231	-109.678	-0.249	0.053
-192.217	-200.000	-0.022	-0.139
-191.202	-200.000	-0.027	0.205
-190.187	151.747	0.176	0.240
-189.173	800.000	-0.020	-0.070
-188.158	25.154	-0.348	0.289
-187.144	148.502	0.288	0.389
-186.129	9.809	0.253	0.192
-185.114	-200.000	0.047	-0.252
-184.100	25.171	0.192	0.159
-183.085	-200.000	0.032	0.180
-182.071	-62.542	-0.341	0.142
-181.056	-119.720	-0.223	0.039
-180.042	57.620	0.121	-0.118
-179.027	-15.896	-0.092	-0.059
-178.012	800.000	0.060	-0.213
-176.998	-49.357	-0.193	-0.092
-175.983	-74.933	0.206	-0.074
-174.969	-200.000	-0.034	0.251
-173.954	-130.145	0.425	0.058
-172.939	-200.000	-0.016	-0.213
-171.925	-200.000	-0.022	-0.148
-170.910	-20.286	-0.226	0.139
-169.896	-15.871	0.209	0.133
-168.881	800.000	-0.004	-0.019
-167.866	-200.000	-0.022	0.098
-166.852	-171.809	0.172	-0.006
-165.837	97.204	0.108	0.124
-164.823	-136.014	0.338	-0.040
-163.808	-143.444	0.207	0.020
-162.793	-72.104	0.075	0.028
-161.779	39.854	-0.280	0.251
-160.764	0.081	0.220	0.157
-159.750	-25.151	0.131	0.077
-158.735	-200.000	-0.008	-0.128
-157.720	-121.522	-0.229	0.038
-156.706	54.216	0.101	0.097
-155.691	9.674	0.060	0.046
-154.677	526.196	0.019	0.044
-153.662	800.000	0.018	-0.071
-152.647	-101.950	0.074	-0.018
-151.633	800.000	-0.055	-0.171
-150.618	2.236	-0.168	-0.121
-149.604	198.283	0.006	-0.010
-148.589	-171.660	-0.103	-0.003
-147.574	-20.306	-0.477	-0.293
-146.560	-24.687	0.271	-0.161
-145.545	-200.000	-0.020	-0.234
-144.531	-127.397	0.054	-0.008
-143.516	-200.000	0.020	0.350
-142.502	-53.134	-0.102	0.047
-141.487	-102.392	0.235	0.056
-140.472	-200.000	0.010	0.244
-139.458	17.318	-0.101	-0.080
-138.443	-58.245	-0.172	-0.075
-137.429	-127.511	0.133	-0.019
-136.414	-70.553	0.099	0.037
-135.399	-108.208	-0.289	-0.062
-134.385	118.486	0.095	0.117
-133.370	213.156	-0.300	-0.473
-132.356	-154.784	-0.105	-0.007
-131.341	48.876	0.093	0.087
-130.326	303.463	0.114	-0.211
-129.312	-91.160	-0.042	0.012
-128.297	-200.000	-0.020	0.163
-127.283	-146.419	-0.166	-0.015
-126.268	17.582	0.148	-0.117
-125.253	49.354	-0.094	0.088
-124.239	358.061	0.060	-0.120
-123.224	800.000	-0.084	-0.258
-122.210	71.249	-0.122	-0.127
-121.195	446.831	-0.041	0.091
