DTS Sentinel unit serial number:	SN413079Multiplexer serial number:	ORYXHardware model number:	OX4-SRSoftware version number:	ORYX F/W v4.00 Oryx Data Collector v3.7.2.0data status	okinstallation	princeton_trtdifferential loss correction	single-endedforward channel	channel 3reverse channel	N/Adate	2019/09/16time	02:44:35forward acquisition time	60.00reverse acquisition time	0.00gamma	496.2192k internal	0.2334k external	0.2334temperature offset calibration	0.9950default loss term (dB/km)	0.3790temperature slope calibration	1.0000multiplexer offset coefficient	1.0000multiplexer slope coefficient	1.0000fibre end	0.00T internal ref (°C)	27.75T ext. ref 1 (°C)	10.33T ext. ref 2 (°C)	22.36length (m)	temperature (°C)	Stokes	anti-Stokes-747.200	-51.382	-0.057	-0.027
-746.185	337.491	-0.136	0.265
-745.171	-23.973	0.307	-0.185
-744.156	-11.462	-0.246	0.163
-743.142	73.286	0.287	-0.302
-742.127	-147.616	0.587	0.050
-741.112	94.165	-0.355	-0.404
-740.098	-200.000	-0.007	0.421
-739.083	-9.079	-0.288	0.193
-738.069	-112.074	0.060	-0.012
-737.054	70.556	-0.075	-0.077
-736.039	125.071	-0.142	-0.179
-735.025	-154.522	-0.156	-0.010
-734.010	-124.842	0.082	-0.013
-732.996	-173.494	-0.345	-0.010
-731.981	-149.287	-0.297	-0.024
-730.966	350.479	-0.084	0.168
-729.952	-200.000	0.067	-0.463
-728.937	-200.000	0.013	-0.206
-727.923	-147.570	-0.181	-0.015
-726.908	-101.964	-0.231	-0.056
-725.894	800.000	0.074	0.222
-724.879	106.397	0.106	0.126
-723.864	-96.521	0.165	-0.044
-722.850	254.587	-0.081	-0.139
-721.835	-159.309	-0.188	-0.011
-720.821	480.841	0.073	0.165
-719.806	-17.279	0.227	0.143
-718.791	800.000	0.031	0.107
-717.777	186.638	0.221	0.330
-716.762	15.069	-0.111	-0.087
-715.748	48.621	-0.230	-0.216
-714.733	-200.000	-0.006	-0.110
-713.718	-57.684	-0.346	-0.152
-712.704	125.714	0.208	-0.264
-711.689	-31.425	0.288	-0.162
-710.675	-95.176	-0.259	-0.070
-709.660	-83.502	-0.278	0.089
-708.645	-136.991	0.436	0.050
-707.631	-114.933	0.260	0.050
-706.616	-80.182	0.276	-0.093
-705.602	-200.000	-0.039	0.301
-704.587	186.701	-0.272	-0.407
-703.572	-124.385	-0.105	-0.016
-702.558	-12.428	0.302	0.198
-701.543	104.013	-0.143	0.168
-700.529	-20.491	0.022	0.013
-699.514	-62.978	0.218	-0.090
-698.499	-3.082	-0.452	0.317
-697.485	-200.000	0.065	-0.323
-696.470	-200.000	0.016	-0.211
-695.456	-20.551	-0.190	-0.117
-694.441	542.320	-0.101	-0.242
-693.426	-188.426	-0.232	0.003
-692.412	-164.103	-0.436	0.020
-691.397	-200.000	0.034	-0.173
-690.383	38.402	0.101	0.091
-689.368	-94.222	-0.608	0.167
-688.354	-20.800	-0.097	-0.060
-687.339	714.187	-0.098	0.259
-686.324	408.122	0.056	-0.120
-685.310	-200.000	0.056	-0.255
-684.295	-44.790	-0.058	-0.029
-683.281	800.000	-0.116	-0.393
-682.266	-93.851	-0.341	-0.094
-681.251	36.595	0.188	0.166
-680.237	-146.590	0.313	0.027
-679.222	-89.302	0.210	0.062
-678.208	-20.289	-0.107	0.066
-677.193	-107.793	0.171	0.037
-676.178	-200.000	-0.016	0.324
-675.164	800.000	-0.024	-0.092
-674.149	800.000	-0.079	-0.320
-673.135	-146.472	-0.142	0.012
-672.120	127.569	-0.129	0.165
-671.105	-125.552	0.436	0.066
-670.091	63.384	0.188	0.189
-669.076	-118.728	-0.413	-0.073
-668.062	-52.796	-0.295	0.136
-667.047	-84.212	0.245	0.078
-666.032	800.000	0.075	-0.221
-665.018	-132.743	-0.146	-0.019
-664.003	-105.544	0.345	0.078
-662.989	195.479	-0.085	0.129
-661.974	387.399	0.092	0.191
-660.959	182.653	0.050	0.073
-659.945	622.186	0.071	-0.178
-658.930	-200.000	-0.026	0.263
-657.916	-39.152	0.248	-0.131
-656.901	-76.567	-0.138	-0.049
-655.886	357.768	-0.111	-0.222
-654.872	190.465	0.081	0.121
-653.857	-77.743	-0.220	-0.076
-652.843	25.393	-0.167	-0.139
-651.828	-24.871	0.356	-0.211
-650.814	-146.400	0.070	-0.006
-649.799	-57.586	0.321	-0.141
-648.784	-107.140	-0.421	-0.093
-647.770	-109.722	-0.179	0.038
-646.755	-58.033	-0.347	-0.151
-645.741	39.664	-0.175	-0.157
-644.726	103.504	-0.176	-0.207
-643.711	352.335	-0.166	0.329
-642.697	36.734	0.190	-0.168
-641.682	-100.865	-0.408	0.100
-640.668	-113.632	0.298	0.058
-639.653	109.759	0.166	0.199
-638.638	-200.000	0.038	0.174
-637.624	-75.543	-0.287	-0.102
-636.609	197.842	0.098	-0.150
-635.595	21.155	-0.080	-0.065
-634.580	95.223	-0.159	0.181
-633.565	195.732	0.062	-0.094
-632.551	-82.587	0.077	0.025
-631.536	-79.018	-0.125	-0.043
-630.522	328.766	-0.098	-0.189
-629.507	-80.742	0.120	-0.040
-628.492	176.821	0.071	0.103
-627.478	-106.272	-0.131	0.029
-626.463	438.754	0.168	0.367
-625.449	-47.110	-0.504	-0.246
-624.434	800.000	0.051	-0.182
-623.419	796.572	-0.132	-0.365
-622.405	251.524	0.065	0.111
-621.390	-83.023	0.322	-0.104
-620.376	-28.797	0.027	-0.016
-619.361	-49.171	-0.240	-0.115
-618.346	81.726	-0.197	-0.213
-617.332	800.000	0.037	0.124
-616.317	-122.137	0.350	-0.057
-615.303	4.568	0.130	0.095
-614.288	-100.333	0.151	-0.038
-613.273	50.845	-0.152	0.144
-612.259	380.130	-0.125	0.257
-611.244	180.982	0.136	-0.199
-610.230	199.320	-0.183	-0.280
-609.215	-101.878	-0.184	0.045
-608.201	-200.000	-0.036	-0.178
-607.186	65.832	-0.153	-0.155
-606.171	-169.760	-0.269	-0.010
-605.157	-78.909	-0.148	0.050
-604.142	538.063	0.090	-0.215
-603.128	-200.000	0.015	-0.162
-602.113	726.027	0.027	-0.073
-601.098	559.384	0.023	-0.056
-600.084	-200.000	-0.040	0.312
-599.069	45.236	0.177	-0.163
-598.055	-200.000	-0.017	0.364
-597.040	-200.000	-0.011	0.211
-596.025	-200.000	0.004	0.035
-595.011	22.600	-0.138	-0.113
-593.996	-4.040	0.319	-0.221
-592.982	258.596	0.164	0.282
-591.967	45.127	-0.265	-0.244
-590.952	332.507	-0.067	-0.130
-589.938	-47.283	-0.200	0.097
-588.923	-40.575	-0.155	-0.080
-587.909	-1.061	0.264	-0.187
-586.894	-16.378	0.247	-0.157
-585.879	-51.815	0.160	-0.074
-584.865	-21.407	-0.095	-0.058
-583.850	-101.042	-0.135	-0.033
-582.836	35.012	0.101	0.088
-581.821	-200.000	-0.003	0.092
-580.806	-82.452	0.186	-0.060
-579.792	-126.945	-0.269	-0.039
-578.777	-62.904	-0.118	-0.049
-577.763	-200.000	-0.032	0.165
-576.748	-59.828	-0.528	0.225
-575.733	200.023	0.215	-0.330
-574.719	310.267	-0.067	-0.125
-573.704	-200.000	-0.057	-0.255
-572.690	-162.343	-0.023	0.001
-571.675	276.728	-0.080	-0.143
-570.661	190.142	0.049	-0.074
-569.646	253.098	0.255	-0.434
-568.631	207.217	0.234	-0.365
-567.617	-147.101	-0.166	-0.014
-566.602	-183.464	0.082	0.001
-565.588	-200.000	-0.058	-0.268
-564.573	-22.208	0.198	-0.120
-563.558	657.569	0.101	0.258
-562.544	21.329	-0.107	0.087
-561.529	334.904	-0.083	-0.161
-560.515	107.343	0.151	0.180
-559.500	313.305	-0.001	-0.001
-558.485	68.609	0.154	0.158
-557.471	-87.178	-0.197	-0.060
-556.456	-200.000	-0.002	-0.199
-555.442	-37.714	-0.122	0.065
-554.427	174.735	0.018	0.026
-553.412	117.888	0.146	0.179
-552.398	-43.431	0.272	-0.137
-551.383	-16.947	0.210	-0.132
-550.369	-10.715	-0.259	0.171
-549.354	408.151	0.116	0.244
-548.339	-76.344	-0.203	0.071
-547.325	800.000	-0.046	0.157
-546.310	-200.000	-0.101	-0.448
-545.296	800.000	-0.088	-0.270
-544.281	-77.078	0.156	0.054
-543.266	435.061	-0.089	-0.192
-542.252	412.532	0.190	0.403
-541.237	692.847	-0.043	-0.113
-540.223	-200.000	0.030	-0.142
-539.208	237.250	0.067	0.110
-538.193	184.762	-0.152	0.224
-537.179	37.816	-0.164	-0.145
-536.164	-200.000	-0.008	-0.037
-535.150	187.647	-0.068	-0.101
-534.135	-59.884	0.242	-0.103
-533.121	-39.417	-0.133	0.069
-532.106	-107.682	0.099	0.021
-531.091	340.493	0.137	0.266
-530.077	-200.000	0.030	-0.220
-529.062	-200.000	-0.035	-0.154
-528.048	-118.356	-0.064	0.011
-527.033	-112.912	0.240	-0.047
-526.018	-35.809	-0.298	-0.161
-525.004	-70.068	-0.333	0.126
-523.989	-170.698	0.450	-0.015
-522.975	-53.430	0.250	-0.114
-521.960	-61.883	-0.250	-0.104
-520.945	800.000	-0.077	0.245
-519.931	114.413	-0.105	-0.127
-518.916	380.704	0.015	0.031
-517.902	-79.408	0.182	0.061
-516.887	800.000	0.097	-0.397
-515.872	-200.000	-0.022	-0.206
-514.858	800.000	-0.025	-0.091
-513.843	300.705	-0.023	-0.042
-512.829	-82.089	0.251	-0.082
-511.814	-118.642	0.344	0.060
-510.799	-200.000	-0.047	0.221
-509.785	-94.252	0.165	-0.045
-508.770	800.000	-0.028	0.116
-507.756	-82.940	0.361	0.116
-506.741	-115.035	0.133	-0.025
-505.726	-89.851	-0.250	0.073
-504.712	-133.312	-0.210	-0.026
-503.697	-200.000	-0.027	0.185
-502.683	800.000	0.066	-0.208
-501.668	175.566	-0.007	0.010
-500.653	-200.000	-0.028	0.136
-499.639	450.040	0.073	-0.161
-498.624	-200.000	0.002	0.061
-497.610	197.206	-0.068	0.103
-496.595	145.650	0.351	-0.469
-495.581	305.804	0.136	-0.252
-494.566	211.118	-0.203	-0.317
-493.551	113.942	-0.152	-0.184
-492.537	-200.000	-0.071	0.000
-491.522	185.156	-0.127	0.188
-490.508	-59.415	-0.126	0.054
-489.493	8.706	0.237	-0.178
-488.478	-107.578	-0.175	-0.038
-487.464	-110.410	-0.184	0.038
-486.449	-200.000	0.003	-0.033
-485.435	-54.213	-0.285	0.129
-484.420	-200.000	0.005	0.114
-483.405	178.281	-0.195	-0.284
-482.391	29.425	0.072	-0.061
-481.376	310.505	0.138	0.257
-480.362	-200.000	0.002	0.290
-479.347	-96.433	-0.203	0.053
-478.332	58.318	-0.013	0.013
-477.318	-154.754	0.147	-0.010
-476.303	-121.817	0.129	-0.021
-475.289	-200.000	0.030	-0.369
-474.274	21.955	-0.205	0.166
-473.259	268.761	0.067	-0.117
-472.245	186.829	-0.176	0.261
-471.230	-41.880	0.226	-0.115
-470.216	578.794	0.151	0.368
-469.201	17.340	-0.064	-0.050
-468.186	-38.189	-0.038	-0.020
-467.172	-158.745	0.061	-0.003
-466.157	64.676	-0.157	0.157
-465.143	-28.052	-0.148	0.085
-464.128	265.840	0.168	0.292
-463.113	-35.146	-0.151	0.082
-462.099	-3.422	0.261	0.180
-461.084	-200.000	-0.031	0.370
-460.070	-90.480	0.136	-0.039
-459.055	42.835	-0.204	0.185
-458.040	38.189	-0.291	0.257
-457.026	800.000	-0.040	0.114
-456.011	146.027	0.034	0.045
-454.997	-200.000	-0.005	0.216
-453.982	-200.000	-0.036	-0.160
-452.968	-99.627	-0.149	0.037
-451.953	79.668	0.070	0.075
-450.938	1.964	-0.067	0.048
-449.924	-47.647	-0.209	0.101
-448.909	-200.000	-0.014	0.064
-447.895	58.337	0.194	-0.189
-446.880	-85.817	0.178	0.055
-445.865	-200.000	-0.008	-0.095
-444.851	-200.000	-0.030	0.192
-443.836	123.838	0.052	-0.065
-442.822	348.081	-0.071	-0.138
-441.807	-200.000	0.011	-0.103
-440.792	123.980	-0.171	0.214
-439.778	-93.456	-0.184	0.051
-438.763	568.243	-0.178	-0.429
-437.749	176.066	0.286	0.412
-436.734	51.986	0.185	-0.175
-435.719	61.176	0.148	-0.146
-434.705	-200.000	0.006	-0.037
-433.690	-200.000	0.039	-0.267
-432.676	-196.497	0.256	0.002
-431.661	-144.131	0.155	-0.014
-430.646	800.000	0.064	0.198
-429.632	-38.161	-0.330	-0.174
-428.617	800.000	0.119	0.406
-427.603	751.515	0.034	-0.092
-426.588	-84.023	0.445	-0.140
-425.573	84.720	-0.266	0.289
-424.559	608.961	0.147	0.364
-423.544	296.380	-0.151	0.275
-422.530	-200.000	-0.047	0.395
-421.515	453.893	-0.215	0.472
-420.500	-200.000	-0.020	0.144
-419.486	247.801	0.110	0.185
-418.471	348.916	-0.127	-0.250
-417.457	-173.768	0.179	0.005
-416.442	356.709	0.099	-0.195
-415.428	48.979	-0.122	0.113
-414.413	-32.394	-0.105	0.058
-413.398	440.120	0.242	0.526
-412.384	-49.429	-0.162	-0.077
-411.369	-176.086	0.098	-0.003
-410.355	-143.041	0.149	0.014
-409.340	-17.357	0.097	-0.060
-408.325	-200.000	0.040	-0.425
-407.311	284.131	0.107	0.192
-406.296	282.760	0.202	-0.360
-405.282	-132.282	0.070	0.009
-404.267	55.460	0.236	-0.226
-403.252	-71.500	0.150	-0.056
-402.238	800.000	-0.079	-0.274
-401.223	-200.000	-0.040	0.243
-400.209	778.573	0.092	0.250
-399.194	-175.385	-0.406	-0.011
-398.179	105.829	-0.183	-0.215
-397.165	50.242	0.244	0.228
-396.150	598.680	-0.157	-0.387
-395.136	175.731	-0.059	-0.084
-394.121	93.938	-0.076	0.086
-393.106	800.000	0.052	0.164
-392.092	46.255	0.185	-0.170
-391.077	42.083	-0.159	-0.143
-390.063	-87.780	0.254	-0.076
-389.048	-79.853	0.091	0.030
-388.033	366.297	0.114	-0.229
-387.019	-121.581	-0.171	0.028
-386.004	50.753	0.136	0.128
-384.990	272.369	-0.070	-0.123
-383.975	59.503	-0.137	-0.134
-382.960	67.029	0.117	0.118
-381.946	-39.936	-0.313	-0.162
-380.931	180.435	0.113	-0.165
-379.917	122.456	0.265	0.328
-378.902	49.147	0.046	0.043
-377.888	161.920	0.106	-0.147
-376.873	-112.109	-0.359	-0.072
-375.858	-200.000	-0.019	-0.307
-374.844	5.516	0.123	0.090
-373.829	29.537	-0.127	-0.107
-372.815	449.321	0.114	-0.249
-371.800	708.304	0.054	0.140
-370.785	-34.779	0.427	-0.231
-369.771	-200.000	-0.030	0.171
-368.756	-103.390	-0.096	0.022
-367.742	-26.200	-0.419	0.244
-366.727	-37.555	0.308	0.162
-365.712	-73.131	0.275	-0.100
-364.698	276.340	0.150	-0.263
-363.683	-156.983	-0.273	-0.017
-362.669	-64.369	-0.187	0.075
-361.654	-200.000	-0.002	0.423
-360.639	-43.911	0.423	0.211
-359.625	-17.980	-0.256	0.159
-358.610	-81.982	-0.277	0.090
-357.596	221.262	0.079	0.125
-356.581	62.029	0.133	-0.131
-355.566	-106.532	0.196	0.043
-354.552	182.658	-0.139	-0.204
-353.537	-153.244	-0.247	-0.017
-352.523	-200.000	0.023	0.119
-351.508	497.709	0.036	-0.083
-350.493	-3.635	-0.418	-0.287
-349.479	-121.101	-0.068	0.011
-348.464	-200.000	-0.011	-0.101
-347.450	-146.491	-0.340	0.029
-346.435	-106.566	-0.307	0.068
-345.420	-95.005	0.276	0.074
-344.406	11.644	-0.147	0.112
-343.391	-34.672	0.334	-0.181
-342.377	-200.000	0.016	0.135
-341.362	800.000	0.056	0.174
-340.348	-21.288	-0.204	0.123
-339.333	-82.529	0.189	0.061
-338.318	-191.186	-0.549	0.006
-337.304	800.000	-0.097	0.354
-336.289	-109.967	-0.427	0.088
-335.275	18.475	0.273	0.216
-334.260	23.181	-0.219	-0.178
-333.245	800.000	0.046	0.172
-332.231	800.000	0.143	0.483
-331.216	800.000	-0.125	-0.383
-330.202	-64.341	0.064	0.026
-329.187	-200.000	-0.023	0.203
-328.172	-72.626	0.206	0.075
-327.158	-104.749	-0.275	-0.063
-326.143	-184.523	-0.077	-0.001
-325.129	3.050	0.099	-0.071
-324.114	-113.483	0.425	-0.082
-323.099	-200.000	-0.003	0.068
-322.085	-100.248	-0.292	-0.072
-321.070	106.629	0.061	0.072
-320.056	116.872	0.114	-0.138
-319.041	800.000	-0.024	-0.100
-318.026	-200.000	0.005	-0.288
-317.012	800.000	0.089	-0.374
-315.997	-115.895	-0.216	-0.040
-314.983	-86.230	0.265	0.081
-313.968	66.051	-0.079	-0.079
-312.953	285.745	0.094	0.167
-311.939	-120.810	-0.120	-0.020
-310.924	60.222	-0.066	0.065
-309.910	64.424	-0.247	-0.246
-308.895	252.814	0.120	-0.202
-307.880	-77.369	0.333	0.114
-306.866	-41.755	-0.131	0.067
-305.851	800.000	0.061	-0.185
-304.837	-87.913	0.462	0.137
-303.822	-90.791	-0.271	-0.077
-302.807	-200.000	-0.027	-0.214
-301.793	143.486	0.092	-0.121
-300.778	51.567	-0.204	0.192
-299.764	800.000	0.049	-0.156
-298.749	-120.100	-0.251	0.042
-297.735	-200.000	0.046	-0.360
-296.720	-29.145	-0.179	-0.101
-295.705	-45.935	-0.252	0.123
-294.691	-200.000	0.030	0.207
-293.676	-80.459	0.141	-0.046
-292.662	-200.000	0.018	0.139
-291.647	-116.452	-0.373	-0.068
-290.632	196.551	0.220	-0.330
-289.618	194.103	-0.088	-0.131
-288.603	444.134	-0.083	-0.180
-287.589	-118.467	-0.151	0.026
-286.574	-200.000	-0.014	-0.066
-285.559	3.730	-0.060	-0.043
-284.545	525.170	0.114	0.265
-283.530	-83.877	0.023	0.007
-282.516	-25.424	-0.175	0.102
-281.501	-200.000	0.032	-0.318
-280.486	-52.763	0.190	0.086
-279.472	-74.279	-0.373	-0.133
-278.457	331.546	-0.124	-0.236
-277.443	114.227	0.086	-0.104
-276.428	-34.121	-0.258	0.140
-275.413	800.000	0.051	-0.181
-274.399	-100.505	0.125	0.030
-273.384	-5.225	0.144	0.097
-272.370	-200.000	-0.001	0.174
-271.355	-60.107	-0.055	0.023
-270.340	217.829	0.060	0.095
-269.326	186.009	0.017	-0.025
-268.311	-146.979	0.137	-0.012
-267.297	-68.976	0.052	-0.020
-266.282	266.118	-0.115	0.198
-265.267	-111.250	0.099	-0.020
-264.253	-200.000	0.026	-0.147
-263.238	-194.019	0.314	-0.003
-262.224	-200.000	0.051	0.226
-261.209	96.643	-0.109	-0.124
-260.195	167.482	0.163	-0.228
-259.180	-141.985	-0.226	0.022
-258.165	800.000	-0.060	-0.206
-257.151	133.307	-0.049	0.063
-256.136	-166.949	-0.207	-0.008
-255.122	-200.000	0.015	-0.157
-254.107	32.283	0.193	-0.164
-253.092	-200.000	0.088	0.490
-252.078	83.983	0.268	0.289
-251.063	81.978	-0.106	-0.113
-250.049	-1.542	0.088	0.061
-249.034	-200.000	0.044	-0.210
-248.019	251.648	-0.087	-0.147
-247.005	-200.000	-0.052	-0.356
-245.990	-109.138	-0.208	-0.044
-244.976	-105.890	0.444	0.099
-243.961	-136.439	-0.318	-0.036
-242.946	-200.000	-0.010	0.254
-241.932	-200.000	-0.024	0.354
-240.917	-120.292	0.092	0.015
-239.903	685.647	0.131	-0.338
-238.888	-200.000	-0.013	-0.190
-237.873	221.894	-0.046	0.072
-236.859	-35.720	0.088	0.047
-235.844	-17.901	-0.191	0.118
-234.830	65.557	-0.356	0.355
-233.815	-9.840	-0.084	0.055
-232.800	-152.133	-0.055	-0.004
-231.786	-4.008	0.135	0.092
-230.771	-139.321	-0.354	0.037
-229.757	-64.843	-0.114	0.046
-228.742	68.105	-0.044	-0.044
-227.727	-200.000	-0.004	-0.291
-226.713	380.913	0.208	-0.420
-225.698	89.018	-0.193	-0.212
-224.684	503.594	0.063	-0.144
-223.669	-183.881	0.280	-0.005
-222.655	-200.000	-0.011	0.134
-221.640	-62.701	-0.096	-0.039
-220.625	-200.000	0.023	0.182
-219.611	-200.000	-0.004	-0.215
-218.596	-115.036	0.351	0.066
-217.582	800.000	-0.162	0.509
-216.567	800.000	0.050	0.150
-215.552	611.217	0.160	0.394
-214.538	-129.713	0.229	0.031
-213.523	21.729	0.130	0.104
-212.509	-10.939	0.326	-0.212
-211.494	386.842	-0.098	0.200
-210.479	788.412	-0.054	-0.146
-209.465	-41.325	-0.088	0.045
-208.450	-102.062	-0.100	-0.024
-207.436	-200.000	-0.016	0.113
-206.421	-200.000	-0.067	0.472
-205.406	800.000	-0.088	0.243
-204.392	384.636	-0.046	-0.093
-203.377	-200.000	-0.014	0.148
-202.363	-42.975	0.049	-0.024
-201.348	286.429	0.185	0.328
-200.333	-75.898	0.138	0.048
-199.319	-200.000	0.034	-0.207
-198.304	32.672	-0.044	-0.038
-197.290	93.327	0.053	0.059
-196.275	-52.307	0.337	0.154
-195.260	-200.000	0.027	0.533
-194.246	170.118	-0.082	0.116
-193.231	-200.000	-0.032	-0.198
-192.217	-89.033	0.106	0.031
-191.202	-200.000	0.047	-0.260
-190.187	333.985	0.137	0.260
-189.173	800.000	0.064	-0.244
-188.158	-114.495	0.346	0.065
-187.144	800.000	-0.053	0.158
-186.129	-127.431	0.264	-0.038
-185.114	228.814	0.152	-0.244
-184.100	94.770	-0.226	-0.253
-183.085	470.433	-0.035	-0.076
-182.071	-92.744	0.135	-0.037
-181.056	122.416	0.216	-0.266
-180.042	2.123	-0.108	-0.077
-179.027	41.801	-0.271	-0.242
-178.012	392.088	-0.152	0.311
-176.998	4.103	0.101	-0.073
-175.983	34.965	0.294	0.253
-174.969	36.360	0.180	0.156
-173.954	-200.000	-0.085	0.458
-172.939	-7.503	-0.112	0.075
-171.925	-15.514	0.360	-0.226
-170.910	198.712	0.139	-0.209
-169.896	-200.000	-0.016	0.163
-168.881	104.174	0.123	0.142
-167.866	-95.296	0.066	0.017
-166.852	-69.632	0.195	-0.073
-165.837	715.507	0.035	-0.091
-164.823	-200.000	-0.035	0.265
-163.808	-74.683	-0.157	0.055
-162.793	731.098	-0.061	-0.159
-161.779	-9.760	-0.273	-0.178
-160.764	-9.784	-0.167	0.109
-159.750	-71.207	0.218	0.080
-158.735	-157.180	0.232	-0.014
-157.720	-111.952	0.152	0.030
-156.706	372.379	-0.118	0.235
-155.691	-147.620	0.132	0.011
-154.677	178.766	-0.217	0.312
-153.662	-39.441	0.117	0.060
-152.647	555.592	-0.026	-0.061
-151.633	-200.000	-0.072	0.414
-150.618	-58.870	-0.198	0.084
-149.604	-200.000	-0.022	0.134
-148.589	-161.458	0.274	0.014
-147.574	-200.000	0.001	0.178
-146.560	-200.000	-0.036	0.297
-145.545	-12.035	-0.151	0.097
-144.531	-56.107	0.192	-0.084
-143.516	448.033	0.089	-0.193
-142.502	-124.999	-0.068	-0.010
-141.487	288.032	-0.070	0.124
-140.472	-123.833	0.080	-0.012
-139.458	800.000	0.062	0.248
-138.443	-92.204	-0.306	-0.085
-137.429	-4.932	-0.037	-0.025
-136.414	383.198	-0.150	0.302
-135.399	28.895	-0.279	-0.232
-134.385	-133.855	0.379	0.046
-133.370	-94.381	0.241	-0.065
-132.356	-82.937	-0.038	0.012
-131.341	246.803	0.046	0.076
-130.326	490.229	0.049	-0.109
-129.312	-200.000	-0.050	0.363
-128.297	-200.000	0.070	0.538
-127.283	268.548	0.141	0.243
-126.268	-45.259	0.139	0.068
-125.253	-123.500	-0.100	-0.016
-124.239	93.387	0.061	0.068
-123.224	-176.438	-0.323	-0.008
