DTS Sentinel unit serial number:	SN413079Multiplexer serial number:	ORYXHardware model number:	OX4-SRSoftware version number:	ORYX F/W v4.00 Oryx Data Collector v3.7.2.0data status	okinstallation	princeton_trtdifferential loss correction	single-endedforward channel	channel 3reverse channel	N/Adate	2019/09/12time	04:34:11forward acquisition time	60.00reverse acquisition time	0.00gamma	496.2192k internal	0.2324k external	0.2324temperature offset calibration	1.0105default loss term (dB/km)	0.3790temperature slope calibration	1.0000multiplexer offset coefficient	1.0000multiplexer slope coefficient	1.0000fibre end	0.00T internal ref (°C)	31.61T ext. ref 1 (°C)	2.67T ext. ref 2 (°C)	26.77length (m)	temperature (°C)	Stokes	anti-Stokes-747.200	-41.537	-0.236	-0.123
-746.185	146.108	0.080	0.108
-745.171	36.285	0.147	-0.130
-744.156	800.000	-0.096	0.386
-743.142	-95.405	-0.098	0.026
-742.127	-51.696	-0.306	0.144
-741.112	335.962	0.040	-0.078
-740.098	-200.000	0.006	0.629
-739.083	-200.000	-0.022	-0.139
-738.069	-94.586	-0.085	0.023
-737.054	-200.000	-0.102	0.461
-736.039	800.000	0.070	0.230
-735.025	31.219	0.233	0.202
-734.010	-17.925	-0.239	-0.151
-732.996	-80.418	0.136	0.046
-731.981	-132.017	0.006	-0.001
-730.966	231.628	-0.044	-0.073
-729.952	800.000	0.052	-0.168
-728.937	211.264	0.147	-0.234
-727.923	-82.440	-0.209	-0.069
-726.908	139.949	-0.132	0.176
-725.894	303.205	-0.054	0.102
-724.879	-16.425	0.078	-0.050
-723.864	325.550	-0.179	0.345
-722.850	30.823	0.094	0.082
-721.835	-200.000	-0.042	-0.229
-720.821	419.609	-0.161	-0.347
-719.806	-37.718	-0.133	0.071
-718.791	155.551	-0.127	-0.177
-717.777	33.187	0.154	0.135
-716.762	115.645	-0.187	-0.231
-715.748	-200.000	-0.062	0.494
-714.733	-200.000	-0.057	0.384
-713.718	800.000	-0.123	0.377
-712.704	-65.690	0.275	-0.111
-711.689	125.742	0.060	-0.076
-710.675	-200.000	0.029	-0.293
-709.660	-87.854	-0.093	-0.028
-708.645	-36.244	-0.084	0.046
-707.631	524.372	0.054	0.128
-706.616	208.740	0.148	0.234
-705.602	-200.000	-0.070	0.370
-704.587	34.108	0.239	-0.210
-703.572	-145.883	-0.183	0.016
-702.558	53.914	-0.119	-0.115
-701.543	432.760	0.149	-0.326
-700.529	-156.441	0.194	-0.012
-699.514	132.547	-0.135	-0.176
-698.499	252.331	0.100	-0.172
-697.485	-30.595	-0.132	0.076
-696.470	-17.657	-0.191	-0.121
-695.456	-79.034	-0.247	-0.085
-694.441	-8.840	0.357	-0.241
-693.426	736.859	-0.081	-0.220
-692.412	-67.723	-0.254	0.100
-691.397	-164.092	-0.093	0.004
-690.383	429.061	-0.135	-0.293
-689.368	132.328	0.105	0.137
-688.354	-143.541	-0.196	0.019
-687.339	149.170	0.275	-0.375
-686.324	-200.000	-0.081	-0.370
-685.310	22.440	-0.187	0.154
-684.295	-71.135	-0.198	0.075
-683.281	-118.398	0.214	0.038
-682.266	149.740	0.269	-0.367
-681.251	-84.069	0.164	0.053
-680.237	-200.000	0.002	0.027
-679.222	-104.806	-0.248	-0.058
-678.208	731.894	0.037	0.099
-677.193	800.000	0.132	0.404
-676.178	-200.000	0.022	-0.173
-675.164	143.260	-0.226	-0.303
-674.149	-35.320	0.225	-0.123
-673.135	800.000	0.057	-0.163
-672.120	37.831	-0.160	-0.143
-671.105	35.823	-0.123	-0.109
-670.091	164.972	0.184	-0.261
-669.076	-111.699	0.360	0.073
-668.062	800.000	-0.137	-0.415
-667.047	-122.404	0.058	-0.009
-666.032	-102.176	-0.099	0.024
-665.018	76.411	-0.129	-0.137
-664.003	-159.033	-0.149	-0.009
-662.989	202.770	0.078	-0.122
-661.974	-200.000	0.042	0.248
-660.959	-95.668	0.091	-0.025
-659.945	-157.592	0.196	-0.012
-658.930	-200.000	0.081	-0.411
-657.916	-131.936	0.325	-0.043
-656.901	-65.917	0.355	0.143
-655.886	61.362	-0.136	0.136
-654.872	-200.000	0.002	0.222
-653.857	-133.860	-0.250	-0.031
-652.843	-61.983	-0.257	-0.108
-651.828	-53.482	0.192	-0.088
-650.814	800.000	0.058	-0.191
-649.799	-10.844	-0.245	0.163
-648.784	342.954	-0.088	0.174
-647.770	73.899	-0.208	-0.220
-646.755	-200.000	0.020	-0.125
-645.741	175.665	-0.054	-0.079
-644.726	-99.700	0.111	-0.028
-643.711	92.418	-0.104	0.118
-642.697	-200.000	-0.020	-0.167
-641.682	-200.000	0.040	-0.297
-640.668	84.422	0.148	0.163
-639.653	44.931	0.251	-0.232
-638.638	800.000	0.052	0.226
-637.624	-64.185	-0.060	0.024
-636.609	154.728	-0.067	0.092
-635.595	55.992	-0.048	0.047
-634.580	88.990	-0.137	-0.153
-633.565	100.105	0.132	-0.154
-632.551	-200.000	-0.057	-0.370
-631.536	114.881	0.074	-0.090
-630.522	-104.432	-0.175	-0.041
-629.507	152.612	-0.187	0.257
-628.492	-108.497	-0.233	-0.050
-627.478	-43.682	-0.104	-0.053
-626.463	46.919	0.073	0.068
-625.449	800.000	-0.077	0.278
-624.434	41.218	-0.080	-0.073
-623.419	-200.000	-0.008	0.164
-622.405	-78.601	-0.078	-0.027
-621.390	463.156	-0.107	0.241
-620.376	121.094	0.074	-0.092
-619.361	-165.670	-0.142	0.006
-618.346	-200.000	0.002	0.254
-617.332	-9.154	0.118	0.079
-616.317	-35.643	-0.393	-0.214
-615.303	-200.000	0.021	0.296
-614.288	-123.767	-0.197	0.031
-613.273	-200.000	-0.047	0.282
-612.259	25.544	-0.046	0.038
-611.244	-200.000	0.021	0.185
-610.230	146.843	0.041	0.056
-609.215	18.715	-0.141	-0.114
-608.201	-200.000	-0.027	0.178
-607.186	-50.670	-0.154	0.073
-606.171	-124.085	0.129	0.020
-605.157	-200.000	-0.022	0.286
-604.142	18.395	-0.207	-0.166
-603.128	19.753	-0.194	-0.157
-602.113	-200.000	0.028	-0.246
-601.098	-9.119	0.056	-0.038
-600.084	-93.772	-0.223	0.062
-599.069	-200.000	0.085	-0.450
-598.055	167.342	0.165	0.235
-597.040	114.822	0.078	-0.096
-596.025	74.815	0.042	-0.044
-595.011	-84.629	-0.162	0.051
-593.996	282.458	-0.123	-0.221
-592.982	136.906	-0.134	0.176
-591.967	-74.526	0.278	-0.101
-590.952	-71.683	0.248	0.093
-589.938	756.805	0.027	-0.073
-588.923	67.424	-0.091	-0.093
-587.909	322.214	0.165	0.316
-586.894	41.848	-0.046	0.042
-585.879	-200.000	0.025	-0.182
-584.865	-52.347	-0.011	0.005
-583.850	696.861	0.043	-0.114
-582.836	-200.000	-0.023	-0.169
-581.821	-182.356	-0.345	0.006
-580.806	553.328	0.017	0.041
-579.792	-129.497	0.035	-0.005
-578.777	50.967	0.188	0.179
-577.763	-132.088	-0.259	0.034
-576.748	614.870	0.138	-0.348
-575.733	42.183	-0.097	-0.089
-574.719	-200.000	0.041	-0.335
-573.704	800.000	0.082	-0.235
-572.690	133.144	-0.149	-0.193
-571.675	531.588	0.018	-0.044
-570.661	117.964	0.056	-0.069
-569.646	-96.698	0.121	0.032
-568.631	-10.597	-0.332	0.221
-567.617	-104.457	-0.336	-0.078
-566.602	-99.719	0.094	0.024
-565.588	86.086	-0.125	0.138
-564.573	-77.311	0.325	-0.113
-563.558	95.457	-0.284	-0.324
-562.544	-200.000	-0.017	0.096
-561.529	-83.613	-0.348	0.111
-560.515	-200.000	-0.061	0.314
-559.500	-200.000	0.018	-0.212
-558.485	-48.611	0.280	0.135
-557.471	800.000	0.028	-0.094
-556.456	236.984	-0.091	0.151
-555.442	285.005	-0.109	-0.197
-554.427	107.789	0.173	0.206
-553.412	390.744	0.023	-0.048
-552.398	-73.849	-0.287	-0.105
-551.383	32.164	0.036	-0.031
-550.369	-9.881	-0.239	0.160
-549.354	-154.263	-0.142	-0.010
-548.339	-175.821	0.169	0.005
-547.325	-54.028	-0.127	-0.058
-546.310	102.993	0.206	0.242
-545.296	29.597	-0.223	0.190
-544.281	250.040	0.024	0.041
-543.266	341.711	0.094	-0.184
-542.252	25.267	0.255	0.212
-541.237	-19.168	-0.087	0.054
-540.223	93.298	0.186	0.210
-539.208	-129.899	0.331	0.045
-538.193	75.147	-0.192	0.203
-537.179	-143.616	0.188	-0.018
-536.164	-140.036	0.055	-0.006
-535.150	800.000	0.068	0.199
-534.135	-72.581	-0.163	-0.060
-533.121	800.000	0.101	-0.332
-532.106	-200.000	0.006	0.112
-531.091	611.699	-0.153	0.384
-530.077	-72.466	0.245	-0.091
-529.062	34.508	-0.022	-0.019
-528.048	145.749	-0.195	0.262
-527.033	92.576	0.184	-0.207
-526.018	800.000	0.070	0.285
-525.004	-125.178	0.232	-0.036
-523.989	270.116	0.054	-0.096
-522.975	-200.000	-0.029	-0.236
-521.960	22.145	0.121	0.099
-520.945	-85.708	0.222	0.069
-519.931	-157.090	-0.130	-0.008
-518.916	-27.389	0.169	0.098
-517.902	-200.000	0.034	-0.244
-516.887	-112.210	-0.125	-0.025
-515.872	1.380	0.159	0.115
-514.858	-132.312	0.224	-0.029
-513.843	-84.741	0.277	-0.087
-512.829	238.171	0.087	-0.144
-511.814	20.862	0.073	0.059
-510.799	-158.305	0.122	-0.007
-509.785	323.971	-0.018	-0.034
-508.770	800.000	-0.075	0.214
-507.756	-200.000	-0.007	0.262
-506.741	174.877	0.300	-0.434
-505.726	-69.525	0.313	0.120
-504.712	-200.000	0.061	0.320
-503.697	200.183	-0.126	-0.193
-502.683	-200.000	0.052	-0.304
-501.668	156.056	-0.191	-0.263
-500.653	47.054	-0.114	-0.106
-499.639	-33.038	0.168	0.093
-498.624	115.609	0.186	0.227
-497.610	-22.423	-0.156	0.094
-496.595	-145.483	-0.157	0.014
-495.581	168.334	-0.342	0.486
-494.566	-60.538	0.308	0.131
-493.551	-59.512	-0.228	0.098
-492.537	387.292	0.065	0.134
-491.522	0.546	0.090	-0.065
-490.508	121.002	-0.059	0.073
-489.493	-200.000	0.012	0.299
-488.478	800.000	-0.029	0.121
-487.464	-110.972	-0.217	-0.045
-486.449	-90.555	0.315	-0.091
-485.435	409.460	-0.135	0.286
-484.420	-200.000	-0.010	-0.251
-483.405	-50.069	0.117	0.056
-482.391	-42.449	0.257	0.131
-481.376	226.135	0.097	-0.157
-480.362	-200.000	-0.026	0.191
-479.347	-96.664	-0.084	0.022
-478.332	800.000	0.008	-0.029
-477.318	-111.828	0.458	-0.093
-476.303	-117.103	0.445	-0.081
-475.289	-200.000	-0.004	-0.324
-474.274	-141.984	0.246	0.025
-473.259	144.281	0.022	-0.030
-472.245	-200.000	-0.041	-0.186
-471.230	-45.407	-0.465	-0.230
-470.216	-62.769	0.261	0.108
-469.201	-103.253	-0.210	-0.049
-468.186	-19.984	0.186	0.115
-467.172	-200.000	-0.040	-0.196
-466.157	-45.222	0.152	0.076
-465.143	-32.870	-0.255	-0.141
-464.128	-77.803	-0.313	0.108
-463.113	-119.812	-0.040	-0.007
-462.099	91.489	-0.353	0.396
-461.084	-200.000	-0.015	-0.135
-460.070	330.873	-0.172	-0.331
-459.055	145.265	-0.229	-0.306
-458.040	98.922	-0.126	0.146
-457.026	352.753	0.095	-0.188
-456.011	-38.218	0.191	-0.101
-454.997	800.000	0.044	-0.147
-453.982	171.378	-0.056	-0.080
-452.968	-151.850	0.269	0.020
-451.953	-116.541	0.219	0.040
-450.938	-200.000	-0.091	0.000
-449.924	-200.000	-0.049	0.268
-448.909	88.953	-0.130	-0.144
-447.895	-75.429	0.311	0.111
-446.880	120.445	-0.129	-0.160
-445.865	-190.546	0.134	-0.001
-444.851	15.546	-0.063	-0.050
-443.836	-110.589	-0.463	-0.096
-442.822	-127.952	0.307	0.044
-441.807	-200.000	0.009	0.267
-440.792	-160.897	0.199	0.010
-439.778	26.222	0.103	-0.086
-438.763	73.451	0.151	-0.158
-437.749	-166.695	0.116	0.005
-436.734	102.537	-0.045	-0.053
-435.719	-51.103	0.218	0.102
-434.705	-82.677	-0.188	0.061
-433.690	30.930	0.243	-0.207
-432.676	254.373	-0.122	0.209
-431.661	-78.607	0.457	0.156
-430.646	306.073	0.253	0.470
-429.632	22.487	-0.198	0.161
-428.617	-102.556	-0.102	-0.024
-427.603	-93.556	0.109	0.030
-426.588	25.159	0.260	0.215
-425.573	286.021	-0.136	0.245
-424.559	-53.227	-0.124	-0.057
-423.544	-200.000	0.071	-0.330
-422.530	-93.208	-0.191	0.053
-421.515	179.745	0.090	0.132
-420.500	-200.000	0.032	0.279
-419.486	438.748	0.107	0.232
-418.471	238.221	-0.201	-0.333
-417.457	-200.000	-0.028	-0.207
-416.442	77.279	-0.109	-0.115
-415.428	81.870	-0.271	-0.292
-414.413	-115.394	-0.147	-0.028
-413.398	-102.832	-0.346	0.082
-412.384	263.871	0.136	0.236
-411.369	519.671	0.188	-0.439
-410.355	-125.563	-0.163	-0.025
-409.340	692.590	-0.080	0.209
-408.325	800.000	-0.047	0.175
-407.311	-200.000	-0.014	0.294
-406.296	340.575	0.043	-0.085
-405.282	34.540	-0.172	0.150
-404.267	-20.782	0.127	-0.078
-403.252	-10.803	-0.082	0.054
-402.238	-84.403	0.205	0.064
-401.223	-200.000	0.064	0.337
-400.209	366.291	0.137	-0.276
-399.194	-26.868	-0.174	0.101
-398.179	433.852	0.086	0.185
-397.165	-131.792	0.183	-0.024
-396.150	-23.608	0.264	-0.158
-395.136	8.327	-0.185	0.139
-394.121	239.542	0.116	0.192
-393.106	-31.726	-0.115	-0.064
-392.092	64.517	-0.073	-0.073
-391.077	266.406	0.125	0.217
-390.063	-59.960	-0.241	0.103
-389.048	-200.000	0.043	0.236
-388.033	96.660	0.208	-0.237
-387.019	3.460	-0.343	-0.249
-386.004	514.039	0.054	0.125
-384.990	-85.000	0.232	0.072
-383.975	800.000	-0.072	-0.243
-382.960	7.203	0.140	-0.104
-381.946	-112.374	0.145	0.029
-380.931	544.821	0.135	-0.322
-379.917	-92.733	-0.101	-0.028
-378.902	-180.612	0.201	-0.004
-377.888	57.988	-0.254	0.247
-376.873	-187.327	-0.091	0.001
-375.858	-149.975	-0.057	0.004
-374.844	-0.629	0.187	-0.132
-373.829	-130.816	0.293	0.039
-372.815	800.000	0.043	-0.129
-371.800	368.835	-0.073	-0.146
-370.785	-115.508	0.195	-0.036
-369.771	800.000	0.042	-0.178
-368.756	-45.057	-0.127	0.063
-367.742	-200.000	-0.007	0.148
-366.727	-101.461	-0.096	0.023
-365.712	236.683	0.044	0.072
-364.698	-108.311	-0.423	0.091
-363.683	61.577	0.211	-0.209
-362.669	800.000	-0.089	0.298
-361.654	387.912	0.218	-0.449
-360.639	-126.714	0.319	-0.047
-359.625	800.000	-0.089	0.257
-358.610	-200.000	0.096	0.452
-357.596	-200.000	0.044	-0.346
-356.581	800.000	0.057	0.161
-355.566	-200.000	0.068	-0.340
-354.552	90.097	-0.183	0.203
-353.537	-67.800	-0.038	-0.015
-352.523	-200.000	0.013	-0.112
-351.508	800.000	0.050	0.216
-350.493	-98.113	-0.385	0.099
-349.479	354.175	-0.227	-0.448
-348.464	-200.000	0.044	-0.195
-347.450	48.030	-0.074	-0.068
-346.435	-200.000	-0.001	-0.128
-345.420	222.997	-0.062	-0.099
-344.406	-48.264	-0.164	-0.079
-343.391	-104.118	-0.219	-0.051
-342.377	13.371	0.252	-0.194
-341.362	469.902	-0.177	0.396
-340.348	-67.846	0.450	-0.175
-339.333	-87.866	0.089	0.026
-338.318	92.783	0.093	0.105
-337.304	-81.050	0.311	0.102
-336.289	226.792	-0.156	0.252
-335.275	-79.095	-0.221	-0.075
-334.260	164.964	0.073	-0.102
-333.245	-0.592	0.269	-0.190
-332.231	-107.637	0.121	-0.026
-331.216	-59.183	-0.153	0.065
-330.202	397.275	-0.073	-0.151
-329.187	-64.048	-0.148	-0.060
-328.172	47.316	-0.031	-0.028
-327.158	-11.664	0.185	0.121
-326.143	-200.000	-0.022	0.109
-325.129	70.293	0.248	0.254
-324.114	-200.000	0.016	0.230
-323.099	-73.882	0.455	0.164
-322.085	-200.000	-0.005	0.272
-321.070	229.647	-0.067	0.109
-320.056	-40.594	0.182	-0.094
-319.041	143.485	0.101	-0.133
-318.026	16.570	0.133	-0.104
-317.012	-200.000	-0.057	0.410
-315.997	152.684	0.138	0.187
-314.983	-200.000	-0.014	0.068
-313.968	-58.722	-0.228	-0.098
-312.953	179.604	0.083	-0.121
-311.939	-10.342	-0.168	0.111
-310.924	-200.000	0.041	0.290
-309.910	800.000	0.024	0.097
-308.895	-71.829	-0.185	-0.069
-307.880	-69.999	0.161	0.061
-306.866	-136.838	-0.142	0.016
-305.851	63.173	0.231	-0.230
-304.837	363.103	-0.043	-0.085
-303.822	36.988	-0.246	0.216
-302.807	265.609	0.061	-0.105
-301.793	-5.826	-0.178	0.121
-300.778	-48.220	-0.076	-0.037
-299.764	553.125	-0.036	0.085
-298.749	527.270	-0.184	-0.430
-297.735	18.089	0.173	0.137
-296.720	-64.766	0.111	0.045
-295.705	646.680	-0.024	-0.061
-294.691	473.726	0.206	-0.461
-293.676	-61.714	0.442	-0.184
-292.662	-200.000	0.019	0.117
-291.647	-174.017	0.330	-0.010
-290.632	-142.483	0.232	0.023
-289.618	-48.178	0.091	-0.044
-288.603	14.750	0.236	0.183
-287.589	504.921	-0.066	0.153
-286.574	679.648	-0.060	-0.155
-285.559	-140.281	-0.199	0.021
-284.545	524.849	0.026	0.061
-283.530	122.577	-0.055	0.068
-282.516	-200.000	-0.010	-0.072
-281.501	-136.893	-0.213	0.024
-280.486	143.845	0.126	0.166
-279.472	-163.015	-0.104	-0.005
-278.457	111.620	0.058	-0.070
-277.443	-41.229	0.258	-0.132
-276.428	800.000	-0.146	-0.414
-275.413	-60.622	-0.272	0.114
-274.399	-200.000	-0.035	-0.170
-273.384	163.333	-0.054	0.076
-272.370	31.963	0.164	0.140
-271.355	800.000	0.095	0.395
-270.340	90.673	-0.152	-0.169
-269.326	-78.535	0.155	0.053
-268.311	-200.000	0.084	0.367
-267.297	-200.000	0.287	-0.000
-266.282	-79.660	-0.102	-0.034
-265.267	122.479	0.174	-0.216
-264.253	177.776	-0.166	0.240
-263.238	56.270	0.079	-0.076
-262.224	472.683	-0.063	-0.140
-261.209	-200.000	0.005	-0.098
-260.195	157.050	0.188	0.258
-259.180	-200.000	-0.031	-0.235
-258.165	137.210	-0.024	-0.031
-257.151	-83.683	0.068	-0.021
-256.136	316.037	0.174	-0.325
-255.122	-190.051	0.291	-0.003
-254.107	-131.896	-0.378	-0.049
-253.092	800.000	0.070	0.206
-252.078	10.225	0.115	-0.086
-251.063	73.661	-0.294	0.304
-250.049	-91.427	0.224	0.063
-249.034	427.182	-0.173	-0.369
-248.019	73.683	0.156	0.162
-247.005	-171.642	0.176	-0.006
-245.990	-200.000	-0.035	-0.184
-244.976	-3.823	0.084	-0.058
-243.961	-157.860	0.155	-0.009
-242.946	-93.815	-0.251	-0.068
-241.932	161.903	-0.064	-0.089
-240.917	472.596	-0.117	0.262
-239.903	163.117	0.166	-0.231
-238.888	-98.054	-0.233	-0.059
-237.873	-2.404	-0.162	0.112
-236.859	759.571	-0.112	-0.300
-235.844	-78.958	-0.147	0.049
-234.830	-45.739	-0.216	-0.106
-233.815	-34.708	-0.183	-0.099
-232.800	525.150	-0.078	-0.181
-231.786	168.066	0.252	0.354
-230.771	47.351	-0.278	0.257
-229.757	-46.662	-0.537	-0.260
-228.742	-90.572	-0.368	-0.105
-227.727	238.298	0.146	0.240
-226.713	-125.120	0.345	-0.052
-225.698	-24.744	-0.101	0.059
-224.684	-131.075	-0.089	-0.012
-223.669	439.680	-0.111	0.240
-222.655	-73.626	0.292	-0.105
-221.640	-200.000	0.031	-0.180
-220.625	-200.000	-0.020	0.169
-219.611	800.000	0.083	-0.277
-218.596	127.106	-0.067	-0.084
-217.582	-200.000	-0.035	-0.173
-216.567	81.320	0.240	-0.257
-215.552	-67.498	0.022	-0.008
-214.538	-15.878	0.127	-0.080
-213.523	-145.187	0.280	-0.025
-212.509	-200.000	-0.025	-0.288
-211.494	-73.015	0.308	0.112
-210.479	464.501	0.014	-0.030
-209.465	429.592	0.193	0.412
-208.450	-193.596	0.136	-0.001
-207.436	247.715	0.094	0.157
-206.421	800.000	0.085	0.315
-205.406	-72.175	-0.271	-0.099
-204.392	-111.929	-0.268	0.053
-203.377	84.397	-0.214	-0.231
-202.363	143.543	0.120	-0.158
-201.348	11.589	0.498	0.377
-200.333	458.416	0.111	-0.243
-199.319	-200.000	0.006	0.199
-198.304	-39.129	-0.310	0.161
-197.290	36.821	-0.238	-0.208
-196.275	800.000	0.030	0.096
-195.260	-45.972	-0.098	-0.048
-194.246	-200.000	-0.100	-0.459
-193.231	-200.000	0.023	-0.231
-192.217	-147.343	0.213	0.018
-191.202	504.507	0.134	-0.307
-190.187	48.335	0.098	-0.091
-189.173	-63.012	-0.123	-0.050
-188.158	-36.364	0.107	-0.057
-187.144	-95.060	-0.181	-0.048
-186.129	117.738	-0.260	0.316
-185.114	46.225	0.218	-0.200
-184.100	800.000	0.053	-0.175
-183.085	-142.254	-0.222	-0.022
-182.071	-135.920	-0.277	0.032
-181.056	-78.672	0.243	0.082
-180.042	16.766	-0.292	0.228
-179.027	48.288	-0.239	-0.220
-178.012	-130.980	-0.107	-0.014
-176.998	-42.565	-0.260	-0.131
-175.983	-93.658	0.158	0.043
-174.969	-44.571	-0.084	0.041
-173.954	800.000	0.034	-0.099
-172.939	393.264	0.101	-0.207
-171.925	-200.000	-0.050	0.234
-170.910	-80.858	-0.220	0.072
-169.896	69.741	-0.248	0.253
-168.881	336.055	-0.117	0.223
-167.866	-30.937	0.196	-0.109
-166.852	-117.081	0.346	0.062
-165.837	-200.000	0.003	-0.220
-164.823	-200.000	-0.004	-0.314
-163.808	98.030	-0.312	-0.354
-162.793	-134.817	-0.165	-0.020
-161.779	-191.151	-0.317	-0.003
-160.764	-10.582	-0.456	0.298
-159.750	-99.423	-0.250	0.062
-158.735	-105.541	-0.142	0.032
-157.720	329.681	-0.127	-0.242
-156.706	-10.759	0.190	-0.124
-155.691	-184.330	0.185	0.003
-154.677	800.000	0.075	0.289
-153.662	-103.396	-0.255	0.059
-152.647	-120.073	0.160	-0.027
-151.633	631.552	-0.124	0.309
-150.618	-118.235	-0.104	-0.018
-149.604	-74.069	0.148	0.053
-148.589	-200.000	-0.028	0.279
-147.574	-200.000	0.024	-0.296
-146.560	-157.996	-0.121	-0.007
-145.545	84.795	0.101	0.109
-144.531	-200.000	0.049	0.342
-143.516	-21.210	-0.195	-0.118
-142.502	-200.000	0.011	0.311
-141.487	275.110	-0.100	-0.174
-140.472	-200.000	0.058	-0.305
-139.458	354.480	0.110	0.215
-138.443	61.634	-0.149	0.146
-137.429	-10.196	0.015	0.010
-136.414	-200.000	0.018	-0.426
-135.399	438.885	0.053	0.113
-134.385	262.862	-0.064	-0.110
-133.370	550.504	-0.097	-0.228
-132.356	-83.517	-0.079	-0.025
-131.341	-200.000	0.002	0.094
-130.326	-96.897	-0.406	-0.105
-129.312	470.834	-0.102	-0.227
-128.297	800.000	0.059	-0.162
-127.283	598.584	-0.110	-0.269
-126.268	-18.730	-0.167	-0.103
-125.253	-32.115	-0.158	0.087
-124.239	-109.247	-0.291	-0.061
-123.224	424.733	0.144	0.306
-122.210	-200.000	0.009	0.043
