DTS Sentinel unit serial number:	SN413079Multiplexer serial number:	ORYXHardware model number:	OX4-SRSoftware version number:	ORYX F/W v4.00 Oryx Data Collector v3.7.2.0data status	okinstallation	princeton_trtdifferential loss correction	single-endedforward channel	channel 3reverse channel	N/Adate	2019/09/11time	19:54:11forward acquisition time	60.00reverse acquisition time	0.00gamma	496.2192k internal	0.2299k external	0.2299temperature offset calibration	1.0018default loss term (dB/km)	0.3790temperature slope calibration	1.0000multiplexer offset coefficient	1.0000multiplexer slope coefficient	1.0000fibre end	0.00T internal ref (°C)	39.11T ext. ref 1 (°C)	1.37T ext. ref 2 (°C)	32.01length (m)	temperature (°C)	Stokes	anti-Stokes-747.200	407.239	0.094	-0.202
-746.185	-200.000	-0.039	0.321
-745.171	-38.305	0.321	-0.173
-744.156	-200.000	-0.076	0.406
-743.142	-200.000	-0.019	0.339
-742.127	-32.102	0.237	0.135
-741.112	-200.000	0.003	0.146
-740.098	218.732	-0.233	0.380
-739.083	-200.000	0.013	0.128
-738.069	-124.713	-0.145	0.023
-737.054	-132.039	-0.131	0.017
-736.039	457.193	-0.165	0.375
-735.025	-62.168	0.085	-0.036
-734.010	-58.805	0.222	0.098
-732.996	-200.000	0.009	0.224
-731.981	800.000	0.135	-0.558
-730.966	604.084	0.048	0.121
-729.952	-61.432	0.174	0.075
-728.937	800.000	-0.050	-0.160
-727.923	800.000	-0.019	-0.069
-726.908	29.751	-0.120	0.105
-725.894	49.193	-0.265	-0.254
-724.879	424.721	-0.017	-0.037
-723.864	-55.330	-0.289	-0.132
-722.850	132.026	0.142	0.187
-721.835	-35.115	0.030	0.017
-720.821	399.214	-0.124	0.266
-719.806	-54.106	0.447	-0.207
-718.791	800.000	0.087	-0.287
-717.777	-200.000	0.009	0.286
-716.762	101.381	-0.069	0.082
-715.748	575.730	-0.069	0.171
-714.733	-200.000	0.043	-0.372
-713.718	-172.062	-0.117	-0.004
-712.704	-30.046	-0.252	-0.146
-711.689	-106.143	-0.459	-0.105
-710.675	800.000	0.070	-0.290
-709.660	-15.213	-0.166	-0.108
-708.645	800.000	0.057	-0.209
-707.631	116.344	0.068	0.085
-706.616	800.000	-0.030	0.096
-705.602	-85.786	-0.276	0.087
-704.587	-148.851	0.204	0.017
-703.572	-31.786	0.151	-0.086
-702.558	621.192	0.134	0.344
-701.543	-200.000	0.023	0.312
-700.529	5.889	-0.295	0.222
-699.514	236.079	-0.117	0.198
-698.499	560.685	-0.039	-0.096
-697.485	-30.261	0.172	-0.100
-696.470	-200.000	-0.020	-0.178
-695.456	-147.906	0.222	-0.019
-694.441	-21.774	-0.106	-0.066
-693.426	800.000	-0.077	-0.333
-692.412	-3.941	-0.048	0.034
-691.397	37.932	-0.137	-0.124
-690.383	153.937	0.158	-0.220
-689.368	-35.735	0.091	0.050
-688.354	800.000	-0.067	0.274
-687.339	-200.000	-0.014	-0.195
-686.324	-37.098	-0.073	0.040
-685.310	-104.026	0.259	0.061
-684.295	132.809	-0.175	0.230
-683.281	-82.028	0.307	0.102
-682.266	800.000	-0.066	-0.280
-681.251	-200.000	0.047	0.369
-680.237	107.311	-0.167	-0.203
-679.222	-77.086	0.228	-0.081
-678.208	-22.775	0.313	-0.192
-677.193	280.387	-0.061	-0.110
-676.178	-163.038	0.115	0.006
-675.164	413.627	-0.087	0.189
-674.149	-161.159	-0.293	-0.016
-673.135	-200.000	0.004	-0.187
-672.120	-200.000	0.022	-0.429
-671.105	10.287	-0.138	-0.106
-670.091	745.138	0.057	-0.155
-669.076	800.000	0.064	-0.255
-668.062	93.371	-0.184	-0.212
-667.047	-146.843	0.108	0.009
-666.032	256.216	-0.189	-0.331
-665.018	-149.488	0.276	-0.022
-664.003	-200.000	-0.017	0.153
-662.989	-50.110	0.220	0.106
-661.974	120.096	0.212	0.268
-660.959	-15.006	-0.146	0.095
-659.945	800.000	-0.089	0.286
-658.930	263.097	-0.167	0.295
-657.916	-90.333	-0.332	-0.098
-656.901	-200.000	-0.026	0.363
-655.886	106.858	-0.239	-0.288
-654.872	-163.132	-0.148	-0.007
-653.857	229.912	0.137	-0.228
-652.843	455.161	-0.038	0.086
-651.828	800.000	-0.042	0.167
-650.814	-200.000	-0.030	0.145
-649.799	800.000	0.077	-0.302
-648.784	-34.994	0.166	0.092
-647.770	800.000	0.033	0.097
-646.755	46.269	0.172	0.162
-645.741	-200.000	-0.020	-0.100
-644.726	-200.000	0.013	-0.495
-643.711	-118.625	-0.068	-0.012
-642.697	-56.793	-0.140	0.063
-641.682	-115.976	0.192	0.036
-640.668	-28.384	-0.251	-0.147
-639.653	437.217	0.035	-0.077
-638.638	-200.000	-0.057	0.339
-637.624	-40.298	0.281	0.148
-636.609	-47.436	-0.356	-0.176
-635.595	46.735	0.117	0.110
-634.580	87.716	-0.061	-0.069
-633.565	-200.000	-0.046	-0.432
-632.551	-173.537	0.413	0.013
-631.536	-28.856	-0.078	-0.045
-630.522	-93.352	-0.328	0.092
-629.507	43.545	0.212	-0.197
-628.492	800.000	0.065	-0.227
-627.478	800.000	-0.066	0.273
-626.463	695.844	0.086	0.230
-625.449	159.296	0.102	-0.144
-624.434	-143.745	0.116	-0.011
-623.419	-200.000	0.007	-0.201
-622.405	-200.000	0.015	0.205
-621.390	-125.581	-0.108	0.017
-620.376	-138.351	-0.083	0.009
-619.361	-12.164	-0.160	0.106
-618.346	-46.007	0.074	0.037
-617.332	694.842	0.025	0.068
-616.317	681.117	0.104	-0.274
-615.303	243.334	-0.081	-0.137
-614.288	288.574	-0.095	-0.174
-613.273	16.197	-0.076	-0.060
-612.259	-16.501	-0.053	0.034
-611.244	114.039	-0.269	0.332
-610.230	384.000	-0.127	0.265
-609.215	-3.791	-0.095	0.067
-608.201	-86.549	0.322	-0.100
-607.186	-170.163	-0.172	-0.006
-606.171	800.000	-0.024	-0.068
-605.157	-22.043	-0.083	-0.051
-604.142	-194.583	0.128	-0.001
-603.128	-167.145	-0.188	0.008
-602.113	5.455	-0.089	-0.067
-601.098	100.423	0.237	0.279
-600.084	-149.258	0.322	0.026
-599.069	48.138	0.060	-0.057
-598.055	-81.257	-0.318	0.106
-597.040	772.407	0.068	0.188
-596.025	503.498	0.136	0.320
-595.011	-130.185	0.257	0.035
-593.996	93.533	0.168	0.193
-592.982	-200.000	0.015	0.083
-591.967	-66.260	-0.026	0.010
-590.952	79.134	-0.288	0.313
-589.938	-200.000	-0.023	-0.384
-588.923	-160.811	-0.241	0.013
-587.909	-24.067	0.067	0.040
-586.894	38.471	-0.148	-0.133
-585.879	-70.866	-0.413	0.158
-584.865	-35.550	-0.379	-0.208
-583.850	-56.616	0.120	0.054
-582.836	-200.000	0.048	-0.275
-581.821	491.159	-0.144	-0.335
-580.806	623.903	-0.040	-0.102
-579.792	800.000	0.034	-0.097
-578.777	242.974	0.060	0.103
-577.763	-200.000	0.050	0.271
-576.748	-44.862	0.350	-0.177
-575.733	353.697	0.132	0.265
-574.719	800.000	-0.053	0.163
-573.704	31.245	-0.112	-0.098
-572.690	800.000	-0.036	0.105
-571.675	-9.532	-0.169	-0.114
-570.661	-162.988	-0.025	0.001
-569.646	99.985	0.204	0.240
-568.631	-93.823	-0.208	-0.058
-567.617	3.646	-0.049	0.036
-566.602	800.000	0.004	0.013
-565.588	-136.563	0.195	0.023
-564.573	-24.499	-0.109	-0.066
-563.558	-51.516	0.354	0.167
-562.544	-200.000	-0.012	0.091
-561.529	-200.000	-0.059	0.291
-560.515	-17.752	0.221	-0.140
-559.500	-112.884	0.283	0.057
-558.485	410.302	0.132	-0.284
-557.471	-169.183	-0.193	-0.007
-556.456	-83.945	0.151	0.049
-555.442	-10.011	0.098	0.066
-554.427	-200.000	0.033	0.202
-553.412	-200.000	0.007	-0.056
-552.398	-82.043	-0.086	0.028
-551.383	207.450	-0.158	-0.249
-550.369	-81.146	-0.087	0.029
-549.354	-200.000	-0.018	-0.330
-548.339	307.761	-0.069	-0.130
-547.325	800.000	-0.045	0.159
-546.310	-118.735	0.284	-0.051
-545.296	-200.000	0.063	-0.338
-544.281	-87.773	-0.216	-0.066
-543.266	147.289	-0.008	-0.011
-542.252	-103.418	0.082	-0.020
-541.237	-200.000	-0.041	0.222
-540.223	-200.000	0.017	-0.121
-539.208	-200.000	-0.005	-0.112
-538.193	-69.955	-0.263	0.101
-537.179	22.670	-0.121	0.100
-536.164	199.819	0.127	-0.197
-535.150	-39.459	-0.111	-0.059
-534.135	-82.009	0.361	0.119
-533.121	-114.835	0.337	-0.065
-532.106	-87.732	0.170	0.052
-531.091	553.075	-0.180	-0.437
-530.077	7.321	0.260	-0.196
-529.062	140.844	0.327	-0.437
-528.048	229.588	-0.176	0.291
-527.033	146.216	-0.110	-0.149
-526.018	-200.000	0.045	0.354
-525.004	222.483	-0.163	0.265
-523.989	244.898	-0.115	0.195
-522.975	800.000	-0.031	-0.091
-521.960	-200.000	0.058	-0.495
-520.945	491.529	0.097	-0.224
-519.931	-63.007	-0.113	-0.047
-518.916	15.448	-0.040	-0.032
-517.902	-200.000	0.009	-0.288
-516.887	-200.000	-0.035	0.329
-515.872	-17.504	-0.385	-0.245
-514.858	271.929	-0.223	-0.398
-513.843	-165.626	-0.177	0.008
-512.829	354.829	0.056	-0.113
-511.814	32.109	0.292	-0.254
-510.799	-200.000	0.015	0.112
-509.785	-99.719	0.222	-0.056
-508.770	14.241	-0.078	0.061
-507.756	-37.323	0.183	-0.099
-506.741	-200.000	0.034	0.169
-505.726	-50.742	-0.348	-0.165
-504.712	-37.329	-0.116	0.063
-503.697	-200.000	0.358	0.002
-502.683	275.022	0.030	-0.054
-501.668	-136.806	-0.152	0.018
-500.653	-38.128	0.147	0.079
-499.639	283.103	0.018	0.032
-498.624	112.273	0.081	0.099
-497.610	-150.616	-0.518	-0.040
-496.595	27.556	-0.264	-0.224
-495.581	-84.598	0.102	-0.032
-494.566	147.601	0.215	0.292
-493.551	121.825	0.078	-0.098
-492.537	8.837	-0.199	-0.152
-491.522	-50.299	0.371	-0.177
-490.508	-109.003	-0.316	0.068
-489.493	-30.153	0.041	-0.023
-488.478	126.250	-0.040	0.051
-487.464	258.575	0.069	0.119
-486.449	382.196	0.039	0.081
-485.435	-200.000	-0.035	0.243
-484.420	-88.470	-0.101	0.030
-483.405	-200.000	-0.040	0.205
-482.391	-200.000	0.010	-0.203
-481.376	800.000	-0.051	0.159
-480.362	-145.912	-0.151	-0.013
-479.347	434.372	-0.024	0.053
-478.332	137.176	0.046	-0.061
-477.318	-200.000	-0.041	-0.201
-476.303	-47.729	-0.152	0.074
-475.289	129.069	-0.165	-0.212
-474.274	-200.000	-0.004	-0.246
-473.259	152.706	0.141	-0.195
-472.245	-99.489	-0.274	-0.070
-471.230	1.536	0.155	0.113
-470.216	-200.000	-0.028	0.305
-469.201	-141.413	-0.274	0.028
-468.186	100.226	0.113	-0.133
-467.172	800.000	-0.071	-0.263
-466.157	120.996	-0.225	-0.283
-465.143	-200.000	0.042	-0.208
-464.128	218.236	-0.066	-0.106
-463.113	-62.594	0.118	0.049
-462.099	-116.226	0.227	0.043
-461.084	800.000	-0.091	0.393
-460.070	800.000	-0.066	0.279
-459.055	-103.764	0.197	0.047
-458.040	-2.901	-0.145	0.102
-457.026	-122.338	0.195	0.032
-456.011	800.000	-0.024	-0.093
-454.997	268.823	-0.081	0.144
-453.982	-200.000	0.031	0.223
-452.968	-200.000	0.037	0.216
-451.953	3.282	-0.450	0.331
-450.938	-47.094	0.246	-0.121
-449.924	707.933	-0.059	-0.156
-448.909	-2.079	0.194	-0.137
-447.895	800.000	0.089	-0.333
-446.880	-147.243	-0.413	0.035
-445.865	-118.401	0.180	-0.032
-444.851	-89.995	0.132	-0.039
-443.836	-200.000	-0.010	0.121
-442.822	-200.000	0.055	-0.276
-441.807	-143.051	0.151	-0.015
-440.792	474.227	0.142	0.323
-439.778	52.053	0.160	-0.154
-438.763	-85.464	0.276	0.087
-437.749	163.177	0.288	-0.408
-436.734	104.293	-0.244	0.289
-435.719	18.597	-0.250	0.201
-434.705	262.433	-0.105	0.183
-433.690	162.809	0.101	-0.143
-432.676	-28.253	0.279	0.163
-431.661	-30.920	-0.084	-0.048
-430.646	263.588	0.123	-0.215
-429.632	800.000	-0.033	-0.103
-428.617	-200.000	-0.025	-0.175
-427.603	-63.923	-0.167	-0.069
-426.588	277.772	-0.124	-0.223
-425.573	-12.898	-0.175	0.115
-424.559	520.820	0.076	-0.179
-423.544	-3.178	0.046	0.032
-422.530	-74.552	0.332	0.120
-421.515	-31.875	-0.302	-0.170
-420.500	-112.123	0.333	0.068
-419.486	198.320	0.091	-0.141
-418.471	-200.000	0.029	0.143
-417.457	-133.288	0.110	-0.014
-416.442	800.000	0.111	0.362
-415.428	681.248	-0.027	-0.070
-414.413	-200.000	-0.052	0.378
-413.398	-110.093	-0.076	0.016
-412.384	57.917	0.166	-0.164
-411.369	-117.872	0.272	0.049
-410.355	800.000	0.046	-0.191
-409.340	800.000	-0.035	0.101
-408.325	-121.967	-0.287	0.047
-407.311	205.624	-0.167	-0.261
-406.296	-200.000	0.013	0.104
-405.282	74.928	-0.141	-0.150
-404.267	-58.775	0.120	-0.052
-403.252	325.929	0.181	-0.348
-402.238	218.843	0.082	-0.132
-401.223	197.683	0.161	-0.247
-400.209	-200.000	-0.009	0.223
-399.194	800.000	-0.058	-0.199
-398.179	215.612	-0.091	-0.146
-397.165	-86.983	-0.266	-0.082
-396.150	224.806	-0.038	0.063
-395.136	-200.000	0.050	0.304
-394.121	471.634	-0.061	0.139
-393.106	106.674	0.149	0.178
-392.092	-114.866	-0.239	0.046
-391.077	349.734	-0.096	0.192
-390.063	180.537	0.094	-0.139
-389.048	76.296	0.159	-0.169
-388.033	-32.307	0.130	-0.073
-387.019	-92.397	-0.268	-0.076
-386.004	427.980	0.086	0.187
-384.990	9.338	0.211	0.161
-383.975	-100.193	-0.371	0.093
-382.960	-139.024	0.095	0.010
-381.946	24.557	0.197	0.164
-380.931	467.250	-0.068	0.152
-379.917	-14.806	0.224	0.145
-378.902	110.709	-0.166	0.201
-377.888	-92.635	-0.320	-0.090
-376.873	-200.000	-0.048	0.348
-375.858	109.927	0.040	-0.049
-374.844	-200.000	0.019	0.171
-373.829	-165.046	-0.273	0.012
-372.815	-164.369	-0.232	0.011
-371.800	800.000	0.073	0.249
-370.785	-200.000	0.006	0.073
-369.771	90.184	-0.055	0.062
-368.756	-67.395	-0.226	-0.089
-367.742	-200.000	0.039	0.319
-366.727	-200.000	0.017	0.189
-365.712	-16.245	0.258	0.165
-364.698	-200.000	-0.011	0.189
-363.683	-90.471	0.269	0.078
-362.669	146.977	-0.145	0.196
-361.654	75.128	-0.078	-0.083
-360.639	-200.000	-0.022	-0.187
-359.625	-200.000	-0.027	-0.190
-358.610	-139.029	0.313	0.034
-357.596	23.400	-0.275	-0.227
-356.581	-48.080	-0.192	0.093
-355.566	-108.372	-0.325	0.070
-354.552	63.431	-0.083	-0.084
-353.537	221.889	0.033	-0.053
-352.523	245.292	0.123	0.208
-351.508	800.000	0.023	0.069
-350.493	800.000	0.104	-0.292
-349.479	-52.452	-0.170	0.079
-348.464	-28.349	0.213	-0.124
-347.450	186.340	0.020	0.029
-346.435	800.000	-0.058	0.164
-345.420	39.816	0.266	0.240
-344.406	63.584	-0.100	0.101
-343.391	800.000	-0.080	-0.302
-342.377	-200.000	0.030	0.287
-341.362	300.425	-0.094	0.174
-340.348	-79.501	0.126	-0.043
-339.333	800.000	-0.044	0.153
-338.318	-20.483	0.382	0.236
-337.304	160.639	0.092	-0.129
-336.289	-200.000	-0.005	0.509
-335.275	-14.279	-0.329	-0.213
-334.260	-200.000	0.029	0.217
-333.245	28.648	-0.228	-0.193
-332.231	-200.000	0.017	0.217
-331.216	800.000	0.050	-0.144
-330.202	-87.756	-0.181	-0.055
-329.187	389.442	-0.050	-0.104
-328.172	27.955	-0.242	0.205
-327.158	-13.113	-0.173	0.113
-326.143	5.564	-0.317	-0.235
-325.129	427.357	-0.031	0.067
-324.114	-164.519	-0.231	-0.011
-323.099	-101.569	0.527	-0.129
-322.085	8.980	0.046	-0.035
-321.070	-123.995	0.484	0.076
-320.056	-127.367	0.502	0.073
-319.041	-122.184	0.410	-0.067
-318.026	-81.364	-0.313	-0.104
-317.012	608.022	-0.036	0.091
-315.997	308.644	0.059	0.110
-314.983	-96.928	0.252	-0.066
-313.968	-81.499	0.111	0.037
-312.953	-47.152	0.336	0.165
-311.939	-128.298	-0.150	0.022
-310.924	800.000	-0.063	-0.180
-309.910	488.222	0.150	0.343
-308.895	26.069	0.191	0.159
-307.880	604.689	-0.065	-0.163
-306.866	-111.743	-0.174	-0.035
-305.851	180.748	0.230	0.338
-304.837	50.493	-0.265	0.251
-303.822	-200.000	0.001	-0.332
-302.807	306.264	-0.136	-0.254
-301.793	-200.000	0.040	-0.297
-300.778	-164.994	-0.459	0.021
-299.764	321.162	0.027	0.051
-298.749	16.254	0.190	0.151
-297.735	-114.296	0.230	0.044
-296.720	-200.000	-0.011	0.165
-295.705	128.849	0.043	-0.055
-294.691	-200.000	-0.054	0.295
-293.676	182.410	0.130	-0.192
-292.662	-174.971	-0.134	0.004
-291.647	-49.775	-0.274	-0.131
-290.632	-23.301	-0.134	0.081
-289.618	-74.970	0.103	0.037
-288.603	21.906	-0.223	-0.183
-287.589	-65.239	-0.118	-0.048
-286.574	74.944	-0.108	-0.114
-285.559	-200.000	0.011	-0.062
-284.545	-200.000	-0.048	-0.227
-283.530	800.000	0.076	-0.278
-282.516	-115.788	0.267	0.050
-281.501	-9.360	-0.122	0.081
-280.486	58.505	-0.152	0.150
-279.472	-200.000	-0.052	-0.283
-278.457	-178.417	-0.193	0.004
-277.443	-200.000	-0.108	-0.000
-276.428	43.106	0.288	-0.263
-275.413	474.792	-0.214	-0.485
-274.399	56.106	-0.127	-0.124
-273.384	800.000	0.036	0.128
-272.370	-82.581	-0.215	0.070
-271.355	252.021	0.088	-0.151
-270.340	452.539	-0.109	-0.242
-269.326	68.746	0.056	0.057
-268.311	344.873	-0.054	0.107
-267.297	800.000	-0.021	0.091
-266.282	-38.374	-0.096	-0.051
-265.267	-59.488	0.437	-0.188
-264.253	-59.417	0.147	0.063
-263.238	431.320	-0.052	0.112
-262.224	-12.910	-0.225	0.147
-261.209	0.072	0.353	-0.252
-260.195	664.893	-0.045	0.117
-259.180	133.782	0.071	-0.093
-258.165	312.764	0.220	-0.415
-257.151	-200.000	-0.015	-0.085
-256.136	-22.093	-0.295	-0.180
-255.122	800.000	-0.135	-0.535
-254.107	800.000	0.130	-0.375
-253.092	-44.839	0.121	-0.060
-252.078	21.972	0.151	-0.123
-251.063	44.153	-0.210	0.193
-250.049	779.416	0.030	0.083
-249.034	123.933	0.145	-0.183
-248.019	-49.950	-0.161	-0.076
-247.005	788.842	0.078	0.214
-245.990	382.590	-0.017	0.035
-244.976	-200.000	0.012	-0.100
-243.961	120.289	-0.282	-0.350
-242.946	47.934	0.142	0.133
-241.932	-200.000	-0.004	-0.198
-240.917	-200.000	0.014	-0.201
-239.903	116.226	0.132	-0.162
-238.888	800.000	-0.081	0.326
-237.873	43.507	-0.140	-0.128
-236.859	-16.115	-0.208	0.132
-235.844	59.182	-0.040	0.039
-234.830	-81.920	0.270	-0.088
-233.815	314.880	0.058	0.109
-232.800	340.961	-0.063	0.123
-231.786	-122.970	0.233	0.038
-230.771	-50.477	-0.410	-0.194
-229.757	-35.069	0.336	0.183
-228.742	-47.589	0.126	-0.061
-227.727	27.178	-0.260	0.218
-226.713	-139.043	-0.268	-0.029
-225.698	97.339	-0.170	0.196
-224.684	125.732	-0.144	0.182
-223.669	-75.016	0.619	-0.222
-222.655	-11.136	-0.190	0.125
-221.640	-25.721	-0.107	0.063
-220.625	-165.394	-0.031	0.001
-219.611	-109.012	-0.137	-0.029
-218.596	443.416	0.066	0.144
-217.582	-160.652	-0.418	-0.022
-216.567	62.080	-0.196	0.195
-215.552	800.000	0.023	0.099
-214.538	147.487	-0.137	-0.184
-213.523	122.565	0.085	0.107
-212.509	599.994	-0.167	0.414
-211.494	655.187	0.148	0.379
-210.479	53.917	0.080	0.077
-209.465	-111.081	0.131	0.027
-208.450	67.536	0.120	-0.123
-207.436	99.149	-0.087	0.101
-206.421	106.174	-0.076	0.090
-205.406	169.737	0.071	-0.102
-204.392	2.382	0.243	-0.175
-203.377	117.921	-0.084	0.103
-202.363	-87.155	0.397	-0.121
-201.348	13.464	0.170	-0.132
-200.333	-105.343	0.055	-0.013
-199.319	-36.545	-0.191	0.103
-198.304	338.396	-0.050	0.097
-197.290	212.915	-0.103	0.163
-196.275	168.354	-0.076	-0.108
-195.260	-6.231	-0.116	-0.079
-194.246	-178.282	0.259	-0.006
-193.231	-93.839	-0.250	-0.069
-192.217	-107.286	0.194	-0.043
-191.202	93.796	0.032	-0.036
-190.187	-200.000	0.021	0.151
-189.173	425.651	-0.098	0.211
-188.158	202.546	-0.008	0.013
-187.144	-105.301	-0.312	-0.071
-186.129	607.375	0.047	0.116
-185.114	321.287	0.060	-0.115
-184.100	118.485	0.134	0.165
-183.085	-147.452	-0.368	0.031
-182.071	-200.000	-0.021	0.451
-181.056	800.000	-0.093	0.346
-180.042	120.198	-0.163	-0.202
-179.027	-156.951	0.183	0.011
-178.012	-75.173	0.389	-0.139
-176.998	-200.000	-0.010	-0.150
-175.983	197.590	-0.092	-0.140
-174.969	800.000	0.041	-0.150
-173.954	82.281	0.136	0.147
-172.939	19.012	-0.038	0.030
-171.925	800.000	-0.040	0.120
-170.910	190.644	0.226	0.338
-169.896	-112.831	0.163	-0.032
-168.881	-147.328	0.463	0.039
-167.866	-43.687	-0.197	-0.099
-166.852	-70.490	-0.189	-0.071
-165.837	90.688	0.133	0.149
-164.823	296.983	0.152	-0.278
-163.808	-200.000	0.009	0.133
-162.793	-151.372	0.207	-0.015
-161.779	800.000	0.068	0.188
-160.764	42.216	0.189	-0.171
-159.750	800.000	-0.080	-0.292
-158.735	-200.000	-0.051	0.355
-157.720	-200.000	-0.014	0.098
-156.706	622.361	0.038	-0.096
-155.691	31.905	0.243	-0.209
-154.677	-84.529	-0.218	0.069
-153.662	83.016	-0.194	0.210
-152.647	219.165	-0.081	0.130
-151.633	-126.993	0.401	0.059
-150.618	-200.000	-0.005	-0.098
-149.604	-200.000	0.036	0.251
-148.589	-121.616	0.142	-0.023
-147.574	113.773	-0.019	0.023
-146.560	154.401	0.269	-0.368
-145.545	-117.438	-0.257	0.046
-144.531	352.304	-0.027	0.053
-143.516	33.172	-0.306	0.265
-142.502	-94.320	-0.352	-0.096
-141.487	9.180	-0.168	0.127
-140.472	102.405	0.177	-0.207
-139.458	-58.909	0.225	0.097
-138.443	202.286	0.120	0.185
-137.429	-55.952	0.192	0.085
-136.414	-147.091	-0.256	0.022
-135.399	-0.067	0.043	-0.030
-134.385	148.234	-0.131	-0.176
-133.370	-133.003	0.049	-0.006
-132.356	-168.755	0.421	-0.016
-131.341	24.450	0.108	-0.089
-130.326	69.696	0.177	0.182
-129.312	-117.678	-0.074	-0.013
-128.297	64.370	0.167	0.168
-127.283	84.273	0.074	0.081
-126.268	-200.000	-0.005	-0.138
-125.253	-30.546	0.131	0.074
-124.239	-200.000	0.019	-0.356
-123.224	-62.729	-0.096	0.040
-122.210	800.000	-0.101	0.397
-121.195	115.879	0.186	-0.226
