DTS Sentinel unit serial number:	SN413079Multiplexer serial number:	ORYXHardware model number:	OX4-SRSoftware version number:	ORYX F/W v4.00 Oryx Data Collector v3.7.2.0data status	okinstallation	princeton_trtdifferential loss correction	single-endedforward channel	channel 3reverse channel	N/Adate	2019/09/12time	12:54:11forward acquisition time	60.00reverse acquisition time	0.00gamma	496.2192k internal	0.2291k external	0.2291temperature offset calibration	1.0040default loss term (dB/km)	0.3790temperature slope calibration	1.0000multiplexer offset coefficient	1.0000multiplexer slope coefficient	1.0000fibre end	0.00T internal ref (°C)	40.78T ext. ref 1 (°C)	2.07T ext. ref 2 (°C)	37.71length (m)	temperature (°C)	Stokes	anti-Stokes-747.200	800.000	-0.043	0.151
-746.185	165.659	0.025	0.036
-745.171	394.119	-0.099	-0.211
-744.156	181.242	0.107	0.162
-743.142	-15.250	-0.110	-0.072
-742.127	182.818	-0.218	0.329
-741.112	-116.820	-0.427	0.080
-740.098	800.000	0.073	0.207
-739.083	258.522	0.072	0.127
-738.069	777.208	-0.045	0.127
-737.054	800.000	0.098	-0.300
-736.039	-141.460	-0.226	0.023
-735.025	-131.816	-0.240	-0.032
-734.010	107.640	0.127	-0.155
-732.996	800.000	-0.049	-0.210
-731.981	800.000	0.062	0.275
-730.966	-128.410	-0.202	-0.029
-729.952	-156.712	0.180	-0.011
-728.937	-118.449	-0.273	-0.050
-727.923	76.640	-0.129	0.140
-726.908	-151.147	-0.210	0.016
-725.894	-154.536	0.267	0.018
-724.879	277.286	0.114	0.208
-723.864	-46.809	-0.254	-0.127
-722.850	77.519	0.120	-0.131
-721.835	-108.681	-0.168	-0.037
-720.821	-200.000	0.008	0.091
-719.806	-94.322	-0.356	-0.100
-718.791	236.370	-0.026	-0.044
-717.777	189.899	0.215	0.330
-716.762	603.167	-0.036	0.092
-715.748	443.558	-0.041	-0.093
-714.733	-52.021	-0.284	0.135
-713.718	-155.394	-0.291	0.019
-712.704	-200.000	-0.047	-0.267
-711.689	-19.406	0.169	-0.107
-710.675	-30.556	0.279	0.161
-709.660	800.000	-0.028	0.100
-708.645	74.118	-0.147	-0.157
-707.631	107.274	-0.210	-0.255
-706.616	228.869	0.093	-0.155
-705.602	-69.849	0.070	0.027
-704.587	-200.000	-0.018	-0.145
-703.572	397.820	0.093	-0.198
-702.558	37.912	-0.329	-0.299
-701.543	16.317	0.126	0.101
-700.529	800.000	-0.044	0.136
-699.514	51.573	0.327	0.318
-698.499	118.569	-0.257	-0.324
-697.485	-200.000	0.022	0.107
-696.470	-200.000	0.003	-0.350
-695.456	-39.337	-0.321	-0.172
-694.441	151.978	0.093	0.130
-693.426	-98.818	-0.520	0.135
-692.412	57.562	-0.104	0.104
-691.397	153.830	0.098	0.137
-690.383	800.000	-0.043	-0.126
-689.368	38.961	-0.196	-0.179
-688.354	-35.928	-0.287	0.158
-687.339	-168.926	-0.182	-0.007
-686.324	195.686	-0.130	0.201
-685.310	6.377	0.181	-0.137
-684.295	800.000	0.060	-0.266
-683.281	699.120	0.067	-0.180
-682.266	-93.709	-0.106	-0.030
-681.251	800.000	0.079	-0.348
-680.237	-200.000	0.003	0.117
-679.222	223.982	0.091	0.150
-678.208	-90.163	0.096	-0.029
-677.193	-175.134	-0.341	0.010
-676.178	-200.000	-0.043	-0.277
-675.164	800.000	-0.017	0.055
-674.149	28.758	-0.203	0.175
-673.135	304.038	-0.137	0.259
-672.120	27.158	-0.143	-0.122
-671.105	-200.000	0.062	0.289
-670.091	-200.000	0.006	0.190
-669.076	-67.688	-0.177	0.071
-668.062	-56.455	-0.279	0.127
-667.047	299.948	-0.054	-0.102
-666.032	-192.774	-0.354	-0.003
-665.018	-101.251	0.247	-0.062
-664.003	72.768	-0.098	-0.105
-662.989	312.173	-0.074	0.142
-661.974	2.754	0.143	-0.106
-660.959	392.668	0.055	-0.116
-659.945	-23.471	-0.279	0.171
-658.930	-114.436	0.204	0.040
-657.916	-181.044	-0.190	-0.004
-656.901	60.494	-0.126	-0.127
-655.886	-191.944	-0.056	0.001
-654.872	-128.756	-0.288	-0.041
-653.857	232.646	0.167	0.280
-652.843	26.834	-0.146	0.125
-651.828	-90.852	-0.208	-0.061
-650.814	-6.197	-0.049	0.034
-649.799	-200.000	0.005	-0.093
-648.784	462.667	-0.048	0.109
-647.770	101.733	-0.175	-0.208
-646.755	368.898	0.061	-0.127
-645.741	476.547	-0.081	-0.188
-644.726	25.652	0.107	-0.091
-643.711	-146.198	-0.090	-0.008
-642.697	-200.000	-0.016	0.076
-641.682	-105.498	0.105	0.024
-640.668	-200.000	-0.187	0.001
-639.653	728.477	0.174	-0.474
-638.638	-79.197	-0.303	0.105
-637.624	-30.568	0.040	-0.023
-636.609	-45.869	-0.156	0.079
-635.595	412.172	0.061	0.133
-634.580	294.743	0.057	-0.106
-633.565	800.000	0.042	-0.126
-632.551	-70.985	0.153	-0.059
-631.536	12.388	0.175	0.138
-630.522	-200.000	0.019	0.094
-629.507	-200.000	-0.044	0.299
-628.492	800.000	-0.086	0.318
-627.478	216.255	0.044	-0.071
-626.463	410.396	0.181	-0.391
-625.449	800.000	-0.049	0.207
-624.434	-73.866	-0.371	-0.137
-623.419	387.873	-0.165	-0.347
-622.405	-73.003	-0.112	-0.042
-621.390	310.380	-0.118	0.226
-620.376	-54.291	0.144	0.066
-619.361	-133.510	-0.294	-0.038
-618.346	-200.000	-0.039	-0.198
-617.332	-200.000	-0.011	-0.068
-616.317	-18.324	0.333	0.212
-615.303	16.088	0.330	0.265
-614.288	-145.711	-0.132	-0.012
-613.273	-182.488	0.311	-0.006
-612.259	-200.000	0.019	-0.150
-611.244	-200.000	0.017	-0.295
-610.230	723.385	0.053	-0.144
-609.215	20.183	0.163	-0.134
-608.201	-136.573	-0.301	0.035
-607.186	-119.125	-0.348	-0.062
-606.171	-84.932	-0.190	0.061
-605.157	-126.796	0.205	0.031
-604.142	147.394	0.200	0.275
-603.128	-119.769	-0.216	0.038
-602.113	350.658	0.132	-0.266
-601.098	800.000	-0.049	0.209
-600.084	-58.280	0.276	-0.122
-599.069	25.297	0.090	0.076
-598.055	-142.724	-0.317	0.031
-597.040	490.884	-0.083	-0.193
-596.025	65.759	0.179	-0.185
-595.011	-95.629	0.123	0.034
-593.996	-25.554	-0.116	-0.070
-592.982	-85.112	-0.136	0.043
-591.967	-151.428	-0.163	-0.012
-590.952	-200.000	0.008	-0.109
-589.938	-71.215	-0.172	-0.066
-588.923	-135.628	-0.363	0.044
-587.909	-200.000	0.040	0.394
-586.894	-120.722	0.353	0.061
-585.879	382.472	-0.111	0.233
-584.865	85.175	-0.214	-0.238
-583.850	800.000	0.103	0.351
-582.836	66.499	-0.214	-0.221
-581.821	58.816	-0.207	-0.207
-580.806	36.099	0.179	-0.161
-579.792	-200.000	0.001	-0.059
-578.777	-200.000	0.026	-0.215
-577.763	-111.291	-0.233	0.048
-576.748	2.979	-0.135	0.099
-575.733	216.037	-0.111	-0.180
-574.719	34.944	-0.089	0.079
-573.704	-31.752	0.222	-0.127
-572.690	-169.096	-0.089	0.003
-571.675	-141.168	-0.177	-0.018
-570.661	26.163	0.159	0.135
-569.646	54.014	-0.088	-0.086
-568.631	-86.010	-0.064	0.020
-567.617	-74.101	-0.152	-0.056
-566.602	-67.193	0.134	-0.054
-565.588	-200.000	-0.006	0.041
-564.573	-61.349	-0.119	-0.051
-563.558	800.000	0.062	-0.218
-562.544	-132.378	-0.250	0.033
-561.529	-172.441	0.193	-0.006
-560.515	19.257	-0.123	0.100
-559.500	-136.797	-0.055	0.006
-558.485	43.632	-0.177	-0.164
-557.471	-0.772	-0.141	-0.101
-556.456	-200.000	0.019	-0.171
-555.442	142.469	-0.157	-0.212
-554.427	24.628	0.154	-0.130
-553.412	-146.928	-0.236	0.021
-552.398	-40.349	-0.245	-0.129
-551.383	-21.965	0.108	0.067
-550.369	800.000	-0.098	0.407
-549.354	-200.000	-0.026	0.173
-548.339	-200.000	-0.036	-0.400
-547.325	-200.000	-0.024	0.158
-546.310	361.081	0.051	0.105
-545.296	228.468	0.258	-0.428
-544.281	215.523	0.076	-0.122
-543.266	-200.000	-0.021	-0.309
-542.252	-47.902	0.166	0.082
-541.237	-87.218	-0.160	0.049
-540.223	-139.968	-0.347	0.037
-539.208	70.560	0.112	-0.117
-538.193	-78.036	-0.376	0.131
-537.179	395.330	-0.071	-0.150
-536.164	-71.513	0.298	-0.113
-535.150	-200.000	-0.025	-0.207
-534.135	4.702	-0.103	0.077
-533.121	174.805	0.236	-0.347
-532.106	-161.649	-0.309	-0.016
-531.091	-200.000	0.009	0.246
-530.077	-200.000	-0.069	0.341
-529.062	176.037	0.127	-0.187
-528.048	-101.533	0.309	0.076
-527.033	265.829	0.172	-0.304
-526.018	2.632	-0.170	0.125
-525.004	-118.773	0.194	-0.035
-523.989	-200.000	0.052	-0.430
-522.975	800.000	0.074	-0.310
-521.960	800.000	0.040	-0.150
-520.945	29.092	-0.287	0.247
-519.931	140.327	-0.188	-0.251
-518.916	800.000	0.093	-0.294
-517.902	-0.866	-0.151	-0.109
-516.887	-149.813	-0.263	0.021
-515.872	-116.820	-0.025	0.005
-514.858	106.563	-0.082	0.099
-513.843	43.257	-0.077	0.071
-512.829	-110.384	-0.210	-0.044
-511.814	-200.000	0.013	0.270
-510.799	39.720	0.211	0.192
-509.785	-200.000	-0.058	0.354
-508.770	-106.854	0.214	-0.048
-507.756	383.586	-0.139	-0.291
-506.741	-109.518	0.189	0.040
-505.726	42.565	0.075	-0.069
-504.712	-60.117	-0.215	-0.093
-503.697	-139.048	-0.230	-0.025
-502.683	-129.465	-0.211	-0.030
-501.668	-79.270	-0.480	-0.165
-500.653	-164.471	0.283	0.013
-499.639	28.036	0.259	0.221
-498.624	-200.000	-0.019	0.147
-497.610	72.186	0.037	-0.039
-496.595	99.963	-0.201	0.236
-495.581	800.000	-0.054	0.177
-494.566	206.706	0.267	0.422
-493.551	800.000	0.042	0.136
-492.537	45.838	0.303	0.285
-491.522	800.000	-0.043	-0.178
-490.508	-200.000	-0.066	-0.304
-489.493	-158.753	-0.352	0.020
-488.478	199.204	-0.118	0.183
-487.464	-90.152	0.116	0.034
-486.449	-200.000	0.039	0.246
-485.435	-70.432	-0.124	0.048
-484.420	-39.401	0.144	0.077
-483.405	-19.234	-0.236	0.148
-482.391	-101.514	0.034	-0.008
-481.376	214.154	0.059	-0.095
-480.362	247.529	-0.139	-0.237
-479.347	-82.720	-0.091	-0.030
-478.332	-200.000	-0.025	-0.343
-477.318	108.945	0.226	0.274
-476.303	190.197	-0.044	0.067
-475.289	-200.000	-0.008	0.179
-474.274	-68.627	-0.486	-0.191
-473.259	-109.382	-0.411	-0.088
-472.245	800.000	0.050	-0.204
-471.230	-181.972	0.245	0.005
-470.216	-30.251	-0.195	-0.112
-469.201	-109.087	-0.221	0.048
-468.186	-98.710	-0.282	-0.073
-467.172	70.593	0.106	-0.111
-466.157	-40.549	0.119	-0.062
-465.143	-147.522	0.345	0.029
-464.128	-39.007	0.385	0.205
-463.113	-120.726	0.092	0.016
-462.099	-11.500	-0.071	0.048
-461.084	-85.866	0.116	-0.037
-460.070	-99.253	-0.234	0.060
-459.055	316.322	-0.037	0.070
-458.040	-33.744	-0.010	-0.005
-457.026	65.632	0.161	0.165
-456.011	-200.000	-0.038	-0.264
-454.997	40.642	0.031	0.028
-453.982	-65.818	0.263	-0.107
-452.968	237.448	-0.048	0.080
-451.953	-52.695	0.256	-0.120
-450.938	-95.069	0.341	-0.093
-449.924	-29.508	0.122	-0.070
-448.909	49.313	0.178	-0.170
-447.895	201.473	-0.284	-0.443
-446.880	-101.108	0.364	0.090
-445.865	-200.000	0.007	0.152
-444.851	30.229	0.244	0.211
-443.836	-58.127	0.161	0.071
-442.822	-28.461	0.364	0.212
-441.807	96.080	-0.125	-0.145
-440.792	800.000	0.034	-0.101
-439.778	-161.799	-0.181	-0.009
-438.763	-200.000	0.020	0.167
-437.749	59.812	-0.024	-0.024
-436.734	-200.000	-0.058	-0.280
-435.719	-36.389	-0.265	-0.144
-434.705	-18.297	-0.154	-0.098
-433.690	-200.000	-0.005	0.044
-432.676	800.000	-0.031	-0.088
-431.661	215.933	0.109	0.175
-430.646	3.172	-0.305	0.224
-429.632	78.195	0.109	0.117
-428.617	160.057	0.065	0.091
-427.603	-200.000	-0.078	0.469
-426.588	-11.167	0.069	0.046
-425.573	800.000	-0.053	0.158
-424.559	-34.647	0.172	-0.095
-423.544	-60.649	-0.093	0.040
-422.530	800.000	-0.128	0.477
-421.515	-128.715	0.270	-0.039
-420.500	240.930	0.127	-0.214
-419.486	-200.000	0.030	0.000
-418.471	43.594	0.147	-0.136
-417.457	800.000	0.030	-0.120
-416.442	-138.699	-0.495	-0.055
-415.428	-154.339	-0.210	0.014
-414.413	169.931	0.178	-0.258
-413.398	-26.946	0.084	-0.050
-412.384	-126.253	0.351	0.053
-411.369	-69.593	0.261	-0.101
-410.355	800.000	0.044	-0.176
-409.340	800.000	0.040	-0.157
-408.325	281.071	0.172	0.310
-407.311	467.237	0.027	-0.061
-406.296	-28.826	0.143	-0.083
-405.282	-48.217	-0.317	-0.155
-404.267	800.000	-0.062	-0.274
-403.252	57.769	-0.141	-0.139
-402.238	260.473	-0.086	-0.151
-401.223	-200.000	0.032	-0.321
-400.209	-116.354	-0.185	0.035
-399.194	-35.383	-0.057	-0.031
-398.179	-155.635	-0.301	0.020
-397.165	-200.000	0.018	-0.286
-396.150	-138.188	-0.155	-0.017
-395.136	-77.758	-0.280	-0.098
-394.121	-69.059	0.103	-0.040
-393.106	-120.460	-0.172	0.030
-392.092	-63.762	0.044	0.018
-391.077	-200.000	-0.037	0.281
-390.063	53.735	0.173	0.167
-389.048	65.274	-0.139	-0.142
-388.033	800.000	-0.045	-0.194
-387.019	464.255	-0.146	0.330
-386.004	99.291	0.059	0.069
-384.990	-200.000	-0.012	-0.226
-383.975	78.666	-0.193	-0.208
-382.960	-117.416	0.156	0.028
-381.946	191.164	0.222	0.337
-380.931	-49.052	-0.211	0.102
-379.917	27.122	-0.144	0.122
-378.902	-152.835	0.129	0.009
-377.888	800.000	0.139	0.408
-376.873	800.000	-0.087	-0.349
-375.858	800.000	0.076	0.226
-374.844	-24.420	0.064	-0.038
-373.829	-168.197	-0.099	-0.004
-372.815	748.390	0.108	0.295
-371.800	336.654	-0.152	-0.297
-370.785	-14.044	-0.166	-0.108
-369.771	-200.000	0.011	0.073
-368.756	164.826	0.164	-0.234
-367.742	212.543	0.160	0.254
-366.727	205.751	0.139	0.219
-365.712	-81.570	-0.309	-0.102
-364.698	-200.000	-0.012	0.115
-363.683	-200.000	-0.023	-0.202
-362.669	37.560	0.107	-0.096
-361.654	101.890	0.160	0.188
-360.639	-200.000	-0.030	0.337
-359.625	-49.068	-0.313	0.151
-358.610	-200.000	0.000	-0.091
-357.596	201.171	0.142	0.220
-356.581	-66.846	-0.372	0.148
-355.566	-80.563	-0.320	-0.107
-354.552	-60.190	-0.288	0.124
-353.537	-61.614	-0.125	0.053
-352.523	-118.670	0.230	0.041
-351.508	-154.744	-0.138	-0.009
-350.493	-182.080	-0.539	0.010
-349.479	162.453	-0.026	0.036
-348.464	215.943	0.054	-0.087
-347.450	275.141	0.069	0.124
-346.435	590.365	0.019	-0.046
-345.420	-200.000	0.041	0.306
-344.406	-72.405	0.305	-0.114
-343.391	-170.960	-0.115	0.004
-342.377	204.712	0.108	-0.169
-341.362	44.455	-0.176	0.163
-340.348	-182.903	0.303	-0.005
-339.333	-50.211	0.050	0.024
-338.318	-200.000	0.049	-0.532
-337.304	800.000	0.078	-0.237
-336.289	-35.577	0.271	-0.148
-335.275	70.476	0.121	-0.126
-334.260	-200.000	0.036	-0.188
-333.245	72.622	-0.043	0.046
-332.231	484.807	-0.120	0.274
-331.216	800.000	0.118	0.434
-330.202	-200.000	-0.039	-0.201
-329.187	28.452	0.220	0.188
-328.172	70.927	0.099	-0.103
-327.158	-48.257	-0.311	0.151
-326.143	-200.000	0.056	0.263
-325.129	409.968	-0.180	0.384
-324.114	-159.972	0.165	0.009
-323.099	122.410	0.022	0.028
-322.085	-200.000	-0.034	0.350
-321.070	-200.000	-0.001	0.139
-320.056	36.254	-0.062	0.055
-319.041	-51.497	-0.420	-0.198
-318.026	-200.000	-0.003	0.192
-317.012	-123.722	0.385	-0.061
-315.997	-12.231	0.197	-0.130
-314.983	-200.000	0.008	0.041
-313.968	-200.000	0.013	0.285
-312.953	-86.732	0.256	-0.079
-311.939	32.741	0.123	-0.107
-310.924	22.114	-0.073	-0.060
-309.910	800.000	-0.074	-0.233
-308.895	-105.378	0.245	-0.056
-307.880	10.381	-0.128	-0.098
-306.866	392.469	0.219	-0.459
-305.851	66.725	0.106	0.108
-304.837	-200.000	0.019	-0.321
-303.822	215.292	0.156	-0.249
-302.807	-120.069	-0.296	0.051
-301.793	-115.555	0.333	0.063
-300.778	252.303	-0.071	0.122
-299.764	-56.891	-0.237	-0.105
-298.749	-11.895	-0.038	0.025
-297.735	-44.656	0.247	0.124
-296.720	22.276	0.180	-0.148
-295.705	-95.399	0.064	-0.017
-294.691	-23.293	0.250	-0.151
-293.676	-141.228	-0.114	-0.012
-292.662	37.073	-0.245	0.218
-291.647	261.079	-0.125	0.218
-290.632	581.106	0.042	-0.103
-289.618	-58.310	-0.036	0.016
-288.603	-89.474	0.211	-0.062
-287.589	-200.000	0.057	-0.257
-286.574	-200.000	0.059	-0.397
-285.559	409.211	-0.128	0.273
-284.545	800.000	-0.073	0.203
-283.530	-200.000	0.007	0.081
-282.516	-2.897	0.195	-0.137
-281.501	43.056	-0.188	0.173
-280.486	268.214	-0.100	0.176
-279.472	5.072	0.274	-0.203
-278.457	-125.366	-0.201	-0.031
-277.443	-200.000	0.029	0.156
-276.428	-84.138	-0.114	-0.036
-275.413	-33.336	0.081	0.045
-274.399	770.149	0.166	0.455
-273.384	-190.002	-0.223	-0.003
-272.370	-11.302	0.049	-0.033
-271.355	-114.546	-0.147	0.028
-270.340	156.370	-0.115	-0.160
-269.326	-200.000	-0.019	-0.138
-268.311	-200.000	-0.156	0.000
-267.297	59.165	0.216	0.214
-266.282	-131.021	0.304	-0.041
-265.267	660.808	-0.153	0.397
-264.253	51.981	-0.207	0.198
-263.238	-49.658	0.256	-0.122
-262.224	206.326	0.072	-0.112
-261.209	157.280	0.087	0.121
-260.195	800.000	0.074	0.286
-259.180	-80.092	-0.238	-0.080
-258.165	37.334	-0.187	-0.167
-257.151	18.719	0.157	0.126
-256.136	166.398	-0.051	0.073
-255.122	-43.786	0.183	0.092
-254.107	232.491	-0.193	-0.319
-253.092	250.549	-0.138	0.236
-252.078	69.241	0.066	0.068
-251.063	-200.000	0.023	0.156
-250.049	-31.051	0.058	-0.033
-249.034	800.000	0.048	0.201
-248.019	-132.779	0.558	0.072
-247.005	800.000	-0.125	0.400
-245.990	-97.413	0.118	0.031
-244.976	378.900	-0.136	0.280
-243.961	-200.000	0.033	-0.175
-242.946	250.780	-0.076	-0.130
-241.932	24.637	-0.360	-0.299
-240.917	-200.000	0.038	-0.449
-239.903	111.882	-0.175	-0.212
-238.888	327.995	0.082	-0.159
-237.873	-200.000	-0.008	-0.357
-236.859	142.716	0.052	-0.069
-235.844	-94.203	0.266	0.073
-234.830	-56.033	0.223	0.100
-233.815	-200.000	-0.003	0.243
-232.800	798.886	0.079	-0.219
-231.786	-7.663	-0.241	0.163
-230.771	379.704	-0.137	0.281
-229.757	-135.031	0.628	0.076
-228.742	-104.561	-0.086	-0.020
-227.727	-149.834	-0.156	0.012
-226.713	-192.438	0.143	0.001
-225.698	-64.483	0.289	0.118
-224.684	800.000	0.099	-0.336
-223.669	786.669	-0.133	-0.366
-222.655	-2.509	-0.157	0.110
-221.640	-200.000	-0.025	-0.242
-220.625	-55.060	0.429	0.194
-219.611	800.000	0.022	-0.097
-218.596	264.454	0.131	0.229
-217.582	146.358	0.088	0.119
-216.567	20.999	0.254	-0.207
-215.552	-145.884	0.206	0.018
-214.538	98.480	-0.108	0.125
-213.523	-200.000	-0.045	-0.217
-212.509	-200.000	-0.002	-0.181
-211.494	-115.498	-0.212	-0.040
-210.479	800.000	0.061	0.203
-209.465	-44.045	-0.217	0.109
-208.450	102.188	0.297	0.347
-207.436	310.322	0.145	0.272
-206.421	306.973	0.013	0.024
-205.406	-48.126	0.181	0.088
-204.392	28.767	0.126	0.107
-203.377	-137.075	-0.077	0.009
-202.363	124.459	-0.047	0.059
-201.348	-200.000	-0.053	-0.256
-200.333	41.295	0.038	0.034
-199.319	216.483	0.125	0.200
-198.304	8.812	-0.271	0.205
-197.290	115.085	0.246	-0.301
-196.275	-98.558	-0.319	-0.082
-195.260	18.828	0.178	0.143
-194.246	-44.909	0.201	-0.100
-193.231	800.000	0.093	-0.297
-192.217	800.000	0.037	-0.154
-191.202	-40.592	-0.254	0.132
-190.187	-26.505	0.145	-0.085
-189.173	55.289	0.047	-0.046
-188.158	-200.000	0.030	0.255
-187.144	-106.384	-0.482	-0.108
-186.129	-200.000	-0.019	0.092
-185.114	-79.626	0.250	0.085
-184.100	188.075	0.060	-0.089
-183.085	800.000	0.093	-0.303
-182.071	-52.315	-0.163	-0.076
-181.056	-200.000	0.015	0.143
-180.042	800.000	-0.045	0.172
-179.027	18.840	0.102	0.082
-178.012	310.211	-0.110	0.206
-176.998	57.543	0.124	-0.121
-175.983	-127.600	0.265	0.038
-174.969	125.288	0.250	0.316
-173.954	800.000	0.081	0.337
-172.939	-131.632	-0.134	-0.018
-171.925	800.000	-0.008	0.032
-170.910	-97.157	0.265	0.069
-169.896	30.794	0.142	0.122
-168.881	-140.280	0.470	0.049
-167.866	28.107	-0.149	0.126
-166.852	800.000	0.029	0.121
-165.837	800.000	-0.020	0.065
-164.823	112.879	-0.184	0.223
-163.808	-200.000	-0.041	0.283
-162.793	124.457	-0.208	-0.262
-161.779	-200.000	-0.015	-0.255
-160.764	800.000	0.066	-0.272
-159.750	150.063	-0.118	0.160
-158.735	195.348	0.106	0.161
-157.720	-145.650	0.137	-0.012
-156.706	174.219	-0.088	0.127
-155.691	97.620	0.054	0.062
-154.677	207.573	0.149	0.233
-153.662	80.813	0.169	-0.183
-152.647	-95.859	-0.172	-0.046
-151.633	-200.000	0.006	0.156
-150.618	-69.342	0.100	0.038
-149.604	99.798	0.087	0.101
-148.589	-52.540	-0.191	0.088
-147.574	-200.000	0.080	-0.404
-146.560	-100.096	-0.368	0.092
-145.545	-36.677	-0.198	0.106
-144.531	-200.000	0.072	0.602
-143.516	258.695	-0.058	-0.100
-142.502	-200.000	-0.002	0.260
-141.487	562.706	-0.068	0.165
-140.472	-28.701	-0.118	-0.068
-139.458	-200.000	-0.010	-0.062
-138.443	-164.062	-0.354	0.016
-137.429	-154.413	-0.290	0.019
-136.414	47.386	-0.301	0.281
-135.399	-137.728	0.094	-0.011
-134.385	126.370	0.131	0.166
-133.370	-138.072	-0.239	-0.027
-132.356	169.110	-0.068	-0.097
-131.341	800.000	-0.095	0.314
-130.326	-67.905	-0.233	0.091
-129.312	-73.808	-0.277	0.101
-128.297	-200.000	0.019	-0.393
-127.283	-200.000	-0.026	-0.152
-126.268	-200.000	-0.328	0.000
-125.253	-16.588	-0.146	-0.092
-124.239	-200.000	-0.049	0.434
-123.224	-56.591	0.288	-0.127
-122.210	-57.128	-0.565	-0.249
