DTS Sentinel unit serial number:	SN413079Multiplexer serial number:	ORYXHardware model number:	OX4-SRSoftware version number:	ORYX F/W v4.00 Oryx Data Collector v3.7.2.0data status	okinstallation	princeton_trtdifferential loss correction	single-endedforward channel	channel 3reverse channel	N/Adate	2019/09/19time	11:12:35forward acquisition time	60.00reverse acquisition time	0.00gamma	496.2192k internal	0.2342k external	0.2342temperature offset calibration	0.9978default loss term (dB/km)	0.3790temperature slope calibration	1.0000multiplexer offset coefficient	1.0000multiplexer slope coefficient	1.0000fibre end	0.00T internal ref (°C)	25.06T ext. ref 1 (°C)	0.77T ext. ref 2 (°C)	20.62length (m)	temperature (°C)	Stokes	anti-Stokes-747.200	103.845	-0.078	0.092
-746.185	241.334	0.112	0.188
-745.171	-4.589	-0.401	0.278
-744.156	-113.099	-0.092	0.018
-743.142	-200.000	-0.006	-0.079
-742.127	-45.348	-0.175	0.087
-741.112	800.000	0.027	-0.104
-740.098	304.815	-0.086	0.159
-739.083	-74.407	0.226	-0.082
-738.069	-62.920	0.119	0.049
-737.054	-200.000	0.000	-0.151
-736.039	-67.147	-0.327	-0.129
-735.025	152.631	0.076	-0.104
-734.010	81.162	0.058	0.062
-732.996	165.371	0.151	0.214
-731.981	-94.926	-0.279	0.076
-730.966	83.668	0.201	0.220
-729.952	-134.214	-0.172	0.021
-728.937	411.326	-0.225	-0.477
-727.923	-105.656	-0.189	-0.043
-726.908	54.465	-0.381	-0.368
-725.894	286.615	0.089	-0.161
-724.879	-49.581	0.071	-0.034
-723.864	-153.093	-0.048	-0.003
-722.850	-106.025	-0.196	-0.044
-721.835	97.659	-0.159	-0.183
-720.821	-96.365	-0.299	-0.079
-719.806	139.001	0.025	-0.032
-718.791	800.000	-0.063	-0.185
-717.777	800.000	0.071	-0.307
-716.762	-4.730	0.120	-0.083
-715.748	179.452	0.175	0.257
-714.733	218.820	0.152	-0.243
-713.718	130.503	-0.121	0.155
-712.704	329.108	0.235	-0.452
-711.689	-200.000	-0.007	-0.108
-710.675	233.647	-0.029	-0.048
-709.660	-38.745	-0.059	-0.031
-708.645	-36.524	-0.196	0.105
-707.631	183.107	-0.236	0.348
-706.616	-175.571	0.236	0.006
-705.602	-42.422	0.123	0.063
-704.587	-10.299	0.183	-0.121
-703.572	-200.000	-0.037	0.445
-702.558	3.560	-0.130	0.095
-701.543	-35.826	-0.280	-0.152
-700.529	-68.225	0.187	-0.073
-699.514	-18.744	-0.045	0.028
-698.499	-200.000	-0.035	0.212
-697.485	-200.000	-0.007	-0.145
-696.470	257.856	0.051	0.087
-695.456	82.205	-0.106	-0.115
-694.441	-120.972	-0.191	-0.032
-693.426	-88.363	-0.085	-0.025
-692.412	-144.407	-0.366	0.034
-691.397	-200.000	-0.065	-0.499
-690.383	171.689	-0.023	-0.033
-689.368	-114.999	-0.191	0.036
-688.354	-78.396	-0.031	-0.011
-687.339	-52.922	-0.181	0.083
-686.324	-103.736	-0.427	-0.100
-685.310	-75.025	-0.089	0.032
-684.295	-30.129	-0.230	-0.131
-683.281	128.908	0.043	-0.055
-682.266	-98.252	0.249	0.064
-681.251	330.154	0.120	0.231
-680.237	-63.692	-0.341	0.140
-679.222	29.230	0.193	-0.163
-678.208	93.159	0.098	-0.111
-677.193	-14.213	0.249	0.161
-676.178	313.428	-0.093	-0.174
-675.164	249.519	0.079	-0.133
-674.149	-139.162	0.257	-0.028
-673.135	-200.000	-0.012	0.272
-672.120	-200.000	-0.008	0.039
-671.105	-102.611	-0.147	0.035
-670.091	-31.472	0.386	0.217
-669.076	-150.821	-0.545	0.041
-668.062	-176.765	-0.204	-0.005
-667.047	-178.882	0.195	-0.004
-666.032	-200.000	0.031	-0.137
-665.018	57.703	0.287	0.280
-664.003	18.720	-0.137	0.110
-662.989	-90.518	-0.073	0.021
-661.974	-51.406	0.117	-0.055
-660.959	30.213	-0.014	0.012
-659.945	800.000	0.046	-0.141
-658.930	10.948	-0.178	0.136
-657.916	-89.901	-0.359	0.105
-656.901	222.109	0.119	0.192
-655.886	-160.867	0.264	-0.014
-654.872	-119.946	0.184	-0.032
-653.857	800.000	0.143	-0.457
-652.843	-61.159	-0.242	-0.102
-651.828	-84.891	-0.194	-0.061
-650.814	9.724	0.154	-0.117
-649.799	349.742	0.027	0.054
-648.784	-200.000	-0.095	0.499
-647.770	-68.206	-0.238	-0.092
-646.755	127.185	0.155	0.197
-645.741	-133.730	0.195	-0.024
-644.726	102.422	0.121	-0.141
-643.711	-60.712	-0.114	-0.048
-642.697	19.153	0.101	0.081
-641.682	104.280	-0.048	-0.056
-640.668	0.455	-0.255	0.182
-639.653	9.221	0.195	0.147
-638.638	-200.000	-0.022	0.245
-637.624	702.925	-0.125	-0.328
-636.609	-200.000	-0.010	0.313
-635.595	-200.000	0.012	0.322
-634.580	452.666	0.072	-0.158
-633.565	-94.871	-0.051	-0.014
-632.551	-45.099	0.133	-0.066
-631.536	-145.433	0.106	-0.009
-630.522	-200.000	0.018	-0.105
-629.507	96.540	0.081	-0.093
-628.492	-98.161	-0.379	-0.097
-627.478	25.791	-0.285	-0.237
-626.463	-46.608	-0.551	-0.269
-625.449	-200.000	0.041	0.229
-624.434	-71.933	0.426	-0.158
-623.419	15.781	0.182	-0.143
-622.405	14.670	-0.311	0.242
-621.390	-25.674	0.188	-0.111
-620.376	-136.532	0.283	0.033
-619.361	-74.771	0.420	0.150
-618.346	75.363	-0.258	-0.272
-617.332	65.575	-0.080	-0.081
-616.317	185.728	-0.138	-0.205
-615.303	-14.186	0.164	0.105
-614.288	-200.000	0.010	-0.046
-613.273	-125.992	0.179	-0.027
-612.259	-177.015	-0.179	0.004
-611.244	83.549	-0.125	-0.136
-610.230	104.814	-0.175	-0.206
-609.215	-200.000	-0.019	-0.228
-608.201	151.594	-0.056	-0.076
-607.186	150.099	0.079	0.107
-606.171	-127.050	-0.152	0.022
-605.157	-200.000	0.035	0.196
-604.142	-152.057	-0.147	-0.011
-603.128	800.000	-0.081	-0.323
-602.113	-61.634	-0.146	0.061
-601.098	-103.016	-0.471	-0.111
-600.084	16.248	-0.110	0.087
-599.069	-174.297	-0.571	0.016
-598.055	-49.203	-0.325	0.155
-597.040	-136.094	-0.198	0.023
-596.025	800.000	0.040	0.149
-595.011	716.222	-0.073	-0.194
-593.996	-200.000	-0.023	-0.240
-592.982	298.033	0.111	-0.204
-591.967	736.943	0.079	-0.211
-590.952	800.000	0.005	0.015
-589.938	-105.970	-0.188	0.042
-588.923	-200.000	-0.013	-0.160
-587.909	800.000	-0.066	0.217
-586.894	618.115	0.125	-0.312
-585.879	-69.564	-0.067	-0.025
-584.865	-200.000	-0.021	0.157
-583.850	800.000	0.086	0.279
-582.836	552.343	0.081	-0.194
-581.821	45.191	-0.180	-0.165
-580.806	800.000	-0.096	-0.266
-579.792	627.264	-0.136	-0.342
-578.777	-107.226	-0.277	0.061
-577.763	-18.948	0.207	0.128
-576.748	75.851	0.111	0.116
-575.733	800.000	-0.098	0.368
-574.719	-200.000	-0.016	-0.263
-573.704	800.000	0.012	-0.041
-572.690	124.749	0.155	-0.195
-571.675	-200.000	0.010	0.142
-570.661	128.608	0.118	-0.150
-569.646	58.920	-0.324	0.317
-568.631	47.910	-0.176	-0.164
-567.617	-160.401	-0.059	0.003
-566.602	-200.000	0.004	-0.187
-565.588	-200.000	-0.035	0.236
-564.573	-63.138	-0.074	-0.030
-563.558	800.000	0.119	0.428
-562.544	-107.894	-0.071	0.015
-561.529	13.639	0.146	-0.113
-560.515	-200.000	0.023	0.222
-559.500	135.122	0.196	0.253
-558.485	-0.569	0.235	-0.166
-557.471	363.565	0.106	0.213
-556.456	18.902	-0.101	-0.080
-555.442	800.000	-0.015	0.064
-554.427	-95.686	0.093	0.025
-553.412	800.000	-0.059	-0.163
-552.398	-12.339	0.194	-0.126
-551.383	326.258	-0.193	-0.368
-550.369	-25.436	-0.196	0.115
-549.354	-136.799	-0.152	0.017
-548.339	22.397	-0.019	-0.015
-547.325	454.645	0.096	-0.211
-546.310	170.600	0.007	-0.010
-545.296	40.394	-0.244	-0.218
-544.281	-179.031	0.253	0.006
-543.266	760.758	-0.079	0.214
-542.252	-86.562	-0.045	-0.014
-541.237	-200.000	0.031	0.359
-540.223	372.804	0.094	-0.190
-539.208	221.261	-0.013	0.021
-538.193	625.283	-0.051	-0.127
-537.179	-71.063	-0.221	0.082
-536.164	-21.276	0.076	-0.046
-535.150	169.318	-0.151	-0.214
-534.135	-163.649	0.146	0.007
-533.121	440.005	-0.051	0.112
-532.106	-42.350	-0.438	-0.222
-531.091	10.464	0.074	0.056
-530.077	-59.972	0.302	0.128
-529.062	800.000	0.029	0.087
-528.048	-82.563	-0.215	0.069
-527.033	-200.000	0.002	-0.055
-526.018	68.988	-0.383	0.391
-525.004	-200.000	-0.018	0.157
-523.989	218.262	0.064	-0.101
-522.975	-73.041	-0.304	-0.111
-521.960	-79.408	-0.192	0.065
-520.945	-200.000	-0.033	0.153
-519.931	-91.868	-0.289	0.081
-518.916	38.349	-0.247	-0.218
-517.902	-127.950	0.339	0.048
-516.887	14.494	0.104	-0.081
-515.872	373.279	-0.103	0.208
-514.858	-132.752	0.043	-0.005
-513.843	391.337	0.236	0.486
-512.829	-4.164	0.255	0.175
-511.814	-157.135	-0.152	0.009
-510.799	-156.291	-0.064	-0.004
-509.785	-200.000	-0.025	0.172
-508.770	800.000	-0.052	0.179
-507.756	-93.324	0.117	0.032
-506.741	-48.963	0.490	0.233
-505.726	-156.870	0.031	-0.002
-504.712	-42.286	0.108	-0.055
-503.697	-200.000	0.003	-0.087
-502.683	47.981	-0.140	-0.130
-501.668	-33.755	0.163	-0.089
-500.653	-131.105	-0.317	0.042
-499.639	47.050	-0.164	0.151
-498.624	-141.169	0.296	-0.030
-497.610	605.036	-0.161	0.398
-496.595	8.986	0.145	0.109
-495.581	16.668	-0.207	-0.163
-494.566	-0.201	-0.413	-0.291
-493.551	25.070	0.191	-0.158
-492.537	369.562	-0.093	0.186
-491.522	654.820	0.118	0.300
-490.508	380.761	-0.281	0.571
-489.493	51.876	0.027	0.025
-488.478	-200.000	-0.026	0.128
-487.464	-200.000	0.051	-0.459
-486.449	37.966	0.077	-0.068
-485.435	125.082	0.169	0.211
-484.420	-90.335	0.179	-0.051
-483.405	800.000	0.136	0.519
-482.391	-200.000	0.006	-0.201
-481.376	70.340	-0.103	-0.105
-480.362	24.540	0.180	-0.148
-479.347	800.000	-0.133	0.371
-478.332	27.775	0.241	0.202
-477.318	191.511	-0.125	0.187
-476.303	-81.600	-0.371	-0.121
-475.289	-165.102	0.219	-0.010
-474.274	-200.000	0.033	-0.184
-473.259	101.730	-0.071	0.083
-472.245	49.063	-0.253	-0.236
-471.230	-133.813	-0.399	-0.049
-470.216	800.000	0.062	0.204
-469.201	-200.000	0.058	0.395
-468.186	-109.664	0.249	-0.052
-467.172	-99.044	-0.204	0.051
-466.157	-200.000	0.027	-0.314
-465.143	364.726	0.114	0.227
-464.128	1.261	-0.019	-0.013
-463.113	-200.000	0.046	0.397
-462.099	105.682	0.030	0.035
-461.084	-10.745	-0.390	0.255
-460.070	-200.000	0.004	-0.168
-459.055	281.052	0.139	-0.247
-458.040	-78.914	-0.305	-0.103
-457.026	-120.504	-0.143	-0.024
-456.011	121.445	0.048	-0.060
-454.997	30.563	0.030	0.026
-453.982	-200.000	0.015	-0.210
-452.968	375.905	0.063	-0.127
-451.953	800.000	0.036	0.113
-450.938	-10.011	-0.272	0.179
-449.924	-86.990	-0.231	-0.070
-448.909	80.278	0.153	-0.163
-447.895	-182.785	-0.392	0.007
-446.880	-200.000	-0.017	-0.103
-445.865	-200.000	-0.004	-0.390
-444.851	39.961	-0.115	-0.102
-443.836	-200.000	0.012	-0.166
-442.822	96.821	-0.251	-0.285
-441.807	-200.000	0.005	0.123
-440.792	5.556	0.109	0.080
-439.778	-62.492	-0.097	0.040
-438.763	234.823	0.067	0.109
-437.749	-200.000	-0.019	0.153
-436.734	480.733	0.175	-0.394
-435.719	-67.319	0.174	-0.068
-434.705	800.000	0.062	-0.230
-433.690	61.229	0.020	0.020
-432.676	106.087	-0.144	-0.169
-431.661	492.984	0.034	-0.077
-430.646	-61.821	-0.366	-0.152
-429.632	406.060	0.326	0.681
-428.617	35.749	0.194	-0.169
-427.603	55.144	0.186	-0.178
-426.588	192.084	-0.197	-0.294
-425.573	-115.195	0.232	-0.043
-424.559	225.204	-0.148	0.237
-423.544	28.862	0.182	-0.153
-422.530	-200.000	0.013	0.171
-421.515	-45.617	0.263	0.129
-420.500	-29.214	0.214	-0.121
-419.486	-124.222	0.100	-0.016
-418.471	-200.000	0.020	-0.322
-417.457	39.591	0.318	-0.282
-416.442	800.000	-0.061	0.189
-415.428	581.519	0.054	-0.132
-414.413	-200.000	0.059	-0.465
-413.398	171.914	-0.075	-0.107
-412.384	800.000	-0.008	0.034
-411.369	586.569	0.023	-0.056
-410.355	605.214	0.011	0.027
-409.340	102.203	-0.209	-0.241
-408.325	151.675	-0.168	-0.226
-407.311	800.000	0.140	-0.388
-406.296	170.599	-0.038	0.053
-405.282	-112.014	0.082	0.016
-404.267	-34.163	0.222	0.120
-403.252	42.671	0.192	0.173
-402.238	214.008	-0.047	-0.073
-401.223	800.000	-0.015	0.057
-400.209	-176.962	0.048	0.001
-399.194	204.273	0.070	-0.107
-398.179	83.298	0.058	0.063
-397.165	800.000	0.063	0.196
-396.150	126.441	0.245	0.307
-395.136	305.119	0.029	-0.054
-394.121	800.000	0.045	-0.178
-393.106	15.918	-0.075	0.058
-392.092	134.025	0.119	-0.152
-391.077	-200.000	0.033	0.216
-390.063	-200.000	0.017	0.434
-389.048	-123.232	0.262	-0.041
-388.033	-53.268	-0.117	0.053
-387.019	-28.149	0.020	0.011
-386.004	270.887	0.128	-0.223
-384.990	-28.860	-0.169	0.096
-383.975	3.827	-0.199	-0.144
-382.960	-137.710	0.189	-0.021
-381.946	-113.902	-0.187	-0.036
-380.931	690.508	0.057	-0.147
-379.917	-200.000	0.062	-0.284
-378.902	105.121	-0.107	-0.125
-377.888	-200.000	-0.005	-0.288
-376.873	-200.000	-0.003	0.110
-375.858	553.908	-0.082	-0.195
-374.844	632.974	0.065	-0.164
-373.829	800.000	-0.078	-0.241
-372.815	-28.516	0.208	-0.118
-371.800	148.122	0.094	0.125
-370.785	800.000	-0.074	0.266
-369.771	-174.775	-0.171	0.005
-368.756	27.239	-0.071	-0.059
-367.742	-200.000	-0.007	0.156
-366.727	-59.186	0.083	-0.035
-365.712	-120.272	-0.136	0.023
-364.698	-77.893	-0.469	0.160
-363.683	-200.000	-0.017	-0.123
-362.669	-56.807	0.140	0.061
-361.654	-20.138	0.042	0.026
-360.639	722.285	0.170	0.447
-359.625	-22.580	-0.121	-0.072
-358.610	-35.004	0.243	0.131
-357.596	-200.000	-0.012	-0.075
-356.581	209.802	-0.072	-0.111
-355.566	800.000	-0.077	0.293
-354.552	-106.933	-0.369	-0.081
-353.537	-131.903	-0.017	-0.002
-352.523	-86.413	0.200	0.061
-351.508	-200.000	0.022	0.141
-350.493	-85.596	-0.210	-0.064
-349.479	-47.849	-0.350	-0.167
-348.464	51.951	-0.149	-0.140
-347.450	-200.000	0.024	-0.266
-346.435	-200.000	-0.004	0.035
-345.420	109.116	-0.021	0.024
-344.406	-8.132	0.242	-0.161
-343.391	376.150	-0.099	0.199
-342.377	-200.000	0.002	-0.108
-341.362	-53.818	0.101	-0.045
-340.348	47.156	-0.091	0.083
-339.333	-200.000	0.015	0.121
-338.318	685.878	-0.037	0.096
-337.304	800.000	0.086	-0.315
-336.289	-121.860	-0.091	0.015
-335.275	1.264	0.126	-0.089
-334.260	39.691	-0.112	-0.099
-333.245	-200.000	0.025	0.217
-332.231	404.990	-0.161	-0.335
-331.216	703.071	0.115	0.299
-330.202	-65.052	0.197	0.078
-329.187	-71.773	-0.205	0.075
-328.172	-62.135	-0.265	0.109
-327.158	800.000	-0.061	0.195
-326.143	193.731	0.129	0.192
-325.129	150.605	-0.188	-0.252
-324.114	-200.000	-0.020	-0.102
-323.099	-179.476	0.185	-0.004
-322.085	-200.000	-0.051	0.239
-321.070	50.630	0.093	-0.086
-320.056	-200.000	-0.020	-0.276
-319.041	88.190	0.097	0.106
-318.026	771.793	-0.097	-0.261
-317.012	-200.000	-0.015	-0.136
-315.997	113.622	0.198	-0.237
-314.983	-200.000	-0.005	0.158
-313.968	-23.364	-0.111	-0.066
-312.953	55.555	-0.080	0.076
-311.939	-200.000	-0.015	-0.067
-310.924	-200.000	0.073	-0.459
-309.910	3.157	-0.274	0.196
-308.895	-200.000	0.013	0.111
-307.880	-50.187	-0.166	0.077
-306.866	800.000	0.045	0.122
-305.851	800.000	0.128	0.385
-304.837	-118.773	0.303	0.053
-303.822	-79.421	0.243	-0.081
-302.807	-9.324	-0.223	-0.147
-301.793	-61.363	-0.295	-0.122
-300.778	391.057	0.091	0.186
-299.764	-94.729	-0.299	0.080
-298.749	-188.375	0.480	0.006
-297.735	48.442	0.173	-0.159
-296.720	-180.267	0.323	-0.007
-295.705	35.271	-0.040	-0.034
-294.691	-200.000	0.047	0.234
-293.676	-9.373	0.221	-0.145
-292.662	-200.000	-0.038	0.351
-291.647	-200.000	-0.053	0.522
-290.632	-110.650	0.115	-0.023
-289.618	275.946	-0.121	-0.211
-288.603	164.500	0.131	0.182
-287.589	4.952	-0.164	0.118
-286.574	47.077	0.116	0.106
-285.559	17.331	-0.234	-0.183
-284.545	229.114	-0.054	-0.086
-283.530	-37.542	0.264	-0.138
-282.516	711.884	-0.141	0.367
-281.501	-90.815	0.195	-0.055
-280.486	-37.632	0.152	-0.080
-279.472	90.452	-0.261	0.287
-278.457	-200.000	-0.080	0.426
-277.443	54.643	0.357	-0.338
-276.428	800.000	-0.025	0.088
-275.413	150.134	-0.050	-0.067
-274.399	90.759	-0.160	-0.176
-273.384	800.000	0.040	-0.174
-272.370	240.338	0.070	0.115
-271.355	-200.000	0.022	0.427
-270.340	252.948	0.063	-0.105
-269.326	-200.000	-0.016	-0.089
-268.311	144.327	-0.174	-0.228
-267.297	481.148	-0.106	-0.237
-266.282	40.046	0.088	-0.078
-265.267	363.066	0.114	-0.226
-264.253	-89.466	-0.262	-0.076
-263.238	-105.886	0.232	0.051
-262.224	223.573	-0.062	0.099
-261.209	-151.937	-0.235	-0.017
-260.195	-69.505	0.189	-0.071
-259.180	12.864	0.183	0.139
-258.165	220.990	-0.049	0.077
-257.151	-174.069	-0.249	0.007
-256.136	252.768	-0.078	-0.131
-255.122	-157.421	-0.112	-0.007
-254.107	-200.000	-0.014	-0.319
-253.092	-56.135	0.185	-0.081
-252.078	-35.997	0.054	-0.029
-251.063	330.501	0.106	0.201
-250.049	62.096	-0.354	0.347
-249.034	800.000	-0.027	-0.094
-248.019	-157.438	0.276	-0.016
-247.005	-98.244	-0.286	0.072
-245.990	58.454	0.100	-0.096
-244.976	253.342	0.043	0.072
-243.961	-35.325	-0.061	0.033
-242.946	-200.000	0.009	-0.320
-241.932	800.000	0.052	-0.187
-240.917	800.000	-0.029	-0.111
-239.903	800.000	0.072	-0.231
-238.888	800.000	0.020	0.062
-237.873	37.139	-0.087	0.076
-236.859	-37.514	0.227	0.119
-235.844	403.358	0.051	-0.105
-234.830	-200.000	0.045	-0.395
-233.815	99.632	-0.044	0.050
-232.800	-200.000	-0.039	0.195
-231.786	-92.284	-0.079	0.022
-230.771	339.149	0.115	-0.220
-229.757	-118.396	0.201	-0.035
-228.742	-200.000	0.026	-0.151
-227.727	-118.093	0.253	-0.044
-226.713	117.606	-0.101	-0.122
-225.698	25.457	0.053	-0.043
-224.684	-200.000	0.013	-0.416
-223.669	201.637	0.282	-0.427
-222.655	300.721	0.110	0.199
-221.640	1.049	-0.093	0.066
-220.625	-125.841	0.132	-0.020
-219.611	-27.611	0.158	0.090
-218.596	-84.771	-0.205	-0.063
-217.582	-112.278	-0.268	0.053
-216.567	124.794	-0.258	0.319
-215.552	-126.129	0.156	0.023
-214.538	-15.078	0.270	-0.170
-213.523	199.792	-0.213	0.321
-212.509	65.202	0.115	0.114
-211.494	-133.035	0.068	-0.008
-210.479	-13.725	0.197	-0.125
-209.465	-200.000	-0.027	0.125
-208.450	-92.374	0.329	-0.091
-207.436	705.226	0.056	-0.146
-206.421	-200.000	0.036	-0.217
-205.406	110.658	0.132	-0.156
-204.392	-2.870	0.289	-0.198
-203.377	800.000	-0.100	0.298
-202.363	-32.954	-0.113	-0.062
-201.348	43.986	0.144	0.129
-200.333	255.958	0.134	0.225
-199.319	-36.114	0.530	0.281
-198.304	26.957	-0.162	0.133
-197.290	-44.383	0.151	-0.074
-196.275	-18.995	0.235	0.143
-195.260	800.000	-0.084	0.283
-194.246	124.910	-0.031	-0.038
-193.231	-200.000	0.008	-0.041
-192.217	-41.270	0.204	0.103
-191.202	101.102	-0.212	0.242
-190.187	16.499	0.175	0.136
-189.173	100.088	0.154	0.175
-188.158	-132.533	0.229	0.029
-187.144	-20.103	0.238	-0.144
-186.129	10.689	-0.118	0.088
-185.114	59.476	0.062	-0.060
-184.100	137.548	0.205	-0.262
-183.085	3.735	-0.256	0.183
-182.071	-63.498	0.345	0.139
-181.056	-200.000	0.000	0.206
-180.042	-29.602	-0.298	0.167
-179.027	-200.000	0.017	0.089
-178.012	31.874	0.159	0.134
-176.998	-200.000	0.060	-0.265
-175.983	-198.087	0.045	-0.000
-174.969	53.171	-0.190	0.178
-173.954	-200.000	0.024	0.144
-172.939	800.000	-0.054	-0.168
-171.925	-200.000	0.035	0.154
-170.910	534.079	0.115	-0.267
-169.896	381.034	0.126	-0.254
-168.881	-200.000	0.001	-0.055
-167.866	-200.000	-0.005	0.303
-166.852	-200.000	0.054	0.405
-165.837	-200.000	-0.032	0.238
-164.823	126.614	-0.198	0.246
-163.808	7.565	0.127	-0.093
-162.793	10.106	0.043	-0.032
-161.779	224.462	0.137	0.217
-160.764	136.146	-0.040	-0.051
-159.750	-61.203	-0.037	-0.015
-158.735	-91.376	-0.210	0.059
-157.720	437.355	-0.090	-0.191
-156.706	713.983	-0.106	-0.274
-155.691	779.238	-0.070	0.188
-154.677	221.156	0.166	0.260
-153.662	140.033	0.075	-0.097
-152.647	-22.693	0.251	0.148
-151.633	8.369	0.239	-0.176
-150.618	-69.195	0.458	-0.172
-149.604	-75.647	0.418	0.145
-148.589	-75.215	0.303	-0.106
-147.574	369.441	0.061	0.121
-146.560	481.619	-0.200	0.444
-145.545	800.000	-0.029	0.080
-144.531	-76.005	-0.358	-0.124
-143.516	-200.000	0.003	-0.392
-142.502	202.013	0.139	0.210
-141.487	-142.989	-0.256	-0.024
-140.472	-85.518	0.131	-0.040
-139.458	122.432	-0.237	-0.290
-138.443	-78.945	0.141	0.047
-137.429	-38.607	0.239	0.123
-136.414	18.571	-0.210	0.164
-135.399	245.628	0.067	0.111
-134.385	240.839	0.120	0.196
-133.370	283.938	0.154	-0.271
-132.356	-80.529	-0.061	-0.020
-131.341	-200.000	-0.036	0.212
-130.326	-52.212	0.077	0.035
-129.312	-76.424	0.480	0.165
-128.297	800.000	0.074	-0.264
-127.283	800.000	-0.068	-0.224
-126.268	-54.621	-0.433	0.192
-125.253	111.879	0.134	-0.158
-124.239	10.159	0.279	-0.208
-123.224	280.565	-0.090	0.158
-122.210	384.646	0.058	0.117
-121.195	-200.000	-0.007	-0.144
