DTS Sentinel unit serial number:	SN413079Multiplexer serial number:	ORYXHardware model number:	OX4-SRSoftware version number:	ORYX F/W v4.00 Oryx Data Collector v3.7.2.0data status	okinstallation	princeton_trtdifferential loss correction	single-endedforward channel	channel 3reverse channel	N/Adate	2019/09/18time	19:32:34forward acquisition time	60.00reverse acquisition time	0.00gamma	496.2192k internal	0.2323k external	0.2323temperature offset calibration	1.0006default loss term (dB/km)	0.3790temperature slope calibration	1.0000multiplexer offset coefficient	1.0000multiplexer slope coefficient	1.0000fibre end	0.00T internal ref (°C)	32.66T ext. ref 1 (°C)	1.02T ext. ref 2 (°C)	22.65length (m)	temperature (°C)	Stokes	anti-Stokes-747.200	-200.000	-0.022	0.134
-746.185	-200.000	-0.009	-0.083
-745.171	800.000	0.153	0.521
-744.156	105.562	-0.088	0.105
-743.142	-199.074	0.292	0.002
-742.127	193.657	-0.017	0.026
-741.112	127.768	0.182	-0.234
-740.098	800.000	-0.082	0.362
-739.083	800.000	-0.075	0.268
-738.069	72.376	-0.254	0.267
-737.054	-96.290	-0.124	-0.033
-736.039	800.000	0.050	0.155
-735.025	110.274	-0.163	0.197
-734.010	-142.895	0.169	-0.017
-732.996	-115.474	0.333	-0.063
-731.981	-56.468	-0.211	-0.095
-730.966	-120.446	-0.363	0.062
-729.952	-200.000	-0.008	0.153
-728.937	-58.519	-0.405	-0.177
-727.923	39.073	-0.179	-0.161
-726.908	-200.000	0.012	-0.277
-725.894	800.000	0.054	0.201
-724.879	-17.535	0.100	0.064
-723.864	-200.000	0.026	-0.425
-722.850	-43.859	0.151	0.077
-721.835	-83.979	-0.383	0.123
-720.821	162.913	0.135	0.191
-719.806	-137.580	-0.363	0.041
-718.791	800.000	-0.116	-0.385
-717.777	800.000	-0.081	-0.253
-716.762	210.657	0.159	-0.251
-715.748	800.000	-0.034	0.140
-714.733	-168.735	0.302	0.012
-713.718	-36.601	-0.312	-0.169
-712.704	412.095	-0.114	-0.244
-711.689	91.971	0.143	-0.162
-710.675	-200.000	-0.012	0.185
-709.660	-200.000	-0.018	0.220
-708.645	37.302	0.041	-0.037
-707.631	-200.000	-0.028	-0.317
-706.616	157.906	-0.074	0.103
-705.602	-43.173	0.231	-0.118
-704.587	-173.263	-0.247	-0.008
-703.572	-153.112	-0.111	-0.008
-702.558	-108.492	0.171	0.037
-701.543	-145.327	0.173	0.016
-700.529	121.275	0.110	-0.138
-699.514	199.153	-0.138	-0.213
-698.499	702.538	0.050	0.132
-697.485	200.726	0.023	-0.035
-696.470	-77.433	-0.108	-0.038
-695.456	-122.830	0.310	0.050
-694.441	-200.000	-0.001	0.035
-693.426	590.512	0.030	-0.076
-692.412	800.000	-0.041	-0.129
-691.397	-200.000	-0.017	-0.186
-690.383	-73.891	0.055	-0.020
-689.368	234.734	0.184	-0.305
-688.354	-89.770	-0.236	0.070
-687.339	195.759	0.248	-0.380
-686.324	-200.000	-0.036	0.197
-685.310	-200.000	-0.006	0.201
-684.295	355.995	-0.178	-0.356
-683.281	-87.128	0.069	-0.021
-682.266	96.022	-0.050	-0.057
-681.251	-200.000	0.033	-0.183
-680.237	141.747	-0.217	0.289
-679.222	-138.881	0.313	-0.034
-678.208	800.000	0.047	0.190
-677.193	59.403	-0.110	-0.109
-676.178	-140.650	0.148	-0.015
-675.164	800.000	0.068	-0.192
-674.149	-47.166	0.133	-0.065
-673.135	800.000	-0.021	-0.062
-672.120	-200.000	0.042	-0.207
-671.105	-67.128	-0.228	-0.091
-670.091	-88.421	-0.190	-0.057
-669.076	-200.000	-0.028	0.302
-668.062	-52.580	-0.117	0.054
-667.047	-200.000	0.037	0.439
-666.032	-158.384	0.167	0.010
-665.018	-74.075	-0.068	-0.025
-664.003	107.779	-0.037	-0.045
-662.989	-95.211	-0.114	0.031
-661.974	-200.000	-0.032	-0.173
-660.959	800.000	0.038	0.156
-659.945	-80.351	-0.246	0.083
-658.930	-116.576	0.154	-0.028
-657.916	-200.000	-0.036	0.172
-656.901	-31.731	-0.202	0.114
-655.886	50.637	-0.088	-0.084
-654.872	44.890	-0.289	0.268
-653.857	-78.997	0.183	-0.063
-652.843	-92.913	-0.198	-0.056
-651.828	24.534	-0.017	-0.014
-650.814	60.807	0.100	0.100
-649.799	-89.273	0.144	-0.043
-648.784	-111.864	-0.112	-0.023
-647.770	800.000	0.026	0.072
-646.755	132.810	0.142	-0.184
-645.741	-135.266	-0.396	-0.048
-644.726	-59.323	0.321	0.139
-643.711	105.678	0.213	0.253
-642.697	-121.973	-0.462	-0.077
-641.682	800.000	0.073	-0.206
-640.668	110.898	0.135	-0.164
-639.653	800.000	-0.043	0.186
-638.638	242.261	0.121	-0.204
-637.624	-30.490	0.213	-0.122
-636.609	196.317	-0.163	0.249
-635.595	127.322	0.011	0.014
-634.580	-36.836	-0.085	0.046
-633.565	-19.049	-0.222	-0.139
-632.551	103.451	0.122	0.144
-631.536	-161.316	-0.052	-0.003
-630.522	185.320	-0.214	0.320
-629.507	-200.000	-0.039	0.183
-628.492	122.524	-0.126	-0.159
-627.478	-149.388	-0.320	-0.026
-626.463	-11.409	0.145	0.096
-625.449	321.846	0.062	0.119
-624.434	88.073	0.166	-0.185
-623.419	800.000	-0.049	0.189
-622.405	79.032	-0.046	0.049
-621.390	-62.470	0.227	-0.095
-620.376	266.008	0.190	-0.333
-619.361	151.534	-0.072	0.098
-618.346	-200.000	0.030	-0.180
-617.332	63.050	-0.135	-0.136
-616.317	220.328	-0.176	-0.283
-615.303	599.839	0.054	0.134
-614.288	44.502	-0.271	0.250
-613.273	702.953	-0.059	0.156
-612.259	800.000	-0.037	0.143
-611.244	-87.359	-0.079	-0.024
-610.230	-27.712	-0.107	-0.062
-609.215	426.479	0.109	0.236
-608.201	-63.116	0.118	0.049
-607.186	800.000	0.132	-0.373
-606.171	-94.344	0.215	-0.059
-605.157	-182.429	-0.114	-0.002
-604.142	84.458	-0.074	0.082
-603.128	-96.637	0.166	-0.044
-602.113	-157.416	-0.316	-0.019
-601.098	800.000	-0.067	0.248
-600.084	301.827	0.162	0.301
-599.069	360.320	0.145	-0.292
-598.055	-200.000	-0.004	0.188
-597.040	-71.057	-0.174	0.066
-596.025	800.000	0.069	-0.218
-595.011	-152.916	0.291	-0.021
-593.996	-28.957	0.235	0.135
-592.982	800.000	0.048	-0.146
-591.967	-74.695	0.380	-0.137
-590.952	-154.232	-0.165	-0.011
-589.938	-4.646	-0.200	0.138
-588.923	30.105	-0.223	0.191
-587.909	48.077	-0.170	-0.159
-586.894	-57.863	0.348	0.153
-585.879	-200.000	-0.012	-0.116
-584.865	-76.073	0.224	-0.079
-583.850	-200.000	-0.001	0.020
-582.836	-200.000	-0.008	0.254
-581.821	54.557	0.066	-0.064
-580.806	171.224	0.167	0.240
-579.792	112.186	-0.187	-0.227
-578.777	-200.000	0.019	-0.199
-577.763	-200.000	0.051	0.243
-576.748	-45.320	-0.248	-0.124
-575.733	800.000	-0.016	0.069
-574.719	324.207	0.054	-0.104
-573.704	-170.046	-0.453	0.016
-572.690	-66.254	-0.204	0.082
-571.675	8.479	-0.194	0.146
-570.661	-116.238	0.172	-0.032
-569.646	-50.533	0.164	0.077
-568.631	-85.118	0.229	-0.072
-567.617	34.063	0.171	0.149
-566.602	-73.013	-0.248	0.091
-565.588	-127.202	-0.171	0.025
-564.573	-200.000	-0.027	0.240
-563.558	-82.506	0.360	-0.117
-562.544	800.000	-0.095	0.270
-561.529	-200.000	0.029	-0.411
-560.515	-76.376	-0.249	-0.088
-559.500	-200.000	-0.003	0.039
-558.485	-200.000	-0.022	0.345
-557.471	6.550	0.221	-0.165
-556.456	-45.937	-0.371	0.183
-555.442	-30.358	-0.328	0.187
-554.427	210.536	0.121	0.191
-553.412	169.491	-0.017	0.024
-552.398	800.000	0.022	0.064
-551.383	-200.000	-0.039	0.317
-550.369	-39.249	0.039	0.021
-549.354	257.361	0.173	-0.298
-548.339	-148.264	-0.061	0.005
-547.325	46.176	0.115	0.107
-546.310	416.134	0.058	0.123
-545.296	-200.000	-0.004	-0.259
-544.281	299.966	0.256	0.472
-543.266	-120.460	0.107	0.018
-542.252	-126.190	0.467	-0.070
-541.237	-129.627	-0.259	0.036
-540.223	-120.187	0.179	-0.031
-539.208	800.000	-0.121	0.525
-538.193	121.172	0.269	0.335
-537.179	-5.695	0.094	-0.065
-536.164	800.000	-0.054	-0.177
-535.150	-16.061	0.166	0.106
-534.135	-200.000	-0.008	-0.069
-533.121	800.000	0.059	-0.184
-532.106	-67.528	0.253	-0.100
-531.091	-172.505	-0.267	-0.008
-530.077	130.548	-0.080	0.103
-529.062	34.765	-0.045	0.039
-528.048	-166.955	0.258	-0.011
-527.033	-112.656	0.100	0.020
-526.018	-92.128	0.326	-0.092
-525.004	-200.000	0.066	-0.350
-523.989	24.193	-0.044	-0.036
-522.975	-182.314	-0.350	-0.007
-521.960	478.802	-0.064	0.144
-520.945	800.000	0.137	0.452
-519.931	-32.243	-0.382	-0.214
-518.916	800.000	-0.108	-0.344
-517.902	-83.947	0.217	0.069
-516.887	514.915	-0.040	0.094
-515.872	-132.388	-0.155	-0.020
-514.858	-200.000	-0.067	0.411
-513.843	-129.655	-0.081	0.011
-512.829	-200.000	0.035	0.317
-511.814	12.728	-0.087	-0.067
-510.799	365.078	-0.050	0.100
-509.785	95.807	-0.126	0.144
-508.770	-200.000	0.026	0.284
-507.756	62.472	-0.051	-0.051
-506.741	800.000	-0.058	-0.228
-505.726	-25.869	0.123	0.072
-504.712	2.704	-0.230	0.167
-503.697	317.717	-0.231	-0.436
-502.683	-199.030	-0.163	-0.001
-501.668	75.359	0.194	-0.205
-500.653	181.287	0.055	-0.081
-499.639	-200.000	-0.007	0.154
-498.624	106.389	0.048	0.056
-497.610	313.036	0.107	0.200
-496.595	783.641	0.087	0.237
-495.581	152.602	0.111	0.152
-494.566	-92.956	-0.319	-0.089
-493.551	-151.449	0.078	-0.006
-492.537	-200.000	0.011	-0.173
-491.522	800.000	0.061	0.203
-490.508	-148.274	-0.173	0.014
-489.493	134.153	0.038	0.049
-488.478	-36.649	-0.238	-0.128
-487.464	-200.000	0.018	-0.417
-486.449	103.438	0.198	0.232
-485.435	800.000	-0.022	-0.065
-484.420	257.358	-0.180	0.309
-483.405	58.147	-0.041	0.040
-482.391	800.000	-0.034	0.120
-481.376	199.272	0.083	0.126
-480.362	-200.000	-0.044	-0.310
-479.347	-63.391	-0.381	-0.156
-478.332	-11.920	0.287	0.188
-477.318	800.000	-0.053	0.204
-476.303	7.241	-0.183	0.137
-475.289	-200.000	-0.006	-0.035
-474.274	-82.664	0.134	0.043
-473.259	-200.000	-0.015	-0.115
-472.245	-163.797	-0.332	-0.016
-471.230	353.397	-0.154	-0.305
-470.216	80.520	-0.252	-0.271
-469.201	111.499	-0.036	0.044
-468.186	0.016	0.095	0.068
-467.172	-33.987	-0.219	-0.121
-466.157	-200.000	-0.020	0.178
-465.143	119.865	0.283	0.351
-464.128	49.084	-0.273	0.256
-463.113	30.698	-0.022	0.019
-462.099	800.000	-0.087	-0.335
-461.084	93.073	-0.123	0.139
-460.070	-200.000	0.002	-0.020
-459.055	104.190	0.047	-0.056
-458.040	93.760	0.037	-0.041
-457.026	264.429	-0.106	0.184
-456.011	-13.436	-0.250	0.162
-454.997	44.748	0.319	-0.293
-453.982	92.524	0.049	0.055
-452.968	176.307	-0.068	-0.099
-451.953	580.618	-0.127	0.310
-450.938	-200.000	0.016	0.205
-449.924	800.000	-0.039	-0.122
-448.909	79.660	-0.157	-0.168
-447.895	412.202	0.074	0.156
-446.880	-45.509	-0.323	-0.160
-445.865	-200.000	-0.019	-0.083
-444.851	-47.895	-0.309	0.149
-443.836	-146.977	-0.317	0.027
-442.822	231.795	0.067	-0.109
-441.807	62.866	-0.052	0.052
-440.792	157.808	0.074	0.102
-439.778	195.554	-0.024	-0.037
-438.763	-112.550	-0.290	0.058
-437.749	295.796	-0.028	0.050
-436.734	800.000	0.107	0.336
-435.719	-200.000	0.029	0.409
-434.705	-200.000	0.031	-0.174
-433.690	-14.713	0.368	-0.236
-432.676	-139.635	0.172	-0.018
-431.661	33.799	0.092	0.079
-430.646	-86.962	0.516	0.157
-429.632	-45.273	-0.228	0.113
-428.617	-35.742	-0.256	-0.139
-427.603	-153.222	0.170	-0.012
-426.588	-89.467	0.098	0.029
-425.573	15.792	-0.153	-0.120
-424.559	-200.000	0.065	-0.312
-423.544	-20.237	-0.127	-0.078
-422.530	-102.475	-0.129	-0.031
-421.515	19.436	0.056	-0.045
-420.500	-55.698	0.250	0.112
-419.486	21.845	0.091	-0.074
-418.471	-118.623	-0.186	-0.033
-417.457	53.687	-0.168	0.161
-416.442	-200.000	0.003	0.273
-415.428	148.169	-0.037	-0.050
-414.413	447.362	-0.039	0.085
-413.398	-38.171	0.203	0.107
-412.384	-82.710	-0.116	0.037
-411.369	-61.944	0.323	-0.135
-410.355	-200.000	0.010	-0.253
-409.340	-42.136	0.345	-0.176
-408.325	9.219	-0.140	-0.106
-407.311	-96.556	0.477	0.125
-406.296	475.897	-0.079	-0.177
-405.282	-140.918	0.175	0.018
-404.267	669.997	0.123	0.316
-403.252	-50.106	-0.165	0.078
-402.238	-74.950	-0.140	-0.050
-401.223	99.402	-0.088	-0.101
-400.209	36.412	-0.092	-0.081
-399.194	-200.000	-0.027	-0.195
-398.179	-200.000	-0.032	-0.152
-397.165	-200.000	0.008	-0.100
-396.150	-23.034	-0.215	0.129
-395.136	661.811	-0.083	-0.213
-394.121	-200.000	-0.011	0.192
-393.106	-14.257	-0.185	-0.118
-392.092	-143.989	0.210	0.020
-391.077	178.769	-0.014	-0.021
-390.063	405.510	0.118	-0.248
-389.048	-128.128	-0.395	0.056
-388.033	148.230	-0.202	-0.271
-387.019	168.246	-0.061	-0.086
-386.004	-152.088	-0.075	0.005
-384.990	322.808	0.161	0.305
-383.975	-98.827	-0.189	-0.048
-382.960	-137.232	0.205	-0.023
-381.946	-200.000	0.033	-0.228
-380.931	-81.920	-0.107	-0.035
-379.917	193.971	0.072	0.109
-378.902	-60.628	0.097	0.041
-377.888	115.852	-0.142	0.173
-376.873	123.485	-0.214	0.267
-375.858	106.592	0.120	0.142
-374.844	38.409	-0.081	-0.072
-373.829	23.555	-0.241	0.198
-372.815	-172.682	0.223	0.007
-371.800	-133.077	0.128	0.016
-370.785	-109.165	0.379	-0.080
-369.771	127.792	0.062	0.079
-368.756	230.477	0.038	-0.062
-367.742	-71.620	0.313	0.116
-366.727	-110.131	0.151	-0.031
-365.712	-180.636	0.122	0.002
-364.698	-107.943	-0.116	0.025
-363.683	24.575	-0.266	0.219
-362.669	191.520	0.127	0.190
-361.654	13.260	0.379	0.292
-360.639	-7.660	-0.229	-0.154
-359.625	341.573	-0.079	-0.154
-358.610	15.514	-0.284	-0.222
-357.596	-75.738	0.293	-0.103
-356.581	202.739	0.174	0.268
-355.566	473.720	-0.065	-0.146
-354.552	-9.172	0.131	0.087
-353.537	14.159	0.350	-0.271
-352.523	-79.650	0.371	-0.124
-351.508	800.000	0.030	-0.117
-350.493	106.165	0.131	0.155
-349.479	427.224	-0.195	0.418
-348.464	38.929	-0.026	0.023
-347.450	24.304	0.229	0.188
-346.435	-200.000	0.029	0.155
-345.420	151.758	0.143	0.194
-344.406	800.000	-0.117	0.325
-343.391	-57.480	0.337	0.147
-342.377	800.000	-0.027	0.096
-341.362	9.594	-0.138	-0.104
-340.348	-76.345	-0.382	0.134
-339.333	109.067	-0.199	-0.237
-338.318	249.320	-0.094	-0.159
-337.304	-200.000	0.043	-0.356
-336.289	131.070	0.340	0.434
-335.275	-41.996	-0.415	0.211
-334.260	-72.565	0.288	0.106
-333.245	-200.000	0.018	-0.395
-332.231	800.000	-0.070	-0.252
-331.216	-123.526	0.219	-0.035
-330.202	-189.086	0.437	0.005
-329.187	208.321	-0.048	0.074
-328.172	100.333	-0.040	0.046
-327.158	-147.111	0.384	0.033
-326.143	9.029	0.172	-0.129
-325.129	150.383	0.073	0.098
-324.114	-200.000	-0.022	0.154
-323.099	333.844	-0.128	-0.247
-322.085	-200.000	0.038	-0.408
-321.070	348.007	-0.106	0.208
-320.056	646.541	0.078	0.198
-319.041	-7.524	0.286	0.192
-318.026	-135.591	0.234	-0.028
-317.012	-12.457	-0.176	-0.114
-315.997	275.487	0.024	-0.042
-314.983	170.142	-0.159	-0.225
-313.968	-66.235	-0.025	0.010
-312.953	56.218	-0.339	-0.327
-311.939	215.961	-0.087	0.137
-310.924	226.259	0.280	0.451
-309.910	67.819	0.063	-0.064
-308.895	31.746	0.037	-0.032
-307.880	-200.000	-0.000	-0.060
-306.866	198.017	-0.158	0.240
-305.851	123.719	0.167	-0.208
-304.837	-40.238	0.369	-0.191
-303.822	-94.154	-0.268	-0.073
-302.807	32.051	-0.200	-0.171
-301.793	-25.083	-0.265	-0.156
-300.778	96.835	-0.123	-0.140
-299.764	-157.196	0.185	0.011
-298.749	-129.696	0.478	-0.065
-297.735	300.515	-0.159	-0.291
-296.720	4.724	0.152	-0.111
-295.705	-125.442	0.191	0.029
-294.691	800.000	0.047	-0.186
-293.676	26.518	-0.164	-0.136
-292.662	800.000	0.124	-0.492
-291.647	466.513	-0.094	0.209
-290.632	-105.864	-0.166	-0.037
-289.618	-41.296	0.212	-0.108
-288.603	-138.090	-0.385	-0.042
-287.589	-130.485	0.232	0.031
-286.574	-200.000	0.062	-0.390
-285.559	-0.904	0.155	0.109
-284.545	800.000	-0.120	-0.360
-283.530	-112.059	-0.142	-0.028
-282.516	-29.605	-0.300	0.170
-281.501	800.000	0.004	0.013
-280.486	800.000	-0.028	0.093
-279.472	1.823	-0.167	-0.119
-278.457	325.500	-0.194	0.368
-277.443	393.388	-0.119	-0.245
-276.428	-27.675	-0.161	-0.093
-275.413	2.438	-0.198	-0.142
-274.399	116.346	-0.041	-0.049
-273.384	800.000	0.052	-0.205
-272.370	800.000	-0.019	0.057
-271.355	-145.486	0.047	0.004
-270.340	-42.378	0.227	0.115
-269.326	-144.217	0.186	0.017
-268.311	-122.234	0.076	-0.012
-267.297	-164.166	0.224	0.010
-266.282	263.535	-0.064	0.111
-265.267	-74.509	-0.098	-0.035
-264.253	800.000	0.050	0.178
-263.238	176.615	-0.182	-0.262
-262.224	-63.882	0.172	0.070
-261.209	181.561	0.091	0.133
-260.195	21.031	-0.256	-0.205
-259.180	284.178	-0.098	0.175
-258.165	-158.059	0.462	-0.027
-257.151	-200.000	0.005	0.378
-256.136	97.370	-0.131	0.149
-255.122	63.809	-0.081	0.081
-254.107	800.000	0.052	-0.193
-253.092	-134.181	-0.075	-0.009
-252.078	100.954	0.042	-0.048
-251.063	81.437	-0.020	0.021
-250.049	152.010	0.092	0.125
-249.034	247.877	0.122	0.205
-248.019	-113.864	0.075	0.014
-247.005	800.000	-0.068	0.194
-245.990	330.665	-0.098	0.188
-244.976	-148.287	0.551	-0.045
-243.961	800.000	-0.084	-0.288
-242.946	52.048	0.093	-0.088
-241.932	-37.848	-0.134	0.070
-240.917	-157.470	0.067	-0.004
-239.903	-128.631	-0.332	-0.046
-238.888	41.312	-0.084	0.075
-237.873	428.776	0.104	-0.223
-236.859	8.056	-0.023	0.017
-235.844	74.574	0.154	-0.160
-234.830	-200.000	-0.005	-0.089
-233.815	180.426	-0.167	-0.242
-232.800	-29.958	0.216	-0.122
-231.786	415.611	-0.087	-0.183
-230.771	-200.000	-0.188	0.000
-229.757	-149.314	0.094	0.007
-228.742	49.565	-0.247	0.230
-227.727	-200.000	0.010	0.055
-226.713	519.215	-0.037	0.085
-225.698	125.778	-0.110	-0.138
-224.684	800.000	0.117	-0.354
-223.669	-10.246	0.106	-0.070
-222.655	-95.335	0.396	-0.105
-221.640	-58.279	0.105	-0.045
-220.625	266.119	-0.140	-0.242
-219.611	-62.692	-0.646	0.265
-218.596	-87.672	0.200	-0.060
-217.582	-125.468	0.086	-0.013
-216.567	800.000	0.123	0.463
-215.552	800.000	0.119	-0.423
-214.538	-177.956	-0.258	0.006
-213.523	-56.313	0.216	0.095
-212.509	278.750	0.077	0.136
-211.494	-43.973	-0.024	-0.012
-210.479	-14.555	0.412	-0.262
-209.465	-32.832	-0.105	0.058
-208.450	241.244	0.077	-0.127
-207.436	800.000	-0.049	0.157
-206.421	-159.414	0.169	0.009
-205.406	-200.000	0.022	-0.189
-204.392	-200.000	0.028	-0.365
-203.377	-42.160	0.226	-0.114
-202.363	-82.656	-0.171	0.055
-201.348	-138.566	0.209	-0.023
-200.333	-47.919	-0.067	-0.032
-199.319	-200.000	-0.031	-0.209
-198.304	54.445	-0.092	0.087
-197.290	-200.000	0.030	0.147
-196.275	-11.998	-0.285	-0.184
-195.260	475.634	-0.114	-0.254
-194.246	73.944	0.167	-0.173
-193.231	191.439	0.052	-0.078
-192.217	296.500	0.092	0.168
-191.202	68.048	0.041	0.042
-190.187	-131.678	0.305	0.040
-189.173	-158.991	-0.085	-0.005
-188.158	338.929	0.063	-0.122
-187.144	438.213	-0.137	0.296
-186.129	229.902	-0.050	0.080
-185.114	-19.160	-0.146	0.090
-184.100	-72.655	-0.163	-0.059
-183.085	-200.000	-0.042	0.412
-182.071	-126.814	0.097	-0.014
-181.056	200.955	0.055	-0.084
-180.042	-131.071	-0.356	-0.047
-179.027	17.397	0.097	0.076
-178.012	-23.643	0.363	-0.215
-176.998	-79.437	-0.055	0.018
-175.983	-200.000	0.028	-0.135
-174.969	-110.268	-0.062	-0.013
-173.954	31.973	0.185	-0.157
-172.939	-62.875	-0.205	0.084
-171.925	232.679	0.090	0.146
-170.910	3.679	-0.260	-0.187
-169.896	-200.000	-0.037	-0.308
-168.881	-200.000	0.023	-0.102
-167.866	25.393	-0.155	0.127
-166.852	-200.000	0.019	0.149
-165.837	28.188	-0.167	-0.139
-164.823	-73.022	0.151	-0.055
-163.808	800.000	0.068	-0.195
-162.793	138.670	0.227	-0.294
-161.779	-94.301	0.115	-0.031
-160.764	800.000	0.102	-0.345
-159.750	131.261	-0.104	-0.132
-158.735	66.230	-0.152	0.152
-157.720	-74.133	-0.238	0.085
-156.706	138.221	0.207	0.268
-155.691	-4.947	-0.135	-0.092
-154.677	800.000	-0.123	0.375
-153.662	587.693	-0.020	0.050
-152.647	83.075	-0.171	-0.183
-151.633	-60.642	-0.363	-0.152
-150.618	-77.029	-0.084	0.029
-149.604	800.000	0.054	0.165
-148.589	-12.623	-0.338	0.217
-147.574	-36.168	-0.249	-0.133
-146.560	-200.000	0.035	-0.297
-145.545	100.941	0.153	0.175
-144.531	143.292	-0.212	0.278
-143.516	228.673	-0.113	0.182
-142.502	55.053	0.132	0.126
-141.487	51.345	-0.102	0.095
-140.472	-200.000	-0.054	0.480
-139.458	-102.670	-0.124	0.029
-138.443	-130.303	-0.268	-0.036
-137.429	-200.000	0.020	-0.452
-136.414	-41.328	-0.320	-0.163
-135.399	305.300	0.071	0.130
-134.385	-130.629	0.246	-0.033
-133.370	-159.290	0.107	0.006
-132.356	-108.715	0.095	0.020
-131.341	-57.840	0.195	0.084
-130.326	-200.000	-0.012	0.089
-129.312	-200.000	0.001	-0.281
-128.297	39.245	0.020	0.018
-127.283	104.461	0.244	0.283
-126.268	74.771	-0.264	-0.274
-125.253	18.420	-0.375	-0.295
-124.239	-36.940	0.380	-0.201
-123.224	-200.000	0.037	0.227
-122.210	-44.279	0.112	-0.056
