DTS Sentinel unit serial number:	SN413079Multiplexer serial number:	ORYXHardware model number:	OX4-SRSoftware version number:	ORYX F/W v4.00 Oryx Data Collector v3.7.2.0data status	okinstallation	princeton_trtdifferential loss correction	single-endedforward channel	channel 3reverse channel	N/Adate	2019/09/13time	16:52:34forward acquisition time	60.00reverse acquisition time	0.00gamma	496.2192k internal	0.2305k external	0.2305temperature offset calibration	1.0143default loss term (dB/km)	0.3790temperature slope calibration	1.0000multiplexer offset coefficient	1.0000multiplexer slope coefficient	1.0000fibre end	0.00T internal ref (°C)	34.87T ext. ref 1 (°C)	4.93T ext. ref 2 (°C)	30.30length (m)	temperature (°C)	Stokes	anti-Stokes-747.200	256.121	-0.081	0.142
-746.185	399.456	0.065	0.139
-745.171	88.141	-0.117	0.133
-744.156	-200.000	-0.056	0.531
-743.142	-200.000	-0.038	0.294
-742.127	-65.556	-0.307	-0.125
-741.112	-144.049	0.389	-0.037
-740.098	118.218	-0.129	0.161
-739.083	-160.830	-0.165	0.009
-738.069	-98.009	-0.167	-0.044
-737.054	54.385	0.064	-0.062
-736.039	-126.572	-0.440	0.066
-735.025	-87.935	0.415	0.127
-734.010	-3.922	-0.081	0.057
-732.996	379.585	0.095	0.197
-731.981	-200.000	-0.025	-0.124
-730.966	800.000	0.027	-0.078
-729.952	90.562	0.083	-0.095
-728.937	-71.864	0.087	0.033
-727.923	298.808	-0.130	-0.243
-726.908	-200.000	-0.047	-0.410
-725.894	37.010	-0.037	0.033
-724.879	16.590	-0.180	0.144
-723.864	-148.858	-0.218	-0.018
-722.850	167.516	0.168	0.243
-721.835	174.918	-0.186	-0.274
-720.821	201.940	0.070	-0.109
-719.806	-200.000	-0.037	-0.278
-718.791	-200.000	0.099	-0.546
-717.777	278.301	0.139	-0.251
-716.762	-85.983	0.120	-0.038
-715.748	800.000	0.019	0.074
-714.733	-111.869	-0.232	-0.048
-713.718	-1.885	-0.236	-0.169
-712.704	657.555	-0.192	-0.501
-711.689	-113.418	0.447	-0.089
-710.675	141.007	-0.154	0.207
-709.660	100.315	0.036	0.042
-708.645	-80.538	-0.136	0.046
-707.631	147.871	0.132	-0.180
-706.616	208.515	-0.179	0.284
-705.602	-200.000	0.004	0.372
-704.587	-200.000	0.028	0.138
-703.572	-3.693	0.253	0.178
-702.558	580.815	0.107	-0.265
-701.543	-166.422	-0.377	0.016
-700.529	255.382	0.090	0.157
-699.514	-71.243	0.310	-0.118
-698.499	60.656	-0.047	-0.047
-697.485	800.000	-0.099	-0.306
-696.470	-13.640	0.446	-0.293
-695.456	-41.864	0.314	0.163
-694.441	-200.000	0.001	0.098
-693.426	612.906	-0.040	0.101
-692.412	13.384	0.084	-0.066
-691.397	-1.045	-0.101	-0.073
-690.383	101.593	0.148	-0.175
-689.368	-101.350	0.422	-0.105
-688.354	-22.476	0.106	-0.065
-687.339	-78.566	-0.219	-0.076
-686.324	-84.815	0.217	-0.069
-685.310	-78.318	-0.158	0.055
-684.295	268.342	0.065	0.115
-683.281	-200.000	0.021	0.124
-682.266	13.288	-0.191	-0.150
-681.251	-200.000	-0.015	0.129
-680.237	-23.244	-0.198	0.121
-679.222	-20.695	-0.129	-0.081
-678.208	248.690	0.123	-0.211
-677.193	800.000	0.074	-0.289
-676.178	-109.823	-0.129	0.028
-675.164	63.751	-0.051	-0.052
-674.149	-47.341	-0.144	-0.071
-673.135	800.000	-0.061	-0.227
-672.120	44.934	0.108	-0.101
-671.105	203.227	0.111	0.174
-670.091	800.000	0.085	-0.242
-669.076	204.222	-0.196	0.308
-668.062	800.000	-0.119	0.337
-667.047	-200.000	-0.038	-0.249
-666.032	-127.455	-0.277	-0.041
-665.018	-200.000	-0.011	-0.137
-664.003	118.689	0.176	-0.221
-662.989	-157.703	0.034	-0.002
-661.974	800.000	-0.122	0.407
-660.959	91.518	-0.117	-0.134
-659.945	800.000	-0.050	-0.151
-658.930	312.395	0.123	-0.234
-657.916	-139.100	-0.209	0.023
-656.901	-145.477	-0.151	-0.014
-655.886	-101.590	0.260	0.064
-654.872	41.275	-0.315	-0.289
-653.857	683.721	-0.153	0.405
-652.843	-133.692	0.062	0.008
-651.828	-9.182	-0.152	-0.103
-650.814	800.000	-0.027	-0.111
-649.799	96.593	-0.023	-0.027
-648.784	-40.931	-0.061	0.032
-647.770	93.071	-0.153	-0.176
-646.755	39.538	0.104	-0.095
-645.741	-200.000	-0.036	-0.258
-644.726	91.934	-0.217	-0.248
-643.711	111.080	0.109	0.133
-642.697	-21.336	-0.255	0.158
-641.682	40.303	0.047	-0.042
-640.668	-200.000	0.035	0.172
-639.653	-49.031	-0.098	-0.048
-638.638	118.691	0.054	-0.068
-637.624	-1.362	0.186	-0.133
-636.609	-132.998	0.131	-0.017
-635.595	-51.929	-0.067	0.031
-634.580	33.259	-0.209	-0.184
-633.565	621.887	-0.111	-0.282
-632.551	309.632	0.112	-0.212
-631.536	20.999	0.162	0.133
-630.522	800.000	-0.091	0.298
-629.507	-200.000	0.002	-0.062
-628.492	-63.741	-0.140	0.058
-627.478	-35.122	-0.193	-0.107
-626.463	-47.695	0.213	0.105
-625.449	-105.082	-0.051	-0.012
-624.434	-145.266	0.259	-0.024
-623.419	-92.773	-0.223	0.063
-622.405	24.663	0.138	-0.116
-621.390	-200.000	0.008	0.300
-620.376	25.397	-0.346	-0.291
-619.361	-200.000	0.038	-0.324
-618.346	-187.222	-0.228	0.003
-617.332	-69.859	0.073	0.028
-616.317	613.651	-0.098	0.250
-615.303	182.481	-0.144	-0.215
-614.288	302.886	-0.073	-0.137
-613.273	-36.729	-0.198	-0.108
-612.259	-104.430	-0.112	0.026
-611.244	77.123	-0.133	-0.143
-610.230	-49.692	0.300	0.144
-609.215	-200.000	-0.036	-0.415
-608.201	-4.741	0.269	-0.188
-607.186	82.349	-0.157	-0.172
-606.171	-33.917	-0.177	0.099
-605.157	-66.967	-0.086	-0.034
-604.142	80.241	-0.074	-0.081
-603.128	-200.000	-0.066	-0.431
-602.113	-29.750	-0.075	-0.043
-601.098	-63.309	-0.184	-0.077
-600.084	-53.980	-0.067	-0.031
-599.069	-6.718	-0.278	0.191
-598.055	213.862	-0.106	0.170
-597.040	717.113	0.104	0.280
-596.025	-81.328	0.211	-0.070
-595.011	323.784	0.148	0.287
-593.996	-166.713	-0.279	-0.012
-592.982	800.000	0.003	0.010
-591.967	146.879	-0.066	0.090
-590.952	-86.523	-0.411	0.127
-589.938	-46.271	-0.176	0.088
-588.923	-60.320	0.421	-0.181
-587.909	494.074	-0.085	0.198
-586.894	-78.798	0.357	0.123
-585.879	176.155	-0.217	-0.318
-584.865	-200.000	0.012	0.071
-583.850	-45.573	0.317	0.159
-582.836	85.820	-0.152	0.170
-581.821	-170.338	0.179	-0.006
-580.806	-70.127	-0.046	-0.018
-579.792	-108.204	-0.287	0.063
-578.777	-118.879	0.040	-0.007
-577.763	-166.443	0.386	0.016
-576.748	168.741	0.098	-0.141
-575.733	-6.539	-0.178	-0.123
-574.719	236.148	-0.195	0.327
-573.704	-200.000	-0.002	0.295
-572.690	83.830	-0.124	-0.136
-571.675	442.374	-0.046	-0.102
-570.661	-68.701	0.178	-0.070
-569.646	184.471	-0.065	0.098
-568.631	-155.857	0.072	-0.005
-567.617	136.010	0.166	0.218
-566.602	220.186	0.113	-0.182
-565.588	-53.495	-0.136	0.063
-564.573	38.157	0.060	-0.054
-563.558	-200.000	0.082	0.511
-562.544	-41.868	-0.234	-0.122
-561.529	-110.936	-0.241	0.050
-560.515	179.581	0.155	0.230
-559.500	-200.000	0.022	0.116
-558.485	94.669	0.115	0.133
-557.471	800.000	-0.050	-0.142
-556.456	-37.586	-0.187	0.101
-555.442	110.004	-0.262	-0.318
-554.427	-102.208	0.019	-0.005
-553.412	68.149	0.023	0.023
-552.398	-200.000	0.007	0.181
-551.383	29.120	-0.238	-0.204
-550.369	-110.636	0.325	-0.068
-549.354	-200.000	0.001	-0.404
-548.339	588.167	0.101	-0.252
-547.325	385.541	-0.066	0.137
-546.310	-200.000	-0.035	-0.213
-545.296	-139.898	-0.287	-0.031
-544.281	127.615	-0.070	-0.090
-543.266	94.931	0.130	0.150
-542.252	-56.714	-0.226	0.101
-541.237	89.436	0.101	-0.114
-540.223	-10.356	-0.296	-0.198
-539.208	8.855	0.196	0.150
-538.193	-60.402	0.262	-0.112
-537.179	80.349	-0.193	0.210
-536.164	627.911	0.075	0.191
-535.150	781.135	0.093	0.257
-534.135	117.141	-0.278	0.345
-533.121	81.853	-0.082	-0.090
-532.106	-154.382	-0.125	-0.008
-531.091	574.241	0.127	-0.313
-530.077	-189.721	-0.381	0.004
-529.062	115.463	0.068	-0.084
-528.048	53.374	-0.146	-0.141
-527.033	-35.711	0.264	0.144
-526.018	-69.462	-0.408	0.158
-525.004	-200.000	0.002	0.227
-523.989	80.567	-0.071	0.077
-522.975	103.483	0.101	-0.120
-521.960	-154.582	-0.037	0.002
-520.945	-176.985	0.361	-0.009
-519.931	-52.260	-0.240	-0.112
-518.916	-167.578	-0.122	0.005
-517.902	37.047	-0.127	0.113
-516.887	220.604	0.217	-0.351
-515.872	121.645	0.257	-0.324
-514.858	-200.000	-0.024	0.120
-513.843	257.280	0.085	-0.148
-512.829	800.000	-0.037	-0.144
-511.814	-105.272	0.471	0.108
-510.799	-200.000	-0.028	0.165
-509.785	333.469	-0.154	0.300
-508.770	65.381	0.116	-0.118
-507.756	-200.000	0.033	-0.227
-506.741	-50.245	0.243	0.116
-505.726	255.810	-0.018	-0.030
-504.712	-43.967	0.510	-0.259
-503.697	512.204	0.074	0.173
-502.683	-111.257	-0.093	-0.019
-501.668	210.369	0.066	0.104
-500.653	-100.431	-0.340	0.085
-499.639	-19.281	0.099	0.062
-498.624	-200.000	-0.030	-0.244
-497.610	-83.246	0.113	0.037
-496.595	-103.750	-0.328	-0.078
-495.581	800.000	-0.059	0.221
-494.566	19.792	0.081	0.066
-493.551	-46.031	-0.224	-0.111
-492.537	-184.060	-0.254	-0.004
-491.522	-200.000	-0.304	0.001
-490.508	85.059	-0.122	-0.135
-489.493	406.717	0.061	0.130
-488.478	100.095	-0.280	-0.327
-487.464	-200.000	-0.005	-0.306
-486.449	169.949	-0.225	-0.324
-485.435	-200.000	0.011	-0.306
-484.420	800.000	0.120	0.487
-483.405	800.000	0.103	-0.386
-482.391	-200.000	0.033	0.181
-481.376	-127.592	0.123	-0.018
-480.362	568.104	0.077	-0.189
-479.347	-36.191	0.176	0.095
-478.332	-200.000	-0.049	-0.230
-477.318	-200.000	-0.043	-0.229
-476.303	20.491	0.312	0.254
-475.289	-50.272	-0.284	0.135
-474.274	-200.000	-0.012	0.125
-473.259	482.789	-0.006	-0.013
-472.245	-23.474	0.175	0.106
-471.230	63.739	0.210	-0.212
-470.216	-200.000	-0.006	0.044
-469.201	-28.968	0.325	0.188
-468.186	-200.000	0.015	-0.083
-467.172	138.872	-0.200	0.265
-466.157	-200.000	0.006	0.120
-465.143	-96.475	-0.113	0.030
-464.128	57.647	0.186	0.183
-463.113	645.186	-0.086	0.220
-462.099	-200.000	0.047	0.244
-461.084	9.439	-0.249	0.190
-460.070	184.614	0.113	0.169
-459.055	501.329	-0.091	-0.211
-458.040	-16.750	0.128	-0.081
-457.026	8.631	-0.323	-0.245
-456.011	-160.845	-0.196	0.010
-454.997	657.733	0.033	-0.086
-453.982	-99.679	0.412	0.104
-452.968	-38.720	0.217	-0.115
-451.953	175.333	0.137	-0.200
-450.938	-79.453	0.095	0.032
-449.924	-127.129	-0.409	-0.060
-448.909	800.000	0.037	0.135
-447.895	-24.489	0.110	-0.066
-446.880	36.326	0.196	-0.174
-445.865	-200.000	-0.078	-0.436
-444.851	-73.262	0.074	0.027
-443.836	-114.866	0.155	0.030
-442.822	18.104	-0.013	-0.010
-441.807	752.372	-0.120	0.326
-440.792	18.591	-0.266	-0.214
-439.778	800.000	0.018	-0.064
-438.763	65.229	-0.028	-0.028
-437.749	767.179	-0.154	-0.422
-436.734	206.988	-0.106	-0.167
-435.719	-200.000	0.005	-0.214
-434.705	-75.872	-0.252	-0.090
-433.690	188.455	0.012	0.017
-432.676	-26.405	0.252	0.148
-431.661	34.693	-0.087	0.076
-430.646	-200.000	-0.049	-0.414
-429.632	800.000	-0.020	0.068
-428.617	169.162	-0.099	0.142
-427.603	-97.074	0.374	0.098
-426.588	-11.818	0.378	-0.250
-425.573	-200.000	0.005	0.064
-424.559	800.000	0.042	-0.181
-423.544	800.000	-0.014	-0.041
-422.530	-10.049	0.080	-0.054
-421.515	-36.851	0.214	-0.116
-420.500	-125.817	0.091	0.014
-419.486	-200.000	0.039	0.183
-418.471	-142.294	0.228	0.023
-417.457	800.000	-0.045	-0.126
-416.442	131.884	-0.244	0.316
-415.428	116.986	-0.147	0.181
-414.413	69.688	0.207	-0.214
-413.398	-99.724	0.179	0.045
-412.384	-127.582	0.086	-0.013
-411.369	800.000	-0.071	-0.262
-410.355	356.200	-0.153	-0.305
-409.340	-48.075	-0.242	-0.118
-408.325	299.095	0.185	0.343
-407.311	-52.472	0.213	0.099
-406.296	-186.075	-0.077	0.001
-405.282	83.206	0.165	-0.180
-404.267	-47.650	-0.346	0.169
-403.252	-15.344	-0.076	-0.049
-402.238	19.389	0.242	-0.196
-401.223	139.893	0.189	-0.250
-400.209	800.000	-0.060	0.216
-399.194	27.968	0.188	0.159
-398.179	800.000	-0.017	0.067
-397.165	-200.000	-0.022	0.248
-396.150	395.767	-0.089	0.187
-395.136	-200.000	0.010	0.074
-394.121	-8.831	0.101	-0.068
-393.106	800.000	-0.090	-0.260
-392.092	-74.380	-0.282	-0.102
-391.077	331.089	0.111	0.215
-390.063	-25.541	-0.225	0.134
-389.048	-132.540	-0.102	0.013
-388.033	-121.053	-0.375	-0.063
-387.019	-146.557	-0.238	-0.021
-386.004	527.945	0.007	-0.017
-384.990	-60.008	-0.259	-0.111
-383.975	-100.495	-0.074	0.018
-382.960	66.735	-0.124	-0.126
-381.946	51.308	0.093	-0.088
-380.931	-200.000	-0.000	-0.315
-379.917	-57.592	-0.314	-0.138
-378.902	-152.032	-0.393	-0.029
-377.888	61.755	0.100	-0.100
-376.873	220.140	-0.044	-0.070
-375.858	-58.308	0.486	0.212
-374.844	-62.956	-0.120	0.050
-373.829	-96.354	0.043	0.011
-372.815	132.612	-0.119	0.154
-371.800	17.816	0.220	-0.176
-370.785	-39.960	-0.166	0.087
-369.771	400.195	-0.078	0.164
-368.756	-9.012	0.260	-0.174
-367.742	118.645	-0.103	0.127
-366.727	355.774	-0.057	-0.114
-365.712	230.781	-0.037	0.060
-364.698	-80.702	-0.128	0.043
-363.683	265.459	0.229	-0.400
-362.669	39.118	0.145	0.130
-361.654	335.897	-0.076	-0.148
-360.639	-93.406	0.256	0.071
-359.625	321.244	-0.051	-0.097
-358.610	-200.000	0.033	0.374
-357.596	86.708	-0.105	0.117
-356.581	-67.744	-0.115	-0.045
-355.566	-77.020	0.158	-0.055
-354.552	-194.859	-0.131	-0.001
-353.537	800.000	0.038	-0.128
-352.523	488.433	0.206	0.471
-351.508	-93.199	0.047	-0.013
-350.493	-15.276	-0.108	0.069
-349.479	129.947	0.157	0.202
-348.464	575.682	0.097	-0.238
-347.450	172.557	0.048	0.069
-346.435	-23.397	-0.109	-0.065
-345.420	11.830	0.226	0.174
-344.406	-14.624	0.137	0.088
-343.391	52.508	0.175	0.168
-342.377	425.742	0.140	0.302
-341.362	-200.000	-0.035	0.257
-340.348	-100.159	-0.287	0.072
-339.333	119.051	-0.171	0.212
-338.318	-200.000	0.032	0.195
-337.304	128.326	-0.138	-0.176
-336.289	27.092	0.193	-0.162
-335.275	244.061	-0.083	-0.140
-334.260	372.036	-0.160	-0.325
-333.245	-67.571	-0.190	-0.075
-332.231	800.000	-0.086	0.306
-331.216	212.884	-0.021	-0.034
-330.202	341.672	0.099	-0.193
-329.187	62.811	0.111	-0.111
-328.172	18.969	0.183	-0.147
-327.158	611.926	-0.089	0.222
-326.143	-10.817	0.024	-0.016
-325.129	-200.000	-0.062	0.323
-324.114	-27.677	-0.117	-0.068
-323.099	-53.637	0.201	-0.092
-322.085	65.342	0.162	-0.164
-321.070	-96.930	-0.070	0.018
-320.056	-54.977	-0.127	0.057
-319.041	-196.644	0.237	0.002
-318.026	-96.797	-0.165	-0.043
-317.012	158.582	-0.142	-0.198
-315.997	800.000	-0.087	0.245
-314.983	-151.827	0.379	0.028
-313.968	346.173	-0.107	0.211
-312.953	800.000	-0.031	0.102
-311.939	179.285	-0.127	0.186
-310.924	-94.839	0.247	0.067
-309.910	800.000	-0.010	0.038
-308.895	45.625	0.191	0.176
-307.880	-14.412	-0.217	0.140
-306.866	-81.487	0.360	0.118
-305.851	-40.249	0.342	0.178
-304.837	-200.000	-0.035	0.156
-303.822	119.793	0.304	0.376
-302.807	-67.624	0.160	0.063
-301.793	-102.177	-0.347	-0.084
-300.778	121.210	0.341	0.425
-299.764	-59.942	0.233	-0.099
-298.749	-74.286	-0.328	-0.119
-297.735	81.782	0.106	0.115
-296.720	-200.000	-0.064	-0.350
-295.705	663.679	-0.175	-0.453
-294.691	-160.001	0.455	-0.025
-293.676	-200.000	0.025	-0.121
-292.662	191.745	0.043	-0.064
-291.647	-200.000	-0.044	-0.247
-290.632	132.471	0.138	0.178
-289.618	2.853	0.183	-0.133
-288.603	-74.387	-0.109	-0.039
-287.589	411.311	-0.146	0.310
-286.574	143.544	-0.224	-0.298
-285.559	-110.216	-0.145	-0.030
-284.545	-70.860	0.265	-0.100
-283.530	-116.784	0.184	0.034
-282.516	-200.000	0.034	-0.237
-281.501	105.342	0.166	0.196
-280.486	-70.288	-0.209	-0.079
-279.472	85.107	0.165	-0.181
-278.457	-87.367	0.116	-0.035
-277.443	-144.812	0.325	-0.030
-276.428	-98.277	0.332	0.085
-275.413	215.698	-0.142	0.225
-274.399	409.928	0.102	0.216
-273.384	456.184	0.096	0.214
-272.370	13.714	-0.098	-0.076
-271.355	-70.792	-0.300	-0.113
-270.340	-200.000	-0.024	0.183
-269.326	-125.407	0.302	0.046
-268.311	-117.414	-0.233	0.042
-267.297	-55.601	0.250	0.112
-266.282	-23.918	-0.133	0.079
-265.267	613.919	0.071	0.177
-264.253	800.000	0.019	0.080
-263.238	168.151	0.057	-0.081
-262.224	179.246	0.045	0.065
-261.209	-7.775	-0.133	0.089
-260.195	6.494	-0.105	-0.078
-259.180	-153.086	0.222	-0.016
-258.165	669.541	-0.114	-0.295
-257.151	-200.000	0.010	-0.129
-256.136	-156.555	0.103	-0.006
-255.122	-50.867	-0.266	0.125
-254.107	10.637	-0.271	0.206
-253.092	-26.901	0.177	0.103
-252.078	-200.000	0.060	-0.312
-251.063	-106.654	-0.123	-0.027
-250.049	-69.995	0.272	0.103
-249.034	-200.000	-0.017	-0.316
-248.019	-194.538	-0.174	-0.001
-247.005	95.746	0.047	-0.053
-245.990	175.638	0.068	-0.099
-244.976	394.315	0.053	0.110
-243.961	800.000	0.037	-0.145
-242.946	14.694	0.202	-0.157
-241.932	-200.000	-0.000	-0.154
-240.917	254.103	-0.335	-0.572
-239.903	-119.193	0.307	0.053
-238.888	-190.489	0.167	0.002
-237.873	-75.168	-0.019	0.007
-236.859	-165.695	-0.061	-0.003
-235.844	44.046	0.102	-0.093
-234.830	-136.837	0.143	-0.016
-233.815	-83.972	0.021	0.007
-232.800	-200.000	-0.007	-0.277
-231.786	-112.202	0.370	0.074
-230.771	-4.260	-0.104	0.072
-229.757	800.000	0.067	-0.205
-228.742	277.969	-0.160	0.284
-227.727	-59.847	0.078	-0.033
-226.713	20.798	-0.046	0.037
-225.698	111.852	-0.045	0.054
-224.684	108.289	0.031	0.037
-223.669	-200.000	-0.076	0.483
-222.655	800.000	0.047	-0.204
-221.640	635.492	-0.121	0.307
-220.625	-139.267	0.619	0.066
-219.611	298.538	0.139	-0.255
-218.596	375.183	-0.067	-0.136
-217.582	-9.011	0.222	-0.148
-216.567	411.729	-0.143	-0.302
-215.552	800.000	0.120	0.503
-214.538	-200.000	0.061	-0.465
-213.523	-200.000	-0.001	0.191
-212.509	800.000	0.117	0.407
-211.494	725.820	-0.040	0.107
-210.479	-73.532	0.172	0.063
-209.465	470.082	-0.173	0.388
-208.450	-176.684	-0.443	0.011
-207.436	800.000	-0.151	-0.480
-206.421	-52.038	0.219	0.102
-205.406	-200.000	0.008	0.145
-204.392	-6.239	-0.138	-0.094
-203.377	6.763	0.136	-0.101
-202.363	689.683	0.103	0.270
-201.348	800.000	-0.080	0.299
-200.333	530.973	-0.084	-0.198
-199.319	-83.472	-0.240	0.076
-198.304	278.838	0.143	0.253
-197.290	-10.949	0.179	-0.118
-196.275	66.602	0.103	0.105
-195.260	343.264	-0.088	0.171
-194.246	208.407	0.199	-0.310
-193.231	-200.000	-0.016	0.210
-192.217	477.797	-0.058	-0.131
-191.202	-108.424	-0.074	0.016
-190.187	-112.586	-0.241	0.048
-189.173	-152.897	0.044	0.003
-188.158	619.658	-0.027	-0.068
-187.144	-120.443	0.426	0.072
-186.129	-200.000	-0.026	-0.133
-185.114	-29.213	0.216	0.123
-184.100	-75.782	-0.361	-0.127
-183.085	-43.917	0.155	-0.078
-182.071	-200.000	-0.026	0.318
-181.056	-200.000	-0.019	0.083
-180.042	-89.623	0.244	0.071
-179.027	140.360	-0.198	-0.260
-178.012	150.147	0.093	0.125
-176.998	-200.000	-0.020	0.230
-175.983	58.133	-0.102	0.099
-174.969	-122.118	-0.254	-0.041
-173.954	149.093	0.269	-0.363
-172.939	-200.000	0.008	-0.050
-171.925	115.026	-0.097	-0.117
-170.910	52.746	-0.097	-0.092
-169.896	-200.000	0.008	0.182
-168.881	-33.247	-0.049	-0.027
-167.866	-55.921	-0.187	0.083
-166.852	-76.187	0.243	0.085
-165.837	14.174	-0.327	0.254
-164.823	59.353	-0.169	0.166
-163.808	-81.843	-0.215	-0.070
-162.793	24.638	-0.238	0.196
-161.779	-200.000	-0.073	0.331
-160.764	-143.691	-0.061	0.006
-159.750	3.362	0.113	-0.082
-158.735	120.011	-0.018	0.022
-157.720	-139.799	-0.343	0.036
-156.706	800.000	-0.074	0.283
-155.691	263.550	0.159	-0.275
-154.677	-200.000	-0.031	0.264
-153.662	10.902	0.199	0.151
-152.647	-200.000	-0.019	-0.107
-151.633	-56.622	0.170	-0.075
-150.618	-83.603	0.342	0.109
-149.604	-106.907	0.445	0.098
-148.589	-39.269	0.012	0.006
-147.574	-200.000	-0.016	0.215
-146.560	24.712	0.190	-0.157
-145.545	208.718	0.146	-0.227
-144.531	-24.032	-0.190	0.113
-143.516	135.543	-0.147	0.190
-142.502	-59.930	-0.182	0.077
-141.487	-34.071	0.300	0.164
-140.472	800.000	-0.082	0.267
-139.458	-138.665	0.131	0.014
-138.443	86.026	0.129	0.141
-137.429	121.406	-0.098	0.121
-136.414	-68.154	-0.180	-0.070
-135.399	800.000	0.084	-0.253
-134.385	-87.613	-0.100	0.030
-133.370	800.000	-0.022	0.097
-132.356	220.966	0.058	0.092
-131.341	152.603	-0.104	-0.142
-130.326	170.744	0.107	-0.152
-129.312	-39.664	-0.199	0.103
-128.297	-132.245	-0.067	-0.009
-127.283	-18.387	-0.098	0.061
-126.268	19.438	0.242	-0.193
-125.253	-190.065	-0.185	-0.002
-124.239	-200.000	0.015	-0.104
-123.224	-38.227	-0.063	-0.033
-122.210	-140.902	0.201	0.021
-121.195	-200.000	-0.013	0.224
