DTS Sentinel unit serial number:	SN413079Multiplexer serial number:	ORYXHardware model number:	OX4-SRSoftware version number:	ORYX F/W v4.00 Oryx Data Collector v3.7.2.0data status	okinstallation	princeton_trtdifferential loss correction	single-endedforward channel	channel 3reverse channel	N/Adate	2019/09/18time	12:44:35forward acquisition time	60.00reverse acquisition time	0.00gamma	496.2192k internal	0.2316k external	0.2316temperature offset calibration	0.9965default loss term (dB/km)	0.3790temperature slope calibration	1.0000multiplexer offset coefficient	1.0000multiplexer slope coefficient	1.0000fibre end	0.00T internal ref (°C)	32.89T ext. ref 1 (°C)	0.54T ext. ref 2 (°C)	30.45length (m)	temperature (°C)	Stokes	anti-Stokes-747.200	335.936	-0.100	-0.197
-746.185	465.825	-0.039	0.089
-745.171	-104.108	-0.273	0.064
-744.156	800.000	-0.026	0.103
-743.142	165.979	0.064	-0.091
-742.127	658.946	0.161	0.419
-741.112	-74.675	-0.190	0.069
-740.098	-5.904	-0.287	0.199
-739.083	296.035	-0.196	0.363
-738.069	-137.553	-0.137	0.016
-737.054	-200.000	-0.002	0.183
-736.039	67.433	-0.212	-0.219
-735.025	23.216	0.375	0.312
-734.010	-3.217	0.142	-0.100
-732.996	-41.910	-0.319	-0.165
-731.981	-12.322	0.101	-0.067
-730.966	-200.000	-0.005	-0.063
-729.952	216.943	-0.143	0.231
-728.937	429.560	-0.110	0.241
-727.923	323.587	0.106	0.205
-726.908	402.549	-0.104	-0.221
-725.894	230.446	-0.191	-0.316
-724.879	-200.000	-0.015	-0.082
-723.864	-75.724	0.158	0.057
-722.850	36.296	-0.144	-0.128
-721.835	-143.857	0.180	0.017
-720.821	1.521	0.100	-0.073
-719.806	433.178	-0.167	-0.367
-718.791	-170.689	-0.325	-0.011
-717.777	-153.321	-0.210	0.015
-716.762	-11.203	0.058	0.038
-715.748	-43.637	-0.024	-0.012
-714.733	-114.110	-0.287	-0.056
-713.718	243.136	-0.256	0.435
-712.704	-200.000	-0.062	0.300
-711.689	-3.351	-0.303	0.213
-710.675	-200.000	0.016	0.119
-709.660	-95.542	-0.460	0.125
-708.645	-123.068	0.157	-0.025
-707.631	318.199	0.057	-0.109
-706.616	243.093	-0.126	0.213
-705.602	736.116	0.075	-0.203
-704.587	-200.000	0.009	-0.082
-703.572	-187.240	0.298	0.004
-702.558	139.242	0.062	0.083
-701.543	788.612	0.057	-0.159
-700.529	800.000	0.065	-0.195
-699.514	51.882	0.142	0.137
-698.499	26.345	-0.150	0.127
-697.485	155.446	0.163	-0.227
-696.470	-64.041	-0.024	0.010
-695.456	86.050	0.072	0.081
-694.441	800.000	-0.024	0.069
-693.426	-109.431	-0.093	-0.020
-692.412	-200.000	0.060	0.310
-691.397	-93.590	0.224	-0.063
-690.383	-105.377	0.173	-0.040
-689.368	-200.000	-0.061	-0.284
-688.354	-200.000	-0.032	-0.206
-687.339	-100.399	-0.315	-0.079
-686.324	-78.923	-0.438	0.151
-685.310	-98.316	0.065	-0.017
-684.295	462.544	0.057	-0.129
-683.281	112.997	-0.229	-0.280
-682.266	-87.401	-0.336	-0.103
-681.251	-200.000	0.006	-0.201
-680.237	11.300	-0.156	-0.121
-679.222	800.000	0.094	0.393
-678.208	-143.120	-0.281	-0.027
-677.193	257.930	-0.145	-0.252
-676.178	246.507	0.061	-0.104
-675.164	800.000	0.047	-0.138
-674.149	77.557	-0.251	-0.270
-673.135	-200.000	-0.024	-0.293
-672.120	-148.421	0.189	0.016
-671.105	29.945	0.307	-0.265
-670.091	-0.929	-0.102	0.073
-669.076	220.528	-0.171	-0.276
-668.062	-88.718	-0.177	0.053
-667.047	-73.314	0.230	-0.085
-666.032	-200.000	-0.040	0.374
-665.018	-200.000	0.057	0.280
-664.003	464.051	-0.094	-0.212
-662.989	-22.689	0.160	-0.098
-661.974	800.000	0.132	0.447
-660.959	-101.304	0.157	0.039
-659.945	-146.811	-0.156	0.014
-658.930	643.140	-0.037	0.095
-657.916	-140.042	0.211	-0.022
-656.901	58.784	-0.113	-0.112
-655.886	-200.000	-0.009	-0.305
-654.872	800.000	0.028	-0.109
-653.857	-20.698	0.205	-0.127
-652.843	92.722	-0.104	-0.119
-651.828	-47.124	-0.085	-0.042
-650.814	800.000	-0.126	-0.440
-649.799	-139.997	-0.149	-0.016
-648.784	800.000	-0.108	-0.366
-647.770	31.829	0.070	-0.060
-646.755	-91.916	-0.102	-0.029
-645.741	800.000	-0.035	0.148
-644.726	32.907	0.248	0.217
-643.711	-49.968	0.169	-0.081
-642.697	-5.861	-0.232	-0.160
-641.682	-166.991	-0.092	0.004
-640.668	82.188	-0.136	-0.148
-639.653	-46.290	-0.072	-0.036
-638.638	589.690	0.086	0.215
-637.624	-101.902	0.207	-0.051
-636.609	-38.396	0.268	-0.143
-635.595	123.833	0.157	-0.199
-634.580	-63.963	-0.439	-0.181
-633.565	-5.857	0.311	0.215
-632.551	-166.790	-0.518	-0.022
-631.536	102.247	-0.182	0.214
-630.522	-35.703	-0.272	0.148
-629.507	-93.965	0.177	-0.049
-628.492	53.361	-0.155	0.150
-627.478	-90.043	0.289	-0.085
-626.463	-37.913	-0.263	-0.141
-625.449	-152.501	0.342	0.025
-624.434	-6.270	-0.334	-0.230
-623.419	-130.197	-0.190	0.026
-622.405	800.000	-0.046	-0.152
-621.390	-200.000	0.019	-0.333
-620.376	-200.000	0.023	-0.288
-619.361	728.025	0.105	0.283
-618.346	-200.000	0.013	0.291
-617.332	-186.820	-0.069	-0.001
-616.317	39.086	0.091	0.082
-615.303	-130.986	-0.201	-0.027
-614.288	629.612	0.091	0.233
-613.273	800.000	-0.091	-0.292
-612.259	-169.537	-0.217	0.008
-611.244	-15.196	0.174	-0.112
-610.230	245.546	0.110	-0.187
-609.215	-143.644	-0.212	0.020
-608.201	-65.207	0.316	-0.128
-607.186	-71.513	0.252	0.095
-606.171	42.831	0.282	0.259
-605.157	-27.518	0.319	-0.187
-604.142	-27.345	0.373	0.219
-603.128	-33.021	-0.098	-0.055
-602.113	-158.105	0.378	0.022
-601.098	-20.449	0.152	-0.094
-600.084	-23.455	0.372	0.225
-599.069	-21.279	0.188	-0.116
-598.055	800.000	-0.072	-0.305
-597.040	400.475	-0.105	-0.222
-596.025	377.582	-0.085	-0.175
-595.011	-200.000	0.001	-0.076
-593.996	-77.739	-0.082	-0.029
-592.982	54.727	0.236	-0.229
-591.967	-87.767	-0.299	-0.091
-590.952	-200.000	0.041	0.204
-589.938	-109.062	0.269	0.058
-588.923	-21.290	0.230	-0.141
-587.909	-200.000	0.022	0.280
-586.894	-24.587	0.191	-0.114
-585.879	150.383	-0.114	-0.156
-584.865	-48.500	0.081	-0.039
-583.850	498.535	0.069	0.160
-582.836	-200.000	-0.049	0.334
-581.821	92.804	0.101	-0.115
-580.806	800.000	0.012	0.045
-579.792	469.255	0.033	0.074
-578.777	-200.000	0.021	-0.186
-577.763	-20.691	0.070	0.043
-576.748	800.000	-0.095	-0.274
-575.733	340.964	0.143	0.281
-574.719	-69.628	-0.332	0.128
-573.704	248.481	-0.106	0.180
-572.690	-175.278	-0.207	-0.006
-571.675	-0.388	-0.123	-0.088
-570.661	-8.610	0.108	0.073
-569.646	-23.582	-0.336	0.203
-568.631	52.607	-0.082	0.078
-567.617	201.195	-0.048	-0.074
-566.602	631.792	-0.074	0.189
-565.588	39.813	0.041	0.037
-564.573	264.045	-0.193	0.338
-563.558	422.214	-0.144	-0.311
-562.544	-67.287	0.118	-0.047
-561.529	-200.000	0.032	0.210
-560.515	7.641	-0.325	-0.244
-559.500	-200.000	-0.013	-0.166
-558.485	-2.714	-0.101	-0.071
-557.471	-15.276	-0.186	0.120
-556.456	-165.780	-0.073	0.003
-555.442	525.317	0.086	-0.203
-554.427	-43.999	-0.282	-0.143
-553.412	49.518	0.094	0.089
-552.398	138.547	-0.027	0.036
-551.383	-100.807	-0.249	0.062
-550.369	-62.163	0.048	0.020
-549.354	790.206	-0.153	-0.422
-548.339	437.723	-0.100	-0.218
-547.325	-48.981	-0.173	0.083
-546.310	341.880	-0.113	0.223
-545.296	40.694	-0.033	0.030
-544.281	52.862	-0.177	-0.170
-543.266	46.218	-0.230	0.214
-542.252	31.227	0.055	0.047
-541.237	-80.334	-0.172	-0.058
-540.223	-152.482	0.092	-0.007
-539.208	800.000	0.064	-0.273
-538.193	800.000	-0.067	-0.209
-537.179	-49.083	-0.298	0.143
-536.164	49.787	0.077	-0.073
-535.150	-3.166	0.089	-0.063
-534.135	-160.234	0.116	-0.006
-533.121	85.402	0.056	-0.062
-532.106	271.447	0.065	0.115
-531.091	229.367	-0.040	0.065
-530.077	-3.775	0.119	0.083
-529.062	-102.830	-0.318	-0.076
-528.048	109.116	0.114	-0.137
-527.033	-200.000	0.002	-0.007
-526.018	-200.000	-0.020	0.215
-525.004	42.126	0.239	0.218
-523.989	-200.000	0.028	-0.195
-522.975	-79.827	0.095	-0.032
-521.960	5.471	-0.034	0.025
-520.945	15.365	-0.071	-0.056
-519.931	-114.062	-0.190	0.037
-518.916	-57.311	0.222	-0.098
-517.902	-139.401	-0.105	-0.011
-516.887	-39.888	-0.105	-0.055
-515.872	540.745	-0.085	0.203
-514.858	-119.357	0.280	-0.049
-513.843	800.000	-0.082	-0.279
-512.829	-77.175	-0.102	-0.036
-511.814	176.010	0.195	-0.285
-510.799	718.005	0.061	0.162
-509.785	-200.000	-0.008	0.392
-508.770	-98.918	0.084	-0.021
-507.756	169.434	-0.088	0.125
-506.741	-117.164	-0.061	0.011
-505.726	326.536	-0.090	0.174
-504.712	-110.589	-0.429	-0.089
-503.697	302.202	0.051	-0.095
-502.683	-200.000	-0.041	-0.285
-501.668	79.512	-0.112	-0.120
-500.653	55.591	0.121	-0.118
-499.639	313.392	-0.096	-0.181
-498.624	-173.150	-0.238	-0.007
-497.610	-200.000	-0.038	0.218
-496.595	793.250	-0.080	0.222
-495.581	-29.551	0.094	0.054
-494.566	800.000	-0.026	-0.084
-493.551	-142.757	0.244	-0.024
-492.537	252.467	0.048	-0.082
-491.522	276.575	0.099	0.177
-490.508	-38.406	-0.254	-0.135
-489.493	800.000	0.023	0.097
-488.478	-200.000	0.037	0.449
-487.464	33.155	-0.096	-0.083
-486.449	-35.580	-0.286	-0.156
-485.435	475.920	-0.197	0.447
-484.420	-23.924	-0.214	0.129
-483.405	-44.890	-0.180	-0.090
-482.391	-0.219	0.125	-0.089
-481.376	-200.000	0.004	-0.303
-480.362	-24.775	0.353	0.210
-479.347	105.626	-0.048	-0.057
-478.332	-163.272	0.274	0.013
-477.318	499.313	0.112	0.260
-476.303	-131.320	0.282	-0.037
-475.289	-8.857	0.178	-0.120
-474.274	-164.130	-0.277	-0.013
-473.259	12.356	0.345	0.267
-472.245	108.365	0.119	-0.142
-471.230	-0.698	0.120	0.085
-470.216	553.375	0.113	0.273
-469.201	151.254	0.148	0.202
-468.186	21.075	-0.220	0.179
-467.172	78.185	0.059	0.063
-466.157	-4.569	0.203	-0.141
-465.143	73.970	-0.533	-0.560
-464.128	9.311	-0.120	0.091
-463.113	-200.000	-0.016	0.103
-462.099	121.050	-0.230	-0.287
-461.084	800.000	-0.017	0.067
-460.070	412.454	0.100	0.213
-459.055	-152.750	-0.303	0.022
-458.040	-38.448	0.101	0.054
-457.026	-37.603	0.214	0.114
-456.011	-88.252	0.408	0.122
-454.997	-14.270	-0.386	0.249
-453.982	-33.909	0.048	-0.026
-452.968	-73.370	-0.279	0.102
-451.953	-43.397	-0.378	-0.191
-450.938	-200.000	-0.018	-0.214
-449.924	194.581	0.100	-0.152
-448.909	-70.592	-0.194	-0.073
-447.895	82.741	-0.150	-0.163
-446.880	-66.523	0.134	0.053
-445.865	-143.496	0.358	-0.034
-444.851	-200.000	-0.013	-0.165
-443.836	740.303	-0.103	-0.278
-442.822	-69.396	-0.205	-0.079
-441.807	-151.216	-0.118	-0.009
-440.792	-200.000	0.056	0.290
-439.778	665.970	-0.094	0.243
-438.763	270.693	-0.076	-0.134
-437.749	-86.173	-0.159	-0.049
-436.734	452.952	-0.091	-0.202
-435.719	-18.584	0.233	-0.146
-434.705	-200.000	0.021	0.214
-433.690	393.244	0.098	0.205
-432.676	-79.605	0.176	0.059
-431.661	186.528	0.160	0.238
-430.646	-8.049	-0.277	-0.187
-429.632	-69.489	-0.183	0.070
-428.617	87.786	0.229	-0.254
-427.603	477.201	0.009	0.020
-426.588	-20.995	0.227	0.139
-425.573	-163.046	-0.146	0.007
-424.559	-45.399	-0.319	-0.158
-423.544	-129.176	0.201	-0.028
-422.530	-1.478	-0.183	-0.129
-421.515	10.205	-0.244	0.185
-420.500	-65.838	0.386	-0.155
-419.486	800.000	0.127	0.515
-418.471	800.000	-0.080	0.223
-417.457	-65.621	0.246	-0.099
-416.442	146.044	-0.122	-0.164
-415.428	-135.320	-0.061	0.007
-414.413	-20.273	0.206	0.127
-413.398	215.835	0.170	-0.269
-412.384	-133.907	0.271	-0.034
-411.369	1.502	0.242	-0.174
-410.355	-64.144	0.227	-0.093
-409.340	-60.292	0.292	-0.124
-408.325	-104.754	0.258	-0.059
-407.311	-200.000	0.001	0.150
-406.296	-53.265	0.319	-0.146
-405.282	205.069	0.041	-0.063
-404.267	800.000	-0.027	-0.076
-403.252	-60.950	-0.416	-0.176
-402.238	-200.000	0.015	-0.090
-401.223	2.905	-0.369	0.268
-400.209	646.403	0.132	0.336
-399.194	235.650	0.149	0.246
-398.179	-69.415	-0.271	-0.104
-397.165	234.885	0.229	0.378
-396.150	182.829	0.100	0.148
-395.136	-49.028	-0.112	-0.054
-394.121	377.351	-0.105	0.215
-393.106	-30.233	0.159	-0.090
-392.092	319.212	0.081	-0.153
-391.077	206.855	-0.244	0.379
-390.063	-9.421	0.055	0.037
-389.048	112.461	-0.061	-0.074
-388.033	800.000	0.070	-0.212
-387.019	-89.534	-0.199	0.058
-386.004	289.815	0.057	-0.103
-384.990	-200.000	0.022	0.245
-383.975	-128.704	0.070	-0.010
-382.960	-4.160	-0.141	-0.097
-381.946	-200.000	-0.001	-0.207
-380.931	74.939	-0.243	-0.256
-379.917	-82.683	0.072	0.023
-378.902	-140.292	0.448	0.047
-377.888	241.122	0.188	-0.314
-376.873	-64.113	0.176	0.072
-375.858	-44.350	-0.102	-0.051
-374.844	325.460	0.042	0.079
-373.829	-9.700	0.251	0.167
-372.815	-125.919	-0.082	-0.012
-371.800	-112.473	-0.174	0.035
-370.785	-200.000	-0.029	-0.358
-369.771	-148.626	0.256	0.021
-368.756	167.856	0.210	0.298
-367.742	-200.000	-0.014	0.125
-366.727	-28.222	0.443	-0.256
-365.712	-141.919	0.257	0.026
-364.698	-96.082	0.136	-0.036
-363.683	145.299	-0.232	0.310
-362.669	37.086	0.118	-0.105
-361.654	-14.357	-0.101	-0.065
-360.639	-47.875	-0.036	0.018
-359.625	150.503	0.121	-0.164
-358.610	242.251	-0.043	0.072
-357.596	-176.719	0.388	-0.010
-356.581	-200.000	-0.031	-0.335
-355.566	28.960	-0.123	0.104
-354.552	-200.000	-0.001	-0.020
-353.537	-82.565	0.269	0.087
-352.523	5.954	-0.023	-0.017
-351.508	43.107	-0.133	-0.121
-350.493	449.856	0.108	0.237
-349.479	221.361	-0.070	-0.112
-348.464	109.906	-0.051	-0.061
-347.450	-200.000	-0.054	-0.462
-346.435	-200.000	0.031	0.275
-345.420	48.151	-0.164	0.153
-344.406	800.000	-0.066	0.267
-343.391	354.368	-0.051	-0.101
-342.377	-28.890	-0.177	-0.102
-341.362	-45.245	-0.260	-0.129
-340.348	488.477	-0.041	-0.093
-339.333	142.040	0.128	0.169
-338.318	800.000	0.047	-0.182
-337.304	-166.777	-0.200	-0.008
-336.289	-42.956	0.034	0.017
-335.275	-13.140	-0.035	-0.022
-334.260	123.908	0.134	-0.167
-333.245	707.474	0.039	-0.104
-332.231	800.000	0.053	0.160
-331.216	800.000	-0.071	0.226
-330.202	84.785	-0.157	-0.171
-329.187	-200.000	0.071	0.337
-328.172	116.024	0.124	-0.151
-327.158	-94.366	-0.171	0.047
-326.143	-57.452	0.251	-0.110
-325.129	-124.605	0.040	0.006
-324.114	199.902	0.093	0.142
-323.099	-200.000	-0.044	0.213
-322.085	588.030	-0.069	0.170
-321.070	-86.091	-0.195	0.060
-320.056	276.579	-0.155	0.275
-319.041	156.801	-0.041	0.056
-318.026	120.061	0.091	0.112
-317.012	-44.845	-0.132	0.066
-315.997	800.000	0.026	-0.081
-314.983	-107.336	-0.247	0.054
-313.968	65.845	-0.335	-0.338
-312.953	199.544	0.105	-0.160
-311.939	277.172	0.164	0.291
-310.924	-153.265	-0.206	0.014
-309.910	-29.042	0.252	-0.144
-308.895	800.000	0.077	-0.303
-307.880	800.000	-0.044	0.181
-306.866	-39.860	0.285	-0.148
-305.851	-59.766	-0.234	-0.100
-304.837	11.264	-0.189	0.144
-303.822	-33.050	0.207	0.114
-302.807	-46.292	0.205	-0.100
-301.793	800.000	-0.033	-0.136
-300.778	-116.234	0.182	-0.034
-299.764	800.000	-0.110	-0.407
-298.749	-141.402	-0.239	0.024
-297.735	75.730	0.068	-0.072
-296.720	247.444	-0.029	0.049
-295.705	778.466	0.088	-0.240
-294.691	147.528	-0.224	-0.300
-293.676	-61.806	-0.174	-0.072
-292.662	123.097	0.015	0.019
-291.647	-19.896	0.113	0.070
-290.632	-200.000	0.005	-0.244
-289.618	31.752	-0.158	-0.136
-288.603	123.928	-0.153	0.191
-287.589	125.224	0.081	0.102
-286.574	223.068	0.187	0.300
-285.559	-161.437	0.346	0.018
-284.545	-12.921	-0.149	0.096
-283.530	-30.658	-0.299	0.168
-282.516	247.151	0.128	0.214
-281.501	-46.179	0.217	0.106
-280.486	-14.601	0.168	-0.107
-279.472	67.934	0.180	0.183
-278.457	-200.000	0.049	0.515
-277.443	-86.889	-0.164	0.050
-276.428	68.049	0.170	0.173
-275.413	800.000	0.030	0.116
-274.399	36.974	-0.343	0.302
-273.384	23.529	-0.239	0.195
-272.370	205.596	-0.082	-0.127
-271.355	349.466	-0.047	-0.093
-270.340	-1.758	-0.133	0.093
-269.326	107.428	-0.134	0.159
-268.311	800.000	0.072	-0.262
-267.297	156.195	0.178	-0.244
-266.282	800.000	-0.050	-0.142
-265.267	169.390	0.146	-0.207
-264.253	-72.045	-0.271	-0.100
-263.238	-200.000	0.003	0.386
-262.224	-70.910	-0.224	0.084
-261.209	168.146	0.199	-0.281
-260.195	-3.975	-0.140	-0.096
-259.180	113.094	0.140	-0.168
-258.165	-200.000	-0.008	-0.088
-257.151	6.712	-0.197	-0.145
-256.136	-200.000	-0.022	0.451
-255.122	-142.772	0.246	-0.024
-254.107	-112.834	0.333	0.066
-253.092	4.883	0.077	0.056
-252.078	-80.491	-0.206	-0.068
-251.063	-135.226	-0.313	0.037
-250.049	-153.241	-0.044	-0.003
-249.034	736.960	0.059	-0.157
-248.019	192.556	0.098	0.148
-247.005	-94.230	-0.228	-0.062
-245.990	-97.727	0.267	0.069
-244.976	-90.112	0.270	-0.078
-243.961	217.699	-0.119	0.188
-242.946	-95.851	0.347	-0.092
-241.932	-200.000	0.018	-0.090
-240.917	318.096	0.024	0.045
-239.903	3.534	-0.202	-0.147
-238.888	-103.754	0.286	0.067
-237.873	-42.103	-0.214	-0.109
-236.859	163.521	-0.101	0.141
-235.844	800.000	-0.080	0.283
-234.830	-105.472	-0.193	-0.044
-233.815	98.278	0.150	-0.172
-232.800	-200.000	-0.052	0.721
-231.786	-33.021	0.360	-0.198
-230.771	-55.026	-0.045	-0.020
-229.757	800.000	0.079	0.339
-228.742	43.518	0.300	0.272
-227.727	467.774	-0.158	-0.353
-226.713	46.075	-0.433	-0.398
-225.698	595.006	0.078	0.191
-224.684	652.602	0.125	0.317
-223.669	155.135	-0.051	-0.070
-222.655	75.042	0.120	-0.125
-221.640	47.402	-0.212	-0.196
-220.625	357.361	-0.213	-0.422
-219.611	397.919	-0.060	-0.125
-218.596	188.794	0.088	-0.131
-217.582	-157.836	-0.127	0.007
-216.567	-167.219	0.209	0.008
-215.552	769.264	0.038	0.101
-214.538	166.012	-0.064	0.090
-213.523	-128.123	-0.237	0.034
-212.509	-74.282	-0.213	-0.076
-211.494	-200.000	0.040	0.188
-210.479	-124.263	0.133	-0.021
-209.465	-12.191	-0.134	0.087
-208.450	429.271	-0.069	-0.148
-207.436	234.673	0.069	0.112
-206.421	10.027	-0.129	-0.098
-205.406	800.000	-0.026	-0.080
-204.392	140.777	-0.039	0.051
-203.377	563.096	0.055	-0.131
-202.363	-143.236	-0.163	0.016
-201.348	63.101	0.078	-0.077
-200.333	-68.303	-0.342	0.132
-199.319	64.555	0.205	0.205
-198.304	-43.091	-0.036	-0.018
-197.290	-200.000	-0.000	0.200
-196.275	-9.138	0.097	-0.064
-195.260	-200.000	-0.039	-0.299
-194.246	187.257	-0.154	-0.227
-193.231	185.617	-0.200	-0.295
-192.217	-24.641	0.033	-0.020
-191.202	22.804	0.082	-0.066
-190.187	-96.004	0.285	0.075
-189.173	-96.564	-0.166	-0.043
-188.158	18.779	0.321	-0.254
-187.144	-103.862	-0.274	0.064
-186.129	11.873	-0.246	0.187
-185.114	-63.529	0.394	-0.160
-184.100	-106.843	-0.201	0.044
-183.085	800.000	-0.079	0.228
-182.071	-200.000	-0.052	-0.302
-181.056	800.000	-0.023	-0.077
-180.042	-37.731	0.387	-0.204
-179.027	-123.747	-0.197	0.031
-178.012	442.229	-0.152	0.330
-176.998	86.343	-0.195	0.213
-175.983	188.118	0.110	0.163
-174.969	-95.908	0.092	0.024
-173.954	-112.110	0.172	-0.034
-172.939	263.901	-0.127	0.218
-171.925	-132.586	0.263	-0.033
-170.910	120.345	-0.087	-0.107
-169.896	32.771	-0.084	-0.072
-168.881	-169.721	-0.156	-0.006
-167.866	45.948	-0.168	0.154
-166.852	-69.149	0.227	0.087
-165.837	26.259	-0.167	-0.138
-164.823	100.836	0.050	0.058
-163.808	60.878	0.207	0.203
-162.793	-126.929	0.275	0.040
-161.779	164.509	0.186	-0.260
-160.764	-139.159	0.419	-0.045
-159.750	98.943	-0.213	0.243
-158.735	-161.575	0.159	0.008
-157.720	308.290	0.198	0.366
-156.706	-10.783	0.220	-0.144
-155.691	-200.000	-0.006	-0.123
-154.677	-92.521	0.273	0.076
-153.662	-63.669	0.237	0.096
-152.647	147.833	-0.182	0.243
-151.633	-107.195	-0.255	-0.056
-150.618	-71.495	0.367	-0.136
-149.604	800.000	-0.097	0.378
-148.589	-47.679	0.111	-0.053
-147.574	-91.482	-0.100	0.028
-146.560	349.969	-0.074	0.146
-145.545	86.591	0.159	0.174
-144.531	-200.000	-0.027	-0.232
-143.516	-97.376	0.224	-0.058
-142.502	-200.000	-0.016	-0.111
-141.487	-61.187	-0.321	0.134
-140.472	514.207	0.069	0.158
-139.458	-200.000	0.032	0.345
-138.443	-58.966	0.293	-0.125
-137.429	30.888	0.250	0.212
-136.414	-200.000	0.002	-0.289
-135.399	-61.135	0.149	-0.062
-134.385	-155.047	-0.223	0.014
-133.370	-200.000	0.018	0.262
-132.356	-19.020	-0.065	0.040
-131.341	-200.000	0.019	0.273
-130.326	800.000	-0.072	0.202
-129.312	-200.000	0.001	0.200
-128.297	-150.722	0.251	-0.019
-127.283	-61.924	-0.171	-0.071
-126.268	-41.188	0.102	0.052
-125.253	-49.435	0.124	-0.058
-124.239	272.455	0.063	-0.110
-123.224	-42.061	-0.196	0.099
-122.210	-200.000	0.016	0.228
-121.195	21.057	0.125	0.100
