DTS Sentinel unit serial number:	SN413079Multiplexer serial number:	ORYXHardware model number:	OX4-SRSoftware version number:	ORYX F/W v4.00 Oryx Data Collector v3.7.2.0data status	okinstallation	princeton_trtdifferential loss correction	single-endedforward channel	channel 3reverse channel	N/Adate	2019/09/12time	18:29:04forward acquisition time	15.00reverse acquisition time	0.00gamma	496.2192k internal	0.2317k external	0.2317temperature offset calibration	1.0097default loss term (dB/km)	0.3790temperature slope calibration	1.0000multiplexer offset coefficient	1.0000multiplexer slope coefficient	1.0000fibre end	0.00T internal ref (°C)	33.25T ext. ref 1 (°C)	2.94T ext. ref 2 (°C)	27.91length (m)	temperature (°C)	Stokes	anti-Stokes-747.200	494.383	0.214	-0.497
-746.185	56.813	-0.441	0.435
-745.171	800.000	0.265	-0.744
-744.156	-78.019	-0.622	-0.217
-743.142	389.714	-0.385	0.808
-742.127	200.763	-0.185	0.288
-741.112	-200.000	0.117	0.906
-740.098	-200.000	-0.088	0.940
-739.083	-157.748	-0.821	-0.049
-738.069	236.662	-0.058	-0.097
-737.054	-4.568	0.120	-0.084
-736.039	385.711	-0.134	-0.281
-735.025	-179.510	-0.719	-0.016
-734.010	-112.222	-0.415	-0.084
-732.996	-107.797	0.318	-0.070
-731.981	-62.141	-0.240	-0.101
-730.966	118.752	0.314	-0.393
-729.952	-131.280	-0.296	0.040
-728.937	-7.645	-0.503	0.344
-727.923	91.320	-0.504	0.573
-726.908	8.754	-0.112	-0.085
-725.894	20.603	0.534	0.437
-724.879	-14.311	-0.373	0.243
-723.864	152.333	-0.338	-0.467
-722.850	626.245	0.184	-0.470
-721.835	95.614	0.455	-0.526
-720.821	297.433	0.082	0.153
-719.806	44.251	-1.026	-0.953
-718.791	800.000	0.122	0.530
-717.777	-83.413	-0.187	0.061
-716.762	658.270	-0.622	-1.619
-715.748	196.656	-0.482	-0.743
-714.733	19.545	-0.252	-0.205
-713.718	800.000	-0.151	-0.429
-712.704	-118.029	0.164	0.030
-711.689	-42.610	-0.595	-0.306
-710.675	-119.697	-1.155	0.202
-709.660	-200.000	0.022	0.578
-708.645	409.654	0.149	-0.319
-707.631	662.514	0.064	-0.168
-706.616	111.064	-0.153	0.186
-705.602	-200.000	-0.012	-0.413
-704.587	554.502	0.163	0.396
-703.572	-200.000	0.011	0.195
-702.558	-156.423	1.067	-0.067
-701.543	431.420	-0.293	0.641
-700.529	-200.000	-0.098	1.559
-699.514	27.395	0.252	0.214
-698.499	800.000	-0.214	-0.607
-697.485	347.888	0.245	-0.488
-696.470	-200.000	-0.017	-0.249
-695.456	-49.966	0.658	-0.316
-694.441	3.822	0.617	-0.456
-693.426	-119.343	0.729	-0.128
-692.412	-136.282	0.796	-0.094
-691.397	-155.003	-0.155	-0.010
-690.383	294.980	0.296	-0.548
-689.368	-78.490	0.112	-0.039
-688.354	-27.639	-0.387	-0.227
-687.339	105.373	0.396	-0.472
-686.324	22.464	-0.586	0.484
-685.310	255.307	0.397	-0.688
-684.295	-23.688	0.512	-0.310
-683.281	-8.395	-0.177	0.121
-682.266	17.207	0.400	0.320
-681.251	-51.686	0.379	-0.178
-680.237	190.964	-0.274	-0.416
-679.222	106.372	-0.445	-0.532
-678.208	-154.987	-0.807	0.054
-677.193	388.451	0.355	-0.741
-676.178	123.549	0.093	0.118
-675.164	-18.528	-0.267	0.168
-674.149	-200.000	0.168	0.804
-673.135	151.583	-0.239	0.329
-672.120	161.622	0.409	-0.578
-671.105	402.891	-0.524	-1.112
-670.091	-4.607	0.618	-0.431
-669.076	800.000	0.087	-0.340
-668.062	-100.206	-1.110	0.279
-667.047	302.075	-0.192	0.358
-666.032	-83.110	0.416	-0.135
-665.018	369.178	-0.367	-0.750
-664.003	-200.000	0.104	-0.511
-662.989	-168.856	0.758	-0.029
-661.974	-68.128	-0.284	0.111
-660.959	-200.000	-0.225	-1.147
-659.945	286.082	0.370	-0.674
-658.930	276.384	0.172	-0.309
-657.916	125.913	0.337	-0.430
-656.901	-32.687	-0.280	-0.157
-655.886	558.792	-0.243	-0.593
-654.872	-24.121	-0.168	-0.101
-653.857	227.003	0.207	-0.340
-652.843	106.751	0.123	0.147
-651.828	5.983	0.339	-0.253
-650.814	800.000	0.108	0.414
-649.799	764.316	-0.056	-0.154
-648.784	-48.855	-0.625	0.302
-647.770	48.784	-0.597	0.565
-646.755	15.074	0.929	-0.734
-645.741	193.767	0.363	-0.554
-644.726	-122.383	0.391	-0.064
-643.711	-200.000	-0.071	0.585
-642.697	695.833	0.124	-0.327
-641.682	800.000	-0.322	-0.921
-640.668	372.628	-0.133	-0.272
-639.653	-29.443	-0.067	-0.038
-638.638	623.960	0.366	0.929
-637.624	-75.092	-0.434	-0.157
-636.609	185.558	-0.183	0.274
-635.595	104.161	0.104	0.123
-634.580	343.166	-0.305	-0.601
-633.565	69.664	-0.308	-0.320
-632.551	-200.000	0.001	-0.217
-631.536	-40.386	0.552	0.289
-630.522	38.871	0.547	0.493
-629.507	125.321	-0.305	-0.387
-628.492	-71.715	-0.218	0.082
-627.478	19.910	0.297	0.241
-626.463	389.219	0.076	0.158
-625.449	11.245	0.669	0.516
-624.434	301.103	-0.134	0.249
-623.419	-105.914	-0.375	0.085
-622.405	-71.113	1.144	-0.433
-621.390	-38.930	0.855	-0.454
-620.376	11.787	0.311	-0.241
-619.361	380.514	-0.228	0.470
-618.346	111.819	-0.362	0.440
-617.332	-161.757	-0.511	0.026
-616.317	-63.173	-0.451	0.187
-615.303	152.172	0.088	-0.121
-614.288	13.887	-0.240	0.188
-613.273	75.137	0.213	0.226
-612.259	-109.068	-0.313	0.067
-611.244	-58.882	-0.351	0.153
-610.230	-19.665	0.656	0.409
-609.215	-109.390	0.848	-0.181
-608.201	-160.247	0.839	0.046
-607.186	800.000	0.066	-0.203
-606.171	-37.791	-0.110	-0.059
-605.157	558.666	-0.271	0.659
-604.142	45.710	-0.529	-0.492
-603.128	800.000	-0.107	0.355
-602.113	-103.731	-0.350	-0.083
-601.098	-105.551	-0.525	-0.120
-600.084	-169.366	-0.333	-0.012
-599.069	-53.455	0.502	-0.231
-598.055	-173.458	0.402	-0.012
-597.040	341.974	-0.454	0.894
-596.025	224.180	0.454	-0.739
-595.011	800.000	-0.091	0.356
-593.996	800.000	0.126	0.433
-592.982	800.000	-0.044	0.185
-591.967	75.237	0.190	-0.201
-590.952	800.000	0.179	0.652
-589.938	-85.527	0.120	-0.038
-588.923	-130.340	0.500	-0.068
-587.909	-84.485	0.245	-0.078
-586.894	167.283	0.142	0.204
-585.879	-114.489	0.178	0.034
-584.865	337.903	-0.271	0.531
-583.850	-200.000	0.168	0.814
-582.836	160.410	-0.159	-0.223
-581.821	55.378	0.420	-0.409
-580.806	-144.781	-0.689	-0.064
-579.792	-98.477	-0.136	0.035
-578.777	179.550	0.378	-0.558
-577.763	-109.246	-0.408	-0.087
-576.748	623.543	0.346	-0.876
-575.733	-43.483	0.358	0.182
-574.719	43.100	0.378	0.347
-573.704	-200.000	0.018	0.497
-572.690	-200.000	0.035	-0.783
-571.675	139.349	-0.577	0.764
-570.661	-21.913	0.307	-0.187
-569.646	713.354	-0.082	-0.220
-568.631	800.000	0.157	-0.467
-567.617	800.000	0.164	0.495
-566.602	431.769	-0.191	0.416
-565.588	-200.000	0.010	0.815
-564.573	56.436	-0.399	-0.390
-563.558	227.035	-0.200	0.327
-562.544	-52.694	-0.417	-0.194
-561.529	28.467	-0.416	0.354
-560.515	-27.465	-0.722	-0.422
-559.500	786.985	-0.280	0.772
-558.485	132.001	0.489	-0.633
-557.471	-166.642	-0.636	-0.027
-556.456	-200.000	-0.062	0.341
-555.442	79.896	-0.283	-0.305
-554.427	-200.000	-0.088	-0.522
-553.412	800.000	-0.267	-0.746
-552.398	13.406	-0.130	-0.101
-551.383	223.389	0.180	-0.292
-550.369	800.000	-0.207	-0.688
-549.354	-106.633	0.410	-0.092
-548.339	284.842	0.145	-0.262
-547.325	9.779	0.618	-0.471
-546.310	70.512	0.714	0.741
-545.296	-91.791	-0.704	0.201
-544.281	800.000	-0.218	0.854
-543.266	-74.634	-0.337	-0.122
-542.252	648.128	-0.165	-0.423
-541.237	-29.885	0.257	0.147
-540.223	-33.613	-0.100	-0.055
-539.208	-200.000	0.097	0.626
-538.193	-200.000	-0.040	0.346
-537.179	27.795	-0.449	-0.380
-536.164	2.122	0.349	0.253
-535.150	56.951	0.591	0.578
-534.135	-106.605	-0.267	-0.060
-533.121	800.000	0.030	-0.088
-532.106	-162.526	0.373	0.019
-531.091	-101.892	-0.499	0.121
-530.077	-43.420	-0.434	-0.220
-529.062	200.256	0.093	-0.143
-528.048	800.000	0.149	-0.478
-527.033	132.874	0.124	-0.161
-526.018	-200.000	-0.110	-0.705
-525.004	84.824	0.615	-0.676
-523.989	137.541	-0.164	-0.216
-522.975	691.791	-0.185	-0.486
-521.960	-200.000	0.212	1.472
-520.945	-166.294	0.146	-0.006
-519.931	-56.863	0.463	0.205
-518.916	-158.009	-0.553	-0.033
-517.902	60.895	0.129	-0.128
-516.887	-51.017	-0.893	-0.421
-515.872	22.767	0.683	0.562
-514.858	-100.416	0.442	-0.110
-513.843	-200.000	0.010	0.556
-512.829	800.000	-0.105	-0.414
-511.814	-200.000	0.147	-0.667
-510.799	-200.000	-0.067	-0.472
-509.785	46.293	-0.413	0.384
-508.770	800.000	0.071	-0.221
-507.756	82.858	0.271	0.296
-506.741	183.830	0.290	0.431
-505.726	-200.000	-0.667	-0.002
-504.712	-125.097	0.810	-0.125
-503.697	52.200	-0.087	-0.083
-502.683	-200.000	-0.023	-0.103
-501.668	800.000	0.219	0.659
-500.653	800.000	0.213	0.686
-499.639	105.430	0.329	-0.390
-498.624	-173.955	-0.351	0.010
-497.610	-110.730	0.374	-0.078
-496.595	800.000	-0.098	0.292
-495.581	97.051	0.121	0.140
-494.566	-200.000	-0.151	0.738
-493.551	800.000	0.075	0.310
-492.537	-146.585	0.374	0.033
-491.522	-152.325	0.129	0.009
-490.508	-157.427	-0.596	0.036
-489.493	31.618	-0.390	-0.336
-488.478	501.588	0.414	0.958
-487.464	-116.341	0.214	0.040
-486.449	-200.000	-0.013	0.678
-485.435	-100.466	-0.565	-0.140
-484.420	-200.000	-0.124	0.874
-483.405	-127.775	0.275	0.040
-482.391	245.282	0.425	0.716
-481.376	800.000	-0.052	0.162
-480.362	128.299	-0.435	0.555
-479.347	288.951	-0.199	0.362
-478.332	82.347	0.718	-0.780
-477.318	-14.204	0.177	-0.114
-476.303	-7.535	-0.422	-0.286
-475.289	-75.117	0.607	0.218
-474.274	-96.426	-0.460	0.122
-473.259	-200.000	0.016	-0.612
-472.245	800.000	0.181	-0.761
-471.230	-33.994	0.476	-0.262
-470.216	128.007	-0.133	-0.170
-469.201	-155.195	-0.283	0.019
-468.186	67.112	-0.371	0.379
-467.172	380.992	0.503	-1.033
-466.157	-97.667	-0.311	0.081
-465.143	75.949	-0.289	-0.306
-464.128	-200.000	-0.014	0.283
-463.113	135.011	0.217	-0.282
-462.099	134.063	-0.132	0.172
-461.084	-97.432	0.856	-0.223
-460.070	83.546	0.350	-0.383
-459.055	800.000	0.061	0.253
-458.040	154.515	0.199	0.274
-457.026	55.202	0.366	0.355
-456.011	171.290	-0.424	-0.610
-454.997	-200.000	-0.006	-0.066
-453.982	-133.083	-0.696	-0.088
-452.968	-83.391	-0.271	-0.087
-451.953	214.509	-0.252	0.400
-450.938	-200.000	0.081	0.742
-449.924	-130.647	0.671	0.090
-448.909	721.633	-0.276	-0.734
-447.895	12.587	-0.251	-0.194
-446.880	-166.029	0.297	0.013
-445.865	-200.000	0.048	0.306
-444.851	173.433	-0.479	-0.692
-443.836	-200.000	-0.091	-0.689
-442.822	33.312	-0.685	-0.595
-441.807	-200.000	0.016	-0.180
-440.792	-84.815	-0.043	0.014
-439.778	-117.908	-0.519	-0.093
-438.763	34.384	-0.310	-0.271
-437.749	59.877	-0.256	-0.253
-436.734	800.000	-0.348	1.118
-435.719	-126.772	0.841	-0.124
-434.705	132.724	-0.212	0.273
-433.690	21.147	-0.323	0.263
-432.676	-135.463	-0.464	-0.055
-431.661	54.537	0.717	-0.691
-430.646	488.906	-0.246	0.563
-429.632	-109.479	0.873	-0.185
-428.617	136.554	0.235	-0.306
-427.603	-104.317	0.308	-0.071
-426.588	657.665	0.130	-0.335
-425.573	-200.000	-0.029	-0.186
-424.559	-55.906	0.145	0.065
-423.544	80.689	0.431	0.465
-422.530	-200.000	0.121	-0.746
-421.515	800.000	-0.039	0.109
-420.500	-200.000	-0.061	0.543
-419.486	800.000	-0.360	-1.066
-418.471	547.564	-0.207	0.496
-417.457	66.061	0.316	0.320
-416.442	-17.887	-0.305	0.191
-415.428	-118.799	0.431	0.076
-414.413	25.470	0.334	0.278
-413.398	-125.055	0.251	-0.039
-412.384	-1.716	-0.062	0.044
-411.369	-114.751	0.792	-0.151
-410.355	-98.706	0.934	0.238
-409.340	131.882	-0.278	0.357
-408.325	-25.214	0.134	-0.079
-407.311	161.412	0.288	0.403
-406.296	-200.000	-0.059	-0.418
-405.282	-61.014	0.710	-0.300
-404.267	357.015	0.361	-0.719
-403.252	-7.898	0.334	0.225
-402.238	50.538	0.336	0.317
-401.223	-200.000	-0.038	-0.207
-400.209	171.954	-0.113	0.162
-399.194	-200.000	0.035	-0.244
-398.179	48.553	-0.559	-0.523
-397.165	-57.755	0.368	0.161
-396.150	-67.708	0.704	-0.275
-395.136	800.000	-0.131	0.565
-394.121	-103.525	-0.230	0.054
-393.106	438.270	0.160	-0.348
-392.092	-200.000	-0.015	-0.340
-391.077	54.714	0.132	0.127
-390.063	139.153	-0.214	0.281
-389.048	800.000	-0.021	-0.076
-388.033	165.744	-0.313	-0.442
-387.019	-200.000	0.041	-0.449
-386.004	437.332	0.055	-0.121
-384.990	239.055	-0.027	-0.046
-383.975	-127.647	0.798	-0.115
-382.960	-23.374	-0.034	-0.020
-381.946	-200.000	-0.105	-0.523
-380.931	-36.432	-0.329	-0.177
-379.917	-200.000	-0.029	-0.159
-378.902	344.163	-0.329	-0.645
-377.888	800.000	-0.180	0.625
-376.873	-15.739	0.294	-0.187
-375.858	-116.740	0.419	0.077
-374.844	-200.000	-0.423	0.002
-373.829	437.780	-0.314	-0.684
-372.815	-200.000	0.127	-1.040
-371.800	69.850	0.400	0.412
-370.785	281.223	0.108	0.192
-369.771	147.157	0.333	0.448
-368.756	49.840	0.336	0.316
-367.742	800.000	0.118	0.384
-366.727	-80.088	-0.383	0.128
-365.712	-168.964	0.292	0.011
-364.698	-200.000	-0.064	-0.874
-363.683	157.379	0.572	0.790
-362.669	13.984	0.474	0.368
-361.654	-35.168	-0.347	-0.188
-360.639	151.183	-0.406	-0.551
-359.625	-200.000	-0.051	-1.148
-358.610	-164.178	-0.339	0.016
-357.596	151.326	-0.237	0.322
-356.581	-102.640	0.414	-0.098
-355.566	89.775	-0.417	-0.464
-354.552	323.845	-0.380	0.722
-353.537	89.049	-0.518	-0.575
-352.523	-81.888	0.670	-0.219
-351.508	-200.000	0.049	-0.325
-350.493	-114.644	0.397	0.076
-349.479	-122.052	-0.721	0.118
-348.464	81.490	0.228	-0.246
-347.450	62.132	0.062	-0.061
-346.435	63.451	-0.542	0.542
-345.420	248.968	-0.405	-0.685
-344.406	-0.074	-0.456	-0.324
-343.391	-11.039	-0.624	0.410
-342.377	-200.000	0.055	-0.363
-341.362	91.150	0.083	-0.093
-340.348	-200.000	0.004	0.538
-339.333	-103.490	0.848	0.199
-338.318	7.898	0.217	0.162
-337.304	155.404	-0.717	-0.983
-336.289	-124.508	-0.681	0.106
-335.275	227.322	0.497	-0.804
-334.260	-200.000	0.020	-0.302
-333.245	-165.858	0.745	-0.032
-332.231	-200.000	0.007	-0.218
-331.216	450.614	-0.424	-0.932
-330.202	-200.000	-0.128	-1.329
-329.187	-91.825	-0.930	-0.263
-328.172	685.922	-0.137	-0.355
-327.158	58.112	0.316	0.308
-326.143	-200.000	0.032	-0.342
-325.129	800.000	-0.018	0.074
-324.114	66.923	0.694	0.704
-323.099	-137.175	-0.164	-0.019
-322.085	-122.782	-0.394	-0.063
-321.070	-112.961	-0.356	-0.070
-320.056	127.495	-0.149	0.188
-319.041	197.223	-0.727	1.104
-318.026	-23.414	0.237	-0.142
-317.012	-200.000	-0.065	0.331
-315.997	-200.000	-0.079	0.811
-314.983	91.391	0.617	-0.690
-313.968	33.389	-0.693	-0.599
-312.953	-0.419	0.065	-0.046
-311.939	-162.104	-0.833	0.042
-310.924	57.957	0.216	0.210
-309.910	-200.000	0.043	0.458
-308.895	-200.000	-0.174	0.805
-307.880	113.050	-0.180	0.217
-306.866	-200.000	-0.045	0.237
-305.851	-145.425	-0.546	0.049
-304.837	186.222	-0.421	0.623
-303.822	-200.000	0.036	-0.419
-302.807	-60.285	-0.132	0.056
-301.793	608.643	0.044	-0.110
-300.778	-200.000	-0.015	-0.289
-299.764	351.628	0.427	-0.842
-298.749	94.162	-0.157	-0.177
-297.735	128.216	-0.364	-0.461
-296.720	-99.445	-0.074	-0.019
-295.705	19.054	-0.390	0.312
-294.691	163.871	-0.341	0.477
-293.676	-71.192	0.632	-0.236
-292.662	-200.000	0.042	-0.402
-291.647	-200.000	0.013	0.173
-290.632	-123.297	-0.292	0.046
-289.618	-200.000	0.103	-1.477
-288.603	-29.882	-0.286	-0.162
-287.589	12.512	0.412	-0.316
-286.574	185.334	-0.391	0.578
-285.559	734.683	-0.097	0.259
-284.545	735.960	0.086	-0.230
-283.530	12.949	0.401	0.309
-282.516	800.000	0.111	0.411
-281.501	308.258	-0.300	-0.557
-280.486	-200.000	-0.060	-0.506
-279.472	87.790	-0.351	0.387
-278.457	-200.000	-0.244	1.068
-277.443	-74.378	-0.130	-0.047
-276.428	338.545	-0.164	0.317
-275.413	-200.000	-0.057	-0.496
-274.399	54.443	0.024	0.023
-273.384	-200.000	-0.095	-0.887
-272.370	-84.454	0.546	-0.172
-271.355	-22.660	0.673	-0.404
-270.340	800.000	-0.137	0.510
-269.326	-200.000	-0.045	0.349
-268.311	2.894	-0.590	0.426
-267.297	-121.922	0.327	-0.054
-266.282	129.336	0.275	0.349
-265.267	-97.379	-0.817	0.211
-264.253	-65.099	0.469	0.188
-263.238	530.360	-0.229	-0.537
-262.224	84.479	-0.508	0.552
-261.209	-146.834	-0.688	0.059
-260.195	800.000	-0.166	-0.554
-259.180	52.564	-0.187	-0.177
-258.165	337.875	-0.302	-0.583
-257.151	-200.000	-0.056	-0.420
-256.136	-200.000	-0.129	-0.589
-255.122	-98.818	-0.288	0.073
-254.107	-27.898	0.430	-0.248
-253.092	-88.666	-0.642	0.190
-252.078	-11.111	0.214	-0.140
-251.063	-140.373	0.477	0.049
-250.049	-57.896	-0.395	0.171
-249.034	-35.220	-0.882	0.477
-248.019	290.864	0.208	0.376
-247.005	-110.998	0.493	-0.101
-245.990	33.935	-0.409	-0.354
-244.976	238.297	-0.277	0.457
-243.961	197.970	-0.302	-0.458
-242.946	-32.193	0.533	0.296
-241.932	-50.990	0.113	0.053
-240.917	29.141	-0.095	0.080
-239.903	-26.396	0.797	0.464
-238.888	63.280	-0.333	0.331
-237.873	442.778	0.197	0.429
-236.859	-200.000	0.085	-0.552
-235.844	-127.215	0.705	-0.102
-234.830	-56.834	-0.276	0.121
-233.815	-200.000	-0.067	-0.586
-232.800	231.113	0.391	-0.636
-231.786	-117.953	-0.534	-0.095
-230.771	-193.859	0.747	0.006
-229.757	71.191	-0.207	0.214
-228.742	800.000	-0.217	-0.680
-227.727	585.983	0.114	0.278
-226.713	82.934	0.220	0.237
-225.698	-4.785	-0.639	0.437
-224.684	373.935	-0.136	-0.275
-223.669	679.713	0.194	0.501
-222.655	-111.662	-0.541	-0.109
-221.640	-22.439	0.609	0.366
-220.625	-150.195	0.594	-0.046
-219.611	30.583	0.472	-0.400
-218.596	-146.093	-0.718	-0.063
-217.582	-7.678	0.702	-0.471
-216.567	-200.000	-0.014	-0.079
-215.552	108.890	0.316	-0.375
-214.538	-51.098	0.534	-0.248
-213.523	-102.700	-0.429	0.101
-212.509	426.331	-0.261	0.559
-211.494	-52.883	0.034	-0.016
-210.479	-30.701	-0.503	0.282
-209.465	64.401	-0.620	0.620
-208.450	753.995	-0.074	-0.198
-207.436	-147.835	0.563	0.047
-206.421	800.000	-0.294	0.958
-205.406	-5.119	0.612	-0.418
-204.392	74.501	-0.160	0.167
-203.377	-155.739	-0.595	0.038
-202.363	-200.000	0.006	0.273
-201.348	18.346	1.032	-0.817
-200.333	136.935	-0.262	0.339
-199.319	-71.878	-0.488	-0.180
-198.304	-80.337	-0.330	-0.109
-197.290	800.000	0.228	0.632
-196.275	23.175	-0.455	-0.370
-195.260	800.000	0.267	0.882
-194.246	149.041	0.382	0.512
-193.231	-200.000	-0.153	0.701
-192.217	171.005	-0.148	0.211
-191.202	69.901	-0.117	-0.119
-190.187	53.858	0.180	0.172
-189.173	-84.790	0.997	-0.311
-188.158	-200.000	-0.087	0.513
-187.144	-200.000	-0.031	-0.551
-186.129	-200.000	-0.065	1.238
-185.114	84.773	0.137	0.148
-184.100	133.750	-0.242	-0.310
-183.085	-59.145	0.159	0.068
-182.071	158.696	0.178	-0.245
-181.056	-200.000	0.058	-0.724
-180.042	-96.639	0.928	0.242
-179.027	317.928	0.362	0.678
-178.012	-200.000	-0.042	-0.334
-176.998	-200.000	0.114	1.051
-175.983	-146.843	-0.263	0.022
-174.969	137.429	-0.397	0.515
-173.954	800.000	0.182	0.549
-172.939	62.169	-0.805	0.795
-171.925	800.000	-0.188	0.664
-170.910	-77.212	-0.426	0.147
-169.896	800.000	0.248	-0.750
-168.881	-200.000	-0.090	-0.443
-167.866	6.540	-0.862	-0.634
-166.852	61.329	-0.402	0.395
-165.837	72.575	0.487	0.503
-164.823	280.177	0.453	-0.801
-163.808	-32.054	0.670	0.371
-162.793	286.811	-0.137	0.244
-161.779	111.051	-0.275	0.327
-160.764	58.485	0.451	-0.438
-159.750	-16.771	0.164	-0.103
-158.735	89.855	-0.434	-0.480
-157.720	606.165	0.360	0.887
-156.706	-1.596	0.293	0.204
-155.691	-92.733	-0.547	0.152
-154.677	-127.263	-0.544	-0.079
-153.662	-200.000	-0.042	0.232
-152.647	-29.812	-0.241	0.136
-151.633	-109.643	0.632	-0.132
-150.618	800.000	0.016	0.047
-149.604	81.787	0.132	0.141
-148.589	136.205	-0.404	-0.521
-147.574	-148.800	-0.263	0.021
-146.560	-10.853	0.431	0.282
-145.545	-200.000	-0.022	-0.284
-144.531	2.579	-0.416	-0.298
-143.516	-36.816	0.606	-0.322
-142.502	-71.617	0.445	-0.164
-141.487	-108.238	0.140	-0.030
-140.472	-200.000	-0.031	0.384
-139.458	-116.969	-0.349	0.063
-138.443	497.451	-0.070	-0.160
-137.429	800.000	0.057	-0.162
-136.414	800.000	-0.065	-0.222
-135.399	225.848	0.397	-0.636
-134.385	521.791	-0.047	-0.108
-133.370	448.178	-0.365	0.796
-132.356	76.751	-0.534	0.560
-131.341	32.384	0.320	0.273
-130.326	28.680	0.256	-0.214
-129.312	-87.550	0.284	-0.085
-128.297	124.413	0.445	-0.554
-127.283	16.808	0.447	0.350
-126.268	-200.000	-0.048	0.939
-125.253	-200.000	-0.016	0.680
-124.239	239.355	0.387	0.636
-123.224	212.480	0.431	0.672
-122.210	-122.466	-0.264	0.043
