DTS Sentinel unit serial number:	SN413079Multiplexer serial number:	ORYXHardware model number:	OX4-SRSoftware version number:	ORYX F/W v4.00 Oryx Data Collector v3.7.2.0data status	okinstallation	princeton_trtdifferential loss correction	single-endedforward channel	channel 3reverse channel	N/Adate	2019/09/15time	09:28:34forward acquisition time	60.00reverse acquisition time	0.00gamma	496.2192k internal	0.2310k external	0.2310temperature offset calibration	0.9970default loss term (dB/km)	0.3790temperature slope calibration	1.0000multiplexer offset coefficient	1.0000multiplexer slope coefficient	1.0000fibre end	0.00T internal ref (°C)	33.69T ext. ref 1 (°C)	4.95T ext. ref 2 (°C)	30.21length (m)	temperature (°C)	Stokes	anti-Stokes-747.200	-120.719	0.301	-0.052
-746.185	121.730	-0.114	0.145
-745.171	239.342	0.055	0.093
-744.156	-102.689	-0.315	-0.076
-743.142	-59.845	0.661	0.287
-742.127	393.782	-0.073	0.154
-741.112	301.551	-0.056	-0.104
-740.098	-200.000	0.056	0.275
-739.083	-85.969	-0.222	-0.070
-738.069	24.792	-0.142	0.119
-737.054	107.319	-0.292	-0.352
-736.039	-200.000	-0.050	-0.266
-735.025	57.068	0.241	0.239
-734.010	-142.627	-0.358	0.036
-732.996	262.058	-0.158	-0.278
-731.981	-111.314	-0.494	0.102
-730.966	49.283	0.115	0.110
-729.952	800.000	0.033	-0.120
-728.937	800.000	0.055	-0.241
-727.923	800.000	-0.019	-0.060
-726.908	8.879	-0.164	-0.126
-725.894	336.442	-0.140	0.275
-724.879	-200.000	0.001	0.214
-723.864	-79.037	-0.173	0.060
-722.850	18.558	0.115	0.093
-721.835	-60.814	-0.108	0.047
-720.821	-200.000	-0.001	0.357
-719.806	-149.587	-0.145	-0.012
-718.791	208.628	-0.195	0.309
-717.777	-58.637	-0.164	0.072
-716.762	319.172	-0.041	-0.079
-715.748	-200.000	0.036	-0.311
-714.733	-200.000	-0.023	-0.142
-713.718	-118.426	0.257	0.046
-712.704	-200.000	0.000	-0.146
-711.689	-71.630	0.340	0.129
-710.675	-91.242	0.264	0.077
-709.660	-49.069	0.291	-0.141
-708.645	162.696	-0.172	0.245
-707.631	-200.000	0.012	0.346
-706.616	22.751	-0.188	0.156
-705.602	91.143	0.132	-0.150
-704.587	800.000	0.132	-0.370
-703.572	-139.899	-0.148	0.016
-702.558	-118.745	0.245	0.044
-701.543	91.431	0.045	0.051
-700.529	3.600	-0.117	-0.086
-699.514	-200.000	0.159	-0.001
-698.499	154.018	0.209	-0.290
-697.485	417.007	0.062	0.135
-696.470	-61.176	-0.262	-0.112
-695.456	136.451	0.238	-0.315
-694.441	156.651	0.132	-0.185
-693.426	-152.182	-0.252	0.019
-692.412	-93.849	0.222	0.062
-691.397	-200.000	-0.038	-0.232
-690.383	-6.443	-0.247	0.170
-689.368	800.000	-0.017	-0.075
-688.354	29.710	0.061	0.052
-687.339	-46.945	-0.319	0.158
-686.324	-19.473	0.212	-0.133
-685.310	-141.192	-0.046	0.005
-684.295	154.684	-0.135	-0.189
-683.281	617.232	-0.090	-0.229
-682.266	17.346	0.188	-0.151
-681.251	-200.000	-0.017	-0.110
-680.237	190.802	0.096	-0.146
-679.222	20.842	-0.137	-0.112
-678.208	172.644	-0.193	-0.281
-677.193	-97.637	0.115	-0.030
-676.178	20.865	0.341	-0.280
-675.164	-28.307	0.181	-0.106
-674.149	-105.272	-0.438	0.101
-673.135	198.510	-0.147	-0.227
-672.120	114.985	0.094	-0.116
-671.105	-200.000	0.071	-0.350
-670.091	-47.839	-0.198	-0.097
-669.076	-199.912	0.110	0.001
-668.062	12.851	-0.078	-0.061
-667.047	247.739	-0.125	-0.214
-666.032	124.406	0.175	-0.223
-665.018	800.000	-0.109	0.369
-664.003	-146.317	-0.110	-0.010
-662.989	-15.611	0.299	-0.193
-661.974	-83.419	-0.207	0.067
-660.959	637.775	0.129	-0.331
-659.945	-26.392	-0.288	-0.171
-658.930	-55.024	0.464	-0.212
-657.916	-200.000	-0.002	-0.180
-656.901	7.657	0.057	-0.043
-655.886	365.318	0.223	-0.454
-654.872	376.864	-0.154	-0.319
-653.857	0.641	-0.182	0.132
-652.843	-200.000	0.068	-0.390
-651.828	-200.000	-0.028	0.237
-650.814	575.419	-0.102	-0.251
-649.799	800.000	-0.107	0.344
-648.784	43.496	0.196	0.181
-647.770	23.942	0.031	-0.026
-646.755	240.485	0.069	-0.117
-645.741	150.241	-0.037	-0.051
-644.726	74.379	-0.177	0.188
-643.711	-102.138	-0.244	0.060
-642.697	-116.722	-0.145	0.027
-641.682	-200.000	-0.018	0.134
-640.668	-200.000	-0.025	0.351
-639.653	-106.696	-0.161	0.036
-638.638	130.198	0.171	0.221
-637.624	-103.965	-0.269	-0.064
-636.609	102.594	-0.045	-0.053
-635.595	800.000	-0.081	-0.340
-634.580	800.000	0.075	-0.321
-633.565	84.873	-0.054	-0.060
-632.551	670.599	0.089	0.234
-631.536	-40.722	0.351	-0.184
-630.522	83.915	0.148	-0.163
-629.507	454.167	0.125	0.279
-628.492	-47.191	0.438	-0.216
-627.478	74.336	0.316	-0.336
-626.463	412.187	0.075	0.160
-625.449	-75.639	0.042	-0.015
-624.434	-156.610	-0.133	-0.008
-623.419	-200.000	0.032	0.210
-622.405	800.000	-0.063	-0.178
-621.390	-104.726	-0.049	0.011
-620.376	-65.006	-0.139	-0.057
-619.361	-113.365	-0.137	0.027
-618.346	68.352	-0.079	-0.082
-617.332	519.028	-0.106	0.251
-616.317	-126.324	-0.128	0.019
-615.303	102.062	-0.048	-0.057
-614.288	-200.000	-0.046	0.296
-613.273	18.326	-0.092	0.074
-612.259	157.034	0.173	-0.241
-611.244	-56.120	-0.334	0.150
-610.230	-200.000	-0.002	-0.030
-609.215	-200.000	-0.003	0.066
-608.201	-135.833	0.489	-0.058
-607.186	-65.675	0.100	-0.041
-606.171	-143.057	0.238	0.023
-605.157	-200.000	0.025	-0.251
-604.142	-26.599	0.164	-0.097
-603.128	-170.539	-0.129	-0.005
-602.113	-124.960	0.286	-0.045
-601.098	-200.000	0.025	0.145
-600.084	37.936	-0.076	-0.068
-599.069	-35.628	0.379	0.207
-598.055	209.562	0.098	-0.154
-597.040	108.320	0.067	-0.080
-596.025	-200.000	0.050	-0.318
-595.011	-143.022	0.207	0.020
-593.996	4.946	0.232	-0.172
-592.982	44.077	0.050	0.047
-591.967	-200.000	0.048	0.277
-590.952	21.179	0.285	-0.233
-589.938	48.530	0.092	-0.087
-588.923	-4.730	-0.171	0.119
-587.909	240.007	-0.018	-0.030
-586.894	255.631	-0.050	0.086
-585.879	-57.375	-0.323	-0.143
-584.865	-200.000	-0.016	-0.155
-583.850	-126.105	-0.309	-0.047
-582.836	-25.761	-0.163	0.097
-581.821	170.559	-0.091	-0.132
-580.806	-156.273	-0.336	-0.021
-579.792	800.000	-0.048	-0.152
-578.777	-117.650	-0.282	0.051
-577.763	278.405	-0.107	-0.192
-576.748	-172.031	-0.206	0.007
-575.733	33.280	-0.042	-0.037
-574.719	115.621	-0.105	0.130
-573.704	-22.342	-0.283	0.173
-572.690	-81.961	0.204	0.067
-571.675	556.147	0.076	0.184
-570.661	26.399	-0.077	-0.065
-569.646	-200.000	0.031	-0.228
-568.631	692.710	-0.112	0.297
-567.617	22.484	-0.210	-0.173
-566.602	136.963	0.217	0.286
-565.588	780.712	-0.095	0.261
-564.573	-97.802	-0.288	0.075
-563.558	333.094	0.107	0.210
-562.544	211.230	0.033	-0.052
-561.529	-46.311	0.180	-0.089
-560.515	2.948	-0.326	0.239
-559.500	724.395	0.064	0.172
-558.485	3.132	-0.367	-0.269
-557.471	35.778	-0.080	-0.071
-556.456	-163.588	-0.123	-0.006
-555.442	27.997	-0.101	0.086
-554.427	149.010	0.079	0.108
-553.412	-98.824	-0.218	0.056
-552.398	30.123	-0.197	-0.169
-551.383	234.056	0.171	-0.283
-550.369	-200.000	-0.009	0.161
-549.354	262.187	-0.089	0.156
-548.339	-73.319	-0.328	0.121
-547.325	29.589	-0.016	-0.013
-546.310	65.688	-0.192	-0.196
-545.296	-76.741	0.068	-0.024
-544.281	156.872	0.234	0.326
-543.266	123.736	-0.208	0.262
-542.252	-118.026	0.338	0.061
-541.237	434.026	0.095	0.208
-540.223	-85.472	-0.263	-0.082
-539.208	-95.545	0.093	0.025
-538.193	8.210	0.035	-0.027
-537.179	275.591	0.103	-0.185
-536.164	-91.245	-0.092	0.026
-535.150	-186.220	-0.053	-0.001
-534.135	800.000	-0.020	-0.081
-533.121	-28.171	0.087	-0.051
-532.106	-66.485	0.279	0.112
-531.091	4.073	-0.192	-0.142
-530.077	189.021	-0.125	-0.188
-529.062	-137.710	-0.280	0.032
-528.048	-61.508	0.152	0.064
-527.033	-200.000	0.018	-0.336
-526.018	-200.000	-0.034	-0.191
-525.004	-58.309	0.290	0.127
-523.989	-49.530	0.080	0.038
-522.975	-28.642	-0.233	0.135
-521.960	-16.755	-0.192	-0.122
-520.945	49.926	0.130	0.123
-519.931	-146.599	-0.264	-0.023
-518.916	-155.264	-0.356	-0.023
-517.902	-75.678	0.379	-0.135
-516.887	-97.550	-0.022	0.006
-515.872	-180.080	-0.121	0.003
-514.858	11.626	-0.129	0.099
-513.843	-11.320	-0.333	0.221
-512.829	16.257	-0.268	-0.213
-511.814	86.964	-0.090	0.100
-510.799	-185.080	-0.398	-0.006
-509.785	-62.237	0.111	0.047
-508.770	138.616	0.201	-0.265
-507.756	800.000	0.191	-0.577
-506.741	-59.239	-0.059	0.025
-505.726	54.220	0.137	0.133
-504.712	-53.268	-0.063	0.029
-503.697	-45.156	-0.202	0.101
-502.683	78.583	-0.186	0.200
-501.668	800.000	-0.127	0.366
-500.653	-200.000	-0.016	-0.339
-499.639	45.431	-0.220	0.204
-498.624	151.010	0.067	0.091
-497.610	-200.000	-0.021	0.162
-496.595	-200.000	-0.002	0.417
-495.581	-115.178	0.231	0.044
-494.566	-51.701	0.205	0.096
-493.551	-79.614	0.104	0.035
-492.537	-106.178	-0.319	-0.072
-491.522	-55.792	0.062	-0.028
-490.508	180.681	0.104	0.153
-489.493	-91.038	0.292	0.084
-488.478	144.320	-0.240	-0.323
-487.464	286.609	0.117	-0.213
-486.449	-200.000	-0.041	-0.220
-485.435	-53.017	0.124	0.057
-484.420	-70.356	-0.173	0.066
-483.405	-71.913	0.323	-0.121
-482.391	-35.805	-0.150	-0.082
-481.376	-138.950	-0.294	0.032
-480.362	73.348	-0.091	-0.096
-479.347	239.778	-0.096	0.160
-478.332	-164.339	0.529	-0.024
-477.318	40.649	0.147	-0.133
-476.303	-120.753	-0.357	-0.061
-475.289	-56.632	-0.072	0.032
-474.274	-200.000	0.014	-0.068
-473.259	-20.075	0.474	-0.294
-472.245	2.655	-0.244	0.178
-471.230	800.000	0.077	-0.236
-470.216	156.779	-0.302	-0.420
-469.201	327.572	0.046	-0.089
-468.186	-124.913	-0.161	0.025
-467.172	242.905	0.106	0.178
-466.157	-130.089	-0.088	-0.012
-465.143	193.062	0.061	-0.093
-464.128	-200.000	-0.009	-0.187
-463.113	-119.881	-0.141	0.024
-462.099	-200.000	-0.020	0.199
-461.084	800.000	-0.042	0.168
-460.070	800.000	0.035	0.106
-459.055	-200.000	-0.027	-0.232
-458.040	-155.875	-0.276	-0.018
-457.026	-200.000	-0.016	-0.142
-456.011	87.280	0.236	-0.263
-454.997	27.856	0.154	-0.131
-453.982	800.000	-0.120	-0.402
-452.968	-125.200	-0.203	0.031
-451.953	45.587	-0.151	-0.140
-450.938	-200.000	-0.033	-0.287
-449.924	117.693	-0.163	-0.201
-448.909	-14.740	0.241	-0.155
-447.895	-119.503	-0.131	-0.023
-446.880	-55.705	0.139	-0.062
-445.865	-78.691	0.163	0.056
-444.851	800.000	-0.011	0.038
-443.836	-178.835	-0.349	0.008
-442.822	286.944	-0.185	-0.335
-441.807	-93.397	0.367	-0.102
-440.792	5.034	-0.239	0.176
-439.778	-200.000	-0.003	0.150
-438.763	18.657	-0.174	0.140
-437.749	-44.963	0.088	0.044
-436.734	10.399	0.152	0.116
-435.719	168.646	0.229	-0.328
-434.705	-72.149	-0.473	-0.176
-433.690	-120.738	-0.229	-0.039
-432.676	-17.147	0.123	0.078
-431.661	478.937	0.190	0.433
-430.646	-25.902	0.373	-0.220
-429.632	48.864	-0.155	-0.146
-428.617	-189.631	0.123	-0.001
-427.603	62.029	-0.378	0.378
-426.588	462.539	-0.066	-0.147
-425.573	33.093	-0.279	-0.242
-424.559	489.605	-0.162	0.372
-423.544	-80.892	0.235	-0.078
-422.530	-106.164	0.097	-0.022
-421.515	-76.990	-0.418	-0.146
-420.500	-72.884	0.068	0.025
-419.486	695.165	0.041	-0.107
-418.471	-141.424	-0.295	0.030
-417.457	143.340	0.073	0.097
-416.442	184.270	0.193	0.286
-415.428	214.894	0.105	0.168
-414.413	9.796	-0.305	0.232
-413.398	40.471	-0.159	-0.143
-412.384	-170.900	0.253	0.009
-411.369	299.328	0.231	0.427
-410.355	-200.000	-0.017	-0.209
-409.340	800.000	-0.038	0.166
-408.325	470.593	-0.092	-0.206
-407.311	9.254	-0.091	0.069
-406.296	273.756	0.228	0.403
-405.282	-181.208	-0.248	-0.005
-404.267	-200.000	0.008	0.209
-403.252	-64.424	-0.269	0.110
-402.238	-200.000	0.009	-0.194
-401.223	800.000	-0.028	0.100
-400.209	21.154	0.063	-0.051
-399.194	800.000	-0.011	0.044
-398.179	-200.000	0.001	0.152
-397.165	9.279	-0.170	0.129
-396.150	-200.000	0.088	0.590
-395.136	800.000	0.050	0.165
-394.121	525.624	-0.111	-0.262
-393.106	162.841	0.169	0.238
-392.092	-200.000	0.024	0.161
-391.077	-81.672	-0.115	-0.038
-390.063	202.620	0.079	0.122
-389.048	138.887	-0.060	0.079
-388.033	127.518	-0.058	-0.074
-387.019	-17.788	-0.346	0.218
-386.004	-200.000	-0.012	-0.115
-384.990	347.915	-0.126	-0.249
-383.975	-200.000	-0.045	0.329
-382.960	171.841	0.064	0.092
-381.946	-77.854	0.364	0.126
-380.931	800.000	0.124	-0.382
-379.917	-91.894	-0.215	-0.061
-378.902	-62.689	-0.102	0.042
-377.888	-85.787	-0.265	-0.082
-376.873	-105.468	-0.279	0.063
-375.858	-24.015	-0.219	-0.131
-374.844	-58.044	-0.156	0.068
-373.829	-112.014	-0.375	-0.076
-372.815	-200.000	-0.013	0.136
-371.800	-200.000	-0.014	-0.112
-370.785	-165.725	0.227	-0.010
-369.771	800.000	0.111	-0.436
-368.756	800.000	-0.020	-0.065
-367.742	16.508	-0.146	-0.115
-366.727	-60.383	0.194	0.083
-365.712	-73.412	0.156	0.057
-364.698	50.225	0.058	-0.055
-363.683	177.025	0.255	-0.372
-362.669	8.805	0.124	0.093
-361.654	-175.433	0.123	-0.003
-360.639	332.762	-0.146	0.281
-359.625	100.533	0.067	-0.078
-358.610	77.366	0.028	0.029
-357.596	-20.260	0.267	-0.164
-356.581	-27.057	-0.056	0.033
-355.566	90.644	-0.212	-0.237
-354.552	71.561	-0.143	0.148
-353.537	41.136	0.324	0.293
-352.523	35.824	-0.167	0.147
-351.508	156.660	-0.137	0.190
-350.493	249.580	-0.080	-0.135
-349.479	-88.827	-0.383	-0.114
-348.464	800.000	-0.051	-0.216
-347.450	-50.068	-0.067	0.032
-346.435	-4.544	-0.147	0.102
-345.420	-200.000	-0.120	0.000
-344.406	72.515	-0.154	0.161
-343.391	-48.274	-0.044	0.021
-342.377	-71.333	-0.304	-0.114
-341.362	-172.639	0.248	-0.008
-340.348	-55.691	0.072	-0.032
-339.333	-33.284	0.205	-0.113
-338.318	-200.000	-0.004	-0.094
-337.304	266.500	-0.074	0.129
-336.289	800.000	-0.058	0.217
-335.275	-88.611	0.373	0.111
-334.260	-138.428	0.074	-0.008
-333.245	4.706	-0.109	0.080
-332.231	-45.270	0.403	0.200
-331.216	43.453	-0.206	0.188
-330.202	-200.000	0.081	-0.000
-329.187	322.780	0.134	-0.256
-328.172	239.186	0.114	-0.190
-327.158	71.322	-0.029	-0.030
-326.143	37.510	0.247	-0.219
-325.129	114.782	-0.079	0.096
-324.114	194.350	-0.075	0.113
-323.099	0.241	0.224	0.159
-322.085	-53.514	0.308	0.141
-321.070	234.643	-0.078	-0.128
-320.056	-200.000	-0.001	0.253
-319.041	152.233	-0.121	-0.165
-318.026	-200.000	0.011	-0.092
-317.012	100.913	-0.073	0.085
-315.997	-48.607	-0.149	-0.071
-314.983	9.040	0.293	-0.221
-313.968	30.576	-0.052	0.045
-312.953	7.088	-0.083	0.062
-311.939	227.443	0.049	0.080
-310.924	-109.625	0.177	-0.037
-309.910	-61.414	0.142	-0.060
-308.895	532.086	0.086	0.203
-307.880	-94.496	0.130	0.035
-306.866	-67.280	0.278	-0.109
-305.851	-200.000	-0.085	-0.383
-304.837	-200.000	0.005	0.328
-303.822	148.202	0.040	0.053
-302.807	-200.000	0.005	0.052
-301.793	283.033	-0.097	-0.174
-300.778	-95.458	-0.291	-0.078
-299.764	-190.046	-0.116	0.001
-298.749	-200.000	-0.014	0.277
-297.735	-18.221	0.121	-0.076
-296.720	-200.000	0.020	0.119
-295.705	-105.956	-0.049	-0.011
-294.691	-26.307	-0.042	-0.025
-293.676	-200.000	0.010	0.315
-292.662	800.000	0.024	-0.087
-291.647	-200.000	0.021	-0.176
-290.632	800.000	-0.070	-0.220
-289.618	-200.000	0.026	-0.137
-288.603	-134.618	0.148	-0.018
-287.589	-200.000	0.045	-0.257
-286.574	187.949	-0.224	0.334
-285.559	-200.000	0.000	-0.142
-284.545	-21.799	0.426	0.259
-283.530	-115.119	-0.095	0.018
-282.516	-135.676	-0.313	0.037
-281.501	-140.625	0.416	-0.043
-280.486	174.226	-0.175	-0.252
-279.472	-50.170	0.176	0.083
-278.457	-126.015	0.367	0.055
-277.443	67.028	0.137	0.140
-276.428	74.968	-0.092	-0.096
-275.413	68.334	-0.044	0.045
-274.399	173.033	-0.140	-0.201
-273.384	110.934	0.268	-0.322
-272.370	340.911	0.143	-0.278
-271.355	-30.123	0.246	0.140
-270.340	800.000	0.021	0.069
-269.326	-200.000	0.055	-0.539
-268.311	228.994	0.021	0.033
-267.297	72.368	0.127	-0.132
-266.282	-200.000	0.049	0.268
-265.267	-23.859	0.142	0.085
-264.253	92.060	-0.030	0.034
-263.238	220.734	-0.209	-0.334
-262.224	-177.854	0.283	-0.007
-261.209	-200.000	0.002	-0.025
-260.195	-89.178	0.088	-0.026
-259.180	-1.099	-0.024	0.017
-258.165	466.897	0.015	0.034
-257.151	722.556	0.063	0.168
-256.136	-200.000	0.004	-0.245
-255.122	246.665	0.051	0.085
-254.107	-200.000	0.029	-0.185
-253.092	462.740	-0.090	-0.201
-252.078	-200.000	0.070	-0.409
-251.063	-58.637	-0.337	0.146
-250.049	-200.000	0.065	0.296
-249.034	-117.790	-0.241	0.043
-248.019	-17.108	0.255	0.160
-247.005	-84.902	0.325	0.102
-245.990	134.231	0.128	0.165
-244.976	-109.762	0.188	-0.039
-243.961	577.437	0.058	0.140
-242.946	-102.795	-0.021	-0.005
-241.932	-44.916	-0.206	0.102
-240.917	-152.998	0.455	-0.032
-239.903	62.933	0.189	-0.189
-238.888	418.464	0.122	0.259
-237.873	-91.262	-0.270	0.077
-236.859	800.000	0.045	0.176
-235.844	-133.558	-0.207	0.026
-234.830	-86.863	0.284	0.086
-233.815	-200.000	-0.044	0.227
-232.800	-51.968	0.156	0.072
-231.786	49.514	0.130	0.122
-230.771	-200.000	0.021	0.099
-229.757	-152.734	0.282	0.020
-228.742	-200.000	0.066	0.288
-227.727	25.661	-0.202	-0.168
-226.713	-147.856	0.097	-0.008
-225.698	197.117	-0.161	0.245
-224.684	8.775	0.129	-0.096
-223.669	-25.105	0.313	-0.185
-222.655	-61.224	-0.142	-0.059
-221.640	31.018	0.297	0.254
-220.625	-15.852	0.321	0.203
-219.611	-49.091	0.229	0.109
-218.596	230.997	0.187	-0.305
-217.582	224.024	-0.157	-0.252
-216.567	-26.147	-0.107	0.063
-215.552	-47.062	-0.280	0.136
-214.538	-9.388	0.194	0.129
-213.523	-107.611	0.300	-0.065
-212.509	-191.178	0.402	0.004
-211.494	-24.660	-0.322	0.191
-210.479	199.196	-0.194	0.295
-209.465	-200.000	0.011	-0.084
-208.450	297.700	0.109	0.199
-207.436	664.157	-0.090	0.231
-206.421	-20.592	-0.054	0.033
-205.406	-14.835	0.065	-0.042
-204.392	-173.431	0.191	0.006
-203.377	24.419	0.383	-0.315
-202.363	69.768	-0.100	-0.103
-201.348	536.584	-0.157	-0.371
-200.333	-200.000	-0.011	0.061
-199.319	-200.000	-0.043	-0.317
-198.304	-0.092	-0.250	-0.177
-197.290	-200.000	-0.054	-0.322
-196.275	-192.296	-0.311	0.003
-195.260	198.024	-0.140	-0.213
-194.246	115.686	-0.147	0.179
-193.231	-200.000	0.005	0.292
-192.217	-117.648	0.343	0.061
-191.202	-64.128	0.112	0.045
-190.187	212.697	0.065	-0.103
-189.173	10.777	0.202	-0.153
-188.158	-200.000	0.024	-0.109
-187.144	335.251	-0.118	0.226
-186.129	167.809	0.025	-0.035
-185.114	250.332	0.093	0.157
-184.100	324.676	0.090	-0.170
-183.085	-54.081	-0.093	-0.042
-182.071	-200.000	0.022	0.315
-181.056	166.533	0.222	-0.313
-180.042	107.204	-0.072	-0.085
-179.027	800.000	0.009	-0.034
-178.012	-179.483	-0.107	0.002
-176.998	-200.000	0.018	0.111
-175.983	-32.078	0.354	-0.197
-174.969	166.929	-0.249	0.351
-173.954	-17.194	0.163	0.102
-172.939	800.000	-0.124	-0.424
-171.925	-28.167	0.127	0.073
-170.910	-36.946	0.242	0.129
-169.896	-102.813	-0.160	0.038
-168.881	343.341	-0.099	0.193
-167.866	800.000	0.035	-0.124
-166.852	-200.000	-0.017	-0.178
-165.837	73.122	-0.140	-0.146
-164.823	-27.978	0.341	-0.196
-163.808	320.053	0.173	0.327
-162.793	-200.000	-0.028	0.217
-161.779	-48.960	0.195	0.093
-160.764	402.812	0.104	-0.216
-159.750	532.480	0.161	0.379
-158.735	800.000	-0.079	-0.230
-157.720	800.000	-0.110	-0.449
-156.706	-170.418	-0.241	0.008
-155.691	-78.241	-0.136	0.046
-154.677	43.847	-0.231	-0.210
-153.662	-200.000	-0.019	0.092
-152.647	-200.000	0.003	-0.126
-151.633	-3.697	0.239	0.165
-150.618	-32.497	-0.188	-0.104
-149.604	-200.000	0.008	0.076
-148.589	-133.813	-0.087	0.011
-147.574	800.000	0.075	0.251
-146.560	800.000	-0.018	0.077
-145.545	800.000	-0.093	-0.334
-144.531	-148.568	0.213	-0.017
-143.516	-67.406	-0.134	-0.052
-142.502	0.450	0.189	-0.134
-141.487	-113.594	0.327	-0.063
-140.472	47.645	-0.227	-0.210
-139.458	-58.606	0.262	0.113
-138.443	-90.718	0.209	-0.060
-137.429	50.081	0.105	0.098
-136.414	-112.168	-0.335	-0.067
-135.399	-79.381	-0.234	0.079
-134.385	-109.891	-0.069	-0.014
-133.370	-131.474	-0.232	0.030
-132.356	800.000	0.041	-0.157
-131.341	-35.723	0.158	-0.085
-130.326	268.425	-0.047	0.081
-129.312	-200.000	-0.019	-0.230
-128.297	-22.423	-0.214	-0.129
-127.283	111.135	0.138	-0.165
-126.268	117.597	0.195	0.238
-125.253	96.127	0.269	-0.305
-124.239	800.000	-0.069	-0.211
-123.224	-200.000	0.013	-0.074
-122.210	-58.242	0.191	-0.083
-121.195	235.927	-0.070	-0.115
