DTS Sentinel unit serial number:	SN413079Multiplexer serial number:	ORYXHardware model number:	OX4-SRSoftware version number:	ORYX F/W v4.00 Oryx Data Collector v3.7.2.0data status	okinstallation	princeton_trtdifferential loss correction	single-endedforward channel	channel 3reverse channel	N/Adate	2019/09/12time	23:04:34forward acquisition time	60.00reverse acquisition time	0.00gamma	496.2192k internal	0.2328k external	0.2328temperature offset calibration	1.0132default loss term (dB/km)	0.3790temperature slope calibration	1.0000multiplexer offset coefficient	1.0000multiplexer slope coefficient	1.0000fibre end	0.00T internal ref (°C)	29.25T ext. ref 1 (°C)	3.73T ext. ref 2 (°C)	23.86length (m)	temperature (°C)	Stokes	anti-Stokes-747.200	-60.900	0.218	0.093
-746.185	-139.379	-0.197	-0.021
-745.171	800.000	-0.063	-0.183
-744.156	-200.000	-0.044	0.585
-743.142	255.412	-0.190	0.328
-742.127	-89.038	-0.283	0.084
-741.112	137.537	0.218	0.288
-740.098	-126.898	-0.402	0.060
-739.083	-200.000	0.020	0.162
-738.069	-200.000	-0.029	0.225
-737.054	-161.465	0.254	0.013
-736.039	18.431	-0.177	0.142
-735.025	-69.192	0.102	0.040
-734.010	-108.953	0.120	-0.026
-732.996	800.000	-0.173	-0.570
-731.981	40.111	-0.240	0.218
-730.966	-99.798	-0.228	-0.058
-729.952	-200.000	0.026	-0.290
-728.937	2.259	-0.071	0.051
-727.923	75.828	0.165	0.175
-726.908	-38.990	-0.246	-0.130
-725.894	-189.937	-0.400	-0.005
-724.879	800.000	0.017	-0.075
-723.864	621.031	-0.072	-0.184
-722.850	220.627	-0.072	0.116
-721.835	-22.437	-0.081	-0.049
-720.821	-157.658	-0.116	0.007
-719.806	-200.000	-0.021	-0.216
-718.791	489.080	0.074	-0.170
-717.777	-43.175	-0.296	-0.151
-716.762	-71.239	-0.319	0.121
-715.748	158.620	-0.075	0.105
-714.733	-56.523	-0.126	-0.056
-713.718	74.311	-0.098	-0.104
-712.704	-200.000	-0.011	-0.249
-711.689	18.326	0.087	-0.070
-710.675	135.813	-0.165	0.217
-709.660	426.410	0.036	-0.077
-708.645	13.191	0.303	0.236
-707.631	328.503	0.112	0.216
-706.616	77.248	0.181	-0.194
-705.602	6.795	0.180	-0.135
-704.587	134.734	-0.246	-0.321
-703.572	-78.070	0.082	0.028
-702.558	-19.139	0.130	0.082
-701.543	800.000	-0.070	0.283
-700.529	313.221	-0.144	0.273
-699.514	505.419	0.029	-0.069
-698.499	-126.950	0.393	-0.058
-697.485	-167.754	-0.174	-0.007
-696.470	542.428	-0.073	-0.176
-695.456	800.000	0.095	0.382
-694.441	-43.838	-0.129	-0.065
-693.426	-62.669	-0.081	0.034
-692.412	-200.000	0.035	0.340
-691.397	-200.000	-0.181	0.000
-690.383	800.000	0.054	-0.159
-689.368	-200.000	0.038	-0.216
-688.354	356.920	-0.040	0.080
-687.339	98.678	0.267	0.309
-686.324	800.000	-0.049	0.141
-685.310	85.557	-0.176	-0.194
-684.295	88.320	-0.047	-0.052
-683.281	-200.000	0.012	-0.408
-682.266	-50.470	-0.116	-0.055
-681.251	-46.351	-0.254	-0.125
-680.237	-200.000	0.039	-0.280
-679.222	143.865	0.028	-0.037
-678.208	572.978	0.066	-0.162
-677.193	-90.816	0.386	0.112
-676.178	-141.635	-0.237	0.024
-675.164	-200.000	0.026	-0.151
-674.149	800.000	0.063	-0.198
-673.135	186.261	0.116	-0.173
-672.120	-200.000	-0.065	-0.330
-671.105	-200.000	-0.001	0.009
-670.091	-73.490	0.208	0.076
-669.076	-200.000	-0.014	0.077
-668.062	-200.000	-0.020	0.184
-667.047	-41.659	0.148	0.077
-666.032	8.287	-0.151	-0.114
-665.018	-105.745	0.245	0.056
-664.003	800.000	0.096	0.291
-662.989	800.000	0.038	0.110
-661.974	-200.000	0.085	0.513
-660.959	105.995	0.161	-0.191
-659.945	41.191	-0.173	0.157
-658.930	253.043	-0.143	-0.245
-657.916	-200.000	0.006	0.188
-656.901	36.732	0.116	-0.103
-655.886	-14.984	0.286	0.184
-654.872	-92.690	0.241	0.068
-653.857	-138.252	-0.258	-0.029
-652.843	-5.606	0.058	-0.040
-651.828	-29.221	-0.231	-0.133
-650.814	41.940	0.176	-0.161
-649.799	-113.974	-0.210	0.041
-648.784	-200.000	-0.001	0.058
-647.770	-109.040	0.094	-0.020
-646.755	397.894	-0.139	-0.291
-645.741	-200.000	0.050	-0.256
-644.726	260.724	-0.086	-0.150
-643.711	373.304	0.042	-0.085
-642.697	328.709	-0.217	0.419
-641.682	-200.000	-0.020	0.192
-640.668	-151.697	-0.123	0.009
-639.653	-102.769	-0.114	0.027
-638.638	-116.918	-0.254	0.047
-637.624	-151.162	-0.179	0.013
-636.609	15.009	0.319	0.250
-635.595	24.983	0.048	-0.040
-634.580	484.407	-0.131	-0.300
-633.565	-142.258	0.226	-0.022
-632.551	-113.501	-0.324	-0.064
-631.536	67.004	-0.157	0.160
-630.522	-200.000	0.052	-0.257
-629.507	800.000	-0.010	0.040
-628.492	384.540	-0.104	0.216
-627.478	-165.111	0.134	-0.006
-626.463	-126.064	-0.171	-0.026
-625.449	-200.000	0.038	-0.262
-624.434	12.778	-0.202	0.156
-623.419	-161.572	0.251	-0.013
-622.405	90.627	-0.054	0.061
-621.390	-89.616	-0.364	-0.107
-620.376	-129.841	0.122	-0.017
-619.361	783.301	-0.055	-0.151
-618.346	800.000	-0.057	-0.229
-617.332	800.000	-0.085	0.273
-616.317	22.078	0.391	-0.320
-615.303	-200.000	0.002	-0.071
-614.288	188.784	-0.258	-0.388
-613.273	-200.000	-0.001	-0.117
-612.259	-122.218	-0.142	-0.023
-611.244	-36.896	0.077	0.041
-610.230	19.428	0.238	-0.192
-609.215	-165.643	-0.256	-0.011
-608.201	-200.000	-0.016	-0.078
-607.186	-86.978	-0.278	0.085
-606.171	-110.137	-0.482	0.101
-605.157	-87.834	0.272	0.082
-604.142	-68.704	0.022	0.008
-603.128	-168.803	-0.302	0.011
-602.113	411.867	0.114	0.242
-601.098	-200.000	-0.016	-0.079
-600.084	-154.172	0.058	0.004
-599.069	-124.650	-0.208	0.032
-598.055	-124.361	-0.274	-0.043
-597.040	-200.000	-0.063	-0.348
-596.025	78.154	0.143	0.153
-595.011	-83.279	0.227	-0.073
-593.996	-200.000	-0.015	0.339
-592.982	-84.284	0.219	0.069
-591.967	-22.251	-0.156	-0.095
-590.952	-49.469	-0.350	-0.167
-589.938	104.329	-0.112	-0.132
-588.923	-132.324	0.230	0.030
-587.909	-200.000	-0.031	-0.220
-586.894	140.567	0.141	0.186
-585.879	13.019	-0.072	-0.056
-584.865	659.026	-0.036	0.092
-583.850	-66.327	0.188	-0.075
-582.836	-200.000	0.004	0.156
-581.821	-109.515	0.120	0.025
-580.806	741.628	-0.066	0.177
-579.792	-200.000	-0.032	0.242
-578.777	800.000	-0.056	-0.191
-577.763	93.743	-0.049	0.056
-576.748	-110.582	-0.298	0.062
-575.733	200.148	-0.127	0.195
-574.719	-33.755	-0.269	0.148
-573.704	800.000	-0.049	0.149
-572.690	-48.281	-0.132	0.064
-571.675	325.607	-0.048	0.092
-570.661	-43.843	-0.183	0.092
-569.646	-200.000	-0.029	0.126
-568.631	-41.901	-0.182	-0.093
-567.617	263.394	0.041	0.071
-566.602	-0.994	-0.132	-0.093
-565.588	118.132	0.116	0.143
-564.573	-200.000	-0.013	-0.104
-563.558	-200.000	0.007	0.138
-562.544	58.731	-0.171	0.168
-561.529	189.780	-0.415	0.622
-560.515	505.092	-0.036	0.083
-559.500	109.623	-0.041	0.049
-558.485	400.976	0.121	-0.255
-557.471	15.153	0.125	-0.098
-556.456	-18.087	0.212	0.133
-555.442	-200.000	0.037	-0.235
-554.427	211.752	-0.202	0.319
-553.412	114.560	-0.194	-0.237
-552.398	-81.314	0.063	-0.021
-551.383	-71.712	0.135	0.050
-550.369	-108.720	-0.217	0.047
-549.354	345.533	-0.092	0.181
-548.339	800.000	0.003	0.012
-547.325	272.115	0.108	0.190
-546.310	135.247	0.106	-0.138
-545.296	800.000	-0.068	-0.245
-544.281	25.119	0.036	-0.030
-543.266	287.921	-0.244	-0.441
-542.252	-135.099	0.356	0.043
-541.237	-200.000	-0.008	0.086
-540.223	-200.000	0.209	0.000
-539.208	800.000	-0.055	-0.174
-538.193	-200.000	0.010	0.143
-537.179	-27.216	0.391	-0.228
-536.164	65.703	-0.273	0.277
-535.150	787.082	0.152	0.416
-534.135	-93.199	-0.346	0.096
-533.121	54.141	0.096	-0.092
-532.106	107.519	0.083	-0.098
-531.091	-200.000	0.163	0.000
-530.077	-13.453	0.150	0.097
-529.062	78.980	-0.038	0.041
-528.048	-200.000	-0.003	0.164
-527.033	104.066	0.154	-0.181
-526.018	-30.913	0.076	0.043
-525.004	-200.000	-0.080	0.461
-523.989	-43.674	0.141	0.071
-522.975	-44.552	0.046	-0.023
-521.960	-200.000	-0.004	-0.227
-520.945	379.900	0.120	0.245
-519.931	-200.000	0.011	0.134
-518.916	800.000	-0.078	-0.244
-517.902	-102.051	0.331	-0.080
-516.887	69.194	-0.049	-0.051
-515.872	15.408	0.185	0.145
-514.858	-164.862	-0.114	0.005
-513.843	178.288	0.224	-0.326
-512.829	-63.561	0.153	0.063
-511.814	-132.657	0.113	0.015
-510.799	700.602	0.047	-0.124
-509.785	257.030	-0.124	0.212
-508.770	142.251	-0.122	-0.162
-507.756	-131.770	0.080	0.011
-506.741	-200.000	0.005	-0.124
-505.726	26.841	-0.134	0.112
-504.712	16.152	0.166	0.131
-503.697	227.007	0.110	-0.178
-502.683	-55.311	0.135	-0.061
-501.668	56.224	-0.506	0.491
-500.653	-39.969	0.152	-0.079
-499.639	-20.608	-0.055	0.034
-498.624	-200.000	0.009	0.180
-497.610	800.000	0.035	-0.108
-496.595	543.630	0.243	0.580
-495.581	-113.894	-0.028	-0.005
-494.566	-77.153	-0.153	0.053
-493.551	20.179	0.339	0.273
-492.537	-107.901	-0.324	-0.070
-491.522	24.459	0.123	-0.101
-490.508	-6.291	-0.051	-0.034
-489.493	800.000	0.074	0.259
-488.478	418.945	0.078	0.166
-487.464	114.982	0.075	0.091
-486.449	46.473	-0.257	-0.238
-485.435	-200.000	0.005	-0.345
-484.420	-127.208	-0.124	-0.018
-483.405	-23.905	0.223	-0.133
-482.391	269.013	-0.098	-0.172
-481.376	186.492	-0.075	0.111
-480.362	-77.155	0.309	0.107
-479.347	-200.000	-0.013	0.181
-478.332	800.000	-0.029	-0.111
-477.318	74.132	0.178	-0.186
-476.303	-114.625	-0.232	0.044
-475.289	602.575	0.090	0.223
-474.274	-200.000	-0.015	-0.273
-473.259	800.000	0.070	0.217
-472.245	137.662	0.093	-0.122
-471.230	369.538	-0.121	0.244
-470.216	370.365	-0.076	-0.153
-469.201	-19.168	0.079	0.049
-468.186	-66.167	-0.146	0.058
-467.172	800.000	0.164	0.507
-466.157	349.810	0.125	0.245
-465.143	344.965	-0.041	0.080
-464.128	-64.574	-0.102	0.041
-463.113	-200.000	-0.032	0.215
-462.099	-126.028	0.139	0.021
-461.084	-191.751	0.315	0.003
-460.070	299.823	-0.067	-0.123
-459.055	-200.000	0.047	-0.245
-458.040	800.000	-0.017	0.065
-457.026	27.606	-0.196	0.165
-456.011	800.000	-0.062	0.196
-454.997	-200.000	-0.028	-0.143
-453.982	800.000	-0.037	-0.160
-452.968	58.260	0.210	0.205
-451.953	63.824	-0.244	-0.244
-450.938	170.024	0.070	-0.100
-449.924	-200.000	0.013	0.072
-448.909	134.078	-0.167	-0.215
-447.895	67.121	0.191	0.194
-446.880	-48.013	-0.118	-0.057
-445.865	425.624	-0.075	0.160
-444.851	-18.552	0.291	-0.181
-443.836	273.047	0.154	0.271
-442.822	-74.926	-0.094	-0.034
-441.807	-66.104	0.279	-0.111
-440.792	800.000	-0.075	0.287
-439.778	-200.000	0.028	0.218
-438.763	-200.000	0.005	-0.059
-437.749	71.416	-0.194	-0.200
-436.734	-55.498	0.313	-0.140
-435.719	-73.084	-0.102	0.037
-434.705	159.987	0.089	0.124
-433.690	349.493	-0.227	-0.445
-432.676	114.024	-0.047	0.058
-431.661	-59.571	0.124	0.053
-430.646	76.369	0.080	-0.084
-429.632	800.000	0.039	0.130
-428.617	55.089	-0.099	0.095
-427.603	-200.000	-0.001	-0.094
-426.588	151.995	0.095	-0.129
-425.573	-58.636	0.242	-0.104
-424.559	-43.620	0.094	-0.047
-423.544	-200.000	-0.021	-0.234
-422.530	95.865	-0.105	-0.120
-421.515	-34.418	0.196	0.107
-420.500	283.810	-0.190	0.339
-419.486	-107.425	0.243	0.053
-418.471	-200.000	-0.019	-0.364
-417.457	-200.000	0.011	-0.161
-416.442	577.239	0.021	-0.051
-415.428	177.628	0.069	0.100
-414.413	47.520	-0.130	-0.120
-413.398	152.710	-0.151	-0.205
-412.384	-200.000	-0.028	0.153
-411.369	800.000	-0.045	-0.132
-410.355	-200.000	-0.057	-0.287
-409.340	-200.000	0.063	-0.309
-408.325	586.857	0.158	-0.386
-407.311	36.553	0.234	-0.206
-406.296	800.000	-0.124	0.375
-405.282	-103.393	-0.090	0.021
-404.267	800.000	0.055	-0.190
-403.252	-200.000	-0.026	0.221
-402.238	-125.479	-0.343	0.052
-401.223	313.184	-0.063	0.118
-400.209	509.579	-0.132	-0.306
-399.194	-6.876	-0.125	0.084
-398.179	43.209	0.205	-0.186
-397.165	23.908	0.105	0.086
-396.150	800.000	0.032	-0.122
-395.136	-163.008	-0.232	0.011
-394.121	-96.548	-0.221	-0.058
-393.106	31.105	-0.124	0.106
-392.092	31.171	-0.070	-0.059
-391.077	76.627	0.093	-0.098
-390.063	17.465	0.281	0.222
-389.048	626.517	0.088	0.220
-388.033	-151.570	0.179	0.013
-387.019	-134.899	0.266	-0.032
-386.004	-78.521	0.137	0.047
-384.990	522.136	0.053	0.123
-383.975	-54.010	-0.118	0.053
-382.960	-200.000	-0.001	-0.016
-381.946	243.249	0.085	0.142
-380.931	-42.242	0.149	0.075
-379.917	800.000	0.022	0.082
-378.902	19.769	0.087	0.069
-377.888	-85.750	-0.204	0.063
-376.873	-148.626	0.245	-0.020
-375.858	168.181	-0.132	-0.186
-374.844	470.216	0.058	0.129
-373.829	-85.950	-0.043	-0.013
-372.815	370.788	-0.088	0.178
-371.800	-11.978	-0.073	-0.048
-370.785	-35.947	0.112	0.060
-369.771	28.951	-0.107	0.090
-368.756	268.236	-0.057	0.099
-367.742	146.937	0.127	-0.170
-366.727	66.698	-0.084	0.085
-365.712	-115.017	-0.207	0.039
-364.698	-200.000	0.001	0.099
-363.683	-123.784	-0.227	0.036
-362.669	-79.922	0.213	-0.071
-361.654	489.003	-0.134	0.305
-360.639	188.193	-0.103	-0.153
-359.625	-36.629	0.405	-0.216
-358.610	-200.000	0.011	0.146
-357.596	342.695	0.164	0.318
-356.581	293.936	-0.118	-0.214
-355.566	-11.469	0.148	-0.097
-354.552	130.029	0.062	-0.079
-353.537	-200.000	-0.000	0.241
-352.523	-200.000	0.007	0.033
-351.508	56.161	0.158	-0.152
-350.493	340.225	0.092	-0.178
-349.479	-0.041	-0.254	-0.179
-348.464	-101.048	-0.261	-0.063
-347.450	-192.148	0.158	-0.002
-346.435	-104.772	-0.281	0.064
-345.420	-133.738	-0.295	0.036
-344.406	73.327	0.117	-0.122
-343.391	-200.000	-0.027	0.123
-342.377	-134.536	0.165	-0.020
-341.362	-200.000	-0.015	-0.296
-340.348	-144.305	0.238	0.022
-339.333	-94.844	-0.201	-0.054
-338.318	-75.812	-0.034	0.012
-337.304	548.737	0.009	-0.020
-336.289	-200.000	0.008	0.051
-335.275	-200.000	0.005	-0.050
-334.260	1.288	0.040	-0.028
-333.245	-185.122	0.229	0.004
-332.231	-124.736	-0.313	0.048
-331.216	-89.452	-0.091	0.027
-330.202	-111.032	0.230	0.047
-329.187	311.831	0.046	0.086
-328.172	304.303	0.036	-0.065
-327.158	285.760	-0.020	-0.036
-326.143	-59.679	-0.134	-0.057
-325.129	443.001	-0.090	-0.195
-324.114	453.777	0.073	-0.161
-323.099	-200.000	0.002	-0.183
-322.085	570.897	-0.146	-0.352
-321.070	346.287	0.092	-0.179
-320.056	-59.983	0.241	0.102
-319.041	-200.000	-0.005	-0.024
-318.026	-200.000	-0.003	-0.070
-317.012	193.975	0.071	-0.106
-315.997	-48.987	0.274	0.130
-314.983	331.862	-0.091	0.174
-313.968	213.048	-0.086	-0.135
-312.953	-154.742	0.332	-0.022
-311.939	800.000	-0.095	0.265
-310.924	228.983	0.108	-0.174
-309.910	-200.000	-0.032	0.307
-308.895	-26.478	-0.075	0.043
-307.880	-9.303	-0.272	0.180
-306.866	5.727	0.112	0.082
-305.851	-109.506	0.271	0.057
-304.837	-17.366	-0.116	-0.072
-303.822	-80.034	-0.090	-0.030
-302.807	280.021	-0.136	0.242
-301.793	800.000	-0.129	0.396
-300.778	-200.000	0.040	-0.183
-299.764	-2.063	0.184	-0.128
-298.749	53.445	-0.261	0.248
-297.735	275.986	0.057	0.101
-296.720	-119.320	0.169	-0.029
-295.705	-38.221	0.323	-0.170
-294.691	2.983	-0.089	-0.064
-293.676	-70.760	-0.123	0.046
-292.662	36.023	-0.138	0.120
-291.647	-200.000	0.024	-0.391
-290.632	37.779	-0.169	-0.148
-289.618	-77.558	-0.205	0.070
-288.603	49.704	0.130	0.121
-287.589	-9.254	-0.217	0.143
-286.574	-169.053	-0.278	-0.010
-285.559	1.093	0.256	0.182
-284.545	-96.676	-0.168	0.044
-283.530	173.388	-0.130	-0.186
-282.516	77.137	-0.111	-0.117
-281.501	-116.886	-0.114	-0.021
-280.486	800.000	0.083	0.350
-279.472	-109.408	0.219	0.046
-278.457	117.594	-0.277	-0.337
-277.443	10.694	0.253	0.191
-276.428	800.000	-0.049	-0.188
-275.413	800.000	0.034	-0.101
-274.399	-64.566	-0.173	0.070
-273.384	-32.496	-0.146	0.080
-272.370	-200.000	-0.047	-0.260
-271.355	55.330	-0.242	-0.231
-270.340	-112.492	-0.095	0.019
-269.326	800.000	0.040	0.158
-268.311	-200.000	-0.067	-0.545
-267.297	800.000	0.088	0.263
-266.282	-20.670	0.285	-0.173
-265.267	-200.000	-0.007	-0.099
-264.253	-4.830	0.188	-0.128
-263.238	20.204	0.132	-0.106
-262.224	-200.000	-0.013	0.120
-261.209	34.927	0.093	0.080
-260.195	703.900	-0.134	0.349
-259.180	196.716	-0.131	-0.198
-258.165	-160.233	-0.474	-0.025
-257.151	-151.297	0.198	-0.015
-256.136	-36.048	0.137	-0.073
-255.122	-36.668	0.134	-0.071
-254.107	41.851	-0.049	-0.044
-253.092	-200.000	0.025	0.147
-252.078	86.504	0.259	-0.282
-251.063	-41.142	0.342	0.175
-250.049	800.000	0.046	0.159
-249.034	800.000	0.075	0.309
-248.019	-200.000	-0.068	0.406
-247.005	-91.256	-0.080	0.023
-245.990	8.346	-0.098	0.073
-244.976	-62.677	0.145	0.059
-243.961	2.612	0.258	0.184
-242.946	-200.000	0.044	0.217
-241.932	20.642	0.206	0.165
-240.917	-200.000	-0.037	-0.264
-239.903	-127.330	0.195	-0.028
-238.888	271.071	0.185	0.323
-237.873	-200.000	-0.001	0.093
-236.859	-113.428	-0.173	-0.033
-235.844	-103.030	-0.194	-0.046
-234.830	-103.806	-0.177	-0.041
-233.815	592.763	0.041	0.100
-232.800	28.996	0.130	0.109
-231.786	-51.101	0.372	-0.172
-230.771	197.292	-0.103	0.155
-229.757	-93.094	-0.305	0.084
-228.742	-47.349	-0.105	-0.051
-227.727	19.489	0.077	0.061
-226.713	161.300	-0.341	-0.470
-225.698	24.315	0.150	-0.123
-224.684	28.689	0.137	-0.115
-223.669	-9.365	0.145	-0.096
-222.655	800.000	0.020	0.082
-221.640	800.000	-0.088	0.310
-220.625	-17.719	-0.256	-0.159
-219.611	258.092	-0.179	0.305
-218.596	-200.000	-0.035	-0.197
-217.582	800.000	-0.014	0.052
-216.567	800.000	0.006	0.016
-215.552	-47.620	-0.157	-0.075
-214.538	-200.000	0.059	-0.395
-213.523	-96.175	0.216	0.056
-212.509	-110.694	0.147	-0.030
-211.494	30.652	-0.149	0.126
-210.479	-113.735	0.239	0.046
-209.465	800.000	-0.077	-0.285
-208.450	-75.230	-0.266	0.094
-207.436	199.132	0.040	0.061
-206.421	-79.025	-0.194	0.065
-205.406	-153.287	0.146	0.010
-204.392	800.000	-0.005	-0.019
-203.377	-88.899	0.296	0.087
-202.363	48.774	0.118	0.109
-201.348	5.333	0.152	0.111
-200.333	-129.693	0.487	-0.066
-199.319	130.515	0.151	-0.191
-198.304	-51.205	-0.159	-0.074
-197.290	800.000	0.146	-0.409
-196.275	800.000	-0.050	0.170
-195.260	-81.476	0.178	-0.058
-194.246	-200.000	-0.019	-0.369
-193.231	-82.063	-0.354	-0.114
-192.217	-10.254	-0.268	0.175
-191.202	-52.894	-0.215	-0.098
-190.187	800.000	0.012	-0.040
-189.173	-118.005	0.550	-0.097
-188.158	-87.811	-0.138	0.041
-187.144	-115.336	0.304	-0.057
-186.129	61.612	0.213	-0.209
-185.114	-57.887	0.356	-0.153
-184.100	-200.000	0.019	-0.158
-183.085	-86.485	0.070	0.021
-182.071	164.884	-0.115	-0.160
-181.056	165.662	-0.218	0.303
-180.042	-200.000	-0.035	0.396
-179.027	-110.728	-0.112	-0.023
-178.012	224.915	0.028	0.044
-176.998	-200.000	-0.002	-0.027
-175.983	-200.000	-0.004	-0.207
-174.969	-200.000	0.175	-0.000
-173.954	161.917	-0.128	0.177
-172.939	800.000	-0.075	-0.237
-171.925	78.161	0.052	-0.055
-170.910	-93.477	0.351	-0.096
-169.896	65.799	0.109	-0.109
-168.881	800.000	-0.083	-0.232
-167.866	800.000	-0.021	-0.071
-166.852	-200.000	0.013	-0.070
-165.837	-99.820	0.330	0.081
-164.823	-200.000	-0.036	-0.218
-163.808	236.825	-0.224	-0.365
-162.793	3.915	0.320	0.230
-161.779	-128.165	0.120	-0.017
-160.764	4.845	-0.316	-0.229
-159.750	89.646	0.126	-0.138
-158.735	374.113	-0.066	0.132
-157.720	-132.287	-0.117	-0.015
-156.706	-12.991	-0.063	0.040
-155.691	-116.831	0.195	-0.035
-154.677	-17.858	-0.224	0.138
-153.662	209.183	-0.020	0.030
-152.647	-200.000	-0.320	-0.001
-151.633	85.471	-0.158	0.171
-150.618	-119.748	-0.297	-0.050
-149.604	-141.033	-0.351	0.035
-148.589	-146.980	0.114	-0.010
-147.574	2.888	0.020	0.014
-146.560	-45.581	0.094	0.046
-145.545	-200.000	0.015	0.430
-144.531	-156.403	0.147	0.009
-143.516	-96.659	0.168	0.044
-142.502	-200.000	-0.001	0.028
-141.487	676.532	0.020	0.051
-140.472	-64.117	0.292	0.117
-139.458	-200.000	-0.004	-0.108
-138.443	86.472	-0.249	-0.270
-137.429	87.010	-0.022	0.024
-136.414	127.107	-0.104	-0.130
-135.399	-200.000	0.017	0.216
-134.385	-92.187	-0.292	0.081
-133.370	-200.000	0.035	0.308
-132.356	-159.802	-0.241	-0.013
-131.341	-0.419	0.117	0.082
-130.326	-36.821	0.251	0.132
-129.312	-83.923	0.047	0.015
-128.297	401.158	0.019	0.040
-127.283	-200.000	0.088	-0.496
-126.268	634.778	-0.106	-0.264
-125.253	-124.565	-0.216	0.033
-124.239	81.581	0.155	0.165
-123.224	-200.000	0.006	0.140
-122.210	-61.598	0.162	0.067
-121.195	262.896	-0.004	-0.006
