DTS Sentinel unit serial number:	SN413079Multiplexer serial number:	ORYXHardware model number:	OX4-SRSoftware version number:	ORYX F/W v4.00 Oryx Data Collector v3.7.2.0data status	okinstallation	princeton_trtdifferential loss correction	single-endedforward channel	channel 3reverse channel	N/Adate	2019/09/13time	22:56:34forward acquisition time	60.00reverse acquisition time	0.00gamma	496.2192k internal	0.2337k external	0.2337temperature offset calibration	1.0062default loss term (dB/km)	0.3790temperature slope calibration	1.0000multiplexer offset coefficient	1.0000multiplexer slope coefficient	1.0000fibre end	0.00T internal ref (°C)	27.37T ext. ref 1 (°C)	3.21T ext. ref 2 (°C)	21.45length (m)	temperature (°C)	Stokes	anti-Stokes-747.200	275.173	-0.109	-0.194
-746.185	53.638	0.246	0.237
-745.171	84.786	-0.135	-0.148
-744.156	800.000	-0.062	0.212
-743.142	87.041	-0.114	0.126
-742.127	-48.402	-0.333	0.161
-741.112	401.411	-0.059	0.124
-740.098	-89.267	0.324	-0.096
-739.083	-0.276	0.250	0.178
-738.069	311.394	-0.165	0.310
-737.054	59.039	-0.178	-0.176
-736.039	-200.000	-0.015	-0.260
-735.025	-200.000	-0.001	0.046
-734.010	-195.519	0.175	-0.001
-732.996	-14.167	-0.063	-0.041
-731.981	800.000	0.063	-0.195
-730.966	-173.876	-0.215	0.006
-729.952	22.203	0.056	-0.046
-728.937	-20.526	0.138	-0.085
-727.923	38.484	0.002	0.002
-726.908	-190.060	-0.306	0.003
-725.894	800.000	0.120	-0.520
-724.879	-127.139	0.130	-0.019
-723.864	350.783	-0.058	-0.115
-722.850	800.000	-0.109	-0.458
-721.835	-200.000	0.042	-0.312
-720.821	-200.000	0.054	0.256
-719.806	800.000	-0.095	0.303
-718.791	149.730	-0.183	0.249
-717.777	79.744	0.069	-0.074
-716.762	-200.000	-0.014	-0.241
-715.748	-200.000	-0.036	-0.259
-714.733	-200.000	0.009	-0.281
-713.718	70.394	0.177	0.184
-712.704	119.305	-0.201	0.249
-711.689	-177.723	-0.259	0.006
-710.675	-200.000	-0.017	-0.139
-709.660	-80.610	0.120	0.040
-708.645	-162.622	0.554	0.027
-707.631	0.269	0.452	-0.323
-706.616	-154.035	-0.124	-0.008
-705.602	393.179	-0.016	0.034
-704.587	-100.417	-0.428	-0.106
-703.572	104.383	0.217	-0.256
-702.558	-200.000	-0.016	-0.254
-701.543	-200.000	-0.039	-0.256
-700.529	26.686	-0.091	-0.076
-699.514	-8.200	0.239	-0.161
-698.499	-7.489	-0.236	0.160
-697.485	-92.047	0.432	0.123
-696.470	455.717	-0.084	-0.187
-695.456	800.000	-0.019	-0.071
-694.441	142.306	0.032	0.043
-693.426	-130.415	0.318	-0.043
-692.412	50.378	-0.166	-0.157
-691.397	-91.048	-0.229	0.066
-690.383	-48.451	-0.318	0.153
-689.368	-200.000	0.023	0.121
-688.354	-200.000	0.023	-0.326
-687.339	-115.844	-0.229	-0.043
-686.324	130.272	-0.112	-0.143
-685.310	-102.921	0.283	0.067
-684.295	-100.184	-0.158	0.039
-683.281	42.527	-0.229	-0.209
-682.266	351.136	-0.102	-0.203
-681.251	17.931	-0.131	0.104
-680.237	800.000	0.060	0.198
-679.222	-200.000	0.002	0.030
-678.208	-200.000	0.020	-0.339
-677.193	-200.000	-0.047	0.278
-676.178	411.061	-0.157	-0.334
-675.164	-127.066	-0.317	-0.047
-674.149	131.252	-0.155	0.199
-673.135	43.293	0.215	0.197
-672.120	239.331	-0.054	0.090
-671.105	-65.326	-0.072	0.029
-670.091	-133.608	0.060	-0.008
-669.076	173.714	-0.072	-0.103
-668.062	-145.853	-0.178	-0.016
-667.047	-40.603	0.181	0.094
-666.032	-58.453	0.370	0.161
-665.018	800.000	0.089	0.262
-664.003	-56.034	-0.213	-0.095
-662.989	110.844	-0.151	0.181
-661.974	160.304	-0.095	0.132
-660.959	-2.602	-0.132	-0.093
-659.945	271.042	-0.089	0.157
-658.930	-5.138	-0.227	0.156
-657.916	-19.261	-0.064	-0.039
-656.901	-200.000	0.004	0.060
-655.886	-75.075	-0.217	0.078
-654.872	177.870	0.077	-0.112
-653.857	-155.023	0.158	-0.010
-652.843	-108.908	-0.239	-0.051
-651.828	13.098	0.123	0.095
-650.814	325.091	-0.016	0.031
-649.799	267.605	-0.007	0.013
-648.784	-86.225	-0.353	-0.109
-647.770	258.013	0.083	-0.143
-646.755	-106.741	0.308	-0.068
-645.741	-95.898	-0.214	-0.057
-644.726	27.867	-0.239	0.201
-643.711	75.899	0.084	0.089
-642.697	-200.000	-0.009	0.106
-641.682	75.096	-0.024	0.026
-640.668	-125.967	0.181	-0.027
-639.653	215.760	-0.123	-0.195
-638.638	-62.908	-0.169	0.070
-637.624	0.346	0.330	0.236
-636.609	666.132	-0.047	-0.122
-635.595	387.306	0.137	0.282
-634.580	-200.000	-0.001	-0.267
-633.565	-102.432	0.275	-0.066
-632.551	220.578	-0.147	0.236
-631.536	469.257	0.119	-0.266
-630.522	800.000	0.029	0.126
-629.507	593.031	0.059	-0.145
-628.492	-127.525	0.085	-0.012
-627.478	-46.097	0.090	0.045
-626.463	55.740	-0.162	0.157
-625.449	-47.649	-0.279	0.135
-624.434	-200.000	-0.061	0.282
-623.419	-0.652	-0.170	0.120
-622.405	-11.745	-0.173	-0.113
-621.390	-62.451	0.113	0.047
-620.376	-132.766	-0.249	0.032
-619.361	141.726	-0.048	-0.063
-618.346	62.839	-0.070	-0.070
-617.332	-129.196	-0.336	-0.047
-616.317	341.918	0.030	-0.058
-615.303	460.331	0.113	-0.252
-614.288	123.416	0.057	0.072
-613.273	-200.000	0.035	0.179
-612.259	50.389	-0.196	-0.185
-611.244	12.819	0.082	-0.063
-610.230	337.161	0.133	-0.258
-609.215	800.000	0.139	-0.462
-608.201	-138.424	-0.088	0.010
-607.186	463.026	-0.133	0.296
-606.171	-125.234	-0.194	0.030
-605.157	190.916	-0.196	-0.294
-604.142	-29.063	-0.202	-0.116
-603.128	0.060	0.157	0.112
-602.113	2.300	-0.167	-0.120
-601.098	-15.302	0.131	0.084
-600.084	-40.412	0.317	0.164
-599.069	800.000	0.080	-0.303
-598.055	-178.140	0.493	0.012
-597.040	-35.754	-0.211	0.114
-596.025	-200.000	-0.016	0.225
-595.011	-95.198	-0.247	-0.066
-593.996	34.296	-0.035	-0.030
-592.982	228.828	-0.164	0.266
-591.967	-99.717	0.129	0.032
-590.952	-200.000	0.015	-0.172
-589.938	29.173	-0.178	-0.150
-588.923	671.675	-0.030	-0.077
-587.909	800.000	0.065	-0.232
-586.894	-71.300	0.264	0.099
-585.879	-34.744	-0.042	-0.023
-584.865	431.537	-0.112	0.241
-583.850	-9.871	-0.252	-0.167
-582.836	800.000	-0.101	-0.317
-581.821	-78.242	-0.287	-0.098
-580.806	95.380	-0.177	0.202
-579.792	13.620	0.139	0.107
-578.777	-91.748	-0.010	0.003
-577.763	-1.664	-0.254	0.178
-576.748	191.110	-0.138	-0.207
-575.733	499.620	0.046	0.106
-574.719	800.000	0.084	-0.263
-573.704	7.906	0.070	0.052
-572.690	175.565	-0.107	-0.154
-571.675	148.514	0.104	0.140
-570.661	317.267	-0.066	0.125
-569.646	800.000	0.061	-0.225
-568.631	-200.000	-0.033	-0.226
-567.617	155.157	0.142	-0.195
-566.602	138.684	-0.078	-0.103
-565.588	-198.379	-0.224	-0.001
-564.573	598.673	-0.117	0.289
-563.558	-53.374	0.198	0.090
-562.544	-200.000	-0.001	-0.082
-561.529	199.011	0.085	0.130
-560.515	800.000	-0.017	0.057
-559.500	-72.780	0.104	0.038
-558.485	800.000	-0.069	-0.226
-557.471	-151.102	0.143	0.011
-556.456	-58.867	0.140	-0.060
-555.442	-17.878	-0.165	-0.103
-554.427	176.259	0.156	-0.226
-553.412	-200.000	-0.013	-0.254
-552.398	-200.000	-0.000	0.168
-551.383	-151.060	-0.025	-0.002
-550.369	-167.229	-0.128	-0.005
-549.354	-121.530	0.200	-0.033
-548.339	-168.855	0.238	0.009
-547.325	-12.457	-0.174	0.113
-546.310	-115.587	0.121	0.023
-545.296	160.854	0.125	-0.174
-544.281	105.731	-0.092	0.108
-543.266	396.170	-0.044	-0.092
-542.252	75.861	-0.162	-0.170
-541.237	109.102	0.133	-0.158
-540.223	-130.724	0.290	0.039
-539.208	241.013	-0.052	-0.086
-538.193	35.683	-0.109	0.096
-537.179	-103.691	0.416	0.097
-536.164	759.029	-0.112	0.303
-535.150	-140.238	0.201	0.021
-534.135	20.293	-0.155	-0.125
-533.121	45.156	0.229	-0.210
-532.106	-54.490	-0.061	-0.028
-531.091	126.692	-0.224	0.282
-530.077	800.000	-0.077	0.246
-529.062	105.131	-0.090	0.106
-528.048	99.569	-0.210	-0.241
-527.033	800.000	-0.130	0.367
-526.018	60.490	0.240	0.237
-525.004	707.844	0.075	-0.196
-523.989	138.275	0.051	-0.067
-522.975	85.966	0.152	-0.167
-521.960	501.173	0.113	-0.260
-520.945	57.213	-0.207	0.201
-519.931	43.896	0.036	-0.033
-518.916	-200.000	0.021	-0.198
-517.902	141.642	0.092	-0.122
-516.887	-110.304	-0.175	-0.036
-515.872	26.575	0.228	0.190
-514.858	-83.041	0.223	-0.071
-513.843	18.322	0.137	0.109
-512.829	-10.781	-0.332	0.218
-511.814	249.662	-0.071	-0.120
-510.799	-96.298	-0.294	-0.077
-509.785	48.480	0.376	0.351
-508.770	-82.945	0.213	0.068
-507.756	137.348	0.084	-0.109
-506.741	105.903	-0.142	-0.168
-505.726	178.393	0.298	-0.433
-504.712	-172.429	0.077	0.002
-503.697	-60.995	0.245	0.103
-502.683	106.958	-0.075	-0.089
-501.668	-127.529	0.294	0.042
-500.653	80.810	-0.149	0.159
-499.639	3.592	-0.163	-0.118
-498.624	312.287	-0.190	-0.355
-497.610	-30.822	-0.150	0.085
-496.595	-119.734	0.188	0.032
-495.581	32.875	-0.118	0.102
-494.566	-111.348	-0.130	-0.026
-493.551	90.511	0.263	-0.293
-492.537	-49.509	0.151	-0.071
-491.522	167.685	-0.130	-0.183
-490.508	616.605	0.127	-0.318
-489.493	296.795	-0.146	0.265
-488.478	197.943	-0.086	0.131
-487.464	307.582	-0.133	-0.246
-486.449	-142.648	-0.260	0.025
-485.435	26.408	0.018	0.015
-484.420	119.881	-0.032	0.039
-483.405	-55.657	0.376	-0.167
-482.391	-200.000	-0.004	-0.028
-481.376	-8.154	-0.353	-0.237
-480.362	-153.404	-0.121	0.008
-479.347	73.358	-0.221	0.229
-478.332	384.477	0.104	-0.212
-477.318	-200.000	0.077	0.409
-476.303	71.518	-0.077	0.080
-475.289	725.964	0.060	0.160
-474.274	-5.971	-0.078	-0.053
-473.259	32.520	-0.157	-0.135
-472.245	-107.040	0.353	-0.078
-471.230	70.238	-0.200	0.205
-470.216	-96.898	0.152	0.040
-469.201	296.439	-0.063	-0.114
-468.186	234.281	-0.089	-0.146
-467.172	800.000	-0.032	-0.107
-466.157	-116.938	0.261	0.047
-465.143	-14.188	-0.101	-0.064
-464.128	-58.047	-0.203	-0.088
-463.113	64.536	0.051	-0.051
-462.099	-97.223	0.242	-0.063
-461.084	800.000	0.021	-0.072
-460.070	264.652	0.102	-0.176
-459.055	-200.000	0.020	-0.164
-458.040	-23.366	-0.259	0.154
-457.026	-17.165	-0.324	0.203
-456.011	800.000	0.092	-0.354
-454.997	21.769	0.226	-0.183
-453.982	-68.947	0.163	0.062
-452.968	800.000	-0.167	-0.495
-451.953	-104.228	-0.217	0.050
-450.938	-76.763	-0.176	-0.061
-449.924	-25.840	0.114	0.067
-448.909	-111.770	-0.467	-0.094
-447.895	216.078	-0.097	0.152
-446.880	242.423	0.160	0.265
-445.865	116.791	0.179	0.218
-444.851	4.075	0.068	0.050
-443.836	-200.000	-0.026	0.287
-442.822	677.989	0.142	0.367
-441.807	800.000	-0.042	0.142
-440.792	-56.605	-0.286	0.125
-439.778	151.192	-0.248	0.335
-438.763	-200.000	-0.064	-0.407
-437.749	-41.902	-0.092	-0.047
-436.734	-200.000	0.030	0.169
-435.719	-200.000	-0.007	-0.060
-434.705	-149.624	-0.381	0.030
-433.690	-35.892	-0.292	-0.157
-432.676	-147.144	-0.471	-0.040
-431.661	-200.000	0.031	-0.186
-430.646	-200.000	0.025	0.291
-429.632	147.611	-0.224	-0.299
-428.617	-0.810	0.212	-0.149
-427.603	-17.373	0.325	-0.203
-426.588	49.439	0.152	0.141
-425.573	556.751	0.077	-0.183
-424.559	219.719	0.144	0.229
-423.544	800.000	-0.021	-0.087
-422.530	88.612	0.124	-0.137
-421.515	-180.493	-0.190	0.004
-420.500	-6.148	-0.112	0.076
-419.486	-200.000	-0.048	0.324
-418.471	800.000	-0.097	0.352
-417.457	800.000	-0.013	0.044
-416.442	-28.679	-0.223	-0.127
-415.428	-135.012	0.251	-0.030
-414.413	14.528	0.024	0.019
-413.398	96.204	0.114	0.129
-412.384	-147.058	0.243	0.021
-411.369	64.596	0.097	0.097
-410.355	-200.000	0.021	-0.197
-409.340	-200.000	-0.039	0.528
-408.325	14.196	-0.089	0.068
-407.311	381.420	-0.051	-0.105
-406.296	-22.892	-0.127	-0.076
-405.282	-161.254	-0.345	-0.018
-404.267	-128.001	0.275	0.039
-403.252	-34.727	-0.233	-0.126
-402.238	-34.373	0.152	-0.082
-401.223	-50.242	0.459	0.215
-400.209	293.597	0.039	0.070
-399.194	-4.210	-0.076	0.052
-398.179	800.000	-0.100	-0.346
-397.165	19.960	-0.138	0.110
-396.150	-14.594	-0.104	0.066
-395.136	-2.406	-0.268	0.186
-394.121	475.160	0.029	-0.064
-393.106	-81.302	0.081	-0.026
-392.092	-121.421	-0.460	-0.076
-391.077	15.727	0.135	-0.105
-390.063	223.241	-0.049	0.078
-389.048	-200.000	0.011	0.150
-388.033	-130.806	-0.236	0.031
-387.019	-197.452	0.320	0.002
-386.004	649.270	0.115	-0.292
-384.990	-97.343	-0.224	0.058
-383.975	583.621	0.118	0.286
-382.960	800.000	0.085	-0.246
-381.946	-200.000	0.032	0.239
-380.931	-28.645	0.044	-0.025
-379.917	-200.000	-0.028	0.186
-378.902	800.000	-0.094	-0.261
-377.888	-26.481	0.152	0.088
-376.873	588.067	0.081	0.198
-375.858	-46.178	-0.081	0.039
-374.844	-40.314	0.216	-0.111
-373.829	6.692	0.256	0.188
-372.815	-129.535	-0.364	0.050
-371.800	42.687	0.034	0.030
-370.785	-163.313	0.289	0.014
-369.771	-65.360	-0.229	0.091
-368.756	167.727	0.059	0.083
-367.742	-23.009	0.316	-0.189
-366.727	294.551	0.073	-0.132
-365.712	-22.339	-0.176	0.106
-364.698	217.382	-0.116	0.183
-363.683	602.384	-0.089	-0.218
-362.669	-67.182	-0.300	-0.117
-361.654	563.415	0.054	-0.128
-360.639	436.608	-0.042	0.090
-359.625	53.002	0.071	-0.067
-358.610	164.872	0.318	-0.444
-357.596	-200.000	0.014	-0.180
-356.581	133.169	-0.091	-0.116
-355.566	-37.870	0.264	0.139
-354.552	173.115	-0.160	-0.228
-353.537	122.656	-0.126	0.156
-352.523	134.897	0.168	0.216
-351.508	-129.667	0.271	-0.037
-350.493	-200.000	-0.018	-0.145
-349.479	352.082	0.104	0.204
-348.464	345.614	-0.048	0.092
-347.450	405.855	0.137	-0.285
-346.435	-114.541	0.511	-0.097
-345.420	3.627	-0.341	0.246
-344.406	-91.869	-0.258	0.072
-343.391	-121.826	0.343	-0.056
-342.377	34.850	-0.199	-0.172
-341.362	310.128	-0.017	0.032
-340.348	136.183	-0.024	0.031
-339.333	800.000	0.063	-0.223
-338.318	-143.438	0.026	0.002
-337.304	-26.508	0.110	0.064
-336.289	-3.065	-0.085	0.059
-335.275	60.021	0.072	0.070
-334.260	-200.000	-0.017	0.098
-333.245	248.001	-0.136	0.227
-332.231	-169.132	-0.108	-0.004
-331.216	-73.543	0.094	-0.034
-330.202	-62.774	0.108	-0.044
-329.187	113.142	-0.118	-0.141
-328.172	354.758	-0.098	-0.192
-327.158	-200.000	0.028	0.125
-326.143	-93.479	0.056	0.015
-325.129	-23.268	-0.202	0.120
-324.114	-59.597	-0.354	0.150
-323.099	132.208	-0.074	-0.095
-322.085	198.998	0.176	-0.266
-321.070	229.322	0.071	0.114
-320.056	508.209	0.105	0.240
-319.041	-51.242	0.391	-0.181
-318.026	106.113	-0.412	-0.482
-317.012	110.395	-0.172	0.204
-315.997	-200.000	0.007	0.287
-314.983	162.543	-0.077	0.107
-313.968	-26.410	0.411	0.238
-312.953	259.498	-0.175	0.299
-311.939	100.759	-0.095	0.109
-310.924	-105.514	0.243	-0.054
-309.910	-118.512	-0.145	-0.025
-308.895	-57.604	-0.146	0.063
-307.880	-90.756	-0.549	0.156
-306.866	-69.469	-0.107	0.040
-305.851	231.644	0.109	-0.177
-304.837	800.000	0.128	-0.415
-303.822	800.000	-0.070	-0.259
-302.807	-23.089	-0.248	-0.148
-301.793	328.371	0.058	-0.110
-300.778	-25.087	0.193	-0.113
-299.764	-42.194	0.199	-0.100
-298.749	-103.233	-0.440	-0.103
-297.735	-200.000	-0.001	-0.339
-296.720	215.912	0.068	0.106
-295.705	172.527	-0.245	0.348
-294.691	19.103	0.194	0.154
-293.676	800.000	-0.040	0.143
-292.662	-200.000	-0.043	-0.243
-291.647	292.045	-0.253	0.454
-290.632	15.704	0.111	-0.086
-289.618	189.562	0.077	0.114
-288.603	-159.204	0.286	0.016
-287.589	-102.221	-0.304	0.072
-286.574	342.822	0.009	-0.018
-285.559	-122.094	0.241	-0.039
-284.545	-200.000	-0.037	0.230
-283.530	-167.450	0.091	0.004
-282.516	320.246	0.201	0.377
-281.501	12.115	-0.248	-0.188
-280.486	-13.455	-0.284	-0.182
-279.472	-12.893	-0.144	0.093
-278.457	105.921	0.193	0.225
-277.443	-51.580	0.168	-0.077
-276.428	-77.687	-0.144	-0.049
-275.413	-5.159	0.150	-0.102
-274.399	-200.000	-0.009	0.131
-273.384	-176.866	0.192	0.005
-272.370	-200.000	-0.005	0.095
-271.355	-200.000	0.047	0.212
-270.340	-200.000	0.043	-0.190
-269.326	278.941	0.078	-0.138
-268.311	1.067	0.236	0.167
-267.297	670.892	0.031	0.078
-266.282	-15.696	-0.234	0.147
-265.267	-11.359	-0.117	-0.076
-264.253	-200.000	0.024	-0.260
-263.238	159.444	0.151	0.207
-262.224	77.924	-0.245	0.257
-261.209	800.000	0.053	0.177
-260.195	800.000	-0.062	-0.169
-259.180	260.289	0.211	-0.359
-258.165	800.000	-0.052	-0.189
-257.151	-59.579	-0.348	-0.147
-256.136	800.000	-0.071	-0.209
-255.122	-69.877	-0.224	0.084
-254.107	3.258	0.103	0.074
-253.092	-200.000	-0.004	0.127
-252.078	163.394	0.203	-0.281
-251.063	800.000	-0.022	0.086
-250.049	100.453	-0.162	-0.186
-249.034	-78.465	-0.268	0.090
-248.019	-24.691	0.233	0.136
-247.005	-40.640	-0.081	-0.041
-245.990	515.536	-0.081	-0.187
-244.976	23.516	0.046	-0.037
-243.961	348.654	0.156	-0.303
-242.946	-172.459	-0.410	0.013
-241.932	671.963	0.053	0.136
-240.917	150.298	0.361	0.483
-239.903	-159.076	-0.253	0.014
-238.888	-200.000	-0.010	-0.062
-237.873	241.271	0.272	0.446
-236.859	114.554	0.206	0.247
-235.844	99.955	0.050	-0.057
-234.830	-8.968	-0.353	0.232
-233.815	80.144	0.238	0.252
-232.800	72.514	0.025	0.025
-231.786	-125.392	-0.191	0.029
-230.771	-33.777	0.353	0.192
-229.757	-142.394	0.158	0.015
-228.742	-14.288	0.279	-0.177
-227.727	-86.203	-0.148	0.045
-226.713	-200.000	0.028	-0.424
-225.698	-172.737	0.217	0.007
-224.684	-103.310	0.119	0.028
-223.669	-53.201	-0.126	0.057
-222.655	-47.743	-0.133	-0.063
-221.640	682.959	0.053	-0.137
-220.625	136.641	0.223	0.287
-219.611	572.061	-0.047	-0.112
-218.596	410.952	0.020	-0.042
-217.582	28.148	0.050	-0.042
-216.567	53.108	-0.082	-0.077
-215.552	751.790	0.174	0.463
-214.538	800.000	0.048	-0.187
-213.523	-0.851	0.107	-0.075
-212.509	32.701	0.137	0.117
-211.494	94.735	0.266	0.297
-210.479	2.769	0.192	0.137
-209.465	-200.000	-0.021	0.293
-208.450	157.864	-0.095	0.130
-207.436	163.986	0.123	-0.170
-206.421	-89.219	-0.041	0.012
-205.406	100.290	0.032	0.037
-204.392	800.000	0.053	0.225
-203.377	1.880	-0.123	-0.087
-202.363	-167.749	-0.296	-0.012
-201.348	-149.241	0.119	0.009
-200.333	-74.383	0.174	-0.062
-199.319	-200.000	-0.026	-0.274
-198.304	800.000	0.127	-0.439
-197.290	-96.861	-0.338	-0.087
-196.275	-168.724	-0.041	0.002
-195.260	727.740	0.124	0.325
-194.246	-67.429	0.024	-0.009
-193.231	229.546	-0.081	0.129
-192.217	79.493	0.230	-0.243
-191.202	452.194	-0.115	0.249
-190.187	117.789	-0.118	0.143
-189.173	800.000	0.092	0.330
-188.158	-200.000	-0.016	0.314
-187.144	205.581	-0.200	-0.305
-186.129	-45.268	-0.242	0.118
-185.114	17.849	-0.301	0.235
-184.100	-82.548	0.383	0.122
-183.085	-200.000	0.060	-0.372
-182.071	-142.027	0.349	0.034
-181.056	-110.398	0.126	-0.026
-180.042	127.691	0.141	-0.175
-179.027	800.000	-0.096	0.312
-178.012	-64.032	0.236	0.095
-176.998	-122.320	0.302	-0.048
-175.983	404.122	-0.118	-0.245
-174.969	-35.231	-0.235	-0.125
-173.954	87.124	0.090	-0.098
-172.939	-200.000	0.007	0.080
-171.925	-84.236	0.111	0.034
-170.910	28.265	-0.080	0.066
-169.896	-62.948	0.281	0.114
-168.881	-12.183	0.016	0.011
-167.866	5.491	0.117	-0.085
-166.852	-64.273	0.072	-0.029
-165.837	38.509	0.093	0.082
-164.823	-200.000	-0.001	-0.221
-163.808	-171.389	-0.134	-0.004
-162.793	-200.000	-0.012	0.062
-161.779	-112.189	0.086	-0.017
-160.764	-111.470	-0.206	0.041
-159.750	190.151	-0.110	0.162
-158.735	-200.000	0.003	-0.095
-157.720	-111.513	0.539	0.108
-156.706	57.010	0.135	-0.129
-155.691	-101.733	0.264	-0.063
-154.677	547.680	-0.020	0.047
-153.662	402.965	-0.056	-0.115
-152.647	-0.600	0.251	-0.175
-151.633	-69.578	-0.309	0.116
-150.618	76.855	0.038	0.039
-149.604	-17.620	0.363	0.224
-148.589	-118.593	0.238	-0.041
-147.574	753.584	-0.079	-0.209
-146.560	400.141	-0.136	-0.279
-145.545	-28.868	-0.027	-0.015
-144.531	800.000	0.083	0.248
-143.516	165.059	-0.277	-0.383
-142.502	29.345	-0.255	0.212
-141.487	800.000	-0.046	0.134
-140.472	-49.089	-0.382	-0.179
-139.458	-200.000	-0.016	0.074
-138.443	-200.000	-0.011	-0.216
-137.429	-71.482	-0.213	0.078
-136.414	-19.708	-0.165	0.100
-135.399	-31.600	-0.217	0.119
-134.385	-158.727	-0.259	-0.015
-133.370	-121.445	0.192	-0.031
-132.356	800.000	-0.099	-0.366
-131.341	-200.000	0.084	-0.360
-130.326	213.325	-0.119	0.184
-129.312	62.580	0.120	0.117
-128.297	-24.015	-0.058	0.034
-127.283	800.000	0.085	-0.298
-126.268	64.343	-0.251	-0.248
-125.253	11.052	0.194	-0.145
-124.239	-188.163	-0.143	0.002
-123.224	-89.089	0.163	0.047
-122.210	-200.000	-0.015	-0.132
-121.195	800.000	-0.072	-0.232
-120.180	-126.642	-0.311	-0.045
