DTS Sentinel unit serial number:	SN413079Multiplexer serial number:	ORYXHardware model number:	OX4-SRSoftware version number:	ORYX F/W v4.00 Oryx Data Collector v3.7.2.0data status	okinstallation	princeton_trtdifferential loss correction	single-endedforward channel	channel 3reverse channel	N/Adate	2019/09/17time	21:56:35forward acquisition time	60.00reverse acquisition time	0.00gamma	496.2192k internal	0.2344k external	0.2344temperature offset calibration	0.9947default loss term (dB/km)	0.3790temperature slope calibration	1.0000multiplexer offset coefficient	1.0000multiplexer slope coefficient	1.0000fibre end	0.00T internal ref (°C)	26.19T ext. ref 1 (°C)	0.19T ext. ref 2 (°C)	18.90length (m)	temperature (°C)	Stokes	anti-Stokes-747.200	800.000	0.028	-0.079
-746.185	100.885	-0.237	0.276
-745.171	376.341	-0.046	-0.094
-744.156	65.456	0.279	0.282
-743.142	365.480	-0.048	0.096
-742.127	340.205	0.258	-0.503
-741.112	-53.153	-0.353	-0.162
-740.098	3.370	-0.326	0.238
-739.083	-48.329	0.145	0.070
-738.069	-19.870	0.110	-0.068
-737.054	-155.877	0.258	0.016
-736.039	-21.238	-0.208	-0.127
-735.025	-31.582	-0.145	0.082
-734.010	-8.922	-0.045	-0.030
-732.996	-118.762	0.214	0.038
-731.981	800.000	0.076	-0.262
-730.966	-167.802	-0.353	-0.014
-729.952	-88.031	-0.057	0.017
-728.937	-144.973	-0.221	0.020
-727.923	220.823	-0.181	0.291
-726.908	-46.526	0.060	-0.029
-725.894	-200.000	-0.037	0.213
-724.879	-36.743	-0.147	0.079
-723.864	141.200	-0.151	-0.200
-722.850	-56.267	-0.421	0.187
-721.835	800.000	-0.054	0.173
-720.821	11.029	-0.327	-0.250
-719.806	-85.223	-0.118	0.037
-718.791	42.417	-0.089	-0.081
-717.777	-65.754	-0.160	0.064
-716.762	7.531	0.075	-0.056
-715.748	72.405	0.039	0.041
-714.733	-28.693	-0.261	0.150
-713.718	13.005	-0.243	-0.188
-712.704	-21.354	-0.162	0.099
-711.689	125.020	0.054	0.068
-710.675	-119.106	-0.155	-0.027
-709.660	0.625	0.094	0.067
-708.645	-136.066	-0.258	-0.030
-707.631	-127.898	0.289	0.042
-706.616	359.064	-0.102	-0.203
-705.602	800.000	-0.057	-0.201
-704.587	2.707	0.153	-0.111
-703.572	519.449	0.086	0.202
-702.558	25.712	-0.057	-0.047
-701.543	-69.336	0.216	0.083
-700.529	-1.870	0.176	0.124
-699.514	52.088	-0.176	-0.168
-698.499	0.446	0.142	-0.101
-697.485	-95.622	-0.151	-0.040
-696.470	0.495	0.235	0.168
-695.456	-78.933	-0.285	-0.097
-694.441	-44.949	0.226	0.112
-693.426	52.620	-0.229	0.219
-692.412	104.574	-0.144	0.170
-691.397	-175.854	-0.425	-0.011
-690.383	-98.128	0.136	0.035
-689.368	72.101	-0.123	-0.128
-688.354	459.763	-0.067	-0.149
-687.339	-126.088	0.184	-0.027
-686.324	-200.000	0.010	-0.241
-685.310	10.295	0.288	0.219
-684.295	35.220	0.129	0.113
-683.281	-150.982	-0.178	0.013
-682.266	-42.410	-0.196	0.100
-681.251	16.209	-0.049	0.039
-680.237	-39.882	0.110	-0.057
-679.222	192.941	0.039	-0.058
-678.208	521.987	-0.045	0.105
-677.193	-20.778	0.031	-0.019
-676.178	-111.408	-0.076	-0.015
-675.164	-71.258	-0.173	-0.065
-674.149	-138.128	-0.190	-0.021
-673.135	-9.244	-0.267	-0.178
-672.120	-113.972	-0.049	0.009
-671.105	144.565	-0.118	-0.157
-670.091	-61.518	0.270	-0.113
-669.076	-55.076	0.366	-0.165
-668.062	626.372	-0.033	-0.082
-667.047	36.041	0.088	-0.077
-666.032	800.000	0.044	-0.148
-665.018	508.521	-0.074	-0.172
-664.003	-200.000	0.094	-0.460
-662.989	-177.094	-0.093	0.002
-661.974	-88.187	0.365	0.109
-660.959	-200.000	0.002	-0.119
-659.945	35.297	-0.144	0.126
-658.930	-200.000	0.034	-0.248
-657.916	56.960	0.189	-0.183
-656.901	263.946	-0.055	0.095
-655.886	40.612	-0.062	-0.056
-654.872	-73.666	-0.172	-0.062
-653.857	-200.000	-0.020	-0.390
-652.843	-54.614	0.205	0.093
-651.828	-200.000	-0.063	-0.293
-650.814	-173.549	-0.403	-0.012
-649.799	-89.260	-0.257	-0.076
-648.784	800.000	-0.064	-0.226
-647.770	50.609	0.146	0.138
-646.755	449.427	0.024	0.054
-645.741	187.893	0.154	0.229
-644.726	-200.000	-0.061	-0.287
-643.711	-200.000	-0.043	0.288
-642.697	340.643	-0.196	0.382
-641.682	-98.446	-0.056	-0.014
-640.668	-186.413	-0.369	0.005
-639.653	2.327	-0.160	-0.115
-638.638	-157.421	-0.273	0.016
-637.624	-141.082	0.180	-0.018
-636.609	-91.452	-0.195	-0.055
-635.595	-200.000	-0.046	-0.278
-634.580	-134.320	-0.049	0.006
-633.565	242.891	-0.098	0.164
-632.551	-35.071	0.159	0.087
-631.536	125.983	-0.218	0.275
-630.522	-19.921	-0.110	-0.068
-629.507	-133.288	-0.081	-0.010
-628.492	-24.388	0.080	0.048
-627.478	163.794	-0.130	-0.183
-626.463	800.000	0.111	0.311
-625.449	-200.000	-0.006	0.036
-624.434	-200.000	0.025	-0.152
-623.419	225.726	-0.084	-0.135
-622.405	-200.000	-0.027	0.000
-621.390	-98.845	0.278	0.070
-620.376	-123.437	-0.099	0.016
-619.361	-46.736	-0.181	-0.088
-618.346	-172.134	-0.284	-0.009
-617.332	61.593	0.223	0.221
-616.317	-25.876	0.223	-0.131
-615.303	-71.808	-0.111	0.041
-614.288	123.751	0.093	-0.116
-613.273	-112.581	-0.220	0.044
-612.259	-24.804	-0.065	0.039
-611.244	722.835	0.079	-0.210
-610.230	-200.000	0.005	0.228
-609.215	-73.471	0.208	-0.075
-608.201	-76.540	-0.110	0.038
-607.186	-200.000	-0.049	-0.229
-606.171	-92.633	0.219	-0.061
-605.157	232.467	-0.034	0.056
-604.142	-158.649	0.105	-0.006
-603.128	564.332	0.065	-0.157
-602.113	27.382	-0.107	0.090
-601.098	-200.000	-0.017	0.111
-600.084	-18.602	0.122	-0.076
-599.069	132.134	0.208	0.267
-598.055	-83.259	0.229	0.073
-597.040	319.727	0.045	0.086
-596.025	800.000	-0.056	-0.230
-595.011	-110.845	0.163	0.033
-593.996	-87.628	-0.100	0.030
-592.982	16.933	0.169	0.133
-591.967	-200.000	-0.020	-0.182
-590.952	-172.119	-0.370	-0.012
-589.938	-156.425	-0.376	0.023
-588.923	-49.710	-0.128	0.060
-587.909	58.374	-0.255	0.249
-586.894	-14.406	0.088	-0.057
-585.879	532.113	0.145	0.340
-584.865	-200.000	-0.067	0.311
-583.850	-85.514	0.145	0.045
-582.836	-31.311	-0.123	0.069
-581.821	-44.667	-0.256	-0.127
-580.806	9.632	-0.333	-0.251
-579.792	-200.000	-0.001	0.058
-578.777	87.721	-0.224	-0.247
-577.763	-91.809	0.288	-0.081
-576.748	-5.356	-0.140	-0.096
-575.733	-139.214	-0.317	-0.034
-574.719	800.000	-0.024	0.103
-573.704	522.367	-0.049	0.115
-572.690	-176.022	-0.186	0.005
-571.675	155.905	-0.307	0.421
-570.661	78.956	0.140	-0.149
-569.646	-192.928	-0.192	0.002
-568.631	-200.000	-0.038	-0.242
-567.617	-200.000	-0.087	-0.448
-566.602	80.904	0.073	-0.078
-565.588	800.000	-0.033	0.102
-564.573	-66.717	0.174	-0.069
-563.558	19.615	0.118	0.094
-562.544	234.607	0.053	0.087
-561.529	-9.454	0.223	-0.148
-560.515	-192.237	-0.299	-0.003
-559.500	273.062	0.024	-0.042
-558.485	-151.428	0.153	-0.011
-557.471	-200.000	0.031	-0.187
-556.456	-123.900	0.342	0.054
-555.442	-157.798	-0.024	0.001
-554.427	-137.994	0.142	-0.016
-553.412	83.637	0.178	0.193
-552.398	-105.642	0.149	-0.034
-551.383	610.479	0.131	-0.325
-550.369	-25.004	-0.146	0.086
-549.354	-200.000	0.013	-0.160
-548.339	233.769	0.126	-0.207
-547.325	-200.000	-0.040	-0.333
-546.310	30.124	0.314	-0.266
-545.296	800.000	0.111	0.306
-544.281	-200.000	0.021	-0.181
-543.266	198.521	-0.159	0.242
-542.252	99.600	-0.137	-0.157
-541.237	-200.000	-0.029	-0.159
-540.223	137.914	0.140	0.182
-539.208	124.171	-0.159	-0.198
-538.193	430.547	0.104	-0.224
-537.179	800.000	0.077	0.287
-536.164	-112.418	-0.389	-0.077
-535.150	-200.000	0.027	-0.190
-534.135	-30.726	0.256	-0.144
-533.121	642.666	-0.070	-0.178
-532.106	43.112	0.065	-0.059
-531.091	8.238	0.317	-0.236
-530.077	-72.245	0.164	0.060
-529.062	-62.400	-0.060	0.025
-528.048	210.005	0.011	-0.017
-527.033	317.854	-0.083	-0.156
-526.018	76.173	0.086	0.091
-525.004	-200.000	-0.033	0.192
-523.989	800.000	-0.030	-0.087
-522.975	170.445	0.274	-0.390
-521.960	-142.644	-0.163	0.016
-520.945	-200.000	0.006	0.288
-519.931	18.484	0.164	-0.130
-518.916	-26.196	-0.213	0.124
-517.902	-86.089	-0.112	-0.034
-516.887	-200.000	-0.023	-0.102
-515.872	-195.003	0.274	-0.002
-514.858	78.682	0.277	0.293
-513.843	21.822	-0.115	-0.093
-512.829	-158.747	-0.213	-0.012
-511.814	-159.145	-0.127	0.007
-510.799	290.127	0.035	-0.062
-509.785	-9.096	-0.140	0.093
-508.770	-192.784	0.075	0.001
-507.756	385.298	-0.070	0.143
-506.741	-200.000	0.025	-0.165
-505.726	356.799	-0.124	0.244
-504.712	-176.555	0.194	-0.005
-503.697	800.000	-0.029	-0.096
-502.683	-116.602	0.013	-0.002
-501.668	-42.700	-0.303	-0.153
-500.653	22.313	0.211	0.171
-499.639	-200.000	-0.091	0.491
-498.624	-37.016	-0.189	-0.100
-497.610	-117.646	-0.199	0.036
-496.595	-200.000	0.006	-0.097
-495.581	-200.000	-0.004	-0.160
-494.566	-200.000	-0.040	-0.183
-493.551	-60.251	0.104	-0.044
-492.537	-200.000	0.005	-0.199
-491.522	-9.928	-0.275	0.181
-490.508	106.047	-0.171	-0.201
-489.493	-49.046	-0.082	-0.039
-488.478	800.000	0.111	-0.351
-487.464	-124.919	-0.159	-0.024
-486.449	-200.000	0.061	-0.331
-485.435	52.582	-0.210	-0.199
-484.420	-200.000	0.113	0.499
-483.405	282.404	0.118	0.210
-482.391	404.037	-0.034	0.070
-481.376	-200.000	-0.031	-0.143
-480.362	800.000	0.038	0.120
-479.347	-103.585	0.175	-0.041
-478.332	-19.845	0.074	-0.045
-477.318	-200.000	-0.032	-0.144
-476.303	343.574	0.052	-0.100
-475.289	47.329	0.172	0.158
-474.274	-102.834	0.139	0.033
-473.259	-85.035	-0.162	-0.050
-472.245	-200.000	0.006	0.043
-471.230	-45.048	0.159	0.078
-470.216	75.077	0.256	-0.267
-469.201	-51.806	0.043	0.020
-468.186	-107.076	-0.122	0.027
-467.172	-131.203	0.247	0.032
-466.157	580.117	-0.120	-0.291
-465.143	-160.490	-0.246	0.013
-464.128	-200.000	0.023	-0.162
-463.113	7.122	0.160	0.118
-462.099	7.650	0.217	-0.161
-461.084	-87.361	-0.234	-0.070
-460.070	-47.064	-0.359	0.174
-459.055	-200.000	0.020	-0.091
-458.040	265.304	0.063	0.109
-457.026	800.000	-0.064	-0.242
-456.011	26.976	0.043	-0.036
-454.997	5.827	0.368	-0.270
-453.982	800.000	0.060	-0.185
-452.968	187.741	0.142	-0.210
-451.953	-200.000	-0.018	0.168
-450.938	-200.000	-0.033	-0.312
-449.924	221.977	0.050	-0.079
-448.909	800.000	0.126	-0.372
-447.895	-200.000	0.041	-0.181
-446.880	-62.047	-0.113	0.047
-445.865	800.000	-0.026	0.103
-444.851	1.449	-0.252	-0.180
-443.836	-200.000	-0.016	-0.214
-442.822	-94.786	0.254	0.068
-441.807	800.000	0.086	0.250
-440.792	-200.000	0.020	-0.115
-439.778	85.543	-0.252	0.274
-438.763	448.072	0.032	-0.071
-437.749	-200.000	0.027	0.347
-436.734	35.596	-0.166	-0.144
-435.719	-200.000	0.060	0.347
-434.705	198.486	-0.229	0.347
-433.690	-84.123	0.143	0.045
-432.676	-134.349	0.351	0.043
-431.661	95.875	-0.096	-0.109
-430.646	-132.083	-0.091	0.012
-429.632	546.078	-0.030	0.070
-428.617	95.512	-0.253	0.286
-427.603	-132.933	-0.330	0.041
-426.588	800.000	0.076	-0.223
-425.573	-200.000	-0.004	-0.034
-424.559	-117.397	0.046	0.008
-423.544	176.812	-0.105	0.151
-422.530	204.047	0.229	0.351
-421.515	368.425	-0.046	-0.092
-420.500	-200.000	0.074	-0.429
-419.486	-85.832	0.056	0.017
-418.471	-69.873	0.355	-0.134
-417.457	-54.152	-0.138	0.062
-416.442	241.926	0.091	-0.150
-415.428	600.262	-0.086	-0.211
-414.413	-200.000	0.006	0.141
-413.398	144.052	0.106	-0.140
-412.384	-72.331	-0.296	0.108
-411.369	-66.672	0.175	-0.069
-410.355	-67.573	0.402	0.156
-409.340	60.400	-0.053	0.052
-408.325	-117.141	-0.008	0.001
-407.311	-109.089	-0.236	0.050
-406.296	65.176	0.232	0.231
-405.282	-35.971	0.210	0.112
-404.267	-153.635	0.355	0.024
-403.252	19.414	-0.138	-0.110
-402.238	-152.274	0.349	-0.025
-401.223	385.408	-0.115	-0.234
-400.209	595.466	0.018	-0.045
-399.194	-96.242	-0.032	-0.008
-398.179	-92.157	0.287	0.080
-397.165	-200.000	0.001	0.034
-396.150	800.000	-0.034	0.097
-395.136	59.717	-0.196	-0.191
-394.121	105.526	0.265	0.309
-393.106	693.860	0.036	-0.093
-392.092	271.911	0.112	0.195
-391.077	-57.949	-0.062	-0.027
-390.063	-21.814	0.309	-0.186
-389.048	-200.000	-0.008	0.188
-388.033	800.000	-0.044	-0.178
-387.019	40.564	-0.281	0.250
-386.004	22.312	0.236	0.191
-384.990	800.000	0.030	0.084
-383.975	126.893	-0.008	-0.010
-382.960	413.259	0.076	0.160
-381.946	791.138	0.045	-0.121
-380.931	1.952	-0.475	0.338
-379.917	-50.328	0.212	0.099
-378.902	11.132	0.107	-0.081
-377.888	91.809	0.227	0.252
-376.873	128.729	0.198	0.249
-375.858	-22.304	-0.154	-0.092
-374.844	800.000	0.085	-0.292
-373.829	-138.593	-0.273	0.030
-372.815	-34.811	-0.200	0.108
-371.800	-36.296	0.082	0.044
-370.785	54.731	0.018	0.017
-369.771	264.083	0.129	0.221
-368.756	302.223	0.102	0.185
-367.742	34.107	0.235	0.202
-366.727	76.751	-0.272	0.285
-365.712	-200.000	0.023	-0.147
-364.698	152.914	0.101	-0.137
-363.683	82.034	-0.114	0.122
-362.669	41.344	-0.118	-0.105
-361.654	-44.664	0.084	0.042
-360.639	164.623	0.096	0.133
-359.625	-200.000	0.030	0.352
-358.610	-200.000	0.018	0.115
-357.596	60.555	-0.097	0.095
-356.581	34.357	0.113	0.098
-355.566	-200.000	0.015	-0.266
-354.552	-200.000	-0.003	-0.104
-353.537	477.320	0.139	-0.310
-352.523	800.000	0.074	-0.318
-351.508	-102.143	-0.166	-0.039
-350.493	-23.788	-0.075	0.044
-349.479	-3.129	-0.055	0.038
-348.464	86.077	0.254	-0.275
-347.450	175.464	-0.112	-0.160
-346.435	212.698	0.092	0.143
-345.420	77.635	-0.056	0.059
-344.406	-118.208	0.176	-0.031
-343.391	315.636	0.039	-0.072
-342.377	-83.342	0.147	-0.046
-341.362	-200.000	0.008	-0.355
-340.348	748.655	0.115	0.307
-339.333	301.668	0.067	0.122
-338.318	-19.700	-0.258	-0.157
-337.304	95.475	0.144	-0.162
-336.289	-41.814	0.180	0.091
-335.275	-16.064	-0.120	-0.075
-334.260	-119.145	0.124	0.021
-333.245	1.437	0.226	-0.160
-332.231	138.006	-0.352	0.454
-331.216	5.922	-0.225	-0.164
-330.202	11.814	0.088	0.066
-329.187	60.943	0.152	-0.148
-328.172	403.642	-0.032	0.066
-327.158	-1.802	-0.125	-0.086
-326.143	169.629	-0.060	0.084
-325.129	82.924	0.177	0.190
-324.114	400.458	0.051	-0.106
-323.099	-200.000	-0.006	-0.072
-322.085	-139.647	0.323	-0.034
-321.070	-41.277	0.163	0.083
-320.056	43.391	-0.199	0.179
-319.041	-139.020	0.202	-0.022
-318.026	-27.610	0.160	-0.091
-317.012	-200.000	0.006	0.174
-315.997	-200.000	0.006	-0.162
-314.983	800.000	0.111	0.312
-313.968	-145.966	0.326	0.028
-312.953	-5.706	-0.060	-0.041
-311.939	-200.000	-0.036	-0.193
-310.924	-50.812	-0.039	0.018
-309.910	231.301	-0.095	-0.154
-308.895	-200.000	0.011	0.142
-307.880	800.000	-0.032	0.112
-306.866	-144.588	0.234	-0.021
-305.851	-200.000	0.005	0.174
-304.837	723.591	0.037	0.097
-303.822	111.729	0.152	0.181
-302.807	-53.496	-0.170	0.077
-301.793	-200.000	-0.067	-0.342
-300.778	-53.601	-0.183	-0.082
-299.764	274.562	0.146	-0.254
-298.749	89.617	-0.235	0.258
-297.735	156.318	0.169	-0.230
-296.720	-200.000	0.014	0.085
-295.705	27.458	-0.231	-0.191
-294.691	791.940	-0.124	-0.336
-293.676	107.867	-0.067	0.078
-292.662	-64.773	-0.158	-0.063
-291.647	-13.564	0.438	0.279
-290.632	-200.000	0.036	0.155
-289.618	187.502	-0.187	0.275
-288.603	800.000	0.030	0.129
-287.589	330.212	0.094	0.179
-286.574	-164.026	0.153	-0.007
-285.559	-200.000	0.028	-0.432
-284.545	-54.772	-0.096	0.043
-283.530	-200.000	-0.030	0.235
-282.516	-200.000	-0.001	0.013
-281.501	-60.558	-0.318	-0.133
-280.486	800.000	-0.082	-0.228
-279.472	298.650	0.143	0.259
-278.457	403.674	0.117	-0.241
-277.443	315.513	0.046	0.085
-276.428	-58.460	0.193	0.082
-275.413	157.358	0.105	0.142
-274.399	-84.077	0.384	-0.120
-273.384	786.236	0.100	-0.270
-272.370	800.000	-0.059	-0.222
-271.355	-115.059	-0.279	-0.052
-270.340	-94.046	-0.363	0.098
-269.326	171.212	-0.109	0.153
-268.311	-200.000	0.030	-0.132
-267.297	-112.946	0.294	0.057
-266.282	182.706	0.028	0.040
-265.267	-200.000	0.004	-0.075
-264.253	-144.910	-0.145	0.013
-263.238	45.899	-0.261	-0.237
-262.224	56.322	0.057	-0.054
-261.209	800.000	-0.076	0.261
-260.195	613.946	-0.128	-0.314
-259.180	800.000	-0.087	0.345
-258.165	155.673	-0.014	-0.019
-257.151	-200.000	-0.047	0.346
-256.136	668.975	-0.122	0.310
-255.122	3.166	-0.378	-0.270
-254.107	9.082	-0.195	-0.145
-253.092	230.531	0.108	-0.173
-252.078	-111.891	0.160	-0.032
-251.063	599.930	0.114	-0.278
-250.049	-20.929	-0.171	-0.103
-249.034	-28.036	-0.193	0.109
-248.019	-117.144	-0.222	0.040
-247.005	513.469	0.164	0.376
-245.990	-70.033	-0.421	0.157
-244.976	-163.738	0.181	-0.008
-243.961	-200.000	-0.053	-0.301
-242.946	-200.000	-0.009	0.129
-241.932	100.324	0.149	0.170
-240.917	-200.000	-0.272	-0.000
-239.903	-7.942	0.053	-0.035
-238.888	774.295	0.026	-0.069
-237.873	-42.771	0.221	-0.110
-236.859	-53.642	0.279	-0.125
-235.844	-93.510	-0.188	-0.051
-234.830	-200.000	-0.035	-0.445
-233.815	215.910	0.178	-0.278
-232.800	800.000	0.024	0.087
-231.786	652.741	0.124	0.312
-230.771	707.037	-0.084	-0.217
-229.757	94.233	-0.186	0.208
-228.742	517.091	-0.183	0.419
-227.727	-110.403	0.252	-0.051
-226.713	800.000	-0.103	-0.339
-225.698	-200.000	-0.023	0.124
-224.684	70.045	-0.050	0.051
-223.669	-182.285	-0.236	-0.004
-222.655	-200.000	0.012	0.491
-221.640	-200.000	0.027	0.201
-220.625	163.426	0.152	-0.209
-219.611	-35.628	-0.409	0.218
-218.596	211.044	0.068	-0.106
-217.582	-36.278	-0.208	0.110
-216.567	101.067	0.206	-0.235
-215.552	228.002	-0.200	0.320
-214.538	800.000	0.024	0.087
-213.523	521.667	0.080	0.185
-212.509	87.109	0.119	-0.129
-211.494	-200.000	0.026	-0.155
-210.479	800.000	0.050	0.214
-209.465	181.498	-0.131	0.190
-208.450	-49.302	0.188	0.088
-207.436	30.555	-0.075	-0.062
-206.421	493.250	0.176	0.394
-205.406	-114.231	-0.143	0.027
-204.392	68.029	0.218	-0.219
-203.377	-200.000	0.003	-0.115
-202.363	20.715	0.088	-0.069
-201.348	800.000	-0.062	0.196
-200.333	16.602	0.193	0.149
-199.319	-104.003	-0.313	0.071
-198.304	800.000	0.098	-0.282
-197.290	-200.000	0.064	-0.294
-196.275	800.000	-0.018	0.064
-195.260	-200.000	-0.015	0.405
-194.246	-66.089	-0.303	-0.118
-193.231	-200.000	0.002	0.237
-192.217	-19.415	-0.085	0.052
-191.202	189.760	0.038	0.056
-190.187	800.000	-0.093	-0.348
-189.173	282.979	0.073	-0.128
-188.158	-92.918	-0.134	0.037
-187.144	-8.711	-0.366	-0.241
-186.129	-15.974	-0.172	0.107
-185.114	-200.000	-0.029	-0.145
-184.100	-116.451	-0.245	0.044
-183.085	117.989	-0.314	0.379
-182.071	-200.000	0.028	0.139
-181.056	-34.245	-0.084	-0.045
-180.042	162.862	-0.137	0.188
-179.027	-200.000	-0.006	0.358
-178.012	471.092	0.059	-0.130
-176.998	-116.555	-0.095	0.017
-175.983	-84.237	0.240	0.075
-174.969	-196.207	-0.305	0.002
-173.954	68.315	0.115	0.115
-172.939	800.000	-0.042	-0.148
-171.925	550.014	0.122	-0.286
-170.910	4.176	0.168	0.120
-169.896	-48.345	-0.161	-0.076
-168.881	33.766	0.033	-0.028
-167.866	-49.915	-0.182	-0.085
-166.852	105.411	-0.055	0.063
-165.837	-200.000	0.032	0.223
-164.823	-200.000	-0.036	-0.236
-163.808	-190.860	-0.265	-0.003
-162.793	-123.520	0.136	-0.021
-161.779	-63.147	0.270	-0.109
-160.764	-145.487	-0.331	0.029
-159.750	-200.000	0.009	-0.053
-158.735	-50.414	0.331	-0.153
-157.720	-102.259	0.383	-0.090
-156.706	-138.053	-0.059	-0.006
-155.691	-96.907	-0.052	-0.013
-154.677	321.337	0.096	0.179
-153.662	-118.418	0.484	0.084
-152.647	-104.070	0.435	0.099
-151.633	800.000	-0.020	0.059
-150.618	-7.333	-0.138	-0.091
-149.604	144.729	0.120	-0.157
-148.589	400.779	0.060	0.122
-147.574	188.038	-0.099	-0.145
-146.560	262.013	-0.218	-0.369
-145.545	244.260	0.140	0.230
-144.531	310.972	-0.174	0.319
-143.516	683.460	-0.079	-0.202
-142.502	55.984	0.140	0.133
-141.487	82.687	-0.105	-0.112
-140.472	215.917	0.016	0.024
-139.458	77.052	0.244	-0.253
-138.443	-145.106	-0.215	-0.019
-137.429	532.818	-0.175	0.404
-136.414	800.000	0.037	-0.112
-135.399	-47.564	0.109	0.052
-134.385	-45.675	-0.175	0.085
-133.370	-24.988	0.144	0.083
-132.356	141.291	0.128	-0.165
-131.341	-20.073	-0.290	0.174
-130.326	328.529	0.060	-0.113
-129.312	-14.575	0.152	0.095
-128.297	-30.834	-0.253	0.140
-127.283	462.791	0.107	-0.233
-126.268	80.144	-0.192	0.201
-125.253	-138.001	0.486	0.053
-124.239	-200.000	0.042	0.209
-123.224	244.327	-0.148	-0.243
-122.210	-74.593	-0.039	0.014
-121.195	-82.000	0.299	0.095
