DTS Sentinel unit serial number:	SN413079Multiplexer serial number:	ORYXHardware model number:	OX4-SRSoftware version number:	ORYX F/W v4.00 Oryx Data Collector v3.7.2.0data status	okinstallation	princeton_trtdifferential loss correction	single-endedforward channel	channel 3reverse channel	N/Adate	2019/09/14time	08:28:34forward acquisition time	60.00reverse acquisition time	0.00gamma	496.2192k internal	0.2328k external	0.2328temperature offset calibration	1.0055default loss term (dB/km)	0.3790temperature slope calibration	1.0000multiplexer offset coefficient	1.0000multiplexer slope coefficient	1.0000fibre end	0.00T internal ref (°C)	28.34T ext. ref 1 (°C)	3.63T ext. ref 2 (°C)	25.88length (m)	temperature (°C)	Stokes	anti-Stokes-747.200	-24.983	-0.447	-0.267
-746.185	565.843	0.107	0.261
-745.171	-41.313	0.423	0.220
-744.156	-200.000	0.007	0.112
-743.142	-121.747	0.283	-0.047
-742.127	111.948	0.041	0.050
-741.112	-98.472	-0.189	0.049
-740.098	-200.000	-0.354	0.000
-739.083	-119.172	0.302	0.053
-738.069	-57.630	0.233	0.103
-737.054	-17.655	-0.217	0.137
-736.039	134.754	0.142	0.186
-735.025	194.932	-0.161	0.246
-734.010	-163.896	-0.054	-0.003
-732.996	-200.000	0.060	-0.271
-731.981	-200.000	-0.003	-0.305
-730.966	-102.448	0.130	0.031
-729.952	-136.861	-0.149	-0.017
-728.937	19.556	-0.105	-0.085
-727.923	169.358	-0.249	0.359
-726.908	243.872	0.100	-0.168
-725.894	800.000	-0.054	0.202
-724.879	329.625	-0.046	0.090
-723.864	-169.114	-0.352	0.013
-722.850	-200.000	-0.002	-0.033
-721.835	-95.595	-0.287	-0.077
-720.821	468.676	-0.055	-0.124
-719.806	425.106	-0.232	0.503
-718.791	-24.810	-0.240	-0.143
-717.777	800.000	0.029	0.100
-716.762	449.800	0.047	0.104
-715.748	-200.000	-0.013	0.100
-714.733	-141.068	0.072	0.007
-713.718	256.299	-0.126	0.217
-712.704	529.099	0.153	-0.363
-711.689	-32.137	-0.200	-0.112
-710.675	225.775	0.137	0.223
-709.660	61.706	-0.117	0.117
-708.645	-98.986	-0.319	0.082
-707.631	132.238	0.118	-0.153
-706.616	-200.000	-0.019	-0.137
-705.602	-100.197	-0.392	0.098
-704.587	125.674	-0.140	0.178
-703.572	-33.467	0.054	0.030
-702.558	-41.686	-0.119	-0.062
-701.543	-95.786	-0.231	-0.062
-700.529	-70.037	-0.573	0.219
-699.514	347.115	0.076	-0.151
-698.499	-138.251	0.211	-0.023
-697.485	-15.740	-0.286	-0.183
-696.470	281.031	0.079	-0.142
-695.456	51.140	-0.159	-0.152
-694.441	-102.350	-0.291	-0.070
-693.426	-37.847	0.176	-0.094
-692.412	9.633	-0.061	0.046
-691.397	135.508	-0.235	0.308
-690.383	-200.000	-0.002	0.074
-689.368	-200.000	-0.012	-0.061
-688.354	-200.000	0.060	0.390
-687.339	115.887	0.130	-0.160
-686.324	-114.603	-0.270	-0.052
-685.310	-102.812	-0.168	-0.040
-684.295	-130.178	-0.208	-0.028
-683.281	234.416	0.106	-0.176
-682.266	-50.074	-0.394	-0.188
-681.251	99.036	-0.172	0.199
-680.237	33.545	0.153	-0.134
-679.222	800.000	-0.022	0.081
-678.208	-200.000	-0.031	-0.260
-677.193	-6.525	-0.111	0.076
-676.178	-97.120	0.410	0.108
-675.164	55.077	0.142	0.138
-674.149	800.000	-0.074	0.213
-673.135	-143.876	0.191	-0.018
-672.120	-200.000	0.002	-0.069
-671.105	800.000	0.068	-0.202
-670.091	66.620	-0.282	-0.288
-669.076	-30.816	0.217	-0.124
-668.062	51.669	-0.134	-0.128
-667.047	110.496	-0.272	0.329
-666.032	800.000	-0.064	-0.196
-665.018	-67.293	-0.326	0.129
-664.003	-38.571	0.169	0.090
-662.989	800.000	0.048	-0.143
-661.974	419.074	0.175	-0.376
-660.959	-146.752	-0.039	0.003
-659.945	-95.548	-0.161	0.043
-658.930	-70.597	-0.149	0.057
-657.916	13.791	-0.133	0.104
-656.901	-134.450	0.222	-0.027
-655.886	-115.590	-0.050	-0.009
-654.872	-200.000	-0.006	-0.246
-653.857	508.776	0.037	-0.087
-652.843	800.000	-0.098	0.281
-651.828	-25.390	-0.282	-0.167
-650.814	-200.000	0.021	-0.118
-649.799	-96.316	-0.152	-0.040
-648.784	800.000	-0.050	0.149
-647.770	-159.483	0.207	-0.012
-646.755	-160.454	-0.104	0.006
-645.741	144.655	-0.054	0.072
-644.726	-163.380	-0.136	0.007
-643.711	-69.575	0.191	-0.073
-642.697	-108.575	0.239	-0.051
-641.682	33.582	0.204	-0.178
-640.668	84.036	-0.192	-0.211
-639.653	-84.192	-0.203	-0.065
-638.638	-1.663	-0.104	-0.073
-637.624	451.725	0.039	-0.086
-636.609	139.420	0.211	-0.278
-635.595	-200.000	0.065	-0.413
-634.580	17.336	0.157	0.125
-633.565	503.374	-0.118	-0.274
-632.551	94.900	0.155	0.177
-631.536	47.020	-0.072	-0.067
-630.522	386.306	0.048	-0.099
-629.507	800.000	-0.001	-0.003
-628.492	-99.662	-0.115	-0.029
-627.478	-159.666	0.176	0.010
-626.463	-38.555	-0.067	0.036
-625.449	129.314	0.349	-0.447
-624.434	215.862	-0.059	0.095
-623.419	147.067	0.047	0.063
-622.405	382.963	0.054	-0.112
-621.390	136.476	-0.081	0.105
-620.376	59.338	-0.092	0.091
-619.361	480.364	-0.047	0.107
-618.346	-38.476	0.402	0.213
-617.332	71.564	0.176	0.183
-616.317	-58.797	-0.280	0.122
-615.303	30.440	-0.192	0.165
-614.288	460.915	-0.094	0.209
-613.273	-137.792	0.232	0.026
-612.259	86.968	0.048	-0.053
-611.244	-200.000	-0.075	0.341
-610.230	314.513	0.089	0.168
-609.215	535.790	0.070	-0.166
-608.201	-52.514	0.227	-0.105
-607.186	-131.134	0.074	0.010
-606.171	-87.470	0.083	0.025
-605.157	-200.000	-0.020	0.171
-604.142	111.114	-0.300	-0.362
-603.128	-200.000	-0.020	0.252
-602.113	-200.000	-0.031	-0.259
-601.098	-200.000	-0.038	0.265
-600.084	-99.808	0.284	-0.071
-599.069	-200.000	0.009	0.120
-598.055	60.061	0.102	0.101
-597.040	84.730	0.173	0.190
-596.025	180.576	-0.069	0.102
-595.011	-200.000	0.013	-0.105
-593.996	-83.710	-0.120	-0.038
-592.982	199.486	-0.277	-0.426
-591.967	622.807	0.053	-0.135
-590.952	309.453	0.062	-0.116
-589.938	-121.103	-0.221	0.037
-588.923	-14.841	0.115	0.074
-587.909	63.488	0.128	0.129
-586.894	16.771	-0.039	-0.031
-585.879	-158.163	0.174	0.010
-584.865	131.213	0.142	-0.183
-583.850	-200.000	0.021	-0.289
-582.836	800.000	-0.087	0.286
-581.821	-148.804	-0.100	0.008
-580.806	-200.000	0.015	-0.133
-579.792	-14.671	0.084	0.054
-578.777	-163.632	0.308	-0.015
-577.763	-61.266	0.086	0.036
-576.748	800.000	-0.034	-0.114
-575.733	800.000	-0.141	0.444
-574.719	-200.000	-0.035	0.602
-573.704	220.307	0.161	0.258
-572.690	79.363	0.118	-0.127
-571.675	-59.894	-0.126	0.054
-570.661	97.225	-0.056	-0.064
-569.646	800.000	-0.094	-0.350
-568.631	8.898	0.054	-0.041
-567.617	-183.864	-0.194	-0.003
-566.602	-121.540	0.294	0.049
-565.588	14.491	-0.268	-0.210
-564.573	-200.000	-0.003	0.052
-563.558	1.868	-0.192	0.138
-562.544	-200.000	-0.014	-0.159
-561.529	-41.385	0.193	-0.099
-560.515	-200.000	-0.044	-0.243
-559.500	-73.153	0.155	-0.057
-558.485	-112.871	-0.217	0.043
-557.471	-25.139	0.156	-0.092
-556.456	-147.062	-0.559	0.048
-555.442	-14.092	-0.059	0.038
-554.427	78.937	0.177	0.189
-553.412	65.670	-0.129	0.131
-552.398	303.613	-0.174	0.323
-551.383	73.083	0.188	-0.197
-550.369	-114.430	-0.230	-0.044
-549.354	-200.000	0.014	-0.080
-548.339	191.746	-0.074	0.112
-547.325	16.707	0.271	0.215
-546.310	7.131	-0.162	-0.121
-545.296	67.426	-0.128	-0.131
-544.281	61.789	-0.148	-0.147
-543.266	59.901	0.182	-0.180
-542.252	224.976	0.090	-0.146
-541.237	-35.252	0.185	-0.100
-540.223	523.815	-0.050	-0.118
-539.208	53.866	-0.066	0.063
-538.193	-200.000	0.064	0.415
-537.179	30.106	-0.266	-0.227
-536.164	-68.418	-0.222	0.086
-535.150	283.162	-0.158	0.283
-534.135	800.000	0.067	-0.190
-533.121	304.492	-0.019	0.036
-532.106	800.000	-0.079	0.278
-531.091	-49.336	0.297	-0.142
-530.077	-200.000	-0.030	-0.168
-529.062	-44.133	0.415	-0.208
-528.048	-200.000	0.057	-0.358
-527.033	-124.654	0.339	0.052
-526.018	-73.035	0.163	0.060
-525.004	19.588	0.137	0.110
-523.989	-59.549	0.406	-0.174
-522.975	672.632	-0.094	0.244
-521.960	-129.570	-0.383	-0.053
-520.945	9.065	-0.174	0.131
-519.931	142.980	0.233	0.309
-518.916	164.403	-0.175	0.247
-517.902	-130.860	0.148	0.020
-516.887	-200.000	0.017	0.323
-515.872	800.000	0.103	-0.369
-514.858	-117.764	-0.506	-0.091
-513.843	94.542	0.231	0.262
-512.829	140.680	0.159	0.210
-511.814	-1.856	0.079	0.056
-510.799	-55.694	0.110	-0.049
-509.785	-200.000	0.001	-0.132
-508.770	-57.581	0.442	0.194
-507.756	260.881	-0.025	0.044
-506.741	-78.717	-0.151	-0.052
-505.726	-132.271	-0.294	-0.038
-504.712	199.676	0.128	-0.196
-503.697	-146.000	0.153	0.013
-502.683	-151.985	0.200	-0.015
-501.668	-42.987	-0.098	0.050
-500.653	-72.621	-0.420	-0.155
-499.639	800.000	-0.095	-0.285
-498.624	800.000	-0.058	-0.232
-497.610	800.000	0.037	0.102
-496.595	-200.000	-0.014	0.097
-495.581	240.083	-0.145	-0.242
-494.566	-200.000	0.008	-0.232
-493.551	800.000	0.178	-0.573
-492.537	254.320	0.111	-0.189
-491.522	-175.324	-0.108	0.003
-490.508	-187.473	-0.243	0.003
-489.493	800.000	-0.095	0.281
-488.478	-137.942	-0.248	-0.028
-487.464	70.806	-0.210	0.217
-486.449	-200.000	0.010	0.053
-485.435	-57.712	-0.102	-0.045
-484.420	60.853	0.159	-0.157
-483.405	-155.014	0.211	-0.014
-482.391	-99.933	0.130	0.032
-481.376	-200.000	-0.011	0.071
-480.362	62.175	0.220	-0.219
-479.347	-104.832	0.219	0.050
-478.332	-150.832	0.269	-0.020
-477.318	-197.600	0.167	0.001
-476.303	-90.147	0.124	-0.036
-475.289	-65.565	0.171	-0.069
-474.274	-177.417	0.278	0.007
-473.259	-70.331	-0.230	-0.087
-472.245	800.000	-0.045	0.196
-471.230	-200.000	-0.051	-0.245
-470.216	-56.608	-0.394	-0.174
-469.201	178.642	-0.013	-0.019
-468.186	800.000	-0.010	0.033
-467.172	733.054	0.119	-0.319
-466.157	-103.598	0.243	-0.057
-465.143	51.613	-0.273	-0.258
-464.128	-138.633	0.305	0.033
-463.113	-200.000	-0.044	0.277
-462.099	27.739	-0.235	0.197
-461.084	-133.031	0.219	-0.028
-460.070	-45.592	0.197	0.097
-459.055	24.541	0.319	0.263
-458.040	-200.000	-0.003	-0.103
-457.026	-168.633	0.263	-0.010
-456.011	-200.000	0.015	-0.234
-454.997	-175.339	-0.044	-0.001
-453.982	-96.534	0.155	-0.041
-452.968	-13.071	0.123	-0.080
-451.953	212.268	-0.147	0.230
-450.938	-200.000	0.001	-0.039
-449.924	-153.754	-0.302	-0.021
-448.909	364.456	-0.085	-0.171
-447.895	800.000	-0.127	-0.351
-446.880	-87.316	-0.259	-0.078
-445.865	-16.473	0.240	0.152
-444.851	-200.000	-0.028	-0.134
-443.836	-83.738	-0.159	-0.050
-442.822	-12.280	0.021	0.014
-441.807	-64.129	0.234	-0.095
-440.792	-138.664	-0.706	0.077
-439.778	800.000	-0.038	0.158
-438.763	-0.209	-0.138	0.098
-437.749	800.000	-0.029	0.115
-436.734	-124.968	-0.165	0.025
-435.719	800.000	0.085	-0.265
-434.705	-200.000	-0.009	0.219
-433.690	587.973	0.021	-0.051
-432.676	299.554	-0.087	-0.160
-431.661	-93.674	0.045	-0.012
-430.646	-89.734	0.073	0.021
-429.632	-53.315	0.137	-0.062
-428.617	295.732	-0.179	-0.326
-427.603	-191.891	0.288	0.003
-426.588	225.277	0.050	0.080
-425.573	-200.000	0.008	0.193
-424.559	49.871	-0.143	-0.134
-423.544	-60.234	0.212	0.090
-422.530	-10.929	0.190	0.125
-421.515	-48.868	-0.192	-0.091
-420.500	-200.000	-0.053	0.265
-419.486	-116.638	-0.052	-0.010
-418.471	-74.233	-0.134	-0.048
-417.457	-136.132	0.210	-0.024
-416.442	-45.070	0.154	-0.076
-415.428	-200.000	-0.012	0.177
-414.413	-44.104	0.072	-0.036
-413.398	-200.000	-0.035	0.549
-412.384	-191.745	0.195	0.002
-411.369	-200.000	0.199	-0.000
-410.355	-200.000	-0.028	-0.130
-409.340	50.317	-0.228	0.214
-408.325	241.452	0.044	0.073
-407.311	-200.000	0.064	-0.292
-406.296	-45.040	0.315	0.156
-405.282	-35.928	-0.104	0.056
-404.267	-139.367	-0.449	0.048
-403.252	800.000	-0.042	-0.154
-402.238	-16.329	-0.095	0.060
-401.223	-98.348	0.144	0.037
-400.209	-200.000	-0.021	-0.122
-399.194	-156.374	-0.131	0.008
-398.179	-96.228	-0.128	-0.034
-397.165	800.000	0.050	-0.152
-396.150	-66.250	0.296	-0.117
-395.136	112.165	-0.140	-0.169
-394.121	441.271	0.146	-0.317
-393.106	102.014	-0.311	-0.360
-392.092	-174.324	-0.274	-0.008
-391.077	-166.945	0.244	-0.010
-390.063	57.947	0.261	-0.253
-389.048	-125.213	-0.292	-0.044
-388.033	399.626	-0.074	-0.155
-387.019	800.000	-0.041	-0.169
-386.004	-157.073	-0.343	-0.021
-384.990	-200.000	0.042	-0.264
-383.975	-70.919	0.247	-0.092
-382.960	307.351	0.031	-0.058
-381.946	-51.932	-0.178	-0.082
-380.931	-108.769	-0.182	0.039
-379.917	6.057	0.106	-0.078
-378.902	-200.000	0.029	0.282
-377.888	-13.993	-0.052	-0.033
-376.873	94.682	0.214	-0.241
-375.858	-196.533	0.134	-0.001
-374.844	276.149	-0.126	0.222
-373.829	-200.000	0.024	-0.174
-372.815	377.075	-0.083	0.168
-371.800	272.452	-0.068	0.119
-370.785	-68.178	-0.229	0.088
-369.771	800.000	-0.065	0.243
-368.756	800.000	0.038	0.136
-367.742	291.608	-0.108	0.195
-366.727	-200.000	0.002	-0.063
-365.712	-200.000	-0.074	-0.377
-364.698	-40.433	0.254	0.131
-363.683	-108.405	-0.350	-0.075
-362.669	292.537	0.118	-0.214
-361.654	-7.833	0.187	0.125
-360.639	-114.549	-0.300	0.057
-359.625	800.000	-0.031	-0.130
-358.610	-152.383	0.262	-0.019
-357.596	32.759	0.042	-0.036
-356.581	-38.201	-0.148	0.078
-355.566	-106.556	-0.132	0.029
-354.552	-125.191	0.107	-0.016
-353.537	-14.597	0.118	0.075
-352.523	-200.000	0.049	0.246
-351.508	-179.557	-0.124	-0.003
-350.493	-200.000	-0.003	-0.200
-349.479	10.239	0.119	-0.090
-348.464	5.647	-0.183	-0.134
-347.450	-154.457	0.377	0.025
-346.435	45.351	0.158	-0.145
-345.420	-200.000	-0.020	-0.280
-344.406	-183.951	0.070	0.001
-343.391	-182.069	-0.397	-0.007
-342.377	30.971	0.127	-0.108
-341.362	317.792	0.041	-0.078
-340.348	-7.158	-0.423	0.285
-339.333	-41.441	-0.140	-0.071
-338.318	800.000	0.142	-0.459
-337.304	-76.866	-0.086	0.030
-336.289	184.041	0.042	0.061
-335.275	-200.000	-0.044	0.457
-334.260	1.221	-0.166	-0.118
-333.245	-94.747	-0.173	0.047
-332.231	104.323	0.178	0.208
-331.216	437.034	-0.040	0.087
-330.202	-80.519	-0.123	-0.041
-329.187	-200.000	0.000	0.143
-328.172	-44.008	-0.234	0.117
-327.158	-21.278	0.235	-0.143
-326.143	-85.796	0.036	0.011
-325.129	800.000	-0.096	0.391
-324.114	-80.040	-0.050	0.017
-323.099	-200.000	0.018	-0.093
-322.085	36.594	0.207	0.181
-321.070	124.555	0.138	0.172
-320.056	70.684	0.054	0.055
-319.041	221.464	-0.205	0.326
-318.026	-3.477	-0.221	-0.153
-317.012	96.257	-0.130	-0.147
-315.997	689.102	-0.107	0.278
-314.983	49.168	-0.163	0.151
-313.968	-162.533	0.088	-0.004
-312.953	-200.000	-0.025	0.295
-311.939	-8.759	-0.079	-0.052
-310.924	-103.919	0.128	-0.030
-309.910	775.275	0.114	-0.309
-308.895	-200.000	-0.001	-0.168
-307.880	-200.000	-0.053	-0.302
-306.866	126.555	-0.142	0.178
-305.851	21.776	0.148	-0.119
-304.837	700.964	0.090	0.236
-303.822	-153.239	0.195	0.013
-302.807	42.273	-0.094	-0.084
-301.793	-129.942	0.182	0.025
-300.778	46.981	0.247	-0.228
-299.764	277.444	0.038	-0.067
-298.749	-35.570	0.086	-0.046
-297.735	-95.008	-0.235	-0.063
-296.720	49.702	-0.242	0.226
-295.705	-200.000	-0.035	0.214
-294.691	-200.000	0.016	-0.204
-293.676	59.347	0.143	0.139
-292.662	-76.100	-0.204	0.071
-291.647	-72.461	0.076	0.028
-290.632	-200.000	-0.039	-0.400
-289.618	-200.000	-0.003	-0.304
-288.603	-200.000	0.024	0.132
-287.589	-145.429	-0.455	-0.041
-286.574	800.000	-0.097	0.275
-285.559	800.000	-0.059	0.202
-284.545	-45.171	0.188	-0.092
-283.530	800.000	-0.089	-0.304
-282.516	-5.022	0.163	0.111
-281.501	24.678	-0.032	0.026
-280.486	-200.000	0.010	-0.048
-279.472	-200.000	0.024	0.320
-278.457	694.280	0.061	0.157
-277.443	-98.099	0.079	-0.020
-276.428	7.503	-0.143	0.106
-275.413	-57.247	0.010	0.004
-274.399	11.138	-0.032	0.024
-273.384	595.478	-0.096	-0.234
-272.370	218.244	0.092	0.145
-271.355	-122.403	-0.299	0.048
-270.340	724.569	0.218	0.573
-269.326	797.599	-0.075	0.203
-268.311	154.681	0.144	-0.196
-267.297	-200.000	0.044	0.414
-266.282	-136.386	0.309	-0.036
-265.267	96.302	-0.089	-0.101
-264.253	242.701	0.058	0.097
-263.238	-200.000	0.031	0.239
-262.224	-117.643	0.216	-0.038
-261.209	-200.000	0.006	-0.155
-260.195	225.750	0.258	0.413
-259.180	-69.455	-0.239	0.091
-258.165	2.918	-0.151	-0.108
-257.151	-73.575	-0.162	-0.058
-256.136	-200.000	-0.005	0.076
-255.122	-200.000	-0.023	-0.116
-254.107	-14.946	-0.217	0.137
-253.092	-168.232	-0.050	0.002
-252.078	-46.050	-0.209	-0.102
-251.063	158.711	-0.028	0.038
-250.049	-159.542	0.413	-0.023
-249.034	800.000	0.093	-0.256
-248.019	519.925	0.119	0.276
-247.005	27.019	-0.122	-0.101
-245.990	-200.000	-0.013	-0.097
-244.976	-200.000	0.049	0.340
-243.961	96.245	-0.250	-0.282
-242.946	-43.082	0.177	0.089
-241.932	-144.853	-0.239	0.022
-240.917	800.000	-0.079	0.231
-239.903	534.808	0.111	-0.259
-238.888	-132.337	-0.265	0.034
-237.873	-104.487	0.247	-0.057
-236.859	787.436	-0.104	0.282
-235.844	800.000	0.060	-0.221
-234.830	-159.010	-0.202	-0.011
-233.815	-200.000	0.026	0.278
-232.800	-200.000	0.011	-0.340
-231.786	129.466	0.180	0.227
-230.771	64.972	-0.204	0.203
-229.757	196.352	-0.061	-0.092
-228.742	200.328	0.211	0.319
-227.727	-200.000	0.091	0.427
-226.713	-200.000	-0.014	-0.252
-225.698	-143.862	-0.205	-0.019
-224.684	26.379	0.142	0.118
-223.669	-87.766	-0.422	-0.126
-222.655	-200.000	-0.019	-0.095
-221.640	265.658	-0.194	-0.334
-220.625	44.569	0.121	-0.110
-219.611	-65.403	0.219	0.087
-218.596	49.813	-0.193	-0.179
-217.582	-161.231	0.309	0.016
-216.567	-132.641	0.078	-0.010
-215.552	-161.450	0.123	-0.006
-214.538	-200.000	0.027	0.234
-213.523	-200.000	-0.060	0.480
-212.509	47.070	-0.211	-0.194
-211.494	-200.000	-0.036	-0.259
-210.479	-112.658	-0.124	0.024
-209.465	101.579	0.288	0.331
-208.450	-38.895	-0.283	-0.147
-207.436	607.756	0.091	-0.224
-206.421	-200.000	-0.011	-0.370
-205.406	502.707	0.076	-0.174
-204.392	136.610	0.106	0.137
-203.377	562.617	-0.109	-0.260
-202.363	449.501	0.029	0.064
-201.348	-3.025	-0.170	0.117
-200.333	-24.248	0.357	-0.210
-199.319	1.691	0.164	-0.117
-198.304	-143.683	0.217	-0.020
-197.290	800.000	0.011	-0.046
-196.275	158.926	0.148	0.203
-195.260	-62.338	-0.104	0.043
-194.246	181.174	0.173	0.250
-193.231	8.803	-0.362	-0.269
-192.217	-144.733	-0.209	0.019
-191.202	219.113	-0.032	0.050
-190.187	-86.217	0.250	-0.076
-189.173	374.810	-0.108	-0.218
-188.158	117.758	-0.063	0.077
-187.144	-18.876	-0.120	-0.074
-186.129	-146.472	-0.509	0.044
-185.114	109.686	0.187	-0.221
-184.100	-155.282	-0.208	-0.013
-183.085	-200.000	0.029	0.165
-182.071	-158.419	-0.161	0.009
-181.056	-52.407	-0.080	0.037
-180.042	735.618	0.087	-0.230
-179.027	-200.000	-0.052	0.254
-178.012	73.286	-0.066	-0.068
-176.998	-101.786	-0.077	0.018
-175.983	-53.873	0.364	-0.164
-174.969	-200.000	-0.024	0.137
-173.954	-89.569	0.170	0.049
-172.939	19.357	0.082	0.065
-171.925	-5.846	-0.136	0.092
-170.910	134.823	0.239	-0.305
-169.896	-87.270	0.152	0.045
-168.881	-200.000	0.029	0.231
-167.866	147.981	-0.077	-0.103
-166.852	626.083	-0.119	-0.295
-165.837	-200.000	0.032	0.313
-164.823	66.514	0.038	-0.038
-163.808	-183.397	-0.181	0.003
-162.793	-200.000	-0.083	0.409
-161.779	-155.823	0.007	0.000
-160.764	-149.292	0.206	-0.016
-159.750	-69.506	-0.091	0.034
-158.735	117.567	-0.171	-0.208
-157.720	241.616	0.142	0.234
-156.706	-120.270	0.161	-0.027
-155.691	658.706	0.030	0.077
-154.677	-200.000	0.002	0.603
-153.662	-200.000	-0.017	0.242
-152.647	800.000	0.054	0.188
-151.633	696.965	0.039	0.101
-150.618	-143.551	-0.177	-0.017
-149.604	-152.378	0.184	-0.013
-148.589	88.430	0.230	0.252
-147.574	-89.799	0.353	-0.102
-146.560	-90.246	-0.248	0.071
-145.545	-175.160	0.229	-0.006
-144.531	-200.000	0.081	-0.418
-143.516	259.177	0.191	0.324
-142.502	94.224	0.277	0.310
-141.487	-200.000	0.042	0.289
-140.472	-107.680	-0.227	0.049
-139.458	-9.618	-0.299	0.196
-138.443	-74.647	0.208	0.074
-137.429	93.325	0.100	-0.112
-136.414	248.543	-0.143	-0.237
-135.399	-49.089	-0.177	0.083
-134.385	-31.231	0.189	-0.105
-133.370	-68.593	0.016	0.006
-132.356	-67.998	0.089	0.034
-131.341	82.957	0.185	-0.198
-130.326	-124.442	0.230	-0.035
-129.312	-126.273	0.203	0.030
-128.297	242.491	-0.084	-0.139
-127.283	-75.016	-0.260	0.091
-126.268	381.117	0.123	0.248
-125.253	550.802	0.123	0.291
-124.239	-200.000	-0.073	-0.461
-123.224	-200.000	-0.048	-0.239
