DTS Sentinel unit serial number:	SN413079Multiplexer serial number:	ORYXHardware model number:	OX4-SRSoftware version number:	ORYX F/W v4.00 Oryx Data Collector v3.7.2.0data status	okinstallation	princeton_trtdifferential loss correction	single-endedforward channel	channel 3reverse channel	N/Adate	2019/09/18time	13:36:35forward acquisition time	60.00reverse acquisition time	0.00gamma	496.2192k internal	0.2311k external	0.2311temperature offset calibration	0.9971default loss term (dB/km)	0.3790temperature slope calibration	1.0000multiplexer offset coefficient	1.0000multiplexer slope coefficient	1.0000fibre end	0.00T internal ref (°C)	34.37T ext. ref 1 (°C)	0.63T ext. ref 2 (°C)	30.49length (m)	temperature (°C)	Stokes	anti-Stokes-747.200	-85.312	0.319	-0.101
-746.185	-200.000	0.020	0.178
-745.171	-69.300	-0.191	-0.074
-744.156	434.047	-0.126	0.279
-743.142	-200.000	0.009	0.075
-742.127	-62.774	-0.090	-0.038
-741.112	-200.000	-0.327	0.000
-740.098	800.000	-0.142	0.430
-739.083	-136.993	0.344	0.040
-738.069	89.230	-0.295	0.334
-737.054	27.215	-0.054	0.046
-736.039	-90.362	-0.124	-0.036
-735.025	-200.000	0.022	0.322
-734.010	-124.094	0.331	0.053
-732.996	-200.000	-0.014	-0.089
-731.981	-25.619	-0.298	0.178
-730.966	-86.760	0.170	0.053
-729.952	-200.000	-0.032	-0.160
-728.937	-156.047	-0.123	-0.008
-727.923	-124.941	-0.360	0.056
-726.908	-200.000	0.023	0.142
-725.894	-25.428	-0.173	0.104
-724.879	310.077	-0.046	0.087
-723.864	-157.583	0.263	-0.016
-722.850	67.106	-0.290	0.300
-721.835	-200.000	-0.003	-0.290
-720.821	-200.000	-0.028	-0.426
-719.806	500.487	-0.162	-0.380
-718.791	-151.172	-0.127	-0.010
-717.777	-200.000	0.034	-0.311
-716.762	-155.403	0.117	0.008
-715.748	80.432	-0.223	-0.243
-714.733	456.738	0.075	0.169
-713.718	-200.000	0.241	0.000
-712.704	123.609	-0.072	-0.091
-711.689	-45.554	-0.023	0.012
-710.675	-58.752	0.098	0.043
-709.660	-82.257	0.312	-0.103
-708.645	-200.000	-0.011	0.206
-707.631	-100.281	0.304	-0.077
-706.616	-14.275	0.222	-0.145
-705.602	-109.876	0.148	0.032
-704.587	-24.955	0.095	0.057
-703.572	136.695	-0.111	0.147
-702.558	92.455	-0.184	-0.211
-701.543	133.786	-0.074	0.098
-700.529	-26.006	-0.153	-0.091
-699.514	9.099	0.292	0.223
-698.499	-200.000	-0.039	0.182
-697.485	584.327	-0.051	-0.128
-696.470	800.000	-0.045	0.187
-695.456	-101.171	0.095	0.024
-694.441	-106.604	0.083	-0.019
-693.426	236.360	-0.112	-0.188
-692.412	85.132	0.118	0.131
-691.397	352.985	0.113	-0.226
-690.383	-114.628	0.126	0.024
-689.368	-22.923	-0.225	0.138
-688.354	105.171	-0.089	0.106
-687.339	-78.675	-0.297	0.103
-686.324	-135.369	-0.206	0.025
-685.310	164.483	-0.034	0.049
-684.295	-187.244	0.041	0.001
-683.281	95.597	-0.158	-0.182
-682.266	91.302	0.190	0.216
-681.251	-200.000	0.072	-0.323
-680.237	-153.983	0.205	-0.014
-679.222	186.954	0.222	-0.335
-678.208	570.298	-0.110	-0.271
-677.193	-90.833	-0.288	-0.084
-676.178	-36.309	-0.362	0.198
-675.164	-46.558	-0.331	0.164
-674.149	739.744	0.036	-0.099
-673.135	-200.000	-0.001	0.034
-672.120	296.600	-0.127	0.236
-671.105	-200.000	-0.003	0.216
-670.091	-109.064	-0.150	-0.032
-669.076	-22.983	-0.110	-0.067
-668.062	-22.336	-0.040	-0.025
-667.047	-36.327	0.260	0.142
-666.032	414.996	0.076	-0.163
-665.018	-91.791	0.243	-0.070
-664.003	185.286	0.047	0.071
-662.989	109.280	-0.273	-0.331
-661.974	-200.000	0.033	-0.259
-660.959	-108.659	0.232	-0.050
-659.945	101.241	-0.050	-0.059
-658.930	-119.758	0.144	0.025
-657.916	-91.018	0.172	0.050
-656.901	-200.000	0.018	-0.224
-655.886	-45.382	0.287	-0.144
-654.872	-74.312	-0.388	-0.142
-653.857	148.848	-0.060	0.082
-652.843	49.740	-0.241	0.230
-651.828	-2.009	0.199	-0.141
-650.814	-115.396	-0.062	-0.012
-649.799	55.724	-0.314	0.308
-648.784	-168.763	0.173	-0.007
-647.770	-23.358	-0.422	-0.256
-646.755	800.000	-0.087	-0.292
-645.741	800.000	0.066	0.194
-644.726	245.584	0.128	-0.218
-643.711	454.072	0.242	0.543
-642.697	194.437	0.028	0.043
-641.682	159.114	-0.086	-0.120
-640.668	217.709	-0.037	0.060
-639.653	-128.600	-0.179	-0.026
-638.638	-200.000	0.061	0.292
-637.624	-200.000	0.050	0.541
-636.609	734.272	-0.059	0.160
-635.595	-72.789	0.125	0.046
-634.580	-34.775	-0.097	0.054
-633.565	-200.000	-0.008	0.241
-632.551	292.506	-0.089	-0.164
-631.536	41.242	0.155	-0.142
-630.522	800.000	0.046	-0.149
-629.507	-200.000	0.025	0.223
-628.492	-200.000	-0.016	0.152
-627.478	-113.279	-0.245	-0.049
-626.463	-150.814	-0.342	-0.026
-625.449	-5.393	0.272	-0.189
-624.434	-64.028	0.198	0.082
-623.419	-200.000	0.065	0.352
-622.405	800.000	0.114	-0.325
-621.390	149.915	-0.133	0.183
-620.376	-131.766	0.455	-0.060
-619.361	-117.235	0.128	0.023
-618.346	-64.649	0.219	0.090
-617.332	9.148	-0.087	-0.066
-616.317	691.754	0.062	-0.164
-615.303	-173.268	0.274	0.008
-614.288	395.747	-0.136	-0.286
-613.273	-105.171	0.151	0.035
-612.259	-95.300	0.285	-0.077
-611.244	-99.282	0.350	0.089
-610.230	35.330	-0.323	-0.286
-609.215	800.000	0.037	-0.134
-608.201	100.035	0.034	0.040
-607.186	-127.487	0.150	-0.022
-606.171	290.253	-0.066	0.122
-605.157	-71.260	-0.310	0.117
-604.142	-200.000	0.027	-0.213
-603.128	648.571	-0.155	-0.399
-602.113	-200.000	-0.015	0.163
-601.098	-12.710	0.275	0.181
-600.084	399.695	0.072	0.153
-599.069	-103.447	-0.167	-0.040
-598.055	-133.191	-0.580	-0.074
-597.040	-53.174	-0.194	-0.090
-596.025	-90.551	0.036	0.010
-595.011	-188.832	-0.172	-0.002
-593.996	212.228	-0.135	0.214
-592.982	36.187	-0.120	-0.107
-591.967	427.393	0.060	-0.130
-590.952	525.328	0.092	0.218
-589.938	137.116	-0.067	0.088
-588.923	716.687	-0.075	-0.201
-587.909	113.503	-0.112	0.137
-586.894	9.578	0.241	0.184
-585.879	-142.579	-0.091	0.009
-584.865	-200.000	-0.005	-0.149
-583.850	-104.772	-0.096	0.022
-582.836	521.171	-0.179	-0.425
-581.821	-34.445	-0.472	-0.261
-580.806	-95.611	0.263	0.071
-579.792	-85.126	0.224	0.071
-578.777	-122.653	-0.034	-0.006
-577.763	6.978	0.075	0.057
-576.748	52.503	0.261	-0.252
-575.733	14.766	0.025	0.019
-574.719	719.874	0.085	-0.227
-573.704	295.362	-0.109	-0.200
-572.690	13.215	-0.233	0.182
-571.675	-200.000	-0.057	0.552
-570.661	-22.779	0.027	-0.016
-569.646	357.725	0.141	0.283
-568.631	-200.000	0.014	-0.196
-567.617	296.366	-0.210	0.388
-566.602	714.817	0.079	-0.210
-565.588	-33.347	-0.202	-0.113
-564.573	-106.474	-0.420	0.094
-563.558	-35.817	0.293	-0.160
-562.544	-169.277	-0.275	0.010
-561.529	800.000	0.039	-0.115
-560.515	-25.002	-0.198	0.118
-559.500	111.888	0.198	-0.241
-558.485	-73.566	-0.298	-0.110
-557.471	-120.226	-0.090	0.016
-556.456	503.894	0.154	-0.359
-555.442	28.753	-0.147	-0.125
-554.427	685.349	-0.028	-0.075
-553.412	-81.894	-0.167	-0.055
-552.398	800.000	-0.039	0.109
-551.383	-96.653	-0.264	0.070
-550.369	-22.600	0.151	-0.092
-549.354	-200.000	0.019	-0.281
-548.339	84.122	-0.144	-0.158
-547.325	-99.218	0.199	0.051
-546.310	91.478	-0.077	0.087
-545.296	-7.001	0.168	-0.115
-544.281	101.330	-0.230	-0.270
-543.266	800.000	0.066	-0.195
-542.252	16.478	0.199	-0.159
-541.237	253.474	0.083	-0.143
-540.223	191.834	-0.028	0.042
-539.208	-186.330	-0.302	0.004
-538.193	-200.000	0.020	-0.394
-537.179	-200.000	0.034	-0.237
-536.164	-200.000	0.021	-0.130
-535.150	5.173	0.200	0.148
-534.135	-66.751	-0.133	0.053
-533.121	-200.000	0.005	0.100
-532.106	-68.737	-0.316	0.123
-531.091	79.268	-0.069	-0.075
-530.077	-160.573	-0.243	0.013
-529.062	256.822	-0.173	-0.299
-528.048	-200.000	-0.020	0.165
-527.033	58.449	0.074	-0.073
-526.018	-200.000	-0.001	0.224
-525.004	-67.134	0.239	-0.095
-523.989	-200.000	0.035	-0.282
-522.975	35.829	0.162	0.143
-521.960	162.473	-0.055	0.078
-520.945	-200.000	-0.000	0.007
-519.931	45.755	-0.187	0.174
-518.916	292.151	0.095	-0.174
-517.902	-200.000	0.059	-0.471
-516.887	-200.000	-0.010	-0.195
-515.872	34.623	-0.213	0.187
-514.858	-200.000	0.051	-0.232
-513.843	800.000	0.067	-0.190
-512.829	510.571	0.040	0.094
-511.814	-58.284	0.203	-0.089
-510.799	-100.378	-0.141	0.035
-509.785	-200.000	0.002	-0.174
-508.770	33.684	0.321	-0.281
-507.756	201.672	0.090	-0.139
-506.741	-200.000	-0.018	0.143
-505.726	-113.223	-0.438	0.087
-504.712	130.776	-0.057	0.074
-503.697	476.572	-0.139	0.316
-502.683	-200.000	-0.035	0.217
-501.668	89.139	0.164	-0.184
-500.653	-200.000	-0.046	0.429
-499.639	-97.434	0.069	-0.018
-498.624	-135.001	0.439	-0.053
-497.610	-121.669	0.219	0.037
-496.595	89.625	0.057	0.064
-495.581	-166.190	0.168	-0.007
-494.566	-200.000	-0.007	0.043
-493.551	-133.262	-0.267	-0.034
-492.537	800.000	0.090	-0.273
-491.522	11.856	0.133	0.103
-490.508	-200.000	0.009	-0.194
-489.493	31.015	0.149	-0.129
-488.478	-200.000	0.025	-0.115
-487.464	800.000	0.010	-0.041
-486.449	800.000	-0.057	0.176
-485.435	-115.914	0.236	0.044
-484.420	-132.380	-0.060	-0.008
-483.405	-200.000	-0.037	-0.176
-482.391	615.407	0.087	0.220
-481.376	201.887	0.111	-0.172
-480.362	-12.537	0.295	0.194
-479.347	-165.586	0.150	-0.007
-478.332	-31.749	-0.010	-0.006
-477.318	800.000	-0.081	-0.241
-476.303	19.346	0.106	-0.086
-475.289	-200.000	-0.022	-0.191
-474.274	-84.510	0.138	-0.044
-473.259	86.224	0.106	-0.117
-472.245	-200.000	-0.001	0.095
-471.230	-160.766	0.090	-0.005
-470.216	716.821	0.058	0.154
-469.201	-68.267	0.100	-0.039
-468.186	-200.000	0.010	0.152
-467.172	-144.418	-0.333	-0.031
-466.157	-130.289	0.105	0.014
-465.143	-200.000	0.014	-0.077
-464.128	-73.981	-0.301	-0.110
-463.113	-143.857	-0.325	-0.031
-462.099	48.268	0.241	-0.227
-461.084	288.740	-0.168	-0.306
-460.070	103.996	-0.084	0.099
-459.055	36.563	0.110	0.098
-458.040	568.487	-0.089	-0.217
-457.026	33.350	-0.119	0.104
-456.011	317.883	-0.106	-0.201
-454.997	-71.037	0.126	-0.047
-453.982	-71.748	0.332	-0.124
-452.968	578.394	0.086	0.211
-451.953	-47.628	0.112	0.055
-450.938	155.134	-0.159	0.220
-449.924	800.000	0.097	-0.273
-448.909	-125.276	-0.181	0.028
-447.895	800.000	0.060	0.190
-446.880	-31.969	0.405	0.228
-445.865	-174.125	0.190	0.006
-444.851	8.428	-0.057	0.043
-443.836	-200.000	-0.006	0.097
-442.822	800.000	-0.143	-0.597
-441.807	308.663	0.137	-0.257
-440.792	800.000	-0.025	-0.079
-439.778	-26.973	0.111	0.065
-438.763	800.000	0.053	0.229
-437.749	60.958	-0.189	0.188
-436.734	-200.000	-0.013	0.146
-435.719	543.847	0.168	0.402
-434.705	800.000	0.028	0.089
-433.690	11.521	-0.395	-0.304
-432.676	-200.000	0.002	0.165
-431.661	-128.145	-0.132	-0.019
-430.646	156.026	-0.194	-0.268
-429.632	800.000	0.099	0.320
-428.617	20.547	0.068	0.055
-427.603	-200.000	-0.067	0.381
-426.588	-191.140	0.327	0.003
-425.573	-200.000	-0.006	0.032
-424.559	-99.840	-0.387	-0.097
-423.544	646.224	0.014	0.036
-422.530	-116.924	0.122	0.022
-421.515	800.000	-0.074	0.299
-420.500	-57.064	0.089	0.039
-419.486	400.413	-0.176	-0.370
-418.471	219.106	-0.052	0.083
-417.457	-148.958	0.113	-0.009
-416.442	-80.862	0.395	0.131
-415.428	10.100	-0.209	0.159
-414.413	567.316	0.037	0.090
-413.398	37.188	-0.103	0.091
-412.384	800.000	0.068	0.228
-411.369	-120.082	-0.210	-0.036
-410.355	529.802	-0.111	0.263
-409.340	211.234	0.134	-0.211
-408.325	110.386	0.134	-0.161
-407.311	-42.378	0.016	-0.008
-406.296	-200.000	0.013	0.059
-405.282	511.770	-0.056	0.131
-404.267	-200.000	0.051	0.310
-403.252	58.824	0.366	0.360
-402.238	-200.000	-0.008	0.181
-401.223	-53.277	0.078	0.036
-400.209	24.376	0.133	-0.110
-399.194	-88.040	0.185	0.056
-398.179	-73.495	-0.306	0.112
-397.165	-24.435	-0.294	0.176
-396.150	800.000	-0.020	-0.064
-395.136	-71.148	0.168	-0.063
-394.121	-200.000	-0.007	-0.139
-393.106	114.567	-0.143	0.175
-392.092	-140.237	0.307	0.032
-391.077	-127.822	0.329	-0.047
-390.063	180.974	-0.032	-0.047
-389.048	93.034	-0.070	-0.079
-388.033	29.996	0.046	0.039
-387.019	78.333	0.187	0.200
-386.004	-200.000	0.007	0.066
-384.990	800.000	-0.151	0.451
-383.975	-200.000	0.003	0.273
-382.960	198.024	-0.084	0.128
-381.946	-128.387	-0.091	-0.013
-380.931	-34.688	-0.169	0.092
-379.917	-72.966	0.210	0.077
-378.902	-92.049	-0.264	-0.075
-377.888	-200.000	-0.050	0.337
-376.873	161.947	-0.165	0.231
-375.858	-86.563	-0.193	-0.059
-374.844	800.000	-0.016	0.047
-373.829	196.427	-0.296	-0.451
-372.815	132.766	-0.167	-0.216
-371.800	-189.599	0.100	0.001
-370.785	119.869	0.033	0.041
-369.771	-200.000	0.047	-0.292
-368.756	32.591	-0.141	-0.122
-367.742	80.324	0.177	0.190
-366.727	800.000	0.059	0.211
-365.712	20.197	0.228	0.184
-364.698	-61.643	-0.257	0.108
-363.683	72.690	-0.148	-0.154
-362.669	-200.000	-0.000	-0.197
-361.654	193.111	0.122	0.184
-360.639	-48.190	0.291	-0.141
-359.625	639.580	0.035	-0.088
-358.610	10.434	0.007	-0.005
-357.596	-122.083	-0.196	-0.032
-356.581	74.879	0.011	0.012
-355.566	690.235	-0.080	0.211
-354.552	91.918	-0.080	0.090
-353.537	-158.226	-0.045	0.003
-352.523	-200.000	0.005	-0.082
-351.508	276.573	-0.145	-0.257
-350.493	-19.811	-0.260	-0.161
-349.479	794.494	-0.091	-0.250
-348.464	67.608	-0.113	-0.115
-347.450	60.653	0.244	0.242
-346.435	-200.000	0.020	-0.227
-345.420	124.931	0.081	-0.102
-344.406	800.000	-0.039	-0.150
-343.391	-200.000	-0.016	0.147
-342.377	-150.736	-0.294	0.022
-341.362	-32.686	-0.089	0.049
-340.348	-200.000	0.024	0.340
-339.333	263.732	-0.096	0.167
-338.318	-200.000	0.063	-0.284
-337.304	518.170	-0.131	0.306
-336.289	104.053	0.353	0.414
-335.275	-27.464	-0.060	-0.035
-334.260	-87.281	0.347	0.105
-333.245	-6.972	0.123	0.084
-332.231	-12.251	-0.245	-0.160
-331.216	-134.768	0.124	-0.015
-330.202	34.914	-0.061	-0.054
-329.187	265.951	0.110	0.192
-328.172	800.000	-0.050	0.212
-327.158	84.818	0.177	0.194
-326.143	-160.522	-0.430	-0.023
-325.129	-42.195	-0.169	-0.086
-324.114	120.456	0.184	0.228
-323.099	51.417	-0.101	0.095
-322.085	287.641	0.084	-0.152
-321.070	55.619	-0.161	-0.155
-320.056	-10.971	-0.050	-0.033
-319.041	-71.281	-0.128	0.048
-318.026	18.186	-0.295	-0.235
-317.012	-30.766	-0.124	-0.070
-315.997	800.000	-0.062	0.227
-314.983	-200.000	-0.021	-0.127
-313.968	18.306	-0.233	0.185
-312.953	-82.166	-0.176	-0.057
-311.939	-28.848	-0.357	-0.205
-310.924	-118.597	0.281	0.050
-309.910	320.978	-0.147	-0.278
-308.895	-77.652	-0.488	-0.168
-307.880	-12.885	-0.098	-0.064
-306.866	42.081	-0.263	-0.238
-305.851	343.614	-0.163	0.319
-304.837	-49.840	-0.257	-0.122
-303.822	-200.000	-0.024	0.211
-302.807	5.015	-0.134	-0.098
-301.793	-166.728	-0.258	0.011
-300.778	-200.000	0.050	-0.266
-299.764	-200.000	0.025	-0.300
-298.749	-200.000	0.006	-0.122
-297.735	636.078	0.030	0.077
-296.720	-15.079	0.141	0.090
-295.705	-64.935	0.120	-0.048
-294.691	800.000	0.123	-0.372
-293.676	-58.269	-0.082	0.035
-292.662	-200.000	-0.028	0.244
-291.647	-16.806	-0.196	-0.124
-290.632	188.928	-0.158	-0.236
-289.618	-200.000	0.001	0.078
-288.603	-117.992	0.222	-0.040
-287.589	-70.962	0.262	0.098
-286.574	-173.026	0.240	0.007
-285.559	800.000	-0.030	0.101
-284.545	75.897	-0.143	0.150
-283.530	-86.032	-0.243	0.075
-282.516	-106.925	-0.058	0.013
-281.501	72.021	0.087	-0.090
-280.486	-200.000	-0.044	0.295
-279.472	-128.457	0.055	-0.008
-278.457	800.000	0.078	-0.312
-277.443	-200.000	0.035	-0.210
-276.428	110.041	-0.244	0.292
-275.413	22.150	0.360	-0.293
-274.399	-181.204	-0.171	0.003
-273.384	210.514	-0.031	-0.049
-272.370	-36.614	0.112	-0.060
-271.355	-140.545	-0.118	0.012
-270.340	285.280	0.037	-0.066
-269.326	-200.000	-0.035	0.303
-268.311	133.006	0.174	0.224
-267.297	-11.870	0.214	0.140
-266.282	161.661	-0.217	-0.303
-265.267	800.000	0.055	0.171
-264.253	800.000	0.024	0.101
-263.238	-200.000	-0.010	-0.140
-262.224	-45.821	0.307	0.151
-261.209	154.389	-0.108	-0.148
-260.195	-106.571	-0.022	-0.005
-259.180	594.650	0.035	-0.085
-258.165	777.411	-0.098	-0.267
-257.151	-200.000	-0.207	0.001
-256.136	-72.647	0.373	-0.137
-255.122	-125.547	-0.157	0.024
-254.107	800.000	-0.017	0.052
-253.092	800.000	0.095	-0.287
-252.078	234.718	0.239	0.392
-251.063	-200.000	0.040	-0.261
-250.049	-81.300	0.388	0.127
-249.034	-189.692	-0.150	0.002
-248.019	336.456	0.091	0.176
-247.005	-165.812	-0.144	0.006
-245.990	39.348	-0.057	0.051
-244.976	-96.378	0.315	0.083
-243.961	-86.667	-0.136	-0.041
-242.946	-188.848	-0.373	-0.005
-241.932	-46.354	0.123	-0.060
-240.917	-123.141	-0.362	0.058
-239.903	-91.776	-0.020	0.006
-238.888	766.108	0.069	-0.186
-237.873	-92.635	0.145	0.041
-236.859	11.765	0.132	0.101
-235.844	138.436	0.118	-0.154
-234.830	46.159	0.088	-0.081
-233.815	281.448	-0.105	0.187
-232.800	-150.592	-0.126	-0.010
-231.786	-58.009	-0.375	0.163
-230.771	-200.000	-0.012	0.187
-229.757	-200.000	0.099	-0.473
-228.742	-200.000	-0.031	0.191
-227.727	800.000	0.076	-0.256
-226.713	800.000	-0.008	0.023
-225.698	315.897	0.081	-0.151
-224.684	341.250	0.067	0.131
-223.669	-159.603	0.043	0.002
-222.655	51.544	-0.063	-0.059
-221.640	34.056	0.122	-0.105
-220.625	-200.000	-0.021	0.130
-219.611	800.000	0.031	0.112
-218.596	-35.427	0.165	0.089
-217.582	-129.827	-0.103	0.014
-216.567	-19.106	0.124	0.077
-215.552	25.530	-0.243	0.201
-214.538	-108.120	0.410	0.088
-213.523	409.473	0.126	0.265
-212.509	-200.000	0.031	-0.169
-211.494	-200.000	0.028	0.169
-210.479	-5.300	0.147	-0.101
-209.465	223.043	0.118	0.189
-208.450	-200.000	0.019	-0.181
-207.436	212.482	-0.087	0.137
-206.421	-137.837	0.146	-0.016
-205.406	-200.000	0.066	-0.296
-204.392	491.171	0.060	-0.135
-203.377	27.354	0.079	-0.066
-202.363	800.000	0.034	0.145
-201.348	98.062	0.172	-0.197
-200.333	-44.864	0.152	0.076
-199.319	-200.000	0.063	0.391
-198.304	424.196	0.064	0.137
-197.290	54.914	-0.155	-0.149
-196.275	-173.499	-0.355	0.011
-195.260	-130.003	0.129	0.017
-194.246	162.933	0.106	-0.147
-193.231	371.108	0.024	-0.048
-192.217	-200.000	0.034	-0.187
-191.202	800.000	-0.038	-0.139
-190.187	541.643	-0.063	0.149
-189.173	-18.895	-0.143	0.089
-188.158	-200.000	0.014	0.173
-187.144	210.412	0.261	-0.407
-186.129	-200.000	0.004	-0.081
-185.114	17.284	0.372	0.294
-184.100	-200.000	0.036	-0.298
-183.085	-6.531	0.112	0.076
-182.071	114.212	0.366	-0.442
-181.056	776.392	0.025	-0.067
-180.042	108.566	0.185	0.219
-179.027	317.590	0.039	-0.072
-178.012	-200.000	0.003	0.064
-176.998	164.774	0.205	-0.288
-175.983	98.917	-0.121	0.139
-174.969	-113.512	-0.281	-0.055
-173.954	-70.506	-0.048	-0.018
-172.939	800.000	-0.068	-0.196
-171.925	-116.904	-0.300	-0.054
-170.910	-200.000	0.005	0.030
-169.896	-200.000	-0.008	0.154
-168.881	257.902	-0.129	0.221
-167.866	-200.000	0.013	-0.273
-166.852	-181.286	-0.168	-0.003
-165.837	3.428	0.224	0.162
-164.823	-200.000	0.005	0.161
-163.808	-30.965	-0.063	0.036
-162.793	-200.000	0.018	0.164
-161.779	7.728	0.193	-0.144
-160.764	198.197	0.088	0.133
-159.750	191.907	0.081	0.121
-158.735	203.649	0.164	0.251
-157.720	800.000	-0.025	-0.093
-156.706	496.290	0.112	0.256
-155.691	-137.115	0.523	-0.059
-154.677	-91.912	0.121	-0.034
-153.662	-200.000	-0.013	0.129
-152.647	27.514	0.110	0.092
-151.633	133.749	-0.070	0.090
-150.618	175.320	0.112	0.161
-149.604	77.497	-0.182	-0.192
-148.589	133.216	-0.261	0.334
-147.574	-88.256	0.183	-0.054
-146.560	104.089	-0.175	-0.204
-145.545	-138.275	0.170	-0.019
-144.531	-126.446	-0.516	-0.076
-143.516	800.000	0.051	0.163
-142.502	-96.269	0.191	0.050
-141.487	-52.618	-0.177	0.081
-140.472	800.000	-0.035	0.123
-139.458	74.314	0.103	-0.107
-138.443	58.787	0.096	0.093
-137.429	410.838	0.025	0.053
-136.414	137.893	0.196	0.255
-135.399	-70.199	-0.142	0.053
-134.385	48.026	0.175	0.162
-133.370	-75.096	0.187	0.066
-132.356	10.608	-0.078	-0.059
-131.341	-40.705	0.296	-0.152
-130.326	10.612	-0.153	0.116
-129.312	-33.123	0.094	0.052
-128.297	289.327	0.058	0.104
-127.283	4.781	0.147	-0.107
-126.268	7.641	0.388	0.288
-125.253	22.274	0.176	-0.142
-124.239	-111.627	-0.143	-0.029
-123.224	-41.235	-0.138	-0.071
-122.210	126.939	0.037	-0.047
-121.195	61.153	0.214	-0.211
