DTS Sentinel unit serial number:	SN413079Multiplexer serial number:	ORYXHardware model number:	OX4-SRSoftware version number:	ORYX F/W v4.00 Oryx Data Collector v3.7.2.0data status	okinstallation	princeton_trtdifferential loss correction	single-endedforward channel	channel 3reverse channel	N/Adate	2019/09/18time	06:56:34forward acquisition time	60.00reverse acquisition time	0.00gamma	496.2192k internal	0.2342k external	0.2342temperature offset calibration	0.9954default loss term (dB/km)	0.3790temperature slope calibration	1.0000multiplexer offset coefficient	1.0000multiplexer slope coefficient	1.0000fibre end	0.00T internal ref (°C)	23.19T ext. ref 1 (°C)	0.19T ext. ref 2 (°C)	17.04length (m)	temperature (°C)	Stokes	anti-Stokes-747.200	27.076	0.129	-0.109
-746.185	39.560	-0.268	0.240
-745.171	-60.970	0.266	-0.113
-744.156	143.319	-0.175	0.234
-743.142	387.206	-0.043	0.089
-742.127	415.779	-0.253	0.541
-741.112	46.296	0.110	-0.102
-740.098	319.979	-0.113	0.215
-739.083	275.147	-0.182	0.324
-738.069	53.060	-0.288	0.276
-737.054	-134.946	0.189	0.023
-736.039	800.000	-0.071	-0.273
-735.025	-0.084	0.153	0.109
-734.010	138.130	-0.162	0.213
-732.996	-183.007	0.100	-0.002
-731.981	540.702	-0.150	0.356
-730.966	-83.076	0.342	0.110
-729.952	-152.924	-0.291	0.021
-728.937	-200.000	0.006	-0.161
-727.923	-96.208	-0.305	0.081
-726.908	800.000	0.089	0.287
-725.894	430.762	0.055	0.120
-724.879	-87.805	-0.329	-0.099
-723.864	800.000	-0.101	0.304
-722.850	-40.249	0.228	0.119
-721.835	198.362	0.262	-0.401
-720.821	-79.923	-0.325	0.109
-719.806	-200.000	-0.021	0.178
-718.791	-200.000	0.009	-0.146
-717.777	65.585	0.074	-0.075
-716.762	-96.577	0.115	-0.030
-715.748	559.131	-0.090	-0.218
-714.733	-200.000	-0.023	-0.298
-713.718	-195.561	0.087	-0.001
-712.704	496.396	-0.094	0.216
-711.689	-200.000	0.038	0.248
-710.675	124.563	-0.213	0.269
-709.660	-200.000	0.004	0.167
-708.645	112.425	0.039	0.047
-707.631	20.647	-0.152	-0.123
-706.616	-30.010	0.067	0.038
-705.602	-200.000	-0.050	0.379
-704.587	-51.261	-0.435	-0.204
-703.572	-88.662	0.204	-0.061
-702.558	347.058	-0.126	-0.248
-701.543	-200.000	0.018	0.118
-700.529	-8.015	0.341	0.230
-699.514	-81.851	0.088	0.029
-698.499	615.956	0.069	-0.173
-697.485	-137.627	0.068	-0.008
-696.470	682.537	0.013	-0.034
-695.456	-74.733	-0.167	-0.060
-694.441	-107.557	0.139	-0.030
-693.426	209.506	0.084	0.131
-692.412	71.241	-0.223	-0.231
-691.397	800.000	0.109	0.306
-690.383	-97.356	-0.097	0.025
-689.368	41.602	-0.081	0.073
-688.354	800.000	0.047	0.162
-687.339	-47.885	0.166	0.080
-686.324	469.100	-0.139	0.311
-685.310	-200.000	-0.037	-0.178
-684.295	-200.000	-0.021	-0.204
-683.281	-200.000	-0.082	-0.376
-682.266	800.000	0.080	-0.254
-681.251	800.000	-0.057	-0.229
-680.237	-50.851	0.247	-0.116
-679.222	161.107	0.115	-0.160
-678.208	32.462	0.172	0.149
-677.193	188.260	0.292	0.436
-676.178	7.513	-0.043	-0.032
-675.164	248.825	-0.093	0.158
-674.149	173.037	-0.104	-0.150
-673.135	-68.007	0.205	-0.080
-672.120	800.000	-0.164	-0.537
-671.105	-200.000	-0.029	-0.168
-670.091	-185.127	0.304	0.005
-669.076	231.586	0.205	-0.336
-668.062	372.338	0.250	-0.506
-667.047	-101.621	0.073	0.018
-666.032	-200.000	0.062	-0.316
-665.018	-25.727	-0.300	0.177
-664.003	479.409	0.131	-0.296
-662.989	98.259	-0.181	-0.208
-661.974	-200.000	-0.035	-0.167
-660.959	216.457	-0.028	-0.044
-659.945	-200.000	0.019	0.214
-658.930	-147.819	0.089	-0.007
-657.916	102.358	0.214	0.250
-656.901	267.398	-0.173	-0.302
-655.886	800.000	0.026	-0.074
-654.872	-200.000	-0.008	0.066
-653.857	202.306	-0.149	-0.230
-652.843	-200.000	0.040	-0.356
-651.828	-47.983	0.539	-0.260
-650.814	182.022	-0.121	-0.178
-649.799	74.484	-0.128	-0.134
-648.784	800.000	0.072	0.277
-647.770	128.403	-0.086	-0.109
-646.755	-3.512	-0.163	-0.113
-645.741	145.032	0.106	0.142
-644.726	800.000	-0.048	0.163
-643.711	-115.827	0.126	0.024
-642.697	39.335	0.386	0.345
-641.682	293.286	-0.148	0.270
-640.668	-200.000	-0.018	0.175
-639.653	800.000	-0.078	-0.238
-638.638	368.917	-0.110	0.222
-637.624	-182.128	0.284	0.005
-636.609	422.613	0.105	-0.224
-635.595	800.000	0.048	-0.149
-634.580	-200.000	-0.009	-0.227
-633.565	800.000	0.129	-0.513
-632.551	164.682	0.063	0.089
-631.536	-97.521	-0.477	-0.124
-630.522	800.000	0.049	-0.165
-629.507	-96.443	-0.148	0.039
-628.492	-200.000	-0.023	-0.251
-627.478	800.000	0.067	-0.212
-626.463	-147.063	-0.341	-0.029
-625.449	20.778	-0.202	-0.163
-624.434	800.000	-0.019	0.057
-623.419	-117.924	-0.254	0.045
-622.405	249.387	0.125	0.211
-621.390	-123.988	0.268	0.042
-620.376	-200.000	-0.028	0.240
-619.361	658.265	-0.057	-0.146
-618.346	-131.502	-0.095	-0.013
-617.332	800.000	0.043	-0.186
-616.317	-104.660	-0.161	0.037
-615.303	-200.000	0.004	-0.081
-614.288	-14.172	-0.021	0.014
-613.273	-28.274	0.172	-0.099
-612.259	-200.000	0.000	-0.326
-611.244	800.000	0.139	-0.514
-610.230	-101.467	0.487	0.118
-609.215	-103.272	-0.113	0.027
-608.201	800.000	0.031	0.129
-607.186	-80.946	-0.357	-0.118
-606.171	-64.436	0.226	-0.092
-605.157	-125.717	-0.162	-0.024
-604.142	271.818	0.076	-0.134
-603.128	-200.000	-0.015	0.098
-602.113	737.475	-0.210	0.562
-601.098	148.714	-0.124	-0.166
-600.084	-200.000	0.059	-0.258
-599.069	68.629	0.020	-0.020
-598.055	370.584	-0.049	0.099
-597.040	-157.463	-0.248	-0.015
-596.025	-31.432	0.186	-0.104
-595.011	-102.975	0.057	-0.013
-593.996	-150.159	0.218	-0.017
-592.982	-84.926	0.239	-0.075
-591.967	-72.685	0.317	0.117
-590.952	800.000	0.039	0.128
-589.938	-200.000	-0.017	-0.077
-588.923	2.831	-0.175	0.126
-587.909	-200.000	0.038	0.258
-586.894	-119.704	0.141	0.024
-585.879	84.584	0.194	0.211
-584.865	486.867	0.075	0.170
-583.850	-86.010	-0.354	-0.109
-582.836	-43.642	0.431	0.216
-581.821	-76.333	0.376	-0.132
-580.806	326.201	-0.058	-0.110
-579.792	-200.000	-0.113	0.001
-578.777	-75.518	0.127	-0.045
-577.763	-81.389	-0.120	-0.039
-576.748	-9.520	-0.079	-0.052
-575.733	56.726	-0.173	0.167
-574.719	58.984	0.209	0.204
-573.704	-133.055	0.434	-0.055
-572.690	-46.078	0.167	0.082
-571.675	-17.524	0.075	-0.047
-570.661	-200.000	0.019	0.097
-569.646	-23.828	0.419	0.250
-568.631	-87.082	0.385	0.117
-567.617	245.291	-0.055	-0.091
-566.602	41.921	-0.151	-0.137
-565.588	77.089	-0.246	-0.260
-564.573	-200.000	0.028	-0.157
-563.558	-88.875	-0.090	0.027
-562.544	713.712	0.143	0.376
-561.529	-5.378	-0.150	0.103
-560.515	25.628	0.134	-0.111
-559.500	-14.131	-0.176	-0.113
-558.485	317.828	-0.010	0.018
-557.471	54.948	-0.106	0.102
-556.456	-60.469	0.279	0.118
-555.442	-54.832	0.110	-0.049
-554.427	800.000	0.085	0.354
-553.412	336.905	-0.045	0.087
-552.398	16.485	-0.266	0.209
-551.383	234.226	-0.109	-0.179
-550.369	-200.000	-0.002	-0.104
-549.354	-154.138	0.325	0.022
-548.339	-28.076	-0.209	-0.120
-547.325	-200.000	-0.014	-0.162
-546.310	-200.000	-0.037	-0.534
-545.296	34.417	0.194	-0.168
-544.281	5.754	-0.262	0.193
-543.266	-99.379	-0.373	0.093
-542.252	32.880	0.221	-0.190
-541.237	-74.196	-0.121	0.043
-540.223	-129.208	-0.285	-0.039
-539.208	-200.000	0.011	0.048
-538.193	-68.298	-0.137	0.053
-537.179	-13.822	0.123	0.079
-536.164	-179.949	0.280	-0.006
-535.150	-59.905	-0.110	-0.047
-534.135	-148.317	-0.111	-0.009
-533.121	112.453	0.066	0.079
-532.106	-61.293	-0.440	-0.184
-531.091	-16.789	-0.226	0.142
-530.077	66.357	-0.068	-0.069
-529.062	-23.754	0.178	0.106
-528.048	64.604	-0.229	0.229
-527.033	63.960	0.242	-0.242
-526.018	258.050	0.150	0.256
-525.004	9.393	0.107	-0.080
-523.989	-123.155	-0.201	0.032
-522.975	-200.000	-0.031	0.161
-521.960	-109.183	0.184	-0.039
-520.945	800.000	-0.116	-0.387
-519.931	800.000	-0.026	-0.074
-518.916	119.584	-0.104	0.128
-517.902	-54.118	0.121	-0.054
-516.887	-94.085	-0.329	0.090
-515.872	749.651	-0.064	-0.172
-514.858	13.414	-0.201	-0.155
-513.843	-10.504	-0.166	0.109
-512.829	-200.000	-0.005	-0.172
-511.814	800.000	0.101	-0.322
-510.799	20.937	-0.159	-0.128
-509.785	108.059	0.043	-0.051
-508.770	153.722	0.121	-0.165
-507.756	30.849	0.133	0.113
-506.741	122.670	-0.151	-0.188
-505.726	-96.792	0.127	-0.033
-504.712	-200.000	-0.055	0.254
-503.697	115.130	0.126	-0.153
-502.683	-200.000	0.006	-0.066
-501.668	84.633	0.158	0.172
-500.653	602.750	0.090	0.222
-499.639	467.138	-0.009	-0.021
-498.624	-181.589	-0.280	-0.005
-497.610	-0.746	-0.103	0.073
-496.595	-91.322	0.101	0.029
-495.581	-200.000	0.012	-0.223
-494.566	-120.089	0.101	-0.017
-493.551	502.647	-0.107	-0.246
-492.537	-7.879	-0.160	0.107
-491.522	-200.000	-0.040	0.219
-490.508	800.000	-0.122	0.411
-489.493	409.326	-0.040	-0.085
-488.478	-153.084	0.137	-0.010
-487.464	113.927	0.123	0.148
-486.449	-200.000	0.015	-0.086
-485.435	-132.963	0.163	0.021
-484.420	-124.516	0.332	-0.051
-483.405	23.341	-0.242	0.197
-482.391	72.010	0.144	-0.148
-481.376	-26.586	0.273	0.159
-480.362	60.742	-0.171	-0.168
-479.347	-19.661	0.196	-0.120
-478.332	-48.739	0.176	-0.084
-477.318	209.115	0.119	0.185
-476.303	17.258	-0.043	0.034
-475.289	105.827	-0.122	0.143
-474.274	-138.638	-0.416	0.045
-473.259	-116.287	0.305	-0.056
-472.245	-144.202	0.175	-0.016
-471.230	800.000	0.084	-0.239
-470.216	800.000	-0.103	0.327
-469.201	297.489	-0.120	-0.218
-468.186	-76.573	0.311	-0.108
-467.172	-200.000	0.043	-0.274
-466.157	-110.196	0.328	-0.068
-465.143	128.873	0.151	0.191
-464.128	-200.000	0.056	0.332
-463.113	-10.288	-0.266	0.175
-462.099	-38.560	0.136	-0.071
-461.084	33.635	-0.089	0.076
-460.070	800.000	-0.097	0.406
-459.055	210.895	-0.054	0.084
-458.040	-106.381	0.304	-0.067
-457.026	-200.000	0.057	0.337
-456.011	800.000	-0.072	-0.255
-454.997	13.712	-0.335	0.258
-453.982	-11.045	-0.047	-0.031
-452.968	-200.000	0.021	0.370
-451.953	171.314	-0.212	0.302
-450.938	756.440	0.079	-0.212
-449.924	-62.740	0.078	0.032
-448.909	-128.733	-0.136	-0.019
-447.895	282.309	0.177	0.315
-446.880	387.641	-0.231	0.472
-445.865	-46.791	0.073	0.035
-444.851	-169.787	-0.245	0.009
-443.836	441.119	0.056	0.121
-442.822	-13.570	-0.465	0.298
-441.807	-174.351	-0.105	-0.003
-440.792	-63.311	0.215	0.088
-439.778	800.000	0.043	-0.128
-438.763	459.621	0.087	-0.191
-437.749	437.423	0.095	-0.206
-436.734	337.831	0.095	-0.183
-435.719	43.303	0.122	-0.111
-434.705	189.267	-0.066	-0.098
-433.690	114.934	-0.138	-0.167
-432.676	242.068	0.178	0.294
-431.661	-132.253	0.190	-0.024
-430.646	800.000	-0.035	0.120
-429.632	800.000	0.043	-0.180
-428.617	194.870	0.085	0.127
-427.603	117.071	-0.282	-0.342
-426.588	-59.915	-0.071	0.030
-425.573	800.000	-0.051	-0.192
-424.559	359.553	-0.059	-0.117
-423.544	-200.000	-0.000	-0.075
-422.530	800.000	-0.112	-0.365
-421.515	-121.262	-0.168	0.028
-420.500	-46.470	0.301	0.146
-419.486	-200.000	0.040	-0.181
-418.471	-200.000	-0.015	0.097
-417.457	-39.173	-0.144	0.075
-416.442	-76.864	-0.115	0.040
-415.428	-200.000	0.015	-0.126
-414.413	53.306	0.139	0.132
-413.398	-137.027	-0.157	0.018
-412.384	800.000	-0.077	-0.261
-411.369	-200.000	0.018	-0.200
-410.355	-78.660	-0.137	-0.046
-409.340	-60.553	0.101	0.042
-408.325	800.000	-0.077	-0.328
-407.311	-172.032	-0.105	0.003
-406.296	-71.203	0.247	0.092
-405.282	-200.000	-0.040	-0.198
-404.267	-102.557	-0.357	0.084
-403.252	-51.843	0.447	0.206
-402.238	506.981	-0.038	0.086
-401.223	-127.944	0.397	-0.056
-400.209	16.844	0.084	-0.066
-399.194	83.278	-0.100	-0.107
-398.179	800.000	0.113	-0.423
-397.165	289.951	0.192	0.345
-396.150	470.870	0.138	0.307
-395.136	20.050	-0.276	0.220
-394.121	82.449	0.172	0.184
-393.106	556.096	-0.041	0.098
-392.092	800.000	-0.027	-0.093
-391.077	264.171	-0.064	0.110
-390.063	-200.000	0.031	-0.190
-389.048	-112.408	-0.389	0.077
-388.033	-13.013	0.341	0.219
-387.019	-200.000	-0.001	0.345
-386.004	-40.481	-0.232	-0.119
-384.990	-200.000	-0.001	0.025
-383.975	466.182	-0.082	0.182
-382.960	22.085	-0.084	-0.068
-381.946	-200.000	-0.066	0.333
-380.931	178.845	-0.142	0.204
-379.917	58.601	-0.330	0.320
-378.902	224.691	0.111	0.178
-377.888	81.170	0.062	0.066
-376.873	436.611	-0.095	0.204
-375.858	-88.186	-0.074	0.022
-374.844	-56.998	-0.125	0.055
-373.829	-200.000	-0.019	-0.107
-372.815	75.889	0.087	-0.091
-371.800	55.060	0.032	0.031
-370.785	-46.854	0.168	-0.081
-369.771	-89.650	-0.108	0.031
-368.756	-200.000	-0.006	0.051
-367.742	580.423	0.041	-0.099
-366.727	-17.263	0.293	-0.182
-365.712	-116.420	0.111	0.020
-364.698	-36.448	0.196	-0.104
-363.683	45.502	0.044	0.040
-362.669	-23.817	-0.186	0.110
-361.654	-98.909	0.310	-0.078
-360.639	-136.898	0.172	0.020
-359.625	182.509	-0.058	-0.085
-358.610	102.963	0.127	-0.147
-357.596	800.000	0.077	-0.259
-356.581	-200.000	-0.001	-0.290
-355.566	-102.159	-0.014	-0.003
-354.552	-55.724	-0.046	-0.020
-353.537	-13.046	0.223	-0.143
-352.523	-200.000	-0.009	-0.134
-351.508	126.629	0.146	0.182
-350.493	-4.148	-0.169	-0.116
-349.479	202.352	-0.123	0.187
-348.464	48.107	-0.102	0.094
-347.450	-200.000	0.047	0.301
-346.435	-200.000	0.010	-0.098
-345.420	-47.514	-0.184	0.088
-344.406	-200.000	-0.064	-0.363
-343.391	-55.127	-0.087	-0.038
-342.377	-127.076	-0.107	-0.015
-341.362	-200.000	0.036	0.449
-340.348	476.819	-0.101	0.226
-339.333	36.492	0.167	0.145
-338.318	800.000	-0.070	-0.252
-337.304	724.760	0.058	-0.153
-336.289	800.000	-0.016	-0.052
-335.275	-7.564	-0.160	0.106
-334.260	-200.000	0.010	-0.105
-333.245	-200.000	0.014	-0.166
-332.231	-200.000	-0.039	-0.188
-331.216	131.054	0.172	0.218
-330.202	-27.787	-0.153	-0.087
-329.187	800.000	0.032	0.092
-328.172	650.329	-0.073	-0.183
-327.158	0.102	-0.236	0.165
-326.143	-151.254	-0.089	-0.007
-325.129	-200.000	-0.067	0.330
-324.114	106.388	0.145	-0.170
-323.099	8.969	-0.105	-0.078
-322.085	-162.224	0.254	-0.013
-321.070	179.558	0.192	0.277
-320.056	192.250	-0.214	-0.319
-319.041	-104.956	-0.514	-0.116
-318.026	47.557	0.035	-0.033
-317.012	-200.000	0.074	0.451
-315.997	77.405	0.136	0.143
-314.983	-200.000	-0.008	-0.273
-313.968	383.593	-0.100	0.202
-312.953	-117.039	0.093	-0.017
-311.939	-196.664	-0.310	0.002
-310.924	369.510	-0.062	-0.124
-309.910	18.557	0.221	0.174
-308.895	94.347	-0.095	0.107
-307.880	-109.242	0.214	-0.045
-306.866	-200.000	0.036	-0.193
-305.851	800.000	-0.103	-0.330
-304.837	5.926	0.142	-0.104
-303.822	-200.000	-0.032	-0.177
-302.807	-200.000	-0.011	0.150
-301.793	-157.659	0.234	0.014
-300.778	527.206	0.090	0.208
-299.764	-122.752	0.247	-0.039
-298.749	20.913	-0.071	-0.057
-297.735	139.795	-0.238	-0.308
-296.720	317.083	-0.086	-0.159
-295.705	263.309	-0.131	0.224
-294.691	-200.000	-0.031	-0.326
-293.676	800.000	0.112	-0.360
-292.662	185.911	0.218	-0.319
-291.647	-113.046	0.122	0.024
-290.632	-23.883	-0.123	0.072
-289.618	190.851	0.065	0.096
-288.603	521.881	0.053	-0.123
-287.589	418.377	0.095	0.200
-286.574	-41.560	0.076	-0.039
-285.559	-200.000	0.055	-0.278
-284.545	-200.000	-0.199	-0.000
-283.530	244.434	-0.098	0.161
-282.516	-11.759	-0.216	0.140
-281.501	83.101	-0.117	0.125
-280.486	103.303	-0.087	-0.101
-279.472	119.737	-0.044	0.054
-278.457	276.153	-0.165	0.288
-277.443	-58.832	0.069	-0.029
-276.428	178.933	-0.188	0.270
-275.413	-200.000	-0.017	-0.390
-274.399	-73.067	0.402	-0.145
-273.384	-200.000	0.072	0.348
-272.370	-11.064	0.187	-0.121
-271.355	-121.115	-0.109	-0.018
-270.340	189.798	-0.102	0.151
-269.326	-83.726	0.075	-0.024
-268.311	-131.713	-0.114	-0.015
-267.297	-200.000	0.035	0.224
-266.282	89.795	-0.134	-0.147
-265.267	140.853	0.119	0.155
-264.253	-73.530	-0.133	0.048
-263.238	-126.626	0.205	0.030
-262.224	800.000	0.100	0.310
-261.209	-84.859	-0.340	-0.105
-260.195	21.614	0.175	-0.140
-259.180	800.000	-0.079	0.240
-258.165	-113.042	-0.283	0.055
-257.151	-200.000	0.048	-0.270
-256.136	582.086	-0.049	-0.118
-255.122	-69.706	0.171	0.064
-254.107	-84.697	-0.125	-0.039
-253.092	105.310	-0.060	0.069
-252.078	120.163	0.270	-0.329
-251.063	4.497	-0.234	0.169
-250.049	-25.119	0.322	0.187
-249.034	-1.204	0.079	0.055
-248.019	-159.410	-0.454	-0.025
-247.005	-84.837	-0.253	0.078
-245.990	-200.000	0.038	-0.205
-244.976	105.032	-0.204	0.236
-243.961	-184.886	-0.352	0.005
-242.946	-54.198	0.388	0.173
-241.932	800.000	0.016	-0.067
-240.917	-200.000	-0.014	0.151
-239.903	800.000	-0.038	0.135
-238.888	-200.000	0.005	0.087
-237.873	800.000	-0.053	0.187
-236.859	-1.965	0.219	0.151
-235.844	255.163	-0.058	-0.098
-234.830	445.497	0.111	-0.239
-233.815	325.421	0.113	0.212
-232.800	-19.042	-0.146	-0.089
-231.786	589.912	-0.136	-0.328
-230.771	-43.604	-0.258	0.128
-229.757	-130.459	0.212	0.028
-228.742	68.121	0.141	-0.142
-227.727	-54.525	0.073	-0.033
-226.713	198.610	0.257	-0.387
-225.698	141.635	-0.026	-0.034
-224.684	34.124	-0.170	-0.146
-223.669	774.485	-0.041	-0.109
-222.655	-200.000	-0.034	-0.153
-221.640	167.379	0.117	0.163
-220.625	-74.972	0.327	0.115
-219.611	320.648	0.076	-0.141
-218.596	800.000	-0.058	0.164
-217.582	11.127	-0.053	-0.040
-216.567	40.658	-0.175	0.155
-215.552	47.409	0.130	-0.119
-214.538	-200.000	-0.045	-0.285
-213.523	-35.073	-0.238	-0.127
-212.509	-126.756	-0.334	-0.048
-211.494	176.329	0.169	-0.241
-210.479	-76.913	-0.291	0.100
-209.465	-30.142	-0.040	0.022
-208.450	-200.000	-0.061	0.285
-207.436	-200.000	0.056	-0.268
-206.421	800.000	0.032	0.113
-205.406	800.000	0.033	0.116
-204.392	-200.000	-0.010	0.075
-203.377	-184.784	0.256	0.004
-202.363	72.978	0.155	-0.159
-201.348	-146.912	0.267	-0.023
-200.333	-181.707	-0.225	0.004
-199.319	-200.000	0.017	0.185
-198.304	-38.973	0.096	-0.049
-197.290	-200.000	0.030	-0.291
-196.275	-95.604	0.205	-0.054
-195.260	-73.869	0.434	-0.155
-194.246	-19.730	0.209	-0.127
-193.231	607.103	0.053	0.129
-192.217	800.000	0.040	-0.158
-191.202	-200.000	0.003	-0.103
-190.187	-33.222	-0.345	-0.187
-189.173	290.430	-0.048	-0.085
-188.158	-5.949	-0.260	0.174
-187.144	-35.571	0.088	0.047
-186.129	-53.417	-0.352	0.158
-185.114	536.545	0.097	0.226
-184.100	-37.398	-0.282	0.147
-183.085	-200.000	-0.003	0.218
-182.071	146.125	-0.103	-0.135
-181.056	-61.042	-0.080	0.033
-180.042	66.829	0.169	0.169
-179.027	57.906	0.238	0.229
-178.012	-109.607	-0.015	-0.003
-176.998	-32.541	-0.271	-0.148
-175.983	-44.367	0.238	0.117
-174.969	800.000	0.139	-0.502
-173.954	-146.747	-0.178	0.015
-172.939	-70.421	-0.102	0.038
-171.925	21.499	0.071	0.057
-170.910	-73.178	-0.177	-0.063
-169.896	-200.000	0.010	-0.096
-168.881	221.204	0.065	0.102
-167.866	-200.000	0.018	-0.143
-166.852	-0.045	0.187	0.130
-165.837	122.700	0.149	-0.183
-164.823	800.000	0.108	-0.351
-163.808	-200.000	-0.045	0.234
-162.793	-36.794	-0.140	-0.073
-161.779	-135.037	-0.250	0.029
-160.764	8.647	-0.214	-0.158
-159.750	214.754	-0.131	0.203
-158.735	-142.576	0.442	0.042
-157.720	-200.000	-0.022	-0.192
-156.706	-93.557	-0.270	0.073
-155.691	-200.000	-0.002	-0.033
-154.677	581.041	-0.122	0.293
-153.662	-147.235	0.291	0.024
-152.647	172.124	0.096	-0.135
-151.633	-200.000	-0.031	0.166
-150.618	-93.830	-0.258	0.069
-149.604	-112.363	-0.126	0.025
-148.589	-200.000	0.029	0.243
-147.574	58.037	0.165	-0.158
-146.560	-200.000	-0.002	-0.081
-145.545	-200.000	-0.009	0.302
-144.531	800.000	0.025	0.093
-143.516	800.000	-0.106	0.317
-142.502	-104.738	0.419	-0.094
-141.487	-100.763	-0.137	0.033
-140.472	223.117	0.118	0.186
-139.458	-178.652	-0.143	0.003
-138.443	408.244	0.161	0.333
-137.429	-58.001	-0.126	0.054
-136.414	-9.500	-0.223	0.146
-135.399	800.000	0.073	-0.254
-134.385	-94.758	0.248	-0.066
-133.370	2.810	0.057	-0.040
-132.356	-99.967	0.219	-0.053
-131.341	-55.971	-0.144	0.063
-130.326	-200.000	-0.038	0.414
-129.312	-200.000	-0.065	0.311
-128.297	685.406	0.163	0.417
-127.283	275.103	-0.078	0.134
-126.268	-136.314	0.191	0.022
-125.253	-146.837	0.023	-0.002
-124.239	-108.638	-0.255	-0.054
-123.224	119.521	-0.119	0.145
-122.210	-42.833	0.244	-0.121
