DTS Sentinel unit serial number:	SN413079Multiplexer serial number:	ORYXHardware model number:	OX4-SRSoftware version number:	ORYX F/W v4.00 Oryx Data Collector v3.7.2.0data status	okinstallation	princeton_trtdifferential loss correction	single-endedforward channel	channel 3reverse channel	N/Adate	2019/09/19time	14:24:35forward acquisition time	60.00reverse acquisition time	0.00gamma	496.2192k internal	0.2321k external	0.2321temperature offset calibration	1.0004default loss term (dB/km)	0.3790temperature slope calibration	1.0000multiplexer offset coefficient	1.0000multiplexer slope coefficient	1.0000fibre end	0.00T internal ref (°C)	32.00T ext. ref 1 (°C)	1.06T ext. ref 2 (°C)	29.23length (m)	temperature (°C)	Stokes	anti-Stokes-747.200	-200.000	0.036	-0.221
-746.185	-200.000	0.051	-0.246
-745.171	369.248	0.098	0.201
-744.156	113.372	0.177	0.217
-743.142	284.654	0.124	0.226
-742.127	177.961	-0.133	0.196
-741.112	-72.660	-0.238	-0.089
-740.098	800.000	-0.046	0.136
-739.083	-200.000	-0.025	-0.236
-738.069	487.580	0.043	0.098
-737.054	241.089	-0.095	0.161
-736.039	-64.419	-0.376	-0.154
-735.025	283.090	-0.056	0.102
-734.010	357.081	-0.049	0.099
-732.996	179.240	-0.200	-0.295
-731.981	309.345	-0.204	-0.385
-730.966	-145.623	0.350	-0.032
-729.952	59.337	-0.112	-0.111
-728.937	260.925	-0.191	-0.333
-727.923	398.946	-0.169	-0.357
-726.908	8.846	-0.169	0.129
-725.894	-25.089	-0.322	-0.193
-724.879	-122.577	0.299	-0.049
-723.864	-125.668	0.402	0.062
-722.850	800.000	0.082	0.316
-721.835	201.660	-0.139	-0.217
-720.821	641.834	-0.132	-0.339
-719.806	-146.750	-0.324	-0.028
-718.791	-47.668	0.243	-0.119
-717.777	-175.483	-0.239	0.007
-716.762	-154.646	0.140	-0.009
-715.748	-147.532	-0.261	-0.022
-714.733	83.788	0.083	0.092
-713.718	-94.434	0.241	0.066
-712.704	-200.000	0.002	-0.206
-711.689	-72.547	0.241	0.090
-710.675	116.396	0.099	0.123
-709.660	-0.015	0.219	0.157
-708.645	8.659	-0.092	0.070
-707.631	-147.972	-0.347	0.029
-706.616	51.619	0.280	0.268
-705.602	440.221	-0.048	-0.107
-704.587	-200.000	0.005	0.108
-703.572	-114.157	0.350	0.068
-702.558	800.000	-0.055	-0.167
-701.543	74.042	0.390	-0.413
-700.529	-33.063	0.055	-0.031
-699.514	-200.000	0.002	0.346
-698.499	-40.271	-0.194	-0.102
-697.485	178.407	0.150	-0.220
-696.470	-41.608	-0.154	-0.080
-695.456	-200.000	0.003	-0.197
-694.441	-200.000	-0.009	-0.352
-693.426	-200.000	0.013	-0.383
-692.412	114.877	-0.097	0.119
-691.397	-200.000	0.032	0.365
-690.383	7.156	0.062	-0.047
-689.368	-81.298	-0.103	0.034
-688.354	61.369	-0.112	-0.112
-687.339	-168.028	-0.431	0.017
-686.324	-107.523	-0.232	-0.051
-685.310	-49.658	0.068	-0.032
-684.295	800.000	-0.108	0.335
-683.281	800.000	-0.103	0.359
-682.266	635.180	0.085	-0.218
-681.251	-145.010	-0.226	-0.021
-680.237	-91.152	0.284	-0.082
-679.222	-117.448	0.104	-0.019
-678.208	-200.000	0.001	-0.121
-677.193	-6.600	0.255	-0.175
-676.178	129.326	-0.141	-0.181
-675.164	-41.860	0.149	0.077
-674.149	179.325	0.080	0.118
-673.135	-126.896	0.140	-0.021
-672.120	-12.577	0.102	0.067
-671.105	800.000	-0.066	-0.251
-670.091	800.000	0.081	-0.227
-669.076	-200.000	0.022	-0.225
-668.062	-115.251	0.158	-0.030
-667.047	186.293	-0.167	0.251
-666.032	51.924	-0.047	0.045
-665.018	-29.362	-0.233	0.134
-664.003	198.399	-0.066	-0.101
-662.989	800.000	-0.068	-0.220
-661.974	800.000	-0.114	-0.372
-660.959	-57.655	-0.290	0.128
-659.945	205.489	0.180	0.281
-658.930	120.558	-0.227	-0.285
-657.916	389.346	0.015	-0.032
-656.901	171.618	-0.195	-0.282
-655.886	519.200	-0.105	-0.247
-654.872	800.000	-0.056	-0.201
-653.857	800.000	0.017	0.066
-652.843	1.867	0.243	0.177
-651.828	-12.318	0.171	-0.112
-650.814	-168.485	0.411	-0.016
-649.799	-89.435	-0.292	0.086
-648.784	-200.000	-0.004	0.077
-647.770	800.000	0.048	-0.183
-646.755	-94.469	-0.150	0.041
-645.741	64.693	-0.284	-0.288
-644.726	-111.329	-0.491	0.101
-643.711	703.184	0.043	0.115
-642.697	-90.599	0.264	-0.077
-641.682	355.448	-0.074	-0.148
-640.668	-120.211	-0.223	-0.038
-639.653	121.656	0.039	0.049
-638.638	14.658	-0.225	-0.177
-637.624	-103.452	-0.284	-0.067
-636.609	421.900	-0.085	0.184
-635.595	46.889	-0.113	-0.106
-634.580	1.074	-0.080	-0.058
-633.565	31.041	-0.308	-0.266
-632.551	-65.669	-0.138	-0.055
-631.536	354.894	-0.086	-0.173
-630.522	1.585	-0.135	-0.098
-629.507	-140.380	0.242	-0.025
-628.492	-200.000	0.002	0.235
-627.478	-52.406	0.232	0.108
-626.463	-34.435	-0.123	0.068
-625.449	800.000	0.015	-0.055
-624.434	343.861	0.087	0.172
-623.419	-200.000	-0.063	-0.352
-622.405	233.843	0.120	-0.199
-621.390	-24.389	0.243	0.145
-620.376	-96.114	-0.152	-0.040
-619.361	9.771	0.163	0.124
-618.346	800.000	-0.083	0.317
-617.332	67.030	-0.096	-0.098
-616.317	800.000	0.053	-0.232
-615.303	-148.666	-0.226	-0.018
-614.288	800.000	-0.016	-0.069
-613.273	-190.357	0.018	-0.000
-612.259	238.813	-0.037	-0.062
-611.244	15.312	0.207	-0.163
-610.230	154.604	-0.135	-0.186
-609.215	-77.021	-0.398	-0.140
-608.201	-82.040	0.237	-0.078
-607.186	367.913	0.076	-0.153
-606.171	272.997	0.097	-0.173
-605.157	164.324	0.148	-0.209
-604.142	41.585	-0.313	-0.285
-603.128	60.969	-0.121	-0.121
-602.113	181.021	0.112	0.165
-601.098	188.743	0.129	0.194
-600.084	-200.000	0.002	-0.374
-599.069	800.000	0.101	0.303
-598.055	-155.360	-0.285	0.019
-597.040	187.689	0.172	-0.258
-596.025	-200.000	-0.016	-0.355
-595.011	3.459	-0.113	-0.082
-593.996	-200.000	0.016	-0.172
-592.982	-52.197	-0.208	0.097
-591.967	-50.733	-0.188	0.089
-590.952	146.336	-0.072	-0.097
-589.938	-55.801	-0.077	-0.035
-588.923	19.285	-0.228	0.184
-587.909	132.016	0.124	0.161
-586.894	-51.990	0.200	-0.093
-585.879	-200.000	-0.009	0.088
-584.865	-125.083	-0.118	0.018
-583.850	-57.416	0.143	-0.063
-582.836	78.136	-0.077	-0.082
-581.821	-185.611	-0.101	0.002
-580.806	-86.474	-0.422	-0.130
-579.792	-30.310	-0.086	0.049
-578.777	32.124	-0.095	-0.083
-577.763	-142.267	0.299	-0.030
-576.748	320.725	-0.101	-0.192
-575.733	-200.000	0.029	0.215
-574.719	-126.985	-0.073	0.011
-573.704	-12.194	-0.198	-0.130
-572.690	-27.091	-0.097	-0.057
-571.675	800.000	0.042	-0.158
-570.661	-174.910	0.151	0.004
-569.646	496.446	0.132	-0.305
-568.631	800.000	0.008	0.030
-567.617	282.947	-0.033	0.060
-566.602	-77.001	-0.355	-0.124
-565.588	800.000	-0.084	-0.245
-564.573	-44.931	0.357	-0.178
-563.558	-115.774	0.253	-0.048
-562.544	57.846	0.240	0.236
-561.529	-200.000	-0.010	0.104
-560.515	-127.506	0.235	-0.034
-559.500	-10.558	-0.149	0.099
-558.485	-49.196	-0.057	-0.027
-557.471	66.001	0.024	-0.025
-556.456	213.554	0.100	-0.158
-555.442	-101.033	0.154	0.038
-554.427	177.766	0.117	0.171
-553.412	-13.198	-0.065	-0.042
-552.398	35.717	-0.221	0.195
-551.383	417.651	0.162	0.346
-550.369	-200.000	-0.004	-0.103
-549.354	800.000	0.107	0.357
-548.339	-200.000	0.019	-0.140
-547.325	452.530	-0.107	0.238
-546.310	277.110	-0.054	0.097
-545.296	30.329	-0.101	0.087
-544.281	141.350	-0.078	-0.104
-543.266	153.857	0.102	0.140
-542.252	-103.161	0.288	-0.068
-541.237	-166.013	0.127	-0.005
-540.223	-200.000	-0.002	-0.096
-539.208	352.502	-0.108	-0.215
-538.193	134.691	0.147	-0.191
-537.179	-52.407	0.180	0.083
-536.164	269.655	0.152	0.268
-535.150	-200.000	-0.003	-0.374
-534.135	62.689	-0.019	0.019
-533.121	-83.588	-0.194	-0.062
-532.106	92.175	-0.175	-0.197
-531.091	-3.890	0.153	0.107
-530.077	90.184	-0.201	0.225
-529.062	-197.774	-0.065	-0.000
-528.048	-79.349	0.061	-0.021
-527.033	-39.307	-0.070	0.037
-526.018	800.000	-0.062	-0.235
-525.004	106.490	-0.176	-0.209
-523.989	-200.000	-0.050	-0.231
-522.975	630.064	0.074	0.189
-521.960	-200.000	-0.011	-0.195
-520.945	297.372	-0.065	-0.119
-519.931	-7.988	-0.116	0.079
-518.916	-98.449	-0.232	0.060
-517.902	45.314	0.187	-0.173
-516.887	800.000	-0.043	-0.132
-515.872	-70.570	-0.141	0.053
-514.858	-200.000	-0.039	-0.221
-513.843	800.000	-0.061	0.214
-512.829	-93.237	-0.087	0.024
-511.814	-161.937	-0.398	0.020
-510.799	86.358	0.044	-0.049
-509.785	-115.505	0.209	-0.039
-508.770	9.063	-0.329	-0.249
-507.756	-118.447	0.340	0.060
-506.741	-154.928	0.299	-0.020
-505.726	63.169	-0.216	-0.216
-504.712	800.000	-0.052	0.223
-503.697	-141.599	0.123	-0.012
-502.683	-200.000	-0.079	-0.468
-501.668	23.619	-0.329	-0.272
-500.653	213.391	-0.092	0.146
-499.639	158.020	0.090	-0.125
-498.624	-7.642	-0.119	0.081
-497.610	48.467	0.127	-0.119
-496.595	31.865	0.137	-0.118
-495.581	-65.527	-0.554	0.223
-494.566	286.721	0.034	0.062
-493.551	-200.000	0.006	-0.188
-492.537	20.944	0.163	0.132
-491.522	195.717	0.083	0.126
-490.508	5.207	0.107	0.079
-489.493	-104.059	-0.127	0.030
-488.478	6.590	0.030	0.023
-487.464	-138.440	-0.259	-0.029
-486.449	-163.040	-0.173	0.008
-485.435	-52.243	-0.194	-0.090
-484.420	-200.000	0.024	-0.250
-483.405	586.862	0.059	0.144
-482.391	-78.306	0.085	-0.029
-481.376	776.507	0.080	-0.218
-480.362	-61.323	-0.082	0.034
-479.347	-200.000	-0.052	0.276
-478.332	-200.000	0.004	-0.342
-477.318	174.003	0.096	-0.139
-476.303	396.203	0.092	0.193
-475.289	-91.608	-0.417	-0.119
-474.274	318.773	0.132	-0.249
-473.259	-38.704	0.112	-0.059
-472.245	533.428	0.025	0.059
-471.230	-129.238	-0.390	-0.054
-470.216	800.000	-0.021	-0.078
-469.201	18.900	0.389	0.312
-468.186	47.103	-0.172	-0.160
-467.172	-89.402	0.220	-0.065
-466.157	538.229	0.106	-0.251
-465.143	-124.857	0.131	-0.020
-464.128	800.000	-0.029	0.121
-463.113	-115.146	0.216	0.041
-462.099	255.703	0.227	-0.389
-461.084	800.000	-0.032	-0.128
-460.070	-72.423	0.279	0.103
-459.055	-142.801	-0.209	0.020
-458.040	442.115	-0.237	0.519
-457.026	52.239	-0.088	0.084
-456.011	166.096	0.093	0.132
-454.997	124.382	0.223	0.280
-453.982	-200.000	0.019	0.096
-452.968	114.467	0.161	-0.196
-451.953	-200.000	-0.005	0.033
-450.938	800.000	0.071	-0.286
-449.924	-200.000	-0.017	0.164
-448.909	-140.138	0.190	-0.020
-447.895	-200.000	-0.055	0.243
-446.880	-200.000	0.037	-0.210
-445.865	420.105	-0.110	0.236
-444.851	-15.822	0.195	-0.124
-443.836	4.226	-0.148	-0.108
-442.822	6.082	-0.233	-0.172
-441.807	800.000	-0.096	0.308
-440.792	-121.492	0.218	0.036
-439.778	-200.000	0.033	0.201
-438.763	-5.304	-0.084	-0.058
-437.749	-123.195	-0.395	-0.063
-436.734	-200.000	0.016	-0.271
-435.719	-115.345	-0.261	0.049
-434.705	-42.870	0.068	0.035
-433.690	524.926	-0.067	-0.158
-432.676	348.588	0.113	-0.222
-431.661	-67.871	0.471	0.184
-430.646	-38.845	-0.302	0.159
-429.632	-200.000	0.053	0.307
-428.617	-200.000	0.001	0.096
-427.603	800.000	0.057	0.162
-426.588	-198.528	0.044	0.000
-425.573	733.181	0.072	-0.193
-424.559	237.346	0.280	0.463
-423.544	365.655	-0.067	-0.134
-422.530	58.259	-0.302	0.296
-421.515	-164.019	0.396	-0.018
-420.500	35.972	0.129	-0.113
-419.486	-16.512	-0.220	-0.139
-418.471	78.938	-0.170	-0.181
-417.457	-131.494	-0.098	-0.013
-416.442	800.000	0.090	0.264
-415.428	-200.000	-0.021	-0.164
-414.413	-107.679	-0.141	-0.031
-413.398	133.082	0.066	0.085
-412.384	-200.000	-0.028	0.303
-411.369	-36.122	-0.077	0.042
-410.355	61.996	-0.155	0.154
-409.340	224.794	0.170	0.274
-408.325	206.073	0.115	0.178
-407.311	-200.000	-0.041	-0.219
-406.296	800.000	-0.057	0.200
-405.282	-15.401	0.314	0.200
-404.267	249.367	-0.142	0.240
-403.252	800.000	-0.055	0.212
-402.238	-61.449	-0.118	0.049
-401.223	-58.673	0.206	-0.089
-400.209	-200.000	-0.020	-0.273
-399.194	99.753	-0.128	-0.148
-398.179	800.000	0.079	0.326
-397.165	-122.956	-0.316	-0.051
-396.150	-19.368	0.106	0.065
-395.136	-111.525	0.256	0.052
-394.121	479.295	-0.127	0.286
-393.106	-103.294	0.271	0.064
-392.092	-135.211	-0.250	-0.030
-391.077	-128.371	0.337	-0.048
-390.063	358.470	-0.034	0.068
-389.048	54.012	-0.161	0.154
-388.033	-68.463	-0.102	0.039
-387.019	113.887	0.086	0.104
-386.004	-127.900	-0.167	0.024
-384.990	800.000	-0.063	-0.261
-383.975	44.182	-0.393	-0.360
-382.960	198.261	0.026	0.040
-381.946	100.761	0.217	0.251
-380.931	-94.398	0.125	-0.034
-379.917	-31.720	-0.260	0.145
-378.902	-59.370	0.189	0.081
-377.888	461.542	-0.155	0.345
-376.873	100.552	0.139	-0.161
-375.858	-9.042	0.309	0.206
-374.844	246.953	-0.079	0.133
-373.829	-166.618	-0.203	0.008
-372.815	748.919	-0.013	0.034
-371.800	-200.000	0.050	-0.298
-370.785	282.691	0.130	-0.232
-369.771	-113.612	-0.275	0.054
-368.756	29.914	0.093	0.079
-367.742	77.671	-0.062	0.066
-366.727	-200.000	0.040	0.205
-365.712	-96.322	0.100	0.026
-364.698	-200.000	0.052	-0.586
-363.683	800.000	-0.082	0.340
-362.669	320.201	0.048	0.090
-361.654	-105.801	0.077	-0.017
-360.639	159.624	-0.120	-0.166
-359.625	-200.000	0.030	-0.185
-358.610	-75.271	0.225	-0.080
-357.596	-13.933	0.297	-0.191
-356.581	-200.000	-0.052	0.255
-355.566	800.000	0.067	0.272
-354.552	89.203	0.100	0.111
-353.537	800.000	0.081	-0.260
-352.523	-200.000	0.029	-0.296
-351.508	580.117	-0.061	0.148
-350.493	217.481	0.083	0.132
-349.479	-200.000	-0.025	0.264
-348.464	-48.174	-0.196	0.094
-347.450	-130.808	0.284	0.038
-346.435	-126.513	-0.373	-0.055
-345.420	604.062	0.161	-0.399
-344.406	82.464	0.194	0.209
-343.391	582.331	0.097	0.237
-342.377	99.633	-0.258	0.298
-341.362	189.055	0.107	-0.160
-340.348	8.520	0.232	-0.174
-339.333	-127.742	-0.235	-0.034
-338.318	-65.599	-0.274	-0.110
-337.304	491.400	0.100	0.227
-336.289	-51.633	0.347	-0.161
-335.275	4.116	0.144	-0.105
-334.260	-83.123	-0.098	-0.031
-333.245	-194.713	0.394	0.003
-332.231	-33.521	-0.165	-0.091
-331.216	-12.580	-0.170	-0.110
-330.202	24.991	0.097	0.080
-329.187	19.083	-0.078	0.062
-328.172	332.603	-0.024	-0.046
-327.158	111.232	0.189	0.226
-326.143	140.021	-0.285	0.373
-325.129	-69.834	-0.173	0.066
-324.114	2.662	-0.150	-0.108
-323.099	800.000	-0.081	-0.248
-322.085	29.825	0.092	0.078
-321.070	-200.000	-0.010	0.199
-320.056	-200.000	0.102	0.562
-319.041	613.343	0.053	0.131
-318.026	135.154	0.157	0.203
-317.012	36.403	-0.359	0.315
-315.997	-17.371	0.242	-0.152
-314.983	-25.984	-0.196	-0.115
-313.968	362.738	-0.041	0.082
-312.953	-71.437	-0.217	-0.081
-311.939	428.629	0.063	0.136
-310.924	87.568	0.342	0.376
-309.910	162.754	-0.178	-0.249
-308.895	-149.500	0.470	-0.037
-307.880	-200.000	0.050	-0.258
-306.866	-12.406	0.199	0.129
-305.851	-122.142	0.231	0.038
-304.837	40.298	0.087	-0.078
-303.822	-200.000	-0.086	0.524
-302.807	131.154	0.265	-0.338
-301.793	800.000	0.077	-0.242
-300.778	149.942	0.084	-0.113
-299.764	800.000	0.055	0.235
-298.749	-200.000	0.025	-0.231
-297.735	-10.287	0.352	-0.232
-296.720	-200.000	0.009	0.108
-295.705	-81.437	-0.159	-0.052
-294.691	-200.000	-0.024	-0.170
-293.676	46.828	-0.187	0.172
-292.662	125.120	-0.120	0.151
-291.647	800.000	-0.059	0.241
-290.632	800.000	0.047	0.155
-289.618	51.152	-0.218	0.205
-288.603	-95.818	0.126	0.033
-287.589	-200.000	0.012	0.279
-286.574	33.001	-0.291	0.250
-285.559	800.000	0.073	0.209
-284.545	23.401	-0.115	0.094
-283.530	449.574	0.086	-0.188
-282.516	320.262	-0.093	0.175
-281.501	-135.992	-0.254	-0.030
-280.486	-20.926	0.191	0.116
-279.472	-200.000	0.004	-0.200
-278.457	34.185	-0.156	0.135
-277.443	-144.340	-0.157	0.014
-276.428	-85.376	0.257	0.080
-275.413	-139.887	0.367	0.039
-274.399	-116.602	-0.163	0.030
-273.384	-118.536	0.059	-0.010
-272.370	800.000	-0.055	0.223
-271.355	9.703	-0.074	0.056
-270.340	-119.615	-0.137	0.024
-269.326	147.790	0.048	0.065
-268.311	210.836	0.068	0.106
-267.297	-200.000	-0.002	-0.059
-266.282	-42.899	0.092	0.046
-265.267	-200.000	-0.015	0.093
-264.253	486.552	0.057	-0.130
-263.238	54.870	0.218	0.209
-262.224	-49.866	0.499	0.235
-261.209	-86.547	-0.097	-0.030
-260.195	260.209	-0.191	0.328
-259.180	-69.913	0.235	0.089
-258.165	-200.000	-0.049	-0.235
-257.151	172.341	0.192	0.273
-256.136	-41.492	0.099	0.051
-255.122	800.000	-0.043	0.182
-254.107	-200.000	0.027	-0.197
-253.092	71.327	-0.021	0.022
-252.078	-200.000	0.035	0.205
-251.063	32.907	0.084	0.073
-250.049	493.184	-0.131	-0.298
-249.034	-108.495	-0.152	-0.032
-248.019	-107.120	0.317	-0.069
-247.005	-200.000	0.030	-0.147
-245.990	702.448	0.058	-0.152
-244.976	-113.693	-0.143	-0.028
-243.961	225.658	0.122	0.196
-242.946	-104.770	-0.330	-0.075
-241.932	2.946	-0.224	-0.161
-240.917	-44.019	0.164	-0.082
-239.903	-200.000	0.021	-0.179
-238.888	93.305	0.062	0.070
-237.873	-121.430	0.095	0.016
-236.859	-110.957	0.112	0.023
-235.844	-138.414	-0.287	-0.031
-234.830	800.000	-0.120	0.514
-233.815	-103.523	0.469	0.109
-232.800	211.632	-0.235	-0.367
-231.786	-200.000	-0.017	0.090
-230.771	800.000	-0.100	-0.289
-229.757	65.660	0.086	0.086
-228.742	800.000	-0.047	0.169
-227.727	-16.461	0.245	0.154
-226.713	-132.213	0.567	-0.073
-225.698	-200.000	-0.012	-0.535
-224.684	-200.000	-0.071	-0.334
-223.669	100.348	0.189	0.217
-222.655	-200.000	0.041	0.299
-221.640	-29.327	0.225	0.127
-220.625	-69.708	-0.115	0.043
-219.611	-135.130	-0.051	0.006
-218.596	800.000	-0.091	0.306
-217.582	-101.514	0.272	0.066
-216.567	-69.981	-0.164	0.062
-215.552	-29.737	-0.309	0.174
-214.538	-48.423	0.266	0.127
-213.523	427.163	0.173	0.370
-212.509	-200.000	0.031	-0.249
-211.494	800.000	-0.041	-0.115
-210.479	658.497	-0.021	0.055
-209.465	134.900	0.072	-0.093
-208.450	-158.739	0.189	0.011
-207.436	-200.000	-0.051	-0.276
-206.421	-31.160	0.327	-0.183
-205.406	-174.844	0.226	-0.006
-204.392	-200.000	0.014	-0.337
-203.377	-200.000	0.021	0.260
-202.363	-200.000	0.019	-0.188
-201.348	25.717	-0.256	-0.211
-200.333	800.000	0.048	-0.170
-199.319	770.466	-0.039	-0.105
-198.304	-94.122	-0.207	-0.056
-197.290	-200.000	0.021	0.161
-196.275	-200.000	-0.066	-0.358
-195.260	-56.199	0.274	-0.121
-194.246	-19.470	-0.251	0.154
-193.231	-125.217	0.206	0.031
-192.217	70.902	0.245	0.251
-191.202	-147.760	0.191	-0.016
-190.187	67.318	-0.235	-0.237
-189.173	2.461	-0.184	-0.131
-188.158	-200.000	-0.055	-0.354
-187.144	411.243	-0.057	0.120
-186.129	-29.919	-0.052	0.029
-185.114	627.360	0.027	0.068
-184.100	-30.391	-0.188	-0.106
-183.085	-88.504	-0.187	0.055
-182.071	-64.094	0.165	-0.067
-181.056	-66.875	-0.137	0.054
-180.042	-5.378	0.118	0.080
-179.027	211.155	0.218	0.339
-178.012	-200.000	-0.005	-0.022
-176.998	-108.781	0.268	-0.057
-175.983	121.988	-0.126	0.156
-174.969	-5.248	-0.328	0.223
-173.954	105.117	0.044	0.052
-172.939	-200.000	0.045	0.204
-171.925	14.745	0.263	0.203
-170.910	161.449	0.081	0.112
-169.896	-200.000	0.042	-0.251
-168.881	-113.785	-0.238	-0.046
-167.866	299.426	-0.192	-0.349
-166.852	-96.280	0.250	0.066
-165.837	-28.004	0.099	-0.056
-164.823	-200.000	-0.036	-0.485
-163.808	-83.122	0.305	0.097
-162.793	-30.669	0.308	-0.172
-161.779	-46.724	-0.178	-0.086
-160.764	800.000	-0.134	-0.476
-159.750	196.234	-0.120	-0.181
-158.735	130.727	-0.102	-0.129
-157.720	800.000	-0.052	0.159
-156.706	415.973	0.077	-0.161
-155.691	439.816	-0.072	0.156
-154.677	-200.000	0.054	0.264
-153.662	125.787	-0.010	-0.012
-152.647	-129.176	-0.395	-0.054
-151.633	-61.602	-0.036	-0.015
-150.618	66.265	0.298	0.299
-149.604	75.229	-0.147	0.153
-148.589	-42.894	0.201	-0.101
-147.574	-24.067	-0.228	-0.135
-146.560	-4.359	0.127	-0.086
-145.545	315.298	0.188	0.350
-144.531	402.237	0.115	-0.238
-143.516	-143.981	-0.231	-0.021
-142.502	-104.318	-0.194	-0.044
-141.487	-56.532	0.293	-0.128
-140.472	800.000	-0.105	0.306
-139.458	-65.202	-0.285	0.114
-138.443	-200.000	-0.030	0.133
-137.429	-110.329	-0.134	-0.028
-136.414	800.000	-0.047	0.139
-135.399	-200.000	0.015	0.143
-134.385	800.000	0.058	0.182
-133.370	-126.814	-0.140	-0.020
-132.356	-31.847	-0.066	-0.037
-131.341	30.196	0.213	-0.179
-130.326	-200.000	-0.011	-0.154
-129.312	19.936	0.329	0.262
-128.297	330.141	0.106	0.201
-127.283	-200.000	0.109	0.478
-126.268	-73.632	-0.251	0.090
-125.253	498.370	-0.128	0.291
-124.239	17.746	0.091	0.071
-123.224	-131.509	-0.249	0.032
-122.210	-147.699	0.082	0.007
-121.195	-200.000	-0.009	0.078
