DTS Sentinel unit serial number:	SN413079Multiplexer serial number:	ORYXHardware model number:	OX4-SRSoftware version number:	ORYX F/W v4.00 Oryx Data Collector v3.7.2.0data status	okinstallation	princeton_trtdifferential loss correction	single-endedforward channel	channel 3reverse channel	N/Adate	2019/09/13time	11:32:35forward acquisition time	60.00reverse acquisition time	0.00gamma	496.2192k internal	0.2313k external	0.2313temperature offset calibration	1.0138default loss term (dB/km)	0.3790temperature slope calibration	1.0000multiplexer offset coefficient	1.0000multiplexer slope coefficient	1.0000fibre end	0.00T internal ref (°C)	32.81T ext. ref 1 (°C)	4.38T ext. ref 2 (°C)	30.21length (m)	temperature (°C)	Stokes	anti-Stokes-747.200	-78.200	0.100	0.035
-746.185	464.982	0.099	0.224
-745.171	-63.245	-0.236	0.099
-744.156	83.375	-0.128	0.142
-743.142	-145.752	-0.417	-0.038
-742.127	800.000	-0.068	0.226
-741.112	70.229	-0.162	-0.170
-740.098	425.851	0.052	-0.113
-739.083	701.194	0.120	0.319
-738.069	-107.271	0.368	0.082
-737.054	337.842	0.037	0.072
-736.039	-147.704	-0.071	0.006
-735.025	378.086	0.292	0.606
-734.010	233.446	0.032	0.054
-732.996	-41.689	-0.330	-0.172
-731.981	-15.269	-0.251	0.163
-730.966	-99.868	-0.105	-0.027
-729.952	5.452	-0.179	0.134
-728.937	-63.819	-0.164	0.068
-727.923	-200.000	-0.040	0.199
-726.908	-118.060	-0.301	-0.054
-725.894	-200.000	-0.007	-0.161
-724.879	-34.428	0.039	-0.022
-723.864	693.410	-0.030	-0.080
-722.850	-123.843	-0.196	0.031
-721.835	-145.597	0.045	0.004
-720.821	-120.338	0.249	0.043
-719.806	486.061	-0.057	-0.132
-718.791	-105.835	-0.084	0.019
-717.777	-200.000	0.019	0.123
-716.762	-36.607	-0.269	-0.147
-715.748	-122.605	0.199	-0.033
-714.733	184.002	0.101	-0.152
-713.718	-92.823	-0.130	0.037
-712.704	-106.124	0.455	0.104
-711.689	-38.679	0.249	-0.133
-710.675	328.207	0.169	0.329
-709.660	-200.000	0.027	0.184
-708.645	-41.642	-0.193	0.100
-707.631	-200.000	0.023	-0.316
-706.616	-153.546	0.134	0.009
-705.602	4.171	-0.409	-0.303
-704.587	-200.000	0.027	0.148
-703.572	661.240	0.162	0.423
-702.558	-129.431	-0.186	0.026
-701.543	-23.010	-0.309	0.189
-700.529	-200.000	-0.016	-0.185
-699.514	-55.309	0.130	0.059
-698.499	172.249	0.116	0.169
-697.485	800.000	0.060	-0.182
-696.470	-47.754	-0.064	0.032
-695.456	285.708	-0.179	-0.328
-694.441	-115.559	-0.113	0.022
-693.426	156.496	0.070	-0.098
-692.412	-37.037	-0.081	0.044
-691.397	-32.704	0.138	-0.078
-690.383	195.740	-0.018	-0.028
-689.368	-123.328	-0.204	-0.033
-688.354	-200.000	0.001	0.008
-687.339	800.000	0.004	0.015
-686.324	73.035	0.222	0.235
-685.310	-28.131	0.257	-0.150
-684.295	-102.604	-0.257	0.062
-683.281	-26.766	-0.167	0.099
-682.266	800.000	-0.066	-0.229
-681.251	-200.000	0.253	-0.001
-680.237	31.720	0.018	0.016
-679.222	-109.894	0.115	0.024
-678.208	800.000	-0.069	0.249
-677.193	158.860	0.166	0.233
-676.178	-163.238	-0.208	0.010
-675.164	184.875	-0.026	-0.040
-674.149	-200.000	0.006	0.153
-673.135	527.215	0.084	0.200
-672.120	194.524	-0.072	-0.110
-671.105	-178.404	0.301	0.007
-670.091	-200.000	0.076	-0.353
-669.076	17.397	-0.151	0.121
-668.062	-200.000	-0.035	0.164
-667.047	283.113	-0.079	0.144
-666.032	-200.000	0.000	-0.088
-665.018	73.469	-0.148	0.157
-664.003	100.214	-0.073	-0.085
-662.989	-3.406	-0.104	-0.073
-661.974	-94.492	-0.305	-0.084
-660.959	145.543	0.218	-0.296
-659.945	392.826	0.043	-0.091
-658.930	-38.622	-0.272	0.145
-657.916	-200.000	0.000	0.036
-656.901	-87.896	0.015	0.004
-655.886	-93.567	-0.224	-0.063
-654.872	-98.366	0.100	0.026
-653.857	1.118	-0.222	-0.161
-652.843	188.452	-0.240	0.363
-651.828	800.000	0.056	0.173
-650.814	-200.000	-0.085	-0.397
-649.799	702.570	-0.047	-0.126
-648.784	263.739	0.094	0.165
-647.770	800.000	-0.067	-0.214
-646.755	-114.947	-0.412	-0.079
-645.741	226.931	0.105	-0.172
-644.726	-20.349	0.130	-0.081
-643.711	-200.000	0.013	-0.216
-642.697	-38.360	0.208	-0.111
-641.682	60.076	0.096	-0.096
-640.668	-52.730	0.164	0.077
-639.653	156.984	0.097	-0.136
-638.638	-200.000	-0.024	-0.428
-637.624	-141.588	-0.171	0.017
-636.609	-200.000	-0.003	-0.122
-635.595	125.167	0.085	-0.108
-634.580	-175.994	0.126	0.003
-633.565	-111.523	-0.457	0.094
-632.551	-71.131	-0.152	-0.058
-631.536	117.732	-0.090	0.111
-630.522	-123.085	-0.421	0.068
-629.507	-18.979	0.159	-0.100
-628.492	354.260	-0.132	0.264
-627.478	-200.000	-0.044	-0.214
-626.463	361.087	0.151	-0.305
-625.449	2.570	0.167	0.122
-624.434	-48.070	-0.212	-0.104
-623.419	-99.827	0.334	0.084
-622.405	-200.000	-0.020	-0.198
-621.390	53.021	0.026	0.025
-620.376	-133.091	-0.200	-0.026
-619.361	391.837	-0.221	0.464
-618.346	800.000	0.102	-0.297
-617.332	-32.668	0.130	0.073
-616.317	-102.281	0.145	-0.035
-615.303	-32.444	-0.285	-0.160
-614.288	-161.611	0.407	0.021
-613.273	94.228	0.014	0.016
-612.259	106.324	-0.040	-0.048
-611.244	-200.000	0.008	0.258
-610.230	800.000	0.038	-0.129
-609.215	-169.763	-0.489	-0.018
-608.201	458.606	0.023	-0.051
-607.186	800.000	-0.047	-0.164
-606.171	468.333	-0.056	0.127
-605.157	-190.556	0.245	-0.003
-604.142	327.931	0.054	-0.105
-603.128	-154.452	0.244	-0.016
-602.113	-57.679	0.083	-0.037
-601.098	-84.013	-0.319	-0.102
-600.084	-7.795	0.318	-0.217
-599.069	-200.000	0.048	-0.245
-598.055	-131.390	-0.192	0.026
-597.040	61.086	-0.114	0.114
-596.025	-84.146	0.361	0.115
-595.011	-200.000	-0.036	0.343
-593.996	113.741	0.349	0.428
-592.982	354.086	-0.096	0.191
-591.967	800.000	0.039	-0.136
-590.952	-175.490	-0.049	0.001
-589.938	800.000	0.116	-0.495
-588.923	-200.000	0.046	-0.261
-587.909	-58.456	-0.186	0.081
-586.894	606.342	-0.058	0.145
-585.879	204.514	0.159	0.248
-584.865	-200.000	0.055	-0.345
-583.850	226.501	0.173	-0.284
-582.836	-172.452	0.316	0.010
-581.821	-15.377	0.124	0.080
-580.806	498.791	-0.121	-0.280
-579.792	-139.510	-0.236	-0.025
-578.777	-81.208	-0.200	0.067
-577.763	-26.460	-0.294	0.174
-576.748	-143.429	-0.116	0.011
-575.733	-200.000	0.004	-0.089
-574.719	-101.405	0.048	0.012
-573.704	-131.785	0.168	0.022
-572.690	-125.572	0.056	-0.009
-571.675	-200.000	-0.039	0.219
-570.661	221.566	-0.216	0.350
-569.646	-122.300	0.444	0.073
-568.631	386.590	0.092	-0.192
-567.617	99.013	0.028	-0.032
-566.602	-44.468	0.130	-0.066
-565.588	800.000	-0.044	0.167
-564.573	-200.000	-0.057	0.312
-563.558	-117.687	0.127	0.023
-562.544	-150.602	-0.178	0.014
-561.529	-133.989	0.063	0.008
-560.515	297.557	-0.118	0.217
-559.500	-69.323	-0.177	-0.068
-558.485	-171.691	0.197	0.007
-557.471	244.225	0.085	-0.143
-556.456	-13.606	-0.020	0.013
-555.442	-40.957	0.385	-0.200
-554.427	-72.029	-0.357	0.134
-553.412	21.309	0.117	0.095
-552.398	-57.619	0.258	-0.114
-551.383	-63.252	0.477	-0.198
-550.369	-36.431	-0.114	-0.062
-549.354	-186.615	-0.450	-0.006
-548.339	-54.738	0.412	-0.187
-547.325	223.287	-0.152	-0.247
-546.310	800.000	0.021	0.060
-545.296	800.000	0.071	-0.209
-544.281	-55.518	-0.064	-0.029
-543.266	26.792	-0.231	-0.195
-542.252	800.000	0.024	0.096
-541.237	-11.839	-0.290	0.191
-540.223	422.999	-0.074	-0.160
-539.208	303.903	0.077	-0.143
-538.193	800.000	-0.066	0.273
-537.179	204.542	-0.159	-0.248
-536.164	124.456	0.089	-0.112
-535.150	-13.550	0.130	-0.085
-534.135	393.559	-0.083	-0.174
-533.121	-18.061	0.046	-0.029
-532.106	-200.000	-0.003	-0.279
-531.091	37.779	-0.113	0.101
-530.077	-200.000	0.003	-0.208
-529.062	-11.281	-0.312	0.206
-528.048	185.374	-0.212	0.316
-527.033	477.286	-0.058	-0.131
-526.018	-40.494	0.261	-0.136
-525.004	-161.809	-0.044	-0.002
-523.989	-31.002	0.231	-0.131
-522.975	800.000	0.051	0.224
-521.960	120.608	0.187	0.234
-520.945	-34.904	0.195	-0.107
-519.931	-200.000	0.001	-0.159
-518.916	111.539	-0.160	0.194
-517.902	64.306	0.096	-0.097
-516.887	101.437	0.306	-0.359
-515.872	224.831	0.101	-0.165
-514.858	800.000	-0.083	-0.243
-513.843	624.560	0.036	0.090
-512.829	167.083	0.134	0.191
-511.814	800.000	-0.060	0.174
-510.799	-17.717	0.056	-0.035
-509.785	-77.858	-0.123	0.043
-508.770	96.626	-0.198	-0.228
-507.756	-14.728	-0.106	-0.068
-506.741	-81.200	-0.102	0.034
-505.726	23.596	-0.132	-0.109
-504.712	131.560	0.236	0.305
-503.697	-70.693	0.203	-0.077
-502.683	-51.646	0.074	0.035
-501.668	150.479	0.116	-0.158
-500.653	262.758	-0.018	0.032
-499.639	-200.000	-0.006	0.555
-498.624	423.485	0.069	-0.148
-497.610	-53.492	-0.681	0.313
-496.595	154.122	-0.236	0.325
-495.581	30.178	0.256	0.219
-494.566	-200.000	0.008	0.091
-493.551	-5.159	-0.169	-0.117
-492.537	371.207	-0.099	-0.201
-491.522	-200.000	-0.008	0.274
-490.508	-200.000	-0.001	0.007
-489.493	-67.569	0.070	0.027
-488.478	-200.000	0.018	0.264
-487.464	-134.778	-0.226	0.028
-486.449	108.806	0.173	0.208
-485.435	265.689	0.050	-0.087
-484.420	-72.345	-0.273	-0.101
-483.405	800.000	-0.115	-0.336
-482.391	-37.682	-0.270	-0.144
-481.376	-172.004	0.378	0.012
-480.362	-200.000	-0.034	0.296
-479.347	42.764	-0.146	0.133
-478.332	800.000	0.112	0.386
-477.318	-144.138	0.248	-0.023
-476.303	175.509	-0.278	0.405
-475.289	-97.670	0.397	0.103
-474.274	243.417	0.199	0.335
-473.259	78.448	-0.183	-0.196
-472.245	297.622	0.115	-0.212
-471.230	-125.337	0.143	-0.022
-470.216	506.475	-0.057	0.134
-469.201	307.240	0.185	-0.346
-468.186	-27.479	0.334	-0.195
-467.172	-163.704	0.097	-0.005
-466.157	108.380	0.160	-0.192
-465.143	800.000	0.100	0.327
-464.128	198.542	-0.078	0.120
-463.113	-175.820	-0.138	-0.004
-462.099	-200.000	0.020	0.178
-461.084	-22.213	-0.157	-0.096
-460.070	-69.235	0.090	-0.035
-459.055	209.381	0.189	0.297
-458.040	537.775	0.055	0.130
-457.026	-78.643	0.294	-0.101
-456.011	800.000	0.047	-0.204
-454.997	800.000	0.072	0.226
-453.982	13.137	0.015	0.011
-452.968	748.196	0.093	-0.251
-451.953	-9.663	-0.137	-0.091
-450.938	-59.111	0.308	-0.133
-449.924	149.368	-0.282	-0.383
-448.909	-134.872	-0.225	-0.027
-447.895	-200.000	-0.010	-0.107
-446.880	142.687	-0.160	0.214
-445.865	-86.179	-0.236	-0.073
-444.851	777.286	0.108	-0.295
-443.836	309.051	-0.089	-0.167
-442.822	279.960	-0.090	0.160
-441.807	371.090	0.287	0.583
-440.792	-131.379	-0.036	-0.005
-439.778	161.144	0.131	-0.184
-438.763	-200.000	0.014	-0.171
-437.749	-200.000	-0.012	0.304
-436.734	-200.000	0.028	0.154
-435.719	-26.558	0.132	0.077
-434.705	-60.580	0.425	0.181
-433.690	800.000	0.081	0.269
-432.676	144.381	0.049	0.065
-431.661	800.000	0.097	0.290
-430.646	-182.225	-0.206	-0.004
-429.632	800.000	-0.067	0.212
-428.617	-29.956	-0.322	0.184
-427.603	-95.534	-0.107	-0.029
-426.588	-200.000	-0.025	0.337
-425.573	-200.000	-0.031	0.207
-424.559	-7.624	0.289	-0.196
-423.544	191.313	-0.104	0.157
-422.530	-200.000	0.042	-0.256
-421.515	192.885	-0.107	-0.162
-420.500	305.939	0.094	0.175
-419.486	307.618	-0.052	-0.096
-418.471	-19.820	-0.233	0.144
-417.457	606.231	0.084	-0.209
-416.442	242.819	0.082	0.138
-415.428	-123.114	-0.142	0.023
-414.413	-121.196	-0.052	-0.009
-413.398	20.659	-0.498	-0.403
-412.384	-161.045	0.150	0.008
-411.369	112.290	-0.086	0.104
-410.355	327.085	-0.094	0.180
-409.340	-133.082	0.270	-0.034
-408.325	532.140	-0.058	0.138
-407.311	419.955	0.121	-0.260
-406.296	-58.733	0.193	-0.084
-405.282	-15.987	-0.118	0.075
-404.267	49.499	-0.221	-0.208
-403.252	-115.209	0.180	-0.034
-402.238	51.600	0.110	0.104
-401.223	-200.000	0.023	-0.227
-400.209	225.858	-0.070	0.114
-399.194	83.774	-0.070	-0.076
-398.179	-64.460	-0.093	0.038
-397.165	293.160	0.069	0.126
-396.150	-96.121	-0.180	-0.048
-395.136	-200.000	-0.003	0.189
-394.121	763.784	0.094	0.254
-393.106	-64.579	-0.347	-0.141
-392.092	-200.000	-0.019	-0.278
-391.077	-72.473	0.200	0.074
-390.063	10.800	-0.254	0.194
-389.048	27.758	-0.230	0.194
-388.033	800.000	-0.115	0.318
-387.019	-200.000	0.069	-0.439
-386.004	-81.420	0.126	-0.042
-384.990	800.000	-0.061	0.211
-383.975	-67.514	-0.106	-0.042
-382.960	3.561	-0.070	0.051
-381.946	71.046	-0.203	-0.211
-380.931	-120.991	0.161	0.027
-379.917	-114.735	-0.096	0.018
-378.902	-21.478	-0.103	-0.063
-377.888	-200.000	-0.002	0.365
-376.873	214.311	0.112	0.177
-375.858	-200.000	0.004	-0.124
-374.844	-200.000	-0.003	-0.038
-373.829	63.929	0.265	-0.267
-372.815	-61.666	-0.173	0.073
-371.800	-32.781	0.105	0.058
-370.785	-53.278	0.247	-0.113
-369.771	169.484	-0.009	0.013
-368.756	-200.000	0.023	0.000
-367.742	-26.950	0.359	0.209
-366.727	-107.459	0.385	-0.084
-365.712	276.442	0.043	0.077
-364.698	-200.000	-0.043	0.242
-363.683	-76.529	-0.224	0.079
-362.669	-126.490	0.384	0.057
-361.654	-130.332	-0.290	0.039
-360.639	139.345	0.163	0.214
-359.625	-200.000	0.019	-0.283
-358.610	-200.000	-0.016	0.144
-357.596	0.666	-0.292	-0.208
-356.581	800.000	0.178	-0.502
-355.566	515.246	0.050	-0.118
-354.552	-36.202	-0.431	-0.232
-353.537	-151.444	0.238	0.018
-352.523	26.306	-0.277	-0.231
-351.508	-41.455	0.127	0.065
-350.493	229.699	-0.154	-0.252
-349.479	93.060	0.065	-0.073
-348.464	-87.722	-0.133	-0.040
-347.450	-174.715	0.137	0.004
-346.435	83.635	0.019	-0.021
-345.420	54.713	0.194	-0.187
-344.406	195.936	-0.082	-0.124
-343.391	-96.683	0.126	-0.033
-342.377	206.923	-0.088	0.138
-341.362	-200.000	-0.070	-0.326
-340.348	-200.000	0.020	-0.304
-339.333	-124.511	-0.469	-0.073
-338.318	-84.149	-0.205	0.065
-337.304	376.273	0.076	-0.155
-336.289	-96.156	-0.207	0.055
-335.275	499.103	-0.170	0.392
-334.260	-10.156	0.200	0.133
-333.245	-200.000	-0.023	0.132
-332.231	347.835	0.076	0.149
-331.216	-30.513	-0.097	0.055
-330.202	-37.858	0.200	0.106
-329.187	-14.066	0.186	-0.120
-328.172	125.454	-0.030	0.037
-327.158	69.095	0.064	0.066
-326.143	-136.572	-0.169	0.020
-325.129	29.016	-0.092	0.078
-324.114	-200.000	0.007	0.241
-323.099	120.137	-0.158	-0.196
-322.085	800.000	0.023	-0.069
-321.070	-34.903	0.098	0.054
-320.056	118.398	0.233	0.287
-319.041	-146.765	0.219	0.019
-318.026	-77.374	-0.236	0.082
-317.012	-13.296	-0.413	0.267
-315.997	800.000	-0.140	-0.481
-314.983	-147.810	-0.103	-0.009
-313.968	444.629	0.069	-0.150
-312.953	800.000	-0.060	0.240
-311.939	-200.000	-0.029	0.274
-310.924	-87.661	0.433	0.130
-309.910	40.745	-0.277	-0.249
-308.895	-5.080	0.272	-0.187
-307.880	378.516	0.022	0.045
-306.866	-200.000	-0.030	0.215
-305.851	21.658	-0.119	-0.097
-304.837	800.000	0.044	-0.157
-303.822	-17.887	-0.076	-0.048
-302.807	-172.500	-0.235	-0.007
-301.793	22.632	-0.198	-0.161
-300.778	-135.040	0.242	0.029
-299.764	-100.762	0.141	-0.035
-298.749	-45.905	-0.130	-0.064
-297.735	124.161	0.222	-0.278
-296.720	-39.334	0.316	-0.165
-295.705	-64.697	-0.052	-0.021
-294.691	800.000	-0.108	0.442
-293.676	-200.000	0.042	0.305
-292.662	-107.486	-0.229	0.050
-291.647	-16.244	-0.119	-0.075
-290.632	-55.300	-0.205	0.092
-289.618	45.278	-0.172	-0.158
-288.603	29.187	-0.140	-0.118
-287.589	-118.059	-0.299	-0.053
-286.574	384.904	-0.069	0.141
-285.559	-79.784	0.447	0.150
-284.545	-200.000	0.057	0.347
-283.530	-200.000	0.015	0.139
-282.516	279.609	-0.003	0.006
-281.501	-200.000	-0.006	0.326
-280.486	-86.298	0.318	-0.098
-279.472	0.752	0.045	-0.032
-278.457	-9.772	-0.101	0.067
-277.443	164.066	-0.192	0.270
-276.428	66.267	-0.193	-0.196
-275.413	209.195	-0.171	0.267
-274.399	-81.388	-0.181	-0.060
-273.384	-73.237	-0.308	-0.112
-272.370	14.251	0.135	0.105
-271.355	127.205	0.064	0.080
-270.340	-101.125	-0.316	0.077
-269.326	5.169	0.313	-0.229
-268.311	57.543	-0.115	0.112
-267.297	-63.172	-0.285	0.117
-266.282	-74.354	0.343	0.123
-265.267	-88.343	-0.237	-0.071
-264.253	-48.279	0.082	-0.039
-263.238	605.579	-0.161	0.400
-262.224	-200.000	-0.024	-0.243
-261.209	-79.537	0.103	-0.035
-260.195	-158.794	-0.125	-0.007
-259.180	-198.207	0.211	-0.001
-258.165	-13.210	0.153	0.099
-257.151	-24.758	-0.171	-0.101
-256.136	-90.803	-0.251	-0.072
-255.122	800.000	0.059	0.206
-254.107	-200.000	-0.014	0.160
-253.092	9.871	0.155	0.117
-252.078	-40.522	0.203	-0.105
-251.063	-66.228	-0.214	-0.085
-250.049	117.198	-0.049	0.060
-249.034	41.298	-0.141	0.127
-248.019	-70.831	0.057	0.021
-247.005	419.148	-0.173	0.367
-245.990	168.815	0.109	0.154
-244.976	19.427	-0.066	-0.053
-243.961	-200.000	-0.013	-0.289
-242.946	23.013	-0.284	0.232
-241.932	68.052	0.150	-0.153
-240.917	800.000	-0.072	0.216
-239.903	-135.185	0.109	0.013
-238.888	-122.469	-0.273	0.044
-237.873	-200.000	-0.031	-0.189
-236.859	9.838	0.135	-0.102
-235.844	-62.067	-0.372	0.154
-234.830	-105.208	-0.268	-0.061
-233.815	-189.538	0.258	0.003
-232.800	299.767	0.105	0.193
-231.786	-57.805	0.286	-0.124
-230.771	-36.454	-0.175	0.094
-229.757	-159.147	0.347	0.019
-228.742	274.806	-0.091	0.160
-227.727	-40.442	0.141	0.073
-226.713	-13.230	0.160	0.103
-225.698	-134.189	0.393	0.048
-224.684	-200.000	0.025	0.139
-223.669	-123.842	-0.192	0.030
-222.655	-104.597	0.299	0.069
-221.640	800.000	0.104	0.295
-220.625	-43.645	-0.159	-0.080
-219.611	22.497	0.147	-0.119
-218.596	468.263	0.157	0.350
-217.582	-95.143	-0.123	0.033
-216.567	-114.825	0.199	0.038
-215.552	79.801	0.157	-0.167
-214.538	35.987	-0.145	0.126
-213.523	-58.313	-0.196	-0.085
-212.509	156.568	0.134	-0.184
-211.494	-88.526	-0.264	-0.078
-210.479	273.648	0.151	0.265
-209.465	173.648	0.030	0.043
-208.450	290.089	0.144	-0.259
-207.436	159.591	-0.105	-0.145
-206.421	-200.000	-0.021	-0.143
-205.406	108.516	0.144	-0.171
-204.392	800.000	0.150	0.610
-203.377	-200.000	0.019	-0.143
-202.363	-70.765	0.141	-0.053
-201.348	-200.000	0.004	-0.154
-200.333	-5.533	0.117	0.080
-199.319	54.428	-0.160	0.153
-198.304	-200.000	-0.066	-0.398
-197.290	-200.000	-0.001	0.073
-196.275	-140.077	0.303	-0.032
-195.260	119.416	0.126	0.155
-194.246	125.607	0.112	-0.140
-193.231	-170.983	-0.153	-0.005
-192.217	171.273	0.189	0.269
-191.202	112.744	0.169	-0.203
-190.187	76.040	0.276	-0.290
-189.173	778.546	-0.193	-0.524
-188.158	-140.391	-0.157	0.016
-187.144	319.344	0.083	0.156
-186.129	190.192	0.106	-0.158
-185.114	-57.297	0.272	-0.119
-184.100	800.000	0.018	-0.060
-183.085	-111.567	0.035	-0.007
-182.071	-75.925	-0.029	-0.010
-181.056	800.000	-0.031	-0.122
-180.042	-195.346	-0.277	0.002
-179.027	-91.419	-0.108	0.031
-178.012	197.279	0.155	-0.234
-176.998	-192.205	-0.203	-0.002
-175.983	-200.000	0.015	0.122
-174.969	-76.863	0.197	0.068
-173.954	6.458	-0.354	-0.261
-172.939	131.518	0.138	-0.175
-171.925	-200.000	-0.018	0.134
-170.910	-0.924	-0.164	0.115
-169.896	63.720	-0.228	-0.227
-168.881	139.936	-0.245	-0.320
-167.866	485.557	0.108	-0.245
-166.852	-200.000	0.004	-0.371
-165.837	-123.897	-0.237	-0.037
-164.823	255.485	0.118	0.201
-163.808	188.479	0.070	-0.104
-162.793	-116.061	-0.046	0.008
-161.779	-33.975	0.043	-0.024
-160.764	49.942	-0.046	0.043
-159.750	-125.087	0.185	0.028
-158.735	394.634	-0.130	0.269
-157.720	368.379	-0.125	0.251
-156.706	-108.178	-0.302	-0.065
-155.691	21.117	0.242	-0.194
-154.677	-62.784	0.101	-0.042
-153.662	-24.971	0.579	-0.340
-152.647	-124.455	-0.339	-0.052
-151.633	107.314	-0.119	0.140
-150.618	-200.000	0.035	0.364
-149.604	15.211	-0.078	0.061
-148.589	-101.940	0.108	-0.026
-147.574	-200.000	-0.007	0.281
-146.560	152.426	-0.065	-0.088
-145.545	-149.066	-0.106	0.008
-144.531	8.594	0.119	-0.089
-143.516	14.771	-0.281	-0.217
-142.502	270.179	-0.055	0.095
-141.487	30.915	0.088	-0.075
-140.472	-97.193	0.141	-0.036
-139.458	-119.025	0.278	0.048
-138.443	-32.567	0.119	0.066
-137.429	32.725	-0.159	0.136
-136.414	167.023	-0.043	-0.061
-135.399	-68.868	0.204	0.078
-134.385	800.000	0.057	-0.158
-133.370	800.000	-0.078	-0.317
-132.356	-200.000	0.004	0.175
-131.341	800.000	0.020	0.054
-130.326	-147.646	0.271	-0.023
-129.312	-80.597	-0.204	0.067
-128.297	62.306	0.038	-0.037
-127.283	248.303	0.160	-0.268
-126.268	-193.135	-0.303	-0.003
-125.253	-23.957	0.194	0.115
-124.239	528.014	0.076	0.178
-123.224	7.323	0.213	0.157
-122.210	-110.514	0.245	-0.050
-121.195	119.523	0.171	-0.209
