DTS Sentinel unit serial number:	SN413079Multiplexer serial number:	ORYXHardware model number:	OX4-SRSoftware version number:	ORYX F/W v4.00 Oryx Data Collector v3.7.2.0data status	okinstallation	princeton_trtdifferential loss correction	single-endedforward channel	channel 3reverse channel	N/Adate	2019/09/17time	10:16:35forward acquisition time	60.00reverse acquisition time	0.00gamma	496.2192k internal	0.2323k external	0.2323temperature offset calibration	0.9944default loss term (dB/km)	0.3790temperature slope calibration	1.0000multiplexer offset coefficient	1.0000multiplexer slope coefficient	1.0000fibre end	0.00T internal ref (°C)	29.81T ext. ref 1 (°C)	0.17T ext. ref 2 (°C)	25.35length (m)	temperature (°C)	Stokes	anti-Stokes-747.200	166.195	0.070	0.101
-746.185	549.777	0.023	0.055
-745.171	-68.784	0.255	-0.099
-744.156	35.069	-0.186	-0.165
-743.142	-70.595	-0.115	0.044
-742.127	67.126	0.058	0.060
-741.112	7.233	-0.144	0.109
-740.098	-112.761	-0.255	0.051
-739.083	-33.395	-0.115	-0.065
-738.069	800.000	-0.112	0.337
-737.054	-105.345	0.095	0.022
-736.039	800.000	0.016	0.051
-735.025	61.077	0.266	0.267
-734.010	118.405	-0.058	-0.072
-732.996	-200.000	-0.022	-0.438
-731.981	-159.664	0.090	0.005
-730.966	203.559	0.157	-0.246
-729.952	-200.000	0.025	0.250
-728.937	288.933	-0.177	0.324
-727.923	540.011	-0.123	0.295
-726.908	-91.212	-0.103	-0.030
-725.894	-1.934	-0.171	-0.121
-724.879	711.693	0.035	0.093
-723.864	-200.000	0.018	-0.129
-722.850	18.810	-0.100	0.081
-721.835	-200.000	0.025	0.174
-720.821	-77.563	-0.104	0.036
-719.806	-143.480	-0.327	0.031
-718.791	51.877	0.277	0.266
-717.777	-24.479	0.140	0.084
-716.762	-200.000	0.028	-0.375
-715.748	13.760	-0.121	-0.095
-714.733	-200.000	-0.013	0.101
-713.718	-80.848	0.119	-0.040
-712.704	-64.455	0.277	-0.114
-711.689	-182.287	-0.548	-0.010
-710.675	800.000	-0.039	0.148
-709.660	-86.096	-0.243	-0.076
-708.645	157.650	-0.170	0.237
-707.631	17.460	-0.214	-0.172
-706.616	162.000	0.135	0.191
-705.602	327.553	0.184	-0.356
-704.587	36.777	-0.158	0.141
-703.572	-101.127	-0.247	-0.061
-702.558	-64.702	-0.165	0.068
-701.543	-19.288	-0.234	-0.146
-700.529	414.666	0.058	0.125
-699.514	155.224	0.057	-0.079
-698.499	-200.000	-0.005	0.271
-697.485	40.474	0.155	-0.141
-696.470	78.808	-0.070	0.076
-695.456	800.000	-0.061	0.185
-694.441	318.196	-0.100	0.190
-693.426	232.910	-0.140	-0.232
-692.412	196.100	-0.172	0.263
-691.397	-115.176	-0.237	-0.045
-690.383	-100.054	0.620	0.156
-689.368	-64.871	-0.146	-0.059
-688.354	1.896	-0.101	-0.073
-687.339	-200.000	0.043	-0.254
-686.324	-17.848	-0.366	-0.231
-685.310	35.771	-0.118	-0.104
-684.295	-19.221	-0.190	0.119
-683.281	171.570	-0.211	0.305
-682.266	13.152	-0.099	0.077
-681.251	63.226	-0.144	-0.146
-680.237	800.000	-0.053	-0.212
-679.222	-124.547	-0.181	-0.028
-678.208	388.469	-0.098	-0.204
-677.193	10.759	-0.182	-0.140
-676.178	-74.858	-0.137	0.049
-675.164	193.763	0.077	0.117
-674.149	-200.000	0.033	-0.291
-673.135	-102.265	0.332	0.080
-672.120	-96.723	0.217	-0.058
-671.105	-200.000	0.015	0.081
-670.091	-200.000	-0.034	0.345
-669.076	16.713	0.229	0.182
-668.062	-168.875	0.295	-0.011
-667.047	13.639	-0.129	0.101
-666.032	-200.000	0.062	-0.441
-665.018	22.559	0.153	-0.126
-664.003	-119.335	0.079	-0.014
-662.989	-86.677	-0.011	0.003
-661.974	-115.460	-0.198	-0.038
-660.959	500.508	-0.110	-0.255
-659.945	791.684	-0.016	-0.045
-658.930	800.000	-0.053	0.230
-657.916	112.035	-0.082	-0.100
-656.901	241.715	0.066	0.111
-655.886	800.000	0.061	-0.231
-654.872	-200.000	0.007	-0.076
-653.857	417.890	0.093	-0.200
-652.843	84.328	-0.112	-0.123
-651.828	-137.851	-0.130	0.015
-650.814	58.295	0.257	-0.254
-649.799	-104.308	-0.195	-0.045
-648.784	-18.438	0.041	0.026
-647.770	-200.000	0.007	-0.157
-646.755	800.000	0.041	-0.146
-645.741	-200.000	0.019	-0.194
-644.726	-30.953	-0.099	-0.056
-643.711	-167.096	-0.296	0.012
-642.697	209.146	0.063	-0.099
-641.682	30.008	0.048	-0.041
-640.668	-114.934	0.257	0.049
-639.653	67.921	-0.220	-0.226
-638.638	-64.938	-0.339	0.138
-637.624	43.742	-0.165	0.151
-636.609	9.066	-0.214	0.162
-635.595	374.647	-0.147	-0.301
-634.580	-200.000	-0.009	0.137
-633.565	88.207	0.112	-0.125
-632.551	-186.457	-0.116	-0.002
-631.536	-33.538	-0.284	-0.158
-630.522	-178.078	-0.064	-0.002
-629.507	800.000	-0.024	0.086
-628.492	654.442	0.112	-0.289
-627.478	-120.307	-0.375	0.064
-626.463	16.652	-0.185	0.147
-625.449	-200.000	0.026	0.150
-624.434	21.960	0.100	0.082
-623.419	-200.000	0.025	0.202
-622.405	-89.408	-0.244	-0.072
-621.390	800.000	-0.103	0.318
-620.376	-200.000	0.007	0.053
-619.361	-60.781	0.105	0.045
-618.346	800.000	0.039	0.142
-617.332	800.000	0.065	-0.201
-616.317	-186.084	-0.486	-0.007
-615.303	-200.000	-0.012	0.179
-614.288	424.700	0.076	-0.164
-613.273	-200.000	0.045	0.205
-612.259	44.119	0.118	0.109
-611.244	107.504	-0.228	-0.272
-610.230	517.345	0.176	0.413
-609.215	138.217	0.136	-0.179
-608.201	-29.407	0.271	0.156
-607.186	99.671	-0.057	-0.066
-606.171	73.402	-0.082	-0.087
-605.157	-85.722	0.132	-0.041
-604.142	88.704	-0.186	-0.208
-603.128	-83.033	0.136	-0.044
-602.113	66.523	0.087	0.089
-601.098	104.084	-0.080	0.094
-600.084	-159.879	0.140	0.008
-599.069	266.436	0.145	-0.255
-598.055	80.602	0.054	-0.059
-597.040	234.427	0.085	-0.140
-596.025	-170.071	-0.240	0.009
-595.011	-36.806	-0.215	-0.116
-593.996	19.862	-0.318	-0.258
-592.982	63.315	-0.259	-0.261
-591.967	-14.487	-0.256	-0.165
-590.952	-200.000	0.057	-0.260
-589.938	9.225	-0.213	-0.161
-588.923	120.952	0.237	0.296
-587.909	-45.613	-0.217	0.108
-586.894	-200.000	-0.005	0.272
-585.879	-81.908	0.015	-0.005
-584.865	-125.577	0.200	0.030
-583.850	193.212	0.146	0.222
-582.836	-200.000	0.010	0.192
-581.821	-10.263	-0.333	-0.222
-580.806	549.221	0.209	0.502
-579.792	149.368	-0.108	0.146
-578.777	-55.089	-0.086	0.039
-577.763	83.398	0.119	-0.131
-576.748	-29.282	0.112	0.065
-575.733	-200.000	0.009	0.049
-574.719	-200.000	-0.046	-0.251
-573.704	-28.951	0.023	0.013
-572.690	-105.009	-0.470	0.108
-571.675	-66.695	0.100	0.040
-570.661	449.461	0.207	0.457
-569.646	185.838	-0.238	0.355
-568.631	22.433	0.067	0.055
-567.617	800.000	-0.062	-0.186
-566.602	-78.899	0.248	-0.085
-565.588	-121.563	0.213	0.035
-564.573	-62.668	0.102	-0.042
-563.558	21.410	-0.151	-0.123
-562.544	81.910	0.190	0.206
-561.529	-138.481	-0.295	-0.033
-560.515	5.155	-0.198	0.146
-559.500	-120.004	0.232	-0.040
-558.485	31.023	-0.089	-0.077
-557.471	127.405	-0.322	0.409
-556.456	271.705	0.055	-0.096
-555.442	590.469	-0.047	-0.117
-554.427	238.859	-0.057	-0.095
-553.412	-114.659	0.069	-0.013
-552.398	710.729	0.083	-0.221
-551.383	-200.000	0.017	0.203
-550.369	-3.625	-0.098	-0.068
-549.354	-150.915	-0.164	0.012
-548.339	-38.315	0.106	0.056
-547.325	-200.000	0.017	0.092
-546.310	-87.609	0.174	-0.053
-545.296	99.159	-0.206	0.238
-544.281	-200.000	-0.043	0.342
-543.266	-11.848	0.143	-0.094
-542.252	-24.945	0.262	-0.156
-541.237	91.613	0.125	-0.140
-540.223	289.197	0.060	-0.108
-539.208	-200.000	-0.005	-0.173
-538.193	213.728	-0.230	0.364
-537.179	-42.888	-0.209	0.106
-536.164	3.540	-0.007	-0.005
-535.150	-200.000	-0.003	0.129
-534.135	-38.729	0.403	-0.213
-533.121	-120.869	-0.151	0.026
-532.106	-102.915	0.048	0.011
-531.091	59.259	0.033	-0.032
-530.077	10.395	-0.009	0.007
-529.062	-116.622	-0.247	-0.045
-528.048	30.304	-0.145	0.124
-527.033	-128.675	0.550	0.078
-526.018	-200.000	0.010	0.076
-525.004	-37.669	0.291	0.155
-523.989	-131.922	-0.209	0.027
-522.975	419.947	0.015	-0.033
-521.960	-107.477	0.087	0.019
-520.945	-128.343	-0.471	-0.067
-519.931	63.910	0.203	-0.205
-518.916	-6.188	-0.265	-0.181
-517.902	-33.095	-0.248	-0.138
-516.887	-200.000	0.006	-0.221
-515.872	-200.000	-0.022	-0.360
-514.858	800.000	-0.031	-0.134
-513.843	233.527	-0.091	-0.150
-512.829	-19.779	0.063	0.039
-511.814	-200.000	0.023	0.116
-510.799	-46.663	-0.217	0.107
-509.785	155.646	0.257	-0.354
-508.770	4.574	0.184	0.135
-507.756	-108.249	-0.253	-0.055
-506.741	-27.605	0.214	0.125
-505.726	344.597	-0.106	-0.208
-504.712	-40.419	0.221	-0.115
-503.697	800.000	0.018	0.058
-502.683	-27.777	-0.342	-0.199
-501.668	800.000	0.028	0.098
-500.653	-14.234	-0.101	0.065
-499.639	70.262	0.226	-0.234
-498.624	391.857	0.102	-0.212
-497.610	-135.268	-0.349	0.042
-496.595	-200.000	0.003	-0.046
-495.581	6.850	0.039	0.029
-494.566	-30.469	0.290	-0.164
-493.551	-32.025	0.235	0.132
-492.537	-200.000	0.057	0.345
-491.522	-85.198	-0.260	-0.081
-490.508	800.000	0.077	0.239
-489.493	7.112	-0.099	0.074
-488.478	142.438	0.175	-0.233
-487.464	800.000	-0.051	0.170
-486.449	-81.687	-0.214	0.070
-485.435	-58.159	-0.132	0.057
-484.420	-24.453	0.162	-0.096
-483.405	-200.000	-0.037	-0.227
-482.391	71.799	-0.036	-0.037
-481.376	-200.000	-0.004	0.106
-480.362	-48.306	0.238	0.115
-479.347	57.451	0.215	-0.210
-478.332	-185.126	0.150	0.002
-477.318	-200.000	-0.022	0.358
-476.303	6.387	-0.176	0.131
-475.289	-93.442	-0.449	-0.124
-474.274	-124.371	0.138	0.021
-473.259	-200.000	0.114	-0.516
-472.245	-113.775	-0.162	-0.032
-471.230	184.826	-0.070	0.104
-470.216	383.391	-0.043	0.088
-469.201	-200.000	0.027	0.217
-468.186	-47.039	0.065	-0.032
-467.172	370.405	0.148	0.300
-466.157	-200.000	-0.002	0.338
-465.143	-60.437	0.117	0.050
-464.128	-101.709	-0.275	-0.067
-463.113	-23.343	-0.171	0.102
-462.099	580.159	-0.034	0.083
-461.084	126.942	0.048	-0.061
-460.070	-61.845	0.196	0.082
-459.055	-47.193	-0.356	-0.173
-458.040	-64.363	0.108	0.044
-457.026	-24.446	0.114	-0.068
-456.011	10.471	0.181	-0.137
-454.997	-90.560	-0.032	-0.009
-453.982	90.894	-0.055	0.061
-452.968	-200.000	-0.008	-0.052
-451.953	-66.267	-0.156	-0.062
-450.938	-200.000	0.008	-0.399
-449.924	763.903	-0.191	-0.517
-448.909	-74.457	-0.313	0.113
-447.895	114.301	-0.150	-0.182
-446.880	404.631	0.089	-0.188
-445.865	499.657	-0.099	0.227
-444.851	-67.433	0.485	-0.190
-443.836	-46.877	-0.368	-0.179
-442.822	148.458	-0.056	-0.075
-441.807	20.680	0.169	-0.136
-440.792	-133.687	-0.089	0.011
-439.778	288.636	0.172	0.312
-438.763	133.932	-0.124	0.160
-437.749	349.058	-0.109	-0.215
-436.734	10.781	0.075	0.057
-435.719	800.000	-0.071	0.233
-434.705	-130.187	0.301	0.041
-433.690	26.312	-0.101	-0.085
-432.676	-10.347	-0.132	-0.088
-431.661	653.079	0.036	-0.092
-430.646	40.898	0.049	0.044
-429.632	-200.000	0.071	-0.487
-428.617	327.555	0.038	0.073
-427.603	-82.448	-0.084	-0.027
-426.588	-81.706	0.100	0.033
-425.573	-200.000	0.015	0.307
-424.559	192.302	-0.190	-0.286
-423.544	508.145	0.093	-0.215
-422.530	-116.648	-0.042	-0.008
-421.515	-111.905	-0.252	-0.051
-420.500	281.657	0.047	0.085
-419.486	800.000	0.069	-0.238
-418.471	20.534	0.085	-0.068
-417.457	78.312	0.194	0.206
-416.442	-99.262	-0.237	-0.060
-415.428	-180.549	-0.334	-0.007
-414.413	-110.916	-0.278	-0.057
-413.398	800.000	0.017	-0.056
-412.384	800.000	0.072	0.247
-411.369	416.284	-0.172	0.367
-410.355	-12.470	-0.158	0.103
-409.340	-200.000	0.051	-0.301
-408.325	-58.328	0.223	0.097
-407.311	800.000	-0.035	-0.108
-406.296	67.997	0.174	0.178
-405.282	-73.324	0.133	-0.048
-404.267	-200.000	-0.009	-0.141
-403.252	-200.000	0.042	0.193
-402.238	-169.288	0.059	0.002
-401.223	800.000	0.063	0.180
-400.209	109.438	0.055	0.066
-399.194	-55.132	0.154	0.069
-398.179	48.343	-0.090	0.084
-397.165	-93.381	0.239	-0.066
-396.150	-200.000	0.020	0.319
-395.136	22.290	-0.169	-0.137
-394.121	-109.053	-0.136	-0.029
-393.106	800.000	0.085	0.292
-392.092	-68.338	0.295	0.114
-391.077	376.664	0.130	-0.265
-390.063	-200.000	0.008	-0.476
-389.048	54.771	-0.153	0.147
-388.033	800.000	0.081	0.250
-387.019	-91.719	0.198	0.056
-386.004	-135.091	-0.069	0.008
-384.990	800.000	-0.112	0.363
-383.975	-140.781	-0.180	-0.018
-382.960	-200.000	-0.014	0.401
-381.946	180.731	-0.230	-0.337
-380.931	415.788	0.099	0.210
-379.917	-134.611	-0.221	0.027
-378.902	-87.512	-0.445	-0.134
-377.888	24.378	-0.188	-0.155
-376.873	295.358	0.078	-0.142
-375.858	-148.757	-0.223	-0.018
-374.844	-173.734	-0.299	0.009
-373.829	26.304	0.371	0.308
-372.815	-119.574	-0.042	0.007
-371.800	-148.826	-0.266	-0.021
-370.785	-200.000	-0.049	-0.473
-369.771	-135.560	0.363	-0.043
-368.756	-35.595	0.275	-0.149
-367.742	-103.741	0.139	0.032
-366.727	-102.494	0.170	0.040
-365.712	361.734	-0.084	0.169
-364.698	800.000	0.045	-0.152
-363.683	-38.729	-0.118	0.062
-362.669	-72.684	-0.232	-0.085
-361.654	-200.000	0.025	-0.246
-360.639	-24.743	-0.044	0.026
-359.625	15.223	-0.257	-0.201
-358.610	732.217	0.097	0.259
-357.596	-79.894	0.125	0.042
-356.581	-64.906	0.146	0.059
-355.566	800.000	0.062	0.205
-354.552	-200.000	0.018	-0.312
-353.537	-147.699	0.189	-0.016
-352.523	-200.000	-0.015	-0.290
-351.508	2.976	-0.194	-0.140
-350.493	262.593	0.204	0.352
-349.479	-57.307	0.164	0.072
-348.464	650.993	0.101	-0.258
-347.450	394.991	0.024	0.050
-346.435	-74.139	-0.221	-0.080
-345.420	219.030	0.108	-0.171
-344.406	-16.375	-0.183	-0.116
-343.391	4.591	0.175	-0.128
-342.377	-200.000	-0.077	0.393
-341.362	-119.861	0.242	-0.041
-340.348	-110.908	-0.123	0.025
-339.333	-200.000	-0.014	-0.086
-338.318	800.000	0.156	0.445
-337.304	-116.967	0.058	-0.011
-336.289	-21.821	0.129	-0.078
-335.275	-181.106	0.305	0.006
-334.260	-200.000	-0.033	0.398
-333.245	14.443	-0.088	-0.068
-332.231	-176.846	-0.128	0.003
-331.216	124.821	-0.127	-0.159
-330.202	215.265	-0.144	-0.227
-329.187	-200.000	0.082	-0.416
-328.172	164.211	0.134	-0.188
-327.158	583.716	-0.122	-0.297
-326.143	-76.846	0.059	0.020
-325.129	-95.246	-0.058	0.015
-324.114	-15.331	0.046	0.029
-323.099	-150.039	-0.192	0.015
-322.085	193.451	-0.109	-0.164
-321.070	-140.335	0.322	-0.033
-320.056	800.000	-0.026	-0.092
-319.041	-200.000	0.029	0.203
-318.026	-118.708	0.158	0.028
-317.012	-200.000	-0.045	0.238
-315.997	381.503	0.014	-0.029
-314.983	251.042	-0.144	-0.242
-313.968	3.945	0.498	-0.361
-312.953	-200.000	0.036	0.293
-311.939	800.000	0.087	-0.246
-310.924	-52.481	0.078	-0.036
-309.910	-72.807	0.228	-0.084
-308.895	-191.217	0.185	0.002
-307.880	245.566	0.205	0.342
-306.866	664.220	0.079	0.202
-305.851	-200.000	-0.003	-0.077
-304.837	-90.791	0.203	-0.058
-303.822	-125.657	-0.158	0.024
-302.807	-128.728	-0.133	-0.019
-301.793	-153.172	0.340	-0.024
-300.778	-200.000	0.006	0.105
-299.764	390.647	0.093	0.191
-298.749	90.149	-0.122	0.135
-297.735	71.183	-0.170	-0.175
-296.720	-200.000	-0.021	-0.212
-295.705	10.793	0.125	0.094
-294.691	-17.537	0.140	-0.087
-293.676	-49.171	0.136	0.064
-292.662	-168.380	-0.159	0.006
-291.647	6.413	-0.069	-0.051
-290.632	-121.795	0.287	-0.047
-289.618	800.000	-0.035	-0.146
-288.603	698.918	-0.099	0.258
-287.589	208.222	0.146	0.226
-286.574	-99.089	0.200	-0.050
-285.559	800.000	0.079	0.284
-284.545	666.742	0.080	0.204
-283.530	-174.574	-0.316	-0.009
-282.516	-25.428	-0.031	0.018
-281.501	-98.016	-0.173	0.044
-280.486	204.700	0.114	0.175
-279.472	10.421	-0.174	0.131
-278.457	-39.355	0.095	-0.050
-277.443	447.682	-0.105	-0.230
-276.428	-34.158	-0.429	-0.234
-275.413	235.117	-0.157	0.257
-274.399	432.667	-0.145	0.312
-273.384	-200.000	0.025	-0.232
-272.370	-27.299	0.157	-0.090
-271.355	30.987	0.198	-0.168
-270.340	-131.260	0.371	-0.049
-269.326	-200.000	0.004	-0.113
-268.311	124.495	0.256	0.319
-267.297	-101.092	0.266	-0.065
-266.282	-134.712	-0.099	0.012
-265.267	-126.068	0.388	0.058
-264.253	139.261	-0.252	-0.329
-263.238	25.249	-0.047	-0.039
-262.224	29.351	-0.155	-0.130
-261.209	-48.043	-0.221	0.106
-260.195	-46.714	0.257	-0.125
-259.180	258.507	-0.101	0.172
-258.165	42.311	0.115	0.103
-257.151	249.164	-0.166	-0.279
-256.136	-156.634	0.250	-0.015
-255.122	-133.407	0.204	0.025
-254.107	-69.103	0.343	-0.131
-253.092	143.547	-0.145	-0.192
-252.078	-87.870	-0.323	0.096
-251.063	-136.887	0.181	-0.021
-250.049	257.827	0.059	0.101
-249.034	-51.267	0.276	-0.128
-248.019	248.549	-0.039	-0.066
-247.005	13.438	0.298	-0.229
-245.990	110.950	-0.067	-0.080
-244.976	-200.000	-0.005	-0.204
-243.961	47.587	-0.089	0.083
-242.946	800.000	0.043	-0.177
-241.932	-21.632	0.254	0.153
-240.917	-43.132	0.262	-0.131
-239.903	-200.000	0.003	0.075
-238.888	-48.576	0.140	0.067
-237.873	-200.000	-0.027	-0.413
-236.859	-200.000	0.034	0.197
-235.844	592.343	0.073	0.178
-234.830	-200.000	-0.098	0.447
-233.815	-121.409	0.220	0.036
-232.800	-200.000	0.051	0.297
-231.786	116.901	0.075	0.091
-230.771	417.061	0.038	0.081
-229.757	229.611	-0.199	0.322
-228.742	288.380	0.124	0.222
-227.727	-200.000	0.026	0.187
-226.713	-2.352	0.149	-0.103
-225.698	-200.000	-0.047	0.320
-224.684	-166.380	0.228	0.009
-223.669	-200.000	-0.035	-0.333
-222.655	31.108	0.157	-0.133
-221.640	800.000	-0.083	0.264
-220.625	419.824	-0.140	0.297
-219.611	313.313	0.095	-0.177
-218.596	-16.970	0.087	0.054
-217.582	-51.677	-0.324	0.150
-216.567	-68.151	0.444	-0.171
-215.552	800.000	-0.069	0.257
-214.538	-75.053	-0.131	-0.047
-213.523	220.100	0.151	-0.240
-212.509	800.000	-0.064	-0.234
-211.494	76.904	-0.023	-0.024
-210.479	-29.364	-0.015	0.009
-209.465	-78.254	-0.113	0.038
-208.450	-97.543	0.227	-0.058
-207.436	-119.493	0.098	-0.017
-206.421	437.222	-0.153	0.329
-205.406	18.253	-0.203	0.160
-204.392	800.000	0.038	0.164
-203.377	800.000	0.017	0.065
-202.363	127.127	-0.082	-0.103
-201.348	206.841	-0.138	-0.212
-200.333	-200.000	-0.011	-0.257
-199.319	173.244	0.016	-0.022
-198.304	67.456	0.153	0.154
-197.290	-200.000	-0.047	0.340
-196.275	152.603	0.073	0.098
-195.260	-80.069	-0.346	-0.115
-194.246	-106.711	0.341	-0.075
-193.231	37.630	0.183	-0.161
-192.217	-200.000	0.016	-0.242
-191.202	-66.742	-0.350	-0.137
-190.187	153.631	-0.141	-0.191
-189.173	796.754	0.039	0.106
-188.158	-200.000	0.028	0.208
-187.144	-88.180	-0.562	-0.166
-186.129	-118.772	0.092	-0.016
-185.114	-200.000	-0.061	0.390
-184.100	-21.295	0.045	-0.027
-183.085	161.694	0.105	-0.145
-182.071	40.032	0.022	0.019
-181.056	139.925	-0.029	-0.038
-180.042	-17.880	0.113	0.070
-179.027	153.210	0.261	0.353
-178.012	-108.458	-0.146	-0.031
-176.998	800.000	-0.070	-0.233
-175.983	-137.435	0.150	-0.017
-174.969	-200.000	0.035	0.213
-173.954	-74.392	-0.324	0.116
-172.939	-200.000	0.011	-0.193
-171.925	186.223	-0.258	-0.380
-170.910	-84.049	0.208	0.065
-169.896	238.990	-0.108	0.178
-168.881	800.000	0.063	0.185
-167.866	-200.000	0.009	-0.171
-166.852	-122.447	0.474	0.076
-165.837	26.819	-0.106	0.088
-164.823	634.503	0.090	0.225
-163.808	-32.748	0.189	0.104
-162.793	-98.949	-0.203	0.051
-161.779	244.478	-0.159	-0.264
-160.764	-143.097	0.357	-0.034
-159.750	800.000	0.107	0.320
-158.735	-29.279	-0.243	-0.137
-157.720	-200.000	0.034	0.323
-156.706	800.000	-0.078	0.265
-155.691	-27.568	-0.086	-0.049
-154.677	-104.422	0.202	-0.046
-153.662	44.462	-0.384	-0.348
-152.647	548.981	-0.039	-0.093
-151.633	257.663	0.071	0.121
-150.618	-46.877	0.211	-0.102
-149.604	-200.000	-0.006	-0.055
-148.589	273.171	-0.062	0.108
-147.574	270.081	0.217	0.377
-146.560	439.192	0.070	0.151
-145.545	665.956	0.016	-0.040
-144.531	355.387	0.153	0.300
-143.516	20.049	0.189	0.151
-142.502	-73.574	0.365	-0.131
-141.487	379.159	0.043	-0.086
-140.472	92.681	-0.087	0.097
-139.458	-154.467	-0.109	-0.007
-138.443	-78.541	0.170	-0.058
-137.429	69.636	0.197	0.200
-136.414	-200.000	0.017	0.206
-135.399	64.748	-0.134	-0.134
-134.385	-83.655	-0.226	-0.071
-133.370	-200.000	-0.002	-0.096
-132.356	-65.882	-0.039	0.016
-131.341	-50.324	-0.315	0.147
-130.326	82.779	0.182	-0.195
-129.312	401.387	0.060	0.123
-128.297	-67.228	0.064	-0.025
-127.283	-19.587	-0.233	-0.142
-126.268	-200.000	0.065	-0.297
-125.253	-104.037	0.234	-0.054
-124.239	23.822	-0.240	-0.195
-123.224	-200.000	0.063	0.296
-122.210	221.571	0.141	-0.223
-121.195	106.463	-0.089	0.104
