DTS Sentinel unit serial number:	SN413079Multiplexer serial number:	ORYXHardware model number:	OX4-SRSoftware version number:	ORYX F/W v4.00 Oryx Data Collector v3.7.2.0data status	okinstallation	princeton_trtdifferential loss correction	single-endedforward channel	channel 3reverse channel	N/Adate	2019/09/15time	16:12:34forward acquisition time	60.00reverse acquisition time	0.00gamma	496.2192k internal	0.2288k external	0.2288temperature offset calibration	0.9929default loss term (dB/km)	0.3790temperature slope calibration	1.0000multiplexer offset coefficient	1.0000multiplexer slope coefficient	1.0000fibre end	0.00T internal ref (°C)	43.28T ext. ref 1 (°C)	5.41T ext. ref 2 (°C)	40.37length (m)	temperature (°C)	Stokes	anti-Stokes-747.200	746.889	0.067	0.185
-746.185	162.503	0.185	0.266
-745.171	-200.000	-0.019	0.106
-744.156	-200.000	-0.027	0.196
-743.142	105.899	0.034	-0.042
-742.127	-96.915	-0.104	-0.028
-741.112	86.790	-0.193	0.219
-740.098	-44.997	0.332	0.170
-739.083	-25.199	-0.251	0.152
-738.069	154.289	0.358	0.504
-737.054	247.793	-0.125	0.217
-736.039	-98.588	0.187	-0.049
-735.025	706.701	0.126	-0.341
-734.010	15.721	-0.213	-0.172
-732.996	178.599	0.035	0.052
-731.981	-19.840	-0.103	0.065
-730.966	96.977	-0.223	0.263
-729.952	-137.404	-0.240	-0.028
-728.937	493.128	-0.149	0.350
-727.923	-16.744	-0.241	-0.156
-726.908	-117.720	0.144	-0.027
-725.894	-128.830	-0.309	-0.045
-724.879	-200.000	0.022	-0.162
-723.864	66.479	-0.562	0.586
-722.850	-180.795	0.192	-0.004
-721.835	-3.699	-0.156	-0.111
-720.821	-88.429	-0.256	-0.078
-719.806	-18.434	0.159	0.102
-718.791	-194.881	-0.225	-0.002
-717.777	800.000	-0.065	0.238
-716.762	-4.971	0.088	-0.062
-715.748	-137.708	-0.292	0.034
-714.733	-73.328	-0.326	0.122
-713.718	-200.000	0.017	-0.157
-712.704	775.924	-0.108	-0.302
-711.689	603.718	0.080	0.203
-710.675	800.000	0.074	-0.222
-709.660	7.793	-0.132	0.101
-708.645	800.000	-0.010	0.038
-707.631	95.950	0.242	0.282
-706.616	196.657	0.061	-0.095
-705.602	36.370	-0.230	0.208
-704.587	93.747	-0.151	0.175
-703.572	64.091	0.088	-0.091
-702.558	-200.000	-0.007	0.097
-701.543	87.499	-0.241	0.273
-700.529	-129.083	0.333	-0.048
-699.514	800.000	-0.080	-0.276
-698.499	-200.000	-0.019	-0.216
-697.485	-21.062	0.208	-0.130
-696.470	800.000	-0.053	-0.231
-695.456	-107.503	0.331	-0.074
-694.441	183.692	0.181	0.275
-693.426	49.141	-0.178	-0.172
-692.412	-200.000	-0.031	-0.307
-691.397	97.126	-0.168	-0.197
-690.383	706.041	-0.127	0.344
-689.368	48.356	-0.165	0.158
-688.354	59.334	0.155	-0.156
-687.339	-156.428	0.169	-0.011
-686.324	-200.000	0.003	-0.230
-685.310	-118.025	0.095	-0.017
-684.295	-93.085	-0.116	-0.033
-683.281	17.293	-0.037	-0.030
-682.266	-45.687	-0.111	-0.056
-681.251	133.594	-0.100	0.132
-680.237	487.923	-0.140	-0.326
-679.222	26.210	0.044	-0.037
-678.208	-50.451	-0.254	0.123
-677.193	-51.224	0.216	-0.104
-676.178	-200.000	-0.030	0.183
-675.164	10.249	0.162	0.126
-674.149	-6.162	-0.063	0.044
-673.135	223.151	-0.184	-0.303
-672.120	-95.548	0.117	0.032
-671.105	102.527	-0.202	0.241
-670.091	12.303	0.144	-0.113
-669.076	-65.526	-0.125	-0.051
-668.062	-200.000	0.007	0.368
-667.047	-50.707	-0.157	0.076
-666.032	233.076	0.015	0.025
-665.018	666.492	0.043	0.114
-664.003	10.950	-0.098	0.076
-662.989	-200.000	0.006	0.169
-661.974	211.248	-0.108	-0.173
-660.959	261.534	-0.032	0.057
-659.945	313.231	-0.140	0.269
-658.930	43.666	0.127	0.119
-657.916	75.404	-0.030	-0.032
-656.901	14.651	0.111	0.089
-655.886	-124.019	-0.397	-0.064
-654.872	-53.088	-0.108	-0.051
-653.857	-200.000	-0.004	0.095
-652.843	-72.351	-0.380	0.144
-651.828	-48.068	0.471	-0.232
-650.814	506.794	-0.127	-0.300
-649.799	34.711	-0.047	-0.042
-648.784	-200.000	-0.044	-0.338
-647.770	52.992	0.038	-0.037
-646.755	-110.762	0.315	0.066
-645.741	800.000	0.042	-0.173
-644.726	-34.005	-0.048	0.027
-643.711	800.000	0.067	0.192
-642.697	-50.093	-0.460	0.222
-641.682	800.000	-0.057	0.183
-640.668	-63.343	-0.120	-0.050
-639.653	248.394	0.246	0.425
-638.638	297.241	-0.167	-0.313
-637.624	203.605	-0.160	-0.254
-636.609	-79.602	-0.108	-0.037
-635.595	87.973	-0.083	-0.094
-634.580	-45.131	-0.052	0.027
-633.565	-109.811	0.208	-0.045
-632.551	46.212	-0.118	-0.112
-631.536	-98.794	-0.136	0.035
-630.522	-81.715	-0.208	-0.070
-629.507	247.310	0.070	-0.121
-628.492	-200.000	-0.003	-0.090
-627.478	-200.000	0.008	-0.237
-626.463	328.189	-0.102	0.200
-625.449	-32.637	-0.044	0.025
-624.434	-200.000	-0.003	-0.189
-623.419	-119.279	-0.215	0.038
-622.405	630.076	0.074	0.192
-621.390	281.203	0.036	0.065
-620.376	-200.000	0.009	0.102
-619.361	-68.487	-0.303	-0.120
-618.346	-160.838	0.211	-0.011
-617.332	113.880	0.161	0.199
-616.317	11.137	-0.165	0.128
-615.303	-1.349	0.122	-0.088
-614.288	-200.000	0.029	-0.315
-613.273	-87.505	-0.231	-0.071
-612.259	434.539	0.030	0.067
-611.244	-103.353	-0.145	-0.035
-610.230	-200.000	-0.006	-0.120
-609.215	-125.106	-0.290	0.045
-608.201	72.852	0.142	0.151
-607.186	-30.508	-0.120	-0.070
-606.171	233.231	0.060	0.100
-605.157	50.240	0.169	0.163
-604.142	-200.000	0.002	-0.099
-603.128	-173.449	0.125	-0.004
-602.113	-112.333	-0.127	0.026
-601.098	31.906	-0.217	0.191
-600.084	66.846	0.044	0.045
-599.069	3.681	-0.443	-0.330
-598.055	170.048	-0.121	0.177
-597.040	-36.897	-0.206	-0.112
-596.025	-146.916	-0.159	-0.014
-595.011	122.472	0.055	0.070
-593.996	800.000	0.104	-0.346
-592.982	158.156	0.182	0.257
-591.967	-94.977	-0.261	0.072
-590.952	-84.048	0.191	-0.062
-589.938	335.479	0.131	-0.259
-588.923	179.211	0.027	0.041
-587.909	192.233	-0.149	0.230
-586.894	800.000	-0.060	-0.234
-585.879	-120.214	0.153	-0.027
-584.865	197.123	-0.071	-0.111
-583.850	-67.488	-0.256	-0.102
-582.836	337.958	-0.020	0.040
-581.821	169.465	0.195	0.284
-580.806	46.111	-0.368	-0.347
-579.792	800.000	-0.099	-0.297
-578.777	-84.305	0.172	-0.056
-577.763	-115.738	-0.259	-0.049
-576.748	141.213	0.203	-0.274
-575.733	-150.280	-0.088	-0.007
-574.719	-200.000	-0.035	-0.231
-573.704	192.774	0.088	-0.135
-572.690	-70.001	-0.191	-0.074
-571.675	307.694	0.080	-0.151
-570.661	101.183	0.038	0.045
-569.646	0.047	-0.181	0.132
-568.631	-81.771	0.138	0.046
-567.617	337.335	0.051	-0.101
-566.602	690.241	0.057	0.152
-565.588	-167.075	-0.260	-0.011
-564.573	-153.493	0.282	0.020
-563.558	166.143	0.021	-0.030
-562.544	146.617	0.027	0.037
-561.529	-135.261	-0.078	0.010
-560.515	214.848	0.138	0.222
-559.500	-200.000	-0.038	-0.183
-558.485	70.840	-0.208	-0.219
-557.471	40.128	-0.324	0.297
-556.456	94.001	0.091	0.106
-555.442	237.709	0.095	-0.160
-554.427	-66.304	0.241	-0.098
-553.412	305.005	-0.117	-0.220
-552.398	-105.601	-0.116	-0.027
-551.383	99.761	0.077	-0.091
-550.369	388.443	0.147	0.310
-549.354	601.538	0.088	0.222
-548.339	62.060	-0.140	0.142
-547.325	-200.000	0.013	-0.071
-546.310	-67.244	0.307	0.123
-545.296	-121.099	0.123	0.021
-544.281	601.782	-0.068	-0.172
-543.266	35.907	-0.086	0.077
-542.252	-146.165	-0.099	0.009
-541.237	-200.000	0.065	0.405
-540.223	-200.000	-0.060	-0.446
-539.208	183.718	-0.078	-0.118
-538.193	-200.000	-0.011	0.121
-537.179	338.939	0.048	-0.096
-536.164	286.955	0.081	0.148
-535.150	-33.291	0.239	0.135
-534.135	455.795	0.115	0.259
-533.121	-200.000	-0.017	0.100
-532.106	-13.748	0.317	0.209
-531.091	638.218	0.060	0.155
-530.077	145.703	-0.169	0.231
-529.062	514.724	0.070	0.167
-528.048	615.312	-0.061	-0.155
-527.033	160.288	0.107	-0.151
-526.018	-200.000	0.023	0.291
-525.004	164.916	0.085	0.122
-523.989	-200.000	-0.010	-0.193
-522.975	-31.112	-0.097	-0.055
-521.960	157.471	0.054	0.075
-520.945	-165.202	-0.376	-0.017
-519.931	-89.241	0.137	-0.041
-518.916	800.000	0.028	0.105
-517.902	-200.000	0.001	0.010
-516.887	29.027	-0.090	-0.078
-515.872	-103.370	-0.181	0.043
-514.858	52.526	-0.129	0.125
-513.843	126.874	0.059	-0.076
-512.829	-91.960	0.302	-0.087
-511.814	-46.233	-0.133	-0.067
-510.799	167.205	0.054	0.077
-509.785	-200.000	-0.002	-0.172
-508.770	-185.624	0.089	0.001
-507.756	-106.294	0.299	-0.068
-506.741	181.713	-0.023	-0.034
-505.726	-93.727	0.127	0.036
-504.712	-200.000	0.040	0.211
-503.697	163.290	-0.033	-0.046
-502.683	-89.261	-0.236	0.071
-501.668	800.000	-0.089	-0.276
-500.653	800.000	-0.024	0.098
-499.639	-67.858	0.024	-0.010
-498.624	800.000	-0.022	0.082
-497.610	-200.000	-0.008	-0.048
-496.595	-21.226	-0.110	-0.068
-495.581	189.752	-0.065	-0.099
-494.566	800.000	-0.047	-0.171
-493.551	205.687	-0.121	-0.192
-492.537	-58.973	-0.232	-0.102
-491.522	800.000	-0.107	0.351
-490.508	129.703	0.134	0.175
-489.493	-103.055	-0.201	0.048
-488.478	53.530	0.035	-0.034
-487.464	-112.904	-0.473	0.095
-486.449	-200.000	-0.018	-0.289
-485.435	201.673	-0.099	0.155
-484.420	183.503	0.174	-0.261
-483.405	83.971	0.193	-0.214
-482.391	-200.000	-0.013	0.095
-481.376	-200.000	-0.004	0.167
-480.362	66.815	-0.122	0.126
-479.347	-190.877	-0.222	-0.002
-478.332	800.000	0.117	-0.353
-477.318	156.804	-0.066	0.093
-476.303	247.988	-0.063	0.108
-475.289	800.000	0.123	-0.413
-474.274	110.129	0.041	-0.050
-473.259	-103.776	-0.195	-0.046
-472.245	11.971	0.199	0.155
-471.230	444.696	0.046	0.103
-470.216	-108.711	-0.293	0.064
-469.201	-98.093	0.372	0.097
-468.186	218.237	-0.009	-0.015
-467.172	-148.378	-0.039	0.003
-466.157	-57.256	0.374	-0.167
-465.143	-156.211	-0.160	-0.010
-464.128	-80.025	0.131	-0.044
-463.113	-200.000	-0.021	0.264
-462.099	-190.163	-0.063	-0.001
-461.084	117.752	-0.103	0.129
-460.070	800.000	-0.104	0.340
-459.055	-73.077	0.482	0.179
-458.040	372.077	-0.207	0.425
-457.026	-116.496	-0.319	0.060
-456.011	12.353	0.028	0.022
-454.997	-107.332	-0.293	0.065
-453.982	-109.530	0.235	-0.050
-452.968	-116.841	0.454	-0.084
-451.953	800.000	-0.063	0.252
-450.938	-200.000	0.027	0.269
-449.924	-31.953	-0.235	0.133
-448.909	-163.491	-0.228	0.011
-447.895	-200.000	0.046	0.212
-446.880	-20.607	0.153	0.095
-445.865	-121.006	0.173	-0.029
-444.851	276.949	-0.181	0.327
-443.836	57.563	0.211	0.209
-442.822	108.680	0.172	-0.208
-441.807	-41.349	0.190	0.099
-440.792	-63.820	0.547	-0.227
-439.778	-139.626	0.073	-0.008
-438.763	-146.512	0.400	0.035
-437.749	-200.000	0.022	-0.152
-436.734	-161.796	-0.078	0.004
-435.719	-200.000	-0.090	0.444
-434.705	4.123	-0.097	0.072
-433.690	800.000	-0.037	-0.152
-432.676	-167.244	-0.195	-0.008
-431.661	422.499	-0.048	0.105
-430.646	-200.000	0.033	0.182
-429.632	-197.341	-0.237	0.002
-428.617	43.291	-0.050	-0.046
-427.603	19.332	0.095	0.077
-426.588	800.000	-0.047	0.185
-425.573	138.548	0.006	-0.008
-424.559	290.320	0.053	0.098
-423.544	107.301	-0.200	-0.241
-422.530	-23.910	0.129	-0.078
-421.515	-36.920	-0.070	0.038
-420.500	108.265	-0.166	0.201
-419.486	355.115	0.155	0.312
-418.471	-9.628	-0.215	-0.145
-417.457	800.000	-0.005	0.015
-416.442	225.660	0.105	-0.171
-415.428	-200.000	0.007	0.126
-414.413	488.627	-0.034	-0.079
-413.398	-22.250	0.180	-0.110
-412.384	86.398	0.134	-0.149
-411.369	800.000	0.049	-0.148
-410.355	510.049	0.162	-0.382
-409.340	191.294	-0.173	-0.263
-408.325	152.858	-0.119	-0.164
-407.311	-179.481	0.353	-0.008
-406.296	70.834	-0.182	0.191
-405.282	-163.961	0.235	-0.011
-404.267	50.711	-0.135	0.129
-403.252	-109.100	0.138	-0.030
-402.238	420.815	0.146	-0.318
-401.223	800.000	-0.072	-0.259
-400.209	-52.775	0.350	0.163
-399.194	20.343	-0.365	-0.299
-398.179	158.910	-0.211	0.296
-397.165	-49.173	-0.187	-0.090
-396.150	7.110	-0.209	-0.158
-395.136	55.328	0.159	-0.156
-394.121	65.509	-0.073	0.075
-393.106	89.438	-0.201	-0.226
-392.092	-87.018	0.262	-0.081
-391.077	-70.248	-0.240	-0.092
-390.063	225.215	0.115	0.188
-389.048	-54.415	0.099	0.045
-388.033	-72.922	0.080	-0.030
-387.019	800.000	-0.055	0.183
-386.004	800.000	-0.026	0.085
-384.990	-19.568	-0.137	-0.086
-383.975	-135.856	0.241	-0.029
-382.960	-134.310	0.080	0.010
-381.946	25.795	-0.217	0.183
-380.931	-79.254	0.188	0.065
-379.917	-200.000	0.017	-0.185
-378.902	28.096	-0.195	-0.166
-377.888	785.246	0.064	0.177
-376.873	6.451	0.252	-0.189
-375.858	-200.000	0.005	-0.131
-374.844	-58.902	0.401	0.175
-373.829	-85.783	0.143	0.045
-372.815	128.888	-0.177	-0.228
-371.800	-72.297	0.226	-0.085
-370.785	14.999	0.205	-0.162
-369.771	63.907	0.323	-0.328
-368.756	-16.324	0.164	0.105
-367.742	-200.000	-0.025	0.153
-366.727	800.000	0.081	0.239
-365.712	-200.000	0.057	0.371
-364.698	-121.495	0.218	-0.037
-363.683	268.571	0.126	-0.223
-362.669	149.761	0.058	0.079
-361.654	96.655	0.149	0.172
-360.639	-97.844	0.065	-0.017
-359.625	-161.254	-0.057	0.003
-358.610	-200.000	0.016	0.331
-357.596	-15.811	-0.420	-0.270
-356.581	308.046	-0.103	-0.194
-355.566	-67.105	0.242	0.096
-354.552	98.138	0.178	0.207
-353.537	-25.368	0.217	0.129
-352.523	-2.172	0.087	-0.062
-351.508	800.000	-0.029	0.108
-350.493	26.015	-0.097	0.081
-349.479	497.231	0.046	-0.106
-348.464	-62.057	0.190	0.080
-347.450	194.750	0.212	0.324
-346.435	-200.000	-0.006	0.203
-345.420	-13.888	-0.143	0.094
-344.406	-200.000	-0.002	0.354
-343.391	81.211	-0.062	-0.068
-342.377	-121.373	-0.132	0.022
-341.362	-51.068	-0.316	-0.150
-340.348	-49.263	0.085	0.041
-339.333	-13.779	-0.258	-0.168
-338.318	-125.209	0.096	-0.015
-337.304	-150.384	0.269	0.021
-336.289	204.766	0.075	-0.118
-335.275	239.954	0.108	0.181
-334.260	-110.555	0.158	0.033
-333.245	-200.000	0.027	-0.147
-332.231	279.276	0.175	0.316
-331.216	350.160	-0.137	-0.274
-330.202	94.016	-0.317	-0.363
-329.187	800.000	-0.035	-0.132
-328.172	207.913	0.064	-0.101
-327.158	26.468	0.302	-0.255
-326.143	43.426	0.126	-0.116
-325.129	114.344	-0.161	0.198
-324.114	90.832	-0.191	0.216
-323.099	325.996	-0.054	-0.105
-322.085	224.077	-0.140	0.228
-321.070	-134.506	-0.165	0.020
-320.056	0.270	0.077	0.055
-319.041	250.175	-0.214	-0.366
-318.026	-7.988	-0.075	-0.051
-317.012	-1.398	-0.072	-0.051
-315.997	-129.486	0.257	-0.036
-314.983	116.975	-0.092	0.114
-313.968	-40.727	-0.243	0.127
-312.953	-39.143	-0.217	-0.115
-311.939	94.942	0.083	0.095
-310.924	-72.314	-0.410	0.153
-309.910	249.452	0.143	-0.244
-308.895	74.969	0.168	0.179
-307.880	104.769	-0.103	0.122
-306.866	-103.470	-0.303	0.072
-305.851	-154.506	0.257	-0.017
-304.837	-68.744	-0.123	-0.048
-303.822	-200.000	0.001	0.059
-302.807	-81.877	0.181	0.060
-301.793	-32.266	0.251	-0.141
-300.778	363.377	-0.027	-0.055
-299.764	800.000	0.077	-0.261
-298.749	-138.682	-0.507	0.056
-297.735	-122.753	-0.319	-0.052
-296.720	221.036	-0.041	0.067
-295.705	-173.778	0.313	0.009
-294.691	-76.496	-0.203	0.072
-293.676	2.483	-0.253	0.185
-292.662	-84.908	-0.209	0.066
-291.647	89.796	0.172	-0.194
-290.632	417.983	0.039	-0.085
-289.618	-200.000	-0.008	0.040
-288.603	710.942	-0.033	0.087
-287.589	800.000	0.068	-0.268
-286.574	68.968	0.078	-0.081
-285.559	-47.048	-0.243	0.119
-284.545	-200.000	0.002	0.267
-283.530	-75.234	-0.178	-0.064
-282.516	-35.286	0.160	0.088
-281.501	-200.000	-0.017	-0.099
-280.486	187.206	-0.120	-0.181
-279.472	-61.052	-0.085	0.036
-278.457	-176.679	-0.184	0.005
-277.443	-200.000	0.054	0.280
-276.428	-200.000	0.065	0.291
-275.413	184.810	0.086	0.129
-274.399	-73.069	-0.081	0.030
-273.384	-200.000	0.029	-0.152
-272.370	-148.155	0.100	0.008
-271.355	27.889	-0.188	-0.160
-270.340	-200.000	-0.018	0.253
-269.326	166.240	0.023	0.033
-268.311	115.099	-0.243	0.298
-267.297	185.650	0.162	0.242
-266.282	-53.016	0.137	0.063
-265.267	-6.575	0.257	-0.176
-264.253	721.687	0.168	-0.449
-263.238	396.552	0.080	-0.168
-262.224	-130.686	-0.438	0.059
-261.209	735.918	-0.059	0.160
-260.195	478.305	0.118	0.268
-259.180	-100.142	0.207	-0.052
-258.165	800.000	0.077	0.227
-257.151	-35.342	-0.289	0.158
-256.136	-200.000	-0.008	0.081
-255.122	-200.000	-0.014	0.327
-254.107	-200.000	0.193	-0.000
-253.092	-200.000	0.019	-0.225
-252.078	31.306	0.096	0.083
-251.063	-11.533	0.152	-0.101
-250.049	-51.540	0.206	0.097
-249.034	61.121	-0.130	-0.130
-248.019	-38.454	0.072	-0.039
-247.005	172.401	-0.128	0.184
-245.990	1.753	0.357	0.259
-244.976	-40.277	0.130	0.068
-243.961	800.000	0.038	0.150
-242.946	44.258	0.278	-0.257
-241.932	800.000	0.066	-0.260
-240.917	-200.000	0.003	-0.104
-239.903	-117.394	0.524	-0.095
-238.888	-141.291	0.080	0.008
-237.873	-10.719	0.150	0.100
-236.859	373.900	0.094	-0.192
-235.844	83.953	-0.126	-0.138
-234.830	-200.000	-0.005	-0.222
-233.815	-200.000	0.026	-0.132
-232.800	-59.874	0.234	-0.101
-231.786	-9.928	0.177	0.119
-230.771	800.000	-0.006	0.026
-229.757	-200.000	0.076	-0.492
-228.742	-101.811	0.274	0.067
-227.727	232.486	0.099	-0.163
-226.713	240.339	0.044	-0.074
-225.698	-52.541	0.164	-0.076
-224.684	-200.000	0.066	0.375
-223.669	89.311	-0.151	-0.169
-222.655	-200.000	0.015	-0.075
-221.640	-200.000	-0.033	0.234
-220.625	-200.000	0.012	-0.166
-219.611	800.000	-0.039	0.159
-218.596	131.767	-0.010	0.013
-217.582	70.521	-0.271	-0.282
-216.567	-41.872	-0.157	-0.081
-215.552	-200.000	0.046	-0.319
-214.538	-200.000	-0.096	0.438
-213.523	-200.000	-0.008	0.176
-212.509	10.496	0.045	-0.034
-211.494	346.088	-0.078	-0.154
-210.479	186.382	0.153	0.229
-209.465	-92.402	0.239	0.068
-208.450	206.437	0.087	0.136
-207.436	800.000	-0.050	-0.155
-206.421	94.267	-0.157	-0.179
-205.406	-71.690	-0.142	0.053
-204.392	-200.000	-0.020	0.312
-203.377	18.161	0.104	0.083
-202.363	-88.494	0.193	0.058
-201.348	25.536	0.283	-0.237
-200.333	611.185	-0.090	-0.226
-199.319	435.129	-0.105	-0.230
-198.304	-117.740	-0.201	-0.036
-197.290	707.707	-0.042	-0.111
-196.275	-200.000	-0.083	-0.446
-195.260	-37.128	-0.377	-0.202
-194.246	6.265	0.155	-0.115
-193.231	107.796	0.140	-0.167
-192.217	-200.000	0.027	0.276
-191.202	-200.000	0.008	0.169
-190.187	1.632	-0.076	0.055
-189.173	-200.000	0.025	-0.131
-188.158	486.467	0.083	-0.191
-187.144	-59.445	0.310	-0.134
-186.129	-70.835	-0.245	0.093
-185.114	24.205	-0.437	-0.362
-184.100	-38.680	0.072	-0.038
-183.085	-132.341	-0.182	0.024
-182.071	-40.427	0.234	-0.122
-181.056	27.414	-0.185	-0.156
-180.042	207.905	-0.151	0.236
-179.027	60.138	-0.074	-0.073
-178.012	800.000	0.042	-0.119
-176.998	-62.316	-0.080	-0.034
-175.983	-20.046	0.070	0.043
-174.969	-200.000	-0.030	0.237
-173.954	172.440	-0.182	-0.262
-172.939	-86.982	0.325	-0.099
-171.925	219.777	0.121	0.195
-170.910	0.326	0.356	0.255
-169.896	217.487	-0.029	-0.047
-168.881	99.969	0.069	0.080
-167.866	-97.549	-0.155	-0.040
-166.852	-175.667	0.285	-0.008
-165.837	93.976	-0.114	-0.129
-164.823	-200.000	-0.045	0.237
-163.808	-82.009	-0.426	0.139
-162.793	228.474	0.174	0.284
-161.779	-200.000	0.059	-0.408
-160.764	-111.426	-0.245	-0.050
-159.750	31.863	-0.241	0.208
-158.735	84.846	-0.140	0.154
-157.720	-168.418	0.305	0.012
-156.706	-18.281	-0.198	-0.124
-155.691	517.587	0.045	0.105
-154.677	-161.279	0.134	0.007
-153.662	-22.941	-0.106	0.064
-152.647	485.456	0.059	0.134
-151.633	-63.408	-0.396	-0.163
-150.618	-128.240	-0.132	-0.019
-149.604	41.217	-0.161	0.146
-148.589	-10.289	0.320	0.212
-147.574	-135.270	0.339	-0.041
-146.560	-7.036	-0.165	-0.112
-145.545	-195.330	-0.115	-0.001
-144.531	76.113	0.137	-0.145
-143.516	-130.296	0.167	0.023
-142.502	56.676	0.075	0.073
-141.487	-200.000	-0.034	0.211
-140.472	-13.442	0.400	-0.260
-139.458	-120.496	0.208	0.035
-138.443	-200.000	-0.036	0.191
-137.429	-37.661	0.154	0.082
-136.414	237.240	-0.082	0.136
-135.399	109.674	0.257	-0.308
-134.385	237.408	-0.108	0.180
-133.370	450.406	0.038	0.085
-132.356	-103.286	-0.257	-0.061
-131.341	-122.609	-0.039	0.006
-130.326	-200.000	0.097	-0.442
-129.312	51.461	-0.125	-0.119
-128.297	73.014	-0.061	0.063
-127.283	-118.033	-0.175	-0.031
-126.268	-200.000	0.014	-0.087
-125.253	-200.000	-0.008	0.137
-124.239	47.628	0.165	0.154
-123.224	-105.926	-0.370	0.084
-122.210	51.768	-0.190	-0.180
-121.195	641.179	0.059	0.151
