DTS Sentinel unit serial number:	SN413079Multiplexer serial number:	ORYXHardware model number:	OX4-SRSoftware version number:	ORYX F/W v4.00 Oryx Data Collector v3.7.2.0data status	okinstallation	princeton_trtdifferential loss correction	single-endedforward channel	channel 3reverse channel	N/Adate	2019/09/12time	15:30:10forward acquisition time	60.00reverse acquisition time	0.00gamma	496.2192k internal	0.2293k external	0.2293temperature offset calibration	1.0060default loss term (dB/km)	0.3790temperature slope calibration	1.0000multiplexer offset coefficient	1.0000multiplexer slope coefficient	1.0000fibre end	0.00T internal ref (°C)	40.61T ext. ref 1 (°C)	2.40T ext. ref 2 (°C)	33.83length (m)	temperature (°C)	Stokes	anti-Stokes-747.200	7.944	-0.198	-0.152
-746.185	15.482	-0.257	0.207
-745.171	-77.651	0.290	0.103
-744.156	212.859	0.205	0.331
-743.142	-200.000	0.015	0.189
-742.127	172.056	-0.059	0.087
-741.112	520.122	-0.073	-0.175
-740.098	-80.452	0.183	0.062
-739.083	99.629	0.028	-0.033
-738.069	464.323	0.152	0.348
-737.054	-154.935	0.033	-0.002
-736.039	-99.698	-0.133	0.034
-735.025	57.659	-0.222	0.222
-734.010	-200.000	-0.033	-0.234
-732.996	-32.471	-0.151	-0.086
-731.981	58.192	-0.260	0.261
-730.966	-64.939	-0.186	-0.077
-729.952	-139.493	-0.219	0.024
-728.937	51.816	-0.352	-0.343
-727.923	311.403	-0.079	0.152
-726.908	-135.198	-0.277	-0.034
-725.894	-23.002	-0.164	-0.101
-724.879	-124.380	-0.318	0.051
-723.864	-193.716	0.181	-0.002
-722.850	22.676	0.267	-0.223
-721.835	179.227	-0.074	0.111
-720.821	-46.910	0.388	-0.194
-719.806	3.040	0.256	0.190
-718.791	-200.000	-0.002	0.319
-717.777	-161.695	0.144	-0.008
-716.762	-59.531	0.268	0.118
-715.748	-153.907	0.248	-0.017
-714.733	-200.000	0.032	0.213
-713.718	126.872	0.166	-0.215
-712.704	393.024	0.155	0.330
-711.689	-200.000	-0.033	0.254
-710.675	-138.606	0.164	0.018
-709.660	125.352	0.241	-0.311
-708.645	77.233	-0.110	-0.120
-707.631	-20.260	0.416	0.262
-706.616	39.306	0.066	-0.060
-705.602	-200.000	0.035	0.181
-704.587	-19.258	0.127	0.080
-703.572	509.284	0.166	0.395
-702.558	-148.550	-0.164	-0.014
-701.543	800.000	0.122	0.480
-700.529	0.383	-0.109	0.079
-699.514	72.850	0.245	-0.261
-698.499	-68.250	0.224	-0.089
-697.485	16.034	-0.061	-0.049
-696.470	-5.360	-0.153	0.107
-695.456	800.000	0.031	0.103
-694.441	-200.000	0.000	-0.288
-693.426	86.382	-0.176	-0.199
-692.412	193.504	-0.041	0.064
-691.397	-71.502	-0.106	-0.041
-690.383	-75.019	-0.175	-0.064
-689.368	111.304	-0.077	-0.095
-688.354	405.834	-0.089	-0.191
-687.339	34.004	0.209	-0.186
-686.324	65.974	0.191	0.198
-685.310	351.826	-0.080	-0.162
-684.295	-98.117	0.139	0.037
-683.281	225.479	0.145	0.240
-682.266	-28.226	0.187	0.110
-681.251	588.147	-0.131	-0.330
-680.237	-48.922	-0.219	0.107
-679.222	293.095	-0.034	-0.064
-678.208	-200.000	-0.020	0.260
-677.193	-40.756	-0.203	0.107
-676.178	-111.212	0.171	-0.036
-675.164	90.615	0.189	-0.216
-674.149	-14.750	-0.202	-0.132
-673.135	800.000	0.019	-0.066
-672.120	-200.000	-0.012	-0.114
-671.105	62.901	-0.318	-0.324
-670.091	11.557	-0.197	0.154
-669.076	-182.767	0.092	0.002
-668.062	800.000	0.022	0.086
-667.047	10.400	-0.126	0.097
-666.032	20.456	0.080	-0.066
-665.018	642.652	-0.121	0.315
-664.003	-146.050	-0.132	0.012
-662.989	-53.791	0.117	0.055
-661.974	-200.000	-0.013	0.274
-660.959	-89.635	0.154	0.046
-659.945	-68.938	-0.218	-0.086
-658.930	27.772	0.163	-0.140
-657.916	74.070	0.183	0.196
-656.901	38.439	-0.125	0.114
-655.886	160.200	-0.115	-0.164
-654.872	44.378	-0.139	-0.130
-653.857	351.900	-0.100	-0.202
-652.843	-152.752	-0.196	-0.014
-651.828	-15.805	-0.132	-0.085
-650.814	-200.000	-0.016	-0.259
-649.799	800.000	0.086	0.256
-648.784	800.000	0.034	0.103
-647.770	800.000	-0.056	-0.224
-646.755	119.896	-0.201	-0.255
-645.741	-132.789	-0.284	0.037
-644.726	699.103	-0.103	0.275
-643.711	-70.853	-0.315	-0.121
-642.697	292.902	-0.069	-0.129
-641.682	117.822	-0.184	0.231
-640.668	350.273	0.063	0.127
-639.653	-3.257	-0.374	0.266
-638.638	87.072	-0.134	-0.151
-637.624	800.000	-0.065	-0.274
-636.609	-34.599	0.127	-0.071
-635.595	-200.000	0.039	0.253
-634.580	-57.219	-0.107	0.048
-633.565	415.579	0.132	-0.287
-632.551	49.128	0.233	0.223
-631.536	121.708	-0.193	-0.245
-630.522	19.995	-0.325	0.267
-629.507	-73.891	0.229	-0.085
-628.492	140.839	0.095	0.128
-627.478	-58.957	0.211	-0.093
-626.463	794.678	-0.050	0.139
-625.449	-126.564	-0.471	0.071
-624.434	25.322	0.078	0.066
-623.419	371.660	-0.136	-0.280
-622.405	47.340	0.043	-0.041
-621.390	-40.914	-0.083	0.044
-620.376	-124.280	-0.294	0.047
-619.361	78.702	0.318	0.347
-618.346	489.727	-0.188	0.436
-617.332	-111.572	-0.231	0.048
-616.317	800.000	0.063	-0.256
-615.303	-200.000	-0.002	-0.012
-614.288	-200.000	-0.035	-0.265
-613.273	-165.311	0.265	-0.012
-612.259	201.142	-0.093	-0.146
-611.244	109.312	-0.185	-0.225
-610.230	-200.000	0.037	-0.273
-609.215	41.197	0.039	-0.036
-608.201	-200.000	-0.015	-0.072
-607.186	-200.000	0.001	0.076
-606.171	-200.000	0.002	0.540
-605.157	75.373	-0.296	-0.318
-604.142	0.713	0.148	0.107
-603.128	201.804	-0.073	-0.115
-602.113	-200.000	-0.001	0.274
-601.098	-125.128	0.171	-0.027
-600.084	56.742	-0.189	0.187
-599.069	108.662	0.135	-0.164
-598.055	-200.000	0.001	-0.076
-597.040	82.623	-0.068	-0.075
-596.025	-127.381	0.219	-0.032
-595.011	435.265	-0.109	0.241
-593.996	443.391	-0.162	-0.362
-592.982	-119.316	0.358	-0.063
-591.967	-200.000	-0.022	0.169
-590.952	-34.293	-0.117	0.065
-589.938	300.790	-0.106	-0.200
-588.923	-2.555	-0.175	-0.124
-587.909	103.543	-0.209	-0.249
-586.894	-200.000	-0.047	0.248
-585.879	251.593	-0.040	0.070
-584.865	88.336	-0.159	0.179
-583.850	70.095	-0.090	-0.095
-582.836	355.825	0.153	-0.310
-581.821	233.821	-0.117	0.195
-580.806	79.015	0.142	-0.155
-579.792	-71.950	-0.331	0.125
-578.777	-200.000	0.000	0.269
-577.763	-17.122	0.068	0.044
-576.748	-199.954	0.120	-0.001
-575.733	-79.226	0.205	-0.071
-574.719	-66.351	0.122	0.049
-573.704	21.688	0.199	0.165
-572.690	117.694	0.071	0.089
-571.675	520.879	0.036	-0.085
-570.661	-163.300	-0.064	-0.003
-569.646	-57.898	-0.087	0.039
-568.631	-82.387	0.471	-0.155
-567.617	62.755	-0.118	0.120
-566.602	800.000	0.144	0.488
-565.588	-200.000	-0.025	-0.475
-564.573	-200.000	0.014	-0.138
-563.558	-79.304	0.142	-0.049
-562.544	498.731	0.107	-0.251
-561.529	-54.083	-0.173	0.080
-560.515	-65.291	0.394	0.161
-559.500	-166.321	0.089	-0.004
-558.485	390.428	0.061	-0.128
-557.471	800.000	0.069	0.223
-556.456	800.000	0.113	0.383
-555.442	-200.000	-0.061	0.284
-554.427	735.079	-0.053	-0.145
-553.412	308.029	-0.079	-0.150
-552.398	-188.888	-0.420	0.005
-551.383	-113.903	0.289	0.057
-550.369	46.603	-0.078	0.073
-549.354	-28.580	-0.119	-0.069
-548.339	-138.343	0.292	-0.033
-547.325	-76.781	-0.262	-0.093
-546.310	592.894	0.024	-0.061
-545.296	-191.825	-0.378	0.004
-544.281	343.600	-0.082	-0.164
-543.266	53.824	-0.024	0.023
-542.252	-100.763	0.180	-0.045
-541.237	-115.488	0.182	-0.035
-540.223	-200.000	0.027	-0.125
-539.208	60.326	0.068	-0.068
-538.193	-200.000	0.013	-0.421
-537.179	386.845	0.112	-0.236
-536.164	-43.628	-0.114	-0.059
-535.150	-30.652	-0.189	0.109
-534.135	60.734	0.100	-0.100
-533.121	-107.249	0.348	-0.078
-532.106	453.333	0.071	0.160
-531.091	800.000	-0.044	-0.156
-530.077	-200.000	0.060	-0.299
-529.062	26.714	-0.061	0.052
-528.048	800.000	0.118	0.487
-527.033	91.624	-0.113	0.129
-526.018	-170.305	-0.029	-0.001
-525.004	379.279	-0.068	0.142
-523.989	800.000	0.035	-0.141
-522.975	-200.000	-0.052	-0.445
-521.960	-86.342	-0.202	0.063
-520.945	602.095	-0.130	0.328
-519.931	89.166	0.264	-0.298
-518.916	33.863	0.042	-0.037
-517.902	-14.296	-0.148	-0.097
-516.887	-25.321	0.188	-0.113
-515.872	-109.018	0.254	0.055
-514.858	-123.612	-0.305	0.049
-513.843	87.575	-0.145	0.163
-512.829	-200.000	0.034	0.233
-511.814	-7.802	0.163	0.112
-510.799	-130.018	0.096	0.013
-509.785	503.567	-0.060	0.141
-508.770	-145.226	0.261	0.024
-507.756	800.000	-0.038	0.159
-506.741	-99.567	-0.167	0.042
-505.726	101.570	0.181	-0.214
-504.712	40.625	-0.070	-0.064
-503.697	-200.000	0.012	0.102
-502.683	-200.000	0.059	0.347
-501.668	12.902	-0.239	0.187
-500.653	-96.085	0.126	-0.034
-499.639	661.887	0.058	0.151
-498.624	-12.182	-0.278	0.184
-497.610	-200.000	-0.003	-0.069
-496.595	214.673	0.101	-0.163
-495.581	-200.000	0.024	-0.252
-494.566	800.000	0.045	0.165
-493.551	-156.767	0.155	-0.010
-492.537	0.874	0.027	0.019
-491.522	156.468	0.149	0.208
-490.508	-117.332	0.114	-0.021
-489.493	344.610	-0.098	0.195
-488.478	455.626	0.071	-0.158
-487.464	148.049	-0.117	0.159
-486.449	-153.434	-0.267	0.019
-485.435	800.000	-0.049	-0.192
-484.420	584.047	-0.034	-0.084
-483.405	-141.265	0.217	0.022
-482.391	-81.405	-0.080	-0.027
-481.376	-200.000	0.030	-0.196
-480.362	-100.851	0.131	-0.033
-479.347	261.054	-0.102	0.180
-478.332	-106.683	0.523	0.118
-477.318	-57.268	0.057	-0.025
-476.303	-200.000	-0.003	-0.241
-475.289	-147.670	-0.089	-0.008
-474.274	638.437	0.106	-0.274
-473.259	27.394	-0.205	0.175
-472.245	-200.000	0.050	0.352
-471.230	-16.628	-0.290	-0.186
-470.216	-2.249	0.275	-0.195
-469.201	-147.874	-0.282	0.024
-468.186	-169.562	-0.203	0.007
-467.172	-50.208	0.128	0.061
-466.157	-60.327	-0.077	-0.033
-465.143	-200.000	0.051	-0.372
-464.128	1.100	0.079	-0.057
-463.113	-150.935	0.438	0.034
-462.099	-17.208	-0.266	0.170
-461.084	200.216	-0.128	-0.198
-460.070	319.012	0.036	-0.068
-459.055	-27.978	0.257	-0.150
-458.040	166.267	0.211	-0.302
-457.026	43.958	0.155	0.144
-456.011	-36.915	-0.326	0.177
-454.997	-76.593	0.181	0.064
-453.982	0.669	0.142	-0.103
-452.968	-74.901	-0.054	-0.020
-451.953	22.314	-0.219	-0.181
-450.938	-200.000	0.012	-0.233
-449.924	-177.382	0.193	0.005
-448.909	800.000	-0.085	-0.239
-447.895	-74.060	0.497	0.182
-446.880	-47.027	-0.080	-0.039
-445.865	-93.054	0.208	0.058
-444.851	-90.428	0.191	0.056
-443.836	26.188	0.268	0.226
-442.822	315.953	-0.115	0.219
-441.807	-93.144	-0.335	0.094
-440.792	-134.710	0.263	0.032
-439.778	-120.299	0.202	0.035
-438.763	-200.000	-0.009	0.146
-437.749	-200.000	-0.055	-0.287
-436.734	-69.367	0.222	0.086
-435.719	-200.000	-0.009	0.134
-434.705	800.000	-0.090	-0.263
-433.690	800.000	-0.114	-0.348
-432.676	-119.485	0.346	0.061
-431.661	-200.000	0.055	-0.260
-430.646	-129.969	-0.103	0.014
-429.632	0.051	-0.341	0.246
-428.617	800.000	-0.036	-0.099
-427.603	47.520	-0.118	0.111
-426.588	53.842	-0.163	0.158
-425.573	314.769	-0.178	-0.338
-424.559	-140.625	0.349	-0.036
-423.544	47.621	-0.276	-0.260
-422.530	-166.831	-0.128	0.005
-421.515	800.000	0.057	-0.162
-420.500	157.586	-0.050	-0.070
-419.486	514.947	-0.128	-0.302
-418.471	50.504	0.017	-0.016
-417.457	449.245	0.123	0.274
-416.442	-200.000	0.022	0.293
-415.428	-139.690	0.331	-0.036
-414.413	-42.262	-0.192	-0.099
-413.398	-34.630	0.347	-0.192
-412.384	800.000	-0.005	-0.020
-411.369	-83.811	-0.158	-0.051
-410.355	-93.305	-0.304	0.085
-409.340	800.000	0.061	-0.238
-408.325	-43.388	0.150	-0.077
-407.311	-29.667	-0.387	0.223
-406.296	248.076	-0.098	0.167
-405.282	-44.662	-0.372	0.188
-404.267	379.364	-0.046	0.095
-403.252	331.172	0.182	0.354
-402.238	356.346	0.225	-0.452
-401.223	-72.646	0.131	0.049
-400.209	-8.430	0.352	0.239
-399.194	67.760	-0.098	0.101
-398.179	-139.761	0.072	-0.008
-397.165	12.900	0.089	0.069
-396.150	-140.847	-0.200	0.021
-395.136	-77.462	0.069	0.024
-394.121	337.870	-0.124	-0.243
-393.106	-73.731	-0.101	-0.037
-392.092	-200.000	-0.015	-0.090
-391.077	223.458	0.100	0.162
-390.063	-27.503	0.149	-0.088
-389.048	-200.000	0.017	-0.202
-388.033	34.382	0.099	-0.088
-387.019	-130.537	0.265	-0.036
-386.004	-78.256	-0.166	-0.058
-384.990	-200.000	0.046	0.329
-383.975	98.057	-0.109	0.127
-382.960	-43.352	0.104	0.053
-381.946	144.093	0.033	0.045
-380.931	-139.825	-0.141	0.015
-379.917	-6.605	-0.287	-0.197
-378.902	-87.402	0.135	0.041
-377.888	-139.692	-0.471	-0.051
-376.873	-105.961	-0.232	0.053
-375.858	-195.744	-0.145	-0.001
-374.844	127.421	0.100	-0.129
-373.829	-133.602	-0.130	0.016
-372.815	154.856	-0.097	-0.134
-371.800	-200.000	0.041	-0.190
-370.785	14.294	0.147	0.116
-369.771	-57.664	-0.185	0.082
-368.756	800.000	0.053	-0.153
-367.742	-200.000	0.027	-0.366
-366.727	-90.622	0.319	-0.093
-365.712	-200.000	0.060	0.366
-364.698	93.868	0.124	0.142
-363.683	-127.419	-0.138	-0.020
-362.669	-140.007	-0.270	0.029
-361.654	-74.878	-0.134	-0.048
-360.639	-69.280	0.357	0.138
-359.625	-48.922	0.283	-0.137
-358.610	576.891	0.150	-0.368
-357.596	219.537	-0.042	-0.067
-356.581	-70.042	-0.147	-0.056
-355.566	-60.553	0.273	0.117
-354.552	-49.577	0.134	-0.064
-353.537	-117.602	0.297	0.054
-352.523	266.305	-0.011	0.020
-351.508	149.464	-0.079	-0.107
-350.493	-189.961	0.162	0.002
-349.479	-59.189	0.110	0.048
-348.464	-156.458	-0.389	-0.024
-347.450	-200.000	0.034	0.161
-346.435	-200.000	-0.027	-0.337
-345.420	58.011	-0.066	0.065
-344.406	-75.586	0.238	-0.085
-343.391	51.676	-0.155	-0.148
-342.377	-193.256	0.261	-0.002
-341.362	-132.056	0.157	0.021
-340.348	-200.000	-0.009	0.079
-339.333	-50.724	-0.163	0.077
-338.318	800.000	0.049	-0.209
-337.304	88.708	0.137	0.154
-336.289	97.670	-0.086	-0.099
-335.275	391.091	-0.066	-0.138
-334.260	-151.595	-0.025	-0.002
-333.245	-200.000	-0.004	0.191
-332.231	-84.885	0.162	0.051
-331.216	-200.000	0.009	0.203
-330.202	181.323	0.201	0.297
-329.187	-200.000	-0.012	-0.123
-328.172	-34.767	0.177	-0.097
-327.158	-200.000	-0.036	0.221
-326.143	-105.782	0.291	0.066
-325.129	88.021	0.095	0.106
-324.114	-200.000	-0.011	-0.067
-323.099	-56.677	-0.106	-0.047
-322.085	800.000	-0.020	0.074
-321.070	-27.601	0.017	-0.010
-320.056	-128.789	0.269	0.038
-319.041	800.000	0.025	0.070
-318.026	-25.378	0.054	0.032
-317.012	488.148	0.012	0.028
-315.997	-18.067	-0.215	0.135
-314.983	200.200	-0.082	0.126
-313.968	135.356	-0.009	-0.012
-312.953	190.434	0.116	-0.175
-311.939	-200.000	-0.032	0.371
-310.924	641.409	0.128	0.328
-309.910	115.588	0.159	0.196
-308.895	-11.245	0.158	0.105
-307.880	-50.266	-0.416	0.198
-306.866	-73.939	-0.192	-0.070
-305.851	-15.164	0.162	-0.104
-304.837	-200.000	-0.026	0.143
-303.822	-121.423	0.268	-0.045
-302.807	110.065	-0.088	0.106
-301.793	48.074	0.105	0.098
-300.778	391.243	0.124	0.260
-299.764	-71.672	-0.095	-0.036
-298.749	43.415	-0.095	-0.087
-297.735	-81.217	0.248	0.082
-296.720	800.000	0.085	0.299
-295.705	-102.379	-0.342	-0.082
-294.691	478.457	0.111	0.253
-293.676	800.000	0.161	0.465
-292.662	-200.000	0.042	0.314
-291.647	-69.449	-0.303	-0.117
-290.632	564.247	-0.102	-0.249
-289.618	-38.898	-0.195	-0.103
-288.603	-46.224	-0.394	0.195
-287.589	-49.000	0.190	0.091
-286.574	96.336	-0.213	-0.245
-285.559	-78.777	0.079	-0.027
-284.545	252.371	0.112	0.191
-283.530	177.014	0.103	0.150
-282.516	46.377	-0.209	0.194
-281.501	-56.974	-0.065	0.029
-280.486	106.663	0.418	-0.499
-279.472	-200.000	0.012	-0.302
-278.457	147.175	0.062	0.084
-277.443	-48.783	0.215	0.104
-276.428	183.352	0.126	0.188
-275.413	-75.824	-0.100	0.036
-274.399	800.000	-0.090	-0.264
-273.384	-98.082	-0.225	-0.058
-272.370	-134.075	-0.204	-0.025
-271.355	-129.821	-0.192	0.026
-270.340	-200.000	-0.000	-0.132
-269.326	-200.000	0.015	-0.119
-268.311	11.825	-0.053	-0.041
-267.297	-126.633	0.329	-0.049
-266.282	-200.000	0.002	0.144
-265.267	-200.000	0.004	-0.134
-264.253	471.523	-0.151	0.341
-263.238	9.043	0.236	0.179
-262.224	-113.732	0.190	-0.037
-261.209	800.000	-0.074	0.253
-260.195	654.592	-0.150	-0.387
-259.180	102.661	-0.059	-0.069
-258.165	-59.865	-0.235	-0.101
-257.151	-15.524	-0.320	0.205
-256.136	182.295	-0.191	-0.282
-255.122	-9.261	0.065	-0.044
-254.107	-117.233	0.350	-0.064
-253.092	-26.727	0.106	0.062
-252.078	-186.169	-0.355	-0.005
-251.063	157.076	0.035	-0.048
-250.049	-200.000	-0.055	0.387
-249.034	95.970	-0.090	-0.104
-248.019	-67.949	-0.090	0.035
-247.005	-76.193	0.327	0.116
-245.990	-200.000	-0.038	0.245
-244.976	157.338	-0.267	-0.371
-243.961	98.784	0.195	-0.226
-242.946	-145.135	0.375	-0.034
-241.932	-103.653	0.317	-0.075
-240.917	-197.849	-0.108	0.001
-239.903	-67.654	0.087	0.034
-238.888	-150.196	0.079	-0.006
-237.873	-146.504	0.321	0.028
-236.859	-200.000	0.018	-0.224
-235.844	-36.584	-0.087	-0.047
-234.830	157.672	-0.170	0.236
-233.815	-200.000	-0.202	-0.000
-232.800	-137.968	-0.542	-0.061
-231.786	-200.000	-0.016	-0.347
-230.771	80.883	-0.132	0.143
-229.757	-200.000	-0.023	0.110
-228.742	-23.583	0.312	0.188
-227.727	-200.000	-0.007	0.119
-226.713	-200.000	0.003	-0.123
-225.698	-57.354	-0.390	-0.172
-224.684	-200.000	-0.018	0.104
-223.669	-33.199	0.210	-0.117
-222.655	-139.098	0.062	-0.007
-221.640	-69.252	-0.130	-0.050
-220.625	-133.090	-0.079	0.010
-219.611	105.299	-0.044	0.052
-218.596	-128.356	0.095	0.014
-217.582	-177.027	0.235	0.006
-216.567	200.964	0.177	-0.273
-215.552	147.757	0.218	0.295
-214.538	148.157	0.118	-0.159
-213.523	110.424	-0.048	-0.058
-212.509	153.976	-0.231	-0.317
-211.494	-142.695	-0.138	-0.014
-210.479	-19.836	0.276	-0.171
-209.465	800.000	-0.062	0.175
-208.450	59.044	-0.083	0.082
-207.436	51.829	-0.162	-0.155
-206.421	-102.612	0.330	0.079
-205.406	-80.994	-0.206	0.068
-204.392	0.356	-0.144	0.103
-203.377	-62.286	-0.182	-0.076
-202.363	113.917	0.052	0.063
-201.348	188.828	-0.165	-0.248
-200.333	800.000	-0.065	0.199
-199.319	-200.000	0.012	-0.182
-198.304	34.448	-0.182	-0.159
-197.290	-42.484	0.160	0.082
-196.275	-144.738	-0.297	-0.027
-195.260	-84.525	-0.128	-0.040
-194.246	21.297	-0.098	0.080
-193.231	-200.000	-0.001	-0.043
-192.217	-200.000	0.044	0.228
-191.202	79.899	-0.234	0.252
-190.187	-200.000	0.027	-0.369
-189.173	-200.000	0.001	-0.053
-188.158	-53.274	-0.134	0.061
-187.144	117.896	0.201	-0.248
-186.129	-105.990	0.304	-0.069
-185.114	39.956	0.063	0.057
-184.100	-21.032	-0.271	-0.166
-183.085	-200.000	0.001	0.067
-182.071	-123.991	-0.242	-0.038
-181.056	-199.729	-0.143	0.001
-180.042	89.451	-0.160	0.178
-179.027	208.489	0.085	-0.133
-178.012	-100.098	-0.148	-0.037
-176.998	-87.923	-0.098	0.029
-175.983	-152.698	-0.171	0.012
-174.969	-104.797	-0.146	0.034
-173.954	147.856	-0.155	-0.209
-172.939	-0.019	-0.093	0.067
-171.925	-129.680	0.418	-0.058
-170.910	351.338	-0.166	0.330
-169.896	800.000	-0.060	-0.250
-168.881	-62.546	0.215	0.089
-167.866	-104.871	-0.149	0.034
-166.852	-87.349	0.199	-0.060
-165.837	-126.311	0.364	0.054
-164.823	-200.000	-0.064	0.418
-163.808	254.176	-0.030	0.051
-162.793	-9.555	0.069	0.046
-161.779	166.010	-0.219	0.311
-160.764	-56.591	-0.210	0.093
-159.750	414.210	0.068	-0.145
-158.735	-0.426	0.394	-0.280
-157.720	30.463	-0.228	-0.195
-156.706	-138.637	0.145	0.016
-155.691	-200.000	0.007	0.142
-154.677	-85.851	0.134	-0.041
-153.662	59.523	0.125	-0.123
-152.647	-13.396	0.250	-0.162
-151.633	90.079	-0.057	0.064
-150.618	-123.102	0.168	-0.027
-149.604	800.000	-0.148	-0.489
-148.589	-104.826	0.387	-0.089
-147.574	-200.000	-0.043	0.388
-146.560	268.120	-0.036	-0.063
-145.545	-72.032	0.292	-0.108
-144.531	800.000	-0.055	-0.172
-143.516	800.000	-0.039	0.126
-142.502	800.000	0.095	-0.313
-141.487	678.852	-0.080	-0.207
-140.472	-100.171	-0.251	-0.062
-139.458	800.000	0.029	0.120
-138.443	-81.374	-0.044	-0.015
-137.429	-67.469	-0.281	-0.110
-136.414	800.000	0.049	-0.204
-135.399	-161.552	-0.299	-0.015
-134.385	-56.540	-0.202	0.089
-133.370	476.428	0.093	0.209
-132.356	68.517	-0.038	-0.039
-131.341	-200.000	0.021	-0.240
-130.326	800.000	0.024	0.075
-129.312	800.000	0.032	0.122
-128.297	293.536	0.072	0.132
-127.283	-200.000	-0.162	0.000
-126.268	-55.454	-0.078	-0.035
-125.253	27.481	-0.344	-0.289
-124.239	-200.000	-0.014	-0.073
-123.224	800.000	0.048	-0.167
-122.210	-172.067	0.133	0.004
