DTS Sentinel unit serial number:	SN413079Multiplexer serial number:	ORYXHardware model number:	OX4-SRSoftware version number:	ORYX F/W v4.00 Oryx Data Collector v3.7.2.0data status	okinstallation	princeton_trtdifferential loss correction	single-endedforward channel	channel 3reverse channel	N/Adate	2019/09/12time	20:05:04forward acquisition time	15.00reverse acquisition time	0.00gamma	496.2192k internal	0.2323k external	0.2323temperature offset calibration	1.0116default loss term (dB/km)	0.3790temperature slope calibration	1.0000multiplexer offset coefficient	1.0000multiplexer slope coefficient	1.0000fibre end	0.00T internal ref (°C)	31.69T ext. ref 1 (°C)	3.37T ext. ref 2 (°C)	26.23length (m)	temperature (°C)	Stokes	anti-Stokes-747.200	20.797	0.220	0.180
-746.185	-200.000	-0.096	-0.869
-745.171	-40.185	0.600	-0.315
-744.156	10.367	0.598	0.460
-743.142	800.000	0.187	0.675
-742.127	800.000	0.060	-0.241
-741.112	-149.208	-0.317	-0.026
-740.098	6.056	0.394	-0.294
-739.083	152.514	-0.337	-0.465
-738.069	-176.557	-0.640	0.017
-737.054	-47.481	0.290	-0.142
-736.039	-200.000	0.000	-0.909
-735.025	-144.162	0.364	0.034
-734.010	-36.974	-0.509	0.276
-732.996	375.260	-0.313	-0.643
-731.981	-59.308	-0.104	0.045
-730.966	800.000	0.176	0.606
-729.952	-200.000	-0.023	0.728
-728.937	-158.477	0.640	0.037
-727.923	596.403	-0.352	-0.880
-726.908	-19.743	0.100	-0.062
-725.894	-200.000	-0.010	0.055
-724.879	-149.500	-0.779	-0.062
-723.864	117.048	0.409	-0.506
-722.850	-30.287	-0.409	0.234
-721.835	-163.439	-0.871	0.042
-720.821	-200.000	-0.071	0.324
-719.806	-106.023	-0.252	0.057
-718.791	-43.800	-0.825	-0.419
-717.777	-67.038	-0.575	0.229
-716.762	-114.588	0.484	-0.094
-715.748	-180.107	0.264	-0.006
-714.733	297.312	-0.232	-0.429
-713.718	-200.000	0.106	0.756
-712.704	206.746	0.353	0.555
-711.689	-124.065	-0.467	0.074
-710.675	127.779	0.446	-0.572
-709.660	-9.158	-0.608	0.410
-708.645	-68.055	-0.449	-0.176
-707.631	800.000	-0.119	-0.455
-706.616	608.509	0.022	-0.055
-705.602	143.284	0.188	0.252
-704.587	-200.000	0.123	0.911
-703.572	-101.297	0.242	0.059
-702.558	800.000	0.167	-0.601
-701.543	-156.193	-0.874	-0.055
-700.529	-39.997	-0.375	0.197
-699.514	229.568	0.202	-0.333
-698.499	77.664	-0.622	-0.668
-697.485	800.000	0.025	-0.098
-696.470	-145.151	-0.584	0.053
-695.456	207.420	-0.207	-0.326
-694.441	-51.357	0.386	-0.182
-693.426	138.993	0.435	-0.576
-692.412	327.424	0.313	0.605
-691.397	58.283	0.369	-0.365
-690.383	23.061	-0.421	-0.348
-689.368	240.327	0.247	-0.415
-688.354	-200.000	0.012	0.156
-687.339	157.263	-0.220	0.307
-686.324	800.000	0.143	0.436
-685.310	5.483	0.086	-0.064
-684.295	-70.316	-0.900	-0.344
-683.281	-168.026	-0.777	-0.031
-682.266	-200.000	0.069	-0.543
-681.251	-125.425	-0.616	-0.095
-680.237	100.251	-0.422	-0.493
-679.222	206.903	-0.262	0.411
-678.208	702.393	0.176	-0.466
-677.193	109.498	-0.230	-0.278
-676.178	-53.322	-0.779	0.360
-675.164	800.000	-0.204	-0.830
-674.149	110.704	-0.118	0.143
-673.135	-141.377	0.812	-0.083
-672.120	235.694	-0.218	-0.363
-671.105	-113.506	-0.195	-0.038
-670.091	770.551	-0.295	0.810
-669.076	85.609	0.548	-0.607
-668.062	-200.000	-0.036	-0.422
-667.047	800.000	0.033	0.145
-666.032	-104.190	0.263	-0.062
-665.018	201.195	-0.293	0.454
-664.003	-41.962	0.755	-0.389
-662.989	117.342	0.288	-0.357
-661.974	-200.000	-0.018	0.321
-660.959	62.126	-0.212	0.213
-659.945	-23.389	0.810	-0.490
-658.930	-200.000	0.061	0.556
-657.916	202.893	0.167	-0.260
-656.901	800.000	-0.110	0.473
-655.886	453.766	-0.064	-0.142
-654.872	800.000	0.173	0.493
-653.857	-200.000	-0.017	-0.186
-652.843	-200.000	0.036	0.343
-651.828	-15.658	0.564	-0.362
-650.814	-200.000	0.043	0.195
-649.799	800.000	-0.185	-0.555
-648.784	-111.099	0.852	-0.176
-647.770	-200.000	-0.006	-0.295
-646.755	-150.357	0.344	0.027
-645.741	-159.562	-0.426	0.024
-644.726	-67.892	0.060	0.024
-643.711	-52.450	-0.519	-0.242
-642.697	236.938	-0.167	-0.279
-641.682	-73.491	0.123	-0.045
-640.668	111.576	-0.636	0.771
-639.653	5.240	0.438	0.324
-638.638	-200.000	-0.074	-0.462
-637.624	299.516	0.194	0.359
-636.609	-200.000	0.504	-0.002
-635.595	86.289	-0.174	0.193
-634.580	73.132	-0.434	-0.456
-633.565	800.000	0.092	0.320
-632.551	-53.073	0.700	0.324
-631.536	-82.254	0.201	-0.066
-630.522	66.944	-0.568	-0.582
-629.507	533.751	-0.227	-0.540
-628.492	-200.000	-0.048	-0.711
-627.478	-55.833	0.270	-0.121
-626.463	-104.797	1.276	0.295
-625.449	-200.000	0.159	1.007
-624.434	-96.430	0.441	-0.117
-623.419	153.968	0.321	0.442
-622.405	50.083	0.273	0.259
-621.390	225.176	0.128	-0.208
-620.376	-102.209	-1.084	0.262
-619.361	261.143	0.462	0.803
-618.346	800.000	-0.096	-0.409
-617.332	25.732	-0.454	-0.380
-616.317	107.285	-0.307	0.367
-615.303	517.019	-0.141	0.332
-614.288	52.071	-0.749	-0.717
-613.273	800.000	0.058	-0.176
-612.259	201.039	-0.256	-0.396
-611.244	95.750	-0.199	-0.229
-610.230	149.166	0.174	0.236
-609.215	177.781	0.361	0.528
-608.201	9.545	-0.347	-0.264
-607.186	-83.346	0.830	0.268
-606.171	34.624	0.295	-0.259
-605.157	85.097	-0.204	-0.225
-604.142	-71.505	-0.231	-0.087
-603.128	692.911	0.102	0.269
-602.113	800.000	-0.106	-0.380
-601.098	88.647	-0.406	0.453
-600.084	800.000	-0.243	0.703
-599.069	197.745	-0.179	-0.274
-598.055	-200.000	0.115	-0.741
-597.040	153.561	-0.324	0.445
-596.025	-96.505	0.807	0.214
-595.011	-87.516	-0.452	-0.137
-593.996	31.636	-0.636	0.549
-592.982	110.608	-0.179	0.216
-591.967	800.000	-0.176	0.679
-590.952	-121.302	-0.723	0.121
-589.938	523.309	-0.048	0.114
-588.923	-55.018	0.544	0.246
-587.909	-27.908	-0.396	0.230
-586.894	23.218	0.393	-0.324
-585.879	-200.000	-0.067	0.463
-584.865	-200.000	-0.010	-0.184
-583.850	-200.000	-1.684	-0.003
-582.836	168.449	0.281	-0.402
-581.821	31.124	-1.007	-0.867
-580.806	103.237	-0.526	0.619
-579.792	-49.451	-0.359	-0.172
-578.777	83.795	0.628	0.687
-577.763	-111.542	-0.314	-0.064
-576.748	452.729	0.109	-0.242
-575.733	88.320	-0.469	-0.522
-574.719	-200.000	-0.074	-0.395
-573.704	100.248	0.546	-0.635
-572.690	-200.000	0.039	-0.439
-571.675	-200.000	-0.054	0.298
-570.661	157.696	0.498	0.692
-569.646	407.000	-0.194	0.410
-568.631	-56.769	0.587	0.260
-567.617	-200.000	0.009	-0.058
-566.602	-0.698	-0.446	0.317
-565.588	-160.681	-0.450	0.024
-564.573	253.832	-0.402	0.690
-563.558	78.278	-0.263	0.281
-562.544	-200.000	-0.016	0.197
-561.529	195.173	-0.202	-0.307
-560.515	6.269	-0.277	0.206
-559.500	-200.000	-0.078	0.639
-558.485	-200.000	-0.022	-0.355
-557.471	-128.618	-0.523	0.074
-556.456	-103.781	-1.273	0.299
-555.442	-107.418	0.514	0.113
-554.427	306.199	0.129	0.240
-553.412	-155.388	0.325	0.021
-552.398	-46.550	-0.389	-0.191
-551.383	-200.000	-0.053	-0.312
-550.369	-161.731	-0.238	-0.012
-549.354	160.411	-0.501	0.701
-548.339	-115.058	0.699	0.133
-547.325	-181.472	-0.667	0.013
-546.310	-104.818	-0.414	0.095
-545.296	125.357	-0.494	0.624
-544.281	-109.688	0.879	-0.185
-543.266	-200.000	-0.006	-0.453
-542.252	-101.552	-0.334	-0.081
-541.237	569.917	-0.113	-0.276
-540.223	55.522	-0.239	0.232
-539.208	-91.684	0.342	-0.097
-538.193	-162.737	-0.268	-0.013
-537.179	-124.046	0.647	-0.102
-536.164	-200.000	0.034	0.456
-535.150	-200.000	-0.010	-0.348
-534.135	39.664	-0.239	-0.214
-533.121	20.891	0.395	-0.321
-532.106	-38.271	0.639	0.339
-531.091	147.403	-0.423	0.570
-530.077	0.343	0.471	0.336
-529.062	-167.933	0.824	-0.032
-528.048	-40.389	-0.453	-0.236
-527.033	-200.000	-0.005	-0.453
-526.018	-121.759	-0.738	-0.122
-525.004	-197.283	0.219	0.001
-523.989	158.977	0.271	0.377
-522.975	-97.069	0.248	0.065
-521.960	-116.034	0.586	-0.109
-520.945	-200.000	-0.178	-0.808
-519.931	-145.015	0.936	-0.085
-518.916	374.590	0.245	-0.499
-517.902	-107.520	-0.294	-0.064
-516.887	38.286	0.098	0.087
-515.872	-16.419	-0.606	-0.384
-514.858	-29.216	0.473	-0.271
-513.843	-200.000	0.044	-0.311
-512.829	-108.694	-0.634	-0.136
-511.814	7.771	-0.656	-0.492
-510.799	162.646	0.446	0.626
-509.785	116.412	0.277	-0.339
-508.770	-8.103	1.032	0.696
-507.756	-200.000	0.061	0.602
-506.741	62.309	0.228	-0.227
-505.726	800.000	0.319	1.050
-504.712	-65.801	0.415	-0.166
-503.697	109.428	-0.370	-0.443
-502.683	-31.574	-0.252	-0.141
-501.668	214.238	-0.332	-0.525
-500.653	268.912	0.410	-0.720
-499.639	-138.034	-0.359	-0.040
-498.624	-200.000	-0.022	0.105
-497.610	-200.000	0.121	-0.616
-496.595	47.820	0.250	0.234
-495.581	30.502	-0.133	-0.114
-494.566	33.022	0.411	-0.356
-493.551	-197.612	-0.493	-0.003
-492.537	325.769	-0.283	0.542
-491.522	800.000	0.154	-0.504
-490.508	209.109	-0.328	-0.513
-489.493	-130.487	-0.267	0.036
-488.478	101.455	0.660	0.769
-487.464	-39.403	-0.149	-0.078
-486.449	87.479	-0.432	0.478
-485.435	-75.143	0.464	0.166
-484.420	-200.000	0.069	0.366
-483.405	-124.581	0.764	-0.119
-482.391	-7.937	-0.807	-0.544
-481.376	-72.069	-0.965	-0.358
-480.362	681.907	0.206	0.536
-479.347	800.000	-0.045	-0.135
-478.332	151.413	-0.292	-0.397
-477.318	800.000	-0.038	0.139
-476.303	800.000	-0.190	-0.728
-475.289	-118.054	0.359	0.064
-474.274	-200.000	0.003	0.025
-473.259	343.972	0.072	-0.141
-472.245	-68.886	0.809	-0.312
-471.230	-51.603	-0.820	0.382
-470.216	61.342	-0.149	-0.148
-469.201	281.735	-0.454	-0.813
-468.186	-115.550	-0.471	-0.088
-467.172	800.000	-0.040	0.141
-466.157	20.239	0.177	-0.143
-465.143	-109.752	0.431	0.091
-464.128	128.616	-0.550	0.700
-463.113	-170.273	0.350	0.012
-462.099	-111.674	-0.703	0.142
-461.084	-20.940	-0.428	-0.262
-460.070	-40.411	-0.341	0.177
-459.055	43.076	0.240	0.219
-458.040	456.875	-0.042	0.093
-457.026	-66.343	-0.105	-0.042
-456.011	-57.919	-0.312	0.136
-454.997	22.136	-0.203	0.165
-453.982	321.451	0.294	-0.558
-452.968	-200.000	-0.035	0.254
-451.953	800.000	-0.180	-0.602
-450.938	-200.000	-0.067	0.636
-449.924	-114.806	0.298	0.057
-448.909	-96.952	-1.116	0.292
-447.895	-89.522	0.692	0.203
-446.880	59.036	0.275	-0.270
-445.865	111.447	0.553	0.666
-444.851	187.669	-0.144	0.214
-443.836	59.203	-0.310	0.304
-442.822	-81.538	-0.140	-0.046
-441.807	-200.000	0.003	0.753
-440.792	12.122	-0.737	-0.566
-439.778	457.131	0.249	0.552
-438.763	-171.213	0.355	-0.012
-437.749	800.000	0.114	0.493
-436.734	-153.877	0.610	0.042
-435.719	-200.000	-0.030	0.422
-434.705	169.103	-0.400	0.570
-433.690	82.949	-0.375	0.407
-432.676	242.958	-0.229	-0.382
-431.661	-200.000	0.044	-0.224
-430.646	88.507	-0.279	-0.310
-429.632	-200.000	0.082	-1.352
-428.617	291.452	-0.146	0.266
-427.603	71.276	-0.361	-0.374
-426.588	-69.519	0.252	0.096
-425.573	-12.725	0.289	0.188
-424.559	-106.014	0.502	-0.113
-423.544	-159.825	-0.295	0.016
-422.530	-200.000	0.071	-0.528
-421.515	-125.743	-0.578	-0.087
-420.500	800.000	-0.137	0.458
-419.486	-200.000	0.210	0.950
-418.471	-200.000	-0.109	0.476
-417.457	-200.000	-0.011	-0.102
-416.442	-37.418	-0.401	0.213
-415.428	300.467	0.044	-0.081
-414.413	-164.894	0.608	0.027
-413.398	549.287	-0.077	-0.185
-412.384	-200.000	0.224	-1.010
-411.369	91.724	0.048	-0.054
-410.355	23.651	-0.205	-0.169
-409.340	800.000	-0.098	-0.271
-408.325	387.056	0.297	0.613
-407.311	39.042	-0.233	0.208
-406.296	139.684	0.455	-0.597
-405.282	574.823	-0.145	0.352
-404.267	441.986	0.181	-0.395
-403.252	800.000	-0.125	-0.361
-402.238	-120.005	0.477	-0.082
-401.223	644.400	0.395	-1.004
-400.209	-200.000	0.021	0.461
-399.194	-200.000	-0.004	0.269
-398.179	-40.529	0.529	0.273
-397.165	55.745	0.190	0.183
-396.150	-87.045	-0.757	0.230
-395.136	-118.428	-0.607	0.107
-394.121	-78.156	-0.651	-0.223
-393.106	-70.862	-0.364	-0.137
-392.092	800.000	-0.413	-1.162
-391.077	-200.000	0.054	-0.630
-390.063	-118.504	0.648	0.114
-389.048	-200.000	-0.076	0.694
-388.033	-172.594	-0.221	-0.007
-387.019	-55.128	0.383	0.172
-386.004	5.866	0.253	-0.186
-384.990	800.000	-0.256	0.949
-383.975	-185.437	-0.378	0.006
-382.960	60.021	0.295	0.290
-381.946	800.000	0.166	-0.673
-380.931	539.984	0.413	-0.980
-379.917	-96.342	-0.965	-0.254
-378.902	185.776	0.174	-0.258
-377.888	111.876	-0.285	-0.343
-376.873	-55.291	-0.494	-0.221
-375.858	368.743	0.378	0.761
-374.844	800.000	0.168	-0.554
-373.829	2.240	0.704	-0.507
-372.815	-104.934	0.944	-0.216
-371.800	-23.738	-0.189	0.113
-370.785	52.565	0.188	-0.178
-369.771	-104.310	0.073	0.017
-368.756	23.800	-0.476	0.390
-367.742	-49.374	0.488	-0.232
-366.727	-200.000	-0.027	-0.515
-365.712	-76.214	0.519	-0.182
-364.698	-200.000	-0.130	-0.831
-363.683	105.699	0.572	-0.673
-362.669	-58.197	0.560	0.243
-361.654	-200.000	-0.157	0.780
-360.639	-134.686	-0.217	-0.026
-359.625	54.349	0.197	-0.189
-358.610	-200.000	0.181	-0.841
-357.596	367.048	-0.212	-0.425
-356.581	800.000	0.089	-0.328
-355.566	505.876	0.210	-0.485
-354.552	800.000	-0.327	-0.960
-353.537	277.762	-0.202	0.358
-352.523	-95.133	-0.753	0.202
-351.508	173.828	0.129	-0.185
-350.493	4.274	-0.399	0.291
-349.479	289.767	0.197	-0.356
-348.464	-200.000	-0.088	0.962
-347.450	-200.000	0.011	-0.345
-346.435	39.503	0.455	0.405
-345.420	566.260	0.244	0.588
-344.406	41.278	-0.302	-0.272
-343.391	2.982	-0.383	-0.277
-342.377	-37.297	0.710	0.377
-341.362	800.000	0.151	-0.519
-340.348	-36.739	0.809	-0.432
-339.333	43.000	0.166	-0.151
-338.318	800.000	-0.078	0.246
-337.304	800.000	-0.240	0.674
-336.289	800.000	0.130	-0.414
-335.275	622.811	-0.049	0.123
-334.260	-200.000	0.025	0.351
-333.245	-49.132	-0.528	0.251
-332.231	-10.883	0.209	-0.137
-331.216	-200.000	-0.031	-0.480
-330.202	199.177	-0.163	-0.249
-329.187	-200.000	-0.096	-0.434
-328.172	-200.000	0.031	0.539
-327.158	286.180	-0.410	0.735
-326.143	-112.844	0.307	-0.060
-325.129	-29.503	0.908	-0.516
-324.114	-200.000	-0.065	-0.585
-323.099	-82.208	-0.602	-0.195
-322.085	-200.000	0.085	-0.475
-321.070	289.808	0.373	-0.672
-320.056	345.978	-0.092	-0.180
-319.041	-111.072	1.221	0.249
-318.026	800.000	0.214	-0.598
-317.012	-200.000	-0.051	-0.279
-315.997	40.444	0.466	-0.417
-314.983	-200.000	-0.066	-0.539
-313.968	-200.000	0.129	-1.549
-312.953	-200.000	0.010	-0.975
-311.939	-200.000	-0.065	-0.559
-310.924	141.177	0.305	-0.400
-309.910	67.686	0.334	-0.339
-308.895	48.013	-0.400	0.372
-307.880	-200.000	-0.042	0.265
-306.866	22.520	-0.529	-0.430
-305.851	-14.140	-0.473	0.303
-304.837	82.321	-0.658	0.708
-303.822	3.195	0.201	0.145
-302.807	-200.000	0.136	0.832
-301.793	-200.000	0.005	-0.095
-300.778	-63.496	-0.292	0.119
-299.764	-103.873	-0.967	0.224
-298.749	651.624	0.145	0.370
-297.735	-89.299	0.392	0.115
-296.720	224.300	-0.096	-0.154
-295.705	-91.779	0.334	-0.094
-294.691	88.781	0.396	0.437
-293.676	-104.660	0.467	0.107
-292.662	-130.941	0.621	-0.082
-291.647	85.634	-0.240	0.261
-290.632	-200.000	-0.020	-0.379
-289.618	-66.621	-0.445	-0.175
-288.603	-175.525	0.302	-0.008
-287.589	-200.000	-0.007	0.315
-286.574	161.463	0.406	-0.563
-285.559	-100.347	-0.569	0.140
-284.545	-6.259	-0.333	-0.225
-283.530	11.741	0.700	0.533
-282.516	-109.165	0.874	-0.184
-281.501	-117.871	0.471	-0.084
-280.486	-200.000	-0.072	-0.682
-279.472	327.707	-0.156	-0.296
-278.457	-149.171	0.814	0.065
-277.443	-132.694	-1.079	-0.137
-276.428	-200.000	-0.020	0.486
-275.413	800.000	-0.292	0.967
-274.399	-9.523	0.642	0.424
-273.384	-62.633	0.712	0.293
-272.370	800.000	-0.208	0.820
-271.355	-200.000	-0.094	0.710
-270.340	-200.000	0.065	0.639
-269.326	800.000	0.038	-0.104
-268.311	130.725	0.218	0.277
-267.297	9.657	0.995	0.747
-266.282	397.292	-0.278	0.576
-265.267	800.000	-0.080	-0.338
-264.253	-119.104	0.407	-0.071
-263.238	800.000	-0.124	0.344
-262.224	800.000	0.213	-0.693
-261.209	255.901	0.208	0.353
-260.195	-173.366	-0.775	-0.023
-259.180	800.000	-0.097	0.362
-258.165	-188.171	0.407	-0.005
-257.151	-161.079	-0.499	-0.026
-256.136	357.585	-0.170	0.336
-255.122	180.380	0.285	-0.415
-254.107	-130.336	0.222	-0.030
-253.092	-33.797	-0.276	-0.151
-252.078	63.750	-0.306	0.304
-251.063	-200.000	0.210	1.019
-250.049	-81.869	-0.742	0.241
-249.034	193.237	0.371	0.555
-248.019	-200.000	0.045	0.885
-247.005	-119.474	0.356	-0.061
-245.990	-200.000	0.063	-0.726
-244.976	800.000	-0.149	-0.441
-243.961	-136.558	-0.950	0.109
-242.946	800.000	0.089	-0.243
-241.932	-200.000	-0.129	-0.881
-240.917	90.148	0.104	0.115
-239.903	355.474	0.253	0.499
-238.888	-82.826	-0.921	0.295
-237.873	249.278	0.250	0.420
-236.859	2.840	0.696	0.500
-235.844	800.000	-0.136	0.508
-234.830	-39.907	0.631	-0.326
-233.815	385.319	-0.324	-0.661
-232.800	-77.655	0.703	-0.241
-231.786	28.467	0.590	0.494
-230.771	-53.820	0.468	0.211
-229.757	260.276	0.152	0.260
-228.742	-67.972	-0.743	0.287
-227.727	253.790	0.465	0.786
-226.713	32.342	-0.458	-0.392
-225.698	-83.011	0.343	-0.109
-224.684	142.782	0.276	-0.363
-223.669	-9.165	-1.038	0.687
-222.655	-12.085	-0.400	0.259
-221.640	-200.000	-0.028	-0.309
-220.625	-200.000	0.041	0.234
-219.611	-83.438	1.125	-0.357
-218.596	-63.423	-0.176	-0.072
-217.582	-94.046	-0.722	0.196
-216.567	-5.048	-0.238	0.162
-215.552	44.925	-0.180	-0.164
-214.538	269.196	0.165	0.287
-213.523	133.140	0.282	0.361
-212.509	95.516	0.366	-0.412
-211.494	-32.521	-0.331	-0.182
-210.479	-123.087	-0.834	-0.132
-209.465	74.076	0.264	0.274
-208.450	-71.823	-0.134	-0.049
-207.436	-200.000	-0.022	-0.330
-206.421	12.139	-0.189	-0.144
-205.406	495.294	-0.193	-0.438
-204.392	800.000	-0.043	0.166
-203.377	227.969	-0.204	0.328
-202.363	19.381	0.379	0.301
-201.348	-26.973	-0.420	0.243
-200.333	31.304	-0.178	-0.151
-199.319	48.927	0.492	-0.457
-198.304	-100.024	0.605	-0.149
-197.290	338.028	-0.196	0.378
-196.275	-88.351	1.229	0.363
-195.260	386.332	0.179	-0.366
-194.246	444.605	-0.275	0.597
-193.231	-86.149	0.369	0.113
-192.217	800.000	0.222	0.616
-191.202	-177.696	0.396	-0.009
-190.187	-200.000	0.016	0.720
-189.173	-87.656	0.293	-0.087
-188.158	-200.000	-0.006	0.496
-187.144	-83.626	0.303	0.096
-186.129	-5.387	-0.308	0.209
-185.114	800.000	-0.288	1.092
-184.100	-200.000	-0.063	0.448
-183.085	800.000	0.082	0.352
-182.071	-140.224	0.206	-0.021
-181.056	-76.958	-0.260	0.090
-180.042	-200.000	0.042	-0.381
-179.027	800.000	0.181	-0.694
-178.012	-146.916	-0.433	-0.037
-176.998	-15.212	-0.213	-0.135
-175.983	296.237	-0.253	0.457
-174.969	-200.000	0.065	0.330
-173.954	15.621	0.440	-0.341
-172.939	414.761	-0.279	0.587
-171.925	554.229	0.154	-0.365
-170.910	-160.167	-0.471	0.025
-169.896	800.000	-0.119	-0.427
-168.881	235.674	0.507	-0.827
-167.866	508.017	-0.242	-0.554
-166.852	-125.722	0.111	-0.017
-165.837	-63.848	0.343	-0.139
-164.823	800.000	-0.238	-0.999
-163.808	11.696	0.535	0.406
-162.793	800.000	-0.212	-0.585
-161.779	-83.534	0.306	-0.097
-160.764	-147.090	0.816	0.069
-159.750	385.064	0.096	0.195
-158.735	-18.369	-0.291	0.180
-157.720	-64.481	-0.844	-0.339
-156.706	800.000	0.091	-0.298
-155.691	800.000	0.230	0.838
-154.677	-83.643	-1.031	0.325
-153.662	-200.000	0.069	0.586
-152.647	213.437	0.513	-0.801
-151.633	-200.000	-0.082	-0.572
-150.618	-99.049	1.062	0.266
-149.604	-5.558	0.893	-0.604
-148.589	27.044	-0.234	0.193
-147.574	188.164	-0.323	-0.476
-146.560	800.000	-0.068	-0.253
-145.545	-17.752	-0.326	0.202
-144.531	338.989	0.304	-0.585
-143.516	477.603	0.232	-0.517
-142.502	-97.059	-0.184	0.048
-141.487	354.833	0.320	0.627
-140.472	30.156	0.628	0.528
-139.458	-200.000	-0.160	1.102
-138.443	-200.000	-0.064	0.428
-137.429	-200.000	0.040	0.223
-136.414	-7.383	1.068	0.713
-135.399	487.007	-0.174	0.390
-134.385	117.676	-0.132	-0.161
-133.370	-53.565	-0.404	0.182
-132.356	354.656	0.513	1.006
-131.341	800.000	0.150	-0.566
-130.326	-200.000	0.020	-0.476
-129.312	800.000	0.149	0.528
-128.297	7.600	-0.346	-0.255
-127.283	-200.000	0.082	0.381
-126.268	-42.559	-0.191	0.096
-125.253	126.820	0.367	-0.458
-124.239	-130.584	-0.522	0.069
-123.224	-156.115	-0.532	-0.033
-122.210	30.959	-0.847	0.715
