DTS Sentinel unit serial number:	SN413079Multiplexer serial number:	ORYXHardware model number:	OX4-SRSoftware version number:	ORYX F/W v4.00 Oryx Data Collector v3.7.2.0data status	okinstallation	princeton_trtdifferential loss correction	single-endedforward channel	channel 3reverse channel	N/Adate	2019/09/15time	20:20:35forward acquisition time	60.00reverse acquisition time	0.00gamma	496.2192k internal	0.2320k external	0.2320temperature offset calibration	0.9936default loss term (dB/km)	0.3790temperature slope calibration	1.0000multiplexer offset coefficient	1.0000multiplexer slope coefficient	1.0000fibre end	0.00T internal ref (°C)	34.11T ext. ref 1 (°C)	7.72T ext. ref 2 (°C)	25.54length (m)	temperature (°C)	Stokes	anti-Stokes-747.200	-98.639	-0.184	-0.048
-746.185	13.984	-0.145	0.114
-745.171	800.000	-0.064	0.270
-744.156	800.000	-0.086	0.275
-743.142	14.593	-0.306	-0.241
-742.127	154.502	-0.203	0.282
-741.112	-1.232	-0.138	-0.098
-740.098	389.591	-0.187	0.391
-739.083	-200.000	-0.055	-0.288
-738.069	343.414	-0.218	0.433
-737.054	-200.000	-0.026	0.152
-736.039	800.000	-0.038	0.110
-735.025	-200.000	0.000	0.024
-734.010	-10.784	0.120	-0.080
-732.996	84.146	-0.139	-0.154
-731.981	49.038	-0.286	-0.271
-730.966	-97.912	-0.306	-0.080
-729.952	259.064	-0.090	-0.156
-728.937	-200.000	-0.016	-0.162
-727.923	190.673	-0.056	-0.084
-726.908	800.000	-0.046	-0.180
-725.894	-187.029	-0.241	-0.003
-724.879	9.000	-0.155	0.118
-723.864	-46.993	-0.289	0.143
-722.850	160.907	-0.189	-0.266
-721.835	-200.000	-0.003	0.150
-720.821	22.735	0.106	-0.087
-719.806	-200.000	0.062	-0.339
-718.791	321.658	0.160	-0.307
-717.777	281.805	-0.055	0.099
-716.762	63.973	0.086	0.087
-715.748	800.000	-0.078	0.263
-714.733	161.304	-0.185	-0.261
-713.718	31.243	-0.077	0.067
-712.704	16.277	0.223	0.178
-711.689	-200.000	-0.015	0.080
-710.675	800.000	-0.104	0.297
-709.660	-36.690	0.185	0.100
-708.645	800.000	0.032	0.126
-707.631	800.000	-0.055	0.235
-706.616	-87.010	0.285	0.088
-705.602	153.361	-0.103	-0.142
-704.587	129.505	0.019	-0.025
-703.572	-110.689	-0.171	0.036
-702.558	-200.000	0.012	0.347
-701.543	-16.420	-0.097	0.062
-700.529	-60.411	-0.162	-0.070
-699.514	466.649	0.080	-0.181
-698.499	578.930	0.179	-0.443
-697.485	2.311	-0.125	-0.091
-696.470	2.625	0.131	0.096
-695.456	450.679	0.048	0.106
-694.441	-44.173	0.169	0.086
-693.426	39.384	0.145	0.131
-692.412	180.681	-0.061	0.090
-691.397	-72.283	-0.126	-0.047
-690.383	-89.736	-0.374	-0.110
-689.368	-104.401	-0.099	0.023
-688.354	800.000	-0.070	-0.265
-687.339	-14.263	0.061	0.040
-686.324	-79.852	0.302	-0.102
-685.310	800.000	0.019	0.060
-684.295	602.527	0.129	0.324
-683.281	-56.287	0.322	0.144
-682.266	564.188	0.096	-0.234
-681.251	152.289	-0.075	0.103
-680.237	19.758	-0.270	-0.219
-679.222	24.177	0.154	-0.129
-678.208	28.074	0.137	-0.117
-677.193	26.696	-0.078	0.066
-676.178	-200.000	0.018	0.297
-675.164	167.016	0.298	-0.427
-674.149	66.513	0.077	0.079
-673.135	800.000	0.040	0.168
-672.120	800.000	0.029	-0.101
-671.105	-100.192	0.039	0.010
-670.091	800.000	-0.147	-0.420
-669.076	-37.899	0.154	-0.083
-668.062	34.089	-0.207	0.182
-667.047	38.421	-0.044	0.039
-666.032	15.080	-0.139	0.110
-665.018	139.763	-0.162	-0.215
-664.003	-64.017	0.195	0.080
-662.989	468.200	-0.024	-0.054
-661.974	-33.044	-0.263	-0.147
-660.959	800.000	-0.095	-0.380
-659.945	-97.915	0.212	-0.055
-658.930	-200.000	-0.007	-0.198
-657.916	141.512	-0.201	-0.268
-656.901	-140.336	0.168	0.018
-655.886	200.007	-0.188	-0.291
-654.872	800.000	-0.078	-0.243
-653.857	221.866	-0.200	-0.323
-652.843	-200.000	0.037	-0.309
-651.828	-200.000	0.046	0.335
-650.814	-85.501	0.444	-0.139
-649.799	-103.032	-0.441	0.105
-648.784	-140.878	0.121	-0.013
-647.770	-90.212	0.350	-0.102
-646.755	-111.416	0.361	0.074
-645.741	-23.071	-0.109	-0.066
-644.726	-106.751	-0.203	-0.045
-643.711	-26.321	-0.323	-0.191
-642.697	-157.397	-0.329	-0.020
-641.682	431.216	0.190	-0.414
-640.668	394.166	0.131	0.274
-639.653	164.527	0.113	0.161
-638.638	-6.734	0.319	0.218
-637.624	800.000	-0.033	0.098
-636.609	95.376	0.075	-0.086
-635.595	45.165	-0.178	-0.165
-634.580	-67.574	-0.284	-0.112
-633.565	-151.499	-0.222	-0.017
-632.551	-42.809	-0.270	0.138
-631.536	-45.437	-0.036	-0.018
-630.522	285.375	-0.179	0.325
-629.507	132.947	0.205	0.266
-628.492	-21.470	0.310	0.190
-627.478	350.981	-0.120	0.239
-626.463	119.487	-0.080	-0.100
-625.449	281.676	-0.032	0.058
-624.434	-61.647	0.078	-0.033
-623.419	304.913	-0.102	0.190
-622.405	476.624	-0.055	0.126
-621.390	127.336	0.113	-0.144
-620.376	-156.281	0.225	-0.014
-619.361	-200.000	-0.032	-0.243
-618.346	800.000	-0.014	-0.047
-617.332	312.626	0.175	-0.331
-616.317	452.575	0.071	-0.159
-615.303	-200.000	0.024	-0.166
-614.288	15.095	0.083	-0.066
-613.273	83.884	-0.263	-0.289
-612.259	352.710	0.138	0.275
-611.244	348.144	0.055	0.110
-610.230	800.000	-0.027	0.088
-609.215	125.673	0.212	-0.270
-608.201	-161.192	-0.101	-0.005
-607.186	-97.860	0.148	0.038
-606.171	800.000	0.044	0.143
-605.157	800.000	0.094	-0.415
-604.142	-109.819	0.208	0.044
-603.128	394.476	-0.066	-0.138
-602.113	189.342	-0.045	-0.069
-601.098	265.998	-0.088	0.155
-600.084	-114.254	-0.281	-0.055
-599.069	39.041	-0.137	0.123
-598.055	-33.036	0.030	0.017
-597.040	108.880	-0.245	0.295
-596.025	-102.750	-0.081	0.019
-595.011	270.755	-0.209	0.369
-593.996	-200.000	-0.057	-0.347
-592.982	-200.000	-0.016	0.164
-591.967	71.425	0.103	-0.107
-590.952	27.092	-0.157	0.132
-589.938	-92.605	-0.035	-0.010
-588.923	391.666	-0.083	-0.174
-587.909	-90.350	-0.220	-0.064
-586.894	-37.173	0.343	0.185
-585.879	46.669	-0.206	0.193
-584.865	-4.902	0.116	0.080
-583.850	27.631	-0.240	0.203
-582.836	-200.000	-0.009	0.066
-581.821	-80.775	-0.064	-0.021
-580.806	673.844	0.070	-0.184
-579.792	-105.314	-0.102	-0.023
-578.777	-200.000	0.030	0.132
-577.763	31.321	-0.098	-0.085
-576.748	-38.417	-0.262	0.139
-575.733	134.184	0.154	0.201
-574.719	428.202	-0.109	0.236
-573.704	565.886	-0.073	0.179
-572.690	-134.269	0.123	-0.015
-571.675	11.871	-0.131	-0.101
-570.661	43.791	-0.157	0.144
-569.646	117.911	-0.107	-0.133
-568.631	-69.856	-0.172	-0.066
-567.617	-48.763	0.197	0.095
-566.602	-200.000	0.050	0.302
-565.588	-177.320	-0.062	0.002
-564.573	477.352	0.146	0.331
-563.558	-200.000	0.007	-0.171
-562.544	649.892	-0.043	-0.109
-561.529	-103.865	-0.180	-0.042
-560.515	-142.558	0.345	-0.034
-559.500	99.964	-0.088	-0.103
-558.485	34.341	0.225	0.197
-557.471	174.262	-0.205	-0.297
-556.456	-25.342	0.201	-0.119
-555.442	800.000	0.024	0.104
-554.427	10.055	0.228	-0.174
-553.412	41.040	0.353	-0.320
-552.398	27.343	0.233	0.197
-551.383	-53.709	0.220	0.101
-550.369	-107.686	-0.303	0.066
-549.354	81.446	-0.133	-0.145
-548.339	-145.122	-0.195	-0.018
-547.325	95.096	0.124	-0.142
-546.310	41.094	-0.336	-0.305
-545.296	800.000	-0.072	0.251
-544.281	-200.000	0.002	-0.018
-543.266	800.000	-0.074	-0.281
-542.252	800.000	-0.055	0.168
-541.237	60.607	-0.185	-0.184
-540.223	-200.000	-0.012	-0.058
-539.208	-90.164	0.322	-0.094
-538.193	122.835	-0.121	-0.152
-537.179	381.707	0.141	0.291
-536.164	-59.570	0.319	-0.137
-535.150	-186.954	-0.121	0.002
-534.135	-184.417	0.087	-0.001
-533.121	354.935	-0.204	-0.407
-532.106	800.000	0.041	-0.116
-531.091	800.000	0.064	-0.244
-530.077	-154.126	0.226	-0.015
-529.062	-200.000	0.025	-0.308
-528.048	448.788	0.057	-0.125
-527.033	-170.446	-0.265	-0.009
-526.018	800.000	0.073	0.232
-525.004	170.134	0.112	-0.161
-523.989	23.741	-0.064	0.053
-522.975	8.101	-0.297	0.224
-521.960	255.679	-0.171	-0.294
-520.945	14.590	0.083	0.065
-519.931	-61.352	0.189	0.080
-518.916	-188.488	0.182	0.002
-517.902	-8.915	-0.154	0.103
-516.887	47.221	-0.184	0.172
-515.872	-137.270	0.114	0.013
-514.858	131.720	-0.116	-0.149
-513.843	-200.000	0.018	-0.314
-512.829	-200.000	-0.003	0.197
-511.814	-27.570	-0.228	0.133
-510.799	129.815	0.144	0.185
-509.785	-200.000	0.031	-0.203
-508.770	-130.436	0.100	-0.014
-507.756	-200.000	0.007	-0.041
-506.741	215.901	0.030	-0.048
-505.726	-200.000	-0.021	-0.170
-504.712	-173.613	0.082	-0.002
-503.697	15.094	-0.152	0.120
-502.683	-200.000	-0.021	0.305
-501.668	800.000	-0.067	0.197
-500.653	34.372	0.149	0.130
-499.639	75.871	0.270	0.286
-498.624	41.798	-0.072	-0.065
-497.610	-200.000	0.017	-0.368
-496.595	-200.000	-0.044	-0.232
-495.581	-60.100	-0.392	0.167
-494.566	-115.576	0.093	0.017
-493.551	-139.386	0.271	0.029
-492.537	-200.000	0.024	-0.218
-491.522	-152.721	-0.478	0.034
-490.508	-116.015	0.311	-0.058
-489.493	181.174	0.104	-0.153
-488.478	-200.000	-0.000	-0.118
-487.464	380.607	0.102	0.210
-486.449	-15.244	-0.326	0.209
-485.435	-200.000	0.027	0.329
-484.420	181.621	-0.061	0.090
-483.405	-200.000	-0.026	0.218
-482.391	-114.307	0.285	-0.055
-481.376	173.250	0.021	0.030
-480.362	-66.686	-0.138	-0.055
-479.347	800.000	0.059	-0.251
-478.332	221.458	-0.171	0.275
-477.318	-26.682	-0.111	-0.065
-476.303	-8.247	-0.159	-0.107
-475.289	188.217	-0.061	-0.092
-474.274	-17.492	-0.084	0.053
-473.259	55.568	0.133	0.129
-472.245	800.000	0.053	-0.214
-471.230	8.344	0.059	-0.044
-470.216	196.927	-0.143	0.218
-469.201	-92.850	0.490	-0.137
-468.186	167.154	0.187	-0.266
-467.172	-190.646	-0.144	0.002
-466.157	569.213	0.165	-0.401
-465.143	139.747	0.166	-0.218
-464.128	782.281	0.111	-0.303
-463.113	-200.000	-0.007	0.320
-462.099	-113.475	0.176	-0.035
-461.084	302.286	-0.056	0.104
-460.070	-127.703	0.037	-0.005
-459.055	673.815	0.047	-0.121
-458.040	142.726	0.132	-0.175
-457.026	-101.445	-0.321	-0.078
-456.011	46.621	0.009	0.008
-454.997	-94.810	0.013	0.003
-453.982	182.181	0.081	0.119
-452.968	174.177	-0.174	0.252
-451.953	575.438	-0.068	-0.167
-450.938	-89.293	0.399	-0.117
-449.924	200.906	-0.095	-0.146
-448.909	800.000	0.051	-0.192
-447.895	-200.000	-0.007	-0.032
-446.880	755.283	0.089	0.240
-445.865	-200.000	-0.011	0.323
-444.851	-200.000	-0.005	-0.257
-443.836	58.795	0.157	-0.154
-442.822	725.534	-0.035	0.092
-441.807	-60.114	-0.099	0.042
-440.792	-127.468	-0.227	0.033
-439.778	-101.063	-0.007	0.002
-438.763	-37.341	-0.212	-0.113
-437.749	-200.000	-0.048	-0.272
-436.734	18.358	0.162	0.129
-435.719	800.000	-0.086	0.263
-434.705	70.848	-0.155	-0.160
-433.690	144.749	-0.044	-0.058
-432.676	800.000	-0.084	0.236
-431.661	-200.000	-0.020	0.287
-430.646	33.922	-0.332	-0.289
-429.632	-129.275	0.035	0.005
-428.617	-84.147	0.268	0.085
-427.603	-186.958	0.315	0.004
-426.588	-200.000	-0.001	-0.295
-425.573	-88.036	0.122	-0.037
-424.559	118.839	0.092	0.114
-423.544	222.349	-0.094	0.151
-422.530	800.000	0.034	0.136
-421.515	77.859	0.264	-0.281
-420.500	-200.000	-0.051	-0.331
-419.486	-76.010	-0.117	0.041
-418.471	800.000	-0.031	0.085
-417.457	138.594	-0.093	0.121
-416.442	-113.091	0.042	0.008
-415.428	-114.087	-0.129	0.025
-414.413	53.010	0.175	-0.167
-413.398	341.242	-0.084	-0.163
-412.384	-47.352	0.247	0.120
-411.369	-53.156	0.141	-0.065
-410.355	-47.914	0.090	0.043
-409.340	-72.438	0.319	-0.118
-408.325	-200.000	-0.027	-0.217
-407.311	36.775	-0.222	-0.196
-406.296	800.000	-0.112	0.317
-405.282	-89.443	0.270	0.079
-404.267	-200.000	0.001	0.538
-403.252	-80.293	-0.316	0.105
-402.238	-94.922	0.268	-0.072
-401.223	406.392	0.084	-0.178
-400.209	-20.563	0.160	-0.098
-399.194	162.878	-0.095	0.133
-398.179	-78.363	0.423	-0.145
-397.165	-32.802	-0.281	0.156
-396.150	-115.208	0.115	0.022
-395.136	800.000	0.071	0.203
-394.121	161.042	0.040	0.056
-393.106	-200.000	-0.016	-0.438
-392.092	57.053	0.310	-0.302
-391.077	-200.000	-0.055	-0.287
-390.063	800.000	-0.020	0.068
-389.048	589.122	-0.065	0.159
-388.033	-200.000	0.024	0.113
-387.019	-169.839	-0.229	0.008
-386.004	3.835	0.085	0.062
-384.990	237.765	-0.180	-0.297
-383.975	-200.000	0.045	0.281
-382.960	-41.529	-0.262	-0.134
-381.946	-139.126	0.210	-0.023
-380.931	-33.079	-0.213	-0.118
-379.917	-200.000	-0.069	0.305
-378.902	478.453	0.041	0.093
-377.888	30.750	-0.081	-0.069
-376.873	-149.223	-0.150	-0.012
-375.858	74.972	-0.041	-0.044
-374.844	-200.000	0.211	-0.000
-373.829	-85.936	0.055	-0.017
-372.815	-78.545	0.318	-0.109
-371.800	-44.020	0.048	0.024
-370.785	-139.156	0.129	0.014
-369.771	-79.364	0.161	0.054
-368.756	-74.339	-0.123	0.044
-367.742	239.511	0.078	-0.130
-366.727	277.102	-0.154	0.272
-365.712	433.172	0.199	0.430
-364.698	225.058	-0.071	-0.114
-363.683	315.437	-0.138	-0.259
-362.669	-74.439	0.132	-0.047
-361.654	694.764	0.049	0.129
-360.639	-32.342	0.137	0.076
-359.625	800.000	-0.116	0.445
-358.610	-200.000	0.011	-0.149
-357.596	-11.921	-0.109	0.071
-356.581	-119.402	-0.494	-0.085
-355.566	-54.542	0.254	-0.114
-354.552	-200.000	0.009	0.155
-353.537	269.390	-0.170	-0.297
-352.523	-128.935	-0.165	0.023
-351.508	139.819	-0.245	-0.322
-350.493	-76.721	0.192	-0.067
-349.479	396.093	-0.073	-0.151
-348.464	-41.656	0.134	-0.069
-347.450	-200.000	-0.008	-0.195
-346.435	800.000	0.070	-0.222
-345.420	-128.351	0.137	0.019
-344.406	63.700	0.172	0.172
-343.391	-200.000	-0.001	-0.230
-342.377	-21.088	-0.374	-0.228
-341.362	-158.719	0.165	-0.009
-340.348	-2.406	0.143	-0.100
-339.333	-116.982	0.221	0.040
-338.318	-118.181	0.305	-0.054
-337.304	65.280	0.168	-0.169
-336.289	155.375	0.066	-0.090
-335.275	-194.872	-0.262	-0.002
-334.260	31.171	-0.173	-0.148
-333.245	-2.283	-0.086	-0.060
-332.231	-123.648	-0.096	-0.015
-331.216	-29.199	0.446	0.255
-330.202	-200.000	-0.047	-0.342
-329.187	800.000	-0.103	0.309
-328.172	125.088	0.119	0.149
-327.158	-53.618	-0.125	-0.057
-326.143	-20.787	-0.141	-0.086
-325.129	413.662	0.128	-0.270
-324.114	-169.430	0.258	0.009
-323.099	-98.887	0.141	0.036
-322.085	72.402	0.141	0.146
-321.070	-73.520	0.105	-0.038
-320.056	-99.287	0.136	0.034
-319.041	8.693	0.267	-0.200
-318.026	565.515	-0.106	0.256
-317.012	3.109	0.189	0.136
-315.997	-108.121	-0.323	-0.070
-314.983	-88.817	-0.107	-0.032
-313.968	-68.889	-0.086	0.033
-312.953	312.117	-0.196	0.365
-311.939	241.596	-0.082	-0.135
-310.924	-71.164	-0.122	0.045
-309.910	46.356	0.082	0.076
-308.895	247.127	-0.105	-0.177
-307.880	27.239	0.160	0.134
-306.866	-140.273	-0.166	-0.017
-305.851	-95.828	-0.360	0.095
-304.837	229.386	0.057	-0.093
-303.822	800.000	-0.060	0.236
-302.807	-14.772	0.022	-0.014
-301.793	800.000	0.058	0.172
-300.778	-200.000	0.007	0.164
-299.764	362.795	-0.035	-0.069
-298.749	800.000	0.091	0.307
-297.735	-29.478	-0.058	-0.033
-296.720	617.391	0.044	-0.109
-295.705	-35.228	-0.111	-0.060
-294.691	149.964	0.313	0.422
-293.676	350.731	0.071	-0.139
-292.662	226.439	0.030	0.048
-291.647	-200.000	-0.023	0.158
-290.632	-47.836	-0.247	0.119
-289.618	0.116	-0.210	0.149
-288.603	800.000	0.049	0.174
-287.589	11.466	0.048	-0.037
-286.574	-111.513	0.216	0.044
-285.559	-24.893	0.159	-0.094
-284.545	-98.083	-0.149	-0.038
-283.530	204.948	0.246	0.379
-282.516	-0.408	0.187	0.132
-281.501	225.983	0.129	0.208
-280.486	-200.000	-0.010	0.167
-279.472	-107.364	0.206	-0.045
-278.457	-39.493	-0.184	0.096
-277.443	375.151	-0.031	-0.063
-276.428	-134.092	0.101	-0.012
-275.413	-35.861	-0.268	-0.144
-274.399	-89.986	-0.357	0.103
-273.384	-75.558	0.139	0.049
-272.370	389.504	-0.162	0.333
-271.355	196.533	0.152	0.229
-270.340	397.444	0.096	0.200
-269.326	-9.356	-0.128	-0.085
-268.311	55.004	0.100	-0.096
-267.297	36.881	-0.087	-0.076
-266.282	-63.544	-0.140	-0.057
-265.267	-200.000	-0.036	0.207
-264.253	6.507	0.073	-0.054
-263.238	-59.657	0.214	0.091
-262.224	70.296	0.201	0.206
-261.209	225.332	0.072	-0.116
-260.195	80.062	-0.235	0.251
-259.180	-140.533	0.206	0.021
-258.165	-15.438	-0.340	-0.215
-257.151	-30.100	-0.095	0.054
-256.136	-200.000	0.015	-0.340
-255.122	-66.010	0.192	0.076
-254.107	-38.348	-0.270	-0.142
-253.092	131.169	0.075	0.096
-252.078	-19.475	-0.143	-0.088
-251.063	800.000	0.070	0.247
-250.049	-7.653	0.125	0.084
-249.034	-70.256	-0.384	-0.144
-248.019	800.000	0.035	-0.128
-247.005	-200.000	0.025	-0.155
-245.990	-200.000	-0.045	-0.385
-244.976	-200.000	0.015	0.105
-243.961	-116.301	-0.333	-0.061
-242.946	-200.000	-0.047	0.230
-241.932	-67.138	0.187	0.073
-240.917	96.514	-0.178	-0.201
-239.903	800.000	0.052	0.178
-238.888	-36.573	0.103	0.055
-237.873	398.992	0.042	0.088
-236.859	272.251	0.165	0.288
-235.844	39.892	-0.092	-0.082
-234.830	-53.863	-0.015	0.007
-233.815	140.771	0.074	-0.097
-232.800	-43.936	0.320	0.159
-231.786	256.762	0.115	-0.195
-230.771	189.811	-0.128	-0.190
-229.757	5.863	0.171	-0.126
-228.742	223.984	0.172	0.276
-227.727	-115.375	0.026	0.005
-226.713	57.857	-0.067	-0.065
-225.698	-200.000	-0.001	0.219
-224.684	75.977	0.219	0.229
-223.669	-134.093	0.048	-0.006
-222.655	-49.347	0.274	-0.129
-221.640	33.198	0.119	0.102
-220.625	19.077	-0.025	0.020
-219.611	-130.434	-0.157	-0.021
-218.596	-200.000	-0.040	-0.384
-217.582	268.481	-0.138	-0.240
-216.567	800.000	-0.016	-0.053
-215.552	368.680	0.089	-0.178
-214.538	-122.099	0.269	-0.044
-213.523	-200.000	0.002	0.278
-212.509	34.055	-0.095	-0.082
-211.494	145.606	0.069	0.091
-210.479	-54.811	0.130	0.058
-209.465	-30.137	-0.146	0.082
-208.450	-200.000	0.042	0.240
-207.436	13.650	-0.138	0.106
-206.421	-48.342	0.162	0.078
-205.406	-36.616	-0.215	-0.114
-204.392	-173.219	-0.175	-0.005
-203.377	-50.009	-0.244	0.114
-202.363	-106.796	-0.295	0.065
-201.348	-84.598	-0.177	-0.055
-200.333	-200.000	-0.026	0.150
-199.319	282.378	0.116	-0.205
-198.304	-174.549	0.033	0.001
-197.290	251.037	-0.152	-0.256
-196.275	-87.437	-0.140	-0.042
-195.260	182.234	-0.179	0.260
-194.246	20.271	0.430	0.344
-193.231	-200.000	0.017	-0.227
-192.217	535.087	0.043	0.102
-191.202	-22.622	-0.264	-0.158
-190.187	800.000	0.035	-0.120
-189.173	-108.149	-0.036	0.008
-188.158	-61.719	-0.126	-0.052
-187.144	800.000	0.105	-0.307
-186.129	-79.067	0.180	0.061
-185.114	-109.464	-0.190	-0.040
-184.100	-200.000	0.089	-0.487
-183.085	150.537	-0.138	0.186
-182.071	-200.000	0.026	0.186
-181.056	-68.360	0.116	-0.045
-180.042	800.000	-0.085	-0.248
-179.027	-53.578	0.084	-0.038
-178.012	-90.031	0.303	0.087
-176.998	-200.000	-0.014	-0.319
-175.983	-200.000	-0.032	0.298
-174.969	19.896	-0.138	-0.110
-173.954	-166.044	-0.133	-0.006
-172.939	69.513	0.279	-0.284
-171.925	99.166	-0.222	0.253
-170.910	190.364	-0.140	0.208
-169.896	-114.572	-0.264	-0.050
-168.881	-64.678	-0.176	0.070
-167.866	-121.612	0.236	0.039
-166.852	-96.875	-0.062	-0.016
-165.837	-200.000	0.058	0.427
-164.823	117.212	0.051	-0.062
-163.808	147.669	0.057	-0.076
-162.793	-34.696	-0.255	0.138
-161.779	-75.673	-0.173	-0.061
-160.764	-200.000	0.005	-0.114
-159.750	10.074	-0.205	0.154
-158.735	24.255	0.206	0.168
-157.720	-110.480	0.213	-0.044
-156.706	-18.780	0.049	-0.030
-155.691	-109.435	-0.322	0.067
-154.677	296.941	-0.259	-0.470
-153.662	733.762	0.068	-0.180
-152.647	24.469	0.179	0.147
-151.633	-200.000	-0.016	0.143
-150.618	-60.798	0.217	-0.091
-149.604	-62.990	-0.261	-0.107
-148.589	338.107	0.122	0.235
-147.574	-107.376	-0.052	0.011
-146.560	13.867	-0.096	0.073
-145.545	11.143	0.131	0.099
-144.531	800.000	0.156	0.446
-143.516	-43.263	-0.027	-0.014
-142.502	-200.000	-0.068	0.421
-141.487	-123.930	0.138	-0.021
-140.472	-146.273	0.220	0.019
-139.458	-102.987	-0.132	-0.031
-138.443	-67.608	-0.263	-0.102
-137.429	-7.163	-0.307	0.206
-136.414	-138.947	0.081	-0.009
-135.399	-73.353	0.033	-0.012
-134.385	-161.299	0.030	0.002
-133.370	161.711	0.138	0.190
-132.356	-200.000	0.004	0.100
-131.341	448.432	0.148	-0.322
-130.326	-148.542	0.080	0.006
-129.312	7.360	0.123	0.091
-128.297	264.256	0.093	0.160
-127.283	-200.000	0.014	0.093
-126.268	788.576	0.055	0.149
-125.253	-98.120	-0.429	-0.109
-124.239	-6.707	0.303	-0.203
-123.224	-124.375	0.503	0.077
-122.210	45.138	0.187	-0.170
-121.195	155.367	-0.166	-0.226
