DTS Sentinel unit serial number:	SN413079Multiplexer serial number:	ORYXHardware model number:	OX4-SRSoftware version number:	ORYX F/W v4.00 Oryx Data Collector v3.7.2.0data status	okinstallation	princeton_trtdifferential loss correction	single-endedforward channel	channel 3reverse channel	N/Adate	2019/09/16time	09:56:35forward acquisition time	60.00reverse acquisition time	0.00gamma	496.2192k internal	0.2315k external	0.2315temperature offset calibration	0.9952default loss term (dB/km)	0.3790temperature slope calibration	1.0000multiplexer offset coefficient	1.0000multiplexer slope coefficient	1.0000fibre end	0.00T internal ref (°C)	33.22T ext. ref 1 (°C)	12.37T ext. ref 2 (°C)	31.61length (m)	temperature (°C)	Stokes	anti-Stokes-747.200	-98.295	-0.305	0.079
-746.185	88.591	0.086	-0.097
-745.171	-200.000	-0.002	0.069
-744.156	-200.000	-0.022	0.336
-743.142	-129.630	-0.394	-0.055
-742.127	-200.000	0.059	0.434
-741.112	-200.000	-0.000	0.226
-740.098	-200.000	-0.038	0.178
-739.083	800.000	-0.040	0.140
-738.069	2.663	-0.228	-0.167
-737.054	-154.861	0.140	0.009
-736.039	-5.643	0.157	-0.109
-735.025	-200.000	-0.018	0.256
-734.010	-200.000	-0.006	-0.051
-732.996	-88.212	-0.073	0.022
-731.981	6.948	0.209	-0.157
-730.966	-159.221	0.237	-0.014
-729.952	-120.354	-0.312	0.054
-728.937	-112.389	0.154	-0.031
-727.923	36.473	-0.230	-0.205
-726.908	140.365	0.067	0.089
-725.894	399.280	-0.051	-0.109
-724.879	230.214	-0.185	-0.306
-723.864	16.367	0.127	-0.101
-722.850	85.652	-0.209	-0.233
-721.835	291.699	-0.138	-0.254
-720.821	5.003	0.017	-0.012
-719.806	-200.000	-0.027	-0.239
-718.791	-86.841	-0.031	-0.010
-717.777	374.131	-0.033	0.068
-716.762	-80.433	-0.053	0.018
-715.748	-200.000	-0.005	-0.293
-714.733	535.100	-0.080	-0.193
-713.718	193.967	0.063	-0.097
-712.704	60.866	-0.309	-0.310
-711.689	287.969	0.174	-0.318
-710.675	178.280	-0.151	0.223
-709.660	-144.798	0.285	-0.026
-708.645	13.714	-0.184	-0.145
-707.631	800.000	-0.107	-0.444
-706.616	800.000	-0.086	-0.302
-705.602	-100.629	-0.413	-0.103
-704.587	64.020	-0.211	-0.214
-703.572	-34.813	-0.104	0.057
-702.558	-200.000	-0.043	0.196
-701.543	190.264	0.101	-0.153
-700.529	-116.026	0.449	-0.085
-699.514	-121.728	0.255	-0.043
-698.499	197.425	0.142	-0.219
-697.485	144.132	-0.021	-0.028
-696.470	-153.735	-0.083	0.006
-695.456	-38.450	-0.141	-0.075
-694.441	219.467	0.062	-0.100
-693.426	-129.841	0.374	-0.052
-692.412	-200.000	-0.000	-0.099
-691.397	86.416	-0.141	-0.157
-690.383	9.993	0.352	-0.270
-689.368	199.540	-0.198	-0.307
-688.354	268.977	-0.121	-0.215
-687.339	324.496	0.038	0.074
-686.324	378.854	0.065	-0.135
-685.310	711.737	-0.114	0.304
-684.295	800.000	-0.067	0.258
-683.281	-41.940	-0.162	-0.084
-682.266	105.316	-0.096	-0.114
-681.251	800.000	0.062	0.254
-680.237	800.000	0.079	0.299
-679.222	84.043	0.083	0.092
-678.208	-96.280	-0.089	-0.024
-677.193	-43.860	-0.144	0.073
-676.178	-97.895	-0.169	-0.044
-675.164	6.351	0.267	0.201
-674.149	-200.000	-0.010	-0.210
-673.135	-181.166	0.186	-0.004
-672.120	-79.397	-0.179	-0.061
-671.105	152.989	-0.146	-0.202
-670.091	133.302	-0.025	-0.033
-669.076	-200.000	-0.034	0.367
-668.062	-27.199	0.369	-0.217
-667.047	303.517	-0.076	0.142
-666.032	-200.000	-0.036	-0.288
-665.018	-153.214	-0.086	0.006
-664.003	574.069	0.187	0.460
-662.989	-160.189	-0.174	-0.010
-661.974	65.631	-0.083	-0.085
-660.959	-200.000	-0.037	0.218
-659.945	24.654	-0.247	0.206
-658.930	33.039	0.178	0.156
-657.916	104.057	-0.273	0.324
-656.901	-4.054	0.240	0.168
-655.886	469.278	0.066	-0.149
-654.872	-172.977	-0.156	0.005
-653.857	125.378	0.063	0.080
-652.843	-93.290	0.136	0.038
-651.828	-183.935	0.122	0.002
-650.814	-200.000	0.045	-0.235
-649.799	-200.000	0.015	0.083
-648.784	-200.000	0.020	0.194
-647.770	275.773	0.116	-0.207
-646.755	105.491	0.274	-0.327
-645.741	800.000	-0.026	-0.092
-644.726	-60.665	0.313	0.134
-643.711	293.734	0.062	0.114
-642.697	800.000	-0.023	-0.101
-641.682	40.928	0.248	-0.226
-640.668	-138.029	0.154	0.017
-639.653	800.000	-0.119	-0.378
-638.638	-104.119	0.286	0.067
-637.624	68.149	0.051	-0.052
-636.609	-146.052	-0.276	0.025
-635.595	792.963	0.082	-0.228
-634.580	-60.711	0.209	0.090
-633.565	-140.454	0.054	-0.006
-632.551	-200.000	0.045	0.214
-631.536	-134.092	0.302	-0.038
-630.522	-56.279	-0.223	0.100
-629.507	-108.026	-0.092	-0.020
-628.492	800.000	0.012	-0.045
-627.478	69.026	-0.154	0.159
-626.463	-41.132	0.219	0.114
-625.449	438.889	0.160	0.352
-624.434	55.632	-0.118	0.115
-623.419	310.922	-0.124	-0.235
-622.405	-185.012	-0.273	-0.004
-621.390	-200.000	-0.010	-0.180
-620.376	150.452	-0.075	0.103
-619.361	-200.000	0.018	-0.153
-618.346	155.851	-0.062	0.087
-617.332	271.546	0.158	-0.281
-616.317	-67.860	0.124	0.049
-615.303	30.183	-0.068	0.059
-614.288	-86.465	0.192	-0.060
-613.273	-200.000	-0.026	-0.141
-612.259	800.000	0.041	0.119
-611.244	42.168	-0.109	0.100
-610.230	33.518	-0.165	-0.144
-609.215	582.935	-0.085	-0.210
-608.201	800.000	-0.072	0.239
-607.186	-131.507	0.177	0.023
-606.171	-200.000	0.031	-0.150
-605.157	800.000	-0.090	-0.253
-604.142	-60.333	0.247	-0.106
-603.128	-9.264	-0.026	0.017
-602.113	193.762	0.049	-0.075
-601.098	-144.222	0.194	-0.018
-600.084	-50.858	-0.222	-0.105
-599.069	-200.000	-0.011	-0.393
-598.055	-99.259	-0.180	-0.046
-597.040	-200.000	0.035	-0.346
-596.025	-130.625	-0.138	-0.019
-595.011	800.000	0.073	-0.218
-593.996	-84.062	-0.095	-0.030
-592.982	-112.602	-0.167	0.034
-591.967	-200.000	-0.029	-0.173
-590.952	19.073	0.261	-0.211
-589.938	-110.898	-0.094	0.020
-588.923	17.824	-0.197	0.158
-587.909	36.835	0.104	0.093
-586.894	54.926	0.106	-0.103
-585.879	-200.000	-0.055	0.316
-584.865	-53.586	-0.085	0.039
-583.850	-102.166	-0.304	-0.074
-582.836	-102.447	0.236	-0.057
-581.821	139.928	-0.159	-0.212
-580.806	-193.265	0.403	-0.004
-579.792	52.284	0.114	-0.110
-578.777	-134.966	0.404	-0.049
-577.763	398.166	0.063	0.133
-576.748	-55.804	-0.127	0.057
-575.733	50.575	-0.059	-0.056
-574.719	-200.000	0.052	0.263
-573.704	6.583	0.172	0.128
-572.690	124.547	-0.109	-0.138
-571.675	-69.189	0.259	0.100
-570.661	-41.254	0.288	-0.149
-569.646	12.671	0.188	-0.146
-568.631	800.000	-0.069	-0.287
-567.617	800.000	-0.017	0.073
-566.602	800.000	-0.124	-0.520
-565.588	-200.000	-0.006	-0.475
-564.573	800.000	0.095	0.292
-563.558	-161.309	-0.225	-0.012
-562.544	143.659	-0.042	0.057
-561.529	90.521	-0.158	0.178
-560.515	-85.826	0.119	0.037
-559.500	204.321	-0.161	0.251
-558.485	160.539	0.078	-0.110
-557.471	38.773	-0.188	-0.169
-556.456	73.389	-0.155	0.163
-555.442	-59.587	0.117	0.051
-554.427	-69.534	-0.309	-0.119
-553.412	-65.159	-0.083	-0.034
-552.398	-200.000	0.102	0.462
-551.383	218.475	-0.120	0.193
-550.369	800.000	-0.068	-0.247
-549.354	-200.000	0.002	-0.235
-548.339	-200.000	-0.038	-0.297
-547.325	112.750	0.053	0.064
-546.310	-80.414	0.416	0.140
-545.296	-149.455	-0.072	0.006
-544.281	-200.000	0.014	-0.409
-543.266	-200.000	-0.040	-0.310
-542.252	-52.704	-0.154	0.072
-541.237	-116.859	-0.216	-0.040
-540.223	-25.006	-0.124	0.074
-539.208	-200.000	-0.030	-0.218
-538.193	24.284	-0.121	0.101
-537.179	91.837	-0.328	0.371
-536.164	39.128	-0.136	-0.122
-535.150	800.000	0.092	-0.292
-534.135	-158.489	0.230	-0.013
-533.121	-200.000	-0.014	-0.213
-532.106	800.000	0.061	-0.229
-531.091	56.861	0.047	-0.046
-530.077	-86.053	0.303	0.094
-529.062	0.655	0.380	-0.273
-528.048	452.164	0.014	-0.031
-527.033	428.566	-0.084	0.183
-526.018	1.122	0.103	0.074
-525.004	-200.000	-0.058	0.294
-523.989	-164.929	-0.248	0.011
-522.975	-200.000	0.029	0.285
-521.960	-200.000	0.038	0.285
-520.945	-116.666	-0.252	0.046
-519.931	-132.513	-0.172	-0.022
-518.916	273.250	-0.048	0.086
-517.902	-56.385	0.097	-0.043
-516.887	165.601	0.080	-0.114
-515.872	-95.946	0.189	0.051
-514.858	566.712	-0.068	-0.165
-513.843	21.731	-0.096	-0.078
-512.829	28.585	0.050	-0.043
-511.814	-46.785	0.238	-0.117
-510.799	48.612	-0.308	-0.289
-509.785	19.652	-0.309	0.249
-508.770	-136.903	-0.192	-0.022
-507.756	-95.089	-0.102	-0.028
-506.741	-34.531	-0.378	-0.208
-505.726	-89.838	0.148	-0.043
-504.712	289.503	-0.093	-0.169
-503.697	-33.662	-0.187	-0.104
-502.683	364.271	0.189	0.381
-501.668	772.537	0.086	-0.236
-500.653	-154.990	-0.228	-0.015
-499.639	-200.000	0.011	-0.065
-498.624	73.940	-0.096	-0.101
-497.610	78.158	-0.171	0.184
-496.595	-200.000	0.011	0.152
-495.581	254.554	0.082	-0.141
-494.566	800.000	-0.038	-0.137
-493.551	-146.827	0.227	-0.020
-492.537	3.885	-0.215	-0.158
-491.522	66.313	0.196	0.200
-490.508	-200.000	-0.015	0.228
-489.493	-39.368	-0.446	-0.235
-488.478	-49.297	0.097	-0.047
-487.464	31.443	0.122	-0.105
-486.449	76.517	0.045	0.048
-485.435	735.964	0.101	-0.271
-484.420	-186.907	0.382	0.005
-483.405	-162.794	-0.267	0.013
-482.391	-179.332	0.233	0.005
-481.376	139.429	-0.066	-0.087
-480.362	-85.167	0.149	0.047
-479.347	-165.816	-0.224	-0.010
-478.332	-200.000	-0.027	-0.135
-477.318	-200.000	0.005	0.059
-476.303	-141.716	0.115	-0.012
-475.289	630.759	0.044	-0.113
-474.274	-186.270	-0.101	0.001
-473.259	-84.396	0.169	0.053
-472.245	372.869	0.174	0.355
-471.230	-154.046	0.382	-0.026
-470.216	-54.141	-0.157	0.071
-469.201	-131.046	-0.226	0.030
-468.186	173.799	0.042	-0.061
-467.172	-40.113	-0.089	0.047
-466.157	335.170	-0.117	-0.227
-465.143	800.000	0.025	0.092
-464.128	-119.997	-0.241	-0.041
-463.113	-134.664	-0.505	-0.062
-462.099	800.000	0.027	-0.103
-461.084	0.032	0.235	0.168
-460.070	-8.804	0.113	-0.076
-459.055	-22.429	-0.232	0.141
-458.040	-57.543	0.087	-0.038
-457.026	785.322	0.079	0.217
-456.011	-200.000	0.030	0.151
-454.997	701.454	-0.094	-0.248
-453.982	528.054	0.149	-0.352
-452.968	84.300	0.116	0.127
-451.953	602.286	-0.102	-0.253
-450.938	-4.595	0.318	-0.220
-449.924	62.164	0.176	0.176
-448.909	-200.000	-0.039	0.255
-447.895	309.654	-0.092	0.172
-446.880	-138.669	-0.178	0.019
-445.865	-200.000	-0.017	0.143
-444.851	-200.000	0.016	0.121
-443.836	-200.000	0.010	0.174
-442.822	49.802	0.240	0.227
-441.807	108.167	0.129	0.154
-440.792	800.000	0.045	0.172
-439.778	235.497	-0.013	-0.022
-438.763	-157.745	-0.242	0.014
-437.749	22.388	0.337	-0.276
-436.734	-21.541	0.154	0.094
-435.719	-66.663	-0.340	0.135
-434.705	800.000	-0.061	0.243
-433.690	18.875	0.263	-0.211
-432.676	125.449	0.213	-0.268
-431.661	44.916	0.155	0.143
-430.646	-200.000	0.012	-0.360
-429.632	63.921	0.316	0.318
-428.617	800.000	0.030	-0.114
-427.603	21.998	0.130	0.106
-426.588	450.199	0.054	0.119
-425.573	-42.118	0.125	0.064
-424.559	139.650	-0.342	0.450
-423.544	22.829	0.178	-0.146
-422.530	65.314	-0.270	-0.273
-421.515	-200.000	-0.001	0.010
-420.500	-122.436	0.315	-0.051
-419.486	-143.291	-0.311	-0.030
-418.471	-200.000	-0.015	0.129
-417.457	-161.181	-0.100	-0.005
-416.442	800.000	-0.017	0.049
-415.428	123.965	0.139	-0.175
-414.413	486.785	0.042	-0.096
-413.398	-124.412	0.259	0.040
-412.384	-19.008	0.318	0.198
-411.369	-200.000	-0.006	0.267
-410.355	264.943	-0.108	-0.187
-409.340	72.393	0.102	0.106
-408.325	-200.000	0.006	0.088
-407.311	-200.000	0.012	-0.417
-406.296	243.145	-0.097	0.163
-405.282	-105.655	0.265	-0.060
-404.267	-200.000	-0.021	0.291
-403.252	94.773	-0.243	0.277
-402.238	337.149	-0.131	0.255
-401.223	79.339	0.143	0.153
-400.209	30.682	0.389	0.333
-399.194	7.294	-0.149	-0.111
-398.179	36.546	-0.187	-0.165
-397.165	-31.607	-0.035	-0.020
-396.150	-142.547	-0.349	0.034
-395.136	-148.017	0.023	0.002
-394.121	156.971	-0.228	0.315
-393.106	-35.805	0.267	-0.145
-392.092	-48.155	-0.201	-0.097
-391.077	-138.764	-0.145	-0.016
-390.063	-152.301	-0.334	-0.024
-389.048	90.491	0.091	-0.101
-388.033	64.495	0.281	-0.283
-387.019	-34.423	-0.068	0.037
-386.004	-97.972	-0.120	0.031
-384.990	-88.980	-0.133	0.039
-383.975	-110.339	-0.252	-0.052
-382.960	103.805	-0.103	-0.120
-381.946	426.710	-0.097	0.209
-380.931	800.000	-0.029	0.122
-379.917	-69.805	-0.251	-0.096
-378.902	-127.391	0.142	0.021
-377.888	-39.418	0.176	-0.092
-376.873	80.277	-0.222	0.238
-375.858	20.417	-0.062	-0.050
-374.844	-123.648	0.395	-0.063
-373.829	-49.190	0.268	0.128
-372.815	-200.000	-0.060	0.319
-371.800	-31.460	-0.171	0.096
-370.785	-116.334	0.075	0.014
-369.771	-14.372	-0.068	-0.044
-368.756	494.095	-0.061	0.140
-367.742	-196.815	0.203	-0.001
-366.727	25.384	0.294	-0.244
-365.712	800.000	0.107	-0.306
-364.698	800.000	-0.084	-0.253
-363.683	150.633	-0.071	0.097
-362.669	103.752	0.105	0.123
-361.654	-95.029	-0.257	-0.069
-360.639	-200.000	-0.024	-0.123
-359.625	-156.487	-0.313	-0.019
-358.610	800.000	-0.131	-0.536
-357.596	-200.000	0.013	0.089
-356.581	-174.803	-0.112	-0.003
-355.566	-200.000	-0.033	0.509
-354.552	-146.784	-0.372	0.032
-353.537	27.851	0.187	-0.158
-352.523	-89.802	-0.295	0.086
-351.508	-122.405	-0.080	0.013
-350.493	-24.351	0.148	0.088
-349.479	118.944	0.048	0.059
-348.464	-49.461	-0.188	-0.089
-347.450	-6.383	0.106	0.072
-346.435	355.066	0.156	0.309
-345.420	80.164	-0.107	0.115
-344.406	800.000	0.058	0.218
-343.391	111.323	-0.059	-0.070
-342.377	100.966	0.077	0.089
-341.362	253.195	0.113	0.192
-340.348	32.545	-0.122	-0.105
-339.333	294.595	-0.114	-0.208
-338.318	39.099	-0.033	-0.029
-337.304	370.265	-0.047	-0.095
-336.289	295.680	0.149	0.273
-335.275	-66.251	0.025	0.010
-334.260	75.328	-0.208	0.219
-333.245	182.453	-0.258	-0.379
-332.231	-200.000	-0.056	0.323
-331.216	505.374	0.086	0.198
-330.202	777.305	0.042	0.114
-329.187	80.624	-0.339	0.365
-328.172	-31.767	0.123	-0.068
-327.158	644.739	-0.118	0.301
-326.143	536.487	-0.045	-0.107
-325.129	800.000	0.069	0.195
-324.114	800.000	0.081	0.247
-323.099	-200.000	0.012	-0.052
-322.085	14.283	-0.083	-0.064
-321.070	-66.806	0.219	-0.086
-320.056	194.783	-0.019	0.029
-319.041	800.000	-0.040	-0.133
-318.026	72.599	-0.198	0.206
-317.012	-88.493	0.123	0.037
-315.997	-69.579	0.134	-0.051
-314.983	-161.233	0.238	0.012
-313.968	536.820	0.073	-0.172
-312.953	10.616	0.185	0.141
-311.939	800.000	0.079	-0.236
-310.924	74.237	0.174	0.182
-309.910	71.466	-0.143	-0.148
-308.895	800.000	0.084	0.286
-307.880	98.443	0.147	0.169
-306.866	-13.411	0.099	0.064
-305.851	30.542	-0.358	0.305
-304.837	229.840	-0.093	-0.151
-303.822	800.000	0.043	0.120
-302.807	36.457	-0.219	-0.193
-301.793	800.000	-0.027	0.081
-300.778	-200.000	-0.012	-0.085
-299.764	105.135	-0.291	0.341
-298.749	-22.220	0.060	-0.036
-297.735	-200.000	-0.015	-0.094
-296.720	-156.899	-0.153	0.009
-295.705	110.315	-0.021	0.025
-294.691	213.478	0.082	-0.128
-293.676	-11.603	0.171	0.112
-292.662	127.536	-0.036	0.045
-291.647	-107.893	0.403	0.087
-290.632	-54.090	0.119	0.054
-289.618	-151.525	0.010	0.001
-288.603	-9.595	-0.040	-0.027
-287.589	-35.208	0.402	-0.218
-286.574	185.563	0.052	0.077
-285.559	192.878	0.193	0.291
-284.545	53.879	0.159	0.152
-283.530	187.213	0.065	-0.097
-282.516	-200.000	0.008	-0.136
-281.501	-200.000	-0.021	-0.394
-280.486	36.221	0.103	0.091
-279.472	800.000	0.091	0.262
-278.457	-200.000	0.001	-0.271
-277.443	72.893	0.207	-0.215
-276.428	70.994	0.141	-0.145
-275.413	12.205	-0.105	-0.081
-274.399	127.490	0.170	-0.215
-273.384	-149.972	-0.150	-0.012
-272.370	280.766	-0.082	0.147
-271.355	63.692	-0.141	-0.141
-270.340	-112.471	-0.093	0.019
-269.326	53.113	0.280	0.266
-268.311	-200.000	-0.014	0.166
-267.297	-200.000	0.052	0.347
-266.282	-114.334	-0.310	0.059
-265.267	9.476	0.026	0.019
-264.253	193.535	0.224	0.337
-263.238	16.286	-0.221	-0.173
-262.224	33.672	-0.102	-0.088
-261.209	509.750	0.107	-0.246
-260.195	-49.895	-0.270	0.127
-259.180	425.258	-0.063	-0.135
-258.165	-21.241	0.187	0.114
-257.151	-200.000	-0.009	-0.106
-256.136	204.098	-0.183	0.282
-255.122	-112.173	0.185	-0.037
-254.107	-117.191	-0.380	0.069
-253.092	-131.489	-0.357	-0.047
-252.078	-2.946	0.187	0.130
-251.063	-200.000	0.026	-0.235
-250.049	193.216	0.191	-0.287
-249.034	-200.000	-0.020	-0.259
-248.019	42.403	0.092	0.083
-247.005	117.130	-0.090	-0.110
-245.990	-54.643	0.190	0.086
-244.976	202.623	0.015	-0.023
-243.961	99.085	-0.131	-0.151
-242.946	-84.977	0.146	0.046
-241.932	426.240	-0.050	-0.107
-240.917	790.140	-0.006	-0.017
-239.903	-200.000	-0.094	0.510
-238.888	-137.073	-0.207	-0.023
-237.873	-53.899	0.337	0.153
-236.859	-143.780	-0.245	0.023
-235.844	259.084	-0.018	-0.031
-234.830	640.577	0.062	0.157
-233.815	-112.021	0.104	-0.021
-232.800	-13.295	-0.209	0.135
-231.786	353.561	-0.075	-0.148
-230.771	-77.130	0.146	0.051
-229.757	-108.169	0.058	0.012
-228.742	556.286	-0.134	0.319
-227.727	431.556	0.031	0.066
-226.713	-149.368	0.323	0.026
-225.698	70.379	0.070	-0.071
-224.684	-24.286	-0.059	0.035
-223.669	-117.061	0.100	0.018
-222.655	207.213	0.032	-0.050
-221.640	-200.000	-0.012	0.130
-220.625	176.093	-0.127	0.184
-219.611	290.606	0.050	-0.091
-218.596	-200.000	0.013	-0.165
-217.582	-155.677	-0.093	0.006
-216.567	800.000	0.082	-0.258
-215.552	101.034	-0.034	0.040
-214.538	800.000	0.095	-0.326
-213.523	-141.240	0.031	0.003
-212.509	-50.590	-0.239	-0.112
-211.494	-120.589	-0.262	-0.044
-210.479	-20.275	-0.122	-0.074
-209.465	74.656	-0.135	0.141
-208.450	-200.000	0.028	-0.144
-207.436	-29.925	0.132	-0.075
-206.421	39.486	-0.170	-0.151
-205.406	-142.151	0.299	-0.029
-204.392	-200.000	-0.040	0.202
-203.377	-91.610	0.143	-0.040
-202.363	-153.678	0.198	-0.014
-201.348	51.021	-0.058	-0.055
-200.333	-177.409	-0.257	-0.006
-199.319	-200.000	0.008	0.289
-198.304	-36.159	0.318	0.170
-197.290	465.308	0.029	0.064
-196.275	29.430	0.139	0.117
-195.260	34.604	-0.065	-0.056
-194.246	-200.000	-0.009	-0.271
-193.231	-131.096	-0.261	-0.034
-192.217	-92.237	-0.243	-0.068
-191.202	-200.000	-0.020	-0.127
-190.187	800.000	-0.055	-0.213
-189.173	-200.000	-0.020	-0.292
-188.158	-15.958	0.247	0.156
-187.144	119.964	-0.186	0.228
-186.129	302.104	-0.101	-0.185
-185.114	229.130	-0.046	0.075
-184.100	0.721	0.155	-0.110
-183.085	-84.481	0.131	-0.041
-182.071	252.841	-0.147	-0.249
-181.056	-104.439	0.127	0.029
-180.042	160.744	-0.174	0.241
-179.027	57.258	0.144	-0.139
-178.012	232.500	0.068	0.110
-176.998	-6.486	-0.253	0.171
-175.983	-200.000	0.001	0.054
-174.969	-200.000	0.011	0.057
-173.954	-162.163	-0.152	0.008
-172.939	-50.672	-0.199	-0.093
-171.925	-20.203	0.163	-0.100
-170.910	-200.000	-0.001	-0.115
-169.896	226.909	0.071	-0.115
-168.881	800.000	-0.042	-0.175
-167.866	-92.260	-0.142	0.040
-166.852	-117.006	-0.106	-0.019
-165.837	800.000	0.057	-0.197
-164.823	-103.834	-0.174	-0.040
-163.808	704.704	0.073	-0.190
-162.793	-96.670	-0.068	0.018
-161.779	286.570	-0.044	0.078
-160.764	494.923	0.035	0.081
-159.750	39.058	-0.127	0.113
-158.735	-200.000	-0.036	0.336
-157.720	-23.577	0.168	0.100
-156.706	347.471	0.031	0.061
-155.691	30.448	0.329	0.279
-154.677	-26.181	0.126	-0.073
-153.662	-200.000	0.018	0.226
-152.647	-200.000	-0.046	0.251
-151.633	12.473	-0.183	-0.140
-150.618	17.898	-0.209	-0.165
-149.604	-200.000	0.013	-0.130
-148.589	24.091	0.175	0.143
-147.574	-200.000	0.008	0.057
-146.560	54.384	0.171	0.163
-145.545	-187.881	-0.244	-0.003
-144.531	-200.000	0.077	0.492
-143.516	-75.620	0.085	-0.030
-142.502	-90.185	-0.217	-0.063
-141.487	-200.000	0.016	0.177
-140.472	76.882	0.198	-0.208
-139.458	-200.000	-0.000	0.009
-138.443	-39.891	-0.191	-0.099
-137.429	221.611	-0.051	-0.081
-136.414	-169.825	0.246	0.009
-135.399	379.042	-0.074	-0.150
-134.385	60.835	-0.096	0.095
-133.370	-200.000	0.046	-0.243
-132.356	800.000	0.058	-0.250
-131.341	800.000	-0.079	-0.304
-130.326	-2.989	-0.154	-0.107
-129.312	642.442	-0.120	-0.302
-128.297	800.000	0.083	0.297
-127.283	-32.130	0.209	0.115
-126.268	-96.034	0.182	-0.048
-125.253	-114.113	0.435	-0.083
-124.239	224.084	-0.101	0.161
-123.224	-67.974	-0.109	-0.042
-122.210	-140.696	-0.495	0.051
