DTS Sentinel unit serial number:	SN413079Multiplexer serial number:	ORYXHardware model number:	OX4-SRSoftware version number:	ORYX F/W v4.00 Oryx Data Collector v3.7.2.0data status	okinstallation	princeton_trtdifferential loss correction	single-endedforward channel	channel 3reverse channel	N/Adate	2019/09/15time	03:08:34forward acquisition time	60.00reverse acquisition time	0.00gamma	496.2192k internal	0.2323k external	0.2323temperature offset calibration	0.9966default loss term (dB/km)	0.3790temperature slope calibration	1.0000multiplexer offset coefficient	1.0000multiplexer slope coefficient	1.0000fibre end	0.00T internal ref (°C)	31.16T ext. ref 1 (°C)	4.59T ext. ref 2 (°C)	25.76length (m)	temperature (°C)	Stokes	anti-Stokes-747.200	200.327	0.107	0.167
-746.185	21.430	-0.207	0.170
-745.171	-200.000	0.023	0.303
-744.156	10.144	-0.118	-0.090
-743.142	-107.703	0.226	-0.050
-742.127	-200.000	-0.045	-0.269
-741.112	-200.000	-0.006	-0.202
-740.098	115.248	0.231	0.284
-739.083	-56.677	0.245	-0.110
-738.069	-45.120	-0.244	0.122
-737.054	-18.400	0.137	0.086
-736.039	122.793	-0.190	-0.240
-735.025	-55.190	0.411	-0.186
-734.010	718.062	-0.135	-0.363
-732.996	-111.575	0.181	-0.037
-731.981	198.511	0.147	-0.228
-730.966	-110.816	0.170	-0.035
-729.952	-110.066	0.243	-0.051
-728.937	-130.970	-0.315	-0.042
-727.923	800.000	-0.124	-0.531
-726.908	-85.327	-0.196	0.062
-725.894	-26.079	-0.212	0.126
-724.879	349.812	0.153	0.305
-723.864	-8.441	0.080	0.054
-722.850	-14.797	-0.186	-0.120
-721.835	35.017	-0.392	-0.347
-720.821	-200.000	0.290	0.000
-719.806	-74.768	0.283	0.103
-718.791	90.807	-0.303	-0.342
-717.777	557.998	-0.114	-0.277
-716.762	800.000	0.040	-0.166
-715.748	3.965	-0.187	0.138
-714.733	210.881	-0.157	-0.250
-713.718	-200.000	-0.009	0.128
-712.704	-114.224	-0.173	0.034
-711.689	-47.462	-0.194	0.095
-710.675	-19.763	0.038	0.024
-709.660	295.942	-0.170	-0.314
-708.645	800.000	-0.069	-0.218
-707.631	-146.447	-0.197	0.017
-706.616	94.956	-0.024	-0.027
-705.602	200.529	-0.082	0.126
-704.587	-92.676	0.457	-0.129
-703.572	7.457	0.206	-0.155
-702.558	-18.293	-0.143	-0.090
-701.543	39.751	0.043	-0.039
-700.529	-39.949	0.046	0.024
-699.514	-91.763	0.122	-0.035
-698.499	-200.000	-0.006	0.174
-697.485	-170.653	-0.136	0.005
-696.470	-200.000	0.056	-0.323
-695.456	-127.938	0.355	-0.051
-694.441	800.000	-0.188	0.524
-693.426	63.542	-0.319	-0.323
-692.412	533.512	-0.124	-0.296
-691.397	65.207	0.099	-0.100
-690.383	-99.570	-0.192	0.049
-689.368	-200.000	0.034	0.169
-688.354	-200.000	-0.024	0.151
-687.339	-200.000	-0.265	0.001
-686.324	-200.000	-0.012	0.400
-685.310	217.460	-0.195	-0.312
-684.295	273.713	-0.092	-0.163
-683.281	-127.943	-0.076	-0.011
-682.266	-82.693	0.006	-0.002
-681.251	77.141	0.119	0.127
-680.237	-200.000	0.007	0.066
-679.222	800.000	0.093	-0.323
-678.208	413.257	0.052	-0.112
-677.193	-200.000	-0.031	-0.233
-676.178	267.700	0.248	0.438
-675.164	-137.235	0.233	0.027
-674.149	-33.119	0.193	-0.108
-673.135	-17.476	0.232	0.147
-672.120	68.937	-0.322	-0.333
-671.105	90.154	-0.051	0.058
-670.091	29.815	0.089	-0.077
-669.076	309.514	-0.209	-0.394
-668.062	-47.178	-0.263	0.129
-667.047	104.639	-0.032	-0.038
-666.032	-200.000	0.022	-0.285
-665.018	-200.000	0.028	0.299
-664.003	739.376	-0.037	-0.101
-662.989	183.327	-0.077	0.115
-661.974	800.000	-0.026	-0.106
-660.959	64.395	-0.113	-0.115
-659.945	244.188	-0.144	0.243
-658.930	-99.020	-0.135	-0.034
-657.916	-200.000	0.025	-0.259
-656.901	46.575	0.309	-0.289
-655.886	4.498	-0.195	-0.144
-654.872	100.024	0.148	0.173
-653.857	-5.083	-0.131	-0.091
-652.843	77.060	0.181	0.194
-651.828	-16.953	-0.418	-0.266
-650.814	-75.638	-0.137	-0.049
-649.799	434.828	0.048	-0.104
-648.784	-65.146	0.269	0.109
-647.770	800.000	0.047	-0.144
-646.755	6.844	0.107	-0.080
-645.741	-86.375	-0.222	0.069
-644.726	-141.884	0.153	-0.015
-643.711	462.354	0.015	0.034
-642.697	-20.703	-0.093	-0.057
-641.682	-200.000	-0.054	0.407
-640.668	45.514	0.190	0.177
-639.653	-5.758	-0.139	-0.096
-638.638	233.648	-0.060	-0.099
-637.624	-87.204	-0.309	-0.094
-636.609	162.697	0.196	-0.277
-635.595	-200.000	-0.003	-0.026
-634.580	161.963	-0.278	-0.391
-633.565	382.200	-0.042	-0.087
-632.551	20.828	-0.203	-0.166
-631.536	-68.329	-0.180	0.070
-630.522	-200.000	0.237	-0.000
-629.507	-8.448	0.174	-0.118
-628.492	-143.569	-0.065	-0.006
-627.478	-83.598	0.204	0.065
-626.463	423.086	0.128	-0.277
-625.449	-116.736	-0.372	0.069
-624.434	319.364	-0.069	-0.132
-623.419	-200.000	0.014	-0.181
-622.405	-2.227	-0.323	-0.228
-621.390	124.504	0.197	-0.249
-620.376	499.036	-0.125	-0.290
-619.361	3.385	0.194	-0.142
-618.346	-32.172	-0.293	0.165
-617.332	252.801	-0.045	0.076
-616.317	-149.476	-0.348	-0.028
-615.303	-200.000	-0.049	0.234
-614.288	-200.000	0.025	-0.113
-613.273	-58.879	0.089	0.039
-612.259	800.000	-0.087	0.376
-611.244	97.016	-0.071	0.082
-610.230	-73.340	0.297	0.109
-609.215	-9.198	0.384	0.258
-608.201	331.453	-0.093	-0.181
-607.186	-68.822	0.080	-0.031
-606.171	-37.651	0.111	0.059
-605.157	-200.000	0.014	0.073
-604.142	622.118	0.037	-0.094
-603.128	-27.757	-0.166	-0.097
-602.113	604.584	-0.080	0.199
-601.098	1.207	0.278	0.200
-600.084	291.486	0.094	0.171
-599.069	-200.000	-0.044	-0.386
-598.055	-94.455	-0.081	-0.022
-597.040	-106.630	0.179	-0.040
-596.025	93.230	0.202	0.229
-595.011	-58.785	0.048	-0.021
-593.996	-200.000	-0.005	0.045
-592.982	800.000	-0.100	0.280
-591.967	-30.792	0.290	0.164
-590.952	375.879	-0.140	0.287
-589.938	322.143	0.075	0.144
-588.923	-135.348	-0.356	0.043
-587.909	-49.972	-0.072	-0.034
-586.894	-200.000	-0.009	0.616
-585.879	179.621	-0.106	0.155
-584.865	800.000	0.075	-0.264
-583.850	-36.515	0.045	-0.024
-582.836	95.785	0.118	0.135
-581.821	-128.898	-0.279	0.039
-580.806	83.565	0.144	0.158
-579.792	800.000	0.071	-0.268
-578.777	800.000	-0.063	-0.201
-577.763	-15.871	-0.085	0.054
-576.748	333.701	0.087	-0.169
-575.733	428.321	0.047	0.102
-574.719	-50.612	-0.100	0.047
-573.704	107.225	0.040	-0.048
-572.690	800.000	0.027	-0.119
-571.675	-200.000	-0.041	0.263
-570.661	-200.000	-0.090	0.418
-569.646	279.974	-0.046	0.083
-568.631	-72.256	-0.090	-0.033
-567.617	5.301	-0.338	-0.250
-566.602	-200.000	0.026	-0.150
-565.588	-122.637	0.138	0.022
-564.573	286.916	0.211	0.382
-563.558	800.000	0.031	-0.120
-562.544	122.521	-0.090	-0.113
-561.529	-200.000	0.057	0.352
-560.515	-68.489	-0.174	-0.068
-559.500	199.850	0.174	-0.267
-558.485	-80.133	0.339	0.114
-557.471	-93.662	0.331	0.091
-556.456	-10.824	0.142	-0.094
-555.442	47.452	-0.339	-0.317
-554.427	-89.761	0.175	-0.051
-553.412	-20.354	-0.092	-0.057
-552.398	-200.000	0.028	0.215
-551.383	800.000	-0.014	-0.053
-550.369	800.000	-0.035	0.098
-549.354	552.713	-0.101	-0.244
-548.339	68.721	-0.113	-0.116
-547.325	101.778	0.042	0.049
-546.310	-200.000	-0.106	-0.481
-545.296	73.420	0.220	-0.231
-544.281	19.994	0.236	0.190
-543.266	-112.733	0.286	0.057
-542.252	191.420	-0.171	0.258
-541.237	483.211	0.085	-0.194
-540.223	110.070	0.246	0.296
-539.208	169.265	0.064	0.092
-538.193	-47.099	0.177	0.086
-537.179	-12.595	-0.179	-0.117
-536.164	-200.000	-0.019	-0.133
-535.150	-200.000	-0.026	-0.144
-534.135	-137.325	-0.285	0.032
-533.121	10.195	-0.196	-0.149
-532.106	417.266	0.047	-0.101
-531.091	-88.320	-0.117	0.035
-530.077	131.040	-0.261	0.335
-529.062	-200.000	-0.006	-0.197
-528.048	110.347	0.253	-0.304
-527.033	-151.726	0.046	0.003
-526.018	126.642	0.168	0.213
-525.004	461.076	-0.088	0.197
-523.989	-61.589	0.088	-0.037
-522.975	-37.960	0.205	0.109
-521.960	43.577	-0.264	-0.242
-520.945	684.589	0.079	-0.207
-519.931	-57.399	-0.242	0.106
-518.916	131.146	-0.143	0.183
-517.902	301.901	0.179	0.332
-516.887	-165.369	-0.206	0.009
-515.872	-45.375	-0.394	-0.196
-514.858	800.000	-0.031	0.098
-513.843	-200.000	-0.020	-0.127
-512.829	-59.720	0.167	-0.072
-511.814	-88.213	-0.338	0.101
-510.799	-56.777	0.271	-0.120
-509.785	-118.232	-0.126	0.022
-508.770	-38.781	-0.210	0.111
-507.756	-139.896	-0.142	0.015
-506.741	-200.000	-0.016	0.115
-505.726	-40.773	-0.227	0.117
-504.712	-47.093	0.165	-0.080
-503.697	-75.780	-0.089	-0.032
-502.683	700.588	0.023	0.062
-501.668	-124.998	0.165	-0.025
-500.653	-73.893	0.062	0.022
-499.639	366.445	0.088	0.177
-498.624	-182.793	-0.230	0.004
-497.610	-165.865	-0.043	0.002
-496.595	-6.277	-0.209	-0.143
-495.581	232.432	0.106	-0.173
-494.566	331.443	0.110	-0.212
-493.551	-92.620	-0.124	0.035
-492.537	164.153	-0.060	-0.085
-491.522	-77.862	0.102	0.035
-490.508	-93.722	0.196	0.054
-489.493	-112.989	0.180	-0.036
-488.478	-160.412	0.143	0.008
-487.464	-2.801	-0.121	-0.084
-486.449	-173.293	-0.307	-0.009
-485.435	396.427	0.114	-0.237
-484.420	-45.995	0.130	-0.064
-483.405	-130.270	0.292	-0.040
-482.391	-103.387	0.086	0.020
-481.376	372.939	-0.182	0.371
-480.362	-36.967	-0.346	0.185
-479.347	132.238	-0.121	-0.156
-478.332	-200.000	0.087	0.460
-477.318	-200.000	0.026	0.153
-476.303	-91.563	-0.402	-0.114
-475.289	183.151	0.036	-0.053
-474.274	49.370	-0.267	-0.251
-473.259	800.000	0.037	0.118
-472.245	-103.454	-0.066	0.016
-471.230	-96.821	-0.068	-0.018
-470.216	246.776	-0.115	0.195
-469.201	-148.409	0.495	0.041
-468.186	-187.406	0.254	0.003
-467.172	114.342	-0.181	-0.221
-466.157	-51.265	0.253	-0.118
-465.143	140.975	0.144	-0.190
-464.128	-44.583	0.317	-0.158
-463.113	-159.977	-0.235	0.013
-462.099	800.000	-0.023	0.082
-461.084	-55.186	-0.131	0.059
-460.070	-68.648	0.247	-0.096
-459.055	-200.000	-0.036	0.286
-458.040	800.000	-0.052	0.189
-457.026	110.330	0.199	0.239
-456.011	-163.245	0.152	0.007
-454.997	60.566	0.196	0.194
-453.982	800.000	-0.035	0.117
-452.968	-150.971	-0.422	0.032
-451.953	70.781	-0.140	0.144
-450.938	-28.074	-0.390	-0.225
-449.924	-200.000	-0.157	-0.001
-448.909	615.490	0.065	-0.163
-447.895	286.737	-0.101	0.183
-446.880	356.209	0.109	-0.217
-445.865	-200.000	-0.015	0.105
-444.851	46.364	-0.088	-0.082
-443.836	221.421	0.093	-0.149
-442.822	176.154	0.246	-0.356
-441.807	59.270	-0.252	-0.248
-440.792	288.241	-0.245	-0.443
-439.778	-82.734	-0.214	0.069
-438.763	-200.000	0.014	0.092
-437.749	800.000	0.082	0.283
-436.734	233.580	-0.127	0.208
-435.719	-21.530	-0.290	0.176
-434.705	-200.000	-0.015	-0.163
-433.690	-78.867	-0.387	0.132
-432.676	250.040	-0.206	-0.349
-431.661	-23.740	-0.299	-0.179
-430.646	800.000	-0.043	-0.184
-429.632	-168.119	-0.291	-0.011
-428.617	-200.000	0.021	-0.289
-427.603	222.702	0.087	0.140
-426.588	99.030	-0.138	0.159
-425.573	44.282	-0.176	0.161
-424.559	67.633	-0.370	0.377
-423.544	800.000	0.051	0.151
-422.530	-15.833	0.100	0.063
-421.515	-167.237	0.133	-0.005
-420.500	82.089	0.105	0.114
-419.486	-154.128	0.009	0.001
-418.471	441.984	0.072	0.156
-417.457	-10.655	0.179	0.118
-416.442	-200.000	0.004	-0.217
-415.428	-124.245	0.277	0.043
-414.413	-18.079	0.037	-0.023
-413.398	-9.050	0.183	-0.122
-412.384	-148.645	-0.147	0.012
-411.369	-200.000	0.033	-0.228
-410.355	-52.317	0.048	0.022
-409.340	-200.000	0.014	-0.210
-408.325	-23.692	0.212	0.127
-407.311	-200.000	-0.035	0.242
-406.296	-113.169	0.473	-0.093
-405.282	-50.857	-0.133	0.062
-404.267	-200.000	0.008	0.323
-403.252	-167.280	-0.225	0.009
-402.238	-200.000	-0.018	-0.113
-401.223	-67.967	-0.301	-0.117
-400.209	-133.725	0.348	-0.043
-399.194	-42.551	-0.361	-0.183
-398.179	-121.262	-0.302	-0.050
-397.165	-101.214	0.354	0.086
-396.150	-63.980	-0.044	-0.018
-395.136	343.794	0.085	-0.166
-394.121	218.529	0.197	-0.314
-393.106	800.000	-0.071	-0.276
-392.092	34.836	-0.147	-0.128
-391.077	18.161	0.179	-0.142
-390.063	36.478	0.213	0.188
-389.048	-109.689	0.192	0.040
-388.033	7.221	-0.228	0.170
-387.019	-200.000	0.037	-0.507
-386.004	-200.000	-0.006	-0.203
-384.990	774.714	-0.059	-0.160
-383.975	608.986	-0.036	0.090
-382.960	800.000	-0.033	0.106
-381.946	-85.855	0.130	0.040
-380.931	-124.815	-0.186	-0.029
-379.917	-200.000	0.023	-0.114
-378.902	17.629	-0.342	-0.271
-377.888	-53.769	0.153	-0.069
-376.873	800.000	-0.041	-0.157
-375.858	-200.000	-0.036	0.258
-374.844	-123.450	0.143	-0.023
-373.829	-174.716	0.045	0.001
-372.815	409.377	0.082	-0.174
-371.800	-200.000	-0.016	0.183
-370.785	-73.825	0.117	0.042
-369.771	53.655	0.313	0.299
-368.756	-67.593	0.182	0.071
-367.742	-200.000	-0.073	0.324
-366.727	643.464	0.046	0.116
-365.712	-31.497	0.125	0.070
-364.698	42.171	-0.214	-0.194
-363.683	-66.073	-0.094	0.037
-362.669	-200.000	0.022	-0.102
-361.654	660.651	-0.065	-0.167
-360.639	361.993	0.136	-0.272
-359.625	-60.845	-0.269	0.113
-358.610	104.490	0.240	0.281
-357.596	41.611	0.142	-0.128
-356.581	111.121	-0.078	-0.093
-355.566	-174.960	0.253	-0.007
-354.552	-161.427	0.662	-0.034
-353.537	-200.000	0.044	-0.347
-352.523	-200.000	-0.004	-0.086
-351.508	-37.611	0.319	0.169
-350.493	-200.000	0.006	-0.085
-349.479	-12.700	-0.173	-0.112
-348.464	194.520	-0.018	-0.027
-347.450	146.123	0.394	-0.526
-346.435	800.000	-0.081	-0.327
-345.420	-57.374	-0.285	0.125
-344.406	-5.758	-0.163	0.111
-343.391	-69.504	0.075	-0.029
-342.377	800.000	-0.109	-0.378
-341.362	214.855	0.111	0.174
-340.348	-8.494	0.186	0.124
-339.333	800.000	0.026	-0.072
-338.318	-200.000	0.022	-0.120
-337.304	366.720	-0.083	0.167
-336.289	-200.000	0.404	0.000
-335.275	-79.298	-0.213	-0.072
-334.260	-200.000	-0.052	0.253
-333.245	-41.595	-0.071	0.036
-332.231	127.384	-0.200	0.252
-331.216	-85.255	0.329	-0.102
-330.202	-12.194	0.057	-0.037
-329.187	-83.222	-0.297	-0.095
-328.172	427.528	-0.079	-0.168
-327.158	-184.044	-0.211	0.003
-326.143	30.896	-0.037	0.032
-325.129	-60.561	0.252	0.106
-324.114	2.445	0.043	0.031
-323.099	-22.550	-0.300	0.180
-322.085	-93.285	-0.108	-0.030
-321.070	-200.000	0.010	0.184
-320.056	-116.321	-0.221	-0.041
-319.041	-149.567	-0.107	-0.008
-318.026	215.388	-0.225	0.354
-317.012	-200.000	0.014	-0.215
-315.997	382.833	0.105	-0.215
-314.983	19.935	0.286	0.229
-313.968	800.000	-0.019	0.058
-312.953	-126.216	0.107	-0.016
-311.939	-103.847	0.278	-0.065
-310.924	800.000	-0.039	0.143
-309.910	800.000	-0.058	-0.244
-308.895	800.000	-0.075	0.281
-307.880	17.660	0.156	0.123
-306.866	-73.353	-0.315	-0.114
-305.851	-200.000	0.032	0.274
-304.837	63.506	-0.084	0.084
-303.822	71.766	0.105	-0.108
-302.807	54.326	-0.158	0.151
-301.793	163.435	0.145	-0.203
-300.778	800.000	-0.098	-0.294
-299.764	417.208	0.168	0.356
-298.749	-173.840	-0.118	-0.003
-297.735	21.264	0.099	-0.080
-296.720	138.458	0.229	0.298
-295.705	-39.333	0.260	-0.135
-294.691	-49.732	-0.181	-0.085
-293.676	472.778	0.126	0.282
-292.662	-131.121	0.401	0.053
-291.647	303.038	0.090	0.166
-290.632	51.677	-0.300	0.283
-289.618	-75.890	0.017	0.006
-288.603	-200.000	0.013	0.190
-287.589	-106.520	-0.217	-0.048
-286.574	-200.000	-0.003	-0.017
-285.559	265.253	0.116	0.200
-284.545	-200.000	-0.031	0.533
-283.530	275.067	0.024	-0.042
-282.516	-25.830	0.134	0.078
-281.501	-18.988	0.301	0.186
-280.486	199.589	0.235	-0.357
-279.472	-200.000	-0.054	0.295
-278.457	46.368	0.121	-0.111
-277.443	-200.000	0.023	-0.291
-276.428	-94.207	0.089	-0.024
-275.413	364.359	0.144	0.287
-274.399	-44.970	0.176	0.087
-273.384	-164.705	-0.182	-0.008
-272.370	228.243	-0.089	-0.144
-271.355	264.297	-0.120	0.207
-270.340	-84.774	0.160	-0.050
-269.326	-133.158	-0.084	-0.011
-268.311	-200.000	-0.091	0.000
-267.297	56.857	0.226	0.218
-266.282	-87.211	0.103	-0.031
-265.267	294.447	-0.165	0.299
-264.253	-107.607	-0.119	-0.026
-263.238	28.377	-0.344	0.288
-262.224	-62.193	-0.278	-0.115
-261.209	-130.270	0.481	-0.065
-260.195	-200.000	0.011	0.051
-259.180	-33.190	-0.216	-0.119
-258.165	-129.103	0.182	0.025
-257.151	246.106	0.106	0.177
-256.136	272.985	-0.071	0.125
-255.122	42.739	0.118	-0.106
-254.107	4.585	0.215	-0.156
-253.092	-44.441	-0.075	-0.037
-252.078	137.708	-0.116	-0.151
-251.063	645.401	0.026	0.065
-250.049	622.376	0.081	-0.201
-249.034	800.000	0.046	-0.170
-248.019	-125.167	-0.274	-0.042
-247.005	235.336	0.170	-0.278
-245.990	-62.877	0.053	0.022
-244.976	151.750	-0.066	-0.089
-243.961	68.294	0.240	-0.243
-242.946	-113.718	0.148	0.029
-241.932	-32.817	0.228	-0.125
-240.917	-200.000	0.047	0.255
-239.903	58.414	0.138	-0.134
-238.888	-109.932	0.212	0.044
-237.873	85.365	-0.025	0.027
-236.859	-65.059	-0.115	-0.046
-235.844	361.905	0.112	-0.222
-234.830	342.540	-0.139	-0.269
-233.815	276.605	0.018	0.031
-232.800	-174.952	0.295	-0.008
-231.786	91.245	-0.142	0.158
-230.771	-81.416	-0.345	0.113
-229.757	-200.000	-0.014	0.080
-228.742	187.064	0.133	-0.197
-227.727	-145.662	-0.288	0.025
-226.713	-200.000	-0.002	-0.020
-225.698	-70.699	0.237	-0.089
-224.684	-86.149	-0.157	-0.048
-223.669	66.138	-0.194	-0.195
-222.655	-92.134	0.057	0.016
-221.640	800.000	0.060	0.195
-220.625	-105.281	0.440	-0.099
-219.611	800.000	0.030	-0.083
-218.596	-200.000	-0.041	0.588
-217.582	641.644	-0.048	-0.121
-216.567	93.721	-0.154	0.173
-215.552	-170.771	0.199	0.007
-214.538	-138.443	-0.432	0.047
-213.523	-37.710	0.033	-0.017
-212.509	428.621	-0.028	0.061
-211.494	-34.516	-0.184	0.100
-210.479	-34.048	0.153	-0.083
-209.465	800.000	0.007	-0.032
-208.450	-188.289	-0.260	0.003
-207.436	-78.169	0.108	0.037
-206.421	222.395	0.142	0.226
-205.406	231.300	0.128	-0.207
-204.392	-105.219	0.107	-0.024
-203.377	-132.572	-0.036	0.005
-202.363	573.099	-0.040	-0.097
-201.348	-0.115	-0.094	0.066
-200.333	-54.781	0.150	-0.067
-199.319	422.283	0.037	0.078
-198.304	-98.572	-0.149	-0.038
-197.290	-24.328	0.295	0.174
-196.275	307.783	-0.076	0.139
-195.260	800.000	0.051	-0.157
-194.246	93.271	0.209	0.234
-193.231	289.342	-0.054	-0.097
-192.217	-38.537	-0.105	0.055
-191.202	-0.938	0.468	-0.328
-190.187	-200.000	-0.017	-0.259
-189.173	-81.270	-0.538	0.176
-188.158	-40.636	0.110	0.056
-187.144	-175.052	-0.212	-0.006
-186.129	-200.000	0.021	-0.200
-185.114	74.463	-0.222	-0.230
-184.100	235.843	-0.072	0.117
-183.085	236.661	0.076	0.124
-182.071	57.043	-0.238	-0.229
-181.056	-73.544	0.277	-0.100
-180.042	298.390	-0.081	-0.146
-179.027	-100.676	0.178	-0.043
-178.012	220.666	-0.089	0.142
-176.998	148.516	0.005	0.007
-175.983	417.376	0.111	0.234
-174.969	-126.210	-0.225	0.033
-173.954	-80.825	-0.085	0.028
-172.939	-34.280	-0.048	-0.026
-171.925	703.556	-0.129	0.337
-170.910	394.448	-0.039	0.079
-169.896	87.959	-0.122	-0.133
-168.881	207.457	0.194	-0.299
-167.866	-3.005	-0.237	0.164
-166.852	193.857	0.167	-0.250
-165.837	-65.735	-0.075	-0.030
-164.823	-41.246	-0.181	-0.092
-163.808	-200.000	0.006	0.041
-162.793	-200.000	0.020	-0.213
-161.779	-55.492	-0.140	0.062
-160.764	-74.849	-0.210	-0.074
-159.750	116.021	0.116	-0.141
-158.735	37.362	-0.107	-0.094
-157.720	800.000	-0.075	0.247
-156.706	-10.998	-0.239	0.156
-155.691	800.000	0.055	0.201
-154.677	133.509	0.181	0.231
-153.662	14.573	0.288	0.222
-152.647	-71.064	-0.234	-0.087
-151.633	-13.022	0.210	-0.135
-150.618	14.728	0.297	-0.229
-149.604	28.741	-0.416	-0.347
-148.589	370.116	0.096	-0.193
-147.574	-200.000	-0.020	-0.226
-146.560	800.000	-0.036	0.110
-145.545	-92.674	0.137	-0.038
-144.531	-19.524	0.265	0.162
-143.516	-23.574	0.033	0.019
-142.502	-127.989	0.506	-0.072
-141.487	-21.314	0.123	0.074
-140.472	52.384	-0.086	0.081
-139.458	800.000	-0.025	0.098
-138.443	-121.787	-0.281	-0.046
-137.429	-200.000	-0.016	-0.138
-136.414	-200.000	-0.009	-0.156
-135.399	-200.000	-0.011	0.155
-134.385	-136.039	-0.235	-0.027
-133.370	-61.530	-0.085	-0.035
-132.356	38.810	0.150	-0.132
-131.341	-5.310	0.224	0.152
-130.326	-17.305	0.128	-0.079
-129.312	336.110	-0.201	-0.384
-128.297	359.258	0.161	0.317
-127.283	-29.019	0.236	-0.134
-126.268	57.260	-0.099	-0.095
-125.253	252.730	-0.066	-0.112
-124.239	-163.875	-0.085	-0.004
-123.224	-96.872	-0.161	-0.042
-122.210	160.037	0.416	0.571
