DTS Sentinel unit serial number:	SN413079Multiplexer serial number:	ORYXHardware model number:	OX4-SRSoftware version number:	ORYX F/W v4.00 Oryx Data Collector v3.7.2.0data status	okinstallation	princeton_trtdifferential loss correction	single-endedforward channel	channel 3reverse channel	N/Adate	2019/09/12time	21:00:34forward acquisition time	60.00reverse acquisition time	0.00gamma	496.2192k internal	0.2325k external	0.2325temperature offset calibration	1.0128default loss term (dB/km)	0.3790temperature slope calibration	1.0000multiplexer offset coefficient	1.0000multiplexer slope coefficient	1.0000fibre end	0.00T internal ref (°C)	30.84T ext. ref 1 (°C)	3.60T ext. ref 2 (°C)	25.44length (m)	temperature (°C)	Stokes	anti-Stokes-747.200	-48.187	0.156	0.076
-746.185	17.019	-0.231	0.185
-745.171	-200.000	0.020	-0.282
-744.156	751.762	-0.088	0.239
-743.142	-166.584	0.154	-0.006
-742.127	-40.024	-0.534	0.281
-741.112	358.419	0.061	-0.122
-740.098	-33.336	-0.202	0.113
-739.083	-156.433	-0.209	-0.013
-738.069	-200.000	-0.042	0.493
-737.054	85.134	-0.153	-0.169
-736.039	800.000	-0.026	-0.104
-735.025	122.087	0.136	-0.171
-734.010	585.402	-0.208	0.516
-732.996	-121.970	-0.156	-0.026
-731.981	41.329	-0.426	-0.388
-730.966	234.354	-0.096	0.159
-729.952	800.000	-0.085	0.308
-728.937	-68.420	-0.433	-0.170
-727.923	-133.922	0.181	-0.023
-726.908	-200.000	-0.041	-0.225
-725.894	-200.000	-0.040	-0.376
-724.879	-24.910	-0.137	0.082
-723.864	-34.168	-0.188	0.104
-722.850	36.808	-0.293	-0.261
-721.835	186.647	0.100	0.150
-720.821	18.194	-0.102	0.082
-719.806	201.413	0.114	0.177
-718.791	159.352	-0.240	-0.337
-717.777	-98.187	-0.152	0.039
-716.762	81.069	0.234	-0.255
-715.748	32.997	-0.087	0.076
-714.733	136.087	0.105	0.138
-713.718	800.000	-0.010	-0.039
-712.704	-115.125	-0.155	0.030
-711.689	343.248	-0.198	0.390
-710.675	-148.956	0.324	-0.026
-709.660	-95.494	-0.299	0.081
-708.645	38.621	-0.216	-0.194
-707.631	666.764	-0.041	-0.106
-706.616	-200.000	-0.034	0.173
-705.602	-118.562	-0.294	0.052
-704.587	118.395	0.104	0.129
-703.572	12.020	-0.147	0.114
-702.558	-75.701	-0.208	-0.074
-701.543	-5.619	-0.152	-0.105
-700.529	-102.408	0.285	0.069
-699.514	-200.000	0.041	0.279
-698.499	-106.223	-0.375	0.085
-697.485	800.000	-0.063	-0.176
-696.470	57.782	0.250	-0.246
-695.456	-39.203	-0.096	0.051
-694.441	-116.636	-0.365	0.068
-693.426	54.798	0.057	-0.056
-692.412	70.308	-0.142	-0.148
-691.397	236.783	-0.214	-0.357
-690.383	43.575	0.079	-0.073
-689.368	23.783	-0.042	0.035
-688.354	-90.545	-0.093	-0.027
-687.339	-95.340	-0.200	0.054
-686.324	642.192	-0.059	0.151
-685.310	304.943	0.105	0.197
-684.295	375.485	0.041	0.085
-683.281	99.525	-0.076	-0.089
-682.266	-200.000	-0.015	-0.256
-681.251	800.000	-0.045	-0.177
-680.237	484.927	0.169	-0.387
-679.222	-200.000	0.011	0.274
-678.208	30.013	-0.113	-0.097
-677.193	-78.239	-0.161	0.056
-676.178	800.000	0.025	-0.099
-675.164	-167.388	-0.210	-0.008
-674.149	-64.407	-0.162	-0.066
-673.135	419.768	0.009	0.019
-672.120	-120.631	-0.348	0.059
-671.105	153.523	-0.090	0.124
-670.091	-69.502	-0.265	-0.102
-669.076	-200.000	0.086	-0.380
-668.062	-57.439	-0.159	0.070
-667.047	-145.070	-0.145	-0.013
-666.032	-100.051	0.258	-0.065
-665.018	69.290	-0.060	0.062
-664.003	-200.000	0.081	0.421
-662.989	-200.000	-0.008	-0.358
-661.974	37.216	0.260	0.232
-660.959	86.683	0.118	0.131
-659.945	-20.402	0.060	0.037
-658.930	-200.000	-0.090	-0.495
-657.916	-98.554	-0.058	-0.015
-656.901	-129.662	-0.347	0.048
-655.886	-200.000	0.027	0.428
-654.872	-197.652	-0.297	-0.002
-653.857	32.283	0.312	-0.271
-652.843	-104.164	-0.342	-0.080
-651.828	-109.469	0.173	0.037
-650.814	-189.472	0.257	-0.003
-649.799	-200.000	-0.053	0.309
-648.784	-53.407	0.211	-0.097
-647.770	88.955	0.224	0.251
-646.755	-200.000	0.010	0.275
-645.741	273.695	0.169	-0.300
-644.726	-181.344	0.482	-0.010
-643.711	800.000	-0.084	-0.243
-642.697	138.193	-0.147	-0.193
-641.682	-94.775	0.053	0.014
-640.668	95.764	-0.304	0.348
-639.653	-37.802	0.218	-0.116
-638.638	442.949	0.045	-0.098
-637.624	800.000	0.024	0.090
-636.609	545.666	-0.137	-0.329
-635.595	-98.180	0.045	-0.012
-634.580	800.000	0.095	-0.282
-633.565	-200.000	0.044	0.335
-632.551	-200.000	-0.069	0.304
-631.536	800.000	-0.035	0.138
-630.522	-80.192	-0.488	-0.164
-629.507	-101.697	-0.296	-0.072
-628.492	57.581	-0.189	-0.185
-627.478	-200.000	-0.008	-0.286
-626.463	160.551	-0.224	-0.314
-625.449	61.843	0.175	0.175
-624.434	-124.802	0.125	0.019
-623.419	-41.005	0.085	-0.044
-622.405	263.599	0.151	0.263
-621.390	88.490	0.100	-0.111
-620.376	-200.000	-0.002	-0.194
-619.361	-118.535	0.041	-0.007
-618.346	535.797	-0.062	0.147
-617.332	-150.758	0.122	-0.009
-616.317	-105.751	0.225	0.051
-615.303	20.086	0.164	-0.133
-614.288	-8.965	-0.216	0.145
-613.273	237.127	0.090	0.149
-612.259	46.926	-0.182	0.170
-611.244	50.903	0.217	0.206
-610.230	7.471	-0.114	-0.086
-609.215	-42.338	-0.092	-0.047
-608.201	-200.000	0.009	-0.344
-607.186	800.000	-0.090	-0.303
-606.171	649.394	-0.169	0.435
-605.157	-133.542	-0.162	-0.020
-604.142	800.000	-0.014	0.044
-603.128	138.340	-0.174	-0.229
-602.113	130.342	0.209	0.268
-601.098	185.409	-0.093	0.139
-600.084	-80.466	0.177	0.059
-599.069	644.692	0.098	-0.251
-598.055	24.613	0.220	-0.183
-597.040	800.000	0.028	-0.091
-596.025	-200.000	0.015	-0.122
-595.011	152.887	-0.126	-0.172
-593.996	571.488	-0.061	0.148
-592.982	174.680	-0.106	-0.154
-591.967	-147.575	-0.238	-0.020
-590.952	-127.490	0.129	-0.019
-589.938	-115.874	0.407	0.076
-588.923	800.000	0.065	-0.185
-587.909	-200.000	-0.001	0.022
-586.894	135.779	-0.071	-0.092
-585.879	-55.736	0.272	0.122
-584.865	182.853	0.168	0.249
-583.850	233.106	0.107	-0.177
-582.836	430.196	0.074	-0.161
-581.821	385.618	-0.113	-0.233
-580.806	-119.054	-0.143	-0.025
-579.792	800.000	-0.098	-0.283
-578.777	12.149	0.046	-0.035
-577.763	-115.728	0.034	0.006
-576.748	90.633	-0.102	-0.115
-575.733	-79.258	-0.456	-0.155
-574.719	-149.334	0.092	-0.007
-573.704	-120.709	-0.157	0.027
-572.690	-123.166	-0.185	0.030
-571.675	-176.320	0.305	0.008
-570.661	143.054	-0.166	0.221
-569.646	63.766	-0.168	-0.170
-568.631	800.000	0.078	-0.247
-567.617	-35.065	0.201	-0.110
-566.602	800.000	0.027	0.074
-565.588	-200.000	-0.021	-0.167
-564.573	-98.555	0.121	0.031
-563.558	800.000	0.038	-0.137
-562.544	-200.000	0.030	-0.275
-561.529	20.030	-0.195	0.157
-560.515	119.707	-0.099	0.123
-559.500	-200.000	-0.016	0.119
-558.485	56.217	0.036	0.035
-557.471	-200.000	0.017	-0.129
-556.456	577.919	-0.073	-0.178
-555.442	-142.085	-0.160	0.016
-554.427	142.768	-0.111	-0.147
-553.412	-9.859	-0.287	0.191
-552.398	-200.000	0.046	0.235
-551.383	-138.454	0.417	-0.046
-550.369	-25.986	-0.088	0.052
-549.354	74.927	0.159	0.168
-548.339	-200.000	0.015	-0.088
-547.325	119.064	0.116	0.143
-546.310	-41.220	0.117	0.060
-545.296	800.000	-0.022	-0.079
-544.281	-46.421	0.117	0.057
-543.266	30.314	-0.231	-0.198
-542.252	-45.282	-0.067	-0.033
-541.237	-103.924	-0.113	0.026
-540.223	9.584	0.231	-0.175
-539.208	800.000	0.047	-0.172
-538.193	-21.288	0.145	-0.089
-537.179	136.309	-0.110	0.144
-536.164	-170.665	-0.254	0.009
-535.150	210.324	-0.078	0.123
-534.135	-27.137	-0.148	-0.086
-533.121	766.446	-0.051	-0.138
-532.106	238.652	-0.097	-0.161
-531.091	800.000	0.126	-0.384
-530.077	784.993	0.068	-0.188
-529.062	97.474	-0.131	0.151
-528.048	-200.000	0.021	0.493
-527.033	-200.000	0.006	0.218
-526.018	-85.878	-0.028	0.009
-525.004	-55.314	-0.137	-0.062
-523.989	-12.703	-0.076	0.050
-522.975	-18.398	-0.186	0.116
-521.960	-23.952	0.176	0.105
-520.945	-64.902	-0.294	0.119
-519.931	-18.682	0.101	-0.063
-518.916	14.933	0.083	-0.065
-517.902	396.160	0.098	-0.205
-516.887	-103.902	-0.116	-0.027
-515.872	800.000	-0.070	0.224
-514.858	-6.916	-0.169	0.115
-513.843	-88.507	-0.439	0.131
-512.829	-71.770	-0.212	0.079
-511.814	570.158	0.116	-0.281
-510.799	800.000	-0.041	0.133
-509.785	-147.195	-0.408	-0.035
-508.770	51.903	-0.247	-0.235
-507.756	-97.411	0.144	0.037
-506.741	20.003	0.116	-0.094
-505.726	-200.000	-0.034	0.207
-504.712	-92.155	-0.114	-0.032
-503.697	800.000	-0.139	-0.523
-502.683	135.896	-0.113	-0.147
-501.668	25.303	0.242	0.201
-500.653	132.412	-0.036	0.046
-499.639	112.097	0.083	-0.101
-498.624	-200.000	-0.035	-0.205
-497.610	-200.000	0.005	-0.215
-496.595	-150.221	-0.214	0.017
-495.581	-145.049	-0.117	-0.011
-494.566	-86.679	0.209	0.064
-493.551	800.000	0.056	0.155
-492.537	-200.000	0.015	0.148
-491.522	-149.627	0.203	-0.016
-490.508	39.263	0.186	-0.166
-489.493	95.973	0.143	0.164
-488.478	-101.611	0.158	0.038
-487.464	172.159	0.083	0.120
-486.449	-200.000	0.027	0.241
-485.435	40.197	-0.148	-0.133
-484.420	-200.000	0.067	-0.513
-483.405	-19.717	0.202	-0.125
-482.391	-92.040	-0.005	0.001
-481.376	4.532	-0.207	0.152
-480.362	-51.459	-0.244	-0.114
-479.347	238.154	0.105	-0.175
-478.332	266.730	0.144	0.251
-477.318	164.649	-0.065	0.091
-476.303	-97.222	0.390	0.102
-475.289	104.754	0.176	-0.207
-474.274	-115.128	0.104	-0.020
-473.259	-22.565	-0.555	0.335
-472.245	-19.263	-0.268	0.166
-471.230	40.444	0.173	-0.156
-470.216	-46.719	0.230	0.113
-469.201	54.257	0.095	-0.091
-468.186	-160.835	0.137	0.007
-467.172	43.230	0.213	0.194
-466.157	-14.872	0.310	-0.199
-465.143	-79.300	0.169	-0.057
-464.128	-49.454	0.293	0.139
-463.113	-200.000	0.004	0.034
-462.099	329.290	-0.067	0.129
-461.084	-57.931	0.393	0.171
-460.070	-131.534	0.115	0.015
-459.055	-200.000	0.047	-0.217
-458.040	233.860	-0.208	0.342
-457.026	-155.286	-0.187	-0.012
-456.011	-57.532	0.265	-0.116
-454.997	800.000	0.093	-0.262
-453.982	-46.812	-0.168	-0.082
-452.968	800.000	0.090	-0.293
-451.953	-93.802	0.292	-0.080
-450.938	-200.000	-0.043	0.425
-449.924	-14.461	-0.178	0.114
-448.909	203.960	-0.130	-0.200
-447.895	-125.365	0.109	-0.017
-446.880	179.156	0.338	0.493
-445.865	-74.265	-0.121	-0.043
-444.851	-13.802	0.088	0.057
-443.836	-200.000	0.044	-0.280
-442.822	-114.599	-0.015	-0.003
-441.807	3.828	0.045	0.032
-440.792	40.715	-0.089	-0.080
-439.778	-9.832	-0.264	0.175
-438.763	21.472	0.092	0.075
-437.749	-31.938	-0.286	0.160
-436.734	-92.063	0.400	-0.113
-435.719	-170.031	0.266	0.009
-434.705	800.000	-0.074	-0.272
-433.690	-80.214	-0.040	-0.013
-432.676	-47.643	-0.089	0.043
-431.661	-200.000	-0.052	0.238
-430.646	-200.000	-0.004	-0.087
-429.632	43.994	-0.181	0.166
-428.617	-200.000	-0.023	0.349
-427.603	28.239	0.116	-0.098
-426.588	-200.000	-0.003	0.396
-425.573	76.143	0.153	0.161
-424.559	-200.000	-0.003	0.203
-423.544	690.947	-0.080	0.208
-422.530	-32.403	0.106	-0.059
-421.515	-200.000	0.084	-0.414
-420.500	-59.933	0.152	-0.065
-419.486	-91.750	-0.177	0.050
-418.471	-136.160	0.151	-0.018
-417.457	620.985	0.092	0.229
-416.442	12.716	-0.098	0.075
-415.428	343.213	0.266	0.519
-414.413	-14.567	0.086	-0.055
-413.398	-14.749	0.057	0.037
-412.384	-30.046	-0.048	0.027
-411.369	-200.000	0.029	0.257
-410.355	554.628	-0.240	0.576
-409.340	25.016	-0.133	-0.109
-408.325	-51.932	0.474	-0.220
-407.311	-14.126	-0.196	-0.126
-406.296	83.619	0.161	-0.175
-405.282	123.308	-0.205	0.256
-404.267	115.671	-0.155	-0.189
-403.252	800.000	-0.091	-0.388
-402.238	37.461	-0.065	-0.057
-401.223	800.000	0.026	-0.088
-400.209	800.000	0.026	0.095
-399.194	-200.000	-0.020	0.192
-398.179	6.754	0.158	0.117
-397.165	-25.886	0.168	-0.099
-396.150	-21.812	0.107	-0.065
-395.136	34.513	-0.186	-0.162
-394.121	-200.000	-0.001	-0.028
-393.106	190.653	-0.045	-0.068
-392.092	-84.354	-0.092	0.029
-391.077	-97.347	0.058	0.015
-390.063	347.852	0.085	0.166
-389.048	800.000	0.054	0.219
-388.033	228.122	0.077	0.124
-387.019	-46.667	0.328	-0.160
-386.004	-96.658	0.269	0.070
-384.990	134.273	-0.166	0.214
-383.975	-23.802	-0.205	-0.122
-382.960	-126.800	0.165	-0.024
-381.946	-108.930	-0.462	0.098
-380.931	61.063	0.149	0.147
-379.917	-86.541	-0.187	-0.057
-378.902	781.588	0.098	-0.267
-377.888	375.344	0.081	-0.165
-376.873	185.010	0.079	-0.116
-375.858	343.586	0.052	-0.102
-374.844	-38.116	-0.149	0.079
-373.829	-2.276	-0.081	-0.057
-372.815	27.869	0.045	-0.038
-371.800	524.502	-0.151	0.352
-370.785	-200.000	-0.009	-0.179
-369.771	-20.891	0.214	0.130
-368.756	-156.700	-0.155	-0.010
-367.742	195.769	-0.081	0.123
-366.727	-67.553	0.184	0.072
-365.712	-91.562	-0.162	0.046
-364.698	-200.000	0.044	-0.209
-363.683	-200.000	-0.078	0.443
-362.669	193.866	-0.119	0.179
-361.654	-64.504	-0.309	0.125
-360.639	-140.147	-0.157	-0.016
-359.625	-200.000	0.009	-0.188
-358.610	145.703	-0.186	0.248
-357.596	-46.108	-0.117	0.057
-356.581	-36.851	0.447	0.238
-355.566	51.379	-0.187	0.176
-354.552	-200.000	-0.006	-0.173
-353.537	-68.620	0.156	-0.060
-352.523	412.071	-0.097	-0.204
-351.508	-149.136	-0.169	-0.013
-350.493	-60.227	-0.186	-0.079
-349.479	165.214	-0.046	0.065
-348.464	-31.834	0.061	0.034
-347.450	136.473	-0.040	0.051
-346.435	800.000	0.111	-0.382
-345.420	194.701	-0.108	0.162
-344.406	-95.753	0.142	-0.038
-343.391	-135.188	-0.343	-0.041
-342.377	1.364	-0.097	0.069
-341.362	-200.000	-0.000	-0.330
-340.348	-52.524	-0.129	-0.059
-339.333	-148.722	-0.008	0.001
-338.318	-101.074	0.217	-0.053
-337.304	-87.512	-0.321	-0.096
-336.289	382.528	-0.073	0.149
-335.275	-200.000	0.019	-0.231
-334.260	800.000	0.047	-0.193
-333.245	22.639	0.246	-0.200
-332.231	-151.203	-0.140	-0.010
-331.216	800.000	-0.077	0.243
-330.202	221.274	0.015	0.023
-329.187	-37.474	-0.071	0.038
-328.172	-200.000	-0.081	-0.376
-327.158	-161.294	0.126	-0.006
-326.143	-42.436	0.121	0.061
-325.129	97.352	0.156	-0.178
-324.114	314.152	0.070	0.130
-323.099	142.858	0.201	0.265
-322.085	800.000	0.099	0.361
-321.070	800.000	-0.123	0.429
-320.056	671.345	0.110	-0.282
-319.041	-62.252	0.099	0.041
-318.026	115.572	-0.140	-0.169
-317.012	54.859	-0.047	-0.045
-315.997	180.000	-0.058	0.084
-314.983	800.000	0.066	-0.188
-313.968	-200.000	-0.039	-0.264
-312.953	-200.000	-0.003	0.088
-311.939	-200.000	-0.008	0.147
-310.924	202.111	-0.250	0.382
-309.910	-34.733	0.174	-0.095
-308.895	-44.625	0.239	-0.118
-307.880	792.940	0.034	-0.093
-306.866	-200.000	0.006	-0.140
-305.851	-69.925	0.129	0.049
-304.837	-4.341	-0.132	0.090
-303.822	114.703	0.067	-0.081
-302.807	-200.000	-0.021	-0.229
-301.793	-200.000	0.019	-0.458
-300.778	800.000	0.051	0.150
-299.764	-11.940	-0.242	0.157
-298.749	-85.162	-0.028	0.009
-297.735	-15.413	0.211	-0.134
-296.720	-88.100	0.173	0.052
-295.705	-200.000	-0.022	-0.161
-294.691	150.677	-0.124	-0.167
-293.676	-7.749	-0.340	-0.228
-292.662	-200.000	0.008	-0.236
-291.647	-11.881	0.076	-0.050
-290.632	-116.922	-0.164	-0.030
-289.618	25.128	-0.100	-0.082
-288.603	1.187	-0.200	0.142
-287.589	-119.721	0.168	0.029
-286.574	800.000	-0.040	0.138
-285.559	-200.000	-0.065	-0.288
-284.545	738.422	-0.105	-0.279
-283.530	-200.000	-0.062	0.328
-282.516	17.383	-0.122	0.096
-281.501	-200.000	0.038	0.233
-280.486	-200.000	-0.007	-0.113
-279.472	463.719	-0.046	-0.103
-278.457	-21.806	-0.233	0.140
-277.443	-200.000	-0.050	-0.307
-276.428	60.066	0.209	0.205
-275.413	268.287	-0.085	0.147
-274.399	-41.289	0.153	0.078
-273.384	-22.918	0.268	0.160
-272.370	-118.977	0.088	0.015
-271.355	-49.663	-0.219	-0.103
-270.340	-143.021	-0.247	-0.024
-269.326	8.580	0.298	-0.222
-268.311	-200.000	-0.039	-0.177
-267.297	456.452	0.122	-0.268
-266.282	-155.309	0.168	-0.011
-265.267	-32.378	0.173	-0.096
-264.253	800.000	-0.021	-0.089
-263.238	-77.926	0.354	-0.121
-262.224	-118.970	0.409	0.071
-261.209	316.513	0.177	0.330
-260.195	14.586	-0.143	0.111
-259.180	-200.000	0.040	0.179
-258.165	-200.000	0.005	-0.051
-257.151	-29.636	0.167	-0.095
-256.136	54.068	-0.227	-0.216
-255.122	-69.160	-0.150	0.057
-254.107	-173.336	-0.204	0.006
-253.092	-0.253	-0.131	0.092
-252.078	-139.310	0.060	0.006
-251.063	-65.658	0.192	0.076
-250.049	-20.691	0.225	-0.137
-249.034	331.793	0.163	0.311
-248.019	-7.412	0.062	0.041
-247.005	-111.025	-0.394	0.080
-245.990	114.835	0.176	-0.213
-244.976	49.155	0.071	0.066
-243.961	-96.894	-0.493	-0.128
-242.946	-200.000	-0.009	-0.172
-241.932	-34.334	0.084	-0.046
-240.917	651.200	0.068	-0.173
-239.903	800.000	0.056	0.181
-238.888	339.187	-0.029	-0.056
-237.873	-95.031	0.172	0.046
-236.859	-106.356	-0.286	0.063
-235.844	-200.000	0.006	0.196
-234.830	-133.811	-0.157	-0.019
-233.815	-57.755	-0.306	0.133
-232.800	-79.589	-0.257	-0.086
-231.786	113.872	-0.199	0.239
-230.771	-26.375	0.283	0.164
-229.757	163.723	-0.092	-0.128
-228.742	3.564	-0.136	0.098
-227.727	-200.000	-0.010	0.275
-226.713	513.732	-0.074	0.170
-225.698	-41.974	0.298	-0.151
-224.684	134.139	0.091	-0.116
-223.669	340.351	0.126	-0.242
-222.655	800.000	0.019	-0.073
-221.640	-200.000	-0.030	0.396
-220.625	800.000	0.045	-0.171
-219.611	-32.830	0.216	0.119
-218.596	-9.766	-0.131	0.086
-217.582	-89.089	-0.142	0.042
-216.567	-77.813	-0.014	-0.005
-215.552	-12.042	-0.268	0.173
-214.538	-18.653	0.254	0.157
-213.523	165.493	0.158	-0.220
-212.509	101.275	0.159	0.183
-211.494	150.560	-0.273	0.366
-210.479	-17.982	0.135	0.084
-209.465	-138.647	0.069	0.007
-208.450	-16.689	0.069	0.043
-207.436	-145.245	0.301	-0.027
-206.421	10.145	-0.203	0.152
-205.406	-200.000	-0.006	0.086
-204.392	-200.000	0.086	-0.379
-203.377	-200.000	0.005	-0.464
-202.363	800.000	-0.100	0.275
-201.348	39.112	0.182	-0.161
-200.333	800.000	-0.064	0.240
-199.319	800.000	-0.114	0.392
-198.304	709.332	0.044	0.115
-197.290	800.000	-0.064	0.228
-196.275	-135.346	-0.219	-0.026
-195.260	22.450	-0.206	0.166
-194.246	316.801	-0.007	-0.013
-193.231	165.075	-0.135	0.188
-192.217	-200.000	0.005	0.056
-191.202	-161.420	-0.242	0.012
-190.187	-200.000	0.030	-0.177
-189.173	104.390	-0.184	-0.214
-188.158	-143.397	-0.072	0.007
-187.144	-152.663	0.160	-0.011
-186.129	144.826	0.126	0.166
-185.114	800.000	0.066	-0.248
-184.100	-28.590	0.184	-0.105
-183.085	164.798	0.091	-0.127
-182.071	-146.206	-0.166	-0.014
-181.056	186.719	0.217	0.319
-180.042	-57.970	0.121	-0.052
-179.027	2.351	0.072	-0.051
-178.012	-72.775	0.084	0.030
-176.998	800.000	0.137	-0.483
-175.983	-28.416	-0.255	-0.145
-174.969	-27.307	-0.073	-0.042
-173.954	800.000	-0.085	0.249
-172.939	-6.758	0.179	0.120
-171.925	-95.473	-0.113	0.030
-170.910	38.602	-0.109	-0.096
-169.896	-29.411	0.145	0.082
-168.881	224.821	-0.268	-0.428
-167.866	-159.599	0.216	0.012
-166.852	232.193	0.142	0.230
-165.837	261.634	-0.129	-0.221
-164.823	255.347	0.127	-0.215
-163.808	-200.000	-0.016	0.420
-162.793	-62.510	0.060	0.025
-161.779	93.498	0.082	0.092
-160.764	-129.609	-0.450	-0.061
-159.750	-0.013	-0.067	0.047
-158.735	370.370	-0.005	0.009
-157.720	741.666	-0.101	-0.267
-156.706	288.577	-0.082	-0.147
-155.691	373.401	-0.090	0.181
-154.677	-20.210	-0.205	-0.124
-153.662	111.091	-0.198	0.235
-152.647	-80.996	0.319	0.104
-151.633	-145.814	0.382	0.033
-150.618	-94.053	-0.112	-0.030
-149.604	36.416	-0.249	0.216
-148.589	36.322	-0.218	0.190
-147.574	-118.708	0.243	0.042
-146.560	241.166	-0.046	-0.076
-145.545	16.185	-0.404	0.314
-144.531	-111.942	0.083	-0.017
-143.516	-112.295	-0.181	0.036
-142.502	-5.018	-0.212	-0.144
-141.487	711.169	-0.029	0.076
-140.472	-112.278	-0.139	-0.028
-139.458	566.418	0.031	-0.074
-138.443	-37.822	0.331	-0.173
-137.429	-120.981	-0.104	0.017
-136.414	91.746	-0.138	-0.153
-135.399	7.129	0.020	0.015
-134.385	341.451	-0.076	0.145
-133.370	-54.251	-0.114	-0.051
-132.356	7.539	-0.175	-0.129
-131.341	-65.331	-0.221	0.087
-130.326	-1.534	-0.115	-0.080
-129.312	112.802	0.013	-0.016
-128.297	293.584	0.084	-0.152
-127.283	310.995	0.111	-0.204
-126.268	-95.402	-0.243	-0.064
-125.253	-32.588	-0.221	0.121
-124.239	370.693	0.097	0.194
-123.224	800.000	0.103	0.414
-122.210	-200.000	-0.054	0.285
-121.195	-104.182	-0.193	-0.044
