DTS Sentinel unit serial number:	SN413079Multiplexer serial number:	ORYXHardware model number:	OX4-SRSoftware version number:	ORYX F/W v4.00 Oryx Data Collector v3.7.2.0data status	okinstallation	princeton_trtdifferential loss correction	single-endedforward channel	channel 3reverse channel	N/Adate	2019/09/13time	08:44:35forward acquisition time	60.00reverse acquisition time	0.00gamma	496.2192k internal	0.2331k external	0.2331temperature offset calibration	1.0133default loss term (dB/km)	0.3790temperature slope calibration	1.0000multiplexer offset coefficient	1.0000multiplexer slope coefficient	1.0000fibre end	0.00T internal ref (°C)	27.94T ext. ref 1 (°C)	4.32T ext. ref 2 (°C)	24.78length (m)	temperature (°C)	Stokes	anti-Stokes-747.200	27.058	0.145	-0.122
-746.185	222.822	-0.116	0.188
-745.171	-200.000	-0.005	0.123
-744.156	24.343	-0.114	-0.095
-743.142	-200.000	0.010	-0.258
-742.127	240.844	0.104	-0.175
-741.112	-200.000	-0.033	-0.344
-740.098	680.130	0.138	-0.361
-739.083	163.245	-0.259	0.366
-738.069	800.000	-0.084	0.259
-737.054	408.173	-0.093	-0.197
-736.039	-99.926	-0.168	0.042
-735.025	-51.565	0.085	0.040
-734.010	108.923	0.298	-0.359
-732.996	59.586	-0.179	-0.178
-731.981	-200.000	-0.020	0.142
-730.966	-200.000	-0.001	0.129
-729.952	-11.298	0.229	-0.152
-728.937	409.494	-0.209	-0.445
-727.923	-2.578	-0.120	-0.084
-726.908	458.831	0.096	0.215
-725.894	617.581	0.093	-0.236
-724.879	800.000	-0.038	-0.119
-723.864	800.000	-0.050	0.209
-722.850	236.428	-0.116	-0.194
-721.835	57.707	-0.177	0.174
-720.821	-154.726	0.256	0.017
-719.806	630.056	0.141	-0.359
-718.791	-68.388	-0.220	-0.086
-717.777	1.297	-0.128	-0.092
-716.762	800.000	-0.046	-0.159
-715.748	-75.219	-0.175	-0.063
-714.733	-162.459	0.208	-0.010
-713.718	800.000	0.053	0.178
-712.704	-100.058	-0.376	0.094
-711.689	800.000	0.062	0.205
-710.675	52.950	0.014	0.014
-709.660	50.916	-0.104	-0.099
-708.645	653.768	0.050	0.128
-707.631	-91.142	-0.065	0.019
-706.616	-24.027	-0.269	0.162
-705.602	800.000	-0.074	-0.232
-704.587	-200.000	-0.048	-0.383
-703.572	-200.000	0.037	0.273
-702.558	-200.000	0.028	-0.231
-701.543	-11.442	0.128	0.085
-700.529	-13.115	-0.127	-0.083
-699.514	48.051	-0.065	0.061
-698.499	384.639	0.115	-0.238
-697.485	-31.091	0.254	-0.144
-696.470	157.170	-0.189	-0.262
-695.456	305.076	0.172	-0.321
-694.441	18.641	0.211	-0.169
-693.426	-110.684	-0.158	0.033
-692.412	-123.532	0.151	-0.024
-691.397	-120.973	-0.039	-0.007
-690.383	-123.855	0.206	-0.033
-689.368	161.097	-0.054	-0.076
-688.354	-186.495	0.217	0.003
-687.339	-33.875	-0.266	-0.147
-686.324	111.933	0.071	0.086
-685.310	800.000	-0.114	-0.383
-684.295	382.500	0.096	-0.198
-683.281	93.329	0.138	-0.157
-682.266	-120.964	-0.180	-0.030
-681.251	-125.509	-0.034	0.005
-680.237	-160.551	0.199	0.011
-679.222	-200.000	-0.002	0.077
-678.208	-172.789	0.142	-0.004
-677.193	800.000	-0.032	0.095
-676.178	-200.000	-0.011	-0.265
-675.164	124.369	0.149	-0.188
-674.149	545.686	-0.170	-0.408
-673.135	138.079	0.128	-0.168
-672.120	800.000	0.040	-0.127
-671.105	-200.000	0.030	-0.181
-670.091	49.768	-0.209	-0.198
-669.076	199.563	0.095	-0.146
-668.062	545.198	0.095	-0.227
-667.047	145.849	-0.247	-0.333
-666.032	-70.515	0.297	0.113
-665.018	-74.420	-0.466	-0.169
-664.003	-200.000	0.004	-0.108
-662.989	-200.000	0.032	0.181
-661.974	-122.629	-0.146	-0.024
-660.959	-67.226	0.384	-0.152
-659.945	339.064	-0.195	-0.381
-658.930	-178.514	0.222	-0.005
-657.916	152.714	0.123	-0.168
-656.901	399.459	0.046	-0.097
-655.886	-148.025	0.411	-0.034
-654.872	51.905	-0.182	-0.174
-653.857	159.894	-0.170	0.237
-652.843	-66.672	-0.083	-0.033
-651.828	182.130	-0.189	-0.280
-650.814	40.683	-0.032	0.029
-649.799	72.984	-0.092	-0.096
-648.784	31.858	-0.154	0.133
-647.770	116.001	0.041	-0.050
-646.755	-200.000	-0.045	-0.384
-645.741	-106.805	-0.011	-0.003
-644.726	-103.817	-0.124	-0.029
-643.711	-200.000	0.001	0.313
-642.697	-200.000	0.002	-0.359
-641.682	733.030	0.042	0.113
-640.668	28.150	0.208	0.176
-639.653	227.908	0.360	0.587
-638.638	-115.386	0.044	-0.008
-637.624	-200.000	0.000	-0.571
-636.609	-50.616	-0.109	-0.051
-635.595	-61.395	-0.242	-0.102
-634.580	-56.846	-0.146	0.065
-633.565	-200.000	0.055	0.267
-632.551	-66.506	-0.174	0.069
-631.536	204.056	0.078	0.121
-630.522	525.534	0.137	-0.322
-629.507	284.497	0.199	-0.360
-628.492	-121.490	-0.084	0.014
-627.478	-40.081	-0.009	-0.005
-626.463	-97.831	0.260	0.067
-625.449	-59.572	-0.419	-0.180
-624.434	666.562	-0.031	0.079
-623.419	-88.876	-0.358	-0.106
-622.405	-200.000	0.002	-0.271
-621.390	-32.652	0.124	-0.069
-620.376	-15.060	0.114	0.073
-619.361	-94.713	-0.102	-0.028
-618.346	574.522	-0.055	0.134
-617.332	-68.279	0.116	0.045
-616.317	-142.099	0.225	0.022
-615.303	-84.497	0.273	-0.086
-614.288	220.379	0.049	0.078
-613.273	-19.246	-0.243	-0.151
-612.259	154.821	0.068	-0.094
-611.244	-67.417	0.258	0.102
-610.230	-200.000	-0.010	-0.332
-609.215	477.223	-0.003	0.007
-608.201	-191.040	-0.303	0.003
-607.186	-88.806	0.293	-0.087
-606.171	618.711	-0.048	0.121
-605.157	-71.581	-0.147	-0.055
-604.142	-75.257	0.340	-0.121
-603.128	272.498	0.061	-0.107
-602.113	-32.897	0.081	0.045
-601.098	231.260	0.084	0.137
-600.084	24.207	-0.163	0.135
-599.069	-71.290	-0.227	0.085
-598.055	-200.000	-0.003	0.324
-597.040	138.517	-0.066	0.087
-596.025	-200.000	-0.002	-0.129
-595.011	288.360	0.096	-0.173
-593.996	195.161	-0.183	0.278
-592.982	-133.245	-0.228	-0.029
-591.967	428.386	0.073	-0.158
-590.952	-7.316	-0.281	-0.191
-589.938	-148.737	0.187	0.015
-588.923	356.354	-0.142	-0.282
-587.909	800.000	0.064	0.188
-586.894	-200.000	-0.037	-0.349
-585.879	-200.000	-0.049	-0.247
-584.865	88.071	-0.056	0.063
-583.850	-200.000	-0.069	0.394
-582.836	-156.240	-0.111	-0.007
-581.821	112.591	0.086	0.104
-580.806	-200.000	0.006	-0.143
-579.792	-94.698	0.092	0.025
-578.777	-85.489	-0.253	0.079
-577.763	-2.841	-0.140	-0.098
-576.748	-84.545	-0.101	0.032
-575.733	139.991	-0.229	-0.301
-574.719	-114.074	-0.084	0.016
-573.704	-29.617	-0.352	0.201
-572.690	150.921	0.153	-0.208
-571.675	-25.399	-0.293	-0.173
-570.661	-200.000	-0.006	0.092
-569.646	-116.402	-0.218	0.040
-568.631	800.000	-0.072	0.253
-567.617	800.000	-0.056	0.206
-566.602	686.114	-0.082	-0.215
-565.588	21.728	0.168	-0.137
-564.573	41.271	0.207	0.187
-563.558	38.254	0.335	0.298
-562.544	51.034	0.234	0.222
-561.529	718.187	0.086	-0.228
-560.515	130.082	0.101	-0.129
-559.500	31.419	-0.148	0.127
-558.485	-200.000	-0.034	-0.371
-557.471	69.601	-0.176	-0.181
-556.456	78.151	0.081	0.087
-555.442	-37.153	0.114	-0.061
-554.427	-200.000	0.000	0.114
-553.412	-124.409	-0.293	0.046
-552.398	291.302	-0.132	0.240
-551.383	-39.110	-0.145	-0.076
-550.369	800.000	-0.017	-0.060
-549.354	800.000	0.047	-0.162
-548.339	-65.465	0.260	0.105
-547.325	9.884	-0.202	0.153
-546.310	-200.000	0.067	0.328
-545.296	22.475	-0.078	0.064
-544.281	800.000	-0.073	0.221
-543.266	741.631	0.075	0.201
-542.252	730.207	-0.088	-0.235
-541.237	-71.413	-0.153	0.057
-540.223	387.457	0.119	0.245
-539.208	78.083	-0.196	0.209
-538.193	-28.936	-0.158	-0.091
-537.179	-5.653	-0.314	0.215
-536.164	248.844	-0.160	-0.271
-535.150	-200.000	0.027	-0.147
-534.135	-200.000	0.007	-0.074
-533.121	6.661	0.205	-0.152
-532.106	65.664	-0.195	0.197
-531.091	-12.773	0.153	0.100
-530.077	-66.588	-0.358	-0.142
-529.062	-149.627	-0.091	0.007
-528.048	-119.026	0.049	-0.009
-527.033	-21.710	0.205	-0.125
-526.018	334.389	0.102	-0.196
-525.004	655.528	-0.092	-0.235
-523.989	442.335	-0.099	-0.217
-522.975	-200.000	0.035	0.425
-521.960	-41.615	0.153	0.078
-520.945	45.028	-0.062	0.057
-519.931	305.871	-0.033	-0.060
-518.916	146.714	0.214	0.287
-517.902	-200.000	0.002	0.147
-516.887	800.000	-0.097	0.277
-515.872	-93.924	0.145	-0.040
-514.858	-30.539	-0.156	-0.088
-513.843	-95.536	-0.320	-0.086
-512.829	10.666	-0.038	-0.029
-511.814	133.218	-0.048	0.062
-510.799	-197.299	-0.088	-0.001
-509.785	110.769	-0.106	-0.127
-508.770	244.617	-0.132	0.221
-507.756	-25.181	-0.067	0.039
-506.741	-200.000	-0.028	-0.181
-505.726	-147.746	-0.025	-0.002
-504.712	-118.070	-0.206	0.037
-503.697	-10.744	-0.113	-0.075
-502.683	-27.209	0.275	0.160
-501.668	-48.540	0.156	-0.075
-500.653	-200.000	0.016	-0.407
-499.639	46.449	-0.180	-0.167
-498.624	-153.935	0.425	-0.029
-497.610	-200.000	-0.046	0.391
-496.595	-179.255	-0.226	-0.005
-495.581	272.784	-0.062	-0.108
-494.566	-70.217	0.209	-0.079
-493.551	-70.169	0.355	-0.134
-492.537	351.836	0.100	-0.197
-491.522	-114.466	-0.269	-0.052
-490.508	-115.116	0.047	-0.009
-489.493	-88.251	0.172	0.051
-488.478	138.189	0.154	0.201
-487.464	92.160	-0.164	0.184
-486.449	-78.422	0.240	0.082
-485.435	519.804	0.059	-0.137
-484.420	130.162	-0.020	-0.026
-483.405	-200.000	0.037	0.251
-482.391	-86.744	-0.442	-0.135
-481.376	284.890	-0.040	-0.072
-480.362	480.484	-0.032	0.071
-479.347	-200.000	-0.511	0.000
-478.332	-50.152	0.046	0.022
-477.318	-52.976	0.313	-0.143
-476.303	800.000	0.026	0.110
-475.289	73.637	0.083	0.087
-474.274	20.617	0.172	-0.139
-473.259	-163.161	0.136	-0.007
-472.245	-43.822	-0.140	0.070
-471.230	-46.068	0.261	-0.128
-470.216	-102.515	0.135	-0.032
-469.201	663.008	0.105	-0.270
-468.186	-146.618	0.145	0.012
-467.172	-73.905	-0.392	-0.142
-466.157	88.715	0.074	-0.082
-465.143	-161.471	0.298	-0.015
-464.128	800.000	0.053	-0.155
-463.113	-183.237	0.305	-0.005
-462.099	-200.000	-0.018	-0.451
-461.084	-4.886	0.290	-0.199
-460.070	132.891	0.284	-0.365
-459.055	143.119	0.214	-0.284
-458.040	-200.000	-0.005	-0.289
-457.026	-184.645	0.250	0.004
-456.011	-152.899	0.277	0.019
-454.997	-24.028	0.102	-0.060
-453.982	-200.000	-0.004	0.059
-452.968	304.538	-0.142	-0.263
-451.953	-200.000	-0.026	0.145
-450.938	190.592	-0.165	0.247
-449.924	119.768	0.082	0.101
-448.909	11.837	0.267	0.204
-447.895	-35.796	-0.405	0.218
-446.880	-71.259	-0.296	0.110
-445.865	-119.730	0.258	0.044
-444.851	147.617	-0.117	-0.156
-443.836	-40.874	0.188	-0.097
-442.822	-200.000	-0.029	0.310
-441.807	-29.293	0.351	0.200
-440.792	146.454	0.164	-0.220
-439.778	-36.272	0.084	0.045
-438.763	-2.681	0.021	-0.015
-437.749	-2.056	0.119	-0.083
-436.734	-81.029	-0.198	0.065
-435.719	3.011	0.055	0.040
-434.705	-43.979	-0.170	0.085
-433.690	-16.263	0.188	0.119
-432.676	-180.510	0.274	0.006
-431.661	536.477	-0.083	-0.195
-430.646	-160.856	-0.308	-0.016
-429.632	-53.679	0.150	0.068
-428.617	-200.000	0.020	0.272
-427.603	-139.634	0.209	0.022
-426.588	-200.000	-0.030	0.152
-425.573	655.616	0.031	-0.080
-424.559	57.603	-0.143	0.139
-423.544	154.234	-0.062	-0.084
-422.530	-140.977	-0.377	-0.038
-421.515	-118.110	0.242	-0.043
-420.500	-130.443	0.147	0.020
-419.486	-200.000	0.015	-0.119
-418.471	-200.000	-0.009	-0.174
-417.457	-112.469	0.243	-0.048
-416.442	-46.968	-0.159	0.077
-415.428	374.732	-0.045	0.090
-414.413	128.293	-0.200	-0.253
-413.398	76.893	0.207	-0.219
-412.384	-58.664	-0.164	-0.071
-411.369	-200.000	-0.087	0.422
-410.355	-40.176	0.129	-0.067
-409.340	800.000	-0.110	0.432
-408.325	-200.000	-0.038	-0.207
-407.311	-159.963	-0.267	-0.014
-406.296	-89.569	-0.190	-0.055
-405.282	-154.962	0.106	-0.007
-404.267	27.749	0.279	0.234
-403.252	93.290	-0.191	-0.214
-402.238	-98.303	-0.222	-0.057
-401.223	81.024	0.139	0.148
-400.209	271.770	-0.193	-0.338
-399.194	-157.351	0.384	0.023
-398.179	-105.688	-0.073	-0.016
-397.165	440.433	-0.073	-0.158
-396.150	-105.418	-0.154	0.035
-395.136	800.000	0.013	-0.038
-394.121	48.499	0.163	-0.151
-393.106	175.238	-0.174	-0.250
-392.092	-83.635	-0.231	0.073
-391.077	800.000	-0.044	-0.148
-390.063	800.000	0.044	-0.129
-389.048	800.000	-0.077	0.216
-388.033	-129.463	-0.150	0.021
-387.019	137.631	-0.104	0.135
-386.004	236.518	-0.063	-0.104
-384.990	498.040	-0.074	-0.168
-383.975	23.956	-0.346	0.283
-382.960	800.000	0.046	-0.142
-381.946	518.867	-0.102	0.237
-380.931	-200.000	0.008	0.097
-379.917	101.171	-0.149	-0.172
-378.902	-66.999	-0.257	-0.101
-377.888	636.081	-0.072	0.180
-376.873	-13.965	0.155	-0.099
-375.858	-13.196	-0.051	-0.033
-374.844	-132.816	-0.183	0.023
-373.829	99.076	-0.191	0.219
-372.815	393.891	-0.040	-0.083
-371.800	-65.275	0.280	0.112
-370.785	17.347	-0.192	0.152
-369.771	-177.930	-0.250	-0.006
-368.756	-61.057	-0.115	-0.048
-367.742	-136.274	-0.093	-0.011
-366.727	-82.408	-0.115	-0.037
-365.712	-200.000	-0.324	-0.001
-364.698	-200.000	0.002	0.385
-363.683	-51.221	-0.145	0.067
-362.669	632.985	0.088	-0.221
-361.654	-69.198	0.187	0.071
-360.639	3.150	-0.175	-0.126
-359.625	-80.129	-0.109	-0.036
-358.610	800.000	-0.027	-0.111
-357.596	-12.042	0.280	-0.182
-356.581	800.000	-0.037	-0.104
-355.566	-129.076	0.203	-0.028
-354.552	-200.000	0.037	-0.173
-353.537	29.589	0.187	0.158
-352.523	-43.469	0.159	-0.080
-351.508	-61.179	-0.205	0.086
-350.493	-95.012	0.155	-0.041
-349.479	-200.000	0.008	-0.425
-348.464	800.000	-0.081	-0.226
-347.450	800.000	-0.047	-0.171
-346.435	-133.817	-0.056	-0.007
-345.420	348.949	0.138	-0.271
-344.406	126.303	-0.251	-0.314
-343.391	-114.760	0.422	-0.080
-342.377	295.892	0.068	0.124
-341.362	33.089	0.206	-0.177
-340.348	30.491	-0.104	-0.088
-339.333	532.832	0.082	-0.193
-338.318	-200.000	0.440	0.001
-337.304	-200.000	0.135	0.000
-336.289	-134.642	-0.257	0.031
-335.275	800.000	-0.059	0.183
-334.260	513.098	-0.128	0.296
-333.245	-200.000	0.070	0.323
-332.231	-102.580	-0.208	-0.049
-331.216	154.223	0.162	0.221
-330.202	-200.000	-0.005	0.058
-329.187	62.484	0.107	-0.106
-328.172	-94.107	-0.240	-0.065
-327.158	-26.313	0.186	-0.108
-326.143	72.237	-0.093	-0.096
-325.129	153.235	0.156	-0.211
-324.114	-200.000	-0.069	-0.406
-323.099	365.752	-0.149	0.297
-322.085	511.489	0.072	0.166
-321.070	14.125	0.245	-0.189
-320.056	800.000	-0.024	0.090
-319.041	-200.000	0.040	0.205
-318.026	-39.461	-0.132	0.068
-317.012	7.333	-0.413	0.306
-315.997	91.840	0.230	-0.257
-314.983	360.159	0.113	0.223
-313.968	66.058	-0.114	0.114
-312.953	-136.539	0.522	0.060
-311.939	-200.000	-0.017	-0.149
-310.924	-72.035	0.157	-0.058
-309.910	141.178	-0.135	0.177
-308.895	251.996	-0.056	0.095
-307.880	106.586	0.117	0.137
-306.866	99.772	-0.158	-0.181
-305.851	-67.990	0.270	-0.104
-304.837	-92.346	0.149	-0.042
-303.822	175.741	0.075	0.108
-302.807	-129.204	-0.250	-0.035
-301.793	-200.000	0.041	0.225
-300.778	257.643	0.138	-0.235
-299.764	-200.000	0.020	0.140
-298.749	247.073	-0.133	0.222
-297.735	252.311	0.033	0.055
-296.720	-16.233	-0.442	0.278
-295.705	60.548	-0.187	0.183
-294.691	127.552	0.047	0.058
-293.676	161.740	-0.104	-0.143
-292.662	-132.687	0.251	-0.032
-291.647	3.676	-0.214	-0.155
-290.632	-54.629	-0.102	-0.046
-289.618	136.625	0.136	0.176
-288.603	168.959	-0.078	0.109
-287.589	800.000	0.094	0.292
-286.574	-33.941	0.202	0.110
-285.559	-200.000	0.004	-0.140
-284.545	-76.154	0.119	0.041
-283.530	79.057	0.218	0.230
-282.516	713.848	-0.087	0.229
-281.501	800.000	0.078	0.335
-280.486	298.838	-0.176	-0.320
-279.472	-149.283	-0.228	0.018
-278.457	81.651	-0.074	0.079
-277.443	-82.342	0.241	-0.077
-276.428	359.940	0.029	0.057
-275.413	503.110	-0.118	-0.271
-274.399	-200.000	-0.022	-0.120
-273.384	800.000	-0.076	0.261
-272.370	-168.706	-0.333	0.012
-271.355	401.383	0.101	-0.209
-270.340	-142.848	-0.546	0.052
-269.326	30.410	0.127	-0.107
-268.311	-200.000	0.021	-0.401
-267.297	9.044	0.238	0.178
-266.282	106.660	0.174	0.204
-265.267	-77.689	0.350	-0.120
-264.253	-4.019	0.344	-0.236
-263.238	800.000	-0.028	0.089
-262.224	55.034	-0.322	0.307
-261.209	-131.985	0.129	-0.017
-260.195	-200.000	0.032	-0.349
-259.180	800.000	0.079	0.261
-258.165	800.000	-0.102	0.424
-257.151	-75.963	-0.153	0.054
-256.136	-200.000	-0.047	-0.217
-255.122	14.759	0.085	-0.066
-254.107	-17.919	-0.196	-0.122
-253.092	-5.170	0.213	0.145
-252.078	-125.738	0.223	0.033
-251.063	-142.482	0.133	-0.013
-250.049	-200.000	0.006	-0.078
-249.034	16.233	-0.247	-0.192
-248.019	-2.311	0.128	0.089
-247.005	-103.173	0.291	-0.068
-245.990	-96.287	0.177	-0.046
-244.976	-9.617	-0.228	-0.150
-243.961	368.813	0.102	0.204
-242.946	-70.751	-0.199	-0.074
-241.932	341.786	0.062	0.120
-240.917	57.318	-0.054	-0.052
-239.903	-78.943	0.369	0.124
-238.888	-7.458	0.151	-0.101
-237.873	23.385	-0.166	0.135
-236.859	-75.172	-0.186	0.066
-235.844	152.656	0.028	0.038
-234.830	-135.665	0.196	-0.023
-233.815	747.618	0.053	0.141
-232.800	-125.217	-0.236	0.036
-231.786	-24.795	-0.327	0.191
-230.771	-56.649	0.300	0.131
-229.757	800.000	0.020	0.066
-228.742	-99.230	0.194	0.048
-227.727	-118.511	0.224	-0.039
-226.713	-200.000	0.075	0.000
-225.698	-5.149	0.132	-0.089
-224.684	53.710	0.293	0.277
-223.669	-90.034	-0.172	-0.050
-222.655	-88.917	-0.124	0.036
-221.640	-18.411	0.207	-0.127
-220.625	-61.211	-0.262	0.109
-219.611	46.208	0.048	-0.043
-218.596	-145.499	0.063	-0.006
-217.582	-200.000	0.042	0.204
-216.567	-12.586	0.214	-0.138
-215.552	-100.539	-0.300	-0.073
-214.538	-47.981	0.156	-0.074
-213.523	276.073	0.029	-0.051
-212.509	216.495	0.015	0.023
-211.494	-78.240	0.161	0.055
-210.479	-193.944	-0.320	-0.003
-209.465	-121.621	0.254	-0.042
-208.450	-183.231	0.109	-0.002
-207.436	-200.000	-0.056	-0.262
-206.421	63.716	-0.166	-0.164
-205.406	800.000	0.100	-0.337
-204.392	-112.344	-0.136	-0.027
-203.377	-199.951	0.241	-0.001
-202.363	800.000	-0.070	0.252
-201.348	800.000	0.103	-0.322
-200.333	287.590	0.097	-0.173
-199.319	-173.296	0.252	-0.008
-198.304	20.236	-0.051	0.040
-197.290	-193.177	0.255	0.002
-196.275	-155.158	-0.164	0.011
-195.260	297.689	-0.054	-0.098
-194.246	144.236	0.075	0.099
-193.231	291.067	0.048	0.086
-192.217	-91.969	0.207	0.058
-191.202	694.531	0.180	0.466
-190.187	68.895	0.079	0.080
-189.173	-3.241	-0.056	0.038
-188.158	800.000	0.032	-0.104
-187.144	103.229	-0.013	-0.015
-186.129	-101.040	-0.152	0.037
-185.114	159.089	0.129	-0.177
-184.100	304.567	0.026	0.047
-183.085	206.044	-0.221	0.339
-182.071	40.357	0.120	-0.107
-181.056	-33.784	0.134	0.073
-180.042	97.930	-0.360	0.408
-179.027	31.380	0.147	-0.124
-178.012	180.459	-0.045	0.065
-176.998	169.130	0.121	0.171
-175.983	97.430	-0.117	-0.132
-174.969	721.698	-0.065	-0.171
-173.954	-16.872	-0.188	-0.117
-172.939	-63.147	-0.296	0.120
-171.925	-82.313	-0.268	-0.086
-170.910	751.980	-0.087	0.230
-169.896	800.000	0.100	-0.406
-168.881	82.935	0.121	0.129
-167.866	-139.880	-0.160	0.017
-166.852	-132.476	0.156	-0.020
-165.837	-122.552	-0.230	-0.037
-164.823	145.270	0.196	0.258
-163.808	-200.000	0.024	0.245
-162.793	-105.157	0.095	0.021
-161.779	3.979	0.258	-0.186
-160.764	-112.741	0.135	0.026
-159.750	-89.601	0.317	0.092
-158.735	-168.299	0.324	-0.012
-157.720	-21.927	-0.128	0.076
-156.706	-200.000	-0.064	0.290
-155.691	-63.310	-0.409	0.166
-154.677	-76.931	-0.275	0.095
-153.662	-200.000	-0.063	0.276
-152.647	800.000	0.056	0.200
-151.633	800.000	0.087	-0.297
-150.618	800.000	-0.085	0.243
-149.604	151.366	0.131	0.176
-148.589	-200.000	-0.033	0.203
-147.574	496.134	-0.117	-0.263
-146.560	-87.783	0.009	-0.003
-145.545	800.000	0.117	-0.352
-144.531	-108.440	0.209	-0.044
-143.516	270.681	-0.075	0.130
-142.502	615.613	0.182	0.449
-141.487	-200.000	-0.051	-0.266
-140.472	116.958	-0.139	-0.167
-139.458	-89.239	0.271	-0.079
-138.443	52.889	0.188	-0.176
-137.429	-136.389	-0.395	-0.045
-136.414	289.185	0.066	0.118
-135.399	-180.027	-0.126	-0.003
-134.385	122.020	-0.135	0.166
-133.370	-200.000	-0.020	0.343
-132.356	-75.387	-0.537	0.188
-131.341	552.139	0.066	0.155
-130.326	161.871	0.134	-0.185
-129.312	-64.358	-0.120	0.048
-128.297	-39.083	-0.096	0.050
-127.283	800.000	0.083	0.294
-126.268	800.000	0.055	-0.228
-125.253	-200.000	-0.057	-0.385
-124.239	117.492	0.086	0.104
-123.224	-51.043	-0.067	0.031
-122.210	800.000	-0.080	0.244
