DTS Sentinel unit serial number:	SN413079Multiplexer serial number:	ORYXHardware model number:	OX4-SRSoftware version number:	ORYX F/W v4.00 Oryx Data Collector v3.7.2.0data status	okinstallation	princeton_trtdifferential loss correction	single-endedforward channel	channel 3reverse channel	N/Adate	2019/09/11time	09:50:11forward acquisition time	60.00reverse acquisition time	0.00gamma	496.2192k internal	0.2302k external	0.2302temperature offset calibration	0.9940default loss term (dB/km)	0.3790temperature slope calibration	1.0000multiplexer offset coefficient	1.0000multiplexer slope coefficient	1.0000fibre end	0.00T internal ref (°C)	35.05T ext. ref 1 (°C)	0.16T ext. ref 2 (°C)	32.19length (m)	temperature (°C)	Stokes	anti-Stokes-747.200	-54.775	0.375	0.173
-746.185	136.311	-0.162	0.216
-745.171	110.536	0.062	0.076
-744.156	-87.786	0.301	0.092
-743.142	397.617	0.110	0.234
-742.127	-49.931	-0.170	0.082
-741.112	-145.200	0.170	-0.016
-740.098	67.128	0.191	0.199
-739.083	-58.211	0.303	-0.134
-738.069	190.146	-0.122	0.187
-737.054	-81.797	0.110	-0.037
-736.039	-82.027	-0.183	0.061
-735.025	-200.000	0.028	0.346
-734.010	-43.473	-0.319	0.164
-732.996	45.984	-0.206	-0.194
-731.981	-9.094	0.060	0.041
-730.966	-146.659	-0.375	0.033
-729.952	339.578	-0.174	-0.346
-728.937	800.000	0.084	-0.266
-727.923	520.383	-0.077	0.184
-726.908	316.318	-0.059	-0.113
-725.894	-177.957	-0.276	-0.007
-724.879	6.555	0.490	-0.371
-723.864	122.908	0.163	-0.208
-722.850	-98.787	0.375	-0.097
-721.835	-200.000	0.023	-0.538
-720.821	-200.000	-0.008	-0.078
-719.806	591.277	-0.041	-0.102
-718.791	-200.000	-0.030	-0.182
-717.777	-141.487	-0.341	0.035
-716.762	-5.068	-0.317	0.222
-715.748	800.000	-0.131	-0.391
-714.733	-63.336	-0.261	-0.109
-713.718	230.602	-0.103	-0.171
-712.704	89.196	-0.073	-0.083
-711.689	-200.000	0.028	0.150
-710.675	340.733	0.116	0.230
-709.660	-152.965	-0.221	0.016
-708.645	190.937	0.131	0.200
-707.631	30.251	0.036	-0.031
-706.616	-49.008	-0.323	-0.157
-705.602	800.000	0.048	0.162
-704.587	123.013	-0.290	0.369
-703.572	7.635	0.329	0.250
-702.558	318.907	-0.119	0.229
-701.543	146.593	0.091	0.125
-700.529	130.723	-0.332	0.433
-699.514	38.881	-0.006	-0.005
-698.499	800.000	-0.030	-0.122
-697.485	-95.453	0.057	-0.016
-696.470	-68.360	0.486	-0.192
-695.456	147.756	-0.176	-0.241
-694.441	-200.000	0.015	0.099
-693.426	800.000	-0.092	-0.269
-692.412	-87.195	-0.319	0.099
-691.397	-102.377	-0.291	-0.071
-690.383	-150.650	0.582	0.045
-689.368	-200.000	-0.024	-0.198
-688.354	-200.000	0.032	0.176
-687.339	387.155	0.159	0.334
-686.324	74.443	0.075	0.081
-685.310	-44.769	0.221	0.112
-684.295	90.721	-0.234	0.267
-683.281	-200.000	-0.025	-0.205
-682.266	-200.000	0.024	-0.330
-681.251	158.303	-0.104	0.146
-680.237	-200.000	-0.005	-0.087
-679.222	519.838	0.061	0.145
-678.208	696.089	-0.093	0.247
-677.193	-32.827	0.067	-0.038
-676.178	-61.985	-0.302	-0.128
-675.164	213.600	-0.176	-0.282
-674.149	87.996	0.122	-0.137
-673.135	341.271	0.256	-0.508
-672.120	-63.205	0.212	-0.089
-671.105	-45.644	-0.129	-0.065
-670.091	800.000	-0.008	0.035
-669.076	154.156	0.037	-0.052
-668.062	-152.638	0.045	0.003
-667.047	91.017	-0.171	-0.195
-666.032	-200.000	-0.002	0.272
-665.018	-98.487	-0.093	0.024
-664.003	-184.636	0.227	-0.004
-662.989	-90.704	0.118	-0.035
-661.974	-13.811	-0.293	-0.192
-660.959	800.000	-0.108	-0.355
-659.945	103.392	0.174	0.207
-658.930	-54.277	0.112	-0.052
-657.916	121.472	-0.135	-0.171
-656.901	159.497	0.122	0.173
-655.886	203.426	0.117	-0.184
-654.872	800.000	-0.011	0.036
-653.857	41.098	0.115	-0.105
-652.843	-45.651	0.199	-0.100
-651.828	161.909	-0.057	0.081
-650.814	255.414	0.076	-0.132
-649.799	-78.810	-0.205	-0.071
-648.784	450.926	-0.208	-0.465
-647.770	2.229	0.090	-0.066
-646.755	800.000	0.090	0.333
-645.741	-51.127	-0.224	-0.106
-644.726	468.639	0.125	-0.284
-643.711	-81.727	0.233	0.077
-642.697	226.235	-0.144	-0.236
-641.682	-1.227	-0.113	0.081
-640.668	724.148	0.074	-0.201
-639.653	-200.000	-0.011	-0.070
-638.638	117.577	0.043	-0.054
-637.624	-90.922	-0.110	-0.032
-636.609	-117.719	-0.149	0.027
-635.595	-200.000	0.006	0.102
-634.580	-93.483	0.192	-0.054
-633.565	152.112	-0.100	-0.139
-632.551	-161.400	0.138	0.007
-631.536	87.316	0.103	0.116
-630.522	-69.732	0.095	-0.037
-629.507	161.024	-0.103	-0.146
-628.492	286.364	0.097	-0.177
-627.478	-200.000	0.062	-0.377
-626.463	28.243	0.045	-0.038
-625.449	96.598	-0.169	0.197
-624.434	50.176	0.166	0.159
-623.419	-200.000	0.025	0.200
-622.405	417.718	-0.105	-0.227
-621.390	-84.005	0.231	0.074
-620.376	-50.258	-0.088	-0.042
-619.361	35.200	0.164	-0.146
-618.346	99.378	0.154	0.181
-617.332	507.363	0.029	-0.068
-616.317	54.273	-0.096	-0.094
-615.303	27.372	0.158	-0.134
-614.288	306.711	-0.015	0.029
-613.273	-105.661	0.222	0.051
-612.259	-200.000	-0.000	-0.236
-611.244	-200.000	-0.005	0.066
-610.230	-162.055	-0.069	0.004
-609.215	800.000	-0.057	0.243
-608.201	38.524	0.087	0.079
-607.186	-4.364	-0.480	-0.336
-606.171	548.970	0.017	-0.040
-605.157	0.593	-0.243	0.176
-604.142	800.000	-0.117	0.351
-603.128	136.996	-0.073	0.097
-602.113	800.000	-0.091	0.296
-601.098	-200.000	-0.010	0.202
-600.084	-18.444	0.161	0.102
-599.069	-200.000	0.013	-0.232
-598.055	83.409	-0.159	-0.176
-597.040	30.032	0.105	-0.091
-596.025	-107.844	-0.032	0.007
-595.011	59.239	0.122	-0.122
-593.996	352.128	0.139	-0.279
-592.982	367.804	0.085	0.175
-591.967	800.000	-0.096	-0.310
-590.952	-60.759	-0.229	0.098
-589.938	-61.198	0.098	-0.042
-588.923	269.407	0.045	0.080
-587.909	-59.364	-0.384	-0.167
-586.894	800.000	0.069	-0.281
-585.879	-200.000	0.059	-0.376
-584.865	358.851	0.011	0.022
-583.850	-80.266	-0.267	-0.091
-582.836	53.128	0.127	0.123
-581.821	-200.000	-0.016	0.110
-580.806	-200.000	0.056	0.330
-579.792	-136.972	-0.481	0.056
-578.777	-132.534	-0.133	0.017
-577.763	-106.023	0.297	0.068
-576.748	381.600	-0.091	0.189
-575.733	382.213	-0.114	-0.238
-574.719	-200.000	-0.032	0.154
-573.704	447.050	-0.055	0.122
-572.690	-200.000	0.025	0.149
-571.675	265.892	0.072	0.126
-570.661	420.826	0.084	-0.182
-569.646	174.730	0.055	0.080
-568.631	-200.000	-0.070	0.457
-567.617	-105.752	-0.169	-0.039
-566.602	146.954	0.223	-0.303
-565.588	-200.000	0.002	-0.170
-564.573	20.373	0.099	0.081
-563.558	-67.548	0.346	-0.137
-562.544	-131.030	0.109	0.015
-561.529	-48.163	-0.086	-0.042
-560.515	520.029	-0.018	0.043
-559.500	37.053	-0.221	0.198
-558.485	122.232	0.183	-0.231
-557.471	-108.355	-0.132	0.029
-556.456	223.274	0.038	-0.062
-555.442	-64.251	0.275	0.113
-554.427	62.529	0.111	-0.112
-553.412	800.000	0.041	-0.123
-552.398	-75.845	-0.117	-0.042
-551.383	-84.647	0.211	-0.067
-550.369	95.189	0.218	0.251
-549.354	-133.806	-0.145	0.018
-548.339	-140.331	-0.253	-0.027
-547.325	-200.000	-0.006	0.115
-546.310	-78.723	0.280	-0.097
-545.296	369.822	0.107	0.219
-544.281	-62.184	0.295	0.124
-543.266	88.049	-0.151	-0.169
-542.252	87.199	-0.032	-0.035
-541.237	-93.339	-0.168	0.047
-540.223	-64.063	-0.270	-0.111
-539.208	297.818	0.079	0.146
-538.193	-48.764	0.081	0.039
-537.179	-28.364	-0.101	0.059
-536.164	-61.453	-0.193	0.082
-535.150	-200.000	0.006	-0.282
-534.135	-141.317	-0.043	0.004
-533.121	533.568	-0.115	-0.276
-532.106	-191.547	0.219	0.002
-531.091	-37.380	-0.236	0.127
-530.077	419.403	0.081	-0.175
-529.062	800.000	-0.032	0.119
-528.048	-96.251	0.483	-0.129
-527.033	320.364	0.039	-0.075
-526.018	498.747	-0.151	-0.353
-525.004	191.345	-0.136	0.208
-523.989	167.900	0.081	-0.117
-522.975	-200.000	0.010	-0.355
-521.960	567.428	-0.097	-0.239
-520.945	204.128	0.079	-0.123
-519.931	-47.699	0.213	-0.104
-518.916	-200.000	0.062	-0.000
-517.902	-200.000	-0.024	-0.162
-516.887	800.000	0.094	-0.306
-515.872	-104.247	-0.338	0.079
-514.858	-119.525	0.114	0.020
-513.843	140.070	0.199	-0.265
-512.829	65.580	0.182	0.186
-511.814	275.280	-0.183	0.328
-510.799	-200.000	-0.006	-0.455
-509.785	-150.979	0.222	0.017
-508.770	31.123	-0.127	-0.110
-507.756	-19.439	-0.079	-0.050
-506.741	178.085	-0.111	0.163
-505.726	62.257	0.097	0.098
-504.712	-98.571	-0.302	0.078
-503.697	-140.926	0.180	-0.019
-502.683	-200.000	-0.013	0.209
-501.668	-123.382	-0.198	-0.032
-500.653	150.823	-0.010	0.013
-499.639	-80.030	-0.384	0.130
-498.624	800.000	0.111	0.433
-497.610	-48.027	-0.128	0.062
-496.595	-139.345	0.272	0.030
-495.581	134.750	-0.178	0.233
-494.566	-121.795	0.052	-0.009
-493.551	142.621	-0.203	0.272
-492.537	-113.335	-0.207	-0.041
-491.522	117.475	0.313	-0.389
-490.508	-116.982	-0.030	0.005
-489.493	-171.238	-0.677	0.023
-488.478	233.568	0.143	0.237
-487.464	50.633	0.174	-0.166
-486.449	-200.000	-0.049	-0.231
-485.435	310.221	0.078	-0.148
-484.420	237.924	0.070	0.118
-483.405	-200.000	0.008	-0.069
-482.391	-200.000	-0.033	-0.282
-481.376	168.571	-0.056	0.081
-480.362	-18.473	-0.330	-0.208
-479.347	800.000	0.012	0.040
-478.332	-200.000	-0.047	0.289
-477.318	-200.000	0.000	-0.252
-476.303	-47.705	-0.043	-0.021
-475.289	-200.000	-0.003	0.101
-474.274	210.325	-0.033	0.052
-473.259	124.136	-0.096	-0.122
-472.245	-200.000	-0.004	-0.245
-471.230	298.275	0.085	-0.158
-470.216	800.000	0.045	-0.135
-469.201	-86.853	0.221	-0.068
-468.186	-81.241	-0.113	0.038
-467.172	179.913	-0.264	-0.390
-466.157	-200.000	0.002	-0.213
-465.143	800.000	-0.102	0.382
-464.128	-132.245	0.298	-0.039
-463.113	212.760	0.074	0.118
-462.099	493.040	-0.162	0.375
-461.084	156.427	0.062	0.087
-460.070	-125.000	-0.320	0.050
-459.055	-156.768	-0.351	-0.022
-458.040	83.386	0.165	0.181
-457.026	-112.728	0.259	-0.052
-456.011	-200.000	-0.014	0.081
-454.997	-196.936	-0.225	0.001
-453.982	800.000	-0.049	-0.201
-452.968	-90.716	-0.203	-0.059
-451.953	419.392	0.061	-0.131
-450.938	-200.000	0.030	0.151
-449.924	800.000	0.027	-0.107
-448.909	43.928	-0.311	-0.287
-447.895	74.252	-0.137	-0.145
-446.880	426.471	0.096	-0.208
-445.865	-111.031	0.096	-0.020
-444.851	71.799	0.060	-0.062
-443.836	-33.907	-0.138	-0.077
-442.822	188.616	-0.130	0.196
-441.807	51.822	0.249	-0.239
-440.792	33.280	-0.157	0.137
-439.778	-188.362	0.225	-0.003
-438.763	-117.871	-0.072	-0.013
-437.749	-73.754	0.134	-0.049
-436.734	315.453	0.192	0.365
-435.719	-107.639	-0.291	-0.064
-434.705	-138.732	-0.225	-0.025
-433.690	-44.911	-0.140	0.070
-432.676	41.708	-0.265	-0.241
-431.661	800.000	-0.021	0.090
-430.646	-200.000	-0.074	-0.376
-429.632	83.702	-0.190	-0.209
-428.617	-23.792	-0.151	0.091
-427.603	20.943	-0.137	-0.111
-426.588	662.060	-0.041	0.106
-425.573	45.412	-0.382	-0.355
-424.559	248.920	-0.089	0.151
-423.544	245.677	0.065	0.110
-422.530	-200.000	-0.013	0.174
-421.515	-200.000	-0.001	0.212
-420.500	649.178	-0.129	0.332
-419.486	9.193	0.102	0.078
-418.471	-13.234	0.072	0.047
-417.457	-117.680	0.199	0.036
-416.442	57.257	-0.121	0.118
-415.428	-140.622	0.215	-0.022
-414.413	632.376	0.072	0.183
-413.398	-171.129	0.222	0.008
-412.384	-200.000	0.066	-0.449
-411.369	140.210	0.145	-0.193
-410.355	-21.503	-0.149	0.092
-409.340	296.421	-0.104	-0.191
-408.325	-141.068	-0.084	-0.009
-407.311	-200.000	0.052	-0.234
-406.296	19.562	-0.294	0.238
-405.282	800.000	0.040	-0.167
-404.267	215.424	0.119	-0.190
-403.252	-100.057	0.125	0.031
-402.238	800.000	-0.120	0.334
-401.223	487.659	-0.038	-0.086
-400.209	800.000	0.045	0.144
-399.194	800.000	-0.026	-0.095
-398.179	95.383	0.175	0.200
-397.165	800.000	0.037	0.158
-396.150	-128.413	0.356	-0.051
-395.136	-200.000	0.070	0.340
-394.121	800.000	0.028	-0.112
-393.106	-73.316	0.407	-0.150
-392.092	207.443	0.171	0.267
-391.077	657.108	0.114	0.294
-390.063	800.000	-0.087	-0.345
-389.048	800.000	-0.079	0.233
-388.033	-30.014	0.304	-0.174
-387.019	36.521	0.121	0.107
-386.004	-200.000	-0.004	0.101
-384.990	73.428	-0.213	0.224
-383.975	-127.665	0.305	0.044
-382.960	-200.000	0.006	0.180
-381.946	410.368	-0.126	-0.269
-380.931	-60.561	-0.096	0.041
-379.917	-136.049	-0.392	0.046
-378.902	-200.000	0.002	0.179
-377.888	-200.000	0.025	0.122
-376.873	800.000	-0.043	-0.126
-375.858	-20.905	0.213	0.131
-374.844	25.557	-0.076	0.063
-373.829	-26.807	0.188	-0.111
-372.815	-129.656	-0.143	0.020
-371.800	-200.000	0.037	0.292
-370.785	-149.467	-0.325	-0.026
-369.771	132.764	-0.074	0.096
-368.756	-200.000	0.050	0.235
-367.742	-200.000	-0.042	0.279
-366.727	-163.372	0.356	0.017
-365.712	-195.880	-0.146	-0.001
-364.698	141.676	-0.034	-0.045
-363.683	-34.373	0.114	0.063
-362.669	252.245	-0.128	0.220
-361.654	-200.000	-0.001	-0.188
-360.639	-200.000	-0.009	-0.421
-359.625	-116.931	0.199	0.037
-358.610	43.082	0.066	0.060
-357.596	86.637	-0.074	-0.081
-356.581	-200.000	0.038	0.235
-355.566	-184.314	0.468	0.008
-354.552	-36.185	-0.313	-0.169
-353.537	167.239	-0.225	0.321
-352.523	800.000	0.014	0.052
-351.508	96.376	-0.123	-0.141
-350.493	-56.287	0.349	0.155
-349.479	-119.496	0.338	-0.059
-348.464	800.000	0.039	0.110
-347.450	-200.000	-0.026	-0.196
-346.435	-69.038	-0.319	0.123
-345.420	-122.447	0.463	-0.076
-344.406	-1.490	-0.112	0.079
-343.391	-168.743	-0.434	-0.016
-342.377	-90.090	0.251	0.073
-341.362	800.000	0.114	-0.354
-340.348	115.611	0.052	-0.064
-339.333	-32.503	0.192	-0.108
-338.318	-103.516	0.107	0.025
-337.304	-166.356	-0.261	-0.011
-336.289	327.617	-0.102	-0.195
-335.275	-0.078	0.080	-0.057
-334.260	282.197	-0.063	0.113
-333.245	-68.775	-0.195	0.076
-332.231	99.640	0.274	0.318
-331.216	418.065	-0.091	0.194
-330.202	159.038	-0.024	-0.033
-329.187	92.894	0.107	0.122
-328.172	56.368	0.193	0.188
-327.158	-200.000	-0.009	0.121
-326.143	341.753	-0.113	0.222
-325.129	121.213	0.225	-0.281
-324.114	-17.070	-0.233	0.148
-323.099	-200.000	-0.013	-0.284
-322.085	-200.000	-0.090	-0.462
-321.070	12.086	-0.064	0.049
-320.056	-67.480	-0.144	0.057
-319.041	-130.362	-0.110	0.015
-318.026	189.955	0.031	-0.046
-317.012	-30.461	0.062	-0.035
-315.997	-42.313	0.092	0.047
-314.983	-200.000	-0.008	-0.219
-313.968	3.773	0.122	0.089
-312.953	28.544	0.173	0.147
-311.939	192.211	0.229	0.347
-310.924	-27.910	0.075	0.043
-309.910	-99.958	0.223	-0.056
-308.895	-93.643	0.265	-0.073
-307.880	-92.091	0.084	0.024
-306.866	-117.610	-0.142	-0.026
-305.851	800.000	0.086	0.284
-304.837	288.892	-0.075	0.137
-303.822	-200.000	-0.017	0.074
-302.807	-200.000	0.017	-0.221
-301.793	-200.000	0.017	0.229
-300.778	-200.000	0.105	0.508
-299.764	-200.000	-0.007	-0.094
-298.749	-34.900	0.199	0.109
-297.735	-172.885	-0.115	-0.004
-296.720	-200.000	0.025	0.205
-295.705	454.956	0.056	-0.124
-294.691	800.000	-0.102	-0.340
-293.676	-56.033	0.062	-0.028
-292.662	179.569	0.040	-0.058
-291.647	-47.052	0.069	0.034
-290.632	-200.000	-0.049	-0.349
-289.618	173.353	-0.136	0.196
-288.603	800.000	0.073	-0.229
-287.589	-55.273	-0.102	0.046
-286.574	-148.365	-0.318	-0.026
-285.559	177.531	0.029	-0.042
-284.545	-65.454	-0.312	-0.126
-283.530	-200.000	-0.031	-0.256
-282.516	-103.405	0.130	0.031
-281.501	325.234	-0.116	0.221
-280.486	-55.579	-0.080	-0.036
-279.472	-200.000	-0.023	-0.382
-278.457	118.924	0.118	0.146
-277.443	-10.152	0.155	0.103
-276.428	65.972	0.241	-0.244
-275.413	-102.479	-0.094	-0.023
-274.399	477.069	-0.100	0.227
-273.384	-200.000	0.067	0.404
-272.370	800.000	0.053	0.162
-271.355	-35.730	0.113	-0.061
-270.340	-4.816	-0.238	0.164
-269.326	18.935	0.140	0.112
-268.311	-149.967	-0.049	0.004
-267.297	225.671	-0.020	-0.033
-266.282	-99.647	0.109	0.027
-265.267	800.000	0.089	0.315
-264.253	295.099	0.117	-0.214
-263.238	800.000	-0.069	-0.199
-262.224	127.703	-0.057	0.073
-261.209	47.252	-0.138	0.128
-260.195	-26.601	0.074	-0.043
-259.180	145.202	-0.170	0.227
-258.165	-10.385	-0.253	0.167
-257.151	-65.807	-0.219	-0.088
-256.136	-200.000	0.043	0.289
-255.122	46.038	0.163	-0.151
-254.107	-131.332	0.353	0.047
-253.092	-13.187	-0.071	-0.046
-252.078	-74.482	-0.266	0.096
-251.063	-117.500	0.250	0.045
-250.049	173.002	0.115	-0.166
-249.034	-113.286	-0.368	0.072
-248.019	107.647	-0.170	0.202
-247.005	427.883	-0.036	0.078
-245.990	67.357	0.022	-0.022
-244.976	-200.000	-0.002	-0.249
-243.961	-65.136	0.229	-0.092
-242.946	-67.088	-0.237	0.093
-241.932	-161.646	0.255	0.013
-240.917	800.000	0.057	-0.190
-239.903	-111.823	0.084	0.017
-238.888	15.352	0.198	0.155
-237.873	56.084	-0.195	-0.189
-236.859	700.654	-0.081	-0.214
-235.844	-77.541	-0.276	-0.096
-234.830	37.979	0.229	0.203
-233.815	-37.181	-0.199	-0.106
-232.800	105.003	0.031	-0.036
-231.786	756.727	-0.075	0.203
-230.771	-107.348	0.022	-0.005
-229.757	208.660	0.064	0.100
-228.742	-30.085	-0.021	0.012
-227.727	-35.902	-0.379	0.205
-226.713	44.581	-0.088	0.081
-225.698	57.167	0.098	0.095
-224.684	-200.000	0.035	0.356
-223.669	8.439	0.331	0.248
-222.655	-200.000	-0.000	0.172
-221.640	800.000	0.038	0.105
-220.625	173.045	-0.090	-0.130
-219.611	-200.000	0.026	-0.162
-218.596	800.000	-0.052	0.212
-217.582	-146.359	0.318	0.028
-216.567	-200.000	0.036	-0.182
-215.552	49.268	-0.036	0.034
-214.538	-99.090	-0.204	-0.052
-213.523	-200.000	0.021	-0.267
-212.509	-164.872	-0.072	0.003
-211.494	-10.549	0.229	-0.151
-210.479	17.482	0.229	-0.182
-209.465	25.964	-0.131	-0.109
-208.450	315.441	-0.074	-0.140
-207.436	-43.912	0.518	0.260
-206.421	15.482	0.084	-0.066
-205.406	800.000	0.069	-0.196
-204.392	-37.187	0.267	0.143
-203.377	198.896	-0.105	-0.161
-202.363	62.690	-0.283	0.282
-201.348	32.922	0.175	-0.151
-200.333	800.000	-0.119	0.450
-199.319	-173.523	-0.425	0.013
-198.304	-200.000	-0.007	0.113
-197.290	-175.399	-0.272	-0.007
-196.275	-96.735	-0.362	0.095
-195.260	-69.288	-0.129	-0.050
-194.246	-50.324	-0.199	0.094
-193.231	19.033	-0.041	0.032
-192.217	-45.789	0.271	-0.134
-191.202	-200.000	0.015	0.098
-190.187	-6.834	-0.132	0.090
-189.173	-121.129	0.194	0.032
-188.158	-116.978	-0.279	-0.051
-187.144	44.425	0.060	-0.055
-186.129	-120.442	0.344	-0.058
-185.114	610.386	0.070	-0.175
-184.100	-1.665	0.196	-0.138
-183.085	-200.000	0.025	-0.208
-182.071	-200.000	-0.015	-0.376
-181.056	88.545	-0.021	-0.023
-180.042	-107.566	-0.158	0.034
-179.027	10.979	-0.239	-0.182
-178.012	56.542	0.252	-0.245
-176.998	41.195	-0.076	-0.068
-175.983	-60.290	0.147	-0.062
-174.969	800.000	0.083	0.230
-173.954	-145.237	0.164	0.015
-172.939	-27.786	0.092	-0.053
-171.925	-200.000	-0.032	-0.183
-170.910	-93.726	-0.294	0.081
-169.896	28.313	-0.001	-0.001
-168.881	-151.884	-0.246	0.018
-167.866	-4.895	0.332	-0.228
-166.852	27.311	-0.107	-0.090
-165.837	72.944	0.097	0.101
-164.823	74.160	0.275	0.288
-163.808	344.280	-0.050	0.098
-162.793	66.619	0.192	-0.195
-161.779	-37.232	0.176	0.094
-160.764	800.000	-0.111	0.368
-159.750	124.797	0.101	0.126
-158.735	-14.550	0.187	-0.120
-157.720	-75.852	-0.101	0.036
-156.706	-169.400	-0.158	0.006
-155.691	-61.094	0.056	0.024
-154.677	31.909	0.243	0.208
-153.662	-28.504	0.164	-0.094
-152.647	800.000	0.066	0.194
-151.633	800.000	-0.033	-0.100
-150.618	-200.000	-0.052	0.247
-149.604	148.421	-0.035	-0.047
-148.589	485.729	0.126	0.286
-147.574	-74.743	-0.419	-0.150
-146.560	130.711	0.097	0.124
-145.545	707.356	-0.108	-0.285
-144.531	800.000	0.018	-0.073
-143.516	-43.782	0.317	-0.159
-142.502	-74.559	-0.237	0.085
-141.487	-34.643	-0.278	-0.151
-140.472	-130.096	0.233	-0.032
-139.458	-85.598	0.387	-0.120
-138.443	800.000	0.017	-0.072
-137.429	-26.905	-0.301	-0.175
-136.414	-129.197	0.321	0.045
-135.399	198.296	0.198	0.302
-134.385	-147.641	0.357	0.030
-133.370	-96.472	0.193	-0.051
-132.356	-200.000	-0.010	-0.154
-131.341	-63.980	0.381	0.155
-130.326	765.781	-0.044	0.120
-129.312	201.709	-0.059	-0.091
-128.297	-115.965	-0.238	-0.044
-127.283	800.000	-0.061	0.173
-126.268	239.994	0.110	0.183
-125.253	4.028	-0.261	0.190
-124.239	-102.648	0.445	0.106
-123.224	-0.626	0.310	0.219
-122.210	103.151	-0.259	0.302
-121.195	-111.662	-0.337	-0.068
