DTS Sentinel unit serial number:	SN413079Multiplexer serial number:	ORYXHardware model number:	OX4-SRSoftware version number:	ORYX F/W v4.00 Oryx Data Collector v3.7.2.0data status	okinstallation	princeton_trtdifferential loss correction	single-endedforward channel	channel 3reverse channel	N/Adate	2019/09/17time	18:32:34forward acquisition time	60.00reverse acquisition time	0.00gamma	496.2192k internal	0.2289k external	0.2289temperature offset calibration	0.9950default loss term (dB/km)	0.3790temperature slope calibration	1.0000multiplexer offset coefficient	1.0000multiplexer slope coefficient	1.0000fibre end	0.00T internal ref (°C)	42.94T ext. ref 1 (°C)	0.31T ext. ref 2 (°C)	35.92length (m)	temperature (°C)	Stokes	anti-Stokes-747.200	-200.000	-0.003	-0.147
-746.185	100.375	0.160	-0.190
-745.171	117.173	-0.092	0.115
-744.156	95.452	-0.157	0.183
-743.142	-200.000	-0.013	0.084
-742.127	-14.612	-0.302	0.199
-741.112	800.000	-0.081	-0.278
-740.098	-200.000	-0.039	0.368
-739.083	-200.000	-0.004	-0.060
-738.069	4.611	0.126	-0.095
-737.054	800.000	0.027	0.117
-736.039	229.534	-0.147	-0.246
-735.025	-61.507	0.158	-0.068
-734.010	-4.004	-0.181	-0.129
-732.996	101.475	0.130	-0.155
-731.981	-200.000	-0.035	-0.158
-730.966	-42.461	-0.137	-0.071
-729.952	-200.000	-0.098	-0.604
-728.937	-135.986	-0.378	0.045
-727.923	-73.180	-0.399	-0.150
-726.908	-200.000	0.054	-0.350
-725.894	-55.064	-0.239	0.110
-724.879	-200.000	0.023	-0.136
-723.864	-118.453	0.326	0.059
-722.850	78.899	-0.045	-0.049
-721.835	-52.326	-0.253	-0.120
-720.821	98.505	-0.167	-0.198
-719.806	-97.290	-0.354	0.094
-718.791	-138.719	-0.352	0.039
-717.777	-200.000	0.012	0.146
-716.762	800.000	-0.077	-0.235
-715.748	407.050	0.061	-0.132
-714.733	-120.862	-0.370	-0.064
-713.718	-102.212	-0.076	-0.019
-712.704	222.494	0.191	-0.314
-711.689	-66.826	0.177	0.072
-710.675	-166.867	0.049	0.002
-709.660	665.855	0.110	-0.291
-708.645	-200.000	0.043	-0.433
-707.631	-133.151	0.182	0.024
-706.616	-200.000	-0.041	-0.198
-705.602	411.366	-0.127	-0.276
-704.587	31.567	-0.164	0.144
-703.572	123.558	0.128	0.164
-702.558	156.657	0.015	0.021
-701.543	-200.000	-0.026	-0.406
-700.529	5.874	0.203	0.154
-699.514	51.010	0.135	-0.131
-698.499	-67.050	-0.160	0.065
-697.485	-200.000	0.043	-0.279
-696.470	-200.000	0.143	0.000
-695.456	-64.059	-0.163	0.068
-694.441	-138.570	-0.341	-0.038
-693.426	-200.000	0.075	-0.378
-692.412	-200.000	-0.021	0.372
-691.397	158.783	0.042	0.059
-690.383	152.017	0.060	-0.084
-689.368	688.270	0.045	0.121
-688.354	800.000	-0.050	-0.144
-687.339	-83.808	-0.185	0.060
-686.324	-100.926	-0.300	0.075
-685.310	-65.848	-0.131	-0.054
-684.295	-155.283	0.193	0.013
-683.281	-14.789	0.169	-0.111
-682.266	66.577	0.198	0.205
-681.251	-200.000	0.111	-0.507
-680.237	-127.698	0.205	-0.030
-679.222	291.093	0.065	-0.121
-678.208	-99.371	-0.033	0.009
-677.193	16.147	0.158	-0.128
-676.178	173.165	-0.088	-0.129
-675.164	-115.876	0.111	-0.021
-674.149	59.345	-0.254	-0.256
-673.135	77.403	0.061	0.067
-672.120	69.859	-0.100	0.106
-671.105	-200.000	-0.028	-0.166
-670.091	504.898	0.084	-0.199
-669.076	-66.262	-0.191	-0.078
-668.062	22.656	-0.037	-0.031
-667.047	-39.086	-0.058	-0.031
-666.032	644.551	0.148	-0.385
-665.018	26.343	0.220	0.188
-664.003	487.373	-0.005	-0.012
-662.989	37.029	-0.084	-0.076
-661.974	-137.313	0.106	0.012
-660.959	41.802	-0.188	0.174
-659.945	-114.040	-0.302	-0.060
-658.930	800.000	-0.052	0.202
-657.916	-136.207	-0.043	0.005
-656.901	-121.257	-0.185	-0.032
-655.886	-182.120	-0.295	-0.006
-654.872	500.002	0.062	0.146
-653.857	-200.000	0.095	-0.437
-652.843	-28.626	-0.168	-0.099
-651.828	294.340	-0.011	-0.021
-650.814	800.000	-0.100	-0.439
-649.799	47.061	-0.045	-0.042
-648.784	-57.541	-0.206	-0.092
-647.770	-177.028	0.186	-0.005
-646.755	-12.345	-0.151	-0.101
-645.741	665.850	0.082	0.216
-644.726	400.845	0.069	0.148
-643.711	101.917	0.133	-0.158
-642.697	-200.000	-0.027	-0.163
-641.682	22.852	-0.243	-0.204
-640.668	113.799	0.109	-0.135
-639.653	-97.942	-0.133	0.035
-638.638	-200.000	-0.017	-0.253
-637.624	188.391	-0.118	0.180
-636.609	-200.000	0.024	-0.378
-635.595	-13.352	0.256	0.170
-634.580	101.027	-0.117	0.139
-633.565	-169.463	0.237	0.009
-632.551	152.690	0.117	-0.163
-631.536	48.655	0.171	0.164
-630.522	-139.330	-0.283	-0.031
-629.507	-50.688	0.066	-0.032
-628.492	53.481	-0.284	-0.278
-627.478	26.684	-0.264	-0.225
-626.463	242.516	0.096	0.164
-625.449	-200.000	-0.005	0.212
-624.434	-19.274	-0.078	-0.049
-623.419	-165.942	0.242	-0.011
-622.405	-200.000	-0.030	0.314
-621.390	-7.408	0.195	-0.135
-620.376	-200.000	0.001	0.156
-619.361	739.980	-0.035	0.095
-618.346	-192.738	-0.133	-0.001
-617.332	71.796	-0.142	-0.151
-616.317	-200.000	-0.019	0.291
-615.303	-118.411	-0.196	-0.035
-614.288	84.153	0.263	0.294
-613.273	-200.000	-0.004	0.178
-612.259	215.513	-0.140	-0.227
-611.244	499.087	-0.047	0.110
-610.230	-101.045	0.085	0.021
-609.215	-177.820	-0.180	0.004
-608.201	-3.418	-0.012	-0.008
-607.186	469.281	-0.019	0.043
-606.171	-103.914	0.359	-0.085
-605.157	-200.000	-0.016	0.363
-604.142	-96.948	0.208	-0.056
-603.128	-39.984	-0.229	-0.122
-602.113	101.851	-0.172	-0.205
-601.098	-187.308	-0.207	-0.003
-600.084	71.202	0.158	-0.167
-599.069	79.320	0.093	0.102
-598.055	126.338	-0.066	-0.085
-597.040	121.098	-0.139	-0.176
-596.025	298.039	0.043	0.080
-595.011	-31.810	-0.261	-0.149
-593.996	-131.614	-0.110	-0.015
-592.982	-150.498	-0.144	0.011
-591.967	-121.401	-0.130	-0.022
-590.952	711.995	0.012	-0.033
-589.938	-200.000	-0.005	-0.308
-588.923	-17.671	-0.313	-0.200
-587.909	-61.911	0.214	-0.091
-586.894	-200.000	-0.018	0.438
-585.879	340.425	-0.140	0.277
-584.865	-61.494	0.329	0.141
-583.850	-142.265	-0.142	0.014
-582.836	650.126	0.115	0.299
-581.821	35.158	-0.029	0.026
-580.806	-109.667	-0.182	-0.039
-579.792	128.887	0.045	-0.058
-578.777	196.381	-0.106	0.165
-577.763	271.000	-0.148	-0.266
-576.748	95.929	0.220	-0.255
-575.733	90.373	0.280	-0.319
-574.719	-174.691	-0.276	0.008
-573.704	103.460	0.139	0.167
-572.690	-200.000	-0.113	0.000
-571.675	800.000	-0.029	-0.099
-570.661	-200.000	-0.017	0.100
-569.646	175.180	-0.085	0.125
-568.631	-57.754	-0.090	-0.040
-567.617	-200.000	0.030	0.312
-566.602	-200.000	0.006	-0.157
-565.588	-6.878	0.096	-0.067
-564.573	-15.240	-0.064	0.042
-563.558	-8.447	-0.264	-0.180
-562.544	-168.444	0.189	0.007
-561.529	800.000	-0.080	0.307
-560.515	257.848	0.133	0.234
-559.500	14.526	-0.197	0.156
-558.485	800.000	0.029	-0.113
-557.471	-26.976	0.107	-0.064
-556.456	-200.000	0.062	-0.475
-555.442	-39.952	0.065	-0.035
-554.427	32.398	-0.185	0.163
-553.412	70.601	-0.201	-0.211
-552.398	-200.000	0.024	-0.156
-551.383	-200.000	-0.019	0.196
-550.369	-200.000	-0.044	0.224
-549.354	800.000	-0.020	-0.070
-548.339	77.627	-0.138	0.150
-547.325	-89.585	0.204	-0.061
-546.310	32.519	-0.121	-0.107
-545.296	-56.461	0.230	0.104
-544.281	-162.849	0.287	0.014
-543.266	44.575	-0.165	0.154
-542.252	88.087	-0.018	0.020
-541.237	-117.465	-0.224	-0.041
-540.223	-200.000	0.013	0.112
-539.208	-62.391	-0.194	0.082
-538.193	-200.000	-0.045	0.294
-537.179	-200.000	-0.003	-0.093
-536.164	-8.123	-0.108	-0.074
-535.150	45.758	0.054	0.051
-534.135	-27.893	0.073	-0.043
-533.121	140.231	0.074	0.100
-532.106	66.426	0.164	-0.169
-531.091	-200.000	0.044	-0.330
-530.077	625.410	-0.092	-0.236
-529.062	800.000	0.101	-0.411
-528.048	95.421	0.132	0.153
-527.033	-22.875	-0.317	0.194
-526.018	91.494	0.080	-0.091
-525.004	-163.806	-0.301	0.014
-523.989	3.697	-0.270	-0.200
-522.975	64.001	-0.022	0.022
-521.960	11.755	-0.219	0.171
-520.945	-14.314	-0.094	0.061
-519.931	190.846	0.123	-0.188
-518.916	-98.019	0.445	0.117
-517.902	15.487	-0.226	-0.180
-516.887	29.053	-0.193	0.166
-515.872	36.297	0.186	0.166
-514.858	-110.365	-0.116	0.025
-513.843	70.095	0.116	0.122
-512.829	73.863	0.250	-0.266
-511.814	118.961	0.096	-0.121
-510.799	288.526	-0.084	0.155
-509.785	152.865	0.131	0.181
-508.770	-72.729	0.131	-0.049
-507.756	31.751	0.267	0.233
-506.741	-124.331	-0.286	0.045
-505.726	-138.212	0.168	0.019
-504.712	-153.151	0.076	0.005
-503.697	81.575	0.029	0.032
-502.683	800.000	-0.108	0.411
-501.668	-110.968	0.062	0.013
-500.653	37.933	-0.199	-0.180
-499.639	75.242	-0.216	-0.231
-498.624	-191.130	-0.175	-0.002
-497.610	168.206	-0.020	0.030
-496.595	800.000	-0.025	-0.084
-495.581	-123.279	0.268	0.044
-494.566	-200.000	-0.034	0.182
-493.551	125.772	0.198	-0.254
-492.537	-139.756	-0.109	-0.012
-491.522	-10.641	0.299	0.201
-490.508	-200.000	0.000	0.085
-489.493	-200.000	-0.011	-0.127
-488.478	53.333	0.234	-0.227
-487.464	-25.834	-0.318	-0.190
-486.449	-108.397	0.070	-0.015
-485.435	-200.000	-0.026	-0.137
-484.420	-200.000	-0.047	0.222
-483.405	-14.308	-0.030	-0.020
-482.391	-200.000	-0.045	-0.269
-481.376	-181.511	-0.156	0.003
-480.362	-92.672	-0.037	0.010
-479.347	-38.479	0.121	-0.065
-478.332	39.214	0.045	0.041
-477.318	800.000	0.051	0.180
-476.303	-83.332	-0.102	-0.033
-475.289	-3.905	-0.153	0.108
-474.274	121.647	-0.204	0.257
-473.259	-200.000	-0.006	0.129
-472.245	-200.000	-0.002	0.141
-471.230	-39.865	0.205	0.109
-470.216	198.383	0.116	-0.180
-469.201	38.600	0.381	-0.345
-468.186	185.815	0.127	-0.192
-467.172	800.000	0.101	0.405
-466.157	-132.047	-0.122	-0.016
-465.143	123.619	-0.182	0.232
-464.128	99.996	-0.085	0.100
-463.113	-116.491	0.153	0.029
-462.099	800.000	-0.088	0.313
-461.084	-55.590	-0.196	-0.089
-460.070	800.000	-0.101	0.403
-459.055	800.000	0.078	-0.222
-458.040	-182.415	0.019	-0.000
-457.026	-200.000	-0.074	-0.347
-456.011	-200.000	0.004	-0.206
-454.997	-165.853	0.195	-0.008
-453.982	-155.215	0.053	0.004
-452.968	61.303	-0.053	0.054
-451.953	-11.206	0.125	-0.084
-450.938	-31.401	0.224	0.128
-449.924	-117.450	-0.089	0.016
-448.909	425.845	0.012	0.027
-447.895	-200.000	-0.037	-0.224
-446.880	-118.510	0.422	-0.076
-445.865	315.044	0.125	0.239
-444.851	-200.000	-0.025	0.234
-443.836	185.993	0.060	-0.090
-442.822	-141.716	0.104	-0.011
-441.807	-193.513	-0.248	0.002
-440.792	-76.308	0.135	-0.048
-439.778	-77.980	-0.114	0.040
-438.763	81.365	0.355	-0.388
-437.749	122.244	-0.368	-0.466
-436.734	143.309	-0.155	-0.208
-435.719	6.098	-0.085	0.064
-434.705	-42.355	-0.244	0.126
-433.690	18.976	0.122	0.099
-432.676	-70.881	-0.167	0.064
-431.661	150.371	-0.097	-0.134
-430.646	154.777	-0.143	0.198
-429.632	-87.608	0.028	-0.009
-428.617	-28.037	0.233	-0.136
-427.603	511.758	0.178	-0.419
-426.588	39.559	-0.250	-0.227
-425.573	-109.877	-0.088	-0.019
-424.559	-123.781	-0.071	-0.011
-423.544	200.505	-0.049	-0.076
-422.530	-143.578	-0.190	-0.018
-421.515	-200.000	0.017	0.143
-420.500	-200.000	0.034	-0.256
-419.486	-200.000	0.058	0.275
-418.471	182.736	0.063	-0.094
-417.457	-46.604	-0.210	0.104
-416.442	-150.021	-0.051	-0.004
-415.428	800.000	0.033	-0.138
-414.413	43.042	-0.137	-0.126
-413.398	13.109	0.195	0.153
-412.384	157.960	-0.029	-0.041
-411.369	-75.184	-0.256	-0.092
-410.355	-91.738	0.319	-0.092
-409.340	-38.412	-0.212	0.113
-408.325	6.922	-0.156	0.117
-407.311	-124.191	-0.124	-0.020
-406.296	-200.000	-0.017	0.177
-405.282	70.932	-0.059	-0.062
-404.267	-82.361	0.059	0.020
-403.252	81.958	-0.197	0.216
-402.238	-36.255	-0.103	-0.056
-401.223	369.899	0.100	0.204
-400.209	-35.804	-0.216	-0.118
-399.194	800.000	-0.021	0.088
-398.179	-78.124	0.145	-0.051
-397.165	214.565	-0.145	-0.233
-396.150	-200.000	0.027	-0.149
-395.136	800.000	0.078	-0.317
-394.121	-133.739	-0.112	-0.014
-393.106	-95.611	-0.204	-0.055
-392.092	24.968	-0.120	-0.101
-391.077	-200.000	-0.032	-0.205
-390.063	524.686	-0.179	0.425
-389.048	80.957	0.072	-0.078
-388.033	-200.000	0.005	0.182
-387.019	-38.960	-0.138	0.073
-386.004	-100.909	0.306	0.076
-384.990	-141.615	0.128	0.013
-383.975	-98.437	0.194	0.050
-382.960	-5.025	0.190	-0.132
-381.946	-200.000	-0.021	0.299
-380.931	493.948	0.075	0.173
-379.917	-88.530	0.144	0.043
-378.902	-200.000	0.024	0.178
-377.888	18.053	0.409	-0.329
-376.873	84.779	0.138	0.152
-375.858	28.060	-0.186	0.159
-374.844	643.901	-0.086	0.222
-373.829	-82.581	-0.226	-0.074
-372.815	-196.278	0.306	-0.002
-371.800	-200.000	0.024	-0.174
-370.785	-81.096	0.160	-0.053
-369.771	-63.078	0.223	-0.093
-368.756	800.000	-0.018	-0.071
-367.742	-200.000	0.014	-0.310
-366.727	167.514	0.142	-0.203
-365.712	800.000	0.038	0.160
-364.698	217.227	-0.013	0.021
-363.683	39.872	-0.194	0.176
-362.669	228.755	0.072	-0.119
-361.654	111.774	0.126	0.154
-360.639	201.038	-0.126	0.195
-359.625	-48.000	-0.074	0.036
-358.610	536.522	-0.058	-0.140
-357.596	-133.204	0.099	-0.013
-356.581	-2.721	-0.105	0.074
-355.566	-95.549	-0.123	-0.033
-354.552	7.899	0.109	0.083
-353.537	-200.000	-0.020	-0.267
-352.523	-161.540	0.168	0.009
-351.508	251.728	-0.108	-0.185
-350.493	800.000	0.063	-0.186
-349.479	-86.874	0.140	0.043
-348.464	3.201	-0.255	0.187
-347.450	-135.557	0.436	0.052
-346.435	-104.889	-0.347	-0.080
-345.420	-200.000	0.051	-0.393
-344.406	-124.333	-0.237	-0.037
-343.391	77.073	0.161	0.172
-342.377	-157.803	0.118	0.007
-341.362	-73.262	0.240	0.089
-340.348	-200.000	0.022	0.442
-339.333	-65.437	-0.117	-0.047
-338.318	-200.000	0.033	-0.211
-337.304	-200.000	-0.027	0.190
-336.289	-168.818	0.190	0.007
-335.275	-170.923	0.154	0.005
-334.260	89.763	-0.125	0.141
-333.245	106.949	-0.090	0.108
-332.231	54.383	0.187	-0.182
-331.216	-200.000	0.012	0.256
-330.202	65.319	-0.088	-0.090
-329.187	-95.329	0.375	-0.102
-328.172	424.647	0.086	0.186
-327.158	191.911	-0.017	-0.026
-326.143	212.147	-0.111	0.176
-325.129	61.723	0.247	-0.247
-324.114	577.499	0.114	-0.280
-323.099	800.000	-0.086	-0.258
-322.085	49.762	-0.247	-0.235
-321.070	-112.597	-0.130	-0.026
-320.056	-200.000	0.086	-0.520
-319.041	-12.147	0.021	-0.014
-318.026	508.704	0.067	0.156
-317.012	-58.394	0.125	0.055
-315.997	6.191	-0.379	0.283
-314.983	-122.696	-0.426	-0.070
-313.968	800.000	0.051	-0.222
-312.953	0.495	-0.128	-0.092
-311.939	-127.482	0.191	-0.028
-310.924	-200.000	-0.015	0.231
-309.910	-200.000	0.001	-0.056
-308.895	189.936	0.307	-0.464
-307.880	-200.000	-0.031	-0.253
-306.866	-27.332	0.239	-0.140
-305.851	-52.854	-0.080	-0.037
-304.837	800.000	-0.064	-0.214
-303.822	-200.000	-0.006	-0.031
-302.807	138.599	-0.240	0.318
-301.793	101.538	-0.252	0.295
-300.778	304.960	-0.275	0.515
-299.764	304.246	0.077	-0.143
-298.749	-137.336	0.239	-0.027
-297.735	-48.194	0.109	0.053
-296.720	9.621	0.241	-0.184
-295.705	-102.491	-0.303	0.073
-294.691	202.613	0.138	0.214
-293.676	-66.510	0.277	-0.111
-292.662	-89.317	0.079	0.023
-291.647	800.000	-0.015	-0.050
-290.632	280.246	-0.178	-0.320
-289.618	47.828	-0.262	0.247
-288.603	15.187	-0.124	-0.098
-287.589	63.774	0.336	0.340
-286.574	-71.282	-0.312	0.118
-285.559	83.611	0.085	0.093
-284.545	95.650	0.130	0.149
-283.530	349.408	0.151	0.301
-282.516	468.054	-0.117	0.265
-281.501	74.649	-0.148	-0.157
-280.486	4.719	0.299	0.221
-279.472	-28.067	0.161	-0.093
-278.457	-135.024	-0.183	-0.022
-277.443	-7.087	-0.236	0.161
-276.428	-96.452	-0.463	0.123
-275.413	126.779	0.122	-0.156
-274.399	433.605	-0.049	0.107
-273.384	159.080	0.122	0.171
-272.370	-89.104	-0.050	-0.015
-271.355	-87.985	0.407	0.123
-270.340	-68.630	-0.175	0.068
-269.326	800.000	0.020	0.061
-268.311	800.000	0.126	0.447
-267.297	-200.000	-0.007	-0.432
-266.282	39.853	-0.211	-0.191
-265.267	-107.584	0.375	-0.083
-264.253	120.438	-0.125	-0.156
-263.238	142.925	-0.189	0.253
-262.224	27.037	-0.089	-0.075
-261.209	-200.000	0.015	-0.224
-260.195	396.347	0.079	0.166
-259.180	-200.000	-0.001	-0.152
-258.165	-200.000	0.007	-0.094
-257.151	35.914	-0.142	-0.125
-256.136	800.000	0.112	0.487
-255.122	374.432	0.151	0.309
-254.107	800.000	0.090	-0.263
-253.092	-63.675	0.296	-0.122
-252.078	86.610	-0.077	0.085
-251.063	-200.000	-0.016	0.303
-250.049	-200.000	-0.000	0.050
-249.034	800.000	-0.018	0.072
-248.019	-102.680	0.480	-0.115
-247.005	-41.356	-0.297	-0.154
-245.990	-81.558	-0.168	0.055
-244.976	460.856	-0.121	0.271
-243.961	-180.332	-0.503	-0.011
-242.946	-53.177	-0.121	-0.056
-241.932	-111.464	-0.377	-0.077
-240.917	-200.000	0.041	-0.398
-239.903	800.000	-0.178	0.557
-238.888	-166.275	0.436	0.018
-237.873	-54.430	-0.178	-0.081
-236.859	115.495	-0.020	0.024
-235.844	-200.000	-0.015	-0.297
-234.830	800.000	-0.046	-0.137
-233.815	-200.000	0.010	0.289
-232.800	-200.000	-0.032	0.144
-231.786	712.890	-0.141	-0.376
-230.771	-60.949	-0.107	-0.045
-229.757	-61.950	-0.262	-0.110
-228.742	-113.706	-0.016	0.003
-227.727	105.733	-0.176	0.209
-226.713	-163.354	-0.264	-0.013
-225.698	155.955	0.220	-0.304
-224.684	-51.056	0.231	-0.109
-223.669	141.511	-0.174	-0.232
-222.655	40.232	0.348	-0.315
-221.640	140.672	-0.070	0.092
-220.625	-68.056	-0.108	-0.042
-219.611	77.165	0.071	0.075
-218.596	43.201	-0.098	-0.090
-217.582	-200.000	-0.033	-0.246
-216.567	-200.000	-0.001	-0.221
-215.552	-24.804	0.070	0.042
-214.538	-200.000	0.086	0.438
-213.523	435.916	-0.103	0.225
-212.509	-200.000	0.017	-0.253
-211.494	93.193	0.198	-0.225
-210.479	421.646	0.129	0.278
-209.465	-67.756	-0.148	-0.058
-208.450	191.954	-0.034	0.051
-207.436	2.436	0.169	-0.123
-206.421	-200.000	-0.004	-0.092
-205.406	-200.000	-0.003	-0.053
-204.392	-17.074	-0.190	0.120
-203.377	293.711	-0.175	-0.321
-202.363	-140.722	0.367	0.038
-201.348	-200.000	0.010	-0.314
-200.333	-43.244	0.190	-0.097
-199.319	-200.000	-0.025	0.288
-198.304	800.000	-0.074	0.258
-197.290	241.727	-0.165	0.277
-196.275	-24.826	0.138	-0.082
-195.260	270.407	0.116	-0.206
-194.246	-86.532	0.088	-0.027
-193.231	800.000	-0.104	0.298
-192.217	-78.591	-0.157	-0.054
-191.202	523.580	0.041	0.097
-190.187	800.000	-0.030	0.122
-189.173	800.000	0.044	0.142
-188.158	-35.245	0.131	-0.072
-187.144	146.953	0.154	-0.207
-186.129	-200.000	0.016	0.352
-185.114	77.939	0.350	0.374
-184.100	-200.000	-0.040	0.359
-183.085	-200.000	-0.020	0.261
-182.071	135.689	0.202	-0.264
-181.056	-200.000	-0.027	-0.327
-180.042	191.205	0.112	0.170
-179.027	-200.000	-0.065	-0.489
-178.012	-123.547	0.229	-0.037
-176.998	-200.000	0.007	0.088
-175.983	277.944	0.069	0.124
-174.969	55.017	0.196	0.190
-173.954	-51.680	0.260	-0.122
-172.939	-200.000	0.052	-0.321
-171.925	-28.074	0.079	0.046
-170.910	22.393	-0.062	-0.050
-169.896	112.969	0.193	0.235
-168.881	16.790	-0.175	-0.139
-167.866	800.000	0.055	0.205
-166.852	416.129	0.076	0.162
-165.837	-200.000	-0.016	0.188
-164.823	49.646	-0.210	0.198
-163.808	800.000	-0.120	-0.377
-162.793	18.601	0.203	-0.163
-161.779	-200.000	-0.013	0.205
-160.764	-106.262	-0.145	0.033
-159.750	146.261	0.078	-0.105
-158.735	-200.000	-0.043	0.242
-157.720	-200.000	-0.046	0.229
-156.706	379.165	-0.053	0.109
-155.691	-161.207	0.363	0.019
-154.677	800.000	0.013	0.056
-153.662	-38.994	0.155	0.081
-152.647	-25.696	0.398	-0.235
-151.633	-200.000	0.022	-0.175
-150.618	-200.000	0.013	-0.081
-149.604	-177.447	0.124	0.003
-148.589	-51.873	-0.274	-0.128
-147.574	-53.107	-0.206	0.095
-146.560	-84.450	0.093	-0.030
-145.545	362.637	0.139	0.280
-144.531	800.000	0.018	0.069
-143.516	41.362	-0.233	-0.211
-142.502	91.608	-0.231	0.260
-141.487	403.169	-0.112	0.235
-140.472	-48.996	0.177	-0.085
-139.458	98.381	0.064	-0.073
-138.443	-4.791	0.241	0.166
-137.429	548.686	-0.031	-0.074
-136.414	-150.762	0.080	-0.006
-135.399	-200.000	-0.042	0.237
-134.385	37.483	-0.081	-0.071
-133.370	-93.691	0.196	-0.054
-132.356	12.581	0.497	-0.384
-131.341	-200.000	0.095	-0.489
-130.326	518.722	0.048	-0.113
-129.312	39.693	0.124	0.112
-128.297	-160.809	0.369	0.020
-127.283	-133.620	0.067	0.008
-126.268	-13.226	-0.015	0.010
-125.253	147.907	0.125	0.169
-124.239	220.252	0.036	-0.058
-123.224	-27.765	-0.115	0.067
-122.210	252.617	-0.198	-0.338
