DTS Sentinel unit serial number:	SN413079Multiplexer serial number:	ORYXHardware model number:	OX4-SRSoftware version number:	ORYX F/W v4.00 Oryx Data Collector v3.7.2.0data status	okinstallation	princeton_trtdifferential loss correction	single-endedforward channel	channel 3reverse channel	N/Adate	2019/09/19time	11:32:35forward acquisition time	60.00reverse acquisition time	0.00gamma	496.2192k internal	0.2342k external	0.2342temperature offset calibration	0.9983default loss term (dB/km)	0.3790temperature slope calibration	1.0000multiplexer offset coefficient	1.0000multiplexer slope coefficient	1.0000fibre end	0.00T internal ref (°C)	25.44T ext. ref 1 (°C)	0.80T ext. ref 2 (°C)	21.27length (m)	temperature (°C)	Stokes	anti-Stokes-747.200	-200.000	0.002	-0.151
-746.185	-200.000	-0.036	0.180
-745.171	147.818	0.050	0.068
-744.156	295.801	-0.098	0.180
-743.142	-17.006	0.147	0.093
-742.127	32.910	-0.220	-0.191
-741.112	2.760	0.254	-0.185
-740.098	-63.439	0.170	0.070
-739.083	50.768	-0.283	0.269
-738.069	-200.000	-0.096	0.557
-737.054	265.981	-0.104	0.182
-736.039	293.780	-0.026	-0.047
-735.025	117.595	0.151	-0.187
-734.010	800.000	0.068	0.250
-732.996	-97.910	-0.283	0.073
-731.981	126.544	-0.177	-0.225
-730.966	-200.000	-0.071	0.410
-729.952	39.688	0.168	-0.151
-728.937	800.000	-0.086	-0.310
-727.923	22.975	-0.278	-0.228
-726.908	-25.689	-0.173	-0.102
-725.894	270.122	0.112	0.198
-724.879	105.479	0.270	0.319
-723.864	456.027	0.052	-0.116
-722.850	-4.925	-0.216	-0.149
-721.835	133.386	0.088	0.114
-720.821	121.557	-0.132	0.165
-719.806	800.000	0.065	-0.262
-718.791	91.439	0.247	0.278
-717.777	800.000	0.034	-0.149
-716.762	160.580	0.131	-0.184
-715.748	84.209	0.088	0.096
-714.733	800.000	-0.055	-0.180
-713.718	-4.908	-0.186	-0.128
-712.704	800.000	-0.049	0.144
-711.689	-200.000	0.012	-0.085
-710.675	-118.776	-0.169	-0.030
-709.660	-200.000	0.030	0.175
-708.645	-25.043	0.187	0.111
-707.631	-51.591	0.312	0.145
-706.616	-200.000	-0.020	-0.274
-705.602	-200.000	0.016	-0.108
-704.587	-153.987	-0.554	0.038
-703.572	-151.801	0.272	-0.020
-702.558	-113.758	0.165	0.032
-701.543	-19.700	0.261	-0.161
-700.529	800.000	0.132	0.418
-699.514	186.252	-0.045	0.066
-698.499	246.558	-0.085	0.144
-697.485	-15.731	0.206	-0.131
-696.470	50.319	0.151	-0.143
-695.456	154.751	-0.093	0.127
-694.441	-200.000	-0.025	0.273
-693.426	-200.000	0.032	-0.167
-692.412	52.459	0.218	-0.208
-691.397	202.061	-0.041	-0.063
-690.383	-200.000	0.007	0.040
-689.368	800.000	-0.107	-0.414
-688.354	-55.897	0.224	-0.100
-687.339	492.802	-0.025	-0.058
-686.324	21.439	-0.086	0.070
-685.310	588.724	-0.061	-0.151
-684.295	800.000	-0.096	-0.289
-683.281	800.000	0.048	0.179
-682.266	36.501	0.101	-0.089
-681.251	-18.623	-0.190	-0.118
-680.237	800.000	0.021	0.081
-679.222	-200.000	0.006	-0.101
-678.208	-158.701	-0.417	0.024
-677.193	18.489	0.136	-0.109
-676.178	-15.473	-0.223	-0.143
-675.164	800.000	-0.053	-0.177
-674.149	9.139	-0.211	-0.159
-673.135	-118.589	0.156	0.028
-672.120	-64.424	-0.418	-0.170
-671.105	-200.000	-0.044	-0.246
-670.091	-84.583	-0.139	-0.044
-669.076	-153.764	0.250	-0.017
-668.062	-26.242	-0.259	-0.152
-667.047	-17.264	-0.036	-0.023
-666.032	253.172	0.117	0.199
-665.018	202.598	-0.179	0.276
-664.003	61.792	-0.089	-0.088
-662.989	-90.044	0.059	-0.017
-661.974	22.774	-0.146	-0.120
-660.959	176.451	0.070	-0.101
-659.945	93.353	0.194	-0.220
-658.930	-8.377	0.599	0.402
-657.916	607.998	-0.116	0.288
-656.901	781.425	-0.171	-0.467
-655.886	-200.000	0.015	-0.083
-654.872	-200.000	-0.014	0.279
-653.857	-200.000	-0.013	0.155
-652.843	182.732	0.179	0.263
-651.828	-128.883	-0.162	-0.023
-650.814	611.024	-0.078	-0.195
-649.799	-103.305	0.272	-0.064
-648.784	-165.995	-0.284	-0.012
-647.770	-198.062	-0.303	0.002
-646.755	-0.846	-0.040	-0.028
-645.741	-150.302	-0.183	0.014
-644.726	-67.316	0.071	0.028
-643.711	-188.569	0.168	0.002
-642.697	17.777	-0.094	0.074
-641.682	-152.946	0.253	0.018
-640.668	800.000	-0.034	-0.109
-639.653	219.412	0.178	-0.284
-638.638	-107.676	-0.295	-0.064
-637.624	266.231	-0.149	-0.259
-636.609	73.565	-0.121	-0.126
-635.595	800.000	-0.087	-0.295
-634.580	524.520	0.076	0.178
-633.565	91.719	-0.181	-0.203
-632.551	800.000	-0.041	0.137
-631.536	-200.000	0.006	0.046
-630.522	-88.838	-0.149	-0.044
-629.507	-96.683	-0.188	-0.049
-628.492	231.730	0.099	-0.161
-627.478	57.742	-0.098	-0.095
-626.463	79.080	-0.200	-0.213
-625.449	363.785	0.100	0.201
-624.434	800.000	0.035	0.131
-623.419	-25.955	0.275	-0.161
-622.405	291.815	-0.151	-0.275
-621.390	621.706	-0.090	-0.226
-620.376	469.611	-0.094	-0.210
-619.361	128.850	-0.130	0.165
-618.346	435.671	-0.234	0.507
-617.332	-200.000	0.029	-0.165
-616.317	-117.224	-0.344	0.062
-615.303	-200.000	-0.004	0.188
-614.288	-200.000	0.040	0.487
-613.273	157.943	0.076	-0.104
-612.259	-132.843	-0.189	-0.024
-611.244	624.182	-0.118	-0.296
-610.230	121.590	-0.201	0.249
-609.215	55.809	-0.136	0.132
-608.201	-200.000	0.041	-0.414
-607.186	25.948	-0.203	-0.169
-606.171	-200.000	0.038	-0.206
-605.157	545.173	-0.018	0.042
-604.142	-141.019	-0.076	-0.008
-603.128	-89.309	0.215	0.063
-602.113	-200.000	0.010	-0.088
-601.098	800.000	-0.052	0.154
-600.084	137.415	-0.098	0.127
-599.069	59.560	0.318	0.313
-598.055	68.875	-0.139	-0.142
-597.040	-79.530	0.143	-0.048
-596.025	39.809	-0.025	0.022
-595.011	-53.042	-0.196	0.090
-593.996	48.831	-0.162	-0.151
-592.982	800.000	-0.119	-0.439
-591.967	-38.918	0.250	0.131
-590.952	-200.000	-0.010	-0.126
-589.938	-161.051	-0.254	0.013
-588.923	-81.777	-0.164	0.053
-587.909	445.990	-0.041	-0.091
-586.894	-200.000	0.027	-0.165
-585.879	368.790	-0.100	0.201
-584.865	50.398	-0.169	0.159
-583.850	21.241	-0.139	0.113
-582.836	-38.441	-0.086	-0.045
-581.821	85.849	-0.237	-0.259
-580.806	93.766	-0.139	0.157
-579.792	-108.292	0.166	-0.036
-578.777	-12.299	-0.226	0.147
-577.763	-141.804	0.238	-0.024
-576.748	-88.382	-0.083	-0.025
-575.733	-149.618	0.253	-0.020
-574.719	301.810	-0.059	-0.108
-573.704	-65.068	-0.175	-0.070
-572.690	800.000	-0.047	0.155
-571.675	48.647	-0.189	-0.176
-570.661	-39.674	0.477	0.248
-569.646	-34.025	0.260	0.142
-568.631	203.187	-0.121	0.187
-567.617	103.657	-0.149	-0.174
-566.602	-144.193	-0.128	-0.012
-565.588	-143.480	0.226	0.021
-564.573	57.544	0.250	0.243
-563.558	19.258	-0.140	-0.112
-562.544	-200.000	-0.013	-0.099
-561.529	800.000	0.049	-0.168
-560.515	75.066	-0.021	0.022
-559.500	800.000	0.093	0.351
-558.485	107.830	0.105	0.125
-557.471	-67.931	0.282	-0.109
-556.456	-156.632	0.203	0.012
-555.442	-200.000	0.026	-0.169
-554.427	119.260	0.040	0.049
-553.412	-200.000	0.040	0.173
-552.398	-6.432	0.163	-0.110
-551.383	-128.724	-0.158	0.022
-550.369	-38.505	-0.254	-0.133
-549.354	315.584	0.061	0.115
-548.339	-157.724	0.291	-0.017
-547.325	-79.439	-0.358	-0.120
-546.310	340.480	-0.045	0.088
-545.296	10.835	-0.148	0.112
-544.281	241.912	0.059	-0.098
-543.266	-71.551	-0.429	0.159
-542.252	800.000	0.019	-0.060
-541.237	-200.000	0.019	0.271
-540.223	-160.585	0.106	-0.006
-539.208	497.762	-0.039	-0.090
-538.193	-60.204	-0.175	0.074
-537.179	-136.807	0.032	-0.004
-536.164	-101.172	0.140	-0.034
-535.150	-200.000	0.004	-0.272
-534.135	-8.509	0.317	0.212
-533.121	800.000	-0.021	-0.084
-532.106	122.788	0.146	-0.181
-531.091	66.095	-0.207	-0.209
-530.077	800.000	0.068	-0.233
-529.062	4.101	0.320	0.232
-528.048	-200.000	0.012	-0.325
-527.033	-123.194	0.080	-0.013
-526.018	266.777	-0.098	-0.169
-525.004	-126.364	-0.125	0.018
-523.989	-33.411	-0.175	0.096
-522.975	79.770	0.335	-0.357
-521.960	-200.000	-0.033	-0.151
-520.945	-174.244	0.245	-0.007
-519.931	78.768	-0.116	0.124
-518.916	458.144	0.105	0.231
-517.902	-52.980	0.470	0.215
-516.887	-88.047	-0.303	0.090
-515.872	-100.985	-0.331	-0.081
-514.858	800.000	0.077	-0.222
-513.843	-14.257	-0.195	-0.125
-512.829	-102.289	-0.202	0.048
-511.814	-200.000	-0.033	0.241
-510.799	9.119	-0.187	0.140
-509.785	-101.313	-0.414	0.100
-508.770	-163.653	0.230	0.011
-507.756	-44.507	0.227	0.113
-506.741	-200.000	-0.038	0.178
-505.726	800.000	0.066	0.216
-504.712	-91.042	0.107	0.031
-503.697	-65.969	0.292	-0.116
-502.683	-76.882	0.146	0.051
-501.668	-70.738	0.015	0.005
-500.653	-76.564	-0.375	0.131
-499.639	42.369	0.150	-0.135
-498.624	445.411	-0.052	0.114
-497.610	-29.733	-0.291	0.165
-496.595	-47.357	-0.325	0.157
-495.581	354.726	0.117	-0.231
-494.566	-46.666	0.095	-0.046
-493.551	-200.000	-0.000	0.238
-492.537	800.000	-0.022	0.088
-491.522	794.073	-0.087	-0.237
-490.508	6.190	-0.312	-0.229
-489.493	-200.000	0.009	-0.324
-488.478	221.113	-0.132	-0.211
-487.464	228.915	-0.182	-0.295
-486.449	-62.612	-0.230	-0.095
-485.435	-49.586	-0.091	0.043
-484.420	186.127	0.039	0.058
-483.405	-200.000	0.010	-0.254
-482.391	-26.402	-0.187	0.109
-481.376	439.525	0.130	0.282
-480.362	-85.922	-0.143	-0.044
-479.347	-84.440	-0.242	0.076
-478.332	-151.188	-0.223	-0.017
-477.318	-195.907	-0.169	0.001
-476.303	18.448	-0.119	-0.094
-475.289	-91.494	0.432	0.122
-474.274	-104.783	0.153	-0.035
-473.259	671.026	-0.106	-0.272
-472.245	334.495	0.054	-0.104
-471.230	-109.279	0.174	-0.037
-470.216	51.044	-0.100	0.094
-469.201	-16.038	0.076	0.048
-468.186	-52.251	-0.057	0.026
-467.172	-200.000	0.011	0.000
-466.157	276.101	0.238	-0.419
-465.143	47.115	0.242	0.223
-464.128	-109.149	-0.272	0.057
-463.113	-129.209	0.262	0.036
-462.099	800.000	-0.052	0.150
-461.084	93.637	0.075	-0.085
-460.070	-200.000	0.031	-0.303
-459.055	-200.000	-0.023	0.146
-458.040	-200.000	0.007	0.117
-457.026	800.000	0.047	0.171
-456.011	-79.136	0.283	0.095
-454.997	-115.039	-0.198	0.037
-453.982	225.591	0.117	-0.188
-452.968	-130.838	0.132	0.018
-451.953	-102.888	0.105	0.025
-450.938	64.600	0.099	-0.099
-449.924	800.000	-0.108	-0.406
-448.909	-200.000	0.012	-0.107
-447.895	-200.000	-0.074	0.398
-446.880	-85.626	0.241	0.074
-445.865	-118.238	0.148	-0.026
-444.851	800.000	0.126	0.373
-443.836	105.150	0.218	0.255
-442.822	6.382	-0.141	0.103
-441.807	800.000	0.055	-0.211
-440.792	-200.000	0.026	-0.157
-439.778	96.468	0.157	-0.178
-438.763	-36.094	0.256	-0.137
-437.749	-5.473	-0.123	-0.084
-436.734	265.762	-0.015	-0.026
-435.719	800.000	-0.015	0.046
-434.705	177.713	-0.390	-0.563
-433.690	-4.558	-0.192	-0.131
-432.676	-174.204	-0.325	0.009
-431.661	-120.539	0.191	0.032
-430.646	196.795	-0.283	-0.427
-429.632	800.000	-0.065	-0.196
-428.617	13.026	-0.122	-0.093
-427.603	-200.000	0.009	-0.072
-426.588	33.700	-0.218	0.188
-425.573	-200.000	0.040	-0.185
-424.559	66.598	0.239	-0.240
-423.544	-79.941	0.090	0.030
-422.530	0.962	-0.059	-0.042
-421.515	32.537	-0.012	0.010
-420.500	-200.000	0.001	-0.186
-419.486	36.865	0.096	-0.084
-418.471	-49.088	0.152	0.072
-417.457	70.084	0.081	0.082
-416.442	-46.129	-0.323	-0.158
-415.428	168.024	-0.138	-0.194
-414.413	1.189	0.245	-0.174
-413.398	174.899	-0.012	0.017
-412.384	-69.260	-0.168	0.064
-411.369	692.702	-0.073	0.189
-410.355	-43.387	-0.107	-0.054
-409.340	-130.194	-0.184	-0.025
-408.325	-68.406	0.476	0.183
-407.311	-200.000	0.009	-0.205
-406.296	-84.573	-0.348	0.108
-405.282	43.742	0.185	0.168
-404.267	659.421	0.063	0.161
-403.252	147.382	0.082	0.109
-402.238	-155.610	-0.241	0.015
-401.223	-52.404	-0.209	-0.096
-400.209	234.219	-0.155	0.252
-399.194	3.477	-0.167	0.120
-398.179	178.843	0.178	0.257
-397.165	414.383	-0.113	0.238
-396.150	-67.836	0.036	0.014
-395.136	554.075	0.092	0.220
-394.121	161.361	0.136	0.188
-393.106	-29.158	0.297	0.168
-392.092	287.903	-0.047	0.084
-391.077	-159.089	-0.147	0.008
-390.063	-118.310	-0.135	0.024
-389.048	688.072	-0.033	0.084
-388.033	46.362	0.203	0.186
-387.019	-22.017	0.201	-0.121
-386.004	-146.172	-0.345	-0.030
-384.990	42.772	0.166	0.149
-383.975	-145.548	-0.085	-0.008
-382.960	282.926	0.130	-0.230
-381.946	-46.479	-0.254	0.123
-380.931	-36.541	0.285	0.152
-379.917	-108.914	0.321	-0.068
-378.902	-79.346	0.149	0.050
-377.888	800.000	0.036	-0.108
-376.873	95.709	-0.102	-0.115
-375.858	13.956	-0.122	-0.094
-374.844	-200.000	-0.019	0.249
-373.829	329.705	-0.276	0.524
-372.815	800.000	-0.057	0.191
-371.800	29.254	-0.128	0.107
-370.785	800.000	0.097	0.396
-369.771	96.154	-0.113	0.128
-368.756	759.218	-0.060	0.161
-367.742	533.348	-0.075	0.176
-366.727	-200.000	-0.055	-0.429
-365.712	800.000	-0.062	-0.188
-364.698	-200.000	0.004	0.096
-363.683	-200.000	-0.005	-0.117
-362.669	478.338	-0.030	0.067
-361.654	0.241	-0.229	-0.161
-360.639	-23.583	-0.242	0.143
-359.625	355.974	0.088	0.173
-358.610	-17.202	0.103	0.064
-357.596	128.331	-0.164	-0.207
-356.581	-46.009	0.177	0.086
-355.566	136.579	0.228	0.294
-354.552	-124.205	-0.011	-0.002
-353.537	143.672	-0.041	-0.054
-352.523	19.618	0.225	-0.179
-351.508	-51.583	-0.145	-0.067
-350.493	-200.000	-0.010	0.127
-349.479	689.544	0.016	0.042
-348.464	800.000	-0.042	0.167
-347.450	251.915	0.220	0.370
-346.435	-200.000	0.052	0.322
-345.420	-200.000	0.050	-0.458
-344.406	485.654	0.059	0.131
-343.391	355.738	0.051	0.101
-342.377	199.912	-0.074	0.112
-341.362	-95.340	-0.221	-0.059
-340.348	-200.000	0.015	0.131
-339.333	-173.263	0.410	0.012
-338.318	-27.875	0.453	-0.259
-337.304	800.000	0.043	0.122
-336.289	299.320	-0.079	0.143
-335.275	503.168	0.095	-0.216
-334.260	-51.537	-0.060	-0.027
-333.245	36.590	-0.049	-0.043
-332.231	143.465	0.141	0.185
-331.216	154.534	-0.263	0.356
-330.202	216.272	0.191	0.300
-329.187	800.000	0.093	-0.304
-328.172	-54.177	-0.185	-0.083
-327.158	-33.323	-0.300	-0.164
-326.143	800.000	0.096	-0.291
-325.129	-34.491	0.134	0.072
-324.114	-78.163	0.184	-0.062
-323.099	333.035	0.052	0.100
-322.085	94.386	-0.193	0.217
-321.070	161.513	-0.031	-0.043
-320.056	178.391	-0.159	-0.228
-319.041	-67.992	0.047	-0.018
-318.026	-12.192	0.094	0.061
-317.012	116.211	0.028	-0.034
-315.997	307.577	0.052	0.096
-314.983	7.672	0.081	0.060
-313.968	35.674	0.138	0.119
-312.953	-11.815	0.089	0.058
-311.939	-110.895	0.033	0.007
-310.924	341.876	0.052	0.099
-309.910	44.959	-0.292	0.265
-308.895	-20.971	0.189	0.114
-307.880	800.000	-0.032	0.132
-306.866	-161.002	-0.394	0.020
-305.851	122.834	0.152	-0.187
-304.837	689.863	0.048	0.123
-303.822	-97.534	0.281	0.072
-302.807	800.000	0.020	0.056
-301.793	45.456	0.224	0.204
-300.778	-66.407	0.320	0.125
-299.764	-200.000	0.028	0.126
-298.749	-72.489	-0.262	-0.095
-297.735	-200.000	-0.009	-0.055
-296.720	246.827	-0.195	-0.323
-295.705	800.000	-0.140	-0.451
-294.691	-42.849	0.150	0.075
-293.676	-54.349	0.097	-0.043
-292.662	-200.000	0.016	0.091
-291.647	377.047	0.076	0.153
-290.632	294.053	0.147	0.264
-289.618	-101.936	-0.282	0.067
-288.603	-200.000	0.040	0.205
-287.589	-69.060	-0.286	0.108
-286.574	-85.544	-0.053	0.016
-285.559	800.000	-0.083	-0.254
-284.545	-82.645	-0.098	0.031
-283.530	-113.613	-0.095	0.018
-282.516	-200.000	-0.010	-0.046
-281.501	139.713	0.119	0.154
-280.486	701.489	0.072	0.188
-279.472	84.860	0.205	-0.221
-278.457	659.240	-0.047	-0.120
-277.443	-32.477	-0.181	0.099
-276.428	-134.292	-0.318	0.038
-275.413	445.104	-0.065	0.141
-274.399	-200.000	0.029	-0.150
-273.384	128.553	0.294	-0.369
-272.370	81.985	0.052	-0.056
-271.355	88.132	0.024	-0.026
-270.340	111.415	-0.320	0.379
-269.326	-107.225	0.081	-0.017
-268.311	68.343	-0.115	0.116
-267.297	-106.944	0.172	-0.037
-266.282	-103.534	0.278	0.064
-265.267	-0.380	0.394	-0.276
-264.253	219.250	0.089	-0.140
-263.238	800.000	-0.029	-0.090
-262.224	-65.728	0.057	-0.023
-261.209	-200.000	-0.044	-0.246
-260.195	662.098	0.069	-0.175
-259.180	175.961	0.166	-0.237
-258.165	-81.689	0.253	-0.082
-257.151	357.701	0.059	-0.116
-256.136	-100.706	-0.346	-0.084
-255.122	707.041	-0.029	0.076
-254.107	-200.000	0.333	0.000
-253.092	-200.000	0.058	-0.595
-252.078	-111.961	0.077	0.015
-251.063	362.424	0.088	-0.174
-250.049	-86.650	0.104	0.031
-249.034	-75.380	-0.178	-0.062
-248.019	-200.000	0.063	-0.392
-247.005	-97.766	-0.119	0.030
-245.990	707.339	-0.049	0.126
-244.976	95.502	-0.071	-0.080
-243.961	172.280	0.210	-0.296
-242.946	-151.013	0.184	-0.014
-241.932	354.543	-0.082	-0.161
-240.917	-200.000	-0.038	0.327
-239.903	-200.000	-0.044	0.469
-238.888	-62.832	-0.300	0.122
-237.873	-200.000	0.031	0.220
-236.859	-200.000	0.054	0.243
-235.844	-200.000	-0.047	0.268
-234.830	-146.395	0.248	-0.021
-233.815	-200.000	-0.049	0.274
-232.800	800.000	0.097	-0.276
-231.786	-115.721	0.208	-0.038
-230.771	-51.467	0.337	0.155
-229.757	2.159	-0.198	-0.141
-228.742	800.000	0.052	-0.156
-227.727	8.100	0.189	0.139
-226.713	-81.681	0.457	0.147
-225.698	515.448	-0.018	0.042
-224.684	-142.867	-0.206	-0.020
-223.669	520.483	-0.059	0.137
-222.655	-108.613	0.119	0.025
-221.640	111.681	0.122	-0.145
-220.625	-200.000	0.027	0.348
-219.611	-200.000	0.006	0.121
-218.596	6.337	-0.101	0.074
-217.582	310.203	-0.109	0.201
-216.567	-200.000	-0.056	0.307
-215.552	-83.555	-0.057	-0.018
-214.538	800.000	-0.052	0.210
-213.523	-200.000	0.006	-0.086
-212.509	-56.826	0.391	0.170
-211.494	57.904	0.086	-0.082
-210.479	-200.000	-0.028	-0.306
-209.465	-200.000	0.013	-0.253
-208.450	-200.000	-0.012	-0.065
-207.436	-47.014	0.212	-0.102
-206.421	-52.711	0.430	-0.195
-205.406	-55.129	-0.238	-0.105
-204.392	208.969	-0.120	0.185
-203.377	-200.000	0.034	0.337
-202.363	488.665	-0.077	0.172
-201.348	-200.000	0.024	-0.370
-200.333	35.957	-0.147	0.127
-199.319	800.000	0.103	-0.349
-198.304	-176.923	-0.171	-0.004
-197.290	-104.019	0.201	-0.046
-196.275	265.922	-0.190	-0.325
-195.260	406.727	-0.121	0.251
-194.246	800.000	0.060	-0.183
-193.231	-27.501	-0.332	-0.189
-192.217	-58.973	0.152	0.064
-191.202	254.576	-0.097	0.162
-190.187	18.126	-0.240	0.188
-189.173	8.737	0.382	0.282
-188.158	209.404	0.084	0.129
-187.144	-200.000	-0.059	-0.405
-186.129	-200.000	-0.032	-0.188
-185.114	-122.611	0.068	-0.011
-184.100	84.574	-0.144	-0.155
-183.085	-94.102	-0.360	-0.097
-182.071	-75.974	0.219	0.076
-181.056	-131.627	0.076	-0.010
-180.042	-26.678	-0.123	0.071
-179.027	34.652	0.202	-0.173
-178.012	103.937	-0.084	0.096
-176.998	-200.000	0.005	0.075
-175.983	-200.000	-0.014	0.146
-174.969	-200.000	-0.044	-0.314
-173.954	-200.000	-0.002	-0.171
-172.939	74.587	0.279	0.288
-171.925	83.647	-0.136	-0.145
-170.910	-176.850	0.174	0.004
-169.896	101.192	0.303	0.346
-168.881	87.318	-0.122	-0.133
-167.866	-147.418	0.332	0.028
-166.852	-132.389	-0.490	0.062
-165.837	-21.653	0.080	0.048
-164.823	-200.000	0.008	-0.149
-163.808	13.549	0.227	-0.173
-162.793	130.265	0.192	0.241
-161.779	-166.744	0.288	0.012
-160.764	308.561	-0.117	0.214
-159.750	76.937	0.178	-0.185
-158.735	84.983	-0.170	0.182
-157.720	19.977	-0.196	-0.155
-156.706	82.110	0.097	0.103
-155.691	-65.389	-0.132	0.052
-154.677	34.419	0.012	-0.010
-153.662	-200.000	0.020	-0.109
-152.647	-112.730	0.420	-0.082
-151.633	-200.000	-0.039	-0.341
-150.618	800.000	0.096	-0.361
-149.604	-160.107	-0.174	0.009
-148.589	-169.361	-0.165	0.006
-147.574	0.254	-0.075	-0.052
-146.560	-132.300	-0.242	0.031
-145.545	79.369	-0.181	0.190
-144.531	145.437	0.045	-0.058
-143.516	800.000	-0.073	0.299
-142.502	-128.709	-0.102	0.014
-141.487	369.118	0.079	0.156
-140.472	-200.000	0.027	0.265
-139.458	742.899	0.082	0.216
-138.443	-114.442	-0.537	0.101
-137.429	-26.725	-0.094	0.054
-136.414	185.605	0.049	0.071
-135.399	800.000	-0.032	0.108
-134.385	118.763	0.081	0.098
-133.370	530.378	0.069	0.160
-132.356	110.492	0.062	-0.073
-131.341	400.881	0.044	0.089
-130.326	-175.789	0.091	0.002
-129.312	-200.000	0.022	0.225
-128.297	-110.135	0.216	0.044
-127.283	-5.448	-0.287	0.193
-126.268	508.231	-0.177	-0.402
-125.253	387.457	-0.045	-0.091
-124.239	-200.000	0.040	0.210
-123.224	-72.955	-0.113	0.041
-122.210	-102.621	-0.323	-0.075
-121.195	800.000	0.017	-0.049
-120.180	800.000	0.050	0.180
