DTS Sentinel unit serial number:	SN413079Multiplexer serial number:	ORYXHardware model number:	OX4-SRSoftware version number:	ORYX F/W v4.00 Oryx Data Collector v3.7.2.0data status	okinstallation	princeton_trtdifferential loss correction	single-endedforward channel	channel 3reverse channel	N/Adate	2019/09/14time	11:00:35forward acquisition time	60.00reverse acquisition time	0.00gamma	496.2192k internal	0.2299k external	0.2299temperature offset calibration	1.0061default loss term (dB/km)	0.3790temperature slope calibration	1.0000multiplexer offset coefficient	1.0000multiplexer slope coefficient	1.0000fibre end	0.00T internal ref (°C)	36.00T ext. ref 1 (°C)	4.37T ext. ref 2 (°C)	33.91length (m)	temperature (°C)	Stokes	anti-Stokes-747.200	800.000	0.053	-0.230
-746.185	-136.777	0.075	-0.009
-745.171	-132.929	-0.128	-0.017
-744.156	3.591	-0.307	0.229
-743.142	-131.464	-0.266	0.036
-742.127	-85.519	-0.220	-0.070
-741.112	-29.148	0.180	0.106
-740.098	-67.173	-0.079	0.032
-739.083	800.000	0.097	-0.398
-738.069	800.000	0.079	0.302
-737.054	-200.000	0.003	0.089
-736.039	-123.906	0.190	0.031
-735.025	27.495	-0.204	-0.175
-734.010	31.912	-0.197	-0.173
-732.996	-140.968	-0.221	0.023
-731.981	100.954	-0.052	0.062
-730.966	303.037	-0.037	0.069
-729.952	-72.797	-0.250	0.094
-728.937	-30.642	-0.438	-0.253
-727.923	440.764	-0.158	-0.353
-726.908	-38.637	-0.090	-0.048
-725.894	-26.984	-0.331	-0.197
-724.879	-200.000	0.018	0.154
-723.864	-33.547	0.110	-0.062
-722.850	458.296	0.012	0.028
-721.835	-15.270	0.183	-0.119
-720.821	-51.326	0.053	0.025
-719.806	-92.921	-0.367	-0.104
-718.791	52.396	-0.269	0.261
-717.777	343.233	-0.230	0.459
-716.762	-108.693	0.071	0.016
-715.748	86.105	-0.150	0.169
-714.733	378.659	0.074	0.155
-713.718	782.339	0.030	0.083
-712.704	8.105	0.245	-0.188
-711.689	800.000	0.008	0.028
-710.675	-41.716	0.204	-0.107
-709.660	212.154	-0.043	-0.069
-708.645	736.615	-0.111	0.304
-707.631	-89.797	-0.138	0.041
-706.616	800.000	-0.074	0.313
-705.602	-200.000	0.021	0.130
-704.587	800.000	-0.074	-0.263
-703.572	-108.513	-0.103	-0.023
-702.558	-174.567	0.407	0.012
-701.543	112.581	0.128	-0.158
-700.529	162.690	0.102	-0.146
-699.514	567.139	0.015	0.038
-698.499	16.664	-0.242	0.195
-697.485	132.975	0.209	-0.275
-696.470	-75.227	0.043	-0.015
-695.456	30.970	-0.146	-0.128
-694.441	-93.104	0.389	0.110
-693.426	84.942	-0.110	0.122
-692.412	800.000	-0.108	0.323
-691.397	800.000	0.016	-0.063
-690.383	8.259	-0.120	0.092
-689.368	-28.554	-0.145	-0.085
-688.354	83.966	0.056	0.062
-687.339	165.054	0.097	-0.139
-686.324	-200.000	0.033	-0.457
-685.310	473.585	-0.034	0.078
-684.295	1.477	-0.135	0.099
-683.281	413.987	-0.141	-0.305
-682.266	-96.631	-0.237	-0.064
-681.251	358.436	-0.108	-0.219
-680.237	800.000	0.089	-0.306
-679.222	54.541	-0.143	-0.140
-678.208	800.000	-0.046	0.134
-677.193	494.634	0.102	-0.239
-676.178	638.604	0.048	0.125
-675.164	93.759	0.182	0.210
-674.149	-40.483	-0.093	-0.049
-673.135	800.000	-0.100	0.366
-672.120	-16.628	0.322	0.207
-671.105	337.199	0.057	0.113
-670.091	271.066	-0.077	-0.139
-669.076	-79.729	-0.410	-0.140
-668.062	233.640	-0.267	0.447
-667.047	-141.396	0.070	-0.007
-666.032	-160.886	-0.276	0.015
-665.018	-51.577	0.077	-0.036
-664.003	45.554	-0.026	0.024
-662.989	-46.910	-0.202	-0.100
-661.974	800.000	0.065	0.267
-660.959	126.615	-0.220	-0.283
-659.945	-70.663	-0.209	-0.080
-658.930	-112.292	-0.209	0.043
-657.916	-22.083	0.121	-0.075
-656.901	-109.795	-0.087	0.018
-655.886	-200.000	0.051	-0.387
-654.872	116.608	0.170	-0.212
-653.857	-200.000	-0.013	0.259
-652.843	-200.000	0.011	0.319
-651.828	800.000	-0.080	0.252
-650.814	327.241	0.125	-0.244
-649.799	-188.288	0.235	-0.003
-648.784	-102.200	0.174	-0.043
-647.770	-75.356	0.250	-0.091
-646.755	-110.248	-0.153	-0.032
-645.741	38.143	-0.298	-0.270
-644.726	800.000	-0.074	-0.226
-643.711	178.585	-0.167	-0.248
-642.697	-43.027	0.245	0.126
-641.682	-149.364	0.173	-0.014
-640.668	-137.554	0.203	-0.023
-639.653	-20.787	0.040	-0.025
-638.638	50.360	0.216	0.207
-637.624	26.794	-0.094	0.080
-636.609	-89.231	-0.309	0.093
-635.595	-69.725	0.056	-0.022
-634.580	-108.584	-0.326	-0.071
-633.565	-200.000	0.041	-0.202
-632.551	-200.000	-0.005	-0.069
-631.536	483.191	-0.029	0.066
-630.522	-81.640	-0.144	-0.048
-629.507	-200.000	-0.022	-0.162
-628.492	236.442	-0.137	-0.231
-627.478	213.239	0.204	-0.327
-626.463	-200.000	-0.021	0.264
-625.449	140.250	-0.172	-0.230
-624.434	42.093	-0.157	-0.145
-623.419	-67.151	0.246	-0.098
-622.405	38.501	0.177	-0.160
-621.390	741.942	0.016	0.045
-620.376	-29.091	0.098	0.057
-619.361	-33.490	0.037	-0.021
-618.346	-1.655	0.278	0.199
-617.332	-148.521	0.221	0.018
-616.317	94.023	-0.244	-0.281
-615.303	407.325	0.163	-0.350
-614.288	-119.667	0.200	-0.035
-613.273	173.471	0.212	-0.311
-612.259	-200.000	-0.027	-0.256
-611.244	-152.150	0.081	-0.006
-610.230	143.775	0.107	0.145
-609.215	438.525	-0.110	-0.244
-608.201	359.257	0.098	0.199
-607.186	120.049	-0.135	0.170
-606.171	536.610	0.136	-0.327
-605.157	-12.506	0.069	-0.046
-604.142	606.136	-0.066	0.168
-603.128	-119.538	0.225	-0.040
-602.113	-200.000	0.019	-0.294
-601.098	-146.692	0.115	-0.010
-600.084	-90.214	0.277	-0.082
-599.069	-200.000	0.053	0.242
-598.055	-123.823	0.357	0.057
-597.040	800.000	0.032	0.095
-596.025	329.772	0.110	-0.215
-595.011	-35.789	-0.041	-0.023
-593.996	-119.222	0.151	-0.027
-592.982	106.824	0.119	-0.143
-591.967	-88.613	0.266	-0.080
-590.952	-200.000	-0.038	-0.427
-589.938	124.855	0.148	-0.190
-588.923	762.530	0.025	-0.070
-587.909	88.018	-0.107	-0.120
-586.894	84.707	0.053	0.059
-585.879	-27.730	-0.165	-0.097
-584.865	-91.755	-0.106	-0.031
-583.850	-200.000	0.015	0.121
-582.836	252.742	-0.154	-0.266
-581.821	-156.805	0.039	-0.002
-580.806	348.821	-0.061	-0.122
-579.792	-1.316	-0.071	-0.051
-578.777	666.687	0.056	0.147
-577.763	-121.924	-0.022	0.004
-576.748	-0.608	0.039	-0.028
-575.733	-7.342	0.146	-0.100
-574.719	-93.697	-0.299	0.084
-573.704	642.531	0.016	0.042
-572.690	800.000	-0.106	-0.318
-571.675	60.303	-0.036	0.037
-570.661	-14.188	0.119	-0.078
-569.646	138.754	-0.087	0.116
-568.631	55.588	-0.189	-0.186
-567.617	42.316	-0.252	0.232
-566.602	-63.364	0.221	0.092
-565.588	-30.521	-0.148	-0.085
-564.573	7.538	0.247	0.187
-563.558	-200.000	-0.059	0.400
-562.544	220.941	0.099	0.161
-561.529	61.155	-0.284	-0.285
-560.515	-92.790	0.132	-0.037
-559.500	94.393	0.103	-0.118
-558.485	304.215	-0.093	0.174
-557.471	58.724	0.080	-0.079
-556.456	27.786	-0.191	-0.163
-555.442	-59.995	0.224	0.097
-554.427	-144.326	-0.294	-0.028
-553.412	-200.000	-0.013	-0.093
-552.398	27.570	0.247	0.211
-551.383	130.792	-0.046	-0.060
-550.369	147.957	-0.263	-0.359
-549.354	-171.701	0.434	-0.014
-548.339	-119.731	0.090	-0.016
-547.325	-197.671	0.132	0.001
-546.310	124.311	0.154	0.196
-545.296	413.917	0.067	0.143
-544.281	271.873	-0.049	-0.087
-543.266	800.000	-0.116	-0.344
-542.252	-120.387	-0.207	0.036
-541.237	-149.652	-0.163	0.013
-540.223	66.666	0.258	0.266
-539.208	-75.463	-0.049	0.018
-538.193	283.910	-0.173	0.316
-537.179	-200.000	-0.009	0.260
-536.164	331.557	-0.179	-0.349
-535.150	454.534	0.153	0.344
-534.135	212.373	-0.138	-0.220
-533.121	41.552	-0.144	0.132
-532.106	-119.660	-0.231	0.040
-531.091	42.634	0.101	-0.093
-530.077	366.885	-0.107	-0.218
-529.062	-122.268	-0.053	0.009
-528.048	800.000	0.057	-0.173
-527.033	800.000	-0.101	-0.366
-526.018	218.789	0.033	-0.053
-525.004	-200.000	0.018	-0.108
-523.989	-200.000	0.017	0.260
-522.975	488.872	0.081	-0.188
-521.960	-200.000	0.089	-0.413
-520.945	268.495	-0.118	0.209
-519.931	-200.000	-0.000	0.060
-518.916	-200.000	-0.012	0.312
-517.902	-174.006	0.373	0.011
-516.887	-200.000	-0.024	-0.124
-515.872	-10.497	0.018	0.012
-514.858	55.019	-0.022	-0.021
-513.843	-1.171	0.272	-0.195
-512.829	10.163	-0.045	0.034
-511.814	-92.631	0.062	-0.018
-510.799	-169.348	-0.585	0.022
-509.785	28.822	-0.275	-0.236
-508.770	146.120	0.258	-0.349
-507.756	-97.412	-0.354	0.093
-506.741	-200.000	-0.007	-0.089
-505.726	-200.000	-0.000	-0.029
-504.712	-200.000	-0.041	0.183
-503.697	-82.840	-0.102	-0.033
-502.683	-4.692	-0.188	-0.131
-501.668	136.297	-0.134	-0.176
-500.653	-21.956	-0.079	0.049
-499.639	-53.515	-0.276	0.128
-498.624	-200.000	0.025	-0.209
-497.610	-200.000	-0.041	-0.264
-496.595	-200.000	0.064	0.396
-495.581	-200.000	-0.097	-0.479
-494.566	302.744	0.137	-0.257
-493.551	440.612	-0.062	-0.137
-492.537	-200.000	-0.016	0.116
-491.522	142.981	-0.092	-0.123
-490.508	-200.000	-0.014	0.344
-489.493	-200.000	0.011	-0.276
-488.478	738.678	-0.110	-0.299
-487.464	-200.000	0.106	0.000
-486.449	172.382	-0.086	-0.126
-485.435	-30.950	0.426	-0.243
-484.420	603.404	0.114	0.288
-483.405	-127.615	-0.399	-0.058
-482.391	-23.024	0.307	-0.187
-481.376	464.317	0.116	0.262
-480.362	93.408	-0.144	0.165
-479.347	138.191	-0.117	0.154
-478.332	498.610	0.126	0.293
-477.318	30.062	0.309	-0.266
-476.303	274.332	-0.071	-0.126
-475.289	-97.451	0.119	-0.031
-474.274	121.295	-0.146	-0.183
-473.259	-112.026	-0.227	-0.046
-472.245	-23.309	-0.288	-0.175
-471.230	245.416	0.038	0.064
-470.216	25.317	0.181	0.152
-469.201	-200.000	-0.001	0.156
-468.186	800.000	-0.030	0.098
-467.172	272.240	-0.194	0.345
-466.157	227.877	0.083	0.136
-465.143	383.708	-0.018	0.038
-464.128	-61.458	0.073	0.031
-463.113	291.086	0.140	0.256
-462.099	197.701	-0.137	-0.212
-461.084	-130.730	-0.140	0.019
-460.070	-119.573	0.159	-0.028
-459.055	393.876	-0.021	0.045
-458.040	85.741	-0.055	-0.061
-457.026	-73.264	-0.144	-0.053
-456.011	218.605	0.076	0.122
-454.997	191.808	0.098	-0.149
-453.982	-200.000	0.034	0.257
-452.968	-141.068	0.113	0.012
-451.953	800.000	-0.121	0.405
-450.938	-71.938	-0.128	0.048
-449.924	19.140	0.205	-0.166
-448.909	-200.000	-0.043	-0.321
-447.895	237.890	0.192	0.322
-446.880	-96.930	0.142	-0.038
-445.865	800.000	0.021	0.086
-444.851	125.954	-0.141	0.180
-443.836	-50.578	-0.126	0.060
-442.822	-200.000	0.025	0.222
-441.807	-200.000	0.013	0.420
-440.792	-7.145	0.049	-0.034
-439.778	-57.540	0.387	0.171
-438.763	141.839	-0.061	0.082
-437.749	-37.873	-0.093	-0.050
-436.734	-111.819	-0.273	-0.056
-435.719	-163.592	-0.192	0.009
-434.705	338.998	0.213	0.419
-433.690	81.653	0.156	-0.170
-432.676	-36.638	-0.090	-0.049
-431.661	-55.363	0.147	0.066
-430.646	203.941	-0.145	-0.226
-429.632	-142.226	-0.434	0.043
-428.617	33.171	0.381	-0.333
-427.603	76.685	-0.212	0.227
-426.588	-104.344	0.239	0.056
-425.573	38.077	-0.195	-0.175
-424.559	-65.334	0.337	-0.137
-423.544	468.238	-0.056	-0.127
-422.530	-200.000	-0.009	0.356
-421.515	-27.841	-0.276	0.161
-420.500	73.302	0.310	0.327
-419.486	-22.704	-0.123	-0.075
-418.471	-187.218	-0.364	0.005
-417.457	-142.288	0.399	-0.040
-416.442	-164.723	-0.096	-0.004
-415.428	501.274	-0.141	0.329
-414.413	800.000	0.016	0.072
-413.398	-116.605	-0.241	0.045
-412.384	15.261	0.233	-0.184
-411.369	179.856	-0.075	-0.111
-410.355	-137.474	0.236	-0.027
-409.340	-86.156	0.171	-0.053
-408.325	-45.363	0.269	0.134
-407.311	-176.433	0.287	0.007
-406.296	664.065	-0.140	0.365
-405.282	-7.956	-0.039	-0.026
-404.267	-200.000	0.004	0.065
-403.252	528.391	-0.054	0.128
-402.238	800.000	-0.041	0.163
-401.223	-200.000	0.011	0.424
-400.209	2.650	-0.133	-0.097
-399.194	-200.000	0.003	-0.174
-398.179	21.528	0.037	-0.030
-397.165	-65.153	0.285	0.116
-396.150	-130.027	0.253	0.035
-395.136	252.857	-0.131	-0.225
-394.121	161.920	-0.010	-0.013
-393.106	-115.866	-0.160	-0.030
-392.092	795.603	0.100	-0.276
-391.077	-58.891	-0.283	-0.123
-390.063	-200.000	0.364	0.001
-389.048	-23.612	0.034	0.021
-388.033	327.847	0.045	0.088
-387.019	-200.000	0.014	-0.223
-386.004	-200.000	-0.040	0.213
-384.990	-137.932	0.060	0.007
-383.975	-200.000	0.021	-0.298
-382.960	15.024	0.083	-0.065
-381.946	-117.715	0.131	0.024
-380.931	366.214	0.195	0.395
-379.917	-200.000	-0.014	0.223
-378.902	255.197	-0.186	-0.320
-377.888	-188.040	-0.245	-0.003
-376.873	-147.872	0.249	0.021
-375.858	-23.511	-0.024	0.014
-374.844	-116.377	-0.352	-0.066
-373.829	-200.000	-0.006	0.101
-372.815	-200.000	-0.003	-0.230
-371.800	248.959	-0.013	-0.022
-370.785	-32.881	-0.208	0.116
-369.771	37.000	-0.103	0.091
-368.756	-200.000	0.001	0.214
-367.742	800.000	0.119	0.496
-366.727	83.001	0.232	-0.254
-365.712	22.341	-0.274	0.225
-364.698	227.865	0.050	-0.083
-363.683	-34.885	0.315	0.173
-362.669	-102.646	0.216	0.052
-361.654	800.000	0.037	-0.145
-360.639	30.092	0.122	-0.105
-359.625	800.000	-0.074	0.225
-358.610	-94.078	0.254	0.070
-357.596	-200.000	-0.034	0.283
-356.581	171.906	-0.169	0.244
-355.566	229.211	0.078	0.129
-354.552	-48.430	0.351	0.170
-353.537	-159.878	0.141	-0.008
-352.523	192.130	-0.204	-0.308
-351.508	18.425	-0.378	-0.303
-350.493	800.000	0.065	-0.257
-349.479	-141.000	0.234	0.024
-348.464	-18.050	0.148	0.093
-347.450	34.609	-0.160	-0.140
-346.435	10.618	-0.241	-0.185
-345.420	-200.000	-0.040	-0.459
-344.406	2.337	-0.072	-0.053
-343.391	530.030	-0.066	-0.156
-342.377	-142.470	0.187	0.018
-341.362	-17.972	0.122	0.077
-340.348	-153.082	0.348	0.025
-339.333	-200.000	0.017	0.151
-338.318	72.836	-0.091	-0.095
-337.304	-43.544	0.106	-0.054
-336.289	28.137	-0.101	0.085
-335.275	120.560	-0.077	-0.096
-334.260	485.223	-0.072	0.164
-333.245	-13.326	0.137	-0.089
-332.231	219.662	0.182	-0.292
-331.216	800.000	0.067	0.236
-330.202	6.587	-0.303	-0.226
-329.187	-158.861	-0.211	-0.012
-328.172	166.381	-0.207	0.294
-327.158	800.000	-0.043	-0.165
-326.143	-15.345	-0.183	0.117
-325.129	-107.638	-0.268	-0.059
-324.114	800.000	-0.069	-0.193
-323.099	-65.195	-0.291	0.118
-322.085	-62.825	0.282	0.117
-321.070	-200.000	-0.020	0.135
-320.056	-119.642	0.246	0.043
-319.041	62.074	-0.058	-0.058
-318.026	183.850	0.131	0.194
-317.012	286.085	0.050	-0.091
-315.997	-83.662	0.445	0.143
-314.983	800.000	-0.088	-0.275
-313.968	-200.000	0.044	-0.231
-312.953	-31.482	-0.258	0.145
-311.939	800.000	0.164	0.458
-310.924	-200.000	0.022	0.332
-309.910	-200.000	0.016	-0.412
-308.895	-29.558	0.290	-0.166
-307.880	99.310	-0.036	-0.042
-306.866	-172.088	-0.108	0.004
-305.851	-30.396	0.280	0.160
-304.837	-104.875	-0.156	-0.036
-303.822	-4.388	0.057	-0.040
-302.807	-14.861	-0.094	0.061
-301.793	301.184	-0.126	-0.233
-300.778	228.911	-0.165	-0.269
-299.764	560.936	0.042	-0.103
-298.749	-200.000	0.074	0.497
-297.735	33.692	0.279	0.243
-296.720	764.432	-0.117	0.318
-295.705	263.086	0.094	-0.164
-294.691	-200.000	-0.013	0.162
-293.676	-101.768	-0.237	-0.058
-292.662	-200.000	-0.026	0.352
-291.647	-129.173	-0.393	-0.055
-290.632	-200.000	0.077	-0.423
-289.618	6.770	-0.072	-0.053
-288.603	800.000	0.031	0.091
-287.589	800.000	0.068	0.190
-286.574	29.295	0.331	-0.282
-285.559	-152.621	-0.119	0.009
-284.545	800.000	0.029	-0.092
-283.530	75.498	-0.261	0.276
-282.516	159.000	0.231	0.322
-281.501	-142.264	0.065	0.006
-280.486	-109.583	-0.177	-0.037
-279.472	3.306	-0.114	0.083
-278.457	97.455	0.306	0.352
-277.443	-44.172	0.218	-0.109
-276.428	-61.538	-0.084	-0.035
-275.413	-7.071	-0.227	0.154
-274.399	119.288	0.212	0.263
-273.384	52.563	-0.265	-0.253
-272.370	-200.000	-0.010	-0.210
-271.355	-95.353	-0.170	0.046
-270.340	98.107	0.231	-0.267
-269.326	-84.867	-0.125	0.039
-268.311	-10.608	0.156	0.103
-267.297	248.047	0.011	-0.018
-266.282	173.777	0.115	-0.166
-265.267	285.792	0.148	-0.268
-264.253	264.700	-0.228	0.398
-263.238	-137.976	0.275	-0.031
-262.224	-200.000	-0.019	0.233
-261.209	-88.133	0.223	0.067
-260.195	-78.824	0.292	-0.100
-259.180	113.304	-0.192	-0.233
-258.165	-200.000	0.011	-0.321
-257.151	-102.295	-0.267	0.064
-256.136	-200.000	0.055	0.713
-255.122	-126.537	0.224	-0.033
-254.107	120.261	0.097	0.121
-253.092	-48.101	0.167	0.081
-252.078	234.582	-0.044	-0.072
-251.063	-200.000	0.024	-0.256
-250.049	177.435	-0.316	-0.461
-249.034	-22.741	0.201	-0.122
-248.019	272.810	-0.112	0.198
-247.005	-200.000	0.025	-0.357
-245.990	39.241	-0.021	-0.019
-244.976	-200.000	-0.017	0.085
-243.961	800.000	-0.164	0.465
-242.946	-110.919	0.227	0.047
-241.932	-87.420	-0.074	-0.022
-240.917	-200.000	0.033	-0.179
-239.903	202.751	-0.148	0.229
-238.888	-200.000	0.026	-0.364
-237.873	800.000	-0.068	0.287
-236.859	360.183	-0.057	0.115
-235.844	114.540	-0.161	0.196
-234.830	-200.000	-0.070	0.558
-233.815	238.758	-0.165	-0.274
-232.800	800.000	-0.120	-0.488
-231.786	86.587	-0.123	0.136
-230.771	389.518	0.076	0.158
-229.757	20.368	-0.126	0.101
-228.742	-9.771	-0.077	-0.051
-227.727	800.000	0.012	-0.045
-226.713	-150.378	-0.155	-0.012
-225.698	53.867	0.119	-0.114
-224.684	-200.000	-0.008	0.131
-223.669	759.875	-0.129	0.350
-222.655	679.076	0.101	-0.263
-221.640	55.191	-0.162	-0.157
-220.625	132.711	-0.089	0.115
-219.611	152.772	-0.119	0.162
-218.596	5.377	-0.093	0.069
-217.582	92.875	-0.178	0.201
-216.567	-200.000	0.059	0.436
-215.552	-24.130	0.104	0.062
-214.538	127.814	0.130	0.166
-213.523	61.155	-0.127	0.126
-212.509	-93.592	-0.559	-0.154
-211.494	-89.772	0.181	0.053
-210.479	-200.000	0.004	-0.091
-209.465	-70.791	-0.374	0.141
-208.450	-60.133	0.230	-0.098
-207.436	17.368	-0.306	-0.243
-206.421	-200.000	0.011	0.092
-205.406	-200.000	-0.036	-0.311
-204.392	-200.000	-0.069	-0.344
-203.377	-91.702	-0.021	0.006
-202.363	-33.374	-0.027	-0.015
-201.348	-52.983	0.371	-0.170
-200.333	-21.428	0.240	0.146
-199.319	-200.000	0.031	0.238
-198.304	567.601	-0.093	-0.225
-197.290	-65.369	-0.524	0.210
-196.275	201.783	0.099	0.153
-195.260	-88.745	0.134	-0.040
-194.246	-200.000	0.002	-0.012
-193.231	-100.077	-0.354	0.088
-192.217	-99.911	-0.134	-0.033
-191.202	48.784	0.193	-0.181
-190.187	375.865	-0.161	0.329
-189.173	26.454	0.194	0.162
-188.158	12.146	-0.203	0.156
-187.144	182.744	0.067	0.099
-186.129	21.448	-0.189	-0.153
-185.114	-200.000	-0.002	0.020
-184.100	115.286	-0.204	-0.248
-183.085	-200.000	0.035	-0.192
-182.071	12.098	0.086	0.066
-181.056	782.297	-0.014	-0.039
-180.042	0.230	0.085	0.061
-179.027	102.488	0.122	0.143
-178.012	-200.000	-0.022	0.108
-176.998	-22.927	0.274	-0.165
-175.983	16.595	-0.148	-0.117
-174.969	135.469	-0.090	0.117
-173.954	112.512	-0.298	0.360
-172.939	800.000	-0.054	-0.206
-171.925	39.664	0.101	-0.090
-170.910	-200.000	0.016	-0.423
-169.896	-113.874	0.203	0.039
-168.881	47.220	0.141	-0.131
-167.866	800.000	-0.063	0.179
-166.852	-103.847	0.199	0.046
-165.837	456.564	0.050	0.111
-164.823	111.846	0.141	0.169
-163.808	-175.148	0.110	0.003
-162.793	122.486	-0.183	0.228
-161.779	-118.944	-0.188	-0.033
-160.764	-78.562	0.095	0.032
-159.750	562.400	0.094	-0.228
-158.735	524.577	0.031	-0.072
-157.720	-133.386	0.202	0.025
-156.706	289.555	-0.142	0.256
-155.691	71.797	-0.124	0.129
-154.677	312.445	0.153	0.287
-153.662	-99.481	-0.309	0.077
-152.647	41.945	-0.102	-0.092
-151.633	188.262	-0.186	0.277
-150.618	599.404	-0.070	0.174
-149.604	49.249	0.120	0.112
-148.589	-187.821	-0.414	-0.005
-147.574	-200.000	-0.076	-0.397
-146.560	231.007	0.047	-0.076
-145.545	-90.365	0.044	0.013
-144.531	800.000	-0.051	0.147
-143.516	-200.000	-0.011	-0.331
-142.502	205.391	0.084	0.130
-141.487	-112.174	-0.126	0.025
-140.472	-200.000	0.011	-0.177
-139.458	-34.093	-0.221	-0.121
-138.443	-4.860	-0.073	0.050
-137.429	-200.000	-0.019	0.084
-136.414	69.390	0.289	-0.296
-135.399	94.527	-0.232	0.263
-134.385	-71.464	0.178	-0.066
-133.370	-69.614	0.204	-0.078
-132.356	162.506	0.176	-0.246
-131.341	8.799	0.135	-0.101
-130.326	5.565	-0.028	0.020
-129.312	581.500	0.020	-0.049
-128.297	-67.689	0.107	-0.042
-127.283	585.674	0.076	0.187
-126.268	-17.218	0.219	-0.137
-125.253	-32.367	-0.040	0.022
-124.239	-200.000	-0.015	-0.344
-123.224	-105.424	0.142	0.032
-122.210	-101.120	-0.137	-0.033
-121.195	-200.000	0.028	0.134
