DTS Sentinel unit serial number:	SN413079Multiplexer serial number:	ORYXHardware model number:	OX4-SRSoftware version number:	ORYX F/W v4.00 Oryx Data Collector v3.7.2.0data status	okinstallation	princeton_trtdifferential loss correction	single-endedforward channel	channel 3reverse channel	N/Adate	2019/09/17time	20:16:35forward acquisition time	60.00reverse acquisition time	0.00gamma	496.2192k internal	0.2329k external	0.2329temperature offset calibration	0.9950default loss term (dB/km)	0.3790temperature slope calibration	1.0000multiplexer offset coefficient	1.0000multiplexer slope coefficient	1.0000fibre end	0.00T internal ref (°C)	31.78T ext. ref 1 (°C)	0.22T ext. ref 2 (°C)	22.00length (m)	temperature (°C)	Stokes	anti-Stokes-747.200	160.413	-0.057	-0.080
-746.185	-107.889	-0.395	-0.086
-745.171	249.787	0.026	0.045
-744.156	-200.000	0.015	0.257
-743.142	46.853	0.294	0.275
-742.127	148.727	-0.206	0.280
-741.112	-88.816	0.199	-0.059
-740.098	153.704	0.178	0.245
-739.083	-200.000	-0.045	0.357
-738.069	541.922	-0.106	0.254
-737.054	373.364	0.117	-0.239
-736.039	82.324	-0.042	-0.046
-735.025	559.219	0.245	0.596
-734.010	800.000	-0.100	0.365
-732.996	71.188	-0.154	-0.161
-731.981	-28.015	-0.129	-0.075
-730.966	-58.464	0.137	0.060
-729.952	-117.941	-0.104	-0.019
-728.937	78.637	-0.334	-0.359
-727.923	-200.000	0.002	0.145
-726.908	-200.000	-0.228	0.000
-725.894	85.509	-0.334	-0.369
-724.879	-43.780	-0.085	-0.043
-723.864	31.572	-0.224	0.194
-722.850	-66.846	0.114	0.045
-721.835	245.349	-0.126	-0.214
-720.821	-117.655	-0.298	0.054
-719.806	-200.000	-0.050	-0.392
-718.791	-200.000	0.037	-0.426
-717.777	-157.702	-0.197	0.012
-716.762	800.000	-0.090	0.250
-715.748	87.352	-0.118	-0.131
-714.733	195.278	0.116	-0.177
-713.718	164.606	-0.198	-0.281
-712.704	172.971	0.082	-0.118
-711.689	-116.018	-0.195	-0.037
-710.675	24.228	0.140	0.116
-709.660	30.614	-0.382	-0.328
-708.645	-200.000	0.033	-0.257
-707.631	-200.000	-0.009	0.184
-706.616	-98.122	-0.403	-0.104
-705.602	800.000	-0.053	0.201
-704.587	2.227	0.188	-0.136
-703.572	-93.715	0.116	-0.032
-702.558	800.000	-0.033	0.142
-701.543	-200.000	0.048	-0.273
-700.529	-200.000	0.019	-0.436
-699.514	-184.004	0.253	0.004
-698.499	175.936	0.065	-0.095
-697.485	-8.784	0.181	0.122
-696.470	-44.442	-0.057	0.029
-695.456	45.618	0.149	-0.138
-694.441	-200.000	-0.010	0.271
-693.426	-175.072	-0.105	0.003
-692.412	-200.000	0.010	-0.462
-691.397	-41.464	-0.263	-0.136
-690.383	-125.538	0.121	-0.018
-689.368	420.539	-0.025	0.054
-688.354	592.321	-0.151	-0.376
-687.339	-200.000	-0.007	-0.433
-686.324	-200.000	-0.077	0.434
-685.310	-200.000	-0.053	0.303
-684.295	296.555	-0.105	0.194
-683.281	568.545	-0.047	0.115
-682.266	-124.264	-0.152	-0.024
-681.251	-200.000	-0.040	0.255
-680.237	-28.645	-0.112	-0.065
-679.222	800.000	-0.062	-0.180
-678.208	257.455	0.139	0.241
-677.193	-177.761	0.216	-0.005
-676.178	-180.492	-0.251	-0.005
-675.164	-98.863	0.057	0.014
-674.149	-86.585	0.037	0.011
-673.135	-24.877	-0.145	-0.086
-672.120	-152.684	-0.087	0.006
-671.105	-10.900	-0.143	0.095
-670.091	-200.000	0.025	-0.155
-669.076	27.739	-0.218	-0.185
-668.062	-31.500	0.082	-0.046
-667.047	-179.544	0.096	-0.002
-666.032	-200.000	-0.040	0.206
-665.018	-195.747	0.334	-0.002
-664.003	13.167	-0.033	0.026
-662.989	77.482	0.062	-0.066
-661.974	800.000	0.072	-0.214
-660.959	800.000	-0.061	0.221
-659.945	101.346	-0.057	0.067
-658.930	-200.000	-0.056	0.399
-657.916	-146.803	-0.117	-0.010
-656.901	-200.000	-0.008	0.293
-655.886	-32.423	-0.129	-0.072
-654.872	175.030	0.138	0.201
-653.857	-92.493	0.314	0.089
-652.843	-95.429	-0.317	-0.085
-651.828	636.609	-0.021	0.055
-650.814	461.222	-0.080	-0.180
-649.799	127.487	-0.108	-0.138
-648.784	108.939	-0.074	-0.089
-647.770	-145.663	-0.342	-0.031
-646.755	2.591	0.120	0.087
-645.741	-66.385	0.340	0.136
-644.726	-55.759	0.238	0.107
-643.711	-200.000	0.017	0.224
-642.697	266.106	-0.071	0.124
-641.682	-200.000	-0.062	-0.527
-640.668	385.291	-0.139	-0.288
-639.653	-163.280	0.133	-0.006
-638.638	-106.716	-0.259	0.058
-637.624	-200.000	-0.057	0.302
-636.609	-106.288	-0.110	0.025
-635.595	5.699	-0.294	-0.218
-634.580	63.629	0.085	0.086
-633.565	775.497	-0.028	0.076
-632.551	181.557	-0.101	-0.149
-631.536	406.854	-0.110	-0.233
-630.522	-166.005	0.145	0.006
-629.507	-32.420	0.163	0.091
-628.492	-102.784	0.281	-0.067
-627.478	107.065	-0.194	-0.232
-626.463	92.411	-0.178	-0.202
-625.449	-55.500	-0.125	0.056
-624.434	-72.171	0.232	0.086
-623.419	800.000	-0.072	-0.283
-622.405	-22.112	-0.079	-0.048
-621.390	45.683	-0.148	0.137
-620.376	227.874	-0.148	-0.241
-619.361	-63.968	-0.076	-0.031
-618.346	-169.299	0.186	-0.007
-617.332	-2.188	-0.224	0.157
-616.317	460.540	-0.081	-0.182
-615.303	-26.772	0.194	-0.113
-614.288	-119.727	0.165	-0.029
-613.273	-78.892	-0.292	0.100
-612.259	-5.637	-0.229	-0.158
-611.244	260.966	-0.131	0.228
-610.230	205.989	-0.058	-0.090
-609.215	115.439	0.224	-0.274
-608.201	-88.391	0.331	-0.099
-607.186	-200.000	-0.018	0.169
-606.171	129.291	-0.125	0.160
-605.157	67.918	0.363	0.372
-604.142	-181.586	-0.417	0.008
-603.128	63.261	0.161	-0.161
-602.113	800.000	-0.029	-0.092
-601.098	-100.896	-0.154	0.038
-600.084	-171.032	0.273	0.009
-599.069	-67.649	-0.078	0.031
-598.055	800.000	-0.005	-0.015
-597.040	-200.000	-0.033	-0.195
-596.025	66.561	-0.170	-0.173
-595.011	-81.181	0.226	-0.075
-593.996	113.942	0.069	-0.084
-592.982	94.949	-0.071	-0.081
-591.967	320.549	-0.142	0.270
-590.952	698.564	-0.077	0.203
-589.938	-200.000	0.027	0.262
-588.923	-86.396	0.414	-0.127
-587.909	-123.802	0.140	-0.022
-586.894	139.318	0.198	0.261
-585.879	96.577	0.146	-0.167
-584.865	-133.513	0.398	0.050
-583.850	104.403	0.105	-0.124
-582.836	-200.000	0.001	0.167
-581.821	320.846	0.044	-0.084
-580.806	81.242	-0.039	0.043
-579.792	-200.000	-0.007	0.062
-578.777	800.000	0.064	0.226
-577.763	800.000	-0.041	-0.126
-576.748	-200.000	-0.024	0.162
-575.733	-200.000	0.015	-0.122
-574.719	800.000	-0.018	-0.066
-573.704	11.812	-0.229	0.176
-572.690	-200.000	0.061	-0.313
-571.675	119.904	-0.037	0.045
-570.661	165.069	0.047	-0.066
-569.646	-200.000	-0.003	0.249
-568.631	-200.000	0.005	-0.069
-567.617	268.802	-0.161	-0.282
-566.602	168.595	-0.225	-0.321
-565.588	800.000	-0.016	-0.049
-564.573	100.396	-0.285	0.331
-563.558	-47.765	-0.159	-0.077
-562.544	-56.709	-0.210	0.093
-561.529	654.904	-0.100	0.258
-560.515	-200.000	-0.013	-0.201
-559.500	-90.096	-0.164	-0.048
-558.485	769.638	0.048	0.131
-557.471	478.167	-0.103	0.233
-556.456	800.000	-0.125	0.360
-555.442	68.869	-0.091	0.094
-554.427	65.529	0.259	0.262
-553.412	-19.099	-0.240	0.149
-552.398	-200.000	-0.029	-0.131
-551.383	26.785	-0.100	0.084
-550.369	800.000	0.092	0.393
-549.354	-41.907	-0.061	0.031
-548.339	-94.860	0.217	0.059
-547.325	-58.910	-0.415	-0.179
-546.310	-1.887	0.027	-0.019
-545.296	-160.672	0.207	-0.011
-544.281	209.186	-0.019	0.030
-543.266	95.852	0.197	-0.225
-542.252	-61.550	-0.351	0.147
-541.237	132.236	0.203	0.262
-540.223	89.885	0.197	-0.220
-539.208	-79.576	-0.136	0.046
-538.193	-121.741	-0.027	-0.004
-537.179	-200.000	0.052	-0.270
-536.164	-28.096	0.018	0.011
-535.150	-0.673	-0.187	-0.133
-534.135	-28.670	-0.374	-0.215
-533.121	174.069	-0.143	-0.206
-532.106	-87.096	0.214	0.065
-531.091	-24.582	-0.452	-0.269
-530.077	10.657	-0.119	0.090
-529.062	108.582	0.288	0.344
-528.048	-200.000	0.060	-0.323
-527.033	-134.739	-0.023	0.003
-526.018	-111.150	-0.419	-0.086
-525.004	-73.696	0.172	0.063
-523.989	142.883	0.195	0.259
-522.975	-11.531	-0.229	-0.150
-521.960	-200.000	-0.004	-0.187
-520.945	308.053	0.072	-0.133
-519.931	-130.675	-0.429	-0.058
-518.916	104.855	0.184	0.217
-517.902	46.717	0.059	0.054
-516.887	-200.000	-0.031	-0.475
-515.872	105.471	0.184	0.216
-514.858	-16.602	-0.042	0.027
-513.843	-58.278	0.198	-0.086
-512.829	-98.476	0.161	0.041
-511.814	-97.779	0.261	0.067
-510.799	-200.000	0.002	0.247
-509.785	64.509	0.262	-0.263
-508.770	32.176	-0.075	-0.064
-507.756	321.116	-0.068	0.128
-506.741	71.814	0.121	-0.125
-505.726	-126.253	-0.110	0.016
-504.712	-76.366	0.064	-0.022
-503.697	-44.463	-0.213	-0.106
-502.683	389.600	0.094	-0.194
-501.668	539.356	-0.049	-0.116
-500.653	-51.216	0.225	0.105
-499.639	-36.714	-0.064	-0.034
-498.624	-46.068	0.258	0.127
-497.610	95.010	0.065	0.074
-496.595	29.902	-0.185	-0.157
-495.581	-200.000	0.049	-0.452
-494.566	54.114	0.152	-0.146
-493.551	11.913	-0.118	-0.090
-492.537	-167.189	0.445	-0.018
-491.522	265.537	-0.261	0.454
-490.508	-125.192	0.142	-0.022
-489.493	31.454	0.017	-0.015
-488.478	733.930	0.035	-0.092
-487.464	36.610	-0.237	0.209
-486.449	-200.000	-0.013	-0.285
-485.435	-20.334	-0.233	-0.143
-484.420	-98.764	-0.054	0.014
-483.405	-200.000	0.031	-0.139
-482.391	800.000	-0.116	0.391
-481.376	-200.000	0.012	0.236
-480.362	383.473	-0.130	0.266
-479.347	428.935	-0.122	-0.264
-478.332	-121.525	0.270	-0.045
-477.318	68.339	0.038	-0.039
-476.303	61.104	-0.137	0.136
-475.289	249.873	-0.161	-0.272
-474.274	318.839	-0.016	-0.031
-473.259	-108.084	0.395	-0.085
-472.245	-200.000	0.046	-0.361
-471.230	-112.483	-0.081	-0.016
-470.216	501.324	-0.029	-0.067
-469.201	800.000	0.054	-0.215
-468.186	-115.502	-0.182	0.034
-467.172	-137.172	-0.213	0.024
-466.157	337.133	-0.128	-0.248
-465.143	-129.868	-0.127	-0.017
-464.128	61.610	0.156	0.154
-463.113	259.088	0.064	0.111
-462.099	-107.866	-0.196	0.043
-461.084	-200.000	-0.030	0.246
-460.070	-108.318	-0.168	-0.036
-459.055	209.227	0.038	0.059
-458.040	-31.853	-0.329	0.184
-457.026	-61.257	0.093	-0.039
-456.011	75.888	0.228	-0.240
-454.997	-163.230	-0.474	0.023
-453.982	-12.069	0.129	-0.084
-452.968	-200.000	0.087	0.000
-451.953	800.000	0.064	0.201
-450.938	24.345	0.282	0.232
-449.924	57.925	0.143	-0.139
-448.909	800.000	-0.076	0.212
-447.895	15.488	-0.047	-0.037
-446.880	-23.327	0.134	0.080
-445.865	213.685	0.063	0.100
-444.851	31.438	-0.159	-0.136
-443.836	-200.000	-0.064	-0.290
-442.822	111.199	-0.117	-0.140
-441.807	189.484	-0.097	-0.145
-440.792	15.362	-0.165	-0.129
-439.778	-29.256	-0.119	0.068
-438.763	-28.112	0.171	0.098
-437.749	-11.395	-0.265	0.174
-436.734	-200.000	0.028	0.242
-435.719	65.858	0.093	-0.093
-434.705	522.937	0.063	-0.147
-433.690	-134.861	0.174	0.021
-432.676	425.776	-0.187	-0.402
-431.661	81.960	0.138	-0.149
-430.646	31.610	-0.189	0.161
-429.632	33.898	0.205	0.177
-428.617	-200.000	-0.024	0.214
-427.603	648.332	0.131	0.333
-426.588	423.003	-0.056	-0.119
-425.573	-144.028	-0.080	-0.007
-424.559	-200.000	0.007	0.120
-423.544	-44.436	-0.131	0.065
-422.530	-46.491	-0.309	0.151
-421.515	-40.621	-0.240	-0.124
-420.500	334.149	-0.055	0.106
-419.486	-169.215	-0.108	0.004
-418.471	-38.535	0.262	-0.138
-417.457	-141.351	-0.108	0.011
-416.442	209.328	-0.092	0.143
-415.428	-143.237	-0.201	0.019
-414.413	-80.953	0.160	-0.053
-413.398	164.496	-0.082	-0.115
-412.384	-126.685	0.223	-0.033
-411.369	107.786	0.330	0.391
-410.355	-200.000	0.062	0.295
-409.340	-130.138	-0.222	0.030
-408.325	332.357	0.096	-0.184
-407.311	800.000	-0.070	-0.269
-406.296	390.110	0.176	0.362
-405.282	800.000	-0.043	0.128
-404.267	-200.000	-0.005	0.147
-403.252	800.000	-0.027	-0.078
-402.238	177.548	0.193	0.280
-401.223	800.000	0.031	0.114
-400.209	-47.533	-0.143	-0.069
-399.194	0.857	-0.198	0.141
-398.179	800.000	-0.069	-0.288
-397.165	114.418	0.121	0.146
-396.150	-49.625	0.232	0.110
-395.136	-165.263	0.145	0.006
-394.121	227.732	0.067	-0.108
-393.106	266.121	-0.094	0.163
-392.092	-95.858	0.217	0.058
-391.077	-200.000	-0.014	0.084
-390.063	-0.497	0.187	-0.132
-389.048	8.732	-0.146	-0.109
-388.033	800.000	-0.020	-0.080
-387.019	-103.817	0.263	0.061
-386.004	-162.175	0.411	0.020
-384.990	89.145	0.110	0.122
-383.975	-86.904	-0.309	-0.094
-382.960	68.310	-0.021	0.021
-381.946	800.000	0.040	-0.109
-380.931	-200.000	0.016	0.207
-379.917	-200.000	-0.016	0.267
-378.902	55.002	0.262	-0.252
-377.888	120.802	-0.087	0.107
-376.873	-200.000	0.179	0.000
-375.858	-79.639	0.087	-0.029
-374.844	265.638	-0.110	-0.191
-373.829	-74.972	-0.175	0.062
-372.815	62.200	0.187	0.185
-371.800	-131.880	-0.113	0.015
-370.785	800.000	0.066	-0.196
-369.771	189.401	0.098	0.145
-368.756	-200.000	-0.012	0.133
-367.742	434.917	0.122	0.263
-366.727	-100.157	0.312	-0.077
-365.712	-68.742	0.091	0.035
-364.698	-97.562	0.211	-0.054
-363.683	99.763	0.145	0.167
-362.669	-200.000	-0.028	-0.524
-361.654	-18.984	0.234	0.145
-360.639	-85.877	0.225	0.069
-359.625	123.564	-0.076	0.095
-358.610	-24.188	0.335	-0.198
-357.596	-109.316	-0.219	0.046
-356.581	-200.000	-0.004	-0.164
-355.566	-200.000	-0.054	-0.296
-354.552	221.090	0.103	-0.164
-353.537	170.616	0.247	0.351
-352.523	613.816	0.056	0.140
-351.508	800.000	0.002	-0.008
-350.493	504.134	-0.132	0.303
-349.479	800.000	-0.044	0.143
-348.464	-200.000	0.059	0.307
-347.450	548.853	-0.078	0.185
-346.435	78.666	-0.165	-0.174
-345.420	60.528	0.112	-0.110
-344.406	-87.520	0.115	-0.035
-343.391	-76.573	-0.092	0.032
-342.377	800.000	-0.046	-0.128
-341.362	-200.000	0.014	-0.183
-340.348	-200.000	0.003	-0.155
-339.333	-46.431	0.157	0.076
-338.318	-72.383	0.216	-0.079
-337.304	-200.000	-0.066	-0.287
-336.289	-200.000	0.040	0.196
-335.275	131.860	-0.289	-0.368
-334.260	-146.122	0.261	0.023
-333.245	-38.265	0.167	-0.088
-332.231	25.813	-0.182	-0.151
-331.216	800.000	-0.027	0.112
-330.202	-79.018	-0.281	0.095
-329.187	-58.119	0.252	0.109
-328.172	-80.640	-0.202	-0.067
-327.158	400.039	0.076	-0.158
-326.143	197.728	-0.091	-0.138
-325.129	800.000	-0.131	-0.526
-324.114	-155.447	-0.218	-0.014
-323.099	107.695	0.165	-0.195
-322.085	-101.650	-0.043	-0.010
-321.070	-65.529	-0.175	0.070
-320.056	-167.416	-0.126	0.005
-319.041	-41.157	-0.144	-0.074
-318.026	-72.781	0.208	-0.076
-317.012	800.000	0.020	0.060
-315.997	62.114	-0.110	-0.109
-314.983	3.964	0.111	-0.080
-313.968	51.742	-0.032	0.030
-312.953	240.129	0.009	-0.015
-311.939	395.476	0.060	-0.125
-310.924	-70.210	-0.174	-0.065
-309.910	183.872	0.161	0.235
-308.895	32.478	-0.242	0.207
-307.880	52.943	0.177	0.168
-306.866	-65.849	-0.221	0.087
-305.851	-200.000	0.001	0.211
-304.837	-200.000	0.018	-0.230
-303.822	-150.011	-0.121	0.009
-302.807	360.378	0.053	0.105
-301.793	-173.078	-0.271	0.008
-300.778	55.138	-0.056	0.054
-299.764	5.681	-0.328	-0.240
-298.749	537.275	0.068	-0.161
-297.735	-70.209	0.326	-0.123
-296.720	343.408	0.120	-0.233
-295.705	-31.346	0.204	-0.113
-294.691	-45.741	-0.138	-0.067
-293.676	-200.000	-0.019	-0.119
-292.662	-54.749	-0.193	0.086
-291.647	-75.264	0.072	-0.026
-290.632	-109.440	-0.247	-0.052
-289.618	800.000	-0.054	-0.176
-288.603	-68.240	0.223	-0.086
-287.589	-200.000	0.291	0.000
-286.574	-165.454	-0.140	0.006
-285.559	800.000	0.051	0.178
-284.545	-200.000	0.001	0.052
-283.530	-200.000	-0.010	-0.236
-282.516	12.416	0.128	-0.098
-281.501	-57.850	0.145	-0.063
-280.486	-58.448	-0.155	0.066
-279.472	184.621	0.187	0.273
-278.457	-200.000	-0.011	-0.143
-277.443	-102.449	-0.329	-0.078
-276.428	203.166	-0.069	0.105
-275.413	-114.520	-0.270	-0.051
-274.399	-161.247	0.072	-0.004
-273.384	25.286	-0.207	0.170
-272.370	-3.225	0.132	0.091
-271.355	-127.446	0.259	-0.037
-270.340	800.000	0.097	-0.330
-269.326	193.109	0.076	-0.114
-268.311	-139.006	-0.241	-0.026
-267.297	-200.000	-0.002	-0.197
-266.282	5.064	-0.194	-0.141
-265.267	-91.592	-0.546	-0.154
-264.253	-136.260	0.009	-0.001
-263.238	301.656	-0.240	0.439
-262.224	136.217	-0.147	-0.190
-261.209	39.629	0.166	0.147
-260.195	800.000	0.059	0.179
-259.180	-91.738	0.197	0.055
-258.165	117.647	0.139	-0.169
-257.151	-200.000	-0.044	0.396
-256.136	-167.135	-0.184	0.007
-255.122	50.301	0.333	0.311
-254.107	-200.000	0.018	0.116
-253.092	-34.964	0.341	-0.184
-252.078	-62.225	-0.118	-0.049
-251.063	-200.000	-0.021	0.223
-250.049	-200.000	0.015	-0.084
-249.034	-200.000	0.006	-0.114
-248.019	800.000	0.050	0.193
-247.005	-102.209	-0.324	0.077
-245.990	180.119	-0.045	0.065
-244.976	201.853	0.129	0.196
-243.961	-17.855	0.239	0.148
-242.946	800.000	-0.048	0.137
-241.932	150.613	-0.089	0.120
-240.917	544.423	-0.084	-0.199
-239.903	800.000	0.058	-0.175
-238.888	115.233	-0.205	-0.247
-237.873	-200.000	0.002	0.394
-236.859	-200.000	0.012	0.190
-235.844	-133.149	-0.329	-0.041
-234.830	-43.789	-0.284	-0.141
-233.815	69.545	-0.181	0.184
-232.800	269.552	0.092	0.159
-231.786	-27.344	0.339	-0.195
-230.771	68.107	0.113	0.114
-229.757	76.266	0.295	0.308
-228.742	16.914	-0.123	-0.096
-227.727	-200.000	0.031	0.155
-226.713	36.553	-0.277	0.241
-225.698	-11.182	-0.099	0.064
-224.684	3.677	0.216	0.155
-223.669	-60.618	-0.052	-0.022
-222.655	219.490	-0.054	0.085
-221.640	37.377	0.145	-0.127
-220.625	-160.413	0.106	0.006
-219.611	-101.073	0.127	0.031
-218.596	800.000	0.113	-0.383
-217.582	43.151	0.145	-0.131
-216.567	-200.000	0.013	-0.101
-215.552	-43.674	0.237	-0.118
-214.538	337.071	0.119	0.228
-213.523	800.000	0.080	0.278
-212.509	-71.424	0.165	0.061
-211.494	-77.746	-0.198	-0.067
-210.479	-141.155	-0.316	0.032
-209.465	249.119	0.117	-0.196
-208.450	-200.000	-0.017	0.114
-207.436	800.000	0.024	0.087
-206.421	87.544	-0.023	0.025
-205.406	256.371	0.179	0.304
-204.392	-111.803	-0.231	-0.046
-203.377	36.861	0.303	-0.264
-202.363	30.002	-0.061	-0.051
-201.348	-165.719	-0.296	-0.013
-200.333	503.433	0.125	-0.284
-199.319	-25.659	0.048	0.028
-198.304	0.180	0.146	0.103
-197.290	49.589	0.283	-0.263
-196.275	-200.000	0.032	-0.144
-195.260	-61.898	-0.160	-0.066
-194.246	20.069	0.281	-0.223
-193.231	101.566	-0.113	0.130
-192.217	-30.954	0.366	0.204
-191.202	145.756	0.170	0.224
-190.187	289.456	0.087	0.156
-189.173	-200.000	-0.018	-0.601
-188.158	-130.654	0.190	0.025
-187.144	-200.000	-0.008	-0.373
-186.129	-100.954	-0.136	0.033
-185.114	-200.000	0.057	-0.288
-184.100	302.024	0.152	0.276
-183.085	71.442	-0.010	0.010
-182.071	800.000	-0.076	0.260
-181.056	800.000	-0.017	-0.050
-180.042	-200.000	0.015	-0.121
-179.027	-153.286	0.138	-0.010
-178.012	123.068	-0.198	0.244
-176.998	101.311	0.151	0.174
-175.983	800.000	0.045	0.138
-174.969	-86.634	-0.152	-0.046
-173.954	-200.000	0.025	0.230
-172.939	-200.000	-0.008	0.284
-171.925	-200.000	0.068	0.491
-170.910	13.454	0.483	0.369
-169.896	118.259	-0.178	-0.217
-168.881	-27.597	-0.270	0.155
-167.866	-9.941	-0.185	-0.121
-166.852	-178.616	-0.060	-0.001
-165.837	-18.700	0.199	-0.122
-164.823	-82.138	0.143	-0.046
-163.808	800.000	-0.010	0.030
-162.793	-130.727	0.016	-0.002
-161.779	800.000	-0.078	-0.269
-160.764	-19.145	0.127	-0.078
-159.750	113.855	-0.263	0.314
-158.735	305.122	0.054	0.099
-157.720	-200.000	0.024	0.234
-156.706	369.465	-0.113	-0.224
-155.691	535.903	0.080	-0.187
-154.677	800.000	-0.037	-0.135
-153.662	-45.319	-0.204	-0.100
-152.647	-37.058	-0.046	-0.024
-151.633	-200.000	0.014	0.084
-150.618	84.664	-0.202	-0.218
-149.604	567.627	-0.122	-0.291
-148.589	161.621	0.135	-0.186
-147.574	-99.987	-0.261	0.064
-146.560	-200.000	-0.059	0.268
-145.545	-200.000	0.089	0.542
-144.531	-200.000	0.042	0.254
-143.516	247.454	-0.023	0.039
-142.502	207.954	0.073	-0.112
-141.487	22.207	-0.333	-0.267
-140.472	-200.000	0.063	-0.392
-139.458	-67.276	0.013	0.005
-138.443	-9.473	0.239	0.157
-137.429	-32.253	-0.341	0.187
-136.414	159.987	0.139	0.191
-135.399	-200.000	0.042	0.399
-134.385	-99.082	-0.158	-0.039
-133.370	172.965	-0.105	-0.148
-132.356	-75.035	0.263	-0.093
-131.341	-133.226	-0.121	-0.015
-130.326	-18.660	0.239	-0.147
-129.312	800.000	-0.106	-0.304
-128.297	-105.496	-0.050	0.011
-127.283	581.398	0.141	0.340
-126.268	800.000	0.173	-0.565
-125.253	-200.000	0.003	-0.040
-124.239	-46.710	0.191	0.092
-123.224	-200.000	0.071	-0.460
-122.210	154.525	0.050	-0.067
