DTS Sentinel unit serial number:	SN413079Multiplexer serial number:	ORYXHardware model number:	OX4-SRSoftware version number:	ORYX F/W v4.00 Oryx Data Collector v3.7.2.0data status	okinstallation	princeton_trtdifferential loss correction	single-endedforward channel	channel 3reverse channel	N/Adate	2019/09/15time	02:04:35forward acquisition time	60.00reverse acquisition time	0.00gamma	496.2192k internal	0.2322k external	0.2322temperature offset calibration	0.9967default loss term (dB/km)	0.3790temperature slope calibration	1.0000multiplexer offset coefficient	1.0000multiplexer slope coefficient	1.0000fibre end	0.00T internal ref (°C)	31.75T ext. ref 1 (°C)	4.54T ext. ref 2 (°C)	26.48length (m)	temperature (°C)	Stokes	anti-Stokes-747.200	66.257	-0.246	0.252
-746.185	289.681	0.177	0.324
-745.171	259.422	0.053	-0.092
-744.156	-200.000	-0.034	0.330
-743.142	-200.000	0.008	-0.206
-742.127	116.226	-0.233	0.289
-741.112	-17.717	0.186	-0.118
-740.098	-8.146	-0.132	0.090
-739.083	-12.055	0.082	-0.054
-738.069	-157.096	-0.207	0.013
-737.054	311.277	0.061	-0.116
-736.039	103.386	0.014	-0.016
-735.025	-143.515	0.462	0.045
-734.010	579.065	0.044	-0.108
-732.996	-32.163	-0.186	-0.105
-731.981	86.976	0.048	0.053
-730.966	-200.000	0.001	-0.444
-729.952	-50.429	0.211	0.101
-728.937	-200.000	0.013	-0.066
-727.923	95.339	-0.164	-0.189
-726.908	-63.371	-0.069	0.028
-725.894	170.381	-0.121	-0.174
-724.879	-7.046	0.174	-0.119
-723.864	-7.018	-0.094	0.065
-722.850	216.619	0.223	-0.358
-721.835	-101.004	0.257	-0.064
-720.821	-100.847	-0.355	-0.088
-719.806	143.683	-0.127	0.171
-718.791	-45.807	-0.203	-0.101
-717.777	-77.825	0.348	-0.121
-716.762	50.880	0.188	-0.179
-715.748	800.000	-0.058	-0.176
-714.733	800.000	0.088	-0.319
-713.718	-200.000	-0.020	0.138
-712.704	-200.000	0.038	-0.301
-711.689	-200.000	-0.001	-0.088
-710.675	428.857	0.165	-0.359
-709.660	-168.123	-0.135	0.005
-708.645	-166.062	0.044	0.002
-707.631	24.400	-0.194	0.162
-706.616	253.562	0.144	-0.248
-705.602	45.382	-0.146	0.136
-704.587	-200.000	0.022	0.126
-703.572	-44.760	0.340	-0.171
-702.558	-53.060	0.129	-0.060
-701.543	196.019	-0.099	0.153
-700.529	345.195	0.159	0.315
-699.514	-22.017	0.141	0.086
-698.499	-65.286	0.051	0.021
-697.485	650.067	0.097	-0.250
-696.470	-40.755	-0.163	0.085
-695.456	-74.777	-0.220	0.080
-694.441	152.062	0.124	0.171
-693.426	242.427	0.177	-0.299
-692.412	341.366	-0.121	0.238
-691.397	800.000	0.048	-0.196
-690.383	-200.000	-0.017	-0.156
-689.368	-13.463	-0.171	0.112
-688.354	800.000	-0.038	0.149
-687.339	302.728	0.289	-0.539
-686.324	-47.071	-0.138	0.068
-685.310	-166.324	-0.145	-0.006
-684.295	-78.345	-0.133	-0.046
-683.281	-200.000	0.004	-0.171
-682.266	800.000	0.057	-0.182
-681.251	56.867	0.235	0.231
-680.237	24.133	0.068	0.057
-679.222	-200.000	-0.000	0.143
-678.208	18.580	-0.286	-0.231
-677.193	-33.443	-0.095	-0.053
-676.178	-115.259	-0.485	-0.092
-675.164	-200.000	0.020	-0.471
-674.149	-70.624	-0.161	0.061
-673.135	267.452	-0.117	-0.206
-672.120	-9.259	0.153	-0.103
-671.105	-200.000	-0.006	-0.047
-670.091	59.332	0.162	-0.161
-669.076	-55.712	-0.284	0.128
-668.062	-75.010	0.124	0.045
-667.047	-41.984	0.327	0.169
-666.032	135.595	0.124	0.162
-665.018	-74.895	-0.166	0.060
-664.003	168.503	0.089	-0.128
-662.989	-165.899	-0.020	0.001
-661.974	-200.000	0.045	-0.241
-660.959	-188.819	-0.601	0.007
-659.945	-84.361	0.290	-0.092
-658.930	92.080	0.216	-0.245
-657.916	-90.162	0.230	0.068
-656.901	-109.868	-0.473	-0.100
-655.886	-7.464	-0.063	-0.043
-654.872	762.242	-0.030	0.082
-653.857	250.426	-0.078	-0.133
-652.843	-56.351	-0.165	0.074
-651.828	80.530	-0.098	-0.107
-650.814	-96.206	0.242	0.065
-649.799	61.533	0.226	0.226
-648.784	-200.000	-0.024	-0.192
-647.770	60.399	-0.164	-0.164
-646.755	-200.000	-0.100	0.454
-645.741	219.164	0.118	0.189
-644.726	-200.000	0.024	0.377
-643.711	737.139	-0.048	-0.129
-642.697	-1.393	-0.165	-0.117
-641.682	-188.734	0.292	-0.004
-640.668	194.150	0.069	0.106
-639.653	218.520	0.084	0.135
-638.638	-79.379	-0.203	0.069
-637.624	79.387	0.127	-0.137
-636.609	-107.100	-0.293	0.065
-635.595	324.779	-0.152	-0.293
-634.580	-111.443	-0.302	-0.062
-633.565	-88.777	-0.226	-0.067
-632.551	106.314	-0.142	0.170
-631.536	10.005	-0.073	0.056
-630.522	585.662	-0.133	-0.330
-629.507	800.000	-0.058	-0.192
-628.492	-85.535	-0.104	-0.032
-627.478	306.694	0.108	-0.203
-626.463	-91.778	0.170	0.049
-625.449	-7.003	0.145	-0.099
-624.434	-200.000	0.007	-0.158
-623.419	290.089	-0.031	0.056
-622.405	-165.151	-0.353	0.016
-621.390	113.602	-0.092	0.113
-620.376	122.749	-0.221	-0.278
-619.361	800.000	-0.027	0.107
-618.346	276.026	-0.083	-0.148
-617.332	800.000	-0.139	0.393
-616.317	800.000	-0.039	0.137
-615.303	149.232	0.194	-0.264
-614.288	-143.389	0.192	-0.018
-613.273	-152.935	-0.407	0.029
-612.259	-70.418	0.213	0.081
-611.244	-8.843	0.082	-0.055
-610.230	-59.829	-0.170	-0.073
-609.215	-81.503	-0.192	-0.063
-608.201	164.413	0.241	-0.341
-607.186	-200.000	-0.051	-0.225
-606.171	-112.653	-0.138	-0.028
-605.157	-200.000	-0.060	0.324
-604.142	621.931	-0.037	0.093
-603.128	110.062	-0.035	-0.042
-602.113	58.782	0.072	-0.071
-601.098	312.488	-0.108	-0.204
-600.084	190.381	0.084	-0.126
-599.069	326.723	0.124	-0.239
-598.055	684.084	0.031	-0.081
-597.040	4.445	-0.132	0.098
-596.025	231.826	0.083	-0.137
-595.011	39.083	-0.023	0.021
-593.996	47.405	-0.140	-0.131
-592.982	176.338	-0.163	-0.238
-591.967	-200.000	0.001	-0.042
-590.952	-72.070	-0.245	0.091
-589.938	800.000	0.069	0.277
-588.923	-200.000	0.036	-0.216
-587.909	-127.399	0.120	-0.018
-586.894	-200.000	0.007	-0.043
-585.879	-98.582	-0.070	0.018
-584.865	-200.000	0.040	-0.228
-583.850	-200.000	0.032	0.224
-582.836	69.378	-0.149	0.154
-581.821	37.889	0.163	-0.145
-580.806	32.572	-0.180	-0.156
-579.792	800.000	-0.052	-0.197
-578.777	-97.939	-0.183	0.047
-577.763	-33.004	-0.353	-0.197
-576.748	-51.514	0.131	0.061
-575.733	424.511	0.109	-0.236
-574.719	247.696	0.039	-0.065
-573.704	17.518	-0.173	-0.138
-572.690	-92.099	-0.181	0.051
-571.675	33.164	-0.064	-0.056
-570.661	7.444	0.136	-0.102
-569.646	-200.000	0.029	0.264
-568.631	443.255	0.106	0.233
-567.617	-59.376	0.333	0.144
-566.602	800.000	-0.051	-0.166
-565.588	280.204	-0.043	0.077
-564.573	226.276	0.189	-0.308
-563.558	-173.585	0.199	-0.006
-562.544	-48.082	0.151	-0.073
-561.529	31.725	0.130	-0.113
-560.515	281.221	0.083	-0.149
-559.500	-90.604	-0.242	-0.070
-558.485	-31.358	0.004	0.002
-557.471	-87.163	-0.210	0.064
-556.456	-200.000	-0.004	0.170
-555.442	741.098	0.025	0.066
-554.427	-113.311	-0.060	0.012
-553.412	479.730	-0.002	-0.004
-552.398	-34.494	-0.405	0.222
-551.383	-99.779	-0.384	0.096
-550.369	-165.689	-0.396	0.017
-549.354	-116.134	0.274	0.051
-548.339	485.340	-0.153	-0.350
-547.325	-200.000	0.035	-0.497
-546.310	-101.188	-0.090	0.022
-545.296	95.592	0.088	0.101
-544.281	260.066	-0.087	0.151
-543.266	-196.811	0.308	0.002
-542.252	-47.007	-0.288	-0.141
-541.237	138.167	-0.132	-0.173
-540.223	-200.000	0.003	0.237
-539.208	-25.866	-0.363	0.214
-538.193	269.894	0.091	-0.161
-537.179	-28.384	-0.170	-0.098
-536.164	-200.000	0.309	0.001
-535.150	96.820	0.067	0.077
-534.135	-147.466	0.181	-0.015
-533.121	-129.099	0.327	-0.046
-532.106	465.284	0.073	0.164
-531.091	-200.000	0.007	0.037
-530.077	-49.207	0.161	-0.077
-529.062	-103.887	0.276	0.065
-528.048	-16.394	0.304	-0.193
-527.033	800.000	-0.052	-0.219
-526.018	106.072	0.122	-0.145
-525.004	-147.679	-0.052	-0.004
-523.989	-200.000	-0.014	-0.205
-522.975	-80.823	0.211	0.070
-521.960	-200.000	0.054	0.359
-520.945	-106.479	0.267	-0.060
-519.931	-200.000	-0.009	-0.251
-518.916	745.648	0.093	0.251
-517.902	152.111	-0.064	-0.087
-516.887	-200.000	-0.047	-0.476
-515.872	-101.656	0.137	0.033
-514.858	179.711	0.111	-0.162
-513.843	-3.644	-0.099	0.069
-512.829	-168.928	0.509	0.019
-511.814	-125.562	-0.159	-0.024
-510.799	-41.476	0.303	0.156
-509.785	-200.000	-0.009	-0.151
-508.770	38.566	-0.077	-0.068
-507.756	800.000	0.055	0.174
-506.741	-13.181	-0.218	-0.142
-505.726	155.706	-0.102	-0.141
-504.712	350.349	-0.069	-0.137
-503.697	388.094	-0.080	0.165
-502.683	18.927	0.058	-0.046
-501.668	-94.859	0.255	0.069
-500.653	-200.000	0.027	0.123
-499.639	249.050	0.071	-0.120
-498.624	137.082	-0.214	-0.280
-497.610	192.058	0.237	0.358
-496.595	800.000	0.128	-0.357
-495.581	-108.587	0.521	-0.112
-494.566	86.680	0.091	-0.101
-493.551	-32.273	-0.181	-0.101
-492.537	15.662	0.132	0.104
-491.522	800.000	-0.048	0.200
-490.508	-30.882	-0.278	0.157
-489.493	-118.391	-0.369	0.065
-488.478	102.590	0.036	-0.042
-487.464	-67.453	0.104	-0.041
-486.449	-99.625	0.063	-0.016
-485.435	6.833	-0.248	-0.185
-484.420	-27.531	-0.262	0.152
-483.405	-200.000	-0.004	0.267
-482.391	149.926	-0.056	-0.076
-481.376	52.811	0.221	-0.211
-480.362	-161.661	0.179	0.009
-479.347	166.342	0.511	0.724
-478.332	-200.000	0.011	0.145
-477.318	-200.000	0.008	-0.058
-476.303	800.000	0.061	0.181
-475.289	13.706	-0.251	0.195
-474.274	-83.780	-0.152	-0.048
-473.259	775.509	0.014	-0.040
-472.245	-126.536	0.471	0.070
-471.230	112.927	0.193	-0.234
-470.216	-180.725	-0.177	-0.004
-469.201	-17.784	0.223	0.140
-468.186	128.146	-0.160	0.204
-467.172	-35.823	0.229	-0.124
-466.157	18.714	-0.158	-0.126
-465.143	-32.206	0.204	0.114
-464.128	-115.947	-0.066	-0.012
-463.113	12.444	0.260	-0.201
-462.099	-12.607	-0.212	0.138
-461.084	-50.035	-0.098	-0.046
-460.070	-200.000	0.021	0.271
-459.055	-145.806	0.020	0.002
-458.040	-200.000	0.004	0.197
-457.026	98.503	0.200	0.230
-456.011	194.650	-0.118	0.180
-454.997	491.875	0.038	0.088
-453.982	18.790	-0.338	0.271
-452.968	207.915	0.318	0.496
-451.953	-95.332	0.082	0.022
-450.938	383.717	0.187	0.384
-449.924	-17.018	0.248	-0.156
-448.909	311.401	0.032	-0.061
-447.895	10.124	-0.197	-0.150
-446.880	160.173	0.106	-0.148
-445.865	800.000	-0.034	-0.115
-444.851	-200.000	0.007	-0.094
-443.836	-33.299	-0.339	-0.188
-442.822	-35.408	-0.202	0.110
-441.807	588.901	0.040	-0.099
-440.792	-53.095	0.334	-0.153
-439.778	800.000	-0.113	-0.334
-438.763	-15.802	-0.031	-0.020
-437.749	-73.615	0.378	-0.137
-436.734	246.897	-0.039	0.065
-435.719	-14.758	0.086	0.055
-434.705	15.081	0.033	0.026
-433.690	-159.150	-0.080	-0.005
-432.676	13.237	-0.019	-0.015
-431.661	-2.741	0.248	-0.173
-430.646	-200.000	-0.018	-0.098
-429.632	800.000	0.041	0.175
-428.617	22.484	0.112	0.092
-427.603	70.459	-0.135	-0.139
-426.588	19.918	0.374	-0.301
-425.573	-104.208	-0.328	0.076
-424.559	-200.000	-0.013	0.118
-423.544	800.000	0.106	-0.303
-422.530	-114.207	-0.230	0.044
-421.515	70.862	0.100	0.103
-420.500	222.566	-0.184	-0.295
-419.486	164.827	-0.085	0.120
-418.471	800.000	0.020	0.070
-417.457	-200.000	-0.014	0.208
-416.442	-53.352	-0.121	0.056
-415.428	179.999	0.066	0.097
-414.413	-200.000	-0.018	0.186
-413.398	144.289	-0.121	0.161
-412.384	217.009	-0.097	-0.155
-411.369	-64.375	-0.413	-0.167
-410.355	-136.079	0.293	0.034
-409.340	-200.000	0.052	-0.388
-408.325	800.000	-0.092	0.307
-407.311	-132.694	0.335	-0.043
-406.296	-116.873	-0.194	-0.035
-405.282	800.000	-0.082	-0.334
-404.267	-75.648	0.360	-0.127
-403.252	800.000	0.093	-0.301
-402.238	-147.278	-0.235	-0.020
-401.223	800.000	0.091	0.370
-400.209	117.852	-0.044	0.054
-399.194	-200.000	-0.005	-0.046
-398.179	61.530	0.146	-0.145
-397.165	-52.265	0.158	0.073
-396.150	-200.000	-0.006	-0.202
-395.136	6.894	0.198	0.147
-394.121	-178.009	0.274	0.006
-393.106	-114.703	-0.334	0.064
-392.092	63.408	0.301	0.301
-391.077	-42.239	-0.139	-0.071
-390.063	540.215	0.049	0.115
-389.048	-59.991	0.395	-0.168
-388.033	800.000	-0.031	0.094
-387.019	-84.243	-0.245	0.077
-386.004	694.101	-0.057	-0.150
-384.990	542.775	-0.053	0.126
-383.975	-75.229	-0.114	-0.040
-382.960	-200.000	-0.027	-0.236
-381.946	-200.000	0.021	0.483
-380.931	-22.676	-0.148	0.089
-379.917	-31.795	-0.085	0.047
-378.902	-133.874	-0.196	0.024
-377.888	-47.303	-0.128	0.062
-376.873	-28.441	0.118	-0.068
-375.858	800.000	0.054	-0.209
-374.844	-171.724	0.233	-0.008
-373.829	-104.653	0.137	-0.031
-372.815	-66.155	-0.073	-0.029
-371.800	-88.436	-0.162	0.048
-370.785	-200.000	0.016	-0.347
-369.771	-44.932	0.055	-0.027
-368.756	5.162	0.204	0.150
-367.742	61.959	0.113	0.112
-366.727	-21.639	-0.199	0.120
-365.712	66.460	-0.174	-0.176
-364.698	-200.000	-0.019	-0.244
-363.683	96.670	0.079	-0.090
-362.669	-171.995	-0.187	0.006
-361.654	695.786	-0.098	-0.256
-360.639	800.000	-0.011	-0.042
-359.625	-200.000	-0.025	0.161
-358.610	-157.605	-0.273	-0.016
-357.596	-11.581	0.071	0.047
-356.581	-80.359	-0.195	0.065
-355.566	800.000	0.025	-0.084
-354.552	538.296	-0.026	-0.062
-353.537	-181.230	0.178	0.004
-352.523	800.000	0.007	0.028
-351.508	-200.000	-0.003	-0.069
-350.493	64.880	-0.161	-0.162
-349.479	-200.000	-0.009	0.092
-348.464	-200.000	-0.007	0.099
-347.450	-16.668	-0.195	0.123
-346.435	-26.803	0.188	0.109
-345.420	-51.228	-0.189	0.088
-344.406	-200.000	0.020	-0.264
-343.391	-136.818	0.373	-0.043
-342.377	-107.763	0.180	-0.039
-341.362	-38.240	0.282	0.149
-340.348	630.785	0.051	-0.128
-339.333	-179.867	-0.374	0.008
-338.318	613.390	0.084	0.209
-337.304	-196.036	0.376	0.003
-336.289	-138.763	-0.389	-0.042
-335.275	-108.988	-0.096	0.020
-334.260	-62.672	0.040	0.016
-333.245	-91.659	-0.345	0.098
-332.231	-200.000	-0.008	-0.157
-331.216	800.000	-0.053	-0.153
-330.202	236.132	0.092	-0.152
-329.187	185.391	0.161	-0.238
-328.172	364.946	0.095	0.191
-327.158	184.861	0.103	-0.152
-326.143	-27.725	0.221	-0.127
-325.129	-129.525	-0.275	0.038
-324.114	-22.503	0.108	0.065
-323.099	753.061	-0.053	0.143
-322.085	-200.000	-0.107	-0.538
-321.070	-8.892	-0.048	0.032
-320.056	-200.000	-0.064	-0.335
-319.041	161.868	0.234	0.325
-318.026	143.918	-0.060	-0.080
-317.012	-131.793	0.211	0.027
-315.997	96.481	0.110	0.125
-314.983	-200.000	0.046	0.261
-313.968	-88.934	0.008	-0.002
-312.953	-200.000	0.013	0.187
-311.939	20.335	0.090	0.072
-310.924	-32.226	0.224	-0.125
-309.910	800.000	-0.018	-0.051
-308.895	-200.000	-0.070	0.365
-307.880	-138.814	-0.286	0.031
-306.866	652.039	0.099	0.252
-305.851	-16.905	0.126	-0.079
-304.837	-151.210	-0.367	0.027
-303.822	160.323	0.190	-0.263
-302.807	100.892	-0.050	-0.058
-301.793	-123.999	0.275	0.043
-300.778	-200.000	0.007	0.124
-299.764	18.274	0.017	-0.013
-298.749	120.201	0.071	0.088
-297.735	38.116	0.155	0.137
-296.720	-8.053	0.111	-0.074
-295.705	-162.639	-0.348	-0.017
-294.691	-200.000	0.001	-0.087
-293.676	367.208	0.139	0.278
-292.662	-79.876	-0.081	0.027
-291.647	-200.000	-0.016	-0.080
-290.632	276.693	0.140	-0.246
-289.618	-200.000	-0.023	-0.129
-288.603	-9.506	0.135	-0.089
-287.589	365.241	-0.108	-0.215
-286.574	22.342	0.154	-0.125
-285.559	-97.865	0.162	-0.042
-284.545	800.000	0.037	-0.140
-283.530	-200.000	-0.021	0.287
-282.516	8.523	-0.092	-0.069
-281.501	-172.040	0.131	-0.004
-280.486	-50.188	0.132	0.062
-279.472	91.818	0.039	0.043
-278.457	-200.000	-0.006	0.092
-277.443	279.686	0.092	0.164
-276.428	-94.160	-0.109	-0.030
-275.413	535.208	0.123	-0.290
-274.399	800.000	0.006	0.024
-273.384	-67.148	0.189	0.074
-272.370	54.984	0.180	0.172
-271.355	123.247	-0.136	0.169
-270.340	-100.254	0.070	0.017
-269.326	232.013	-0.144	-0.235
-268.311	289.004	0.033	0.059
-267.297	-200.000	0.041	0.430
-266.282	208.204	-0.090	-0.139
-265.267	800.000	-0.030	-0.108
-264.253	182.665	-0.115	0.169
-263.238	351.499	-0.038	0.075
-262.224	-157.613	-0.195	0.012
-261.209	-38.245	-0.024	-0.012
-260.195	177.621	-0.059	-0.085
-259.180	-95.417	-0.223	-0.059
-258.165	30.819	-0.079	-0.067
-257.151	59.846	0.099	-0.096
-256.136	-120.892	-0.199	0.033
-255.122	-167.493	0.305	-0.012
-254.107	96.716	0.165	-0.188
-253.092	-200.000	-0.049	0.308
-252.078	141.834	0.131	-0.172
-251.063	670.254	0.098	0.251
-250.049	800.000	-0.023	-0.073
-249.034	-200.000	0.027	-0.229
-248.019	207.668	-0.146	-0.226
-247.005	-200.000	0.029	-0.220
-245.990	-152.138	-0.163	0.012
-244.976	-200.000	-0.047	-0.262
-243.961	-80.018	0.156	-0.052
-242.946	-76.019	0.078	0.027
-241.932	-200.000	-0.020	0.258
-240.917	-200.000	0.016	0.073
-239.903	-64.060	0.149	-0.060
-238.888	-156.483	-0.205	-0.013
-237.873	-80.552	-0.231	0.076
-236.859	800.000	0.090	0.314
-235.844	570.724	-0.055	0.133
-234.830	150.569	0.050	-0.068
-233.815	28.303	-0.325	-0.272
-232.800	-5.081	-0.152	-0.104
-231.786	-62.677	-0.160	0.066
-230.771	-47.445	0.185	0.089
-229.757	800.000	0.014	0.045
-228.742	-113.209	0.077	0.015
-227.727	-200.000	-0.003	0.347
-226.713	150.184	-0.091	0.122
-225.698	131.353	-0.129	-0.164
-224.684	-124.848	0.392	-0.060
-223.669	-200.000	-0.004	-0.033
-222.655	251.149	0.185	0.311
-221.640	-200.000	0.001	-0.008
-220.625	176.348	-0.221	0.318
-219.611	-41.425	-0.311	0.158
-218.596	-28.033	-0.384	0.220
-217.582	800.000	0.112	0.341
-216.567	-200.000	0.055	0.320
-215.552	-95.803	0.190	-0.050
-214.538	130.120	0.134	0.169
-213.523	-51.627	-0.112	0.052
-212.509	-200.000	0.084	-0.410
-211.494	673.276	-0.086	0.221
-210.479	152.312	0.142	0.191
-209.465	-200.000	-0.007	-0.095
-208.450	-82.073	-0.189	0.061
-207.436	-56.486	-0.127	-0.056
-206.421	-38.696	-0.289	-0.151
-205.406	-19.127	0.069	-0.042
-204.392	97.849	-0.211	-0.240
-203.377	-133.872	0.376	-0.046
-202.363	135.358	-0.085	0.109
-201.348	46.306	-0.152	-0.139
-200.333	-135.315	0.202	-0.024
-199.319	-200.000	-0.059	-0.277
-198.304	-200.000	0.070	0.313
-197.290	-33.447	-0.076	0.042
-196.275	135.581	-0.135	0.173
-195.260	5.330	-0.114	0.083
-194.246	2.997	0.114	-0.082
-193.231	-200.000	0.003	0.296
-192.217	800.000	0.126	-0.464
-191.202	309.956	-0.117	-0.217
-190.187	85.839	0.075	0.082
-189.173	-52.054	-0.176	-0.081
-188.158	383.903	0.141	0.288
-187.144	-200.000	-0.005	-0.201
-186.129	-143.471	0.254	0.024
-185.114	645.974	0.053	0.135
-184.100	800.000	-0.080	0.250
-183.085	800.000	-0.031	-0.097
-182.071	-88.478	0.125	0.037
-181.056	-200.000	0.046	-0.256
-180.042	556.820	-0.259	0.618
-179.027	209.296	0.069	0.107
-178.012	193.275	0.087	-0.131
-176.998	-17.356	-0.195	-0.121
-175.983	217.012	-0.180	0.283
-174.969	-200.000	0.012	-0.387
-173.954	19.085	0.194	0.154
-172.939	36.791	-0.175	0.153
-171.925	-58.002	0.250	0.108
-170.910	-68.510	-0.369	0.141
-169.896	800.000	0.145	0.426
-168.881	268.970	-0.051	0.088
-167.866	16.648	-0.293	0.229
-166.852	231.349	0.160	-0.258
-165.837	-200.000	-0.034	0.179
-164.823	14.072	-0.137	0.106
-163.808	-141.090	-0.596	-0.060
-162.793	800.000	0.037	-0.115
-161.779	16.410	0.099	-0.077
-160.764	7.637	-0.170	-0.126
-159.750	-127.615	0.102	-0.015
-158.735	478.445	-0.068	0.152
-157.720	164.787	0.051	0.072
-156.706	800.000	-0.046	-0.151
-155.691	-10.499	0.282	-0.185
-154.677	-200.000	0.018	0.255
-153.662	800.000	0.117	0.450
-152.647	423.301	-0.056	-0.118
-151.633	-97.861	0.095	-0.024
-150.618	72.517	0.289	0.297
-149.604	271.228	0.026	0.046
-148.589	173.237	0.176	0.250
-147.574	194.231	-0.216	-0.322
-146.560	122.471	0.018	-0.022
-145.545	-200.000	0.057	-0.275
-144.531	-46.625	-0.123	0.060
-143.516	22.390	0.393	0.317
-142.502	-200.000	0.048	-0.309
-141.487	315.952	-0.151	-0.281
-140.472	-21.250	0.272	-0.164
-139.458	546.297	0.049	0.116
-138.443	582.128	0.027	-0.066
-137.429	626.683	0.051	-0.128
-136.414	-200.000	-0.021	-0.347
-135.399	-106.634	0.346	0.076
-134.385	565.886	-0.031	0.074
-133.370	-200.000	0.049	-0.220
-132.356	-15.563	0.019	0.012
-131.341	-136.857	0.295	-0.033
-130.326	-108.836	-0.272	-0.057
-129.312	-63.128	0.152	0.062
-128.297	-87.631	-0.161	-0.048
-127.283	-165.469	0.084	-0.004
-126.268	85.995	-0.049	0.053
-125.253	54.615	0.139	-0.132
-124.239	800.000	-0.055	-0.231
-123.224	-116.732	0.200	-0.036
-122.210	-28.231	-0.312	-0.178
-121.195	45.841	0.214	0.195
