DTS Sentinel unit serial number:	SN413079Multiplexer serial number:	ORYXHardware model number:	OX4-SRSoftware version number:	ORYX F/W v4.00 Oryx Data Collector v3.7.2.0data status	okinstallation	princeton_trtdifferential loss correction	single-endedforward channel	channel 3reverse channel	N/Adate	2019/09/12time	02:58:11forward acquisition time	60.00reverse acquisition time	0.00gamma	496.2192k internal	0.2321k external	0.2321temperature offset calibration	1.0069default loss term (dB/km)	0.3790temperature slope calibration	1.0000multiplexer offset coefficient	1.0000multiplexer slope coefficient	1.0000fibre end	0.00T internal ref (°C)	32.31T ext. ref 1 (°C)	2.12T ext. ref 2 (°C)	27.07length (m)	temperature (°C)	Stokes	anti-Stokes-747.200	-47.754	-0.221	0.108
-746.185	800.000	0.038	0.123
-745.171	577.571	0.064	-0.159
-744.156	587.695	-0.150	0.374
-743.142	-200.000	0.013	-0.082
-742.127	-148.804	-0.244	-0.020
-741.112	-200.000	-0.353	0.000
-740.098	-60.298	-0.231	0.100
-739.083	40.022	0.093	-0.085
-738.069	800.000	0.080	0.347
-737.054	7.929	-0.226	0.171
-736.039	62.880	-0.190	-0.192
-735.025	58.848	0.182	0.181
-734.010	-200.000	0.020	-0.225
-732.996	-102.549	0.213	0.051
-731.981	140.308	-0.142	-0.189
-730.966	241.946	-0.222	-0.376
-729.952	85.047	0.181	-0.200
-728.937	10.494	-0.228	-0.175
-727.923	35.838	-0.203	0.180
-726.908	-65.690	0.064	0.026
-725.894	39.299	-0.377	-0.341
-724.879	32.081	-0.251	0.219
-723.864	-200.000	-0.025	-0.388
-722.850	-116.690	0.162	0.030
-721.835	-0.913	-0.066	0.047
-720.821	48.756	0.170	-0.161
-719.806	68.706	0.168	0.174
-718.791	78.831	-0.276	-0.299
-717.777	-25.834	-0.066	-0.039
-716.762	-83.803	-0.184	0.059
-715.748	10.930	0.027	0.021
-714.733	-70.776	0.140	-0.053
-713.718	543.476	-0.143	-0.344
-712.704	-200.000	-0.028	0.232
-711.689	-156.562	0.406	-0.025
-710.675	18.645	-0.085	-0.069
-709.660	298.506	-0.072	-0.133
-708.645	-160.262	-0.157	-0.009
-707.631	231.607	-0.075	0.125
-706.616	-200.000	-0.023	0.507
-705.602	328.798	-0.173	-0.336
-704.587	-100.341	-0.154	0.039
-703.572	-132.575	0.087	0.011
-702.558	-133.476	0.115	-0.015
-701.543	800.000	0.122	0.418
-700.529	-76.957	-0.454	-0.160
-699.514	-125.589	0.167	-0.026
-698.499	267.003	-0.082	0.144
-697.485	-115.040	-0.168	-0.032
-696.470	169.480	-0.054	-0.077
-695.456	-200.000	-0.037	-0.200
-694.441	-128.142	-0.114	0.016
-693.426	-178.677	-0.158	-0.004
-692.412	86.527	0.176	-0.196
-691.397	90.509	0.123	-0.139
-690.383	35.793	-0.178	-0.158
-689.368	47.240	-0.274	-0.258
-688.354	146.048	0.075	0.102
-687.339	-103.634	-0.215	-0.051
-686.324	-149.920	0.264	0.021
-685.310	234.069	-0.033	-0.056
-684.295	-200.000	-0.008	0.145
-683.281	484.159	0.105	0.240
-682.266	96.173	0.029	0.033
-681.251	-19.895	-0.215	-0.134
-680.237	-9.766	0.226	-0.151
-679.222	-65.047	-0.387	0.158
-678.208	-4.000	0.233	-0.163
-677.193	-200.000	-0.070	-0.464
-676.178	-200.000	0.039	-0.247
-675.164	800.000	0.090	0.385
-674.149	672.284	0.058	-0.151
-673.135	-145.717	-0.307	0.028
-672.120	-200.000	0.047	-0.234
-671.105	800.000	-0.020	-0.071
-670.091	63.934	-0.067	0.067
-669.076	-200.000	-0.061	0.449
-668.062	-50.996	-0.282	-0.133
-667.047	754.796	-0.054	-0.148
-666.032	671.501	0.041	-0.107
-665.018	119.656	0.207	-0.258
-664.003	53.409	-0.183	0.177
-662.989	-152.104	0.436	0.032
-661.974	-95.428	0.115	0.031
-660.959	800.000	0.028	0.101
-659.945	-200.000	0.021	-0.322
-658.930	-136.678	-0.196	0.023
-657.916	800.000	0.130	0.366
-656.901	-153.124	0.311	0.022
-655.886	525.440	-0.173	0.410
-654.872	-200.000	0.015	-0.188
-653.857	161.155	0.102	-0.144
-652.843	-34.542	-0.121	0.067
-651.828	-187.202	0.485	-0.007
-650.814	103.390	0.177	-0.209
-649.799	-116.465	0.200	0.037
-648.784	-4.241	-0.148	-0.103
-647.770	-200.000	-0.007	0.053
-646.755	-200.000	0.003	0.023
-645.741	-123.099	0.295	0.048
-644.726	61.925	-0.085	0.085
-643.711	136.311	0.148	0.194
-642.697	-137.196	0.074	0.009
-641.682	-184.223	0.748	-0.012
-640.668	-85.147	-0.565	-0.178
-639.653	128.218	0.104	0.133
-638.638	-67.244	-0.063	0.025
-637.624	85.054	0.094	0.103
-636.609	59.775	-0.176	-0.174
-635.595	-90.937	-0.103	-0.030
-634.580	-138.345	-0.238	0.026
-633.565	-88.725	0.256	-0.077
-632.551	-113.856	-0.141	0.027
-631.536	-70.545	0.339	0.129
-630.522	-200.000	-0.010	-0.232
-629.507	-33.389	0.101	0.056
-628.492	153.953	-0.059	0.081
-627.478	63.288	0.176	-0.178
-626.463	371.214	-0.107	0.218
-625.449	17.014	-0.247	0.197
-624.434	800.000	-0.037	0.112
-623.419	622.957	-0.105	0.265
-622.405	-60.572	0.388	0.166
-621.390	113.561	0.136	0.166
-620.376	-91.429	-0.230	-0.066
-619.361	10.359	0.082	0.063
-618.346	-200.000	0.014	0.324
-617.332	-154.130	-0.368	-0.025
-616.317	55.362	-0.006	0.006
-615.303	-86.864	0.252	-0.077
-614.288	146.342	-0.072	0.097
-613.273	90.892	-0.072	0.081
-612.259	6.610	0.334	-0.249
-611.244	800.000	-0.044	0.162
-610.230	-200.000	-0.038	-0.263
-609.215	800.000	-0.071	-0.214
-608.201	-5.918	0.122	-0.084
-607.186	-3.107	0.067	-0.047
-606.171	-62.029	-0.351	-0.147
-605.157	212.139	0.089	-0.140
-604.142	-107.639	-0.126	-0.028
-603.128	-38.129	-0.238	-0.127
-602.113	53.035	0.205	-0.198
-601.098	117.845	0.142	-0.176
-600.084	-76.812	0.104	-0.036
-599.069	-94.881	0.245	0.067
-598.055	-61.822	0.314	0.132
-597.040	282.963	0.052	-0.094
-596.025	800.000	0.041	0.128
-595.011	187.145	-0.199	0.298
-593.996	39.724	0.082	-0.074
-592.982	800.000	0.064	-0.257
-591.967	291.252	0.053	-0.098
-590.952	-131.743	0.161	-0.021
-589.938	314.572	-0.079	0.150
-588.923	-53.537	-0.156	0.071
-587.909	-93.308	-0.362	0.101
-586.894	-200.000	0.033	0.207
-585.879	-2.561	-0.066	-0.046
-584.865	-200.000	0.032	-0.247
-583.850	291.026	0.184	-0.335
-582.836	150.893	0.126	-0.172
-581.821	-191.155	-0.367	-0.004
-580.806	22.019	-0.254	-0.208
-579.792	320.160	-0.058	-0.110
-578.777	-87.583	-0.304	0.092
-577.763	-200.000	0.106	0.547
-576.748	99.538	-0.112	0.130
-575.733	-25.041	-0.296	-0.176
-574.719	-116.168	0.184	0.034
-573.704	71.765	0.173	0.181
-572.690	-200.000	0.032	0.185
-571.675	-40.858	-0.382	0.198
-570.661	-127.883	-0.222	-0.032
-569.646	-16.304	-0.183	-0.116
-568.631	235.669	-0.107	0.178
-567.617	-200.000	0.018	0.372
-566.602	530.053	-0.101	0.240
-565.588	-200.000	-0.003	0.235
-564.573	800.000	-0.073	-0.259
-563.558	78.608	0.041	-0.044
-562.544	26.173	-0.071	-0.059
-561.529	226.739	0.151	0.246
-560.515	-164.856	-0.191	-0.009
-559.500	49.762	0.117	0.111
-558.485	-200.000	-0.029	0.147
-557.471	106.095	-0.133	-0.158
-556.456	170.457	-0.090	-0.129
-555.442	800.000	-0.035	-0.137
-554.427	603.803	0.008	0.019
-553.412	74.224	0.287	-0.302
-552.398	800.000	0.105	-0.378
-551.383	217.065	-0.047	0.075
-550.369	-200.000	0.004	-0.201
-549.354	-132.379	-0.333	-0.043
-548.339	410.952	0.099	-0.211
-547.325	-89.072	-0.279	-0.083
-546.310	-200.000	-0.005	0.055
-545.296	-81.736	0.135	0.045
-544.281	800.000	-0.031	-0.129
-543.266	-81.313	0.250	0.083
-542.252	-68.702	0.154	0.060
-541.237	-40.576	0.144	0.075
-540.223	709.557	0.043	-0.113
-539.208	-200.000	-0.022	-0.106
-538.193	30.774	-0.171	0.147
-537.179	632.786	-0.035	0.089
-536.164	-200.000	-0.030	0.157
-535.150	311.856	-0.142	0.268
-534.135	-172.670	-0.178	-0.006
-533.121	-55.753	-0.166	-0.074
-532.106	116.980	0.134	-0.165
-531.091	-200.000	-0.052	-0.325
-530.077	-37.069	0.288	0.155
-529.062	-200.000	0.011	0.078
-528.048	346.568	0.086	-0.170
-527.033	-200.000	0.006	-0.048
-526.018	68.222	-0.037	-0.038
-525.004	-120.560	-0.040	-0.007
-523.989	-200.000	-0.014	-0.121
-522.975	-110.590	-0.380	-0.079
-521.960	468.084	-0.072	0.162
-520.945	-83.338	0.151	0.048
-519.931	-61.739	0.283	-0.119
-518.916	-140.521	-0.109	0.011
-517.902	-138.547	0.306	-0.034
-516.887	-200.000	0.002	0.094
-515.872	-134.894	-0.169	-0.020
-514.858	800.000	0.155	-0.477
-513.843	342.481	0.062	-0.121
-512.829	-200.000	-0.002	-0.074
-511.814	47.149	-0.184	-0.172
-510.799	-1.393	-0.177	-0.125
-509.785	44.137	-0.149	0.137
-508.770	-156.126	-0.541	0.034
-507.756	-96.528	-0.120	-0.032
-506.741	-55.477	-0.291	-0.130
-505.726	-178.353	0.208	-0.005
-504.712	-200.000	0.029	0.199
-503.697	-142.744	-0.366	-0.036
-502.683	89.327	-0.247	-0.276
-501.668	-104.475	0.134	-0.031
-500.653	93.736	0.113	-0.128
-499.639	-154.471	0.345	0.023
-498.624	83.929	-0.016	-0.018
-497.610	94.796	-0.093	0.106
-496.595	330.117	-0.098	0.190
-495.581	-31.693	-0.193	-0.108
-494.566	169.123	0.068	-0.097
-493.551	-20.150	-0.148	0.091
-492.537	95.426	-0.063	0.072
-491.522	-200.000	0.007	-0.069
-490.508	-95.759	-0.257	-0.069
-489.493	205.205	-0.090	-0.139
-488.478	-157.151	-0.284	-0.017
-487.464	33.492	-0.019	-0.016
-486.449	-200.000	0.023	0.235
-485.435	-125.389	-0.249	0.038
-484.420	-31.465	0.219	-0.123
-483.405	619.993	0.076	-0.190
-482.391	-55.876	0.114	-0.051
-481.376	800.000	0.034	0.100
-480.362	181.711	-0.110	-0.162
-479.347	109.425	-0.069	0.082
-478.332	-116.475	-0.266	-0.049
-477.318	123.765	-0.114	0.144
-476.303	-169.724	0.224	-0.008
-475.289	397.500	0.045	-0.094
-474.274	127.834	-0.126	-0.160
-473.259	-72.723	0.312	-0.115
-472.245	-97.862	-0.169	0.044
-471.230	129.027	-0.188	-0.240
-470.216	32.852	-0.008	-0.007
-469.201	49.815	-0.163	-0.154
-468.186	390.737	-0.009	-0.019
-467.172	312.693	-0.223	-0.419
-466.157	264.753	-0.078	-0.135
-465.143	-200.000	-0.007	-0.297
-464.128	-96.018	-0.276	0.073
-463.113	800.000	0.044	-0.126
-462.099	3.533	0.474	-0.346
-461.084	104.362	0.045	0.053
-460.070	-200.000	0.029	0.267
-459.055	-115.668	0.403	-0.076
-458.040	-59.534	0.179	-0.077
-457.026	61.468	0.230	0.229
-456.011	-32.447	-0.438	0.244
-454.997	34.398	0.298	0.260
-453.982	623.691	0.181	-0.456
-452.968	-9.811	-0.133	0.089
-451.953	137.780	0.185	0.243
-450.938	-82.765	-0.210	-0.068
-449.924	-48.923	0.280	-0.134
-448.909	485.432	-0.123	0.280
-447.895	-58.147	-0.043	-0.019
-446.880	-200.000	-0.065	-0.299
-445.865	-52.614	0.250	0.115
-444.851	-155.632	0.197	0.013
-443.836	44.188	-0.163	-0.149
-442.822	-200.000	-0.091	0.517
-441.807	800.000	-0.044	-0.126
-440.792	30.788	-0.048	0.041
-439.778	-17.746	0.165	0.104
-438.763	210.397	-0.068	0.107
-437.749	-158.564	0.097	-0.006
-436.734	-200.000	-0.074	0.355
-435.719	-200.000	-0.025	0.223
-434.705	-44.209	-0.192	0.096
-433.690	800.000	0.032	-0.107
-432.676	-85.925	-0.125	0.039
-431.661	-100.878	-0.228	-0.056
-430.646	76.324	0.079	0.083
-429.632	-43.772	0.076	-0.038
-428.617	443.673	0.076	-0.167
-427.603	217.608	0.106	0.169
-426.588	87.585	-0.178	0.196
-425.573	137.679	-0.152	0.198
-424.559	160.558	0.210	-0.292
-423.544	241.539	0.041	-0.068
-422.530	32.278	-0.108	0.093
-421.515	154.338	0.291	-0.399
-420.500	118.294	-0.220	-0.270
-419.486	-149.778	-0.198	0.015
-418.471	-147.021	-0.272	-0.023
-417.457	-200.000	-0.107	0.565
-416.442	800.000	0.033	0.121
-415.428	110.398	0.122	0.146
-414.413	711.165	0.127	-0.335
-413.398	131.965	-0.177	-0.228
-412.384	800.000	0.046	0.187
-411.369	198.330	0.050	0.077
-410.355	52.141	0.113	0.108
-409.340	-133.717	0.179	0.022
-408.325	92.943	0.087	0.098
-407.311	-200.000	-0.048	-0.321
-406.296	-20.804	-0.110	0.067
-405.282	-200.000	-0.026	0.134
-404.267	-138.475	0.400	-0.044
-403.252	77.773	0.133	0.141
-402.238	800.000	-0.076	-0.214
-401.223	800.000	-0.042	-0.164
-400.209	-51.806	-0.228	0.106
-399.194	-150.680	-0.323	0.025
-398.179	-13.734	0.078	0.050
-397.165	-200.000	0.029	-0.176
-396.150	342.341	0.112	0.219
-395.136	-200.000	-0.034	-0.208
-394.121	-200.000	0.018	-0.244
-393.106	23.844	-0.361	-0.296
-392.092	196.304	0.103	-0.156
-391.077	-93.220	0.641	0.178
-390.063	185.418	0.065	-0.096
-389.048	-4.703	-0.183	0.126
-388.033	9.254	-0.136	-0.103
-387.019	4.541	-0.052	-0.038
-386.004	388.635	-0.030	0.061
-384.990	115.243	0.025	-0.031
-383.975	-152.761	0.333	0.024
-382.960	206.549	0.104	0.161
-381.946	99.855	-0.130	0.150
-380.931	-119.987	0.520	-0.089
-379.917	631.426	0.069	0.173
-378.902	-128.213	-0.324	0.046
-377.888	294.434	-0.136	0.248
-376.873	25.622	-0.286	0.237
-375.858	-118.375	0.263	0.046
-374.844	-200.000	-0.028	-0.170
-373.829	-126.417	-0.258	0.038
-372.815	191.343	-0.139	0.208
-371.800	-200.000	-0.043	0.219
-370.785	-199.298	-0.179	0.001
-369.771	90.062	0.167	0.186
-368.756	72.218	-0.220	-0.228
-367.742	-104.976	0.108	-0.025
-366.727	-132.413	-0.177	0.023
-365.712	688.589	0.088	0.230
-364.698	-200.000	0.021	-0.122
-363.683	51.073	-0.206	-0.194
-362.669	16.115	-0.205	0.161
-361.654	44.592	0.141	-0.129
-360.639	-6.090	0.286	0.194
-359.625	154.271	-0.025	-0.034
-358.610	126.564	-0.123	0.156
-357.596	-200.000	-0.003	0.306
-356.581	-31.107	-0.185	0.104
-355.566	800.000	0.057	0.157
-354.552	-18.135	0.250	0.156
-353.537	-200.000	0.071	-0.404
-352.523	685.153	-0.120	-0.311
-351.508	-10.644	0.141	0.093
-350.493	800.000	-0.041	0.115
-349.479	-99.423	0.166	0.042
-348.464	600.918	0.053	0.131
-347.450	65.872	-0.094	-0.095
-346.435	96.741	0.146	0.167
-345.420	-200.000	0.017	0.117
-344.406	-42.755	0.287	-0.145
-343.391	89.608	0.144	-0.160
-342.377	-195.570	0.232	0.002
-341.362	179.201	0.117	-0.170
-340.348	800.000	-0.058	-0.163
-339.333	-23.929	-0.046	-0.027
-338.318	800.000	0.026	-0.090
-337.304	521.295	0.068	-0.159
-336.289	157.729	0.163	-0.225
-335.275	-83.915	-0.235	-0.074
-334.260	-27.365	-0.092	0.053
-333.245	800.000	-0.059	0.257
-332.231	-94.492	0.205	0.056
-331.216	-5.215	-0.400	-0.274
-330.202	-142.222	-0.165	-0.016
-329.187	-173.897	-0.273	0.008
-328.172	55.251	0.135	0.130
-327.158	289.773	0.075	-0.135
-326.143	-38.059	0.582	-0.307
-325.129	-79.771	-0.119	-0.040
-324.114	41.502	0.139	0.125
-323.099	158.531	-0.088	-0.121
-322.085	-58.041	0.223	-0.097
-321.070	172.222	-0.063	-0.090
-320.056	50.487	-0.181	0.170
-319.041	-164.960	-0.157	-0.007
-318.026	-200.000	-0.069	0.422
-317.012	759.372	-0.104	0.279
-315.997	81.106	0.067	-0.072
-314.983	-84.084	-0.274	-0.087
-313.968	-200.000	-0.010	0.097
-312.953	-94.834	0.287	0.077
-311.939	273.565	-0.059	0.104
-310.924	168.520	0.187	-0.265
-309.910	-42.106	-0.168	-0.085
-308.895	-97.685	0.249	-0.064
-307.880	303.659	0.163	0.301
-306.866	198.743	-0.227	-0.345
-305.851	357.404	-0.020	-0.040
-304.837	800.000	-0.075	-0.222
-303.822	-84.033	0.412	0.130
-302.807	-170.473	0.262	0.009
-301.793	-192.148	-0.088	-0.001
-300.778	-29.070	-0.161	0.092
-299.764	-0.036	0.299	-0.212
-298.749	47.732	-0.132	0.123
-297.735	-39.844	0.168	0.087
-296.720	-200.000	-0.023	0.181
-295.705	800.000	-0.030	-0.093
-294.691	190.095	-0.088	-0.130
-293.676	181.011	0.149	0.218
-292.662	622.751	0.132	0.330
-291.647	-128.646	0.219	-0.031
-290.632	-37.246	-0.080	-0.043
-289.618	-161.085	0.138	0.007
-288.603	206.220	-0.134	0.208
-287.589	1.052	-0.080	-0.057
-286.574	-200.000	-0.008	0.066
-285.559	50.118	-0.250	0.235
-284.545	64.339	-0.171	-0.171
-283.530	-200.000	-0.002	0.263
-282.516	37.243	0.213	0.187
-281.501	184.007	0.089	0.131
-280.486	45.743	0.132	0.121
-279.472	36.994	0.233	-0.205
-278.457	-200.000	0.009	0.123
-277.443	800.000	-0.087	0.239
-276.428	69.987	0.281	-0.288
-275.413	-86.590	0.225	-0.068
-274.399	132.308	0.121	0.154
-273.384	-43.722	-0.275	-0.138
-272.370	112.090	-0.062	-0.075
-271.355	255.662	-0.162	-0.276
-270.340	-200.000	0.024	0.423
-269.326	-139.752	-0.086	0.009
-268.311	-179.433	-0.169	-0.004
-267.297	422.609	0.099	-0.211
-266.282	72.389	0.356	-0.369
-265.267	800.000	0.108	-0.310
-264.253	-59.380	0.034	0.014
-263.238	800.000	-0.084	-0.239
-262.224	-185.961	0.143	0.002
-261.209	-68.757	-0.204	0.078
-260.195	-200.000	0.017	-0.135
-259.180	-144.775	-0.328	-0.030
-258.165	117.704	-0.136	-0.166
-257.151	-200.000	0.053	0.288
-256.136	214.612	-0.025	-0.039
-255.122	-7.211	0.222	0.149
-254.107	-200.000	-0.017	-0.240
-253.092	-3.429	0.157	0.108
-252.078	800.000	0.067	0.193
-251.063	-105.258	0.115	-0.026
-250.049	215.520	-0.024	-0.038
-249.034	-8.238	0.081	-0.054
-248.019	-200.000	-0.003	0.221
-247.005	-81.679	0.157	-0.051
-245.990	-200.000	0.009	-0.345
-244.976	143.443	0.201	-0.265
-243.961	-200.000	0.363	-0.001
-242.946	-158.122	0.098	0.006
-241.932	800.000	0.020	-0.061
-240.917	-200.000	0.040	0.271
-239.903	-70.256	0.099	-0.037
-238.888	-99.877	0.159	-0.039
-237.873	-78.260	-0.321	0.109
-236.859	342.632	-0.080	0.155
-235.844	-126.825	-0.152	0.022
-234.830	-200.000	0.029	0.379
-233.815	-184.832	-0.237	0.004
-232.800	-173.743	0.545	0.016
-231.786	-200.000	-0.005	0.270
-230.771	-113.644	-0.199	-0.039
-229.757	-64.647	-0.067	-0.027
-228.742	-200.000	-0.022	-0.239
-227.727	-200.000	0.070	0.315
-226.713	-200.000	-0.012	0.073
-225.698	15.708	0.227	0.177
-224.684	-25.897	0.187	-0.109
-223.669	-99.766	0.225	0.056
-222.655	-200.000	0.016	0.322
-221.640	-63.137	-0.241	0.099
-220.625	163.474	0.132	-0.183
-219.611	-51.478	0.222	-0.102
-218.596	8.938	-0.311	-0.232
-217.582	17.854	-0.154	0.121
-216.567	-49.342	0.283	-0.134
-215.552	49.979	-0.110	0.103
-214.538	-200.000	-0.014	0.071
-213.523	800.000	-0.055	0.177
-212.509	-154.749	-0.227	0.015
-211.494	-200.000	0.040	-0.373
-210.479	-200.000	0.042	0.251
-209.465	-167.251	-0.407	-0.016
-208.450	-88.122	0.233	-0.069
-207.436	-200.000	-0.047	0.214
-206.421	64.711	0.151	-0.151
-205.406	360.235	-0.113	-0.223
-204.392	0.480	0.096	0.068
-203.377	109.398	0.122	-0.145
-202.363	-200.000	-0.067	-0.294
-201.348	-200.000	0.102	-0.453
-200.333	130.680	0.052	0.066
-199.319	-27.731	-0.170	0.097
-198.304	-43.523	0.084	0.042
-197.290	-13.449	-0.145	0.093
-196.275	125.133	0.127	0.158
-195.260	293.628	0.021	0.038
-194.246	-194.592	-0.102	0.001
-193.231	-49.167	-0.172	0.081
-192.217	-147.907	0.318	-0.026
-191.202	88.776	-0.097	-0.107
-190.187	27.420	-0.167	-0.139
-189.173	149.108	0.081	0.108
-188.158	318.024	-0.152	0.285
-187.144	-12.678	-0.127	0.082
-186.129	-76.513	-0.150	0.052
-185.114	-200.000	-0.013	0.249
-184.100	-137.848	-0.042	0.005
-183.085	-6.535	0.130	-0.087
-182.071	27.683	0.348	0.289
-181.056	-163.611	-0.156	0.007
-180.042	45.756	-0.055	-0.050
-179.027	-166.206	-0.095	-0.004
-178.012	157.637	-0.138	-0.188
-176.998	800.000	-0.021	-0.058
-175.983	118.141	-0.117	0.142
-174.969	-69.256	-0.273	0.104
-173.954	800.000	-0.099	0.318
-172.939	-200.000	-0.011	-0.216
-171.925	-125.798	0.232	0.035
-170.910	498.877	-0.072	-0.164
-169.896	-168.444	0.170	0.006
-168.881	731.410	0.047	0.124
-167.866	363.678	0.145	0.288
-166.852	6.857	-0.092	-0.068
-165.837	52.062	0.240	0.226
-164.823	-185.038	0.362	-0.006
-163.808	33.868	0.170	-0.146
-162.793	358.151	-0.077	0.152
-161.779	32.685	-0.257	-0.219
-160.764	180.043	0.261	0.378
-159.750	58.095	-0.260	-0.252
-158.735	-104.290	-0.393	-0.090
-157.720	144.171	0.054	-0.071
-156.706	-200.000	0.007	0.130
-155.691	158.345	-0.162	-0.222
-154.677	-30.659	0.091	0.051
-153.662	-137.408	0.203	0.023
-152.647	593.929	0.117	-0.287
-151.633	800.000	-0.065	-0.208
-150.618	-61.092	0.147	0.061
-149.604	-200.000	0.022	0.259
-148.589	-20.790	-0.193	0.117
-147.574	-200.000	-0.003	0.129
-146.560	-29.188	0.167	0.095
-145.545	69.198	-0.147	-0.149
-144.531	-163.010	-0.077	-0.004
-143.516	-97.284	0.166	0.043
-142.502	540.072	0.068	0.159
-141.487	-200.000	-0.383	-0.001
-140.472	-110.827	0.522	-0.106
-139.458	-166.354	0.091	0.004
-138.443	-73.897	-0.107	0.038
-137.429	58.081	-0.155	-0.150
-136.414	800.000	-0.064	-0.179
-135.399	151.808	-0.129	-0.173
-134.385	97.761	-0.051	-0.058
-133.370	-52.248	0.506	0.231
-132.356	303.487	0.159	0.291
-131.341	-75.261	-0.093	0.033
-130.326	43.236	0.073	-0.066
-129.312	-197.983	-0.092	-0.001
-128.297	-93.628	0.193	0.053
-127.283	-59.992	-0.072	-0.030
-126.268	-45.961	0.234	0.114
-125.253	800.000	0.075	-0.239
-124.239	505.107	-0.150	0.343
-123.224	-18.262	-0.168	0.103
-122.210	104.058	0.201	-0.233
-121.195	253.100	0.146	-0.246
