DTS Sentinel unit serial number:	SN413079Multiplexer serial number:	ORYXHardware model number:	OX4-SRSoftware version number:	ORYX F/W v4.00 Oryx Data Collector v3.7.2.0data status	okinstallation	princeton_trtdifferential loss correction	single-endedforward channel	channel 3reverse channel	N/Adate	2019/09/14time	09:00:35forward acquisition time	60.00reverse acquisition time	0.00gamma	496.2192k internal	0.2324k external	0.2324temperature offset calibration	1.0057default loss term (dB/km)	0.3790temperature slope calibration	1.0000multiplexer offset coefficient	1.0000multiplexer slope coefficient	1.0000fibre end	0.00T internal ref (°C)	29.91T ext. ref 1 (°C)	3.73T ext. ref 2 (°C)	28.26length (m)	temperature (°C)	Stokes	anti-Stokes-747.200	65.910	0.089	-0.091
-746.185	328.378	-0.046	-0.089
-745.171	-40.991	0.051	-0.027
-744.156	581.561	0.175	0.432
-743.142	194.215	-0.157	0.241
-742.127	-46.466	-0.302	-0.149
-741.112	13.242	-0.087	0.068
-740.098	468.409	-0.097	0.219
-739.083	-73.303	-0.158	0.058
-738.069	49.856	-0.082	-0.078
-737.054	56.941	-0.154	-0.152
-736.039	56.667	-0.217	0.213
-735.025	-66.327	0.280	-0.112
-734.010	203.204	-0.132	-0.207
-732.996	-24.336	-0.224	-0.135
-731.981	123.083	0.073	-0.092
-730.966	-77.763	-0.396	0.138
-729.952	-200.000	0.037	-0.194
-728.937	483.434	-0.112	0.257
-727.923	342.347	0.083	0.165
-726.908	-200.000	0.005	-0.025
-725.894	456.644	-0.225	-0.503
-724.879	800.000	0.090	0.252
-723.864	320.323	-0.162	0.309
-722.850	485.084	-0.072	-0.165
-721.835	-92.223	0.355	-0.101
-720.821	4.698	0.107	-0.079
-719.806	800.000	-0.083	-0.245
-718.791	800.000	0.061	-0.195
-717.777	-200.000	0.026	0.197
-716.762	-11.836	-0.208	-0.138
-715.748	-200.000	0.011	-0.062
-714.733	474.308	0.177	0.403
-713.718	-200.000	0.024	-0.268
-712.704	4.652	0.208	-0.154
-711.689	-28.420	-0.220	0.128
-710.675	11.659	0.037	0.029
-709.660	328.720	0.093	0.180
-708.645	-84.432	0.194	0.062
-707.631	-70.884	0.104	0.039
-706.616	-200.000	-0.034	-0.192
-705.602	92.521	-0.147	0.167
-704.587	76.583	0.204	0.218
-703.572	-131.730	-0.208	-0.027
-702.558	-90.196	0.142	-0.041
-701.543	12.544	0.242	-0.188
-700.529	134.741	0.026	0.034
-699.514	-164.234	0.125	-0.006
-698.499	-45.698	0.043	-0.021
-697.485	535.556	-0.085	-0.203
-696.470	93.272	-0.064	-0.073
-695.456	800.000	0.022	0.069
-694.441	-142.393	0.257	0.026
-693.426	-94.329	0.264	0.073
-692.412	17.955	-0.141	-0.113
-691.397	800.000	-0.029	0.115
-690.383	626.836	0.070	-0.177
-689.368	-200.000	-0.013	-0.364
-688.354	800.000	-0.086	-0.278
-687.339	-200.000	-0.012	-0.056
-686.324	800.000	0.138	-0.438
-685.310	-41.189	-0.092	-0.048
-684.295	-17.150	0.203	0.129
-683.281	-200.000	0.013	0.100
-682.266	800.000	0.045	-0.155
-681.251	11.837	-0.137	-0.106
-680.237	17.615	-0.161	-0.129
-679.222	-200.000	-0.055	0.300
-678.208	800.000	0.129	-0.373
-677.193	-200.000	-0.046	0.321
-676.178	800.000	0.059	0.191
-675.164	-56.205	0.069	-0.031
-674.149	-200.000	-0.023	-0.178
-673.135	-0.370	0.141	-0.101
-672.120	-15.330	-0.088	-0.056
-671.105	800.000	-0.137	-0.554
-670.091	-181.392	-0.074	-0.001
-669.076	-200.000	-0.076	-0.390
-668.062	133.547	0.139	0.181
-667.047	-200.000	0.011	0.145
-666.032	800.000	-0.010	0.037
-665.018	800.000	0.102	0.316
-664.003	324.611	0.239	0.459
-662.989	-155.476	-0.260	0.017
-661.974	169.689	0.141	0.203
-660.959	231.243	0.101	-0.166
-659.945	-32.595	-0.110	0.061
-658.930	-96.859	-0.032	0.008
-657.916	365.808	0.149	-0.301
-656.901	-200.000	-0.029	0.215
-655.886	-200.000	-0.006	0.311
-654.872	238.092	0.240	0.402
-653.857	-29.918	-0.123	-0.071
-652.843	-15.889	0.321	-0.206
-651.828	-56.823	0.101	0.045
-650.814	-141.838	0.131	-0.013
-649.799	132.563	-0.196	-0.254
-648.784	-180.161	-0.397	0.008
-647.770	800.000	-0.084	-0.279
-646.755	800.000	0.067	-0.235
-645.741	91.259	-0.233	-0.263
-644.726	243.277	-0.130	-0.218
-643.711	-200.000	-0.034	-0.214
-642.697	-108.770	0.422	-0.091
-641.682	-105.650	0.178	0.041
-640.668	647.607	0.072	0.185
-639.653	-50.059	0.144	-0.069
-638.638	-123.845	-0.133	0.021
-637.624	57.255	0.159	0.156
-636.609	-97.940	-0.217	-0.056
-635.595	-200.000	-0.002	0.061
-634.580	150.606	-0.125	-0.171
-633.565	118.808	0.124	-0.154
-632.551	-108.358	0.212	-0.046
-631.536	-200.000	-0.010	0.084
-630.522	19.281	-0.184	0.149
-629.507	-200.000	0.007	-0.214
-628.492	201.008	-0.177	-0.274
-627.478	-131.945	-0.079	0.010
-626.463	-3.235	0.338	0.237
-625.449	-149.690	0.138	-0.011
-624.434	-200.000	-0.031	0.183
-623.419	-200.000	0.032	-0.158
-622.405	60.413	-0.165	0.164
-621.390	800.000	-0.085	0.247
-620.376	-160.205	-0.028	-0.002
-619.361	-41.748	-0.294	-0.151
-618.346	-77.446	0.290	-0.101
-617.332	403.190	0.148	-0.312
-616.317	-37.660	0.065	-0.035
-615.303	-96.474	-0.180	-0.048
-614.288	-126.778	-0.008	-0.001
-613.273	651.257	0.045	-0.116
-612.259	-200.000	-0.021	0.206
-611.244	800.000	-0.075	-0.265
-610.230	-89.590	0.167	-0.049
-609.215	-123.061	0.062	-0.010
-608.201	800.000	0.046	-0.186
-607.186	-136.317	0.382	-0.045
-606.171	-62.006	-0.032	0.013
-605.157	800.000	0.068	-0.260
-604.142	-178.687	0.310	-0.007
-603.128	28.075	-0.078	0.066
-602.113	-12.682	-0.104	0.068
-601.098	800.000	-0.063	0.244
-600.084	-79.429	-0.262	-0.089
-599.069	85.865	0.104	-0.115
-598.055	-175.106	0.478	0.013
-597.040	81.725	-0.025	-0.027
-596.025	-200.000	0.052	-0.371
-595.011	246.865	0.076	0.129
-593.996	68.638	-0.076	-0.078
-592.982	275.602	-0.115	0.205
-591.967	-75.261	-0.146	0.052
-590.952	-28.106	0.109	0.063
-589.938	-115.132	-0.340	-0.065
-588.923	800.000	0.044	0.123
-587.909	800.000	-0.025	0.090
-586.894	187.494	0.112	0.168
-585.879	-42.944	-0.142	0.072
-584.865	98.922	-0.083	-0.096
-583.850	-92.433	0.150	-0.042
-582.836	172.611	-0.126	0.181
-581.821	-37.305	-0.098	0.052
-580.806	30.496	-0.152	0.130
-579.792	26.831	0.172	-0.144
-578.777	-10.868	0.213	-0.141
-577.763	21.358	-0.103	0.084
-576.748	126.944	-0.160	-0.203
-575.733	-200.000	0.020	0.281
-574.719	-200.000	-0.050	0.415
-573.704	-167.815	-0.194	0.008
-572.690	258.529	0.169	0.292
-571.675	44.613	-0.248	-0.228
-570.661	-200.000	-0.085	0.435
-569.646	-200.000	-0.093	0.511
-568.631	-17.412	-0.425	-0.268
-567.617	-200.000	0.009	-0.170
-566.602	-200.000	0.004	-0.095
-565.588	730.480	-0.055	0.148
-564.573	-142.533	0.270	-0.027
-563.558	693.381	0.078	-0.206
-562.544	29.011	-0.285	0.242
-561.529	-112.119	0.183	0.037
-560.515	-132.194	-0.240	-0.031
-559.500	145.680	-0.105	-0.141
-558.485	-65.333	0.128	-0.052
-557.471	47.106	-0.063	-0.059
-556.456	-15.470	-0.327	0.210
-555.442	28.043	0.094	-0.079
-554.427	-12.965	0.301	0.196
-553.412	-200.000	-0.022	-0.110
-552.398	800.000	-0.074	-0.236
-551.383	211.347	0.175	0.275
-550.369	-200.000	0.015	-0.117
-549.354	-146.910	0.124	-0.011
-548.339	-200.000	0.002	0.339
-547.325	-145.120	-0.399	0.036
-546.310	-151.676	-0.185	0.014
-545.296	55.196	0.129	-0.125
-544.281	95.122	-0.179	-0.204
-543.266	-98.087	0.133	-0.034
-542.252	-65.055	0.202	-0.082
-541.237	31.912	0.032	-0.028
-540.223	113.424	0.149	0.181
-539.208	800.000	-0.036	-0.106
-538.193	-25.399	0.124	0.073
-537.179	-133.969	0.006	0.001
-536.164	-87.201	0.075	0.023
-535.150	374.662	0.152	0.310
-534.135	286.832	-0.018	-0.032
-533.121	-115.187	0.139	-0.026
-532.106	-200.000	-0.011	0.166
-531.091	72.362	0.067	-0.069
-530.077	-151.812	-0.021	0.002
-529.062	-47.070	-0.131	0.064
-528.048	-195.341	-0.063	0.000
-527.033	-153.814	0.164	0.011
-526.018	6.724	-0.231	-0.172
-525.004	-81.463	-0.369	-0.121
-523.989	185.939	-0.105	0.156
-522.975	436.142	0.152	0.330
-521.960	-65.749	0.314	0.126
-520.945	-47.879	0.254	-0.123
-519.931	800.000	0.048	0.135
-518.916	-71.867	-0.294	-0.110
-517.902	-38.069	-0.276	-0.147
-516.887	34.996	-0.140	0.123
-515.872	-159.577	-0.293	-0.016
-514.858	169.170	0.077	-0.110
-513.843	45.322	0.055	-0.051
-512.829	-200.000	-0.063	0.388
-511.814	-65.869	-0.365	-0.146
-510.799	7.415	0.172	-0.128
-509.785	498.948	-0.048	-0.111
-508.770	-128.749	0.317	-0.045
-507.756	-46.575	0.149	0.073
-506.741	126.115	-0.319	0.403
-505.726	-63.493	-0.201	-0.083
-504.712	161.162	-0.377	-0.526
-503.697	800.000	0.167	-0.521
-502.683	737.116	-0.086	-0.231
-501.668	800.000	0.062	-0.237
-500.653	-41.688	-0.333	-0.171
-499.639	800.000	0.047	0.159
-498.624	-55.235	-0.257	0.115
-497.610	-6.183	0.200	0.137
-496.595	44.528	-0.184	0.169
-495.581	-200.000	-0.010	-0.150
-494.566	196.108	0.074	0.113
-493.551	800.000	-0.093	0.263
-492.537	-0.780	-0.139	0.099
-491.522	-135.107	-0.291	0.035
-490.508	18.990	0.103	0.082
-489.493	569.599	0.095	0.230
-488.478	32.292	-0.165	0.143
-487.464	-81.682	0.230	0.076
-486.449	1.717	-0.010	-0.007
-485.435	-169.171	0.135	-0.005
-484.420	273.898	0.077	-0.136
-483.405	415.752	-0.169	0.361
-482.391	29.243	-0.048	0.041
-481.376	154.874	0.082	-0.112
-480.362	99.288	0.224	-0.259
-479.347	800.000	-0.042	-0.147
-478.332	504.862	-0.042	0.098
-477.318	-123.020	-0.220	-0.035
-476.303	-200.000	-0.002	0.019
-475.289	4.424	-0.250	0.183
-474.274	625.633	0.040	0.100
-473.259	-200.000	0.005	0.132
-472.245	432.878	-0.063	-0.137
-471.230	200.074	0.048	-0.073
-470.216	58.859	0.029	-0.029
-469.201	454.505	0.094	0.208
-468.186	314.939	0.112	-0.211
-467.172	-15.878	0.041	-0.026
-466.157	26.946	-0.265	0.222
-465.143	800.000	-0.077	-0.239
-464.128	-200.000	-0.036	-0.240
-463.113	319.193	-0.083	0.158
-462.099	-101.613	-0.029	0.007
-461.084	-44.268	-0.085	-0.043
-460.070	27.598	0.089	-0.074
-459.055	745.729	0.035	-0.095
-458.040	-59.326	0.300	-0.129
-457.026	163.154	-0.274	-0.384
-456.011	-35.341	0.288	0.156
-454.997	127.871	-0.101	-0.129
-453.982	800.000	-0.126	0.366
-452.968	800.000	-0.020	-0.062
-451.953	45.302	-0.064	0.059
-450.938	345.171	0.129	0.253
-449.924	-92.808	-0.159	-0.044
-448.909	-200.000	0.018	-0.319
-447.895	57.546	0.093	-0.090
-446.880	-97.925	0.292	0.075
-445.865	800.000	-0.058	-0.249
-444.851	-160.626	0.143	0.008
-443.836	438.718	-0.109	0.238
-442.822	-200.000	0.013	0.317
-441.807	-119.263	-0.193	0.033
-440.792	-200.000	0.067	0.365
-439.778	6.833	0.122	0.091
-438.763	-186.251	-0.268	0.004
-437.749	19.082	-0.095	0.076
-436.734	141.282	0.185	0.244
-435.719	-6.363	-0.059	0.040
-434.705	74.790	0.234	-0.245
-433.690	-19.136	-0.187	-0.116
-432.676	-69.401	-0.106	-0.040
-431.661	153.221	-0.037	0.050
-430.646	541.876	-0.097	0.231
-429.632	474.752	-0.031	0.070
-428.617	-200.000	-0.039	0.333
-427.603	99.657	-0.149	0.172
-426.588	-80.718	0.338	-0.112
-425.573	-160.313	-0.143	0.008
-424.559	-97.294	0.187	0.049
-423.544	337.664	-0.157	0.304
-422.530	52.681	-0.088	-0.084
-421.515	22.365	-0.046	0.037
-420.500	-93.457	0.125	-0.035
-419.486	102.124	-0.105	0.122
-418.471	221.601	0.170	0.273
-417.457	-19.346	-0.205	0.127
-416.442	-200.000	-0.029	0.184
-415.428	305.313	0.213	-0.395
-414.413	87.771	0.069	-0.076
-413.398	-11.493	-0.160	0.105
-412.384	-33.552	0.215	-0.118
-411.369	88.890	0.173	0.192
-410.355	-39.564	-0.223	0.116
-409.340	-95.918	0.287	-0.076
-408.325	645.204	-0.023	0.057
-407.311	-26.473	-0.405	0.236
-406.296	-110.893	-0.231	-0.047
-405.282	-102.835	0.080	-0.019
-404.267	800.000	0.094	0.263
-403.252	-71.207	0.213	-0.080
-402.238	377.452	0.079	0.160
-401.223	272.147	-0.082	0.145
-400.209	122.132	-0.203	-0.252
-399.194	800.000	-0.074	-0.306
-398.179	192.446	0.210	0.315
-397.165	-200.000	-0.001	0.032
-396.150	-200.000	-0.035	0.186
-395.136	191.481	0.138	-0.207
-394.121	-66.298	0.257	-0.102
-393.106	-35.980	0.131	-0.070
-392.092	-10.239	-0.280	-0.185
-391.077	-122.279	0.128	-0.021
-390.063	97.896	0.049	0.057
-389.048	-200.000	-0.043	-0.245
-388.033	596.555	0.097	-0.240
-387.019	-200.000	-0.016	0.144
-386.004	-41.384	-0.101	0.052
-384.990	331.130	0.047	0.090
-383.975	-137.558	-0.278	0.031
-382.960	223.849	0.041	-0.066
-381.946	-200.000	0.023	0.115
-380.931	800.000	-0.077	-0.278
-379.917	49.151	0.047	0.044
-378.902	23.423	0.383	-0.313
-377.888	-200.000	0.030	0.176
-376.873	-30.999	0.201	-0.113
-375.858	128.711	-0.084	-0.107
-374.844	-58.810	0.225	0.097
-373.829	-89.868	-0.383	-0.111
-372.815	91.107	-0.121	0.135
-371.800	230.182	0.072	0.118
-370.785	-144.861	-0.215	0.020
-369.771	-54.346	-0.386	0.174
-368.756	-58.135	0.297	0.129
-367.742	110.637	0.180	-0.215
-366.727	-176.665	-0.182	-0.005
-365.712	-200.000	-0.017	-0.172
-364.698	-125.605	-0.299	-0.045
-363.683	-113.184	0.299	-0.059
-362.669	-120.116	0.253	0.043
-361.654	-66.282	-0.204	-0.081
-360.639	335.439	-0.149	0.286
-359.625	-34.991	-0.357	-0.193
-358.610	36.509	0.085	0.074
-357.596	299.276	-0.110	-0.201
-356.581	144.498	0.146	-0.194
-355.566	150.018	0.184	-0.247
-354.552	9.491	0.358	-0.270
-353.537	-138.540	0.161	-0.018
-352.523	26.762	0.182	0.151
-351.508	-21.111	0.087	0.053
-350.493	115.398	0.060	-0.073
-349.479	580.314	0.053	-0.130
-348.464	119.815	0.093	0.115
-347.450	15.622	0.208	0.162
-346.435	-200.000	0.033	-0.426
-345.420	-161.112	0.086	0.004
-344.406	378.150	0.044	-0.089
-343.391	-75.098	0.103	-0.036
-342.377	66.589	0.118	-0.120
-341.362	60.048	-0.107	0.105
-340.348	800.000	-0.060	-0.260
-339.333	-4.297	0.136	-0.094
-338.318	-100.295	-0.316	0.078
-337.304	235.154	-0.106	-0.174
-336.289	-200.000	0.034	-0.199
-335.275	-57.461	-0.289	0.126
-334.260	-92.479	-0.243	-0.068
-333.245	161.734	-0.171	-0.238
-332.231	800.000	-0.034	0.124
-331.216	800.000	0.042	-0.153
-330.202	134.003	-0.174	0.224
-329.187	-165.716	-0.229	0.010
-328.172	800.000	-0.013	-0.040
-327.158	-123.243	0.220	-0.035
-326.143	-88.509	0.186	0.055
-325.129	-200.000	-0.007	0.229
-324.114	-59.590	0.105	0.045
-323.099	-200.000	-0.023	0.177
-322.085	800.000	0.053	-0.149
-321.070	335.092	0.089	-0.171
-320.056	142.449	-0.213	0.281
-319.041	-158.406	-0.126	-0.007
-318.026	800.000	-0.057	0.194
-317.012	-70.837	-0.180	-0.067
-315.997	-164.057	0.347	0.016
-314.983	800.000	-0.064	-0.224
-313.968	-70.684	-0.254	-0.095
-312.953	-200.000	-0.022	0.146
-311.939	800.000	0.072	-0.300
-310.924	-200.000	-0.006	-0.469
-309.910	743.538	0.135	-0.361
-308.895	-146.295	-0.237	-0.021
-307.880	-200.000	0.011	0.230
-306.866	-126.614	-0.073	-0.011
-305.851	120.926	0.151	0.187
-304.837	154.758	-0.151	-0.206
-303.822	-41.510	0.407	-0.207
-302.807	-59.229	0.070	0.030
-301.793	-156.943	-0.188	-0.011
-300.778	-155.918	0.125	0.008
-299.764	73.226	-0.191	-0.198
-298.749	-90.394	0.288	0.083
-297.735	-200.000	0.033	0.219
-296.720	371.690	-0.030	0.060
-295.705	-71.929	0.533	0.197
-294.691	-102.273	0.010	-0.002
-293.676	-200.000	-0.010	-0.077
-292.662	-200.000	-0.030	0.129
-291.647	-116.146	-0.032	0.006
-290.632	800.000	-0.039	0.121
-289.618	-17.582	-0.242	-0.151
-288.603	230.245	-0.111	0.179
-287.589	-129.494	0.081	0.011
-286.574	127.702	0.233	0.294
-285.559	-125.248	-0.206	-0.031
-284.545	139.474	0.168	0.219
-283.530	-112.793	0.299	0.059
-282.516	-82.525	0.401	0.129
-281.501	-23.433	0.248	-0.148
-280.486	18.263	0.056	-0.044
-279.472	-50.372	-0.076	-0.036
-278.457	-46.854	0.087	-0.042
-277.443	78.315	-0.203	0.215
-276.428	7.263	0.017	0.012
-275.413	800.000	-0.070	-0.212
-274.399	-44.775	0.071	0.035
-273.384	181.494	-0.212	-0.309
-272.370	-200.000	-0.045	0.207
-271.355	-62.807	-0.253	-0.104
-270.340	-80.349	0.325	0.108
-269.326	-200.000	-0.026	-0.114
-268.311	-150.918	0.275	-0.021
-267.297	-123.666	0.158	-0.025
-266.282	-67.289	0.193	-0.075
-265.267	193.398	-0.168	0.252
-264.253	800.000	0.087	-0.342
-263.238	800.000	0.054	-0.183
-262.224	-68.574	0.350	0.134
-261.209	-92.459	0.257	0.072
-260.195	-200.000	-0.007	0.126
-259.180	11.735	-0.211	-0.160
-258.165	-154.456	0.152	-0.010
-257.151	-41.883	0.397	0.202
-256.136	3.405	-0.207	-0.149
-255.122	-91.063	0.015	0.004
-254.107	-19.158	-0.224	0.138
-253.092	395.406	-0.174	0.359
-252.078	74.256	-0.152	0.158
-251.063	94.663	-0.107	0.121
-250.049	11.187	-0.134	0.101
-249.034	-180.507	-0.209	0.004
-248.019	-20.453	0.106	-0.064
-247.005	-39.239	0.160	0.083
-245.990	122.490	0.273	0.337
-244.976	51.143	0.228	0.214
-243.961	370.340	-0.095	0.191
-242.946	93.937	-0.111	0.125
-241.932	154.115	-0.064	0.087
-240.917	459.145	0.071	0.155
-239.903	-200.000	-0.028	0.399
-238.888	-80.670	-0.533	0.175
-237.873	55.474	0.295	-0.282
-236.859	-128.683	-0.315	0.044
-235.844	-200.000	0.014	-0.375
-234.830	800.000	-0.029	-0.111
-233.815	705.151	0.091	-0.237
-232.800	-77.435	-0.149	-0.051
-231.786	-64.054	0.176	0.071
-230.771	800.000	-0.120	-0.336
-229.757	800.000	-0.091	-0.390
-228.742	286.449	-0.156	-0.278
-227.727	-42.378	-0.054	-0.027
-226.713	-200.000	-0.064	-0.304
-225.698	0.442	-0.243	-0.172
-224.684	15.926	0.221	0.172
-223.669	22.214	-0.230	0.186
-222.655	0.588	0.283	-0.200
-221.640	-200.000	0.034	-0.207
-220.625	-75.252	0.110	0.039
-219.611	800.000	-0.033	-0.104
-218.596	-85.272	0.281	0.087
-217.582	29.593	0.112	0.094
-216.567	800.000	0.109	-0.366
-215.552	-200.000	0.038	0.298
-214.538	22.404	-0.030	-0.024
-213.523	-200.000	0.071	-0.310
-212.509	6.264	-0.085	0.063
-211.494	-129.031	0.086	-0.012
-210.479	-121.883	0.268	0.044
-209.465	-77.542	0.025	-0.009
-208.450	-12.335	0.267	0.172
-207.436	137.227	-0.047	0.060
-206.421	470.982	-0.170	-0.378
-205.406	-166.308	0.085	-0.004
-204.392	121.145	-0.140	0.173
-203.377	-132.777	-0.289	-0.036
-202.363	-200.000	0.012	-0.107
-201.348	544.120	0.081	0.192
-200.333	-24.379	0.369	0.217
-199.319	-43.762	-0.175	-0.087
-198.304	800.000	0.118	0.387
-197.290	-67.199	-0.147	-0.057
-196.275	-11.410	-0.095	0.062
-195.260	43.481	-0.137	-0.123
-194.246	-94.293	0.377	-0.102
-193.231	47.218	-0.193	-0.177
-192.217	378.596	0.203	0.411
-191.202	800.000	0.077	0.304
-190.187	73.968	-0.188	0.194
-189.173	-180.851	-0.199	-0.004
-188.158	-4.133	0.195	-0.133
-187.144	-200.000	-0.054	0.350
-186.129	800.000	0.053	0.174
-185.114	-87.554	-0.074	0.022
-184.100	-37.508	-0.239	-0.126
-183.085	97.480	0.323	-0.366
-182.071	342.952	0.010	-0.019
-181.056	30.293	-0.277	-0.234
-180.042	26.352	0.076	0.063
-179.027	-127.752	0.229	0.033
-178.012	440.180	-0.082	0.178
-176.998	38.326	-0.073	-0.064
-175.983	-105.041	0.100	0.023
-174.969	303.540	0.075	0.137
-173.954	53.917	-0.085	0.080
-172.939	800.000	-0.069	-0.192
-171.925	100.889	-0.194	-0.223
-170.910	243.514	0.064	-0.106
-169.896	-63.975	-0.214	0.086
-168.881	460.452	0.198	0.435
-167.866	112.156	0.054	-0.065
-166.852	-200.000	0.006	0.180
-165.837	800.000	-0.128	0.378
-164.823	-20.871	0.243	-0.147
-163.808	112.780	0.133	-0.159
-162.793	-19.452	-0.289	0.177
-161.779	160.119	-0.085	0.117
-160.764	132.934	-0.082	-0.104
-159.750	138.721	-0.207	0.269
-158.735	-200.000	0.002	-0.089
-157.720	29.782	0.140	-0.117
-156.706	82.970	0.181	-0.195
-155.691	168.948	0.183	0.257
-154.677	33.381	0.198	-0.169
-153.662	800.000	0.052	-0.184
-152.647	-1.823	0.147	-0.102
-151.633	106.121	0.173	-0.203
-150.618	800.000	0.066	-0.196
-149.604	-14.584	-0.280	0.177
-148.589	91.423	0.230	-0.255
-147.574	355.610	0.051	0.099
-146.560	-200.000	0.019	0.106
-145.545	39.419	0.118	-0.104
-144.531	67.119	-0.178	0.179
-143.516	6.123	0.162	0.119
-142.502	84.471	-0.203	-0.219
-141.487	3.187	-0.153	0.110
-140.472	12.901	-0.296	-0.225
-139.458	104.738	-0.204	-0.237
-138.443	54.668	-0.163	-0.155
-137.429	432.940	0.113	-0.241
-136.414	18.560	-0.166	-0.131
-135.399	800.000	-0.053	-0.203
-134.385	289.151	0.096	-0.172
-133.370	800.000	-0.031	-0.099
-132.356	-68.806	0.368	0.140
-131.341	-200.000	0.015	-0.370
-130.326	-97.927	0.137	0.035
-129.312	800.000	-0.028	-0.118
-128.297	27.092	-0.108	0.089
-127.283	109.253	-0.260	0.307
-126.268	54.375	-0.056	-0.053
-125.253	246.799	-0.079	-0.131
-124.239	800.000	-0.030	-0.087
-123.224	-98.048	0.124	0.031
-122.210	-3.087	-0.120	0.082
-121.195	19.025	-0.094	-0.075
-120.180	-200.000	-0.006	-0.080
