DTS Sentinel unit serial number:	SN413079Multiplexer serial number:	ORYXHardware model number:	OX4-SRSoftware version number:	ORYX F/W v4.00 Oryx Data Collector v3.7.2.0data status	okinstallation	princeton_trtdifferential loss correction	single-endedforward channel	channel 3reverse channel	N/Adate	2019/09/14time	07:32:34forward acquisition time	60.00reverse acquisition time	0.00gamma	496.2192k internal	0.2340k external	0.2340temperature offset calibration	1.0052default loss term (dB/km)	0.3790temperature slope calibration	1.0000multiplexer offset coefficient	1.0000multiplexer slope coefficient	1.0000fibre end	0.00T internal ref (°C)	26.23T ext. ref 1 (°C)	3.49T ext. ref 2 (°C)	21.24length (m)	temperature (°C)	Stokes	anti-Stokes-747.200	162.365	-0.308	-0.433
-746.185	15.210	0.113	0.089
-745.171	70.790	0.197	-0.205
-744.156	134.720	-0.106	-0.138
-743.142	60.450	-0.098	0.097
-742.127	-200.000	0.015	-0.163
-741.112	231.617	-0.251	-0.413
-740.098	103.819	-0.055	0.065
-739.083	83.204	0.070	0.077
-738.069	800.000	0.023	-0.075
-737.054	643.625	-0.037	-0.095
-736.039	-65.842	-0.424	0.170
-735.025	126.817	0.268	0.340
-734.010	-188.483	-0.223	-0.003
-732.996	3.526	-0.415	-0.303
-731.981	-10.099	-0.049	0.033
-730.966	800.000	-0.037	-0.104
-729.952	800.000	-0.015	-0.044
-728.937	-166.508	-0.150	-0.006
-727.923	-200.000	0.034	0.167
-726.908	-174.447	-0.195	0.006
-725.894	49.820	-0.139	0.132
-724.879	-200.000	-0.035	-0.221
-723.864	72.990	-0.220	-0.231
-722.850	800.000	0.049	0.143
-721.835	-113.841	0.121	0.024
-720.821	800.000	0.071	-0.201
-719.806	-96.954	0.320	0.084
-718.791	800.000	0.053	0.191
-717.777	800.000	0.046	0.172
-716.762	-175.938	0.210	0.006
-715.748	-200.000	-0.014	-0.073
-714.733	97.298	0.072	0.082
-713.718	54.476	0.190	0.183
-712.704	-23.233	0.300	-0.181
-711.689	-200.000	-0.016	0.244
-710.675	-200.000	-0.070	-0.443
-709.660	-200.000	-0.092	-0.485
-708.645	-91.251	0.201	-0.058
-707.631	-165.517	-0.186	-0.008
-706.616	128.063	0.162	-0.207
-705.602	-11.193	-0.080	-0.052
-704.587	-145.921	-0.084	-0.007
-703.572	615.522	0.018	-0.046
-702.558	-46.946	0.245	0.120
-701.543	-49.194	0.280	-0.134
-700.529	-26.258	0.093	0.055
-699.514	36.034	0.131	-0.116
-698.499	84.547	-0.290	-0.318
-697.485	-200.000	0.023	-0.121
-696.470	19.571	0.285	-0.230
-695.456	155.634	-0.035	0.048
-694.441	196.054	0.166	0.252
-693.426	-200.000	0.084	0.406
-692.412	7.616	-0.054	0.040
-691.397	-85.223	-0.323	-0.101
-690.383	-28.419	-0.088	-0.051
-689.368	562.713	0.040	0.096
-688.354	-114.330	0.084	0.016
-687.339	-30.349	-0.229	-0.130
-686.324	235.005	-0.126	0.207
-685.310	45.436	0.102	0.094
-684.295	47.437	0.174	-0.162
-683.281	147.458	0.089	0.120
-682.266	-109.109	0.281	0.060
-681.251	-96.844	0.067	0.018
-680.237	800.000	-0.063	-0.189
-679.222	72.126	-0.121	-0.126
-678.208	272.634	-0.072	0.127
-677.193	-200.000	-0.004	0.288
-676.178	-88.901	0.268	-0.080
-675.164	-140.095	-0.280	-0.029
-674.149	312.822	-0.070	0.132
-673.135	273.163	-0.168	0.297
-672.120	-200.000	-0.045	0.218
-671.105	-46.396	-0.230	-0.113
-670.091	-200.000	-0.016	-0.222
-669.076	-30.835	-0.080	0.045
-668.062	-200.000	-0.019	-0.115
-667.047	16.918	0.083	-0.066
-666.032	269.255	0.072	-0.126
-665.018	561.348	-0.036	-0.086
-664.003	-15.176	0.041	0.027
-662.989	-118.216	-0.232	-0.041
-661.974	2.744	-0.165	0.120
-660.959	-142.263	-0.057	0.006
-659.945	-65.807	-0.218	-0.087
-658.930	36.820	-0.158	0.139
-657.916	171.690	-0.241	-0.346
-656.901	-55.972	0.260	0.116
-655.886	-200.000	-0.026	0.250
-654.872	718.591	-0.036	0.096
-653.857	255.839	-0.180	-0.308
-652.843	86.335	0.162	0.178
-651.828	72.796	-0.056	0.058
-650.814	43.921	-0.284	0.260
-649.799	235.552	0.120	-0.198
-648.784	-101.976	-0.450	-0.109
-647.770	213.753	0.122	-0.193
-646.755	161.157	0.022	-0.031
-645.741	60.161	0.128	0.126
-644.726	-200.000	-0.264	-0.001
-643.711	-149.432	0.269	0.021
-642.697	800.000	0.051	0.160
-641.682	-130.454	-0.438	-0.059
-640.668	25.921	0.210	0.175
-639.653	527.151	-0.051	0.120
-638.638	80.129	0.015	0.016
-637.624	-115.772	0.273	-0.051
-636.609	-95.378	0.156	-0.042
-635.595	-200.000	0.053	-0.312
-634.580	-123.950	0.296	-0.047
-633.565	-51.170	-0.210	0.098
-632.551	-175.576	0.372	-0.010
-631.536	-200.000	0.020	-0.118
-630.522	-82.011	-0.149	0.049
-629.507	109.342	0.027	-0.033
-628.492	-50.731	-0.194	0.091
-627.478	-28.626	0.099	0.057
-626.463	78.199	0.160	0.170
-625.449	-87.987	-0.509	0.153
-624.434	136.506	0.097	0.127
-623.419	59.686	0.084	0.082
-622.405	95.826	-0.026	0.029
-621.390	68.893	0.189	-0.194
-620.376	-96.458	-0.242	-0.064
-619.361	523.328	0.066	0.154
-618.346	73.204	-0.055	0.057
-617.332	140.669	-0.267	-0.351
-616.317	-0.463	-0.221	-0.157
-615.303	-200.000	0.049	0.234
-614.288	-131.997	-0.179	0.023
-613.273	-55.404	0.163	-0.073
-612.259	-30.652	0.127	-0.072
-611.244	-200.000	-0.020	0.122
-610.230	57.196	-0.100	0.097
-609.215	800.000	-0.002	-0.006
-608.201	-30.765	-0.440	0.248
-607.186	-157.687	-0.309	0.018
-606.171	-200.000	-0.013	-0.206
-605.157	43.482	0.070	0.064
-604.142	690.850	-0.046	-0.121
-603.128	322.126	0.075	-0.143
-602.113	-200.000	0.021	0.307
-601.098	110.076	0.061	-0.073
-600.084	290.716	-0.087	-0.158
-599.069	453.411	-0.080	0.177
-598.055	-16.678	0.306	-0.193
-597.040	127.979	-0.149	-0.189
-596.025	-192.560	0.339	0.003
-595.011	-21.201	0.187	0.114
-593.996	-200.000	-0.016	0.122
-592.982	-193.988	-0.211	0.002
-591.967	62.131	0.155	-0.154
-590.952	-30.978	-0.132	0.074
-589.938	-97.476	0.016	0.004
-588.923	230.302	0.029	-0.047
-587.909	-170.221	0.218	-0.008
-586.894	107.091	0.083	0.099
-585.879	-200.000	0.007	0.241
-584.865	-200.000	0.011	0.175
-583.850	235.530	0.225	-0.371
-582.836	395.611	-0.098	-0.203
-581.821	270.022	-0.072	-0.126
-580.806	116.662	0.227	0.277
-579.792	-36.706	-0.152	0.081
-578.777	-69.841	0.055	-0.021
-577.763	-28.036	-0.152	0.088
-576.748	-48.520	0.053	0.025
-575.733	-200.000	-0.038	-0.183
-574.719	-14.029	-0.197	0.127
-573.704	-92.218	-0.144	-0.041
-572.690	524.672	-0.057	-0.135
-571.675	-200.000	-0.026	0.247
-570.661	158.635	0.185	0.256
-569.646	235.574	-0.167	-0.276
-568.631	-30.051	0.185	0.105
-567.617	-118.073	-0.200	-0.036
-566.602	800.000	0.057	-0.201
-565.588	-78.896	-0.308	0.105
-564.573	385.118	0.039	0.080
-563.558	-83.333	0.351	-0.112
-562.544	370.627	-0.069	0.140
-561.529	-200.000	-0.043	-0.315
-560.515	-200.000	-0.003	-0.255
-559.500	328.275	0.164	-0.313
-558.485	3.294	0.044	0.032
-557.471	-86.460	-0.212	-0.065
-556.456	-67.899	-0.087	-0.034
-555.442	106.280	-0.285	0.336
-554.427	-128.385	-0.149	-0.021
-553.412	-128.800	-0.126	0.018
-552.398	-200.000	0.033	-0.196
-551.383	-58.778	-0.137	-0.059
-550.369	-200.000	0.004	0.088
-549.354	-125.372	0.055	-0.008
-548.339	-200.000	0.019	0.289
-547.325	22.373	0.389	-0.317
-546.310	800.000	-0.057	-0.222
-545.296	-34.347	0.359	0.196
-544.281	-7.590	-0.091	-0.061
-543.266	-44.834	-0.279	0.138
-542.252	-96.358	0.409	0.108
-541.237	-78.491	-0.097	-0.033
-540.223	-158.057	0.076	0.004
-539.208	-200.000	-0.014	0.257
-538.193	81.787	-0.240	-0.259
-537.179	-143.774	-0.241	-0.023
-536.164	129.142	-0.053	-0.068
-535.150	-24.064	0.385	-0.229
-534.135	11.122	-0.161	-0.122
-533.121	-159.799	-0.079	0.004
-532.106	-128.579	0.266	-0.037
-531.091	-113.163	0.027	-0.005
-530.077	1.258	-0.364	0.260
-529.062	62.101	-0.290	-0.288
-528.048	159.190	-0.086	-0.118
-527.033	162.702	-0.135	-0.189
-526.018	567.622	0.045	0.110
-525.004	-159.239	0.234	0.013
-523.989	96.000	-0.163	-0.186
-522.975	109.228	0.227	-0.270
-521.960	143.576	0.125	0.165
-520.945	-125.040	0.163	0.025
-519.931	-115.629	0.462	0.086
-518.916	-123.684	-0.293	0.046
-517.902	-46.631	0.011	-0.006
-516.887	-110.527	0.254	0.052
-515.872	368.713	-0.059	-0.119
-514.858	113.129	-0.203	-0.245
-513.843	131.392	-0.041	0.053
-512.829	-148.722	0.334	-0.027
-511.814	51.142	-0.143	-0.135
-510.799	-58.081	-0.236	-0.102
-509.785	121.295	0.208	0.258
-508.770	-137.529	0.469	-0.053
-507.756	153.219	-0.043	0.059
-506.741	267.922	0.081	0.141
-505.726	130.917	-0.175	-0.223
-504.712	-137.770	-0.573	0.064
-503.697	800.000	-0.055	-0.220
-502.683	587.918	0.009	0.023
-501.668	81.374	-0.049	0.052
-500.653	-51.445	-0.562	-0.261
-499.639	-97.510	-0.187	0.048
-498.624	311.461	0.045	-0.084
-497.610	75.435	-0.208	-0.218
-496.595	-0.446	0.248	0.175
-495.581	-109.479	0.249	-0.052
-494.566	800.000	-0.103	-0.321
-493.551	-200.000	-0.009	-0.338
-492.537	-13.368	-0.120	0.078
-491.522	502.790	-0.119	0.273
-490.508	-200.000	-0.012	0.070
-489.493	0.789	0.123	-0.087
-488.478	-22.818	-0.105	0.063
-487.464	188.557	0.122	-0.182
-486.449	800.000	-0.049	0.143
-485.435	53.864	-0.293	-0.279
-484.420	39.620	0.184	0.164
-483.405	800.000	0.090	0.371
-482.391	800.000	-0.092	0.283
-481.376	196.447	-0.112	-0.169
-480.362	800.000	-0.147	-0.461
-479.347	45.058	0.115	0.105
-478.332	-86.741	0.130	0.039
-477.318	-158.888	0.338	0.019
-476.303	-40.055	0.173	0.090
-475.289	-15.313	0.207	0.131
-474.274	-103.567	0.336	-0.078
-473.259	5.070	0.079	-0.058
-472.245	800.000	-0.028	-0.086
-471.230	-116.020	-0.631	0.117
-470.216	-77.511	-0.098	0.034
-469.201	-76.041	-0.097	-0.034
-468.186	166.573	-0.058	-0.081
-467.172	-111.355	-0.280	-0.057
-466.157	89.356	0.154	-0.171
-465.143	119.693	-0.176	-0.216
-464.128	-163.101	-0.106	0.005
-463.113	-36.247	-0.368	-0.197
-462.099	158.467	0.202	-0.278
-461.084	-63.146	-0.211	-0.086
-460.070	-200.000	0.010	-0.350
-459.055	-54.879	-0.200	-0.090
-458.040	143.774	0.184	-0.243
-457.026	-120.575	0.086	-0.014
-456.011	2.299	-0.190	-0.137
-454.997	-110.461	0.246	0.051
-453.982	-106.734	-0.401	0.088
-452.968	-17.997	-0.279	-0.174
-451.953	-2.541	0.305	-0.211
-450.938	-172.331	0.243	0.008
-449.924	428.455	-0.029	0.063
-448.909	-173.414	-0.402	-0.012
-447.895	800.000	-0.071	0.202
-446.880	-200.000	0.011	-0.190
-445.865	219.983	-0.120	-0.191
-444.851	-39.387	0.154	0.080
-443.836	-143.682	-0.091	-0.009
-442.822	800.000	0.168	0.483
-441.807	35.322	-0.248	0.216
-440.792	-111.109	0.224	0.045
-439.778	267.960	-0.103	0.178
-438.763	153.706	0.138	0.187
-437.749	-45.641	-0.188	0.092
-436.734	354.167	-0.133	0.261
-435.719	577.267	0.095	0.230
-434.705	135.330	-0.151	0.195
-433.690	-200.000	0.039	0.295
-432.676	800.000	0.092	-0.292
-431.661	89.716	-0.067	-0.074
-430.646	-79.791	-0.033	-0.011
-429.632	467.787	0.052	0.115
-428.617	188.953	0.077	0.114
-427.603	92.398	-0.229	0.256
-426.588	-200.000	-0.041	-0.216
-425.573	34.978	-0.189	-0.164
-424.559	-200.000	0.004	0.061
-423.544	95.376	-0.050	-0.057
-422.530	-73.514	-0.091	0.033
-421.515	-36.200	-0.274	0.147
-420.500	115.132	-0.084	-0.101
-419.486	745.716	0.013	0.035
-418.471	69.445	-0.133	0.135
-417.457	548.410	0.086	-0.203
-416.442	-24.085	0.177	-0.104
-415.428	140.579	0.169	0.220
-414.413	-75.583	0.168	-0.059
-413.398	800.000	-0.044	-0.153
-412.384	529.680	0.021	-0.050
-411.369	275.721	0.205	0.360
-410.355	-200.000	-0.031	0.293
-409.340	-200.000	0.040	-0.235
-408.325	-122.024	-0.410	-0.067
-407.311	-111.427	-0.213	0.043
-406.296	-116.597	0.200	-0.037
-405.282	355.820	-0.052	-0.102
-404.267	-0.074	-0.174	-0.123
-403.252	153.455	-0.147	-0.199
-402.238	-28.336	0.230	-0.132
-401.223	93.762	0.242	0.271
-400.209	-200.000	-0.003	0.265
-399.194	73.217	0.117	0.121
-398.179	261.111	-0.051	-0.086
-397.165	339.912	-0.120	0.232
-396.150	800.000	0.082	0.316
-395.136	119.152	0.128	0.156
-394.121	-200.000	0.025	-0.120
-393.106	19.251	-0.207	-0.164
-392.092	-57.664	-0.201	0.087
-391.077	-49.935	0.029	-0.014
-390.063	413.340	-0.051	0.107
-389.048	121.657	-0.147	-0.181
-388.033	-45.564	0.057	-0.028
-387.019	-200.000	0.017	-0.172
-386.004	-86.785	0.170	-0.051
-384.990	582.615	0.073	-0.177
-383.975	27.422	0.039	0.033
-382.960	-168.934	0.560	-0.021
-381.946	160.502	-0.192	0.264
-380.931	-45.373	-0.189	-0.093
-379.917	-200.000	-0.033	-0.164
-378.902	128.170	0.073	0.091
-377.888	-151.214	0.155	-0.011
-376.873	177.487	0.129	0.186
-375.858	42.678	-0.119	-0.107
-374.844	-132.834	0.498	0.063
-373.829	228.192	-0.179	0.288
-372.815	-200.000	-0.024	0.142
-371.800	91.874	0.177	0.196
-370.785	-9.585	-0.037	-0.024
-369.771	-200.000	-0.058	-0.390
-368.756	319.030	-0.201	-0.377
-367.742	551.951	-0.133	0.316
-366.727	800.000	0.086	0.272
-365.712	800.000	0.094	-0.297
-364.698	-132.844	0.319	0.040
-363.683	1.190	0.147	0.104
-362.669	253.394	-0.053	-0.090
-361.654	-200.000	-0.054	0.267
-360.639	-200.000	-0.002	-0.421
-359.625	-197.917	0.170	0.001
-358.610	7.525	0.039	0.029
-357.596	-200.000	-0.006	0.082
-356.581	517.881	0.045	-0.105
-355.566	-41.591	0.214	-0.108
-354.552	-43.642	-0.327	0.163
-353.537	-88.648	-0.240	0.070
-352.523	712.772	0.101	0.265
-351.508	800.000	-0.038	-0.153
-350.493	-200.000	-0.007	0.177
-349.479	45.992	0.153	0.139
-348.464	29.991	-0.141	-0.119
-347.450	-20.324	-0.142	0.087
-346.435	-200.000	0.019	0.135
-345.420	-31.341	0.217	-0.121
-344.406	257.047	0.134	0.228
-343.391	800.000	0.015	0.048
-342.377	-121.684	-0.227	0.037
-341.362	11.208	0.067	-0.051
-340.348	800.000	0.080	-0.239
-339.333	308.828	0.068	0.126
-338.318	-200.000	-0.052	0.306
-337.304	-161.495	0.120	-0.006
-336.289	-1.857	-0.188	0.131
-335.275	-167.641	-0.060	0.002
-334.260	114.730	0.129	-0.155
-333.245	800.000	-0.071	0.220
-332.231	196.763	0.115	-0.173
-331.216	230.067	-0.105	0.169
-330.202	-200.000	0.011	-0.056
-329.187	52.562	0.102	0.096
-328.172	-200.000	0.010	0.231
-327.158	92.692	0.138	-0.154
-326.143	800.000	-0.062	0.234
-325.129	153.118	-0.098	0.132
-324.114	800.000	-0.112	0.358
-323.099	-99.127	0.363	-0.090
-322.085	800.000	0.125	0.343
-321.070	800.000	0.153	0.482
-320.056	-105.210	-0.041	0.009
-319.041	-89.609	0.207	-0.060
-318.026	-90.593	0.060	0.017
-317.012	-200.000	0.007	0.068
-315.997	-45.855	-0.110	-0.054
-314.983	88.087	0.325	-0.356
-313.968	547.604	0.080	0.189
-312.953	-33.145	-0.204	-0.111
-311.939	138.051	0.162	-0.209
-310.924	-43.216	0.345	-0.172
-309.910	800.000	-0.074	-0.294
-308.895	-200.000	0.031	-0.190
-307.880	-82.494	-0.320	-0.102
-306.866	-104.745	0.332	-0.075
-305.851	-200.000	-0.015	0.116
-304.837	111.788	-0.073	0.087
-303.822	15.977	0.462	-0.359
-302.807	271.629	0.053	-0.093
-301.793	24.303	0.232	0.189
-300.778	11.071	0.298	0.224
-299.764	800.000	0.054	-0.183
-298.749	366.999	0.107	0.214
-297.735	-107.241	-0.189	-0.041
-296.720	-56.313	-0.102	0.044
-295.705	800.000	0.105	-0.317
-294.691	-125.579	-0.157	0.024
-293.676	-135.937	0.086	0.010
-292.662	-200.000	0.041	-0.197
-291.647	-60.851	-0.111	0.046
-290.632	-106.188	0.227	-0.050
-289.618	343.812	0.148	-0.286
-288.603	-200.000	-0.006	0.538
-287.589	-53.404	-0.141	0.064
-286.574	-69.056	-0.273	0.104
-285.559	-200.000	0.003	0.013
-284.545	-84.180	-0.186	-0.058
-283.530	-161.512	0.122	-0.006
-282.516	-15.990	-0.126	-0.079
-281.501	-200.000	0.006	0.176
-280.486	4.203	0.193	0.139
-279.472	-200.000	0.040	0.222
-278.457	-115.272	0.151	0.028
-277.443	800.000	-0.075	0.206
-276.428	11.305	-0.174	-0.131
-275.413	13.780	-0.127	0.097
-274.399	190.123	-0.105	0.156
-273.384	109.392	0.192	0.226
-272.370	800.000	-0.128	0.458
-271.355	0.242	-0.221	0.155
-270.340	-156.910	0.169	0.010
-269.326	437.685	0.132	0.283
-268.311	-200.000	0.036	-0.169
-267.297	-89.400	-0.056	-0.016
-266.282	-200.000	0.005	-0.054
-265.267	-118.855	0.153	-0.027
-264.253	-180.943	-0.245	0.005
-263.238	-200.000	0.079	-0.353
-262.224	-200.000	-0.016	-0.224
-261.209	43.913	0.114	0.103
-260.195	218.607	-0.138	-0.217
-259.180	-104.758	0.230	-0.052
-258.165	85.035	0.101	-0.109
-257.151	-140.428	-0.209	0.021
-256.136	17.345	0.126	0.099
-255.122	286.323	-0.133	0.236
-254.107	744.026	0.092	0.243
-253.092	288.192	-0.103	-0.184
-252.078	-200.000	0.051	-0.434
-251.063	560.978	0.065	0.154
-250.049	79.851	-0.318	-0.336
-249.034	-56.051	-0.287	0.126
-248.019	800.000	0.025	-0.104
-247.005	800.000	0.073	-0.278
-245.990	-12.040	0.434	-0.280
-244.976	284.713	-0.059	0.105
-243.961	21.332	-0.152	-0.121
-242.946	26.964	-0.096	0.079
-241.932	55.852	0.107	0.102
-240.917	-52.674	0.145	0.066
-239.903	127.218	0.097	0.121
-238.888	11.502	-0.134	0.101
-237.873	-8.880	0.110	0.072
-236.859	800.000	0.040	-0.135
-235.844	-25.001	-0.087	-0.051
-234.830	-200.000	0.002	-0.360
-233.815	126.364	-0.100	0.125
-232.800	-142.452	0.380	-0.037
-231.786	-38.906	0.047	0.024
-230.771	-16.360	-0.045	0.028
-229.757	-8.388	-0.142	-0.094
-228.742	-54.478	0.220	0.098
-227.727	122.427	-0.191	-0.234
-226.713	-50.701	0.233	-0.108
-225.698	-34.788	0.052	-0.028
-224.684	-26.143	0.199	0.115
-223.669	-200.000	-0.034	-0.361
-222.655	232.480	0.113	-0.183
-221.640	-131.138	-0.126	-0.016
-220.625	800.000	-0.064	-0.226
-219.611	253.705	-0.120	0.202
-218.596	-87.004	0.296	0.089
-217.582	-200.000	-0.002	0.054
-216.567	-160.260	0.229	-0.012
-215.552	453.987	0.092	0.201
-214.538	-58.381	-0.288	-0.123
-213.523	-43.663	-0.186	-0.092
-212.509	-61.799	-0.181	-0.074
-211.494	244.206	-0.086	0.142
-210.479	-200.000	-0.001	-0.019
-209.465	155.182	-0.150	-0.202
-208.450	-71.910	-0.299	-0.109
-207.436	-133.301	0.150	-0.019
-206.421	-200.000	0.021	-0.258
-205.406	-200.000	-0.003	0.272
-204.392	315.188	0.118	-0.219
-203.377	317.704	0.171	0.317
-202.363	224.740	0.116	0.185
-201.348	46.881	-0.178	0.162
-200.333	-41.581	0.093	-0.047
-199.319	-200.000	-0.006	0.210
-198.304	21.504	-0.332	0.265
-197.290	800.000	0.092	0.294
-196.275	-200.000	0.030	-0.167
-195.260	587.884	-0.037	0.089
-194.246	363.617	-0.138	-0.273
-193.231	-24.429	0.323	-0.189
-192.217	286.656	-0.192	0.340
-191.202	800.000	0.032	-0.103
-190.187	480.479	-0.021	0.047
-189.173	143.952	0.274	0.358
-188.158	800.000	-0.076	-0.247
-187.144	800.000	0.100	-0.272
-186.129	-106.204	0.220	-0.048
-185.114	-65.021	-0.249	-0.099
-184.100	800.000	-0.077	0.297
-183.085	87.678	0.016	0.017
-182.071	800.000	0.034	-0.140
-181.056	-116.677	0.199	-0.036
-180.042	-200.000	0.004	0.253
-179.027	42.035	-0.104	0.092
-178.012	-200.000	-0.015	0.268
-176.998	-107.064	-0.161	0.035
-175.983	800.000	-0.066	0.207
-174.969	-22.373	-0.367	-0.218
-173.954	-55.772	0.267	0.117
-172.939	-200.000	0.007	-0.241
-171.925	208.493	0.004	0.006
-170.910	-15.913	0.285	-0.178
-169.896	418.249	-0.066	-0.138
-168.881	800.000	0.116	0.433
-167.866	-48.884	-0.081	0.038
-166.852	88.319	-0.179	-0.194
-165.837	-200.000	-0.039	0.267
-164.823	347.386	-0.081	-0.157
-163.808	-200.000	-0.022	-0.298
-162.793	-12.630	-0.140	-0.090
-161.779	800.000	-0.086	-0.303
-160.764	6.150	-0.201	0.146
-159.750	331.299	0.185	0.349
-158.735	101.847	-0.065	0.075
-157.720	48.340	-0.149	0.137
-156.706	-125.958	0.243	0.036
-155.691	-17.233	0.337	-0.208
-154.677	93.860	0.201	-0.223
-153.662	29.906	0.144	0.120
-152.647	222.860	-0.133	-0.211
-151.633	-200.000	-0.060	0.393
-150.618	-200.000	-0.001	-0.168
-149.604	-39.207	-0.235	-0.121
-148.589	-88.883	-0.169	-0.049
-147.574	-200.000	0.029	0.307
-146.560	689.545	0.108	0.277
-145.545	-15.647	0.200	0.125
-144.531	-200.000	-0.058	0.302
-143.516	-200.000	-0.007	0.091
-142.502	-88.081	0.012	-0.004
-141.487	-12.006	0.268	0.172
-140.472	43.778	-0.092	-0.083
-139.458	-200.000	-0.046	-0.420
-138.443	671.772	-0.093	0.236
-137.429	-200.000	0.006	0.335
-136.414	139.358	0.083	0.107
-135.399	45.922	-0.172	0.156
-134.385	764.208	-0.059	-0.158
-133.370	-20.615	0.190	0.114
-132.356	-29.034	0.120	0.067
-131.341	223.894	0.071	0.112
-130.326	784.833	0.138	0.370
-129.312	-200.000	-0.055	0.316
-128.297	-200.000	-0.061	-0.338
-127.283	94.652	0.020	-0.022
-126.268	-35.385	-0.201	0.107
-125.253	416.245	0.094	0.195
-124.239	-118.886	-0.288	0.050
-123.224	518.364	0.107	-0.244
-122.210	150.796	-0.205	-0.272
-121.195	-127.522	-0.259	0.037
